DTS Sentinel unit serial number:	SN413079Multiplexer serial number:	ORYXHardware model number:	OX4-SRSoftware version number:	ORYX F/W v4.00 Oryx Data Collector v3.7.2.0data status	okinstallation	princeton_trtdifferential loss correction	single-endedforward channel	channel 3reverse channel	N/Adate	2019/09/13time	17:24:34forward acquisition time	60.00reverse acquisition time	0.00gamma	496.2192k internal	0.2295k external	0.2295temperature offset calibration	1.0126default loss term (dB/km)	0.3790temperature slope calibration	1.0000multiplexer offset coefficient	1.0000multiplexer slope coefficient	1.0000fibre end	0.00T internal ref (°C)	36.12T ext. ref 1 (°C)	4.77T ext. ref 2 (°C)	31.34length (m)	temperature (°C)	Stokes	anti-Stokes-747.200	-200.000	-0.047	0.308
-746.185	124.564	-0.187	-0.241
-745.171	468.688	0.060	-0.138
-744.156	307.672	0.310	0.592
-743.142	800.000	0.040	-0.159
-742.127	-200.000	-0.039	-0.225
-741.112	279.410	-0.125	0.228
-740.098	-75.262	0.237	-0.087
-739.083	-86.849	0.247	-0.077
-738.069	-120.224	0.288	0.050
-737.054	-114.136	0.068	0.013
-736.039	800.000	0.035	0.148
-735.025	-32.160	0.239	-0.136
-734.010	4.857	-0.578	-0.434
-732.996	-200.000	0.022	-0.231
-731.981	-136.972	-0.152	0.018
-730.966	371.806	0.137	-0.285
-729.952	-71.921	-0.071	0.027
-728.937	7.986	-0.090	-0.069
-727.923	-140.465	-0.307	-0.033
-726.908	-200.000	-0.059	-0.460
-725.894	128.600	0.258	-0.336
-724.879	-89.810	-0.334	-0.100
-723.864	-21.578	0.346	-0.216
-722.850	167.836	-0.127	-0.185
-721.835	27.283	-0.401	-0.344
-720.821	581.066	0.082	0.206
-719.806	-67.804	-0.056	0.022
-718.791	-6.304	-0.042	0.029
-717.777	800.000	0.029	-0.089
-716.762	264.842	0.116	-0.206
-715.748	-15.753	-0.178	-0.116
-714.733	-200.000	-0.023	-0.125
-713.718	-84.838	-0.350	0.112
-712.704	800.000	0.061	0.191
-711.689	337.484	-0.046	0.092
-710.675	180.602	0.111	-0.166
-709.660	77.168	0.125	0.135
-708.645	25.220	0.173	-0.147
-707.631	588.740	-0.082	-0.206
-706.616	-137.111	0.149	-0.017
-705.602	-37.668	0.062	-0.034
-704.587	-176.503	-0.271	0.007
-703.572	-200.000	-0.047	-0.234
-702.558	-83.960	0.088	0.029
-701.543	-114.068	-0.156	-0.031
-700.529	-46.176	0.011	0.006
-699.514	203.883	-0.166	-0.262
-698.499	-200.000	0.014	-0.384
-697.485	93.953	-0.128	-0.148
-696.470	-200.000	0.031	-0.154
-695.456	70.108	-0.189	-0.199
-694.441	523.807	0.096	0.230
-693.426	-200.000	0.046	-0.443
-692.412	-200.000	-0.052	0.334
-691.397	800.000	0.054	0.201
-690.383	43.648	-0.151	0.141
-689.368	16.744	0.202	-0.163
-688.354	12.665	0.241	-0.189
-687.339	40.349	0.185	0.170
-686.324	-200.000	-0.005	0.082
-685.310	122.651	-0.143	0.182
-684.295	11.193	0.096	0.075
-683.281	-162.073	0.259	0.013
-682.266	63.046	-0.111	0.113
-681.251	8.403	0.219	-0.168
-680.237	-200.000	0.059	-0.347
-679.222	-54.057	-0.316	-0.147
-678.208	-54.008	-0.073	0.034
-677.193	405.870	-0.100	-0.216
-676.178	132.040	0.179	-0.235
-675.164	-200.000	0.021	0.115
-674.149	-167.238	-0.316	-0.013
-673.135	78.881	0.113	0.123
-672.120	175.541	-0.100	-0.147
-671.105	-28.257	-0.168	0.099
-670.091	676.755	-0.186	-0.491
-669.076	-200.000	0.080	-0.402
-668.062	-132.403	-0.159	0.021
-667.047	-111.713	0.181	0.037
-666.032	104.094	-0.079	-0.095
-665.018	-115.003	0.227	-0.044
-664.003	800.000	-0.047	0.151
-662.989	489.577	0.146	0.341
-661.974	-200.000	0.003	-0.071
-660.959	303.974	0.138	-0.261
-659.945	800.000	-0.041	0.151
-658.930	331.095	-0.072	0.142
-657.916	-200.000	-0.061	0.280
-656.901	-8.106	-0.095	-0.065
-655.886	-28.369	0.072	-0.042
-654.872	-108.389	0.326	-0.072
-653.857	-200.000	0.007	-0.209
-652.843	30.127	-0.336	-0.292
-651.828	160.199	0.135	0.192
-650.814	293.221	-0.086	-0.159
-649.799	-31.896	-0.214	-0.122
-648.784	360.625	-0.046	0.094
-647.770	31.112	0.067	-0.058
-646.755	-0.116	-0.268	-0.194
-645.741	50.893	-0.430	-0.415
-644.726	-91.066	-0.506	-0.148
-643.711	-127.435	0.036	-0.005
-642.697	800.000	-0.087	0.295
-641.682	-131.701	0.312	-0.042
-640.668	800.000	0.066	-0.212
-639.653	-1.724	-0.038	-0.027
-638.638	174.186	0.123	-0.180
-637.624	254.789	-0.012	0.020
-636.609	-2.589	0.230	0.164
-635.595	-200.000	0.064	-0.321
-634.580	-2.460	-0.207	-0.148
-633.565	36.119	0.148	-0.133
-632.551	800.000	-0.020	-0.083
-631.536	800.000	-0.058	0.210
-630.522	-66.227	-0.240	-0.097
-629.507	800.000	-0.122	0.342
-628.492	-29.513	0.250	0.145
-627.478	-16.277	0.331	-0.214
-626.463	-30.256	0.028	-0.016
-625.449	-200.000	0.009	-0.168
-624.434	-117.653	-0.282	0.052
-623.419	-200.000	-0.021	-0.500
-622.405	-200.000	0.045	-0.335
-621.390	271.698	0.141	0.253
-620.376	90.855	-0.169	-0.193
-619.361	-179.849	-0.299	0.007
-618.346	682.107	-0.025	0.066
-617.332	211.161	-0.116	0.185
-616.317	-152.941	0.142	0.010
-615.303	21.078	-0.138	0.113
-614.288	-24.469	-0.127	-0.077
-613.273	166.863	-0.306	-0.441
-612.259	-57.894	-0.492	0.219
-611.244	800.000	-0.093	0.361
-610.230	-112.247	0.073	0.015
-609.215	-200.000	-0.001	0.292
-608.201	162.955	0.220	-0.314
-607.186	-46.935	-0.283	-0.141
-606.171	-150.341	-0.245	-0.019
-605.157	647.493	0.047	0.122
-604.142	-41.957	0.295	-0.154
-603.128	-99.136	0.218	0.056
-602.113	53.839	0.125	-0.122
-601.098	289.930	0.062	0.114
-600.084	-40.557	0.126	-0.066
-599.069	-114.085	0.208	-0.041
-598.055	255.822	-0.122	0.212
-597.040	6.622	-0.085	-0.064
-596.025	617.963	-0.024	0.061
-595.011	96.310	-0.162	-0.189
-593.996	47.539	-0.096	0.091
-592.982	42.142	0.162	0.150
-591.967	800.000	0.030	-0.099
-590.952	198.465	-0.088	0.136
-589.938	-71.233	0.124	0.047
-588.923	-104.154	-0.222	-0.052
-587.909	455.254	0.164	-0.369
-586.894	-200.000	-0.003	-0.040
-585.879	-200.000	0.031	-0.158
-584.865	346.666	-0.155	0.310
-583.850	137.854	0.129	-0.172
-582.836	-122.008	0.178	-0.030
-581.821	113.900	0.146	0.180
-580.806	192.213	0.173	0.265
-579.792	135.415	-0.198	-0.261
-578.777	21.562	-0.255	-0.210
-577.763	21.814	0.053	0.044
-576.748	-177.612	-0.150	-0.004
-575.733	-99.312	-0.232	-0.060
-574.719	-168.436	-0.347	0.014
-573.704	152.775	-0.089	-0.123
-572.690	-200.000	-0.005	0.062
-571.675	-74.519	-0.228	0.084
-570.661	-57.866	0.307	0.136
-569.646	-83.086	0.320	-0.104
-568.631	-67.253	0.268	-0.107
-567.617	-123.444	0.132	0.021
-566.602	-200.000	-0.007	-0.261
-565.588	63.905	-0.210	-0.214
-564.573	16.219	-0.115	-0.092
-563.558	121.397	-0.082	0.104
-562.544	272.755	-0.225	-0.403
-561.529	-17.378	-0.065	-0.041
-560.515	106.176	0.093	-0.112
-559.500	-78.975	-0.286	0.099
-558.485	-200.000	0.005	0.272
-557.471	112.401	-0.194	-0.238
-556.456	412.069	-0.151	-0.325
-555.442	57.234	0.129	0.128
-554.427	382.084	-0.089	0.185
-553.412	-200.000	0.056	0.303
-552.398	-200.000	0.029	-0.254
-551.383	-158.751	0.159	-0.009
-550.369	-40.419	-0.355	-0.187
-549.354	-142.357	-0.125	-0.013
-548.339	501.999	0.063	-0.148
-547.325	420.635	-0.102	0.221
-546.310	171.280	-0.160	-0.232
-545.296	-18.127	0.284	-0.180
-544.281	97.817	0.136	0.158
-543.266	-35.957	-0.291	-0.159
-542.252	-200.000	0.002	0.443
-541.237	-200.000	0.036	0.433
-540.223	-73.398	-0.162	-0.060
-539.208	-8.022	0.282	-0.193
-538.193	33.258	-0.223	-0.196
-537.179	242.542	0.077	-0.131
-536.164	-36.612	-0.134	-0.073
-535.150	-38.104	-0.236	0.127
-534.135	-200.000	0.010	0.361
-533.121	32.910	-0.170	-0.150
-532.106	566.433	-0.041	-0.100
-531.091	0.197	0.178	0.128
-530.077	309.197	-0.038	0.073
-529.062	-200.000	-0.057	-0.282
-528.048	-200.000	-0.004	-0.134
-527.033	-2.164	0.173	-0.123
-526.018	-104.436	0.023	0.005
-525.004	-124.205	-0.311	-0.049
-523.989	123.736	-0.135	0.171
-522.975	-19.588	0.231	0.145
-521.960	260.350	-0.063	0.110
-520.945	335.967	-0.117	-0.231
-519.931	-112.610	-0.148	0.030
-518.916	71.700	0.180	-0.189
-517.902	32.812	-0.136	0.120
-516.887	-200.000	0.042	0.226
-515.872	-155.470	-0.143	0.009
-514.858	-200.000	0.030	0.182
-513.843	26.037	0.085	0.072
-512.829	-133.779	-0.177	0.022
-511.814	123.332	-0.151	-0.192
-510.799	-114.724	-0.290	0.056
-509.785	89.197	-0.145	-0.164
-508.770	-200.000	0.007	-0.170
-507.756	56.432	0.056	-0.055
-506.741	23.392	-0.207	-0.173
-505.726	44.284	0.165	-0.154
-504.712	-79.490	-0.288	-0.098
-503.697	-71.802	-0.244	-0.092
-502.683	180.878	-0.147	-0.219
-501.668	60.421	0.147	-0.147
-500.653	-200.000	0.025	-0.249
-499.639	83.399	-0.190	-0.209
-498.624	134.124	0.360	-0.473
-497.610	562.025	0.043	0.105
-496.595	551.716	-0.037	0.089
-495.581	229.563	0.107	-0.177
-494.566	-108.494	-0.299	0.065
-493.551	-130.410	0.023	-0.003
-492.537	389.521	-0.141	0.295
-491.522	-130.276	-0.279	0.038
-490.508	-75.003	0.187	-0.068
-489.493	800.000	-0.009	0.028
-488.478	-40.740	0.320	-0.168
-487.464	-37.167	0.289	0.156
-486.449	262.735	-0.125	0.220
-485.435	-47.704	0.109	0.054
-484.420	-96.524	-0.054	-0.014
-483.405	745.762	0.074	0.202
-482.391	233.543	-0.198	-0.330
-481.376	-94.616	-0.469	-0.129
-480.362	-89.358	-0.079	0.024
-479.347	-162.097	-0.087	-0.004
-478.332	64.740	-0.303	0.309
-477.318	-42.545	0.442	0.228
-476.303	427.532	-0.127	0.278
-475.289	-127.594	-0.380	-0.056
-474.274	-109.710	-0.184	-0.039
-473.259	560.950	0.047	-0.114
-472.245	-56.512	-0.207	0.093
-471.230	90.980	0.198	0.225
-470.216	-200.000	-0.029	0.378
-469.201	199.752	-0.073	0.113
-468.186	-200.000	-0.012	-0.480
-467.172	790.481	-0.145	0.403
-466.157	101.015	0.203	0.239
-465.143	-200.000	0.034	-0.268
-464.128	-31.086	-0.198	0.113
-463.113	-87.138	-0.166	0.051
-462.099	11.802	-0.179	0.139
-461.084	-43.263	0.150	0.077
-460.070	-29.337	0.143	-0.083
-459.055	-200.000	-0.003	-0.317
-458.040	84.437	0.187	-0.207
-457.026	214.122	0.171	0.274
-456.011	716.654	0.058	0.157
-454.997	-200.000	-0.012	0.057
-453.982	-110.089	0.561	0.118
-452.968	194.658	0.193	-0.296
-451.953	-200.000	-0.013	-0.213
-450.938	124.403	-0.242	-0.307
-449.924	73.858	-0.057	0.060
-448.909	-100.529	-0.364	-0.091
-447.895	-109.012	-0.062	0.013
-446.880	2.348	0.323	-0.236
-445.865	-23.277	0.435	-0.264
-444.851	-98.540	0.388	-0.100
-443.836	800.000	0.035	0.113
-442.822	-59.064	0.194	0.085
-441.807	-107.456	0.205	-0.045
-440.792	51.853	0.095	0.091
-439.778	-102.203	-0.280	-0.068
-438.763	-79.360	0.072	0.024
-437.749	21.151	-0.078	-0.064
-436.734	-200.000	0.033	0.333
-435.719	673.060	0.046	-0.120
-434.705	-45.332	-0.194	0.097
-433.690	147.283	-0.083	-0.113
-432.676	-200.000	0.024	-0.130
-431.661	-113.426	-0.215	-0.042
-430.646	-36.606	0.087	-0.047
-429.632	-132.216	-0.320	-0.042
-428.617	-69.988	0.157	0.060
-427.603	-200.000	0.048	0.424
-426.588	739.702	0.070	0.189
-425.573	19.253	0.253	0.205
-424.559	-200.000	-0.010	0.101
-423.544	-198.988	-0.124	0.001
-422.530	-132.849	0.119	-0.015
-421.515	131.904	0.070	0.090
-420.500	-200.000	0.013	0.171
-419.486	-34.286	-0.217	0.120
-418.471	-200.000	0.017	-0.092
-417.457	53.259	0.084	0.081
-416.442	-194.455	-0.166	0.001
-415.428	-200.000	0.020	-0.228
-414.413	-100.795	0.293	0.073
-413.398	-168.673	-0.505	-0.019
-412.384	-71.976	0.121	-0.045
-411.369	800.000	0.077	-0.257
-410.355	-15.936	0.124	-0.080
-409.340	-119.708	0.018	0.003
-408.325	800.000	-0.035	0.138
-407.311	-133.428	0.393	0.050
-406.296	-101.966	0.066	0.016
-405.282	223.660	-0.063	0.103
-404.267	57.107	-0.156	-0.154
-403.252	578.763	0.049	0.122
-402.238	800.000	0.132	0.476
-401.223	19.159	-0.278	-0.225
-400.209	-102.669	-0.416	0.100
-399.194	256.201	-0.033	-0.057
-398.179	62.692	-0.247	-0.249
-397.165	32.639	0.289	-0.252
-396.150	536.470	0.018	0.043
-395.136	-29.436	0.252	-0.145
-394.121	185.185	0.164	-0.246
-393.106	-200.000	-0.009	-0.057
-392.092	-2.898	-0.292	-0.206
-391.077	137.165	-0.055	0.072
-390.063	-200.000	0.006	0.220
-389.048	-81.667	-0.218	0.072
-388.033	15.079	0.193	0.152
-387.019	-141.970	0.220	-0.022
-386.004	-200.000	0.096	0.463
-384.990	41.243	0.146	0.133
-383.975	-200.000	-0.014	0.185
-382.960	-25.807	0.238	0.141
-381.946	149.857	0.084	0.115
-380.931	-88.274	-0.176	-0.053
-379.917	-52.895	0.185	-0.086
-378.902	-169.982	0.377	-0.014
-377.888	-108.020	0.061	0.013
-376.873	-27.926	-0.236	0.138
-375.858	316.667	-0.059	-0.112
-374.844	-200.000	0.011	-0.057
-373.829	-120.938	0.370	0.063
-372.815	-47.446	0.189	0.093
-371.800	-200.000	0.007	-0.193
-370.785	800.000	0.098	0.283
-369.771	-147.203	0.264	-0.023
-368.756	-158.879	0.128	0.007
-367.742	82.299	0.313	0.342
-366.727	-120.548	-0.243	-0.041
-365.712	49.428	-0.120	-0.113
-364.698	-143.115	0.167	0.016
-363.683	5.661	-0.378	0.281
-362.669	800.000	0.050	-0.163
-361.654	-72.397	0.117	-0.044
-360.639	87.363	0.206	-0.229
-359.625	800.000	-0.074	0.296
-358.610	-3.683	-0.036	-0.025
-357.596	-128.763	0.249	-0.035
-356.581	-61.393	0.253	0.107
-355.566	-200.000	0.036	0.178
-354.552	-123.841	-0.048	0.008
-353.537	49.097	0.054	0.051
-352.523	-42.606	0.142	0.073
-351.508	131.670	-0.099	0.128
-350.493	75.440	0.294	0.312
-349.479	-200.000	0.039	0.220
-348.464	68.541	-0.137	-0.142
-347.450	-84.796	0.145	0.046
-346.435	133.096	-0.133	0.173
-345.420	-200.000	0.000	-0.249
-344.406	-200.000	0.018	0.228
-343.391	-134.413	0.300	0.037
-342.377	99.010	0.164	0.191
-341.362	800.000	-0.134	-0.508
-340.348	800.000	-0.074	-0.272
-339.333	-54.742	-0.232	0.105
-338.318	800.000	0.079	-0.225
-337.304	169.527	-0.163	-0.234
-336.289	-118.240	-0.245	0.044
-335.275	-14.093	0.088	0.057
-334.260	-200.000	0.010	0.239
-333.245	-6.727	-0.124	-0.085
-332.231	-155.374	0.519	-0.034
-331.216	-60.018	0.136	0.059
-330.202	-21.671	0.232	0.142
-329.187	25.792	0.102	-0.086
-328.172	800.000	-0.050	-0.173
-327.158	381.133	0.131	0.271
-326.143	40.362	0.031	-0.028
-325.129	29.835	-0.232	-0.199
-324.114	355.233	0.079	0.158
-323.099	-95.058	-0.072	0.020
-322.085	-103.405	0.218	-0.052
-321.070	217.505	-0.205	0.328
-320.056	-85.215	0.180	0.056
-319.041	163.099	0.099	0.140
-318.026	22.657	-0.140	0.115
-317.012	-200.000	0.044	-0.293
-315.997	-171.756	-0.069	-0.002
-314.983	-103.061	-0.126	-0.030
-313.968	-200.000	0.049	-0.327
-312.953	-102.361	-0.066	0.016
-311.939	-191.183	-0.135	-0.001
-310.924	177.981	-0.056	-0.082
-309.910	165.599	0.143	0.203
-308.895	79.626	0.110	0.119
-307.880	38.793	0.201	0.181
-306.866	-200.000	-0.191	0.001
-305.851	-93.180	-0.239	0.067
-304.837	215.507	-0.031	0.049
-303.822	-72.618	-0.479	-0.177
-302.807	-109.070	0.139	-0.030
-301.793	800.000	0.073	0.216
-300.778	800.000	0.051	0.146
-299.764	-200.000	-0.080	-0.515
-298.749	-90.277	0.190	0.055
-297.735	-140.158	0.346	-0.037
-296.720	279.956	0.116	-0.208
-295.705	-185.470	0.190	0.003
-294.691	-114.912	0.239	0.046
-293.676	-154.652	-0.156	-0.010
-292.662	29.921	-0.308	0.263
-291.647	650.072	-0.128	0.329
-290.632	-76.131	-0.446	-0.158
-289.618	-200.000	-0.023	0.361
-288.603	-128.390	0.332	-0.047
-287.589	300.212	0.156	-0.289
-286.574	-46.028	-0.031	0.015
-285.559	-46.140	0.066	0.033
-284.545	800.000	-0.110	-0.440
-283.530	21.974	-0.217	0.177
-282.516	-48.081	0.221	0.107
-281.501	-74.977	-0.224	0.081
-280.486	7.909	-0.136	-0.102
-279.472	-200.000	0.001	0.152
-278.457	-88.362	-0.039	-0.012
-277.443	-200.000	0.008	0.217
-276.428	-9.316	0.109	-0.073
-275.413	800.000	-0.025	0.099
-274.399	-12.587	0.061	-0.040
-273.384	-53.400	-0.229	0.105
-272.370	-92.052	0.197	0.056
-271.355	800.000	-0.031	-0.118
-270.340	618.941	0.087	0.220
-269.326	-200.000	-0.027	0.258
-268.311	-105.994	0.565	-0.128
-267.297	-200.000	0.016	-0.079
-266.282	-200.000	0.008	0.316
-265.267	800.000	-0.088	0.246
-264.253	-149.004	0.178	-0.014
-263.238	-92.399	0.585	-0.165
-262.224	-200.000	0.021	-0.112
-261.209	800.000	0.032	-0.090
-260.195	60.247	0.071	-0.070
-259.180	-200.000	0.066	-0.334
-258.165	-113.785	-0.062	0.012
-257.151	675.359	-0.041	-0.108
-256.136	229.474	-0.183	-0.299
-255.122	800.000	-0.044	-0.160
-254.107	-81.811	0.162	-0.053
-253.092	800.000	-0.075	0.241
-252.078	-69.816	-0.430	0.165
-251.063	-113.232	0.180	-0.036
-250.049	60.281	-0.273	0.271
-249.034	-137.609	0.295	-0.033
-248.019	-54.227	-0.407	-0.185
-247.005	-33.390	0.232	-0.129
-245.990	277.250	-0.105	0.188
-244.976	800.000	0.021	-0.091
-243.961	-2.913	-0.388	-0.272
-242.946	-54.778	-0.374	-0.169
-241.932	214.977	0.067	0.106
-240.917	-200.000	0.107	0.000
-239.903	38.290	0.249	-0.223
-238.888	82.033	0.102	0.111
-237.873	3.133	-0.214	0.156
-236.859	438.077	0.085	0.185
-235.844	-68.092	0.164	-0.064
-234.830	-81.950	-0.491	0.161
-233.815	91.905	-0.224	-0.253
-232.800	611.193	0.012	0.031
-231.786	-72.343	-0.122	-0.045
-230.771	261.907	-0.051	0.088
-229.757	260.429	0.178	0.308
-228.742	-94.571	-0.085	0.023
-227.727	-30.780	0.127	0.072
-226.713	715.042	0.033	-0.089
-225.698	694.387	-0.057	0.149
-224.684	203.046	0.096	-0.148
-223.669	-68.179	0.204	-0.079
-222.655	97.594	0.194	-0.223
-221.640	79.466	-0.100	0.107
-220.625	-200.000	-0.043	0.303
-219.611	-30.024	-0.136	0.077
-218.596	-200.000	0.005	0.051
-217.582	155.169	0.120	-0.165
-216.567	391.965	0.166	0.345
-215.552	-80.664	-0.080	-0.027
-214.538	-200.000	0.024	0.278
-213.523	71.388	-0.193	0.201
-212.509	-200.000	-0.003	-0.063
-211.494	38.790	-0.242	-0.216
-210.479	-130.499	0.261	0.035
-209.465	54.650	0.255	-0.246
-208.450	-83.126	0.112	0.036
-207.436	800.000	0.063	-0.223
-206.421	126.615	-0.072	-0.092
-205.406	0.209	0.225	0.160
-204.392	-200.000	-0.078	0.350
-203.377	-134.350	0.173	-0.021
-202.363	800.000	0.122	-0.395
-201.348	101.452	-0.093	0.108
-200.333	-200.000	0.038	-0.252
-199.319	-44.130	0.079	0.039
-198.304	-49.846	0.066	0.031
-197.290	-77.444	0.202	-0.070
-196.275	-200.000	0.034	0.228
-195.260	-200.000	0.011	0.110
-194.246	-83.339	0.080	-0.026
-193.231	101.679	0.234	0.273
-192.217	418.776	0.099	0.212
-191.202	312.946	0.153	-0.288
-190.187	-9.561	-0.107	-0.071
-189.173	-45.955	-0.160	-0.079
-188.158	392.985	-0.116	0.242
-187.144	122.346	0.093	-0.117
-186.129	-200.000	-0.029	-0.227
-185.114	-115.797	0.240	0.045
-184.100	-200.000	0.034	0.156
-183.085	-33.958	-0.097	-0.053
-182.071	-73.155	0.169	0.062
-181.056	-93.288	0.120	0.033
-180.042	3.434	0.087	0.063
-179.027	191.108	-0.231	0.347
-178.012	-200.000	0.017	0.124
-176.998	-15.070	0.187	0.120
-175.983	-26.589	-0.083	-0.049
-174.969	220.041	-0.209	-0.335
-173.954	-151.717	-0.191	0.014
-172.939	-200.000	-0.063	0.446
-171.925	-200.000	-0.003	-0.143
-170.910	800.000	-0.044	-0.182
-169.896	-26.600	0.082	0.048
-168.881	216.578	0.119	-0.189
-167.866	-34.921	-0.224	0.122
-166.852	-168.945	0.246	0.009
-165.837	61.533	-0.157	-0.156
-164.823	15.435	0.203	0.159
-163.808	-200.000	-0.044	0.306
-162.793	-40.784	0.146	0.076
-161.779	93.249	0.348	0.394
-160.764	-39.436	0.066	-0.035
-159.750	-59.367	-0.165	-0.071
-158.735	2.448	0.117	-0.084
-157.720	800.000	-0.121	-0.367
-156.706	-16.278	0.097	-0.061
-155.691	-110.677	-0.187	0.038
-154.677	328.146	-0.121	0.232
-153.662	-200.000	-0.006	0.181
-152.647	-200.000	0.037	-0.370
-151.633	91.990	0.183	-0.205
-150.618	787.414	-0.078	-0.214
-149.604	800.000	-0.016	0.050
-148.589	-200.000	-0.019	-0.265
-147.574	-200.000	-0.015	0.367
-146.560	39.592	0.019	0.017
-145.545	-200.000	0.016	0.099
-144.531	226.997	0.159	0.258
-143.516	-14.819	-0.111	-0.071
-142.502	73.144	-0.182	-0.190
-141.487	115.608	-0.119	-0.146
-140.472	-200.000	-0.042	0.198
-139.458	158.193	-0.248	0.343
-138.443	132.175	-0.181	0.232
-137.429	-119.063	0.136	-0.024
-136.414	800.000	-0.079	0.247
-135.399	-17.159	-0.141	-0.089
-134.385	-76.395	0.109	0.038
-133.370	150.931	0.156	0.212
-132.356	-86.237	-0.346	-0.106
-131.341	-19.551	-0.218	-0.135
-130.326	800.000	-0.031	-0.115
-129.312	-60.700	-0.162	0.069
-128.297	-200.000	0.023	0.153
-127.283	50.520	0.150	-0.141
-126.268	-107.111	0.199	-0.044
-125.253	-200.000	-0.014	0.239
-124.239	11.394	0.163	-0.124
-123.224	217.366	-0.078	-0.123
-122.210	79.384	0.090	0.096
-121.195	800.000	-0.107	-0.322
