DTS Sentinel unit serial number:	SN413079Multiplexer serial number:	ORYXHardware model number:	OX4-SRSoftware version number:	ORYX F/W v4.00 Oryx Data Collector v3.7.2.0data status	okinstallation	princeton_trtdifferential loss correction	single-endedforward channel	channel 3reverse channel	N/Adate	2019/09/16time	09:12:34forward acquisition time	60.00reverse acquisition time	0.00gamma	496.2192k internal	0.2323k external	0.2323temperature offset calibration	0.9959default loss term (dB/km)	0.3790temperature slope calibration	1.0000multiplexer offset coefficient	1.0000multiplexer slope coefficient	1.0000fibre end	0.00T internal ref (°C)	30.98T ext. ref 1 (°C)	12.12T ext. ref 2 (°C)	28.31length (m)	temperature (°C)	Stokes	anti-Stokes-747.200	-200.000	0.037	0.289
-746.185	209.588	0.329	0.522
-745.171	594.665	0.116	0.291
-744.156	-200.000	-0.045	0.206
-743.142	-91.969	-0.234	-0.067
-742.127	120.054	-0.137	-0.172
-741.112	169.366	0.123	-0.177
-740.098	800.000	0.148	0.494
-739.083	-200.000	-0.006	0.225
-738.069	-30.421	-0.064	0.037
-737.054	-200.000	0.058	0.358
-736.039	87.668	-0.160	0.179
-735.025	-58.118	0.148	0.065
-734.010	106.591	-0.193	0.232
-732.996	-138.216	-0.222	-0.025
-731.981	-200.000	-0.034	-0.326
-730.966	800.000	0.111	-0.412
-729.952	-165.853	-0.217	0.009
-728.937	202.548	-0.081	0.127
-727.923	34.005	0.199	-0.175
-726.908	800.000	0.010	-0.040
-725.894	800.000	0.050	0.166
-724.879	-200.000	0.040	0.447
-723.864	184.161	0.309	0.462
-722.850	78.054	-0.097	-0.104
-721.835	-200.000	0.039	-0.274
-720.821	146.056	-0.213	-0.288
-719.806	800.000	0.014	0.056
-718.791	-37.643	-0.113	0.061
-717.777	-169.692	-0.359	0.013
-716.762	-91.479	0.198	0.057
-715.748	168.480	0.083	0.119
-714.733	-32.542	0.089	-0.050
-713.718	800.000	-0.012	0.043
-712.704	-24.756	-0.260	-0.156
-711.689	-200.000	0.005	-0.416
-710.675	9.611	-0.069	0.053
-709.660	25.196	-0.167	0.140
-708.645	800.000	0.037	-0.121
-707.631	-77.445	-0.275	-0.096
-706.616	-200.000	0.081	-0.530
-705.602	-184.432	-0.112	0.002
-704.587	-13.652	0.197	0.128
-703.572	27.639	0.178	0.151
-702.558	183.992	0.063	0.094
-701.543	429.720	0.189	-0.413
-700.529	21.195	-0.205	0.167
-699.514	320.531	0.067	-0.128
-698.499	-1.679	0.287	0.204
-697.485	154.392	-0.154	-0.214
-696.470	51.432	-0.252	-0.242
-695.456	-81.781	-0.243	0.080
-694.441	800.000	0.038	0.121
-693.426	112.135	-0.036	-0.044
-692.412	800.000	0.101	-0.334
-691.397	-138.763	0.344	0.038
-690.383	-59.742	0.266	-0.115
-689.368	12.058	0.329	-0.255
-688.354	-149.665	-0.293	-0.023
-687.339	72.317	-0.130	0.136
-686.324	-116.008	-0.192	-0.036
-685.310	-122.601	-0.313	-0.051
-684.295	800.000	-0.040	-0.125
-683.281	-107.132	-0.136	0.030
-682.266	-52.262	-0.173	0.081
-681.251	228.562	-0.134	0.220
-680.237	-84.860	0.216	-0.068
-679.222	-8.011	-0.084	-0.057
-678.208	-134.303	-0.244	0.030
-677.193	-133.462	-0.175	-0.022
-676.178	27.782	0.105	-0.089
-675.164	45.519	-0.212	-0.197
-674.149	800.000	-0.051	-0.152
-673.135	-80.304	0.137	-0.046
-672.120	649.052	0.087	0.223
-671.105	687.684	0.050	-0.133
-670.091	-157.224	-0.286	-0.017
-669.076	-78.925	0.251	-0.086
-668.062	-135.287	-0.083	-0.010
-667.047	669.309	0.053	-0.137
-666.032	-200.000	-0.025	-0.139
-665.018	-59.498	-0.110	-0.048
-664.003	-120.010	-0.103	-0.018
-662.989	800.000	0.052	-0.151
-661.974	188.927	-0.066	-0.100
-660.959	-82.738	-0.306	0.100
-659.945	351.063	0.103	0.205
-658.930	168.264	0.271	0.389
-657.916	11.312	-0.166	-0.128
-656.901	375.032	-0.055	0.114
-655.886	-200.000	-0.047	-0.242
-654.872	-200.000	-0.013	-0.380
-653.857	-200.000	-0.027	0.217
-652.843	800.000	-0.078	-0.222
-651.828	-127.225	0.176	0.026
-650.814	-63.662	-0.339	-0.140
-649.799	-83.501	0.431	-0.139
-648.784	-63.795	-0.294	-0.121
-647.770	-31.987	0.269	-0.152
-646.755	-88.418	0.235	0.071
-645.741	786.786	-0.180	-0.498
-644.726	19.443	0.039	-0.032
-643.711	-200.000	0.071	0.371
-642.697	800.000	0.044	-0.127
-641.682	-47.943	0.155	0.076
-640.668	117.440	-0.089	0.110
-639.653	11.997	-0.087	0.067
-638.638	-200.000	-0.002	0.464
-637.624	-31.172	-0.037	0.021
-636.609	370.720	0.033	0.067
-635.595	800.000	0.072	0.249
-634.580	-115.418	-0.193	-0.037
-633.565	-118.177	-0.059	-0.011
-632.551	82.525	-0.111	-0.122
-631.536	385.689	0.122	0.253
-630.522	-108.485	0.274	-0.059
-629.507	-93.015	0.178	0.050
-628.492	-200.000	-0.001	-0.367
-627.478	178.936	-0.158	0.232
-626.463	254.295	0.184	0.316
-625.449	158.700	0.139	-0.193
-624.434	29.346	-0.159	-0.135
-623.419	-200.000	0.032	0.284
-622.405	-172.374	0.266	0.009
-621.390	257.268	0.066	-0.113
-620.376	24.702	-0.239	0.199
-619.361	-200.000	-0.006	0.197
-618.346	800.000	-0.004	0.012
-617.332	-154.621	-0.182	0.012
-616.317	-21.405	0.311	-0.191
-615.303	800.000	0.117	-0.374
-614.288	-82.655	-0.505	0.164
-613.273	-47.918	0.327	-0.159
-612.259	222.190	0.077	0.125
-611.244	113.723	0.239	-0.292
-610.230	-163.893	0.169	0.008
-609.215	411.998	-0.026	-0.056
-608.201	77.200	-0.205	0.219
-607.186	-72.029	0.117	-0.044
-606.171	-99.220	-0.094	-0.024
-605.157	-18.094	0.127	-0.080
-604.142	-200.000	0.027	-0.154
-603.128	147.915	-0.132	-0.179
-602.113	534.621	-0.030	-0.073
-601.098	-11.085	-0.193	0.128
-600.084	-200.000	0.020	0.271
-599.069	-65.503	-0.299	0.121
-598.055	42.578	0.225	-0.206
-597.040	32.717	-0.182	-0.158
-596.025	-200.000	0.011	-0.067
-595.011	-200.000	-0.021	-0.108
-593.996	36.190	0.087	0.077
-592.982	-85.598	0.033	0.010
-591.967	-47.315	0.183	0.089
-590.952	215.737	0.059	-0.094
-589.938	29.685	-0.302	0.258
-588.923	-83.230	-0.265	-0.086
-587.909	-104.428	0.305	0.071
-586.894	-35.427	0.266	-0.145
-585.879	-190.562	-0.091	-0.001
-584.865	-121.225	-0.212	0.035
-583.850	-200.000	-0.019	-0.171
-582.836	-200.000	0.007	0.033
-581.821	-86.800	-0.123	0.038
-580.806	-81.423	-0.131	0.043
-579.792	-200.000	-0.002	-0.139
-578.777	360.959	0.053	-0.106
-577.763	-1.674	-0.317	0.224
-576.748	-75.267	-0.097	0.035
-575.733	138.284	0.121	-0.159
-574.719	-85.272	-0.224	0.070
-573.704	-200.000	0.013	-0.096
-572.690	-200.000	0.026	-0.186
-571.675	-91.825	-0.164	-0.047
-570.661	-200.000	0.010	-0.043
-569.646	4.897	-0.238	0.176
-568.631	-114.015	-0.135	-0.026
-567.617	-200.000	0.020	0.178
-566.602	59.097	-0.185	0.183
-565.588	800.000	0.033	0.126
-564.573	-70.834	-0.209	0.079
-563.558	-63.210	0.259	-0.107
-562.544	-200.000	-0.018	0.151
-561.529	132.650	0.079	-0.103
-560.515	343.644	-0.165	-0.325
-559.500	337.062	0.122	0.237
-558.485	-22.533	-0.158	-0.096
-557.471	-126.658	-0.275	0.041
-556.456	249.947	0.097	0.164
-555.442	146.373	-0.237	-0.319
-554.427	128.309	-0.128	-0.163
-553.412	91.430	-0.136	-0.153
-552.398	-200.000	-0.011	0.242
-551.383	40.741	0.324	0.293
-550.369	278.562	0.164	-0.292
-549.354	-156.777	0.090	0.006
-548.339	-43.341	-0.164	0.083
-547.325	437.649	0.056	0.122
-546.310	93.269	-0.115	0.131
-545.296	-120.130	0.170	-0.029
-544.281	573.830	-0.112	0.274
-543.266	60.545	0.175	-0.174
-542.252	-200.000	-0.002	-0.255
-541.237	328.338	0.094	-0.181
-540.223	19.440	0.202	-0.163
-539.208	-48.680	0.275	-0.132
-538.193	42.184	-0.061	0.056
-537.179	367.961	-0.087	-0.176
-536.164	-200.000	0.006	-0.099
-535.150	179.255	-0.169	0.248
-534.135	89.193	0.226	0.252
-533.121	318.733	-0.132	0.251
-532.106	413.458	-0.316	0.673
-531.091	-200.000	0.054	-0.287
-530.077	-66.254	0.237	-0.094
-529.062	59.952	-0.129	0.127
-528.048	800.000	0.092	0.265
-527.033	-129.036	-0.044	-0.006
-526.018	-200.000	0.015	0.259
-525.004	175.246	-0.271	0.393
-523.989	-168.972	-0.224	-0.008
-522.975	-200.000	-0.001	0.221
-521.960	-200.000	-0.015	0.220
-520.945	-97.451	-0.157	0.041
-519.931	800.000	-0.066	0.218
-518.916	-108.904	-0.076	0.016
-517.902	-25.375	-0.309	-0.183
-516.887	-9.937	-0.123	0.082
-515.872	28.602	-0.166	0.141
-514.858	62.809	0.125	-0.126
-513.843	800.000	0.028	0.087
-512.829	-134.644	0.251	-0.031
-511.814	-200.000	0.066	-0.561
-510.799	-200.000	0.006	0.146
-509.785	430.367	0.059	0.129
-508.770	20.777	0.156	-0.126
-507.756	-123.167	-0.172	-0.028
-506.741	-151.403	0.214	-0.016
-505.726	-70.376	-0.093	0.035
-504.712	-200.000	0.007	-0.124
-503.697	-142.139	0.271	0.027
-502.683	59.931	0.088	0.087
-501.668	-200.000	-0.019	-0.134
-500.653	-26.896	0.221	0.129
-499.639	-126.942	-0.059	0.009
-498.624	800.000	0.025	-0.097
-497.610	-58.741	-0.119	0.051
-496.595	-124.655	0.225	-0.035
-495.581	-114.858	-0.050	0.010
-494.566	-1.117	0.174	0.123
-493.551	329.272	-0.051	-0.098
-492.537	-55.267	0.273	0.123
-491.522	-169.144	-0.217	0.008
-490.508	371.591	-0.016	0.032
-489.493	800.000	0.026	-0.102
-488.478	-99.854	0.105	0.026
-487.464	-200.000	0.005	-0.257
-486.449	800.000	0.094	0.358
-485.435	-200.000	-0.006	0.297
-484.420	-200.000	-0.009	-0.066
-483.405	393.968	0.034	-0.071
-482.391	-60.481	0.092	0.039
-481.376	209.024	0.093	-0.146
-480.362	-83.456	-0.116	-0.037
-479.347	-56.155	-0.062	0.027
-478.332	92.062	-0.162	-0.182
-477.318	115.836	-0.050	-0.061
-476.303	800.000	-0.041	-0.144
-475.289	365.881	-0.087	-0.174
-474.274	800.000	-0.077	-0.228
-473.259	259.087	-0.111	-0.191
-472.245	79.969	0.038	0.041
-471.230	725.052	0.071	-0.190
-470.216	-153.459	-0.196	0.014
-469.201	4.562	-0.143	-0.105
-468.186	-14.469	-0.082	0.052
-467.172	-109.108	-0.248	0.053
-466.157	-200.000	0.052	-0.248
-465.143	-200.000	-0.003	0.062
-464.128	800.000	-0.113	-0.322
-463.113	80.270	-0.168	0.180
-462.099	28.265	0.097	-0.082
-461.084	-161.254	-0.179	-0.009
-460.070	662.617	0.143	-0.368
-459.055	-42.754	-0.096	0.049
-458.040	121.523	0.110	-0.137
-457.026	-31.089	-0.226	0.127
-456.011	-90.077	0.243	0.071
-454.997	-200.000	-0.007	-0.084
-453.982	-132.264	-0.341	-0.044
-452.968	-129.590	0.480	-0.066
-451.953	800.000	-0.143	-0.407
-450.938	258.190	-0.022	-0.039
-449.924	800.000	-0.079	0.222
-448.909	-7.017	0.022	-0.015
-447.895	-103.878	0.042	0.010
-446.880	131.445	-0.131	-0.169
-445.865	-200.000	-0.047	0.220
-444.851	313.595	-0.031	0.059
-443.836	3.550	-0.292	0.212
-442.822	-200.000	-0.115	0.000
-441.807	-13.391	-0.175	0.113
-440.792	-118.760	0.089	0.016
-439.778	31.165	0.303	0.260
-438.763	-54.510	-0.295	0.133
-437.749	-133.218	0.436	0.055
-436.734	-200.000	-0.009	-0.157
-435.719	15.985	0.054	-0.042
-434.705	-111.298	-0.275	0.056
-433.690	123.219	0.088	0.110
-432.676	-140.644	-0.204	0.021
-431.661	580.016	-0.175	0.427
-430.646	800.000	-0.042	-0.131
-429.632	-200.000	-0.031	-0.437
-428.617	65.795	0.149	-0.151
-427.603	-186.770	-0.409	-0.006
-426.588	116.528	-0.108	-0.132
-425.573	-96.370	0.354	0.093
-424.559	-97.252	0.145	-0.038
-423.544	-200.000	-0.009	-0.200
-422.530	53.041	-0.055	-0.053
-421.515	-72.277	0.125	0.046
-420.500	-96.336	0.087	-0.023
-419.486	-32.048	-0.313	0.175
-418.471	-137.955	0.476	0.053
-417.457	-112.186	0.302	-0.060
-416.442	150.764	0.160	-0.217
-415.428	-200.000	0.035	-0.248
-414.413	-9.741	-0.407	0.270
-413.398	-200.000	0.019	-0.225
-412.384	130.949	-0.224	0.287
-411.369	-86.100	-0.136	0.042
-410.355	-200.000	-0.009	-0.221
-409.340	145.908	0.136	-0.182
-408.325	-200.000	-0.040	0.201
-407.311	792.375	-0.196	-0.539
-406.296	466.133	0.115	-0.258
-405.282	-54.384	-0.113	-0.051
-404.267	-200.000	0.247	-0.001
-403.252	400.834	0.068	0.141
-402.238	-200.000	-0.003	-0.027
-401.223	-200.000	-0.005	-0.313
-400.209	-200.000	-0.011	0.218
-399.194	-200.000	0.038	0.295
-398.179	-9.423	0.093	0.062
-397.165	800.000	0.047	0.175
-396.150	-200.000	-0.029	-0.175
-395.136	-200.000	-0.014	0.098
-394.121	-200.000	-0.082	-0.400
-393.106	299.559	0.099	0.181
-392.092	-200.000	0.034	-0.422
-391.077	-55.162	-0.103	-0.046
-390.063	-63.759	0.327	-0.133
-389.048	800.000	0.086	-0.282
-388.033	68.654	0.108	0.110
-387.019	-55.260	-0.084	-0.038
-386.004	385.519	0.046	-0.094
-384.990	-52.017	-0.224	0.104
-383.975	95.076	0.077	-0.087
-382.960	-200.000	-0.007	0.125
-381.946	-87.163	0.166	-0.050
-380.931	-30.487	-0.262	0.148
-379.917	-122.957	0.168	0.027
-378.902	693.678	-0.125	-0.325
-377.888	766.246	0.060	-0.162
-376.873	-149.080	-0.125	-0.010
-375.858	-98.798	0.290	0.073
-374.844	456.460	0.152	-0.336
-373.829	-119.710	0.436	0.075
-372.815	800.000	-0.033	-0.105
-371.800	-58.245	-0.326	0.141
-370.785	402.393	-0.126	0.263
-369.771	800.000	-0.037	-0.131
-368.756	-77.172	-0.278	-0.096
-367.742	800.000	0.046	-0.156
-366.727	800.000	0.042	0.178
-365.712	-39.202	0.346	-0.181
-364.698	-118.042	-0.356	0.063
-363.683	-104.457	0.243	-0.056
-362.669	-139.557	-0.096	-0.010
-361.654	229.244	0.146	-0.236
-360.639	-80.450	0.044	0.014
-359.625	474.653	0.081	-0.182
-358.610	-9.846	-0.132	0.088
-357.596	437.289	-0.032	0.069
-356.581	85.989	0.363	-0.398
-355.566	286.324	-0.081	0.146
-354.552	-79.735	0.295	-0.099
-353.537	51.667	-0.052	-0.049
-352.523	368.149	0.140	-0.282
-351.508	800.000	0.033	0.101
-350.493	211.317	0.107	0.168
-349.479	800.000	-0.032	0.122
-348.464	52.421	0.157	0.149
-347.450	-162.160	-0.091	-0.005
-346.435	-122.575	-0.213	-0.034
-345.420	375.470	-0.094	-0.191
-344.406	-89.896	-0.108	0.031
-343.391	-102.868	0.247	0.058
-342.377	-143.259	-0.378	-0.036
-341.362	73.077	-0.071	0.074
-340.348	-135.497	0.319	-0.038
-339.333	800.000	0.043	0.134
-338.318	-200.000	-0.021	0.191
-337.304	-153.012	-0.177	0.012
-336.289	-24.176	-0.272	0.161
-335.275	140.077	0.153	-0.200
-334.260	800.000	-0.076	0.239
-333.245	800.000	0.079	0.261
-332.231	3.041	0.164	0.118
-331.216	-112.127	0.354	-0.071
-330.202	-200.000	0.028	-0.220
-329.187	-200.000	-0.001	0.104
-328.172	-200.000	-0.010	0.096
-327.158	-10.120	-0.262	0.173
-326.143	-90.947	0.188	0.054
-325.129	800.000	0.162	-0.499
-324.114	800.000	-0.206	0.614
-323.099	-110.300	-0.238	0.049
-322.085	800.000	0.028	-0.085
-321.070	-200.000	-0.038	-0.406
-320.056	-143.999	-0.296	0.028
-319.041	-200.000	0.038	-0.412
-318.026	-200.000	-0.022	-0.162
-317.012	125.402	-0.114	-0.142
-315.997	-62.226	0.157	0.065
-314.983	-49.062	0.233	0.111
-313.968	-200.000	-0.010	-0.098
-312.953	-140.781	0.254	0.026
-311.939	-12.589	-0.447	0.290
-310.924	-101.562	0.124	0.030
-309.910	-130.884	-0.206	0.027
-308.895	-99.032	0.153	0.039
-307.880	-200.000	0.026	0.212
-306.866	12.322	-0.227	0.174
-305.851	-200.000	0.018	-0.304
-304.837	104.915	0.262	0.307
-303.822	152.010	0.033	0.044
-302.807	-81.097	-0.394	0.129
-301.793	800.000	0.075	0.229
-300.778	373.497	-0.141	0.284
-299.764	-24.958	0.260	-0.153
-298.749	280.715	-0.129	0.228
-297.735	222.370	-0.102	0.162
-296.720	6.606	0.342	0.252
-295.705	-200.000	0.042	-0.230
-294.691	-200.000	0.057	-0.250
-293.676	800.000	0.131	0.419
-292.662	44.663	0.246	0.224
-291.647	476.394	-0.088	-0.196
-290.632	-2.772	0.285	0.198
-289.618	4.358	0.348	-0.253
-288.603	-52.574	0.249	0.114
-287.589	800.000	0.129	-0.389
-286.574	212.343	-0.153	0.240
-285.559	-99.679	-0.126	0.031
-284.545	-200.000	-0.024	-0.108
-283.530	-79.680	0.298	-0.100
-282.516	800.000	-0.067	0.225
-281.501	242.828	0.118	0.196
-280.486	-200.000	0.024	0.257
-279.472	-200.000	-0.020	0.216
-278.457	154.599	0.062	0.085
-277.443	-143.069	0.188	-0.018
-276.428	-48.144	0.284	0.136
-275.413	28.546	-0.176	-0.147
-274.399	418.217	-0.066	-0.140
-273.384	20.036	0.161	-0.129
-272.370	-77.673	0.215	0.074
-271.355	-147.023	-0.305	-0.026
-270.340	7.357	-0.213	0.158
-269.326	126.887	0.182	-0.229
-268.311	-118.150	0.256	-0.045
-267.297	348.689	-0.146	-0.286
-266.282	-196.440	-0.096	0.001
-265.267	-200.000	-0.030	0.184
-264.253	-200.000	-0.035	0.169
-263.238	800.000	0.076	-0.312
-262.224	-81.837	-0.042	0.014
-261.209	424.664	0.058	-0.123
-260.195	-200.000	-0.011	-0.157
-259.180	-38.966	0.353	-0.184
-258.165	251.364	0.215	0.362
-257.151	44.361	-0.056	0.051
-256.136	-42.603	0.062	-0.031
-255.122	-200.000	0.023	-0.254
-254.107	-1.964	0.286	-0.199
-253.092	-143.419	0.181	-0.017
-252.078	-63.813	-0.245	0.099
-251.063	-109.432	0.160	-0.034
-250.049	169.283	0.201	0.284
-249.034	-200.000	0.013	0.286
-248.019	-4.062	0.204	-0.140
-247.005	-200.000	-0.005	0.110
-245.990	-154.423	-0.043	0.003
-244.976	-110.818	0.033	0.007
-243.961	188.655	-0.078	0.115
-242.946	-200.000	-0.013	-0.113
-241.932	-95.549	-0.280	0.074
-240.917	-200.000	-0.059	0.281
-239.903	109.131	-0.174	0.206
-238.888	-91.968	-0.100	0.028
-237.873	-72.257	-0.422	0.155
-236.859	-33.301	-0.362	-0.198
-235.844	-82.774	-0.212	-0.068
-234.830	442.451	0.034	-0.074
-233.815	-152.288	0.131	0.009
-232.800	-200.000	0.019	0.334
-231.786	-200.000	0.018	0.087
-230.771	474.057	0.067	-0.149
-229.757	28.939	-0.147	-0.124
-228.742	-200.000	0.030	0.280
-227.727	261.900	-0.212	0.364
-226.713	-21.340	0.126	-0.076
-225.698	-200.000	0.041	-0.182
-224.684	108.469	-0.166	0.197
-223.669	98.031	0.223	-0.254
-222.655	800.000	0.080	-0.328
-221.640	800.000	0.047	0.152
-220.625	127.292	0.131	-0.165
-219.611	79.073	-0.178	0.189
-218.596	567.464	0.072	0.174
-217.582	94.790	-0.119	-0.134
-216.567	800.000	-0.069	-0.190
-215.552	-200.000	-0.017	0.080
-214.538	60.249	-0.209	0.205
-213.523	800.000	0.051	0.211
-212.509	-99.445	0.118	-0.029
-211.494	48.754	0.263	-0.244
-210.479	-153.066	0.146	-0.010
-209.465	11.309	-0.165	0.125
-208.450	168.106	0.091	-0.128
-207.436	38.222	-0.251	0.221
-206.421	115.992	-0.051	0.061
-205.406	210.880	0.197	-0.306
-204.392	45.864	-0.106	0.097
-203.377	-200.000	0.014	0.483
-202.363	20.437	-0.113	0.090
-201.348	-200.000	-0.015	0.117
-200.333	800.000	0.100	-0.279
-199.319	220.235	-0.128	-0.203
-198.304	-82.470	-0.384	-0.123
-197.290	50.361	-0.059	-0.055
-196.275	502.724	-0.116	0.265
-195.260	22.267	-0.236	-0.190
-194.246	8.551	-0.234	0.174
-193.231	464.293	0.200	-0.443
-192.217	-66.425	-0.530	0.208
-191.202	-67.526	-0.126	-0.049
-190.187	-200.000	-0.053	-0.371
-189.173	-200.000	0.012	0.251
-188.158	-96.964	-0.176	-0.045
-187.144	-119.498	-0.224	0.038
-186.129	-178.030	-0.242	0.006
-185.114	-200.000	-0.019	-0.233
-184.100	800.000	0.050	0.138
-183.085	-186.430	0.226	-0.003
-182.071	111.339	0.167	0.199
-181.056	-200.000	0.003	-0.543
-180.042	-179.030	0.336	0.007
-179.027	-200.000	0.036	-0.164
-178.012	-180.195	0.126	-0.003
-176.998	53.285	0.372	0.352
-175.983	800.000	-0.101	0.339
-174.969	22.017	-0.127	0.102
-173.954	-90.412	0.247	0.071
-172.939	-200.000	-0.031	-0.297
-171.925	-200.000	0.047	0.241
-170.910	54.993	-0.135	-0.129
-169.896	-200.000	0.044	-0.423
-168.881	-200.000	0.030	-0.390
-167.866	640.129	-0.066	0.166
-166.852	-200.000	-0.051	0.255
-165.837	-125.417	0.160	0.024
-164.823	-178.616	-0.329	0.007
-163.808	7.739	-0.226	-0.167
-162.793	486.921	-0.062	0.139
-161.779	-200.000	0.037	-0.302
-160.764	-42.952	0.091	0.046
-159.750	-142.226	0.061	0.006
-158.735	800.000	0.058	0.194
-157.720	-86.836	0.153	-0.046
-156.706	-200.000	-0.020	0.114
-155.691	-3.855	0.014	-0.009
-154.677	69.614	0.116	-0.118
-153.662	-69.524	0.016	-0.006
-152.647	168.188	0.158	0.222
-151.633	-69.632	0.043	0.016
-150.618	-200.000	-0.007	-0.075
-149.604	204.916	0.262	-0.401
-148.589	-92.715	-0.197	-0.054
-147.574	62.692	0.164	-0.162
-146.560	800.000	-0.042	-0.174
-145.545	-200.000	-0.042	0.242
-144.531	283.483	0.141	0.250
-143.516	-37.950	0.072	0.038
-142.502	-200.000	0.038	-0.285
-141.487	800.000	0.011	-0.037
-140.472	6.618	-0.250	-0.184
-139.458	84.042	0.133	-0.143
-138.443	146.976	0.101	-0.134
-137.429	-32.502	0.531	-0.292
-136.414	-137.793	0.235	0.026
-135.399	-200.000	0.008	-0.187
-134.385	-119.231	0.215	-0.037
-133.370	-18.626	-0.125	0.077
-132.356	299.313	0.113	-0.205
-131.341	139.433	-0.007	0.010
-130.326	119.473	0.122	-0.149
-129.312	-75.329	-0.375	-0.132
-128.297	-200.000	-0.075	-0.329
-127.283	183.766	0.188	-0.275
-126.268	-116.757	0.254	0.046
-125.253	430.413	-0.203	0.433
-124.239	800.000	-0.068	-0.250
-123.224	-200.000	0.089	0.538
-122.210	519.971	0.072	-0.165
