DTS Sentinel unit serial number:	SN413079Multiplexer serial number:	ORYXHardware model number:	OX4-SRSoftware version number:	ORYX F/W v4.00 Oryx Data Collector v3.7.2.0data status	okinstallation	princeton_trtdifferential loss correction	single-endedforward channel	channel 3reverse channel	N/Adate	2019/09/14time	19:16:35forward acquisition time	60.00reverse acquisition time	0.00gamma	496.2192k internal	0.2310k external	0.2310temperature offset calibration	1.0014default loss term (dB/km)	0.3790temperature slope calibration	1.0000multiplexer offset coefficient	1.0000multiplexer slope coefficient	1.0000fibre end	0.00T internal ref (°C)	35.14T ext. ref 1 (°C)	4.86T ext. ref 2 (°C)	29.14length (m)	temperature (°C)	Stokes	anti-Stokes-747.200	-72.481	-0.044	0.017
-746.185	29.633	0.138	0.120
-745.171	53.654	0.448	0.437
-744.156	-78.411	0.218	0.076
-743.142	-200.000	0.059	-0.283
-742.127	692.763	0.055	0.147
-741.112	113.992	-0.085	0.104
-740.098	-29.267	0.319	0.186
-739.083	206.207	0.017	-0.027
-738.069	800.000	-0.113	0.420
-737.054	-200.000	-0.017	-0.182
-736.039	88.457	-0.237	-0.268
-735.025	206.452	0.119	0.188
-734.010	-124.927	0.218	-0.034
-732.996	-200.000	-0.010	0.075
-731.981	-43.961	-0.052	0.027
-730.966	-200.000	0.013	0.309
-729.952	-28.151	0.295	-0.173
-728.937	-200.000	0.009	-0.182
-727.923	352.314	-0.128	0.258
-726.908	442.152	-0.100	0.222
-725.894	217.327	-0.223	-0.360
-724.879	22.833	-0.056	-0.047
-723.864	-142.638	-0.401	-0.040
-722.850	249.739	-0.118	0.202
-721.835	-21.667	-0.065	0.040
-720.821	-175.075	0.264	-0.007
-719.806	243.648	0.221	-0.376
-718.791	-200.000	-0.056	-0.278
-717.777	161.688	0.209	0.297
-716.762	97.038	0.277	-0.322
-715.748	800.000	0.012	0.049
-714.733	-200.000	0.007	-0.088
-713.718	361.459	-0.116	-0.236
-712.704	-64.465	0.066	0.027
-711.689	182.790	0.049	-0.073
-710.675	256.610	0.184	-0.321
-709.660	800.000	0.049	-0.196
-708.645	-153.605	0.214	0.015
-707.631	-52.584	0.176	0.082
-706.616	-200.000	0.063	-0.373
-705.602	249.306	0.073	0.126
-704.587	74.930	0.177	-0.189
-703.572	88.238	-0.208	-0.234
-702.558	18.140	0.156	-0.126
-701.543	714.735	-0.093	-0.250
-700.529	25.761	-0.161	-0.136
-699.514	800.000	0.052	-0.209
-698.499	-148.849	0.054	0.004
-697.485	637.715	0.141	0.363
-696.470	-77.924	0.174	0.061
-695.456	-90.625	-0.173	0.051
-694.441	-32.799	-0.201	-0.113
-693.426	-57.690	0.149	0.066
-692.412	16.591	-0.221	-0.177
-691.397	-28.189	-0.197	0.116
-690.383	-96.064	0.104	-0.028
-689.368	74.029	-0.127	0.135
-688.354	-156.840	-0.217	-0.014
-687.339	-40.847	0.182	-0.095
-686.324	-128.376	-0.216	-0.031
-685.310	168.342	0.066	0.095
-684.295	-125.041	-0.081	0.013
-683.281	201.151	0.158	0.246
-682.266	-137.000	-0.208	0.024
-681.251	-101.021	-0.098	0.024
-680.237	685.958	0.167	0.441
-679.222	166.184	0.068	-0.098
-678.208	133.251	-0.191	0.251
-677.193	800.000	-0.014	-0.041
-676.178	70.943	0.148	-0.155
-675.164	61.576	-0.032	-0.032
-674.149	-101.773	0.404	0.099
-673.135	-200.000	-0.029	0.220
-672.120	91.220	0.191	0.217
-671.105	222.063	0.073	-0.120
-670.091	-1.109	-0.368	0.263
-669.076	299.017	0.065	-0.121
-668.062	800.000	-0.024	-0.091
-667.047	-200.000	0.005	-0.201
-666.032	-35.138	-0.255	-0.141
-665.018	-15.280	-0.087	-0.056
-664.003	-153.903	-0.422	0.029
-662.989	180.808	-0.177	0.263
-661.974	-156.896	-0.277	-0.017
-660.959	165.737	0.065	-0.094
-659.945	52.303	0.201	-0.194
-658.930	73.427	-0.186	0.197
-657.916	-168.273	0.128	0.005
-656.901	153.057	-0.055	0.076
-655.886	271.338	-0.121	-0.215
-654.872	-200.000	0.042	0.490
-653.857	99.948	-0.136	0.160
-652.843	-200.000	-0.002	-0.343
-651.828	-6.033	0.200	0.138
-650.814	54.666	0.132	0.129
-649.799	-133.392	-0.219	0.028
-648.784	-88.806	0.428	-0.128
-647.770	346.160	0.170	0.338
-646.755	-110.952	0.118	0.025
-645.741	-100.935	-0.276	-0.069
-644.726	-101.198	0.311	0.077
-643.711	73.395	-0.212	0.224
-642.697	-71.814	-0.247	0.093
-641.682	225.438	-0.080	0.132
-640.668	-200.000	-0.010	0.173
-639.653	535.528	0.069	0.165
-638.638	188.315	0.126	0.190
-637.624	181.001	0.009	-0.014
-636.609	-51.274	-0.204	-0.097
-635.595	-112.719	0.393	0.079
-634.580	-56.897	0.231	-0.103
-633.565	73.690	-0.150	-0.159
-632.551	515.854	0.038	0.090
-631.536	-161.401	-0.329	0.017
-630.522	-56.393	-0.314	-0.141
-629.507	-48.030	0.266	0.130
-628.492	-27.692	0.209	-0.122
-627.478	63.681	-0.002	-0.002
-626.463	401.693	0.165	-0.351
-625.449	-13.569	-0.135	0.088
-624.434	-13.769	-0.129	-0.084
-623.419	116.442	0.214	0.265
-622.405	-68.724	-0.279	0.109
-621.390	-39.483	0.186	-0.098
-620.376	161.074	-0.043	0.061
-619.361	800.000	-0.024	-0.089
-618.346	105.728	-0.076	0.091
-617.332	-200.000	0.005	0.290
-616.317	304.151	-0.101	-0.190
-615.303	307.582	0.124	-0.233
-614.288	59.663	0.062	-0.062
-613.273	-82.963	0.076	-0.025
-612.259	41.108	-0.283	-0.258
-611.244	-200.000	-0.005	0.050
-610.230	-92.879	0.200	0.056
-609.215	63.731	0.200	0.203
-608.201	-200.000	-0.018	-0.107
-607.186	-200.000	0.002	0.207
-606.171	57.943	0.123	-0.122
-605.157	800.000	-0.023	0.065
-604.142	43.395	0.042	0.038
-603.128	7.098	-0.039	0.029
-602.113	-173.411	-0.190	-0.006
-601.098	235.288	-0.112	0.186
-600.084	71.618	-0.059	0.061
-599.069	36.445	0.054	-0.048
-598.055	-200.000	-0.020	-0.350
-597.040	800.000	0.089	0.293
-596.025	-150.396	-0.390	-0.030
-595.011	-28.781	-0.055	-0.032
-593.996	431.594	-0.142	-0.310
-592.982	-200.000	0.063	-0.477
-591.967	-86.099	0.143	0.045
-590.952	-51.522	0.118	-0.056
-589.938	112.304	-0.128	0.156
-588.923	800.000	-0.067	-0.193
-587.909	800.000	0.010	-0.031
-586.894	-200.000	-0.016	-0.115
-585.879	-26.032	0.297	0.176
-584.865	-80.359	0.058	-0.019
-583.850	-200.000	0.016	0.309
-582.836	272.877	-0.289	0.515
-581.821	-97.996	0.245	0.064
-580.806	33.974	-0.056	-0.049
-579.792	197.411	-0.076	0.117
-578.777	800.000	0.082	0.231
-577.763	84.094	0.157	0.173
-576.748	-8.544	-0.132	-0.089
-575.733	700.553	0.108	-0.287
-574.719	290.568	-0.128	-0.234
-573.704	-200.000	0.006	-0.137
-572.690	-165.522	-0.327	0.014
-571.675	-200.000	-0.007	0.120
-570.661	-81.652	-0.125	-0.041
-569.646	452.293	-0.107	-0.239
-568.631	-200.000	-0.030	-0.473
-567.617	1.414	0.180	-0.131
-566.602	-200.000	0.010	0.286
-565.588	-98.729	0.210	-0.054
-564.573	-140.209	-0.136	0.014
-563.558	-200.000	0.018	0.151
-562.544	42.669	0.121	-0.111
-561.529	-200.000	0.020	0.089
-560.515	800.000	0.089	-0.371
-559.500	51.920	-0.195	0.187
-558.485	-63.966	-0.081	-0.033
-557.471	-32.686	-0.209	-0.117
-556.456	150.657	-0.116	0.159
-555.442	35.012	-0.108	-0.095
-554.427	-104.355	-0.107	-0.025
-553.412	-200.000	0.003	0.616
-552.398	-55.922	-0.193	-0.087
-551.383	-72.911	0.197	0.073
-550.369	-200.000	0.048	0.307
-549.354	-178.307	-0.158	-0.004
-548.339	-125.079	-0.451	0.070
-547.325	-200.000	-0.023	-0.162
-546.310	35.254	0.041	0.036
-545.296	710.049	0.129	0.344
-544.281	588.721	0.082	0.204
-543.266	-36.461	0.094	-0.051
-542.252	-200.000	0.012	0.236
-541.237	-200.000	-0.013	-0.062
-540.223	0.295	0.040	-0.029
-539.208	-154.062	0.396	0.027
-538.193	30.243	-0.184	0.159
-537.179	800.000	-0.089	-0.268
-536.164	-200.000	0.016	-0.188
-535.150	538.466	-0.041	-0.098
-534.135	18.679	-0.134	-0.108
-533.121	800.000	0.050	0.144
-532.106	427.705	-0.097	-0.210
-531.091	-64.061	0.119	-0.049
-530.077	-3.036	0.148	0.104
-529.062	230.455	-0.211	-0.347
-528.048	-200.000	-0.010	-0.235
-527.033	-170.018	0.516	0.019
-526.018	90.706	-0.207	-0.234
-525.004	79.707	-0.237	0.256
-523.989	-5.988	-0.042	0.029
-522.975	800.000	0.072	-0.262
-521.960	-155.064	-0.197	0.013
-520.945	21.223	-0.090	-0.073
-519.931	-21.189	-0.171	0.105
-518.916	800.000	0.035	-0.105
-517.902	-161.389	0.615	0.032
-516.887	31.140	0.054	0.047
-515.872	-139.378	0.225	0.024
-514.858	-4.015	-0.460	-0.321
-513.843	-200.000	0.007	-0.419
-512.829	-45.879	0.202	0.100
-511.814	15.992	-0.033	-0.026
-510.799	617.184	0.018	0.046
-509.785	642.333	-0.051	-0.132
-508.770	-48.694	0.214	-0.103
-507.756	73.212	-0.323	0.340
-506.741	-188.062	0.170	0.002
-505.726	66.004	-0.172	0.175
-504.712	-200.000	-0.047	0.270
-503.697	-58.877	0.129	-0.056
-502.683	-126.950	-0.242	0.036
-501.668	178.139	0.059	-0.087
-500.653	305.355	0.050	0.094
-499.639	800.000	-0.134	0.424
-498.624	174.099	-0.216	-0.313
-497.610	-85.378	-0.378	0.118
-496.595	-97.088	0.281	-0.074
-495.581	800.000	-0.066	-0.240
-494.566	800.000	0.033	-0.091
-493.551	90.751	-0.156	-0.175
-492.537	1.847	0.101	0.073
-491.522	-19.577	-0.323	0.201
-490.508	274.604	0.068	0.121
-489.493	-145.910	0.178	0.016
-488.478	-54.674	0.254	0.116
-487.464	-134.630	-0.252	-0.031
-486.449	800.000	-0.115	0.429
-485.435	-78.603	0.269	0.093
-484.420	800.000	0.134	0.534
-483.405	-200.000	0.030	0.154
-482.391	-176.368	0.302	-0.008
-481.376	-137.344	-0.415	-0.047
-480.362	12.985	0.119	-0.092
-479.347	-57.608	0.281	0.124
-478.332	-200.000	0.041	0.211
-477.318	-200.000	-0.021	-0.231
-476.303	-40.872	-0.261	0.136
-475.289	11.045	0.119	0.091
-474.274	738.948	0.060	-0.163
-473.259	-200.000	-0.063	-0.372
-472.245	-200.000	-0.030	-0.200
-471.230	188.773	0.054	0.081
-470.216	23.843	-0.092	-0.076
-469.201	-15.233	0.014	-0.009
-468.186	323.397	-0.088	0.169
-467.172	-128.392	0.302	0.043
-466.157	-2.088	-0.167	0.118
-465.143	-158.948	-0.163	0.009
-464.128	302.265	-0.160	-0.297
-463.113	24.767	0.124	-0.103
-462.099	84.202	0.115	-0.126
-461.084	800.000	-0.028	-0.094
-460.070	65.334	0.306	-0.311
-459.055	-18.364	0.117	-0.073
-458.040	-105.642	-0.392	0.089
-457.026	-58.377	0.056	-0.024
-456.011	182.889	0.166	-0.246
-454.997	-200.000	-0.016	0.085
-453.982	-200.000	0.047	-0.226
-452.968	-200.000	0.039	-0.194
-451.953	-11.994	-0.098	0.065
-450.938	-200.000	-0.046	-0.250
-449.924	-151.025	-0.259	0.020
-448.909	-155.962	-0.245	-0.016
-447.895	-200.000	0.046	0.228
-446.880	-3.432	0.118	-0.082
-445.865	60.453	0.150	-0.149
-444.851	-200.000	0.001	0.184
-443.836	371.767	-0.132	-0.268
-442.822	-200.000	0.007	-0.065
-441.807	-131.378	-0.052	-0.007
-440.792	-200.000	-0.010	0.248
-439.778	627.319	-0.098	0.249
-438.763	218.245	0.134	-0.215
-437.749	173.949	0.203	-0.294
-436.734	201.938	0.135	-0.208
-435.719	800.000	0.010	-0.037
-434.705	-183.101	-0.252	-0.004
-433.690	-65.248	0.075	0.030
-432.676	58.140	-0.410	0.403
-431.661	17.057	0.050	-0.040
-430.646	-200.000	0.011	-0.149
-429.632	-7.367	0.072	0.049
-428.617	38.066	0.249	-0.222
-427.603	-200.000	-0.030	0.531
-426.588	-18.146	-0.198	0.124
-425.573	223.122	-0.045	0.072
-424.559	-173.194	-0.320	-0.010
-423.544	-84.250	-0.266	0.084
-422.530	-200.000	0.029	-0.219
-421.515	-92.988	-0.095	-0.027
-420.500	-200.000	-0.018	-0.119
-419.486	-127.167	-0.335	-0.049
-418.471	58.558	-0.102	-0.100
-417.457	134.040	0.142	-0.185
-416.442	800.000	-0.014	-0.049
-415.428	146.309	-0.106	0.142
-414.413	800.000	-0.009	-0.026
-413.398	159.783	0.090	-0.126
-412.384	-179.736	0.204	0.004
-411.369	304.404	0.256	0.475
-410.355	401.602	0.074	-0.155
-409.340	-36.149	-0.389	-0.210
-408.325	-60.689	-0.289	0.123
-407.311	12.339	0.424	-0.327
-406.296	-2.474	0.157	0.110
-405.282	800.000	0.113	0.382
-404.267	268.392	0.149	0.261
-403.252	-77.091	-0.150	-0.053
-402.238	800.000	0.060	-0.209
-401.223	-101.577	-0.131	0.032
-400.209	-200.000	0.026	0.346
-399.194	229.216	0.058	-0.094
-398.179	-200.000	-0.005	0.123
-397.165	-200.000	-0.008	0.156
-396.150	-87.808	-0.240	0.072
-395.136	800.000	-0.050	0.197
-394.121	-126.809	0.341	-0.050
-393.106	-66.996	0.331	0.131
-392.092	75.179	0.076	0.081
-391.077	-53.076	0.170	0.078
-390.063	162.654	-0.068	0.095
-389.048	295.624	-0.201	-0.368
-388.033	173.951	0.284	0.410
-387.019	46.569	0.282	-0.262
-386.004	-84.760	0.069	0.022
-384.990	-147.641	-0.086	0.007
-383.975	304.067	-0.132	0.245
-382.960	77.326	-0.154	0.164
-381.946	-89.160	-0.074	-0.022
-380.931	-4.196	0.300	-0.208
-379.917	242.649	0.049	0.082
-378.902	-116.354	0.299	0.055
-377.888	800.000	-0.136	-0.439
-376.873	165.706	-0.122	-0.172
-375.858	-100.740	0.085	0.021
-374.844	800.000	0.100	0.316
-373.829	800.000	-0.026	0.102
-372.815	-92.904	0.181	-0.051
-371.800	98.889	0.128	-0.148
-370.785	-124.418	-0.195	0.030
-369.771	-89.441	0.448	-0.132
-368.756	152.655	-0.215	0.294
-367.742	-8.601	-0.146	-0.098
-366.727	800.000	-0.094	-0.330
-365.712	373.293	0.167	-0.339
-364.698	-59.388	-0.145	-0.062
-363.683	-79.381	-0.146	0.050
-362.669	-85.890	-0.362	0.112
-361.654	-180.213	0.396	-0.008
-360.639	496.145	-0.050	0.115
-359.625	10.791	-0.213	0.162
-358.610	375.470	-0.083	-0.170
-357.596	-135.094	-0.324	-0.039
-356.581	-94.840	-0.191	0.052
-355.566	-200.000	0.008	0.194
-354.552	150.870	0.153	0.208
-353.537	-111.718	-0.054	-0.011
-352.523	27.011	0.132	0.111
-351.508	-78.042	0.336	-0.116
-350.493	139.372	-0.203	-0.267
-349.479	-136.547	-0.160	-0.019
-348.464	-0.403	-0.315	-0.224
-347.450	184.878	0.214	-0.318
-346.435	-163.440	-0.072	-0.003
-345.420	327.565	0.027	-0.051
-344.406	-53.501	0.178	0.081
-343.391	17.871	-0.283	0.225
-342.377	-170.188	-0.402	0.014
-341.362	-28.235	0.337	0.195
-340.348	-200.000	0.005	0.115
-339.333	-200.000	-0.043	-0.496
-338.318	-50.291	-0.196	0.093
-337.304	-160.594	-0.083	0.004
-336.289	212.645	0.345	0.544
-335.275	477.423	-0.040	-0.092
-334.260	-125.465	-0.145	-0.022
-333.245	-154.531	-0.275	0.018
-332.231	-93.374	0.115	0.032
-331.216	-10.084	-0.259	-0.172
-330.202	800.000	-0.052	0.189
-329.187	-76.231	-0.228	-0.080
-328.172	-20.734	-0.227	0.139
-327.158	58.673	-0.165	-0.162
-326.143	494.771	0.054	-0.124
-325.129	-200.000	0.029	0.261
-324.114	-200.000	-0.010	0.202
-323.099	-9.406	0.085	-0.057
-322.085	253.512	0.053	0.090
-321.070	48.785	0.139	-0.130
-320.056	-26.510	-0.063	0.037
-319.041	-67.539	-0.149	0.059
-318.026	-109.451	-0.178	0.037
-317.012	164.154	0.283	-0.397
-315.997	-108.071	0.235	-0.051
-314.983	428.254	-0.071	0.153
-313.968	40.741	-0.164	-0.148
-312.953	-169.578	0.303	-0.011
-311.939	-159.328	0.199	-0.011
-310.924	-200.000	-0.008	0.084
-309.910	225.265	-0.060	0.097
-308.895	-24.913	0.114	-0.067
-307.880	-52.785	0.542	0.249
-306.866	-144.292	-0.183	0.017
-305.851	118.837	-0.239	-0.294
-304.837	-51.250	-0.383	0.179
-303.822	18.896	0.163	0.131
-302.807	-168.321	0.300	0.012
-301.793	-145.761	-0.144	-0.013
-300.778	209.940	-0.138	-0.216
-299.764	132.156	-0.215	0.277
-298.749	66.409	0.156	0.158
-297.735	115.842	0.183	-0.223
-296.720	-33.078	-0.035	-0.019
-295.705	-200.000	0.029	0.359
-294.691	-132.418	0.167	0.021
-293.676	33.604	-0.080	-0.069
-292.662	165.468	-0.221	-0.311
-291.647	-34.535	-0.243	0.133
-290.632	-76.991	0.134	0.047
-289.618	221.857	-0.045	0.072
-288.603	7.590	0.027	0.020
-287.589	238.960	-0.178	0.295
-286.574	752.562	0.031	-0.084
-285.559	6.175	0.150	0.111
-284.545	-200.000	0.002	0.062
-283.530	542.278	-0.065	-0.155
-282.516	-132.758	0.110	0.014
-281.501	-91.655	0.136	-0.039
-280.486	-200.000	0.001	-0.362
-279.472	-9.466	-0.186	0.124
-278.457	199.916	-0.169	0.259
-277.443	253.515	-0.084	-0.144
-276.428	-200.000	0.017	-0.138
-275.413	-75.444	-0.034	-0.012
-274.399	-10.940	-0.146	-0.096
-273.384	-123.718	-0.197	-0.031
-272.370	-200.000	0.003	-0.035
-271.355	-4.449	0.235	-0.162
-270.340	434.235	0.090	0.195
-269.326	800.000	0.026	0.081
-268.311	247.723	-0.125	-0.211
-267.297	-137.621	-0.254	0.028
-266.282	-200.000	0.019	0.453
-265.267	523.130	0.117	-0.273
-264.253	-23.186	-0.118	0.071
-263.238	-94.809	-0.174	-0.047
-262.224	16.840	-0.330	-0.260
-261.209	800.000	-0.095	-0.262
-260.195	-37.668	0.209	0.111
-259.180	-4.848	-0.319	-0.219
-258.165	-200.000	-0.009	-0.138
-257.151	388.111	0.123	0.254
-256.136	-87.061	-0.100	0.030
-255.122	-143.176	-0.295	-0.028
-254.107	326.502	0.071	0.136
-253.092	-146.158	-0.176	-0.015
-252.078	-46.798	0.328	-0.160
-251.063	-40.987	-0.206	0.106
-250.049	-194.811	0.227	0.002
-249.034	-97.638	0.189	-0.049
-248.019	-95.701	0.278	0.074
-247.005	-41.144	0.210	-0.108
-245.990	-116.217	0.172	-0.032
-244.976	-200.000	0.075	0.362
-243.961	-200.000	0.046	-0.343
-242.946	-2.658	0.224	0.156
-241.932	-135.732	0.151	-0.018
-240.917	213.439	-0.234	-0.368
-239.903	24.934	-0.003	-0.003
-238.888	-119.393	-0.127	0.022
-237.873	-89.366	0.338	0.099
-236.859	-94.555	-0.072	0.020
-235.844	800.000	0.081	0.252
-234.830	-200.000	0.007	0.045
-233.815	800.000	0.017	0.065
-232.800	139.124	0.135	-0.176
-231.786	642.785	0.086	-0.219
-230.771	395.013	0.088	0.184
-229.757	-200.000	0.021	0.179
-228.742	115.286	0.047	-0.057
-227.727	-200.000	-0.253	-0.000
-226.713	-200.000	-0.247	-0.001
-225.698	291.663	0.071	-0.128
-224.684	159.540	0.063	-0.087
-223.669	-71.724	-0.178	-0.066
-222.655	43.784	-0.076	0.069
-221.640	-130.532	0.170	-0.023
-220.625	-48.998	0.062	0.030
-219.611	356.153	-0.118	-0.233
-218.596	-87.811	-0.223	-0.067
-217.582	473.336	-0.092	-0.206
-216.567	408.179	0.091	-0.192
-215.552	-16.279	0.245	-0.155
-214.538	281.090	-0.060	-0.107
-213.523	-42.449	0.079	0.040
-212.509	-81.182	0.126	-0.042
-211.494	-200.000	-0.022	0.103
-210.479	-43.548	-0.259	-0.130
-209.465	-103.124	-0.171	0.040
-208.450	276.708	-0.129	-0.228
-207.436	293.268	-0.030	0.054
-206.421	-92.188	0.089	0.025
-205.406	16.574	0.154	-0.121
-204.392	11.094	0.266	0.203
-203.377	-2.501	0.448	0.312
-202.363	401.794	-0.104	-0.218
-201.348	196.627	0.171	-0.260
-200.333	380.375	-0.099	0.203
-199.319	192.730	-0.203	0.305
-198.304	68.069	-0.345	0.351
-197.290	433.646	-0.079	0.172
-196.275	-38.677	0.244	0.128
-195.260	-36.229	0.189	-0.101
-194.246	2.965	0.243	-0.175
-193.231	153.952	-0.083	-0.114
-192.217	-200.000	-0.019	0.156
-191.202	-200.000	-0.021	-0.327
-190.187	-35.045	-0.262	-0.142
-189.173	17.531	-0.224	-0.177
-188.158	-121.122	0.291	0.048
-187.144	-139.969	0.439	-0.046
-186.129	161.560	0.127	-0.177
-185.114	-168.415	0.187	-0.007
-184.100	-51.773	0.305	-0.141
-183.085	353.241	0.063	0.124
-182.071	-6.897	0.074	0.050
-181.056	187.443	-0.071	0.106
-180.042	227.972	0.109	0.177
-179.027	474.056	0.068	0.152
-178.012	54.997	0.235	-0.225
-176.998	65.035	-0.083	0.083
-175.983	-50.948	-0.163	0.076
-174.969	60.351	0.122	0.120
-173.954	-9.813	-0.270	0.179
-172.939	380.715	0.235	0.478
-171.925	357.635	0.057	0.112
-170.910	22.645	0.289	0.235
-169.896	-122.714	0.181	-0.029
-168.881	-200.000	0.035	0.477
-167.866	-62.553	0.445	-0.183
-166.852	-4.287	-0.082	0.056
-165.837	-7.150	-0.039	-0.026
-164.823	-73.266	-0.203	-0.074
-163.808	-145.291	-0.069	0.006
-162.793	4.382	0.107	0.078
-161.779	-200.000	-0.021	-0.261
-160.764	134.421	-0.284	-0.365
-159.750	-117.479	0.176	-0.032
-158.735	75.892	0.293	0.308
-157.720	19.492	0.145	-0.116
-156.706	-200.000	-0.009	-0.371
-155.691	-154.533	0.150	0.010
-154.677	-59.265	-0.067	0.028
-153.662	444.862	0.057	-0.125
-152.647	-57.524	-0.088	-0.038
-151.633	157.132	-0.101	-0.139
-150.618	98.299	-0.138	-0.158
-149.604	-120.986	-0.214	-0.036
-148.589	-40.828	0.122	-0.063
-147.574	-51.661	0.052	-0.024
-146.560	-200.000	0.022	-0.207
-145.545	-107.432	-0.344	-0.075
-144.531	-183.598	-0.227	-0.004
-143.516	94.700	0.184	-0.207
-142.502	163.923	0.121	-0.169
-141.487	55.050	-0.219	0.210
-140.472	763.432	-0.076	0.204
-139.458	800.000	-0.123	0.341
-138.443	249.193	0.048	0.081
-137.429	187.371	-0.067	0.099
-136.414	-200.000	-0.022	-0.103
-135.399	-56.624	-0.092	0.041
-134.385	-97.561	0.072	0.019
-133.370	195.220	-0.040	0.060
-132.356	103.939	0.217	-0.253
-131.341	-27.628	0.226	0.130
-130.326	800.000	0.071	0.266
-129.312	800.000	-0.060	0.215
-128.297	318.153	-0.091	-0.171
-127.283	19.822	0.207	0.165
-126.268	432.719	0.100	0.216
-125.253	800.000	-0.088	0.369
-124.239	129.776	-0.044	-0.056
-123.224	-129.818	0.113	-0.015
-122.210	800.000	-0.082	0.327
-121.195	-89.194	-0.272	-0.080
