DTS Sentinel unit serial number:	SN413079Multiplexer serial number:	ORYXHardware model number:	OX4-SRSoftware version number:	ORYX F/W v4.00 Oryx Data Collector v3.7.2.0data status	okinstallation	princeton_trtdifferential loss correction	single-endedforward channel	channel 3reverse channel	N/Adate	2019/09/14time	14:28:35forward acquisition time	60.00reverse acquisition time	0.00gamma	496.2192k internal	0.2292k external	0.2292temperature offset calibration	1.0064default loss term (dB/km)	0.3790temperature slope calibration	1.0000multiplexer offset coefficient	1.0000multiplexer slope coefficient	1.0000fibre end	0.00T internal ref (°C)	39.06T ext. ref 1 (°C)	5.11T ext. ref 2 (°C)	35.76length (m)	temperature (°C)	Stokes	anti-Stokes-747.200	-66.271	0.230	-0.094
-746.185	-200.000	0.022	0.291
-745.171	-84.193	-0.143	0.046
-744.156	148.838	-0.158	0.219
-743.142	-33.397	0.223	0.126
-742.127	-200.000	0.008	0.205
-741.112	-47.191	-0.243	0.121
-740.098	-117.333	0.159	0.029
-739.083	-87.338	-0.296	0.092
-738.069	70.893	-0.234	0.248
-737.054	5.251	-0.242	0.182
-736.039	-65.009	-0.190	0.079
-735.025	-173.375	0.467	-0.015
-734.010	-100.743	-0.326	0.082
-732.996	23.085	-0.111	0.093
-731.981	121.394	-0.137	0.175
-730.966	31.136	0.224	0.196
-729.952	445.615	-0.120	-0.269
-728.937	-56.871	-0.418	0.189
-727.923	800.000	-0.085	-0.345
-726.908	726.965	-0.058	-0.158
-725.894	175.572	0.071	0.105
-724.879	-67.823	-0.159	-0.064
-723.864	28.402	0.224	-0.194
-722.850	356.485	0.129	0.263
-721.835	-11.671	-0.103	-0.069
-720.821	248.436	-0.089	0.155
-719.806	59.501	0.118	0.119
-718.791	42.024	-0.172	-0.160
-717.777	800.000	0.056	0.179
-716.762	-93.109	0.173	0.049
-715.748	-77.425	-0.183	0.065
-714.733	298.618	-0.159	0.298
-713.718	257.055	-0.094	-0.166
-712.704	146.988	-0.073	-0.100
-711.689	-113.966	0.235	-0.047
-710.675	-33.257	-0.245	-0.139
-709.660	-60.060	0.114	0.050
-708.645	-200.000	-0.004	-0.088
-707.631	180.717	-0.181	-0.272
-706.616	444.557	0.131	-0.293
-705.602	-33.580	0.400	0.226
-704.587	-107.960	-0.123	-0.027
-703.572	478.629	-0.062	0.144
-702.558	-45.560	-0.176	0.089
-701.543	401.631	-0.160	-0.343
-700.529	10.180	0.229	-0.178
-699.514	-200.000	0.003	-0.221
-698.499	50.082	0.140	0.135
-697.485	-81.178	-0.235	0.079
-696.470	-200.000	0.043	0.202
-695.456	27.769	-0.117	0.100
-694.441	4.631	-0.131	0.098
-693.426	-67.669	-0.065	0.026
-692.412	11.118	0.196	0.153
-691.397	185.689	0.030	-0.046
-690.383	-200.000	-0.024	0.160
-689.368	140.334	-0.052	0.070
-688.354	125.336	-0.112	0.145
-687.339	-24.492	-0.232	0.141
-686.324	-60.636	-0.079	-0.034
-685.310	25.778	0.114	0.097
-684.295	-147.752	-0.275	0.023
-683.281	-67.935	-0.063	0.025
-682.266	629.263	-0.089	0.230
-681.251	-42.317	-0.240	0.125
-680.237	98.661	0.098	-0.115
-679.222	800.000	0.039	-0.150
-678.208	800.000	-0.087	-0.259
-677.193	-0.734	-0.056	-0.041
-676.178	353.893	-0.120	-0.244
-675.164	201.599	-0.107	0.168
-674.149	-200.000	0.023	-0.207
-673.135	268.273	-0.219	-0.391
-672.120	-111.117	0.238	0.050
-671.105	-200.000	-0.055	0.288
-670.091	7.756	0.341	-0.261
-669.076	11.976	-0.113	-0.088
-668.062	800.000	0.081	0.313
-667.047	-138.154	0.429	0.049
-666.032	-121.727	0.130	0.022
-665.018	225.548	0.144	0.239
-664.003	-126.818	-0.195	-0.029
-662.989	367.025	0.091	-0.188
-661.974	-147.889	-0.108	-0.009
-660.959	324.773	0.125	-0.243
-659.945	62.917	0.228	0.233
-658.930	754.021	0.054	0.148
-657.916	-200.000	-0.004	0.274
-656.901	-127.140	0.315	-0.047
-655.886	-107.740	-0.306	0.068
-654.872	-137.593	-0.056	-0.006
-653.857	76.629	0.050	0.054
-652.843	-158.427	0.393	0.023
-651.828	-116.204	0.330	0.063
-650.814	-200.000	0.007	0.108
-649.799	-26.407	0.248	0.148
-648.784	525.566	-0.066	-0.160
-647.770	-200.000	0.026	-0.117
-646.755	800.000	0.037	-0.159
-645.741	109.061	0.125	-0.152
-644.726	-200.000	-0.047	-0.246
-643.711	800.000	-0.066	0.205
-642.697	129.231	0.107	0.139
-641.682	24.181	0.106	-0.089
-640.668	100.938	0.169	-0.201
-639.653	508.501	-0.040	-0.094
-638.638	1.044	0.300	0.219
-637.624	169.030	-0.064	-0.092
-636.609	-200.000	0.024	0.171
-635.595	-200.000	-0.031	0.239
-634.580	104.032	-0.057	-0.068
-633.565	-200.000	-0.037	-0.434
-632.551	85.985	0.114	-0.128
-631.536	-35.079	-0.291	-0.161
-630.522	-82.462	-0.169	-0.056
-629.507	109.608	0.145	0.177
-628.492	-57.478	-0.226	-0.101
-627.478	800.000	-0.139	-0.394
-626.463	-119.738	0.188	-0.033
-625.449	17.650	-0.108	-0.087
-624.434	800.000	-0.059	-0.227
-623.419	-50.377	0.507	-0.244
-622.405	116.683	0.155	0.193
-621.390	321.673	0.157	0.303
-620.376	-52.410	0.148	-0.070
-619.361	-96.945	-0.252	0.067
-618.346	-200.000	0.028	0.157
-617.332	562.936	-0.053	-0.131
-616.317	-200.000	0.010	0.088
-615.303	1.430	0.211	-0.155
-614.288	800.000	0.118	0.362
-613.273	-172.989	-0.140	-0.004
-612.259	49.270	0.201	-0.192
-611.244	800.000	-0.038	0.142
-610.230	-169.574	0.082	-0.003
-609.215	223.794	0.058	0.095
-608.201	-200.000	-0.005	0.023
-607.186	-200.000	0.120	-0.001
-606.171	-3.221	0.091	0.065
-605.157	225.033	-0.071	0.117
-604.142	-200.000	0.030	0.218
-603.128	-193.603	0.175	0.002
-602.113	-162.802	-0.109	0.005
-601.098	800.000	0.023	-0.091
-600.084	-200.000	0.003	0.188
-599.069	-151.505	-0.210	-0.016
-598.055	53.950	0.201	-0.197
-597.040	-26.773	0.186	0.111
-596.025	-127.534	-0.356	-0.053
-595.011	66.975	0.269	0.279
-593.996	376.662	-0.072	-0.149
-592.982	-200.000	-0.013	-0.307
-591.967	2.390	-0.084	-0.062
-590.952	-200.000	-0.013	0.120
-589.938	800.000	-0.025	0.086
-588.923	-96.052	0.176	0.048
-587.909	-134.797	0.233	0.029
-586.894	-118.114	-0.146	-0.027
-585.879	-149.490	-0.126	0.010
-584.865	-31.374	0.315	-0.180
-583.850	59.877	0.280	0.281
-582.836	-175.671	0.175	0.005
-581.821	-93.063	0.163	-0.046
-580.806	-87.256	0.407	-0.126
-579.792	87.797	0.209	-0.235
-578.777	60.288	-0.254	-0.255
-577.763	-135.248	0.125	-0.015
-576.748	-200.000	-0.012	-0.258
-575.733	4.793	-0.205	0.153
-574.719	56.612	0.147	0.145
-573.704	-200.000	0.058	-0.304
-572.690	-46.014	0.164	0.082
-571.675	-200.000	0.020	0.289
-570.661	799.846	0.095	-0.266
-569.646	-111.898	-0.117	-0.024
-568.631	-196.795	-0.304	-0.002
-567.617	-46.771	-0.176	-0.088
-566.602	393.549	0.058	-0.122
-565.588	151.384	0.157	-0.218
-564.573	-129.093	-0.279	0.040
-563.558	-189.194	0.079	0.001
-562.544	-200.000	0.048	0.240
-561.529	17.001	0.182	0.146
-560.515	800.000	-0.072	-0.295
-559.500	89.881	0.179	0.203
-558.485	-88.745	-0.297	-0.090
-557.471	-139.895	-0.027	-0.003
-556.456	189.089	0.076	0.115
-555.442	-122.464	0.255	-0.042
-554.427	-200.000	-0.010	-0.209
-553.412	-145.478	-0.334	-0.031
-552.398	800.000	-0.033	0.123
-551.383	-90.920	-0.377	-0.110
-550.369	535.808	0.038	0.092
-549.354	39.170	0.211	0.192
-548.339	469.186	-0.032	-0.073
-547.325	85.968	0.294	0.329
-546.310	137.856	0.204	-0.271
-545.296	800.000	0.097	-0.387
-544.281	800.000	-0.036	-0.144
-543.266	138.410	0.098	-0.130
-542.252	-134.939	-0.196	-0.024
-541.237	51.343	-0.284	-0.274
-540.223	800.000	0.165	0.497
-539.208	95.543	-0.075	0.086
-538.193	89.891	0.197	-0.223
-537.179	-0.411	-0.212	-0.153
-536.164	-200.000	-0.009	-0.436
-535.150	-200.000	-0.004	-0.055
-534.135	-111.231	0.303	0.063
-533.121	-6.493	-0.140	0.097
-532.106	-141.331	0.174	-0.018
-531.091	170.486	-0.130	-0.190
-530.077	-200.000	-0.013	-0.177
-529.062	719.839	0.222	-0.598
-528.048	-133.100	0.110	0.014
-527.033	-200.000	0.021	0.097
-526.018	-200.000	0.048	-0.275
-525.004	103.346	-0.142	-0.169
-523.989	-143.574	-0.156	-0.015
-522.975	-115.611	-0.268	-0.051
-521.960	-200.000	-0.008	-0.053
-520.945	480.095	0.050	0.114
-519.931	40.463	0.198	-0.181
-518.916	-134.969	0.248	0.030
-517.902	15.409	-0.263	-0.209
-516.887	-77.421	0.124	0.044
-515.872	-74.192	-0.126	-0.046
-514.858	-122.466	0.489	0.081
-513.843	-84.073	-0.178	-0.057
-512.829	20.776	0.230	0.189
-511.814	317.398	-0.091	0.175
-510.799	-200.000	0.002	-0.117
-509.785	-99.545	-0.082	0.021
-508.770	273.297	-0.113	-0.202
-507.756	-159.938	-0.037	-0.002
-506.741	-200.000	-0.005	-0.097
-505.726	-84.361	-0.151	0.049
-504.712	94.684	-0.229	-0.265
-503.697	800.000	-0.041	0.152
-502.683	-39.316	0.131	0.070
-501.668	800.000	0.075	-0.305
-500.653	54.851	-0.093	-0.091
-499.639	-77.841	-0.165	-0.058
-498.624	-19.082	0.214	0.135
-497.610	254.231	-0.196	0.340
-496.595	800.000	0.040	-0.124
-495.581	322.866	-0.043	-0.083
-494.566	-128.597	-0.396	0.057
-493.551	-24.453	0.145	0.087
-492.537	-48.430	0.142	-0.070
-491.522	-169.242	0.342	0.013
-490.508	71.725	0.151	0.159
-489.493	99.578	-0.188	-0.221
-488.478	471.106	-0.057	0.130
-487.464	-200.000	0.026	-0.194
-486.449	-63.319	-0.107	-0.044
-485.435	-96.874	-0.159	-0.042
-484.420	-200.000	-0.036	0.252
-483.405	-77.960	-0.061	-0.021
-482.391	54.883	-0.077	-0.076
-481.376	-200.000	-0.030	0.524
-480.362	797.308	0.023	-0.065
-479.347	-6.268	0.215	-0.148
-478.332	273.976	0.040	0.072
-477.318	-104.464	-0.326	-0.076
-476.303	70.005	0.130	-0.136
-475.289	-200.000	0.004	-0.043
-474.274	320.105	-0.122	-0.235
-473.259	-143.637	-0.274	-0.026
-472.245	10.303	0.083	-0.064
-471.230	39.570	0.039	-0.035
-470.216	-200.000	0.000	0.253
-469.201	172.368	-0.049	-0.071
-468.186	-82.080	-0.287	-0.095
-467.172	8.268	-0.275	-0.209
-466.157	-52.577	-0.157	0.073
-465.143	-75.789	-0.204	-0.073
-464.128	-33.298	-0.118	0.066
-463.113	-200.000	0.019	0.314
-462.099	800.000	0.062	0.219
-461.084	73.791	0.148	-0.157
-460.070	-200.000	0.012	-0.085
-459.055	4.978	-0.346	0.257
-458.040	60.680	-0.209	0.209
-457.026	-200.000	-0.038	0.237
-456.011	102.364	0.171	0.202
-454.997	580.961	-0.083	0.205
-453.982	-200.000	-0.044	0.419
-452.968	-42.353	-0.145	0.075
-451.953	-200.000	-0.213	0.000
-450.938	-200.000	0.059	0.298
-449.924	-200.000	-0.022	-0.112
-448.909	-118.022	-0.084	0.015
-447.895	29.731	-0.015	0.013
-446.880	-200.000	0.069	0.448
-445.865	90.500	-0.125	-0.141
-444.851	-132.556	0.125	0.016
-443.836	103.186	0.027	0.032
-442.822	-87.489	-0.180	-0.055
-441.807	769.231	0.072	0.198
-440.792	-155.652	0.292	-0.019
-439.778	60.026	0.163	0.163
-438.763	-47.633	-0.153	-0.075
-437.749	3.991	0.187	-0.138
-436.734	64.548	0.106	-0.108
-435.719	63.823	-0.270	-0.274
-434.705	-173.909	-0.419	0.013
-433.690	-200.000	-0.026	-0.217
-432.676	-30.406	-0.195	0.112
-431.661	41.276	0.165	-0.151
-430.646	305.229	0.063	-0.119
-429.632	355.204	0.114	-0.228
-428.617	800.000	-0.066	0.211
-427.603	131.166	0.093	0.120
-426.588	-136.076	-0.455	0.054
-425.573	14.611	-0.319	0.252
-424.559	-4.436	-0.285	0.199
-423.544	-69.498	0.292	-0.113
-422.530	-178.978	0.314	0.007
-421.515	94.452	0.263	0.302
-420.500	-200.000	0.041	-0.281
-419.486	-27.579	-0.154	-0.091
-418.471	99.322	0.065	-0.076
-417.457	-200.000	0.030	-0.253
-416.442	257.262	0.033	0.057
-415.428	-131.924	-0.079	0.010
-414.413	-52.339	-0.354	-0.166
-413.398	19.224	0.064	-0.052
-412.384	141.545	-0.160	-0.214
-411.369	-107.177	-0.320	0.071
-410.355	-200.000	0.029	-0.247
-409.340	30.523	-0.190	0.164
-408.325	-200.000	0.021	0.255
-407.311	-61.620	0.249	-0.106
-406.296	800.000	0.038	0.136
-405.282	-62.230	-0.191	-0.080
-404.267	207.112	0.136	-0.214
-403.252	328.683	0.168	0.327
-402.238	8.964	0.330	-0.252
-401.223	-200.000	-0.030	-0.166
-400.209	800.000	0.049	-0.211
-399.194	45.377	-0.165	0.153
-398.179	523.402	0.114	-0.270
-397.165	-200.000	-0.066	-0.300
-396.150	-82.692	0.333	-0.109
-395.136	10.290	0.221	0.170
-394.121	-144.009	-0.118	-0.011
-393.106	-23.136	-0.076	0.046
-392.092	-34.392	0.077	0.043
-391.077	-37.295	-0.186	-0.100
-390.063	-25.524	-0.107	0.064
-389.048	800.000	-0.095	0.321
-388.033	49.368	-0.244	0.232
-387.019	-163.537	0.272	-0.013
-386.004	155.034	0.101	-0.140
-384.990	84.353	-0.121	-0.134
-383.975	-181.146	0.175	-0.004
-382.960	-150.357	-0.047	-0.004
-381.946	-200.000	0.017	0.162
-380.931	603.100	-0.066	0.165
-379.917	10.579	-0.050	-0.039
-378.902	572.080	-0.073	0.180
-377.888	-136.258	0.308	-0.036
-376.873	-200.000	0.016	0.265
-375.858	197.206	-0.198	0.304
-374.844	-165.358	-0.257	-0.011
-373.829	-200.000	0.010	-0.265
-372.815	1.917	0.115	-0.083
-371.800	-53.800	-0.360	-0.166
-370.785	-152.706	-0.109	-0.008
-369.771	-200.000	0.030	0.208
-368.756	360.779	-0.076	0.153
-367.742	-32.948	0.280	-0.157
-366.727	-61.395	0.346	-0.147
-365.712	800.000	-0.064	-0.204
-364.698	207.303	0.122	-0.192
-363.683	-82.524	-0.156	0.051
-362.669	443.333	-0.157	0.346
-361.654	800.000	0.120	0.452
-360.639	47.276	0.213	0.200
-359.625	-180.695	-0.156	-0.003
-358.610	-158.085	-0.222	-0.013
-357.596	-97.804	-0.221	0.058
-356.581	-15.997	-0.157	-0.101
-355.566	6.002	0.173	0.129
-354.552	-157.165	0.200	-0.012
-353.537	-200.000	-0.087	0.414
-352.523	-53.949	-0.274	-0.126
-351.508	-162.612	0.119	-0.006
-350.493	-129.451	-0.116	0.016
-349.479	92.530	0.104	-0.118
-348.464	800.000	-0.063	0.221
-347.450	103.895	-0.214	-0.253
-346.435	800.000	-0.024	-0.078
-345.420	-158.445	0.135	0.008
-344.406	-200.000	-0.052	0.337
-343.391	-56.028	-0.292	0.131
-342.377	-200.000	0.029	-0.178
-341.362	-52.604	0.302	0.141
-340.348	-142.968	0.300	-0.029
-339.333	111.136	-0.089	-0.108
-338.318	27.203	0.165	0.140
-337.304	116.398	0.207	-0.255
-336.289	-98.939	-0.076	0.019
-335.275	-56.082	-0.113	0.051
-334.260	-39.664	-0.118	-0.062
-333.245	15.117	0.225	0.178
-332.231	-66.091	-0.080	-0.032
-331.216	-200.000	-0.042	0.317
-330.202	34.107	0.168	-0.147
-329.187	-42.952	-0.155	0.079
-328.172	-200.000	-0.056	0.326
-327.158	-46.989	0.219	0.108
-326.143	-200.000	-0.010	-0.446
-325.129	-200.000	-0.010	-0.357
-324.114	-200.000	0.023	0.509
-323.099	-57.280	-0.209	-0.093
-322.085	3.350	-0.213	-0.156
-321.070	431.404	0.079	-0.172
-320.056	-114.722	-0.331	-0.064
-319.041	-200.000	0.016	0.246
-318.026	312.055	0.124	-0.234
-317.012	-121.769	0.214	0.036
-315.997	-8.988	-0.082	0.055
-314.983	-200.000	-0.006	0.357
-313.968	800.000	-0.019	-0.076
-312.953	-200.000	0.000	-0.134
-311.939	249.521	0.158	0.270
-310.924	-128.830	-0.108	-0.015
-309.910	161.854	-0.135	0.190
-308.895	12.898	-0.189	0.147
-307.880	-175.568	0.220	0.006
-306.866	150.317	0.115	0.157
-305.851	754.005	-0.081	0.221
-304.837	-154.354	0.223	-0.015
-303.822	-184.612	0.242	0.004
-302.807	800.000	-0.072	-0.220
-301.793	216.640	0.130	0.208
-300.778	-8.829	-0.119	-0.080
-299.764	-189.068	-0.264	0.003
-298.749	79.895	-0.081	0.087
-297.735	-200.000	0.030	-0.178
-296.720	-136.619	-0.045	0.005
-295.705	800.000	0.093	0.367
-294.691	197.103	-0.075	-0.116
-293.676	7.123	-0.177	-0.133
-292.662	366.870	0.150	0.304
-291.647	800.000	0.051	-0.180
-290.632	-200.000	-0.036	0.191
-289.618	-130.151	0.144	-0.020
-288.603	-83.940	0.184	0.059
-287.589	-123.117	-0.252	-0.041
-286.574	-2.270	0.259	-0.183
-285.559	-146.423	0.148	0.013
-284.545	66.480	0.054	-0.055
-283.530	-88.659	0.296	0.089
-282.516	-200.000	-0.292	-0.001
-281.501	60.980	0.269	-0.268
-280.486	37.097	0.351	-0.313
-279.472	-62.184	-0.263	-0.110
-278.457	-133.559	-0.185	0.023
-277.443	-33.456	-0.390	-0.217
-276.428	152.173	-0.129	0.177
-275.413	118.760	0.100	0.125
-274.399	98.430	-0.270	-0.313
-273.384	800.000	-0.021	-0.086
-272.370	-36.868	0.381	-0.205
-271.355	-200.000	-0.019	0.150
-270.340	398.380	-0.076	0.160
-269.326	-127.936	0.297	0.043
-268.311	-71.523	-0.143	0.054
-267.297	68.863	0.162	-0.167
-266.282	112.179	-0.185	-0.225
-265.267	70.273	0.191	-0.198
-264.253	-9.678	0.030	-0.020
-263.238	-61.556	0.122	-0.052
-262.224	-124.423	-0.315	-0.049
-261.209	63.555	-0.119	-0.120
-260.195	-200.000	0.015	0.152
-259.180	-21.758	-0.165	0.101
-258.165	57.145	0.105	0.103
-257.151	800.000	-0.098	0.415
-256.136	-200.000	0.030	0.217
-255.122	-200.000	0.045	0.274
-254.107	800.000	0.033	0.093
-253.092	252.609	0.126	0.215
-252.078	80.474	0.195	-0.211
-251.063	800.000	-0.083	0.233
-250.049	800.000	0.082	0.343
-249.034	592.955	-0.095	-0.236
-248.019	-73.010	-0.200	-0.074
-247.005	-129.978	0.110	-0.015
-245.990	800.000	-0.032	0.131
-244.976	-200.000	-0.003	-0.062
-243.961	-200.000	0.000	-0.027
-242.946	-50.079	0.103	0.049
-241.932	595.422	-0.136	0.339
-240.917	-19.965	-0.026	-0.016
-239.903	415.399	0.030	0.063
-238.888	-130.581	-0.463	0.063
-237.873	180.042	0.218	0.320
-236.859	138.765	0.149	0.196
-235.844	26.768	0.189	-0.159
-234.830	133.490	0.020	-0.026
-233.815	33.970	0.169	0.147
-232.800	-200.000	-0.338	-0.001
-231.786	127.291	0.240	0.306
-230.771	-67.192	0.476	0.188
-229.757	-3.625	-0.194	-0.136
-228.742	-53.864	-0.264	-0.121
-227.727	800.000	0.169	-0.502
-226.713	-38.101	0.152	-0.081
-225.698	800.000	-0.017	-0.052
-224.684	487.081	-0.184	-0.421
-223.669	-45.109	0.261	-0.130
-222.655	19.639	-0.107	0.086
-221.640	91.003	-0.254	0.286
-220.625	800.000	0.046	-0.158
-219.611	800.000	0.131	0.398
-218.596	-59.217	-0.296	0.128
-217.582	-71.105	-0.099	-0.037
-216.567	163.554	0.074	-0.105
-215.552	10.006	-0.145	-0.110
-214.538	800.000	0.024	0.096
-213.523	-155.009	0.245	-0.016
-212.509	179.121	0.139	0.204
-211.494	-52.491	0.068	-0.031
-210.479	-162.660	-0.255	0.013
-209.465	248.611	-0.067	-0.114
-208.450	109.277	-0.098	-0.118
-207.436	-7.361	0.255	0.173
-206.421	91.399	0.253	0.285
-205.406	-200.000	-0.011	0.228
-204.392	-200.000	-0.046	0.227
-203.377	-67.714	-0.123	0.048
-202.363	-62.377	-0.282	0.117
-201.348	-78.031	-0.171	-0.059
-200.333	229.626	0.170	0.278
-199.319	585.321	0.075	-0.185
-198.304	-0.969	-0.226	0.161
-197.290	41.703	-0.201	0.183
-196.275	800.000	-0.070	-0.228
-195.260	-135.181	0.146	0.018
-194.246	-200.000	-0.006	-0.145
-193.231	800.000	0.039	-0.137
-192.217	111.883	-0.075	-0.091
-191.202	-134.806	0.152	0.018
-190.187	194.686	-0.156	-0.237
-189.173	-172.112	0.127	-0.004
-188.158	275.806	-0.038	-0.068
-187.144	193.329	0.163	0.247
-186.129	300.077	0.075	0.138
-185.114	-103.837	0.219	0.051
-184.100	271.659	-0.010	-0.018
-183.085	185.760	-0.176	0.262
-182.071	288.256	0.185	-0.336
-181.056	455.739	-0.099	-0.220
-180.042	216.174	-0.098	-0.155
-179.027	24.812	-0.135	-0.112
-178.012	-71.131	-0.274	-0.103
-176.998	475.459	0.063	0.143
-175.983	-200.000	-0.098	0.485
-174.969	-112.995	0.176	0.035
-173.954	2.729	0.216	-0.157
-172.939	384.714	-0.050	-0.103
-171.925	-200.000	0.021	0.135
-170.910	-104.715	0.343	0.079
-169.896	-200.000	-0.013	-0.446
-168.881	-48.985	0.220	0.105
-167.866	-200.000	0.011	-0.220
-166.852	-88.278	-0.315	-0.094
-165.837	-61.706	0.335	-0.140
-164.823	4.864	0.040	0.029
-163.808	-131.075	0.121	-0.016
-162.793	527.159	-0.132	0.312
-161.779	180.569	0.189	-0.277
-160.764	-200.000	0.002	-0.102
-159.750	-200.000	0.014	-0.109
-158.735	-152.621	-0.322	-0.023
-157.720	-81.580	-0.213	0.070
-156.706	7.580	-0.298	-0.223
-155.691	800.000	-0.015	0.065
-154.677	-200.000	-0.015	-0.211
-153.662	800.000	0.004	0.011
-152.647	647.652	0.188	0.481
-151.633	231.594	-0.041	-0.067
-150.618	800.000	-0.051	0.170
-149.604	-107.425	0.130	0.029
-148.589	800.000	-0.018	-0.064
-147.574	-48.696	0.185	0.089
-146.560	184.727	-0.127	0.188
-145.545	800.000	0.149	-0.498
-144.531	800.000	0.020	-0.063
-143.516	7.902	0.173	0.129
-142.502	-155.580	0.169	0.011
-141.487	330.845	0.074	0.142
-140.472	-77.676	0.127	-0.044
-139.458	-200.000	0.031	-0.248
-138.443	218.150	-0.155	0.247
-137.429	369.060	0.043	0.086
-136.414	-41.684	0.199	0.102
-135.399	388.753	-0.040	-0.082
-134.385	-153.430	-0.174	0.012
-133.370	36.352	-0.132	-0.116
-132.356	-156.304	0.210	-0.013
-131.341	-47.108	-0.185	0.090
-130.326	-200.000	0.041	-0.229
-129.312	-200.000	0.007	-0.138
-128.297	-127.881	0.181	0.026
-127.283	11.548	-0.198	-0.151
-126.268	-41.783	0.099	0.051
-125.253	-200.000	0.014	0.175
-124.239	258.288	0.088	-0.152
-123.224	-68.353	-0.030	-0.012
-122.210	-200.000	-0.035	0.225
-121.195	-67.399	0.176	0.069
