DTS Sentinel unit serial number:	SN413079Multiplexer serial number:	ORYXHardware model number:	OX4-SRSoftware version number:	ORYX F/W v4.00 Oryx Data Collector v3.7.2.0data status	okinstallation	princeton_trtdifferential loss correction	single-endedforward channel	channel 3reverse channel	N/Adate	2019/09/12time	11:58:10forward acquisition time	60.00reverse acquisition time	0.00gamma	496.2192k internal	0.2293k external	0.2293temperature offset calibration	1.0038default loss term (dB/km)	0.3790temperature slope calibration	1.0000multiplexer offset coefficient	1.0000multiplexer slope coefficient	1.0000fibre end	0.00T internal ref (°C)	40.25T ext. ref 1 (°C)	2.01T ext. ref 2 (°C)	38.23length (m)	temperature (°C)	Stokes	anti-Stokes-747.200	-30.902	-0.507	0.293
-746.185	177.827	0.162	0.241
-745.171	-168.268	0.150	-0.006
-744.156	173.591	-0.159	0.235
-743.142	31.975	-0.203	0.179
-742.127	-113.944	0.186	-0.037
-741.112	-165.714	-0.044	0.002
-740.098	470.836	-0.111	-0.255
-739.083	555.076	0.044	-0.109
-738.069	492.048	0.036	0.085
-737.054	489.164	-0.063	0.146
-736.039	58.490	-0.086	-0.086
-735.025	64.917	0.124	0.128
-734.010	-6.034	0.320	0.224
-732.996	88.610	0.049	-0.056
-731.981	-6.572	0.066	-0.046
-730.966	-66.493	-0.343	0.139
-729.952	-23.960	-0.279	0.170
-728.937	800.000	-0.141	-0.598
-727.923	-114.257	0.118	-0.023
-726.908	56.825	-0.152	-0.151
-725.894	-200.000	0.007	-0.132
-724.879	102.400	0.101	-0.120
-723.864	-200.000	0.011	-0.096
-722.850	35.798	-0.291	-0.261
-721.835	59.223	0.219	-0.220
-720.821	-200.000	0.040	-0.464
-719.806	-33.659	-0.441	-0.249
-718.791	9.502	-0.268	0.208
-717.777	261.474	0.120	-0.212
-716.762	-200.000	0.006	0.123
-715.748	66.632	-0.113	-0.118
-714.733	611.796	0.035	0.089
-713.718	77.473	0.118	-0.128
-712.704	416.525	0.074	0.160
-711.689	-38.801	-0.180	-0.097
-710.675	530.208	-0.154	-0.371
-709.660	-90.153	-0.282	-0.084
-708.645	201.004	-0.177	-0.279
-707.631	263.166	0.089	0.158
-706.616	-65.880	0.117	-0.048
-705.602	-106.107	-0.342	-0.079
-704.587	-84.348	0.433	0.140
-703.572	-107.397	0.184	0.041
-702.558	5.912	0.112	-0.085
-701.543	528.331	0.055	0.133
-700.529	-57.183	-0.487	-0.219
-699.514	-62.425	-0.283	-0.120
-698.499	-124.423	0.075	0.012
-697.485	-15.469	0.210	-0.137
-696.470	-85.001	0.048	0.015
-695.456	-200.000	-0.073	-0.358
-694.441	150.223	0.097	-0.134
-693.426	800.000	0.067	-0.233
-692.412	-136.250	0.303	-0.036
-691.397	229.818	-0.067	0.111
-690.383	-112.965	-0.282	0.057
-689.368	512.016	0.069	0.165
-688.354	235.907	0.090	-0.152
-687.339	191.059	0.185	0.283
-686.324	-200.000	-0.017	-0.157
-685.310	13.399	-0.376	-0.297
-684.295	-48.494	-0.214	-0.105
-683.281	-200.000	-0.040	0.189
-682.266	-200.000	-0.001	0.220
-681.251	-200.000	-0.026	0.135
-680.237	88.617	0.030	0.034
-679.222	169.455	-0.030	-0.044
-678.208	-138.912	0.170	-0.019
-677.193	47.817	0.029	0.027
-676.178	-200.000	0.040	-0.461
-675.164	-93.090	0.115	-0.033
-674.149	17.440	-0.262	-0.212
-673.135	364.425	-0.036	0.073
-672.120	-200.000	-0.004	-0.093
-671.105	-13.451	0.038	-0.025
-670.091	615.725	-0.164	0.419
-669.076	-16.331	0.200	-0.129
-668.062	658.848	0.067	0.175
-667.047	-31.767	-0.288	0.164
-666.032	-80.449	-0.429	-0.146
-665.018	-80.187	0.224	0.077
-664.003	122.101	0.146	0.186
-662.989	52.190	-0.240	-0.233
-661.974	-115.411	0.164	0.032
-660.959	-200.000	-0.018	-0.090
-659.945	5.074	0.076	0.057
-658.930	544.241	0.104	0.253
-657.916	800.000	0.022	0.086
-656.901	541.545	0.050	0.121
-655.886	-9.432	0.186	-0.127
-654.872	-112.825	-0.167	-0.034
-653.857	36.438	-0.266	-0.239
-652.843	66.062	0.123	-0.127
-651.828	87.409	-0.190	-0.214
-650.814	-116.292	-0.365	-0.069
-649.799	-159.169	-0.085	-0.005
-648.784	75.122	-0.166	-0.178
-647.770	482.543	-0.189	-0.437
-646.755	-200.000	-0.006	0.197
-645.741	46.136	-0.120	-0.113
-644.726	-120.017	-0.123	-0.021
-643.711	242.339	-0.312	0.532
-642.697	800.000	0.084	-0.240
-641.682	-130.299	0.228	0.032
-640.668	-190.356	-0.371	-0.004
-639.653	-200.000	-0.019	0.114
-638.638	-200.000	-0.002	-0.020
-637.624	499.606	-0.149	-0.350
-636.609	-32.364	0.176	0.100
-635.595	106.504	-0.270	-0.326
-634.580	265.973	0.123	-0.218
-633.565	35.656	-0.185	-0.166
-632.551	358.337	-0.094	0.191
-631.536	-3.500	0.208	-0.147
-630.522	445.529	-0.143	0.319
-629.507	255.191	0.073	-0.127
-628.492	-152.792	0.130	0.009
-627.478	800.000	0.039	-0.126
-626.463	203.771	0.173	-0.273
-625.449	800.000	-0.042	0.145
-624.434	84.844	-0.253	-0.282
-623.419	221.140	0.128	0.209
-622.405	325.173	0.200	-0.389
-621.390	71.629	0.062	-0.066
-620.376	-17.906	0.192	0.122
-619.361	-68.994	-0.053	0.021
-618.346	-200.000	-0.019	-0.104
-617.332	699.918	-0.077	-0.206
-616.317	-87.296	-0.313	0.097
-615.303	-129.310	0.411	-0.058
-614.288	104.662	0.317	-0.381
-613.273	192.494	-0.064	0.098
-612.259	-124.963	0.347	-0.054
-611.244	-191.982	0.180	-0.002
-610.230	-200.000	0.029	-0.148
-609.215	4.223	-0.250	0.186
-608.201	-200.000	-0.021	0.143
-607.186	800.000	-0.038	-0.153
-606.171	-200.000	-0.005	-0.071
-605.157	136.534	0.092	-0.123
-604.142	191.625	-0.099	0.152
-603.128	-200.000	0.005	0.122
-602.113	-110.994	0.050	-0.010
-601.098	38.351	-0.276	0.250
-600.084	-69.962	-0.114	-0.044
-599.069	376.507	0.221	0.459
-598.055	36.317	0.391	0.351
-597.040	3.230	-0.146	-0.108
-596.025	-0.486	0.249	-0.180
-595.011	-200.000	0.064	-0.311
-593.996	413.392	-0.103	-0.223
-592.982	79.432	-0.125	-0.137
-591.967	-101.637	0.200	0.049
-590.952	-100.704	-0.179	-0.045
-589.938	-2.329	-0.375	-0.268
-588.923	644.885	-0.071	-0.185
-587.909	323.069	-0.189	0.366
-586.894	-145.150	-0.124	0.011
-585.879	-62.116	-0.355	0.151
-584.865	49.529	-0.112	0.107
-583.850	-200.000	0.043	0.368
-582.836	-77.570	0.097	-0.034
-581.821	-111.776	0.057	-0.012
-580.806	292.962	0.142	0.263
-579.792	398.031	0.011	0.024
-578.777	-78.597	0.129	0.045
-577.763	-200.000	-0.001	0.131
-576.748	-41.736	0.072	0.038
-575.733	-98.801	-0.524	0.136
-574.719	800.000	-0.051	-0.145
-573.704	220.223	0.121	-0.198
-572.690	-200.000	0.025	-0.163
-571.675	428.252	-0.105	-0.230
-570.661	-30.637	-0.181	0.104
-569.646	69.857	0.113	-0.119
-568.631	74.103	0.087	0.093
-567.617	124.762	0.238	-0.304
-566.602	-124.030	0.245	-0.039
-565.588	-200.000	-0.103	0.496
-564.573	-200.000	0.010	-0.131
-563.558	-155.643	0.530	0.035
-562.544	3.954	-0.317	-0.235
-561.529	-200.000	0.006	-0.033
-560.515	-200.000	-0.018	-0.219
-559.500	-95.224	-0.064	-0.017
-558.485	182.485	0.240	-0.360
-557.471	-64.917	-0.197	-0.081
-556.456	207.406	0.083	0.132
-555.442	126.488	-0.059	-0.076
-554.427	362.665	-0.131	0.268
-553.412	547.608	0.056	-0.135
-552.398	-200.000	-0.053	0.316
-551.383	-16.096	0.331	0.213
-550.369	567.880	-0.025	0.061
-549.354	8.544	0.132	-0.101
-548.339	265.951	0.125	0.222
-547.325	-200.000	-0.066	0.300
-546.310	-146.603	0.254	-0.022
-545.296	-200.000	-0.047	0.412
-544.281	800.000	-0.050	0.167
-543.266	800.000	0.084	-0.257
-542.252	-200.000	-0.035	0.159
-541.237	-61.124	0.139	0.059
-540.223	-46.088	0.414	-0.207
-539.208	-200.000	-0.020	-0.132
-538.193	-0.678	-0.187	-0.135
-537.179	800.000	-0.039	-0.149
-536.164	-158.678	-0.237	0.014
-535.150	50.430	0.067	-0.065
-534.135	-64.811	0.128	-0.052
-533.121	-33.434	0.263	-0.148
-532.106	310.000	-0.126	0.240
-531.091	483.484	0.073	-0.169
-530.077	-200.000	0.001	-0.303
-529.062	-154.087	0.239	-0.016
-528.048	-81.491	0.137	0.046
-527.033	-94.516	0.251	0.069
-526.018	468.286	-0.085	-0.192
-525.004	-2.536	-0.241	-0.171
-523.989	-200.000	-0.015	-0.117
-522.975	800.000	0.041	0.123
-521.960	117.924	-0.089	0.111
-520.945	-200.000	0.023	-0.144
-519.931	-110.923	-0.054	-0.011
-518.916	-32.373	-0.151	-0.085
-517.902	-20.145	0.221	-0.138
-516.887	-70.487	0.185	0.071
-515.872	95.980	-0.197	0.229
-514.858	800.000	-0.063	0.217
-513.843	183.353	0.178	0.267
-512.829	763.592	0.017	0.046
-511.814	-109.126	-0.232	-0.050
-510.799	-46.040	-0.236	-0.118
-509.785	-77.614	-0.335	-0.118
-508.770	-31.479	-0.302	0.172
-507.756	11.209	-0.148	0.114
-506.741	-89.070	-0.344	0.103
-505.726	-79.005	-0.419	-0.144
-504.712	151.658	0.150	-0.207
-503.697	-200.000	0.066	-0.361
-502.683	-200.000	0.068	-0.437
-501.668	-100.872	-0.060	-0.015
-500.653	90.834	0.158	0.179
-499.639	-200.000	-0.016	0.328
-498.624	-165.284	0.162	-0.007
-497.610	-39.495	0.338	-0.180
-496.595	-102.987	-0.032	0.008
-495.581	800.000	0.040	0.175
-494.566	552.772	0.054	-0.132
-493.551	119.786	0.022	0.027
-492.537	22.087	0.281	-0.232
-491.522	39.984	-0.134	-0.122
-490.508	800.000	0.095	0.345
-489.493	-24.632	0.351	-0.212
-488.478	-46.086	-0.305	-0.152
-487.464	7.623	-0.089	-0.067
-486.449	11.478	0.242	-0.188
-485.435	-103.095	-0.427	0.102
-484.420	390.008	-0.264	0.554
-483.405	-90.894	-0.365	-0.106
-482.391	-143.523	-0.192	-0.019
-481.376	-124.865	-0.292	-0.046
-480.362	-138.397	0.306	0.034
-479.347	16.980	0.149	0.120
-478.332	315.026	0.033	0.063
-477.318	-173.965	0.109	-0.003
-476.303	-153.578	-0.191	0.013
-475.289	800.000	0.088	-0.266
-474.274	-49.913	-0.117	-0.056
-473.259	101.426	-0.073	-0.086
-472.245	445.712	0.036	0.080
-471.230	-107.540	-0.153	0.034
-470.216	-200.000	0.036	-0.397
-469.201	-132.862	0.225	-0.029
-468.186	441.505	-0.064	0.142
-467.172	111.684	-0.076	0.092
-466.157	-200.000	-0.010	0.050
-465.143	56.507	-0.247	-0.243
-464.128	-200.000	-0.004	-0.109
-463.113	241.994	-0.038	0.065
-462.099	-102.495	-0.249	-0.060
-461.084	245.610	0.082	0.140
-460.070	800.000	-0.109	-0.315
-459.055	4.000	0.272	-0.201
-458.040	117.925	-0.195	0.243
-457.026	-79.854	-0.149	0.051
-456.011	-200.000	0.019	0.123
-454.997	401.529	0.181	0.384
-453.982	140.352	0.073	-0.098
-452.968	800.000	0.088	-0.329
-451.953	800.000	-0.092	0.336
-450.938	-43.785	0.121	0.062
-449.924	-200.000	0.011	-0.402
-448.909	-14.859	0.255	0.166
-447.895	-22.597	0.313	0.191
-446.880	-47.540	0.439	0.215
-445.865	63.880	-0.193	0.197
-444.851	-72.412	0.103	-0.039
-443.836	409.587	0.034	-0.072
-442.822	213.652	0.024	-0.038
-441.807	800.000	-0.061	-0.174
-440.792	37.299	-0.163	-0.146
-439.778	-200.000	-0.020	-0.522
-438.763	205.180	-0.154	-0.242
-437.749	69.459	0.229	0.238
-436.734	39.664	-0.154	0.140
-435.719	50.844	-0.118	-0.113
-434.705	-56.906	-0.060	0.027
-433.690	-140.438	-0.419	-0.044
-432.676	2.736	-0.142	-0.104
-431.661	-43.019	0.044	-0.022
-430.646	10.313	0.124	0.095
-429.632	-172.344	-0.206	-0.007
-428.617	196.915	0.081	-0.125
-427.603	-27.009	0.499	-0.294
-426.588	-200.000	-0.026	-0.381
-425.573	49.874	-0.140	0.133
-424.559	193.779	0.114	0.175
-423.544	269.140	0.184	0.326
-422.530	-105.133	-0.232	-0.054
-421.515	-58.508	-0.025	-0.011
-420.500	-20.846	0.199	-0.123
-419.486	-200.000	0.017	0.125
-418.471	-200.000	0.064	-0.391
-417.457	-97.606	0.182	-0.048
-416.442	-135.649	-0.423	0.051
-415.428	-38.795	-0.439	-0.234
-414.413	38.502	-0.205	-0.184
-413.398	155.997	0.104	0.145
-412.384	329.768	-0.147	-0.286
-411.369	-7.826	-0.104	0.071
-410.355	-110.424	-0.076	-0.016
-409.340	-116.384	-0.168	-0.031
-408.325	677.101	-0.066	0.173
-407.311	-200.000	0.013	-0.237
-406.296	-151.432	0.115	-0.009
-405.282	-28.440	0.056	-0.033
-404.267	800.000	-0.019	0.058
-403.252	139.708	-0.073	-0.098
-402.238	497.284	-0.094	0.218
-401.223	800.000	0.055	0.204
-400.209	-200.000	-0.003	0.089
-399.194	62.708	0.341	-0.344
-398.179	-83.254	-0.126	-0.041
-397.165	182.619	-0.148	-0.220
-396.150	52.531	-0.160	-0.155
-395.136	-200.000	0.006	-0.303
-394.121	307.145	-0.059	-0.111
-393.106	106.885	-0.211	0.252
-392.092	42.132	-0.187	-0.171
-391.077	247.638	0.199	0.339
-390.063	413.281	0.083	0.178
-389.048	115.319	-0.129	0.159
-388.033	-130.256	-0.244	0.034
-387.019	47.209	0.162	-0.152
-386.004	-200.000	0.002	0.016
-384.990	-47.617	-0.331	-0.162
-383.975	-200.000	-0.037	0.276
-382.960	-35.617	-0.223	-0.122
-381.946	800.000	0.037	0.162
-380.931	79.375	-0.172	0.186
-379.917	298.134	-0.101	0.188
-378.902	444.252	0.133	-0.295
-377.888	22.687	0.088	-0.073
-376.873	225.139	0.065	0.106
-375.858	45.682	-0.088	0.082
-374.844	263.892	-0.081	0.142
-373.829	-170.184	-0.071	-0.003
-372.815	-87.994	-0.127	0.039
-371.800	-30.531	0.033	0.019
-370.785	-77.851	0.311	-0.108
-369.771	-31.911	-0.580	0.328
-368.756	78.074	0.347	0.374
-367.742	-90.855	0.174	-0.050
-366.727	327.882	-0.013	-0.024
-365.712	511.181	-0.028	-0.065
-364.698	800.000	0.035	0.102
-363.683	117.511	0.213	-0.264
-362.669	123.660	0.217	0.274
-361.654	435.195	0.093	0.204
-360.639	-16.322	0.247	-0.158
-359.625	49.930	-0.061	-0.058
-358.610	595.906	-0.141	-0.351
-357.596	-62.122	0.187	0.079
-356.581	469.723	-0.080	0.180
-355.566	5.352	-0.076	0.056
-354.552	-200.000	-0.067	-0.372
-353.537	-84.448	0.085	0.027
-352.523	146.841	0.229	0.310
-351.508	259.523	0.093	-0.162
-350.493	-200.000	-0.000	-0.058
-349.479	-87.599	-0.079	0.024
-348.464	-200.000	-0.033	0.212
-347.450	557.097	0.116	0.282
-346.435	-21.155	-0.132	-0.081
-345.420	364.870	-0.088	0.179
-344.406	-119.482	0.345	0.060
-343.391	-66.184	0.057	0.023
-342.377	-62.340	-0.235	0.098
-341.362	-71.090	-0.356	-0.135
-340.348	-8.037	0.233	0.158
-339.333	-48.239	-0.353	0.171
-338.318	-200.000	0.016	0.185
-337.304	-48.133	0.378	0.184
-336.289	143.083	0.135	-0.181
-335.275	-200.000	-0.043	-0.249
-334.260	-124.994	-0.404	-0.063
-333.245	800.000	-0.062	0.249
-332.231	312.490	0.107	-0.202
-331.216	-82.196	-0.219	-0.072
-330.202	277.184	-0.073	0.131
-329.187	-114.301	-0.160	0.031
-328.172	-76.085	-0.113	0.040
-327.158	-52.410	0.153	-0.071
-326.143	53.511	-0.161	0.156
-325.129	-142.466	0.163	0.016
-324.114	782.690	-0.034	0.094
-323.099	82.126	-0.150	0.163
-322.085	-73.614	0.278	0.102
-321.070	-161.264	-0.054	-0.003
-320.056	169.333	-0.071	0.102
-319.041	-64.738	-0.040	-0.016
-318.026	446.718	-0.092	0.203
-317.012	61.601	0.149	-0.149
-315.997	-159.192	-0.301	-0.017
-314.983	695.918	0.026	0.068
-313.968	-200.000	0.030	0.268
-312.953	800.000	0.016	0.065
-311.939	-200.000	-0.022	0.139
-310.924	70.992	0.313	-0.326
-309.910	-200.000	0.081	0.395
-308.895	384.383	0.147	0.304
-307.880	800.000	-0.104	-0.428
-306.866	-42.069	0.021	-0.011
-305.851	800.000	-0.048	-0.160
-304.837	13.794	0.190	0.149
-303.822	46.476	-0.094	0.088
-302.807	206.915	0.125	0.196
-301.793	244.726	-0.067	0.113
-300.778	84.419	0.133	0.146
-299.764	-200.000	0.018	0.154
-298.749	35.932	0.011	0.010
-297.735	-200.000	-0.161	-0.001
-296.720	-79.157	0.120	-0.041
-295.705	-32.636	0.159	0.089
-294.691	46.304	0.297	-0.277
-293.676	414.020	0.127	-0.271
-292.662	-200.000	-0.047	0.346
-291.647	167.268	0.096	0.137
-290.632	140.577	0.132	-0.175
-289.618	-200.000	0.095	-0.536
-288.603	-48.043	-0.153	0.074
-287.589	-60.446	0.249	0.106
-286.574	800.000	-0.027	-0.113
-285.559	-77.890	0.110	0.038
-284.545	-3.682	-0.065	0.045
-283.530	-129.274	-0.055	-0.008
-282.516	94.769	-0.082	-0.093
-281.501	-97.138	0.174	-0.046
-280.486	800.000	-0.042	0.126
-279.472	-82.331	-0.222	0.073
-278.457	-57.901	0.191	0.084
-277.443	-109.421	-0.120	-0.025
-276.428	800.000	-0.171	-0.522
-275.413	-79.798	0.128	-0.043
-274.399	-31.472	0.389	-0.220
-273.384	209.349	-0.114	-0.180
-272.370	62.478	-0.034	0.034
-271.355	254.068	0.111	0.190
-270.340	-56.015	0.071	0.032
-269.326	280.546	0.051	0.092
-268.311	-8.492	-0.154	-0.104
-267.297	-148.135	-0.178	-0.015
-266.282	-5.439	0.197	0.136
-265.267	28.418	-0.079	-0.067
-264.253	-68.213	0.177	0.069
-263.238	-16.757	0.206	0.131
-262.224	-200.000	0.031	-0.179
-261.209	763.369	-0.105	-0.286
-260.195	-200.000	0.026	-0.126
-259.180	259.319	0.166	0.287
-258.165	330.575	0.066	0.127
-257.151	9.598	-0.100	0.076
-256.136	-16.092	-0.041	0.026
-255.122	-108.564	-0.191	0.041
-254.107	-83.324	0.219	-0.070
-253.092	298.919	0.213	0.393
-252.078	-101.739	0.124	0.030
-251.063	-17.472	0.337	0.213
-250.049	800.000	0.023	0.099
-249.034	-61.236	-0.094	0.040
-248.019	-200.000	-0.035	-0.197
-247.005	-34.129	0.272	-0.150
-245.990	87.823	0.161	-0.179
-244.976	21.604	0.160	-0.131
-243.961	-39.026	0.054	-0.028
-242.946	104.080	-0.068	0.080
-241.932	132.414	0.278	0.360
-240.917	16.640	0.134	-0.106
-239.903	-200.000	0.045	-0.215
-238.888	-200.000	-0.015	-0.302
-237.873	-88.081	0.152	0.046
-236.859	-109.009	0.134	0.029
-235.844	-82.368	0.135	0.044
-234.830	-9.843	0.176	-0.118
-233.815	154.620	0.230	0.317
-232.800	-57.470	-0.098	-0.043
-231.786	-200.000	0.018	-0.527
-230.771	-114.893	0.134	0.026
-229.757	-200.000	-0.012	0.185
-228.742	-39.783	-0.448	-0.235
-227.727	-200.000	-0.019	-0.137
-226.713	386.666	0.030	-0.062
-225.698	-200.000	-0.042	0.419
-224.684	-137.443	-0.150	-0.017
-223.669	48.836	0.284	-0.267
-222.655	82.371	-0.129	-0.140
-221.640	-31.052	-0.420	0.238
-220.625	-68.859	-0.213	-0.083
-219.611	-200.000	0.035	0.428
-218.596	-110.917	0.106	-0.022
-217.582	-200.000	0.019	0.486
-216.567	66.393	0.214	-0.218
-215.552	-172.381	0.200	0.006
-214.538	-200.000	0.015	0.258
-213.523	-11.749	-0.255	0.168
-212.509	800.000	0.046	-0.201
-211.494	100.085	-0.236	-0.274
-210.479	398.181	-0.107	0.225
-209.465	46.023	0.261	-0.242
-208.450	27.209	-0.203	-0.171
-207.436	-79.781	0.179	-0.060
-206.421	800.000	-0.061	-0.223
-205.406	135.521	0.061	-0.080
-204.392	38.016	-0.100	-0.089
-203.377	-37.008	-0.266	-0.143
-202.363	-117.193	0.173	0.031
-201.348	130.900	0.127	-0.164
-200.333	111.527	-0.096	-0.116
-199.319	-164.247	0.251	-0.012
-198.304	-117.017	0.053	-0.010
-197.290	68.937	-0.138	0.142
-196.275	279.842	-0.202	0.362
-195.260	-200.000	-0.041	-0.382
-194.246	-18.212	0.295	-0.185
-193.231	55.720	0.174	0.168
-192.217	-84.383	-0.096	0.030
-191.202	-179.357	0.148	0.003
-190.187	91.901	-0.158	-0.178
-189.173	-200.000	-0.044	0.256
-188.158	-89.896	0.207	0.061
-187.144	-200.000	-0.002	-0.318
-186.129	-15.446	-0.153	0.098
-185.114	-53.501	0.047	0.022
-184.100	800.000	0.138	0.409
-183.085	-200.000	0.033	0.183
-182.071	800.000	-0.128	0.375
-181.056	499.171	0.078	-0.180
-180.042	250.957	0.191	-0.325
-179.027	-57.184	0.091	0.040
-178.012	-166.908	-0.120	0.005
-176.998	-33.890	-0.082	-0.045
-175.983	144.600	-0.168	0.225
-174.969	-200.000	-0.053	0.433
-173.954	98.748	0.054	0.062
-172.939	800.000	-0.011	-0.034
-171.925	110.484	-0.098	0.118
-170.910	6.407	-0.125	-0.093
-169.896	56.479	-0.063	0.061
-168.881	-200.000	0.030	0.366
-167.866	227.390	0.107	0.174
-166.852	-16.040	0.080	0.051
-165.837	182.465	-0.175	-0.258
-164.823	29.445	-0.228	0.194
-163.808	33.358	0.209	0.182
-162.793	-200.000	0.002	-0.018
-161.779	-71.877	-0.197	-0.074
-160.764	800.000	0.066	-0.223
-159.750	-200.000	0.038	-0.311
-158.735	-200.000	0.033	0.144
-157.720	-200.000	-0.040	0.255
-156.706	332.681	0.105	0.202
-155.691	-22.407	-0.120	-0.073
-154.677	-98.773	-0.072	-0.018
-153.662	800.000	-0.138	0.510
-152.647	3.164	-0.212	0.154
-151.633	-200.000	-0.003	0.073
-150.618	-131.119	0.071	-0.009
-149.604	-200.000	0.056	-0.391
-148.589	-22.623	0.122	-0.074
-147.574	314.034	0.123	0.231
-146.560	754.363	-0.078	0.212
-145.545	96.396	0.320	-0.366
-144.531	-61.833	-0.309	-0.129
-143.516	-200.000	0.010	-0.108
-142.502	176.681	0.078	0.113
-141.487	33.891	0.260	-0.226
-140.472	-121.325	0.352	-0.059
-139.458	-144.382	-0.131	0.012
-138.443	28.207	-0.095	-0.080
-137.429	66.709	0.193	-0.196
-136.414	201.247	-0.143	-0.219
-135.399	-200.000	-0.004	-0.159
-134.385	-79.770	-0.372	-0.125
-133.370	426.272	-0.145	0.312
-132.356	11.441	-0.125	0.096
-131.341	-200.000	0.003	0.094
-130.326	16.724	-0.126	0.100
-129.312	800.000	0.042	-0.153
-128.297	-200.000	0.174	-0.000
-127.283	221.609	0.092	-0.148
-126.268	409.332	-0.095	-0.200
-125.253	-111.622	-0.360	0.073
-124.239	177.076	0.056	0.081
-123.224	290.688	-0.049	0.089
-122.210	66.821	-0.222	-0.226
-121.195	-116.036	-0.223	0.042
