DTS Sentinel unit serial number:	SN413079Multiplexer serial number:	ORYXHardware model number:	OX4-SRSoftware version number:	ORYX F/W v4.00 Oryx Data Collector v3.7.2.0data status	okinstallation	princeton_trtdifferential loss correction	single-endedforward channel	channel 3reverse channel	N/Adate	2019/09/16time	10:40:35forward acquisition time	60.00reverse acquisition time	0.00gamma	496.2192k internal	0.2303k external	0.2303temperature offset calibration	0.9945default loss term (dB/km)	0.3790temperature slope calibration	1.0000multiplexer offset coefficient	1.0000multiplexer slope coefficient	1.0000fibre end	0.00T internal ref (°C)	35.83T ext. ref 1 (°C)	12.64T ext. ref 2 (°C)	33.92length (m)	temperature (°C)	Stokes	anti-Stokes-747.200	800.000	0.068	0.286
-746.185	169.014	-0.211	0.307
-745.171	72.352	-0.015	0.016
-744.156	716.152	0.124	0.335
-743.142	578.741	-0.076	0.189
-742.127	119.833	-0.067	-0.085
-741.112	189.733	0.154	0.235
-740.098	409.145	0.153	0.330
-739.083	-105.490	0.252	0.058
-738.069	126.628	-0.057	0.073
-737.054	-200.000	0.037	-0.190
-736.039	-184.741	-0.178	-0.003
-735.025	287.400	0.181	0.333
-734.010	-89.600	-0.245	-0.073
-732.996	15.379	-0.275	-0.219
-731.981	800.000	0.098	-0.284
-730.966	-200.000	-0.245	0.000
-729.952	292.576	-0.124	-0.231
-728.937	204.668	0.070	-0.110
-727.923	800.000	0.134	-0.420
-726.908	109.544	-0.295	-0.360
-725.894	208.527	-0.182	-0.290
-724.879	-63.195	-0.439	0.184
-723.864	800.000	-0.065	-0.229
-722.850	-92.933	0.303	0.086
-721.835	67.596	0.142	-0.148
-720.821	-200.000	-0.027	-0.139
-719.806	33.210	0.189	0.167
-718.791	-200.000	-0.100	-0.534
-717.777	308.782	-0.082	0.156
-716.762	800.000	0.065	-0.239
-715.748	377.004	0.037	-0.077
-714.733	-68.828	0.185	-0.073
-713.718	-37.301	-0.168	0.091
-712.704	-36.290	0.088	-0.048
-711.689	-9.550	-0.591	-0.401
-710.675	-149.525	0.429	0.035
-709.660	-93.272	-0.313	-0.088
-708.645	120.455	-0.068	0.085
-707.631	449.513	0.158	0.354
-706.616	128.065	0.036	0.046
-705.602	136.346	0.147	-0.195
-704.587	150.315	0.165	0.228
-703.572	129.774	-0.165	0.215
-702.558	85.573	0.035	0.039
-701.543	70.131	-0.127	0.133
-700.529	-18.253	0.213	0.136
-699.514	-86.213	0.184	-0.058
-698.499	11.590	-0.079	0.062
-697.485	4.422	-0.135	-0.101
-696.470	-200.000	0.040	-0.188
-695.456	-160.334	-0.156	0.009
-694.441	-200.000	-0.105	-0.567
-693.426	-106.755	0.513	-0.116
-692.412	-177.967	-0.160	-0.004
-691.397	-168.047	0.264	0.010
-690.383	800.000	0.080	-0.253
-689.368	-200.000	-0.027	-0.220
-688.354	248.337	-0.122	0.210
-687.339	285.129	-0.052	-0.096
-686.324	138.484	0.071	-0.095
-685.310	-200.000	0.028	-0.270
-684.295	-70.278	0.206	-0.080
-683.281	-110.417	0.113	0.024
-682.266	-32.602	0.259	0.147
-681.251	23.605	0.178	-0.149
-680.237	50.958	0.150	-0.145
-679.222	198.363	-0.086	-0.134
-678.208	-171.356	-0.240	0.008
-677.193	-103.637	0.155	0.037
-676.178	162.040	0.034	-0.048
-675.164	71.459	0.089	0.094
-674.149	-192.481	-0.127	-0.001
-673.135	55.597	-0.177	-0.174
-672.120	-34.670	0.152	-0.084
-671.105	219.195	0.052	-0.084
-670.091	-134.283	-0.098	0.012
-669.076	-165.915	-0.121	0.005
-668.062	-53.054	-0.254	0.119
-667.047	-17.311	-0.237	0.152
-666.032	298.205	-0.072	-0.135
-665.018	-200.000	-0.034	0.189
-664.003	-117.058	-0.147	-0.027
-662.989	-102.674	-0.189	-0.046
-661.974	-93.329	-0.469	0.132
-660.959	51.038	-0.184	-0.177
-659.945	-112.906	-0.260	0.052
-658.930	-22.199	0.426	-0.263
-657.916	-13.758	-0.095	0.062
-656.901	341.800	0.155	0.307
-655.886	64.570	-0.059	-0.060
-654.872	79.431	0.149	0.162
-653.857	138.796	-0.032	-0.042
-652.843	586.512	-0.085	-0.213
-651.828	-7.408	0.127	0.087
-650.814	-200.000	0.013	0.100
-649.799	-86.475	0.009	-0.003
-648.784	-200.000	0.005	-0.365
-647.770	41.837	-0.141	0.130
-646.755	800.000	-0.139	-0.404
-645.741	-148.333	-0.581	0.049
-644.726	-187.548	-0.478	-0.006
-643.711	-100.977	-0.086	0.021
-642.697	-21.166	0.298	-0.185
-641.682	-85.425	-0.203	0.064
-640.668	71.144	0.188	0.198
-639.653	-59.104	0.302	-0.132
-638.638	800.000	0.078	-0.265
-637.624	-126.935	-0.247	-0.037
-636.609	-75.679	0.167	0.060
-635.595	56.769	0.090	0.089
-634.580	-131.184	0.225	0.030
-633.565	-53.707	-0.062	0.029
-632.551	133.835	0.170	-0.223
-631.536	-84.988	0.329	0.105
-630.522	70.444	-0.146	0.153
-629.507	-67.288	-0.290	0.116
-628.492	82.195	0.124	0.136
-627.478	-55.349	0.120	-0.054
-626.463	-63.943	0.091	0.038
-625.449	-200.000	0.001	-0.139
-624.434	800.000	-0.070	0.233
-623.419	412.685	0.008	0.017
-622.405	656.594	0.141	0.366
-621.390	28.217	-0.246	0.211
-620.376	-22.776	0.158	0.097
-619.361	800.000	-0.052	0.215
-618.346	-90.379	-0.216	0.063
-617.332	62.265	0.235	0.238
-616.317	-70.977	0.257	0.098
-615.303	609.714	-0.045	-0.114
-614.288	528.554	0.046	-0.110
-613.273	-200.000	-0.035	-0.168
-612.259	616.291	0.044	0.111
-611.244	-29.695	-0.235	0.136
-610.230	135.585	-0.113	-0.148
-609.215	-200.000	-0.054	-0.501
-608.201	105.622	0.078	-0.093
-607.186	45.676	-0.069	-0.065
-606.171	800.000	-0.056	-0.192
-605.157	-96.250	0.193	-0.052
-604.142	53.106	-0.239	0.232
-603.128	398.529	0.128	0.272
-602.113	-186.920	-0.258	-0.004
-601.098	264.849	0.061	-0.107
-600.084	-35.082	-0.279	-0.154
-599.069	-200.000	-0.016	0.089
-598.055	800.000	-0.053	-0.151
-597.040	131.918	-0.183	0.239
-596.025	-10.082	-0.236	0.159
-595.011	-111.074	-0.278	0.058
-593.996	247.686	0.128	0.219
-592.982	-45.626	-0.214	-0.107
-591.967	-200.000	-0.100	-0.497
-590.952	-14.363	0.187	0.122
-589.938	-138.235	0.032	-0.004
-588.923	-200.000	0.021	-0.369
-587.909	-60.371	-0.417	0.179
-586.894	-45.920	0.092	0.046
-585.879	71.763	-0.085	0.089
-584.865	-200.000	0.007	0.077
-583.850	209.985	0.092	0.146
-582.836	96.411	0.118	0.136
-581.821	-76.611	0.149	-0.053
-580.806	44.747	0.197	0.184
-579.792	800.000	-0.044	0.136
-578.777	-74.448	-0.416	0.152
-577.763	-121.585	0.191	-0.032
-576.748	800.000	0.044	0.127
-575.733	272.247	0.033	-0.060
-574.719	-5.640	0.007	-0.005
-573.704	-102.251	-0.122	0.030
-572.690	800.000	0.078	-0.227
-571.675	467.336	-0.208	0.471
-570.661	800.000	0.061	-0.178
-569.646	685.920	0.060	0.159
-568.631	-200.000	-0.079	-0.455
-567.617	411.398	0.055	-0.118
-566.602	-138.558	-0.176	0.020
-565.588	800.000	-0.119	-0.425
-564.573	-14.438	-0.183	-0.119
-563.558	80.186	-0.039	-0.042
-562.544	-54.438	-0.481	0.220
-561.529	722.078	-0.031	0.083
-560.515	800.000	0.085	0.285
-559.500	-200.000	0.053	0.236
-558.485	-141.605	0.457	-0.047
-557.471	-173.423	-0.090	-0.003
-556.456	-200.000	-0.001	-0.013
-555.442	236.883	0.181	0.303
-554.427	29.040	-0.237	-0.204
-553.412	-151.193	0.107	0.008
-552.398	-97.125	-0.200	-0.053
-551.383	-200.000	0.057	0.271
-550.369	-102.693	0.215	0.052
-549.354	337.608	-0.169	0.332
-548.339	14.691	-0.101	0.080
-547.325	51.152	0.156	0.149
-546.310	146.266	0.076	-0.103
-545.296	0.760	-0.084	0.061
-544.281	-56.531	-0.377	0.169
-543.266	800.000	-0.120	-0.346
-542.252	800.000	-0.091	-0.282
-541.237	499.334	-0.091	-0.212
-540.223	138.953	0.179	-0.238
-539.208	134.584	-0.024	-0.032
-538.193	-200.000	-0.047	0.323
-537.179	-90.746	-0.063	0.018
-536.164	-10.591	-0.038	-0.025
-535.150	27.539	0.251	-0.214
-534.135	-200.000	-0.023	0.323
-533.121	-69.070	-0.268	0.104
-532.106	-153.471	-0.417	0.029
-531.091	601.990	-0.101	-0.253
-530.077	285.064	0.080	0.145
-529.062	-185.343	0.434	-0.007
-528.048	583.387	-0.032	-0.079
-527.033	-26.172	0.147	0.087
-526.018	-100.568	-0.220	0.055
-525.004	-131.986	-0.185	-0.024
-523.989	800.000	0.041	0.128
-522.975	106.254	0.090	0.107
-521.960	-146.409	-0.125	-0.011
-520.945	122.312	0.059	-0.074
-519.931	-128.266	-0.194	-0.028
-518.916	-44.777	-0.047	-0.024
-517.902	318.343	0.183	-0.351
-516.887	-179.860	0.147	0.003
-515.872	58.780	-0.185	-0.183
-514.858	45.561	0.081	0.076
-513.843	77.685	-0.040	-0.043
-512.829	-2.747	0.334	0.236
-511.814	-200.000	-0.033	0.242
-510.799	-200.000	0.038	-0.433
-509.785	-135.013	-0.363	0.044
-508.770	-13.454	-0.247	-0.161
-507.756	-200.000	0.012	-0.203
-506.741	-69.615	-0.135	0.052
-505.726	110.712	0.132	0.160
-504.712	1.737	0.146	-0.106
-503.697	237.566	0.206	0.344
-502.683	86.983	-0.134	0.150
-501.668	78.873	-0.130	0.140
-500.653	2.563	-0.229	0.167
-499.639	293.892	0.030	0.055
-498.624	-200.000	-0.009	0.050
-497.610	-163.739	-0.156	0.007
-496.595	-200.000	0.009	0.402
-495.581	-101.047	0.065	0.016
-494.566	-188.043	0.246	0.003
-493.551	800.000	-0.043	-0.165
-492.537	48.145	-0.047	0.045
-491.522	800.000	0.032	-0.108
-490.508	-71.210	-0.148	0.056
-489.493	-200.000	0.039	0.327
-488.478	-36.399	-0.172	0.093
-487.464	-145.600	-0.225	-0.020
-486.449	30.530	-0.165	0.142
-485.435	14.486	-0.383	-0.302
-484.420	188.494	0.104	-0.156
-483.405	-21.819	-0.145	0.089
-482.391	-194.955	0.220	0.002
-481.376	-136.604	-0.136	-0.016
-480.362	617.874	0.115	0.290
-479.347	-145.076	0.335	-0.031
-478.332	-150.202	-0.210	-0.016
-477.318	-118.834	-0.311	-0.055
-476.303	248.625	0.171	-0.291
-475.289	-74.915	0.216	-0.078
-474.274	-47.669	0.309	0.151
-473.259	-56.916	-0.191	0.085
-472.245	-200.000	-0.011	0.205
-471.230	371.343	0.116	0.238
-470.216	-200.000	0.004	-0.082
-469.201	6.765	0.167	0.125
-468.186	64.971	0.125	0.127
-467.172	762.419	0.060	-0.163
-466.157	-106.542	0.166	-0.037
-465.143	-200.000	0.025	-0.232
-464.128	-15.759	0.250	0.161
-463.113	41.077	0.066	-0.060
-462.099	-3.443	-0.102	0.071
-461.084	33.811	-0.026	-0.023
-460.070	-200.000	-0.002	-0.140
-459.055	4.190	0.133	0.098
-458.040	-105.127	-0.103	-0.024
-457.026	198.273	0.172	-0.265
-456.011	-121.818	0.089	-0.015
-454.997	38.742	0.367	0.330
-453.982	568.196	0.239	-0.585
-452.968	75.100	-0.215	0.228
-451.953	203.276	-0.096	0.149
-450.938	199.612	0.116	0.179
-449.924	-132.285	-0.261	-0.034
-448.909	525.003	0.110	0.260
-447.895	-200.000	0.089	-0.462
-446.880	254.966	-0.205	-0.354
-445.865	-63.904	-0.118	-0.049
-444.851	45.538	0.193	-0.179
-443.836	312.069	0.084	-0.159
-442.822	25.681	-0.222	0.186
-441.807	218.256	0.203	-0.327
-440.792	-200.000	0.016	-0.290
-439.778	18.608	-0.075	-0.060
-438.763	-81.214	0.344	-0.114
-437.749	215.488	0.013	-0.020
-436.734	800.000	-0.084	0.319
-435.719	-200.000	0.046	0.326
-434.705	-30.702	0.235	0.134
-433.690	410.857	0.057	0.121
-432.676	-144.988	-0.152	0.014
-431.661	404.940	0.110	0.232
-430.646	-114.219	0.228	-0.044
-429.632	12.792	-0.186	-0.145
-428.617	-200.000	0.062	-0.330
-427.603	-178.476	-0.213	0.005
-426.588	-200.000	-0.021	-0.127
-425.573	175.205	-0.150	-0.219
-424.559	-200.000	-0.013	-0.117
-423.544	24.302	0.140	0.116
-422.530	129.377	0.075	-0.097
-421.515	120.431	0.141	-0.176
-420.500	-200.000	-0.006	0.262
-419.486	-200.000	0.002	-0.028
-418.471	43.069	0.099	-0.091
-417.457	18.219	0.303	-0.243
-416.442	83.726	-0.062	-0.068
-415.428	-88.127	-0.031	0.009
-414.413	51.564	0.082	0.078
-413.398	-200.000	0.035	-0.205
-412.384	402.104	-0.173	0.366
-411.369	-52.790	-0.264	-0.122
-410.355	175.188	0.151	0.220
-409.340	48.374	-0.081	0.076
-408.325	-61.030	-0.174	0.074
-407.311	655.582	-0.109	-0.283
-406.296	-11.538	0.134	-0.089
-405.282	122.907	-0.066	-0.083
-404.267	-100.631	-0.146	0.036
-403.252	259.392	-0.192	-0.333
-402.238	-200.000	0.048	0.240
-401.223	-200.000	0.033	0.287
-400.209	418.617	-0.069	0.148
-399.194	800.000	-0.050	-0.168
-398.179	800.000	0.068	-0.275
-397.165	199.732	-0.199	-0.308
-396.150	191.311	-0.188	-0.284
-395.136	-187.181	-0.222	0.003
-394.121	154.427	0.034	0.047
-393.106	-33.846	-0.081	-0.045
-392.092	218.080	0.219	-0.351
-391.077	170.093	-0.177	-0.255
-390.063	101.021	0.053	-0.062
-389.048	13.551	0.129	0.100
-388.033	800.000	-0.158	0.542
-387.019	-71.160	-0.089	0.033
-386.004	800.000	-0.068	-0.199
-384.990	800.000	0.018	-0.059
-383.975	-200.000	-0.031	0.207
-382.960	-200.000	-0.001	-0.146
-381.946	-21.125	-0.224	0.138
-380.931	3.409	0.292	-0.214
-379.917	800.000	0.042	0.135
-378.902	-58.551	-0.321	0.140
-377.888	800.000	-0.051	0.162
-376.873	-113.969	0.189	-0.037
-375.858	4.814	0.200	-0.147
-374.844	44.601	0.147	-0.135
-373.829	-52.143	-0.193	-0.090
-372.815	156.080	-0.275	0.380
-371.800	16.924	0.065	0.051
-370.785	469.507	-0.151	0.341
-369.771	-200.000	0.033	-0.385
-368.756	-17.621	0.146	-0.092
-367.742	-200.000	-0.020	-0.118
-366.727	-129.321	0.282	0.039
-365.712	544.372	-0.038	-0.091
-364.698	153.167	-0.220	0.302
-363.683	-71.622	-0.188	0.070
-362.669	48.838	-0.102	0.096
-361.654	-169.075	0.365	0.014
-360.639	-79.263	0.130	-0.044
-359.625	-134.190	-0.186	-0.023
-358.610	-1.460	0.052	-0.037
-357.596	-94.151	-0.047	0.013
-356.581	-51.912	0.063	-0.030
-355.566	-86.945	0.043	0.013
-354.552	339.354	-0.119	0.233
-353.537	2.579	0.321	0.233
-352.523	-200.000	-0.113	-0.000
-351.508	-55.674	-0.311	-0.140
-350.493	-200.000	0.014	-0.186
-349.479	-76.410	0.241	0.085
-348.464	18.074	-0.176	0.141
-347.450	-185.064	0.350	-0.006
-346.435	-67.055	0.091	0.036
-345.420	-160.346	0.085	0.005
-344.406	-31.549	0.298	-0.168
-343.391	-40.836	0.204	0.106
-342.377	-184.352	-0.420	-0.007
-341.362	114.865	0.161	0.197
-340.348	456.748	0.099	0.221
-339.333	49.448	0.161	-0.152
-338.318	-78.778	-0.073	-0.025
-337.304	359.020	-0.015	0.029
-336.289	-24.906	0.304	0.181
-335.275	78.757	-0.180	0.193
-334.260	165.219	0.168	0.238
-333.245	-104.230	0.121	-0.028
-332.231	154.279	0.310	0.426
-331.216	800.000	-0.037	0.124
-330.202	-77.492	-0.278	-0.097
-329.187	94.797	-0.157	-0.179
-328.172	-200.000	-0.045	-0.241
-327.158	-1.697	-0.082	0.058
-326.143	-1.608	-0.110	-0.078
-325.129	-86.117	-0.347	-0.107
-324.114	-200.000	-0.003	0.105
-323.099	-200.000	0.017	0.096
-322.085	-161.600	-0.056	-0.003
-321.070	15.902	-0.187	0.148
-320.056	-136.165	-0.250	-0.029
-319.041	-200.000	-0.019	-0.089
-318.026	-29.982	0.119	0.068
-317.012	-56.190	0.267	-0.119
-315.997	800.000	-0.086	-0.296
-314.983	800.000	0.062	-0.202
-313.968	800.000	0.052	0.169
-312.953	800.000	-0.116	-0.503
-311.939	-176.185	-0.144	-0.004
-310.924	22.780	0.142	-0.116
-309.910	94.647	0.227	0.258
-308.895	353.491	0.282	0.561
-307.880	425.538	-0.019	0.041
-306.866	513.478	0.123	0.287
-305.851	800.000	-0.022	0.080
-304.837	-158.662	-0.090	0.005
-303.822	-162.930	-0.172	0.008
-302.807	-98.701	0.323	0.082
-301.793	-200.000	-0.047	0.482
-300.778	800.000	-0.078	0.223
-299.764	-200.000	-0.032	-0.157
-298.749	-45.252	0.252	0.125
-297.735	-80.659	0.208	0.069
-296.720	-51.441	-0.207	-0.097
-295.705	197.035	-0.161	-0.246
-294.691	-28.503	-0.182	0.105
-293.676	-200.000	0.005	-0.027
-292.662	800.000	-0.038	0.164
-291.647	-82.837	-0.313	-0.101
-290.632	-143.876	0.258	0.024
-289.618	800.000	0.060	0.209
-288.603	-43.560	0.116	-0.059
-287.589	16.751	0.239	-0.190
-286.574	-169.434	0.024	0.001
-285.559	195.876	-0.145	0.220
-284.545	800.000	0.016	-0.061
-283.530	-103.084	0.329	0.078
-282.516	800.000	-0.072	-0.313
-281.501	-26.010	-0.323	-0.190
-280.486	-19.198	-0.121	0.075
-279.472	403.185	0.077	0.163
-278.457	-45.565	0.224	-0.111
-277.443	800.000	0.041	-0.135
-276.428	584.814	-0.047	-0.116
-275.413	-67.321	0.211	-0.083
-274.399	235.649	-0.051	-0.085
-273.384	5.558	-0.148	0.109
-272.370	323.256	-0.159	-0.303
-271.355	372.647	0.090	-0.183
-270.340	800.000	0.162	0.592
-269.326	-142.593	0.293	-0.029
-268.311	-200.000	0.069	-0.330
-267.297	233.008	-0.092	0.151
-266.282	800.000	0.070	0.234
-265.267	59.761	0.429	0.424
-264.253	-143.752	0.089	0.008
-263.238	48.796	-0.168	-0.157
-262.224	118.841	0.078	-0.096
-261.209	-61.236	-0.219	-0.092
-260.195	-200.000	0.048	0.310
-259.180	725.487	0.089	-0.238
-258.165	-167.468	-0.281	0.011
-257.151	-200.000	0.047	0.279
-256.136	-141.977	0.272	0.027
-255.122	-81.114	0.335	0.111
-254.107	800.000	-0.121	0.389
-253.092	140.110	-0.099	0.131
-252.078	383.349	-0.073	-0.149
-251.063	800.000	0.106	-0.347
-250.049	177.728	0.118	-0.171
-249.034	-85.595	-0.070	0.022
-248.019	800.000	0.048	0.164
-247.005	83.220	0.307	0.334
-245.990	-19.979	-0.303	-0.187
-244.976	-200.000	-0.018	-0.172
-243.961	800.000	-0.042	-0.123
-242.946	-71.084	-0.165	-0.062
-241.932	212.070	0.082	-0.130
-240.917	-110.169	0.374	-0.078
-239.903	61.208	0.157	-0.156
-238.888	-169.105	-0.302	-0.011
-237.873	79.106	-0.208	0.223
-236.859	-110.825	-0.224	0.046
-235.844	84.883	0.069	-0.075
-234.830	108.518	-0.232	0.277
-233.815	-123.058	0.458	-0.073
-232.800	561.161	0.064	0.155
-231.786	-31.124	-0.201	0.113
-230.771	-110.905	0.125	0.026
-229.757	124.444	0.100	-0.126
-228.742	-46.809	0.132	0.064
-227.727	800.000	-0.113	0.336
-226.713	57.391	-0.166	-0.162
-225.698	800.000	0.039	0.150
-224.684	722.201	0.025	0.068
-223.669	-56.993	0.140	0.062
-222.655	388.108	-0.144	-0.297
-221.640	-48.346	0.361	-0.174
-220.625	800.000	0.007	-0.023
-219.611	66.549	-0.182	-0.185
-218.596	-80.287	-0.357	0.119
-217.582	-38.637	0.110	-0.058
-216.567	165.353	-0.019	0.026
-215.552	196.933	0.138	-0.211
-214.538	108.254	0.090	-0.108
-213.523	-200.000	0.059	0.268
-212.509	-59.498	0.318	-0.136
-211.494	-200.000	-0.008	-0.067
-210.479	-66.023	-0.275	-0.110
-209.465	116.569	0.045	-0.055
-208.450	-132.422	0.126	0.016
-207.436	-200.000	-0.089	-0.479
-206.421	-200.000	0.013	0.056
-205.406	213.806	0.165	-0.260
-204.392	-42.346	0.183	0.093
-203.377	-73.993	-0.183	-0.066
-202.363	-25.746	-0.175	-0.103
-201.348	-33.507	-0.163	-0.090
-200.333	439.322	-0.085	-0.186
-199.319	17.140	0.115	0.091
-198.304	-200.000	-0.006	-0.167
-197.290	62.904	-0.065	0.065
-196.275	150.906	-0.189	-0.256
-195.260	800.000	0.062	0.252
-194.246	-130.566	-0.090	-0.012
-193.231	239.903	0.187	-0.311
-192.217	-200.000	-0.038	-0.224
-191.202	140.157	0.256	-0.336
-190.187	800.000	-0.042	-0.145
-189.173	77.588	0.048	0.050
-188.158	800.000	-0.060	-0.167
-187.144	-87.484	0.159	-0.048
-186.129	-166.313	0.263	0.011
-185.114	13.870	-0.086	-0.066
-184.100	-69.725	0.302	-0.115
-183.085	-170.800	-0.243	-0.008
-182.071	800.000	0.054	0.220
-181.056	-56.421	-0.031	0.014
-180.042	800.000	-0.009	0.036
-179.027	-55.469	0.161	0.072
-178.012	-36.604	0.175	0.094
-176.998	190.150	0.112	0.167
-175.983	-200.000	-0.002	0.194
-174.969	-119.564	-0.251	0.043
-173.954	-0.795	0.239	0.168
-172.939	14.605	0.157	0.123
-171.925	-101.085	0.373	0.091
-170.910	800.000	-0.040	-0.123
-169.896	176.982	0.068	0.099
-168.881	-101.907	0.275	-0.066
-167.866	-85.998	-0.347	-0.107
-166.852	68.641	-0.253	-0.258
-165.837	113.815	-0.230	-0.278
-164.823	198.151	-0.280	-0.426
-163.808	557.254	-0.203	0.488
-162.793	-200.000	0.060	-0.321
-161.779	-49.789	0.311	-0.147
-160.764	329.908	0.107	0.206
-159.750	-113.750	-0.164	-0.032
-158.735	-179.973	-0.434	-0.009
-157.720	-27.340	-0.129	0.075
-156.706	42.578	0.326	0.296
-155.691	-82.721	0.301	-0.097
-154.677	-95.161	0.235	0.063
-153.662	-136.495	-0.275	-0.032
-152.647	96.656	0.248	-0.282
-151.633	-181.924	0.051	0.001
-150.618	-41.052	0.222	0.114
-149.604	564.419	-0.072	0.174
-148.589	-200.000	-0.026	0.139
-147.574	-24.435	-0.255	0.151
-146.560	156.297	0.120	-0.165
-145.545	71.451	0.152	-0.157
-144.531	165.347	-0.072	0.101
-143.516	-181.024	0.108	0.002
-142.502	370.993	0.095	-0.191
-141.487	-200.000	0.019	-0.226
-140.472	-200.000	0.022	-0.172
-139.458	-200.000	0.037	-0.327
-138.443	-131.462	0.086	-0.011
-137.429	228.194	-0.126	-0.204
-136.414	-200.000	0.047	-0.496
-135.399	800.000	0.026	0.113
-134.385	-200.000	0.001	0.034
-133.370	-57.586	0.076	-0.033
-132.356	4.040	0.044	-0.032
-131.341	403.242	0.129	0.270
-130.326	-200.000	-0.045	0.355
-129.312	67.109	0.087	0.088
-128.297	-151.431	-0.281	0.021
-127.283	-200.000	0.065	0.303
-126.268	-106.284	0.190	0.042
-125.253	-200.000	-0.021	0.198
-124.239	263.910	0.107	0.186
-123.224	-168.190	-0.090	-0.003
-122.210	72.115	0.118	-0.122
-121.195	40.831	0.291	0.261
