DTS Sentinel unit serial number:	SN413079Multiplexer serial number:	ORYXHardware model number:	OX4-SRSoftware version number:	ORYX F/W v4.00 Oryx Data Collector v3.7.2.0data status	okinstallation	princeton_trtdifferential loss correction	single-endedforward channel	channel 3reverse channel	N/Adate	2019/09/19time	14:12:34forward acquisition time	60.00reverse acquisition time	0.00gamma	496.2192k internal	0.2322k external	0.2322temperature offset calibration	1.0000default loss term (dB/km)	0.3790temperature slope calibration	1.0000multiplexer offset coefficient	1.0000multiplexer slope coefficient	1.0000fibre end	0.00T internal ref (°C)	31.55T ext. ref 1 (°C)	1.04T ext. ref 2 (°C)	28.74length (m)	temperature (°C)	Stokes	anti-Stokes-747.200	-200.000	0.004	0.268
-746.185	-4.312	-0.211	0.148
-745.171	800.000	-0.060	-0.247
-744.156	15.343	-0.274	0.217
-743.142	81.157	-0.089	0.097
-742.127	-84.297	-0.198	0.063
-741.112	-200.000	-0.031	0.226
-740.098	-11.748	-0.221	-0.147
-739.083	-3.205	0.101	0.071
-738.069	-200.000	-0.030	0.310
-737.054	-112.717	-0.269	0.054
-736.039	800.000	-0.021	-0.073
-735.025	-200.000	0.005	0.073
-734.010	-145.738	-0.056	-0.005
-732.996	-200.000	-0.060	-0.381
-731.981	-166.221	-0.072	-0.003
-730.966	-26.683	-0.225	0.133
-729.952	98.078	-0.079	0.092
-728.937	-108.875	-0.064	-0.014
-727.923	-160.516	0.164	-0.009
-726.908	42.458	0.226	-0.208
-725.894	-38.264	-0.329	-0.176
-724.879	-200.000	0.013	0.225
-723.864	-151.428	-0.108	-0.008
-722.850	-43.189	0.112	0.057
-721.835	-200.000	-0.034	-0.205
-720.821	-17.935	-0.239	-0.151
-719.806	-100.496	0.112	0.028
-718.791	-134.238	-0.190	0.024
-717.777	-101.537	0.236	-0.058
-716.762	219.870	-0.112	-0.180
-715.748	-89.105	-0.096	0.029
-714.733	-200.000	-0.015	-0.435
-713.718	-200.000	0.034	-0.228
-712.704	-200.000	0.196	0.001
-711.689	800.000	-0.125	-0.358
-710.675	199.895	-0.082	0.127
-709.660	-62.985	0.070	0.029
-708.645	800.000	-0.091	-0.361
-707.631	693.775	-0.089	0.235
-706.616	-200.000	-0.000	0.101
-705.602	-137.340	0.355	0.041
-704.587	-200.000	-0.039	-0.260
-703.572	610.693	0.180	-0.454
-702.558	3.545	0.312	0.229
-701.543	-22.126	0.157	-0.096
-700.529	-200.000	0.015	-0.220
-699.514	-106.082	0.050	-0.011
-698.499	-200.000	0.036	-0.211
-697.485	254.327	-0.075	-0.129
-696.470	800.000	0.082	0.260
-695.456	-200.000	0.028	-0.293
-694.441	176.333	-0.059	-0.087
-693.426	17.913	0.073	0.059
-692.412	191.643	0.063	-0.096
-691.397	-71.017	0.378	-0.143
-690.383	-200.000	-0.007	-0.052
-689.368	-91.399	0.302	0.087
-688.354	-83.022	0.217	-0.071
-687.339	-200.000	0.023	0.241
-686.324	-147.465	0.278	0.024
-685.310	195.155	-0.272	-0.416
-684.295	-9.652	0.153	-0.102
-683.281	49.727	-0.061	-0.058
-682.266	-169.553	-0.059	-0.002
-681.251	-94.183	0.210	-0.058
-680.237	-111.015	0.102	-0.021
-679.222	-110.682	0.470	0.098
-678.208	-200.000	-0.015	0.270
-677.193	290.813	0.094	-0.171
-676.178	-103.628	-0.253	0.060
-675.164	-200.000	-0.014	-0.126
-674.149	-200.000	0.005	0.165
-673.135	357.327	-0.033	0.066
-672.120	313.168	-0.131	0.248
-671.105	-180.631	-0.324	0.007
-670.091	-6.603	-0.087	0.060
-669.076	-200.000	-0.018	0.104
-668.062	197.154	-0.220	-0.338
-667.047	-200.000	0.044	-0.238
-666.032	-30.616	-0.114	-0.065
-665.018	130.839	-0.049	-0.063
-664.003	-56.358	-0.199	0.089
-662.989	-26.003	-0.255	-0.151
-661.974	-23.326	0.077	0.047
-660.959	198.673	0.120	-0.185
-659.945	-116.603	0.274	-0.051
-658.930	-200.000	0.017	-0.297
-657.916	800.000	-0.041	-0.156
-656.901	800.000	-0.024	0.091
-655.886	-200.000	0.017	-0.110
-654.872	100.235	0.240	-0.280
-653.857	-51.228	-0.027	0.013
-652.843	-10.716	0.148	0.099
-651.828	-83.770	0.289	0.093
-650.814	-56.654	0.147	0.065
-649.799	23.458	-0.183	0.152
-648.784	55.139	0.040	0.039
-647.770	213.080	-0.020	0.033
-646.755	-123.189	-0.012	-0.002
-645.741	-145.706	-0.034	-0.003
-644.726	140.016	0.103	-0.136
-643.711	312.182	-0.006	0.012
-642.697	186.638	0.056	0.083
-641.682	-17.988	-0.326	-0.206
-640.668	0.857	-0.216	-0.155
-639.653	-110.236	0.126	-0.026
-638.638	-200.000	0.008	0.081
-637.624	-127.097	0.357	0.053
-636.609	521.404	0.072	0.171
-635.595	-200.000	-0.024	0.229
-634.580	-104.784	-0.080	-0.019
-633.565	800.000	-0.084	-0.290
-632.551	800.000	-0.083	0.275
-631.536	23.243	-0.177	-0.146
-630.522	-200.000	-0.026	-0.221
-629.507	251.078	0.099	-0.168
-628.492	-200.000	0.017	-0.311
-627.478	-20.657	-0.148	0.091
-626.463	70.824	-0.152	-0.158
-625.449	-49.927	0.155	-0.074
-624.434	-187.348	-0.221	0.003
-623.419	800.000	0.015	0.050
-622.405	-189.284	0.173	-0.002
-621.390	221.644	-0.052	-0.085
-620.376	-166.434	-0.256	-0.011
-619.361	-200.000	-0.002	-0.269
-618.346	-73.720	-0.112	-0.041
-617.332	-109.991	-0.292	-0.062
-616.317	14.136	0.219	0.172
-615.303	41.624	0.186	-0.170
-614.288	-129.766	-0.252	-0.035
-613.273	-18.615	-0.137	-0.086
-612.259	46.129	0.029	-0.027
-611.244	15.709	-0.169	-0.134
-610.230	-59.336	-0.403	0.174
-609.215	-39.534	-0.163	-0.086
-608.201	88.575	0.112	-0.125
-607.186	-200.000	0.039	-0.212
-606.171	-138.727	-0.252	-0.028
-605.157	-5.488	0.252	-0.174
-604.142	376.002	0.109	-0.224
-603.128	203.843	-0.158	0.246
-602.113	268.397	0.136	0.240
-601.098	52.670	0.139	-0.133
-600.084	32.091	-0.205	0.177
-599.069	20.718	-0.124	0.101
-598.055	-200.000	-0.009	0.268
-597.040	20.446	0.202	-0.164
-596.025	-200.000	0.005	0.159
-595.011	-103.170	0.025	0.006
-593.996	-99.011	-0.080	0.021
-592.982	-126.746	0.364	0.054
-591.967	-81.819	-0.320	-0.105
-590.952	800.000	-0.025	0.081
-589.938	118.149	-0.096	0.119
-588.923	-118.512	-0.439	-0.078
-587.909	288.044	-0.079	-0.144
-586.894	-102.802	0.083	-0.020
-585.879	367.885	-0.050	-0.102
-584.865	-24.994	-0.063	-0.037
-583.850	76.851	0.031	0.033
-582.836	800.000	0.045	0.180
-581.821	505.438	0.070	0.163
-580.806	800.000	-0.095	-0.296
-579.792	-107.961	-0.237	-0.052
-578.777	-200.000	0.070	0.336
-577.763	4.685	-0.129	-0.095
-576.748	428.337	-0.072	-0.156
-575.733	-163.502	-0.293	0.014
-574.719	-85.874	-0.162	0.050
-573.704	143.087	0.018	-0.024
-572.690	-37.295	0.139	-0.075
-571.675	-15.305	0.106	0.068
-570.661	69.670	-0.055	-0.056
-569.646	265.539	-0.089	-0.156
-568.631	-58.195	-0.512	0.224
-567.617	-118.389	0.111	-0.020
-566.602	-106.523	-0.073	0.016
-565.588	32.536	-0.180	0.156
-564.573	-39.782	0.112	0.059
-563.558	-115.830	-0.143	0.027
-562.544	-200.000	0.058	0.270
-561.529	-127.556	0.340	-0.050
-560.515	30.547	-0.086	0.074
-559.500	304.758	-0.048	-0.089
-558.485	-12.182	-0.079	-0.052
-557.471	-147.885	0.312	-0.026
-556.456	184.891	0.081	-0.120
-555.442	-60.238	-0.355	0.152
-554.427	400.979	0.072	0.151
-553.412	-41.171	-0.182	0.094
-552.398	-200.000	-0.049	0.228
-551.383	169.302	-0.318	0.456
-550.369	-0.794	-0.259	0.184
-549.354	-200.000	0.030	-0.132
-548.339	49.290	-0.165	-0.155
-547.325	-21.230	-0.078	-0.048
-546.310	14.336	0.147	-0.115
-545.296	-200.000	0.009	-0.051
-544.281	-155.142	0.085	0.006
-543.266	-49.927	0.089	0.042
-542.252	-200.000	0.014	-0.208
-541.237	800.000	-0.109	-0.388
-540.223	129.630	-0.189	0.242
-539.208	12.974	-0.107	-0.083
-538.193	-114.467	-0.092	-0.018
-537.179	-200.000	0.047	0.208
-536.164	-200.000	-0.039	0.325
-535.150	186.793	-0.210	0.314
-534.135	-200.000	0.007	0.099
-533.121	70.325	0.057	0.060
-532.106	-29.875	-0.115	-0.066
-531.091	247.976	0.092	0.156
-530.077	6.040	-0.234	0.173
-529.062	120.353	0.041	0.050
-528.048	-70.320	0.215	-0.082
-527.033	50.139	-0.176	0.167
-526.018	132.365	-0.112	-0.144
-525.004	-65.150	0.287	0.116
-523.989	-103.717	-0.341	-0.080
-522.975	76.280	-0.091	-0.097
-521.960	-161.583	0.111	0.006
-520.945	-37.186	-0.232	0.124
-519.931	28.471	-0.048	0.041
-518.916	-168.636	0.203	0.008
-517.902	-200.000	0.096	0.443
-516.887	-17.222	0.217	0.137
-515.872	156.818	-0.015	-0.021
-514.858	0.463	-0.163	-0.116
-513.843	123.588	0.079	0.099
-512.829	-200.000	0.030	-0.177
-511.814	201.554	0.217	0.335
-510.799	600.925	-0.095	0.237
-509.785	177.226	-0.151	0.220
-508.770	283.650	0.075	-0.136
-507.756	-23.083	-0.139	0.084
-506.741	-61.584	-0.144	-0.061
-505.726	142.696	0.256	0.340
-504.712	-200.000	-0.009	-0.213
-503.697	119.959	-0.150	-0.187
-502.683	672.739	-0.180	-0.467
-501.668	-200.000	-0.004	0.093
-500.653	788.134	0.054	-0.149
-499.639	800.000	0.008	0.035
-498.624	-54.098	0.109	-0.050
-497.610	-132.250	-0.287	0.037
-496.595	-101.533	-0.140	-0.034
-495.581	6.300	0.047	-0.035
-494.566	-200.000	-0.034	0.202
-493.551	-169.030	-0.268	0.010
-492.537	274.160	-0.115	-0.204
-491.522	-20.011	-0.377	0.233
-490.508	245.056	-0.147	-0.247
-489.493	-21.168	0.193	0.118
-488.478	-200.000	-0.007	-0.121
-487.464	214.194	-0.119	0.189
-486.449	-200.000	-0.049	-0.263
-485.435	-16.157	0.156	-0.099
-484.420	32.889	-0.040	-0.034
-483.405	184.494	0.007	-0.010
-482.391	800.000	0.056	0.191
-481.376	-4.274	0.051	0.036
-480.362	359.056	-0.104	0.207
-479.347	-83.264	-0.194	0.062
-478.332	163.674	0.141	0.198
-477.318	-59.035	-0.216	-0.093
-476.303	48.458	0.321	-0.301
-475.289	-120.534	0.089	0.015
-474.274	48.744	0.073	-0.068
-473.259	-200.000	0.013	-0.194
-472.245	-124.056	-0.364	-0.057
-471.230	380.425	-0.049	-0.100
-470.216	-33.387	0.171	0.095
-469.201	-136.738	0.330	0.038
-468.186	-200.000	-0.014	0.139
-467.172	-77.762	0.294	0.102
-466.157	254.210	0.024	-0.040
-465.143	-136.252	-0.221	-0.026
-464.128	-200.000	0.059	0.420
-463.113	-200.000	0.019	0.098
-462.099	-200.000	-0.006	0.263
-461.084	303.990	-0.161	0.299
-460.070	-35.146	0.443	-0.241
-459.055	83.467	0.367	-0.399
-458.040	-111.829	0.110	0.022
-457.026	13.369	0.286	0.222
-456.011	399.390	0.089	-0.186
-454.997	-30.969	-0.203	-0.114
-453.982	-200.000	-0.022	0.191
-452.968	57.008	-0.149	-0.145
-451.953	-200.000	0.013	0.061
-450.938	-200.000	0.002	0.188
-449.924	-24.708	-0.105	0.062
-448.909	-150.192	-0.176	-0.014
-447.895	-18.691	-0.084	-0.052
-446.880	-156.601	-0.064	-0.004
-445.865	158.356	0.048	0.066
-444.851	-200.000	-0.002	-0.136
-443.836	-200.000	-0.036	-0.179
-442.822	-128.866	-0.329	0.046
-441.807	-140.846	-0.171	-0.018
-440.792	800.000	0.077	0.268
-439.778	98.638	-0.052	-0.060
-438.763	-200.000	0.059	0.310
-437.749	45.787	-0.211	0.195
-436.734	475.186	0.105	-0.237
-435.719	-37.677	-0.449	-0.239
-434.705	-130.644	-0.119	-0.016
-433.690	-200.000	0.019	0.195
-432.676	-54.016	-0.238	0.108
-431.661	-200.000	-0.024	-0.222
-430.646	64.862	0.129	0.130
-429.632	-154.635	-0.121	0.008
-428.617	105.387	0.075	0.088
-427.603	101.823	0.061	0.071
-426.588	800.000	0.077	-0.227
-425.573	800.000	-0.155	0.457
-424.559	800.000	-0.022	0.066
-423.544	356.703	0.143	-0.284
-422.530	-200.000	-0.241	0.001
-421.515	-8.507	-0.233	-0.156
-420.500	-130.408	0.220	-0.030
-419.486	-67.281	-0.381	-0.150
-418.471	297.746	0.122	-0.223
-417.457	-10.240	-0.145	-0.096
-416.442	8.240	0.146	-0.110
-415.428	59.876	-0.352	-0.347
-414.413	800.000	-0.134	-0.384
-413.398	-116.545	0.095	0.017
-412.384	-87.362	-0.151	0.046
-411.369	-73.055	-0.051	-0.019
-410.355	800.000	-0.057	-0.217
-409.340	800.000	0.048	-0.198
-408.325	342.167	-0.188	-0.366
-407.311	389.458	0.032	0.066
-406.296	-110.988	0.392	-0.080
-405.282	-153.850	0.427	0.029
-404.267	69.700	-0.187	-0.192
-403.252	140.450	0.027	-0.035
-402.238	139.650	0.107	-0.140
-401.223	-100.861	0.239	-0.059
-400.209	704.123	-0.056	0.148
-399.194	202.847	0.186	-0.287
-398.179	-70.949	0.185	0.069
-397.165	-60.190	0.187	-0.080
-396.150	466.346	-0.090	0.201
-395.136	210.021	0.137	0.215
-394.121	800.000	-0.089	-0.287
-393.106	-23.967	-0.157	0.093
-392.092	18.576	-0.058	0.046
-391.077	800.000	0.035	-0.135
-390.063	63.218	0.042	-0.042
-389.048	800.000	-0.165	0.475
-388.033	65.327	0.066	0.067
-387.019	-99.441	-0.248	-0.062
-386.004	-200.000	-0.013	-0.068
-384.990	-146.357	0.067	0.006
-383.975	100.733	-0.281	-0.325
-382.960	-200.000	-0.013	-0.329
-381.946	208.116	-0.035	0.055
-380.931	-36.019	-0.031	-0.017
-379.917	800.000	0.034	0.144
-378.902	286.713	0.156	0.281
-377.888	53.630	0.038	-0.037
-376.873	-200.000	0.011	-0.062
-375.858	61.029	0.237	-0.234
-374.844	-200.000	-0.031	0.169
-373.829	-55.780	0.082	0.037
-372.815	-200.000	-0.024	-0.245
-371.800	35.558	0.159	0.139
-370.785	-19.073	0.187	0.115
-369.771	-200.000	0.017	-0.140
-368.756	307.344	-0.205	0.381
-367.742	-125.026	-0.393	0.060
-366.727	478.133	0.097	-0.219
-365.712	-32.912	-0.188	0.104
-364.698	498.136	-0.123	0.282
-363.683	-200.000	-0.034	-0.394
-362.669	607.936	0.071	0.177
-361.654	515.144	-0.085	0.197
-360.639	318.035	0.188	0.353
-359.625	-101.132	0.115	-0.028
-358.610	-100.363	0.164	-0.040
-357.596	-53.640	-0.069	-0.031
-356.581	-200.000	-0.029	-0.351
-355.566	105.818	-0.132	-0.155
-354.552	55.267	-0.320	0.308
-353.537	-68.757	0.114	0.044
-352.523	150.065	0.228	0.308
-351.508	-144.537	0.323	-0.030
-350.493	21.489	-0.224	0.181
-349.479	541.941	-0.018	0.043
-348.464	-25.609	-0.271	0.159
-347.450	-57.474	-0.227	-0.099
-346.435	-159.003	0.549	-0.031
-345.420	-43.988	0.184	0.092
-344.406	-58.911	-0.575	-0.247
-343.391	-200.000	-0.014	-0.092
-342.377	-96.776	-0.117	0.031
-341.362	177.692	0.175	0.254
-340.348	56.335	0.220	-0.212
-339.333	25.890	-0.241	-0.200
-338.318	125.693	0.197	0.248
-337.304	-200.000	-0.009	0.357
-336.289	34.571	0.119	-0.104
-335.275	330.674	-0.159	0.305
-334.260	-200.000	0.003	0.059
-333.245	-72.188	0.073	0.027
-332.231	-200.000	-0.056	-0.433
-331.216	-128.221	-0.049	0.007
-330.202	94.412	0.236	-0.266
-329.187	-200.000	0.010	0.145
-328.172	272.227	0.123	0.215
-327.158	79.232	-0.074	0.078
-326.143	204.212	0.041	0.062
-325.129	23.536	0.123	0.100
-324.114	-145.327	-0.272	-0.024
-323.099	-57.818	0.178	-0.077
-322.085	-200.000	0.004	-0.117
-321.070	-200.000	0.082	-0.421
-320.056	-200.000	-0.002	0.050
-319.041	96.952	0.167	0.190
-318.026	117.024	0.055	-0.068
-317.012	-114.296	-0.228	-0.044
-315.997	-200.000	0.034	0.366
-314.983	385.652	0.115	-0.236
-313.968	-200.000	0.009	-0.057
-312.953	-5.103	0.121	0.083
-311.939	342.635	0.137	-0.266
-310.924	202.476	-0.098	-0.150
-309.910	3.001	-0.370	-0.267
-308.895	36.489	-0.039	0.034
-307.880	684.535	0.150	0.388
-306.866	75.151	0.175	0.183
-305.851	-56.369	-0.147	-0.065
-304.837	-17.819	0.454	-0.283
-303.822	618.586	-0.149	0.372
-302.807	-200.000	0.151	0.000
-301.793	-200.000	0.008	-0.086
-300.778	-200.000	-0.031	-0.244
-299.764	-40.353	-0.196	0.101
-298.749	-200.000	0.003	0.207
-297.735	-183.997	0.248	-0.004
-296.720	-42.846	-0.221	-0.112
-295.705	-200.000	0.021	-0.179
-294.691	141.802	-0.047	0.062
-293.676	-56.816	-0.325	-0.143
-292.662	-200.000	-0.063	-0.414
-291.647	-82.930	-0.076	-0.024
-290.632	-27.899	0.236	-0.136
-289.618	-200.000	-0.042	-0.258
-288.603	38.136	0.090	0.079
-287.589	144.950	0.099	-0.131
-286.574	-200.000	0.022	-0.370
-285.559	-200.000	-0.055	0.262
-284.545	98.531	-0.155	0.177
-283.530	417.655	0.134	0.284
-282.516	92.371	-0.297	0.332
-281.501	-126.814	0.130	0.019
-280.486	-56.121	0.120	0.053
-279.472	-200.000	-0.005	0.087
-278.457	3.247	-0.066	-0.048
-277.443	-151.504	0.160	0.012
-276.428	-172.090	-0.132	0.004
-275.413	-47.610	0.302	0.145
-274.399	554.845	0.042	0.100
-273.384	395.383	0.026	0.054
-272.370	-200.000	0.016	0.072
-271.355	-45.486	-0.106	0.052
-270.340	-31.312	0.289	0.162
-269.326	54.197	0.129	-0.123
-268.311	-42.924	0.105	0.053
-267.297	8.172	-0.076	0.056
-266.282	59.532	0.257	0.251
-265.267	-200.000	0.024	0.138
-264.253	42.683	-0.119	0.107
-263.238	64.907	0.049	-0.050
-262.224	800.000	-0.057	-0.174
-261.209	-107.156	-0.297	0.065
-260.195	-101.056	0.193	0.047
-259.180	-10.277	0.014	-0.009
-258.165	286.352	-0.109	0.195
-257.151	35.424	0.078	-0.068
-256.136	-105.739	-0.211	0.047
-255.122	400.674	0.101	0.210
-254.107	-125.371	0.130	-0.020
-253.092	800.000	0.086	0.275
-252.078	-50.712	0.108	-0.051
-251.063	-200.000	0.013	-0.265
-250.049	800.000	0.052	0.144
-249.034	-84.862	0.536	0.167
-248.019	-85.441	-0.133	-0.041
-247.005	113.514	0.295	-0.354
-245.990	-115.860	-0.310	0.057
-244.976	-105.917	-0.269	-0.060
-243.961	800.000	0.027	-0.076
-242.946	-200.000	0.071	0.310
-241.932	109.147	0.144	0.170
-240.917	6.228	-0.058	0.043
-239.903	58.557	0.094	0.092
-238.888	-25.585	0.288	0.169
-237.873	401.750	0.110	-0.228
-236.859	-89.011	-0.365	-0.107
-235.844	-79.135	0.264	-0.089
-234.830	-16.431	-0.193	0.121
-233.815	134.167	-0.186	0.239
-232.800	113.962	0.209	0.252
-231.786	350.509	0.143	-0.280
-230.771	-200.000	-0.045	-0.242
-229.757	-54.413	-0.235	0.106
-228.742	183.734	0.065	0.095
-227.727	457.078	-0.046	-0.101
-226.713	-110.505	0.391	0.080
-225.698	-120.257	-0.382	-0.064
-224.684	92.675	0.150	-0.167
-223.669	312.825	-0.087	0.161
-222.655	162.212	0.015	0.021
-221.640	-7.993	0.187	0.125
-220.625	-200.000	0.051	-0.224
-219.611	-200.000	-0.047	0.326
-218.596	-77.812	0.247	-0.085
-217.582	205.095	-0.020	-0.031
-216.567	-200.000	0.004	-0.043
-215.552	-113.669	-0.117	-0.023
-214.538	-0.191	0.420	0.296
-213.523	800.000	0.054	-0.149
-212.509	-200.000	-0.052	-0.327
-211.494	108.256	-0.076	0.090
-210.479	800.000	0.070	0.257
-209.465	144.368	0.151	-0.200
-208.450	-155.625	0.186	-0.012
-207.436	-200.000	0.022	0.306
-206.421	-38.231	0.107	-0.056
-205.406	186.790	0.226	0.333
-204.392	561.062	0.035	-0.084
-203.377	-55.099	0.254	-0.113
-202.363	5.105	0.248	-0.181
-201.348	20.692	0.043	-0.035
-200.333	-71.104	-0.161	0.060
-199.319	181.989	0.311	-0.453
-198.304	202.770	-0.053	0.081
-197.290	-200.000	0.021	0.107
-196.275	-200.000	-0.008	0.076
-195.260	-4.689	-0.076	0.052
-194.246	-86.204	-0.163	-0.050
-193.231	25.680	0.060	0.049
-192.217	271.142	-0.068	-0.118
-191.202	-73.761	0.140	0.050
-190.187	206.120	0.217	-0.334
-189.173	-28.404	-0.465	0.265
-188.158	-166.535	0.460	-0.019
-187.144	-200.000	-0.039	-0.219
-186.129	486.609	0.175	0.394
-185.114	-69.195	0.232	-0.088
-184.100	-124.227	0.218	0.034
-183.085	4.803	-0.377	-0.274
-182.071	-2.160	0.277	0.192
-181.056	396.089	0.039	-0.081
-180.042	4.767	0.144	-0.105
-179.027	-104.256	0.401	0.092
-178.012	-76.172	0.225	-0.079
-176.998	-200.000	0.024	0.230
-175.983	-65.502	0.431	-0.171
-174.969	14.498	0.298	-0.230
-173.954	-117.798	-0.526	-0.093
-172.939	103.994	0.298	0.346
-171.925	18.083	0.282	-0.222
-170.910	-200.000	-0.012	0.107
-169.896	800.000	-0.099	-0.306
-168.881	-103.682	0.180	-0.042
-167.866	-155.785	0.206	-0.013
-166.852	-39.354	0.237	-0.123
-165.837	369.960	-0.155	-0.309
-164.823	-173.917	-0.186	-0.005
-163.808	-170.504	-0.178	0.006
-162.793	-71.500	0.313	-0.116
-161.779	-167.696	-0.346	0.014
-160.764	-89.411	0.321	-0.093
-159.750	-75.609	-0.163	0.057
-158.735	-200.000	-0.031	-0.204
-157.720	-200.000	0.032	-0.366
-156.706	-200.000	-0.000	-0.372
-155.691	800.000	0.050	0.211
-154.677	350.338	0.084	-0.164
-153.662	52.191	0.230	0.217
-152.647	800.000	0.043	0.151
-151.633	582.227	0.101	-0.244
-150.618	-85.171	0.181	-0.056
-149.604	121.775	0.188	0.232
-148.589	-1.615	0.073	-0.051
-147.574	-96.119	-0.346	-0.091
-146.560	-34.994	0.126	-0.068
-145.545	-8.678	-0.190	0.126
-144.531	36.690	0.201	0.175
-143.516	-106.121	-0.391	0.087
-142.502	-27.998	0.100	0.057
-141.487	800.000	0.082	-0.251
-140.472	-136.221	0.137	-0.016
-139.458	-59.762	0.273	0.115
-138.443	-200.000	-0.015	-0.197
-137.429	-144.529	-0.130	0.012
-136.414	-42.307	-0.436	-0.220
-135.399	-138.987	0.326	0.035
-134.385	-28.335	0.096	0.055
-133.370	-200.000	-0.020	0.320
-132.356	-16.505	-0.204	0.127
-131.341	-200.000	-0.052	0.442
-130.326	195.219	0.082	0.123
-129.312	-13.478	0.160	0.102
-128.297	800.000	0.082	-0.321
-127.283	278.835	0.127	-0.223
-126.268	4.528	-0.047	0.034
-125.253	-124.356	0.276	0.042
-124.239	148.789	-0.065	-0.087
-123.224	146.524	-0.093	-0.124
-122.210	-0.970	0.187	-0.130
