DTS Sentinel unit serial number:	SN413079Multiplexer serial number:	ORYXHardware model number:	OX4-SRSoftware version number:	ORYX F/W v4.00 Oryx Data Collector v3.7.2.0data status	okinstallation	princeton_trtdifferential loss correction	single-endedforward channel	channel 3reverse channel	N/Adate	2019/09/14time	16:56:35forward acquisition time	60.00reverse acquisition time	0.00gamma	496.2192k internal	0.2295k external	0.2295temperature offset calibration	1.0028default loss term (dB/km)	0.3790temperature slope calibration	1.0000multiplexer offset coefficient	1.0000multiplexer slope coefficient	1.0000fibre end	0.00T internal ref (°C)	38.00T ext. ref 1 (°C)	4.99T ext. ref 2 (°C)	33.34length (m)	temperature (°C)	Stokes	anti-Stokes-747.200	43.180	-0.109	0.102
-746.185	-29.033	-0.119	-0.070
-745.171	-64.559	0.170	0.070
-744.156	591.943	-0.090	0.227
-743.142	-98.844	-0.272	0.071
-742.127	-115.146	-0.287	0.056
-741.112	-151.100	0.093	-0.007
-740.098	800.000	0.064	-0.254
-739.083	-200.000	-0.041	-0.511
-738.069	351.396	0.092	-0.186
-737.054	19.694	-0.119	-0.098
-736.039	-62.728	-0.422	0.179
-735.025	120.691	0.100	-0.127
-734.010	-11.197	-0.279	-0.188
-732.996	467.883	0.007	-0.016
-731.981	-63.675	0.097	0.041
-730.966	800.000	-0.136	-0.528
-729.952	-200.000	0.018	-0.268
-728.937	-37.110	0.256	-0.140
-727.923	-91.503	-0.127	-0.037
-726.908	-200.000	0.018	-0.236
-725.894	-78.988	-0.235	-0.082
-724.879	22.343	0.062	-0.052
-723.864	-34.003	0.194	-0.109
-722.850	287.897	-0.138	0.254
-721.835	16.231	-0.280	-0.226
-720.821	-12.803	0.235	-0.156
-719.806	-101.001	-0.060	0.015
-718.791	-157.371	-0.265	-0.016
-717.777	-17.751	-0.181	-0.116
-716.762	800.000	-0.025	-0.095
-715.748	93.104	-0.198	0.228
-714.733	24.469	-0.225	-0.190
-713.718	-105.309	0.385	0.090
-712.704	-106.952	-0.125	0.028
-711.689	-200.000	0.034	0.399
-710.675	-8.959	-0.232	-0.159
-709.660	-200.000	0.068	-0.550
-708.645	-27.068	-0.298	-0.177
-707.631	-200.000	-0.071	-0.324
-706.616	127.790	0.136	0.177
-705.602	-200.000	0.029	-0.541
-704.587	-91.756	-0.107	-0.031
-703.572	256.782	0.137	0.241
-702.558	-200.000	0.014	-0.298
-701.543	800.000	0.033	-0.142
-700.529	-36.536	0.124	-0.068
-699.514	272.719	0.076	0.138
-698.499	-172.126	0.072	0.002
-697.485	113.556	0.144	-0.178
-696.470	563.095	-0.050	-0.123
-695.456	-55.096	0.275	-0.126
-694.441	328.850	-0.104	-0.204
-693.426	41.042	0.132	0.121
-692.412	-85.942	-0.277	0.087
-691.397	84.555	0.135	0.151
-690.383	-74.172	0.199	0.074
-689.368	93.785	-0.292	-0.338
-688.354	-198.508	-0.253	0.001
-687.339	800.000	0.049	0.169
-686.324	246.504	0.112	-0.193
-685.310	225.452	0.223	-0.369
-684.295	566.691	0.056	-0.138
-683.281	100.941	-0.211	-0.250
-682.266	717.944	0.022	0.059
-681.251	48.537	-0.214	-0.205
-680.237	129.686	-0.231	0.302
-679.222	-69.342	-0.221	-0.087
-678.208	11.679	-0.170	-0.133
-677.193	800.000	0.054	-0.167
-676.178	110.390	-0.038	0.047
-675.164	-58.772	0.273	0.121
-674.149	15.757	0.170	-0.136
-673.135	117.011	0.224	0.281
-672.120	133.887	-0.030	-0.039
-671.105	-65.271	0.116	-0.048
-670.091	25.402	0.130	-0.110
-669.076	712.572	-0.111	-0.299
-668.062	-200.000	-0.003	0.220
-667.047	-105.555	0.292	0.068
-666.032	-183.397	-0.250	0.004
-665.018	548.464	0.118	0.289
-664.003	-200.000	0.018	0.101
-662.989	-200.000	0.001	0.040
-661.974	311.653	0.101	-0.193
-660.959	-75.906	-0.058	0.021
-659.945	105.604	-0.042	-0.051
-658.930	-63.257	0.103	-0.043
-657.916	179.773	0.047	0.071
-656.901	93.435	0.130	0.150
-655.886	800.000	0.057	0.232
-654.872	83.639	0.122	-0.135
-653.857	-200.000	0.014	0.151
-652.843	-47.146	-0.304	0.151
-651.828	-123.689	-0.206	-0.033
-650.814	88.159	-0.080	0.090
-649.799	800.000	0.072	0.242
-648.784	-40.782	-0.145	0.076
-647.770	-110.668	-0.205	-0.043
-646.755	-84.815	-0.437	0.140
-645.741	-19.007	-0.200	-0.127
-644.726	-111.678	-0.194	0.040
-643.711	587.095	0.036	0.089
-642.697	-124.063	0.430	0.069
-641.682	-17.881	-0.084	-0.053
-640.668	101.343	-0.230	-0.272
-639.653	800.000	-0.096	-0.345
-638.638	-112.843	-0.041	0.008
-637.624	391.128	0.020	0.043
-636.609	800.000	0.039	0.131
-635.595	-2.025	-0.118	0.084
-634.580	261.410	-0.041	-0.073
-633.565	-41.086	0.335	-0.176
-632.551	-137.792	-0.247	-0.028
-631.536	190.165	-0.251	-0.384
-630.522	35.276	0.120	-0.107
-629.507	-3.792	0.244	0.172
-628.492	-181.414	-0.240	-0.005
-627.478	381.682	0.077	0.160
-626.463	-171.290	0.110	-0.004
-625.449	196.640	-0.089	-0.138
-624.434	800.000	-0.056	0.176
-623.419	655.863	0.162	-0.423
-622.405	-129.439	0.562	0.079
-621.390	-58.040	0.211	0.094
-620.376	-200.000	0.063	0.387
-619.361	-107.278	0.152	0.034
-618.346	-62.395	-0.167	0.071
-617.332	-13.174	-0.154	0.102
-616.317	-57.810	0.103	0.046
-615.303	-200.000	0.026	-0.172
-614.288	-171.543	0.191	-0.006
-613.273	632.681	0.074	0.191
-612.259	245.778	-0.094	0.161
-611.244	-200.000	0.019	-0.207
-610.230	-123.645	-0.150	0.024
-609.215	52.353	-0.339	0.328
-608.201	-200.000	-0.028	0.129
-607.186	-200.000	-0.027	0.334
-606.171	-40.526	0.113	-0.060
-605.157	-55.139	-0.165	-0.075
-604.142	38.935	-0.205	-0.186
-603.128	-168.196	-0.102	-0.004
-602.113	151.119	0.134	-0.186
-601.098	64.109	0.245	0.250
-600.084	-79.843	-0.231	0.079
-599.069	-138.174	0.159	0.018
-598.055	17.901	-0.112	-0.090
-597.040	800.000	-0.070	-0.208
-596.025	-87.004	0.173	-0.053
-595.011	36.964	0.241	0.217
-593.996	269.874	0.095	0.170
-592.982	-151.146	0.152	-0.012
-591.967	136.091	-0.249	0.330
-590.952	-49.174	-0.209	0.102
-589.938	-56.018	-0.229	-0.104
-588.923	24.376	-0.098	-0.082
-587.909	-12.441	0.082	0.054
-586.894	-155.844	-0.243	-0.016
-585.879	800.000	-0.038	0.131
-584.865	5.599	-0.235	-0.177
-583.850	800.000	-0.173	-0.533
-582.836	-112.825	-0.149	-0.030
-581.821	-58.971	-0.334	-0.147
-580.806	-66.164	0.178	0.072
-579.792	-200.000	-0.009	0.385
-578.777	88.751	0.125	-0.141
-577.763	187.360	-0.029	-0.044
-576.748	-76.931	0.157	0.056
-575.733	-7.159	-0.173	0.119
-574.719	101.034	-0.241	0.285
-573.704	-22.708	0.074	0.046
-572.690	-137.661	0.279	-0.032
-571.675	347.535	-0.084	-0.167
-570.661	-200.000	-0.004	-0.249
-569.646	-200.000	0.005	0.060
-568.631	800.000	-0.061	-0.217
-567.617	-155.514	-0.257	-0.017
-566.602	176.845	0.069	0.102
-565.588	-169.466	-0.069	-0.003
-564.573	94.493	0.176	0.203
-563.558	-18.052	0.053	0.034
-562.544	263.333	-0.107	0.188
-561.529	-121.620	0.320	0.054
-560.515	26.350	0.128	-0.109
-559.500	122.339	0.068	0.086
-558.485	616.556	0.083	-0.211
-557.471	-200.000	0.008	-0.137
-556.456	11.461	-0.127	-0.098
-555.442	332.279	0.092	0.179
-554.427	800.000	-0.044	-0.146
-553.412	800.000	0.023	-0.088
-552.398	-81.382	0.221	0.074
-551.383	-32.630	0.234	0.132
-550.369	487.023	-0.130	-0.301
-549.354	-3.592	-0.190	-0.134
-548.339	-27.541	-0.277	0.163
-547.325	-200.000	0.024	-0.250
-546.310	-200.000	-0.011	-0.319
-545.296	800.000	-0.074	-0.324
-544.281	30.268	-0.174	-0.150
-543.266	800.000	-0.064	-0.256
-542.252	800.000	0.131	0.403
-541.237	-196.571	0.362	0.002
-540.223	-24.609	0.084	0.051
-539.208	750.813	0.124	0.339
-538.193	373.616	-0.151	-0.312
-537.179	-166.084	-0.101	-0.004
-536.164	-132.365	-0.192	0.025
-535.150	-16.078	-0.145	0.093
-534.135	-110.236	0.067	0.014
-533.121	42.787	0.049	-0.045
-532.106	-200.000	-0.021	-0.135
-531.091	605.907	-0.070	-0.177
-530.077	-55.687	-0.150	0.068
-529.062	114.452	0.094	-0.116
-528.048	-132.045	0.271	0.036
-527.033	165.764	-0.072	0.104
-526.018	101.620	0.098	-0.116
-525.004	-75.827	0.152	0.055
-523.989	-54.329	0.122	-0.056
-522.975	6.231	-0.136	-0.103
-521.960	133.253	0.158	-0.207
-520.945	329.011	0.151	0.295
-519.931	626.429	-0.049	-0.125
-518.916	384.011	0.048	0.099
-517.902	800.000	-0.046	-0.185
-516.887	-200.000	-0.005	-0.101
-515.872	-6.110	0.193	0.134
-514.858	-200.000	0.019	-0.094
-513.843	-184.361	0.124	0.002
-512.829	-135.582	0.091	0.011
-511.814	-111.851	0.146	-0.030
-510.799	-117.056	0.196	-0.036
-509.785	48.070	-0.094	-0.089
-508.770	-81.810	0.145	-0.048
-507.756	800.000	0.045	-0.171
-506.741	-200.000	-0.010	-0.085
-505.726	22.552	0.333	0.276
-504.712	800.000	-0.024	-0.091
-503.697	322.128	-0.071	-0.137
-502.683	-43.252	0.274	-0.140
-501.668	139.282	0.157	-0.209
-500.653	57.155	0.216	0.213
-499.639	-25.590	0.326	0.195
-498.624	800.000	0.042	-0.159
-497.610	-200.000	-0.013	0.314
-496.595	124.677	0.149	0.190
-495.581	-78.765	-0.065	0.022
-494.566	-74.563	-0.165	0.060
-493.551	284.909	0.068	-0.124
-492.537	-15.281	0.121	0.078
-491.522	-101.515	0.116	-0.028
-490.508	-102.812	0.142	-0.034
-489.493	-24.166	0.053	-0.032
-488.478	433.679	-0.037	-0.081
-487.464	340.728	0.026	-0.052
-486.449	-200.000	0.007	0.141
-485.435	-59.004	-0.296	0.129
-484.420	-200.000	0.001	0.252
-483.405	-200.000	0.012	-0.178
-482.391	-167.108	-0.257	-0.011
-481.376	-200.000	-0.020	-0.273
-480.362	436.210	0.095	0.209
-479.347	376.489	0.092	0.190
-478.332	-42.002	-0.200	0.103
-477.318	-200.000	0.027	-0.160
-476.303	12.602	-0.106	-0.083
-475.289	171.072	0.234	0.339
-474.274	-76.591	-0.260	0.092
-473.259	-200.000	0.015	0.081
-472.245	-200.000	0.044	0.247
-471.230	-96.371	-0.268	-0.072
-470.216	-154.535	-0.284	-0.019
-469.201	-127.162	-0.419	0.062
-468.186	-200.000	-0.014	-0.241
-467.172	531.725	0.051	-0.121
-466.157	-130.159	-0.110	0.015
-465.143	-195.084	0.210	0.002
-464.128	-80.590	0.224	0.075
-463.113	44.740	-0.161	-0.149
-462.099	-200.000	-0.041	0.198
-461.084	138.685	-0.190	-0.252
-460.070	-71.466	0.127	0.048
-459.055	-62.645	-0.165	0.069
-458.040	757.791	-0.047	-0.129
-457.026	-78.991	-0.339	-0.117
-456.011	591.988	0.126	0.314
-454.997	-101.556	0.041	-0.010
-453.982	-200.000	-0.058	0.381
-452.968	41.896	-0.091	0.083
-451.953	-88.208	0.167	-0.050
-450.938	352.304	0.124	0.248
-449.924	524.709	-0.056	-0.133
-448.909	38.507	-0.165	0.148
-447.895	110.923	-0.049	-0.060
-446.880	-200.000	0.045	0.373
-445.865	-57.551	0.112	-0.050
-444.851	70.460	0.168	0.176
-443.836	204.920	0.038	-0.059
-442.822	-83.889	0.339	-0.109
-441.807	545.751	0.106	0.257
-440.792	-200.000	-0.031	-0.152
-439.778	671.148	-0.111	0.290
-438.763	165.384	-0.227	-0.324
-437.749	159.838	0.197	-0.277
-436.734	741.196	-0.042	-0.113
-435.719	-79.343	0.339	0.116
-434.705	277.802	0.097	0.174
-433.690	-180.648	-0.355	0.007
-432.676	7.852	-0.119	0.090
-431.661	800.000	-0.107	-0.344
-430.646	-200.000	-0.027	-0.143
-429.632	800.000	0.035	0.125
-428.617	151.394	0.227	0.313
-427.603	464.516	-0.053	0.119
-426.588	108.225	0.159	-0.191
-425.573	14.988	-0.094	0.074
-424.559	0.651	-0.192	-0.138
-423.544	-113.056	0.220	-0.044
-422.530	242.657	0.069	0.116
-421.515	-17.755	0.162	-0.103
-420.500	-4.357	-0.123	-0.086
-419.486	198.810	0.150	-0.232
-418.471	167.271	-0.110	-0.157
-417.457	206.360	-0.151	-0.237
-416.442	-137.597	-0.127	-0.014
-415.428	-200.000	0.018	-0.161
-414.413	268.688	0.198	-0.350
-413.398	800.000	-0.084	0.314
-412.384	-45.034	-0.133	0.067
-411.369	322.959	-0.079	-0.152
-410.355	-200.000	0.010	0.155
-409.340	415.300	0.091	0.195
-408.325	730.239	-0.077	0.207
-407.311	-129.788	0.207	0.029
-406.296	-13.453	-0.270	-0.176
-405.282	-177.106	-0.290	-0.007
-404.267	-200.000	-0.015	0.169
-403.252	-54.945	0.208	-0.095
-402.238	520.304	0.121	-0.285
-401.223	174.715	-0.026	-0.038
-400.209	-77.030	-0.152	-0.054
-399.194	800.000	-0.095	0.307
-398.179	800.000	-0.037	0.129
-397.165	-200.000	0.025	0.385
-396.150	136.333	-0.156	0.205
-395.136	-46.662	-0.199	-0.098
-394.121	-70.352	0.100	-0.038
-393.106	29.310	-0.148	-0.127
-392.092	800.000	-0.025	0.075
-391.077	800.000	0.122	-0.349
-390.063	-29.900	-0.030	-0.017
-389.048	60.283	-0.228	0.227
-388.033	235.954	-0.043	-0.071
-387.019	722.619	-0.032	0.087
-386.004	26.390	-0.189	0.160
-384.990	800.000	0.114	0.319
-383.975	342.075	0.170	0.335
-382.960	179.671	-0.122	-0.181
-381.946	720.049	-0.047	-0.127
-380.931	49.593	0.190	-0.180
-379.917	-176.474	-0.194	-0.005
-378.902	800.000	-0.056	-0.155
-377.888	-9.861	0.272	-0.182
-376.873	63.295	-0.245	0.247
-375.858	-61.435	-0.270	-0.114
-374.844	324.515	0.135	-0.260
-373.829	-44.497	0.233	0.117
-372.815	-134.671	-0.083	0.010
-371.800	481.095	0.065	0.149
-370.785	201.814	-0.287	-0.446
-369.771	69.790	0.096	-0.099
-368.756	-200.000	-0.060	0.309
-367.742	-160.956	-0.168	0.009
-366.727	-89.589	0.057	-0.017
-365.712	-200.000	0.014	0.073
-364.698	-102.390	0.255	-0.061
-363.683	800.000	-0.020	-0.072
-362.669	-96.680	0.235	0.062
-361.654	-125.388	0.278	-0.043
-360.639	-200.000	0.012	-0.178
-359.625	-200.000	-0.049	-0.252
-358.610	-79.778	-0.064	0.022
-357.596	-200.000	0.009	-0.180
-356.581	-13.528	-0.070	-0.046
-355.566	55.563	-0.249	0.243
-354.552	362.864	0.059	0.120
-353.537	-81.332	0.031	-0.010
-352.523	-62.971	-0.171	0.071
-351.508	-191.394	-0.321	-0.003
-350.493	800.000	-0.029	-0.095
-349.479	-200.000	-0.018	0.312
-348.464	800.000	0.002	-0.005
-347.450	-200.000	-0.004	0.352
-346.435	70.306	-0.048	0.050
-345.420	800.000	-0.026	0.088
-344.406	-102.766	0.046	0.011
-343.391	713.506	0.080	0.212
-342.377	-144.786	0.346	0.032
-341.362	800.000	0.066	0.199
-340.348	154.587	-0.056	0.078
-339.333	-28.138	0.150	0.087
-338.318	800.000	-0.117	-0.401
-337.304	800.000	0.050	-0.194
-336.289	126.125	0.184	0.234
-335.275	-124.649	-0.051	-0.008
-334.260	72.052	0.064	0.067
-333.245	64.431	0.062	0.063
-332.231	-123.053	0.101	0.016
-331.216	1.742	0.046	-0.033
-330.202	81.662	-0.196	-0.213
-329.187	325.270	0.088	-0.168
-328.172	-165.736	0.432	0.019
-327.158	-162.050	-0.261	-0.013
-326.143	-166.635	0.189	-0.008
-325.129	-200.000	0.353	-0.001
-324.114	-200.000	-0.002	0.279
-323.099	-178.848	0.150	-0.003
-322.085	95.024	-0.216	-0.247
-321.070	800.000	-0.016	0.063
-320.056	487.005	0.045	0.103
-319.041	-29.660	0.154	-0.089
-318.026	88.940	-0.044	0.049
-317.012	-200.000	0.014	-0.153
-315.997	772.234	0.023	0.064
-314.983	-200.000	0.026	0.153
-313.968	134.299	0.126	-0.164
-312.953	-200.000	-0.038	0.169
-311.939	-5.563	-0.164	-0.113
-310.924	373.965	0.067	-0.138
-309.910	-200.000	0.051	-0.258
-308.895	-150.909	-0.115	0.009
-307.880	-77.215	-0.210	-0.074
-306.866	689.565	0.129	0.339
-305.851	271.330	0.160	0.283
-304.837	-200.000	0.285	-0.000
-303.822	11.825	-0.222	-0.171
-302.807	-57.353	0.359	0.159
-301.793	-159.051	0.461	0.026
-300.778	-93.216	0.030	0.008
-299.764	83.815	0.120	0.132
-298.749	-197.041	0.094	-0.001
-297.735	-161.099	-0.329	0.017
-296.720	266.472	0.048	0.084
-295.705	-9.827	0.154	-0.103
-294.691	157.907	0.010	-0.014
-293.676	-200.000	0.004	0.230
-292.662	-200.000	-0.067	0.393
-291.647	123.547	0.290	0.365
-290.632	36.829	-0.116	-0.103
-289.618	-109.845	0.353	-0.074
-288.603	140.185	0.252	0.333
-287.589	490.304	-0.127	-0.292
-286.574	-70.462	0.214	-0.082
-285.559	-200.000	-0.007	-0.072
-284.545	-194.283	0.180	0.001
-283.530	702.338	0.087	-0.229
-282.516	-200.000	0.068	0.451
-281.501	11.891	0.163	0.126
-280.486	-200.000	-0.027	0.274
-279.472	-200.000	-0.064	-0.282
-278.457	-21.683	0.166	-0.102
-277.443	-107.682	-0.176	-0.039
-276.428	502.605	0.077	-0.179
-275.413	-56.221	-0.143	-0.064
-274.399	262.354	-0.006	-0.011
-273.384	187.591	0.128	-0.192
-272.370	-176.772	0.261	0.007
-271.355	194.981	0.093	-0.142
-270.340	165.652	0.111	-0.158
-269.326	100.939	-0.134	-0.156
-268.311	29.341	0.255	-0.217
-267.297	-112.175	-0.145	0.029
-266.282	555.773	-0.041	0.099
-265.267	-200.000	0.008	0.171
-264.253	90.684	0.061	0.068
-263.238	-200.000	-0.050	-0.221
-262.224	-28.900	-0.367	-0.212
-261.209	-17.473	-0.289	0.182
-260.195	-84.818	-0.147	-0.046
-259.180	528.083	-0.048	-0.114
-258.165	-134.332	-0.272	0.033
-257.151	147.066	-0.095	-0.128
-256.136	35.988	0.134	0.119
-255.122	-19.420	0.112	0.070
-254.107	534.137	0.065	-0.155
-253.092	-41.352	0.267	0.138
-252.078	63.611	0.125	0.126
-251.063	-27.854	-0.079	-0.046
-250.049	-64.891	-0.207	0.084
-249.034	-178.506	0.177	0.004
-248.019	196.442	-0.070	-0.107
-247.005	-79.183	-0.139	0.047
-245.990	44.036	-0.220	0.202
-244.976	-200.000	-0.081	-0.503
-243.961	-200.000	0.047	-0.273
-242.946	797.974	-0.104	-0.287
-241.932	-163.084	-0.220	0.011
-240.917	-82.043	-0.079	-0.026
-239.903	-146.952	0.231	0.020
-238.888	-200.000	-0.006	0.033
-237.873	-200.000	-0.009	0.076
-236.859	-107.177	0.137	0.030
-235.844	264.696	-0.086	-0.150
-234.830	-200.000	-0.007	-0.108
-233.815	-200.000	-0.050	-0.306
-232.800	-43.967	-0.121	-0.061
-231.786	-15.719	-0.143	-0.091
-230.771	-131.137	0.258	-0.034
-229.757	-87.735	0.197	0.060
-228.742	-154.646	0.045	-0.003
-227.727	800.000	-0.073	0.219
-226.713	-200.000	0.009	0.485
-225.698	386.028	-0.161	-0.332
-224.684	-111.758	0.229	0.046
-223.669	-30.578	0.224	0.127
-222.655	800.000	0.059	-0.244
-221.640	-200.000	-0.023	-0.110
-220.625	-200.000	-0.040	-0.308
-219.611	-35.127	-0.368	0.201
-218.596	-154.321	0.202	0.014
-217.582	-49.688	0.028	-0.013
-216.567	-59.395	-0.310	-0.133
-215.552	-76.999	-0.187	-0.065
-214.538	-75.795	0.065	-0.023
-213.523	173.197	-0.132	-0.190
-212.509	233.429	0.100	-0.165
-211.494	196.765	0.028	-0.042
-210.479	54.361	-0.088	-0.085
-209.465	-89.422	-0.337	-0.099
-208.450	-85.770	-0.083	-0.026
-207.436	-102.006	-0.089	-0.022
-206.421	51.665	-0.090	-0.086
-205.406	115.775	0.158	0.193
-204.392	148.574	-0.096	0.129
-203.377	-200.000	0.031	-0.257
-202.363	-153.273	-0.058	-0.004
-201.348	-36.492	0.250	0.135
-200.333	-200.000	0.001	0.092
-199.319	121.124	-0.041	-0.051
-198.304	-58.288	-0.110	0.048
-197.290	-97.299	-0.176	-0.046
-196.275	128.335	0.035	-0.044
-195.260	235.908	0.048	0.079
-194.246	-30.051	0.033	0.019
-193.231	-71.082	-0.052	-0.020
-192.217	200.724	-0.012	-0.018
-191.202	42.913	-0.151	-0.138
-190.187	-179.395	0.312	-0.007
-189.173	-78.964	-0.375	0.128
-188.158	43.754	-0.139	0.127
-187.144	-200.000	0.001	-0.064
-186.129	505.927	-0.121	0.280
-185.114	-120.603	0.234	0.040
-184.100	34.462	0.051	0.045
-183.085	222.675	0.020	0.032
-182.071	800.000	-0.089	0.384
-181.056	-112.431	-0.092	0.018
-180.042	-92.227	0.372	0.105
-179.027	-182.725	-0.073	0.001
-178.012	105.561	-0.123	0.146
-176.998	368.491	-0.036	0.072
-175.983	447.378	0.022	-0.048
-174.969	-139.361	-0.200	0.021
-173.954	40.801	-0.189	0.170
-172.939	-54.737	-0.431	0.195
-171.925	-89.062	0.226	-0.067
-170.910	-75.212	0.186	-0.066
-169.896	-200.000	-0.032	-0.250
-168.881	-200.000	0.048	0.261
-167.866	62.468	-0.118	-0.117
-166.852	-200.000	-0.007	0.332
-165.837	103.183	-0.243	-0.284
-164.823	-122.511	0.292	-0.047
-163.808	58.957	-0.120	0.118
-162.793	573.633	-0.059	-0.143
-161.779	-40.381	0.164	0.085
-160.764	-110.392	-0.151	-0.031
-159.750	-6.643	0.066	0.045
-158.735	-184.864	0.141	-0.002
-157.720	641.312	0.083	-0.210
-156.706	-200.000	0.017	-0.213
-155.691	-50.092	-0.239	0.113
-154.677	-86.263	0.202	-0.062
-153.662	-71.388	-0.152	0.057
-152.647	-86.097	-0.066	-0.020
-151.633	-200.000	0.010	0.152
-150.618	-200.000	-0.035	0.210
-149.604	-174.606	0.221	-0.006
-148.589	-112.383	-0.219	-0.044
-147.574	372.325	-0.120	-0.243
-146.560	800.000	0.073	0.241
-145.545	768.656	-0.057	0.156
-144.531	-200.000	0.023	-0.119
-143.516	800.000	-0.072	-0.246
-142.502	-200.000	0.100	0.447
-141.487	-167.618	-0.237	-0.009
-140.472	-96.121	-0.130	-0.035
-139.458	112.377	0.122	0.147
-138.443	113.393	-0.135	-0.163
-137.429	-131.583	-0.169	-0.022
-136.414	-127.166	-0.409	-0.060
-135.399	800.000	0.115	-0.388
-134.385	56.706	-0.271	-0.264
-133.370	800.000	-0.121	0.352
-132.356	388.744	0.064	0.132
-131.341	-71.722	0.225	-0.084
-130.326	-200.000	-0.011	0.153
-129.312	240.696	-0.198	0.330
-128.297	-200.000	0.012	0.158
-127.283	-200.000	-0.014	-0.183
-126.268	252.275	0.063	-0.108
-125.253	-11.482	0.224	-0.147
-124.239	-78.623	0.116	-0.039
-123.224	800.000	-0.113	-0.364
