DTS Sentinel unit serial number:	SN413079Multiplexer serial number:	ORYXHardware model number:	OX4-SRSoftware version number:	ORYX F/W v4.00 Oryx Data Collector v3.7.2.0data status	okinstallation	princeton_trtdifferential loss correction	single-endedforward channel	channel 3reverse channel	N/Adate	2019/09/19time	06:12:35forward acquisition time	60.00reverse acquisition time	0.00gamma	496.2192k internal	0.2349k external	0.2349temperature offset calibration	0.9986default loss term (dB/km)	0.3790temperature slope calibration	1.0000multiplexer offset coefficient	1.0000multiplexer slope coefficient	1.0000fibre end	0.00T internal ref (°C)	19.12T ext. ref 1 (°C)	0.58T ext. ref 2 (°C)	12.76length (m)	temperature (°C)	Stokes	anti-Stokes-747.200	-128.110	0.053	0.008
-746.185	-200.000	0.118	0.595
-745.171	-11.151	0.215	0.142
-744.156	-23.437	-0.163	0.098
-743.142	-134.130	0.145	0.018
-742.127	756.886	0.051	-0.139
-741.112	-0.244	-0.125	-0.089
-740.098	-134.879	-0.194	-0.023
-739.083	800.000	-0.058	0.184
-738.069	151.997	-0.135	0.184
-737.054	-34.463	0.099	-0.054
-736.039	-151.471	-0.260	-0.019
-735.025	13.982	0.178	-0.138
-734.010	686.851	-0.147	-0.384
-732.996	-90.021	0.054	0.016
-731.981	800.000	0.070	0.268
-730.966	-66.856	-0.053	0.021
-729.952	46.762	0.118	0.109
-728.937	-36.870	0.192	0.103
-727.923	-37.183	-0.042	-0.022
-726.908	-43.010	-0.214	0.108
-725.894	44.946	-0.157	-0.144
-724.879	-74.832	-0.280	0.100
-723.864	-200.000	-0.012	0.066
-722.850	-6.696	0.012	-0.008
-721.835	-36.354	0.230	-0.123
-720.821	-200.000	-0.001	-0.299
-719.806	66.293	-0.216	-0.219
-718.791	800.000	-0.068	0.207
-717.777	-200.000	0.008	-0.176
-716.762	-53.718	-0.252	-0.115
-715.748	-200.000	0.020	-0.213
-714.733	-107.849	-0.252	0.055
-713.718	164.181	-0.087	0.122
-712.704	-181.670	-0.233	0.004
-711.689	28.772	-0.281	-0.237
-710.675	-119.988	0.312	0.053
-709.660	-200.000	-0.066	-0.392
-708.645	-200.000	-0.058	0.263
-707.631	-200.000	-0.033	-0.201
-706.616	45.570	0.301	-0.277
-705.602	-101.661	-0.240	-0.058
-704.587	-200.000	0.016	-0.075
-703.572	69.893	-0.133	0.137
-702.558	-199.788	0.244	0.001
-701.543	800.000	-0.132	0.455
-700.529	800.000	0.021	0.085
-699.514	69.535	0.096	0.099
-698.499	-128.655	0.395	-0.056
-697.485	-159.663	-0.198	-0.011
-696.470	39.494	-0.131	0.117
-695.456	800.000	0.075	-0.329
-694.441	-200.000	-0.006	-0.103
-693.426	49.098	0.172	0.161
-692.412	-88.924	-0.157	0.047
-691.397	-29.060	0.216	0.123
-690.383	-62.270	-0.148	-0.061
-689.368	-200.000	-0.024	-0.200
-688.354	569.853	-0.171	-0.413
-687.339	132.056	0.190	-0.243
-686.324	230.386	-0.024	-0.039
-685.310	-156.865	-0.140	-0.009
-684.295	-200.000	0.030	-0.136
-683.281	259.387	-0.179	-0.308
-682.266	324.142	0.194	0.369
-681.251	-105.405	-0.240	-0.054
-680.237	800.000	-0.060	0.189
-679.222	50.386	-0.029	-0.027
-678.208	-135.184	-0.345	0.041
-677.193	-13.028	0.274	0.177
-676.178	35.934	-0.211	0.184
-675.164	-120.147	-0.109	-0.018
-674.149	680.801	0.020	-0.052
-673.135	-135.020	-0.182	-0.022
-672.120	800.000	-0.073	-0.281
-671.105	450.578	-0.131	-0.288
-670.091	-200.000	-0.028	-0.167
-669.076	68.092	0.057	-0.058
-668.062	-154.204	0.176	-0.012
-667.047	-200.000	0.026	-0.497
-666.032	31.124	0.116	0.099
-665.018	113.294	-0.025	0.031
-664.003	241.023	-0.273	-0.454
-662.989	-47.009	-0.236	0.115
-661.974	569.603	0.095	0.231
-660.959	-3.110	0.255	0.177
-659.945	-200.000	0.017	-0.128
-658.930	-42.020	-0.286	-0.146
-657.916	3.272	-0.079	0.057
-656.901	293.792	-0.175	0.319
-655.886	153.197	0.168	-0.229
-654.872	483.109	-0.099	-0.225
-653.857	248.055	-0.163	-0.275
-652.843	800.000	0.109	-0.327
-651.828	-129.284	-0.346	-0.048
-650.814	-158.237	-0.093	-0.005
-649.799	-25.560	0.247	-0.145
-648.784	-18.079	-0.079	0.049
-647.770	-200.000	0.006	0.097
-646.755	618.378	0.098	0.244
-645.741	-200.000	-0.033	0.159
-644.726	-167.100	0.248	-0.010
-643.711	-152.608	-0.236	-0.017
-642.697	-174.657	0.302	-0.009
-641.682	-27.081	-0.250	-0.145
-640.668	156.841	-0.113	-0.155
-639.653	-123.228	0.146	-0.023
-638.638	31.467	-0.105	-0.089
-637.624	59.382	-0.083	0.081
-636.609	40.436	-0.315	-0.282
-635.595	-169.690	-0.370	-0.013
-634.580	-143.220	-0.052	0.005
-633.565	-133.441	-0.197	-0.025
-632.551	-195.754	0.426	-0.003
-631.536	-92.663	-0.121	-0.034
-630.522	800.000	0.046	0.148
-629.507	-92.293	-0.198	-0.056
-628.492	-200.000	-0.004	-0.153
-627.478	800.000	0.126	-0.478
-626.463	800.000	0.085	-0.340
-625.449	-200.000	0.044	0.209
-624.434	-120.653	-0.093	0.016
-623.419	81.472	0.171	-0.184
-622.405	10.349	0.061	-0.046
-621.390	-21.619	0.029	0.018
-620.376	-116.413	0.216	-0.040
-619.361	-200.000	-0.005	0.200
-618.346	-82.305	-0.267	0.086
-617.332	-99.163	0.143	-0.036
-616.317	-94.217	-0.416	-0.113
-615.303	-112.703	-0.146	-0.029
-614.288	-138.058	-0.177	0.020
-613.273	217.596	-0.070	-0.111
-612.259	-98.377	0.106	-0.027
-611.244	-200.000	-0.073	-0.377
-610.230	-200.000	0.006	0.275
-609.215	120.063	0.203	-0.250
-608.201	304.560	-0.014	0.025
-607.186	-200.000	-0.036	-0.186
-606.171	-200.000	-0.042	-0.203
-605.157	-164.311	0.086	0.004
-604.142	-169.780	-0.296	0.011
-603.128	-48.237	-0.078	0.037
-602.113	282.018	0.060	0.107
-601.098	-200.000	-0.002	0.262
-600.084	-153.570	0.297	0.020
-599.069	1.983	0.216	-0.155
-598.055	-58.310	-0.183	-0.079
-597.040	149.715	0.097	0.131
-596.025	-19.780	0.414	-0.254
-595.011	-200.000	-0.027	-0.390
-593.996	-200.000	0.048	-0.283
-592.982	-82.351	-0.316	0.102
-591.967	35.138	0.326	0.284
-590.952	-200.000	-0.001	0.134
-589.938	-191.513	-0.424	0.004
-588.923	-200.000	0.002	0.269
-587.909	168.983	-0.191	0.270
-586.894	11.164	0.179	-0.136
-585.879	-200.000	-0.052	-0.324
-584.865	373.760	-0.029	-0.059
-583.850	-49.455	-0.395	-0.187
-582.836	-23.784	0.164	0.098
-581.821	318.941	-0.236	-0.444
-580.806	151.084	-0.161	-0.218
-579.792	165.625	-0.136	-0.192
-578.777	168.389	-0.178	0.251
-577.763	37.734	-0.312	0.275
-576.748	-101.308	0.156	-0.038
-575.733	-76.150	0.186	-0.065
-574.719	79.246	-0.235	-0.250
-573.704	247.750	-0.228	0.382
-572.690	-88.094	-0.318	-0.095
-571.675	-148.802	-0.077	0.006
-570.661	12.447	-0.264	-0.202
-569.646	240.253	0.060	0.100
-568.631	800.000	-0.048	-0.190
-567.617	598.126	-0.113	0.279
-566.602	-160.406	-0.111	-0.006
-565.588	50.957	0.098	-0.092
-564.573	53.493	-0.150	0.142
-563.558	47.825	-0.181	-0.168
-562.544	112.292	0.074	-0.089
-561.529	-200.000	-0.036	-0.384
-560.515	91.186	0.059	-0.066
-559.500	22.788	0.156	0.126
-558.485	-168.212	0.069	-0.003
-557.471	486.150	-0.137	-0.309
-556.456	17.944	-0.166	0.131
-555.442	67.900	0.335	-0.339
-554.427	342.711	0.071	-0.138
-553.412	-49.773	-0.205	-0.097
-552.398	83.498	-0.076	-0.082
-551.383	102.899	0.226	-0.262
-550.369	-200.000	-0.001	-0.293
-549.354	-16.192	0.080	0.050
-548.339	389.657	-0.071	-0.146
-547.325	-108.172	0.303	0.065
-546.310	99.583	-0.140	0.161
-545.296	800.000	-0.033	0.112
-544.281	101.293	-0.034	0.039
-543.266	129.581	-0.092	-0.116
-542.252	211.433	0.204	0.317
-541.237	101.571	0.249	0.287
-540.223	26.748	0.206	0.171
-539.208	-200.000	-0.048	0.267
-538.193	-46.009	-0.187	-0.091
-537.179	-48.269	0.386	-0.184
-536.164	-37.012	-0.121	-0.064
-535.150	-200.000	0.036	0.249
-534.135	-166.335	-0.069	0.003
-533.121	-200.000	-0.011	0.159
-532.106	-24.909	0.092	-0.054
-531.091	-3.734	0.082	-0.057
-530.077	800.000	0.089	0.244
-529.062	71.145	0.030	-0.031
-528.048	627.782	-0.101	-0.254
-527.033	-47.880	-0.140	-0.067
-526.018	-200.000	0.014	0.399
-525.004	128.042	0.156	0.197
-523.989	224.454	-0.061	-0.097
-522.975	-47.020	0.153	-0.074
-521.960	-125.646	-0.301	0.045
-520.945	19.994	-0.103	-0.083
-519.931	138.790	0.101	0.131
-518.916	-89.043	-0.113	0.033
-517.902	-139.560	-0.265	-0.028
-516.887	67.821	0.288	-0.292
-515.872	-75.881	0.223	-0.078
-514.858	-115.937	-0.110	0.020
-513.843	82.765	0.176	0.189
-512.829	-156.983	0.197	0.012
-511.814	-77.062	-0.356	-0.123
-510.799	-200.000	0.035	0.253
-509.785	116.138	-0.206	0.249
-508.770	-114.743	-0.134	-0.025
-507.756	-86.366	0.304	-0.093
-506.741	259.884	0.053	0.091
-505.726	66.535	-0.192	0.193
-504.712	-200.000	-0.009	-0.114
-503.697	197.934	0.190	-0.287
-502.683	189.999	-0.078	0.115
-501.668	-23.324	-0.169	-0.101
-500.653	29.997	0.391	0.329
-499.639	-166.323	-0.416	-0.017
-498.624	407.326	0.132	-0.276
-497.610	-200.000	0.016	0.148
-496.595	441.882	-0.026	-0.056
-495.581	136.845	0.266	0.344
-494.566	800.000	-0.074	0.220
-493.551	185.359	0.130	0.190
-492.537	163.011	-0.078	-0.108
-491.522	-188.947	-0.177	0.002
-490.508	-0.261	0.060	0.042
-489.493	178.846	-0.100	-0.145
-488.478	800.000	0.110	0.440
-487.464	-93.485	-0.372	-0.102
-486.449	-135.238	-0.256	0.030
-485.435	-67.598	0.211	0.082
-484.420	33.664	0.169	0.145
-483.405	800.000	0.124	-0.372
-482.391	115.077	-0.100	-0.121
-481.376	34.444	0.215	-0.185
-480.362	15.197	-0.127	0.098
-479.347	20.979	0.098	0.079
-478.332	-200.000	0.070	-0.446
-477.318	91.016	0.069	0.077
-476.303	-53.368	0.194	0.088
-475.289	546.200	0.172	-0.406
-474.274	-148.745	-0.073	-0.006
-473.259	262.098	0.026	0.045
-472.245	-112.422	-0.258	-0.051
-471.230	93.053	0.089	0.099
-470.216	-16.819	0.186	-0.116
-469.201	408.593	0.116	0.243
-468.186	262.912	-0.091	0.156
-467.172	-128.062	-0.192	-0.027
-466.157	9.231	-0.255	0.190
-465.143	-82.698	-0.180	-0.057
-464.128	104.260	0.233	-0.271
-463.113	81.869	0.036	-0.039
-462.099	-70.156	-0.316	-0.119
-461.084	-200.000	-0.001	0.009
-460.070	198.259	-0.128	0.194
-459.055	-98.465	-0.269	-0.068
-458.040	-29.516	0.514	-0.290
-457.026	28.369	0.185	0.155
-456.011	800.000	-0.096	-0.340
-454.997	237.007	0.302	-0.495
-453.982	-20.352	0.169	0.103
-452.968	-200.000	0.020	0.257
-451.953	284.469	-0.161	0.286
-450.938	314.233	-0.209	-0.389
-449.924	-59.394	-0.311	-0.132
-448.909	638.445	-0.143	0.359
-447.895	-47.368	0.110	-0.053
-446.880	101.636	-0.046	0.053
-445.865	-99.137	0.181	-0.045
-444.851	707.932	0.149	0.389
-443.836	493.083	0.031	-0.071
-442.822	-99.836	0.044	-0.011
-441.807	16.268	-0.102	-0.079
-440.792	45.083	-0.237	-0.216
-439.778	82.728	0.154	0.166
-438.763	14.995	0.259	0.200
-437.749	-147.220	-0.282	-0.024
-436.734	-55.864	-0.170	0.075
-435.719	-102.609	-0.255	-0.060
-434.705	800.000	0.026	-0.111
-433.690	47.880	0.079	0.073
-432.676	37.577	-0.101	-0.088
-431.661	-139.136	0.041	-0.004
-430.646	-200.000	-0.002	0.236
-429.632	800.000	-0.107	-0.364
-428.617	-200.000	0.004	-0.195
-427.603	350.276	0.163	-0.317
-426.588	426.581	-0.061	0.131
-425.573	-84.952	-0.365	-0.113
-424.559	218.544	-0.146	0.230
-423.544	800.000	-0.084	0.262
-422.530	-200.000	-0.001	0.164
-421.515	800.000	0.054	0.203
-420.500	-39.108	-0.052	0.027
-419.486	475.510	0.105	0.235
-418.471	-200.000	0.006	-0.445
-417.457	173.653	0.098	-0.139
-416.442	72.685	-0.155	-0.160
-415.428	-13.230	0.035	0.023
-414.413	-200.000	-0.006	-0.141
-413.398	-141.865	0.159	-0.016
-412.384	-146.550	-0.179	0.015
-411.369	59.254	-0.053	-0.051
-410.355	3.190	0.061	0.043
-409.340	-158.914	-0.531	-0.030
-408.325	-200.000	-0.028	0.560
-407.311	-200.000	-0.011	-0.222
-406.296	-148.429	-0.112	-0.009
-405.282	228.715	-0.199	0.320
-404.267	-90.868	0.353	0.100
-403.252	800.000	0.093	-0.376
-402.238	800.000	-0.053	-0.165
-401.223	448.849	-0.072	-0.155
-400.209	-35.829	-0.202	0.108
-399.194	-47.488	-0.345	0.165
-398.179	-45.909	0.373	0.182
-397.165	119.965	-0.132	-0.162
-396.150	-147.912	0.196	0.016
-395.136	160.011	-0.134	-0.183
-394.121	800.000	0.081	0.246
-393.106	-200.000	-0.038	0.170
-392.092	39.000	0.233	0.205
-391.077	-21.493	0.399	-0.240
-390.063	455.637	-0.126	-0.276
-389.048	-109.494	0.317	0.066
-388.033	235.185	-0.157	-0.255
-387.019	229.028	-0.106	-0.171
-386.004	121.257	-0.107	0.131
-384.990	-67.809	-0.094	0.036
-383.975	35.456	0.271	0.234
-382.960	93.183	0.308	-0.343
-381.946	-200.000	-0.039	-0.198
-380.931	-115.731	0.101	0.019
-379.917	-141.345	-0.110	-0.011
-378.902	-157.505	-0.356	-0.021
-377.888	379.736	0.098	-0.199
-376.873	18.282	-0.072	-0.056
-375.858	24.863	0.197	-0.161
-374.844	166.501	-0.447	0.623
-373.829	-200.000	0.005	0.220
-372.815	-46.602	0.021	-0.010
-371.800	-159.097	0.289	0.016
-370.785	89.660	-0.110	-0.120
-369.771	-200.000	0.029	0.148
-368.756	387.754	-0.204	0.415
-367.742	-200.000	-0.021	-0.153
-366.727	113.832	-0.189	0.226
-365.712	800.000	0.083	-0.231
-364.698	107.354	0.352	-0.412
-363.683	-200.000	-0.028	-0.122
-362.669	-135.157	-0.194	0.023
-361.654	176.197	0.067	0.096
-360.639	-41.690	-0.256	-0.129
-359.625	-83.830	-0.196	-0.061
-358.610	638.293	-0.106	0.265
-357.596	-59.586	-0.317	0.134
-356.581	-94.544	0.293	-0.078
-355.566	179.134	-0.065	0.094
-354.552	101.898	0.155	0.178
-353.537	-9.967	-0.295	0.193
-352.523	345.215	0.080	-0.154
-351.508	800.000	-0.108	0.300
-350.493	262.036	0.218	-0.372
-349.479	800.000	-0.029	0.112
-348.464	-5.618	0.150	0.101
-347.450	129.556	0.222	-0.279
-346.435	-65.306	0.174	-0.069
-345.420	378.627	0.171	0.343
-344.406	-88.137	0.100	-0.029
-343.391	5.771	0.150	-0.109
-342.377	-148.365	-0.089	-0.007
-341.362	-200.000	-0.028	0.202
-340.348	342.512	0.066	-0.127
-339.333	-114.446	0.309	-0.058
-338.318	-11.895	-0.044	0.028
-337.304	168.363	0.104	-0.146
-336.289	-41.133	0.169	0.086
-335.275	198.351	-0.046	-0.070
-334.260	-200.000	0.004	0.130
-333.245	-89.127	0.220	-0.064
-332.231	497.426	0.045	-0.102
-331.216	800.000	0.033	0.114
-330.202	615.190	-0.089	-0.220
-329.187	285.264	0.067	0.118
-328.172	-86.900	-0.183	-0.055
-327.158	-4.786	-0.153	0.104
-326.143	499.638	0.095	-0.215
-325.129	-200.000	0.012	-0.108
-324.114	-98.914	-0.082	0.020
-323.099	774.511	-0.087	-0.234
-322.085	800.000	-0.052	-0.158
-321.070	6.816	-0.054	0.040
-320.056	-61.359	0.034	-0.014
-319.041	275.994	-0.011	0.019
-318.026	-178.933	0.258	-0.006
-317.012	-29.574	-0.148	-0.083
-315.997	4.757	-0.056	0.041
-314.983	33.120	-0.178	0.152
-313.968	-150.746	-0.289	0.022
-312.953	45.069	-0.294	-0.266
-311.939	62.934	0.232	-0.228
-310.924	-200.000	0.021	0.112
-309.910	672.200	0.076	-0.194
-308.895	570.640	0.080	-0.192
-307.880	-39.054	-0.171	0.088
-306.866	-200.000	-0.008	0.269
-305.851	124.509	-0.124	-0.153
-304.837	-200.000	-0.014	-0.130
-303.822	-200.000	-0.015	0.096
-302.807	-17.807	-0.337	-0.208
-301.793	-86.763	-0.255	0.076
-300.778	-40.527	-0.040	0.020
-299.764	41.197	0.359	-0.318
-298.749	-22.547	-0.278	-0.165
-297.735	-49.095	-0.188	0.088
-296.720	266.291	-0.145	-0.249
-295.705	-141.795	-0.239	0.024
-294.691	-200.000	0.007	-0.124
-293.676	-41.236	-0.196	0.099
-292.662	-64.090	-0.150	0.060
-291.647	371.935	-0.122	0.242
-290.632	26.518	-0.347	0.285
-289.618	-200.000	0.039	0.525
-288.603	241.125	0.111	0.181
-287.589	-200.000	0.057	0.290
-286.574	-115.845	0.223	-0.041
-285.559	-73.312	-0.205	0.073
-284.545	-108.350	-0.299	-0.063
-283.530	348.912	0.145	-0.280
-282.516	-200.000	0.009	-0.155
-281.501	9.383	0.163	0.121
-280.486	-92.643	0.327	-0.090
-279.472	116.138	-0.274	-0.329
-278.457	-200.000	0.052	-0.233
-277.443	-99.440	0.281	0.069
-276.428	-27.534	0.219	0.125
-275.413	800.000	0.088	0.353
-274.399	-115.383	-0.277	0.051
-273.384	-71.090	0.127	0.047
-272.370	-29.970	0.247	0.138
-271.355	679.459	-0.055	0.141
-270.340	-200.000	0.004	-0.346
-269.326	800.000	-0.117	-0.430
-268.311	38.934	-0.112	-0.098
-267.297	299.594	-0.101	-0.182
-266.282	-200.000	-0.009	0.173
-265.267	-95.300	0.259	-0.068
-264.253	-47.655	-0.091	0.043
-263.238	269.227	-0.263	0.452
-262.224	21.268	0.141	-0.112
-261.209	-87.858	-0.269	-0.079
-260.195	-182.069	0.199	-0.004
-259.180	-125.321	0.096	-0.014
-258.165	335.475	0.226	0.429
-257.151	-200.000	-0.016	0.145
-256.136	-200.000	-0.008	-0.136
-255.122	800.000	0.103	-0.373
-254.107	94.081	0.060	-0.067
-253.092	-200.000	0.031	0.144
-252.078	283.506	-0.069	0.121
-251.063	-84.533	0.341	-0.105
-250.049	275.640	0.013	-0.022
-249.034	-105.413	0.028	0.006
-248.019	-200.000	0.059	0.259
-247.005	147.575	0.097	0.128
-245.990	127.934	0.179	0.223
-244.976	74.919	-0.186	0.192
-243.961	-151.084	0.404	0.030
-242.946	38.725	0.245	0.214
-241.932	-200.000	-0.013	-0.154
-240.917	-200.000	-0.044	0.239
-239.903	254.238	0.158	-0.264
-238.888	-200.000	-0.057	-0.255
-237.873	-47.154	0.270	0.129
-236.859	109.098	0.298	0.350
-235.844	-200.000	-0.031	0.139
-234.830	26.864	-0.089	0.073
-233.815	119.449	0.126	-0.153
-232.800	-64.936	0.192	-0.076
-231.786	193.304	-0.056	0.083
-230.771	-25.045	-0.043	-0.025
-229.757	-200.000	-0.011	0.184
-228.742	-66.422	0.223	0.087
-227.727	-85.410	0.374	-0.114
-226.713	800.000	0.080	-0.310
-225.698	-41.004	0.051	0.026
-224.684	-105.216	-0.237	0.053
-223.669	-39.070	0.211	0.109
-222.655	-200.000	-0.022	0.384
-221.640	-22.147	0.468	0.278
-220.625	-89.260	0.287	0.083
-219.611	13.156	-0.187	-0.141
-218.596	522.596	0.083	-0.190
-217.582	-158.820	-0.196	-0.011
-216.567	800.000	-0.070	-0.287
-215.552	-46.483	-0.078	0.037
-214.538	800.000	0.135	0.371
-213.523	-200.000	-0.001	-0.216
-212.509	-100.263	0.121	-0.029
-211.494	775.105	0.147	0.393
-210.479	210.473	-0.222	0.342
-209.465	-20.149	-0.115	0.069
-208.450	-200.000	-0.027	0.250
-207.436	-200.000	-0.015	0.166
-206.421	-200.000	0.002	0.163
-205.406	178.183	0.161	0.230
-204.392	35.706	-0.160	0.137
-203.377	124.976	-0.224	-0.275
-202.363	-177.548	0.227	0.005
-201.348	66.869	0.096	-0.096
-200.333	103.844	0.039	-0.045
-199.319	800.000	-0.052	-0.203
-198.304	-140.293	0.082	0.008
-197.290	459.701	0.108	-0.236
-196.275	-27.968	0.170	0.096
-195.260	141.557	0.206	-0.266
-194.246	-129.355	-0.323	0.044
-193.231	106.856	-0.234	-0.272
-192.217	-91.357	-0.347	0.097
-191.202	307.315	0.181	0.329
-190.187	-13.001	-0.235	0.149
-189.173	-24.417	0.161	-0.094
-188.158	-200.000	0.046	0.281
-187.144	-76.471	-0.343	0.118
-186.129	11.996	0.069	0.052
-185.114	-102.137	0.097	-0.023
-184.100	75.662	0.080	0.083
-183.085	52.305	0.154	0.143
-182.071	-200.000	0.000	0.157
-181.056	48.389	0.170	0.155
-180.042	-48.911	-0.325	0.152
-179.027	-7.490	0.129	0.085
-178.012	-200.000	0.010	-0.347
-176.998	-167.551	-0.451	0.018
-175.983	798.501	0.098	-0.265
-174.969	800.000	-0.035	-0.140
-173.954	300.535	-0.052	-0.094
-172.939	461.263	0.066	-0.143
-171.925	193.845	-0.048	0.071
-170.910	-197.609	0.166	-0.001
-169.896	82.399	0.036	0.038
-168.881	-200.000	0.020	0.306
-167.866	-200.000	-0.014	0.237
-166.852	-114.793	0.218	-0.041
-165.837	95.099	0.143	-0.159
-164.823	800.000	-0.061	0.176
-163.808	-59.490	0.356	0.149
-162.793	-62.023	-0.290	0.118
-161.779	281.627	-0.113	0.198
-160.764	118.692	0.353	0.426
-159.750	106.364	0.270	-0.312
-158.735	-112.250	0.276	0.054
-157.720	-2.475	0.145	0.099
-156.706	-19.573	0.115	0.069
-155.691	-186.675	0.436	0.006
-154.677	149.097	-0.155	-0.205
-153.662	278.704	0.018	0.032
-152.647	-200.000	0.059	-0.323
-151.633	82.005	-0.076	0.081
-150.618	-125.422	-0.166	0.025
-149.604	-121.109	-0.088	0.014
-148.589	160.244	-0.176	0.240
-147.574	266.438	-0.098	0.167
-146.560	3.348	0.344	0.245
-145.545	10.012	-0.120	0.089
-144.531	364.246	0.154	0.302
-143.516	-49.616	-0.356	-0.165
-142.502	-200.000	0.023	-0.207
-141.487	-67.851	-0.286	-0.109
-140.472	-103.689	0.114	-0.026
-139.458	88.864	-0.133	0.145
-138.443	-200.000	-0.006	-0.316
-137.429	-200.000	-0.010	0.321
-136.414	800.000	-0.077	-0.245
-135.399	54.800	0.173	-0.163
-134.385	-200.000	-0.001	-0.090
-133.370	800.000	-0.044	-0.119
-132.356	-200.000	-0.012	-0.151
-131.341	57.147	0.145	-0.137
-130.326	-51.345	0.224	-0.102
-129.312	-200.000	-0.028	-0.177
-128.297	-150.724	-0.172	-0.013
-127.283	201.681	-0.166	0.249
-126.268	103.996	0.116	0.133
-125.253	70.493	0.156	-0.157
-124.239	282.764	0.086	-0.150
-123.224	15.955	-0.119	-0.091
-122.210	-32.183	-0.380	-0.207
