DTS Sentinel unit serial number:	SN413079Multiplexer serial number:	ORYXHardware model number:	OX4-SRSoftware version number:	ORYX F/W v4.00 Oryx Data Collector v3.7.2.0data status	okinstallation	princeton_trtdifferential loss correction	single-endedforward channel	channel 3reverse channel	N/Adate	2019/09/14time	10:36:35forward acquisition time	60.00reverse acquisition time	0.00gamma	496.2192k internal	0.2302k external	0.2302temperature offset calibration	1.0060default loss term (dB/km)	0.3790temperature slope calibration	1.0000multiplexer offset coefficient	1.0000multiplexer slope coefficient	1.0000fibre end	0.00T internal ref (°C)	35.06T ext. ref 1 (°C)	4.22T ext. ref 2 (°C)	32.99length (m)	temperature (°C)	Stokes	anti-Stokes-747.200	73.436	-0.134	0.143
-746.185	-145.839	0.249	-0.023
-745.171	-41.753	-0.215	-0.112
-744.156	442.564	-0.099	-0.220
-743.142	793.167	0.144	-0.403
-742.127	800.000	-0.028	0.105
-741.112	-42.033	-0.207	0.108
-740.098	-197.635	0.162	0.001
-739.083	-200.000	-0.071	0.396
-738.069	748.463	-0.094	0.257
-737.054	-122.615	0.451	-0.075
-736.039	-179.704	-0.089	-0.002
-735.025	-136.916	0.296	0.035
-734.010	-200.000	-0.004	0.335
-732.996	800.000	0.045	0.145
-731.981	294.100	-0.143	-0.265
-730.966	-80.834	-0.364	-0.123
-729.952	426.317	-0.083	-0.183
-728.937	471.942	-0.122	-0.280
-727.923	81.645	-0.108	-0.119
-726.908	-22.913	-0.013	-0.008
-725.894	449.195	0.108	0.242
-724.879	347.433	-0.155	-0.310
-723.864	-79.542	-0.134	0.046
-722.850	-61.612	-0.259	0.111
-721.835	507.039	0.027	0.064
-720.821	144.934	0.198	-0.270
-719.806	-84.150	0.093	0.030
-718.791	-134.662	-0.157	0.019
-717.777	-113.658	-0.132	0.026
-716.762	-200.000	-0.046	-0.265
-715.748	-200.000	0.002	-0.062
-714.733	-200.000	-0.077	-0.397
-713.718	-147.326	-0.294	0.025
-712.704	-185.777	-0.157	-0.002
-711.689	-21.280	-0.253	0.157
-710.675	-200.000	-0.008	-0.172
-709.660	69.443	0.244	-0.256
-708.645	199.463	-0.249	0.389
-707.631	9.178	-0.101	0.078
-706.616	-200.000	-0.024	0.348
-705.602	-91.286	-0.302	0.088
-704.587	7.337	0.056	-0.042
-703.572	69.070	0.186	-0.195
-702.558	-135.156	0.322	-0.039
-701.543	800.000	0.075	0.316
-700.529	-152.059	0.421	0.031
-699.514	180.332	0.110	-0.164
-698.499	-113.804	-0.190	-0.038
-697.485	-90.399	-0.242	-0.071
-696.470	125.530	0.109	0.140
-695.456	800.000	-0.078	-0.292
-694.441	117.757	-0.186	0.232
-693.426	35.340	-0.101	-0.090
-692.412	-107.460	0.051	0.011
-691.397	-200.000	0.051	0.411
-690.383	615.751	-0.068	-0.174
-689.368	800.000	-0.019	-0.055
-688.354	-48.874	-0.145	-0.071
-687.339	-171.118	0.172	0.006
-686.324	-84.915	-0.123	-0.039
-685.310	-136.997	-0.359	0.042
-684.295	43.172	0.202	0.188
-683.281	496.363	-0.033	0.076
-682.266	273.798	-0.171	-0.308
-681.251	-146.794	-0.072	0.006
-680.237	-45.336	0.155	-0.078
-679.222	-200.000	-0.018	0.080
-678.208	321.636	-0.030	-0.058
-677.193	148.230	0.128	-0.175
-676.178	79.799	0.189	0.207
-675.164	-134.412	0.219	0.027
-674.149	201.278	0.182	0.285
-673.135	32.639	-0.099	0.087
-672.120	-200.000	-0.057	0.263
-671.105	-200.000	-0.039	0.247
-670.091	54.046	-0.186	0.182
-669.076	-131.997	-0.276	-0.037
-668.062	-13.650	-0.354	-0.233
-667.047	-200.000	0.030	0.401
-666.032	-15.822	0.207	0.134
-665.018	163.252	-0.204	0.292
-664.003	-166.925	0.285	0.012
-662.989	34.199	-0.098	0.086
-661.974	57.107	-0.150	-0.149
-660.959	-82.088	-0.539	-0.179
-659.945	186.945	-0.138	-0.209
-658.930	-29.282	-0.145	0.084
-657.916	-69.697	-0.073	-0.028
-656.901	16.250	0.149	0.119
-655.886	284.924	-0.092	0.167
-654.872	-108.972	-0.229	-0.050
-653.857	-170.810	0.184	-0.006
-652.843	-180.185	0.140	-0.003
-651.828	-49.308	-0.088	0.042
-650.814	-200.000	-0.035	0.311
-649.799	8.539	0.100	-0.076
-648.784	-116.122	0.194	0.037
-647.770	-26.040	0.055	0.033
-646.755	299.068	0.077	0.144
-645.741	-13.079	0.211	0.139
-644.726	8.523	-0.111	0.085
-643.711	-63.785	0.338	-0.140
-642.697	-69.779	0.082	-0.032
-641.682	-200.000	0.077	-0.356
-640.668	-102.716	-0.113	0.027
-639.653	-200.000	-0.027	0.299
-638.638	-91.000	-0.169	-0.049
-637.624	-101.439	0.112	-0.028
-636.609	81.258	-0.287	-0.315
-635.595	313.552	-0.045	0.086
-634.580	-91.455	0.226	0.065
-633.565	-46.274	0.238	0.119
-632.551	-200.000	-0.080	0.367
-631.536	127.266	-0.054	-0.070
-630.522	239.755	0.036	-0.061
-629.507	-40.779	-0.148	-0.078
-628.492	344.163	0.123	-0.245
-627.478	373.060	-0.070	0.144
-626.463	800.000	-0.105	-0.384
-625.449	-128.671	0.143	0.020
-624.434	-14.156	0.219	-0.143
-623.419	800.000	-0.132	0.420
-622.405	-200.000	-0.018	0.145
-621.390	800.000	0.071	-0.284
-620.376	-200.000	-0.026	-0.166
-619.361	-200.000	0.055	0.336
-618.346	800.000	0.054	0.152
-617.332	-14.500	0.065	-0.043
-616.317	-200.000	0.014	0.069
-615.303	-51.941	0.238	-0.112
-614.288	-183.972	-0.208	0.004
-613.273	-128.912	-0.215	0.031
-612.259	-27.847	0.167	-0.098
-611.244	9.366	-0.176	0.135
-610.230	800.000	-0.062	-0.174
-609.215	-137.831	-0.268	-0.030
-608.201	-89.622	0.394	0.117
-607.186	800.000	0.094	-0.323
-606.171	673.085	-0.026	-0.069
-605.157	-200.000	0.007	-0.083
-604.142	157.952	-0.114	0.161
-603.128	-200.000	-0.068	-0.310
-602.113	283.855	0.229	-0.417
-601.098	-154.789	0.135	0.009
-600.084	-31.612	-0.203	0.115
-599.069	-78.364	0.144	-0.050
-598.055	-116.257	0.029	0.005
-597.040	32.981	0.131	-0.115
-596.025	-176.375	0.309	0.008
-595.011	-146.960	0.061	0.005
-593.996	-34.926	0.186	0.103
-592.982	41.589	-0.367	-0.337
-591.967	-104.739	-0.354	-0.083
-590.952	-79.937	-0.234	-0.079
-589.938	481.432	-0.044	0.101
-588.923	-78.189	0.392	-0.136
-587.909	26.042	0.072	0.061
-586.894	194.528	0.187	0.288
-585.879	584.303	0.028	-0.069
-584.865	-86.774	0.472	0.146
-583.850	149.944	0.084	0.115
-582.836	109.228	-0.210	0.254
-581.821	6.578	0.294	0.221
-580.806	-141.626	0.092	-0.009
-579.792	50.047	-0.026	-0.025
-578.777	4.037	-0.322	-0.238
-577.763	-200.000	-0.001	0.137
-576.748	26.314	0.059	-0.050
-575.733	-114.585	0.262	0.051
-574.719	318.338	-0.080	0.153
-573.704	-105.225	-0.452	0.104
-572.690	800.000	-0.123	-0.421
-571.675	96.042	-0.126	0.146
-570.661	-200.000	0.010	-0.063
-569.646	85.568	-0.106	-0.118
-568.631	50.437	-0.078	-0.074
-567.617	-74.968	0.472	-0.171
-566.602	-100.790	-0.182	-0.045
-565.588	800.000	-0.055	-0.206
-564.573	6.565	0.172	0.129
-563.558	115.974	0.328	0.406
-562.544	77.819	0.133	-0.143
-561.529	-83.930	0.102	0.033
-560.515	-89.535	-0.025	0.007
-559.500	-91.223	0.186	0.054
-558.485	-89.162	0.302	-0.090
-557.471	-147.157	-0.259	0.022
-556.456	-200.000	0.008	0.148
-555.442	90.649	0.057	-0.065
-554.427	-47.790	-0.413	0.202
-553.412	170.748	0.075	-0.109
-552.398	-200.000	-0.076	0.422
-551.383	-105.950	0.308	-0.070
-550.369	-200.000	-0.021	0.106
-549.354	-48.993	-0.120	0.058
-548.339	363.745	-0.148	-0.300
-547.325	-200.000	-0.008	-0.170
-546.310	800.000	-0.041	0.162
-545.296	-71.870	0.132	0.050
-544.281	344.253	0.119	0.236
-543.266	16.388	0.080	-0.064
-542.252	-15.208	-0.096	-0.062
-541.237	-4.324	0.108	0.076
-540.223	385.880	0.149	0.311
-539.208	145.009	-0.141	-0.190
-538.193	-126.470	-0.151	0.023
-537.179	265.044	-0.068	-0.120
-536.164	-63.579	0.283	0.117
-535.150	208.803	-0.175	-0.277
-534.135	-168.286	0.106	0.004
-533.121	38.739	-0.075	0.067
-532.106	11.468	-0.049	0.038
-531.091	18.242	-0.147	0.119
-530.077	800.000	0.078	0.293
-529.062	17.050	0.262	-0.210
-528.048	401.890	-0.070	-0.148
-527.033	-77.617	0.372	0.130
-526.018	-200.000	0.041	0.216
-525.004	-200.000	0.021	-0.226
-523.989	120.331	-0.094	0.118
-522.975	-111.569	0.142	0.029
-521.960	-161.572	0.015	-0.001
-520.945	-167.254	-0.348	0.014
-519.931	-128.026	-0.276	0.040
-518.916	800.000	0.035	0.141
-517.902	-10.472	-0.060	0.040
-516.887	-87.293	0.117	0.036
-515.872	-29.591	0.223	0.128
-514.858	-143.194	-0.280	-0.027
-513.843	-83.036	-0.064	-0.021
-512.829	800.000	-0.084	0.268
-511.814	-66.075	-0.081	0.033
-510.799	24.605	-0.149	-0.124
-509.785	247.116	0.023	-0.039
-508.770	-63.782	0.313	0.129
-507.756	327.977	-0.047	0.091
-506.741	130.327	0.264	0.341
-505.726	-200.000	-0.035	-0.312
-504.712	-200.000	-0.014	-0.454
-503.697	-200.000	0.009	0.111
-502.683	95.464	0.189	0.217
-501.668	1.434	0.158	0.115
-500.653	577.345	-0.077	-0.189
-499.639	-200.000	0.019	0.462
-498.624	274.189	0.013	-0.023
-497.610	-62.341	-0.071	0.030
-496.595	779.314	-0.148	0.409
-495.581	698.874	-0.175	-0.463
-494.566	-200.000	0.045	0.263
-493.551	75.312	0.115	-0.123
-492.537	-89.124	-0.272	0.081
-491.522	658.465	0.056	-0.144
-490.508	-200.000	-0.010	-0.079
-489.493	595.595	0.042	-0.104
-488.478	-15.081	-0.284	0.184
-487.464	-146.541	0.200	-0.018
-486.449	-64.275	-0.140	0.058
-485.435	-200.000	-0.005	0.041
-484.420	-140.034	0.097	-0.010
-483.405	322.477	0.029	0.056
-482.391	69.347	0.107	-0.111
-481.376	38.435	-0.257	0.231
-480.362	558.736	-0.105	-0.254
-479.347	494.053	0.077	-0.179
-478.332	-123.673	-0.284	-0.045
-477.318	-45.091	0.344	-0.173
-476.303	497.969	-0.051	-0.119
-475.289	-200.000	0.017	0.135
-474.274	131.259	0.231	-0.299
-473.259	282.724	-0.018	-0.033
-472.245	-200.000	-0.026	0.238
-471.230	-200.000	-0.000	0.059
-470.216	26.106	-0.034	-0.029
-469.201	-39.383	-0.057	0.030
-468.186	33.555	-0.351	-0.308
-467.172	-200.000	0.002	-0.094
-466.157	372.443	-0.137	0.280
-465.143	800.000	-0.013	-0.042
-464.128	-33.373	-0.080	0.044
-463.113	325.548	-0.065	0.126
-462.099	-134.442	-0.319	-0.039
-461.084	80.162	0.198	-0.215
-460.070	367.634	-0.043	-0.087
-459.055	-29.822	-0.284	0.163
-458.040	-200.000	-0.035	-0.248
-457.026	-135.266	0.185	-0.022
-456.011	-100.852	-0.181	0.045
-454.997	-144.474	-0.181	0.017
-453.982	800.000	-0.051	0.199
-452.968	-50.378	-0.174	-0.083
-451.953	-200.000	-0.067	0.332
-450.938	-179.615	-0.121	0.003
-449.924	24.907	-0.156	-0.130
-448.909	4.858	0.174	-0.129
-447.895	-94.919	0.355	-0.097
-446.880	-200.000	-0.009	-0.075
-445.865	423.830	-0.158	0.342
-444.851	-200.000	-0.021	0.151
-443.836	233.966	0.166	-0.276
-442.822	-60.482	0.050	-0.022
-441.807	193.093	-0.257	-0.392
-440.792	200.968	-0.085	0.132
-439.778	800.000	-0.075	0.287
-438.763	-200.000	0.008	-0.324
-437.749	-200.000	0.021	-0.136
-436.734	169.860	0.157	-0.225
-435.719	343.843	-0.106	-0.208
-434.705	-200.000	0.022	-0.200
-433.690	493.071	-0.057	-0.133
-432.676	432.768	-0.131	-0.287
-431.661	-119.505	-0.135	0.024
-430.646	-36.451	0.147	-0.080
-429.632	-91.388	-0.173	-0.050
-428.617	163.847	-0.101	0.143
-427.603	60.622	0.144	-0.144
-426.588	212.406	0.127	-0.202
-425.573	-116.082	-0.155	0.029
-424.559	538.401	0.077	0.185
-423.544	368.913	0.122	-0.248
-422.530	-21.197	-0.053	0.032
-421.515	-200.000	0.014	0.112
-420.500	-200.000	0.047	-0.216
-419.486	-103.461	-0.181	0.043
-418.471	38.968	0.102	-0.091
-417.457	41.362	-0.283	-0.258
-416.442	-200.000	-0.011	0.205
-415.428	82.659	-0.112	-0.123
-414.413	-200.000	-0.078	0.411
-413.398	44.063	-0.160	-0.147
-412.384	-58.137	-0.118	0.052
-411.369	271.638	0.097	0.171
-410.355	35.504	0.244	0.215
-409.340	280.187	0.067	0.120
-408.325	17.453	-0.442	-0.353
-407.311	-200.000	-0.009	0.095
-406.296	-171.654	0.363	-0.012
-405.282	-95.114	-0.030	0.008
-404.267	800.000	-0.039	-0.112
-403.252	486.348	-0.124	-0.285
-402.238	37.289	-0.227	-0.202
-401.223	-200.000	0.018	0.143
-400.209	-102.730	-0.211	0.050
-399.194	-49.335	0.094	-0.045
-398.179	-200.000	0.025	0.348
-397.165	-100.239	-0.119	0.030
-396.150	520.730	0.087	0.205
-395.136	260.357	-0.105	0.183
-394.121	72.999	0.132	0.139
-393.106	-84.154	-0.084	0.027
-392.092	-200.000	-0.008	0.041
-391.077	100.546	-0.061	0.071
-390.063	83.956	-0.202	-0.222
-389.048	35.240	-0.077	-0.068
-388.033	-86.637	-0.262	-0.081
-387.019	99.100	0.132	-0.153
-386.004	-97.577	-0.396	-0.103
-384.990	-92.527	0.225	0.064
-383.975	-165.020	-0.203	-0.009
-382.960	120.005	0.030	-0.038
-381.946	260.021	0.225	-0.391
-380.931	-200.000	-0.056	0.256
-379.917	-151.410	-0.124	-0.009
-378.902	37.648	0.092	0.082
-377.888	-49.276	0.495	0.237
-376.873	787.676	-0.219	0.602
-375.858	800.000	0.118	0.391
-374.844	-155.506	-0.052	0.003
-373.829	-80.069	-0.212	0.072
-372.815	20.613	0.104	0.084
-371.800	-82.391	0.354	-0.116
-370.785	-26.370	-0.014	-0.008
-369.771	38.376	0.101	0.090
-368.756	28.258	0.187	0.158
-367.742	16.855	0.262	0.208
-366.727	-12.279	0.091	0.060
-365.712	-79.075	0.242	-0.083
-364.698	267.139	0.085	0.150
-363.683	-200.000	0.034	0.198
-362.669	-54.898	0.359	0.163
-361.654	37.455	-0.205	0.183
-360.639	200.949	-0.203	0.313
-359.625	36.213	0.122	-0.108
-358.610	-77.892	0.321	-0.111
-357.596	-100.536	0.053	-0.013
-356.581	800.000	-0.086	0.309
-355.566	-200.000	-0.016	0.347
-354.552	-72.977	-0.234	0.086
-353.537	-111.464	0.228	0.047
-352.523	-112.647	0.118	-0.023
-351.508	-3.363	0.094	-0.066
-350.493	-200.000	-0.013	-0.292
-349.479	104.441	0.100	0.118
-348.464	-51.436	0.254	-0.119
-347.450	537.225	0.085	-0.202
-346.435	392.553	0.130	-0.271
-345.420	97.181	-0.171	0.197
-344.406	-200.000	-0.022	-0.132
-343.391	-200.000	0.074	-0.338
-342.377	-200.000	-0.023	-0.179
-341.362	-134.965	-0.245	-0.030
-340.348	-94.984	-0.063	0.017
-339.333	1.927	-0.209	-0.151
-338.318	800.000	0.039	-0.138
-337.304	-148.829	-0.309	-0.025
-336.289	-200.000	-0.063	0.282
-335.275	-20.819	-0.110	0.068
-334.260	-200.000	0.021	-0.313
-333.245	-200.000	-0.031	-0.221
-332.231	-62.818	-0.202	0.084
-331.216	433.088	0.093	0.203
-330.202	-54.268	0.413	-0.188
-329.187	176.482	-0.296	0.431
-328.172	800.000	0.056	-0.196
-327.158	-34.018	-0.065	0.036
-326.143	27.628	0.239	-0.202
-325.129	-33.971	0.169	0.093
-324.114	316.399	0.052	0.098
-323.099	83.278	-0.262	-0.286
-322.085	197.977	0.132	-0.202
-321.070	-60.166	0.079	-0.034
-320.056	733.103	0.080	0.215
-319.041	-200.000	-0.025	-0.288
-318.026	-200.000	-0.006	-0.170
-317.012	-146.902	0.237	0.020
-315.997	94.682	-0.231	0.263
-314.983	-7.691	-0.171	0.115
-313.968	11.724	0.130	-0.100
-312.953	-39.278	-0.137	0.072
-311.939	800.000	-0.085	-0.256
-310.924	110.713	-0.106	-0.128
-309.910	-200.000	-0.019	-0.269
-308.895	98.745	0.216	0.250
-307.880	800.000	0.076	-0.270
-306.866	-200.000	0.012	0.261
-305.851	-128.280	-0.132	0.019
-304.837	140.239	-0.039	0.052
-303.822	-55.342	-0.358	-0.161
-302.807	-98.596	-0.155	0.040
-301.793	-200.000	0.049	0.267
-300.778	-200.000	0.020	0.174
-299.764	711.370	0.051	0.135
-298.749	-200.000	0.008	0.117
-297.735	-200.000	-0.000	0.280
-296.720	-15.693	-0.214	0.137
-295.705	-200.000	0.001	0.134
-294.691	170.030	-0.148	0.211
-293.676	13.473	0.223	0.173
-292.662	-200.000	-0.069	0.000
-291.647	164.058	-0.205	0.290
-290.632	-200.000	0.007	0.120
-289.618	-200.000	0.039	0.203
-288.603	-200.000	0.016	-0.114
-287.589	185.988	0.061	-0.090
-286.574	-44.032	0.145	0.073
-285.559	-200.000	0.026	-0.205
-284.545	43.885	-0.219	-0.200
-283.530	143.730	0.099	0.132
-282.516	-28.082	0.355	-0.206
-281.501	33.066	-0.260	0.225
-280.486	92.323	-0.251	-0.283
-279.472	238.336	0.154	-0.256
-278.457	-99.064	-0.103	0.026
-277.443	800.000	0.103	0.314
-276.428	-64.338	0.105	-0.043
-275.413	800.000	-0.023	-0.066
-274.399	72.867	0.093	-0.097
-273.384	-69.718	0.118	-0.045
-272.370	-200.000	0.060	0.291
-271.355	-30.413	0.247	0.140
-270.340	-153.684	-0.412	-0.028
-269.326	-200.000	0.008	-0.170
-268.311	91.486	0.106	0.120
-267.297	800.000	-0.028	-0.112
-266.282	96.755	-0.134	0.153
-265.267	-200.000	-0.026	0.268
-264.253	-123.774	-0.170	-0.027
-263.238	-200.000	0.017	-0.134
-262.224	115.877	-0.168	-0.205
-261.209	45.552	-0.377	-0.349
-260.195	800.000	-0.069	-0.263
-259.180	-8.850	0.321	0.215
-258.165	157.975	0.266	-0.369
-257.151	-12.039	-0.287	-0.188
-256.136	29.922	0.050	-0.043
-255.122	800.000	0.124	-0.396
-254.107	-200.000	0.037	-0.199
-253.092	226.639	0.046	0.074
-252.078	-97.490	0.138	0.036
-251.063	128.093	0.065	-0.083
-250.049	-200.000	-0.035	-0.304
-249.034	-41.804	-0.127	0.065
-248.019	-140.850	-0.306	0.031
-247.005	10.005	-0.304	-0.231
-245.990	-7.097	0.117	-0.079
-244.976	-200.000	-0.058	-0.317
-243.961	-200.000	0.004	0.035
-242.946	-53.551	0.232	-0.106
-241.932	747.030	-0.005	0.012
-240.917	439.457	0.083	0.181
-239.903	-133.890	-0.275	-0.034
-238.888	800.000	-0.080	0.244
-237.873	-97.288	0.161	-0.042
-236.859	800.000	-0.073	0.205
-235.844	-169.855	-0.071	-0.003
-234.830	-200.000	0.023	-0.158
-233.815	-200.000	-0.023	0.122
-232.800	421.828	0.117	-0.250
-231.786	243.145	-0.047	0.079
-230.771	-19.142	-0.241	0.149
-229.757	-120.559	-0.177	-0.030
-228.742	410.923	-0.139	0.295
-227.727	49.873	-0.091	0.086
-226.713	207.356	-0.228	-0.355
-225.698	-200.000	0.009	0.221
-224.684	-200.000	-0.007	-0.046
-223.669	711.399	-0.061	0.162
-222.655	-168.952	-0.110	0.004
-221.640	-120.023	-0.251	-0.043
-220.625	-62.150	0.065	0.027
-219.611	4.556	0.122	0.089
-218.596	140.361	0.094	-0.124
-217.582	-81.131	0.116	-0.038
-216.567	496.099	-0.060	-0.138
-215.552	409.161	-0.162	0.342
-214.538	-130.214	0.317	-0.043
-213.523	-64.893	0.497	-0.200
-212.509	800.000	-0.069	0.251
-211.494	182.087	-0.102	-0.150
-210.479	-55.705	-0.149	-0.066
-209.465	118.935	-0.227	-0.280
-208.450	-63.465	0.255	-0.105
-207.436	-145.095	-0.241	-0.022
-206.421	-5.554	0.197	-0.135
-205.406	-90.666	-0.279	0.080
-204.392	5.381	-0.218	-0.161
-203.377	-19.877	-0.114	0.070
-202.363	-56.860	0.122	-0.054
-201.348	-104.659	0.271	-0.062
-200.333	800.000	-0.173	0.582
-199.319	-200.000	0.079	0.423
-198.304	-127.065	-0.090	0.013
-197.290	-95.111	0.217	-0.059
-196.275	-60.002	-0.442	-0.188
-195.260	282.782	0.059	-0.105
-194.246	-160.315	-0.252	-0.014
-193.231	-21.215	-0.069	-0.042
-192.217	-68.452	0.182	-0.070
-191.202	-114.478	0.096	-0.018
-190.187	538.712	0.072	0.170
-189.173	-200.000	-0.057	0.328
-188.158	-111.145	0.295	-0.060
-187.144	800.000	0.091	-0.257
-186.129	-74.496	0.144	0.052
-185.114	273.945	0.077	0.136
-184.100	128.716	-0.074	-0.094
-183.085	-200.000	0.048	0.238
-182.071	15.293	0.289	0.226
-181.056	-200.000	-0.026	-0.291
-180.042	109.163	0.270	0.322
-179.027	-30.454	0.057	0.032
-178.012	-75.684	0.105	0.037
-176.998	-200.000	-0.036	-0.389
-175.983	-87.002	0.235	0.071
-174.969	0.561	0.117	-0.083
-173.954	-103.318	0.079	0.019
-172.939	-119.349	0.173	-0.030
-171.925	-123.083	0.302	-0.048
-170.910	800.000	0.055	-0.234
-169.896	-69.666	0.116	0.044
-168.881	134.054	-0.092	-0.119
-167.866	-6.767	-0.138	0.093
-166.852	110.925	-0.183	0.220
-165.837	-200.000	-0.001	0.013
-164.823	-170.605	0.055	0.002
-163.808	-111.744	-0.261	0.053
-162.793	-200.000	0.050	-0.258
-161.779	189.889	-0.163	0.244
-160.764	800.000	0.082	-0.303
-159.750	-142.271	-0.518	0.051
-158.735	354.840	0.078	0.155
-157.720	543.826	-0.110	-0.260
-156.706	-200.000	-0.000	0.058
-155.691	154.601	0.263	0.360
-154.677	-117.277	0.264	0.048
-153.662	-55.432	0.171	0.077
-152.647	-18.021	0.289	-0.180
-151.633	68.874	-0.134	-0.137
-150.618	-83.133	0.215	0.069
-149.604	407.897	-0.124	0.262
-148.589	22.742	-0.149	0.122
-147.574	418.790	-0.108	-0.231
-146.560	-125.758	-0.103	0.016
-145.545	291.111	0.128	0.231
-144.531	-200.000	-0.020	0.265
-143.516	138.865	0.069	-0.090
-142.502	-200.000	0.017	0.310
-141.487	800.000	0.122	0.334
-140.472	270.644	-0.048	0.084
-139.458	-200.000	-0.023	-0.333
-138.443	-200.000	-0.019	0.299
-137.429	-200.000	0.003	-0.202
-136.414	-135.164	-0.339	0.041
-135.399	-84.848	-0.116	-0.036
-134.385	-110.378	0.436	0.090
-133.370	-200.000	0.011	0.067
-132.356	-97.377	-0.402	0.104
-131.341	395.500	-0.061	0.126
-130.326	-33.970	-0.094	0.051
-129.312	26.756	-0.203	0.169
-128.297	67.718	0.222	0.226
-127.283	2.111	-0.166	-0.119
-126.268	-12.425	0.437	0.284
-125.253	-49.106	-0.109	-0.052
-124.239	-42.063	0.179	0.091
-123.224	44.007	-0.087	-0.079
-122.210	-200.000	0.001	-0.038
