DTS Sentinel unit serial number:	SN413079Multiplexer serial number:	ORYXHardware model number:	OX4-SRSoftware version number:	ORYX F/W v4.00 Oryx Data Collector v3.7.2.0data status	okinstallation	princeton_trtdifferential loss correction	single-endedforward channel	channel 3reverse channel	N/Adate	2019/09/11time	11:14:11forward acquisition time	60.00reverse acquisition time	0.00gamma	496.2192k internal	0.2295k external	0.2295temperature offset calibration	0.9941default loss term (dB/km)	0.3790temperature slope calibration	1.0000multiplexer offset coefficient	1.0000multiplexer slope coefficient	1.0000fibre end	0.00T internal ref (°C)	37.56T ext. ref 1 (°C)	0.18T ext. ref 2 (°C)	33.87length (m)	temperature (°C)	Stokes	anti-Stokes-747.200	191.766	0.063	-0.097
-746.185	-131.638	-0.333	-0.045
-745.171	800.000	-0.097	-0.293
-744.156	328.685	-0.074	-0.145
-743.142	-194.130	-0.127	0.001
-742.127	-200.000	0.015	0.247
-741.112	60.484	0.198	-0.200
-740.098	406.302	-0.131	-0.282
-739.083	52.718	-0.115	0.113
-738.069	88.822	-0.093	0.106
-737.054	-43.452	-0.155	0.080
-736.039	47.041	-0.274	-0.261
-735.025	-200.000	0.001	-0.089
-734.010	-107.761	0.180	-0.040
-732.996	716.694	-0.060	-0.163
-731.981	477.377	-0.047	0.108
-730.966	-13.860	-0.119	0.079
-729.952	800.000	-0.059	-0.222
-728.937	0.957	-0.198	0.145
-727.923	-115.169	0.213	0.041
-726.908	574.338	0.041	0.103
-725.894	800.000	0.067	0.265
-724.879	-87.774	0.200	-0.062
-723.864	-2.956	-0.182	-0.130
-722.850	5.059	-0.295	0.222
-721.835	-30.851	0.110	-0.063
-720.821	-96.409	0.310	-0.084
-719.806	437.067	-0.086	-0.191
-718.791	71.284	0.040	-0.043
-717.777	256.909	-0.095	-0.166
-716.762	15.746	-0.086	-0.069
-715.748	234.381	-0.253	-0.425
-714.733	-200.000	-0.368	0.000
-713.718	214.978	-0.154	-0.249
-712.704	58.172	0.133	0.133
-711.689	-104.267	0.385	-0.091
-710.675	90.899	0.072	-0.082
-709.660	54.753	0.196	-0.193
-708.645	-200.000	-0.016	-0.249
-707.631	-92.754	0.057	-0.016
-706.616	-50.333	0.140	0.068
-705.602	111.911	0.080	-0.098
-704.587	-135.926	0.375	-0.045
-703.572	800.000	0.094	-0.331
-702.558	21.574	0.097	0.080
-701.543	-163.098	-0.351	0.017
-700.529	-59.946	0.296	0.129
-699.514	330.436	0.047	0.092
-698.499	-75.548	0.073	-0.027
-697.485	53.961	-0.209	0.205
-696.470	-158.804	-0.106	-0.006
-695.456	-123.177	0.301	-0.049
-694.441	800.000	-0.091	-0.349
-693.426	199.732	0.154	0.240
-692.412	-140.071	-0.136	-0.015
-691.397	-105.651	0.084	-0.019
-690.383	137.923	-0.197	-0.263
-689.368	-109.197	0.227	-0.049
-688.354	61.176	0.130	0.131
-687.339	-27.678	-0.167	-0.099
-686.324	52.664	0.046	-0.045
-685.310	0.336	-0.230	0.167
-684.295	-200.000	0.268	0.001
-683.281	-145.294	0.101	0.009
-682.266	89.544	-0.243	0.276
-681.251	-200.000	-0.029	0.272
-680.237	-200.000	0.024	-0.353
-679.222	60.577	-0.235	0.238
-678.208	-162.620	-0.337	-0.017
-677.193	800.000	-0.046	-0.133
-676.178	103.286	-0.076	-0.091
-675.164	-116.666	-0.283	-0.053
-674.149	-104.784	0.060	0.014
-673.135	800.000	0.066	-0.192
-672.120	-58.835	0.331	-0.146
-671.105	-114.941	-0.241	-0.047
-670.091	595.769	-0.039	-0.100
-669.076	-32.624	0.282	-0.160
-668.062	800.000	-0.061	-0.269
-667.047	800.000	0.089	0.319
-666.032	120.720	-0.185	-0.234
-665.018	-55.521	0.077	0.035
-664.003	800.000	-0.070	-0.221
-662.989	-186.950	-0.269	0.004
-661.974	-200.000	-0.072	-0.396
-660.959	90.705	-0.191	-0.219
-659.945	-25.566	0.068	0.041
-658.930	-130.175	0.268	0.037
-657.916	-71.402	-0.229	-0.087
-656.901	-200.000	-0.036	0.208
-655.886	260.666	0.159	-0.281
-654.872	53.562	0.083	0.081
-653.857	5.512	0.130	0.098
-652.843	-73.014	-0.147	0.055
-651.828	-200.000	-0.025	0.158
-650.814	-90.161	-0.038	-0.011
-649.799	800.000	0.078	-0.321
-648.784	48.630	0.114	0.108
-647.770	85.711	0.304	-0.341
-646.755	-120.822	0.113	-0.019
-645.741	140.151	0.155	-0.209
-644.726	-200.000	-0.056	-0.259
-643.711	800.000	0.065	0.198
-642.697	60.311	-0.154	-0.155
-641.682	-200.000	0.023	-0.209
-640.668	206.233	-0.123	0.195
-639.653	192.176	-0.235	-0.360
-638.638	243.847	-0.090	-0.154
-637.624	-78.257	-0.131	0.046
-636.609	14.329	0.116	0.092
-635.595	-85.222	-0.240	-0.076
-634.580	554.340	-0.043	-0.104
-633.565	800.000	-0.064	-0.221
-632.551	255.252	-0.083	0.145
-631.536	39.462	-0.178	0.163
-630.522	-74.831	0.187	0.068
-629.507	-122.606	0.422	-0.070
-628.492	-125.158	0.088	-0.014
-627.478	799.194	0.046	-0.130
-626.463	46.869	0.161	0.152
-625.449	493.329	0.097	-0.226
-624.434	353.680	-0.120	0.243
-623.419	-138.198	0.176	0.020
-622.405	-162.061	-0.341	0.017
-621.390	270.234	-0.069	-0.123
-620.376	490.753	-0.027	0.062
-619.361	-79.422	-0.107	0.037
-618.346	-22.441	0.011	0.007
-617.332	800.000	-0.042	-0.149
-616.317	-76.296	0.302	-0.108
-615.303	-156.680	-0.241	0.015
-614.288	-108.416	0.017	0.004
-613.273	-91.346	0.070	0.020
-612.259	-61.695	-0.091	-0.039
-611.244	-7.299	-0.108	-0.074
-610.230	-161.106	-0.286	0.015
-609.215	-1.804	0.175	-0.125
-608.201	-119.742	-0.239	-0.042
-607.186	41.701	-0.307	0.283
-606.171	-200.000	0.018	-0.168
-605.157	11.829	0.221	-0.172
-604.142	7.795	-0.072	-0.055
-603.128	-200.000	-0.058	0.347
-602.113	-188.957	0.599	0.007
-601.098	105.477	-0.091	-0.109
-600.084	34.245	-0.302	0.268
-599.069	-200.000	0.002	-0.146
-598.055	-16.913	-0.223	-0.143
-597.040	800.000	-0.033	-0.125
-596.025	97.858	0.228	0.266
-595.011	-120.042	-0.061	0.011
-593.996	574.875	0.154	-0.383
-592.982	-6.909	-0.134	-0.093
-591.967	-174.552	0.165	-0.005
-590.952	71.547	-0.260	0.274
-589.938	208.341	-0.244	-0.388
-588.923	-123.365	-0.089	-0.014
-587.909	-121.132	0.516	0.088
-586.894	-200.000	-0.019	-0.326
-585.879	-63.884	-0.256	-0.106
-584.865	-12.564	-0.360	0.239
-583.850	-22.898	0.104	-0.064
-582.836	800.000	0.071	-0.222
-581.821	-37.181	-0.154	-0.084
-580.806	-84.864	0.132	-0.042
-579.792	-62.360	-0.521	-0.220
-578.777	-194.359	-0.239	0.002
-577.763	-10.224	-0.249	0.168
-576.748	-107.870	-0.222	0.049
-575.733	-200.000	-0.002	0.154
-574.719	-200.000	0.050	-0.310
-573.704	800.000	0.066	-0.186
-572.690	72.820	-0.071	0.076
-571.675	293.889	-0.118	-0.219
-570.661	-105.186	-0.167	-0.039
-569.646	5.026	-0.286	-0.214
-568.631	386.593	0.053	0.112
-567.617	800.000	0.060	-0.261
-566.602	800.000	0.050	-0.218
-565.588	-200.000	-0.022	0.130
-564.573	-200.000	-0.011	-0.300
-563.558	149.290	0.138	0.190
-562.544	70.030	-0.112	0.117
-561.529	-200.000	-0.062	0.321
-560.515	38.681	0.088	-0.080
-559.500	-108.184	-0.253	0.056
-558.485	-85.933	-0.158	-0.050
-557.471	-184.041	-0.425	0.007
-556.456	-119.813	0.201	-0.035
-555.442	-200.000	-0.008	0.081
-554.427	39.212	0.268	0.244
-553.412	261.237	0.136	-0.239
-552.398	-93.650	0.306	-0.086
-551.383	-96.201	0.111	0.030
-550.369	515.869	-0.166	-0.393
-549.354	158.099	0.143	-0.201
-548.339	110.671	-0.127	0.155
-547.325	-81.881	-0.105	0.035
-546.310	54.820	-0.078	0.076
-545.296	800.000	-0.104	0.324
-544.281	-154.188	0.180	0.012
-543.266	-2.368	0.119	-0.084
-542.252	-8.986	-0.230	0.156
-541.237	-115.385	0.418	0.080
-540.223	-47.663	0.097	0.047
-539.208	109.741	0.129	-0.157
-538.193	159.096	0.086	-0.121
-537.179	103.254	-0.102	-0.121
-536.164	-70.169	-0.239	-0.092
-535.150	800.000	0.054	-0.172
-534.135	-3.426	0.276	0.195
-533.121	-40.114	-0.342	-0.180
-532.106	-51.189	-0.248	-0.118
-531.091	-200.000	0.011	0.260
-530.077	-89.919	0.104	0.031
-529.062	-200.000	-0.042	-0.206
-528.048	-165.096	-0.294	0.013
-527.033	492.537	-0.148	0.344
-526.018	-57.029	-0.194	0.087
-525.004	-200.000	-0.014	-0.137
-523.989	-200.000	0.392	0.000
-522.975	-137.984	0.238	0.027
-521.960	244.201	-0.197	-0.335
-520.945	-76.015	0.356	0.127
-519.931	-61.613	0.104	-0.044
-518.916	415.262	0.079	0.171
-517.902	139.482	0.303	0.404
-516.887	75.339	0.265	-0.283
-515.872	3.497	0.050	0.037
-514.858	-194.431	0.194	0.002
-513.843	-114.783	-0.284	-0.055
-512.829	800.000	0.030	0.087
-511.814	-13.125	0.196	-0.129
-510.799	-200.000	0.001	0.016
-509.785	-151.376	-0.141	-0.011
-508.770	-116.527	-0.100	0.019
-507.756	51.975	-0.224	-0.216
-506.741	-130.277	0.191	0.026
-505.726	-200.000	0.009	-0.053
-504.712	800.000	0.043	-0.133
-503.697	46.926	0.153	0.144
-502.683	182.979	0.128	0.191
-501.668	167.287	-0.147	-0.212
-500.653	800.000	0.034	0.138
-499.639	-200.000	0.005	-0.246
-498.624	-49.990	-0.288	0.138
-497.610	-200.000	-0.002	-0.196
-496.595	-200.000	0.094	-0.602
-495.581	105.571	-0.050	0.060
-494.566	-73.127	-0.246	0.091
-493.551	115.767	-0.214	0.265
-492.537	564.970	-0.041	-0.100
-491.522	31.987	0.226	-0.197
-490.508	-71.727	0.095	0.036
-489.493	389.038	0.096	-0.202
-488.478	532.770	0.069	0.164
-487.464	-52.199	0.351	0.165
-486.449	164.036	-0.091	0.130
-485.435	139.250	0.056	-0.074
-484.420	-62.778	0.397	-0.166
-483.405	703.787	-0.053	0.141
-482.391	-196.926	-0.166	-0.001
-481.376	-200.000	-0.035	-0.330
-480.362	-24.845	0.135	0.081
-479.347	-200.000	-0.026	0.272
-478.332	-116.507	-0.227	0.042
-477.318	-108.706	0.196	0.042
-476.303	106.146	0.166	-0.199
-475.289	119.360	0.147	-0.184
-474.274	-44.230	0.169	-0.085
-473.259	713.183	-0.080	-0.215
-472.245	-27.722	-0.124	-0.073
-471.230	-6.839	-0.279	0.192
-470.216	-200.000	-0.018	-0.102
-469.201	-200.000	-0.004	0.059
-468.186	-121.788	-0.222	0.037
-467.172	800.000	0.031	-0.100
-466.157	-200.000	-0.014	-0.166
-465.143	305.766	-0.091	-0.172
-464.128	-92.742	0.163	0.046
-463.113	800.000	0.053	-0.149
-462.099	-71.299	0.185	0.070
-461.084	-200.000	0.062	0.357
-460.070	-98.602	-0.316	0.082
-459.055	800.000	0.012	0.044
-458.040	800.000	0.070	0.204
-457.026	590.677	-0.047	0.117
-456.011	-163.249	0.056	-0.003
-454.997	-200.000	-0.035	0.163
-453.982	2.136	-0.338	0.246
-452.968	-78.982	0.197	0.068
-451.953	4.107	0.143	0.106
-450.938	233.654	0.151	0.251
-449.924	-200.000	-0.018	0.199
-448.909	177.306	0.056	-0.082
-447.895	-158.158	-0.175	0.010
-446.880	-40.154	-0.405	-0.213
-445.865	-32.327	0.114	0.064
-444.851	-200.000	0.060	-0.363
-443.836	800.000	-0.048	0.151
-442.822	-200.000	-0.049	-0.288
-441.807	-200.000	-0.040	0.186
-440.792	800.000	0.024	0.092
-439.778	-35.206	0.280	-0.154
-438.763	-200.000	0.016	-0.189
-437.749	23.681	-0.116	0.097
-436.734	752.465	0.059	0.162
-435.719	84.557	0.070	-0.078
-434.705	-86.540	-0.073	-0.023
-433.690	31.302	0.318	0.276
-432.676	-31.821	-0.347	0.196
-431.661	107.726	-0.228	-0.274
-430.646	-100.939	-0.271	0.067
-429.632	-24.679	0.180	0.108
-428.617	-32.130	0.194	-0.110
-427.603	800.000	-0.045	0.135
-426.588	-4.924	-0.429	-0.298
-425.573	-109.351	0.380	-0.081
-424.559	800.000	0.047	0.131
-423.544	140.607	0.161	0.215
-422.530	133.152	0.077	0.100
-421.515	-85.835	-0.131	-0.041
-420.500	598.838	-0.111	-0.277
-419.486	-71.187	0.279	0.106
-418.471	-116.111	-0.382	-0.072
-417.457	-34.641	-0.318	-0.176
-416.442	-200.000	0.004	0.117
-415.428	40.207	-0.305	-0.277
-414.413	-81.270	-0.116	0.039
-413.398	-55.956	-0.080	-0.036
-412.384	45.691	0.334	-0.311
-411.369	-72.597	0.127	0.047
-410.355	241.113	-0.195	0.328
-409.340	33.059	-0.185	0.162
-408.325	254.499	0.111	0.191
-407.311	-55.026	-0.204	0.093
-406.296	-0.481	-0.140	-0.101
-405.282	800.000	0.106	-0.308
-404.267	52.618	0.116	0.112
-403.252	-49.861	-0.392	0.188
-402.238	-130.203	0.282	0.039
-401.223	-200.000	-0.000	0.068
-400.209	-3.966	-0.113	0.079
-399.194	128.810	0.062	0.080
-398.179	-50.641	0.319	-0.152
-397.165	36.326	-0.172	-0.153
-396.150	-200.000	0.006	0.233
-395.136	800.000	0.068	0.293
-394.121	-200.000	-0.007	0.299
-393.106	46.520	-0.078	0.073
-392.092	2.414	-0.103	-0.075
-391.077	-200.000	-0.026	0.163
-390.063	148.349	0.026	0.035
-389.048	-200.000	-0.049	-0.262
-388.033	-200.000	0.022	0.160
-387.019	800.000	0.116	-0.349
-386.004	-90.539	-0.038	0.011
-384.990	-117.710	0.382	-0.069
-383.975	-69.910	-0.172	0.066
-382.960	-167.508	0.174	-0.007
-381.946	37.107	0.135	-0.120
-380.931	-200.000	0.060	-0.461
-379.917	-20.893	0.295	-0.182
-378.902	800.000	0.079	-0.223
-377.888	-88.919	0.196	0.058
-376.873	11.040	0.186	-0.143
-375.858	-45.088	0.183	-0.092
-374.844	42.985	0.396	-0.364
-373.829	208.350	-0.058	0.091
-372.815	-200.000	0.002	-0.012
-371.800	-101.362	0.284	0.070
-370.785	-78.793	-0.402	-0.138
-369.771	-159.710	-0.088	-0.005
-368.756	138.508	0.055	0.073
-367.742	-94.559	0.170	0.047
-366.727	343.539	0.064	-0.126
-365.712	505.863	0.030	0.069
-364.698	-200.000	0.005	0.148
-363.683	713.863	0.053	0.141
-362.669	-91.441	-0.173	0.050
-361.654	-200.000	-0.033	0.159
-360.639	-84.099	-0.337	0.108
-359.625	-192.083	0.248	0.002
-358.610	-146.425	-0.110	-0.010
-357.596	51.821	0.120	-0.115
-356.581	432.837	-0.108	0.236
-355.566	-100.944	-0.149	-0.037
-354.552	175.343	-0.081	0.118
-353.537	-200.000	0.024	0.283
-352.523	-130.403	0.068	-0.009
-351.508	185.309	-0.243	0.363
-350.493	538.702	0.110	0.264
-349.479	55.255	0.081	0.079
-348.464	-98.549	0.218	0.056
-347.450	24.638	-0.073	0.061
-346.435	-200.000	0.004	0.110
-345.420	-200.000	0.033	0.329
-344.406	-169.731	0.264	0.010
-343.391	-200.000	0.011	0.177
-342.377	800.000	-0.093	-0.338
-341.362	144.057	-0.182	0.244
-340.348	-158.256	-0.226	0.013
-339.333	49.410	-0.098	0.092
-338.318	-48.933	0.361	0.174
-337.304	800.000	-0.085	0.282
-336.289	-38.385	0.084	0.045
-335.275	-146.911	0.260	-0.023
-334.260	-105.996	0.132	-0.030
-333.245	35.880	-0.088	-0.078
-332.231	-68.343	0.408	0.160
-331.216	-2.642	0.420	-0.295
-330.202	-140.583	0.141	-0.015
-329.187	9.598	-0.228	0.174
-328.172	-62.136	0.109	-0.046
-327.158	-200.000	0.015	-0.226
-326.143	-40.154	-0.179	0.094
-325.129	-46.964	-0.092	0.045
-324.114	44.584	-0.210	0.194
-323.099	112.594	-0.097	-0.118
-322.085	-114.588	0.278	0.053
-321.070	-27.758	-0.060	0.035
-320.056	-200.000	0.029	-0.175
-319.041	800.000	-0.058	-0.254
-318.026	341.024	0.050	-0.098
-317.012	109.233	-0.177	0.212
-315.997	-200.000	0.003	0.193
-314.983	-36.441	0.247	-0.134
-313.968	-21.210	0.144	0.088
-312.953	-64.034	0.132	-0.054
-311.939	-200.000	0.062	0.288
-310.924	-115.772	-0.048	-0.009
-309.910	-10.998	-0.337	0.223
-308.895	-25.211	0.178	0.106
-307.880	-75.487	0.207	-0.074
-306.866	-114.836	-0.197	0.038
-305.851	800.000	0.042	-0.131
-304.837	-20.015	0.115	0.072
-303.822	-23.004	0.238	-0.144
-302.807	-15.898	0.117	-0.075
-301.793	407.742	-0.030	-0.064
-300.778	800.000	-0.115	-0.347
-299.764	209.087	0.167	-0.263
-298.749	-200.000	-0.326	0.000
-297.735	800.000	0.044	-0.142
-296.720	431.815	0.114	-0.249
-295.705	-0.298	-0.074	-0.053
-294.691	800.000	-0.053	0.217
-293.676	-4.219	-0.022	-0.015
-292.662	7.862	-0.198	-0.149
-291.647	631.364	0.070	-0.178
-290.632	88.587	0.105	0.117
-289.618	215.752	-0.175	0.279
-288.603	-45.351	0.087	-0.043
-287.589	-200.000	0.007	-0.054
-286.574	60.734	-0.194	0.193
-285.559	-2.892	0.225	0.158
-284.545	-62.631	0.109	-0.045
-283.530	-15.029	-0.189	-0.122
-282.516	143.213	0.209	0.279
-281.501	800.000	-0.098	0.421
-280.486	-200.000	-0.024	0.263
-279.472	-200.000	0.026	-0.290
-278.457	93.701	-0.123	0.140
-277.443	328.827	0.055	-0.105
-276.428	77.790	0.212	-0.226
-275.413	-200.000	-0.096	0.535
-274.399	-200.000	-0.039	0.404
-273.384	195.405	-0.163	-0.248
-272.370	-103.437	0.093	-0.022
-271.355	-200.000	0.061	0.455
-270.340	159.653	0.170	-0.238
-269.326	-30.914	0.207	-0.117
-268.311	91.206	-0.119	-0.134
-267.297	496.489	0.125	-0.288
-266.282	41.942	-0.214	-0.195
-265.267	352.743	-0.070	-0.139
-264.253	-200.000	-0.004	-0.191
-263.238	-93.495	-0.186	0.052
-262.224	162.444	0.051	0.072
-261.209	-200.000	-0.042	-0.329
-260.195	-105.553	-0.197	-0.045
-259.180	-96.656	-0.229	0.061
-258.165	-107.244	0.414	-0.091
-257.151	800.000	-0.072	0.225
-256.136	-114.767	0.163	-0.031
-255.122	-56.473	0.278	-0.124
-254.107	512.602	0.006	-0.014
-253.092	56.851	0.139	0.136
-252.078	-200.000	0.017	0.151
-251.063	-105.034	-0.115	0.026
-250.049	-109.857	-0.159	-0.033
-249.034	222.722	-0.167	0.270
-248.019	52.146	-0.202	-0.193
-247.005	-55.397	-0.231	0.104
-245.990	800.000	0.055	-0.233
-244.976	18.445	0.075	-0.060
-243.961	-89.854	0.146	0.043
-242.946	-71.769	-0.189	0.071
-241.932	128.969	-0.069	0.088
-240.917	522.669	0.095	-0.223
-239.903	-200.000	-0.022	-0.202
-238.888	125.293	-0.043	0.054
-237.873	48.248	0.105	-0.098
-236.859	-200.000	0.036	-0.162
-235.844	110.817	0.105	-0.127
-234.830	119.737	0.068	0.084
-233.815	455.740	0.042	-0.094
-232.800	-156.963	0.049	-0.003
-231.786	255.876	0.124	-0.213
-230.771	1.086	-0.034	-0.024
-229.757	800.000	0.046	0.129
-228.742	-51.447	0.090	-0.042
-227.727	800.000	0.050	0.175
-226.713	9.308	-0.129	0.098
-225.698	800.000	0.027	-0.117
-224.684	32.730	-0.183	-0.158
-223.669	330.221	-0.040	0.077
-222.655	-32.750	-0.222	-0.124
-221.640	-88.861	0.190	-0.056
-220.625	14.860	-0.152	0.119
-219.611	255.439	-0.227	0.389
-218.596	132.500	-0.228	0.294
-217.582	-91.674	0.220	0.063
-216.567	-89.572	-0.421	-0.124
-215.552	-108.317	0.278	-0.060
-214.538	49.437	0.287	-0.271
-213.523	-200.000	-0.044	0.410
-212.509	446.421	0.085	0.188
-211.494	671.856	0.087	0.227
-210.479	800.000	-0.078	-0.289
-209.465	800.000	0.072	-0.281
-208.450	-81.350	0.346	0.114
-207.436	-146.551	-0.166	0.014
-206.421	106.500	-0.138	0.164
-205.406	232.002	-0.155	0.255
-204.392	133.396	0.107	-0.138
-203.377	114.420	-0.161	-0.196
-202.363	-108.111	0.191	0.041
-201.348	343.085	-0.098	0.192
-200.333	353.425	0.139	0.277
-199.319	-67.568	-0.165	0.065
-198.304	167.289	-0.109	0.155
-197.290	-118.330	-0.146	0.026
-196.275	36.673	-0.209	0.185
-195.260	7.999	0.191	0.143
-194.246	181.433	-0.068	-0.101
-193.231	319.167	0.130	0.246
-192.217	-65.589	0.246	-0.099
-191.202	24.993	0.102	0.084
-190.187	-200.000	0.046	0.256
-189.173	167.175	-0.079	0.113
-188.158	-200.000	-0.021	-0.353
-187.144	-200.000	0.072	0.332
-186.129	170.783	-0.083	0.119
-185.114	-130.823	-0.051	0.007
-184.100	-200.000	0.014	0.111
-183.085	-39.512	0.204	-0.107
-182.071	2.094	-0.173	0.125
-181.056	311.238	0.098	0.184
-180.042	-200.000	-0.011	-0.131
-179.027	440.537	-0.137	0.299
-178.012	-59.357	0.219	-0.094
-176.998	800.000	0.013	0.038
-175.983	-54.498	-0.369	-0.167
-174.969	-2.534	0.019	-0.013
-173.954	-42.090	-0.143	-0.073
-172.939	192.326	0.019	0.029
-171.925	-200.000	0.048	-0.221
-170.910	-23.655	0.151	0.091
-169.896	-131.839	0.277	-0.036
-168.881	99.501	0.229	0.265
-167.866	335.486	0.084	-0.163
-166.852	-168.924	-0.361	0.014
-165.837	-143.170	-0.432	0.042
-164.823	-200.000	-0.025	-0.500
-163.808	-113.409	-0.213	-0.042
-162.793	20.288	0.228	-0.184
-161.779	49.363	0.315	0.296
-160.764	-47.821	-0.246	0.119
-159.750	-19.164	0.165	0.102
-158.735	122.276	-0.080	-0.100
-157.720	-63.220	-0.344	-0.142
-156.706	381.075	0.283	0.579
-155.691	-66.740	-0.075	-0.030
-154.677	-20.103	-0.170	0.104
-153.662	-140.808	0.154	0.016
-152.647	-200.000	-0.020	-0.090
-151.633	800.000	0.055	0.167
-150.618	-41.728	0.138	0.071
-149.604	692.252	0.065	-0.169
-148.589	-75.430	0.180	-0.064
-147.574	-108.684	0.025	0.005
-146.560	221.685	-0.205	-0.329
-145.545	800.000	-0.088	0.262
-144.531	800.000	0.132	-0.372
-143.516	-0.522	0.074	0.053
-142.502	49.871	0.068	-0.064
-141.487	67.755	0.109	-0.111
-140.472	800.000	0.114	0.360
-139.458	472.783	0.017	0.039
-138.443	-34.789	0.285	-0.156
-137.429	800.000	0.014	0.056
-136.414	-94.379	0.317	-0.086
-135.399	224.199	0.219	0.354
-134.385	-82.255	-0.260	-0.085
-133.370	-41.003	0.093	0.048
-132.356	-200.000	-0.004	0.055
-131.341	660.575	0.074	-0.190
-130.326	298.094	0.199	-0.366
-129.312	117.952	-0.150	-0.184
-128.297	237.223	0.135	-0.223
-127.283	24.274	-0.151	0.125
-126.268	-119.324	-0.158	0.027
-125.253	189.120	0.170	0.255
-124.239	-169.273	-0.177	-0.006
-123.224	318.742	0.046	0.087
-122.210	293.817	0.129	0.236
-121.195	103.834	0.144	0.169
-120.180	167.146	0.144	0.204
