DTS Sentinel unit serial number:	SN413079Multiplexer serial number:	ORYXHardware model number:	OX4-SRSoftware version number:	ORYX F/W v4.00 Oryx Data Collector v3.7.2.0data status	okinstallation	princeton_trtdifferential loss correction	single-endedforward channel	channel 3reverse channel	N/Adate	2019/09/18time	04:36:35forward acquisition time	60.00reverse acquisition time	0.00gamma	496.2192k internal	0.2342k external	0.2342temperature offset calibration	0.9949default loss term (dB/km)	0.3790temperature slope calibration	1.0000multiplexer offset coefficient	1.0000multiplexer slope coefficient	1.0000fibre end	0.00T internal ref (°C)	23.39T ext. ref 1 (°C)	0.19T ext. ref 2 (°C)	17.60length (m)	temperature (°C)	Stokes	anti-Stokes-747.200	-97.710	-0.376	0.098
-746.185	12.175	-0.100	0.077
-745.171	800.000	-0.037	0.162
-744.156	248.649	-0.174	0.295
-743.142	-99.477	0.291	-0.073
-742.127	89.868	-0.320	0.358
-741.112	-151.672	-0.425	-0.031
-740.098	-100.184	0.099	0.025
-739.083	-90.005	0.015	-0.004
-738.069	-57.186	-0.297	0.131
-737.054	94.412	-0.194	-0.221
-736.039	-60.244	-0.375	0.160
-735.025	389.593	0.056	0.116
-734.010	215.998	0.027	0.043
-732.996	-52.974	-0.235	0.108
-731.981	-31.716	-0.152	-0.085
-730.966	-12.865	-0.141	0.092
-729.952	15.047	-0.205	0.161
-728.937	-200.000	0.060	-0.426
-727.923	-200.000	0.093	-0.423
-726.908	-200.000	0.022	0.220
-725.894	68.660	-0.308	-0.316
-724.879	37.311	-0.092	0.082
-723.864	-32.663	0.385	-0.214
-722.850	-141.257	-0.049	-0.005
-721.835	186.617	-0.275	-0.410
-720.821	800.000	0.072	0.204
-719.806	84.500	-0.319	-0.349
-718.791	-88.552	-0.554	-0.165
-717.777	103.078	0.113	-0.133
-716.762	-144.764	0.456	-0.042
-715.748	-147.881	0.178	-0.015
-714.733	-165.395	0.072	0.003
-713.718	-50.388	0.204	0.097
-712.704	586.650	-0.137	-0.337
-711.689	-6.263	0.208	0.142
-710.675	-12.812	-0.277	-0.180
-709.660	80.736	-0.150	-0.161
-708.645	86.066	0.094	0.103
-707.631	-78.006	0.115	-0.040
-706.616	-159.752	0.295	-0.016
-705.602	-200.000	0.040	-0.267
-704.587	16.383	-0.061	-0.048
-703.572	76.760	-0.039	-0.042
-702.558	-55.957	0.392	0.175
-701.543	-110.303	-0.164	0.034
-700.529	-12.994	0.126	-0.082
-699.514	-200.000	-0.068	0.438
-698.499	175.873	-0.254	0.368
-697.485	800.000	-0.080	0.303
-696.470	-50.976	-0.354	0.166
-695.456	-107.200	-0.243	-0.053
-694.441	-55.962	0.271	-0.121
-693.426	-6.112	-0.474	-0.324
-692.412	-200.000	-0.006	-0.075
-691.397	68.517	-0.072	-0.074
-690.383	99.200	-0.153	-0.177
-689.368	-29.898	-0.147	-0.084
-688.354	7.737	-0.144	-0.108
-687.339	-49.267	0.174	-0.083
-686.324	402.648	-0.125	-0.264
-685.310	-200.000	0.003	-0.171
-684.295	-177.874	-0.320	-0.008
-683.281	291.772	0.107	-0.194
-682.266	-114.620	-0.086	0.016
-681.251	-71.384	-0.264	0.099
-680.237	-200.000	-0.004	0.338
-679.222	-2.604	0.210	0.147
-678.208	-8.279	0.222	0.150
-677.193	-143.091	-0.264	-0.025
-676.178	190.877	0.051	-0.076
-675.164	-159.222	0.353	0.020
-674.149	-113.977	-0.247	0.048
-673.135	-113.234	-0.115	-0.023
-672.120	-130.460	-0.292	0.040
-671.105	-200.000	-0.016	-0.135
-670.091	-200.000	-0.008	-0.188
-669.076	18.513	0.282	-0.225
-668.062	-103.405	-0.191	0.045
-667.047	664.498	-0.120	-0.309
-666.032	-200.000	-0.034	0.157
-665.018	208.474	-0.090	-0.141
-664.003	301.455	0.068	-0.126
-662.989	519.975	0.065	0.153
-661.974	-41.357	0.345	-0.178
-660.959	-123.158	-0.226	0.036
-659.945	127.054	-0.046	0.058
-658.930	138.472	-0.096	-0.126
-657.916	16.659	0.244	-0.192
-656.901	51.873	-0.170	-0.161
-655.886	-73.515	-0.167	-0.061
-654.872	445.366	-0.172	0.377
-653.857	26.544	0.017	0.014
-652.843	800.000	-0.007	-0.021
-651.828	-97.393	-0.215	0.056
-650.814	-118.471	0.230	-0.041
-649.799	-89.815	-0.278	-0.081
-648.784	-61.296	-0.253	-0.106
-647.770	800.000	0.129	0.532
-646.755	190.263	-0.134	0.200
-645.741	86.265	0.070	-0.077
-644.726	479.346	0.136	-0.308
-643.711	-81.279	-0.126	-0.041
-642.697	-112.567	-0.412	-0.082
-641.682	258.233	0.160	-0.275
-640.668	-114.964	-0.384	0.073
-639.653	54.573	0.112	-0.107
-638.638	-200.000	0.018	0.428
-637.624	-18.253	-0.236	-0.147
-636.609	208.498	-0.228	-0.355
-635.595	76.671	0.115	-0.122
-634.580	-54.809	-0.282	0.127
-633.565	800.000	0.049	-0.160
-632.551	187.316	-0.331	0.492
-631.536	-176.821	0.121	-0.003
-630.522	104.080	0.148	-0.174
-629.507	-126.249	-0.283	-0.042
-628.492	248.655	-0.100	0.169
-627.478	-124.540	0.339	-0.053
-626.463	4.394	-0.133	0.097
-625.449	-86.453	0.054	0.017
-624.434	-200.000	-0.031	-0.255
-623.419	398.642	-0.107	-0.223
-622.405	171.477	-0.129	-0.184
-621.390	-113.347	0.272	0.053
-620.376	-97.110	-0.102	-0.027
-619.361	800.000	-0.006	-0.020
-618.346	800.000	-0.095	0.312
-617.332	-42.368	0.255	-0.130
-616.317	524.496	0.133	-0.311
-615.303	-6.131	-0.142	-0.097
-614.288	-200.000	0.011	0.049
-613.273	-148.361	0.158	0.013
-612.259	173.047	-0.023	0.032
-611.244	-200.000	0.040	-0.232
-610.230	-101.937	-0.042	-0.010
-609.215	-200.000	-0.028	-0.277
-608.201	211.571	-0.132	0.206
-607.186	800.000	0.096	0.346
-606.171	238.506	-0.282	0.466
-605.157	-140.018	0.113	-0.012
-604.142	739.274	0.027	-0.073
-603.128	-89.033	0.103	0.030
-602.113	662.447	0.038	0.099
-601.098	-55.793	-0.175	0.078
-600.084	351.016	-0.087	-0.171
-599.069	-41.148	-0.242	-0.124
-598.055	-12.087	0.346	0.225
-597.040	-109.410	-0.420	0.089
-596.025	-200.000	0.014	-0.179
-595.011	-123.412	0.157	0.025
-593.996	-183.106	-0.131	0.002
-592.982	732.640	-0.148	0.395
-591.967	13.528	-0.305	0.236
-590.952	152.779	-0.128	0.174
-589.938	-69.826	0.339	0.129
-588.923	580.216	-0.061	-0.148
-587.909	800.000	-0.003	-0.011
-586.894	-5.394	-0.093	-0.064
-585.879	191.628	0.168	-0.252
-584.865	-200.000	0.015	-0.305
-583.850	33.752	-0.271	0.234
-582.836	-147.824	0.225	0.019
-581.821	-183.434	0.038	-0.001
-580.806	-115.747	-0.254	-0.047
-579.792	-69.332	-0.312	-0.119
-578.777	-148.282	-0.205	0.017
-577.763	792.531	0.132	-0.362
-576.748	209.642	-0.095	0.149
-575.733	800.000	-0.087	-0.297
-574.719	596.280	-0.084	-0.208
-573.704	-36.691	-0.198	-0.106
-572.690	4.690	-0.048	-0.035
-571.675	89.976	0.131	0.146
-570.661	-9.082	0.175	0.117
-569.646	-129.641	-0.130	0.018
-568.631	-117.180	0.146	-0.026
-567.617	-200.000	0.009	0.330
-566.602	800.000	0.070	0.198
-565.588	-120.853	-0.057	-0.010
-564.573	-34.879	-0.104	0.056
-563.558	21.345	0.263	-0.212
-562.544	-200.000	-0.002	0.035
-561.529	-200.000	-0.011	-0.215
-560.515	-200.000	-0.052	0.283
-559.500	-11.219	0.221	-0.145
-558.485	-200.000	0.033	-0.295
-557.471	33.365	-0.104	0.090
-556.456	-200.000	-0.005	0.101
-555.442	-98.404	-0.105	0.027
-554.427	-28.917	-0.197	-0.112
-553.412	64.533	-0.281	-0.282
-552.398	-200.000	-0.034	-0.200
-551.383	51.416	-0.170	0.160
-550.369	58.734	-0.045	0.044
-549.354	-142.915	0.330	-0.032
-548.339	-5.417	0.171	-0.117
-547.325	2.796	-0.308	0.222
-546.310	344.468	-0.133	0.259
-545.296	800.000	0.044	-0.134
-544.281	-71.188	0.362	-0.135
-543.266	-91.766	-0.234	-0.066
-542.252	130.206	0.307	0.390
-541.237	27.482	-0.196	0.164
-540.223	63.583	-0.048	-0.048
-539.208	24.146	-0.381	-0.313
-538.193	-79.106	0.219	0.074
-537.179	-70.028	-0.295	-0.112
-536.164	-107.534	0.032	0.007
-535.150	57.041	-0.141	-0.137
-534.135	119.698	-0.253	-0.311
-533.121	-193.654	0.081	0.001
-532.106	-200.000	0.008	-0.261
-531.091	-12.936	-0.215	0.139
-530.077	325.776	0.102	-0.194
-529.062	492.510	0.075	-0.171
-528.048	8.374	-0.207	-0.154
-527.033	-13.427	-0.143	-0.092
-526.018	503.836	-0.081	-0.186
-525.004	-44.656	-0.101	-0.050
-523.989	28.449	-0.300	0.252
-522.975	-200.000	0.040	-0.260
-521.960	568.151	-0.114	-0.276
-520.945	-170.763	0.194	0.007
-519.931	490.099	-0.006	0.013
-518.916	-180.822	0.290	-0.006
-517.902	-163.588	0.058	0.003
-516.887	460.530	0.107	0.237
-515.872	181.624	0.071	-0.103
-514.858	93.626	-0.039	0.043
-513.843	-151.915	0.356	0.026
-512.829	74.337	0.082	-0.085
-511.814	-200.000	-0.008	0.068
-510.799	800.000	0.059	-0.197
-509.785	800.000	0.084	-0.256
-508.770	51.494	0.056	-0.053
-507.756	-200.000	0.011	-0.253
-506.741	20.884	0.206	-0.165
-505.726	118.745	-0.238	0.291
-504.712	155.562	0.246	0.337
-503.697	-26.131	-0.286	-0.167
-502.683	-200.000	-0.017	0.081
-501.668	-1.681	0.210	0.147
-500.653	800.000	-0.101	-0.299
-499.639	-200.000	0.027	-0.299
-498.624	159.539	-0.179	-0.247
-497.610	-200.000	0.026	-0.251
-496.595	-110.728	0.211	-0.043
-495.581	-26.374	-0.046	-0.027
-494.566	-3.785	-0.149	-0.103
-493.551	214.477	0.086	0.135
-492.537	-122.650	-0.258	0.041
-491.522	112.812	0.027	0.033
-490.508	-87.641	0.184	0.055
-489.493	-118.740	-0.311	0.054
-488.478	-4.147	0.230	0.158
-487.464	8.603	-0.214	0.160
-486.449	-34.966	0.192	0.104
-485.435	537.473	-0.077	-0.180
-484.420	-148.740	0.464	0.037
-483.405	17.213	0.086	-0.068
-482.391	139.769	0.139	0.182
-481.376	263.361	-0.080	-0.138
-480.362	107.825	0.197	0.233
-479.347	9.120	-0.334	0.250
-478.332	-86.194	0.076	-0.023
-477.318	-117.258	0.222	-0.040
-476.303	-21.879	0.325	-0.196
-475.289	-112.905	-0.461	-0.090
-474.274	-106.347	0.073	0.016
-473.259	31.453	0.131	-0.112
-472.245	-19.681	-0.320	-0.196
-471.230	-80.800	-0.276	0.091
-470.216	30.175	0.279	-0.236
-469.201	253.093	0.107	-0.182
-468.186	-200.000	0.044	0.350
-467.172	-146.701	0.108	-0.009
-466.157	-70.481	0.251	0.094
-465.143	96.180	0.075	-0.085
-464.128	800.000	0.064	-0.231
-463.113	800.000	0.041	0.117
-462.099	800.000	-0.060	-0.167
-461.084	65.163	0.200	0.200
-460.070	394.222	-0.119	0.246
-459.055	-105.385	0.196	-0.044
-458.040	734.562	-0.018	0.047
-457.026	237.237	-0.052	-0.085
-456.011	-200.000	-0.012	-0.321
-454.997	-67.066	-0.347	-0.135
-453.982	262.794	-0.047	-0.081
-452.968	75.035	-0.122	0.128
-451.953	728.409	0.055	0.146
-450.938	-103.390	-0.274	0.064
-449.924	-200.000	0.019	0.146
-448.909	31.176	0.179	-0.152
-447.895	234.963	-0.177	0.289
-446.880	800.000	0.139	0.464
-445.865	-150.364	-0.108	0.008
-444.851	-47.797	-0.003	0.001
-443.836	-93.686	0.185	0.051
-442.822	-122.008	0.266	-0.043
-441.807	800.000	-0.136	0.422
-440.792	-40.107	0.403	-0.208
-439.778	-144.271	-0.131	-0.012
-438.763	-200.000	0.018	0.147
-437.749	49.958	0.171	-0.160
-436.734	-200.000	-0.006	-0.213
-435.719	264.273	0.149	-0.257
-434.705	106.831	-0.287	0.337
-433.690	-57.743	0.090	-0.039
-432.676	-79.856	-0.042	-0.014
-431.661	-200.000	0.015	-0.069
-430.646	-75.193	-0.090	0.032
-429.632	-200.000	-0.030	-0.242
-428.617	328.346	0.208	-0.396
-427.603	-95.818	0.268	-0.071
-426.588	-200.000	-0.031	-0.283
-425.573	800.000	-0.091	-0.278
-424.559	109.253	-0.092	0.109
-423.544	178.430	0.221	-0.319
-422.530	271.686	-0.014	-0.024
-421.515	-139.900	0.071	-0.007
-420.500	133.777	0.022	0.028
-419.486	361.228	0.083	0.165
-418.471	-82.007	-0.060	-0.020
-417.457	610.397	0.101	-0.250
-416.442	-12.770	-0.291	0.187
-415.428	156.995	0.015	-0.020
-414.413	401.345	0.039	0.082
-413.398	120.404	0.029	-0.036
-412.384	-200.000	-0.044	-0.275
-411.369	77.491	0.090	0.095
-410.355	254.257	0.082	0.139
-409.340	-186.096	0.168	-0.002
-408.325	2.906	-0.122	-0.087
-407.311	-0.492	-0.089	-0.063
-406.296	-95.943	0.194	0.051
-405.282	-200.000	-0.016	-0.180
-404.267	374.927	-0.040	-0.080
-403.252	-200.000	0.003	-0.089
-402.238	-145.209	0.274	-0.025
-401.223	-73.771	-0.468	0.168
-400.209	-200.000	0.003	0.109
-399.194	-125.131	0.037	-0.006
-398.179	-101.380	-0.396	-0.095
-397.165	800.000	0.030	0.116
-396.150	-91.061	0.269	0.076
-395.136	409.065	-0.152	0.318
-394.121	3.833	0.322	0.232
-393.106	29.242	0.130	0.109
-392.092	-12.521	-0.043	0.028
-391.077	-200.000	-0.050	0.235
-390.063	-200.000	-0.034	-0.262
-389.048	194.682	-0.159	-0.239
-388.033	-70.320	0.110	0.041
-387.019	311.562	-0.077	-0.144
-386.004	-200.000	-0.015	0.103
-384.990	-200.000	0.050	-0.232
-383.975	-200.000	-0.055	-0.390
-382.960	-34.984	-0.084	0.045
-381.946	-34.747	-0.061	-0.033
-380.931	-86.061	-0.184	0.056
-379.917	-123.184	-0.115	-0.018
-378.902	292.623	0.062	-0.112
-377.888	-89.056	0.187	0.054
-376.873	-140.643	-0.207	0.021
-375.858	51.453	-0.333	0.312
-374.844	-200.000	0.000	0.022
-373.829	542.532	-0.049	0.115
-372.815	124.139	0.318	0.395
-371.800	254.099	-0.121	0.204
-370.785	67.498	-0.252	0.254
-369.771	-145.489	0.142	-0.013
-368.756	126.185	-0.126	-0.157
-367.742	-11.257	-0.166	0.108
-366.727	24.382	-0.166	0.135
-365.712	-200.000	-0.041	-0.264
-364.698	156.863	-0.112	-0.153
-363.683	44.438	0.040	0.036
-362.669	260.188	0.046	0.078
-361.654	-103.528	-0.207	-0.048
-360.639	284.804	0.209	0.372
-359.625	451.848	0.017	0.038
-358.610	250.782	-0.058	-0.098
-357.596	-106.515	0.138	0.030
-356.581	-200.000	0.033	0.365
-355.566	-200.000	-0.018	0.106
-354.552	-146.711	0.091	-0.008
-353.537	-200.000	0.005	0.255
-352.523	458.639	0.027	-0.060
-351.508	13.429	-0.074	-0.057
-350.493	60.921	-0.275	0.269
-349.479	113.182	-0.114	0.136
-348.464	-103.146	0.419	-0.098
-347.450	-66.462	-0.116	0.045
-346.435	-2.261	-0.187	-0.130
-345.420	-97.322	0.212	-0.055
-344.406	-68.836	-0.327	0.125
-343.391	297.388	0.102	0.184
-342.377	800.000	-0.027	0.086
-341.362	203.646	-0.046	0.071
-340.348	800.000	-0.068	-0.186
-339.333	307.899	-0.081	0.149
-338.318	140.697	-0.111	0.144
-337.304	253.735	0.031	0.053
-336.289	-200.000	-0.017	0.098
-335.275	63.453	0.390	-0.386
-334.260	-173.085	-0.237	-0.007
-333.245	-94.461	0.075	0.020
-332.231	-200.000	-0.019	0.328
-331.216	-136.402	0.146	-0.017
-330.202	800.000	-0.082	0.264
-329.187	689.974	-0.107	0.277
-328.172	-130.982	0.175	0.023
-327.158	-200.000	-0.028	-0.151
-326.143	-17.863	-0.231	-0.143
-325.129	-75.799	-0.307	0.107
-324.114	-33.109	0.271	-0.148
-323.099	501.933	-0.052	-0.118
-322.085	-200.000	0.011	-0.119
-321.070	175.924	-0.219	0.313
-320.056	144.268	-0.107	-0.140
-319.041	120.710	0.097	-0.118
-318.026	73.388	-0.141	0.145
-317.012	324.996	0.106	0.200
-315.997	-200.000	0.018	0.176
-314.983	-139.414	0.175	-0.018
-313.968	463.586	-0.107	0.234
-312.953	292.090	-0.096	-0.172
-311.939	575.371	0.023	0.056
-310.924	111.078	0.132	0.157
-309.910	-71.521	0.181	0.067
-308.895	30.976	0.070	0.059
-307.880	-60.248	-0.235	0.099
-306.866	-54.105	0.247	0.111
-305.851	-161.473	0.340	-0.017
-304.837	-47.840	-0.299	-0.143
-303.822	-24.406	0.350	0.206
-302.807	-200.000	-0.013	0.602
-301.793	194.740	0.013	0.020
-300.778	191.223	0.296	0.439
-299.764	-87.214	-0.452	-0.135
-298.749	-49.885	0.198	-0.092
-297.735	800.000	-0.125	0.423
-296.720	0.037	-0.138	-0.097
-295.705	-148.504	0.134	0.011
-294.691	410.228	-0.108	-0.225
-293.676	480.080	0.049	-0.110
-292.662	-200.000	-0.044	0.325
-291.647	-200.000	0.037	0.162
-290.632	-65.378	-0.103	-0.041
-289.618	-140.394	0.074	-0.008
-288.603	364.258	-0.091	0.180
-287.589	-27.161	0.173	0.099
-286.574	-91.989	-0.594	0.166
-285.559	75.285	0.183	-0.190
-284.545	-70.815	0.035	-0.013
-283.530	-67.009	0.201	-0.078
-282.516	-49.118	-0.250	-0.117
-281.501	29.644	-0.197	-0.165
-280.486	-200.000	0.039	0.431
-279.472	487.350	0.063	-0.141
-278.457	-200.000	0.009	0.139
-277.443	616.851	-0.143	0.352
-276.428	-200.000	0.001	-0.254
-275.413	-51.064	0.236	-0.109
-274.399	-40.541	0.051	0.026
-273.384	70.411	0.311	-0.316
-272.370	-23.571	-0.310	-0.183
-271.355	117.336	0.236	-0.285
-270.340	-154.130	0.144	-0.010
-269.326	-45.130	0.391	0.191
-268.311	69.876	-0.224	-0.227
-267.297	47.062	-0.041	-0.038
-266.282	-3.661	0.176	-0.120
-265.267	-32.148	0.029	0.016
-264.253	379.562	0.070	-0.140
-263.238	800.000	-0.012	0.033
-262.224	89.545	0.283	-0.310
-261.209	800.000	0.079	0.243
-260.195	-200.000	-0.002	-0.184
-259.180	189.449	-0.135	0.198
-258.165	187.287	-0.106	0.155
-257.151	-200.000	-0.010	-0.264
-256.136	50.366	0.148	-0.137
-255.122	-124.719	0.055	-0.008
-254.107	64.548	0.061	-0.061
-253.092	75.928	0.214	-0.223
-252.078	-128.776	0.308	-0.043
-251.063	248.216	-0.285	0.474
-250.049	-0.703	0.219	-0.153
-249.034	-200.000	0.007	0.267
-248.019	86.851	-0.079	-0.086
-247.005	647.069	0.071	-0.177
-245.990	228.708	0.083	-0.133
-244.976	456.313	-0.139	-0.303
-243.961	-90.593	0.291	0.083
-242.946	800.000	0.020	-0.066
-241.932	800.000	-0.034	0.114
-240.917	800.000	0.040	0.110
-239.903	-200.000	-0.005	-0.051
-238.888	-5.637	0.035	-0.023
-237.873	-200.000	0.015	0.074
-236.859	-75.789	-0.196	-0.068
-235.844	-200.000	0.030	-0.275
-234.830	47.899	0.382	-0.351
-233.815	395.449	-0.144	-0.294
-232.800	-41.201	0.080	-0.041
-231.786	148.870	-0.134	0.177
-230.771	-200.000	0.001	0.166
-229.757	2.605	-0.220	-0.156
-228.742	-155.468	0.410	-0.026
-227.727	137.106	0.065	0.084
-226.713	179.892	0.118	-0.169
-225.698	44.754	-0.205	0.185
-224.684	301.196	0.074	0.135
-223.669	163.933	-0.049	-0.068
-222.655	-59.497	-0.165	0.069
-221.640	313.325	-0.202	0.372
-220.625	165.978	0.034	-0.047
-219.611	282.781	0.068	0.119
-218.596	-200.000	0.006	0.165
-217.582	11.929	0.203	-0.153
-216.567	306.312	-0.027	-0.050
-215.552	58.058	0.157	0.151
-214.538	-111.425	-0.080	0.016
-213.523	779.054	0.132	0.355
-212.509	-139.022	0.221	-0.023
-211.494	-35.673	0.214	0.114
-210.479	220.395	0.010	0.016
-209.465	109.593	-0.186	0.218
-208.450	-135.017	-0.293	-0.035
-207.436	-200.000	0.050	-0.430
-206.421	176.274	0.265	-0.377
-205.406	-200.000	0.032	-0.175
-204.392	194.500	-0.212	0.316
-203.377	516.374	-0.093	0.212
-202.363	-135.545	0.444	0.052
-201.348	-163.288	0.245	-0.012
-200.333	-86.682	-0.377	0.113
-199.319	125.655	0.084	-0.104
-198.304	23.486	0.246	-0.198
-197.290	-185.299	-0.350	-0.005
-196.275	-76.971	-0.054	-0.019
-195.260	-40.312	0.073	-0.037
-194.246	208.527	-0.157	0.241
-193.231	-158.846	0.164	-0.009
-192.217	-109.641	0.019	0.004
-191.202	9.750	0.091	0.068
-190.187	335.455	0.008	-0.015
-189.173	800.000	-0.056	0.215
-188.158	-200.000	-0.007	-0.185
-187.144	21.255	0.138	0.110
-186.129	177.346	-0.087	0.125
-185.114	-110.030	-0.047	-0.010
-184.100	-26.710	0.154	-0.088
-183.085	583.552	-0.034	-0.082
-182.071	-60.692	-0.132	-0.055
-181.056	-27.959	-0.029	0.016
-180.042	311.873	0.103	-0.189
-179.027	639.775	0.075	0.186
-178.012	-200.000	-0.017	0.447
-176.998	-200.000	0.049	0.369
-175.983	-200.000	-0.012	-0.168
-174.969	-93.820	0.168	0.045
-173.954	-35.904	0.210	-0.111
-172.939	800.000	-0.044	-0.141
-171.925	-200.000	-0.026	0.347
-170.910	-11.330	0.353	-0.228
-169.896	130.603	0.123	-0.154
-168.881	44.107	0.191	-0.171
-167.866	400.682	0.138	-0.283
-166.852	-36.725	0.245	0.129
-165.837	339.531	-0.073	-0.140
-164.823	160.782	-0.241	0.330
-163.808	-62.361	-0.219	-0.089
-162.793	-68.015	-0.255	-0.097
-161.779	185.459	0.104	0.151
-160.764	-99.835	0.272	0.067
-159.750	105.820	-0.112	-0.129
-158.735	-24.227	0.157	0.092
-157.720	84.289	0.244	-0.261
-156.706	800.000	-0.038	0.137
-155.691	-168.441	-0.053	-0.002
-154.677	-200.000	-0.015	-0.104
-153.662	-112.753	-0.023	0.004
-152.647	-116.463	-0.235	-0.043
-151.633	-141.179	0.274	0.027
-150.618	-10.081	0.172	0.112
-149.604	-178.282	0.431	0.010
-148.589	800.000	-0.055	0.180
-147.574	118.724	0.056	-0.068
-146.560	30.609	0.200	0.167
-145.545	-123.094	-0.254	0.040
-144.531	800.000	0.018	-0.070
-143.516	800.000	0.028	-0.093
-142.502	78.276	-0.143	0.149
-141.487	-149.979	-0.172	0.013
-140.472	-200.000	0.102	0.480
-139.458	-200.000	0.023	0.109
-138.443	-96.334	0.380	-0.098
-137.429	-141.111	-0.219	-0.022
-136.414	125.804	0.145	0.180
-135.399	-91.605	-0.227	0.063
-134.385	-17.413	0.167	0.103
-133.370	-154.414	-0.313	0.021
-132.356	68.734	-0.191	0.192
-131.341	-200.000	0.019	0.419
-130.326	161.377	-0.193	-0.264
-129.312	800.000	-0.090	-0.342
-128.297	218.634	-0.201	-0.313
-127.283	-22.759	-0.221	-0.130
-126.268	28.686	-0.112	0.093
-125.253	541.385	0.036	0.083
-124.239	165.281	-0.196	-0.270
-123.224	238.485	-0.101	-0.164
-122.210	104.478	0.059	0.068
