DTS Sentinel unit serial number:	SN413079Multiplexer serial number:	ORYXHardware model number:	OX4-SRSoftware version number:	ORYX F/W v4.00 Oryx Data Collector v3.7.2.0data status	okinstallation	princeton_trtdifferential loss correction	single-endedforward channel	channel 3reverse channel	N/Adate	2019/09/16time	08:16:35forward acquisition time	60.00reverse acquisition time	0.00gamma	496.2192k internal	0.2326k external	0.2326temperature offset calibration	0.9956default loss term (dB/km)	0.3790temperature slope calibration	1.0000multiplexer offset coefficient	1.0000multiplexer slope coefficient	1.0000fibre end	0.00T internal ref (°C)	28.87T ext. ref 1 (°C)	11.83T ext. ref 2 (°C)	25.25length (m)	temperature (°C)	Stokes	anti-Stokes-747.200	-83.106	0.209	0.068
-746.185	-121.705	-0.325	-0.054
-745.171	800.000	0.150	0.507
-744.156	800.000	-0.109	0.361
-743.142	254.453	0.094	0.163
-742.127	-200.000	-0.265	0.000
-741.112	96.082	0.169	-0.195
-740.098	800.000	-0.068	0.193
-739.083	106.010	-0.142	-0.169
-738.069	-200.000	-0.047	0.319
-737.054	245.482	-0.137	-0.232
-736.039	23.984	-0.161	-0.134
-735.025	-62.255	0.231	-0.097
-734.010	-89.409	-0.228	-0.068
-732.996	566.980	0.093	-0.228
-731.981	-113.609	-0.255	-0.050
-730.966	-63.495	-0.124	0.051
-729.952	-163.811	-0.229	-0.011
-728.937	525.334	-0.151	0.359
-727.923	18.436	-0.333	-0.269
-726.908	484.752	-0.110	0.252
-725.894	42.277	-0.057	0.052
-724.879	800.000	-0.030	-0.113
-723.864	210.588	-0.124	0.197
-722.850	-17.551	-0.280	-0.177
-721.835	189.822	-0.137	-0.207
-720.821	800.000	-0.002	0.006
-719.806	528.052	-0.057	-0.135
-718.791	-17.095	0.082	-0.052
-717.777	39.888	-0.144	0.130
-716.762	477.147	0.054	0.123
-715.748	32.709	-0.093	0.081
-714.733	-49.178	0.064	0.031
-713.718	169.781	0.052	-0.075
-712.704	-127.679	0.074	0.011
-711.689	-58.565	-0.212	-0.093
-710.675	800.000	-0.044	0.173
-709.660	800.000	-0.018	-0.063
-708.645	-200.000	-0.044	-0.247
-707.631	-61.192	-0.182	-0.077
-706.616	150.644	0.121	0.165
-705.602	-158.632	0.256	0.015
-704.587	253.399	-0.117	0.202
-703.572	-53.100	0.185	-0.085
-702.558	597.879	-0.112	-0.280
-701.543	-200.000	-0.038	0.316
-700.529	74.057	-0.149	-0.157
-699.514	-200.000	0.013	0.226
-698.499	-135.699	-0.109	-0.013
-697.485	549.053	-0.033	-0.078
-696.470	-139.023	0.236	-0.026
-695.456	800.000	-0.025	-0.096
-694.441	64.574	0.284	0.289
-693.426	-200.000	-0.012	0.118
-692.412	479.155	0.043	-0.097
-691.397	-200.000	0.013	-0.072
-690.383	-1.005	-0.067	0.048
-689.368	800.000	-0.054	0.153
-688.354	-45.907	0.178	0.089
-687.339	-128.216	-0.029	0.004
-686.324	-200.000	-0.011	-0.246
-685.310	800.000	-0.036	0.101
-684.295	228.204	-0.153	0.251
-683.281	800.000	0.065	0.246
-682.266	-115.205	-0.128	0.024
-681.251	-200.000	-0.035	-0.342
-680.237	-83.006	0.162	-0.052
-679.222	-94.543	-0.414	-0.113
-678.208	216.747	0.133	0.213
-677.193	633.457	0.089	-0.227
-676.178	-200.000	0.017	-0.307
-675.164	-31.228	-0.021	-0.012
-674.149	-80.799	0.229	0.076
-673.135	56.364	-0.241	-0.236
-672.120	-109.863	-0.233	0.049
-671.105	-88.572	-0.117	0.035
-670.091	-108.980	0.407	0.087
-669.076	-31.074	-0.158	0.090
-668.062	-126.746	-0.216	-0.032
-667.047	139.810	0.065	-0.086
-666.032	-115.522	-0.163	-0.031
-665.018	-137.070	-0.186	0.021
-664.003	231.314	0.176	-0.289
-662.989	53.844	-0.229	0.221
-661.974	-200.000	-0.051	-0.284
-660.959	214.663	0.088	-0.141
-659.945	800.000	-0.099	-0.311
-658.930	-10.049	0.172	0.115
-657.916	316.196	0.085	-0.161
-656.901	-200.000	-0.030	-0.135
-655.886	542.993	-0.137	-0.327
-654.872	-3.300	-0.269	0.188
-653.857	-108.576	-0.122	-0.026
-652.843	24.518	0.187	0.155
-651.828	538.390	-0.126	-0.301
-650.814	-187.527	-0.221	0.003
-649.799	-48.061	-0.171	0.083
-648.784	-57.305	-0.259	0.114
-647.770	78.519	0.136	0.146
-646.755	24.031	-0.087	0.072
-645.741	-147.594	-0.132	0.011
-644.726	-200.000	-0.007	-0.076
-643.711	-0.192	-0.173	0.124
-642.697	34.865	0.104	0.091
-641.682	759.371	-0.161	-0.439
-640.668	-200.000	0.000	-0.093
-639.653	-137.890	-0.200	0.022
-638.638	73.604	-0.158	0.166
-637.624	54.023	0.143	-0.138
-636.609	-16.766	0.042	0.027
-635.595	-9.939	-0.135	0.091
-634.580	-104.638	0.277	-0.064
-633.565	-2.364	-0.101	-0.071
-632.551	-40.784	0.020	-0.010
-631.536	-200.000	0.003	-0.110
-630.522	800.000	0.038	0.128
-629.507	298.526	-0.080	-0.148
-628.492	23.541	-0.370	-0.306
-627.478	800.000	-0.090	0.365
-626.463	491.678	-0.049	0.112
-625.449	479.442	0.111	-0.253
-624.434	-200.000	0.027	-0.316
-623.419	119.788	-0.081	0.101
-622.405	195.749	0.072	-0.110
-621.390	91.796	0.032	0.036
-620.376	-90.928	-0.235	0.068
-619.361	-68.841	-0.351	0.136
-618.346	-200.000	0.016	-0.114
-617.332	120.105	-0.151	-0.188
-616.317	-114.140	-0.215	-0.042
-615.303	-200.000	0.018	0.196
-614.288	-200.000	0.030	-0.230
-613.273	800.000	0.088	0.361
-612.259	-167.698	-0.160	0.006
-611.244	800.000	-0.003	-0.014
-610.230	800.000	0.024	-0.075
-609.215	65.066	-0.259	-0.262
-608.201	-61.890	-0.208	0.087
-607.186	800.000	-0.092	-0.321
-606.171	-78.369	0.250	-0.086
-605.157	102.665	-0.035	0.041
-604.142	-105.787	0.118	0.027
-603.128	30.232	0.073	0.063
-602.113	800.000	-0.022	-0.089
-601.098	-91.068	-0.185	0.053
-600.084	281.065	-0.083	-0.149
-599.069	-75.598	-0.389	-0.139
-598.055	2.020	-0.173	0.125
-597.040	-200.000	0.002	0.259
-596.025	-69.360	0.168	-0.065
-595.011	243.678	-0.073	0.123
-593.996	-2.666	0.123	0.086
-592.982	285.637	0.159	-0.288
-591.967	-15.641	0.012	0.008
-590.952	-184.695	-0.264	-0.004
-589.938	110.720	-0.104	-0.126
-588.923	71.062	0.147	0.153
-587.909	-123.516	0.322	0.051
-586.894	-200.000	0.001	0.075
-585.879	133.385	-0.085	0.111
-584.865	-200.000	0.047	0.338
-583.850	-117.085	-0.386	0.071
-582.836	800.000	0.007	-0.021
-581.821	-200.000	0.073	-0.344
-580.806	-67.831	0.345	-0.135
-579.792	-159.965	0.427	0.023
-578.777	139.326	0.342	0.451
-577.763	-200.000	-0.024	0.215
-576.748	-112.673	-0.235	0.047
-575.733	76.142	-0.187	0.199
-574.719	-63.452	0.146	0.060
-573.704	50.377	0.072	-0.068
-572.690	277.408	0.015	-0.027
-571.675	323.251	-0.112	0.214
-570.661	412.433	-0.045	0.096
-569.646	-96.578	0.203	0.054
-568.631	-7.989	-0.247	0.167
-567.617	-110.391	-0.146	-0.030
-566.602	-200.000	0.008	-0.219
-565.588	65.609	-0.213	-0.216
-564.573	-200.000	0.009	-0.065
-563.558	800.000	0.029	0.085
-562.544	-166.646	0.172	0.007
-561.529	391.468	-0.114	-0.237
-560.515	-58.434	-0.203	-0.088
-559.500	594.365	0.126	-0.312
-558.485	164.660	-0.123	-0.173
-557.471	-200.000	0.013	-0.104
-556.456	7.170	0.023	-0.017
-555.442	-55.901	-0.129	-0.058
-554.427	-200.000	0.047	0.232
-553.412	-200.000	-0.007	0.278
-552.398	137.601	0.096	-0.126
-551.383	-47.968	0.088	-0.043
-550.369	37.438	0.111	-0.098
-549.354	37.600	-0.144	0.128
-548.339	172.922	-0.183	0.264
-547.325	-69.329	0.184	-0.071
-546.310	-97.748	0.163	0.042
-545.296	181.798	-0.067	0.099
-544.281	-200.000	0.001	-0.312
-543.266	-200.000	-0.023	-0.223
-542.252	-126.583	0.118	-0.017
-541.237	-131.133	0.259	-0.035
-540.223	-93.576	0.401	-0.111
-539.208	-200.000	0.019	-0.201
-538.193	-200.000	0.028	0.372
-537.179	-200.000	0.002	-0.076
-536.164	566.665	-0.059	0.143
-535.150	-111.940	0.074	-0.015
-534.135	-200.000	0.014	0.097
-533.121	476.833	-0.044	0.099
-532.106	800.000	0.046	-0.173
-531.091	-200.000	0.249	-0.001
-530.077	-16.415	0.166	0.105
-529.062	505.990	-0.017	0.039
-528.048	-106.183	-0.022	-0.005
-527.033	28.470	0.156	-0.132
-526.018	-180.602	-0.228	-0.005
-525.004	435.783	0.066	-0.144
-523.989	-112.007	0.392	0.079
-522.975	-74.618	0.170	-0.061
-521.960	-21.082	-0.235	-0.144
-520.945	464.557	-0.077	0.173
-519.931	25.477	0.266	-0.221
-518.916	-79.171	0.124	0.042
-517.902	151.615	0.040	0.054
-516.887	-58.892	0.293	0.127
-515.872	-116.852	-0.074	-0.014
-514.858	800.000	-0.057	-0.213
-513.843	319.899	0.102	0.193
-512.829	-200.000	-0.055	0.483
-511.814	800.000	-0.094	0.358
-510.799	-200.000	0.006	-0.303
-509.785	-200.000	0.012	-0.325
-508.770	-190.210	0.335	0.004
-507.756	490.531	0.077	0.175
-506.741	-189.773	-0.051	0.001
-505.726	-143.904	-0.102	-0.010
-504.712	-87.644	0.232	-0.070
-503.697	-116.318	-0.135	-0.025
-502.683	-127.003	-0.017	0.003
-501.668	243.439	0.026	-0.044
-500.653	-58.862	-0.247	0.107
-499.639	-200.000	-0.002	0.053
-498.624	-99.143	0.171	0.043
-497.610	263.860	0.046	-0.081
-496.595	-63.597	-0.094	-0.039
-495.581	-89.243	0.291	-0.086
-494.566	193.416	-0.275	-0.416
-493.551	-200.000	-0.014	0.411
-492.537	42.470	0.119	-0.109
-491.522	-150.968	-0.336	-0.025
-490.508	-146.392	-0.146	0.013
-489.493	75.290	0.242	-0.255
-488.478	-52.313	-0.201	0.093
-487.464	178.224	0.050	0.073
-486.449	533.119	-0.087	-0.206
-485.435	90.891	-0.053	-0.060
-484.420	-200.000	0.033	0.281
-483.405	-200.000	-0.000	-0.117
-482.391	-200.000	0.003	-0.252
-481.376	-53.734	0.168	-0.077
-480.362	800.000	-0.059	0.216
-479.347	-179.957	-0.260	0.006
-478.332	285.596	0.203	-0.365
-477.318	517.788	0.075	-0.175
-476.303	-200.000	0.024	-0.220
-475.289	-25.720	0.087	-0.051
-474.274	-123.269	0.291	-0.046
-473.259	800.000	0.013	-0.050
-472.245	-111.995	-0.180	-0.036
-471.230	-67.108	0.278	-0.110
-470.216	639.503	0.019	0.049
-469.201	-137.881	-0.644	0.072
-468.186	-200.000	0.015	0.116
-467.172	270.172	0.167	0.293
-466.157	-8.718	0.241	-0.162
-465.143	354.402	0.178	0.353
-464.128	-3.130	0.111	-0.077
-463.113	155.350	-0.054	0.075
-462.099	119.963	0.151	0.187
-461.084	-87.598	0.236	0.071
-460.070	-60.112	-0.168	-0.071
-459.055	383.091	0.146	0.300
-458.040	800.000	0.085	0.288
-457.026	418.474	0.062	-0.133
-456.011	-17.702	-0.363	0.227
-454.997	-37.814	-0.078	0.041
-453.982	-200.000	-0.059	0.471
-452.968	-40.328	0.156	0.081
-451.953	1.260	0.059	0.042
-450.938	-200.000	-0.028	0.164
-449.924	-104.283	-0.024	-0.005
-448.909	-200.000	-0.020	-0.168
-447.895	-108.877	0.228	-0.049
-446.880	800.000	-0.133	0.445
-445.865	-200.000	-0.010	0.353
-444.851	-33.090	0.033	0.018
-443.836	484.331	-0.097	-0.221
-442.822	-200.000	-0.032	-0.300
-441.807	800.000	-0.062	0.220
-440.792	800.000	0.057	-0.168
-439.778	800.000	0.029	0.099
-438.763	-200.000	-0.039	0.208
-437.749	238.238	-0.235	-0.390
-436.734	-108.700	0.167	0.036
-435.719	-122.287	0.220	-0.036
-434.705	-200.000	0.002	0.038
-433.690	-116.878	-0.115	-0.021
-432.676	44.018	-0.023	0.021
-431.661	-200.000	-0.011	-0.254
-430.646	-200.000	-0.023	-0.243
-429.632	-22.148	-0.309	-0.187
-428.617	-76.756	-0.280	-0.098
-427.603	383.838	-0.073	0.150
-426.588	800.000	0.037	0.123
-425.573	-121.556	-0.279	0.046
-424.559	53.998	0.315	-0.302
-423.544	-57.039	-0.070	0.031
-422.530	-200.000	0.040	0.276
-421.515	235.257	-0.134	0.220
-420.500	-35.127	-0.146	-0.079
-419.486	-43.093	0.215	0.109
-418.471	188.769	0.056	-0.083
-417.457	107.156	-0.186	-0.220
-416.442	129.584	-0.021	0.026
-415.428	-149.214	-0.304	-0.024
-414.413	800.000	-0.078	0.229
-413.398	-200.000	-0.005	0.114
-412.384	-135.411	-0.419	0.050
-411.369	28.088	0.129	-0.108
-410.355	-200.000	-0.081	-0.366
-409.340	13.239	0.233	0.180
-408.325	729.983	0.088	0.235
-407.311	-99.370	0.214	-0.054
-406.296	372.910	-0.022	-0.045
-405.282	56.387	-0.248	-0.240
-404.267	-136.621	0.105	0.012
-403.252	134.249	-0.291	0.375
-402.238	-42.345	-0.209	-0.106
-401.223	-123.230	0.098	-0.016
-400.209	23.268	-0.305	0.249
-399.194	127.471	-0.097	-0.123
-398.179	-68.648	0.164	-0.063
-397.165	800.000	0.033	0.127
-396.150	219.205	0.127	0.201
-395.136	-165.008	-0.351	-0.016
-394.121	-144.977	0.239	0.022
-393.106	800.000	-0.037	-0.148
-392.092	-139.094	0.158	-0.017
-391.077	800.000	0.014	0.058
-390.063	-110.483	0.331	-0.068
-389.048	-200.000	-0.003	0.050
-388.033	-50.197	0.239	-0.112
-387.019	153.029	0.060	0.081
-386.004	-20.847	-0.416	-0.254
-384.990	-33.261	0.193	-0.106
-383.975	-85.833	-0.389	-0.120
-382.960	277.819	-0.124	-0.219
-381.946	800.000	0.104	-0.342
-380.931	621.255	0.074	0.185
-379.917	-200.000	-0.013	-0.174
-378.902	-20.436	-0.296	0.181
-377.888	-81.330	-0.132	-0.043
-376.873	-23.649	0.260	0.155
-375.858	184.783	-0.165	-0.243
-374.844	-106.663	-0.177	0.039
-373.829	33.642	0.254	0.219
-372.815	-93.207	-0.016	0.004
-371.800	-87.273	-0.264	-0.080
-370.785	-108.854	0.127	-0.027
-369.771	238.055	-0.086	-0.142
-368.756	-200.000	-0.002	0.436
-367.742	394.202	0.229	0.475
-366.727	98.669	0.204	0.234
-365.712	504.069	-0.110	-0.252
-364.698	-74.021	-0.153	0.055
-363.683	-27.603	-0.247	0.143
-362.669	18.215	-0.234	-0.186
-361.654	-200.000	-0.041	-0.206
-360.639	-200.000	-0.098	-0.623
-359.625	-112.887	0.239	-0.047
-358.610	222.860	0.153	-0.244
-357.596	-200.000	0.001	0.148
-356.581	-183.898	-0.036	-0.001
-355.566	254.618	-0.149	0.254
-354.552	296.149	0.078	0.143
-353.537	-200.000	0.008	0.040
-352.523	186.711	0.084	-0.124
-351.508	181.868	-0.111	0.163
-350.493	800.000	0.061	0.225
-349.479	800.000	-0.054	-0.198
-348.464	-71.407	-0.253	0.094
-347.450	318.230	-0.054	-0.101
-346.435	615.174	-0.140	-0.350
-345.420	337.105	-0.022	-0.043
-344.406	30.023	-0.081	0.068
-343.391	-200.000	0.039	0.301
-342.377	340.453	-0.071	0.138
-341.362	118.891	0.097	-0.119
-340.348	-159.546	0.457	0.025
-339.333	54.124	0.208	-0.198
-338.318	-115.865	0.205	-0.038
-337.304	-8.609	-0.157	-0.104
-336.289	2.362	-0.174	0.125
-335.275	-81.556	0.103	-0.033
-334.260	26.117	0.264	0.219
-333.245	-108.466	-0.216	-0.046
-332.231	-200.000	-0.081	-0.398
-331.216	74.864	0.184	0.192
-330.202	-189.610	-0.169	-0.002
-329.187	-149.009	0.119	0.010
-328.172	109.617	-0.135	0.161
-327.158	-200.000	-0.058	-0.376
-326.143	-25.983	-0.110	0.064
-325.129	-200.000	-0.009	-0.081
-324.114	42.573	0.102	-0.092
-323.099	-67.658	-0.268	-0.104
-322.085	97.755	0.154	-0.176
-321.070	800.000	0.076	0.268
-320.056	61.762	0.097	0.095
-319.041	-20.412	-0.100	-0.061
-318.026	750.072	-0.093	0.248
-317.012	35.476	-0.233	0.203
-315.997	-165.753	-0.454	0.019
-314.983	186.886	-0.207	-0.306
-313.968	-110.187	-0.100	-0.021
-312.953	-36.906	-0.156	0.083
-311.939	-78.587	-0.252	-0.086
-310.924	53.193	0.359	0.341
-309.910	41.253	-0.160	0.143
-308.895	9.300	0.185	0.139
-307.880	-71.412	-0.170	0.063
-306.866	-200.000	-0.012	-0.350
-305.851	-156.965	0.511	-0.031
-304.837	-200.000	0.041	0.314
-303.822	-109.110	0.186	0.039
-302.807	-200.000	0.005	0.218
-301.793	-200.000	-0.009	0.122
-300.778	800.000	-0.033	-0.129
-299.764	-200.000	0.010	-0.049
-298.749	-200.000	0.035	0.216
-297.735	-200.000	-0.039	0.246
-296.720	-150.495	0.100	0.008
-295.705	-163.658	0.241	0.011
-294.691	-200.000	0.039	-0.400
-293.676	118.723	0.078	0.095
-292.662	114.956	-0.140	0.170
-291.647	-200.000	0.030	0.227
-290.632	22.163	0.182	-0.147
-289.618	57.405	0.123	-0.119
-288.603	258.380	0.068	0.116
-287.589	800.000	-0.135	0.368
-286.574	135.990	0.196	0.253
-285.559	-200.000	0.022	-0.143
-284.545	-172.798	-0.142	-0.004
-283.530	254.563	-0.120	0.203
-282.516	30.568	-0.163	0.138
-281.501	52.265	0.201	0.190
-280.486	185.181	-0.057	0.084
-279.472	81.181	0.028	0.030
-278.457	-47.923	0.195	-0.093
-277.443	-166.817	0.374	0.015
-276.428	34.834	0.106	0.092
-275.413	-84.121	0.113	-0.036
-274.399	13.042	0.209	-0.160
-273.384	255.080	0.107	-0.181
-272.370	-22.022	0.190	-0.114
-271.355	-200.000	-0.004	-0.086
-270.340	-200.000	0.009	-0.210
-269.326	265.645	-0.005	0.009
-268.311	-200.000	-0.022	-0.126
-267.297	2.473	0.307	0.220
-266.282	-84.035	0.128	0.040
-265.267	-68.907	-0.326	-0.125
-264.253	800.000	-0.067	-0.286
-263.238	689.241	0.137	0.354
-262.224	-200.000	0.053	-0.358
-261.209	800.000	0.073	-0.219
-260.195	-157.244	0.132	0.008
-259.180	-200.000	-0.007	0.135
-258.165	-82.897	-0.273	-0.087
-257.151	-106.015	-0.405	-0.090
-256.136	-200.000	-0.030	0.182
-255.122	-200.000	0.010	0.145
-254.107	144.707	-0.309	-0.409
-253.092	-200.000	-0.010	0.120
-252.078	35.842	0.122	0.107
-251.063	470.387	-0.121	-0.268
-250.049	-168.195	0.183	0.007
-249.034	-139.001	0.212	-0.023
-248.019	313.205	-0.026	0.049
-247.005	-153.477	-0.097	-0.007
-245.990	222.406	0.245	-0.390
-244.976	-58.499	0.141	0.060
-243.961	-200.000	-0.026	-0.116
-242.946	-200.000	0.009	-0.092
-241.932	34.259	-0.168	0.145
-240.917	-33.261	-0.226	0.124
-239.903	-28.024	0.168	-0.096
-238.888	287.113	0.209	-0.373
-237.873	127.887	0.136	0.171
-236.859	-50.764	0.140	-0.065
-235.844	800.000	0.072	0.236
-234.830	-115.389	0.461	-0.086
-233.815	-190.583	-0.107	-0.001
-232.800	335.982	-0.086	-0.166
-231.786	-147.782	0.051	0.004
-230.771	-200.000	0.024	0.209
-229.757	-200.000	0.000	-0.090
-228.742	49.224	0.087	-0.081
-227.727	-101.219	0.244	-0.059
-226.713	-66.939	-0.218	-0.085
-225.698	-58.634	0.061	0.026
-224.684	105.071	-0.108	-0.126
-223.669	104.303	0.179	-0.208
-222.655	800.000	-0.106	-0.302
-221.640	-48.824	-0.141	-0.067
-220.625	26.700	0.291	0.241
-219.611	-200.000	0.003	-0.165
-218.596	14.906	-0.337	0.260
-217.582	274.900	0.164	0.287
-216.567	198.641	-0.184	0.279
-215.552	-4.335	-0.161	0.110
-214.538	382.805	-0.085	0.174
-213.523	-102.561	-0.123	0.029
-212.509	-54.044	-0.267	-0.120
-211.494	32.511	-0.320	0.273
-210.479	31.527	0.080	-0.068
-209.465	-97.079	-0.465	-0.120
-208.450	-61.255	-0.326	-0.136
-207.436	-123.049	0.281	0.045
-206.421	-15.331	0.423	-0.267
-205.406	-200.000	-0.032	0.209
-204.392	-164.220	-0.420	0.019
-203.377	-200.000	0.069	-0.444
-202.363	800.000	-0.087	-0.249
-201.348	15.734	-0.173	-0.134
-200.333	-86.706	0.507	0.153
-199.319	-200.000	0.021	-0.186
-198.304	-67.516	0.091	0.035
-197.290	158.732	0.094	0.129
-196.275	-146.416	-0.203	-0.018
-195.260	469.218	0.087	0.193
-194.246	-161.827	0.192	-0.010
-193.231	60.709	0.250	0.244
-192.217	-200.000	0.004	-0.081
-191.202	-24.433	0.305	0.179
-190.187	800.000	0.040	0.159
-189.173	-147.679	0.366	-0.030
-188.158	34.427	-0.131	-0.113
-187.144	164.493	0.063	0.087
-186.129	-184.353	0.184	-0.003
-185.114	325.723	0.221	-0.417
-184.100	142.397	-0.254	0.333
-183.085	-113.643	-0.170	0.033
-182.071	58.686	0.067	0.065
-181.056	800.000	-0.034	0.096
-180.042	-165.985	0.278	-0.012
-179.027	800.000	-0.095	0.384
-178.012	269.816	0.157	-0.271
-176.998	167.593	0.130	-0.182
-175.983	-197.329	0.165	0.001
-174.969	7.726	-0.202	0.149
-173.954	-63.214	0.174	-0.071
-172.939	800.000	-0.104	-0.398
-171.925	208.913	0.182	-0.280
-170.910	-62.740	0.375	0.153
-169.896	494.980	0.151	0.341
-168.881	-132.111	-0.276	-0.035
-167.866	25.333	-0.259	0.212
-166.852	410.042	-0.119	-0.249
-165.837	-16.057	-0.112	0.070
-164.823	386.903	0.081	0.165
-163.808	226.515	-0.125	0.201
-162.793	-200.000	-0.033	0.201
-161.779	800.000	-0.049	-0.138
-160.764	80.893	0.233	-0.248
-159.750	-200.000	-0.006	-0.181
-158.735	-29.620	-0.121	0.068
-157.720	444.812	0.073	-0.158
-156.706	800.000	-0.033	-0.141
-155.691	-59.553	-0.072	0.030
-154.677	-122.492	-0.318	0.051
-153.662	-132.760	0.426	-0.054
-152.647	377.754	-0.016	-0.031
-151.633	-60.625	-0.253	0.106
-150.618	34.050	0.213	0.183
-149.604	43.908	0.299	-0.270
-148.589	-101.851	-0.083	-0.020
-147.574	-200.000	-0.010	0.055
-146.560	188.317	0.105	0.154
-145.545	800.000	-0.068	0.273
-144.531	27.761	-0.139	-0.115
-143.516	800.000	0.103	-0.435
-142.502	800.000	-0.117	-0.423
-141.487	800.000	-0.054	-0.192
-140.472	800.000	0.051	-0.145
-139.458	67.251	-0.144	0.145
-138.443	-200.000	0.004	0.139
-137.429	-200.000	0.013	0.076
-136.414	-200.000	-0.011	-0.138
-135.399	195.638	-0.325	-0.487
-134.385	-180.836	-0.361	-0.007
-133.370	800.000	-0.101	-0.388
-132.356	136.569	0.150	0.192
-131.341	-101.429	0.221	0.053
-130.326	14.830	0.032	-0.024
-129.312	-200.000	0.021	-0.260
-128.297	509.836	0.046	-0.106
-127.283	66.399	0.045	0.045
-126.268	800.000	-0.039	0.113
-125.253	29.418	-0.043	0.036
-124.239	-68.593	0.163	0.062
-123.224	-185.090	-0.086	0.001
