DTS Sentinel unit serial number:	SN413079Multiplexer serial number:	ORYXHardware model number:	OX4-SRSoftware version number:	ORYX F/W v4.00 Oryx Data Collector v3.7.2.0data status	okinstallation	princeton_trtdifferential loss correction	single-endedforward channel	channel 3reverse channel	N/Adate	2019/09/13time	17:48:34forward acquisition time	60.00reverse acquisition time	0.00gamma	496.2192k internal	0.2303k external	0.2303temperature offset calibration	1.0140default loss term (dB/km)	0.3790temperature slope calibration	1.0000multiplexer offset coefficient	1.0000multiplexer slope coefficient	1.0000fibre end	0.00T internal ref (°C)	35.55T ext. ref 1 (°C)	5.10T ext. ref 2 (°C)	29.03length (m)	temperature (°C)	Stokes	anti-Stokes-747.200	183.180	0.039	0.059
-746.185	-49.611	0.307	0.149
-745.171	-149.437	-0.051	0.004
-744.156	-200.000	-0.002	-0.065
-743.142	-102.245	0.127	0.031
-742.127	-75.047	-0.271	0.099
-741.112	-74.131	-0.220	0.081
-740.098	800.000	-0.035	0.151
-739.083	-54.332	-0.339	-0.157
-738.069	800.000	-0.036	-0.158
-737.054	33.883	0.255	-0.226
-736.039	-200.000	-0.063	-0.660
-735.025	-200.000	0.015	0.210
-734.010	-48.458	-0.127	-0.062
-732.996	-52.986	-0.315	-0.148
-731.981	-134.227	-0.495	-0.062
-730.966	-177.616	0.048	-0.001
-729.952	-25.984	-0.180	0.108
-728.937	-200.000	-0.018	0.237
-727.923	462.546	-0.060	0.136
-726.908	165.114	-0.199	-0.286
-725.894	800.000	0.069	-0.203
-724.879	-72.610	-0.258	-0.097
-723.864	423.555	-0.053	0.116
-722.850	-96.008	0.110	0.030
-721.835	-124.554	-0.424	-0.067
-720.821	-156.124	0.189	0.012
-719.806	33.604	-0.217	-0.192
-718.791	260.979	0.117	-0.206
-717.777	157.030	-0.167	-0.236
-716.762	2.585	-0.199	-0.147
-715.748	-64.072	-0.101	-0.042
-714.733	-47.990	-0.085	-0.042
-713.718	-150.211	-0.274	-0.022
-712.704	-68.741	-0.141	-0.055
-711.689	-4.523	-0.137	-0.097
-710.675	-122.689	-0.119	-0.020
-709.660	197.295	0.131	0.203
-708.645	114.104	0.024	-0.030
-707.631	49.757	0.152	-0.146
-706.616	688.886	0.022	-0.059
-705.602	-43.292	0.165	0.085
-704.587	-200.000	-0.026	0.187
-703.572	-200.000	-0.003	0.178
-702.558	-200.000	-0.009	0.532
-701.543	-130.122	-0.217	0.030
-700.529	362.393	-0.052	0.105
-699.514	-85.260	0.139	-0.044
-698.499	273.162	-0.035	-0.063
-697.485	-31.053	-0.103	-0.059
-696.470	800.000	-0.079	0.267
-695.456	-200.000	0.007	-0.130
-694.441	-37.899	-0.103	0.056
-693.426	800.000	-0.081	-0.233
-692.412	-200.000	0.024	-0.212
-691.397	616.472	-0.083	-0.211
-690.383	800.000	0.140	-0.441
-689.368	-55.291	0.095	-0.043
-688.354	-18.900	0.279	0.177
-687.339	-200.000	-0.014	-0.231
-686.324	183.150	-0.136	-0.205
-685.310	-200.000	0.004	-0.040
-684.295	-200.000	0.013	0.369
-683.281	800.000	-0.055	-0.169
-682.266	29.213	0.194	0.167
-681.251	-200.000	-0.017	0.284
-680.237	-161.374	-0.082	-0.004
-679.222	56.781	-0.125	0.123
-678.208	213.290	0.156	-0.250
-677.193	302.810	0.073	0.138
-676.178	-66.173	-0.334	0.135
-675.164	-200.000	-0.013	-0.094
-674.149	-200.000	0.018	0.143
-673.135	-200.000	-0.088	0.498
-672.120	-126.771	-0.061	-0.009
-671.105	-112.721	-0.238	-0.048
-670.091	489.339	-0.078	-0.181
-669.076	421.241	0.075	-0.163
-668.062	-100.399	-0.157	0.039
-667.047	-200.000	0.019	-0.174
-666.032	88.193	0.227	-0.256
-665.018	639.845	0.054	-0.140
-664.003	-20.913	0.250	0.155
-662.989	-126.492	-0.044	-0.007
-661.974	676.251	0.097	0.255
-660.959	-178.235	-0.259	-0.006
-659.945	800.000	0.028	-0.110
-658.930	379.338	-0.168	-0.350
-657.916	-29.034	-0.214	0.124
-656.901	-11.184	0.246	0.165
-655.886	138.015	-0.178	0.236
-654.872	196.110	-0.083	0.128
-653.857	-200.000	0.277	-0.001
-652.843	284.713	0.148	0.271
-651.828	-93.038	-0.061	-0.017
-650.814	-109.305	0.235	0.051
-649.799	800.000	-0.057	-0.188
-648.784	-49.235	-0.170	0.082
-647.770	42.648	-0.115	0.106
-646.755	-130.236	0.151	-0.021
-645.741	143.668	0.242	0.328
-644.726	171.756	0.274	-0.399
-643.711	800.000	0.052	-0.175
-642.697	-96.707	0.192	0.051
-641.682	94.302	0.208	-0.240
-640.668	-46.738	-0.061	-0.030
-639.653	-200.000	0.082	-0.476
-638.638	-99.121	0.190	-0.049
-637.624	-89.430	-0.313	0.093
-636.609	-82.314	-0.155	0.051
-635.595	465.960	0.072	0.163
-634.580	-200.000	0.000	-0.015
-633.565	-200.000	-0.061	-0.399
-632.551	-200.000	0.004	-0.186
-631.536	106.301	-0.079	0.096
-630.522	-64.930	-0.285	-0.117
-629.507	-118.800	-0.138	-0.025
-628.492	-85.889	-0.202	-0.063
-627.478	-15.926	-0.090	0.058
-626.463	800.000	0.088	-0.364
-625.449	418.994	-0.055	0.120
-624.434	41.704	-0.107	0.099
-623.419	-200.000	-0.012	0.125
-622.405	588.665	-0.075	-0.186
-621.390	103.073	-0.263	0.312
-620.376	-200.000	0.023	0.254
-619.361	232.504	0.020	0.033
-618.346	139.970	-0.138	0.185
-617.332	-45.340	0.170	0.085
-616.317	-33.993	-0.092	0.051
-615.303	-131.311	0.217	-0.029
-614.288	425.455	-0.060	-0.130
-613.273	-48.985	-0.279	0.135
-612.259	-200.000	0.077	-0.357
-611.244	-38.799	-0.265	-0.142
-610.230	800.000	0.058	-0.180
-609.215	800.000	0.051	-0.205
-608.201	800.000	-0.167	0.519
-607.186	-157.931	0.151	0.009
-606.171	155.250	0.083	0.116
-605.157	-119.903	0.067	-0.012
-604.142	108.496	0.204	-0.247
-603.128	191.630	-0.243	0.371
-602.113	48.020	-0.298	0.283
-601.098	-200.000	0.032	0.205
-600.084	316.438	0.126	0.241
-599.069	699.083	-0.155	-0.412
-598.055	717.693	-0.037	0.099
-597.040	-200.000	0.001	-0.230
-596.025	90.206	0.135	-0.153
-595.011	-96.949	-0.186	-0.049
-593.996	-200.000	0.031	0.182
-592.982	80.988	-0.148	-0.162
-591.967	-200.000	-0.026	0.215
-590.952	-144.977	-0.202	0.019
-589.938	-6.598	0.151	-0.104
-588.923	312.826	0.086	0.163
-587.909	-47.202	0.075	-0.037
-586.894	-200.000	-0.011	0.161
-585.879	-169.226	0.256	-0.010
-584.865	75.716	-0.071	0.075
-583.850	2.278	-0.171	-0.125
-582.836	-200.000	0.078	-0.421
-581.821	-200.000	0.002	0.151
-580.806	-45.707	0.235	-0.118
-579.792	121.802	-0.168	-0.212
-578.777	-37.113	0.251	0.136
-577.763	-200.000	0.013	-0.131
-576.748	-7.672	0.160	-0.110
-575.733	57.924	0.099	-0.099
-574.719	148.548	-0.042	-0.057
-573.704	-87.269	-0.153	-0.047
-572.690	-72.389	-0.096	-0.036
-571.675	-49.215	0.142	-0.069
-570.661	80.907	0.176	0.192
-569.646	12.424	-0.419	0.327
-568.631	94.358	-0.036	0.041
-567.617	-164.869	0.256	0.012
-566.602	82.903	0.164	-0.180
-565.588	55.186	-0.205	-0.200
-564.573	800.000	0.042	-0.172
-563.558	-14.824	0.309	-0.201
-562.544	-23.031	0.285	-0.174
-561.529	-77.146	0.124	0.044
-560.515	-200.000	-0.008	0.098
-559.500	-40.654	-0.366	0.192
-558.485	-200.000	0.016	0.144
-557.471	-119.512	-0.378	0.066
-556.456	5.581	-0.094	0.070
-555.442	-186.560	-0.271	0.004
-554.427	100.935	-0.083	0.097
-553.412	800.000	-0.081	0.272
-552.398	17.086	0.252	0.202
-551.383	76.658	-0.082	0.088
-550.369	-124.397	-0.084	0.013
-549.354	800.000	-0.014	-0.059
-548.339	-200.000	0.020	0.374
-547.325	6.972	0.165	0.124
-546.310	-54.449	-0.103	-0.047
-545.296	22.601	0.160	0.133
-544.281	158.241	0.178	-0.250
-543.266	92.867	-0.241	-0.276
-542.252	4.620	0.139	-0.103
-541.237	-200.000	0.011	0.079
-540.223	397.536	-0.097	-0.206
-539.208	-200.000	0.027	-0.171
-538.193	179.171	0.160	-0.236
-537.179	-92.471	-0.314	0.089
-536.164	-200.000	0.017	0.213
-535.150	-59.634	-0.136	0.059
-534.135	-162.321	0.068	-0.003
-533.121	800.000	-0.041	-0.120
-532.106	-16.026	-0.195	-0.126
-531.091	224.951	-0.081	-0.132
-530.077	37.250	0.044	-0.039
-529.062	-200.000	0.305	-0.000
-528.048	30.317	0.100	-0.086
-527.033	204.323	-0.139	-0.218
-526.018	-200.000	-0.056	-0.267
-525.004	35.548	-0.104	-0.092
-523.989	6.257	0.076	0.057
-522.975	-37.000	0.104	0.056
-521.960	554.956	0.092	-0.223
-520.945	0.040	0.050	0.036
-519.931	-145.729	0.191	-0.017
-518.916	-153.029	0.309	0.022
-517.902	106.327	0.128	-0.153
-516.887	215.342	0.055	0.088
-515.872	626.021	0.132	-0.336
-514.858	54.127	-0.136	-0.132
-513.843	-26.473	0.140	-0.083
-512.829	504.072	0.123	0.287
-511.814	-71.155	-0.179	0.068
-510.799	68.963	0.221	0.229
-509.785	-64.143	0.057	-0.023
-508.770	-200.000	-0.006	-0.067
-507.756	119.530	0.078	-0.097
-506.741	-31.207	0.193	-0.110
-505.726	-200.000	0.080	0.354
-504.712	-67.354	-0.359	0.142
-503.697	-148.821	0.258	-0.021
-502.683	800.000	-0.032	0.113
-501.668	-200.000	-0.006	0.195
-500.653	-200.000	-0.054	0.299
-499.639	-155.359	0.172	-0.011
-498.624	-58.696	-0.270	-0.118
-497.610	-127.669	-0.300	-0.044
-496.595	-200.000	0.002	-0.196
-495.581	407.578	0.123	-0.261
-494.566	201.409	0.062	-0.096
-493.551	-200.000	0.019	0.105
-492.537	476.516	-0.219	0.498
-491.522	-175.713	-0.147	-0.004
-490.508	-69.632	0.054	0.021
-489.493	-52.780	0.210	-0.098
-488.478	715.927	-0.070	0.187
-487.464	47.282	0.127	0.120
-486.449	-101.994	0.375	-0.091
-485.435	63.154	0.168	0.170
-484.420	-154.072	0.085	0.006
-483.405	-150.436	-0.370	0.029
-482.391	305.866	0.202	0.379
-481.376	-41.428	0.105	0.054
-480.362	-200.000	0.041	0.217
-479.347	-72.193	-0.467	-0.175
-478.332	756.305	0.081	-0.220
-477.318	-165.015	0.294	0.013
-476.303	-70.942	0.466	-0.177
-475.289	-157.106	-0.317	0.019
-474.274	-176.827	0.097	-0.002
-473.259	-49.027	-0.132	-0.064
-472.245	44.818	0.075	0.070
-471.230	1.763	0.364	0.264
-470.216	-200.000	-0.017	0.111
-469.201	500.035	0.039	0.091
-468.186	-200.000	0.014	-0.163
-467.172	252.064	-0.088	0.151
-466.157	-200.000	-0.023	0.243
-465.143	15.698	0.147	-0.116
-464.128	-20.954	-0.100	0.062
-463.113	31.756	-0.037	-0.032
-462.099	-40.813	-0.296	-0.154
-461.084	-93.038	-0.087	-0.024
-460.070	560.063	0.096	0.234
-459.055	-37.814	-0.283	0.152
-458.040	97.100	-0.261	0.302
-457.026	254.550	0.143	-0.246
-456.011	800.000	0.049	-0.212
-454.997	-200.000	-0.012	-0.189
-453.982	-143.070	-0.625	0.061
-452.968	-30.397	-0.070	-0.040
-451.953	-23.780	0.059	0.036
-450.938	246.866	-0.123	-0.209
-449.924	-95.935	-0.566	-0.152
-448.909	-200.000	-0.040	-0.220
-447.895	-36.018	0.091	0.050
-446.880	800.000	0.124	0.431
-445.865	800.000	-0.044	-0.125
-444.851	-72.842	0.049	-0.018
-443.836	800.000	-0.073	-0.317
-442.822	310.032	-0.074	0.139
-441.807	56.315	0.378	-0.370
-440.792	24.657	0.097	-0.081
-439.778	230.515	0.007	0.011
-438.763	93.192	-0.219	0.249
-437.749	-184.514	0.143	-0.002
-436.734	-24.107	-0.329	0.198
-435.719	-137.405	0.335	0.038
-434.705	-37.733	0.174	0.093
-433.690	800.000	0.121	-0.345
-432.676	-112.469	-0.273	0.055
-431.661	249.840	0.123	-0.210
-430.646	-134.895	-0.054	-0.007
-429.632	248.326	0.112	-0.190
-428.617	768.552	-0.137	0.376
-427.603	-200.000	-0.018	0.137
-426.588	91.052	-0.083	-0.094
-425.573	-165.645	0.178	0.008
-424.559	-29.493	-0.106	0.061
-423.544	-200.000	-0.001	0.089
-422.530	-200.000	0.016	0.083
-421.515	-145.014	-0.247	-0.023
-420.500	-19.018	-0.089	-0.055
-419.486	-4.365	-0.307	0.214
-418.471	423.462	-0.024	0.052
-417.457	47.580	0.085	0.080
-416.442	166.307	-0.086	0.123
-415.428	-200.000	-0.039	0.261
-414.413	-57.308	0.175	-0.077
-413.398	-36.884	-0.051	-0.028
-412.384	-200.000	0.001	0.271
-411.369	-130.969	0.155	-0.021
-410.355	-200.000	0.027	0.340
-409.340	276.307	0.060	-0.108
-408.325	450.058	0.093	-0.207
-407.311	-30.969	-0.214	0.122
-406.296	-39.794	-0.105	-0.055
-405.282	-34.167	-0.111	0.061
-404.267	204.587	0.110	-0.171
-403.252	565.650	-0.101	-0.247
-402.238	-48.230	0.066	-0.032
-401.223	800.000	-0.085	0.296
-400.209	-89.899	0.073	-0.021
-399.194	800.000	0.072	0.205
-398.179	-145.374	-0.258	-0.023
-397.165	-200.000	0.012	0.091
-396.150	-174.340	0.358	0.010
-395.136	-108.311	0.092	0.020
-394.121	70.200	-0.169	0.176
-393.106	339.775	-0.069	0.135
-392.092	-31.039	0.225	0.128
-391.077	-50.080	0.175	-0.083
-390.063	-47.283	-0.082	0.040
-389.048	-69.111	0.167	0.065
-388.033	175.180	-0.209	0.304
-387.019	-200.000	-0.049	-0.245
-386.004	800.000	-0.034	0.148
-384.990	-17.443	0.077	-0.049
-383.975	-55.753	-0.229	-0.103
-382.960	-200.000	0.003	0.275
-381.946	-200.000	0.007	-0.182
-380.931	-156.786	-0.154	0.010
-379.917	800.000	0.074	-0.257
-378.902	800.000	-0.073	-0.313
-377.888	29.558	0.370	0.316
-376.873	492.389	0.027	0.063
-375.858	-154.064	-0.096	0.007
-374.844	-5.182	0.213	0.147
-373.829	-200.000	0.026	0.467
-372.815	158.208	0.124	0.173
-371.800	-163.705	0.116	-0.005
-370.785	549.681	-0.049	-0.119
-369.771	-69.390	0.212	-0.082
-368.756	-133.039	0.426	-0.054
-367.742	-32.432	0.209	0.117
-366.727	-130.188	-0.315	0.043
-365.712	-200.000	0.004	-0.375
-364.698	-79.299	0.228	-0.078
-363.683	-156.690	0.239	0.015
-362.669	-29.058	0.058	0.034
-361.654	87.421	-0.124	-0.137
-360.639	800.000	-0.033	-0.133
-359.625	2.720	0.156	-0.114
-358.610	-200.000	-0.006	-0.065
-357.596	800.000	0.129	-0.385
-356.581	-200.000	0.037	0.179
-355.566	-56.974	0.257	0.114
-354.552	-108.276	-0.004	0.001
-353.537	800.000	-0.069	0.230
-352.523	210.076	-0.248	0.390
-351.508	-111.067	-0.153	-0.031
-350.493	-49.325	-0.289	0.139
-349.479	-115.485	0.333	0.063
-348.464	-142.042	0.174	0.017
-347.450	-200.000	0.035	0.159
-346.435	12.055	0.161	0.124
-345.420	-200.000	-0.012	0.124
-344.406	800.000	-0.035	-0.108
-343.391	646.015	-0.149	0.381
-342.377	-74.077	0.128	0.047
-341.362	742.492	-0.019	-0.051
-340.348	102.067	0.097	-0.114
-339.333	-18.884	0.048	-0.030
-338.318	-143.111	0.068	0.007
-337.304	39.781	0.233	-0.209
-336.289	17.316	0.264	-0.210
-335.275	800.000	0.083	-0.293
-334.260	-200.000	-0.031	-0.182
-333.245	-69.708	-0.399	0.153
-332.231	-200.000	0.000	-0.340
-331.216	-200.000	0.016	-0.313
-330.202	-200.000	-0.038	-0.203
-329.187	-125.298	-0.298	-0.046
-328.172	-128.723	-0.180	-0.025
-327.158	-36.713	0.102	-0.055
-326.143	800.000	-0.069	-0.244
-325.129	-60.182	-0.193	-0.082
-324.114	93.197	-0.150	-0.170
-323.099	-83.597	-0.156	-0.050
-322.085	42.632	-0.197	-0.179
-321.070	-200.000	-0.005	0.201
-320.056	800.000	0.088	0.265
-319.041	397.869	-0.089	0.186
-318.026	-51.484	-0.173	0.081
-317.012	-56.537	-0.057	-0.025
-315.997	52.103	-0.073	-0.070
-314.983	194.952	0.155	-0.236
-313.968	23.689	-0.007	0.006
-312.953	-200.000	-0.045	-0.262
-311.939	-200.000	0.068	-0.328
-310.924	-143.591	-0.240	0.023
-309.910	-200.000	0.031	-0.182
-308.895	-132.711	0.113	-0.015
-307.880	62.156	-0.290	0.290
-306.866	-13.824	0.076	-0.049
-305.851	-200.000	0.017	0.138
-304.837	-200.000	-0.009	0.218
-303.822	-84.234	-0.093	0.030
-302.807	-127.870	-0.268	0.039
-301.793	-91.575	0.098	0.028
-300.778	-74.779	0.452	0.162
-299.764	-200.000	0.071	0.353
-298.749	329.369	0.066	0.127
-297.735	383.879	0.108	-0.223
-296.720	270.676	-0.192	-0.338
-295.705	800.000	0.011	0.035
-294.691	253.313	0.103	0.176
-293.676	800.000	0.009	-0.029
-292.662	-10.516	-0.172	-0.114
-291.647	-130.658	-0.071	0.010
-290.632	164.275	0.084	-0.119
-289.618	-38.250	0.390	0.207
-288.603	148.887	-0.198	-0.268
-287.589	-200.000	-0.046	0.266
-286.574	-86.818	0.126	-0.039
-285.559	8.694	-0.053	-0.040
-284.545	-85.738	-0.082	-0.026
-283.530	-200.000	0.004	0.257
-282.516	61.610	-0.134	-0.134
-281.501	156.584	0.166	-0.230
-280.486	-68.267	-0.111	-0.043
-279.472	274.110	0.047	0.083
-278.457	-110.419	-0.410	-0.085
-277.443	29.760	0.150	-0.128
-276.428	232.947	-0.160	-0.262
-275.413	180.284	0.089	0.130
-274.399	314.042	-0.012	-0.023
-273.384	-160.043	0.199	0.011
-272.370	-150.579	0.089	0.007
-271.355	-133.354	-0.126	0.016
-270.340	-44.157	0.109	-0.055
-269.326	-25.751	0.147	-0.087
-268.311	67.563	0.222	0.227
-267.297	799.968	-0.056	-0.154
-266.282	-200.000	0.000	0.084
-265.267	-56.755	-0.191	-0.084
-264.253	215.407	0.103	-0.164
-263.238	-32.180	0.090	-0.050
-262.224	564.343	0.068	0.166
-261.209	159.779	-0.100	-0.140
-260.195	361.283	-0.132	-0.264
-259.180	71.276	-0.043	-0.044
-258.165	800.000	-0.043	0.126
-257.151	-26.010	0.103	-0.061
-256.136	800.000	0.066	0.275
-255.122	33.191	-0.091	-0.079
-254.107	-48.875	-0.303	-0.145
-253.092	269.643	0.092	-0.162
-252.078	-138.581	-0.036	-0.004
-251.063	800.000	-0.074	-0.250
-250.049	-20.678	0.033	0.020
-249.034	183.870	0.104	-0.154
-248.019	-161.692	-0.175	0.009
-247.005	-34.646	0.154	0.084
-245.990	-200.000	-0.005	0.043
-244.976	339.799	-0.145	-0.282
-243.961	82.973	0.039	0.043
-242.946	-150.240	-0.137	0.011
-241.932	-121.262	-0.236	-0.039
-240.917	492.668	0.038	0.087
-239.903	509.309	-0.091	-0.211
-238.888	800.000	0.018	0.066
-237.873	-200.000	-0.005	-0.221
-236.859	-160.760	0.251	-0.013
-235.844	90.936	-0.058	-0.065
-234.830	-108.508	-0.522	0.112
-233.815	-200.000	-0.003	-0.112
-232.800	88.226	-0.061	0.067
-231.786	-43.128	0.170	-0.086
-230.771	-63.407	-0.178	-0.073
-229.757	-200.000	-0.039	-0.409
-228.742	-51.642	-0.099	-0.046
-227.727	800.000	-0.042	0.130
-226.713	108.103	-0.163	0.194
-225.698	37.787	-0.145	-0.129
-224.684	607.984	-0.054	0.134
-223.669	-70.983	0.120	0.045
-222.655	187.092	0.095	0.141
-221.640	-200.000	-0.016	-0.192
-220.625	332.097	-0.078	-0.149
-219.611	-62.393	-0.282	-0.117
-218.596	-200.000	-0.012	0.090
-217.582	-86.477	-0.332	0.102
-216.567	-141.507	-0.360	-0.036
-215.552	-25.186	0.146	-0.086
-214.538	67.570	0.119	0.121
-213.523	78.950	0.282	0.302
-212.509	-132.312	0.301	-0.039
-211.494	345.806	-0.037	0.072
-210.479	-200.000	0.010	0.120
-209.465	415.128	-0.027	-0.058
-208.450	-12.989	-0.076	0.050
-207.436	52.039	0.168	0.159
-206.421	-49.765	0.242	-0.115
-205.406	-131.786	0.201	0.026
-204.392	800.000	-0.073	-0.264
-203.377	-200.000	0.012	-0.119
-202.363	-127.021	0.317	0.046
-201.348	339.078	-0.130	-0.252
-200.333	-200.000	-0.025	0.130
-199.319	-200.000	-0.035	0.255
-198.304	139.279	0.099	-0.130
-197.290	800.000	-0.018	-0.064
-196.275	22.503	-0.264	0.215
-195.260	-160.398	0.260	-0.014
-194.246	10.862	-0.143	0.109
-193.231	-160.683	0.215	-0.011
-192.217	800.000	-0.038	0.129
-191.202	55.116	-0.198	0.191
-190.187	800.000	-0.090	0.320
-189.173	153.749	-0.152	0.208
-188.158	8.915	0.143	-0.108
-187.144	-55.029	0.101	-0.045
-186.129	148.095	-0.188	0.253
-185.114	-138.831	-0.139	-0.015
-184.100	75.493	0.059	-0.062
-183.085	619.201	-0.066	0.166
-182.071	800.000	-0.106	0.330
-181.056	-200.000	-0.024	-0.194
-180.042	-79.796	0.289	-0.097
-179.027	-134.555	0.483	-0.059
-178.012	422.697	-0.154	0.329
-176.998	-180.665	-0.262	0.005
-175.983	-200.000	0.074	-0.387
-174.969	-99.446	-0.190	0.048
-173.954	41.840	0.116	0.105
-172.939	11.464	-0.366	0.279
-171.925	-200.000	0.003	-0.096
-170.910	-53.709	0.396	0.180
-169.896	-44.017	0.197	-0.099
-168.881	-200.000	-0.021	0.242
-167.866	-149.412	0.213	-0.017
-166.852	-111.907	0.219	0.044
-165.837	-53.998	-0.138	0.062
-164.823	58.312	0.273	0.267
-163.808	136.934	0.238	-0.310
-162.793	-84.742	0.272	0.085
-161.779	-200.000	-0.002	0.059
-160.764	-200.000	0.007	0.232
-159.750	-82.635	0.023	0.007
-158.735	44.762	-0.167	0.153
-157.720	-107.709	0.090	-0.020
-156.706	279.307	-0.055	-0.098
-155.691	-200.000	0.018	-0.380
-154.677	-200.000	0.008	0.107
-153.662	-140.182	0.060	0.006
-152.647	-50.216	0.079	0.037
-151.633	245.288	-0.041	-0.068
-150.618	800.000	-0.104	-0.320
-149.604	-126.854	-0.344	0.050
-148.589	-48.550	0.258	0.124
-147.574	50.383	0.369	-0.347
-146.560	-200.000	0.010	-0.318
-145.545	198.904	-0.129	-0.197
-144.531	-8.059	0.285	0.191
-143.516	-94.437	-0.165	0.045
-142.502	-200.000	-0.002	-0.069
-141.487	-60.236	0.224	0.095
-140.472	-200.000	-0.002	-0.132
-139.458	800.000	0.042	-0.154
-138.443	63.819	0.133	-0.133
-137.429	-47.266	-0.223	0.108
-136.414	145.928	-0.055	0.073
-135.399	800.000	-0.102	0.433
-134.385	-124.370	-0.413	0.064
-133.370	-141.412	0.240	0.024
-132.356	-200.000	-0.003	-0.044
-131.341	149.326	-0.261	0.351
-130.326	95.530	0.235	-0.266
-129.312	-200.000	-0.010	-0.094
-128.297	152.613	0.097	0.131
-127.283	-127.331	0.140	0.020
-126.268	115.518	-0.046	0.056
-125.253	-119.955	-0.180	-0.031
-124.239	-200.000	0.031	0.245
-123.224	-63.469	0.241	-0.098
