DTS Sentinel unit serial number:	SN413079Multiplexer serial number:	ORYXHardware model number:	OX4-SRSoftware version number:	ORYX F/W v4.00 Oryx Data Collector v3.7.2.0data status	okinstallation	princeton_trtdifferential loss correction	single-endedforward channel	channel 3reverse channel	N/Adate	2019/09/14time	00:52:35forward acquisition time	60.00reverse acquisition time	0.00gamma	496.2192k internal	0.2340k external	0.2340temperature offset calibration	1.0054default loss term (dB/km)	0.3790temperature slope calibration	1.0000multiplexer offset coefficient	1.0000multiplexer slope coefficient	1.0000fibre end	0.00T internal ref (°C)	26.39T ext. ref 1 (°C)	3.19T ext. ref 2 (°C)	21.20length (m)	temperature (°C)	Stokes	anti-Stokes-747.200	800.000	-0.108	-0.403
-746.185	-30.774	-0.258	0.146
-745.171	-200.000	-0.036	0.232
-744.156	-15.463	-0.195	0.125
-743.142	-57.357	0.398	-0.175
-742.127	-5.029	-0.133	0.092
-741.112	125.691	-0.148	0.187
-740.098	-39.185	-0.167	-0.088
-739.083	-1.107	-0.067	-0.047
-738.069	143.833	-0.084	-0.113
-737.054	86.924	-0.194	0.215
-736.039	-46.431	-0.320	-0.157
-735.025	153.991	-0.141	-0.194
-734.010	10.910	0.015	0.011
-732.996	210.908	-0.189	0.297
-731.981	-200.000	-0.032	-0.440
-730.966	36.142	-0.072	-0.064
-729.952	32.933	-0.140	-0.122
-728.937	58.234	-0.127	-0.124
-727.923	-200.000	-0.012	-0.137
-726.908	83.878	-0.184	-0.201
-725.894	-200.000	0.009	-0.264
-724.879	-90.558	-0.333	0.097
-723.864	237.653	-0.124	-0.207
-722.850	142.231	-0.037	0.050
-721.835	791.708	-0.058	-0.160
-720.821	800.000	0.108	-0.350
-719.806	-133.161	-0.200	-0.025
-718.791	-200.000	-0.011	-0.057
-717.777	-96.512	0.293	0.078
-716.762	248.056	-0.064	-0.108
-715.748	700.813	0.111	-0.294
-714.733	-9.180	0.521	-0.349
-713.718	133.749	-0.225	-0.292
-712.704	-1.083	-0.118	-0.084
-711.689	-109.515	0.129	0.027
-710.675	-69.998	0.279	-0.107
-709.660	55.376	-0.182	0.176
-708.645	-78.193	-0.223	-0.077
-707.631	800.000	-0.020	0.081
-706.616	-115.681	-0.416	0.078
-705.602	387.138	0.082	0.169
-704.587	41.226	0.085	0.077
-703.572	90.448	0.138	-0.154
-702.558	-200.000	0.050	-0.264
-701.543	-64.245	0.116	-0.047
-700.529	-200.000	0.009	0.145
-699.514	-99.924	0.141	-0.035
-698.499	19.670	-0.368	0.296
-697.485	-88.997	0.274	-0.081
-696.470	-16.792	0.136	-0.086
-695.456	187.665	0.129	-0.193
-694.441	470.626	0.070	-0.158
-693.426	-54.502	-0.105	-0.047
-692.412	50.685	-0.046	-0.043
-691.397	-200.000	-0.003	-0.149
-690.383	-200.000	0.026	-0.212
-689.368	-200.000	0.025	-0.310
-688.354	410.614	0.005	-0.010
-687.339	298.242	0.097	0.179
-686.324	-67.391	0.189	0.074
-685.310	339.244	-0.083	-0.163
-684.295	-63.389	0.138	0.057
-683.281	-146.887	-0.157	0.014
-682.266	30.821	0.164	-0.141
-681.251	65.193	-0.206	-0.208
-680.237	126.352	-0.125	0.158
-679.222	308.549	0.058	0.109
-678.208	598.702	0.079	-0.195
-677.193	98.872	-0.160	-0.185
-676.178	-31.435	-0.401	0.225
-675.164	97.147	0.115	-0.132
-674.149	-200.000	-0.014	0.375
-673.135	370.804	-0.131	0.265
-672.120	-200.000	-0.053	0.248
-671.105	-140.587	-0.133	-0.014
-670.091	25.926	-0.188	-0.157
-669.076	-200.000	-0.056	-0.395
-668.062	-200.000	0.025	-0.162
-667.047	230.212	0.097	0.158
-666.032	-153.042	-0.094	0.007
-665.018	-200.000	0.033	0.258
-664.003	-124.975	0.215	-0.033
-662.989	165.985	0.045	-0.064
-661.974	-18.806	-0.023	-0.014
-660.959	-8.667	0.273	-0.183
-659.945	-123.476	-0.053	0.008
-658.930	33.932	-0.102	-0.088
-657.916	256.157	-0.042	0.071
-656.901	-200.000	-0.004	0.170
-655.886	36.775	0.290	0.256
-654.872	800.000	-0.076	-0.281
-653.857	-200.000	0.010	-0.217
-652.843	11.891	0.024	-0.018
-651.828	800.000	0.138	-0.411
-650.814	-125.091	0.094	-0.014
-649.799	-135.799	-0.252	-0.030
-648.784	232.239	-0.020	-0.034
-647.770	325.806	-0.137	0.261
-646.755	-196.699	-0.152	-0.001
-645.741	136.437	0.084	-0.109
-644.726	-200.000	-0.007	0.219
-643.711	142.976	-0.277	0.368
-642.697	-200.000	-0.008	-0.262
-641.682	-136.942	-0.304	0.035
-640.668	126.974	-0.161	0.203
-639.653	114.662	0.217	0.264
-638.638	491.941	-0.107	0.245
-637.624	-7.952	-0.178	0.120
-636.609	800.000	0.134	-0.427
-635.595	23.594	-0.223	0.183
-634.580	-64.506	-0.063	0.026
-633.565	181.357	-0.010	-0.015
-632.551	171.958	0.099	-0.141
-631.536	-37.218	-0.205	-0.109
-630.522	-66.745	0.245	-0.097
-629.507	171.599	0.012	0.017
-628.492	800.000	-0.108	0.360
-627.478	279.138	-0.083	0.148
-626.463	192.641	0.139	0.209
-625.449	800.000	-0.084	-0.238
-624.434	-84.645	0.080	0.025
-623.419	-150.668	0.075	-0.006
-622.405	-200.000	-0.045	0.231
-621.390	800.000	-0.017	0.063
-620.376	389.887	0.147	0.305
-619.361	-7.560	0.066	-0.044
-618.346	-88.573	-0.163	0.048
-617.332	-192.789	0.040	-0.000
-616.317	800.000	-0.035	0.145
-615.303	289.732	-0.123	0.223
-614.288	-200.000	-0.011	0.310
-613.273	161.813	0.056	-0.078
-612.259	-200.000	0.035	-0.296
-611.244	516.482	-0.039	-0.091
-610.230	484.767	-0.043	-0.098
-609.215	-78.752	-0.221	0.075
-608.201	800.000	0.086	-0.250
-607.186	108.848	0.115	-0.137
-606.171	610.276	-0.180	0.449
-605.157	-96.682	0.191	-0.050
-604.142	-35.512	0.069	-0.037
-603.128	45.077	0.308	0.282
-602.113	604.698	0.073	-0.182
-601.098	98.947	-0.090	0.104
-600.084	306.251	0.066	0.122
-599.069	363.616	0.079	-0.159
-598.055	-150.909	-0.137	-0.010
-597.040	-129.875	-0.052	0.007
-596.025	151.620	0.136	0.185
-595.011	-200.000	-0.006	0.082
-593.996	-200.000	-0.048	0.225
-592.982	-200.000	-0.005	0.050
-591.967	-200.000	0.065	-0.293
-590.952	-135.377	0.115	0.014
-589.938	147.220	0.118	-0.158
-588.923	-108.354	-0.013	-0.003
-587.909	40.594	-0.078	-0.070
-586.894	-71.392	0.275	0.103
-585.879	186.100	-0.137	0.203
-584.865	57.159	0.098	0.096
-583.850	5.121	-0.288	-0.211
-582.836	99.762	-0.093	0.107
-581.821	-122.697	-0.129	-0.021
-580.806	94.566	-0.171	0.193
-579.792	72.150	0.126	-0.131
-578.777	-118.862	0.196	0.034
-577.763	-104.174	-0.106	0.025
-576.748	80.097	0.176	0.189
-575.733	726.919	0.033	0.087
-574.719	-164.597	-0.327	0.015
-573.704	800.000	0.036	0.137
-572.690	106.354	-0.059	0.070
-571.675	61.514	0.163	-0.161
-570.661	46.665	-0.148	-0.137
-569.646	-56.706	0.238	-0.105
-568.631	369.129	0.102	0.206
-567.617	-30.216	0.229	0.130
-566.602	800.000	-0.044	0.175
-565.588	-43.887	-0.076	-0.038
-564.573	-34.114	0.310	0.170
-563.558	-120.715	-0.104	0.018
-562.544	218.167	-0.100	-0.159
-561.529	-200.000	0.029	-0.191
-560.515	-132.703	-0.177	0.023
-559.500	64.565	-0.047	-0.047
-558.485	-200.000	-0.007	-0.050
-557.471	-200.000	0.002	0.332
-556.456	-61.005	0.072	-0.030
-555.442	800.000	0.065	0.218
-554.427	-32.558	-0.154	0.085
-553.412	-109.894	-0.159	-0.033
-552.398	80.259	0.351	-0.376
-551.383	800.000	0.001	-0.005
-550.369	-200.000	0.040	-0.210
-549.354	22.669	0.120	-0.098
-548.339	-200.000	-0.010	0.083
-547.325	18.592	-0.174	-0.139
-546.310	-160.898	-0.282	-0.015
-545.296	46.356	0.086	0.079
-544.281	109.118	-0.054	-0.065
-543.266	-72.235	-0.191	-0.070
-542.252	-171.051	-0.253	0.009
-541.237	9.244	0.163	0.122
-540.223	193.120	-0.282	-0.424
-539.208	533.124	-0.075	-0.176
-538.193	-32.285	-0.363	0.202
-537.179	121.940	-0.093	0.115
-536.164	638.667	0.193	-0.488
-535.150	-154.944	-0.177	0.012
-534.135	-67.152	-0.339	-0.133
-533.121	-57.337	-0.076	-0.033
-532.106	60.163	0.189	0.186
-531.091	710.105	-0.061	0.159
-530.077	-200.000	-0.016	0.074
-529.062	39.289	-0.199	-0.177
-528.048	-6.353	0.330	0.224
-527.033	-32.344	-0.175	0.097
-526.018	138.331	0.188	0.245
-525.004	6.743	0.190	0.140
-523.989	-47.676	-0.207	-0.100
-522.975	-85.149	-0.148	0.046
-521.960	77.205	0.032	0.034
-520.945	124.109	0.087	-0.109
-519.931	283.215	0.125	0.223
-518.916	609.382	0.067	0.167
-517.902	476.582	-0.135	0.304
-516.887	100.923	-0.129	0.150
-515.872	214.880	0.167	0.263
-514.858	800.000	0.057	0.215
-513.843	474.328	0.108	-0.243
-512.829	-200.000	0.069	-0.351
-511.814	-56.954	0.208	-0.091
-510.799	59.183	-0.194	-0.190
-509.785	129.912	-0.089	0.113
-508.770	137.087	0.057	0.074
-507.756	66.527	0.065	0.066
-506.741	-46.754	-0.269	-0.131
-505.726	-200.000	-0.008	0.150
-504.712	-7.016	0.218	-0.147
-503.697	611.388	0.136	0.339
-502.683	417.826	0.115	-0.244
-501.668	-16.933	0.090	-0.056
-500.653	-200.000	-0.016	-0.317
-499.639	219.035	0.052	-0.082
-498.624	-145.985	-0.286	0.025
-497.610	-61.613	-0.226	-0.094
-496.595	16.848	-0.053	-0.041
-495.581	-200.000	0.042	-0.236
-494.566	39.947	-0.080	0.071
-493.551	122.410	0.026	-0.032
-492.537	-6.219	0.035	-0.024
-491.522	276.404	0.088	-0.155
-490.508	-146.051	0.406	-0.036
-489.493	-66.915	-0.316	0.124
-488.478	20.312	0.316	0.253
-487.464	800.000	0.058	-0.160
-486.449	-200.000	0.015	0.196
-485.435	224.834	-0.162	0.260
-484.420	82.193	0.242	0.260
-483.405	-117.122	-0.193	0.035
-482.391	138.640	0.165	0.215
-481.376	-200.000	0.015	-0.146
-480.362	51.866	-0.080	-0.076
-479.347	21.212	-0.038	-0.031
-478.332	106.130	0.164	0.192
-477.318	282.863	0.108	0.193
-476.303	800.000	0.074	0.287
-475.289	-29.840	-0.285	0.161
-474.274	-75.344	-0.175	0.062
-473.259	-36.102	-0.172	-0.092
-472.245	59.974	-0.063	0.061
-471.230	42.126	0.288	0.259
-470.216	-14.568	0.165	-0.105
-469.201	800.000	0.058	0.187
-468.186	-200.000	0.044	0.342
-467.172	504.487	-0.042	-0.096
-466.157	-130.843	-0.090	-0.012
-465.143	135.553	-0.156	-0.201
-464.128	800.000	0.081	-0.258
-463.113	351.371	0.140	-0.274
-462.099	800.000	0.088	-0.333
-461.084	800.000	-0.021	0.079
-460.070	-200.000	0.042	-0.254
-459.055	-63.840	-0.435	0.177
-458.040	-68.833	-0.089	-0.034
-457.026	164.751	0.100	-0.139
-456.011	251.428	-0.107	0.181
-454.997	69.168	0.150	0.152
-453.982	-29.495	0.415	-0.235
-452.968	-159.309	0.079	0.004
-451.953	26.785	0.217	-0.180
-450.938	142.682	-0.155	0.204
-449.924	-200.000	0.023	0.291
-448.909	-87.306	0.264	0.080
-447.895	-26.352	-0.214	-0.125
-446.880	156.518	0.070	-0.096
-445.865	241.370	0.177	0.292
-444.851	104.769	0.034	0.040
-443.836	-68.735	0.066	0.025
-442.822	-200.000	0.057	-0.256
-441.807	-77.679	0.125	-0.043
-440.792	147.198	-0.155	-0.206
-439.778	222.284	-0.144	-0.229
-438.763	-176.424	-0.558	-0.014
-437.749	22.903	0.098	-0.080
-436.734	-91.384	-0.155	-0.044
-435.719	-117.470	-0.210	-0.038
-434.705	38.620	-0.062	-0.054
-433.690	334.164	-0.215	-0.413
-432.676	119.138	0.137	0.168
-431.661	800.000	-0.029	0.089
-430.646	-20.133	-0.296	-0.181
-429.632	-90.647	0.375	0.107
-428.617	389.252	-0.058	-0.119
-427.603	-43.328	-0.168	0.084
-426.588	-165.700	0.359	-0.015
-425.573	800.000	-0.109	0.329
-424.559	-200.000	-0.009	-0.138
-423.544	-200.000	-0.003	-0.185
-422.530	800.000	0.105	0.344
-421.515	326.109	0.131	-0.248
-420.500	-131.273	0.257	0.034
-419.486	-97.172	-0.161	0.042
-418.471	227.468	0.184	-0.297
-417.457	-80.839	-0.301	-0.099
-416.442	-7.187	-0.199	0.133
-415.428	-200.000	0.014	-0.178
-414.413	-80.795	0.091	0.030
-413.398	-39.618	0.167	-0.086
-412.384	-104.619	0.109	0.025
-411.369	-20.399	0.089	-0.054
-410.355	18.624	-0.114	-0.090
-409.340	-200.000	-0.078	-0.387
-408.325	92.482	-0.122	0.136
-407.311	96.561	-0.104	-0.118
-406.296	800.000	-0.055	-0.194
-405.282	-29.630	-0.187	0.106
-404.267	-73.991	-0.315	0.113
-403.252	-107.384	0.077	-0.017
-402.238	800.000	0.009	0.031
-401.223	515.047	0.072	0.167
-400.209	418.976	-0.090	0.190
-399.194	122.288	0.181	-0.223
-398.179	14.874	-0.071	-0.055
-397.165	30.666	0.140	0.119
-396.150	-175.913	0.296	0.008
-395.136	-200.000	0.023	-0.399
-394.121	-107.996	0.390	0.084
-393.106	21.214	0.123	-0.099
-392.092	-31.653	-0.123	0.068
-391.077	67.892	-0.020	0.020
-390.063	59.255	-0.130	0.127
-389.048	800.000	0.087	-0.275
-388.033	95.640	-0.142	-0.161
-387.019	239.093	-0.079	0.130
-386.004	800.000	-0.081	-0.342
-384.990	800.000	0.040	0.157
-383.975	183.286	0.087	0.127
-382.960	-200.000	-0.037	-0.191
-381.946	-200.000	0.025	-0.187
-380.931	-112.558	0.236	-0.046
-379.917	132.072	-0.074	-0.094
-378.902	214.540	0.113	-0.177
-377.888	-200.000	-0.004	-0.100
-376.873	-181.169	0.504	-0.010
-375.858	-200.000	-0.019	0.093
-374.844	-98.203	0.198	0.050
-373.829	133.665	0.112	-0.143
-372.815	-93.506	0.155	0.042
-371.800	800.000	-0.052	-0.192
-370.785	-200.000	-0.018	0.203
-369.771	-200.000	0.045	0.265
-368.756	39.126	-0.205	-0.181
-367.742	-4.105	-0.231	-0.158
-366.727	211.366	-0.162	0.252
-365.712	447.960	0.070	-0.153
-364.698	-121.117	-0.408	0.068
-363.683	-122.681	-0.119	0.019
-362.669	107.857	0.130	-0.153
-361.654	163.014	0.094	0.131
-360.639	-38.818	-0.039	-0.020
-359.625	-92.211	0.246	-0.069
-358.610	-200.000	0.029	-0.210
-357.596	-121.596	0.209	-0.034
-356.581	800.000	0.019	0.059
-355.566	-58.056	0.101	-0.044
-354.552	-58.329	-0.375	-0.161
-353.537	406.042	0.128	-0.267
-352.523	-32.375	-0.162	-0.089
-351.508	-114.201	0.127	-0.024
-350.493	800.000	0.061	-0.264
-349.479	-165.440	-0.415	0.018
-348.464	41.694	-0.200	0.179
-347.450	-200.000	-0.043	0.401
-346.435	276.741	-0.199	0.350
-345.420	144.509	0.082	0.108
-344.406	-47.397	0.193	-0.092
-343.391	195.741	-0.208	0.312
-342.377	-197.486	0.078	0.000
-341.362	-200.000	-0.004	0.075
-340.348	-129.004	0.250	-0.035
-339.333	-126.416	-0.126	0.018
-338.318	-57.393	0.063	-0.027
-337.304	-132.935	-0.057	-0.007
-336.289	3.778	-0.183	-0.132
-335.275	-116.654	-0.419	0.076
-334.260	150.196	-0.096	-0.129
-333.245	800.000	0.085	-0.320
-332.231	-85.047	0.169	-0.052
-331.216	117.444	0.128	0.156
-330.202	-200.000	-0.020	-0.130
-329.187	-90.178	0.209	0.060
-328.172	-116.132	-0.129	-0.024
-327.158	34.531	0.167	-0.144
-326.143	-26.047	-0.168	0.098
-325.129	-120.060	0.256	0.043
-324.114	-200.000	0.011	0.080
-323.099	800.000	-0.039	0.131
-322.085	-23.129	-0.124	-0.074
-321.070	10.132	-0.293	0.220
-320.056	-61.666	0.109	0.045
-319.041	-200.000	-0.029	0.161
-318.026	101.461	0.217	-0.250
-317.012	94.138	-0.082	0.092
-315.997	800.000	-0.115	0.398
-314.983	46.785	0.252	-0.231
-313.968	-47.548	-0.264	0.126
-312.953	-200.000	0.015	-0.132
-311.939	-55.224	0.241	0.107
-310.924	-68.729	-0.322	-0.123
-309.910	-32.572	0.254	-0.139
-308.895	800.000	0.037	-0.138
-307.880	-61.831	0.159	-0.066
-306.866	-200.000	-0.023	-0.123
-305.851	105.630	-0.078	-0.091
-304.837	-89.397	0.209	0.061
-303.822	-113.183	-0.149	0.029
-302.807	91.215	-0.147	-0.162
-301.793	240.524	-0.335	0.551
-300.778	-19.469	-0.266	0.162
-299.764	114.195	-0.118	0.141
-298.749	261.718	-0.066	0.113
-297.735	-200.000	-0.199	-0.000
-296.720	86.143	0.146	-0.158
-295.705	800.000	-0.030	-0.114
-294.691	132.369	0.186	0.237
-293.676	170.666	-0.055	0.077
-292.662	-128.848	0.311	-0.043
-291.647	81.739	-0.271	0.289
-290.632	-122.744	0.348	0.055
-289.618	372.776	0.127	-0.254
-288.603	800.000	-0.018	0.057
-287.589	171.105	0.121	0.171
-286.574	221.407	-0.050	-0.080
-285.559	-200.000	0.011	0.140
-284.545	366.017	0.060	-0.119
-283.530	-24.848	0.066	-0.039
-282.516	-94.411	-0.119	0.032
-281.501	-117.835	-0.287	0.051
-280.486	17.223	0.173	-0.135
-279.472	-20.595	0.097	0.059
-278.457	295.884	-0.091	0.165
-277.443	324.324	0.200	-0.375
-276.428	192.851	-0.120	0.179
-275.413	167.758	0.169	-0.236
-274.399	-200.000	-0.034	-0.172
-273.384	-38.740	0.062	0.032
-272.370	800.000	0.014	0.054
-271.355	800.000	-0.073	-0.269
-270.340	-200.000	0.029	-0.212
-269.326	800.000	0.136	-0.431
-268.311	-200.000	-0.069	-0.432
-267.297	800.000	0.034	-0.125
-266.282	199.217	0.277	0.418
-265.267	-200.000	-0.000	0.063
-264.253	304.170	-0.091	-0.166
-263.238	2.428	0.190	0.135
-262.224	-129.454	0.175	0.024
-261.209	175.786	0.136	-0.194
-260.195	332.449	-0.224	0.426
-259.180	-184.426	-0.220	-0.004
-258.165	281.815	0.139	-0.246
-257.151	-200.000	-0.030	0.178
-256.136	-200.000	0.042	0.281
-255.122	16.091	0.108	0.084
-254.107	177.289	-0.078	-0.112
-253.092	-200.000	-0.016	-0.117
-252.078	-90.534	-0.315	-0.090
-251.063	800.000	-0.029	0.121
-250.049	-54.184	0.357	0.160
-249.034	283.726	0.157	-0.278
-248.019	-115.897	0.078	-0.014
-247.005	225.893	0.053	0.084
-245.990	800.000	0.055	-0.227
-244.976	2.772	-0.097	-0.069
-243.961	-162.244	-0.207	-0.010
-242.946	-200.000	-0.020	0.412
-241.932	-127.105	0.153	0.022
-240.917	800.000	-0.104	0.301
-239.903	-200.000	0.001	-0.029
-238.888	635.514	-0.094	0.235
-237.873	-111.881	-0.318	0.063
-236.859	-84.641	0.208	0.064
-235.844	-200.000	-0.039	-0.380
-234.830	18.696	-0.096	-0.075
-233.815	421.407	-0.095	-0.201
-232.800	800.000	0.060	0.253
-231.786	594.867	0.117	0.284
-230.771	-200.000	0.018	-0.129
-229.757	-108.076	-0.223	0.048
-228.742	-135.866	0.249	-0.029
-227.727	136.605	-0.085	-0.109
-226.713	-200.000	0.015	-0.089
-225.698	399.150	0.057	0.117
-224.684	-70.257	0.317	0.118
-223.669	269.715	0.048	0.082
-222.655	-200.000	-0.089	0.423
-221.640	-0.417	-0.217	-0.151
-220.625	16.439	-0.438	-0.340
-219.611	-180.161	0.404	-0.008
-218.596	-200.000	0.037	0.182
-217.582	-200.000	-0.047	-0.225
-216.567	182.362	-0.087	0.127
-215.552	-14.934	0.080	0.050
-214.538	192.449	0.108	-0.160
-213.523	479.992	-0.213	0.475
-212.509	87.614	0.108	-0.118
-211.494	170.154	-0.152	-0.213
-210.479	191.005	-0.073	0.108
-209.465	630.738	0.067	0.166
-208.450	99.488	-0.129	-0.147
-207.436	-200.000	-0.008	-0.379
-206.421	67.303	0.283	-0.284
-205.406	-200.000	-0.024	-0.135
-204.392	53.721	0.014	-0.013
-203.377	800.000	0.075	-0.284
-202.363	5.238	0.191	0.138
-201.348	-200.000	-0.043	-0.192
-200.333	-9.557	-0.137	0.090
-199.319	-200.000	0.017	0.116
-198.304	-68.801	0.118	-0.045
-197.290	-200.000	-0.000	0.054
-196.275	265.742	0.125	0.214
-195.260	76.106	0.055	0.058
-194.246	36.454	0.456	0.395
-193.231	800.000	0.045	-0.139
-192.217	38.388	0.068	0.060
-191.202	197.632	0.155	-0.233
-190.187	-58.464	0.223	-0.095
-189.173	538.823	0.044	-0.102
-188.158	-102.273	-0.220	-0.052
-187.144	602.917	0.053	-0.129
-186.129	68.215	0.166	0.166
-185.114	-56.056	0.278	0.122
-184.100	86.398	-0.104	0.112
-183.085	-156.099	0.260	-0.016
-182.071	-3.697	-0.151	-0.103
-181.056	-89.812	0.322	-0.092
-180.042	-118.504	-0.320	-0.056
-179.027	-200.000	0.058	-0.251
-178.012	-55.659	-0.307	0.135
-176.998	256.840	0.060	0.101
-175.983	-95.340	-0.096	-0.025
-174.969	179.874	0.152	-0.218
-173.954	451.540	-0.090	-0.194
-172.939	-103.146	0.105	0.024
-171.925	-25.359	-0.093	0.054
-170.910	-50.824	0.362	-0.167
-169.896	-86.593	0.199	-0.060
-168.881	-171.355	0.224	0.007
-167.866	-36.790	-0.325	0.171
-166.852	97.207	0.040	0.045
-165.837	-82.303	0.026	0.008
-164.823	-150.543	0.286	-0.021
-163.808	800.000	-0.051	-0.142
-162.793	94.402	-0.050	0.055
-161.779	-47.239	-0.214	0.102
-160.764	265.783	-0.166	0.283
-159.750	800.000	-0.027	-0.102
-158.735	137.496	-0.065	-0.083
-157.720	-200.000	-0.033	0.238
-156.706	354.305	0.042	-0.082
-155.691	770.306	-0.138	-0.368
-154.677	-200.000	-0.043	-0.374
-153.662	-73.804	-0.184	0.066
-152.647	-43.121	-0.195	0.097
-151.633	-200.000	-0.015	-0.135
-150.618	-74.801	0.347	0.122
-149.604	-141.145	-0.142	-0.014
-148.589	110.312	0.085	-0.100
-147.574	227.267	-0.080	-0.128
-146.560	-200.000	0.039	0.258
-145.545	-105.823	-0.391	-0.087
-144.531	95.771	0.041	0.046
-143.516	-200.000	-0.109	0.552
-142.502	-63.474	-0.217	-0.087
-141.487	8.923	-0.164	-0.121
-140.472	-200.000	-0.011	0.275
-139.458	-128.154	0.400	0.056
-138.443	205.873	0.126	-0.192
-137.429	14.744	-0.234	0.179
-136.414	-200.000	0.072	0.398
-135.399	265.174	0.220	-0.376
-134.385	-70.323	0.171	0.063
-133.370	205.910	0.143	-0.217
-132.356	-81.616	-0.148	-0.048
-131.341	-155.971	-0.291	-0.018
-130.326	-152.129	0.312	-0.022
-129.312	-200.000	-0.035	0.195
-128.297	161.439	0.128	0.175
-127.283	65.989	0.202	0.200
-126.268	-200.000	0.081	0.432
-125.253	-118.302	0.227	0.040
-124.239	422.745	-0.092	0.194
-123.224	-200.000	-0.033	0.220
-122.210	-1.966	-0.129	0.089
-121.195	234.210	0.153	-0.247
