DTS Sentinel unit serial number:	SN413079Multiplexer serial number:	ORYXHardware model number:	OX4-SRSoftware version number:	ORYX F/W v4.00 Oryx Data Collector v3.7.2.0data status	okinstallation	princeton_trtdifferential loss correction	single-endedforward channel	channel 3reverse channel	N/Adate	2019/09/17time	00:36:35forward acquisition time	60.00reverse acquisition time	0.00gamma	496.2192k internal	0.2324k external	0.2324temperature offset calibration	0.9941default loss term (dB/km)	0.3790temperature slope calibration	1.0000multiplexer offset coefficient	1.0000multiplexer slope coefficient	1.0000fibre end	0.00T internal ref (°C)	29.44T ext. ref 1 (°C)	0.10T ext. ref 2 (°C)	23.93length (m)	temperature (°C)	Stokes	anti-Stokes-747.200	378.002	0.175	0.361
-746.185	-52.906	-0.484	0.225
-745.171	18.330	-0.164	-0.132
-744.156	-78.092	0.102	0.036
-743.142	-117.713	-0.407	-0.074
-742.127	-200.000	0.000	-0.046
-741.112	800.000	-0.024	0.080
-740.098	78.553	0.063	0.068
-739.083	800.000	0.069	0.291
-738.069	-15.714	-0.181	-0.116
-737.054	352.723	0.142	0.284
-736.039	-188.786	-0.036	-0.000
-735.025	800.000	-0.017	-0.071
-734.010	-72.015	-0.122	0.046
-732.996	-200.000	-0.022	0.102
-731.981	-102.964	-0.358	-0.086
-730.966	800.000	0.061	0.238
-729.952	-100.103	-0.231	0.058
-728.937	-200.000	0.020	0.112
-727.923	-200.000	-0.044	0.290
-726.908	800.000	-0.054	0.162
-725.894	-60.205	-0.139	-0.060
-724.879	-200.000	0.021	0.206
-723.864	-105.636	-0.238	0.054
-722.850	-16.091	0.152	-0.097
-721.835	58.765	-0.166	-0.164
-720.821	-200.000	-0.010	0.057
-719.806	686.124	0.110	0.291
-718.791	194.087	-0.161	-0.245
-717.777	291.400	-0.077	0.140
-716.762	265.234	0.104	-0.183
-715.748	-113.923	0.208	-0.041
-714.733	-200.000	0.075	-0.358
-713.718	-11.530	-0.007	0.005
-712.704	800.000	-0.144	0.600
-711.689	-200.000	0.001	0.231
-710.675	-134.450	-0.174	-0.021
-709.660	558.839	0.091	0.221
-708.645	-48.492	-0.314	0.152
-707.631	-140.025	-0.357	-0.038
-706.616	3.783	-0.109	-0.080
-705.602	-10.830	-0.115	0.076
-704.587	-4.175	-0.143	-0.099
-703.572	-6.939	0.128	0.087
-702.558	-132.586	0.098	0.013
-701.543	-116.707	0.139	-0.026
-700.529	89.151	-0.177	-0.198
-699.514	800.000	-0.025	0.095
-698.499	-61.794	0.257	0.108
-697.485	68.684	0.137	0.142
-696.470	-43.045	-0.149	0.076
-695.456	-200.000	-0.004	0.236
-694.441	270.810	0.041	-0.073
-693.426	-79.547	0.451	0.153
-692.412	38.541	-0.167	-0.150
-691.397	-125.402	-0.111	-0.017
-690.383	-200.000	-0.009	-0.223
-689.368	106.189	0.158	-0.188
-688.354	-18.908	0.262	0.164
-687.339	225.420	-0.185	0.301
-686.324	433.403	-0.053	0.116
-685.310	-41.495	0.194	0.100
-684.295	6.472	-0.151	0.113
-683.281	-200.000	-0.024	0.121
-682.266	-200.000	-0.015	-0.245
-681.251	13.625	-0.191	0.149
-680.237	-200.000	-0.009	0.065
-679.222	183.174	-0.066	-0.099
-678.208	550.165	0.064	0.155
-677.193	293.487	-0.184	0.338
-676.178	70.511	-0.173	0.180
-675.164	-200.000	0.016	0.164
-674.149	-93.127	0.143	0.040
-673.135	-134.367	0.228	-0.028
-672.120	800.000	-0.028	0.109
-671.105	-200.000	0.012	-0.066
-670.091	-8.466	-0.335	-0.227
-669.076	127.741	0.046	0.059
-668.062	-111.560	0.079	-0.016
-667.047	-63.943	0.181	-0.075
-666.032	141.650	-0.194	-0.259
-665.018	-200.000	-0.005	-0.127
-664.003	-51.528	-0.030	0.014
-662.989	-99.912	0.113	0.028
-661.974	-200.000	-0.064	-0.360
-660.959	-102.057	0.141	-0.034
-659.945	-200.000	-0.034	0.169
-658.930	-158.750	0.373	-0.022
-657.916	94.585	-0.071	0.081
-656.901	-146.075	-0.117	0.010
-655.886	-111.326	-0.212	0.043
-654.872	-200.000	0.013	-0.355
-653.857	-143.886	-0.127	-0.012
-652.843	-200.000	0.025	0.207
-651.828	79.290	-0.081	-0.087
-650.814	15.633	-0.378	-0.299
-649.799	99.647	-0.193	0.225
-648.784	-200.000	-0.097	-0.500
-647.770	-69.031	0.179	-0.069
-646.755	309.575	-0.153	0.287
-645.741	800.000	-0.116	0.367
-644.726	-107.209	-0.286	-0.063
-643.711	-200.000	-0.003	0.075
-642.697	-183.310	0.160	-0.003
-641.682	-174.408	0.220	-0.006
-640.668	106.441	-0.252	-0.300
-639.653	-200.000	-0.013	-0.380
-638.638	-53.897	-0.331	0.152
-637.624	-200.000	0.024	-0.326
-636.609	512.861	0.140	0.327
-635.595	-165.558	-0.258	0.011
-634.580	-124.884	-0.398	-0.062
-633.565	-53.201	-0.159	0.074
-632.551	342.704	-0.052	0.102
-631.536	133.621	-0.169	-0.219
-630.522	800.000	-0.028	-0.101
-629.507	800.000	0.100	-0.280
-628.492	800.000	-0.061	0.183
-627.478	-116.171	0.281	-0.052
-626.463	-135.921	-0.085	0.010
-625.449	133.682	0.169	0.220
-624.434	-165.101	-0.060	0.003
-623.419	63.160	0.280	-0.282
-622.405	73.525	0.109	-0.115
-621.390	-200.000	-0.008	0.304
-620.376	-125.294	-0.279	-0.043
-619.361	22.425	0.200	-0.165
-618.346	671.198	0.060	-0.157
-617.332	-200.000	-0.035	-0.245
-616.317	434.307	-0.150	0.328
-615.303	800.000	-0.052	0.230
-614.288	292.119	-0.107	0.196
-613.273	-200.000	-0.013	-0.086
-612.259	-200.000	-0.011	-0.162
-611.244	84.300	-0.218	-0.239
-610.230	-200.000	0.018	0.153
-609.215	73.787	0.224	-0.236
-608.201	82.591	-0.169	0.184
-607.186	-200.000	0.019	0.139
-606.171	366.814	0.078	0.157
-605.157	792.411	0.057	-0.157
-604.142	42.720	-0.054	0.049
-603.128	-112.939	-0.418	-0.083
-602.113	-74.337	0.255	-0.092
-601.098	246.946	0.208	-0.353
-600.084	156.940	-0.210	-0.292
-599.069	740.051	-0.029	0.077
-598.055	-10.705	0.165	0.110
-597.040	418.423	-0.169	-0.363
-596.025	-200.000	0.055	-0.496
-595.011	-20.660	-0.330	0.203
-593.996	133.485	0.059	-0.077
-592.982	288.902	0.231	0.420
-591.967	44.102	-0.188	-0.173
-590.952	541.026	0.102	-0.243
-589.938	-72.477	-0.108	-0.040
-588.923	58.202	0.121	-0.119
-587.909	253.642	0.096	-0.165
-586.894	-142.319	-0.148	0.015
-585.879	-77.923	-0.205	0.071
-584.865	20.434	0.335	0.272
-583.850	800.000	0.064	-0.223
-582.836	-200.000	0.005	0.147
-581.821	-35.255	-0.174	0.095
-580.806	-37.539	0.310	0.166
-579.792	560.629	0.167	-0.405
-578.777	800.000	0.066	-0.191
-577.763	11.185	-0.113	-0.087
-576.748	-46.158	-0.213	0.105
-575.733	19.161	0.214	0.172
-574.719	166.692	0.117	0.167
-573.704	-116.740	0.258	-0.047
-572.690	-154.374	0.280	0.019
-571.675	-173.638	-0.178	0.005
-570.661	74.450	0.112	0.118
-569.646	125.725	-0.136	0.173
-568.631	12.205	0.022	-0.017
-567.617	76.023	-0.122	0.129
-566.602	48.043	0.241	-0.226
-565.588	-34.610	0.065	-0.035
-564.573	-200.000	0.017	0.147
-563.558	-35.593	0.131	-0.071
-562.544	199.309	-0.112	-0.172
-561.529	168.268	-0.212	-0.303
-560.515	548.038	0.047	-0.114
-559.500	49.262	0.105	0.098
-558.485	-55.154	0.147	0.066
-557.471	-135.196	-0.235	0.028
-556.456	-24.426	-0.005	-0.003
-555.442	434.421	-0.101	0.220
-554.427	800.000	0.134	0.387
-553.412	-9.928	0.223	-0.149
-552.398	305.125	-0.070	-0.131
-551.383	-62.493	0.219	0.091
-550.369	273.121	0.056	-0.098
-549.354	110.549	0.023	0.028
-548.339	-124.483	-0.103	0.016
-547.325	-200.000	-0.044	0.350
-546.310	142.795	-0.286	0.381
-545.296	-32.358	-0.170	-0.095
-544.281	-18.373	-0.212	0.133
-543.266	-200.000	-0.079	-0.380
-542.252	800.000	-0.059	0.171
-541.237	7.424	-0.268	-0.200
-540.223	103.333	-0.307	0.360
-539.208	-94.414	-0.234	0.064
-538.193	-128.754	-0.198	0.028
-537.179	34.480	-0.159	0.139
-536.164	-95.576	-0.348	-0.093
-535.150	-76.655	0.235	0.082
-534.135	73.341	0.245	0.257
-533.121	-45.476	0.295	-0.146
-532.106	82.872	-0.050	0.054
-531.091	28.347	-0.091	0.077
-530.077	-0.877	-0.341	0.242
-529.062	117.799	0.109	-0.135
-528.048	218.825	-0.077	0.123
-527.033	63.278	0.241	-0.242
-526.018	5.997	-0.111	-0.083
-525.004	236.656	-0.040	-0.066
-523.989	4.873	-0.279	-0.205
-522.975	695.976	0.059	0.156
-521.960	-21.975	0.221	0.134
-520.945	-21.670	0.264	-0.161
-519.931	-200.000	0.013	-0.204
-518.916	-87.175	0.167	0.051
-517.902	-64.747	-0.208	-0.084
-516.887	44.994	-0.296	0.273
-515.872	-97.230	0.280	0.073
-514.858	-104.287	0.280	-0.065
-513.843	800.000	0.072	0.217
-512.829	169.905	-0.073	-0.104
-511.814	800.000	-0.086	-0.327
-510.799	23.168	-0.110	-0.090
-509.785	175.578	-0.111	-0.160
-508.770	-200.000	0.031	0.188
-507.756	36.726	-0.217	0.191
-506.741	-106.475	0.159	0.035
-505.726	-76.393	0.090	0.032
-504.712	-152.986	-0.101	-0.007
-503.697	777.359	0.065	-0.178
-502.683	17.913	0.091	-0.072
-501.668	-19.507	-0.131	0.081
-500.653	315.681	-0.112	-0.212
-499.639	-200.000	0.004	-0.039
-498.624	-200.000	0.020	-0.185
-497.610	800.000	0.030	0.099
-496.595	-107.298	-0.149	0.033
-495.581	418.830	-0.057	-0.122
-494.566	3.043	0.197	0.143
-493.551	-14.277	0.196	-0.126
-492.537	-200.000	0.017	-0.416
-491.522	78.255	0.103	-0.110
-490.508	-109.515	-0.252	0.053
-489.493	-200.000	0.028	-0.298
-488.478	-41.693	-0.168	-0.086
-487.464	-105.337	-0.413	0.094
-486.449	784.861	0.075	-0.206
-485.435	-200.000	0.006	-0.108
-484.420	-16.319	-0.160	0.102
-483.405	189.820	-0.079	-0.119
-482.391	-200.000	0.005	-0.084
-481.376	334.728	-0.054	-0.105
-480.362	34.002	0.335	-0.292
-479.347	800.000	0.043	0.175
-478.332	172.376	0.148	-0.213
-477.318	-86.083	-0.172	-0.053
-476.303	-39.545	-0.224	0.117
-475.289	32.349	-0.344	-0.297
-474.274	-0.150	0.128	-0.091
-473.259	330.983	-0.102	0.196
-472.245	-25.445	0.381	0.225
-471.230	800.000	-0.042	0.180
-470.216	-58.531	-0.014	0.006
-469.201	-68.304	0.124	-0.048
-468.186	-38.955	-0.397	0.209
-467.172	215.763	-0.134	0.213
-466.157	-98.473	-0.143	-0.037
-465.143	73.963	0.095	-0.099
-464.128	-77.206	-0.204	-0.071
-463.113	-51.148	-0.252	0.118
-462.099	-30.025	0.203	0.115
-461.084	-26.964	0.242	0.141
-460.070	-80.041	0.168	0.056
-459.055	417.612	-0.100	-0.213
-458.040	-37.721	0.142	-0.076
-457.026	32.780	-0.066	0.057
-456.011	-90.589	0.115	-0.033
-454.997	800.000	0.082	-0.280
-453.982	158.122	0.053	-0.073
-452.968	190.269	-0.103	0.155
-451.953	-146.325	0.192	0.017
-450.938	-200.000	-0.004	-0.036
-449.924	198.585	0.151	-0.230
-448.909	800.000	0.091	-0.382
-447.895	-200.000	-0.008	-0.059
-446.880	332.885	0.181	-0.349
-445.865	-129.651	-0.181	0.025
-444.851	-200.000	0.004	0.035
-443.836	-200.000	0.462	0.000
-442.822	104.143	-0.015	-0.018
-441.807	-124.237	-0.091	-0.014
-440.792	-47.559	-0.006	0.003
-439.778	179.942	-0.294	0.429
-438.763	0.282	0.189	0.134
-437.749	162.834	0.231	-0.323
-436.734	64.027	-0.227	-0.227
-435.719	85.170	0.016	0.018
-434.705	800.000	-0.031	0.136
-433.690	451.289	0.166	-0.365
-432.676	-32.131	0.176	0.098
-431.661	-200.000	0.017	0.130
-430.646	800.000	-0.041	0.149
-429.632	800.000	0.047	0.150
-428.617	-119.454	-0.260	-0.045
-427.603	31.054	-0.060	0.051
-426.588	-200.000	-0.023	0.104
-425.573	65.499	0.103	-0.104
-424.559	143.923	0.185	0.246
-423.544	-9.418	0.101	0.067
-422.530	800.000	0.028	0.082
-421.515	-91.809	-0.114	0.032
-420.500	-19.853	0.296	0.182
-419.486	-132.445	0.456	-0.059
-418.471	-200.000	-0.027	0.209
-417.457	167.517	-0.139	0.197
-416.442	-83.195	0.224	-0.072
-415.428	102.288	0.096	-0.112
-414.413	290.969	-0.130	-0.235
-413.398	800.000	-0.027	-0.098
-412.384	-54.666	-0.019	-0.008
-411.369	538.803	-0.061	-0.145
-410.355	-58.790	-0.256	-0.110
-409.340	-175.087	-0.257	-0.007
-408.325	-200.000	-0.033	0.312
-407.311	10.767	0.171	-0.130
-406.296	158.127	0.060	0.082
-405.282	9.504	-0.155	-0.117
-404.267	440.788	-0.037	-0.080
-403.252	337.532	-0.022	0.043
-402.238	399.471	-0.076	0.158
-401.223	443.236	0.146	0.318
-400.209	-200.000	0.003	0.199
-399.194	130.722	0.088	0.112
-398.179	376.560	0.176	0.357
-397.165	431.680	-0.111	-0.240
-396.150	-141.440	0.491	0.050
-395.136	227.514	-0.136	-0.221
-394.121	148.809	0.136	-0.183
-393.106	-139.726	0.245	0.026
-392.092	52.048	0.039	0.037
-391.077	-200.000	-0.034	0.158
-390.063	-200.000	0.012	-0.110
-389.048	41.400	0.134	0.121
-388.033	-2.238	-0.241	-0.168
-387.019	-78.674	-0.162	-0.055
-386.004	77.155	-0.032	-0.034
-384.990	-100.411	0.127	-0.031
-383.975	35.261	-0.166	0.144
-382.960	-60.194	-0.241	0.102
-381.946	-178.546	0.200	0.005
-380.931	33.889	-0.233	0.202
-379.917	233.047	0.189	0.309
-378.902	-200.000	0.020	0.223
-377.888	-123.702	0.125	0.020
-376.873	800.000	-0.079	0.330
-375.858	361.280	-0.069	-0.138
-374.844	-183.157	0.540	0.009
-373.829	95.721	-0.143	-0.162
-372.815	-200.000	-0.036	-0.182
-371.800	800.000	0.057	0.178
-370.785	-117.503	0.191	0.034
-369.771	-81.469	-0.079	-0.026
-368.756	-112.724	0.126	0.025
-367.742	-60.147	-0.405	-0.172
-366.727	479.302	-0.107	-0.242
-365.712	196.341	-0.187	0.283
-364.698	112.669	0.148	0.179
-363.683	-174.351	-0.166	0.005
-362.669	163.353	0.255	-0.357
-361.654	230.734	0.154	-0.250
-360.639	-133.130	-0.360	0.045
-359.625	157.717	-0.066	0.091
-358.610	-16.567	-0.112	-0.070
-357.596	195.480	0.193	0.291
-356.581	109.618	-0.080	-0.096
-355.566	652.166	-0.025	0.064
-354.552	-200.000	-0.021	0.179
-353.537	800.000	0.071	0.293
-352.523	-23.458	-0.134	0.080
-351.508	9.263	-0.117	-0.088
-350.493	26.986	-0.096	-0.080
-349.479	176.423	-0.026	-0.037
-348.464	240.537	-0.198	0.327
-347.450	-108.852	0.224	-0.048
-346.435	-12.824	0.144	0.093
-345.420	-19.892	0.176	0.108
-344.406	-200.000	-0.000	-0.254
-343.391	44.154	0.331	-0.301
-342.377	800.000	-0.054	0.160
-341.362	-200.000	-0.017	0.103
-340.348	313.338	0.035	0.066
-339.333	-4.593	0.197	0.135
-338.318	-57.775	0.245	0.106
-337.304	-200.000	0.002	-0.051
-336.289	-200.000	0.038	-0.322
-335.275	-200.000	0.010	-0.188
-334.260	-170.993	0.254	-0.009
-333.245	65.492	-0.155	-0.156
-332.231	-77.037	0.329	0.114
-331.216	-16.601	-0.494	0.311
-330.202	800.000	0.056	0.181
-329.187	-200.000	0.003	-0.396
-328.172	3.984	-0.074	-0.054
-327.158	-2.326	-0.142	0.099
-326.143	-5.489	0.186	0.126
-325.129	-92.600	0.317	-0.088
-324.114	-200.000	0.010	0.309
-323.099	-121.923	-0.279	0.046
-322.085	112.579	0.128	0.154
-321.070	-200.000	0.018	-0.148
-320.056	-84.826	-0.135	0.042
-319.041	-181.158	0.472	-0.009
-318.026	148.098	-0.162	-0.217
-317.012	-200.000	0.005	-0.046
-315.997	-95.725	-0.048	-0.013
-314.983	-134.071	0.139	-0.017
-313.968	-51.079	-0.110	0.051
-312.953	-200.000	0.015	0.318
-311.939	348.641	-0.068	0.134
-310.924	-200.000	0.016	-0.217
-309.910	13.078	-0.091	0.070
-308.895	-200.000	-0.031	-0.244
-307.880	73.698	0.053	0.055
-306.866	-56.727	0.257	0.113
-305.851	800.000	-0.067	-0.236
-304.837	483.954	-0.127	-0.287
-303.822	-33.840	-0.154	-0.084
-302.807	88.125	0.133	0.147
-301.793	57.198	0.155	-0.150
-300.778	-14.831	-0.180	0.115
-299.764	-134.053	-0.112	-0.014
-298.749	-107.758	0.125	-0.027
-297.735	527.382	0.068	0.158
-296.720	299.301	-0.181	0.330
-295.705	-22.773	-0.041	-0.025
-294.691	-200.000	-0.057	0.305
-293.676	-146.898	-0.410	-0.035
-292.662	276.882	-0.084	0.147
-291.647	-200.000	0.065	0.342
-290.632	29.339	0.091	0.077
-289.618	71.864	0.082	-0.085
-288.603	-4.550	0.178	-0.122
-287.589	-122.197	-0.154	0.025
-286.574	800.000	-0.089	-0.312
-285.559	168.183	-0.167	-0.235
-284.545	-200.000	-0.031	0.301
-283.530	737.329	-0.091	-0.242
-282.516	-111.855	0.162	0.032
-281.501	429.202	-0.067	-0.144
-280.486	-14.852	-0.089	-0.056
-279.472	-133.503	-0.001	-0.000
-278.457	-200.000	0.012	-0.249
-277.443	-128.706	0.204	-0.028
-276.428	800.000	0.114	0.421
-275.413	-83.088	0.065	0.021
-274.399	192.400	0.028	0.042
-273.384	81.296	0.084	-0.090
-272.370	-200.000	0.101	0.477
-271.355	-29.943	0.038	-0.022
-270.340	637.021	0.136	-0.343
-269.326	467.508	-0.142	0.315
-268.311	-82.105	-0.295	0.095
-267.297	82.126	0.099	0.106
-266.282	662.777	-0.109	0.280
-265.267	-200.000	-0.009	0.246
-264.253	37.518	-0.126	0.111
-263.238	54.571	-0.161	-0.154
-262.224	-4.071	0.234	-0.161
-261.209	-125.626	0.241	-0.036
-260.195	271.107	-0.176	-0.308
-259.180	382.387	-0.035	0.072
-258.165	-8.825	-0.099	0.065
-257.151	-200.000	-0.004	0.086
-256.136	800.000	-0.027	0.104
-255.122	70.920	0.186	0.191
-254.107	-74.967	0.258	0.091
-253.092	-146.924	0.308	-0.026
-252.078	-200.000	0.043	0.236
-251.063	24.507	0.115	0.094
-250.049	-158.119	-0.069	0.004
-249.034	297.184	-0.235	0.427
-248.019	-72.796	0.216	-0.079
-247.005	127.893	-0.121	0.152
-245.990	-200.000	0.012	0.085
-244.976	445.091	0.077	0.168
-243.961	-131.760	0.401	0.052
-242.946	139.615	0.094	0.122
-241.932	-200.000	0.002	-0.235
-240.917	-147.383	-0.071	-0.006
-239.903	-200.000	-0.003	-0.174
-238.888	-28.111	0.104	-0.059
-237.873	-101.033	-0.235	-0.057
-236.859	38.804	-0.103	-0.091
-235.844	-32.252	-0.086	0.047
-234.830	439.605	0.034	-0.073
-233.815	108.080	0.014	0.016
-232.800	-78.179	0.337	-0.114
-231.786	-120.477	-0.236	0.040
-230.771	-13.570	0.053	0.034
-229.757	180.083	-0.054	0.078
-228.742	304.279	0.102	-0.187
-227.727	-133.250	0.174	-0.022
-226.713	97.228	0.183	0.207
-225.698	-65.930	-0.288	-0.114
-224.684	134.675	0.220	-0.283
-223.669	62.330	0.170	0.167
-222.655	-17.400	0.117	-0.073
-221.640	-53.914	0.072	-0.032
-220.625	-200.000	-0.042	0.225
-219.611	2.275	0.400	-0.286
-218.596	-33.585	0.313	-0.171
-217.582	233.483	0.125	0.204
-216.567	91.912	0.086	0.095
-215.552	-128.627	0.216	-0.030
-214.538	631.979	0.108	-0.269
-213.523	-69.829	0.204	-0.077
-212.509	34.584	-0.048	-0.042
-211.494	201.808	0.089	0.135
-210.479	-66.144	-0.341	0.134
-209.465	404.391	-0.033	-0.068
-208.450	9.334	-0.151	0.113
-207.436	-200.000	-0.174	0.000
-206.421	62.691	-0.191	0.189
-205.406	-66.941	0.184	0.072
-204.392	800.000	-0.053	0.225
-203.377	-96.001	0.223	-0.059
-202.363	179.043	-0.116	-0.167
-201.348	22.269	-0.245	0.198
-200.333	269.230	-0.138	0.238
-199.319	218.625	0.098	0.154
-198.304	-200.000	0.013	0.095
-197.290	-54.962	-0.117	0.052
-196.275	-97.466	-0.416	-0.107
-195.260	4.389	0.114	0.083
-194.246	29.490	0.354	0.297
-193.231	800.000	0.080	-0.248
-192.217	-200.000	0.009	-0.145
-191.202	800.000	-0.082	-0.319
-190.187	800.000	-0.056	0.187
-189.173	-65.244	-0.110	-0.044
-188.158	24.800	0.146	-0.119
-187.144	25.690	-0.203	-0.167
-186.129	280.097	0.037	-0.066
-185.114	-82.849	-0.095	-0.030
-184.100	-114.720	0.334	-0.063
-183.085	-200.000	0.006	-0.232
-182.071	-6.955	-0.081	-0.054
-181.056	-29.128	-0.073	0.041
-180.042	634.019	-0.061	0.154
-179.027	-154.211	-0.384	-0.026
-178.012	-41.638	-0.307	-0.156
-176.998	125.733	-0.118	0.147
-175.983	-200.000	-0.031	-0.171
-174.969	800.000	-0.056	-0.199
-173.954	-200.000	-0.269	-0.001
-172.939	9.658	-0.008	-0.006
-171.925	295.263	-0.173	-0.312
-170.910	79.533	-0.288	-0.305
-169.896	20.561	-0.277	-0.221
-168.881	-71.507	-0.171	0.063
-167.866	-66.258	0.356	0.140
-166.852	-162.958	0.269	-0.013
-165.837	800.000	0.196	0.544
-164.823	-48.396	-0.185	-0.088
-163.808	-200.000	-0.009	-0.044
-162.793	151.023	-0.045	0.060
-161.779	800.000	0.048	0.203
-160.764	85.380	0.065	0.070
-159.750	-200.000	-0.043	-0.299
-158.735	211.719	0.163	-0.253
-157.720	747.395	-0.146	0.387
-156.706	-158.250	0.168	0.010
-155.691	149.144	0.041	-0.055
-154.677	800.000	-0.082	-0.285
-153.662	137.777	0.202	0.261
-152.647	150.600	0.117	-0.156
-151.633	230.165	-0.132	-0.212
-150.618	372.612	0.032	0.064
-149.604	87.464	0.119	0.130
-148.589	-200.000	-0.033	-0.194
-147.574	-60.219	-0.254	-0.107
-146.560	35.936	-0.213	-0.185
-145.545	-71.195	0.315	-0.116
-144.531	16.184	0.086	-0.067
-143.516	153.790	0.189	0.255
-142.502	-3.062	0.098	0.067
-141.487	-117.142	-0.225	0.040
-140.472	-200.000	-0.001	-0.317
-139.458	73.182	-0.023	0.024
-138.443	-200.000	-0.009	-0.048
-137.429	-200.000	-0.009	0.444
-136.414	14.148	0.156	-0.120
-135.399	101.778	-0.017	-0.019
-134.385	-12.312	0.302	-0.194
-133.370	-200.000	0.020	0.116
-132.356	-1.523	0.151	0.105
-131.341	-200.000	0.020	0.118
-130.326	18.639	-0.359	0.283
-129.312	14.581	-0.405	-0.312
-128.297	-41.276	-0.051	-0.026
-127.283	800.000	-0.068	-0.255
-126.268	-84.077	0.169	-0.053
-125.253	800.000	0.040	0.145
-124.239	-110.824	0.158	-0.032
-123.224	-16.656	-0.378	0.236
-122.210	-80.924	-0.151	-0.049
-121.195	121.132	-0.205	0.251
