DTS Sentinel unit serial number:	SN413079Multiplexer serial number:	ORYXHardware model number:	OX4-SRSoftware version number:	ORYX F/W v4.00 Oryx Data Collector v3.7.2.0data status	okinstallation	princeton_trtdifferential loss correction	single-endedforward channel	channel 3reverse channel	N/Adate	2019/09/11time	05:14:10forward acquisition time	60.00reverse acquisition time	0.00gamma	496.2192k internal	0.2330k external	0.2330temperature offset calibration	0.9906default loss term (dB/km)	0.3790temperature slope calibration	1.0000multiplexer offset coefficient	1.0000multiplexer slope coefficient	1.0000fibre end	0.00T internal ref (°C)	29.44T ext. ref 1 (°C)	-0.25T ext. ref 2 (°C)	23.37length (m)	temperature (°C)	Stokes	anti-Stokes-747.200	-8.310	-0.230	-0.156
-746.185	-200.000	0.002	-0.336
-745.171	-52.075	-0.232	-0.109
-744.156	618.471	-0.016	-0.040
-743.142	800.000	-0.046	-0.140
-742.127	-101.134	-0.180	0.044
-741.112	107.684	0.127	0.152
-740.098	-145.918	-0.341	0.030
-739.083	566.669	0.135	-0.329
-738.069	-149.620	-0.268	0.021
-737.054	150.446	-0.132	0.181
-736.039	-130.512	-0.078	-0.011
-735.025	366.077	-0.195	0.396
-734.010	-41.579	-0.234	0.121
-732.996	-137.589	-0.267	0.030
-731.981	-200.000	0.021	-0.247
-730.966	25.305	-0.060	0.050
-729.952	800.000	-0.103	-0.309
-728.937	-69.080	0.133	0.052
-727.923	-107.659	-0.089	0.020
-726.908	-200.000	0.013	-0.207
-725.894	364.731	-0.076	0.154
-724.879	138.169	-0.236	-0.312
-723.864	75.755	-0.219	0.233
-722.850	800.000	0.065	-0.266
-721.835	459.672	-0.110	-0.247
-720.821	-65.069	-0.065	0.026
-719.806	52.724	-0.099	0.095
-718.791	-200.000	-0.295	-0.001
-717.777	-136.643	0.138	0.016
-716.762	436.320	0.060	0.130
-715.748	-200.000	-0.032	-0.397
-714.733	800.000	0.017	-0.071
-713.718	90.870	-0.015	0.017
-712.704	-59.759	0.159	0.069
-711.689	-83.677	-0.116	0.037
-710.675	222.551	-0.182	0.295
-709.660	-200.000	0.030	-0.417
-708.645	432.065	0.130	0.283
-707.631	-114.543	-0.274	-0.053
-706.616	-198.668	-0.084	0.000
-705.602	-153.110	0.100	0.007
-704.587	-79.254	0.212	-0.072
-703.572	-107.555	-0.314	-0.069
-702.558	111.956	-0.369	-0.448
-701.543	-6.664	0.154	0.105
-700.529	20.191	-0.310	-0.252
-699.514	2.769	0.141	0.103
-698.499	-119.756	-0.272	-0.047
-697.485	44.915	0.121	0.112
-696.470	-135.310	-0.253	0.030
-695.456	175.444	0.149	-0.217
-694.441	43.297	0.284	-0.261
-693.426	387.535	-0.101	0.210
-692.412	384.239	0.093	-0.193
-691.397	-200.000	-0.005	0.063
-690.383	74.830	-0.106	-0.112
-689.368	196.609	-0.067	-0.103
-688.354	-123.777	-0.084	-0.013
-687.339	-74.720	0.107	0.039
-686.324	550.550	-0.044	-0.106
-685.310	275.379	0.089	-0.158
-684.295	454.431	-0.047	0.104
-683.281	-52.636	0.408	-0.189
-682.266	121.542	-0.115	0.144
-681.251	-42.430	-0.180	0.092
-680.237	82.779	-0.060	0.065
-679.222	-200.000	-0.016	0.083
-678.208	-200.000	-0.003	-0.027
-677.193	114.411	-0.017	0.021
-676.178	-87.930	-0.157	0.047
-675.164	-85.579	-0.089	-0.028
-674.149	-200.000	-0.014	-0.148
-673.135	479.363	0.107	-0.243
-672.120	-200.000	-0.006	-0.029
-671.105	-62.562	0.285	-0.119
-670.091	2.326	-0.138	0.100
-669.076	-200.000	0.020	-0.372
-668.062	-95.890	0.255	0.068
-667.047	800.000	-0.095	-0.416
-666.032	-200.000	0.050	-0.480
-665.018	-35.001	-0.122	0.067
-664.003	-19.665	-0.191	0.118
-662.989	-200.000	0.071	-0.398
-661.974	-185.531	-0.115	-0.002
-660.959	-70.447	-0.400	0.152
-659.945	-96.951	-0.055	0.014
-658.930	-44.474	-0.130	-0.065
-657.916	128.964	-0.157	0.201
-656.901	-70.373	0.243	-0.092
-655.886	-200.000	0.078	-0.515
-654.872	-20.137	-0.019	0.011
-653.857	-200.000	0.033	0.383
-652.843	666.510	-0.016	0.042
-651.828	107.909	0.228	0.272
-650.814	-76.037	-0.272	-0.097
-649.799	89.138	-0.146	0.164
-648.784	170.603	-0.052	-0.074
-647.770	-0.141	-0.170	0.121
-646.755	-162.430	0.249	-0.012
-645.741	-200.000	0.043	0.240
-644.726	156.231	-0.084	-0.116
-643.711	-200.000	0.005	-0.112
-642.697	-137.928	-0.506	-0.057
-641.682	-53.224	0.151	-0.069
-640.668	319.748	0.108	-0.205
-639.653	-86.871	0.173	0.053
-638.638	-83.344	-0.346	0.111
-637.624	113.567	0.111	0.135
-636.609	70.883	-0.059	0.061
-635.595	112.896	0.238	-0.290
-634.580	506.532	0.166	-0.387
-633.565	-59.490	-0.097	-0.042
-632.551	-200.000	0.013	0.133
-631.536	-200.000	-0.029	0.244
-630.522	92.170	-0.105	-0.118
-629.507	167.969	-0.018	0.026
-628.492	-36.497	0.130	0.070
-627.478	-62.983	-0.299	0.124
-626.463	-112.138	0.105	0.021
-625.449	-114.731	-0.176	-0.034
-624.434	-93.814	-0.174	0.048
-623.419	800.000	-0.055	0.191
-622.405	2.516	-0.247	0.179
-621.390	-115.022	0.483	0.092
-620.376	-200.000	-0.010	-0.054
-619.361	-62.995	-0.337	-0.140
-618.346	-200.000	0.005	-0.110
-617.332	297.050	-0.112	-0.206
-616.317	-19.589	0.118	0.073
-615.303	214.995	-0.188	0.299
-614.288	-10.649	0.163	0.108
-613.273	-20.211	0.155	0.096
-612.259	-119.270	-0.157	0.027
-611.244	664.387	-0.097	0.251
-610.230	62.933	0.174	0.174
-609.215	-138.025	0.413	-0.046
-608.201	246.777	-0.122	0.207
-607.186	800.000	0.071	0.206
-606.171	23.765	0.053	0.043
-605.157	503.500	0.117	0.272
-604.142	-200.000	-0.019	-0.523
-603.128	-8.805	-0.058	-0.039
-602.113	-17.999	-0.284	-0.178
-601.098	800.000	-0.042	0.176
-600.084	108.836	0.065	-0.078
-599.069	-33.455	-0.260	-0.144
-598.055	-178.367	0.308	-0.007
-597.040	786.369	0.078	-0.214
-596.025	-36.683	0.359	-0.193
-595.011	1.352	0.369	-0.265
-593.996	-200.000	0.066	0.316
-592.982	122.336	0.075	0.094
-591.967	608.056	0.026	0.066
-590.952	-200.000	-0.033	-0.203
-589.938	12.353	-0.163	-0.125
-588.923	-119.187	-0.125	-0.022
-587.909	-43.197	-0.417	0.211
-586.894	-200.000	0.034	0.341
-585.879	-200.000	0.014	0.245
-584.865	-125.652	-0.229	0.035
-583.850	-110.378	0.134	-0.028
-582.836	81.987	-0.143	0.155
-581.821	-34.057	0.277	-0.152
-580.806	128.615	0.200	-0.255
-579.792	-81.065	0.198	-0.065
-578.777	800.000	0.076	0.291
-577.763	592.801	0.100	-0.248
-576.748	800.000	0.047	-0.154
-575.733	-74.996	-0.320	0.115
-574.719	707.594	0.177	0.468
-573.704	21.159	-0.237	0.192
-572.690	800.000	-0.052	0.158
-571.675	-200.000	0.020	0.093
-570.661	514.098	0.017	0.041
-569.646	-118.368	0.329	0.058
-568.631	-141.583	0.347	-0.035
-567.617	13.599	0.137	-0.106
-566.602	-24.709	0.250	0.149
-565.588	67.779	-0.089	0.091
-564.573	59.696	-0.232	0.229
-563.558	27.084	0.129	0.108
-562.544	-170.971	-0.110	0.004
-561.529	94.431	0.060	-0.068
-560.515	-200.000	0.060	-0.333
-559.500	548.130	0.056	-0.134
-558.485	800.000	-0.054	-0.185
-557.471	-124.999	-0.390	0.060
-556.456	507.385	0.073	-0.170
-555.442	100.330	0.139	0.161
-554.427	-144.255	-0.304	0.028
-553.412	-19.374	0.086	0.053
-552.398	133.303	-0.364	0.470
-551.383	-159.525	-0.116	-0.006
-550.369	-200.000	-0.017	0.114
-549.354	-71.885	0.209	-0.078
-548.339	-200.000	0.021	0.109
-547.325	-200.000	-0.004	-0.167
-546.310	293.039	-0.083	-0.151
-545.296	32.397	0.213	-0.184
-544.281	-24.724	-0.205	-0.122
-543.266	-69.035	0.301	-0.116
-542.252	-84.183	-0.110	-0.035
-541.237	-154.074	0.194	0.013
-540.223	-200.000	0.043	0.472
-539.208	79.693	0.166	-0.178
-538.193	242.369	0.094	-0.157
-537.179	-200.000	0.012	0.194
-536.164	-200.000	0.010	-0.461
-535.150	-200.000	-0.017	0.335
-534.135	796.117	-0.074	0.203
-533.121	669.652	0.162	0.418
-532.106	112.305	-0.159	0.192
-531.091	-200.000	-0.050	0.224
-530.077	424.938	0.161	-0.346
-529.062	228.251	0.154	0.250
-528.048	113.615	0.209	-0.254
-527.033	3.501	0.261	0.190
-526.018	-112.934	0.279	0.055
-525.004	-108.406	0.266	-0.057
-523.989	800.000	0.049	-0.192
-522.975	-1.002	0.250	-0.177
-521.960	179.733	0.150	-0.220
-520.945	70.226	-0.044	0.045
-519.931	-200.000	-0.031	0.187
-518.916	-87.702	-0.308	0.093
-517.902	-62.544	-0.037	-0.015
-516.887	-200.000	-0.022	-0.415
-515.872	-200.000	-0.002	0.022
-514.858	-133.691	0.224	0.028
-513.843	-200.000	0.057	-0.425
-512.829	109.522	-0.283	0.339
-511.814	110.174	0.217	-0.261
-510.799	-103.834	-0.313	0.073
-509.785	-177.367	0.194	0.005
-508.770	-40.467	0.117	0.060
-507.756	240.317	-0.178	0.297
-506.741	429.526	-0.135	0.291
-505.726	-200.000	-0.090	0.439
-504.712	-200.000	0.019	0.117
-503.697	-166.001	-0.309	-0.013
-502.683	-200.000	0.020	0.197
-501.668	520.180	0.086	0.201
-500.653	-200.000	-0.058	0.290
-499.639	-116.729	-0.369	0.068
-498.624	-52.556	-0.196	-0.090
-497.610	-200.000	0.001	-0.063
-496.595	-11.828	-0.111	0.073
-495.581	-2.248	0.062	-0.043
-494.566	-24.580	0.291	-0.173
-493.551	-183.830	-0.081	0.001
-492.537	800.000	-0.066	0.236
-491.522	26.347	-0.164	0.136
-490.508	3.182	0.055	-0.040
-489.493	-80.285	-0.230	-0.077
-488.478	94.929	-0.286	-0.324
-487.464	53.355	-0.175	-0.167
-486.449	307.414	0.196	-0.364
-485.435	10.585	-0.331	-0.252
-484.420	-200.000	-0.020	0.149
-483.405	-52.722	-0.070	0.032
-482.391	-36.046	0.081	-0.044
-481.376	-11.223	0.216	-0.142
-480.362	-200.000	-0.017	-0.147
-479.347	-200.000	0.034	-0.246
-478.332	-30.994	-0.105	-0.059
-477.318	-200.000	0.044	0.294
-476.303	800.000	0.060	-0.238
-475.289	-73.564	0.165	-0.060
-474.274	-200.000	0.027	-0.280
-473.259	-29.793	-0.205	-0.116
-472.245	-200.000	-0.009	0.209
-471.230	-82.204	-0.214	0.069
-470.216	-107.179	-0.211	-0.046
-469.201	173.659	0.155	0.224
-468.186	-200.000	-0.027	-0.156
-467.172	800.000	-0.114	0.420
-466.157	-8.423	0.019	-0.013
-465.143	364.813	-0.041	0.081
-464.128	800.000	0.050	-0.150
-463.113	128.475	0.127	-0.161
-462.099	-82.995	0.137	-0.044
-461.084	105.787	-0.380	-0.447
-460.070	179.026	-0.074	0.108
-459.055	579.780	-0.090	-0.219
-458.040	196.228	-0.042	-0.063
-457.026	124.855	0.214	0.269
-456.011	-31.272	0.112	0.063
-454.997	4.555	0.103	0.075
-453.982	24.891	-0.051	0.042
-452.968	800.000	0.041	0.144
-451.953	129.747	-0.100	-0.127
-450.938	-92.494	-0.360	-0.101
-449.924	128.323	-0.148	-0.187
-448.909	253.006	0.066	0.112
-447.895	-200.000	-0.016	-0.190
-446.880	-13.502	-0.128	0.083
-445.865	-1.400	0.292	0.205
-444.851	71.113	0.106	0.110
-443.836	-142.150	0.267	-0.026
-442.822	-200.000	-0.007	0.257
-441.807	-10.997	0.173	-0.114
-440.792	-63.779	0.201	0.082
-439.778	-11.064	0.253	-0.166
-438.763	-200.000	-0.032	-0.266
-437.749	-111.261	-0.348	-0.071
-436.734	255.422	-0.146	0.249
-435.719	-200.000	-0.003	0.015
-434.705	-200.000	0.023	-0.507
-433.690	602.820	0.126	-0.311
-432.676	-159.415	0.013	-0.001
-431.661	87.248	0.160	0.176
-430.646	74.628	-0.105	0.110
-429.632	360.524	-0.021	0.041
-428.617	-200.000	0.016	-0.119
-427.603	-200.000	0.061	-0.476
-426.588	-143.853	0.351	0.033
-425.573	-143.917	0.237	-0.022
-424.559	216.502	-0.076	-0.120
-423.544	-48.960	0.255	-0.122
-422.530	800.000	0.055	-0.233
-421.515	-200.000	0.040	-0.226
-420.500	-45.488	-0.091	0.045
-419.486	371.783	0.085	0.172
-418.471	-79.211	-0.350	0.118
-417.457	800.000	-0.013	-0.050
-416.442	-89.374	0.209	-0.061
-415.428	40.690	-0.220	-0.197
-414.413	-108.547	-0.097	0.021
-413.398	-200.000	-0.007	-0.057
-412.384	-200.000	0.003	-0.023
-411.369	157.345	0.125	0.171
-410.355	53.970	0.092	-0.088
-409.340	500.424	0.112	0.257
-408.325	800.000	0.028	0.080
-407.311	800.000	0.082	-0.247
-406.296	800.000	-0.038	-0.121
-405.282	15.357	0.173	-0.135
-404.267	29.489	-0.181	-0.153
-403.252	-164.760	-0.124	0.006
-402.238	-200.000	-0.009	0.085
-401.223	800.000	-0.072	-0.231
-400.209	10.079	0.081	-0.062
-399.194	57.294	-0.068	-0.066
-398.179	-200.000	0.013	-0.164
-397.165	221.836	-0.126	-0.201
-396.150	-68.455	0.231	0.089
-395.136	-152.284	0.321	-0.023
-394.121	76.025	0.020	0.020
-393.106	-21.365	-0.195	0.118
-392.092	534.654	0.142	-0.335
-391.077	173.373	0.117	-0.167
-390.063	470.448	-0.084	-0.187
-389.048	800.000	-0.007	-0.028
-388.033	800.000	-0.005	-0.016
-387.019	-113.443	0.389	0.076
-386.004	500.732	-0.081	-0.187
-384.990	-200.000	0.072	0.316
-383.975	-200.000	-0.020	-0.168
-382.960	-200.000	-0.014	0.160
-381.946	-131.141	0.295	-0.039
-380.931	-80.404	0.234	-0.077
-379.917	-200.000	-0.017	-0.104
-378.902	-165.424	0.357	0.016
-377.888	-142.540	-0.243	-0.024
-376.873	-52.861	-0.146	-0.067
-375.858	198.514	-0.109	-0.166
-374.844	273.083	0.106	-0.186
-373.829	-140.092	-0.448	0.047
-372.815	-47.919	0.336	0.161
-371.800	-90.725	-0.318	-0.091
-370.785	-8.119	0.118	0.079
-369.771	180.208	-0.042	-0.062
-368.756	-90.042	-0.096	0.028
-367.742	-114.668	0.077	0.015
-366.727	4.921	0.192	0.140
-365.712	266.838	0.172	0.298
-364.698	-51.082	-0.110	-0.051
-363.683	-81.519	-0.131	0.043
-362.669	407.896	-0.068	-0.143
-361.654	580.421	-0.116	-0.282
-360.639	-37.599	0.122	-0.065
-359.625	-200.000	-0.002	0.100
-358.610	800.000	-0.088	-0.257
-357.596	-200.000	0.011	0.077
-356.581	800.000	-0.113	0.342
-355.566	-82.787	-0.174	0.056
-354.552	-200.000	-0.017	0.098
-353.537	268.180	-0.036	0.062
-352.523	-40.593	0.074	-0.038
-351.508	50.546	0.278	0.260
-350.493	800.000	0.022	0.078
-349.479	-161.825	0.241	-0.012
-348.464	405.184	-0.122	0.254
-347.450	681.059	-0.077	0.198
-346.435	675.588	-0.068	-0.175
-345.420	-200.000	0.023	0.284
-344.406	-96.381	-0.352	0.092
-343.391	-193.031	-0.030	-0.000
-342.377	-120.511	0.272	-0.046
-341.362	657.600	-0.123	-0.312
-340.348	39.366	-0.134	-0.119
-339.333	84.020	-0.096	-0.104
-338.318	-34.017	0.382	-0.208
-337.304	218.531	-0.083	-0.131
-336.289	220.946	-0.108	0.172
-335.275	298.932	-0.198	-0.362
-334.260	300.927	-0.226	-0.413
-333.245	171.011	-0.088	0.126
-332.231	417.014	0.058	0.123
-331.216	-78.548	0.025	-0.009
-330.202	-99.835	-0.359	0.089
-329.187	69.562	-0.032	-0.032
-328.172	-10.812	-0.203	0.133
-327.158	157.620	-0.133	-0.182
-326.143	349.339	0.079	0.155
-325.129	-112.587	-0.073	0.014
-324.114	-1.942	0.199	0.138
-323.099	-92.569	0.267	-0.074
-322.085	800.000	-0.069	0.278
-321.070	-171.529	0.123	0.004
-320.056	333.802	0.175	-0.336
-319.041	-47.334	-0.168	-0.081
-318.026	800.000	0.028	-0.110
-317.012	-200.000	0.048	0.310
-315.997	114.782	-0.109	0.131
-314.983	-200.000	-0.032	0.413
-313.968	-26.608	-0.171	0.099
-312.953	-8.707	-0.108	0.072
-311.939	303.477	-0.150	-0.275
-310.924	153.260	0.084	-0.114
-309.910	-200.000	-0.021	0.158
-308.895	99.607	0.062	0.071
-307.880	-200.000	-0.032	-0.155
-306.866	-200.000	-0.003	-0.198
-305.851	738.491	-0.085	-0.226
-304.837	-37.681	-0.145	-0.077
-303.822	-127.740	0.076	0.011
-302.807	-68.547	-0.092	0.035
-301.793	52.083	-0.233	-0.220
-300.778	800.000	0.017	0.065
-299.764	-200.000	0.030	0.586
-298.749	99.806	-0.160	0.184
-297.735	-54.457	-0.352	0.158
-296.720	-101.766	0.033	-0.008
-295.705	84.578	-0.222	-0.241
-294.691	-119.796	-0.229	-0.039
-293.676	523.707	-0.166	0.387
-292.662	749.134	-0.044	-0.117
-291.647	-40.222	-0.202	-0.104
-290.632	59.712	-0.181	0.176
-289.618	0.673	0.145	0.103
-288.603	-37.920	0.278	-0.146
-287.589	458.657	-0.166	0.364
-286.574	800.000	0.096	-0.364
-285.559	-174.039	0.064	-0.002
-284.545	-200.000	-0.007	-0.052
-283.530	-200.000	-0.014	0.129
-282.516	-108.029	0.430	0.092
-281.501	800.000	0.063	-0.219
-280.486	-200.000	0.014	-0.120
-279.472	-152.834	-0.179	-0.013
-278.457	-200.000	-0.014	0.358
-277.443	-172.155	0.277	0.009
-276.428	586.804	-0.116	-0.282
-275.413	5.032	-0.070	0.051
-274.399	-124.445	-0.282	0.043
-273.384	-200.000	-0.002	0.159
-272.370	-200.000	0.017	-0.418
-271.355	-200.000	0.014	-0.238
-270.340	-141.741	0.216	-0.021
-269.326	768.317	0.112	-0.301
-268.311	285.704	0.090	0.160
-267.297	-29.853	-0.159	-0.089
-266.282	633.186	0.134	0.335
-265.267	223.010	-0.089	0.142
-264.253	61.897	0.128	0.126
-263.238	-200.000	-0.003	-0.045
-262.224	-200.000	-0.023	-0.168
-261.209	800.000	0.124	0.374
-260.195	-116.240	0.066	-0.012
-259.180	55.342	-0.203	0.194
-258.165	-200.000	0.016	0.225
-257.151	-91.161	0.259	0.073
-256.136	-200.000	0.010	0.065
-255.122	383.382	0.102	-0.206
-254.107	-106.154	0.437	-0.097
-253.092	-146.782	-0.159	0.014
-252.078	-64.074	0.047	-0.019
-251.063	-102.403	0.240	0.057
-250.049	-200.000	-0.015	-0.188
-249.034	800.000	-0.147	-0.474
-248.019	515.445	0.053	-0.123
-247.005	34.563	-0.062	-0.054
-245.990	153.467	0.086	-0.116
-244.976	185.174	-0.122	0.178
-243.961	422.618	-0.136	-0.288
-242.946	800.000	0.049	-0.196
-241.932	99.530	0.298	-0.341
-240.917	-79.764	-0.105	-0.035
-239.903	-85.659	0.281	0.086
-238.888	529.190	-0.131	-0.305
-237.873	-16.052	0.336	0.211
-236.859	257.437	0.139	-0.235
-235.844	800.000	-0.118	-0.427
-234.830	-18.336	-0.108	0.067
-233.815	80.625	-0.020	0.022
-232.800	-93.417	-0.034	0.009
-231.786	684.616	0.073	-0.187
-230.771	289.511	-0.055	0.099
-229.757	-91.265	0.127	-0.036
-228.742	-49.313	-0.116	-0.055
-227.727	84.917	-0.253	0.274
-226.713	37.970	0.158	0.139
-225.698	-68.190	-0.087	0.033
-224.684	800.000	0.089	-0.328
-223.669	43.777	0.484	0.437
-222.655	-200.000	-0.037	0.174
-221.640	-111.153	-0.125	0.025
-220.625	91.045	-0.220	-0.244
-219.611	-155.115	0.124	-0.008
-218.596	-21.889	-0.090	-0.054
-217.582	79.834	-0.114	0.121
-216.567	94.898	0.048	0.054
-215.552	20.302	0.079	-0.063
-214.538	800.000	0.128	0.409
-213.523	214.036	0.041	-0.063
-212.509	-120.620	0.127	0.021
-211.494	-123.852	0.254	0.039
-210.479	-38.611	-0.102	0.053
-209.465	-150.558	0.223	0.017
-208.450	68.291	0.117	-0.118
-207.436	800.000	0.016	0.062
-206.421	-65.721	0.134	-0.053
-205.406	-10.276	-0.108	-0.071
-204.392	-98.907	0.119	-0.030
-203.377	85.337	-0.116	-0.126
-202.363	497.354	-0.072	-0.164
-201.348	-123.643	0.213	0.033
-200.333	155.643	-0.092	0.125
-199.319	-42.829	0.198	-0.099
-198.304	476.187	-0.092	0.205
-197.290	-200.000	-0.072	-0.354
-196.275	-10.974	0.015	-0.010
-195.260	800.000	-0.089	0.265
-194.246	-200.000	-0.025	0.234
-193.231	132.533	0.146	0.186
-192.217	800.000	0.057	-0.234
-191.202	-200.000	-0.018	0.180
-190.187	800.000	-0.099	0.307
-189.173	-19.273	0.158	-0.097
-188.158	762.930	-0.046	0.122
-187.144	-98.188	0.250	0.063
-186.129	-104.097	-0.136	0.031
-185.114	-85.855	-0.214	-0.065
-184.100	800.000	-0.031	0.120
-183.085	70.594	-0.328	0.335
-182.071	-200.000	0.064	0.438
-181.056	122.473	-0.117	0.144
-180.042	63.792	-0.280	-0.277
-179.027	186.891	0.034	-0.050
-178.012	20.597	-0.066	-0.052
-176.998	-149.734	0.307	0.024
-175.983	-200.000	0.007	0.081
-174.969	-131.648	0.379	-0.049
-173.954	44.117	0.066	0.059
-172.939	-131.524	-0.365	0.047
-171.925	-11.270	-0.192	-0.124
-170.910	536.206	0.041	-0.097
-169.896	-36.491	-0.101	0.053
-168.881	4.868	-0.355	-0.257
-167.866	-51.643	-0.149	-0.069
-166.852	-60.050	-0.160	0.067
-165.837	-125.928	-0.457	-0.068
-164.823	280.202	0.098	0.173
-163.808	-30.574	-0.140	-0.078
-162.793	-200.000	0.002	0.132
-161.779	800.000	0.147	0.433
-160.764	-200.000	0.040	0.244
-159.750	-46.243	0.165	0.080
-158.735	383.925	0.029	0.059
-157.720	11.170	-0.158	-0.119
-156.706	85.171	-0.042	0.046
-155.691	-15.260	-0.146	-0.092
-154.677	308.613	0.165	-0.303
-153.662	50.750	-0.149	0.139
-152.647	265.024	-0.087	-0.150
-151.633	-200.000	0.039	0.191
-150.618	282.213	0.065	0.114
-149.604	-105.013	-0.388	-0.087
-148.589	-144.540	0.196	0.018
-147.574	-200.000	0.073	0.366
-146.560	-200.000	-0.030	0.261
-145.545	-111.025	-0.434	-0.088
-144.531	-142.330	-0.143	-0.014
-143.516	-112.310	0.079	0.016
-142.502	-3.147	-0.141	0.097
-141.487	-28.512	-0.273	0.155
-140.472	24.415	0.207	0.168
-139.458	-69.725	-0.304	-0.114
-138.443	-40.616	0.268	0.136
-137.429	-200.000	0.020	0.125
-136.414	-200.000	0.031	-0.167
-135.399	627.545	0.052	0.130
-134.385	40.567	-0.164	0.145
-133.370	-102.772	-0.204	-0.048
-132.356	467.815	0.052	-0.115
-131.341	-161.106	0.149	-0.008
-130.326	-51.248	-0.255	-0.117
-129.312	163.413	0.124	0.172
-128.297	-74.694	-0.148	-0.052
-127.283	800.000	-0.050	0.184
-126.268	54.450	-0.225	-0.213
-125.253	21.534	0.180	0.144
-124.239	-200.000	-0.020	0.228
-123.224	655.675	-0.089	0.224
-122.210	800.000	-0.074	0.217
