DTS Sentinel unit serial number:	SN413079Multiplexer serial number:	ORYXHardware model number:	OX4-SRSoftware version number:	ORYX F/W v4.00 Oryx Data Collector v3.7.2.0data status	okinstallation	princeton_trtdifferential loss correction	single-endedforward channel	channel 3reverse channel	N/Adate	2019/09/11time	04:14:11forward acquisition time	60.00reverse acquisition time	0.00gamma	496.2192k internal	0.2330k external	0.2330temperature offset calibration	0.9915default loss term (dB/km)	0.3790temperature slope calibration	1.0000multiplexer offset coefficient	1.0000multiplexer slope coefficient	1.0000fibre end	0.00T internal ref (°C)	29.56T ext. ref 1 (°C)	-0.28T ext. ref 2 (°C)	23.50length (m)	temperature (°C)	Stokes	anti-Stokes-747.200	-200.000	0.047	0.278
-746.185	40.661	-0.282	0.256
-745.171	160.723	0.106	0.149
-744.156	64.023	-0.205	0.207
-743.142	27.488	0.069	0.058
-742.127	263.359	0.104	0.183
-741.112	-170.766	-0.132	-0.005
-740.098	253.525	-0.291	0.500
-739.083	128.629	0.012	-0.015
-738.069	-69.468	-0.201	-0.077
-737.054	-155.305	-0.167	-0.011
-736.039	-61.340	-0.072	-0.031
-735.025	800.000	-0.086	0.320
-734.010	-200.000	0.002	-0.121
-732.996	357.125	0.161	-0.324
-731.981	-59.150	-0.248	-0.107
-730.966	145.114	0.095	0.128
-729.952	122.814	0.030	-0.038
-728.937	239.455	-0.067	-0.112
-727.923	800.000	-0.096	-0.340
-726.908	-151.922	-0.198	0.015
-725.894	-200.000	-0.007	-0.310
-724.879	59.030	-0.249	-0.246
-723.864	-84.789	-0.326	-0.103
-722.850	-200.000	-0.012	-0.299
-721.835	626.879	0.073	-0.185
-720.821	-48.409	-0.189	-0.091
-719.806	-140.829	-0.329	-0.034
-718.791	81.805	0.117	0.127
-717.777	-200.000	0.059	-0.276
-716.762	-1.752	-0.016	-0.012
-715.748	0.164	-0.264	-0.189
-714.733	506.720	0.138	-0.322
-713.718	-77.834	0.366	-0.127
-712.704	-85.754	-0.585	-0.182
-711.689	558.893	0.135	0.327
-710.675	415.789	-0.180	0.385
-709.660	-200.000	0.030	-0.171
-708.645	800.000	0.044	0.146
-707.631	71.869	0.172	0.180
-706.616	-179.123	-0.160	0.004
-705.602	279.827	-0.062	-0.111
-704.587	164.008	0.252	-0.357
-703.572	800.000	0.050	-0.145
-702.558	-200.000	-0.049	-0.428
-701.543	-116.428	-0.138	-0.026
-700.529	24.035	-0.138	0.114
-699.514	-200.000	-0.010	-0.100
-698.499	-67.078	0.141	0.056
-697.485	-200.000	-0.069	-0.305
-696.470	800.000	-0.026	-0.091
-695.456	-200.000	0.011	-0.159
-694.441	-8.902	-0.220	0.148
-693.426	-185.117	-0.299	-0.005
-692.412	-112.298	0.062	0.012
-691.397	396.000	0.104	-0.218
-690.383	-169.990	0.045	-0.002
-689.368	191.718	0.051	-0.078
-688.354	-200.000	0.007	-0.066
-687.339	132.253	0.163	0.211
-686.324	298.239	0.130	-0.239
-685.310	-200.000	0.008	-0.039
-684.295	212.494	-0.179	0.284
-683.281	145.383	-0.059	0.080
-682.266	-66.800	-0.214	0.085
-681.251	-200.000	0.018	0.181
-680.237	0.489	-0.128	-0.092
-679.222	-189.735	0.211	0.002
-678.208	241.960	-0.043	-0.072
-677.193	173.727	-0.143	-0.207
-676.178	-152.492	-0.371	-0.027
-675.164	563.090	-0.041	-0.101
-674.149	-73.265	0.268	0.099
-673.135	-44.886	0.200	-0.100
-672.120	232.064	-0.226	-0.372
-671.105	366.163	-0.177	-0.357
-670.091	117.809	0.052	0.064
-669.076	-200.000	0.032	-0.194
-668.062	-156.626	0.174	-0.011
-667.047	-59.295	-0.222	-0.096
-666.032	-100.099	0.103	-0.026
-665.018	-200.000	-0.032	-0.218
-664.003	496.495	0.164	-0.380
-662.989	-72.547	-0.212	0.079
-661.974	-76.712	-0.330	-0.116
-660.959	-91.007	-0.133	-0.038
-659.945	103.544	-0.073	0.086
-658.930	-161.898	-0.115	0.006
-657.916	-82.439	0.267	-0.087
-656.901	-48.335	-0.201	0.097
-655.886	-200.000	0.038	-0.360
-654.872	118.922	0.195	0.242
-653.857	276.840	0.130	-0.232
-652.843	-200.000	-0.032	0.442
-651.828	-76.538	-0.161	0.057
-650.814	336.882	0.136	-0.265
-649.799	-58.342	-0.224	0.098
-648.784	-200.000	0.078	-0.378
-647.770	800.000	0.092	0.355
-646.755	160.403	0.274	-0.383
-645.741	243.653	0.183	0.308
-644.726	-114.073	0.371	0.072
-643.711	-79.700	-0.061	0.021
-642.697	-200.000	-0.009	0.087
-641.682	-54.270	0.338	0.154
-640.668	-200.000	0.014	-0.190
-639.653	-200.000	-0.041	-0.308
-638.638	-134.153	-0.291	0.036
-637.624	-181.278	-0.246	-0.005
-636.609	301.585	-0.064	0.118
-635.595	-200.000	0.044	-0.345
-634.580	767.083	0.006	-0.016
-633.565	800.000	-0.113	0.333
-632.551	-121.194	0.163	-0.027
-631.536	-200.000	0.001	-0.165
-630.522	409.591	0.041	0.086
-629.507	-21.189	0.259	-0.159
-628.492	-200.000	0.017	0.223
-627.478	800.000	0.060	-0.232
-626.463	-62.612	-0.034	0.014
-625.449	-200.000	0.010	0.238
-624.434	800.000	0.040	-0.170
-623.419	282.405	0.087	0.157
-622.405	-107.914	0.087	0.019
-621.390	149.344	-0.197	0.268
-620.376	800.000	-0.045	-0.193
-619.361	-111.682	-0.301	-0.061
-618.346	476.656	0.092	-0.210
-617.332	800.000	-0.120	0.434
-616.317	161.998	0.133	-0.186
-615.303	-88.089	0.042	0.012
-614.288	-127.513	-0.226	0.033
-613.273	-62.826	-0.077	0.032
-612.259	-133.520	0.189	-0.024
-611.244	32.804	-0.209	0.182
-610.230	80.656	-0.143	0.154
-609.215	-117.881	-0.105	-0.019
-608.201	-129.488	-0.152	0.021
-607.186	195.741	0.200	0.304
-606.171	-110.662	0.335	-0.069
-605.157	128.150	0.183	-0.233
-604.142	78.295	0.320	0.342
-603.128	-79.904	0.161	0.054
-602.113	800.000	0.088	-0.280
-601.098	3.569	-0.136	0.099
-600.084	81.783	-0.093	0.101
-599.069	488.141	-0.029	0.066
-598.055	-156.120	-0.259	0.016
-597.040	800.000	-0.073	0.277
-596.025	-135.745	0.397	-0.047
-595.011	244.797	0.149	-0.252
-593.996	278.366	-0.153	-0.273
-592.982	-99.492	0.062	-0.016
-591.967	-77.426	-0.057	0.020
-590.952	-8.344	0.061	-0.041
-589.938	-85.372	0.404	-0.126
-588.923	205.887	0.017	0.027
-587.909	-25.510	-0.210	-0.124
-586.894	800.000	-0.017	0.064
-585.879	-200.000	0.070	0.352
-584.865	-133.550	0.373	0.047
-583.850	-200.000	-0.005	0.062
-582.836	120.655	0.233	-0.289
-581.821	-200.000	-0.022	-0.155
-580.806	-118.965	-0.188	-0.033
-579.792	-63.019	0.044	-0.018
-578.777	800.000	0.061	0.179
-577.763	407.196	-0.088	0.187
-576.748	-200.000	-0.029	-0.197
-575.733	800.000	0.094	-0.390
-574.719	-0.306	-0.150	-0.107
-573.704	-107.224	-0.374	-0.082
-572.690	-18.601	-0.335	-0.209
-571.675	210.932	0.122	0.192
-570.661	88.435	0.309	-0.343
-569.646	383.799	-0.129	-0.265
-568.631	-57.588	0.090	0.040
-567.617	-61.704	0.169	0.071
-566.602	-133.282	0.102	-0.013
-565.588	179.815	-0.090	0.133
-564.573	-30.178	-0.278	0.158
-563.558	-69.794	0.278	0.106
-562.544	800.000	0.038	-0.109
-561.529	106.936	-0.058	0.069
-560.515	-144.622	-0.248	-0.023
-559.500	-108.466	-0.079	-0.017
-558.485	-78.469	0.358	0.122
-557.471	204.046	-0.153	0.236
-556.456	36.571	-0.296	0.261
-555.442	-200.000	-0.007	0.298
-554.427	18.225	-0.094	0.075
-553.412	93.883	0.160	-0.181
-552.398	-177.429	0.132	-0.003
-551.383	243.120	-0.136	0.228
-550.369	97.318	0.178	0.204
-549.354	229.655	0.210	-0.343
-548.339	61.203	-0.073	0.073
-547.325	-200.000	-0.046	-0.238
-546.310	80.854	-0.174	0.188
-545.296	-200.000	-0.032	0.205
-544.281	-115.335	-0.220	0.041
-543.266	-138.240	0.273	-0.030
-542.252	-200.000	-0.038	0.388
-541.237	-200.000	-0.077	-0.443
-540.223	-105.291	0.310	0.071
-539.208	-63.603	-0.456	-0.187
-538.193	-100.174	-0.147	0.037
-537.179	124.133	0.164	-0.206
-536.164	800.000	-0.078	-0.287
-535.150	800.000	-0.134	0.414
-534.135	503.063	-0.097	0.223
-533.121	800.000	-0.051	-0.182
-532.106	442.921	0.152	-0.332
-531.091	279.754	0.027	0.049
-530.077	-162.413	-0.093	0.005
-529.062	-200.000	-0.042	0.219
-528.048	425.811	0.167	0.359
-527.033	89.889	0.052	-0.058
-526.018	20.266	-0.445	-0.359
-525.004	-200.000	-0.003	0.048
-523.989	-9.835	0.082	0.055
-522.975	-200.000	-0.025	-0.171
-521.960	53.641	-0.130	0.124
-520.945	-37.818	0.177	-0.094
-519.931	800.000	0.056	0.158
-518.916	800.000	-0.071	0.294
-517.902	-50.167	0.254	-0.120
-516.887	-111.956	-0.104	-0.021
-515.872	-138.883	-0.260	0.028
-514.858	200.762	0.300	0.460
-513.843	800.000	-0.043	0.167
-512.829	-126.254	0.027	0.004
-511.814	-76.963	0.145	0.050
-510.799	-200.000	-0.006	-0.350
-509.785	-37.357	-0.159	0.085
-508.770	77.748	-0.108	-0.115
-507.756	54.745	0.178	0.171
-506.741	-200.000	0.006	0.254
-505.726	714.613	-0.108	-0.286
-504.712	485.829	-0.060	-0.137
-503.697	-50.878	-0.175	0.082
-502.683	-26.190	-0.381	0.223
-501.668	800.000	0.035	0.106
-500.653	-80.672	0.104	0.034
-499.639	-53.470	0.411	-0.188
-498.624	-98.908	0.214	0.054
-497.610	12.293	0.019	0.015
-496.595	-200.000	0.042	-0.372
-495.581	-200.000	-0.020	0.228
-494.566	5.201	-0.029	0.022
-493.551	578.503	0.088	0.214
-492.537	-7.504	0.225	0.152
-491.522	418.146	0.046	-0.098
-490.508	-200.000	-0.022	-0.404
-489.493	140.723	-0.228	-0.301
-488.478	428.090	0.025	-0.053
-487.464	-47.417	0.136	0.066
-486.449	-14.465	-0.164	0.105
-485.435	-200.000	0.030	-0.192
-484.420	121.665	-0.080	0.099
-483.405	1.234	-0.422	-0.302
-482.391	-60.120	-0.179	-0.076
-481.376	-55.706	-0.148	-0.066
-480.362	-27.309	0.260	0.151
-479.347	-200.000	0.017	0.296
-478.332	-87.865	-0.131	-0.039
-477.318	158.586	-0.122	0.168
-476.303	-200.000	-0.002	0.022
-475.289	42.909	-0.031	-0.028
-474.274	-200.000	-0.009	0.085
-473.259	-197.085	0.213	0.001
-472.245	-138.543	-0.317	0.035
-471.230	-35.847	-0.149	-0.080
-470.216	-89.199	0.281	0.083
-469.201	464.849	0.087	-0.193
-468.186	-15.274	-0.199	-0.127
-467.172	-133.962	-0.067	-0.008
-466.157	-200.000	-0.006	0.107
-465.143	-124.473	-0.113	-0.017
-464.128	-200.000	0.025	-0.174
-463.113	-183.996	0.158	-0.003
-462.099	-66.454	-0.102	-0.040
-461.084	-71.514	0.094	-0.035
-460.070	-200.000	-0.009	-0.111
-459.055	44.755	-0.113	-0.104
-458.040	-41.661	0.343	-0.176
-457.026	-54.831	-0.175	-0.079
-456.011	57.654	-0.095	-0.093
-454.997	-9.144	0.059	-0.039
-453.982	-152.336	-0.245	0.018
-452.968	800.000	-0.075	-0.272
-451.953	-103.727	-0.142	0.033
-450.938	93.740	0.194	0.219
-449.924	570.362	-0.089	0.214
-448.909	83.162	0.206	0.224
-447.895	426.145	0.107	0.230
-446.880	-148.140	0.209	-0.017
-445.865	209.857	0.091	-0.142
-444.851	124.392	-0.161	-0.202
-443.836	-200.000	0.002	-0.295
-442.822	429.731	0.041	-0.089
-441.807	-200.000	0.024	-0.187
-440.792	-54.446	-0.185	-0.083
-439.778	800.000	0.059	-0.229
-438.763	712.937	0.113	-0.298
-437.749	-147.155	-0.298	-0.025
-436.734	-200.000	0.056	-0.261
-435.719	-200.000	0.017	0.123
-434.705	-200.000	0.063	-0.395
-433.690	167.125	0.244	0.345
-432.676	14.364	-0.151	0.117
-431.661	800.000	-0.053	0.160
-430.646	800.000	-0.079	0.227
-429.632	-106.002	0.045	0.010
-428.617	48.787	0.283	0.264
-427.603	-200.000	0.002	0.125
-426.588	-50.500	0.083	-0.039
-425.573	-116.195	0.221	0.041
-424.559	379.916	-0.074	-0.151
-423.544	653.769	-0.063	-0.162
-422.530	-200.000	0.016	-0.097
-421.515	123.238	-0.383	-0.477
-420.500	511.105	0.167	-0.387
-419.486	-103.966	-0.472	-0.109
-418.471	87.837	-0.052	-0.058
-417.457	75.958	-0.242	-0.254
-416.442	122.477	-0.225	0.280
-415.428	-31.390	0.188	0.105
-414.413	164.967	0.136	0.191
-413.398	-200.000	-0.008	0.045
-412.384	40.387	-0.125	0.112
-411.369	-122.868	0.223	-0.036
-410.355	800.000	0.043	0.161
-409.340	-60.099	-0.075	0.032
-408.325	-112.636	-0.316	-0.062
-407.311	-38.908	-0.344	0.180
-406.296	-200.000	-0.009	0.110
-405.282	149.426	-0.198	0.266
-404.267	96.167	0.087	0.099
-403.252	631.160	0.082	0.206
-402.238	-200.000	-0.047	-0.397
-401.223	234.802	-0.116	0.189
-400.209	-141.456	-0.381	0.038
-399.194	-200.000	0.003	0.169
-398.179	316.095	0.059	-0.110
-397.165	-0.222	-0.252	-0.178
-396.150	34.113	-0.043	0.037
-395.136	298.104	0.150	-0.273
-394.121	-56.511	0.365	0.161
-393.106	-143.877	0.074	-0.007
-392.092	-200.000	-0.030	-0.152
-391.077	-200.000	0.014	0.240
-390.063	-19.400	-0.185	-0.114
-389.048	-101.930	-0.320	0.077
-388.033	-200.000	0.023	0.285
-387.019	-155.067	0.040	0.003
-386.004	168.922	-0.189	-0.268
-384.990	-200.000	0.073	0.421
-383.975	-200.000	-0.016	0.242
-382.960	86.461	-0.138	-0.151
-381.946	-31.975	-0.232	0.129
-380.931	-41.863	-0.139	0.071
-379.917	-54.368	-0.072	0.033
-378.902	-93.117	-0.118	0.033
-377.888	64.940	-0.086	0.086
-376.873	-200.000	0.008	0.577
-375.858	2.897	-0.413	-0.298
-374.844	49.704	-0.190	-0.178
-373.829	-73.748	0.088	-0.032
-372.815	-200.000	0.039	-0.196
-371.800	-193.377	-0.209	0.002
-370.785	90.969	-0.181	0.201
-369.771	800.000	0.009	0.037
-368.756	580.372	0.176	0.427
-367.742	-200.000	-0.032	-0.151
-366.727	-26.316	0.139	0.081
-365.712	800.000	-0.063	0.261
-364.698	-200.000	0.014	-0.148
-363.683	682.178	0.204	-0.528
-362.669	-200.000	0.009	-0.074
-361.654	-200.000	-0.014	0.227
-360.639	-131.706	0.174	0.023
-359.625	114.841	0.163	-0.197
-358.610	-145.384	0.095	0.009
-357.596	153.857	-0.164	-0.223
-356.581	144.788	-0.116	0.154
-355.566	167.950	-0.151	-0.212
-354.552	800.000	0.071	0.262
-353.537	-63.551	-0.083	-0.034
-352.523	48.053	0.251	-0.233
-351.508	-200.000	-0.057	0.422
-350.493	-0.189	-0.256	-0.181
-349.479	211.064	0.093	0.145
-348.464	-34.643	0.184	-0.100
-347.450	169.511	0.048	-0.069
-346.435	-52.011	0.160	-0.074
-345.420	-41.218	-0.195	-0.100
-344.406	-101.337	-0.034	0.008
-343.391	-147.023	0.025	0.002
-342.377	675.218	-0.101	0.261
-341.362	-200.000	-0.003	0.045
-340.348	800.000	0.031	0.128
-339.333	-26.466	0.185	-0.107
-338.318	800.000	0.078	-0.224
-337.304	-61.178	0.038	0.016
-336.289	-200.000	0.033	0.275
-335.275	-136.466	0.177	0.020
-334.260	-90.058	0.387	0.112
-333.245	113.579	0.378	-0.455
-332.231	-49.072	0.083	-0.039
-331.216	-103.444	0.037	-0.009
-330.202	-26.786	-0.528	-0.306
-329.187	-200.000	0.021	-0.173
-328.172	-77.589	0.089	-0.031
-327.158	-33.072	-0.135	-0.074
-326.143	800.000	0.070	0.265
-325.129	708.206	-0.139	0.363
-324.114	127.304	-0.199	-0.250
-323.099	14.962	-0.131	0.101
-322.085	-10.673	-0.285	0.187
-321.070	-200.000	0.013	-0.453
-320.056	220.101	-0.168	0.266
-319.041	145.345	0.117	0.155
-318.026	28.774	0.077	0.065
-317.012	74.051	0.090	-0.093
-315.997	493.495	0.072	0.164
-314.983	56.347	0.355	-0.342
-313.968	120.070	-0.059	0.072
-312.953	800.000	0.070	0.195
-311.939	409.716	-0.111	-0.233
-310.924	-9.396	-0.010	0.007
-309.910	67.180	0.230	-0.232
-308.895	11.141	0.056	-0.042
-307.880	-200.000	0.003	0.280
-306.866	800.000	0.054	0.173
-305.851	254.793	0.087	0.148
-304.837	-67.438	0.341	-0.132
-303.822	229.513	-0.019	0.031
-302.807	-200.000	0.012	-0.331
-301.793	-146.749	-0.493	0.042
-300.778	-200.000	-0.009	0.045
-299.764	-28.233	0.179	0.103
-298.749	-200.000	0.048	-0.275
-297.735	49.101	0.147	-0.136
-296.720	29.044	0.023	0.019
-295.705	187.368	-0.120	-0.177
-294.691	399.481	0.130	0.269
-293.676	-193.596	0.082	-0.001
-292.662	13.008	-0.015	0.011
-291.647	-92.950	-0.246	-0.068
-290.632	-103.842	0.336	-0.078
-289.618	-200.000	-0.002	0.304
-288.603	-89.481	-0.242	-0.070
-287.589	56.691	0.158	-0.152
-286.574	83.838	0.067	-0.072
-285.559	-7.540	-0.234	-0.156
-284.545	-30.638	0.146	-0.082
-283.530	-56.864	-0.268	0.117
-282.516	97.892	-0.094	-0.107
-281.501	151.447	0.191	-0.257
-280.486	-200.000	-0.030	-0.163
-279.472	-106.348	0.405	0.090
-278.457	-200.000	0.011	-0.354
-277.443	-27.602	-0.097	-0.055
-276.428	-39.456	0.157	-0.081
-275.413	-63.776	0.079	0.032
-274.399	-190.562	0.421	0.004
-273.384	57.101	-0.159	0.153
-272.370	148.955	-0.087	0.116
-271.355	-23.504	-0.356	-0.211
-270.340	-134.139	-0.151	-0.018
-269.326	-86.510	0.317	-0.096
-268.311	-154.483	-0.207	0.014
-267.297	209.112	0.263	0.407
-266.282	229.034	0.194	-0.313
-265.267	-113.125	0.197	-0.038
-264.253	-16.409	-0.170	-0.107
-263.238	63.677	0.107	-0.107
-262.224	-81.513	0.075	0.024
-261.209	772.224	0.069	-0.186
-260.195	-35.994	-0.206	-0.110
-259.180	-200.000	-0.031	-0.146
-258.165	800.000	0.026	0.076
-257.151	-171.653	0.367	-0.012
-256.136	-8.978	-0.156	0.103
-255.122	-181.463	0.133	0.003
-254.107	481.367	-0.089	-0.201
-253.092	132.084	0.216	0.275
-252.078	656.431	-0.079	0.200
-251.063	-81.726	0.170	0.055
-250.049	254.527	0.102	0.173
-249.034	-49.960	-0.109	-0.051
-248.019	-55.422	0.297	0.131
-247.005	444.824	-0.081	-0.175
-245.990	13.112	-0.125	-0.095
-244.976	338.861	-0.178	-0.342
-243.961	-200.000	0.016	0.106
-242.946	311.441	-0.050	0.093
-241.932	333.652	-0.062	-0.119
-240.917	-15.234	-0.079	-0.050
-239.903	-88.807	0.216	-0.063
-238.888	-0.643	0.122	0.085
-237.873	794.017	0.062	-0.169
-236.859	-167.967	0.312	0.012
-235.844	800.000	0.040	0.172
-234.830	421.042	0.062	-0.130
-233.815	-105.001	0.387	0.088
-232.800	-200.000	0.008	0.052
-231.786	-18.577	0.173	-0.106
-230.771	35.794	0.089	-0.077
-229.757	-200.000	-0.010	0.068
-228.742	-200.000	0.001	-0.289
-227.727	35.063	-0.179	-0.155
-226.713	-35.996	0.138	-0.073
-225.698	-25.668	0.119	-0.069
-224.684	301.773	0.097	0.177
-223.669	30.442	-0.156	-0.132
-222.655	-200.000	0.042	0.199
-221.640	-68.070	-0.351	0.135
-220.625	-25.638	0.006	-0.003
-219.611	800.000	-0.061	-0.173
-218.596	-72.427	-0.084	-0.031
-217.582	-200.000	0.006	-0.193
-216.567	-91.947	0.173	-0.048
-215.552	20.543	-0.073	-0.058
-214.538	-200.000	-0.011	-0.088
-213.523	-80.211	-0.222	-0.073
-212.509	281.396	-0.177	-0.312
-211.494	60.413	-0.249	-0.243
-210.479	-119.326	0.218	-0.037
-209.465	-153.306	0.037	0.003
-208.450	-200.000	-0.023	-0.152
-207.436	-129.471	0.405	-0.055
-206.421	-21.617	0.257	0.155
-205.406	154.445	0.017	0.023
-204.392	216.022	-0.082	0.128
-203.377	-96.823	0.147	0.038
-202.363	-200.000	0.002	0.020
-201.348	119.637	-0.130	0.159
-200.333	445.130	0.128	0.277
-199.319	-177.525	0.402	0.010
-198.304	107.462	-0.156	0.183
-197.290	800.000	0.042	0.165
-196.275	15.187	0.147	-0.113
-195.260	268.584	0.156	0.270
-194.246	760.834	0.100	0.267
-193.231	60.272	-0.134	0.130
-192.217	533.212	0.144	0.336
-191.202	617.180	0.055	-0.135
-190.187	-75.296	-0.142	-0.050
-189.173	337.147	0.245	0.470
-188.158	-200.000	-0.008	0.266
-187.144	800.000	-0.055	0.213
-186.129	-200.000	0.028	0.311
-185.114	174.579	-0.071	-0.101
-184.100	145.722	-0.207	-0.273
-183.085	-88.151	-0.306	0.090
-182.071	-71.539	0.121	0.045
-181.056	800.000	-0.102	0.412
-180.042	800.000	0.027	0.112
-179.027	800.000	0.086	0.306
-178.012	-30.525	-0.212	-0.119
-176.998	-1.131	0.170	0.118
-175.983	285.303	-0.206	-0.365
-174.969	156.290	-0.111	-0.151
-173.954	213.225	-0.189	-0.293
-172.939	61.051	-0.191	-0.187
-171.925	-136.471	-0.114	-0.013
-170.910	222.384	-0.212	0.336
-169.896	-79.918	-0.254	0.084
-168.881	-163.093	0.143	-0.007
-167.866	-200.000	-0.034	-0.473
-166.852	213.375	0.084	0.131
-165.837	-45.057	0.200	0.098
-164.823	569.451	0.121	0.291
-163.808	104.831	0.062	0.072
-162.793	70.522	0.084	0.085
-161.779	-42.003	-0.122	-0.062
-160.764	-126.294	-0.173	-0.025
-159.750	48.246	0.094	0.086
-158.735	430.729	0.069	-0.146
-157.720	238.671	0.172	-0.282
-156.706	-18.400	-0.282	0.174
-155.691	800.000	-0.072	0.235
-154.677	800.000	-0.050	0.189
-153.662	245.608	-0.261	0.432
-152.647	158.922	0.180	-0.246
-151.633	188.986	-0.174	-0.256
-150.618	-200.000	-0.026	0.352
-149.604	-24.872	-0.172	-0.101
-148.589	-23.660	-0.092	-0.054
-147.574	-43.803	-0.222	0.110
-146.560	-26.095	-0.178	0.103
-145.545	176.230	0.163	0.233
-144.531	-92.945	0.268	-0.074
-143.516	800.000	-0.077	0.247
-142.502	89.550	-0.079	-0.087
-141.487	-200.000	-0.023	-0.134
-140.472	-47.251	0.137	-0.065
-139.458	32.326	-0.342	-0.290
-138.443	-200.000	-0.029	0.151
-137.429	17.193	-0.124	0.097
-136.414	214.717	0.022	-0.034
-135.399	-37.336	-0.327	-0.172
-134.385	800.000	-0.062	0.240
-133.370	709.009	-0.054	0.140
-132.356	-126.268	-0.160	0.023
-131.341	800.000	-0.048	0.150
-130.326	-173.383	0.298	-0.009
-129.312	-59.268	-0.286	-0.121
-128.297	-137.805	0.325	0.036
-127.283	-200.000	0.037	0.290
-126.268	-200.000	0.052	0.243
-125.253	89.973	0.116	-0.127
-124.239	-200.000	0.017	-0.149
-123.224	-149.806	0.419	-0.032
-122.210	-174.030	-0.133	-0.004
