DTS Sentinel unit serial number:	SN413079Multiplexer serial number:	ORYXHardware model number:	OX4-SRSoftware version number:	ORYX F/W v4.00 Oryx Data Collector v3.7.2.0data status	okinstallation	princeton_trtdifferential loss correction	single-endedforward channel	channel 3reverse channel	N/Adate	2019/09/16time	06:56:34forward acquisition time	60.00reverse acquisition time	0.00gamma	496.2192k internal	0.2335k external	0.2335temperature offset calibration	0.9961default loss term (dB/km)	0.3790temperature slope calibration	1.0000multiplexer offset coefficient	1.0000multiplexer slope coefficient	1.0000fibre end	0.00T internal ref (°C)	27.37T ext. ref 1 (°C)	11.48T ext. ref 2 (°C)	21.80length (m)	temperature (°C)	Stokes	anti-Stokes-747.200	101.329	-0.184	0.215
-746.185	800.000	-0.096	0.274
-745.171	-85.260	0.222	0.070
-744.156	-200.000	-0.061	0.419
-743.142	25.446	-0.219	-0.183
-742.127	-200.000	-0.023	-0.147
-741.112	-99.183	-0.159	0.040
-740.098	82.422	-0.245	0.268
-739.083	-92.061	0.051	-0.014
-738.069	295.701	0.121	-0.222
-737.054	-11.877	-0.183	-0.120
-736.039	538.592	-0.012	-0.029
-735.025	-70.974	0.072	-0.027
-734.010	-200.000	0.064	-0.399
-732.996	109.887	-0.166	-0.201
-731.981	-11.227	-0.121	-0.080
-730.966	103.550	0.101	0.119
-729.952	418.253	0.089	-0.192
-728.937	-139.592	0.307	0.033
-727.923	-86.891	-0.133	-0.041
-726.908	341.104	-0.195	-0.382
-725.894	-109.291	0.226	0.048
-724.879	76.243	-0.319	-0.339
-723.864	654.998	-0.072	0.185
-722.850	138.007	0.093	-0.122
-721.835	800.000	0.058	-0.219
-720.821	6.010	-0.330	-0.246
-719.806	316.030	0.154	-0.292
-718.791	-200.000	0.029	-0.210
-717.777	587.294	-0.010	-0.025
-716.762	-200.000	-0.047	0.218
-715.748	-130.503	0.378	-0.051
-714.733	519.212	-0.043	-0.102
-713.718	-200.000	-0.012	-0.168
-712.704	-176.767	-0.159	-0.004
-711.689	153.410	0.236	-0.325
-710.675	97.307	0.138	-0.158
-709.660	-22.526	0.240	0.146
-708.645	216.935	-0.060	-0.095
-707.631	-94.047	0.058	0.016
-706.616	-137.974	0.155	-0.017
-705.602	-90.243	0.245	-0.071
-704.587	7.774	0.060	0.045
-703.572	-91.988	0.172	0.049
-702.558	-200.000	0.038	0.264
-701.543	84.583	-0.312	-0.343
-700.529	-45.294	0.137	-0.068
-699.514	-200.000	-0.025	-0.246
-698.499	-200.000	0.003	0.312
-697.485	-200.000	0.009	-0.184
-696.470	-67.422	-0.302	-0.119
-695.456	-200.000	0.012	-0.065
-694.441	-200.000	-0.017	0.114
-693.426	-200.000	0.012	0.123
-692.412	800.000	-0.118	-0.491
-691.397	116.905	-0.130	-0.160
-690.383	800.000	-0.048	0.142
-689.368	800.000	-0.017	0.049
-688.354	151.175	-0.192	-0.262
-687.339	-200.000	0.020	-0.273
-686.324	101.279	0.166	0.194
-685.310	209.046	0.141	0.222
-684.295	-123.719	0.116	-0.018
-683.281	-200.000	-0.002	-0.038
-682.266	-85.003	-0.175	-0.055
-681.251	-200.000	0.025	-0.242
-680.237	-158.725	0.468	-0.027
-679.222	198.279	-0.309	-0.474
-678.208	-200.000	0.011	0.299
-677.193	-58.611	-0.134	0.058
-676.178	381.867	-0.037	0.076
-675.164	127.053	-0.102	0.130
-674.149	137.039	-0.154	-0.202
-673.135	-130.980	-0.075	-0.010
-672.120	339.997	0.106	-0.207
-671.105	14.029	-0.088	-0.069
-670.091	-200.000	-0.017	0.081
-669.076	-146.553	0.247	0.022
-668.062	-32.919	0.096	-0.054
-667.047	-82.326	-0.141	0.046
-666.032	-86.904	0.045	0.014
-665.018	56.946	0.058	-0.057
-664.003	-148.088	0.126	0.010
-662.989	-129.034	-0.106	-0.015
-661.974	94.114	-0.044	0.050
-660.959	-200.000	0.003	0.144
-659.945	7.772	0.419	0.314
-658.930	-16.528	0.268	0.170
-657.916	-200.000	-0.013	-0.060
-656.901	-118.337	-0.419	0.074
-655.886	-200.000	-0.025	-0.370
-654.872	-97.359	-0.241	0.063
-653.857	-110.007	-0.177	0.037
-652.843	97.787	0.021	0.024
-651.828	-183.294	0.265	-0.005
-650.814	390.594	0.086	0.179
-649.799	73.314	-0.253	-0.265
-648.784	-182.075	0.478	-0.009
-647.770	213.544	-0.166	-0.263
-646.755	-127.351	0.131	-0.019
-645.741	800.000	0.034	-0.127
-644.726	218.667	0.141	0.226
-643.711	146.060	-0.123	-0.166
-642.697	-200.000	-0.023	-0.160
-641.682	95.559	-0.076	-0.087
-640.668	14.494	-0.080	-0.062
-639.653	103.331	0.175	0.206
-638.638	4.979	-0.097	-0.072
-637.624	200.400	-0.172	-0.265
-636.609	-48.443	0.463	0.223
-635.595	-127.823	-0.305	0.044
-634.580	-200.000	0.066	0.327
-633.565	-66.042	-0.352	0.141
-632.551	-157.653	-0.246	-0.015
-631.536	26.159	-0.085	-0.071
-630.522	-94.869	-0.136	0.037
-629.507	5.046	0.240	-0.177
-628.492	-200.000	0.002	0.101
-627.478	227.234	-0.214	-0.348
-626.463	127.545	0.055	-0.070
-625.449	-28.700	0.143	0.082
-624.434	-200.000	-0.023	0.108
-623.419	229.825	0.113	0.185
-622.405	-162.796	-0.271	0.013
-621.390	-92.487	-0.243	-0.068
-620.376	194.253	-0.065	-0.098
-619.361	351.827	-0.081	-0.161
-618.346	479.613	-0.045	-0.103
-617.332	102.443	0.130	-0.152
-616.317	89.314	-0.155	-0.172
-615.303	-128.640	-0.170	-0.024
-614.288	106.986	0.029	-0.034
-613.273	-90.176	-0.306	-0.089
-612.259	-200.000	0.032	0.218
-611.244	68.176	-0.283	-0.290
-610.230	-16.186	-0.195	-0.124
-609.215	800.000	-0.075	-0.213
-608.201	-122.677	-0.205	0.033
-607.186	57.196	-0.236	0.230
-606.171	-76.341	-0.098	-0.035
-605.157	427.566	-0.187	0.403
-604.142	36.933	-0.219	0.193
-603.128	-200.000	0.005	-0.143
-602.113	105.945	-0.163	-0.193
-601.098	800.000	0.051	0.158
-600.084	-194.361	-0.242	0.002
-599.069	-84.428	0.229	0.072
-598.055	468.892	0.019	0.042
-597.040	-106.662	0.275	-0.061
-596.025	84.208	0.161	-0.176
-595.011	312.331	0.079	-0.149
-593.996	78.162	0.173	0.185
-592.982	193.418	-0.034	-0.052
-591.967	-72.079	0.103	0.038
-590.952	77.222	-0.108	0.115
-589.938	-200.000	0.027	0.268
-588.923	29.658	0.103	0.087
-587.909	-166.267	-0.145	0.006
-586.894	-200.000	0.014	-0.201
-585.879	-200.000	-0.002	0.264
-584.865	-57.663	0.288	0.126
-583.850	-196.543	-0.151	-0.001
-582.836	-41.330	-0.071	0.037
-581.821	331.612	-0.029	0.055
-580.806	167.157	0.166	0.235
-579.792	-155.632	-0.430	0.028
-578.777	231.961	0.151	0.247
-577.763	80.658	-0.149	-0.160
-576.748	-105.963	0.075	-0.017
-575.733	-200.000	-0.038	0.173
-574.719	140.038	-0.080	-0.105
-573.704	126.977	0.107	-0.135
-572.690	519.027	0.068	-0.159
-571.675	-85.994	0.235	0.072
-570.661	-86.179	0.219	-0.067
-569.646	435.672	0.146	0.317
-568.631	46.575	0.243	-0.225
-567.617	800.000	0.090	0.311
-566.602	254.075	-0.070	-0.119
-565.588	-29.676	-0.103	-0.059
-564.573	-200.000	0.000	-0.045
-563.558	0.769	-0.348	-0.248
-562.544	-52.400	-0.135	-0.062
-561.529	9.534	0.262	0.198
-560.515	-92.979	0.083	0.023
-559.500	800.000	0.064	0.273
-558.485	309.144	0.087	-0.162
-557.471	-200.000	-0.015	0.101
-556.456	188.797	-0.064	0.095
-555.442	-200.000	-0.002	-0.137
-554.427	-76.643	0.254	0.089
-553.412	68.475	-0.056	0.057
-552.398	6.233	-0.267	0.197
-551.383	657.700	0.104	-0.266
-550.369	87.223	0.132	0.145
-549.354	-200.000	0.028	-0.142
-548.339	-200.000	-0.015	0.203
-547.325	-25.167	0.259	0.153
-546.310	-86.760	-0.208	0.063
-545.296	-200.000	-0.026	-0.191
-544.281	-115.991	-0.205	0.038
-543.266	531.201	0.073	0.171
-542.252	-51.909	0.277	-0.128
-541.237	800.000	-0.013	-0.058
-540.223	-172.453	-0.383	0.012
-539.208	9.348	0.211	-0.159
-538.193	61.141	0.301	0.298
-537.179	265.158	-0.215	0.374
-536.164	635.428	0.092	-0.233
-535.150	-119.026	0.115	-0.020
-534.135	-200.000	-0.028	-0.143
-533.121	-109.624	0.124	-0.026
-532.106	-148.117	0.289	0.024
-531.091	-36.148	-0.148	0.079
-530.077	800.000	-0.166	0.466
-529.062	564.769	0.033	-0.079
-528.048	-1.077	0.270	0.190
-527.033	-2.080	-0.374	0.262
-526.018	4.093	-0.168	-0.122
-525.004	-4.471	0.279	0.192
-523.989	453.510	-0.084	-0.186
-522.975	123.791	0.124	-0.155
-521.960	67.083	-0.165	-0.167
-520.945	-200.000	-0.032	0.377
-519.931	-200.000	-0.041	0.184
-518.916	45.960	0.109	-0.100
-517.902	-87.015	-0.295	0.090
-516.887	201.303	-0.074	0.113
-515.872	224.063	0.200	0.322
-514.858	284.950	-0.158	-0.283
-513.843	-125.520	-0.262	0.040
-512.829	-66.231	0.327	-0.130
-511.814	-149.256	-0.083	-0.007
-510.799	282.379	0.158	-0.281
-509.785	800.000	-0.021	-0.067
-508.770	-78.109	0.317	0.108
-507.756	-24.245	0.116	0.069
-506.741	231.722	0.165	-0.270
-505.726	9.935	0.177	0.133
-504.712	800.000	0.076	0.242
-503.697	-200.000	-0.033	-0.151
-502.683	83.954	0.039	0.043
-501.668	58.001	0.232	0.226
-500.653	-22.274	0.343	-0.207
-499.639	14.033	-0.179	0.139
-498.624	10.631	-0.191	-0.145
-497.610	-200.000	0.018	0.125
-496.595	3.452	0.133	-0.096
-495.581	-100.651	0.269	-0.066
-494.566	239.965	-0.098	0.163
-493.551	54.445	0.342	0.328
-492.537	-200.000	-0.008	-0.360
-491.522	-62.918	-0.029	0.012
-490.508	-103.612	0.177	-0.041
-489.493	-200.000	-0.001	0.143
-488.478	-200.000	0.007	0.214
-487.464	800.000	0.096	-0.368
-486.449	-200.000	-0.017	-0.086
-485.435	96.540	-0.131	0.149
-484.420	-62.611	-0.050	0.020
-483.405	-73.615	0.195	0.071
-482.391	-200.000	0.035	-0.282
-481.376	-200.000	0.001	-0.235
-480.362	213.537	-0.050	0.078
-479.347	28.467	0.147	-0.124
-478.332	800.000	-0.099	0.308
-477.318	-81.689	-0.241	0.079
-476.303	210.952	0.037	0.058
-475.289	423.744	0.101	-0.215
-474.274	-165.899	-0.595	0.025
-473.259	-200.000	-0.002	-0.123
-472.245	800.000	0.084	-0.248
-471.230	800.000	0.086	-0.240
-470.216	706.335	-0.148	0.388
-469.201	-200.000	-0.007	-0.051
-468.186	-22.172	-0.283	-0.171
-467.172	240.839	0.069	-0.114
-466.157	-18.940	-0.131	-0.081
-465.143	2.150	0.202	-0.145
-464.128	-86.698	-0.226	0.069
-463.113	-200.000	-0.043	0.236
-462.099	-68.676	-0.093	0.036
-461.084	800.000	-0.014	-0.045
-460.070	109.949	-0.130	-0.155
-459.055	458.546	0.096	0.212
-458.040	800.000	0.064	0.204
-457.026	-67.667	0.213	0.083
-456.011	-45.823	0.180	-0.088
-454.997	-25.077	-0.193	0.114
-453.982	-101.570	-0.259	0.063
-452.968	-98.211	-0.320	-0.082
-451.953	344.418	-0.040	-0.077
-450.938	-116.954	0.275	-0.050
-449.924	800.000	-0.053	0.169
-448.909	276.710	0.173	-0.305
-447.895	-200.000	0.013	-0.316
-446.880	-90.668	0.115	-0.033
-445.865	-105.708	0.261	-0.059
-444.851	163.291	-0.073	0.102
-443.836	-200.000	0.015	0.111
-442.822	-24.329	0.182	-0.108
-441.807	-200.000	-0.055	-0.308
-440.792	-164.253	-0.241	-0.011
-439.778	-200.000	0.059	0.367
-438.763	12.246	-0.170	-0.130
-437.749	-13.509	0.087	-0.056
-436.734	485.388	0.121	-0.274
-435.719	-3.574	-0.433	-0.299
-434.705	-38.875	0.112	0.059
-433.690	-82.397	0.215	0.069
-432.676	114.501	0.028	0.034
-431.661	-11.634	0.071	-0.047
-430.646	-28.992	-0.206	-0.118
-429.632	226.552	0.120	-0.193
-428.617	-200.000	0.002	-0.499
-427.603	327.181	0.156	0.296
-426.588	98.727	0.236	-0.270
-425.573	487.978	0.032	0.073
-424.559	-40.416	-0.272	-0.140
-423.544	-42.902	-0.264	0.133
-422.530	800.000	0.078	0.331
-421.515	800.000	-0.055	0.225
-420.500	40.450	-0.146	0.130
-419.486	-28.593	0.264	0.151
-418.471	800.000	-0.049	-0.143
-417.457	-190.053	-0.109	0.001
-416.442	-200.000	0.014	-0.242
-415.428	-57.682	0.141	-0.061
-414.413	32.566	0.126	-0.108
-413.398	-35.693	-0.275	0.148
-412.384	-168.454	-0.046	0.002
-411.369	-190.014	-0.189	0.002
-410.355	524.422	0.080	-0.188
-409.340	-200.000	-0.009	0.232
-408.325	-200.000	-0.074	-0.396
-407.311	67.294	0.292	-0.295
-406.296	-143.833	-0.197	0.018
-405.282	-113.386	-0.261	0.051
-404.267	-200.000	-0.011	0.429
-403.252	768.393	0.080	-0.217
-402.238	-200.000	-0.008	-0.127
-401.223	-42.014	0.226	0.115
-400.209	23.723	0.154	0.126
-399.194	134.930	-0.115	0.148
-398.179	-103.332	0.265	-0.062
-397.165	-200.000	-0.015	-0.262
-396.150	284.892	0.064	0.115
-395.136	366.676	-0.119	0.239
-394.121	82.849	-0.151	-0.163
-393.106	-143.978	0.210	0.020
-392.092	217.304	-0.103	-0.162
-391.077	71.179	-0.215	-0.221
-390.063	-94.069	-0.313	0.085
-389.048	37.938	0.145	-0.128
-388.033	-28.052	0.225	0.129
-387.019	123.437	-0.170	-0.211
-386.004	401.030	-0.080	0.165
-384.990	800.000	0.086	0.253
-383.975	71.465	-0.136	0.140
-382.960	-152.092	-0.175	0.013
-381.946	-107.922	0.248	0.053
-380.931	800.000	0.066	0.196
-379.917	800.000	-0.030	0.118
-378.902	800.000	0.057	-0.160
-377.888	76.343	-0.069	-0.072
-376.873	-62.665	0.210	0.086
-375.858	-175.810	-0.186	-0.005
-374.844	-79.406	-0.224	-0.075
-373.829	-61.601	0.256	-0.106
-372.815	-104.224	-0.183	0.042
-371.800	-200.000	-0.019	-0.271
-370.785	85.336	-0.198	-0.215
-369.771	800.000	0.063	0.235
-368.756	216.288	0.025	-0.039
-367.742	-17.059	-0.148	0.092
-366.727	590.519	-0.158	0.386
-365.712	436.691	0.101	-0.218
-364.698	-144.680	0.199	0.018
-363.683	213.593	-0.066	-0.104
-362.669	-73.417	0.285	-0.103
-361.654	27.772	-0.073	-0.061
-360.639	-75.366	-0.400	0.141
-359.625	-144.591	-0.200	-0.018
-358.610	800.000	0.042	0.150
-357.596	800.000	-0.091	0.285
-356.581	800.000	-0.047	-0.159
-355.566	37.114	0.244	0.214
-354.552	-73.895	0.232	-0.083
-353.537	737.444	0.022	-0.058
-352.523	-107.948	-0.264	0.057
-351.508	455.378	0.072	0.157
-350.493	693.559	-0.041	-0.108
-349.479	-97.491	-0.144	-0.037
-348.464	354.325	-0.046	-0.091
-347.450	-132.808	0.259	-0.033
-346.435	73.119	0.208	0.215
-345.420	-13.464	0.214	-0.137
-344.406	-200.000	-0.003	-0.120
-343.391	681.177	-0.047	-0.122
-342.377	51.541	0.159	-0.150
-341.362	-200.000	0.019	-0.368
-340.348	-14.014	-0.313	-0.200
-339.333	-200.000	-0.018	0.215
-338.318	-200.000	0.034	-0.272
-337.304	-139.056	0.039	-0.004
-336.289	-200.000	0.016	0.095
-335.275	-62.177	0.016	-0.007
-334.260	-53.295	0.272	0.123
-333.245	-42.517	-0.151	0.076
-332.231	118.542	-0.232	-0.283
-331.216	-0.513	0.112	-0.079
-330.202	296.218	-0.092	0.166
-329.187	62.996	0.118	-0.117
-328.172	634.581	-0.067	0.168
-327.158	-141.263	0.405	0.041
-326.143	235.968	0.144	-0.236
-325.129	-97.015	-0.097	0.025
-324.114	258.489	0.037	0.063
-323.099	90.584	-0.062	-0.069
-322.085	390.159	0.137	0.281
-321.070	442.426	-0.150	0.325
-320.056	-59.012	0.332	0.142
-319.041	-200.000	0.003	-0.353
-318.026	-200.000	-0.027	-0.353
-317.012	800.000	-0.129	0.436
-315.997	-17.357	-0.193	0.120
-314.983	322.243	-0.121	-0.227
-313.968	-82.600	-0.215	0.069
-312.953	114.466	0.271	0.327
-311.939	-62.209	0.156	0.064
-310.924	439.714	-0.092	0.198
-309.910	212.135	-0.120	0.187
-308.895	800.000	0.020	-0.055
-307.880	-142.537	-0.174	-0.017
-306.866	318.928	-0.163	-0.305
-305.851	292.880	-0.093	0.168
-304.837	72.513	-0.180	0.185
-303.822	-200.000	-0.006	-0.159
-302.807	-2.383	0.081	-0.056
-301.793	170.811	0.070	-0.099
-300.778	117.430	0.214	0.260
-299.764	71.825	-0.200	-0.206
-298.749	-21.900	0.088	0.053
-297.735	800.000	0.056	0.166
-296.720	-143.225	0.174	0.017
-295.705	-173.055	0.293	0.009
-294.691	345.428	0.148	-0.288
-293.676	83.579	-0.320	0.344
-292.662	38.649	0.139	0.122
-291.647	34.144	0.093	-0.080
-290.632	-37.088	-0.257	0.136
-289.618	-186.627	0.370	-0.005
-288.603	-63.851	-0.169	0.068
-287.589	-200.000	0.006	-0.351
-286.574	-200.000	0.026	0.346
-285.559	-63.960	0.143	0.058
-284.545	-31.613	-0.226	-0.125
-283.530	150.546	0.129	0.173
-282.516	-112.248	-0.244	0.048
-281.501	270.805	0.132	-0.229
-280.486	-104.973	0.446	0.101
-279.472	-106.187	-0.298	-0.066
-278.457	-72.170	0.303	-0.111
-277.443	486.095	0.108	-0.243
-276.428	-36.715	-0.059	0.031
-275.413	133.462	-0.185	-0.235
-274.399	-124.111	0.087	-0.013
-273.384	800.000	0.039	-0.115
-272.370	-200.000	0.052	0.332
-271.355	179.375	0.107	-0.154
-270.340	-200.000	0.014	-0.123
-269.326	56.334	-0.066	0.063
-268.311	120.832	-0.052	-0.064
-267.297	313.578	0.058	-0.107
-266.282	-72.220	0.112	-0.041
-265.267	12.869	-0.098	0.075
-264.253	-69.439	-0.195	0.074
-263.238	119.727	0.157	0.192
-262.224	563.460	0.022	0.052
-261.209	-63.383	0.415	-0.168
-260.195	-139.793	-0.219	-0.023
-259.180	-147.457	-0.178	0.015
-258.165	260.456	0.118	0.200
-257.151	-112.484	0.182	0.036
-256.136	-134.701	0.022	0.003
-255.122	127.162	-0.162	-0.202
-254.107	-12.715	0.209	0.134
-253.092	-10.780	0.105	-0.068
-252.078	-200.000	0.011	0.266
-251.063	82.448	-0.218	0.233
-250.049	-7.365	0.229	-0.153
-249.034	154.273	0.199	0.269
-248.019	-200.000	-0.029	0.332
-247.005	183.688	-0.171	-0.249
-245.990	-190.214	-0.304	-0.003
-244.976	-22.685	0.119	-0.071
-243.961	307.749	0.151	0.277
-242.946	-200.000	-0.026	-0.269
-241.932	-107.242	-0.192	-0.042
-240.917	642.224	-0.065	-0.163
-239.903	-144.763	-0.317	-0.029
-238.888	-50.420	-0.193	-0.090
-237.873	29.459	-0.137	0.114
-236.859	-34.874	0.135	0.073
-235.844	800.000	0.023	0.067
-234.830	441.041	-0.093	-0.200
-233.815	-122.567	-0.145	-0.023
-232.800	-62.477	0.088	-0.036
-231.786	612.074	-0.075	-0.185
-230.771	145.016	0.035	0.046
-229.757	-12.089	0.070	-0.045
-228.742	-200.000	0.005	-0.142
-227.727	393.028	-0.042	0.086
-226.713	527.415	-0.186	-0.431
-225.698	22.442	-0.191	-0.154
-224.684	99.146	0.078	-0.089
-223.669	-64.366	0.187	0.075
-222.655	240.993	-0.095	-0.156
-221.640	326.602	-0.037	-0.070
-220.625	-200.000	-0.020	0.149
-219.611	-116.670	-0.212	-0.038
-218.596	-133.663	-0.122	0.015
-217.582	66.390	-0.219	0.219
-216.567	50.804	-0.227	-0.212
-215.552	-43.839	0.098	0.048
-214.538	800.000	0.079	0.239
-213.523	127.791	-0.102	0.128
-212.509	-81.657	-0.265	0.086
-211.494	-164.412	0.371	-0.017
-210.479	150.992	0.187	-0.250
-209.465	-200.000	-0.005	-0.148
-208.450	-98.328	-0.145	0.037
-207.436	800.000	-0.072	0.215
-206.421	-200.000	0.021	-0.410
-205.406	-72.603	-0.216	0.078
-204.392	1.491	0.165	-0.117
-203.377	-162.296	0.365	0.018
-202.363	555.823	0.128	-0.303
-201.348	131.199	-0.158	-0.200
-200.333	-200.000	0.010	0.188
-199.319	-200.000	0.006	0.116
-198.304	-2.885	0.413	0.284
-197.290	30.424	-0.137	0.115
-196.275	-31.732	0.158	0.087
-195.260	-47.612	0.190	0.091
-194.246	-94.525	-0.240	-0.064
-193.231	-80.687	-0.225	-0.073
-192.217	141.538	-0.216	0.281
-191.202	179.166	0.212	-0.306
-190.187	-155.930	-0.405	-0.025
-189.173	268.250	0.131	0.226
-188.158	-200.000	0.059	0.270
-187.144	800.000	0.089	0.249
-186.129	48.049	-0.110	-0.101
-185.114	-200.000	0.013	0.385
-184.100	159.706	0.072	0.098
-183.085	-29.407	0.263	-0.148
-182.071	-86.180	0.174	0.053
-181.056	120.467	-0.044	-0.053
-180.042	-17.841	0.364	0.225
-179.027	-48.258	-0.134	-0.064
-178.012	-200.000	0.040	0.275
-176.998	63.436	0.186	0.183
-175.983	-108.767	-0.171	0.036
-174.969	197.868	-0.057	-0.086
-173.954	-17.726	0.403	0.249
-172.939	348.913	-0.121	-0.234
-171.925	170.971	0.081	0.115
-170.910	100.057	-0.176	0.201
-169.896	-39.616	0.216	-0.111
-168.881	231.176	-0.121	-0.195
-167.866	-43.938	-0.075	-0.037
-166.852	-200.000	-0.151	0.000
-165.837	-200.000	0.014	-0.194
-164.823	-77.541	-0.306	-0.104
-163.808	309.352	0.086	0.158
-162.793	-200.000	-0.009	0.162
-161.779	698.746	-0.035	-0.090
-160.764	33.819	0.185	-0.158
-159.750	800.000	0.055	-0.176
-158.735	-200.000	0.009	-0.245
-157.720	-88.381	0.185	0.054
-156.706	92.262	0.095	0.105
-155.691	175.296	0.086	-0.123
-154.677	-90.899	0.241	0.068
-153.662	-200.000	-0.031	0.153
-152.647	800.000	0.081	-0.298
-151.633	-94.336	-0.173	0.046
-150.618	-200.000	0.000	0.463
-149.604	-200.000	0.318	-0.001
-148.589	202.521	-0.179	-0.271
-147.574	800.000	0.065	-0.247
-146.560	218.050	0.157	-0.247
-145.545	329.989	0.087	0.165
-144.531	-37.445	0.444	0.233
-143.516	354.622	0.107	-0.210
-142.502	-10.595	0.157	-0.102
-141.487	65.382	-0.163	-0.162
-140.472	43.589	-0.101	0.091
-139.458	-163.709	0.469	-0.022
-138.443	-131.822	0.263	-0.034
-137.429	-176.492	-0.257	-0.007
-136.414	22.810	0.133	0.107
-135.399	-4.093	0.369	-0.251
-134.385	-83.262	-0.321	0.101
-133.370	-161.738	0.134	0.007
-132.356	145.770	-0.225	-0.295
-131.341	-200.000	0.026	-0.118
-130.326	99.482	0.131	-0.148
-129.312	37.477	-0.250	0.218
-128.297	-102.403	-0.108	0.025
-127.283	203.980	0.053	0.081
-126.268	800.000	-0.048	0.151
-125.253	-200.000	0.018	-0.180
-124.239	125.550	0.232	0.287
-123.224	-200.000	-0.014	-0.405
-122.210	176.699	-0.264	0.376
-121.195	364.307	0.159	0.313
