DTS Sentinel unit serial number:	SN413079Multiplexer serial number:	ORYXHardware model number:	OX4-SRSoftware version number:	ORYX F/W v4.00 Oryx Data Collector v3.7.2.0data status	okinstallation	princeton_trtdifferential loss correction	single-endedforward channel	channel 3reverse channel	N/Adate	2019/09/14time	08:12:35forward acquisition time	60.00reverse acquisition time	0.00gamma	496.2192k internal	0.2332k external	0.2332temperature offset calibration	1.0047default loss term (dB/km)	0.3790temperature slope calibration	1.0000multiplexer offset coefficient	1.0000multiplexer slope coefficient	1.0000fibre end	0.00T internal ref (°C)	27.48T ext. ref 1 (°C)	3.57T ext. ref 2 (°C)	26.19length (m)	temperature (°C)	Stokes	anti-Stokes-747.200	800.000	-0.088	-0.342
-746.185	336.670	-0.013	0.025
-745.171	800.000	-0.056	0.203
-744.156	-200.000	-0.006	0.050
-743.142	800.000	0.047	0.143
-742.127	-200.000	-0.032	0.247
-741.112	-153.933	-0.202	-0.014
-740.098	739.048	0.025	-0.068
-739.083	-200.000	0.032	0.217
-738.069	-106.288	-0.338	0.076
-737.054	5.628	-0.222	0.165
-736.039	-30.109	-0.119	-0.068
-735.025	159.016	0.125	0.174
-734.010	-6.754	-0.223	-0.153
-732.996	126.933	-0.152	-0.194
-731.981	-200.000	0.013	0.322
-730.966	51.164	0.306	-0.292
-729.952	-146.649	-0.200	-0.017
-728.937	-163.568	-0.108	-0.005
-727.923	-0.542	-0.195	0.139
-726.908	-71.472	-0.370	0.139
-725.894	84.300	-0.113	-0.124
-724.879	73.648	-0.116	0.122
-723.864	356.253	-0.167	-0.335
-722.850	36.572	-0.251	0.222
-721.835	800.000	0.064	0.185
-720.821	7.281	-0.398	0.299
-719.806	50.990	-0.118	-0.112
-718.791	-106.701	-0.300	0.067
-717.777	-200.000	0.019	0.099
-716.762	31.757	-0.372	0.321
-715.748	-43.219	-0.203	0.103
-714.733	-38.337	-0.315	-0.168
-713.718	-10.726	0.178	0.118
-712.704	225.673	0.229	0.372
-711.689	800.000	-0.093	-0.336
-710.675	205.704	0.099	-0.155
-709.660	59.183	-0.010	0.010
-708.645	-100.819	0.304	0.075
-707.631	245.166	-0.130	0.220
-706.616	-107.960	-0.225	0.049
-705.602	800.000	-0.047	0.140
-704.587	-161.732	-0.059	-0.003
-703.572	-131.033	0.347	-0.046
-702.558	310.863	0.121	0.228
-701.543	-74.647	0.115	-0.041
-700.529	47.667	0.074	-0.069
-699.514	-117.455	0.106	0.019
-698.499	-71.012	-0.239	0.090
-697.485	-93.507	-0.300	-0.083
-696.470	-200.000	0.035	0.210
-695.456	-142.322	-0.222	0.022
-694.441	-200.000	0.021	0.104
-693.426	-200.000	-0.001	-0.065
-692.412	108.454	0.211	-0.252
-691.397	-7.262	-0.079	0.054
-690.383	377.826	0.059	0.121
-689.368	517.689	-0.116	-0.273
-688.354	800.000	0.029	0.115
-687.339	-11.434	-0.226	-0.149
-686.324	50.198	-0.206	0.196
-685.310	-200.000	-0.012	0.154
-684.295	-89.131	-0.153	0.045
-683.281	-55.233	0.309	0.139
-682.266	-10.815	-0.081	-0.054
-681.251	-162.205	0.111	0.006
-680.237	-200.000	-0.048	0.256
-679.222	-67.925	0.186	-0.073
-678.208	239.677	0.109	0.182
-677.193	-200.000	-0.012	0.249
-676.178	-200.000	-0.045	-0.241
-675.164	-140.058	-0.102	0.011
-674.149	-82.938	-0.050	0.016
-673.135	292.310	-0.112	0.204
-672.120	-161.321	-0.269	0.014
-671.105	-22.329	-0.084	-0.051
-670.091	-0.869	-0.318	-0.226
-669.076	15.593	-0.266	-0.209
-668.062	-51.687	-0.452	-0.211
-667.047	132.493	-0.016	-0.021
-666.032	47.881	0.111	-0.104
-665.018	-133.537	-0.219	-0.028
-664.003	-43.736	0.090	-0.045
-662.989	293.520	0.059	0.109
-661.974	-34.723	-0.368	-0.202
-660.959	607.612	-0.088	-0.219
-659.945	3.160	-0.181	0.132
-658.930	-72.994	-0.159	0.059
-657.916	94.901	0.235	-0.268
-656.901	34.980	0.170	-0.149
-655.886	151.833	-0.056	0.077
-654.872	-200.000	-0.023	0.188
-653.857	20.832	-0.098	0.079
-652.843	155.072	0.081	-0.111
-651.828	-43.491	-0.133	-0.067
-650.814	600.448	0.087	-0.218
-649.799	-114.156	0.196	0.038
-648.784	-200.000	0.022	-0.239
-647.770	35.172	-0.244	0.215
-646.755	-6.719	0.088	-0.060
-645.741	72.376	-0.108	0.113
-644.726	-66.986	-0.251	-0.099
-643.711	-19.855	-0.037	0.023
-642.697	333.251	0.101	-0.195
-641.682	-200.000	-0.015	-0.121
-640.668	-66.357	-0.142	-0.057
-639.653	-200.000	0.007	-0.034
-638.638	-94.590	0.219	-0.060
-637.624	190.500	-0.052	-0.079
-636.609	-120.833	-0.155	0.026
-635.595	-19.362	-0.155	-0.096
-634.580	-43.140	0.043	-0.022
-633.565	800.000	0.009	-0.033
-632.551	-174.001	-0.108	-0.003
-631.536	178.615	-0.187	-0.273
-630.522	-133.306	0.271	0.034
-629.507	81.060	0.043	-0.047
-628.492	-104.817	-0.303	-0.070
-627.478	-200.000	-0.029	-0.200
-626.463	-200.000	-0.072	-0.377
-625.449	54.189	-0.173	0.167
-624.434	280.749	-0.079	-0.142
-623.419	-170.308	0.166	0.006
-622.405	-46.515	-0.203	0.100
-621.390	800.000	0.090	-0.392
-620.376	372.582	-0.088	-0.179
-619.361	-174.420	-0.034	-0.001
-618.346	-200.000	0.038	0.234
-617.332	215.632	0.094	-0.149
-616.317	-66.390	-0.121	-0.048
-615.303	-200.000	0.048	0.240
-614.288	-85.189	0.211	-0.066
-613.273	-66.742	0.173	0.068
-612.259	13.702	-0.175	-0.136
-611.244	-140.476	0.193	0.020
-610.230	-200.000	0.017	-0.214
-609.215	-173.902	0.253	0.007
-608.201	-113.810	0.433	0.084
-607.186	-45.454	-0.131	0.065
-606.171	-156.334	0.056	0.003
-605.157	-200.000	-0.000	-0.062
-604.142	-136.047	0.268	0.032
-603.128	-50.142	0.177	0.084
-602.113	-74.341	0.092	-0.033
-601.098	-200.000	-0.000	0.180
-600.084	-200.000	-0.035	-0.287
-599.069	-85.542	-0.234	0.073
-598.055	98.708	0.278	-0.321
-597.040	187.975	-0.042	-0.062
-596.025	330.608	-0.040	-0.077
-595.011	-144.831	-0.159	0.015
-593.996	-47.985	-0.409	0.198
-592.982	222.113	0.096	-0.154
-591.967	-66.931	0.141	-0.056
-590.952	-200.000	-0.005	-0.252
-589.938	-200.000	0.012	0.270
-588.923	-15.747	-0.275	-0.175
-587.909	-59.828	-0.232	-0.099
-586.894	359.759	0.120	-0.241
-585.879	60.170	0.195	-0.193
-584.865	212.577	0.079	0.124
-583.850	202.076	0.212	0.326
-582.836	-123.282	-0.322	-0.051
-581.821	270.583	-0.088	-0.155
-580.806	-200.000	0.014	0.154
-579.792	124.794	0.220	0.277
-578.777	-110.371	-0.135	0.028
-577.763	800.000	-0.078	-0.241
-576.748	99.253	0.277	0.320
-575.733	-105.558	-0.315	-0.071
-574.719	604.000	-0.127	0.315
-573.704	800.000	-0.035	-0.155
-572.690	217.137	0.083	-0.133
-571.675	-117.355	-0.410	0.074
-570.661	-200.000	0.017	0.094
-569.646	258.939	-0.104	0.179
-568.631	-29.353	0.053	0.030
-567.617	-200.000	0.019	-0.147
-566.602	-200.000	-0.018	0.238
-565.588	-143.287	-0.234	0.022
-564.573	16.796	0.197	-0.156
-563.558	3.676	-0.031	0.023
-562.544	59.117	0.185	0.182
-561.529	74.420	-0.219	-0.230
-560.515	-141.841	-0.223	0.022
-559.500	244.318	-0.181	0.303
-558.485	-141.113	0.229	0.023
-557.471	-200.000	-0.007	-0.190
-556.456	-65.212	-0.254	0.102
-555.442	420.752	0.023	0.050
-554.427	125.854	0.124	-0.157
-553.412	-139.419	0.114	0.012
-552.398	-82.571	0.212	0.069
-551.383	23.602	0.405	-0.333
-550.369	-111.065	-0.181	0.037
-549.354	-200.000	0.024	0.208
-548.339	176.008	0.030	-0.043
-547.325	132.456	0.111	-0.143
-546.310	-24.846	0.145	0.086
-545.296	-12.021	-0.101	0.066
-544.281	-200.000	0.055	-0.285
-543.266	97.010	0.360	-0.412
-542.252	-59.839	0.345	0.147
-541.237	-200.000	-0.030	-0.306
-540.223	-51.817	0.106	-0.049
-539.208	-121.286	-0.090	0.015
-538.193	-159.028	0.227	-0.013
-537.179	-41.208	0.128	-0.066
-536.164	159.522	-0.123	-0.170
-535.150	-200.000	-0.027	0.221
-534.135	800.000	-0.037	0.120
-533.121	-147.142	-0.426	0.036
-532.106	-73.138	0.090	-0.033
-531.091	128.374	0.155	0.197
-530.077	126.513	-0.079	0.099
-529.062	77.430	-0.083	-0.088
-528.048	-200.000	0.021	0.128
-527.033	207.634	0.032	0.050
-526.018	-144.374	0.130	-0.012
-525.004	-7.924	-0.160	0.108
-523.989	-140.804	0.083	0.009
-522.975	-15.785	-0.103	0.065
-521.960	495.902	0.072	-0.164
-520.945	-35.419	-0.063	0.034
-519.931	282.442	0.072	0.129
-518.916	-59.071	0.325	0.140
-517.902	-160.898	-0.162	-0.009
-516.887	800.000	-0.082	0.313
-515.872	800.000	-0.026	-0.071
-514.858	-107.722	-0.406	0.088
-513.843	10.779	-0.074	0.056
-512.829	307.061	0.103	0.191
-511.814	-151.606	-0.202	-0.015
-510.799	143.565	-0.148	-0.197
-509.785	92.096	-0.080	-0.090
-508.770	574.651	-0.011	-0.027
-507.756	292.805	-0.185	-0.336
-506.741	24.580	0.149	0.123
-505.726	-14.847	-0.323	0.207
-504.712	-176.876	0.079	0.002
-503.697	-9.592	0.130	-0.086
-502.683	-3.401	-0.203	0.141
-501.668	-200.000	0.003	-0.095
-500.653	477.248	0.012	-0.026
-499.639	171.641	-0.049	0.070
-498.624	-3.423	-0.172	0.119
-497.610	64.257	0.289	-0.290
-496.595	455.550	-0.221	-0.489
-495.581	381.871	0.093	0.189
-494.566	-200.000	-0.049	-0.230
-493.551	-200.000	0.004	0.045
-492.537	-126.444	-0.214	0.032
-491.522	-200.000	0.046	-0.261
-490.508	-200.000	-0.025	-0.481
-489.493	5.098	0.144	0.106
-488.478	-29.220	-0.146	0.083
-487.464	-200.000	-0.072	0.463
-486.449	800.000	0.073	0.231
-485.435	-94.114	0.223	0.061
-484.420	-200.000	-0.025	0.394
-483.405	115.045	0.175	-0.213
-482.391	-170.148	-0.153	0.005
-481.376	151.837	0.086	-0.116
-480.362	164.668	0.110	0.155
-479.347	65.310	-0.139	-0.140
-478.332	-90.455	0.084	0.024
-477.318	-162.593	-0.083	0.004
-476.303	-64.647	0.152	0.061
-475.289	-77.719	0.233	0.080
-474.274	-23.689	0.105	0.062
-473.259	-155.308	-0.240	-0.016
-472.245	-39.819	-0.167	-0.087
-471.230	-200.000	-0.020	-0.254
-470.216	767.060	-0.046	0.124
-469.201	-125.427	-0.228	0.035
-468.186	-52.674	0.258	0.118
-467.172	-200.000	-0.009	-0.050
-466.157	-131.016	0.129	-0.017
-465.143	53.996	-0.026	0.025
-464.128	-200.000	-0.014	0.191
-463.113	-200.000	-0.014	-0.077
-462.099	-200.000	-0.083	-0.508
-461.084	737.286	0.053	0.140
-460.070	36.678	0.175	-0.154
-459.055	33.520	-0.150	-0.130
-458.040	-67.890	-0.069	-0.027
-457.026	800.000	0.175	0.585
-456.011	-200.000	-0.003	0.031
-454.997	616.265	-0.064	0.160
-453.982	-105.616	-0.204	0.046
-452.968	-43.096	-0.106	0.053
-451.953	-200.000	0.003	-0.111
-450.938	-59.796	0.245	0.104
-449.924	-200.000	0.019	0.292
-448.909	561.026	-0.070	-0.167
-447.895	-61.723	-0.265	-0.110
-446.880	-116.620	-0.198	0.036
-445.865	-11.803	-0.107	-0.070
-444.851	163.895	-0.249	0.349
-443.836	671.842	0.104	0.268
-442.822	-99.019	-0.385	-0.097
-441.807	-60.944	-0.386	-0.162
-440.792	-73.313	0.361	-0.131
-439.778	2.740	0.153	-0.110
-438.763	800.000	-0.049	-0.206
-437.749	-48.918	0.203	-0.096
-436.734	-148.699	0.326	0.026
-435.719	800.000	-0.119	0.415
-434.705	-130.065	0.185	-0.025
-433.690	91.275	0.042	0.047
-432.676	-200.000	-0.025	0.157
-431.661	-32.468	0.135	-0.075
-430.646	171.937	0.106	0.152
-429.632	-61.034	0.300	-0.126
-428.617	-4.161	-0.109	-0.075
-427.603	-200.000	0.005	0.055
-426.588	-109.295	0.288	0.061
-425.573	-28.612	-0.078	0.045
-424.559	-200.000	0.052	0.276
-423.544	177.339	-0.130	-0.188
-422.530	800.000	-0.051	-0.195
-421.515	370.901	0.147	0.296
-420.500	-62.367	-0.387	-0.160
-419.486	72.150	-0.066	0.069
-418.471	276.193	-0.114	-0.201
-417.457	531.785	-0.044	0.103
-416.442	-53.888	-0.061	0.028
-415.428	-96.651	0.180	0.047
-414.413	-200.000	-0.004	0.081
-413.398	-60.391	0.105	0.044
-412.384	94.150	-0.201	0.226
-411.369	-132.648	-0.194	0.025
-410.355	-0.785	0.088	0.062
-409.340	-160.950	0.214	0.011
-408.325	800.000	-0.065	-0.210
-407.311	45.239	-0.285	0.261
-406.296	-148.817	-0.191	0.015
-405.282	-8.051	0.120	0.080
-404.267	-24.397	0.283	-0.167
-403.252	-200.000	0.009	0.402
-402.238	-200.000	-0.062	0.274
-401.223	58.195	-0.193	-0.188
-400.209	800.000	-0.084	-0.295
-399.194	354.159	-0.082	-0.163
-398.179	-200.000	0.031	-0.157
-397.165	-105.312	0.359	-0.081
-396.150	-58.174	-0.178	-0.077
-395.136	800.000	0.054	-0.187
-394.121	55.542	-0.289	-0.278
-393.106	-72.614	0.312	0.114
-392.092	800.000	-0.059	0.193
-391.077	-200.000	0.002	0.215
-390.063	-145.144	0.109	0.010
-389.048	-4.162	0.240	0.165
-388.033	-73.599	-0.127	0.046
-387.019	-137.057	0.105	0.012
-386.004	-200.000	-0.020	0.179
-384.990	-200.000	0.017	-0.334
-383.975	-115.096	0.149	0.028
-382.960	-82.490	-0.198	0.064
-381.946	-174.719	0.361	0.010
-380.931	-200.000	0.026	0.126
-379.917	74.396	-0.223	0.232
-378.902	-200.000	-0.022	-0.265
-377.888	-200.000	0.014	-0.076
-376.873	66.597	0.102	-0.103
-375.858	111.008	0.209	0.249
-374.844	-133.140	0.231	-0.029
-373.829	800.000	0.033	-0.121
-372.815	-200.000	0.025	-0.242
-371.800	-79.647	0.143	-0.048
-370.785	28.631	-0.203	0.170
-369.771	164.453	-0.122	-0.170
-368.756	-112.556	-0.336	0.066
-367.742	-68.049	0.082	0.032
-366.727	46.593	0.089	-0.082
-365.712	32.997	0.139	-0.119
-364.698	-91.479	0.205	0.058
-363.683	-200.000	-0.008	0.179
-362.669	800.000	-0.073	0.235
-361.654	800.000	0.071	0.197
-360.639	14.771	-0.083	0.064
-359.625	768.405	-0.053	-0.142
-358.610	-66.144	0.324	-0.128
-357.596	-200.000	0.005	-0.228
-356.581	624.918	0.076	0.190
-355.566	-200.000	0.020	0.195
-354.552	-159.882	-0.083	0.005
-353.537	-98.155	-0.300	-0.076
-352.523	-90.377	-0.170	-0.049
-351.508	-200.000	-0.003	-0.043
-350.493	621.093	-0.037	0.092
-349.479	168.603	-0.134	0.189
-348.464	-200.000	-0.011	-0.051
-347.450	-42.154	0.245	0.124
-346.435	-27.977	-0.473	-0.271
-345.420	-11.542	0.185	0.120
-344.406	-63.358	-0.189	0.077
-343.391	-101.550	-0.321	0.077
-342.377	-65.425	0.163	-0.065
-341.362	683.181	0.085	-0.219
-340.348	800.000	-0.042	-0.119
-339.333	-133.834	-0.208	-0.026
-338.318	41.518	0.352	0.315
-337.304	-200.000	0.043	-0.287
-336.289	140.977	0.100	0.131
-335.275	665.754	-0.059	0.151
-334.260	111.996	-0.084	0.101
-333.245	-87.694	-0.111	-0.033
-332.231	-200.000	0.055	0.244
-331.216	525.189	0.050	-0.117
-330.202	-200.000	-0.019	-0.248
-329.187	547.416	0.154	-0.365
-328.172	73.199	0.122	0.126
-327.158	800.000	0.062	0.258
-326.143	34.282	-0.213	-0.184
-325.129	42.263	0.211	-0.189
-324.114	-200.000	-0.034	-0.162
-323.099	-135.058	-0.109	-0.013
-322.085	31.539	-0.156	-0.133
-321.070	-1.630	0.073	-0.051
-320.056	253.777	-0.216	-0.365
-319.041	199.654	-0.120	0.182
-318.026	-200.000	0.008	0.064
-317.012	33.891	0.026	-0.022
-315.997	475.283	0.098	0.219
-314.983	-200.000	-0.031	-0.216
-313.968	137.372	0.035	0.045
-312.953	51.128	0.142	0.134
-311.939	109.748	-0.066	0.079
-310.924	-65.531	0.269	-0.107
-309.910	-67.065	0.134	0.052
-308.895	733.204	-0.055	-0.145
-307.880	-67.088	-0.076	0.030
-306.866	-88.862	0.120	-0.035
-305.851	204.244	0.075	-0.116
-304.837	-200.000	-0.025	0.170
-303.822	-10.510	0.306	0.200
-302.807	224.996	0.161	0.257
-301.793	-200.000	-0.007	0.147
-300.778	369.069	-0.106	0.212
-299.764	-1.292	-0.044	0.031
-298.749	-200.000	-0.012	0.182
-297.735	114.515	0.056	0.067
-296.720	800.000	-0.120	0.425
-295.705	-0.108	0.276	0.194
-294.691	-200.000	0.016	-0.089
-293.676	-56.745	0.124	-0.054
-292.662	-200.000	0.051	0.269
-291.647	221.142	0.178	0.282
-290.632	-200.000	0.064	-0.323
-289.618	150.666	0.028	0.038
-288.603	-72.187	0.055	-0.020
-287.589	234.905	0.194	-0.316
-286.574	47.204	-0.034	-0.032
-285.559	33.577	-0.119	0.102
-284.545	670.962	0.026	-0.067
-283.530	-159.399	0.090	0.005
-282.516	215.701	-0.036	-0.057
-281.501	-18.500	0.234	-0.144
-280.486	-92.013	0.232	-0.065
-279.472	69.948	0.147	-0.149
-278.457	-60.497	-0.108	-0.045
-277.443	-200.000	-0.050	0.462
-276.428	84.590	-0.253	0.274
-275.413	-133.976	-0.207	-0.025
-274.399	-170.358	-0.422	-0.015
-273.384	293.146	0.117	-0.211
-272.370	127.697	0.069	0.087
-271.355	-40.109	-0.265	-0.136
-270.340	52.099	0.089	-0.083
-269.326	234.523	0.177	0.289
-268.311	-200.000	0.029	-0.338
-267.297	700.595	0.077	-0.200
-266.282	-200.000	-0.003	-0.028
-265.267	558.020	-0.014	0.034
-264.253	-200.000	-0.038	-0.188
-263.238	-41.906	-0.135	0.068
-262.224	177.379	-0.048	0.069
-261.209	526.835	-0.013	-0.031
-260.195	-104.480	0.222	-0.051
-259.180	628.280	0.070	0.175
-258.165	-200.000	0.006	0.032
-257.151	386.111	0.132	-0.269
-256.136	-90.358	-0.179	-0.051
-255.122	180.454	-0.041	-0.059
-254.107	-68.334	0.133	0.051
-253.092	34.307	-0.245	0.211
-252.078	-146.919	-0.291	0.025
-251.063	-200.000	-0.023	0.185
-250.049	-24.893	-0.177	0.104
-249.034	552.198	0.092	-0.218
-248.019	90.940	-0.298	-0.330
-247.005	-143.506	0.207	0.019
-245.990	80.104	0.014	-0.015
-244.976	-200.000	0.040	-0.186
-243.961	444.443	-0.061	0.131
-242.946	-116.764	0.253	-0.046
-241.932	513.886	-0.052	-0.119
-240.917	-172.033	-0.397	0.013
-239.903	349.708	-0.114	-0.221
-238.888	-84.530	0.280	0.087
-237.873	558.407	0.075	-0.180
-236.859	-200.000	0.051	0.279
-235.844	-200.000	-0.023	0.423
-234.830	800.000	0.039	0.145
-233.815	-100.447	0.144	-0.035
-232.800	-110.768	-0.151	0.031
-231.786	0.658	0.019	0.013
-230.771	-9.555	-0.403	0.265
-229.757	-200.000	0.039	0.225
-228.742	-200.000	-0.026	-0.168
-227.727	-200.000	0.026	-0.122
-226.713	-38.953	0.231	0.120
-225.698	-145.057	0.250	-0.022
-224.684	779.595	-0.061	-0.166
-223.669	63.937	0.152	0.150
-222.655	14.756	0.138	0.107
-221.640	-200.000	0.006	-0.060
-220.625	64.651	0.294	-0.292
-219.611	-200.000	0.025	0.255
-218.596	139.243	0.054	-0.070
-217.582	-200.000	0.017	-0.356
-216.567	181.887	0.103	-0.149
-215.552	245.135	-0.144	0.238
-214.538	800.000	-0.051	0.183
-213.523	-70.718	-0.070	-0.026
-212.509	-165.227	0.353	-0.015
-211.494	-127.398	-0.103	-0.015
-210.479	-22.118	-0.060	0.036
-209.465	-89.633	0.103	0.030
-208.450	-119.597	0.172	-0.029
-207.436	-200.000	0.041	-0.355
-206.421	800.000	-0.088	-0.369
-205.406	800.000	0.051	-0.154
-204.392	138.268	0.153	-0.197
-203.377	-200.000	0.014	0.092
-202.363	204.441	0.074	0.113
-201.348	-200.000	0.010	-0.052
-200.333	34.663	-0.142	-0.122
-199.319	-155.392	-0.215	0.014
-198.304	-46.096	0.098	0.048
-197.290	800.000	0.162	-0.576
-196.275	800.000	0.107	0.372
-195.260	186.589	0.123	0.180
-194.246	-200.000	0.073	-0.515
-193.231	31.656	-0.146	-0.123
-192.217	800.000	-0.081	-0.257
-191.202	-146.438	-0.299	0.026
-190.187	800.000	-0.059	-0.255
-189.173	-200.000	-0.049	-0.227
-188.158	269.588	-0.108	0.186
-187.144	221.699	0.141	0.222
-186.129	19.033	-0.289	0.228
-185.114	-200.000	0.007	-0.102
-184.100	64.252	0.084	-0.083
-183.085	127.809	0.139	0.174
-182.071	-200.000	0.046	0.276
-181.056	-141.418	-0.230	-0.023
-180.042	-40.280	-0.148	0.076
-179.027	-0.872	0.238	0.166
-178.012	-151.963	0.336	-0.024
-176.998	234.597	0.210	0.340
-175.983	8.070	-0.021	-0.015
-174.969	-168.039	0.222	-0.009
-173.954	43.552	-0.189	0.170
-172.939	-200.000	-0.026	0.128
-171.925	-61.714	-0.229	0.095
-170.910	-117.672	-0.209	0.037
-169.896	207.400	-0.130	-0.199
-168.881	-55.695	0.164	0.072
-167.866	-80.382	-0.058	0.019
-166.852	-150.794	-0.227	0.017
-165.837	489.137	-0.079	0.177
-164.823	199.682	0.204	0.308
-163.808	308.430	0.107	0.197
-162.793	-109.121	-0.122	-0.025
-161.779	-149.584	-0.278	0.022
-160.764	211.989	0.061	0.095
-159.750	-200.000	-0.021	-0.159
-158.735	-200.000	-0.031	-0.196
-157.720	524.535	0.115	0.266
-156.706	-23.057	0.201	-0.119
-155.691	-97.621	0.235	-0.060
-154.677	-200.000	0.036	0.153
-153.662	-200.000	0.025	0.277
-152.647	-35.235	-0.441	-0.236
-151.633	-94.054	-0.447	-0.120
-150.618	23.803	0.065	-0.053
-149.604	-77.946	-0.225	-0.076
-148.589	-200.000	0.016	0.089
-147.574	449.915	0.047	0.102
-146.560	-200.000	0.024	-0.207
-145.545	44.811	0.502	0.453
-144.531	56.009	-0.186	-0.178
-143.516	-29.365	0.166	-0.093
-142.502	-87.968	0.143	0.042
-141.487	-200.000	-0.021	-0.335
-140.472	35.441	0.112	0.097
-139.458	127.729	-0.172	-0.215
-138.443	649.890	0.150	0.378
-137.429	800.000	0.028	-0.111
-136.414	119.724	0.032	0.039
-135.399	-48.845	-0.039	-0.018
-134.385	800.000	-0.118	0.346
-133.370	0.534	0.068	0.048
-132.356	23.775	-0.053	-0.042
-131.341	-200.000	-0.033	0.285
-130.326	-102.084	-0.127	-0.030
-129.312	-140.536	0.172	-0.018
-128.297	-145.434	-0.373	-0.033
-127.283	676.725	-0.016	0.040
-126.268	133.719	0.173	-0.220
-125.253	-75.479	-0.056	0.019
-124.239	186.292	-0.116	-0.169
-123.224	42.763	-0.147	0.131
-122.210	-32.106	0.161	-0.088
