DTS Sentinel unit serial number:	SN413079Multiplexer serial number:	ORYXHardware model number:	OX4-SRSoftware version number:	ORYX F/W v4.00 Oryx Data Collector v3.7.2.0data status	okinstallation	princeton_trtdifferential loss correction	single-endedforward channel	channel 3reverse channel	N/Adate	2019/09/13time	22:48:34forward acquisition time	60.00reverse acquisition time	0.00gamma	496.2192k internal	0.2337k external	0.2337temperature offset calibration	1.0061default loss term (dB/km)	0.3790temperature slope calibration	1.0000multiplexer offset coefficient	1.0000multiplexer slope coefficient	1.0000fibre end	0.00T internal ref (°C)	27.53T ext. ref 1 (°C)	3.21T ext. ref 2 (°C)	21.59length (m)	temperature (°C)	Stokes	anti-Stokes-747.200	406.581	-0.033	0.069
-746.185	202.826	0.145	0.225
-745.171	414.585	0.009	-0.019
-744.156	-17.983	0.098	0.062
-743.142	-125.218	0.024	0.004
-742.127	-15.260	-0.223	0.143
-741.112	-168.005	0.155	0.006
-740.098	-4.565	0.487	0.338
-739.083	406.236	-0.037	-0.078
-738.069	-111.478	-0.281	0.057
-737.054	-55.132	0.315	0.142
-736.039	-200.000	-0.009	-0.059
-735.025	656.357	0.049	0.125
-734.010	-122.059	0.108	-0.018
-732.996	800.000	0.083	-0.308
-731.981	67.166	0.100	0.102
-730.966	-64.099	0.094	0.038
-729.952	64.394	0.144	0.146
-728.937	-9.667	-0.358	0.239
-727.923	5.630	-0.250	0.185
-726.908	-23.874	-0.455	0.273
-725.894	94.832	0.144	0.165
-724.879	230.153	0.102	0.167
-723.864	59.866	-0.212	0.210
-722.850	-153.161	0.152	0.011
-721.835	654.785	0.049	-0.127
-720.821	46.450	0.086	-0.080
-719.806	-88.202	0.365	-0.110
-718.791	-35.922	-0.263	0.143
-717.777	341.822	-0.036	-0.071
-716.762	290.259	0.083	-0.151
-715.748	800.000	0.132	0.391
-714.733	800.000	-0.023	-0.079
-713.718	-137.845	0.279	-0.031
-712.704	800.000	-0.074	-0.267
-711.689	329.802	-0.112	0.216
-710.675	800.000	0.015	0.045
-709.660	316.363	0.059	-0.112
-708.645	-136.174	0.278	0.033
-707.631	-93.449	0.284	0.079
-706.616	-20.717	0.235	-0.144
-705.602	-200.000	-0.017	-0.151
-704.587	-89.629	-0.183	-0.054
-703.572	37.480	0.224	0.199
-702.558	10.442	-0.302	-0.230
-701.543	-200.000	0.056	-0.438
-700.529	-157.236	-0.125	-0.008
-699.514	-200.000	0.035	-0.264
-698.499	-148.733	-0.230	0.019
-697.485	800.000	0.034	0.149
-696.470	-103.067	-0.219	-0.052
-695.456	54.147	-0.150	0.145
-694.441	163.391	0.078	-0.110
-693.426	-147.368	-0.186	-0.016
-692.412	-61.667	-0.182	-0.076
-691.397	125.111	0.130	0.164
-690.383	86.225	0.385	0.425
-689.368	-108.591	-0.303	-0.065
-688.354	-121.798	-0.099	0.016
-687.339	-200.000	0.026	-0.267
-686.324	38.483	0.225	-0.201
-685.310	-200.000	-0.027	-0.171
-684.295	433.295	0.062	0.134
-683.281	800.000	-0.061	-0.245
-682.266	800.000	-0.051	-0.205
-681.251	800.000	0.007	-0.027
-680.237	-36.851	-0.213	-0.114
-679.222	184.923	-0.147	-0.218
-678.208	-74.461	0.151	-0.055
-677.193	-109.018	0.279	-0.060
-676.178	672.424	-0.148	-0.384
-675.164	-198.095	0.338	-0.002
-674.149	-87.548	0.230	0.070
-673.135	270.552	0.075	-0.133
-672.120	34.072	0.213	0.186
-671.105	273.377	-0.189	-0.335
-670.091	-89.480	0.126	-0.037
-669.076	800.000	-0.072	0.215
-668.062	5.600	-0.191	-0.141
-667.047	-12.456	0.236	-0.154
-666.032	-200.000	-0.009	0.200
-665.018	-200.000	0.025	-0.180
-664.003	-46.635	0.134	-0.066
-662.989	-88.309	-0.093	0.028
-661.974	-106.910	-0.277	0.061
-660.959	241.443	-0.143	0.239
-659.945	122.375	0.205	-0.257
-658.930	67.848	-0.182	-0.186
-657.916	-57.949	0.097	-0.042
-656.901	25.619	-0.338	-0.281
-655.886	-99.680	0.197	-0.050
-654.872	-200.000	0.016	0.161
-653.857	-200.000	0.019	0.255
-652.843	94.125	0.291	-0.331
-651.828	44.573	-0.145	0.133
-650.814	26.004	-0.074	0.062
-649.799	575.730	-0.125	0.306
-648.784	193.660	0.063	-0.096
-647.770	586.858	0.167	-0.411
-646.755	183.827	-0.138	-0.204
-645.741	443.472	-0.127	-0.280
-644.726	70.849	-0.023	0.024
-643.711	-102.405	0.347	-0.083
-642.697	7.512	-0.054	-0.041
-641.682	416.045	-0.092	0.197
-640.668	332.328	-0.097	-0.188
-639.653	2.106	-0.141	-0.102
-638.638	-117.222	-0.239	-0.043
-637.624	697.311	-0.106	-0.278
-636.609	-200.000	-0.011	0.217
-635.595	800.000	-0.128	0.387
-634.580	800.000	-0.086	0.316
-633.565	-82.794	-0.138	-0.045
-632.551	352.660	-0.170	-0.336
-631.536	-17.600	-0.096	-0.060
-630.522	680.637	-0.070	-0.181
-629.507	800.000	-0.072	0.268
-628.492	-200.000	0.024	-0.255
-627.478	-66.542	0.072	-0.028
-626.463	395.800	0.096	-0.200
-625.449	-200.000	0.034	-0.160
-624.434	64.346	0.265	0.267
-623.419	252.414	0.098	0.167
-622.405	29.166	-0.263	0.223
-621.390	15.141	0.187	0.147
-620.376	800.000	-0.120	-0.355
-619.361	-53.241	-0.285	-0.131
-618.346	188.637	-0.099	-0.149
-617.332	437.716	0.148	0.322
-616.317	-117.131	-0.216	-0.039
-615.303	-114.509	0.247	0.047
-614.288	-7.382	0.212	-0.143
-613.273	100.563	-0.227	-0.264
-612.259	-92.528	0.193	0.054
-611.244	-105.716	-0.345	0.078
-610.230	-131.708	0.121	0.016
-609.215	159.795	-0.165	0.229
-608.201	-200.000	0.002	-0.079
-607.186	-184.032	0.195	0.003
-606.171	173.552	-0.071	0.103
-605.157	-93.301	-0.238	-0.066
-604.142	-133.319	-0.253	0.032
-603.128	-200.000	0.021	-0.321
-602.113	-69.440	-0.267	0.102
-601.098	-41.211	0.136	0.070
-600.084	74.845	-0.202	0.212
-599.069	-200.000	-0.008	0.097
-598.055	85.903	-0.028	0.031
-597.040	151.789	-0.085	0.116
-596.025	-117.040	-0.437	0.080
-595.011	59.810	0.237	0.233
-593.996	-200.000	-0.038	0.243
-592.982	73.316	-0.065	-0.068
-591.967	-56.040	0.177	0.079
-590.952	-125.573	-0.237	0.036
-589.938	95.846	0.115	0.131
-588.923	112.447	-0.229	-0.277
-587.909	-96.596	0.376	-0.099
-586.894	-200.000	-0.053	0.286
-585.879	-43.914	0.084	0.042
-584.865	74.539	0.252	0.265
-583.850	-200.000	-0.026	0.173
-582.836	800.000	0.057	-0.181
-581.821	-112.648	0.265	-0.053
-580.806	-127.874	0.233	0.034
-579.792	604.109	0.116	-0.289
-578.777	-128.341	-0.130	0.019
-577.763	118.533	0.075	0.092
-576.748	218.491	-0.131	-0.209
-575.733	-94.185	-0.175	-0.048
-574.719	-102.396	0.396	0.095
-573.704	726.933	-0.079	-0.210
-572.690	-53.424	-0.306	0.140
-571.675	800.000	0.018	0.063
-570.661	283.170	0.116	0.208
-569.646	54.921	0.536	0.516
-568.631	-122.979	0.257	0.041
-567.617	-21.953	-0.148	0.090
-566.602	487.722	-0.063	-0.144
-565.588	-43.474	-0.149	0.075
-564.573	67.356	0.066	0.067
-563.558	-200.000	-0.031	-0.546
-562.544	-83.174	-0.458	-0.147
-561.529	-200.000	0.031	0.166
-560.515	800.000	-0.024	0.071
-559.500	-106.228	0.093	0.021
-558.485	-41.641	0.292	0.149
-557.471	-200.000	0.065	0.414
-556.456	-28.436	-0.079	0.046
-555.442	30.951	-0.207	-0.177
-554.427	280.186	-0.081	0.144
-553.412	-141.774	-0.140	-0.014
-552.398	-47.246	0.159	-0.077
-551.383	547.795	0.109	0.261
-550.369	-160.847	-0.282	-0.015
-549.354	-175.661	0.185	0.005
-548.339	-119.070	0.216	-0.038
-547.325	-200.000	0.013	-0.058
-546.310	22.403	-0.240	0.196
-545.296	514.381	0.087	0.202
-544.281	41.938	0.119	0.108
-543.266	-153.820	0.147	0.010
-542.252	-166.737	-0.054	0.002
-541.237	128.892	0.055	0.070
-540.223	800.000	-0.091	-0.290
-539.208	-30.188	-0.187	0.106
-538.193	420.995	0.095	0.202
-537.179	800.000	0.024	-0.094
-536.164	-133.767	-0.286	0.035
-535.150	645.264	-0.096	0.243
-534.135	-8.542	0.079	-0.053
-533.121	102.038	0.050	-0.058
-532.106	-91.463	0.129	-0.037
-531.091	-44.017	-0.227	-0.114
-530.077	188.070	0.250	-0.371
-529.062	-200.000	-0.041	-0.460
-528.048	-7.184	-0.184	-0.124
-527.033	14.443	-0.178	0.139
-526.018	-114.700	-0.155	-0.030
-525.004	-185.795	0.104	-0.002
-523.989	786.085	-0.063	0.173
-522.975	-200.000	-0.069	0.341
-521.960	-200.000	-0.043	-0.319
-520.945	227.954	0.244	0.395
-519.931	-1.914	0.063	-0.044
-518.916	97.965	-0.274	-0.314
-517.902	209.555	-0.161	0.251
-516.887	-200.000	-0.012	-0.235
-515.872	-147.585	-0.216	-0.018
-514.858	110.025	-0.092	0.110
-513.843	358.017	0.145	-0.288
-512.829	3.867	-0.158	-0.115
-511.814	102.623	-0.068	-0.079
-510.799	-95.031	0.146	0.039
-509.785	-162.880	-0.141	0.007
-508.770	89.723	-0.093	0.104
-507.756	-125.454	-0.207	-0.031
-506.741	569.745	0.136	0.328
-505.726	476.767	-0.033	-0.075
-504.712	-200.000	0.001	-0.072
-503.697	98.210	0.207	0.237
-502.683	-153.089	-0.237	-0.017
-501.668	70.612	-0.197	0.202
-500.653	-173.813	0.390	0.012
-499.639	800.000	-0.071	0.300
-498.624	800.000	0.072	0.200
-497.610	103.203	0.163	-0.190
-496.595	479.579	-0.249	-0.562
-495.581	543.455	0.171	-0.405
-494.566	-8.152	0.167	-0.112
-493.551	-200.000	-0.029	-0.174
-492.537	57.909	-0.371	0.361
-491.522	122.752	0.254	0.316
-490.508	201.507	0.121	0.186
-489.493	20.824	-0.142	-0.114
-488.478	-135.894	0.184	-0.022
-487.464	-126.636	-0.273	0.040
-486.449	15.510	0.087	0.068
-485.435	-200.000	-0.051	-0.309
-484.420	-13.579	-0.210	0.135
-483.405	103.806	0.196	-0.228
-482.391	58.113	-0.093	-0.090
-481.376	303.060	-0.203	-0.373
-480.362	-2.816	-0.077	0.054
-479.347	53.595	0.074	0.071
-478.332	122.408	0.049	0.061
-477.318	-200.000	-0.004	-0.168
-476.303	-84.154	0.083	-0.026
-475.289	12.425	0.221	0.169
-474.274	258.993	0.078	-0.133
-473.259	800.000	0.071	-0.202
-472.245	-66.408	0.363	-0.143
-471.230	-198.522	-0.156	0.001
-470.216	27.751	-0.104	-0.087
-469.201	-128.835	-0.125	-0.018
-468.186	8.178	0.056	-0.042
-467.172	-84.159	-0.202	0.064
-466.157	59.133	0.253	-0.248
-465.143	800.000	0.059	-0.202
-464.128	800.000	0.055	-0.153
-463.113	-9.192	-0.152	-0.101
-462.099	118.167	0.041	-0.050
-461.084	-200.000	-0.001	0.009
-460.070	74.486	-0.259	0.270
-459.055	-200.000	0.076	0.377
-458.040	-31.359	-0.201	0.112
-457.026	276.514	0.199	0.352
-456.011	-30.146	-0.048	-0.027
-454.997	92.446	-0.116	0.130
-453.982	-78.162	-0.058	-0.020
-452.968	-200.000	-0.003	-0.092
-451.953	119.849	-0.186	-0.228
-450.938	-200.000	0.031	-0.169
-449.924	-7.584	-0.015	-0.010
-448.909	-86.667	-0.093	-0.028
-447.895	-200.000	0.000	-0.219
-446.880	800.000	-0.011	-0.048
-445.865	76.855	-0.218	-0.230
-444.851	800.000	-0.086	-0.246
-443.836	342.326	-0.095	-0.185
-442.822	-124.310	0.222	0.034
-441.807	341.692	0.068	-0.131
-440.792	78.371	0.084	-0.089
-439.778	131.555	0.090	-0.114
-438.763	800.000	-0.057	-0.183
-437.749	-153.241	-0.476	0.033
-436.734	63.116	-0.136	0.136
-435.719	14.672	-0.182	0.141
-434.705	38.068	-0.130	0.114
-433.690	-105.783	-0.209	0.047
-432.676	89.462	-0.219	-0.242
-431.661	-200.000	-0.023	-0.136
-430.646	-1.204	-0.426	-0.298
-429.632	171.471	-0.078	0.111
-428.617	-75.620	-0.190	0.067
-427.603	-103.636	0.202	0.047
-426.588	-10.306	-0.168	-0.110
-425.573	-200.000	0.007	0.499
-424.559	-145.066	-0.250	0.023
-423.544	-200.000	-0.020	0.391
-422.530	800.000	-0.110	0.362
-421.515	-15.975	-0.110	-0.069
-420.500	-187.451	0.213	-0.003
-419.486	800.000	0.021	0.078
-418.471	-200.000	-0.016	-0.206
-417.457	192.020	0.043	-0.065
-416.442	800.000	-0.088	-0.360
-415.428	217.810	0.211	0.333
-414.413	-102.358	-0.218	-0.052
-413.398	341.949	0.063	0.123
-412.384	-51.228	-0.270	-0.125
-411.369	21.015	0.232	-0.186
-410.355	-200.000	-0.035	-0.301
-409.340	645.148	-0.112	0.282
-408.325	800.000	0.049	-0.141
-407.311	163.082	-0.284	-0.395
-406.296	315.618	0.080	-0.149
-405.282	800.000	0.160	-0.453
-404.267	800.000	-0.025	0.107
-403.252	560.909	-0.096	0.230
-402.238	-93.666	0.309	0.085
-401.223	513.904	0.060	-0.139
-400.209	-140.646	-0.320	-0.033
-399.194	130.657	-0.157	-0.199
-398.179	-138.100	0.304	0.034
-397.165	800.000	0.046	0.168
-396.150	72.216	-0.265	0.273
-395.136	-200.000	-0.009	0.311
-394.121	800.000	0.078	0.237
-393.106	187.697	0.072	-0.107
-392.092	413.876	0.119	0.252
-391.077	85.034	0.200	-0.217
-390.063	-145.612	0.229	-0.020
-389.048	800.000	0.060	0.225
-388.033	28.395	-0.232	0.195
-387.019	40.129	-0.131	0.117
-386.004	45.428	0.068	0.062
-384.990	-200.000	0.023	0.179
-383.975	-25.091	0.320	-0.188
-382.960	-110.670	0.118	-0.024
-381.946	-114.132	0.116	0.022
-380.931	519.204	0.031	0.073
-379.917	686.327	-0.092	0.238
-378.902	-45.429	-0.112	-0.055
-377.888	-128.072	0.277	0.039
-376.873	363.422	-0.073	-0.146
-375.858	-200.000	-0.018	-0.278
-374.844	-59.385	-0.027	-0.011
-373.829	-105.900	-0.075	-0.017
-372.815	-9.636	0.401	-0.264
-371.800	-200.000	-0.041	-0.600
-370.785	-176.318	-0.342	-0.009
-369.771	77.510	-0.219	-0.231
-368.756	800.000	-0.060	-0.192
-367.742	141.818	-0.154	0.201
-366.727	9.794	-0.161	-0.121
-365.712	-118.723	-0.214	-0.037
-364.698	287.320	-0.075	-0.133
-363.683	-36.744	0.217	0.115
-362.669	-7.459	0.235	0.157
-361.654	145.671	0.056	-0.074
-360.639	-64.291	-0.240	-0.097
-359.625	-109.997	0.282	0.058
-358.610	-25.396	-0.245	-0.143
-357.596	339.827	0.072	-0.138
-356.581	155.140	0.024	-0.033
-355.566	-46.111	-0.255	-0.124
-354.552	-150.158	-0.310	-0.024
-353.537	601.397	0.144	-0.353
-352.523	167.624	-0.118	-0.165
-351.508	104.586	-0.124	0.144
-350.493	140.884	-0.054	0.071
-349.479	27.194	0.122	0.101
-348.464	-106.997	0.258	0.056
-347.450	-87.198	0.360	-0.108
-346.435	-44.046	0.046	-0.023
-345.420	119.852	0.050	-0.061
-344.406	-198.220	0.194	0.001
-343.391	-28.241	-0.065	-0.037
-342.377	-78.072	0.337	-0.115
-341.362	-74.590	0.314	0.112
-340.348	56.580	-0.163	0.157
-339.333	-28.590	-0.225	0.128
-338.318	91.178	0.122	-0.135
-337.304	-8.579	-0.090	0.060
-336.289	216.878	0.173	0.273
-335.275	-200.000	0.043	-0.188
-334.260	-200.000	-0.002	-0.235
-333.245	9.372	0.208	0.155
-332.231	142.470	0.143	0.188
-331.216	192.444	-0.151	0.225
-330.202	-27.768	0.214	-0.123
-329.187	-200.000	-0.030	0.151
-328.172	-63.571	-0.208	0.084
-327.158	-88.690	0.227	0.067
-326.143	800.000	0.080	0.260
-325.129	-74.534	0.756	0.269
-324.114	-117.066	0.119	-0.021
-323.099	-4.785	0.411	-0.280
-322.085	800.000	-0.068	0.242
-321.070	-101.224	0.187	0.045
-320.056	800.000	0.003	0.011
-319.041	-108.960	-0.491	-0.103
-318.026	-21.176	-0.302	-0.182
-317.012	800.000	0.069	0.280
-315.997	800.000	-0.075	0.283
-314.983	319.570	-0.084	0.158
-313.968	17.609	0.385	0.302
-312.953	800.000	-0.079	0.298
-311.939	24.835	0.257	-0.211
-310.924	800.000	0.007	0.029
-309.910	74.267	-0.099	-0.102
-308.895	-111.327	0.228	0.046
-307.880	-41.261	0.058	-0.029
-306.866	-200.000	0.032	0.330
-305.851	-155.927	0.006	-0.000
-304.837	602.192	-0.021	-0.052
-303.822	87.070	0.173	-0.188
-302.807	507.087	-0.020	-0.045
-301.793	501.970	0.058	0.133
-300.778	562.559	-0.028	0.067
-299.764	-200.000	0.038	-0.372
-298.749	-200.000	0.018	0.123
-297.735	7.303	-0.233	0.172
-296.720	-181.030	-0.023	-0.000
-295.705	-108.451	-0.233	0.049
-294.691	-200.000	-0.029	0.144
-293.676	-200.000	0.013	-0.183
-292.662	-23.687	0.173	-0.102
-291.647	-157.201	-0.090	-0.005
-290.632	-200.000	0.002	0.409
-289.618	217.654	-0.175	0.276
-288.603	21.044	0.169	-0.135
-287.589	-37.909	-0.131	-0.069
-286.574	537.632	-0.102	-0.240
-285.559	800.000	0.071	-0.224
-284.545	24.469	-0.081	-0.066
-283.530	-98.023	-0.089	-0.023
-282.516	-69.928	0.135	0.051
-281.501	800.000	0.116	-0.406
-280.486	-37.557	0.212	0.112
-279.472	72.747	-0.197	0.203
-278.457	-158.293	0.271	-0.016
-277.443	800.000	0.087	0.317
-276.428	-71.283	0.152	-0.056
-275.413	130.686	0.127	0.161
-274.399	-128.229	-0.150	0.021
-273.384	-200.000	-0.006	-0.051
-272.370	68.097	-0.222	0.223
-271.355	643.887	-0.172	0.434
-270.340	566.438	0.078	0.187
-269.326	-31.645	0.175	0.097
-268.311	800.000	-0.021	-0.078
-267.297	-94.482	0.361	0.097
-266.282	86.130	0.141	-0.153
-265.267	-200.000	-0.011	-0.246
-264.253	-135.197	-0.281	-0.033
-263.238	-20.270	0.034	0.021
-262.224	22.984	-0.072	-0.058
-261.209	800.000	-0.053	-0.198
-260.195	-88.495	-0.306	-0.090
-259.180	-200.000	0.021	-0.122
-258.165	-95.960	-0.198	0.052
-257.151	169.565	0.148	-0.208
-256.136	-162.050	-0.176	0.009
-255.122	-168.109	-0.145	0.006
-254.107	118.206	0.052	-0.064
-253.092	254.164	0.027	0.046
-252.078	249.785	-0.192	-0.320
-251.063	32.569	-0.046	-0.040
-250.049	-8.735	0.118	-0.078
-249.034	-91.690	-0.064	-0.018
-248.019	2.730	-0.138	0.098
-247.005	76.300	-0.047	-0.049
-245.990	286.512	0.033	0.059
-244.976	-129.148	0.183	0.025
-243.961	308.681	0.257	0.472
-242.946	800.000	0.097	0.298
-241.932	-99.655	0.297	-0.073
-240.917	200.904	-0.129	-0.195
-239.903	780.216	-0.086	-0.232
-238.888	-200.000	0.010	0.050
-237.873	-66.626	-0.202	0.079
-236.859	-75.297	-0.176	0.062
-235.844	-200.000	0.003	0.223
-234.830	-200.000	0.035	-0.158
-233.815	-69.513	-0.084	-0.032
-232.800	411.349	0.121	-0.253
-231.786	129.333	-0.126	-0.159
-230.771	800.000	-0.015	-0.051
-229.757	27.698	-0.123	0.102
-228.742	-94.109	0.262	-0.071
-227.727	59.716	0.088	0.086
-226.713	264.197	0.117	0.201
-225.698	99.891	0.077	0.088
-224.684	-142.326	0.202	0.020
-223.669	800.000	0.032	-0.099
-222.655	-200.000	-0.008	0.083
-221.640	54.975	0.283	0.269
-220.625	-95.582	0.243	-0.064
-219.611	641.999	-0.045	-0.113
-218.596	-64.312	-0.160	-0.064
-217.582	261.051	0.138	0.235
-216.567	75.944	0.257	0.267
-215.552	346.194	0.042	-0.080
-214.538	-200.000	-0.003	-0.209
-213.523	-7.268	0.291	0.194
-212.509	-200.000	-0.011	-0.154
-211.494	69.828	0.158	-0.160
-210.479	140.782	0.121	-0.157
-209.465	-200.000	0.033	-0.455
-208.450	400.834	0.072	0.148
-207.436	-47.280	0.224	-0.107
-206.421	-135.932	0.074	0.009
-205.406	-200.000	0.039	-0.280
-204.392	-82.730	0.222	-0.071
-203.377	-200.000	0.015	0.087
-202.363	333.063	0.145	0.276
-201.348	290.558	0.054	0.097
-200.333	-71.495	0.241	-0.089
-199.319	309.818	0.109	0.200
-198.304	-180.609	0.158	0.003
-197.290	800.000	0.023	0.074
-196.275	168.619	-0.196	-0.274
-195.260	-100.246	0.200	0.049
-194.246	-109.503	0.396	0.082
-193.231	800.000	0.041	0.139
-192.217	-137.833	-0.312	0.034
-191.202	-112.710	0.197	-0.038
-190.187	52.071	-0.163	0.153
-189.173	55.439	-0.283	0.269
-188.158	-113.625	-0.358	0.069
-187.144	-59.243	0.137	-0.058
-186.129	-56.704	0.394	0.171
-185.114	2.747	-0.104	0.074
-184.100	-200.000	-0.002	0.260
-183.085	147.075	-0.138	-0.183
-182.071	-100.273	0.182	0.044
-181.056	-7.714	-0.042	0.028
-180.042	7.430	-0.309	-0.227
-179.027	-23.703	-0.182	-0.107
-178.012	-139.456	0.177	0.019
-176.998	-102.282	0.087	0.021
-175.983	-62.153	0.123	0.050
-174.969	800.000	-0.084	0.330
-173.954	224.875	0.062	0.099
-172.939	-200.000	0.004	0.118
-171.925	-200.000	0.009	-0.065
-170.910	779.855	0.047	0.125
-169.896	-158.391	-0.191	-0.011
-168.881	51.688	-0.314	-0.293
-167.866	-91.231	-0.185	-0.052
-166.852	-101.824	0.168	0.040
-165.837	215.580	0.240	-0.374
-164.823	784.822	-0.021	0.057
-163.808	267.465	-0.204	-0.350
-162.793	800.000	0.025	-0.105
-161.779	-200.000	-0.029	-0.146
-160.764	78.651	0.237	-0.249
-159.750	300.124	0.063	0.113
-158.735	134.470	-0.155	-0.197
-157.720	32.499	0.220	0.186
-156.706	-74.485	0.026	0.009
-155.691	93.153	-0.135	0.150
-154.677	563.045	0.118	0.279
-153.662	110.074	-0.076	0.089
-152.647	-24.637	0.193	-0.113
-151.633	-77.206	-0.208	0.071
-150.618	-200.000	0.007	0.151
-149.604	61.714	0.023	-0.022
-148.589	23.580	-0.074	0.059
-147.574	35.751	-0.208	-0.180
-146.560	800.000	0.094	0.266
-145.545	198.265	0.071	-0.107
-144.531	4.482	-0.163	0.117
-143.516	-23.075	-0.336	-0.198
-142.502	-32.302	0.332	-0.182
-141.487	-134.553	0.287	-0.034
-140.472	47.415	0.080	-0.073
-139.458	-129.472	0.253	0.034
-138.443	512.584	0.096	0.218
-137.429	-10.959	-0.116	0.075
-136.414	-51.048	0.173	0.080
-135.399	-176.661	0.364	0.009
-134.385	-0.130	0.222	-0.155
-133.370	186.057	-0.072	0.105
-132.356	-89.581	-0.293	-0.084
-131.341	-200.000	0.008	-0.135
-130.326	-200.000	-0.060	-0.305
-129.312	13.654	0.143	0.108
-128.297	-118.344	-0.299	0.052
-127.283	-178.067	-0.373	-0.009
-126.268	45.628	-0.399	0.362
-125.253	546.502	0.128	-0.301
-124.239	262.377	-0.069	0.117
-123.224	-30.051	0.176	0.098
-122.210	-188.359	0.252	0.003
-121.195	484.692	0.061	0.136
-120.180	-26.339	0.062	-0.036
