DTS Sentinel unit serial number:	SN413079Multiplexer serial number:	ORYXHardware model number:	OX4-SRSoftware version number:	ORYX F/W v4.00 Oryx Data Collector v3.7.2.0data status	okinstallation	princeton_trtdifferential loss correction	single-endedforward channel	channel 3reverse channel	N/Adate	2019/09/19time	05:36:34forward acquisition time	60.00reverse acquisition time	0.00gamma	496.2192k internal	0.2348k external	0.2348temperature offset calibration	0.9991default loss term (dB/km)	0.3790temperature slope calibration	1.0000multiplexer offset coefficient	1.0000multiplexer slope coefficient	1.0000fibre end	0.00T internal ref (°C)	19.31T ext. ref 1 (°C)	0.58T ext. ref 2 (°C)	12.89length (m)	temperature (°C)	Stokes	anti-Stokes-747.200	55.528	-0.140	0.135
-746.185	800.000	-0.073	0.239
-745.171	800.000	-0.044	0.181
-744.156	8.173	0.334	0.251
-743.142	21.884	-0.362	0.295
-742.127	-13.388	0.117	0.076
-741.112	-112.072	-0.274	0.055
-740.098	-37.918	-0.093	0.050
-739.083	-200.000	0.046	0.275
-738.069	112.832	-0.236	0.286
-737.054	-132.931	0.215	-0.027
-736.039	304.617	-0.210	-0.389
-735.025	-160.690	0.032	0.002
-734.010	41.551	-0.068	0.061
-732.996	-48.823	0.134	-0.064
-731.981	-24.905	-0.057	0.034
-730.966	-200.000	-0.027	0.200
-729.952	800.000	-0.042	-0.130
-728.937	-61.865	-0.074	-0.031
-727.923	91.197	0.046	-0.052
-726.908	-98.244	0.162	0.042
-725.894	40.224	-0.070	-0.063
-724.879	-54.537	-0.118	-0.053
-723.864	-200.000	0.003	-0.091
-722.850	655.817	-0.030	-0.077
-721.835	-37.960	0.420	0.223
-720.821	-87.123	-0.097	-0.029
-719.806	796.083	0.113	-0.310
-718.791	49.699	-0.022	-0.021
-717.777	-55.891	-0.302	0.135
-716.762	-159.092	-0.269	-0.015
-715.748	-80.861	-0.147	-0.049
-714.733	-77.312	0.176	-0.061
-713.718	83.183	-0.173	-0.188
-712.704	-108.449	-0.421	-0.091
-711.689	-200.000	0.031	-0.302
-710.675	-79.324	-0.199	0.067
-709.660	537.526	0.045	0.108
-708.645	63.747	-0.352	0.353
-707.631	-200.000	0.005	-0.049
-706.616	118.217	0.053	-0.066
-705.602	-41.880	0.371	-0.190
-704.587	588.761	-0.012	0.029
-703.572	-11.814	-0.228	-0.149
-702.558	800.000	0.075	-0.210
-701.543	800.000	0.059	-0.227
-700.529	273.074	-0.088	-0.155
-699.514	800.000	0.070	-0.204
-698.499	-67.680	0.344	0.134
-697.485	-75.156	0.307	0.109
-696.470	-118.036	-0.286	0.051
-695.456	-141.745	-0.097	0.010
-694.441	-49.066	0.261	0.125
-693.426	0.615	-0.303	0.216
-692.412	478.707	0.004	-0.009
-691.397	188.918	0.062	-0.092
-690.383	-6.568	-0.124	0.084
-689.368	-192.889	-0.406	0.004
-688.354	-200.000	0.042	-0.570
-687.339	3.954	-0.050	0.036
-686.324	-200.000	0.017	-0.311
-685.310	-200.000	-0.063	0.338
-684.295	548.068	0.019	-0.046
-683.281	-164.690	-0.223	0.010
-682.266	800.000	0.037	-0.145
-681.251	606.227	0.133	-0.331
-680.237	-79.014	-0.057	0.019
-679.222	-71.015	0.052	0.019
-678.208	-200.000	-0.010	-0.143
-677.193	-71.807	-0.217	-0.080
-676.178	-200.000	-0.057	-0.403
-675.164	-79.892	0.165	-0.055
-674.149	-37.321	0.189	0.101
-673.135	-44.560	0.273	0.136
-672.120	800.000	-0.117	0.341
-671.105	79.705	0.251	0.269
-670.091	-171.130	0.223	0.008
-669.076	98.060	0.167	-0.191
-668.062	43.284	-0.103	-0.094
-667.047	458.526	0.132	0.293
-666.032	-181.145	0.311	0.006
-665.018	-124.409	-0.303	0.047
-664.003	-21.220	0.105	-0.064
-662.989	177.428	-0.117	-0.169
-661.974	800.000	-0.087	-0.256
-660.959	51.539	0.192	-0.182
-659.945	-122.304	0.031	0.005
-658.930	-151.950	-0.118	0.009
-657.916	-54.602	-0.025	-0.011
-656.901	7.498	-0.034	-0.026
-655.886	-86.810	0.200	-0.061
-654.872	-56.213	0.194	0.086
-653.857	-118.833	0.088	-0.015
-652.843	-62.741	0.157	0.065
-651.828	-200.000	-0.002	-0.369
-650.814	231.039	0.073	0.119
-649.799	-138.428	0.306	0.034
-648.784	-177.941	-0.092	0.002
-647.770	-50.217	0.165	-0.078
-646.755	-56.857	0.252	-0.111
-645.741	-109.920	-0.340	0.071
-644.726	703.346	-0.070	0.183
-643.711	-200.000	-0.037	-0.203
-642.697	55.805	0.022	-0.021
-641.682	65.787	0.069	0.070
-640.668	-200.000	-0.000	-0.095
-639.653	-200.000	-0.025	0.117
-638.638	-140.468	0.201	0.021
-637.624	38.117	-0.129	-0.114
-636.609	180.868	-0.116	-0.170
-635.595	-200.000	-0.206	0.000
-634.580	-50.470	-0.449	-0.211
-633.565	188.059	0.047	0.070
-632.551	-102.987	-0.334	-0.079
-631.536	800.000	-0.186	-0.553
-630.522	-70.848	-0.208	-0.078
-629.507	-156.415	-0.257	0.016
-628.492	-61.154	-0.369	0.155
-627.478	-104.240	0.187	0.043
-626.463	-113.744	0.191	0.037
-625.449	261.593	0.076	-0.131
-624.434	35.052	-0.187	0.163
-623.419	-200.000	-0.029	0.417
-622.405	-81.309	-0.067	0.022
-621.390	39.647	-0.148	-0.132
-620.376	-122.476	0.044	-0.007
-619.361	210.710	0.118	0.185
-618.346	-34.222	0.326	0.178
-617.332	442.848	0.039	0.086
-616.317	100.916	-0.222	-0.257
-615.303	524.820	-0.030	0.069
-614.288	333.313	-0.194	-0.373
-613.273	-159.803	-0.376	0.021
-612.259	-103.220	0.205	0.048
-611.244	47.506	-0.246	0.228
-610.230	-93.449	0.134	0.037
-609.215	-158.775	-0.155	0.009
-608.201	-200.000	0.016	0.176
-607.186	-153.545	-0.277	-0.019
-606.171	-200.000	-0.030	-0.353
-605.157	-100.184	0.275	0.068
-604.142	-2.412	-0.298	-0.207
-603.128	11.016	-0.365	0.277
-602.113	-86.535	-0.228	-0.069
-601.098	-97.937	0.204	-0.052
-600.084	43.682	0.034	0.031
-599.069	134.181	0.223	0.288
-598.055	-84.901	-0.392	0.122
-597.040	-200.000	0.020	-0.343
-596.025	76.454	-0.247	-0.260
-595.011	20.409	-0.006	0.005
-593.996	-10.269	-0.116	-0.077
-592.982	-12.902	0.129	0.083
-591.967	-200.000	0.011	-0.092
-590.952	-200.000	-0.031	0.163
-589.938	239.391	-0.108	0.179
-588.923	-86.801	0.154	0.047
-587.909	-200.000	0.103	-0.463
-586.894	-113.068	-0.100	-0.020
-585.879	-120.290	-0.193	0.033
-584.865	-98.258	0.236	-0.060
-583.850	82.745	-0.053	0.057
-582.836	238.998	-0.034	0.057
-581.821	443.803	0.119	0.260
-580.806	-200.000	0.036	0.172
-579.792	-200.000	-0.004	-0.022
-578.777	-200.000	0.008	-0.111
-577.763	-200.000	-0.010	-0.198
-576.748	-8.731	-0.093	-0.062
-575.733	-200.000	-0.006	-0.062
-574.719	800.000	0.048	-0.171
-573.704	-64.005	-0.189	-0.077
-572.690	-127.994	-0.347	-0.049
-571.675	-127.474	0.260	-0.038
-570.661	226.591	0.131	-0.211
-569.646	-200.000	-0.047	0.270
-568.631	2.133	0.151	0.108
-567.617	-107.247	0.271	0.059
-566.602	-86.640	-0.306	-0.093
-565.588	-108.496	-0.359	-0.077
-564.573	800.000	0.086	0.364
-563.558	43.916	0.129	-0.117
-562.544	-108.070	0.120	0.026
-561.529	6.616	-0.129	-0.095
-560.515	-123.481	-0.412	-0.065
-559.500	-200.000	0.033	-0.241
-558.485	-156.971	0.463	-0.028
-557.471	-50.284	0.138	-0.065
-556.456	344.054	-0.071	-0.138
-555.442	-136.475	0.203	0.023
-554.427	89.127	-0.263	-0.290
-553.412	800.000	-0.048	0.136
-552.398	-200.000	-0.010	-0.206
-551.383	-66.378	-0.247	0.098
-550.369	431.321	-0.069	0.148
-549.354	367.198	0.050	0.101
-548.339	-71.902	0.142	-0.052
-547.325	-18.528	-0.174	-0.108
-546.310	117.096	0.079	-0.097
-545.296	364.402	0.050	-0.100
-544.281	-34.474	-0.331	0.180
-543.266	800.000	0.039	0.134
-542.252	12.642	-0.222	-0.170
-541.237	-200.000	0.053	0.252
-540.223	26.480	-0.137	0.113
-539.208	108.721	0.116	0.137
-538.193	-75.242	0.398	0.141
-537.179	800.000	0.065	0.253
-536.164	393.054	0.037	0.076
-535.150	-18.435	-0.109	-0.067
-534.135	-92.168	-0.132	0.037
-533.121	-25.665	-0.314	0.183
-532.106	-92.214	0.134	-0.037
-531.091	-200.000	-0.071	-0.321
-530.077	800.000	-0.082	0.290
-529.062	800.000	0.037	-0.138
-528.048	23.027	0.269	0.219
-527.033	-149.394	-0.325	0.026
-526.018	740.421	-0.074	-0.197
-525.004	32.180	0.114	-0.098
-523.989	155.090	0.077	0.105
-522.975	105.033	0.096	0.112
-521.960	-200.000	-0.022	-0.345
-520.945	176.967	-0.042	-0.061
-519.931	185.734	-0.090	-0.132
-518.916	626.929	0.171	0.427
-517.902	-200.000	0.026	0.229
-516.887	179.764	0.040	0.057
-515.872	89.803	-0.111	-0.123
-514.858	105.968	-0.272	-0.318
-513.843	67.815	-0.073	-0.074
-512.829	25.628	-0.151	0.124
-511.814	-74.547	0.170	0.061
-510.799	473.376	0.050	-0.112
-509.785	-120.537	-0.238	0.040
-508.770	662.174	-0.124	-0.317
-507.756	-141.732	-0.426	0.042
-506.741	-81.319	-0.160	0.052
-505.726	-200.000	-0.029	-0.258
-504.712	-82.826	-0.187	0.060
-503.697	-95.787	-0.169	-0.045
-502.683	-90.544	0.272	0.078
-501.668	218.524	-0.105	0.166
-500.653	64.250	0.352	0.351
-499.639	800.000	-0.042	0.115
-498.624	80.613	0.213	0.227
-497.610	-82.295	-0.155	0.050
-496.595	85.483	0.346	0.376
-495.581	72.325	-0.111	-0.114
-494.566	-200.000	-0.003	-0.044
-493.551	-82.236	-0.183	-0.059
-492.537	-200.000	0.017	0.206
-491.522	-21.372	0.038	0.023
-490.508	45.944	0.287	0.263
-489.493	322.628	0.053	0.101
-488.478	-166.114	0.507	0.021
-487.464	800.000	0.022	0.074
-486.449	334.031	0.199	0.381
-485.435	-147.524	0.241	-0.020
-484.420	-148.772	0.225	0.018
-483.405	52.213	0.052	0.049
-482.391	-200.000	-0.040	-0.194
-481.376	-73.235	0.257	0.093
-480.362	-61.204	0.355	-0.148
-479.347	-65.121	0.339	0.135
-478.332	144.906	-0.203	0.268
-477.318	-123.808	-0.214	0.033
-476.303	125.657	0.130	0.163
-475.289	99.170	-0.178	-0.203
-474.274	800.000	0.027	0.080
-473.259	800.000	0.069	0.281
-472.245	-79.315	-0.189	0.063
-471.230	377.084	-0.045	0.092
-470.216	143.653	0.154	0.202
-469.201	408.849	0.118	0.247
-468.186	800.000	-0.047	-0.140
-467.172	800.000	0.115	-0.325
-466.157	-27.410	-0.089	-0.051
-465.143	76.394	0.318	0.333
-464.128	-111.300	-0.067	0.013
-463.113	-4.989	0.368	-0.251
-462.099	-74.757	-0.303	0.108
-461.084	209.293	0.099	-0.153
-460.070	-24.696	0.205	0.120
-459.055	-200.000	-0.044	0.318
-458.040	-156.510	-0.212	0.013
-457.026	-9.260	0.227	0.150
-456.011	-113.911	-0.397	0.076
-454.997	-35.590	0.278	-0.149
-453.982	-139.932	-0.276	-0.029
-452.968	227.878	-0.130	-0.209
-451.953	73.032	-0.069	-0.071
-450.938	-46.572	0.111	0.054
-449.924	-122.029	0.069	0.011
-448.909	371.956	0.038	0.076
-447.895	-45.729	0.144	-0.070
-446.880	-200.000	0.025	-0.331
-445.865	-100.118	0.195	0.048
-444.851	66.703	-0.190	-0.191
-443.836	800.000	0.051	0.158
-442.822	575.898	-0.127	-0.307
-441.807	65.015	0.289	-0.288
-440.792	800.000	-0.031	-0.085
-439.778	-106.066	-0.132	-0.029
-438.763	-200.000	-0.009	0.077
-437.749	-200.000	-0.021	-0.112
-436.734	-47.841	-0.295	0.141
-435.719	-200.000	-0.026	-0.218
-434.705	-198.481	0.327	-0.002
-433.690	365.174	0.059	-0.116
-432.676	-74.242	-0.124	-0.044
-431.661	363.668	-0.139	0.276
-430.646	-200.000	0.037	-0.251
-429.632	-135.796	-0.237	0.028
-428.617	58.602	0.243	0.236
-427.603	248.266	0.188	0.314
-426.588	-108.997	0.113	0.024
-425.573	-76.465	0.367	-0.127
-424.559	-37.036	0.374	-0.198
-423.544	48.334	-0.133	0.123
-422.530	137.360	0.125	-0.162
-421.515	-200.000	0.007	-0.243
-420.500	512.945	-0.109	-0.251
-419.486	13.168	-0.159	0.121
-418.471	-151.335	0.304	0.022
-417.457	-200.000	-0.029	-0.252
-416.442	14.936	-0.185	-0.143
-415.428	-125.492	-0.256	0.038
-414.413	19.339	0.063	0.050
-413.398	-158.462	-0.198	-0.011
-412.384	115.009	0.063	0.076
-411.369	-200.000	0.001	0.186
-410.355	-162.685	0.232	0.011
-409.340	-36.719	0.104	0.055
-408.325	703.337	-0.133	0.347
-407.311	800.000	-0.069	0.245
-406.296	54.217	0.090	0.085
-405.282	-163.830	0.174	-0.008
-404.267	32.907	-0.158	-0.135
-403.252	800.000	0.017	0.051
-402.238	-23.578	-0.257	-0.152
-401.223	-200.000	0.032	-0.317
-400.209	77.965	0.084	0.088
-399.194	-30.512	0.132	0.074
-398.179	-141.535	0.274	0.027
-397.165	-200.000	0.017	0.123
-396.150	214.976	0.198	-0.309
-395.136	323.093	0.172	-0.324
-394.121	-115.160	-0.254	-0.047
-393.106	-112.950	-0.374	-0.073
-392.092	800.000	-0.135	0.412
-391.077	56.170	0.171	0.164
-390.063	268.388	-0.158	0.272
-389.048	-64.979	0.056	0.022
-388.033	-110.741	0.215	-0.044
-387.019	-105.357	0.347	-0.078
-386.004	-34.524	0.143	-0.077
-384.990	287.857	-0.184	-0.327
-383.975	-130.404	0.119	-0.016
-382.960	-120.242	0.259	0.044
-381.946	322.444	0.134	-0.251
-380.931	-200.000	0.013	0.248
-379.917	800.000	-0.157	-0.447
-378.902	-200.000	0.006	-0.210
-377.888	-105.083	-0.374	0.084
-376.873	-134.644	0.255	-0.031
-375.858	459.219	0.079	-0.173
-374.844	7.630	0.170	0.125
-373.829	257.382	-0.111	0.188
-372.815	415.465	0.050	0.106
-371.800	-121.305	0.265	-0.044
-370.785	-126.406	-0.231	0.034
-369.771	94.125	0.124	-0.138
-368.756	389.303	-0.159	-0.324
-367.742	-55.446	-0.212	-0.094
-366.727	-200.000	0.053	0.336
-365.712	156.868	0.110	0.150
-364.698	-200.000	0.011	0.072
-363.683	-200.000	0.006	-0.059
-362.669	-101.134	-0.150	0.036
-361.654	-51.575	0.331	0.152
-360.639	-200.000	0.016	0.154
-359.625	-200.000	0.022	-0.410
-358.610	145.540	0.105	0.138
-357.596	800.000	0.073	-0.241
-356.581	-131.818	-0.344	-0.044
-355.566	800.000	0.093	0.327
-354.552	397.799	-0.128	0.263
-353.537	152.385	-0.091	0.123
-352.523	-30.601	0.283	-0.158
-351.508	282.661	0.145	-0.256
-350.493	-86.792	-0.289	-0.087
-349.479	77.852	-0.362	0.379
-348.464	-59.193	0.098	-0.042
-347.450	17.547	-0.135	0.106
-346.435	22.070	0.140	0.112
-345.420	424.414	0.169	0.358
-344.406	-22.421	-0.152	-0.091
-343.391	86.535	0.150	-0.163
-342.377	-169.210	0.099	-0.004
-341.362	800.000	0.018	0.052
-340.348	-11.326	0.099	-0.064
-339.333	129.708	0.100	-0.125
-338.318	-200.000	0.031	-0.204
-337.304	800.000	0.063	0.182
-336.289	-200.000	-0.009	-0.350
-335.275	-38.868	-0.192	0.099
-334.260	159.784	0.152	-0.208
-333.245	-200.000	-0.026	0.262
-332.231	-164.563	0.351	0.016
-331.216	800.000	-0.091	0.314
-330.202	-126.144	-0.241	-0.035
-329.187	59.683	-0.083	-0.081
-328.172	306.077	0.205	-0.375
-327.158	-64.582	-0.075	0.030
-326.143	187.308	-0.180	0.264
-325.129	-47.269	0.151	0.072
-324.114	41.043	0.160	-0.142
-323.099	-146.521	0.330	-0.028
-322.085	-165.984	-0.144	0.006
-321.070	-14.209	0.106	-0.067
-320.056	-180.139	-0.062	0.001
-319.041	180.318	-0.086	-0.124
-318.026	99.594	0.122	0.139
-317.012	58.874	-0.095	0.091
-315.997	-2.695	-0.122	-0.084
-314.983	-172.355	-0.306	0.010
-313.968	800.000	0.055	-0.226
-312.953	366.457	0.013	0.026
-311.939	-63.254	0.146	0.059
-310.924	618.549	-0.072	-0.178
-309.910	-96.234	0.336	-0.087
-308.895	530.808	-0.075	0.173
-307.880	-113.210	-0.371	-0.072
-306.866	106.683	0.213	0.248
-305.851	91.759	0.021	0.024
-304.837	-98.578	0.189	-0.047
-303.822	800.000	0.057	0.186
-302.807	261.681	0.047	0.079
-301.793	800.000	-0.052	0.147
-300.778	-86.341	0.130	-0.039
-299.764	205.916	-0.116	0.177
-298.749	312.142	0.054	-0.099
-297.735	-160.305	0.332	0.018
-296.720	470.267	-0.084	0.185
-295.705	-6.169	-0.259	0.174
-294.691	650.904	-0.086	0.217
-293.676	-153.071	-0.199	0.014
-292.662	-58.622	0.129	-0.055
-291.647	202.126	-0.039	-0.059
-290.632	63.009	0.088	-0.087
-289.618	28.963	0.237	0.197
-288.603	-44.375	-0.097	0.048
-287.589	-32.910	0.224	0.122
-286.574	800.000	-0.074	0.255
-285.559	-54.161	-0.091	0.040
-284.545	-200.000	0.022	-0.160
-283.530	4.066	-0.305	0.219
-282.516	182.890	-0.065	-0.094
-281.501	-200.000	0.017	-0.254
-280.486	141.473	-0.238	-0.309
-279.472	-48.453	0.207	0.098
-278.457	-57.392	0.115	0.050
-277.443	19.539	0.040	-0.031
-276.428	84.555	0.105	0.112
-275.413	236.545	-0.151	-0.246
-274.399	800.000	-0.020	0.068
-273.384	188.042	0.281	0.412
-272.370	184.636	-0.068	-0.098
-271.355	-181.154	0.268	-0.005
-270.340	-82.821	-0.124	-0.039
-269.326	-64.347	0.217	-0.087
-268.311	24.180	0.093	0.075
-267.297	-115.264	-0.195	-0.036
-266.282	126.661	-0.264	0.328
-265.267	-200.000	0.001	-0.055
-264.253	66.083	0.060	0.060
-263.238	-129.782	0.073	-0.010
-262.224	-24.219	-0.237	-0.139
-261.209	121.906	-0.173	-0.212
-260.195	-108.107	0.170	0.036
-259.180	-200.000	-0.038	-0.240
-258.165	800.000	-0.122	-0.404
-257.151	-178.566	-0.142	0.003
-256.136	170.777	-0.104	-0.146
-255.122	-55.522	0.271	0.119
-254.107	-82.079	0.066	0.021
-253.092	-49.939	0.385	-0.179
-252.078	800.000	0.040	0.110
-251.063	-128.977	0.283	-0.039
-250.049	-133.871	-0.455	-0.055
-249.034	-66.221	0.197	-0.077
-248.019	-48.974	-0.209	-0.098
-247.005	800.000	0.031	-0.124
-245.990	-200.000	0.014	-0.158
-244.976	180.234	0.146	-0.210
-243.961	306.460	-0.083	-0.151
-242.946	82.380	-0.106	-0.112
-241.932	126.916	-0.109	-0.135
-240.917	-78.365	0.160	0.054
-239.903	201.804	0.075	-0.113
-238.888	-200.000	-0.046	0.333
-237.873	83.033	0.212	0.226
-236.859	-11.162	-0.186	0.120
-235.844	-200.000	0.036	-0.473
-234.830	478.359	-0.082	-0.182
-233.815	-111.163	0.246	0.049
-232.800	69.742	-0.109	-0.110
-231.786	-200.000	-0.053	0.347
-230.771	81.723	0.161	0.171
-229.757	800.000	0.061	-0.187
-228.742	-200.000	0.036	-0.188
-227.727	89.743	0.091	-0.099
-226.713	59.438	-0.126	0.121
-225.698	39.911	-0.186	0.164
-224.684	246.917	0.064	-0.106
-223.669	684.434	-0.114	0.292
-222.655	-13.193	-0.101	-0.064
-221.640	-33.485	-0.116	0.063
-220.625	-38.613	0.227	-0.117
-219.611	-200.000	0.009	-0.075
-218.596	263.979	0.084	0.144
-217.582	562.495	0.067	-0.158
-216.567	367.178	-0.119	-0.235
-215.552	-63.234	-0.218	-0.088
-214.538	800.000	0.043	-0.118
-213.523	136.326	0.193	0.246
-212.509	-28.760	-0.078	-0.044
-211.494	-148.590	0.163	0.013
-210.479	-200.000	0.021	0.112
-209.465	535.301	-0.032	-0.075
-208.450	132.315	0.104	-0.132
-207.436	462.703	0.115	0.251
-206.421	-84.988	0.183	0.056
-205.406	2.018	0.069	-0.049
-204.392	425.423	-0.132	0.278
-203.377	-50.689	0.163	-0.075
-202.363	41.691	-0.189	-0.168
-201.348	-111.266	-0.345	0.069
-200.333	103.248	0.090	0.103
-199.319	-152.981	-0.459	-0.032
-198.304	217.705	-0.207	0.322
-197.290	-50.314	0.256	0.118
-196.275	24.677	0.349	-0.282
-195.260	-63.086	-0.157	-0.063
-194.246	-95.384	-0.072	-0.019
-193.231	516.304	0.073	-0.167
-192.217	520.644	0.017	0.039
-191.202	800.000	0.013	0.041
-190.187	-6.978	-0.278	-0.185
-189.173	292.488	-0.033	0.058
-188.158	-82.243	-0.368	0.117
-187.144	-200.000	-0.025	-0.303
-186.129	158.773	0.096	-0.131
-185.114	-110.433	0.085	0.017
-184.100	57.752	-0.078	-0.074
-183.085	-200.000	-0.083	-0.422
-182.071	-38.277	-0.022	-0.011
-181.056	-39.700	0.201	-0.103
-180.042	-200.000	0.012	0.454
-179.027	639.111	-0.097	-0.240
-178.012	144.843	0.114	-0.149
-176.998	163.194	0.215	-0.295
-175.983	-142.859	0.137	0.013
-174.969	-20.583	0.298	-0.179
-173.954	-119.345	0.248	-0.042
-172.939	7.749	-0.084	0.062
-171.925	-84.123	-0.181	0.056
-170.910	190.679	0.028	0.040
-169.896	120.206	-0.070	-0.085
-168.881	-2.743	-0.187	0.127
-167.866	800.000	-0.021	-0.066
-166.852	-42.892	-0.226	0.112
-165.837	-103.838	-0.072	-0.017
-164.823	65.430	-0.086	0.085
-163.808	481.393	0.088	-0.194
-162.793	-33.476	-0.153	0.082
-161.779	-193.837	-0.204	-0.002
-160.764	579.483	-0.034	-0.081
-159.750	800.000	0.050	0.147
-158.735	-200.000	0.084	0.455
-157.720	-2.482	-0.212	0.145
-156.706	-5.697	0.215	0.144
-155.691	800.000	0.071	0.210
-154.677	170.314	0.057	0.080
-153.662	-200.000	0.009	0.057
-152.647	-63.610	0.283	0.113
-151.633	-40.049	-0.134	-0.068
-150.618	354.706	-0.048	0.092
-149.604	800.000	0.078	0.257
-148.589	208.642	0.055	-0.084
-147.574	93.595	0.119	-0.132
-146.560	444.157	-0.057	-0.123
-145.545	143.484	0.238	0.309
-144.531	-200.000	-0.003	-0.040
-143.516	-1.528	0.298	0.205
-142.502	-200.000	-0.070	-0.420
-141.487	800.000	0.055	-0.205
-140.472	167.729	-0.048	0.067
-139.458	474.259	0.064	0.141
-138.443	15.934	0.230	-0.177
-137.429	18.260	0.130	-0.101
-136.414	5.404	0.190	0.137
-135.399	-41.977	0.207	-0.103
-134.385	-14.351	-0.301	-0.189
-133.370	-81.926	0.325	-0.104
-132.356	-200.000	0.021	-0.148
-131.341	-200.000	0.031	0.156
-130.326	-107.159	0.350	-0.075
-129.312	-100.837	0.127	-0.030
-128.297	35.607	0.229	0.196
-127.283	1.091	-0.374	0.262
-126.268	63.265	-0.117	0.115
-125.253	119.986	-0.086	-0.104
-124.239	534.910	-0.155	0.359
-123.224	800.000	0.035	-0.118
-122.210	-79.419	0.405	0.134
-121.195	120.267	0.104	0.126
-120.180	-86.466	-0.149	0.045
