DTS Sentinel unit serial number:	SN413079Multiplexer serial number:	ORYXHardware model number:	OX4-SRSoftware version number:	ORYX F/W v4.00 Oryx Data Collector v3.7.2.0data status	okinstallation	princeton_trtdifferential loss correction	single-endedforward channel	channel 3reverse channel	N/Adate	2019/09/18time	16:40:35forward acquisition time	60.00reverse acquisition time	0.00gamma	496.2192k internal	0.2292k external	0.2292temperature offset calibration	0.9984default loss term (dB/km)	0.3790temperature slope calibration	1.0000multiplexer offset coefficient	1.0000multiplexer slope coefficient	1.0000fibre end	0.00T internal ref (°C)	39.69T ext. ref 1 (°C)	0.85T ext. ref 2 (°C)	36.61length (m)	temperature (°C)	Stokes	anti-Stokes-747.200	76.399	0.094	-0.102
-746.185	76.623	0.254	0.276
-745.171	547.103	-0.134	0.329
-744.156	503.341	0.093	0.221
-743.142	800.000	-0.135	0.490
-742.127	800.000	-0.042	0.182
-741.112	78.876	0.020	0.021
-740.098	800.000	-0.058	0.214
-739.083	-112.361	-0.167	-0.034
-738.069	249.310	-0.261	0.452
-737.054	-82.392	-0.113	-0.037
-736.039	570.322	0.050	0.125
-735.025	221.454	-0.099	0.162
-734.010	-33.292	0.155	0.088
-732.996	-200.000	-0.038	-0.228
-731.981	252.868	-0.102	0.178
-730.966	80.485	-0.326	0.359
-729.952	-200.000	0.012	0.321
-728.937	421.098	-0.077	-0.170
-727.923	-98.422	-0.350	0.092
-726.908	-83.644	-0.291	-0.095
-725.894	-200.000	0.037	0.287
-724.879	501.660	-0.065	-0.155
-723.864	-153.674	-0.101	-0.007
-722.850	-81.685	-0.248	-0.083
-721.835	-54.891	-0.349	-0.161
-720.821	800.000	0.062	0.178
-719.806	-159.050	-0.299	-0.017
-718.791	-97.935	-0.310	-0.082
-717.777	-115.565	-0.444	-0.085
-716.762	22.766	-0.216	0.181
-715.748	-92.895	-0.330	0.094
-714.733	-200.000	0.027	-0.144
-713.718	800.000	-0.047	-0.167
-712.704	-59.646	0.131	0.057
-711.689	91.013	0.289	-0.331
-710.675	800.000	-0.073	-0.212
-709.660	156.341	-0.104	0.147
-708.645	800.000	-0.082	0.295
-707.631	396.420	0.087	0.185
-706.616	36.939	0.158	0.143
-705.602	372.143	0.102	-0.212
-704.587	-59.042	0.233	-0.103
-703.572	-43.014	-0.104	-0.054
-702.558	-12.618	0.091	0.060
-701.543	-60.349	-0.291	0.126
-700.529	-200.000	0.047	-0.238
-699.514	-200.000	-0.034	-0.303
-698.499	-145.188	0.258	-0.024
-697.485	-144.794	0.391	0.037
-696.470	-200.000	0.013	-0.224
-695.456	12.024	0.039	0.030
-694.441	-200.000	0.007	0.435
-693.426	712.374	-0.114	0.307
-692.412	800.000	0.107	0.379
-691.397	-200.000	0.027	0.160
-690.383	77.622	-0.298	0.324
-689.368	235.280	-0.138	0.232
-688.354	15.641	-0.072	0.058
-687.339	-109.773	0.187	0.040
-686.324	413.460	-0.139	0.301
-685.310	-38.788	-0.184	0.099
-684.295	16.763	-0.186	0.151
-683.281	-101.067	0.136	0.034
-682.266	93.750	-0.250	-0.289
-681.251	177.862	-0.063	-0.093
-680.237	113.055	0.075	0.092
-679.222	-200.000	0.008	0.038
-678.208	-129.758	0.123	0.017
-677.193	26.947	0.110	0.094
-676.178	-200.000	0.013	0.068
-675.164	16.601	0.119	0.096
-674.149	191.803	0.135	-0.208
-673.135	-200.000	-0.007	0.202
-672.120	-99.382	-0.183	-0.047
-671.105	-200.000	-0.004	-0.235
-670.091	-45.585	-0.191	0.097
-669.076	800.000	-0.052	-0.213
-668.062	46.578	0.108	0.102
-667.047	-200.000	-0.040	-0.203
-666.032	95.104	-0.247	0.287
-665.018	-16.099	0.127	-0.082
-664.003	108.213	-0.159	0.194
-662.989	225.782	-0.092	0.153
-661.974	57.917	0.069	-0.068
-660.959	-96.935	0.133	0.036
-659.945	254.771	-0.057	0.099
-658.930	-124.672	0.278	0.044
-657.916	54.169	0.043	0.043
-656.901	166.384	0.145	-0.209
-655.886	-200.000	0.011	-0.097
-654.872	-13.424	-0.210	0.139
-653.857	226.797	-0.219	-0.363
-652.843	-200.000	-0.003	-0.120
-651.828	-147.044	0.162	-0.014
-650.814	-43.961	0.372	0.191
-649.799	800.000	-0.060	0.242
-648.784	-200.000	0.033	0.293
-647.770	561.257	-0.056	0.137
-646.755	-200.000	0.002	0.243
-645.741	-200.000	-0.014	0.095
-644.726	-106.261	0.252	-0.058
-643.711	687.718	-0.104	-0.278
-642.697	65.856	0.079	-0.082
-641.682	-200.000	-0.003	-0.077
-640.668	-141.446	0.168	-0.017
-639.653	-200.000	-0.006	0.056
-638.638	30.067	-0.143	-0.125
-637.624	117.842	0.223	-0.280
-636.609	8.706	-0.026	0.020
-635.595	-69.243	0.294	0.115
-634.580	28.398	-0.202	0.174
-633.565	800.000	0.097	-0.287
-632.551	57.178	0.068	0.068
-631.536	-200.000	0.037	0.256
-630.522	-169.120	-0.105	-0.004
-629.507	-116.224	-0.199	0.038
-628.492	-32.986	0.274	-0.155
-627.478	-200.000	-0.023	-0.153
-626.463	32.778	-0.025	-0.022
-625.449	-200.000	0.103	-0.483
-624.434	-12.902	-0.230	0.153
-623.419	168.855	0.099	-0.144
-622.405	-135.907	0.208	0.025
-621.390	14.711	0.085	0.067
-620.376	-111.159	0.024	0.005
-619.361	115.245	-0.078	0.097
-618.346	800.000	0.070	0.208
-617.332	131.117	-0.080	0.105
-616.317	-164.115	-0.261	-0.012
-615.303	-144.247	0.171	0.016
-614.288	-119.966	0.387	-0.068
-613.273	86.885	0.189	-0.212
-612.259	602.440	0.114	-0.288
-611.244	64.099	0.246	-0.252
-610.230	84.767	-0.193	-0.215
-609.215	-119.013	0.229	-0.041
-608.201	800.000	-0.079	0.225
-607.186	-200.000	-0.010	-0.123
-606.171	152.042	-0.264	0.367
-605.157	-11.144	-0.268	-0.180
-604.142	-200.000	0.018	-0.177
-603.128	-200.000	0.079	0.472
-602.113	2.275	-0.088	0.065
-601.098	13.139	0.331	-0.261
-600.084	21.309	0.248	-0.205
-599.069	800.000	-0.098	-0.291
-598.055	800.000	-0.035	-0.139
-597.040	159.513	0.084	0.119
-596.025	175.812	-0.211	-0.312
-595.011	204.407	-0.264	-0.417
-593.996	99.183	-0.090	-0.106
-592.982	-132.072	-0.155	-0.021
-591.967	143.587	0.045	-0.061
-590.952	-200.000	-0.025	0.313
-589.938	126.984	0.238	0.307
-588.923	377.616	0.105	-0.219
-587.909	139.886	0.054	0.072
-586.894	500.558	-0.103	0.243
-585.879	-154.511	-0.030	-0.002
-584.865	185.279	0.031	0.047
-583.850	100.484	-0.247	-0.291
-582.836	800.000	-0.062	-0.214
-581.821	-41.568	0.239	-0.125
-580.806	195.929	-0.019	-0.029
-579.792	800.000	0.124	-0.437
-578.777	-200.000	-0.003	-0.392
-577.763	-111.387	0.349	-0.072
-576.748	-83.032	0.036	0.012
-575.733	-200.000	0.065	-0.300
-574.719	-200.000	-0.001	-0.242
-573.704	-200.000	-0.031	0.367
-572.690	-66.572	0.137	0.055
-571.675	338.426	0.014	-0.028
-570.661	26.225	-0.084	0.071
-569.646	244.250	0.126	0.216
-568.631	800.000	0.075	0.217
-567.617	-98.147	-0.350	-0.091
-566.602	250.074	0.085	-0.146
-565.588	150.447	0.175	0.242
-564.573	520.069	0.190	-0.454
-563.558	-31.237	0.076	-0.044
-562.544	800.000	0.055	-0.213
-561.529	-200.000	0.051	-0.260
-560.515	-135.085	0.114	0.014
-559.500	382.784	-0.047	0.097
-558.485	-200.000	0.009	-0.190
-557.471	-143.466	0.153	0.015
-556.456	72.183	-0.073	-0.077
-555.442	426.546	-0.087	0.191
-554.427	-200.000	-0.028	-0.148
-553.412	-200.000	0.017	0.187
-552.398	-47.427	0.127	-0.063
-551.383	169.992	0.194	0.282
-550.369	-1.337	0.183	0.131
-549.354	800.000	0.043	-0.151
-548.339	-73.816	-0.239	0.088
-547.325	-200.000	-0.040	-0.273
-546.310	152.307	0.142	0.197
-545.296	90.535	-0.303	-0.345
-544.281	-28.254	-0.145	0.085
-543.266	-9.534	-0.062	0.042
-542.252	-200.000	0.050	-0.256
-541.237	62.493	-0.032	0.033
-540.223	-84.499	-0.143	0.046
-539.208	-137.546	0.224	0.026
-538.193	-200.000	-0.005	-0.035
-537.179	-63.080	0.215	-0.090
-536.164	58.227	0.013	0.013
-535.150	-85.571	-0.167	-0.053
-534.135	251.626	-0.173	-0.299
-533.121	23.368	-0.097	0.081
-532.106	-200.000	0.037	0.323
-531.091	366.528	-0.145	0.296
-530.077	-200.000	0.010	0.051
-529.062	-200.000	-0.003	-0.501
-528.048	215.068	-0.108	0.174
-527.033	-200.000	-0.003	0.082
-526.018	534.242	-0.105	0.252
-525.004	-70.024	-0.495	0.191
-523.989	67.904	0.124	0.129
-522.975	-140.260	-0.302	0.032
-521.960	304.297	-0.070	0.131
-520.945	479.851	-0.081	0.187
-519.931	670.575	0.082	-0.216
-518.916	-108.102	-0.006	-0.001
-517.902	201.437	0.112	0.175
-516.887	-25.369	-0.056	-0.034
-515.872	169.663	0.081	-0.117
-514.858	800.000	0.045	0.186
-513.843	800.000	-0.124	0.468
-512.829	130.819	0.307	0.399
-511.814	-172.560	-0.456	-0.015
-510.799	-31.424	-0.126	0.072
-509.785	-17.972	0.134	0.085
-508.770	266.584	-0.071	-0.126
-507.756	152.608	-0.059	-0.082
-506.741	167.450	0.070	0.102
-505.726	45.678	0.300	0.281
-504.712	71.615	-0.087	0.091
-503.697	269.005	0.114	0.202
-502.683	-120.158	-0.203	0.035
-501.668	-145.767	0.303	0.027
-500.653	-200.000	-0.026	0.202
-499.639	332.122	-0.008	0.015
-498.624	373.465	0.178	-0.366
-497.610	800.000	0.083	-0.247
-496.595	233.835	0.066	0.110
-495.581	800.000	0.093	-0.271
-494.566	800.000	0.067	-0.236
-493.551	82.051	-0.220	0.242
-492.537	-200.000	-0.008	0.091
-491.522	-200.000	-0.021	0.132
-490.508	689.375	0.098	-0.260
-489.493	206.936	-0.051	0.080
-488.478	-156.565	0.150	-0.009
-487.464	153.774	-0.208	-0.289
-486.449	-200.000	0.059	-0.284
-485.435	-165.745	-0.069	-0.003
-484.420	556.226	0.045	-0.109
-483.405	800.000	-0.050	-0.151
-482.391	800.000	0.057	0.185
-481.376	-76.232	0.146	-0.052
-480.362	-200.000	-0.026	-0.130
-479.347	20.294	0.095	0.078
-478.332	-18.007	0.178	-0.113
-477.318	-75.145	0.069	-0.025
-476.303	123.139	-0.115	-0.146
-475.289	-9.262	-0.107	0.073
-474.274	69.606	-0.282	0.294
-473.259	352.746	0.028	0.055
-472.245	19.869	-0.084	0.068
-471.230	79.109	-0.127	0.138
-470.216	-200.000	0.010	0.045
-469.201	-92.702	0.208	-0.059
-468.186	800.000	-0.033	-0.121
-467.172	800.000	-0.073	-0.232
-466.157	199.124	-0.205	-0.318
-465.143	-146.946	0.107	0.009
-464.128	-142.725	0.239	-0.024
-463.113	63.480	0.126	-0.128
-462.099	134.774	-0.120	0.157
-461.084	-200.000	0.000	-0.072
-460.070	-57.787	-0.471	-0.209
-459.055	-11.532	-0.272	-0.181
-458.040	-72.659	-0.038	0.014
-457.026	-103.807	-0.172	0.041
-456.011	474.332	0.146	-0.334
-454.997	800.000	0.047	-0.160
-453.982	151.568	-0.027	0.037
-452.968	80.569	-0.026	0.028
-451.953	162.998	0.033	-0.047
-450.938	12.503	-0.251	0.196
-449.924	-79.198	0.088	0.030
-448.909	31.404	-0.062	0.054
-447.895	-70.261	0.028	0.011
-446.880	283.523	-0.154	0.280
-445.865	-200.000	-0.012	-0.237
-444.851	-120.618	-0.274	-0.047
-443.836	-200.000	-0.015	0.085
-442.822	-160.865	0.536	0.029
-441.807	269.274	-0.089	-0.159
-440.792	-56.931	-0.277	0.124
-439.778	88.929	0.083	0.094
-438.763	-9.318	-0.062	-0.042
-437.749	194.746	0.140	0.214
-436.734	218.605	0.100	-0.162
-435.719	-73.198	0.090	-0.033
-434.705	5.196	0.088	0.066
-433.690	-128.704	-0.213	-0.030
-432.676	-200.000	-0.024	-0.252
-431.661	-200.000	0.023	0.269
-430.646	-49.338	-0.170	-0.082
-429.632	16.375	-0.034	0.027
-428.617	727.678	0.056	0.152
-427.603	-200.000	0.021	0.274
-426.588	-200.000	0.033	0.241
-425.573	-200.000	0.020	0.280
-424.559	61.361	0.201	-0.202
-423.544	-52.659	-0.143	-0.067
-422.530	-200.000	0.010	0.158
-421.515	-118.227	-0.147	-0.026
-420.500	-155.953	0.166	0.011
-419.486	-44.302	-0.239	-0.121
-418.471	244.333	-0.058	-0.098
-417.457	-48.145	-0.287	0.140
-416.442	-122.150	-0.182	0.030
-415.428	-200.000	-0.045	-0.328
-414.413	-54.646	0.217	-0.099
-413.398	-124.237	-0.101	0.016
-412.384	126.948	0.229	-0.293
-411.369	-200.000	-0.033	-0.181
-410.355	-101.145	0.303	-0.075
-409.340	-200.000	0.039	0.269
-408.325	-200.000	-0.005	0.068
-407.311	130.965	-0.020	0.025
-406.296	26.179	0.265	-0.223
-405.282	-154.206	-0.019	-0.001
-404.267	-114.184	0.302	0.059
-403.252	-27.842	0.123	0.072
-402.238	-200.000	-0.017	0.103
-401.223	27.858	-0.106	-0.090
-400.209	179.038	0.135	-0.199
-399.194	800.000	0.105	0.308
-398.179	30.328	-0.008	-0.007
-397.165	-148.560	-0.169	-0.014
-396.150	-114.836	-0.195	-0.038
-395.136	-23.517	0.234	-0.142
-394.121	442.754	-0.091	0.201
-393.106	359.932	0.022	-0.044
-392.092	-200.000	-0.053	0.252
-391.077	-71.316	-0.318	0.120
-390.063	-152.601	0.207	-0.015
-389.048	800.000	-0.068	-0.225
-388.033	98.815	0.010	0.011
-387.019	496.989	0.132	-0.306
-386.004	-70.883	0.052	-0.020
-384.990	12.416	-0.275	0.214
-383.975	2.886	-0.022	-0.016
-382.960	800.000	0.046	-0.144
-381.946	15.170	0.017	0.013
-380.931	386.134	0.205	0.427
-379.917	-144.706	-0.126	0.012
-378.902	-200.000	-0.023	-0.172
-377.888	362.369	-0.099	-0.200
-376.873	800.000	-0.018	0.081
-375.858	8.999	-0.151	0.115
-374.844	47.687	0.103	0.097
-373.829	-106.104	-0.332	0.075
-372.815	-28.148	0.215	0.125
-371.800	-116.989	0.066	0.012
-370.785	98.678	0.027	0.031
-369.771	290.624	-0.074	-0.136
-368.756	314.255	-0.079	0.150
-367.742	-125.296	0.137	-0.021
-366.727	316.297	-0.055	-0.104
-365.712	210.839	0.099	-0.157
-364.698	-33.364	-0.256	0.143
-363.683	-200.000	0.003	-0.038
-362.669	-48.254	-0.079	-0.038
-361.654	77.055	-0.262	0.281
-360.639	-129.788	0.299	-0.042
-359.625	44.068	-0.055	0.051
-358.610	39.548	-0.073	-0.066
-357.596	194.901	0.056	-0.085
-356.581	-165.150	0.249	-0.011
-355.566	57.279	0.050	0.049
-354.552	4.431	0.073	-0.054
-353.537	-120.452	-0.090	0.015
-352.523	-72.706	0.111	0.041
-351.508	800.000	-0.086	-0.267
-350.493	-94.075	0.111	0.031
-349.479	65.593	-0.090	-0.092
-348.464	89.983	-0.299	-0.337
-347.450	193.487	0.073	0.111
-346.435	110.803	0.087	0.105
-345.420	-200.000	-0.007	0.126
-344.406	800.000	0.111	-0.340
-343.391	-169.285	-0.362	0.013
-342.377	-58.296	-0.230	-0.101
-341.362	800.000	-0.065	0.251
-340.348	80.190	0.066	0.072
-339.333	-36.034	0.194	0.106
-338.318	-28.195	0.116	0.068
-337.304	-65.867	-0.349	0.141
-336.289	-76.122	-0.352	0.125
-335.275	-12.516	0.266	0.175
-334.260	772.780	0.177	0.487
-333.245	-200.000	0.023	0.111
-332.231	-200.000	0.200	-0.000
-331.216	-200.000	0.012	0.218
-330.202	-95.035	0.124	0.034
-329.187	-141.298	0.111	-0.011
-328.172	-200.000	0.049	-0.260
-327.158	800.000	-0.087	-0.356
-326.143	-200.000	-0.008	0.153
-325.129	92.668	-0.060	-0.069
-324.114	196.428	0.133	0.204
-323.099	-200.000	-0.042	0.202
-322.085	150.249	0.123	-0.168
-321.070	-118.190	0.118	0.021
-320.056	-60.876	0.330	-0.140
-319.041	-103.254	-0.345	0.082
-318.026	-200.000	-0.011	-0.295
-317.012	-86.820	-0.241	-0.074
-315.997	800.000	0.171	-0.504
-314.983	-151.797	0.068	0.005
-313.968	-61.313	0.079	-0.034
-312.953	-184.677	-0.242	-0.004
-311.939	141.432	0.133	-0.177
-310.924	121.819	0.008	0.011
-309.910	-200.000	-0.035	0.360
-308.895	220.171	-0.051	-0.083
-307.880	91.928	0.068	-0.077
-306.866	-1.315	-0.067	0.047
-305.851	800.000	-0.072	-0.243
-304.837	90.888	0.186	0.210
-303.822	-76.416	-0.156	0.055
-302.807	-180.064	0.204	-0.004
-301.793	-124.135	-0.141	0.022
-300.778	123.583	-0.034	-0.043
-299.764	150.121	0.212	-0.289
-298.749	-71.079	0.159	-0.060
-297.735	6.263	0.058	0.044
-296.720	254.340	0.194	-0.334
-295.705	129.268	-0.167	-0.215
-294.691	325.174	0.034	-0.065
-293.676	-53.425	-0.144	-0.066
-292.662	355.282	0.124	-0.249
-291.647	266.913	0.094	-0.165
-290.632	-109.342	-0.228	-0.049
-289.618	-140.628	0.249	-0.026
-288.603	-37.103	-0.181	0.097
-287.589	-111.021	-0.009	0.002
-286.574	21.848	-0.112	0.092
-285.559	-159.584	0.269	0.015
-284.545	-200.000	0.000	0.162
-283.530	79.527	-0.203	0.218
-282.516	-61.022	0.215	0.091
-281.501	-200.000	0.007	-0.094
-280.486	-129.583	0.239	-0.033
-279.472	84.615	0.094	0.103
-278.457	85.580	-0.170	0.188
-277.443	-15.249	0.363	-0.234
-276.428	-200.000	-0.130	0.001
-275.413	104.602	-0.197	0.233
-274.399	-12.454	-0.497	-0.326
-273.384	-108.137	-0.064	-0.014
-272.370	-112.574	0.230	0.046
-271.355	-133.189	0.078	-0.010
-270.340	-79.949	0.154	0.052
-269.326	-188.112	-0.210	0.003
-268.311	-200.000	0.104	0.462
-267.297	-114.879	0.138	0.026
-266.282	-3.647	0.168	0.117
-265.267	-33.983	-0.385	0.213
-264.253	29.275	0.107	0.092
-263.238	115.340	0.156	-0.192
-262.224	-75.482	-0.109	-0.039
-261.209	730.289	0.044	-0.117
-260.195	-78.208	0.239	-0.083
-259.180	223.418	0.049	0.079
-258.165	800.000	0.040	0.157
-257.151	-150.966	0.116	0.009
-256.136	-144.678	0.181	0.017
-255.122	-10.620	-0.174	0.115
-254.107	132.137	-0.207	-0.268
-253.092	-108.597	0.209	-0.045
-252.078	-200.000	0.009	0.093
-251.063	-66.467	-0.252	0.101
-250.049	136.303	0.112	-0.147
-249.034	-56.798	0.155	0.069
-248.019	-200.000	-0.038	0.390
-247.005	-168.979	0.167	0.006
-245.990	12.146	-0.181	0.140
-244.976	-160.594	0.181	0.010
-243.961	203.886	0.054	0.083
-242.946	75.034	0.156	0.165
-241.932	800.000	0.046	-0.150
-240.917	-178.504	0.210	-0.005
-239.903	-200.000	0.011	0.162
-238.888	-153.415	0.192	0.013
-237.873	-42.434	-0.208	-0.106
-236.859	-46.793	0.364	0.179
-235.844	-85.129	0.163	-0.051
-234.830	800.000	-0.084	-0.327
-233.815	-156.360	-0.377	-0.024
-232.800	19.789	0.110	0.089
-231.786	-106.290	0.154	0.035
-230.771	60.635	0.076	-0.075
-229.757	-151.502	-0.183	0.014
-228.742	-19.356	-0.067	0.042
-227.727	-200.000	-0.055	0.318
-226.713	-71.739	-0.071	0.027
-225.698	-137.040	0.153	-0.018
-224.684	47.532	-0.195	-0.182
-223.669	-51.909	0.310	-0.145
-222.655	800.000	0.187	-0.563
-221.640	-69.411	0.292	0.112
-220.625	-200.000	-0.033	0.205
-219.611	313.681	-0.089	-0.168
-218.596	651.861	0.088	0.225
-217.582	263.015	-0.133	-0.231
-216.567	0.161	0.251	-0.179
-215.552	-17.539	-0.200	0.126
-214.538	141.577	-0.067	-0.089
-213.523	-55.729	-0.187	-0.084
-212.509	-200.000	-0.006	0.090
-211.494	-108.503	-0.167	-0.036
-210.479	-200.000	-0.038	0.322
-209.465	135.462	0.079	-0.103
-208.450	-181.455	-0.229	0.004
-207.436	-70.187	0.385	0.147
-206.421	800.000	-0.048	0.163
-205.406	598.565	-0.022	0.055
-204.392	-200.000	-0.002	-0.170
-203.377	-200.000	-0.024	-0.230
-202.363	189.065	-0.168	0.253
-201.348	-188.619	0.148	-0.002
-200.333	-6.579	0.181	-0.124
-199.319	160.541	-0.160	0.223
-198.304	47.021	-0.246	0.229
-197.290	-84.009	-0.076	-0.024
-196.275	430.501	-0.153	-0.332
-195.260	773.642	-0.022	-0.061
-194.246	-16.312	0.312	0.199
-193.231	-110.595	0.199	0.041
-192.217	-68.392	0.245	-0.095
-191.202	-148.809	-0.243	0.020
-190.187	800.000	0.036	-0.101
-189.173	800.000	0.063	0.181
-188.158	-103.123	0.180	0.043
-187.144	523.038	0.030	-0.071
-186.129	-32.125	-0.440	0.246
-185.114	-10.039	-0.072	-0.048
-184.100	176.541	-0.052	-0.076
-183.085	-151.302	-0.166	0.012
-182.071	20.566	-0.017	-0.014
-181.056	-12.078	-0.223	-0.146
-180.042	-30.050	-0.275	0.157
-179.027	-79.267	-0.207	0.070
-178.012	-200.000	0.014	0.409
-176.998	205.738	-0.334	0.519
-175.983	275.948	0.177	-0.315
-174.969	-57.362	0.197	0.087
-173.954	800.000	-0.064	0.178
-172.939	29.883	-0.222	-0.190
-171.925	-24.900	-0.137	0.082
-170.910	122.382	-0.055	-0.068
-169.896	-153.529	-0.433	0.030
-168.881	-144.037	0.389	-0.037
-167.866	609.773	-0.100	0.250
-166.852	-51.122	-0.187	0.087
-165.837	-148.217	-0.319	-0.026
-164.823	-200.000	-0.021	0.378
-163.808	-99.153	-0.182	-0.046
-162.793	35.779	0.226	0.199
-161.779	-200.000	0.010	0.153
-160.764	-82.848	-0.145	0.047
-159.750	-127.149	0.334	-0.049
-158.735	-200.000	-0.012	-0.202
-157.720	147.823	-0.222	0.299
-156.706	60.991	-0.106	0.105
-155.691	13.472	-0.104	0.081
-154.677	27.413	-0.092	-0.077
-153.662	-198.766	-0.433	0.002
-152.647	-120.406	0.188	-0.032
-151.633	-173.484	0.262	0.008
-150.618	-200.000	0.080	-0.375
-149.604	69.951	-0.118	0.122
-148.589	-90.852	0.263	-0.076
-147.574	-197.987	-0.245	-0.001
-146.560	-37.315	-0.161	0.086
-145.545	-200.000	-0.012	0.208
-144.531	65.414	0.030	-0.030
-143.516	5.130	0.115	-0.085
-142.502	746.060	-0.015	0.039
-141.487	369.951	-0.082	-0.167
-140.472	-181.359	-0.359	0.007
-139.458	-15.156	-0.293	0.187
-138.443	-42.412	-0.252	0.128
-137.429	-181.452	-0.123	0.002
-136.414	-15.491	0.158	-0.101
-135.399	-17.030	-0.226	0.142
-134.385	-200.000	0.037	0.244
-133.370	154.736	0.053	-0.073
-132.356	13.002	0.152	-0.118
-131.341	-90.773	0.143	0.041
-130.326	800.000	0.057	-0.178
-129.312	93.219	-0.274	0.310
-128.297	-200.000	0.018	0.151
-127.283	144.178	0.306	-0.407
-126.268	800.000	0.031	0.100
-125.253	573.412	-0.107	-0.260
-124.239	19.482	0.127	0.102
-123.224	58.194	0.050	-0.049
-122.210	-126.810	-0.349	-0.051
-121.195	-42.930	0.089	0.045
