DTS Sentinel unit serial number:	SN413079Multiplexer serial number:	ORYXHardware model number:	OX4-SRSoftware version number:	ORYX F/W v4.00 Oryx Data Collector v3.7.2.0data status	okinstallation	princeton_trtdifferential loss correction	single-endedforward channel	channel 3reverse channel	N/Adate	2019/09/18time	00:44:35forward acquisition time	60.00reverse acquisition time	0.00gamma	496.2192k internal	0.2344k external	0.2344temperature offset calibration	0.9950default loss term (dB/km)	0.3790temperature slope calibration	1.0000multiplexer offset coefficient	1.0000multiplexer slope coefficient	1.0000fibre end	0.00T internal ref (°C)	23.44T ext. ref 1 (°C)	0.17T ext. ref 2 (°C)	17.02length (m)	temperature (°C)	Stokes	anti-Stokes-747.200	193.157	0.155	-0.235
-746.185	185.664	-0.136	0.203
-745.171	-14.252	0.137	0.089
-744.156	-76.385	-0.128	-0.045
-743.142	-4.121	-0.105	-0.073
-742.127	-79.114	-0.229	0.078
-741.112	-38.825	0.287	0.152
-740.098	-200.000	-0.068	0.395
-739.083	63.234	-0.226	0.226
-738.069	-200.000	-0.061	0.324
-737.054	-101.037	-0.150	-0.037
-736.039	-1.976	-0.078	0.055
-735.025	800.000	-0.126	0.495
-734.010	50.895	-0.204	0.193
-732.996	413.808	0.065	0.138
-731.981	-103.899	0.346	0.081
-730.966	140.891	-0.277	-0.366
-729.952	-64.134	-0.049	-0.020
-728.937	190.853	0.136	-0.205
-727.923	-126.902	-0.115	0.017
-726.908	114.755	-0.236	-0.288
-725.894	-107.138	0.219	0.048
-724.879	279.526	0.097	-0.173
-723.864	184.509	-0.168	-0.250
-722.850	72.261	-0.091	-0.095
-721.835	800.000	0.080	0.277
-720.821	-200.000	0.024	0.215
-719.806	-200.000	0.024	0.165
-718.791	-161.626	-0.268	0.014
-717.777	-200.000	-0.010	0.123
-716.762	220.829	-0.179	-0.288
-715.748	-144.008	-0.186	-0.017
-714.733	69.708	0.198	-0.204
-713.718	-114.432	0.332	-0.064
-712.704	148.150	-0.276	0.372
-711.689	-200.000	-0.054	0.364
-710.675	77.809	-0.247	-0.264
-709.660	14.336	-0.073	-0.057
-708.645	-200.000	-0.062	-0.514
-707.631	800.000	-0.047	0.140
-706.616	51.767	-0.195	-0.185
-705.602	256.099	0.135	-0.231
-704.587	-200.000	0.384	-0.001
-703.572	-10.502	0.344	-0.227
-702.558	-117.859	-0.213	0.038
-701.543	-88.467	-0.267	-0.080
-700.529	-14.309	0.370	-0.238
-699.514	-113.726	-0.175	-0.034
-698.499	-118.153	0.216	0.039
-697.485	262.221	0.079	-0.137
-696.470	-72.046	-0.284	0.105
-695.456	167.581	-0.116	-0.165
-694.441	-200.000	0.020	0.192
-693.426	258.318	-0.183	-0.315
-692.412	-124.258	-0.255	-0.040
-691.397	108.864	-0.206	0.246
-690.383	800.000	-0.116	0.375
-689.368	-99.803	-0.193	0.048
-688.354	-46.950	-0.252	0.123
-687.339	23.069	0.067	-0.055
-686.324	255.896	-0.116	-0.199
-685.310	-63.980	0.134	-0.055
-684.295	-73.454	-0.264	-0.096
-683.281	-7.400	-0.076	0.052
-682.266	-30.204	0.195	-0.111
-681.251	777.672	-0.068	0.186
-680.237	-109.475	-0.407	-0.086
-679.222	-200.000	0.001	-0.200
-678.208	-9.541	-0.154	0.103
-677.193	800.000	-0.066	0.259
-676.178	-48.427	-0.258	0.124
-675.164	-127.387	-0.155	0.022
-674.149	498.568	0.129	-0.297
-673.135	-118.545	-0.242	0.043
-672.120	-197.383	-0.345	-0.002
-671.105	-112.980	0.276	-0.054
-670.091	-145.896	-0.195	-0.017
-669.076	20.379	0.286	-0.231
-668.062	-17.945	-0.393	-0.246
-667.047	-88.568	-0.338	-0.100
-666.032	396.200	0.077	-0.161
-665.018	-90.241	-0.144	-0.042
-664.003	-133.920	0.202	-0.025
-662.989	800.000	0.071	0.216
-661.974	800.000	0.043	-0.149
-660.959	-200.000	0.017	0.667
-659.945	-108.365	0.476	0.102
-658.930	146.098	-0.041	0.054
-657.916	-25.341	0.150	0.088
-656.901	593.146	0.055	0.136
-655.886	-75.357	-0.265	0.094
-654.872	-140.518	-0.107	0.011
-653.857	-25.366	-0.098	0.058
-652.843	-0.591	0.083	0.059
-651.828	-38.163	-0.229	0.121
-650.814	-11.736	0.312	0.204
-649.799	418.350	0.099	0.212
-648.784	800.000	0.027	0.075
-647.770	194.438	0.117	0.177
-646.755	-200.000	0.010	0.152
-645.741	-43.148	0.172	0.087
-644.726	-101.232	0.099	-0.024
-643.711	-200.000	0.031	-0.329
-642.697	-200.000	0.009	0.083
-641.682	-200.000	-0.068	-0.414
-640.668	-57.266	0.069	-0.030
-639.653	-76.213	0.219	-0.077
-638.638	85.683	-0.285	-0.312
-637.624	212.305	-0.223	0.351
-636.609	-74.652	-0.221	0.079
-635.595	-121.315	-0.012	0.002
-634.580	-7.345	0.276	-0.186
-633.565	-83.436	0.171	-0.055
-632.551	-124.333	-0.305	0.047
-631.536	-130.732	-0.437	0.059
-630.522	80.697	0.121	-0.130
-629.507	-93.530	0.317	0.087
-628.492	-200.000	0.064	-0.439
-627.478	215.487	-0.146	0.231
-626.463	-114.747	-0.052	-0.010
-625.449	8.509	-0.194	-0.146
-624.434	531.748	-0.139	0.327
-623.419	-117.324	-0.340	-0.062
-622.405	339.123	0.168	0.326
-621.390	-78.757	-0.079	0.027
-620.376	12.937	-0.150	-0.116
-619.361	271.864	0.117	-0.206
-618.346	-200.000	0.007	-0.164
-617.332	-39.024	-0.281	-0.147
-616.317	-7.110	-0.169	-0.114
-615.303	159.852	-0.156	0.216
-614.288	141.544	-0.035	-0.047
-613.273	158.515	-0.119	-0.165
-612.259	-200.000	-0.025	-0.150
-611.244	288.146	-0.083	-0.149
-610.230	-200.000	-0.031	0.372
-609.215	278.188	0.172	0.304
-608.201	474.962	-0.065	-0.147
-607.186	-65.176	0.238	-0.095
-606.171	-111.558	-0.106	0.021
-605.157	-116.523	-0.087	-0.016
-604.142	45.942	0.186	0.171
-603.128	-11.906	-0.192	-0.125
-602.113	336.957	-0.085	0.165
-601.098	399.899	-0.097	0.203
-600.084	74.612	0.026	0.027
-599.069	-200.000	-0.029	-0.232
-598.055	-118.182	-0.101	-0.018
-597.040	-200.000	0.003	0.154
-596.025	116.227	0.281	0.342
-595.011	-109.423	-0.090	-0.019
-593.996	-90.701	0.184	0.053
-592.982	18.684	0.303	0.242
-591.967	305.157	-0.119	-0.221
-590.952	-200.000	0.028	-0.313
-589.938	155.543	0.080	-0.109
-588.923	208.258	0.132	-0.205
-587.909	-200.000	0.040	-0.411
-586.894	343.604	0.040	-0.078
-585.879	74.168	0.132	-0.138
-584.865	-27.107	-0.279	-0.162
-583.850	-87.670	-0.126	0.038
-582.836	-175.704	0.036	0.001
-581.821	-200.000	0.020	0.282
-580.806	173.511	0.192	-0.276
-579.792	121.348	0.189	-0.234
-578.777	77.428	-0.247	0.261
-577.763	-94.665	0.345	0.093
-576.748	-126.766	0.177	-0.026
-575.733	411.050	-0.095	-0.200
-574.719	71.786	-0.091	0.094
-573.704	76.614	0.045	-0.047
-572.690	28.534	-0.187	-0.157
-571.675	-200.000	-0.047	-0.322
-570.661	-200.000	0.011	0.117
-569.646	-87.197	0.146	0.044
-568.631	-200.000	-0.039	-0.662
-567.617	-59.938	-0.158	0.067
-566.602	-200.000	-0.051	-0.399
-565.588	303.140	-0.093	-0.172
-564.573	-40.228	-0.138	-0.071
-563.558	800.000	0.054	0.203
-562.544	-4.521	0.125	-0.086
-561.529	40.214	0.201	0.179
-560.515	262.128	0.127	-0.219
-559.500	-104.577	0.064	-0.015
-558.485	-58.335	-0.520	0.225
-557.471	-46.059	-0.377	-0.185
-556.456	753.007	0.020	-0.053
-555.442	-80.852	-0.329	-0.108
-554.427	-101.846	0.191	-0.046
-553.412	100.172	-0.176	0.203
-552.398	-200.000	0.031	0.295
-551.383	34.606	-0.038	0.033
-550.369	-116.910	-0.411	-0.075
-549.354	299.062	-0.151	-0.275
-548.339	-149.429	0.170	0.013
-547.325	-200.000	0.007	0.177
-546.310	-200.000	-0.005	0.056
-545.296	256.410	0.225	-0.383
-544.281	-45.532	0.120	0.059
-543.266	-42.068	0.486	0.247
-542.252	164.400	-0.118	-0.166
-541.237	27.273	0.075	0.063
-540.223	63.678	-0.180	0.180
-539.208	-138.188	0.266	0.029
-538.193	563.848	-0.081	-0.194
-537.179	-200.000	0.022	0.186
-536.164	-90.356	-0.261	0.075
-535.150	49.704	0.190	-0.177
-534.135	29.800	0.372	-0.315
-533.121	192.272	0.120	0.180
-532.106	-200.000	-0.011	-0.170
-531.091	-137.582	-0.149	0.017
-530.077	-147.735	-0.117	-0.010
-529.062	-200.000	-0.025	-0.202
-528.048	-200.000	-0.000	-0.115
-527.033	135.835	-0.232	0.300
-526.018	800.000	-0.064	-0.266
-525.004	451.049	-0.020	-0.044
-523.989	3.476	-0.402	0.291
-522.975	684.786	-0.049	-0.126
-521.960	298.234	-0.079	-0.144
-520.945	306.564	-0.159	0.294
-519.931	-84.579	0.045	0.014
-518.916	74.087	0.069	0.072
-517.902	-200.000	-0.046	0.404
-516.887	-200.000	0.009	0.182
-515.872	800.000	-0.056	-0.209
-514.858	-18.378	-0.310	0.192
-513.843	502.950	-0.095	0.218
-512.829	-2.429	0.084	-0.058
-511.814	800.000	0.123	-0.402
-510.799	-99.513	0.315	-0.078
-509.785	-101.304	-0.306	0.074
-508.770	-200.000	-0.047	-0.330
-507.756	7.538	-0.334	-0.248
-506.741	9.609	-0.136	-0.102
-505.726	-83.539	-0.288	0.091
-504.712	46.637	-0.023	0.021
-503.697	-200.000	-0.034	0.147
-502.683	-79.917	0.140	-0.047
-501.668	-79.624	-0.196	0.066
-500.653	-158.770	-0.308	-0.017
-499.639	-200.000	-0.006	0.090
-498.624	51.896	-0.096	-0.090
-497.610	179.193	-0.095	-0.138
-496.595	-200.000	-0.006	-0.030
-495.581	37.117	0.225	-0.197
-494.566	235.688	-0.057	-0.093
-493.551	-200.000	0.008	0.201
-492.537	-140.959	-0.319	0.032
-491.522	-7.286	-0.272	0.183
-490.508	218.239	-0.115	0.181
-489.493	-119.542	-0.090	-0.016
-488.478	537.515	-0.171	-0.402
-487.464	70.224	-0.124	0.127
-486.449	800.000	-0.111	-0.380
-485.435	-65.308	-0.152	-0.061
-484.420	-112.658	0.370	-0.073
-483.405	219.644	-0.105	-0.166
-482.391	-200.000	-0.025	-0.116
-481.376	-22.832	0.242	0.144
-480.362	210.253	-0.073	0.114
-479.347	74.428	0.214	0.223
-478.332	80.513	-0.152	-0.163
-477.318	-200.000	-0.038	0.198
-476.303	-200.000	0.052	0.270
-475.289	-15.875	0.258	0.163
-474.274	50.047	0.220	0.205
-473.259	231.646	0.199	-0.323
-472.245	-158.486	-0.281	-0.016
-471.230	20.913	0.115	-0.093
-470.216	-115.550	-0.064	-0.012
-469.201	-200.000	-0.020	0.180
-468.186	-106.461	0.345	0.076
-467.172	-11.238	0.276	-0.180
-466.157	-114.752	0.074	0.014
-465.143	800.000	-0.066	-0.278
-464.128	94.546	-0.159	-0.179
-463.113	103.363	-0.099	-0.115
-462.099	16.631	-0.147	0.115
-461.084	-87.932	-0.254	-0.076
-460.070	-87.419	0.171	-0.051
-459.055	-200.000	-0.002	-0.249
-458.040	-107.499	0.304	0.066
-457.026	800.000	0.004	0.016
-456.011	11.233	0.010	0.008
-454.997	800.000	0.034	-0.104
-453.982	18.625	0.077	-0.061
-452.968	-178.297	-0.112	-0.003
-451.953	20.956	-0.219	-0.176
-450.938	-200.000	0.025	0.241
-449.924	-200.000	0.039	0.255
-448.909	-62.872	-0.317	0.130
-447.895	800.000	0.075	0.234
-446.880	-200.000	0.016	0.173
-445.865	-138.956	0.202	0.022
-444.851	-73.541	-0.278	0.100
-443.836	-200.000	-0.004	0.184
-442.822	-200.000	0.043	0.196
-441.807	-200.000	0.046	-0.403
-440.792	-11.236	0.314	0.205
-439.778	800.000	-0.049	-0.153
-438.763	43.592	0.276	-0.250
-437.749	362.565	-0.103	0.204
-436.734	129.849	0.024	-0.031
-435.719	800.000	0.073	-0.287
-434.705	323.780	0.070	-0.133
-433.690	-200.000	0.065	-0.358
-432.676	800.000	0.061	0.253
-431.661	188.872	-0.109	-0.161
-430.646	-81.857	0.235	0.076
-429.632	-28.644	-0.264	0.150
-428.617	-196.475	-0.145	-0.001
-427.603	-32.994	0.174	-0.095
-426.588	-200.000	-0.012	-0.068
-425.573	-19.117	0.122	-0.075
-424.559	-200.000	-0.057	0.250
-423.544	-125.129	-0.112	0.017
-422.530	143.620	-0.120	0.158
-421.515	-71.404	0.534	0.198
-420.500	800.000	0.029	-0.096
-419.486	-140.604	0.108	0.011
-418.471	-68.420	-0.041	0.016
-417.457	84.064	-0.287	-0.310
-416.442	28.499	-0.244	0.204
-415.428	800.000	-0.060	0.224
-414.413	-120.645	-0.146	-0.024
-413.398	136.458	0.126	0.162
-412.384	137.003	0.108	0.139
-411.369	231.336	-0.113	-0.183
-410.355	800.000	0.068	0.246
-409.340	45.880	-0.191	-0.175
-408.325	-150.446	0.206	0.016
-407.311	-93.619	-0.454	0.124
-406.296	343.014	0.144	-0.278
-405.282	-19.964	-0.334	0.203
-404.267	-34.572	0.155	-0.084
-403.252	-200.000	0.015	0.228
-402.238	-41.753	-0.164	-0.083
-401.223	-53.390	0.150	0.068
-400.209	800.000	-0.069	-0.206
-399.194	-200.000	0.017	0.266
-398.179	3.927	0.310	0.224
-397.165	-91.291	0.185	0.052
-396.150	800.000	0.045	0.146
-395.136	-77.806	-0.315	0.107
-394.121	36.605	0.156	0.136
-393.106	49.504	-0.127	0.118
-392.092	337.575	0.114	-0.218
-391.077	279.006	-0.084	-0.149
-390.063	455.648	0.095	-0.208
-389.048	-161.283	-0.071	-0.004
-388.033	-200.000	-0.065	-0.290
-387.019	-20.154	-0.191	0.116
-386.004	-146.660	0.516	-0.044
-384.990	143.631	-0.092	-0.121
-383.975	248.980	0.058	0.097
-382.960	-200.000	-0.004	0.094
-381.946	677.842	0.044	0.114
-380.931	-89.426	-0.144	0.042
-379.917	130.272	0.109	0.138
-378.902	-200.000	-0.057	-0.267
-377.888	-188.607	-0.310	-0.004
-376.873	642.717	-0.070	0.176
-375.858	800.000	-0.064	0.277
-374.844	419.865	-0.243	0.513
-373.829	-124.362	0.509	-0.078
-372.815	-160.974	-0.408	0.021
-371.800	75.470	0.160	-0.167
-370.785	31.471	0.227	-0.192
-369.771	-105.912	0.355	0.079
-368.756	523.080	0.069	0.159
-367.742	-52.702	-0.281	0.128
-366.727	-31.316	0.283	0.157
-365.712	800.000	-0.067	-0.220
-364.698	174.325	-0.146	-0.208
-363.683	-112.497	-0.110	0.022
-362.669	703.763	0.122	0.318
-361.654	-131.354	0.156	0.020
-360.639	213.395	-0.126	-0.197
-359.625	333.167	-0.130	0.247
-358.610	264.850	-0.101	-0.173
-357.596	77.878	-0.148	-0.155
-356.581	800.000	0.053	0.161
-355.566	138.179	0.162	0.209
-354.552	-135.439	0.208	-0.024
-353.537	-163.628	0.314	0.015
-352.523	748.719	0.046	0.121
-351.508	-200.000	-0.045	-0.209
-350.493	371.481	0.066	0.131
-349.479	-200.000	0.036	0.216
-348.464	60.061	0.460	-0.448
-347.450	-163.539	-0.564	0.026
-346.435	-46.404	0.178	0.086
-345.420	-31.174	-0.082	0.045
-344.406	-118.853	-0.222	0.039
-343.391	-5.534	-0.179	-0.121
-342.377	679.611	0.067	-0.171
-341.362	800.000	0.094	0.327
-340.348	-58.372	-0.482	0.207
-339.333	-200.000	-0.028	-0.232
-338.318	-30.915	-0.168	0.094
-337.304	-19.214	-0.386	0.236
-336.289	-34.560	0.171	0.092
-335.275	-64.865	0.284	-0.113
-334.260	-31.576	-0.116	-0.064
-333.245	45.179	-0.049	0.045
-332.231	-152.029	0.090	0.006
-331.216	129.383	0.112	-0.141
-330.202	-30.263	0.407	-0.228
-329.187	-200.000	0.008	0.063
-328.172	800.000	-0.106	0.424
-327.158	800.000	-0.100	0.328
-326.143	-27.473	0.231	0.132
-325.129	-97.809	0.216	0.055
-324.114	-200.000	-0.027	0.221
-323.099	-200.000	0.018	-0.124
-322.085	-161.559	-0.066	-0.003
-321.070	-40.277	0.218	0.112
-320.056	-128.485	0.276	0.039
-319.041	-123.460	-0.147	0.023
-318.026	-200.000	0.014	-0.168
-317.012	-130.271	-0.134	-0.018
-315.997	-200.000	0.064	-0.330
-314.983	800.000	-0.033	0.136
-313.968	566.209	0.128	0.306
-312.953	129.664	0.181	0.228
-311.939	-200.000	-0.037	0.176
-310.924	-78.807	-0.149	-0.050
-309.910	-51.732	0.332	0.152
-308.895	-200.000	0.004	0.646
-307.880	-13.202	0.309	0.198
-306.866	198.795	0.238	-0.359
-305.851	800.000	0.168	0.458
-304.837	300.539	0.106	-0.192
-303.822	-200.000	0.006	0.242
-302.807	-105.695	0.271	-0.060
-301.793	20.926	0.170	0.135
-300.778	-200.000	-0.020	0.147
-299.764	800.000	0.057	-0.214
-298.749	21.976	-0.064	0.051
-297.735	-103.697	-0.126	0.029
-296.720	-200.000	0.015	0.243
-295.705	780.190	0.083	0.222
-294.691	-200.000	-0.012	0.057
-293.676	-12.956	0.209	0.134
-292.662	438.142	-0.178	-0.382
-291.647	-74.720	-0.117	0.041
-290.632	70.872	-0.143	-0.145
-289.618	-200.000	-0.039	-0.192
-288.603	61.285	0.217	0.212
-287.589	-200.000	0.016	-0.294
-286.574	-200.000	-0.006	-0.029
-285.559	-75.147	-0.358	-0.126
-284.545	-140.266	-0.034	0.003
-283.530	800.000	0.004	-0.013
-282.516	-99.039	0.226	0.056
-281.501	800.000	-0.045	0.151
-280.486	-110.446	0.153	-0.031
-279.472	-200.000	0.079	0.489
-278.457	-9.700	0.252	-0.165
-277.443	-57.248	-0.205	0.089
-276.428	142.390	0.236	0.307
-275.413	-54.834	-0.301	0.133
-274.399	-120.488	0.310	0.052
-273.384	-200.000	-0.011	-0.049
-272.370	-78.095	0.209	-0.071
-271.355	-200.000	0.012	-0.169
-270.340	794.087	0.105	-0.285
-269.326	13.869	0.061	0.047
-268.311	123.018	-0.286	0.352
-267.297	-158.162	0.174	0.010
-266.282	-18.900	-0.319	-0.195
-265.267	-5.014	-0.210	-0.142
-264.253	-200.000	-0.027	0.184
-263.238	163.853	0.146	-0.202
-262.224	-110.213	-0.149	-0.031
-261.209	-200.000	0.017	0.164
-260.195	40.346	0.120	0.106
-259.180	87.945	-0.133	-0.145
-258.165	81.869	-0.169	0.180
-257.151	13.276	-0.096	0.073
-256.136	93.437	0.183	-0.204
-255.122	-39.751	-0.195	0.100
-254.107	14.608	-0.282	0.216
-253.092	450.474	-0.076	0.165
-252.078	-108.827	-0.207	-0.044
-251.063	58.116	0.076	-0.073
-250.049	-200.000	-0.009	0.396
-249.034	175.960	-0.090	-0.128
-248.019	-25.632	0.115	0.067
-247.005	800.000	-0.031	-0.098
-245.990	-34.510	0.138	0.074
-244.976	-59.668	-0.372	0.156
-243.961	-140.746	-0.181	0.018
-242.946	-30.322	-0.185	0.103
-241.932	73.264	-0.187	0.192
-240.917	90.693	0.244	0.268
-239.903	183.827	-0.126	0.182
-238.888	-69.633	-0.182	-0.068
-237.873	-66.061	0.100	-0.039
-236.859	541.847	-0.066	-0.154
-235.844	120.496	-0.265	0.323
-234.830	-150.006	0.420	-0.032
-233.815	-59.398	0.254	-0.107
-232.800	-87.508	-0.215	0.064
-231.786	266.018	0.212	-0.363
-230.771	-200.000	0.018	-0.312
-229.757	-57.232	0.085	-0.037
-228.742	-41.431	0.325	0.164
-227.727	213.400	-0.207	0.320
-226.713	-81.781	0.110	-0.035
-225.698	-200.000	-0.017	-0.143
-224.684	291.407	0.064	0.114
-223.669	330.377	0.134	-0.253
-222.655	-200.000	0.050	-0.230
-221.640	105.361	0.192	-0.222
-220.625	-89.841	0.484	0.139
-219.611	-55.821	-0.231	-0.101
-218.596	800.000	-0.046	-0.134
-217.582	65.861	0.261	-0.260
-216.567	257.355	0.189	-0.319
-215.552	621.644	-0.116	-0.287
-214.538	-200.000	0.009	-0.487
-213.523	-39.224	-0.268	0.138
-212.509	-200.000	-0.073	-0.321
-211.494	-118.977	-0.114	0.020
-210.479	-200.000	0.021	0.147
-209.465	-88.389	0.164	-0.048
-208.450	54.348	-0.212	-0.200
-207.436	67.849	0.102	-0.102
-206.421	155.450	-0.075	0.101
-205.406	-128.281	0.372	0.052
-204.392	330.737	-0.128	-0.243
-203.377	280.922	0.168	-0.295
-202.363	-148.754	-0.193	-0.015
-201.348	158.832	0.242	-0.329
-200.333	0.507	0.182	0.128
-199.319	-29.907	0.065	-0.036
-198.304	800.000	0.028	-0.117
-197.290	-200.000	0.027	0.151
-196.275	132.499	-0.162	-0.204
-195.260	-133.765	-0.187	-0.023
-194.246	328.975	-0.047	0.089
-193.231	693.232	0.100	0.258
-192.217	-37.824	-0.092	0.048
-191.202	391.252	0.094	0.191
-190.187	-15.726	-0.191	-0.119
-189.173	-127.366	0.147	-0.021
-188.158	289.121	-0.056	0.099
-187.144	-200.000	-0.040	-0.204
-186.129	81.068	0.079	-0.083
-185.114	-200.000	-0.053	0.479
-184.100	-70.130	-0.148	-0.055
-183.085	76.996	0.113	-0.118
-182.071	247.309	0.276	-0.456
-181.056	-190.350	0.271	-0.003
-180.042	323.020	0.066	-0.124
-179.027	-1.373	0.277	0.191
-178.012	69.643	0.158	0.160
-176.998	800.000	0.068	0.292
-175.983	256.389	0.093	-0.156
-174.969	-200.000	0.021	-0.193
-173.954	713.770	0.003	0.008
-172.939	-69.805	0.293	0.110
-171.925	-164.950	0.145	-0.006
-170.910	175.978	0.086	0.123
-169.896	-83.204	0.122	-0.039
-168.881	626.595	-0.101	-0.249
-167.866	143.748	0.067	0.087
-166.852	-10.293	0.152	0.099
-165.837	152.136	-0.169	-0.225
-164.823	-92.229	-0.166	0.046
-163.808	514.536	-0.160	0.365
-162.793	-132.918	-0.275	-0.034
-161.779	43.185	-0.178	-0.159
-160.764	-68.339	-0.340	-0.129
-159.750	-97.505	-0.084	-0.021
-158.735	-53.741	0.053	0.024
-157.720	117.850	0.361	0.435
-156.706	100.955	0.054	0.062
-155.691	-86.213	0.253	0.076
-154.677	800.000	-0.068	-0.217
-153.662	218.263	-0.008	0.012
-152.647	72.426	-0.310	-0.316
-151.633	-121.855	0.242	-0.039
-150.618	-200.000	-0.014	-0.093
-149.604	-12.656	0.260	0.166
-148.589	26.043	0.092	0.075
-147.574	-200.000	0.029	0.184
-146.560	-73.687	0.232	0.083
-145.545	-134.106	0.239	-0.029
-144.531	317.314	-0.090	0.166
-143.516	800.000	0.107	-0.403
-142.502	-81.467	0.033	0.011
-141.487	-107.467	-0.117	0.025
-140.472	38.932	0.165	0.144
-139.458	-68.403	-0.059	-0.022
-138.443	-166.201	0.400	-0.017
-137.429	62.894	0.277	0.271
-136.414	-14.492	-0.241	-0.151
-135.399	208.336	0.195	0.297
-134.385	-120.674	-0.258	0.043
-133.370	-200.000	0.011	-0.153
-132.356	-20.905	0.137	-0.082
-131.341	-97.258	0.132	0.034
-130.326	-114.414	-0.133	-0.025
-129.312	-200.000	0.038	0.279
-128.297	275.247	0.070	0.122
-127.283	-200.000	-0.011	0.109
-126.268	-141.855	0.130	-0.013
-125.253	453.331	0.205	0.444
-124.239	-94.812	-0.094	0.025
-123.224	192.666	-0.148	0.218
-122.210	-200.000	0.025	0.141
