DTS Sentinel unit serial number:	SN413079Multiplexer serial number:	ORYXHardware model number:	OX4-SRSoftware version number:	ORYX F/W v4.00 Oryx Data Collector v3.7.2.0data status	okinstallation	princeton_trtdifferential loss correction	single-endedforward channel	channel 3reverse channel	N/Adate	2019/09/18time	04:16:35forward acquisition time	60.00reverse acquisition time	0.00gamma	496.2192k internal	0.2342k external	0.2342temperature offset calibration	0.9950default loss term (dB/km)	0.3790temperature slope calibration	1.0000multiplexer offset coefficient	1.0000multiplexer slope coefficient	1.0000fibre end	0.00T internal ref (°C)	23.31T ext. ref 1 (°C)	0.17T ext. ref 2 (°C)	17.62length (m)	temperature (°C)	Stokes	anti-Stokes-747.200	800.000	-0.020	-0.064
-746.185	-30.100	0.194	0.111
-745.171	-26.110	0.238	0.140
-744.156	268.262	-0.015	0.026
-743.142	183.713	0.039	0.058
-742.127	-200.000	-0.022	0.128
-741.112	-97.293	0.095	0.025
-740.098	-152.421	-0.159	0.011
-739.083	-200.000	0.023	0.160
-738.069	-85.632	-0.393	0.122
-737.054	-48.732	0.162	-0.078
-736.039	-157.474	-0.168	-0.010
-735.025	-87.483	0.206	-0.063
-734.010	10.522	-0.112	-0.086
-732.996	35.813	-0.229	-0.202
-731.981	323.777	0.107	-0.204
-730.966	160.302	0.092	-0.128
-729.952	800.000	-0.042	0.153
-728.937	-94.937	0.171	0.046
-727.923	-20.704	0.045	-0.028
-726.908	-200.000	-0.045	-0.259
-725.894	-71.551	-0.435	0.163
-724.879	613.812	-0.038	-0.095
-723.864	-182.967	-0.200	-0.004
-722.850	-179.415	-0.279	-0.006
-721.835	-41.773	0.184	0.094
-720.821	-103.740	-0.212	-0.050
-719.806	587.589	-0.031	0.076
-718.791	72.244	0.080	-0.083
-717.777	-156.722	-0.262	0.016
-716.762	219.662	0.095	-0.152
-715.748	216.686	0.131	0.208
-714.733	-98.507	-0.278	-0.071
-713.718	426.026	0.073	0.157
-712.704	197.739	-0.109	0.166
-711.689	-129.906	0.293	-0.040
-710.675	42.959	-0.157	0.143
-709.660	-106.599	-0.051	-0.011
-708.645	-200.000	-0.026	-0.346
-707.631	-35.458	-0.213	-0.116
-706.616	600.396	0.077	0.191
-705.602	-200.000	-0.063	-0.281
-704.587	-200.000	-0.034	-0.256
-703.572	-200.000	0.018	0.242
-702.558	220.187	0.095	0.152
-701.543	-200.000	-0.076	0.343
-700.529	-200.000	-0.008	0.123
-699.514	-81.392	0.087	-0.029
-698.499	109.173	-0.201	-0.241
-697.485	-94.885	-0.492	0.133
-696.470	-200.000	-0.156	0.001
-695.456	800.000	0.051	0.142
-694.441	371.629	0.073	0.147
-693.426	-200.000	0.017	-0.181
-692.412	-200.000	-0.037	-0.175
-691.397	800.000	-0.079	0.276
-690.383	-64.234	0.190	-0.078
-689.368	505.507	-0.193	-0.446
-688.354	-200.000	0.027	0.229
-687.339	103.173	0.203	0.238
-686.324	-31.978	0.391	0.219
-685.310	-84.589	0.127	0.040
-684.295	19.443	-0.299	-0.240
-683.281	800.000	-0.023	0.079
-682.266	-155.695	-0.166	-0.011
-681.251	83.087	0.139	0.151
-680.237	141.840	0.177	-0.234
-679.222	260.059	0.075	-0.129
-678.208	-200.000	-0.011	-0.111
-677.193	395.287	-0.088	0.182
-676.178	163.306	-0.161	-0.225
-675.164	-101.102	0.396	-0.097
-674.149	-200.000	-0.037	-0.184
-673.135	-200.000	-0.053	0.287
-672.120	44.392	-0.121	0.111
-671.105	-41.087	-0.157	-0.081
-670.091	-74.252	-0.219	-0.079
-669.076	-200.000	0.005	0.456
-668.062	800.000	-0.089	-0.266
-667.047	800.000	0.034	-0.145
-666.032	36.307	-0.120	0.106
-665.018	-200.000	0.358	-0.000
-664.003	-80.955	-0.156	0.052
-662.989	800.000	-0.053	-0.188
-661.974	-100.785	-0.538	0.132
-660.959	-50.708	0.145	0.068
-659.945	62.366	0.059	-0.059
-658.930	-61.500	-0.427	-0.179
-657.916	-2.413	-0.165	0.115
-656.901	-156.300	0.264	-0.016
-655.886	87.831	-0.229	-0.254
-654.872	-103.954	0.327	0.076
-653.857	-110.994	-0.223	-0.046
-652.843	-196.966	0.134	0.001
-651.828	-167.048	0.169	-0.007
-650.814	-142.035	-0.228	0.023
-649.799	800.000	-0.035	0.097
-648.784	-200.000	-0.019	0.269
-647.770	-85.010	-0.135	-0.042
-646.755	-11.670	0.318	-0.208
-645.741	761.270	-0.042	0.113
-644.726	-122.215	-0.280	0.046
-643.711	55.279	-0.118	-0.114
-642.697	-52.055	-0.511	0.237
-641.682	77.634	0.166	0.177
-640.668	123.270	-0.123	0.154
-639.653	-51.696	-0.223	0.104
-638.638	-12.980	-0.166	-0.107
-637.624	582.958	0.018	0.043
-636.609	103.476	-0.158	0.185
-635.595	-46.759	-0.097	-0.047
-634.580	-200.000	0.054	-0.288
-633.565	-121.641	0.074	0.012
-632.551	-20.435	-0.277	-0.170
-631.536	-200.000	0.018	-0.127
-630.522	624.030	0.074	-0.185
-629.507	-149.321	0.442	0.035
-628.492	-41.435	0.159	0.082
-627.478	-200.000	0.013	0.189
-626.463	-100.770	0.342	0.084
-625.449	141.055	-0.202	-0.267
-624.434	-200.000	0.008	0.115
-623.419	800.000	-0.048	-0.175
-622.405	800.000	0.067	-0.221
-621.390	43.974	-0.130	-0.119
-620.376	-45.531	-0.313	-0.155
-619.361	800.000	0.061	-0.190
-618.346	-158.475	-0.170	-0.010
-617.332	648.485	0.035	-0.090
-616.317	224.248	-0.076	-0.122
-615.303	-200.000	0.015	0.167
-614.288	35.385	0.186	0.163
-613.273	800.000	-0.078	0.329
-612.259	-200.000	-0.002	0.253
-611.244	143.259	0.119	-0.158
-610.230	-200.000	-0.003	0.059
-609.215	22.555	-0.058	0.047
-608.201	205.184	0.037	-0.057
-607.186	302.876	0.090	-0.166
-606.171	-109.093	-0.276	-0.059
-605.157	40.178	-0.164	-0.147
-604.142	-100.858	0.287	-0.070
-603.128	-200.000	-0.086	-0.440
-602.113	-200.000	-0.057	-0.393
-601.098	342.062	0.186	0.362
-600.084	-200.000	-0.010	-0.262
-599.069	-83.994	0.104	0.033
-598.055	442.237	-0.205	0.448
-597.040	-115.678	-0.230	0.043
-596.025	800.000	0.106	-0.319
-595.011	-39.797	-0.305	-0.158
-593.996	8.525	-0.113	-0.085
-592.982	-33.657	-0.154	-0.085
-591.967	-10.238	0.111	-0.073
-590.952	-166.727	-0.128	-0.005
-589.938	208.893	-0.123	0.191
-588.923	-16.112	-0.040	-0.025
-587.909	-200.000	-0.026	-0.192
-586.894	-143.351	0.267	-0.025
-585.879	-200.000	0.251	0.000
-584.865	-200.000	0.021	-0.131
-583.850	-200.000	-0.023	-0.152
-582.836	-39.839	0.139	0.073
-581.821	240.124	-0.081	0.135
-580.806	-128.233	-0.117	0.017
-579.792	-65.354	-0.404	-0.162
-578.777	361.778	0.106	-0.212
-577.763	388.809	0.065	0.133
-576.748	115.340	0.091	-0.111
-575.733	-56.049	-0.088	0.039
-574.719	275.413	0.006	0.011
-573.704	-138.319	0.308	-0.034
-572.690	-130.805	0.416	0.056
-571.675	-92.680	0.124	0.035
-570.661	800.000	0.085	-0.339
-569.646	62.408	0.231	-0.229
-568.631	88.249	0.243	-0.268
-567.617	-143.691	-0.089	0.008
-566.602	-94.394	0.141	0.038
-565.588	-109.794	-0.435	0.091
-564.573	-200.000	0.024	-0.217
-563.558	-87.265	0.255	-0.077
-562.544	800.000	0.028	0.082
-561.529	-200.000	0.028	0.260
-560.515	-45.099	-0.167	0.083
-559.500	137.645	-0.105	-0.137
-558.485	141.368	-0.052	-0.068
-557.471	785.345	0.102	0.279
-556.456	241.600	-0.095	0.158
-555.442	38.941	-0.035	-0.031
-554.427	531.573	-0.082	-0.193
-553.412	800.000	0.067	-0.210
-552.398	48.343	-0.139	0.129
-551.383	-200.000	-0.020	-0.229
-550.369	800.000	-0.164	-0.500
-549.354	-41.529	-0.109	-0.056
-548.339	-200.000	0.008	0.311
-547.325	-99.985	0.071	0.018
-546.310	-200.000	0.005	0.113
-545.296	800.000	0.048	0.137
-544.281	320.575	-0.074	0.140
-543.266	-124.360	-0.191	0.030
-542.252	800.000	-0.069	-0.192
-541.237	564.553	-0.060	0.144
-540.223	-111.991	-0.250	0.050
-539.208	-92.567	0.345	-0.096
-538.193	33.702	0.204	0.177
-537.179	259.198	-0.106	0.182
-536.164	-57.815	0.025	-0.011
-535.150	296.437	0.098	0.178
-534.135	187.145	0.059	0.087
-533.121	10.612	0.029	0.022
-532.106	394.315	-0.017	-0.035
-531.091	-97.575	0.092	-0.024
-530.077	-200.000	0.000	-0.024
-529.062	800.000	-0.153	0.602
-528.048	246.518	-0.169	0.283
-527.033	-72.052	-0.122	0.045
-526.018	151.638	-0.178	-0.241
-525.004	-200.000	0.038	0.268
-523.989	-123.189	-0.497	0.079
-522.975	-200.000	0.005	-0.348
-521.960	-62.941	0.275	-0.113
-520.945	-84.830	-0.342	0.107
-519.931	-135.473	-0.120	0.014
-518.916	-107.278	0.142	0.031
-517.902	-18.374	-0.233	0.145
-516.887	-134.337	-0.334	-0.041
-515.872	-200.000	0.008	0.423
-514.858	-200.000	-0.036	-0.408
-513.843	-14.989	-0.311	0.198
-512.829	-37.260	0.056	-0.030
-511.814	92.381	-0.154	-0.172
-510.799	-113.585	0.203	0.039
-509.785	-200.000	0.043	0.213
-508.770	-128.471	-0.158	-0.022
-507.756	-200.000	-0.015	-0.292
-506.741	156.834	-0.088	0.121
-505.726	229.454	0.058	0.094
-504.712	-114.048	-0.143	0.027
-503.697	-27.275	-0.341	-0.197
-502.683	638.084	0.031	-0.077
-501.668	-200.000	-0.019	-0.133
-500.653	-56.470	0.236	-0.104
-499.639	110.871	0.131	0.157
-498.624	-184.647	-0.426	0.007
-497.610	394.132	0.141	0.292
-496.595	-52.448	-0.245	-0.112
-495.581	-116.655	0.380	0.069
-494.566	-185.323	-0.203	0.003
-493.551	-119.145	-0.157	0.027
-492.537	74.433	-0.246	-0.256
-491.522	263.476	0.176	0.304
-490.508	102.569	-0.247	0.286
-489.493	-112.583	-0.422	0.083
-488.478	-120.773	0.136	0.023
-487.464	665.264	0.087	-0.224
-486.449	-73.331	0.346	-0.126
-485.435	39.257	-0.190	-0.168
-484.420	76.282	0.192	-0.202
-483.405	-104.546	0.244	0.056
-482.391	-23.661	0.188	-0.112
-481.376	-108.798	-0.189	0.040
-480.362	-123.532	-0.097	0.015
-479.347	-200.000	0.004	0.044
-478.332	669.472	0.027	-0.070
-477.318	316.416	0.206	-0.386
-476.303	134.699	-0.133	-0.171
-475.289	-67.884	0.130	-0.050
-474.274	-68.464	0.108	0.041
-473.259	27.403	-0.132	-0.110
-472.245	800.000	-0.034	-0.142
-471.230	562.788	0.058	-0.139
-470.216	223.864	0.110	-0.177
-469.201	762.995	0.082	0.221
-468.186	186.570	0.135	0.200
-467.172	-70.214	0.146	0.055
-466.157	321.904	0.042	0.080
-465.143	77.325	-0.274	-0.289
-464.128	-28.245	0.305	-0.174
-463.113	-135.858	0.387	-0.045
-462.099	379.124	-0.163	0.331
-461.084	475.587	0.015	0.032
-460.070	-121.125	0.255	-0.042
-459.055	-8.568	-0.247	0.164
-458.040	-115.911	-0.140	-0.026
-457.026	-33.904	-0.262	-0.143
-456.011	29.119	-0.191	-0.161
-454.997	-167.088	0.278	-0.011
-453.982	58.511	-0.051	-0.050
-452.968	-200.000	0.040	-0.283
-451.953	172.216	-0.148	-0.210
-450.938	-163.947	-0.304	-0.014
-449.924	-53.602	0.399	0.181
-448.909	-107.813	-0.227	0.049
-447.895	117.336	-0.183	-0.222
-446.880	203.112	-0.139	-0.212
-445.865	-200.000	-0.017	0.106
-444.851	-122.800	-0.088	0.014
-443.836	-144.269	0.111	0.010
-442.822	-61.626	0.072	0.030
-441.807	336.378	-0.150	-0.289
-440.792	281.715	0.072	0.128
-439.778	522.215	-0.090	-0.209
-438.763	-83.667	0.063	0.020
-437.749	-200.000	0.001	-0.166
-436.734	114.970	-0.186	0.225
-435.719	403.319	-0.107	0.223
-434.705	-200.000	0.039	0.326
-433.690	37.920	0.250	-0.220
-432.676	106.819	-0.265	-0.312
-431.661	-200.000	-0.015	0.237
-430.646	426.791	0.105	-0.225
-429.632	-143.156	-0.296	0.028
-428.617	-200.000	0.019	0.141
-427.603	444.299	0.056	0.122
-426.588	32.607	-0.127	-0.109
-425.573	123.727	0.169	0.210
-424.559	-84.703	-0.280	-0.087
-423.544	-187.189	0.087	0.001
-422.530	-120.513	0.278	0.047
-421.515	-161.864	0.205	-0.010
-420.500	-163.936	-0.278	-0.013
-419.486	-38.301	0.041	-0.021
-418.471	96.650	0.094	-0.106
-417.457	-134.624	0.208	-0.025
-416.442	-177.415	0.413	0.010
-415.428	472.165	-0.105	0.234
-414.413	170.345	-0.070	-0.099
-413.398	103.306	0.232	-0.269
-412.384	-132.481	-0.051	0.006
-411.369	2.397	-0.197	0.141
-410.355	-4.854	-0.159	-0.109
-409.340	800.000	-0.045	-0.150
-408.325	-67.499	0.246	-0.096
-407.311	-38.782	-0.259	-0.135
-406.296	-151.178	-0.177	0.013
-405.282	55.380	0.143	-0.137
-404.267	76.945	-0.114	0.120
-403.252	-172.148	0.480	0.015
-402.238	138.460	0.122	-0.159
-401.223	-200.000	-0.005	0.263
-400.209	278.569	-0.127	-0.223
-399.194	-121.403	-0.490	0.081
-398.179	146.089	0.091	0.121
-397.165	384.291	-0.099	-0.201
-396.150	-200.000	0.066	0.339
-395.136	-142.106	-0.052	-0.005
-394.121	-54.523	0.281	-0.126
-393.106	800.000	0.056	-0.184
-392.092	800.000	0.063	-0.220
-391.077	184.415	-0.135	0.198
-390.063	-114.574	-0.099	0.019
-389.048	800.000	-0.050	-0.164
-388.033	-83.700	-0.148	-0.047
-387.019	-33.872	-0.011	-0.006
-386.004	-80.356	0.212	-0.070
-384.990	-152.081	-0.166	-0.012
-383.975	800.000	-0.041	-0.149
-382.960	800.000	-0.065	-0.233
-381.946	87.864	-0.082	0.090
-380.931	-63.938	-0.088	-0.036
-379.917	48.215	-0.047	-0.043
-378.902	-69.936	0.095	0.036
-377.888	-163.352	-0.081	0.004
-376.873	-70.064	0.489	-0.184
-375.858	-200.000	0.027	-0.137
-374.844	67.250	0.057	0.057
-373.829	-200.000	0.044	0.404
-372.815	-115.162	0.139	-0.026
-371.800	180.879	-0.114	-0.166
-370.785	146.944	-0.105	0.140
-369.771	-2.168	-0.213	0.147
-368.756	800.000	0.093	0.332
-367.742	-108.592	0.103	-0.022
-366.727	-41.860	0.374	0.189
-365.712	287.986	-0.163	0.291
-364.698	-90.335	0.096	-0.027
-363.683	12.502	0.202	-0.154
-362.669	705.423	-0.056	-0.146
-361.654	800.000	0.079	0.237
-360.639	416.513	-0.103	0.217
-359.625	800.000	0.153	0.570
-358.610	-28.253	0.085	-0.048
-357.596	-132.421	-0.163	-0.021
-356.581	-200.000	0.033	-0.276
-355.566	800.000	0.114	-0.477
-354.552	455.976	0.063	0.138
-353.537	78.287	-0.090	0.095
-352.523	123.954	-0.180	-0.224
-351.508	-111.635	-0.484	-0.097
-350.493	-163.569	-0.223	-0.010
-349.479	-62.956	0.174	0.071
-348.464	329.376	0.082	-0.156
-347.450	20.313	-0.204	-0.163
-346.435	691.680	0.041	0.107
-345.420	800.000	0.022	-0.069
-344.406	223.689	-0.131	-0.209
-343.391	-52.923	-0.149	-0.068
-342.377	-200.000	0.009	-0.166
-341.362	-104.567	0.183	0.042
-340.348	-82.574	-0.236	0.075
-339.333	62.687	0.212	-0.209
-338.318	-14.419	0.206	-0.131
-337.304	-200.000	0.004	0.039
-336.289	121.405	0.015	0.018
-335.275	40.349	0.108	0.096
-334.260	-89.939	0.408	0.118
-333.245	180.007	-0.223	0.322
-332.231	236.474	0.133	-0.217
-331.216	533.949	0.116	-0.271
-330.202	800.000	-0.071	0.247
-329.187	-200.000	0.106	0.691
-328.172	401.380	0.027	0.055
-327.158	0.522	0.239	0.168
-326.143	7.020	-0.328	0.241
-325.129	26.724	0.125	-0.103
-324.114	-200.000	-0.011	-0.200
-323.099	143.231	0.144	-0.188
-322.085	-168.026	-0.325	-0.012
-321.070	-120.825	-0.209	-0.035
-320.056	-157.748	0.353	-0.021
-319.041	-47.189	-0.069	-0.033
-318.026	800.000	-0.023	0.090
-317.012	375.546	-0.103	0.207
-315.997	388.003	-0.065	-0.133
-314.983	-28.872	-0.186	-0.105
-313.968	134.322	0.017	0.022
-312.953	-200.000	-0.016	0.450
-311.939	-30.701	0.042	0.023
-310.924	-189.640	0.230	0.003
-309.910	-26.449	-0.218	-0.126
-308.895	-19.025	0.146	-0.089
-307.880	65.673	0.375	0.374
-306.866	-29.258	-0.389	-0.219
-305.851	-200.000	-0.006	-0.077
-304.837	102.207	-0.054	0.062
-303.822	-88.801	0.105	0.031
-302.807	-200.000	0.020	0.143
-301.793	331.651	0.117	-0.221
-300.778	-55.530	0.374	0.165
-299.764	-17.947	-0.160	0.099
-298.749	800.000	-0.108	-0.294
-297.735	249.909	0.119	0.198
-296.720	137.292	0.139	-0.179
-295.705	111.979	0.118	-0.140
-294.691	-200.000	0.020	-0.218
-293.676	16.953	0.135	-0.106
-292.662	-121.626	-0.212	-0.035
-291.647	-29.918	0.178	0.100
-290.632	139.795	0.100	0.129
-289.618	-2.612	-0.063	0.043
-288.603	-72.168	0.337	0.123
-287.589	-200.000	0.095	-0.500
-286.574	-87.175	0.088	0.026
-285.559	-95.767	0.288	-0.076
-284.545	-114.535	-0.499	-0.094
-283.530	30.776	-0.175	0.147
-282.516	800.000	-0.070	0.263
-281.501	-200.000	-0.015	-0.095
-280.486	-93.800	0.230	-0.062
-279.472	-68.865	0.168	0.064
-278.457	-163.243	-0.269	-0.013
-277.443	-200.000	0.014	0.086
-276.428	800.000	0.051	-0.153
-275.413	-164.748	-0.191	-0.008
-274.399	-5.382	0.187	-0.126
-273.384	-99.520	-0.099	-0.024
-272.370	-69.073	-0.196	-0.074
-271.355	30.203	-0.091	-0.076
-270.340	39.937	0.354	0.313
-269.326	-154.661	0.134	0.009
-268.311	-62.398	0.121	-0.050
-267.297	-53.457	-0.251	-0.113
-266.282	237.465	0.217	0.354
-265.267	250.751	-0.135	0.226
-264.253	120.565	0.089	-0.109
-263.238	-200.000	0.029	0.368
-262.224	-40.324	-0.192	0.098
-261.209	-200.000	-0.010	-0.218
-260.195	582.843	-0.114	0.275
-259.180	-34.471	-0.226	-0.122
-258.165	-106.244	0.137	0.030
-257.151	44.126	-0.064	-0.058
-256.136	134.696	0.170	0.217
-255.122	-162.378	0.106	0.005
-254.107	-156.822	-0.060	0.004
-253.092	100.910	0.232	-0.265
-252.078	-98.246	-0.056	-0.014
-251.063	-58.232	0.212	0.091
-250.049	287.951	-0.055	0.097
-249.034	-200.000	-0.017	-0.099
-248.019	-79.184	0.233	0.078
-247.005	7.729	-0.162	-0.119
-245.990	2.166	0.125	-0.089
-244.976	-52.507	-0.134	0.061
-243.961	-132.612	-0.368	0.046
-242.946	-87.740	0.101	0.030
-241.932	132.451	-0.219	0.278
-240.917	800.000	0.092	0.385
-239.903	-12.342	0.082	-0.053
-238.888	22.488	-0.151	0.121
-237.873	-143.059	0.262	-0.025
-236.859	-48.720	0.176	0.083
-235.844	-31.180	-0.210	-0.116
-234.830	-27.801	-0.201	-0.114
-233.815	-140.322	0.338	-0.035
-232.800	491.404	0.048	-0.107
-231.786	-99.103	-0.275	-0.068
-230.771	162.542	-0.095	0.131
-229.757	578.949	0.074	-0.179
-228.742	211.236	-0.080	0.123
-227.727	236.259	0.054	-0.088
-226.713	-135.417	0.208	0.024
-225.698	363.441	-0.049	0.096
-224.684	-200.000	0.032	0.221
-223.669	49.651	0.250	0.231
-222.655	-200.000	0.056	0.334
-221.640	251.543	0.103	0.172
-220.625	-8.607	-0.178	0.118
-219.611	55.022	0.063	0.060
-218.596	187.863	0.098	-0.143
-217.582	-200.000	-0.007	-0.032
-216.567	92.693	-0.197	-0.218
-215.552	-149.397	-0.239	0.019
-214.538	74.148	-0.099	0.102
-213.523	49.138	0.236	0.217
-212.509	-1.516	0.238	-0.165
-211.494	-118.345	0.208	-0.036
-210.479	292.622	0.086	-0.153
-209.465	-107.014	-0.063	-0.014
-208.450	800.000	-0.084	0.330
-207.436	554.299	0.024	0.058
-206.421	49.485	0.172	-0.159
-205.406	-200.000	0.032	0.394
-204.392	208.730	0.241	0.370
-203.377	800.000	-0.074	-0.209
-202.363	-200.000	0.016	0.168
-201.348	-200.000	0.022	-0.157
-200.333	68.040	0.212	-0.212
-199.319	800.000	0.047	-0.187
-198.304	-177.285	-0.099	-0.002
-197.290	-78.492	0.229	0.077
-196.275	800.000	-0.063	0.182
-195.260	-186.881	-0.191	0.003
-194.246	173.937	-0.120	0.170
-193.231	-87.799	0.224	0.066
-192.217	281.627	0.129	-0.227
-191.202	800.000	0.078	0.265
-190.187	-98.824	-0.172	-0.043
-189.173	-135.137	0.300	-0.035
-188.158	134.213	0.118	0.150
-187.144	-200.000	0.046	0.209
-186.129	43.534	0.183	-0.164
-185.114	800.000	0.107	-0.439
-184.100	-200.000	-0.013	-0.073
-183.085	8.510	0.356	0.262
-182.071	800.000	-0.059	-0.191
-181.056	-155.552	0.079	0.005
-180.042	-81.493	-0.104	0.034
-179.027	-24.615	0.107	0.062
-178.012	-38.996	-0.334	-0.172
-176.998	319.507	-0.060	-0.111
-175.983	-8.167	-0.180	0.119
-174.969	-200.000	0.020	-0.150
-173.954	-106.044	0.192	-0.042
-172.939	19.086	-0.187	0.147
-171.925	-200.000	-0.074	0.420
-170.910	-100.207	0.074	-0.018
-169.896	-166.138	0.028	0.001
-168.881	57.327	0.085	0.081
-167.866	655.762	0.057	0.142
-166.852	-168.570	-0.177	0.007
-165.837	-9.020	0.285	0.187
-164.823	115.039	0.124	-0.148
-163.808	-142.455	-0.152	0.015
-162.793	-12.542	-0.218	-0.139
-161.779	-200.000	0.016	0.247
-160.764	85.528	-0.183	-0.197
-159.750	97.236	0.180	0.202
-158.735	-113.585	0.219	0.042
-157.720	-81.195	0.168	-0.054
-156.706	-60.086	0.225	-0.094
-155.691	-200.000	-0.002	0.106
-154.677	-74.984	-0.232	-0.081
-153.662	-200.000	-0.110	-0.000
-152.647	-200.000	-0.015	-0.130
-151.633	270.150	0.157	0.270
-150.618	52.720	-0.273	-0.255
-149.604	54.078	-0.288	0.271
-148.589	-97.090	0.218	-0.056
-147.574	-173.436	0.061	-0.002
-146.560	141.405	0.108	-0.140
-145.545	512.839	0.173	0.394
-144.531	352.008	0.077	0.149
-143.516	27.423	-0.217	0.179
-142.502	35.092	-0.155	0.133
-141.487	-157.240	-0.192	0.011
-140.472	-200.000	0.017	0.260
-139.458	-78.196	0.328	0.110
-138.443	132.121	-0.216	-0.272
-137.429	-200.000	0.021	-0.101
-136.414	-80.094	0.365	0.120
-135.399	-200.000	0.079	0.361
-134.385	-182.243	-0.280	-0.005
-133.370	61.834	0.221	0.215
-132.356	138.629	0.259	0.332
-131.341	-21.890	-0.127	0.076
-130.326	-200.000	0.001	0.132
-129.312	-75.323	-0.134	0.047
-128.297	-131.423	0.069	-0.009
-127.283	-18.750	-0.242	0.147
-126.268	-64.666	-0.249	0.099
-125.253	460.016	0.082	0.179
-124.239	772.521	-0.060	0.161
-123.224	91.008	-0.056	-0.061
-122.210	-121.871	-0.206	0.033
