DTS Sentinel unit serial number:	SN413079Multiplexer serial number:	ORYXHardware model number:	OX4-SRSoftware version number:	ORYX F/W v4.00 Oryx Data Collector v3.7.2.0data status	okinstallation	princeton_trtdifferential loss correction	single-endedforward channel	channel 3reverse channel	N/Adate	2019/09/16time	05:16:34forward acquisition time	60.00reverse acquisition time	0.00gamma	496.2192k internal	0.2336k external	0.2336temperature offset calibration	0.9958default loss term (dB/km)	0.3790temperature slope calibration	1.0000multiplexer offset coefficient	1.0000multiplexer slope coefficient	1.0000fibre end	0.00T internal ref (°C)	27.25T ext. ref 1 (°C)	11.06T ext. ref 2 (°C)	22.09length (m)	temperature (°C)	Stokes	anti-Stokes-747.200	-200.000	-0.014	-0.215
-746.185	695.799	0.195	0.513
-745.171	-200.000	-0.013	0.199
-744.156	98.692	0.196	0.228
-743.142	-89.795	-0.383	0.113
-742.127	513.961	-0.146	0.341
-741.112	285.804	0.096	0.174
-740.098	-121.470	-0.200	-0.033
-739.083	-29.390	-0.036	0.021
-738.069	-16.326	-0.277	0.176
-737.054	72.927	0.105	0.110
-736.039	-60.171	-0.372	-0.159
-735.025	-85.520	0.200	0.062
-734.010	-75.714	0.277	-0.099
-732.996	165.283	-0.118	0.167
-731.981	-95.555	-0.099	0.027
-730.966	-174.398	-0.111	0.003
-729.952	-98.560	-0.539	0.138
-728.937	-8.708	0.148	-0.100
-727.923	391.804	0.068	0.141
-726.908	134.389	-0.185	0.241
-725.894	210.311	-0.104	-0.164
-724.879	22.241	0.088	-0.072
-723.864	18.530	-0.054	-0.043
-722.850	800.000	-0.071	-0.229
-721.835	-96.227	0.164	-0.044
-720.821	224.627	-0.052	0.085
-719.806	93.483	-0.162	-0.184
-718.791	411.170	0.055	0.116
-717.777	-200.000	0.012	0.211
-716.762	89.541	-0.052	-0.058
-715.748	-200.000	0.068	0.340
-714.733	-200.000	-0.023	0.125
-713.718	-185.406	0.233	0.004
-712.704	-110.490	0.166	0.034
-711.689	-200.000	0.006	-0.115
-710.675	219.861	0.054	0.086
-709.660	-56.164	0.368	0.164
-708.645	-45.752	0.136	0.067
-707.631	-31.830	0.138	-0.078
-706.616	-200.000	0.021	-0.197
-705.602	-70.904	0.301	-0.114
-704.587	194.945	-0.112	0.171
-703.572	-163.769	-0.255	-0.012
-702.558	201.430	0.151	0.233
-701.543	310.775	-0.171	-0.321
-700.529	-91.091	-0.065	-0.019
-699.514	95.296	-0.255	-0.292
-698.499	367.997	-0.182	-0.369
-697.485	-200.000	0.019	-0.197
-696.470	100.765	0.058	-0.067
-695.456	-200.000	-0.001	0.019
-694.441	-200.000	-0.007	-0.214
-693.426	800.000	-0.051	0.142
-692.412	-48.634	0.441	-0.213
-691.397	-113.723	-0.225	0.044
-690.383	-58.469	-0.067	0.029
-689.368	-122.602	-0.388	0.063
-688.354	-91.991	0.077	-0.022
-687.339	-68.141	-0.283	-0.110
-686.324	76.217	-0.177	0.188
-685.310	-200.000	0.035	-0.406
-684.295	800.000	-0.025	-0.089
-683.281	-24.212	-0.319	0.191
-682.266	800.000	0.107	-0.344
-681.251	23.102	-0.051	-0.042
-680.237	-0.748	0.255	0.181
-679.222	-4.491	-0.300	-0.208
-678.208	-47.081	-0.210	0.102
-677.193	164.594	0.057	-0.080
-676.178	-77.882	-0.143	0.049
-675.164	-200.000	0.020	-0.183
-674.149	35.682	-0.371	0.327
-673.135	-200.000	0.034	-0.565
-672.120	800.000	-0.077	-0.262
-671.105	74.295	-0.120	-0.126
-670.091	-33.779	-0.256	0.141
-669.076	133.474	0.066	0.085
-668.062	279.129	-0.161	-0.288
-667.047	800.000	-0.099	0.423
-666.032	-125.810	-0.138	-0.021
-665.018	-70.323	0.147	0.056
-664.003	208.480	-0.234	-0.367
-662.989	437.008	0.097	-0.212
-661.974	-56.595	-0.174	0.077
-660.959	235.253	-0.104	-0.172
-659.945	716.503	0.153	0.408
-658.930	-200.000	-0.013	-0.361
-657.916	-170.175	-0.404	-0.014
-656.901	-51.196	-0.176	-0.083
-655.886	-92.466	-0.369	0.104
-654.872	3.029	-0.379	0.275
-653.857	-94.657	0.058	0.016
-652.843	30.171	-0.121	0.103
-651.828	338.713	-0.260	-0.507
-650.814	451.961	0.146	-0.322
-649.799	-15.179	0.269	0.172
-648.784	7.298	-0.013	0.010
-647.770	-111.365	-0.378	0.077
-646.755	800.000	0.052	-0.175
-645.741	-200.000	0.035	-0.285
-644.726	-44.627	-0.169	0.084
-643.711	-78.762	0.318	-0.108
-642.697	-164.654	0.161	0.007
-641.682	130.474	0.139	0.178
-640.668	-200.000	-0.053	-0.558
-639.653	178.191	-0.097	-0.142
-638.638	-19.827	-0.109	-0.067
-637.624	233.542	0.056	0.092
-636.609	-44.756	-0.152	-0.076
-635.595	-113.064	0.324	-0.064
-634.580	-200.000	0.033	-0.405
-633.565	448.394	-0.071	-0.156
-632.551	-200.000	0.025	-0.256
-631.536	-140.095	-0.272	0.029
-630.522	-200.000	0.001	0.078
-629.507	127.323	-0.110	0.139
-628.492	-106.587	0.126	-0.028
-627.478	11.203	0.138	-0.106
-626.463	-44.828	-0.147	-0.073
-625.449	-168.813	0.018	0.001
-624.434	73.613	0.025	0.026
-623.419	-200.000	-0.060	-0.362
-622.405	-30.055	0.171	0.097
-621.390	96.458	-0.374	0.428
-620.376	382.002	0.130	0.268
-619.361	20.104	0.125	0.101
-618.346	-37.783	-0.086	-0.046
-617.332	-200.000	0.036	-0.210
-616.317	263.979	-0.054	0.094
-615.303	280.415	-0.018	-0.032
-614.288	800.000	0.014	0.047
-613.273	800.000	-0.072	-0.270
-612.259	-75.995	-0.239	0.084
-611.244	-200.000	-0.052	-0.242
-610.230	794.107	-0.068	-0.188
-609.215	742.838	-0.062	-0.166
-608.201	-51.863	0.131	0.061
-607.186	-200.000	-0.013	0.077
-606.171	-119.904	0.420	-0.072
-605.157	-169.051	0.022	-0.001
-604.142	-200.000	0.031	-0.161
-603.128	-119.084	-0.331	-0.058
-602.113	-70.191	-0.141	-0.054
-601.098	-128.053	-0.072	0.010
-600.084	-200.000	-0.011	0.129
-599.069	800.000	-0.102	-0.339
-598.055	800.000	-0.032	0.096
-597.040	800.000	-0.102	-0.411
-596.025	-151.669	0.082	-0.006
-595.011	57.506	-0.111	0.108
-593.996	-27.734	0.269	0.156
-592.982	-132.699	-0.401	0.051
-591.967	800.000	0.045	-0.129
-590.952	1.597	0.135	0.097
-589.938	800.000	-0.069	0.251
-588.923	59.871	-0.160	-0.158
-587.909	-27.373	-0.049	0.028
-586.894	219.815	0.143	-0.229
-585.879	-125.525	0.021	-0.003
-584.865	-77.219	0.321	0.112
-583.850	78.733	-0.150	-0.160
-582.836	800.000	0.100	0.325
-581.821	-58.408	-0.234	0.102
-580.806	477.644	0.053	-0.120
-579.792	13.673	-0.107	0.083
-578.777	143.132	0.115	-0.153
-577.763	-142.595	0.109	0.011
-576.748	-200.000	0.021	0.314
-575.733	35.567	0.236	0.207
-574.719	110.699	-0.233	-0.279
-573.704	70.449	-0.161	-0.166
-572.690	-159.878	-0.172	0.009
-571.675	-110.420	-0.227	-0.047
-570.661	-61.498	0.245	0.103
-569.646	396.737	-0.089	-0.186
-568.631	-54.103	0.201	0.091
-567.617	-137.702	-0.298	-0.033
-566.602	800.000	-0.022	-0.075
-565.588	-115.035	-0.237	0.045
-564.573	-200.000	0.042	-0.203
-563.558	-171.621	-0.188	-0.006
-562.544	800.000	0.075	0.274
-561.529	-84.731	0.153	-0.048
-560.515	130.919	-0.109	0.140
-559.500	-74.466	-0.340	-0.122
-558.485	-200.000	0.012	0.215
-557.471	553.948	-0.112	-0.268
-556.456	-200.000	0.015	0.106
-555.442	8.944	-0.255	0.192
-554.427	190.428	0.041	-0.062
-553.412	800.000	0.056	-0.204
-552.398	-51.991	0.189	0.088
-551.383	4.093	-0.324	0.236
-550.369	-200.000	-0.017	-0.158
-549.354	-200.000	-0.090	-0.441
-548.339	-103.067	-0.160	-0.038
-547.325	-129.986	-0.436	-0.059
-546.310	4.046	-0.070	-0.051
-545.296	-15.896	-0.240	0.152
-544.281	176.272	0.178	0.257
-543.266	8.515	0.395	0.296
-542.252	788.402	-0.136	-0.373
-541.237	-110.657	-0.089	0.018
-540.223	68.476	0.169	-0.173
-539.208	-54.671	0.089	-0.040
-538.193	800.000	0.099	-0.285
-537.179	150.636	-0.268	0.363
-536.164	65.053	0.035	0.035
-535.150	103.470	0.239	-0.279
-534.135	72.872	0.179	-0.186
-533.121	59.654	0.162	0.159
-532.106	-52.324	-0.143	0.066
-531.091	41.289	-0.138	0.124
-530.077	-123.634	-0.281	-0.044
-529.062	-52.924	0.076	-0.035
-528.048	800.000	-0.091	-0.290
-527.033	-200.000	-0.040	0.330
-526.018	254.815	-0.099	0.170
-525.004	202.520	0.113	0.174
-523.989	166.909	-0.226	-0.319
-522.975	70.203	0.116	0.119
-521.960	-101.603	0.130	0.032
-520.945	142.925	-0.125	-0.165
-519.931	-52.705	0.266	-0.122
-518.916	800.000	0.033	0.125
-517.902	-87.708	0.391	-0.118
-516.887	-23.977	-0.106	0.063
-515.872	68.211	0.073	0.074
-514.858	-123.012	0.216	-0.035
-513.843	527.073	0.089	0.209
-512.829	-200.000	-0.038	0.308
-511.814	107.952	-0.258	0.306
-510.799	657.503	-0.029	-0.074
-509.785	-80.431	-0.104	-0.034
-508.770	-200.000	0.006	0.362
-507.756	-193.481	0.128	-0.001
-506.741	107.873	-0.033	0.039
-505.726	-200.000	-0.013	0.301
-504.712	-46.383	-0.191	-0.094
-503.697	50.724	-0.098	0.092
-502.683	199.507	-0.110	0.167
-501.668	-86.093	-0.286	-0.088
-500.653	42.364	-0.272	0.246
-499.639	630.434	0.096	-0.241
-498.624	-200.000	-0.011	0.258
-497.610	250.602	0.118	0.200
-496.595	219.161	-0.081	0.129
-495.581	-30.839	0.228	0.128
-494.566	-89.137	-0.058	0.017
-493.551	-73.247	-0.197	-0.072
-492.537	-80.643	-0.009	0.003
-491.522	-158.821	0.409	0.023
-490.508	-163.698	-0.241	0.011
-489.493	306.046	0.092	-0.171
-488.478	-40.394	0.085	0.044
-487.464	92.565	-0.218	-0.244
-486.449	-64.459	0.163	0.066
-485.435	-200.000	0.056	-0.250
-484.420	-132.575	0.439	0.056
-483.405	-46.741	0.671	0.327
-482.391	712.444	-0.009	-0.023
-481.376	39.817	0.089	0.079
-480.362	-200.000	0.012	-0.160
-479.347	51.762	-0.282	-0.267
-478.332	152.322	0.176	-0.239
-477.318	800.000	-0.111	-0.304
-476.303	4.206	0.113	-0.082
-475.289	-22.292	0.152	-0.092
-474.274	-166.087	0.182	-0.008
-473.259	40.000	0.037	0.033
-472.245	172.238	-0.054	-0.077
-471.230	8.549	-0.104	-0.078
-470.216	-37.435	0.230	0.122
-469.201	505.641	-0.113	0.260
-468.186	-72.040	0.163	-0.060
-467.172	-68.862	0.240	-0.092
-466.157	-200.000	0.028	-0.294
-465.143	619.666	-0.060	-0.150
-464.128	76.632	0.352	0.371
-463.113	-200.000	-0.010	-0.127
-462.099	8.208	0.204	0.152
-461.084	-36.112	-0.183	-0.098
-460.070	-163.189	-0.090	-0.004
-459.055	49.126	-0.338	0.315
-458.040	-200.000	0.042	-0.203
-457.026	-200.000	-0.039	0.253
-456.011	-104.178	-0.290	0.067
-454.997	451.269	-0.078	-0.171
-453.982	202.569	-0.113	-0.173
-452.968	407.239	0.158	0.332
-451.953	-200.000	0.004	0.101
-450.938	-65.739	-0.262	0.104
-449.924	-15.549	-0.200	-0.126
-448.909	-200.000	0.042	0.200
-447.895	-55.969	-0.089	0.039
-446.880	800.000	0.052	0.158
-445.865	-30.546	-0.202	0.114
-444.851	-120.776	0.074	-0.012
-443.836	226.231	-0.242	-0.390
-442.822	-137.197	-0.069	-0.008
-441.807	-24.148	0.367	0.218
-440.792	-33.725	-0.163	-0.089
-439.778	-58.983	-0.286	0.123
-438.763	324.880	-0.058	-0.110
-437.749	203.315	-0.075	0.115
-436.734	784.905	0.131	-0.357
-435.719	-54.140	0.195	-0.088
-434.705	-200.000	0.017	-0.100
-433.690	60.637	0.055	-0.054
-432.676	489.420	-0.229	0.519
-431.661	189.702	-0.105	0.157
-430.646	-138.315	0.363	0.040
-429.632	-188.123	-0.130	0.002
-428.617	22.112	-0.297	-0.240
-427.603	800.000	0.068	0.288
-426.588	3.956	-0.295	0.214
-425.573	-6.032	0.118	-0.080
-424.559	47.267	0.133	-0.123
-423.544	-155.056	0.117	0.008
-422.530	154.046	0.060	0.081
-421.515	-200.000	0.048	0.308
-420.500	627.819	-0.035	-0.087
-419.486	78.223	0.063	-0.066
-418.471	800.000	0.061	-0.212
-417.457	-200.000	0.002	0.201
-416.442	78.997	0.042	0.045
-415.428	800.000	-0.010	0.040
-414.413	30.436	0.061	-0.052
-413.398	800.000	0.026	-0.097
-412.384	-191.049	-0.323	-0.003
-411.369	-133.226	0.067	-0.008
-410.355	207.272	0.170	0.263
-409.340	402.641	0.044	0.091
-408.325	333.128	-0.118	-0.227
-407.311	-33.400	-0.220	-0.121
-406.296	-2.436	-0.059	-0.041
-405.282	3.305	0.101	0.073
-404.267	-39.780	0.170	0.088
-403.252	36.640	-0.053	-0.047
-402.238	-181.462	0.356	0.007
-401.223	-92.007	0.197	0.055
-400.209	256.690	-0.032	-0.054
-399.194	86.214	0.058	-0.063
-398.179	800.000	-0.111	-0.440
-397.165	800.000	-0.048	-0.167
-396.150	-122.560	-0.104	-0.017
-395.136	53.710	-0.208	0.198
-394.121	44.613	0.195	-0.178
-393.106	-138.817	0.157	0.017
-392.092	782.425	0.133	0.362
-391.077	245.236	0.062	0.104
-390.063	526.513	-0.083	-0.193
-389.048	155.050	0.167	-0.228
-388.033	-116.353	0.372	0.068
-387.019	-51.065	0.048	0.022
-386.004	-126.243	0.073	0.011
-384.990	-200.000	-0.035	-0.201
-383.975	800.000	0.043	0.179
-382.960	22.408	0.366	-0.296
-381.946	783.469	-0.076	0.206
-380.931	-28.905	-0.133	0.076
-379.917	73.127	-0.032	-0.033
-378.902	-200.000	-0.024	0.147
-377.888	280.623	-0.137	0.243
-376.873	-200.000	-0.019	-0.094
-375.858	58.141	-0.027	-0.026
-374.844	51.194	-0.051	-0.048
-373.829	635.473	0.096	-0.242
-372.815	-65.996	0.043	-0.017
-371.800	800.000	0.045	-0.166
-370.785	800.000	-0.092	-0.281
-369.771	266.626	-0.023	-0.039
-368.756	-200.000	-0.004	0.361
-367.742	-200.000	0.014	0.078
-366.727	-0.815	0.160	0.112
-365.712	617.632	0.061	0.151
-364.698	103.344	0.115	-0.134
-363.683	134.070	0.195	-0.251
-362.669	463.616	-0.140	0.309
-361.654	383.256	-0.036	0.074
-360.639	-62.720	0.240	0.098
-359.625	-49.316	-0.102	-0.048
-358.610	38.130	-0.071	0.063
-357.596	-200.000	0.013	0.060
-356.581	30.719	0.060	-0.051
-355.566	-200.000	0.004	0.039
-354.552	366.963	0.133	-0.265
-353.537	174.546	0.080	0.115
-352.523	-156.126	0.242	-0.015
-351.508	-59.390	0.136	0.058
-350.493	-104.683	0.267	-0.061
-349.479	-120.345	-0.313	0.053
-348.464	90.510	-0.121	0.134
-347.450	346.623	-0.099	0.192
-346.435	800.000	-0.037	0.122
-345.420	135.183	0.195	0.251
-344.406	134.052	0.103	-0.132
-343.391	-200.000	0.024	-0.278
-342.377	800.000	-0.030	0.105
-341.362	39.837	-0.047	-0.041
-340.348	-56.637	-0.130	-0.057
-339.333	266.142	0.107	-0.185
-338.318	-115.054	0.218	0.041
-337.304	-134.782	-0.378	-0.045
-336.289	-200.000	-0.047	0.265
-335.275	-75.942	-0.177	0.062
-334.260	226.502	0.193	-0.310
-333.245	-200.000	-0.011	0.207
-332.231	800.000	0.049	-0.209
-331.216	9.441	0.356	0.266
-330.202	-200.000	0.069	0.388
-329.187	-75.643	0.076	-0.027
-328.172	19.210	0.286	-0.227
-327.158	301.738	-0.126	0.229
-326.143	-200.000	0.072	0.371
-325.129	225.440	0.207	0.331
-324.114	-24.519	-0.165	-0.097
-323.099	-39.200	0.194	-0.101
-322.085	-3.825	-0.145	-0.100
-321.070	93.601	0.189	0.212
-320.056	800.000	-0.058	0.171
-319.041	-2.082	-0.134	-0.093
-318.026	375.210	-0.119	0.240
-317.012	78.803	0.117	0.123
-315.997	-121.820	-0.252	-0.041
-314.983	-90.813	-0.347	-0.099
-313.968	-0.046	0.261	0.184
-312.953	110.594	0.027	0.032
-311.939	615.652	0.105	0.259
-310.924	-28.478	0.081	-0.046
-309.910	-200.000	-0.026	-0.170
-308.895	44.321	-0.069	-0.062
-307.880	-20.929	0.232	-0.141
-306.866	404.128	-0.011	-0.022
-305.851	64.448	0.120	-0.119
-304.837	255.525	0.014	0.024
-303.822	800.000	0.068	0.251
-302.807	52.998	0.068	0.064
-301.793	259.838	0.101	0.172
-300.778	-200.000	0.017	-0.149
-299.764	-96.166	0.208	0.055
-298.749	-200.000	0.006	-0.050
-297.735	33.930	0.132	0.113
-296.720	113.227	-0.094	-0.112
-295.705	240.551	0.022	0.037
-294.691	-67.769	-0.235	0.091
-293.676	-43.052	0.136	-0.068
-292.662	41.253	0.167	0.149
-291.647	463.471	0.049	0.109
-290.632	81.071	0.154	0.164
-289.618	53.444	-0.112	0.106
-288.603	800.000	0.049	0.168
-287.589	800.000	0.130	-0.489
-286.574	-96.155	-0.141	0.037
-285.559	-108.762	0.281	-0.059
-284.545	-58.940	-0.418	-0.178
-283.530	-113.868	-0.173	0.033
-282.516	-130.830	0.170	-0.022
-281.501	800.000	0.076	-0.298
-280.486	380.704	0.098	-0.199
-279.472	-66.882	0.090	-0.035
-278.457	165.203	0.188	0.263
-277.443	-75.153	-0.278	-0.098
-276.428	-200.000	0.350	0.001
-275.413	-0.344	-0.313	0.219
-274.399	770.460	-0.082	-0.221
-273.384	208.995	-0.032	0.049
-272.370	800.000	-0.052	0.226
-271.355	-169.762	-0.229	-0.008
-270.340	-66.966	0.455	-0.177
-269.326	-95.053	-0.170	0.045
-268.311	-93.280	-0.098	-0.027
-267.297	800.000	-0.080	-0.308
-266.282	256.255	-0.209	0.353
-265.267	-40.868	0.123	-0.063
-264.253	-32.570	-0.006	0.003
-263.238	-200.000	0.008	0.248
-262.224	-32.948	-0.281	-0.154
-261.209	20.481	-0.208	0.166
-260.195	800.000	-0.085	0.349
-259.180	800.000	-0.061	-0.230
-258.165	-108.937	0.144	-0.030
-257.151	43.759	-0.246	-0.222
-256.136	560.255	-0.069	0.164
-255.122	-38.009	-0.331	0.173
-254.107	145.155	-0.049	0.064
-253.092	800.000	-0.083	0.286
-252.078	-200.000	-0.019	0.122
-251.063	-38.876	0.238	0.123
-250.049	139.484	-0.238	0.309
-249.034	-200.000	-0.029	0.442
-248.019	-200.000	0.195	-0.000
-247.005	176.452	0.108	-0.154
-245.990	38.631	-0.087	-0.077
-244.976	-200.000	0.011	-0.064
-243.961	-26.364	0.136	0.079
-242.946	368.684	-0.137	-0.273
-241.932	28.416	0.124	-0.103
-240.917	209.462	-0.054	-0.083
-239.903	-200.000	-0.017	0.424
-238.888	-96.756	0.429	-0.111
-237.873	-200.000	0.046	-0.222
-236.859	-63.056	-0.168	0.068
-235.844	214.742	0.243	0.379
-234.830	762.313	-0.066	-0.177
-233.815	602.871	-0.198	-0.484
-232.800	-116.713	-0.226	-0.041
-231.786	-7.750	0.250	-0.166
-230.771	-26.690	-0.368	-0.212
-229.757	-116.488	0.211	-0.038
-228.742	93.173	0.165	-0.184
-227.727	151.169	0.054	0.073
-226.713	40.367	-0.187	-0.165
-225.698	-42.314	-0.098	0.049
-224.684	-200.000	0.011	0.172
-223.669	-65.406	-0.176	0.070
-222.655	-165.755	0.310	-0.013
-221.640	-174.368	-0.295	-0.008
-220.625	-200.000	-0.033	-0.149
-219.611	800.000	-0.104	0.285
-218.596	136.071	-0.132	0.169
-217.582	800.000	0.077	-0.255
-216.567	800.000	-0.045	-0.182
-215.552	-41.873	0.156	0.079
-214.538	-34.789	0.173	-0.093
-213.523	25.223	-0.196	0.160
-212.509	184.261	0.076	-0.111
-211.494	485.493	-0.059	0.132
-210.479	7.244	-0.221	0.162
-209.465	66.646	0.136	-0.136
-208.450	-7.113	0.083	0.055
-207.436	377.440	-0.025	-0.050
-206.421	-116.325	-0.361	-0.066
-205.406	800.000	0.083	0.336
-204.392	388.553	0.086	-0.176
-203.377	80.087	0.223	-0.236
-202.363	109.253	0.083	-0.097
-201.348	-105.044	-0.280	-0.063
-200.333	-49.270	-0.164	0.077
-199.319	69.641	-0.158	0.160
-198.304	-145.043	0.330	0.030
-197.290	145.840	-0.117	0.155
-196.275	76.503	-0.244	-0.255
-195.260	800.000	0.042	0.158
-194.246	-82.153	0.095	0.031
-193.231	35.828	-0.214	-0.185
-192.217	44.936	-0.182	0.165
-191.202	-200.000	0.001	-0.165
-190.187	-110.477	-0.259	-0.053
-189.173	-4.944	0.059	-0.040
-188.158	-200.000	0.003	0.080
-187.144	747.275	-0.082	-0.217
-186.129	-4.368	0.146	0.099
-185.114	-40.778	0.040	-0.021
-184.100	-76.571	0.168	0.058
-183.085	-28.793	0.269	-0.152
-182.071	645.111	0.024	0.060
-181.056	-44.081	-0.330	0.163
-180.042	-200.000	-0.040	-0.282
-179.027	358.312	0.192	-0.376
-178.012	435.865	0.172	0.368
-176.998	38.152	0.210	0.184
-175.983	-48.259	0.214	0.102
-174.969	-32.525	-0.184	0.101
-173.954	-200.000	-0.004	-0.023
-172.939	-155.293	-0.089	-0.006
-171.925	46.945	0.217	-0.198
-170.910	800.000	-0.047	-0.185
-169.896	458.175	0.116	-0.252
-168.881	-130.216	0.442	0.059
-167.866	279.480	-0.131	-0.229
-166.852	626.323	0.132	-0.328
-165.837	-147.461	0.279	0.023
-164.823	23.138	-0.091	0.073
-163.808	-21.881	-0.135	0.081
-162.793	-118.160	-0.161	0.028
-161.779	-87.744	0.411	-0.122
-160.764	800.000	-0.083	0.272
-159.750	-141.212	0.051	0.005
-158.735	-115.824	-0.196	-0.036
-157.720	800.000	0.027	-0.093
-156.706	6.735	-0.064	-0.047
-155.691	800.000	-0.104	-0.328
-154.677	45.569	-0.341	-0.309
-153.662	-36.076	-0.077	0.041
-152.647	-200.000	0.012	0.320
-151.633	114.485	-0.147	-0.176
-150.618	38.346	-0.240	-0.209
-149.604	-200.000	-0.016	-0.177
-148.589	-116.846	-0.141	-0.025
-147.574	163.593	0.217	0.299
-146.560	-200.000	0.060	0.283
-145.545	-93.160	-0.090	-0.025
-144.531	699.603	0.058	-0.150
-143.516	-144.398	-0.281	-0.026
-142.502	-169.903	-0.365	-0.013
-141.487	49.512	-0.240	-0.221
-140.472	76.216	-0.026	0.027
-139.458	397.071	0.026	-0.052
-138.443	129.221	0.139	-0.173
-137.429	230.323	-0.261	-0.419
-136.414	800.000	-0.063	0.270
-135.399	166.467	-0.078	0.109
-134.385	800.000	0.092	-0.285
-133.370	-82.679	-0.272	0.086
-132.356	157.344	-0.176	0.238
-131.341	-200.000	0.039	-0.256
-130.326	-75.806	-0.243	0.084
-129.312	-137.522	-0.180	0.020
-128.297	-122.681	-0.236	-0.037
-127.283	-27.634	-0.263	-0.149
-126.268	-129.118	-0.268	0.037
-125.253	-155.769	-0.071	0.004
-124.239	-114.567	-0.349	0.066
-123.224	44.196	-0.154	-0.139
-122.210	-200.000	-0.039	0.267
-121.195	-10.118	0.151	-0.098
