DTS Sentinel unit serial number:	SN413079Multiplexer serial number:	ORYXHardware model number:	OX4-SRSoftware version number:	ORYX F/W v4.00 Oryx Data Collector v3.7.2.0data status	okinstallation	princeton_trtdifferential loss correction	single-endedforward channel	channel 3reverse channel	N/Adate	2019/09/12time	08:14:11forward acquisition time	60.00reverse acquisition time	0.00gamma	496.2192k internal	0.2312k external	0.2312temperature offset calibration	1.0036default loss term (dB/km)	0.3790temperature slope calibration	1.0000multiplexer offset coefficient	1.0000multiplexer slope coefficient	1.0000fibre end	0.00T internal ref (°C)	33.31T ext. ref 1 (°C)	1.71T ext. ref 2 (°C)	30.06length (m)	temperature (°C)	Stokes	anti-Stokes-747.200	-200.000	0.038	0.363
-746.185	-200.000	-0.020	0.227
-745.171	800.000	0.134	0.381
-744.156	800.000	0.153	0.517
-743.142	91.114	-0.231	0.262
-742.127	95.386	-0.161	0.186
-741.112	49.006	0.150	0.143
-740.098	11.745	-0.306	0.238
-739.083	184.866	-0.160	-0.241
-738.069	800.000	-0.046	0.181
-737.054	-123.474	0.126	0.020
-736.039	254.027	-0.050	0.086
-735.025	-150.353	0.217	0.017
-734.010	-82.187	-0.271	0.090
-732.996	-78.306	0.164	0.057
-731.981	-49.471	-0.218	0.105
-730.966	-49.227	-0.177	-0.086
-729.952	130.664	-0.103	0.134
-728.937	49.226	-0.279	-0.266
-727.923	-94.208	0.430	-0.119
-726.908	-43.264	-0.164	-0.084
-725.894	292.621	0.094	-0.173
-724.879	305.934	0.238	-0.448
-723.864	-161.159	-0.341	0.018
-722.850	-200.000	-0.052	-0.232
-721.835	-96.993	-0.447	-0.119
-720.821	578.656	0.043	0.107
-719.806	-200.000	0.079	-0.383
-718.791	-2.538	-0.254	-0.181
-717.777	-124.791	0.322	-0.050
-716.762	-200.000	0.006	-0.083
-715.748	-74.000	-0.176	-0.065
-714.733	-200.000	-0.006	-0.170
-713.718	-93.331	0.290	0.082
-712.704	-150.187	0.182	0.014
-711.689	800.000	0.067	-0.245
-710.675	298.939	0.186	-0.347
-709.660	82.615	0.119	-0.131
-708.645	-146.404	0.295	0.026
-707.631	728.172	0.100	0.272
-706.616	67.485	0.229	0.237
-705.602	139.205	-0.137	-0.183
-704.587	-200.000	0.021	0.338
-703.572	11.731	-0.314	0.244
-702.558	-65.887	-0.296	-0.120
-701.543	32.256	-0.123	0.108
-700.529	126.918	-0.119	0.153
-699.514	-74.958	0.206	0.075
-698.499	-177.435	-0.441	-0.011
-697.485	800.000	0.097	-0.354
-696.470	97.480	-0.084	-0.097
-695.456	-126.569	0.250	-0.038
-694.441	-200.000	-0.064	-0.351
-693.426	421.972	0.054	0.118
-692.412	474.001	-0.057	0.129
-691.397	-180.144	-0.386	0.008
-690.383	-118.866	-0.212	-0.038
-689.368	402.657	0.164	0.349
-688.354	-15.984	-0.182	-0.117
-687.339	-200.000	0.007	-0.240
-686.324	180.270	-0.158	0.235
-685.310	-37.546	0.089	-0.048
-684.295	-200.000	0.042	0.354
-683.281	43.537	-0.199	-0.184
-682.266	-200.000	0.036	-0.186
-681.251	-119.299	0.065	-0.011
-680.237	-46.152	0.312	-0.155
-679.222	-20.884	-0.362	-0.224
-678.208	25.706	0.330	0.278
-677.193	-174.791	0.185	0.005
-676.178	17.468	-0.111	0.089
-675.164	-119.370	-0.103	0.018
-674.149	113.500	-0.151	-0.186
-673.135	-200.000	-0.041	0.353
-672.120	463.497	0.088	0.199
-671.105	468.916	-0.199	-0.451
-670.091	-58.951	0.289	-0.126
-669.076	1.606	-0.102	-0.074
-668.062	-200.000	0.011	0.333
-667.047	-176.373	-0.239	-0.006
-666.032	800.000	-0.059	0.232
-665.018	-64.969	0.062	0.025
-664.003	573.126	0.088	-0.216
-662.989	800.000	-0.026	0.095
-661.974	800.000	0.060	0.200
-660.959	-200.000	-0.032	0.164
-659.945	216.694	-0.133	0.214
-658.930	67.860	0.087	0.090
-657.916	-118.668	0.020	-0.004
-656.901	-180.592	-0.219	0.005
-655.886	205.001	-0.247	0.388
-654.872	-70.758	0.122	0.047
-653.857	91.820	0.172	-0.196
-652.843	29.619	0.294	-0.253
-651.828	3.618	-0.178	0.131
-650.814	-59.007	-0.466	-0.203
-649.799	-73.917	-0.329	-0.121
-648.784	-1.152	0.293	-0.209
-647.770	800.000	-0.033	-0.130
-646.755	800.000	-0.084	-0.292
-645.741	-20.688	-0.151	0.094
-644.726	-98.670	0.049	0.013
-643.711	796.197	-0.086	-0.239
-642.697	95.892	0.241	-0.278
-641.682	714.428	-0.079	-0.211
-640.668	800.000	-0.070	-0.245
-639.653	347.096	-0.093	0.185
-638.638	-200.000	-0.007	-0.191
-637.624	-200.000	-0.028	-0.228
-636.609	156.929	0.199	-0.277
-635.595	-101.104	-0.197	0.049
-634.580	-200.000	-0.032	-0.232
-633.565	502.487	0.042	-0.099
-632.551	800.000	-0.089	-0.254
-631.536	-140.012	-0.079	0.008
-630.522	79.760	0.306	0.332
-629.507	-13.377	0.237	0.156
-628.492	302.140	0.194	-0.363
-627.478	-170.935	-0.142	-0.005
-626.463	-167.836	0.236	-0.009
-625.449	-110.187	0.191	-0.040
-624.434	238.446	0.274	0.460
-623.419	800.000	-0.062	0.181
-622.405	115.535	-0.187	-0.231
-621.390	92.221	0.026	0.029
-620.376	-155.453	0.288	0.019
-619.361	-200.000	0.042	-0.461
-618.346	278.725	-0.128	0.231
-617.332	202.677	-0.168	-0.263
-616.317	22.999	0.146	0.121
-615.303	643.504	-0.158	-0.408
-614.288	-36.727	0.204	-0.110
-613.273	800.000	0.062	-0.190
-612.259	-88.382	0.186	-0.056
-611.244	123.702	0.091	0.116
-610.230	8.807	0.232	-0.177
-609.215	13.890	0.323	0.254
-608.201	-23.934	0.185	-0.112
-607.186	-142.035	-0.472	-0.047
-606.171	86.637	0.059	0.066
-605.157	-200.000	0.062	0.368
-604.142	14.520	0.078	-0.061
-603.128	-143.355	0.278	-0.027
-602.113	403.529	0.089	-0.189
-601.098	35.346	-0.302	-0.267
-600.084	-189.169	0.219	0.003
-599.069	434.282	-0.094	0.205
-598.055	-200.000	0.022	0.227
-597.040	-58.590	0.312	0.137
-596.025	800.000	-0.097	0.271
-595.011	4.849	-0.099	0.074
-593.996	-40.527	0.563	0.295
-592.982	20.225	0.195	0.159
-591.967	-59.736	-0.096	0.041
-590.952	-200.000	0.104	-0.000
-589.938	-200.000	0.007	-0.041
-588.923	800.000	-0.111	-0.361
-587.909	117.419	-0.218	-0.270
-586.894	-65.424	-0.371	0.150
-585.879	168.299	0.061	0.087
-584.865	-61.796	0.070	-0.030
-583.850	-150.568	-0.274	-0.021
-582.836	800.000	-0.108	0.348
-581.821	55.781	-0.118	-0.115
-580.806	-200.000	0.025	-0.183
-579.792	-96.405	-0.315	-0.084
-578.777	698.304	-0.084	0.222
-577.763	-200.000	0.018	-0.203
-576.748	-200.000	-0.027	-0.178
-575.733	1.391	-0.142	0.103
-574.719	-155.948	0.153	0.010
-573.704	-101.944	0.022	0.005
-572.690	-119.997	-0.141	-0.024
-571.675	-29.360	-0.177	-0.102
-570.661	-200.000	-0.009	-0.145
-569.646	38.627	0.085	0.076
-568.631	800.000	0.066	0.244
-567.617	-189.830	0.056	-0.001
-566.602	-200.000	-0.021	-0.223
-565.588	800.000	-0.031	0.106
-564.573	129.555	-0.104	0.134
-563.558	-62.627	-0.189	0.079
-562.544	171.500	0.135	-0.196
-561.529	-133.793	-0.138	0.017
-560.515	242.894	-0.250	-0.422
-559.500	-14.153	0.138	0.089
-558.485	10.420	-0.209	-0.161
-557.471	73.644	0.219	-0.232
-556.456	15.820	0.211	-0.167
-555.442	-200.000	-0.012	0.178
-554.427	51.420	0.089	-0.086
-553.412	-94.219	-0.133	-0.037
-552.398	-132.508	-0.064	0.008
-551.383	-117.253	-0.120	0.022
-550.369	800.000	0.070	0.196
-549.354	-64.805	0.149	0.061
-548.339	-200.000	0.060	0.490
-547.325	800.000	0.049	0.157
-546.310	33.578	0.295	-0.258
-545.296	800.000	-0.008	-0.033
-544.281	800.000	-0.083	0.297
-543.266	-121.372	-0.225	0.038
-542.252	-94.608	-0.113	0.031
-541.237	-200.000	0.025	0.150
-540.223	432.161	0.036	0.080
-539.208	-72.833	-0.297	0.110
-538.193	-117.893	-0.148	0.027
-537.179	-200.000	0.431	0.001
-536.164	-124.067	0.269	0.043
-535.150	53.443	-0.157	-0.151
-534.135	-200.000	0.049	0.280
-533.121	-153.607	-0.318	0.022
-532.106	-113.130	-0.342	-0.068
-531.091	-164.945	-0.570	0.026
-530.077	29.406	-0.112	-0.095
-529.062	127.295	-0.116	0.149
-528.048	-189.651	0.232	0.003
-527.033	-200.000	-0.000	0.003
-526.018	-28.935	-0.153	0.088
-525.004	-200.000	0.059	0.452
-523.989	-49.191	0.155	-0.075
-522.975	115.322	0.023	0.029
-521.960	-200.000	0.051	0.263
-520.945	302.794	-0.024	0.044
-519.931	800.000	-0.095	0.383
-518.916	-59.782	-0.178	-0.077
-517.902	800.000	-0.018	-0.052
-516.887	800.000	-0.047	0.191
-515.872	-135.146	-0.578	-0.070
-514.858	-85.183	0.470	-0.148
-513.843	-136.339	0.309	0.036
-512.829	-110.593	-0.191	0.040
-511.814	5.371	-0.046	0.034
-510.799	-39.674	0.191	0.100
-509.785	265.502	-0.050	-0.087
-508.770	13.836	-0.014	-0.011
-507.756	-200.000	0.002	-0.043
-506.741	306.438	0.189	0.354
-505.726	-13.846	-0.114	-0.074
-504.712	36.177	0.069	-0.061
-503.697	446.274	-0.096	0.212
-502.683	30.167	0.168	-0.144
-501.668	205.975	0.056	-0.087
-500.653	-68.055	0.446	0.175
-499.639	-158.548	0.279	0.016
-498.624	-200.000	-0.029	-0.568
-497.610	-158.115	0.174	0.010
-496.595	454.048	0.173	0.386
-495.581	-200.000	-0.012	-0.312
-494.566	800.000	0.035	0.116
-493.551	34.865	0.316	0.278
-492.537	-186.646	-0.275	-0.004
-491.522	800.000	-0.019	-0.058
-490.508	-111.135	-0.225	0.046
-489.493	-200.000	-0.052	-0.245
-488.478	292.187	-0.020	-0.037
-487.464	-17.654	-0.049	-0.031
-486.449	75.473	0.128	0.136
-485.435	-82.865	0.279	0.091
-484.420	437.392	0.058	0.126
-483.405	-110.627	-0.114	-0.024
-482.391	-117.202	-0.128	-0.023
-481.376	6.780	-0.162	-0.121
-480.362	-32.360	0.240	-0.134
-479.347	-200.000	0.000	0.016
-478.332	-33.728	-0.131	0.073
-477.318	7.486	0.051	0.038
-476.303	-200.000	0.011	0.230
-475.289	394.764	-0.032	0.068
-474.274	-200.000	0.028	-0.279
-473.259	-200.000	-0.001	0.342
-472.245	391.964	-0.041	0.086
-471.230	-66.624	-0.250	0.099
-470.216	-142.269	-0.240	-0.024
-469.201	-200.000	-0.003	-0.239
-468.186	800.000	-0.046	0.144
-467.172	-97.703	0.105	0.027
-466.157	-75.677	-0.289	-0.103
-465.143	182.122	0.167	-0.247
-464.128	800.000	-0.024	0.095
-463.113	-39.135	0.170	0.090
-462.099	42.394	0.193	-0.177
-461.084	-86.378	0.426	0.131
-460.070	-55.651	0.141	-0.063
-459.055	800.000	0.048	0.189
-458.040	-63.639	0.223	0.092
-457.026	-8.560	0.390	-0.263
-456.011	-46.775	-0.262	0.129
-454.997	-31.085	0.214	0.121
-453.982	24.173	-0.288	-0.238
-452.968	-50.692	0.207	-0.098
-451.953	260.899	0.125	0.217
-450.938	406.516	0.067	0.141
-449.924	9.884	0.155	0.118
-448.909	-18.440	0.178	0.111
-447.895	-37.448	-0.055	-0.030
-446.880	42.506	-0.264	-0.241
-445.865	-181.321	0.197	-0.004
-444.851	-200.000	-0.004	-0.230
-443.836	2.330	0.075	-0.054
-442.822	-200.000	-0.015	0.123
-441.807	-200.000	-0.034	0.309
-440.792	682.239	0.116	-0.303
-439.778	-200.000	-0.028	0.259
-438.763	-200.000	-0.021	-0.161
-437.749	-152.939	0.089	-0.006
-436.734	645.175	-0.073	0.186
-435.719	-45.547	0.335	0.166
-434.705	-92.662	0.231	-0.065
-433.690	-65.164	0.290	0.117
-432.676	96.215	0.072	0.083
-431.661	-124.785	0.243	-0.038
-430.646	125.261	0.152	0.193
-429.632	68.832	0.128	0.132
-428.617	-133.578	0.219	0.027
-427.603	-117.958	-0.108	0.019
-426.588	192.844	0.193	0.292
-425.573	800.000	0.067	-0.247
-424.559	-126.640	0.195	0.029
-423.544	-79.188	0.032	-0.011
-422.530	162.859	-0.147	0.207
-421.515	-66.907	0.135	0.053
-420.500	-69.967	-0.216	-0.083
-419.486	-200.000	0.024	0.157
-418.471	131.755	-0.167	0.215
-417.457	-110.629	0.268	-0.056
-416.442	-139.788	-0.392	0.042
-415.428	106.771	-0.097	-0.115
-414.413	221.448	-0.185	0.298
-413.398	36.874	0.324	0.287
-412.384	187.971	-0.103	0.154
-411.369	-36.309	0.249	-0.134
-410.355	283.822	-0.041	0.074
-409.340	-200.000	0.047	-0.314
-408.325	-102.864	-0.308	-0.073
-407.311	447.409	-0.107	-0.235
-406.296	-41.211	0.298	0.154
-405.282	-6.017	0.137	0.094
-404.267	-200.000	0.051	0.382
-403.252	-112.194	-0.501	0.101
-402.238	545.742	-0.034	-0.082
-401.223	131.396	0.118	0.151
-400.209	-30.980	-0.319	0.180
-399.194	-76.882	-0.246	0.086
-398.179	174.199	0.355	0.513
-397.165	-186.975	0.265	0.004
-396.150	800.000	-0.084	-0.273
-395.136	-31.344	0.417	-0.235
-394.121	176.947	-0.285	-0.415
-393.106	800.000	-0.051	-0.146
-392.092	-151.064	-0.398	0.030
-391.077	120.502	-0.191	0.237
-390.063	-200.000	0.010	-0.391
-389.048	-200.000	0.040	-0.310
-388.033	-132.286	-0.209	0.027
-387.019	-200.000	-0.042	-0.207
-386.004	-5.299	0.265	-0.182
-384.990	-200.000	0.004	-0.295
-383.975	-43.428	0.309	-0.156
-382.960	100.128	-0.195	-0.226
-381.946	2.597	-0.151	0.109
-380.931	-114.971	0.098	0.019
-379.917	800.000	-0.039	0.136
-378.902	-43.565	-0.398	-0.201
-377.888	-86.329	-0.182	-0.056
-376.873	-128.508	0.161	0.023
-375.858	171.200	-0.154	0.221
-374.844	5.953	0.090	0.067
-373.829	800.000	0.120	0.408
-372.815	-172.300	-0.611	0.020
-371.800	800.000	-0.035	0.128
-370.785	-200.000	0.012	-0.061
-369.771	176.051	-0.255	-0.370
-368.756	800.000	-0.055	0.219
-367.742	-136.136	-0.185	-0.022
-366.727	800.000	0.054	0.193
-365.712	441.042	-0.022	-0.049
-364.698	-73.569	-0.303	0.110
-363.683	-200.000	0.033	-0.159
-362.669	452.860	-0.077	0.169
-361.654	-61.059	-0.278	0.117
-360.639	-86.954	-0.241	0.074
-359.625	-27.662	0.241	-0.140
-358.610	800.000	-0.113	0.410
-357.596	98.970	-0.141	0.162
-356.581	-148.010	0.201	-0.017
-355.566	469.274	0.168	0.377
-354.552	800.000	-0.025	0.074
-353.537	266.076	0.127	0.222
-352.523	-114.170	0.095	0.018
-351.508	800.000	-0.114	-0.401
-350.493	-55.716	-0.322	0.144
-349.479	-4.758	0.071	0.049
-348.464	-70.489	-0.313	0.118
-347.450	-200.000	-0.027	0.156
-346.435	-200.000	-0.049	-0.377
-345.420	253.165	0.092	0.156
-344.406	559.058	0.067	0.162
-343.391	-135.195	0.120	-0.014
-342.377	29.055	-0.133	0.112
-341.362	41.194	-0.077	0.070
-340.348	309.392	-0.025	0.046
-339.333	272.859	0.107	0.188
-338.318	800.000	-0.114	-0.467
-337.304	13.178	-0.288	-0.223
-336.289	-60.652	-0.295	-0.125
-335.275	-99.920	0.026	-0.006
-334.260	43.262	0.082	0.075
-333.245	-173.084	0.038	-0.001
-332.231	-17.810	-0.059	0.037
-331.216	-87.052	0.255	-0.078
-330.202	66.835	0.082	0.084
-329.187	-147.485	0.112	-0.009
-328.172	800.000	-0.101	-0.379
-327.158	-115.006	-0.169	0.032
-326.143	159.686	0.220	0.305
-325.129	-8.552	-0.085	0.057
-324.114	-142.635	-0.064	-0.006
-323.099	-124.273	0.301	-0.047
-322.085	-200.000	0.021	0.251
-321.070	46.186	-0.094	0.087
-320.056	-200.000	0.020	-0.168
-319.041	-200.000	-0.012	0.141
-318.026	800.000	-0.103	0.324
-317.012	43.558	-0.157	-0.144
-315.997	-187.784	0.174	-0.002
-314.983	-50.345	0.262	0.123
-313.968	155.017	-0.129	0.177
-312.953	-62.360	-0.316	-0.131
-311.939	656.775	-0.044	0.113
-310.924	-80.725	-0.203	-0.067
-309.910	676.087	-0.146	-0.379
-308.895	206.186	0.028	0.044
-307.880	231.115	-0.213	-0.349
-306.866	754.840	-0.098	-0.264
-305.851	43.896	0.066	-0.060
-304.837	116.110	-0.167	0.204
-303.822	57.167	0.174	0.169
-302.807	-120.160	-0.254	-0.043
-301.793	74.141	0.193	0.202
-300.778	720.559	0.178	-0.472
-299.764	6.875	-0.256	-0.190
-298.749	-84.666	0.256	0.080
-297.735	118.248	0.257	-0.316
-296.720	251.003	0.113	0.191
-295.705	-111.688	-0.240	0.049
-294.691	-200.000	-0.007	-0.140
-293.676	-89.949	-0.327	0.095
-292.662	540.421	0.083	0.198
-291.647	210.569	0.149	-0.233
-290.632	-200.000	0.008	-0.158
-289.618	-68.095	0.109	-0.042
-288.603	200.350	0.102	0.156
-287.589	-101.033	-0.162	0.040
-286.574	-200.000	-0.001	-0.163
-285.559	50.853	-0.300	-0.283
-284.545	480.414	-0.118	0.267
-283.530	141.022	0.199	0.262
-282.516	-36.185	0.403	-0.217
-281.501	180.063	-0.327	0.478
-280.486	-42.893	0.312	0.158
-279.472	-47.195	0.113	-0.055
-278.457	-95.975	-0.242	0.064
-277.443	-200.000	0.034	-0.190
-276.428	-31.980	-0.086	0.048
-275.413	420.478	-0.122	-0.261
-274.399	800.000	-0.019	-0.069
-273.384	-192.679	0.481	0.004
-272.370	-200.000	0.011	-0.271
-271.355	-131.882	-0.105	-0.014
-270.340	-136.442	-0.087	-0.010
-269.326	70.300	-0.166	0.171
-268.311	-114.516	0.109	0.021
-267.297	-200.000	-0.011	-0.095
-266.282	-136.805	-0.079	0.009
-265.267	420.779	-0.111	0.236
-264.253	559.032	-0.015	0.036
-263.238	-99.969	-0.340	0.084
-262.224	78.316	-0.181	-0.192
-261.209	-66.525	-0.196	-0.077
-260.195	62.037	0.120	0.119
-259.180	800.000	-0.123	0.447
-258.165	-151.928	0.126	-0.009
-257.151	142.321	-0.046	0.061
-256.136	800.000	0.101	-0.286
-255.122	-28.665	0.139	0.080
-254.107	442.948	-0.122	0.267
-253.092	49.752	0.192	-0.180
-252.078	4.538	0.163	-0.119
-251.063	242.813	-0.125	-0.209
-250.049	-187.030	0.075	-0.001
-249.034	800.000	-0.082	-0.267
-248.019	68.049	-0.146	-0.149
-247.005	-30.312	0.121	0.068
-245.990	-65.306	0.505	-0.202
-244.976	-200.000	-0.007	-0.114
-243.961	-95.232	-0.245	-0.066
-242.946	131.678	-0.112	0.143
-241.932	26.171	-0.182	-0.151
-240.917	100.101	-0.177	-0.204
-239.903	318.448	0.074	0.140
-238.888	-200.000	0.005	0.071
-237.873	-25.724	-0.067	0.039
-236.859	172.187	0.195	-0.278
-235.844	-200.000	0.046	-0.257
-234.830	-70.995	-0.149	-0.056
-233.815	93.426	-0.052	0.059
-232.800	-54.947	-0.245	0.110
-231.786	60.790	0.118	-0.117
-230.771	102.782	-0.241	0.280
-229.757	285.887	0.116	0.207
-228.742	-200.000	-0.010	-0.291
-227.727	300.634	0.060	0.110
-226.713	-200.000	-0.014	0.139
-225.698	199.399	-0.105	0.160
-224.684	-103.299	0.233	0.055
-223.669	-200.000	-0.026	0.219
-222.655	-118.799	0.097	0.017
-221.640	-65.286	0.207	-0.083
-220.625	-92.073	0.431	0.121
-219.611	8.063	-0.111	0.083
-218.596	-111.150	0.381	-0.078
-217.582	437.356	0.073	0.158
-216.567	84.711	-0.205	0.224
-215.552	756.910	0.123	0.330
-214.538	-170.955	0.084	-0.003
-213.523	277.690	0.162	-0.286
-212.509	-115.931	0.293	0.054
-211.494	800.000	0.099	0.295
-210.479	-46.659	-0.201	-0.098
-209.465	-161.248	0.232	-0.012
-208.450	-200.000	-0.023	-0.149
-207.436	-29.304	0.041	0.023
-206.421	-200.000	-0.013	-0.185
-205.406	-101.019	-0.428	-0.104
-204.392	800.000	0.044	0.169
-203.377	-200.000	-0.036	-0.222
-202.363	17.617	0.126	0.100
-201.348	79.273	-0.168	-0.178
-200.333	-98.532	-0.082	0.021
-199.319	65.609	-0.335	-0.336
-198.304	593.695	-0.035	-0.085
-197.290	349.547	-0.114	0.223
-196.275	-200.000	0.007	-0.108
-195.260	-3.697	0.163	-0.112
-194.246	-111.177	0.226	-0.046
-193.231	-200.000	0.033	0.265
-192.217	-57.610	-0.366	0.159
-191.202	123.723	-0.039	0.048
-190.187	46.839	0.151	0.140
-189.173	-200.000	0.058	-0.281
-188.158	69.433	0.115	0.118
-187.144	45.525	0.025	-0.023
-186.129	-200.000	0.056	0.288
-185.114	76.121	0.158	0.166
-184.100	59.864	-0.254	-0.249
-183.085	800.000	-0.035	-0.106
-182.071	-194.318	-0.135	-0.001
-181.056	75.514	-0.183	-0.192
-180.042	-109.724	0.159	-0.033
-179.027	250.336	-0.081	-0.136
-178.012	225.590	0.140	-0.225
-176.998	164.952	0.144	-0.202
-175.983	110.815	0.121	0.144
-174.969	97.577	-0.067	-0.076
-173.954	56.433	-0.200	0.193
-172.939	57.908	-0.159	-0.154
-171.925	800.000	-0.093	0.275
-170.910	65.274	0.045	0.045
-169.896	171.917	0.132	-0.188
-168.881	154.054	-0.172	-0.233
-167.866	800.000	-0.108	-0.314
-166.852	800.000	-0.050	0.167
-165.837	-51.345	-0.088	0.041
-164.823	-43.655	-0.250	0.125
-163.808	50.511	0.156	-0.147
-162.793	-47.399	0.219	0.106
-161.779	66.642	-0.101	-0.101
-160.764	-200.000	-0.021	-0.156
-159.750	-161.491	-0.060	0.003
-158.735	-31.314	0.291	0.163
-157.720	57.342	0.071	-0.069
-156.706	239.155	0.124	-0.204
-155.691	78.036	-0.201	-0.213
-154.677	71.127	0.117	0.120
-153.662	64.334	-0.063	0.063
-152.647	19.395	0.179	-0.142
-151.633	252.468	-0.152	-0.256
-150.618	78.075	-0.455	-0.481
-149.604	86.709	0.099	-0.108
-148.589	-12.082	0.218	-0.142
-147.574	108.712	-0.022	-0.026
-146.560	-92.433	-0.245	0.068
-145.545	164.356	-0.163	-0.228
-144.531	128.224	0.191	-0.241
-143.516	-78.645	0.058	-0.020
-142.502	-166.302	-0.156	-0.007
-141.487	-200.000	-0.004	-0.043
-140.472	-39.163	-0.561	0.292
-139.458	542.266	0.050	-0.118
-138.443	65.304	0.214	0.214
-137.429	-12.399	0.144	0.093
-136.414	-33.670	-0.266	0.145
-135.399	311.475	0.077	-0.143
-134.385	-47.481	0.181	-0.087
-133.370	125.281	0.153	-0.191
-132.356	-112.114	-0.010	-0.002
-131.341	-190.323	0.141	-0.002
-130.326	41.163	0.208	0.186
-129.312	19.340	0.295	-0.235
-128.297	-96.951	0.262	0.068
-127.283	800.000	0.096	0.415
-126.268	-4.622	-0.195	0.134
-125.253	-42.924	-0.034	-0.017
-124.239	-200.000	-0.008	0.079
-123.224	800.000	-0.049	0.185
-122.210	75.600	0.055	0.058
-121.195	-200.000	0.017	0.388
-120.180	-136.916	-0.525	0.060
