DTS Sentinel unit serial number:	SN413079Multiplexer serial number:	ORYXHardware model number:	OX4-SRSoftware version number:	ORYX F/W v4.00 Oryx Data Collector v3.7.2.0data status	okinstallation	princeton_trtdifferential loss correction	single-endedforward channel	channel 3reverse channel	N/Adate	2019/09/15time	15:44:34forward acquisition time	60.00reverse acquisition time	0.00gamma	496.2192k internal	0.2291k external	0.2291temperature offset calibration	0.9936default loss term (dB/km)	0.3790temperature slope calibration	1.0000multiplexer offset coefficient	1.0000multiplexer slope coefficient	1.0000fibre end	0.00T internal ref (°C)	41.89T ext. ref 1 (°C)	5.20T ext. ref 2 (°C)	40.55length (m)	temperature (°C)	Stokes	anti-Stokes-747.200	710.945	-0.027	0.072
-746.185	210.057	-0.018	-0.029
-745.171	49.763	0.215	0.208
-744.156	-133.321	-0.223	-0.029
-743.142	-161.361	-0.185	-0.010
-742.127	25.825	0.123	-0.105
-741.112	-1.979	0.197	-0.142
-740.098	79.264	-0.157	0.172
-739.083	-36.015	-0.286	0.158
-738.069	281.636	0.011	0.020
-737.054	-36.988	0.277	0.152
-736.039	-149.714	0.112	0.009
-735.025	-50.857	0.129	-0.062
-734.010	-200.000	-0.030	-0.267
-732.996	69.187	0.014	-0.015
-731.981	800.000	0.097	0.373
-730.966	-150.490	0.180	-0.014
-729.952	800.000	-0.065	0.237
-728.937	-200.000	0.013	-0.103
-727.923	-82.578	0.174	-0.058
-726.908	-141.948	0.289	0.029
-725.894	-200.000	-0.302	-0.001
-724.879	185.275	0.101	-0.153
-723.864	-200.000	-0.060	-0.375
-722.850	-200.000	0.010	0.157
-721.835	800.000	-0.026	-0.082
-720.821	159.758	-0.159	0.227
-719.806	83.582	-0.243	0.271
-718.791	-200.000	0.002	-0.074
-717.777	-152.992	0.112	-0.008
-716.762	-76.756	-0.315	-0.113
-715.748	43.173	-0.255	0.238
-714.733	-84.785	-0.187	-0.060
-713.718	266.466	0.058	0.104
-712.704	70.081	-0.089	-0.094
-711.689	-200.000	0.022	-0.318
-710.675	-200.000	0.013	-0.153
-709.660	-20.758	-0.230	-0.144
-708.645	-200.000	-0.039	0.302
-707.631	-127.441	-0.316	-0.047
-706.616	800.000	-0.038	0.147
-705.602	-200.000	0.001	0.056
-704.587	110.718	-0.090	-0.110
-703.572	800.000	0.105	-0.309
-702.558	76.880	-0.076	0.083
-701.543	-44.601	-0.201	0.103
-700.529	113.176	-0.102	-0.126
-699.514	11.419	0.103	-0.080
-698.499	511.406	0.125	-0.297
-697.485	118.505	0.202	0.255
-696.470	-99.595	0.027	0.007
-695.456	86.201	-0.095	0.107
-694.441	379.518	0.125	0.262
-693.426	109.821	0.276	0.338
-692.412	64.202	-0.126	-0.129
-691.397	-200.000	-0.012	-0.150
-690.383	113.225	0.079	-0.098
-689.368	-163.173	-0.079	-0.004
-688.354	-200.000	0.005	0.052
-687.339	-76.927	-0.155	-0.055
-686.324	-200.000	-0.031	0.238
-685.310	-6.440	-0.098	-0.069
-684.295	-114.936	0.055	0.011
-683.281	235.968	0.207	-0.349
-682.266	169.815	0.267	-0.390
-681.251	-43.571	0.043	0.022
-680.237	36.707	0.108	-0.097
-679.222	10.604	-0.148	-0.116
-678.208	-105.212	-0.275	0.064
-677.193	-102.944	0.267	-0.065
-676.178	-29.808	-0.285	0.166
-675.164	-126.445	-0.168	-0.026
-674.149	217.706	0.100	-0.163
-673.135	34.802	-0.203	-0.182
-672.120	-64.376	0.312	-0.130
-671.105	39.963	0.109	0.100
-670.091	333.448	0.065	-0.128
-669.076	-63.819	0.128	0.053
-668.062	-200.000	0.001	0.103
-667.047	51.775	-0.328	0.319
-666.032	72.442	0.135	0.144
-665.018	-200.000	-0.012	-0.141
-664.003	800.000	0.023	0.077
-662.989	-200.000	-0.004	0.158
-661.974	-92.038	-0.105	0.030
-660.959	55.610	-0.150	-0.148
-659.945	-47.807	-0.292	-0.145
-658.930	-131.219	-0.135	-0.018
-657.916	98.827	0.145	-0.171
-656.901	-6.617	0.330	0.230
-655.886	100.482	-0.305	0.362
-654.872	-200.000	0.060	0.302
-653.857	-72.817	0.110	0.041
-652.843	-141.693	0.289	0.030
-651.828	-144.666	-0.234	-0.022
-650.814	153.181	0.131	0.183
-649.799	150.130	0.201	0.278
-648.784	-147.648	-0.170	-0.015
-647.770	65.727	-0.140	0.145
-646.755	669.226	-0.063	0.166
-645.741	21.328	0.193	-0.160
-644.726	43.363	0.200	0.186
-643.711	2.655	0.238	-0.176
-642.697	81.048	0.097	-0.107
-641.682	800.000	-0.077	0.226
-640.668	169.411	-0.074	0.108
-639.653	-200.000	0.012	-0.104
-638.638	-200.000	-0.295	-0.001
-637.624	-200.000	0.009	0.043
-636.609	73.072	-0.094	-0.100
-635.595	-21.394	0.202	-0.126
-634.580	-66.153	0.064	-0.026
-633.565	9.805	0.048	0.037
-632.551	-9.030	-0.275	0.188
-631.536	800.000	0.043	0.159
-630.522	228.626	0.140	0.233
-629.507	79.867	0.141	0.154
-628.492	211.328	-0.031	-0.050
-627.478	-200.000	0.008	-0.120
-626.463	-162.574	0.155	0.008
-625.449	-52.593	0.149	0.070
-624.434	-81.183	0.238	0.080
-623.419	-15.441	-0.040	0.026
-622.405	159.760	0.023	-0.033
-621.390	4.749	-0.160	-0.120
-620.376	141.031	0.185	0.249
-619.361	555.002	-0.080	0.195
-618.346	467.163	-0.033	0.075
-617.332	800.000	-0.110	-0.361
-616.317	-87.191	-0.221	0.068
-615.303	-200.000	0.011	-0.321
-614.288	800.000	0.065	0.229
-613.273	72.133	0.253	0.268
-612.259	61.655	-0.252	0.255
-611.244	-130.663	0.286	-0.039
-610.230	42.032	-0.033	0.031
-609.215	63.495	-0.076	-0.078
-608.201	800.000	-0.043	0.155
-607.186	386.725	-0.086	-0.181
-606.171	-41.089	0.424	0.223
-605.157	52.154	-0.174	0.169
-604.142	53.498	-0.129	0.126
-603.128	-108.522	-0.202	0.044
-602.113	595.059	-0.098	-0.247
-601.098	800.000	0.072	-0.258
-600.084	190.325	0.042	-0.064
-599.069	-13.492	0.140	-0.092
-598.055	223.737	0.193	-0.317
-597.040	50.946	-0.098	0.095
-596.025	-93.579	-0.182	0.051
-595.011	686.660	-0.118	-0.315
-593.996	-200.000	0.001	0.272
-592.982	-200.000	-0.038	-0.339
-591.967	-16.424	-0.078	-0.051
-590.952	-200.000	0.003	-0.066
-589.938	-46.007	-0.336	0.169
-588.923	373.098	-0.205	-0.425
-587.909	-89.644	-0.238	-0.071
-586.894	-48.230	0.047	0.023
-585.879	800.000	0.026	0.090
-584.865	75.165	-0.147	-0.158
-583.850	-200.000	0.006	0.151
-582.836	251.409	0.077	-0.133
-581.821	-95.353	-0.217	-0.060
-580.806	12.224	0.140	-0.109
-579.792	-162.358	-0.400	-0.020
-578.777	-117.123	-0.285	0.053
-577.763	-12.097	0.084	0.056
-576.748	-37.219	0.353	-0.192
-575.733	157.745	-0.149	-0.210
-574.719	-53.924	0.266	-0.123
-573.704	25.937	0.201	-0.171
-572.690	800.000	-0.074	-0.254
-571.675	-69.172	0.190	0.074
-570.661	-200.000	0.041	0.281
-569.646	-20.489	0.114	-0.072
-568.631	-171.046	-0.287	0.010
-567.617	-200.000	0.004	-0.150
-566.602	-11.313	-0.105	0.070
-565.588	-101.452	0.047	-0.012
-564.573	-200.000	0.001	-0.195
-563.558	-200.000	-0.005	0.079
-562.544	-95.487	-0.219	-0.060
-561.529	-200.000	0.043	0.209
-560.515	-48.405	-0.170	-0.083
-559.500	-45.078	-0.269	-0.136
-558.485	-51.981	-0.120	-0.057
-557.471	182.756	-0.139	0.208
-556.456	-200.000	0.093	-0.434
-555.442	40.329	-0.070	-0.064
-554.427	90.761	0.148	-0.169
-553.412	-100.486	-0.237	0.060
-552.398	-19.098	-0.138	-0.087
-551.383	-73.247	-0.267	-0.099
-550.369	-200.000	0.023	0.108
-549.354	-200.000	0.050	0.241
-548.339	-200.000	-0.012	0.231
-547.325	-30.780	-0.132	0.076
-546.310	-63.385	-0.186	-0.078
-545.296	-46.903	-0.166	0.082
-544.281	-25.400	0.198	-0.119
-543.266	642.494	0.151	-0.390
-542.252	-200.000	-0.023	-0.209
-541.237	-82.972	0.089	0.029
-540.223	196.422	0.074	0.114
-539.208	714.907	-0.068	-0.182
-538.193	-200.000	-0.022	0.264
-537.179	-71.255	0.086	-0.033
-536.164	126.676	0.126	0.163
-535.150	83.257	0.159	-0.176
-534.135	-132.759	-0.165	-0.021
-533.121	-200.000	-0.025	-0.255
-532.106	432.302	-0.054	0.119
-531.091	313.059	-0.185	0.353
-530.077	13.735	0.196	-0.155
-529.062	-102.786	0.297	-0.072
-528.048	-139.779	0.252	-0.027
-527.033	-108.251	0.336	0.074
-526.018	-200.000	0.106	-0.635
-525.004	-25.343	0.162	-0.097
-523.989	732.178	-0.023	-0.063
-522.975	-155.595	0.266	-0.017
-521.960	265.599	0.033	0.059
-520.945	-200.000	0.010	-0.282
-519.931	-110.348	-0.361	0.076
-518.916	137.589	0.173	-0.229
-517.902	-200.000	0.024	-0.271
-516.887	-52.239	-0.323	0.152
-515.872	183.915	0.118	-0.177
-514.858	-200.000	0.049	0.283
-513.843	128.398	-0.284	-0.367
-512.829	-70.843	0.380	-0.145
-511.814	271.031	-0.131	0.233
-510.799	83.308	0.173	-0.191
-509.785	-200.000	-0.135	0.000
-508.770	492.244	-0.047	-0.108
-507.756	-67.482	0.127	0.051
-506.741	277.186	0.143	0.259
-505.726	60.590	-0.242	-0.243
-504.712	-200.000	-0.021	-0.119
-503.697	407.877	-0.106	-0.227
-502.683	-200.000	-0.032	-0.399
-501.668	-7.734	-0.289	0.198
-500.653	-33.479	-0.150	-0.084
-499.639	445.273	0.081	0.180
-498.624	178.381	-0.107	-0.158
-497.610	100.721	-0.231	0.273
-496.595	20.200	-0.165	0.135
-495.581	800.000	-0.126	-0.420
-494.566	800.000	0.128	0.373
-493.551	-5.585	-0.097	0.067
-492.537	-57.408	-0.244	0.109
-491.522	89.593	-0.178	0.202
-490.508	240.547	-0.153	-0.258
-489.493	96.863	-0.094	0.109
-488.478	405.041	-0.101	-0.217
-487.464	-91.802	0.496	0.143
-486.449	-82.776	0.361	0.118
-485.435	215.294	0.147	-0.236
-484.420	-8.116	-0.204	-0.139
-483.405	177.672	-0.030	-0.044
-482.391	-28.414	0.447	-0.261
-481.376	0.121	-0.304	0.220
-480.362	-141.127	0.437	-0.045
-479.347	-62.020	0.131	-0.056
-478.332	174.467	-0.262	-0.384
-477.318	800.000	0.053	0.237
-476.303	-51.031	0.288	-0.137
-475.289	304.437	0.109	0.205
-474.274	106.749	-0.073	-0.088
-473.259	-93.853	0.168	0.047
-472.245	800.000	-0.095	-0.321
-471.230	-42.617	0.109	-0.056
-470.216	16.248	-0.162	-0.129
-469.201	320.093	-0.139	0.268
-468.186	-200.000	0.011	0.246
-467.172	-45.546	-0.246	0.123
-466.157	-109.987	0.246	-0.052
-465.143	-121.941	-0.238	0.040
-464.128	162.927	-0.096	-0.137
-463.113	204.288	0.166	0.260
-462.099	800.000	0.070	0.222
-461.084	533.710	0.094	-0.225
-460.070	-200.000	-0.006	0.117
-459.055	246.863	0.062	0.107
-458.040	-37.539	0.200	-0.108
-457.026	800.000	0.059	-0.237
-456.011	383.509	0.148	0.308
-454.997	359.518	-0.121	-0.245
-453.982	-200.000	0.004	0.455
-452.968	36.127	-0.110	-0.098
-451.953	-35.239	-0.171	-0.094
-450.938	519.535	0.121	0.287
-449.924	24.128	0.095	0.080
-448.909	-79.092	-0.055	-0.019
-447.895	736.357	-0.031	-0.085
-446.880	-63.800	-0.492	0.204
-445.865	800.000	0.105	-0.361
-444.851	-6.721	-0.219	-0.151
-443.836	43.313	-0.126	-0.117
-442.822	-185.083	0.138	0.002
-441.807	-3.577	0.305	-0.215
-440.792	80.398	0.149	-0.162
-439.778	199.575	-0.181	0.280
-438.763	-166.662	-0.209	-0.009
-437.749	-90.562	-0.064	0.019
-436.734	800.000	-0.035	-0.114
-435.719	-200.000	-0.193	-0.000
-434.705	504.469	0.118	0.278
-433.690	-122.183	0.106	0.018
-432.676	47.255	-0.069	0.065
-431.661	98.394	0.245	0.286
-430.646	-130.389	0.146	-0.020
-429.632	510.711	0.145	-0.342
-428.617	-9.383	-0.269	-0.182
-427.603	323.213	-0.121	-0.233
-426.588	70.798	-0.202	-0.212
-425.573	-137.923	0.397	-0.045
-424.559	-200.000	-0.001	-0.006
-423.544	-147.601	0.033	0.003
-422.530	-84.626	-0.126	-0.040
-421.515	181.931	-0.191	0.285
-420.500	-155.220	-0.180	-0.012
-419.486	12.042	0.265	-0.206
-418.471	18.676	-0.192	-0.155
-417.457	-64.353	0.166	-0.068
-416.442	-200.000	-0.068	0.362
-415.428	85.065	0.022	0.025
-414.413	99.130	-0.154	0.180
-413.398	-66.668	-0.219	-0.088
-412.384	122.075	0.236	-0.298
-411.369	-121.189	0.087	-0.015
-410.355	305.562	-0.169	-0.317
-409.340	9.813	-0.161	-0.124
-408.325	-56.358	0.258	0.116
-407.311	-75.715	-0.008	-0.003
-406.296	-81.881	0.133	0.044
-405.282	-73.998	-0.188	0.069
-404.267	-200.000	-0.038	0.175
-403.252	-166.092	-0.299	0.013
-402.238	-200.000	-0.035	0.301
-401.223	-120.978	0.201	-0.034
-400.209	54.810	-0.096	0.093
-399.194	800.000	-0.120	0.339
-398.179	84.375	-0.176	0.195
-397.165	800.000	0.141	0.406
-396.150	-50.271	0.485	0.232
-395.136	-149.451	-0.255	0.020
-394.121	339.315	-0.121	-0.238
-393.106	139.853	0.169	0.225
-392.092	800.000	-0.049	-0.157
-391.077	800.000	-0.088	0.341
-390.063	329.370	-0.209	-0.407
-389.048	-200.000	-0.005	-0.375
-388.033	434.863	0.143	-0.314
-387.019	310.123	-0.141	0.267
-386.004	-200.000	0.023	-0.272
-384.990	260.436	-0.100	0.175
-383.975	676.922	0.055	0.145
-382.960	-9.800	-0.244	-0.164
-381.946	-200.000	-0.031	0.163
-380.931	800.000	-0.028	-0.102
-379.917	800.000	0.023	0.067
-378.902	-78.715	-0.049	0.017
-377.888	505.798	0.081	0.190
-376.873	800.000	-0.095	0.297
-375.858	22.247	-0.185	-0.152
-374.844	102.394	0.325	-0.384
-373.829	98.293	0.116	-0.135
-372.815	-185.279	-0.272	0.004
-371.800	-37.983	-0.108	-0.058
-370.785	-200.000	0.006	0.084
-369.771	157.343	0.136	-0.190
-368.756	-89.298	0.196	0.058
-367.742	-200.000	-0.004	0.156
-366.727	8.178	-0.278	0.211
-365.712	-200.000	0.007	0.100
-364.698	56.173	-0.010	-0.010
-363.683	2.556	0.202	-0.147
-362.669	5.087	0.319	0.237
-361.654	16.658	-0.070	-0.056
-360.639	-6.350	0.099	0.068
-359.625	59.130	0.134	0.133
-358.610	-108.081	0.201	0.044
-357.596	-16.008	0.321	0.206
-356.581	-5.496	-0.057	0.040
-355.566	-94.757	0.157	-0.043
-354.552	-142.633	0.124	-0.012
-353.537	232.739	0.100	-0.166
-352.523	19.675	0.130	-0.105
-351.508	-83.438	-0.102	-0.033
-350.493	-200.000	0.029	0.299
-349.479	213.094	0.066	0.105
-348.464	57.640	-0.213	-0.210
-347.450	39.760	0.126	-0.114
-346.435	420.526	-0.109	0.236
-345.420	-78.059	0.143	0.050
-344.406	-5.505	0.097	-0.067
-343.391	-88.652	-0.235	0.071
-342.377	-140.696	-0.201	0.021
-341.362	580.931	0.085	0.209
-340.348	-128.067	-0.193	-0.028
-339.333	194.485	-0.104	-0.158
-338.318	0.428	0.163	-0.117
-337.304	793.962	0.085	0.235
-336.289	-87.055	0.061	-0.019
-335.275	297.461	0.043	0.080
-334.260	-70.722	-0.065	-0.025
-333.245	-200.000	-0.016	-0.273
-332.231	127.763	0.097	-0.124
-331.216	78.701	0.140	0.151
-330.202	34.780	-0.203	-0.179
-329.187	-28.723	-0.365	-0.211
-328.172	454.430	0.116	0.258
-327.158	-200.000	0.009	0.137
-326.143	-200.000	-0.004	-0.133
-325.129	-94.771	-0.186	0.051
-324.114	-30.400	0.112	-0.064
-323.099	129.904	0.263	0.339
-322.085	-21.938	0.221	-0.135
-321.070	82.695	0.236	0.259
-320.056	119.314	-0.060	0.075
-319.041	-9.220	0.228	0.154
-318.026	800.000	0.113	0.414
-317.012	-30.029	0.253	0.145
-315.997	-200.000	0.033	-0.197
-314.983	-137.700	0.296	0.033
-313.968	-200.000	0.055	-0.592
-312.953	-94.374	-0.323	0.089
-311.939	-39.780	0.121	0.064
-310.924	311.540	-0.086	-0.161
-309.910	-200.000	0.027	0.473
-308.895	-50.778	-0.136	0.064
-307.880	492.015	-0.112	-0.258
-306.866	-200.000	-0.043	-0.358
-305.851	-200.000	-0.018	-0.171
-304.837	-42.901	-0.190	0.097
-303.822	800.000	0.042	0.163
-302.807	800.000	-0.106	0.357
-301.793	-200.000	0.013	-0.327
-300.778	296.783	-0.126	-0.233
-299.764	82.922	0.196	-0.215
-298.749	30.477	0.223	-0.192
-297.735	324.778	0.020	-0.038
-296.720	800.000	0.065	-0.196
-295.705	-200.000	-0.031	0.292
-294.691	120.678	0.208	-0.260
-293.676	54.539	-0.164	-0.159
-292.662	-80.710	-0.235	-0.079
-291.647	317.177	0.114	-0.217
-290.632	-200.000	0.012	0.121
-289.618	-200.000	0.001	0.200
-288.603	-152.214	-0.189	0.014
-287.589	-200.000	0.034	-0.271
-286.574	229.802	-0.027	0.045
-285.559	-5.859	-0.326	0.225
-284.545	-106.959	-0.247	0.055
-283.530	-135.351	0.233	0.028
-282.516	268.239	0.155	-0.273
-281.501	-200.000	0.030	-0.285
-280.486	67.313	0.015	0.015
-279.472	125.536	-0.254	0.322
-278.457	-27.872	0.217	-0.127
-277.443	148.236	-0.278	0.377
-276.428	-11.813	-0.364	0.240
-275.413	-99.229	0.182	-0.046
-274.399	282.560	0.115	0.208
-273.384	192.296	-0.081	-0.123
-272.370	-15.538	0.141	-0.090
-271.355	186.104	-0.037	-0.055
-270.340	-200.000	-0.035	-0.311
-269.326	-124.737	0.121	0.019
-268.311	57.195	0.184	-0.181
-267.297	705.276	0.034	-0.089
-266.282	-34.278	-0.040	0.022
-265.267	-200.000	-0.043	-0.367
-264.253	-200.000	-0.007	-0.136
-263.238	240.772	0.026	-0.043
-262.224	-200.000	-0.021	-0.118
-261.209	800.000	0.031	0.126
-260.195	-191.785	0.093	-0.001
-259.180	25.698	-0.089	0.075
-258.165	7.527	0.083	-0.063
-257.151	-161.766	-0.140	-0.007
-256.136	-118.752	-0.179	0.032
-255.122	800.000	-0.116	-0.433
-254.107	800.000	-0.032	0.117
-253.092	-200.000	0.051	-0.334
-252.078	-50.091	-0.180	-0.085
-251.063	-179.666	0.274	-0.006
-250.049	303.411	0.053	-0.098
-249.034	321.897	-0.179	0.343
-248.019	-200.000	0.045	0.365
-247.005	-200.000	-0.014	0.219
-245.990	-168.514	0.073	0.003
-244.976	-127.255	-0.202	-0.030
-243.961	-75.048	0.136	0.049
-242.946	-200.000	0.013	0.065
-241.932	800.000	-0.078	0.264
-240.917	800.000	-0.030	-0.119
-239.903	-200.000	0.048	0.354
-238.888	-12.759	0.091	0.059
-237.873	-89.821	-0.023	0.007
-236.859	108.650	-0.152	-0.183
-235.844	30.715	0.327	-0.281
-234.830	-108.673	0.085	0.018
-233.815	74.584	0.122	-0.129
-232.800	-152.250	0.242	-0.018
-231.786	190.423	-0.184	0.277
-230.771	23.596	-0.187	0.154
-229.757	574.757	-0.080	0.197
-228.742	-20.327	-0.072	0.045
-227.727	125.675	-0.147	0.187
-226.713	-33.754	-0.145	0.080
-225.698	-170.065	-0.113	-0.004
-224.684	-144.294	-0.271	0.025
-223.669	453.734	0.042	0.094
-222.655	294.506	0.075	0.138
-221.640	-200.000	-0.006	-0.042
-220.625	-200.000	-0.013	-0.116
-219.611	-49.931	-0.075	-0.036
-218.596	-200.000	-0.009	-0.047
-217.582	-82.477	-0.282	0.092
-216.567	183.598	0.156	-0.232
-215.552	63.529	0.133	-0.134
-214.538	-127.449	0.278	0.041
-213.523	-200.000	-0.011	0.163
-212.509	53.466	0.252	0.243
-211.494	-179.773	-0.241	-0.005
-210.479	-88.989	-0.314	-0.093
-209.465	-42.240	0.306	0.157
-208.450	127.725	0.103	-0.131
-207.436	132.695	0.049	0.064
-206.421	800.000	-0.026	-0.078
-205.406	-48.127	0.197	0.095
-204.392	-200.000	0.033	0.251
-203.377	-126.825	0.218	0.032
-202.363	-200.000	-0.026	0.374
-201.348	-48.670	-0.102	0.049
-200.333	-200.000	0.024	0.154
-199.319	-28.532	0.242	0.140
-198.304	122.247	-0.103	0.130
-197.290	-200.000	-0.013	-0.061
-196.275	800.000	0.098	-0.302
-195.260	-57.726	-0.165	-0.073
-194.246	120.953	0.300	0.375
-193.231	-53.966	0.269	-0.123
-192.217	67.569	0.119	-0.122
-191.202	-68.623	0.083	-0.032
-190.187	64.534	0.218	-0.220
-189.173	800.000	-0.053	0.190
-188.158	52.369	0.098	-0.094
-187.144	-91.189	-0.113	-0.032
-186.129	-147.668	0.263	-0.022
-185.114	800.000	-0.019	0.072
-184.100	52.344	0.118	-0.112
-183.085	225.632	0.078	0.127
-182.071	76.955	0.098	0.104
-181.056	-200.000	0.065	0.568
-180.042	-200.000	-0.005	0.041
-179.027	-123.874	-0.342	-0.054
-178.012	397.027	-0.099	-0.206
-176.998	800.000	0.012	-0.052
-175.983	800.000	-0.019	-0.058
-174.969	155.309	0.107	0.148
-173.954	138.803	0.029	-0.038
-172.939	103.996	-0.076	0.090
-171.925	800.000	-0.064	-0.207
-170.910	113.023	0.284	0.345
-169.896	133.513	-0.145	-0.187
-168.881	61.659	-0.207	-0.206
-167.866	-60.118	-0.065	0.028
-166.852	-132.571	0.277	-0.036
-165.837	551.545	0.038	-0.092
-164.823	-92.884	0.056	0.016
-163.808	-75.958	-0.214	0.076
-162.793	541.439	0.053	0.127
-161.779	428.189	0.069	0.149
-160.764	-200.000	-0.093	0.548
-159.750	175.000	-0.239	0.346
-158.735	-152.046	0.302	-0.022
-157.720	800.000	0.068	-0.247
-156.706	-40.475	0.290	0.151
-155.691	-126.818	0.037	0.005
-154.677	800.000	-0.077	-0.220
-153.662	15.714	-0.273	0.215
-152.647	-200.000	-0.023	0.263
-151.633	-106.159	-0.330	0.074
-150.618	800.000	0.040	-0.117
-149.604	441.426	-0.140	0.306
-148.589	740.543	-0.063	-0.168
-147.574	-18.982	0.056	0.035
-146.560	1.357	0.038	0.027
-145.545	-175.357	0.169	-0.005
-144.531	-37.285	0.086	0.046
-143.516	-200.000	0.042	-0.259
-142.502	800.000	-0.131	-0.375
-141.487	-200.000	-0.003	0.120
-140.472	54.406	0.184	0.177
-139.458	-200.000	-0.011	-0.117
-138.443	12.209	-0.108	0.083
-137.429	-6.456	-0.365	-0.249
-136.414	-118.244	-0.171	0.031
-135.399	-200.000	0.018	-0.164
-134.385	-192.780	-0.345	-0.003
-133.370	47.993	0.090	0.084
-132.356	45.256	0.165	-0.153
-131.341	-200.000	0.021	0.584
-130.326	14.958	-0.068	0.053
-129.312	473.416	-0.123	-0.277
-128.297	364.474	0.082	0.164
-127.283	-130.012	0.287	0.039
-126.268	4.447	-0.186	0.136
-125.253	-18.271	0.280	-0.175
-124.239	218.324	0.145	0.232
-123.224	67.404	-0.219	-0.223
-122.210	247.680	-0.207	0.350
-121.195	-20.166	0.040	0.024
-120.180	61.247	0.093	0.092
