DTS Sentinel unit serial number:	SN413079Multiplexer serial number:	ORYXHardware model number:	OX4-SRSoftware version number:	ORYX F/W v4.00 Oryx Data Collector v3.7.2.0data status	okinstallation	princeton_trtdifferential loss correction	single-endedforward channel	channel 3reverse channel	N/Adate	2019/09/16time	22:08:35forward acquisition time	60.00reverse acquisition time	0.00gamma	496.2192k internal	0.2325k external	0.2325temperature offset calibration	0.9933default loss term (dB/km)	0.3790temperature slope calibration	1.0000multiplexer offset coefficient	1.0000multiplexer slope coefficient	1.0000fibre end	0.00T internal ref (°C)	31.11T ext. ref 1 (°C)	0.07T ext. ref 2 (°C)	24.87length (m)	temperature (°C)	Stokes	anti-Stokes-747.200	74.537	0.226	0.240
-746.185	35.227	-0.191	-0.169
-745.171	188.259	-0.149	-0.224
-744.156	800.000	0.093	0.374
-743.142	399.741	-0.097	0.206
-742.127	440.282	0.029	0.064
-741.112	-71.547	0.113	-0.043
-740.098	680.324	-0.093	0.245
-739.083	61.318	-0.146	-0.146
-738.069	-145.534	-0.511	0.046
-737.054	-110.314	-0.188	0.039
-736.039	104.082	0.183	0.217
-735.025	-124.333	-0.176	0.028
-734.010	-34.705	-0.312	0.172
-732.996	800.000	-0.084	-0.277
-731.981	800.000	0.036	0.160
-730.966	-85.178	-0.062	-0.019
-729.952	237.527	-0.211	-0.354
-728.937	-50.853	-0.222	0.105
-727.923	426.165	-0.101	-0.219
-726.908	-200.000	-0.005	-0.380
-725.894	-93.816	-0.184	0.051
-724.879	413.801	-0.092	0.198
-723.864	-170.695	-0.203	0.007
-722.850	-11.715	0.202	-0.134
-721.835	800.000	0.074	0.257
-720.821	-200.000	-0.012	0.057
-719.806	800.000	0.131	-0.486
-718.791	-43.112	-0.209	-0.107
-717.777	-200.000	-0.051	-0.292
-716.762	-200.000	0.043	-0.192
-715.748	-55.515	-0.203	0.092
-714.733	-50.417	-0.214	0.102
-713.718	-150.488	-0.365	-0.028
-712.704	-200.000	0.007	-0.067
-711.689	-200.000	-0.005	-0.255
-710.675	-57.310	0.228	-0.101
-709.660	312.740	0.115	0.217
-708.645	-31.377	0.108	0.061
-707.631	76.104	-0.047	-0.050
-706.616	-72.677	-0.062	0.023
-705.602	-33.993	0.137	0.076
-704.587	1.300	0.265	0.192
-703.572	-89.226	0.057	0.017
-702.558	-11.927	0.126	0.083
-701.543	-91.382	-0.199	0.057
-700.529	-200.000	0.054	0.243
-699.514	800.000	-0.018	0.061
-698.499	96.754	-0.230	-0.265
-697.485	-74.872	-0.435	0.157
-696.470	-200.000	-0.003	0.051
-695.456	-200.000	-0.063	0.000
-694.441	800.000	0.085	0.276
-693.426	-119.000	-0.299	-0.053
-692.412	200.082	-0.131	0.203
-691.397	-132.257	0.082	0.011
-690.383	199.294	0.074	0.115
-689.368	290.361	-0.192	0.351
-688.354	182.580	0.277	0.412
-687.339	213.025	-0.029	0.046
-686.324	200.394	-0.148	0.229
-685.310	-200.000	-0.070	-0.328
-684.295	-74.095	-0.186	-0.068
-683.281	384.077	-0.122	-0.254
-682.266	134.828	-0.132	0.173
-681.251	-111.313	-0.208	0.043
-680.237	131.235	0.211	-0.273
-679.222	-200.000	0.052	0.230
-678.208	800.000	0.091	0.292
-677.193	-81.085	0.376	-0.125
-676.178	-43.182	0.298	-0.152
-675.164	225.203	0.033	-0.054
-674.149	-5.161	-0.351	-0.243
-673.135	211.274	-0.168	0.266
-672.120	683.509	-0.081	-0.212
-671.105	135.514	-0.172	-0.225
-670.091	-124.632	-0.279	-0.043
-669.076	-12.160	-0.115	-0.076
-668.062	-33.171	0.423	-0.236
-667.047	-79.394	0.274	-0.093
-666.032	46.999	-0.227	0.212
-665.018	-54.451	-0.326	-0.149
-664.003	800.000	-0.134	0.471
-662.989	143.875	0.029	-0.039
-661.974	78.855	-0.052	0.056
-660.959	-92.251	0.103	0.029
-659.945	-12.027	-0.345	0.227
-658.930	-119.629	0.089	0.016
-657.916	200.814	0.140	0.217
-656.901	-114.518	-0.303	0.058
-655.886	355.992	-0.147	-0.294
-654.872	-34.306	-0.599	-0.330
-653.857	-79.967	-0.031	-0.010
-652.843	-200.000	-0.014	-0.168
-651.828	-93.429	0.278	-0.077
-650.814	-32.496	-0.284	-0.159
-649.799	-35.057	0.159	0.087
-648.784	-50.206	-0.241	-0.114
-647.770	14.781	0.202	0.159
-646.755	-94.866	-0.368	-0.100
-645.741	-38.227	0.324	0.172
-644.726	-200.000	0.005	-0.320
-643.711	-73.702	-0.129	-0.047
-642.697	-35.853	-0.252	0.137
-641.682	231.068	-0.242	-0.398
-640.668	-48.414	0.116	-0.056
-639.653	283.304	0.157	0.283
-638.638	-1.889	-0.139	0.098
-637.624	-200.000	-0.064	-0.335
-636.609	113.120	0.101	0.123
-635.595	800.000	0.015	0.051
-634.580	-107.461	-0.490	0.108
-633.565	-152.718	-0.149	0.011
-632.551	330.157	0.099	-0.192
-631.536	-200.000	0.031	-0.159
-630.522	-26.979	-0.339	-0.199
-629.507	176.113	-0.237	-0.346
-628.492	333.268	0.069	-0.134
-627.478	307.211	0.066	-0.123
-626.463	-64.041	0.264	0.108
-625.449	14.421	-0.273	0.214
-624.434	-200.000	-0.015	-0.224
-623.419	-200.000	0.010	-0.090
-622.405	800.000	0.061	0.245
-621.390	-80.914	0.118	0.039
-620.376	-44.286	0.266	-0.134
-619.361	78.740	-0.192	0.206
-618.346	800.000	-0.078	0.219
-617.332	34.578	0.038	0.034
-616.317	-70.899	0.239	0.090
-615.303	-19.755	0.119	-0.074
-614.288	160.670	0.157	0.221
-613.273	86.191	-0.249	-0.276
-612.259	104.454	-0.100	0.118
-611.244	60.837	0.162	0.161
-610.230	94.080	-0.127	0.145
-609.215	-200.000	-0.024	-0.254
-608.201	-200.000	0.005	0.027
-607.186	-35.144	0.086	0.047
-606.171	-80.058	-0.203	-0.068
-605.157	555.014	0.090	-0.219
-604.142	-200.000	0.002	-0.077
-603.128	-10.718	-0.111	0.074
-602.113	-89.246	0.054	0.016
-601.098	36.855	0.071	-0.063
-600.084	-142.164	-0.245	-0.024
-599.069	-59.596	0.340	-0.146
-598.055	-200.000	0.006	-0.143
-597.040	-139.130	0.465	-0.050
-596.025	-39.204	-0.159	-0.084
-595.011	-33.504	0.313	-0.173
-593.996	-200.000	-0.031	0.285
-592.982	-24.353	-0.263	-0.158
-591.967	143.153	-0.053	0.071
-590.952	800.000	-0.090	0.290
-589.938	-200.000	-0.075	0.371
-588.923	-4.915	0.254	-0.175
-587.909	800.000	-0.019	0.064
-586.894	-140.134	0.196	-0.021
-585.879	-96.480	0.134	0.036
-584.865	-200.000	-0.005	0.136
-583.850	238.432	0.065	-0.108
-582.836	-132.699	-0.393	-0.050
-581.821	-116.999	0.164	0.030
-580.806	-137.598	-0.041	-0.005
-579.792	-58.961	-0.364	-0.158
-578.777	-80.011	0.129	0.043
-577.763	-146.071	0.249	0.022
-576.748	-9.947	0.161	-0.107
-575.733	-200.000	0.023	-0.120
-574.719	-200.000	-0.027	-0.374
-573.704	157.589	0.021	-0.030
-572.690	-92.347	-0.253	0.072
-571.675	25.014	-0.182	-0.152
-570.661	800.000	0.093	-0.388
-569.646	-200.000	-0.001	-0.148
-568.631	-83.038	-0.319	0.103
-567.617	575.727	-0.075	0.182
-566.602	39.545	0.208	-0.187
-565.588	-16.719	-0.088	0.056
-564.573	-200.000	0.061	0.318
-563.558	-200.000	0.024	-0.158
-562.544	-70.145	0.209	0.080
-561.529	7.387	-0.022	-0.016
-560.515	15.734	-0.187	0.147
-559.500	42.584	-0.109	0.099
-558.485	60.948	-0.057	-0.056
-557.471	-22.260	0.230	0.140
-556.456	341.816	-0.045	-0.088
-555.442	17.781	-0.083	0.066
-554.427	-200.000	0.004	0.579
-553.412	80.078	-0.056	0.061
-552.398	295.512	0.098	-0.180
-551.383	114.572	-0.242	-0.295
-550.369	-200.000	0.016	0.138
-549.354	-200.000	-0.023	-0.190
-548.339	-139.238	-0.268	-0.029
-547.325	-200.000	0.044	0.421
-546.310	-103.010	-0.089	0.021
-545.296	-111.877	-0.219	0.044
-544.281	-75.610	0.244	0.087
-543.266	-200.000	0.036	0.189
-542.252	800.000	-0.105	0.332
-541.237	-160.583	-0.118	0.006
-540.223	16.683	-0.108	0.085
-539.208	82.708	0.153	-0.167
-538.193	3.426	-0.215	-0.157
-537.179	-50.889	0.168	-0.079
-536.164	542.964	-0.110	0.263
-535.150	-18.601	-0.172	0.107
-534.135	-31.860	0.350	-0.196
-533.121	750.732	-0.166	0.449
-532.106	130.849	-0.205	0.263
-531.091	-200.000	0.008	-0.213
-530.077	-28.938	-0.239	0.137
-529.062	-200.000	0.101	0.510
-528.048	81.589	0.080	-0.086
-527.033	-37.836	0.260	-0.139
-526.018	-132.239	0.257	0.033
-525.004	674.234	-0.033	0.086
-523.989	475.420	-0.059	-0.133
-522.975	-8.985	0.250	0.167
-521.960	613.939	0.109	0.274
-520.945	106.088	-0.171	0.203
-519.931	-200.000	0.013	-0.375
-518.916	-31.324	0.056	-0.032
-517.902	736.516	-0.136	-0.365
-516.887	800.000	-0.026	-0.112
-515.872	361.415	-0.074	-0.148
-514.858	-200.000	-0.013	-0.196
-513.843	-107.156	0.514	0.113
-512.829	-111.934	-0.080	0.016
-511.814	-152.030	0.251	0.018
-510.799	-200.000	-0.010	0.128
-509.785	-63.871	0.281	0.115
-508.770	229.586	-0.186	-0.303
-507.756	130.637	-0.207	-0.266
-506.741	-53.491	-0.083	-0.038
-505.726	800.000	0.002	0.009
-504.712	-200.000	0.012	-0.311
-503.697	159.528	0.105	0.146
-502.683	-88.553	-0.330	0.098
-501.668	-200.000	0.005	0.245
-500.653	439.182	0.149	-0.325
-499.639	39.810	-0.186	0.167
-498.624	-34.314	-0.287	-0.157
-497.610	800.000	-0.062	0.202
-496.595	-148.366	0.317	-0.026
-495.581	800.000	-0.042	-0.169
-494.566	-200.000	0.048	-0.230
-493.551	278.728	0.088	-0.157
-492.537	-200.000	0.013	0.123
-491.522	671.066	-0.016	0.041
-490.508	-13.073	-0.130	-0.084
-489.493	-200.000	0.050	-0.382
-488.478	800.000	0.085	-0.247
-487.464	800.000	-0.005	0.017
-486.449	387.723	0.166	-0.344
-485.435	-76.382	-0.339	-0.119
-484.420	-200.000	0.027	0.121
-483.405	-107.249	0.341	0.075
-482.391	6.919	0.035	-0.026
-481.376	57.230	0.069	0.067
-480.362	-162.669	0.513	0.025
-479.347	-7.989	-0.190	-0.128
-478.332	-103.250	0.160	0.038
-477.318	292.811	-0.029	-0.054
-476.303	44.865	0.173	-0.159
-475.289	65.202	0.143	-0.145
-474.274	-123.089	0.158	0.025
-473.259	48.307	0.140	0.131
-472.245	800.000	-0.085	0.278
-471.230	-200.000	-0.004	-0.221
-470.216	-26.336	-0.167	-0.098
-469.201	162.827	0.118	-0.165
-468.186	13.757	0.062	-0.048
-467.172	-176.904	-0.206	0.005
-466.157	800.000	0.074	-0.311
-465.143	-97.398	0.099	-0.026
-464.128	-200.000	-0.001	-0.445
-463.113	178.457	-0.147	0.214
-462.099	108.596	-0.088	-0.105
-461.084	19.425	-0.170	-0.136
-460.070	-69.284	0.160	-0.061
-459.055	82.107	0.107	-0.116
-458.040	-200.000	0.038	-0.436
-457.026	480.612	-0.096	-0.218
-456.011	-200.000	0.021	-0.256
-454.997	101.651	0.152	0.177
-453.982	800.000	-0.019	-0.071
-452.968	-200.000	0.013	-0.210
-451.953	800.000	0.046	-0.127
-450.938	-58.811	0.071	-0.031
-449.924	107.842	0.245	0.291
-448.909	-4.982	-0.266	0.183
-447.895	218.715	0.124	0.197
-446.880	-14.041	-0.143	-0.092
-445.865	-91.558	0.345	-0.098
-444.851	-163.943	-0.262	-0.012
-443.836	-174.944	-0.193	-0.005
-442.822	-113.984	-0.163	0.032
-441.807	69.030	0.149	0.153
-440.792	-64.290	0.246	0.100
-439.778	188.372	-0.079	-0.117
-438.763	-127.524	0.117	0.017
-437.749	-78.104	-0.405	0.139
-436.734	22.042	-0.150	-0.122
-435.719	-12.408	-0.120	0.078
-434.705	-85.814	-0.231	-0.071
-433.690	286.376	-0.097	0.175
-432.676	69.686	0.131	-0.135
-431.661	-22.350	0.344	0.208
-430.646	-200.000	0.058	0.338
-429.632	290.227	0.103	0.186
-428.617	117.281	0.146	-0.179
-427.603	354.289	0.083	-0.164
-426.588	-83.407	0.235	-0.075
-425.573	-36.370	-0.370	0.199
-424.559	139.298	0.139	0.182
-423.544	469.672	-0.098	-0.219
-422.530	0.873	-0.174	-0.124
-421.515	-145.549	0.157	-0.014
-420.500	324.467	0.245	0.466
-419.486	-71.779	0.365	0.136
-418.471	-40.987	-0.132	-0.068
-417.457	-69.233	0.256	-0.098
-416.442	800.000	-0.073	0.286
-415.428	-24.360	-0.062	-0.037
-414.413	-78.375	0.234	0.080
-413.398	-87.152	-0.209	-0.063
-412.384	-31.019	0.504	0.284
-411.369	-12.804	-0.083	-0.054
-410.355	800.000	0.056	0.155
-409.340	72.654	-0.147	-0.153
-408.325	-28.013	0.222	0.128
-407.311	-8.567	-0.157	0.105
-406.296	-200.000	-0.016	-0.074
-405.282	100.901	0.118	-0.137
-404.267	-200.000	-0.005	0.255
-403.252	-149.363	-0.174	0.014
-402.238	-200.000	-0.008	-0.161
-401.223	800.000	0.070	-0.197
-400.209	-86.737	0.110	0.033
-399.194	800.000	-0.118	0.487
-398.179	-9.472	-0.359	0.239
-397.165	237.565	-0.054	0.089
-396.150	-109.866	0.271	-0.057
-395.136	340.472	0.082	0.160
-394.121	-200.000	0.002	0.133
-393.106	279.930	0.071	-0.126
-392.092	17.128	-0.085	0.067
-391.077	-30.952	-0.141	-0.079
-390.063	-200.000	-0.014	0.121
-389.048	-200.000	-0.011	-0.116
-388.033	-36.577	0.204	0.109
-387.019	98.248	-0.232	0.265
-386.004	-79.063	-0.090	0.030
-384.990	-200.000	-0.012	0.325
-383.975	-145.564	0.324	-0.029
-382.960	-200.000	0.014	-0.114
-381.946	169.470	-0.118	-0.168
-380.931	269.871	-0.062	0.108
-379.917	-200.000	-0.015	0.204
-378.902	180.373	-0.110	0.160
-377.888	713.519	0.075	0.197
-376.873	800.000	0.060	-0.223
-375.858	88.937	-0.178	-0.198
-374.844	-80.777	0.352	-0.116
-373.829	682.084	0.126	0.327
-372.815	-8.771	-0.158	-0.106
-371.800	688.703	0.150	-0.390
-370.785	86.320	0.192	0.210
-369.771	800.000	-0.029	0.091
-368.756	33.584	0.165	-0.143
-367.742	77.250	0.065	0.069
-366.727	-78.484	0.112	0.038
-365.712	209.837	0.179	-0.279
-364.698	110.293	-0.246	-0.294
-363.683	800.000	0.032	-0.095
-362.669	-72.408	0.229	-0.084
-361.654	-104.286	-0.472	-0.109
-360.639	800.000	-0.031	0.131
-359.625	-79.526	0.104	-0.035
-358.610	-88.496	-0.015	0.005
-357.596	-155.059	-0.294	0.019
-356.581	-200.000	-0.058	0.348
-355.566	-61.293	-0.344	-0.144
-354.552	-9.127	0.146	-0.097
-353.537	158.078	-0.235	-0.324
-352.523	-103.518	-0.113	0.026
-351.508	302.937	-0.085	0.156
-350.493	162.707	0.116	-0.161
-349.479	-90.128	0.312	0.090
-348.464	-200.000	-0.055	0.272
-347.450	-108.280	-0.228	-0.049
-346.435	-200.000	0.029	0.295
-345.420	685.435	-0.136	0.353
-344.406	698.786	-0.110	0.288
-343.391	44.239	-0.291	-0.265
-342.377	607.488	0.065	-0.161
-341.362	-200.000	0.019	-0.166
-340.348	303.378	-0.108	0.199
-339.333	490.513	0.079	-0.179
-338.318	166.797	-0.171	-0.240
-337.304	149.518	0.016	0.022
-336.289	561.831	0.054	0.131
-335.275	-179.774	0.430	0.009
-334.260	-61.414	-0.161	-0.067
-333.245	59.035	-0.247	-0.241
-332.231	-72.068	-0.045	0.017
-331.216	-124.837	0.185	-0.028
-330.202	-72.574	0.063	0.023
-329.187	-128.904	0.155	0.022
-328.172	535.730	0.086	-0.202
-327.158	800.000	-0.051	0.177
-326.143	-200.000	-0.003	0.142
-325.129	81.318	0.223	-0.239
-324.114	80.495	0.184	0.197
-323.099	191.115	0.110	0.164
-322.085	51.327	-0.105	0.099
-321.070	70.015	0.069	0.070
-320.056	-141.483	-0.121	0.012
-319.041	-200.000	0.094	-0.505
-318.026	-14.183	-0.284	-0.182
-317.012	545.608	0.029	0.069
-315.997	-37.632	-0.261	-0.138
-314.983	163.635	-0.052	-0.073
-313.968	-200.000	-0.010	0.091
-312.953	244.700	-0.170	-0.283
-311.939	-200.000	-0.026	-0.510
-310.924	77.973	0.190	0.201
-309.910	800.000	0.034	0.096
-308.895	389.273	-0.111	0.229
-307.880	-200.000	-0.025	0.154
-306.866	-24.194	0.013	-0.008
-305.851	89.068	-0.294	0.325
-304.837	174.898	-0.061	-0.088
-303.822	-97.874	0.315	-0.081
-302.807	-52.019	0.089	0.041
-301.793	17.801	-0.101	0.079
-300.778	283.423	0.151	-0.269
-299.764	169.302	-0.065	0.092
-298.749	44.902	0.059	-0.054
-297.735	800.000	0.036	0.105
-296.720	-200.000	0.052	0.255
-295.705	44.349	-0.044	0.040
-294.691	-200.000	0.002	0.157
-293.676	161.037	0.141	-0.195
-292.662	-200.000	0.014	0.320
-291.647	-78.661	-0.106	0.036
-290.632	71.589	-0.088	0.091
-289.618	36.315	-0.139	0.121
-288.603	-93.579	-0.300	0.082
-287.589	142.189	-0.122	0.160
-286.574	-200.000	0.008	0.368
-285.559	-102.333	-0.061	-0.014
-284.545	71.394	-0.174	-0.179
-283.530	-200.000	0.012	0.189
-282.516	21.616	-0.077	0.062
-281.501	26.596	-0.101	-0.084
-280.486	800.000	-0.082	0.229
-279.472	-112.513	-0.175	0.035
-278.457	-200.000	-0.033	-0.169
-277.443	193.563	-0.198	-0.297
-276.428	455.181	-0.050	0.110
-275.413	-73.884	0.407	0.146
-274.399	-200.000	0.006	0.039
-273.384	-200.000	-0.030	-0.247
-272.370	-84.911	-0.098	0.030
-271.355	-200.000	-0.027	-0.126
-270.340	269.220	-0.117	-0.204
-269.326	-167.586	0.118	-0.005
-268.311	35.513	-0.217	0.188
-267.297	800.000	0.048	-0.164
-266.282	-200.000	-0.003	-0.130
-265.267	667.400	0.151	0.386
-264.253	556.698	0.009	0.022
-263.238	311.979	0.125	-0.232
-262.224	14.246	-0.286	-0.221
-261.209	-200.000	0.032	-0.158
-260.195	-56.593	0.238	0.105
-259.180	-10.224	0.401	0.264
-258.165	-122.042	-0.320	-0.052
-257.151	145.099	-0.235	-0.311
-256.136	-130.213	0.490	0.066
-255.122	90.378	0.175	0.194
-254.107	231.759	-0.170	-0.276
-253.092	-96.596	0.491	-0.128
-252.078	-71.530	-0.102	0.038
-251.063	-200.000	0.049	-0.357
-250.049	-200.000	0.012	-0.057
-249.034	-200.000	-0.021	0.222
-248.019	-32.711	0.066	0.037
-247.005	509.163	-0.113	0.261
-245.990	-12.230	0.184	-0.119
-244.976	25.170	0.209	-0.172
-243.961	-86.084	0.178	-0.054
-242.946	347.061	-0.089	0.174
-241.932	171.516	0.114	0.162
-240.917	-63.188	0.349	0.142
-239.903	-98.781	-0.278	0.070
-238.888	-139.582	-0.285	0.030
-237.873	-32.184	-0.277	0.153
-236.859	-67.523	-0.280	-0.109
-235.844	45.390	0.097	0.088
-234.830	-123.386	-0.046	0.007
-233.815	800.000	0.049	-0.148
-232.800	85.740	0.115	-0.125
-231.786	-145.943	-0.085	-0.007
-230.771	-142.901	-0.264	0.025
-229.757	-200.000	-0.008	-0.151
-228.742	58.041	0.238	-0.230
-227.727	-43.822	-0.288	-0.143
-226.713	454.096	0.084	0.184
-225.698	-40.108	-0.237	0.122
-224.684	-57.901	0.148	0.064
-223.669	90.573	0.356	-0.394
-222.655	84.929	0.153	0.165
-221.640	219.083	-0.217	0.342
-220.625	-44.801	0.252	0.124
-219.611	95.630	0.074	0.084
-218.596	-120.426	-0.094	0.016
-217.582	-5.972	0.018	-0.012
-216.567	30.586	0.212	0.180
-215.552	-200.000	0.085	0.421
-214.538	119.886	-0.232	-0.285
-213.523	800.000	-0.026	0.098
-212.509	-200.000	0.039	0.219
-211.494	-69.761	-0.220	0.083
-210.479	-200.000	-0.005	0.033
-209.465	-67.175	0.358	0.140
-208.450	800.000	-0.037	0.102
-207.436	250.096	0.033	0.056
-206.421	-64.853	0.256	-0.102
-205.406	110.965	-0.291	-0.346
-204.392	-200.000	-0.020	-0.207
-203.377	-100.158	0.124	-0.030
-202.363	60.677	0.052	-0.051
-201.348	800.000	-0.069	-0.263
-200.333	-53.284	0.285	-0.129
-199.319	101.836	-0.038	0.043
-198.304	-43.618	-0.242	-0.120
-197.290	-200.000	0.012	-0.279
-196.275	-92.727	0.125	-0.035
-195.260	33.671	-0.059	0.051
-194.246	800.000	-0.013	0.047
-193.231	800.000	-0.055	-0.213
-192.217	-200.000	0.004	0.120
-191.202	-28.874	-0.059	0.034
-190.187	-95.784	0.170	-0.045
-189.173	800.000	0.111	0.350
-188.158	-149.072	-0.158	0.013
-187.144	302.868	-0.161	0.294
-186.129	-200.000	0.072	-0.322
-185.114	-132.655	0.174	0.022
-184.100	37.324	-0.297	-0.260
-183.085	800.000	0.077	0.286
-182.071	-200.000	0.005	-0.134
-181.056	-10.414	0.207	0.135
-180.042	-200.000	-0.002	0.012
-179.027	223.540	0.154	0.246
-178.012	-27.000	0.145	-0.084
-176.998	99.128	-0.151	0.172
-175.983	-200.000	0.008	0.074
-174.969	-149.101	-0.126	0.010
-173.954	-25.802	-0.319	-0.186
-172.939	-22.919	-0.179	-0.107
-171.925	191.274	0.174	-0.259
-170.910	-67.738	0.033	0.013
-169.896	-200.000	-0.004	0.063
-168.881	-135.846	-0.247	-0.029
-167.866	43.127	0.142	0.127
-166.852	-149.261	0.019	-0.001
-165.837	-61.695	-0.238	0.098
-164.823	-95.692	-0.091	0.024
-163.808	800.000	-0.093	0.292
-162.793	-200.000	-0.016	-0.082
-161.779	-200.000	-0.002	0.014
-160.764	541.918	-0.125	0.295
-159.750	-97.233	0.185	0.048
-158.735	-200.000	0.035	-0.152
-157.720	228.752	0.121	0.194
-156.706	642.884	0.122	-0.307
-155.691	-200.000	-0.012	0.128
-154.677	-200.000	-0.054	-0.302
-153.662	74.269	-0.183	0.190
-152.647	-60.519	-0.089	-0.037
-151.633	54.881	0.207	0.197
-150.618	800.000	0.026	-0.103
-149.604	-0.605	0.087	0.061
-148.589	28.265	0.125	-0.104
-147.574	-200.000	-0.011	0.230
-146.560	-13.317	-0.349	0.223
-145.545	-74.352	0.215	0.077
-144.531	-200.000	0.002	-0.122
-143.516	110.405	-0.233	-0.276
-142.502	-200.000	-0.047	-0.230
-141.487	800.000	0.066	-0.209
-140.472	-108.032	-0.322	-0.069
-139.458	18.185	0.103	0.081
-138.443	291.538	0.104	-0.186
-137.429	-13.050	-0.151	-0.097
-136.414	171.385	0.043	0.061
-135.399	30.114	0.076	0.064
-134.385	269.759	0.167	0.289
-133.370	-50.232	-0.088	0.041
-132.356	228.400	0.044	-0.071
-131.341	379.464	0.041	-0.084
-130.326	800.000	-0.021	0.076
-129.312	171.836	0.204	-0.288
-128.297	-18.769	0.227	0.139
-127.283	344.592	0.044	-0.085
-126.268	172.736	-0.099	-0.140
-125.253	-3.758	0.116	-0.079
-124.239	68.714	-0.133	0.135
-123.224	349.270	-0.201	0.391
-122.210	222.345	0.079	0.125
-121.195	288.595	0.138	0.246
