DTS Sentinel unit serial number:	SN413079Multiplexer serial number:	ORYXHardware model number:	OX4-SRSoftware version number:	ORYX F/W v4.00 Oryx Data Collector v3.7.2.0data status	okinstallation	princeton_trtdifferential loss correction	single-endedforward channel	channel 3reverse channel	N/Adate	2019/09/18time	19:48:35forward acquisition time	60.00reverse acquisition time	0.00gamma	496.2192k internal	0.2327k external	0.2327temperature offset calibration	1.0003default loss term (dB/km)	0.3790temperature slope calibration	1.0000multiplexer offset coefficient	1.0000multiplexer slope coefficient	1.0000fibre end	0.00T internal ref (°C)	31.28T ext. ref 1 (°C)	1.03T ext. ref 2 (°C)	22.03length (m)	temperature (°C)	Stokes	anti-Stokes-747.200	74.930	0.278	-0.295
-746.185	-19.861	0.256	0.159
-745.171	-130.457	-0.013	0.002
-744.156	-127.212	-0.324	-0.048
-743.142	800.000	-0.064	-0.245
-742.127	229.695	-0.066	0.108
-741.112	-200.000	-0.003	0.104
-740.098	144.159	-0.124	0.167
-739.083	38.208	-0.177	0.159
-738.069	-29.930	-0.098	0.056
-737.054	-89.239	0.247	0.074
-736.039	3.850	-0.246	0.181
-735.025	-200.000	-0.004	0.226
-734.010	-21.390	-0.257	0.158
-732.996	-132.513	-0.168	0.022
-731.981	171.679	-0.077	0.112
-730.966	-98.633	-0.365	-0.094
-729.952	-200.000	-0.045	-0.211
-728.937	364.456	-0.157	-0.319
-727.923	-34.890	-0.253	0.139
-726.908	-20.749	-0.226	0.140
-725.894	-124.710	0.278	0.043
-724.879	800.000	-0.030	-0.101
-723.864	-5.112	-0.151	-0.105
-722.850	6.048	0.103	-0.077
-721.835	18.653	0.104	-0.083
-720.821	-105.127	0.218	-0.050
-719.806	-40.552	-0.226	-0.118
-718.791	44.125	0.141	-0.131
-717.777	-49.096	0.104	0.050
-716.762	-130.908	-0.235	-0.032
-715.748	-200.000	-0.053	-0.313
-714.733	-66.510	-0.096	-0.038
-713.718	57.920	-0.180	-0.177
-712.704	-200.000	-0.051	-0.284
-711.689	-160.778	0.382	0.020
-710.675	-8.552	0.045	-0.030
-709.660	-120.689	0.314	-0.053
-708.645	-105.491	0.228	-0.052
-707.631	11.184	-0.240	-0.185
-706.616	-200.000	0.023	-0.143
-705.602	800.000	0.011	0.033
-704.587	-200.000	0.022	-0.181
-703.572	-200.000	-0.073	-0.394
-702.558	800.000	0.081	-0.329
-701.543	-161.822	0.135	-0.007
-700.529	-15.476	-0.167	-0.107
-699.514	-200.000	-0.070	-0.509
-698.499	-200.000	0.001	-0.071
-697.485	170.959	0.263	-0.379
-696.470	792.886	-0.051	0.142
-695.456	119.540	-0.071	0.088
-694.441	227.187	0.216	-0.354
-693.426	-200.000	-0.065	-0.364
-692.412	-24.650	0.132	0.079
-691.397	126.913	-0.106	-0.136
-690.383	-13.186	0.261	0.171
-689.368	99.759	-0.259	-0.302
-688.354	158.494	-0.064	-0.089
-687.339	-200.000	-0.021	0.241
-686.324	6.973	-0.168	0.126
-685.310	-125.904	-0.213	0.032
-684.295	253.317	-0.123	0.211
-683.281	800.000	0.077	-0.226
-682.266	-166.646	-0.315	0.013
-681.251	-58.857	0.343	0.149
-680.237	31.169	-0.168	0.145
-679.222	173.803	-0.129	-0.187
-678.208	-105.763	0.399	-0.091
-677.193	-62.737	-0.219	0.091
-676.178	91.925	0.057	0.065
-675.164	5.407	-0.136	0.101
-674.149	84.291	-0.099	-0.109
-673.135	161.959	-0.193	-0.272
-672.120	308.722	-0.060	-0.113
-671.105	263.716	0.041	-0.072
-670.091	-60.464	-0.343	0.147
-669.076	-89.325	0.148	0.044
-668.062	345.166	-0.065	0.128
-667.047	-65.625	-0.273	0.110
-666.032	-18.818	-0.152	-0.095
-665.018	37.559	0.275	0.245
-664.003	6.408	-0.114	-0.085
-662.989	530.548	0.108	-0.256
-661.974	-1.789	-0.145	-0.103
-660.959	-157.634	-0.325	0.019
-659.945	738.226	0.027	0.074
-658.930	-200.000	0.008	0.170
-657.916	800.000	-0.067	0.256
-656.901	36.129	-0.149	0.132
-655.886	-200.000	-0.003	0.043
-654.872	-134.695	0.174	-0.021
-653.857	7.903	-0.116	-0.087
-652.843	-50.030	0.137	-0.065
-651.828	-200.000	-0.051	0.299
-650.814	118.740	-0.025	0.031
-649.799	529.388	0.124	-0.294
-648.784	84.517	0.104	-0.114
-647.770	-200.000	-0.006	0.045
-646.755	6.351	0.161	0.120
-645.741	800.000	-0.026	0.111
-644.726	-200.000	0.003	-0.250
-643.711	-76.132	-0.245	0.087
-642.697	-146.721	0.218	-0.019
-641.682	33.676	0.239	0.209
-640.668	800.000	0.107	-0.311
-639.653	116.414	-0.064	-0.079
-638.638	70.929	-0.298	-0.310
-637.624	595.932	0.080	-0.199
-636.609	-200.000	0.017	0.409
-635.595	-29.676	-0.308	-0.176
-634.580	-200.000	-0.014	-0.097
-633.565	-200.000	-0.028	0.130
-632.551	-200.000	-0.017	-0.107
-631.536	5.922	-0.353	-0.263
-630.522	42.718	0.016	-0.015
-629.507	116.148	-0.204	-0.251
-628.492	800.000	-0.051	0.150
-627.478	462.205	0.111	0.249
-626.463	-90.273	-0.225	0.066
-625.449	-200.000	0.054	-0.309
-624.434	766.632	-0.091	-0.248
-623.419	-23.366	0.212	-0.128
-622.405	800.000	-0.049	0.161
-621.390	-81.699	0.022	0.007
-620.376	800.000	0.033	0.130
-619.361	-38.474	0.132	-0.070
-618.346	-6.951	-0.176	0.120
-617.332	-73.815	0.162	-0.059
-616.317	463.687	-0.219	0.490
-615.303	147.607	0.068	0.092
-614.288	-123.081	0.340	-0.055
-613.273	19.186	-0.250	0.202
-612.259	-75.263	-0.086	-0.031
-611.244	29.079	0.113	0.096
-610.230	800.000	0.053	0.180
-609.215	-82.639	-0.054	-0.018
-608.201	60.167	0.120	0.119
-607.186	205.704	-0.267	0.416
-606.171	265.546	-0.269	0.471
-605.157	-200.000	0.023	-0.167
-604.142	-200.000	-0.005	-0.122
-603.128	-37.513	-0.392	0.210
-602.113	79.077	0.091	-0.098
-601.098	-93.353	0.073	-0.020
-600.084	-200.000	0.017	-0.357
-599.069	370.093	0.032	0.065
-598.055	0.268	0.170	0.122
-597.040	11.938	-0.168	0.129
-596.025	-147.371	0.173	0.015
-595.011	800.000	-0.110	0.316
-593.996	-26.071	0.085	-0.050
-592.982	-114.299	0.273	-0.053
-591.967	-200.000	-0.005	0.258
-590.952	-200.000	0.030	0.176
-589.938	-5.179	0.061	0.042
-588.923	30.769	-0.145	0.125
-587.909	800.000	0.025	-0.103
-586.894	570.042	0.140	-0.341
-585.879	185.128	-0.119	0.177
-584.865	-84.709	0.150	-0.047
-583.850	-101.962	-0.409	-0.099
-582.836	191.865	-0.025	0.038
-581.821	386.981	0.195	-0.404
-580.806	-147.178	-0.373	0.032
-579.792	27.306	0.110	-0.093
-578.777	32.033	-0.107	0.092
-577.763	-45.321	-0.240	0.119
-576.748	-117.270	-0.406	0.074
-575.733	800.000	-0.115	-0.326
-574.719	239.715	-0.032	-0.053
-573.704	-41.732	-0.093	0.048
-572.690	800.000	0.044	0.161
-571.675	678.227	0.065	0.170
-570.661	800.000	-0.011	0.032
-569.646	-51.958	0.207	0.097
-568.631	167.751	-0.058	0.083
-567.617	-65.157	-0.103	0.041
-566.602	-200.000	-0.018	0.451
-565.588	-200.000	0.170	-0.000
-564.573	-133.533	-0.368	0.046
-563.558	17.376	0.078	-0.062
-562.544	-41.845	-0.318	-0.163
-561.529	284.030	0.134	-0.241
-560.515	83.172	-0.224	-0.244
-559.500	127.923	-0.042	-0.054
-558.485	800.000	-0.116	-0.387
-557.471	34.031	0.109	0.095
-556.456	-177.396	-0.423	-0.010
-555.442	118.756	0.027	0.034
-554.427	417.229	0.153	0.327
-553.412	652.425	-0.038	-0.098
-552.398	379.495	-0.107	-0.220
-551.383	-125.773	0.087	-0.013
-550.369	-200.000	0.000	-0.069
-549.354	-155.498	0.284	-0.018
-548.339	-165.770	0.040	0.002
-547.325	-200.000	0.007	-0.308
-546.310	-92.625	-0.033	0.009
-545.296	800.000	-0.053	-0.184
-544.281	-142.923	-0.239	0.023
-543.266	-200.000	0.000	-0.007
-542.252	-73.085	0.117	-0.043
-541.237	-129.282	-0.215	-0.030
-540.223	-200.000	0.079	0.350
-539.208	-41.721	0.111	-0.057
-538.193	-63.763	0.092	-0.038
-537.179	-51.292	0.027	-0.013
-536.164	-95.660	0.448	0.120
-535.150	-65.145	0.162	-0.065
-534.135	69.088	-0.083	0.086
-533.121	72.025	-0.202	0.210
-532.106	-134.546	0.213	0.026
-531.091	-118.112	-0.153	-0.027
-530.077	102.254	-0.116	0.136
-529.062	278.412	-0.048	0.085
-528.048	-197.942	0.167	0.001
-527.033	-175.881	-0.208	0.006
-526.018	800.000	-0.076	-0.248
-525.004	667.581	0.090	0.233
-523.989	-148.311	0.091	-0.007
-522.975	-200.000	0.005	-0.563
-521.960	-19.602	0.159	-0.098
-520.945	394.067	0.131	0.272
-519.931	281.072	-0.029	-0.051
-518.916	66.630	-0.194	-0.197
-517.902	207.338	0.105	-0.163
-516.887	124.667	-0.131	0.165
-515.872	-98.700	-0.063	0.016
-514.858	-98.175	0.034	0.009
-513.843	36.187	0.209	-0.184
-512.829	94.818	-0.095	-0.108
-511.814	218.026	-0.024	-0.038
-510.799	-200.000	0.019	0.129
-509.785	-200.000	0.025	0.324
-508.770	-76.179	0.087	-0.031
-507.756	-85.468	-0.091	0.028
-506.741	17.351	-0.168	0.133
-505.726	-106.630	0.356	-0.079
-504.712	-200.000	0.047	-0.354
-503.697	366.668	0.178	-0.359
-502.683	446.782	0.094	0.206
-501.668	-75.774	0.273	0.097
-500.653	-200.000	-0.013	-0.315
-499.639	-15.168	-0.163	-0.104
-498.624	103.413	0.099	0.116
-497.610	-200.000	0.070	-0.317
-496.595	461.463	-0.054	-0.119
-495.581	124.202	-0.096	-0.121
-494.566	-23.710	-0.144	-0.086
-493.551	-39.928	0.195	-0.102
-492.537	800.000	0.161	-0.483
-491.522	-44.189	-0.133	-0.067
-490.508	130.011	-0.204	0.261
-489.493	-157.288	0.362	-0.022
-488.478	-52.582	-0.148	-0.068
-487.464	33.009	-0.101	0.088
-486.449	144.433	-0.166	-0.221
-485.435	-131.224	-0.319	-0.042
-484.420	116.439	0.096	0.117
-483.405	-157.327	0.099	-0.006
-482.391	-200.000	0.120	0.608
-481.376	-158.102	0.213	-0.012
-480.362	-73.027	-0.132	-0.048
-479.347	720.095	0.092	-0.244
-478.332	695.914	0.042	0.110
-477.318	568.796	-0.141	0.342
-476.303	219.038	0.112	0.178
-475.289	73.215	0.131	-0.136
-474.274	532.417	0.061	-0.144
-473.259	13.591	0.172	-0.133
-472.245	-31.848	-0.264	-0.148
-471.230	-58.695	0.083	0.036
-470.216	-103.192	0.227	0.053
-469.201	197.846	-0.060	0.091
-468.186	91.192	-0.167	-0.187
-467.172	-64.234	-0.275	0.112
-466.157	171.208	-0.118	-0.169
-465.143	29.638	-0.011	-0.009
-464.128	-57.264	0.187	-0.082
-463.113	-55.264	-0.439	0.197
-462.099	30.391	0.092	-0.078
-461.084	-132.599	0.293	-0.038
-460.070	401.254	0.125	-0.261
-459.055	122.900	0.214	0.268
-458.040	-200.000	0.025	-0.144
-457.026	-35.304	0.269	0.146
-456.011	268.995	-0.216	0.378
-454.997	268.367	-0.134	-0.233
-453.982	-50.815	0.069	-0.032
-452.968	77.413	0.133	-0.141
-451.953	26.946	0.230	0.192
-450.938	800.000	-0.045	0.141
-449.924	800.000	0.068	0.214
-448.909	-200.000	0.005	-0.053
-447.895	800.000	-0.074	0.283
-446.880	-134.540	0.255	-0.031
-445.865	10.497	0.273	0.207
-444.851	-48.193	0.115	-0.055
-443.836	186.654	-0.072	-0.106
-442.822	-178.233	0.220	0.005
-441.807	-183.664	0.258	-0.004
-440.792	13.105	0.217	0.168
-439.778	-71.220	0.378	-0.141
-438.763	-200.000	0.035	0.238
-437.749	800.000	0.068	-0.187
-436.734	332.898	0.190	0.366
-435.719	-103.875	0.197	-0.046
-434.705	-15.894	-0.090	-0.057
-433.690	346.189	0.042	-0.081
-432.676	314.401	0.145	0.271
-431.661	125.920	-0.146	-0.184
-430.646	-200.000	0.003	-0.331
-429.632	370.827	-0.204	-0.413
-428.617	800.000	0.087	0.271
-427.603	260.786	-0.118	0.204
-426.588	-118.576	-0.304	0.053
-425.573	506.567	-0.098	0.227
-424.559	-88.797	0.238	-0.070
-423.544	-61.998	-0.334	0.139
-422.530	800.000	0.072	0.211
-421.515	-200.000	0.019	0.140
-420.500	530.894	-0.074	0.175
-419.486	800.000	-0.038	0.109
-418.471	-138.989	0.160	0.017
-417.457	-117.381	0.189	0.034
-416.442	-178.375	0.299	0.007
-415.428	582.889	-0.091	0.221
-414.413	-127.289	-0.107	0.016
-413.398	800.000	-0.009	-0.037
-412.384	-163.801	-0.061	-0.003
-411.369	-187.511	0.175	-0.002
-410.355	80.901	-0.128	0.138
-409.340	417.877	-0.112	0.238
-408.325	-149.426	-0.237	-0.019
-407.311	800.000	-0.085	-0.282
-406.296	142.553	0.104	0.137
-405.282	800.000	0.032	0.138
-404.267	-34.107	-0.100	-0.055
-403.252	64.364	0.246	-0.247
-402.238	124.406	-0.324	0.406
-401.223	-200.000	-0.037	-0.271
-400.209	413.510	0.239	-0.506
-399.194	-200.000	-0.018	-0.158
-398.179	192.414	0.146	0.219
-397.165	335.866	0.166	0.321
-396.150	-200.000	-0.056	-0.280
-395.136	175.943	-0.074	-0.107
-394.121	11.691	0.059	-0.045
-393.106	800.000	-0.042	0.161
-392.092	800.000	-0.124	0.401
-391.077	8.196	0.046	0.034
-390.063	-38.854	-0.159	-0.083
-389.048	-65.310	0.205	0.082
-388.033	51.408	-0.129	0.122
-387.019	-104.017	0.218	0.051
-386.004	447.959	-0.073	0.159
-384.990	-168.719	0.135	0.005
-383.975	-138.498	0.207	-0.023
-382.960	37.924	-0.163	0.144
-381.946	176.552	-0.137	-0.198
-380.931	-200.000	0.062	0.297
-379.917	23.912	0.166	-0.136
-378.902	227.930	-0.086	0.138
-377.888	-125.560	-0.282	-0.043
-376.873	-7.108	0.279	0.188
-375.858	-61.074	-0.363	-0.152
-374.844	355.486	-0.021	-0.042
-373.829	-200.000	-0.103	-0.456
-372.815	-19.595	0.262	-0.161
-371.800	-27.935	-0.073	0.042
-370.785	378.721	0.050	-0.103
-369.771	-35.697	0.170	0.091
-368.756	-129.725	0.143	0.020
-367.742	139.813	-0.155	0.203
-366.727	46.694	0.097	-0.089
-365.712	466.528	-0.055	-0.122
-364.698	-45.575	-0.229	0.112
-363.683	-152.668	-0.148	0.010
-362.669	137.043	0.128	-0.166
-361.654	-149.752	-0.292	0.023
-360.639	-1.203	-0.135	-0.095
-359.625	531.735	-0.092	-0.216
-358.610	-120.836	0.058	-0.010
-357.596	-152.529	0.151	-0.011
-356.581	-103.637	0.069	0.016
-355.566	197.341	-0.055	-0.083
-354.552	-31.612	0.065	-0.036
-353.537	347.438	0.117	-0.228
-352.523	233.528	0.155	-0.253
-351.508	467.405	-0.039	-0.086
-350.493	-86.441	0.016	0.005
-349.479	173.642	-0.185	-0.265
-348.464	-200.000	0.073	-0.355
-347.450	-20.127	0.293	0.179
-346.435	800.000	0.076	0.251
-345.420	18.472	-0.155	-0.123
-344.406	800.000	0.031	-0.094
-343.391	79.925	-0.168	0.180
-342.377	-17.295	-0.075	0.047
-341.362	236.940	-0.099	-0.162
-340.348	57.133	0.289	-0.280
-339.333	-149.606	0.174	0.014
-338.318	433.718	0.084	-0.180
-337.304	-179.438	0.175	0.004
-336.289	49.531	-0.125	-0.116
-335.275	751.343	0.110	-0.295
-334.260	281.673	-0.198	-0.351
-333.245	-84.945	-0.251	0.078
-332.231	-41.246	0.125	0.064
-331.216	80.142	-0.208	-0.222
-330.202	800.000	-0.026	0.099
-329.187	150.687	-0.121	0.164
-328.172	-200.000	0.020	-0.136
-327.158	110.901	0.085	0.102
-326.143	3.214	-0.155	0.112
-325.129	-17.881	0.130	0.081
-324.114	800.000	-0.046	0.171
-323.099	-66.048	-0.166	0.066
-322.085	235.228	0.019	-0.032
-321.070	-150.888	-0.027	0.002
-320.056	91.220	0.160	0.178
-319.041	-123.052	-0.193	-0.031
-318.026	58.041	0.148	0.143
-317.012	65.188	-0.173	0.173
-315.997	-200.000	0.008	0.119
-314.983	142.539	-0.087	-0.115
-313.968	-121.128	0.124	0.021
-312.953	-177.389	-0.308	0.008
-311.939	631.365	0.029	-0.073
-310.924	-93.445	0.234	-0.064
-309.910	8.974	-0.282	-0.211
-308.895	-145.961	0.217	-0.019
-307.880	129.552	-0.325	-0.411
-306.866	-200.000	0.031	-0.281
-305.851	-20.299	0.177	-0.108
-304.837	-132.169	-0.305	0.039
-303.822	29.292	0.154	0.130
-302.807	468.317	-0.027	0.060
-301.793	-135.465	0.179	-0.021
-300.778	-93.457	0.184	-0.050
-299.764	-54.858	-0.221	-0.099
-298.749	58.102	-0.158	0.154
-297.735	-200.000	0.006	0.188
-296.720	800.000	0.060	-0.172
-295.705	-85.721	0.159	-0.049
-294.691	177.600	0.127	-0.183
-293.676	-32.829	0.035	-0.020
-292.662	-200.000	-0.489	-0.001
-291.647	168.290	-0.176	-0.248
-290.632	568.125	0.171	-0.410
-289.618	-147.762	-0.371	0.031
-288.603	388.001	0.158	-0.325
-287.589	93.638	-0.123	-0.138
-286.574	339.006	-0.214	-0.412
-285.559	-89.159	-0.145	-0.043
-284.545	-200.000	0.021	0.167
-283.530	-97.437	0.231	0.060
-282.516	244.215	0.137	0.228
-281.501	75.809	-0.323	0.338
-280.486	-132.053	0.509	0.066
-279.472	345.255	-0.095	0.185
-278.457	-200.000	0.001	0.119
-277.443	93.149	0.150	-0.168
-276.428	260.629	0.140	-0.240
-275.413	-85.320	-0.185	-0.057
-274.399	113.459	0.359	-0.431
-273.384	-200.000	-0.033	-0.342
-272.370	-154.186	0.215	-0.014
-271.355	-122.694	0.278	0.045
-270.340	39.140	0.173	-0.153
-269.326	-140.072	-0.187	0.019
-268.311	-200.000	0.051	0.289
-267.297	-200.000	-0.034	0.217
-266.282	-15.739	-0.073	0.046
-265.267	800.000	0.086	0.271
-264.253	723.277	0.072	-0.190
-263.238	-200.000	-0.034	0.178
-262.224	602.184	-0.054	-0.133
-261.209	-139.559	0.429	-0.045
-260.195	-1.270	0.268	0.187
-259.180	-155.789	0.332	-0.021
-258.165	-200.000	0.041	0.274
-257.151	-26.505	-0.281	-0.163
-256.136	800.000	-0.036	0.127
-255.122	43.936	0.256	-0.232
-254.107	-200.000	0.034	0.200
-253.092	-200.000	0.017	0.203
-252.078	-29.984	-0.314	0.177
-251.063	5.609	-0.097	-0.071
-250.049	461.076	-0.174	0.383
-249.034	46.720	0.379	-0.348
-248.019	800.000	0.063	-0.186
-247.005	-141.020	-0.374	0.038
-245.990	175.516	0.121	-0.174
-244.976	-71.840	-0.338	-0.124
-243.961	204.118	-0.038	0.059
-242.946	101.541	-0.138	0.159
-241.932	-200.000	0.013	0.180
-240.917	154.563	0.127	0.172
-239.903	-200.000	-0.031	-0.222
-238.888	83.390	0.085	0.092
-237.873	137.311	0.064	-0.083
-236.859	304.181	0.146	0.268
-235.844	-92.425	0.124	0.035
-234.830	-109.354	-0.369	-0.077
-233.815	379.489	0.125	0.253
-232.800	184.577	0.301	0.440
-231.786	402.095	-0.130	-0.270
-230.771	4.767	-0.121	0.088
-229.757	-95.471	0.190	0.050
-228.742	-129.795	-0.475	0.065
-227.727	-54.242	-0.344	0.154
-226.713	800.000	-0.120	0.447
-225.698	-200.000	-0.003	-0.124
-224.684	-200.000	-0.005	-0.172
-223.669	350.109	-0.004	0.008
-222.655	-60.388	-0.274	0.115
-221.640	-86.406	0.329	0.100
-220.625	-62.432	-0.155	-0.064
-219.611	48.149	0.135	0.125
-218.596	-159.018	-0.430	0.024
-217.582	-99.671	0.164	-0.041
-216.567	42.947	0.303	-0.273
-215.552	63.838	-0.173	-0.172
-214.538	137.521	-0.441	0.570
-213.523	33.784	0.313	0.269
-212.509	-5.794	0.164	0.111
-211.494	-144.063	0.212	-0.020
-210.479	-200.000	0.236	-0.001
-209.465	-74.927	0.202	0.071
-208.450	-200.000	0.032	0.237
-207.436	188.564	-0.178	-0.263
-206.421	22.456	0.159	0.128
-205.406	-141.382	0.262	0.026
-204.392	-74.767	-0.407	0.144
-203.377	-93.294	-0.029	-0.008
-202.363	-200.000	-0.001	0.036
-201.348	-23.807	-0.123	-0.073
-200.333	-200.000	0.010	-0.283
-199.319	-67.590	-0.098	0.038
-198.304	-97.568	-0.165	0.042
-197.290	16.619	-0.152	0.119
-196.275	-200.000	-0.055	-0.249
-195.260	58.606	-0.047	-0.045
-194.246	-147.265	0.135	-0.011
-193.231	-200.000	-0.025	-0.224
-192.217	-115.564	0.168	0.031
-191.202	180.367	-0.175	-0.253
-190.187	7.415	-0.189	-0.139
-189.173	-200.000	0.041	0.334
-188.158	800.000	0.012	0.040
-187.144	-200.000	-0.013	0.086
-186.129	8.216	0.251	0.186
-185.114	-35.279	0.298	0.160
-184.100	-200.000	-0.021	0.301
-183.085	83.372	-0.065	0.070
-182.071	-116.486	-0.232	-0.042
-181.056	800.000	-0.015	0.048
-180.042	-115.333	0.082	-0.015
-179.027	800.000	0.067	-0.259
-178.012	-116.201	-0.358	0.066
-176.998	-89.363	-0.455	-0.132
-175.983	-200.000	0.017	-0.149
-174.969	-200.000	0.026	0.387
-173.954	-200.000	-0.006	0.179
-172.939	23.923	-0.206	-0.167
-171.925	-80.620	0.049	0.016
-170.910	800.000	0.064	-0.257
-169.896	594.895	0.031	-0.075
-168.881	0.287	-0.234	-0.165
-167.866	-200.000	-0.006	-0.231
-166.852	-133.919	0.118	-0.014
-165.837	129.477	0.139	0.174
-164.823	291.556	-0.097	0.173
-163.808	75.033	-0.129	0.134
-162.793	49.035	-0.164	0.152
-161.779	-200.000	-0.015	0.082
-160.764	-101.260	0.068	-0.016
-159.750	-200.000	-0.099	-0.432
-158.735	101.020	0.243	0.278
-157.720	-200.000	-0.017	-0.262
-156.706	-56.232	0.293	0.128
-155.691	-107.965	-0.202	0.043
-154.677	261.920	0.026	0.044
-153.662	8.693	0.253	-0.188
-152.647	40.262	0.184	0.163
-151.633	-200.000	0.040	0.322
-150.618	142.226	0.109	0.142
-149.604	800.000	0.054	-0.188
-148.589	39.847	0.130	-0.115
-147.574	36.616	0.055	0.048
-146.560	-31.518	-0.172	0.095
-145.545	93.202	-0.166	0.185
-144.531	770.520	0.003	-0.007
-143.516	-167.092	-0.260	0.010
-142.502	-72.135	0.121	-0.044
-141.487	-200.000	-0.018	0.229
-140.472	-117.939	-0.194	0.034
-139.458	-143.860	-0.135	-0.013
-138.443	-131.291	0.106	0.014
-137.429	12.916	0.210	-0.160
-136.414	-200.000	-0.010	0.290
-135.399	-40.963	0.248	-0.126
-134.385	574.023	0.048	-0.115
-133.370	23.664	0.198	0.160
-132.356	55.228	-0.290	0.276
-131.341	161.533	-0.230	0.316
-130.326	142.375	-0.139	0.181
-129.312	3.654	-0.076	-0.055
-128.297	26.806	-0.142	0.117
-127.283	-200.000	0.045	0.210
-126.268	-83.831	0.349	-0.109
-125.253	-3.329	-0.108	0.074
-124.239	-200.000	-0.004	0.249
-123.224	-156.053	-0.249	0.015
-122.210	210.662	0.117	0.180
-121.195	-101.230	0.299	0.072
