DTS Sentinel unit serial number:	SN413079Multiplexer serial number:	ORYXHardware model number:	OX4-SRSoftware version number:	ORYX F/W v4.00 Oryx Data Collector v3.7.2.0data status	okinstallation	princeton_trtdifferential loss correction	single-endedforward channel	channel 3reverse channel	N/Adate	2019/09/11time	04:42:11forward acquisition time	60.00reverse acquisition time	0.00gamma	496.2192k internal	0.2330k external	0.2330temperature offset calibration	0.9910default loss term (dB/km)	0.3790temperature slope calibration	1.0000multiplexer offset coefficient	1.0000multiplexer slope coefficient	1.0000fibre end	0.00T internal ref (°C)	29.50T ext. ref 1 (°C)	-0.27T ext. ref 2 (°C)	23.46length (m)	temperature (°C)	Stokes	anti-Stokes-747.200	800.000	-0.145	0.494
-746.185	-134.964	0.267	-0.032
-745.171	-200.000	-0.005	-0.271
-744.156	-200.000	0.179	-0.001
-743.142	61.028	0.133	0.133
-742.127	-61.025	-0.287	0.122
-741.112	273.475	-0.178	-0.317
-740.098	-38.752	0.096	-0.051
-739.083	514.152	-0.068	-0.159
-738.069	-200.000	0.019	0.240
-737.054	800.000	0.074	-0.228
-736.039	-37.287	-0.207	-0.111
-735.025	16.828	0.303	-0.242
-734.010	-104.557	-0.144	0.034
-732.996	77.665	-0.129	-0.139
-731.981	-200.000	-0.019	-0.168
-730.966	256.912	0.085	0.148
-729.952	-152.540	0.079	0.006
-728.937	0.533	-0.277	-0.199
-727.923	-118.432	-0.232	-0.041
-726.908	-9.609	-0.113	0.076
-725.894	41.080	0.107	-0.097
-724.879	800.000	-0.080	-0.275
-723.864	800.000	0.041	0.160
-722.850	-69.765	0.188	-0.072
-721.835	182.014	0.125	-0.185
-720.821	-6.634	0.116	-0.079
-719.806	800.000	0.079	-0.235
-718.791	-125.045	-0.307	-0.048
-717.777	-200.000	0.017	-0.459
-716.762	-87.703	-0.096	0.029
-715.748	175.652	-0.020	0.029
-714.733	281.466	0.081	0.146
-713.718	-64.516	-0.080	-0.033
-712.704	105.031	-0.201	0.239
-711.689	2.612	-0.236	-0.172
-710.675	600.236	0.109	-0.271
-709.660	137.341	-0.098	-0.129
-708.645	21.701	-0.308	-0.252
-707.631	-121.214	-0.150	0.025
-706.616	-89.423	0.153	0.045
-705.602	390.741	0.156	-0.326
-704.587	800.000	0.022	0.078
-703.572	96.638	0.196	-0.225
-702.558	-200.000	0.014	-0.094
-701.543	800.000	0.086	0.303
-700.529	299.410	-0.052	-0.096
-699.514	209.284	-0.115	-0.182
-698.499	-102.743	-0.183	0.044
-697.485	-33.367	-0.558	-0.310
-696.470	60.450	-0.363	-0.362
-695.456	122.070	0.198	0.248
-694.441	236.101	-0.223	0.370
-693.426	-71.055	-0.224	0.085
-692.412	-49.214	0.125	-0.060
-691.397	-22.472	0.300	-0.182
-690.383	470.692	0.085	0.193
-689.368	800.000	0.061	0.185
-688.354	-58.945	-0.258	-0.112
-687.339	-38.867	-0.149	0.079
-686.324	26.209	-0.208	-0.175
-685.310	589.147	0.094	0.233
-684.295	166.410	-0.151	0.215
-683.281	-148.656	-0.109	0.009
-682.266	-200.000	-0.012	-0.192
-681.251	19.394	-0.313	-0.252
-680.237	149.712	0.130	0.177
-679.222	-31.989	0.084	-0.047
-678.208	-55.279	-0.183	0.083
-677.193	98.966	0.239	-0.277
-676.178	625.739	-0.073	-0.185
-675.164	-185.877	0.355	-0.005
-674.149	-1.444	-0.066	0.047
-673.135	800.000	-0.021	-0.087
-672.120	-200.000	0.021	0.223
-671.105	87.541	0.107	0.119
-670.091	486.551	-0.174	0.398
-669.076	-5.420	-0.145	-0.100
-668.062	412.654	-0.029	0.062
-667.047	199.366	0.080	0.123
-666.032	226.282	-0.182	-0.296
-665.018	-200.000	-0.009	-0.090
-664.003	-200.000	0.028	-0.192
-662.989	214.261	0.151	0.240
-661.974	88.171	0.059	0.066
-660.959	125.554	-0.072	0.091
-659.945	118.680	0.158	0.196
-658.930	-114.833	0.081	-0.016
-657.916	-76.710	-0.198	0.069
-656.901	-200.000	0.028	-0.171
-655.886	-137.112	0.164	-0.019
-654.872	-84.720	0.150	-0.047
-653.857	8.700	0.155	-0.118
-652.843	-112.378	-0.225	0.045
-651.828	56.013	-0.304	-0.296
-650.814	-200.000	0.090	-0.407
-649.799	67.521	0.294	-0.301
-648.784	216.952	-0.126	-0.200
-647.770	316.737	-0.094	-0.177
-646.755	171.171	0.135	-0.194
-645.741	168.319	-0.212	-0.303
-644.726	70.668	-0.152	0.158
-643.711	13.670	0.189	0.147
-642.697	670.424	-0.050	-0.129
-641.682	800.000	-0.084	0.359
-640.668	35.474	0.062	0.055
-639.653	42.853	0.144	-0.132
-638.638	-1.448	-0.147	-0.104
-637.624	800.000	-0.027	-0.077
-636.609	62.001	-0.085	0.085
-635.595	-113.927	-0.125	0.024
-634.580	125.994	-0.111	0.140
-633.565	-63.297	-0.393	-0.162
-632.551	38.028	0.300	0.267
-631.536	-200.000	-0.026	0.155
-630.522	-200.000	0.003	0.020
-629.507	-45.353	0.124	-0.062
-628.492	61.229	-0.200	-0.199
-627.478	800.000	0.096	0.382
-626.463	-37.481	0.258	0.138
-625.449	-98.358	-0.454	0.117
-624.434	-156.161	-0.098	-0.006
-623.419	-29.443	-0.177	0.101
-622.405	-200.000	-0.022	-0.102
-621.390	91.237	-0.130	-0.146
-620.376	269.768	-0.049	-0.086
-619.361	-176.339	-0.214	0.006
-618.346	38.967	0.318	0.285
-617.332	374.149	0.221	-0.451
-616.317	435.443	-0.155	-0.339
-615.303	-16.448	0.122	0.077
-614.288	401.428	-0.051	-0.108
-613.273	-200.000	-0.013	0.174
-612.259	83.664	-0.057	-0.062
-611.244	8.885	-0.217	0.164
-610.230	267.042	-0.058	0.102
-609.215	-109.697	0.151	0.032
-608.201	-88.516	0.162	0.048
-607.186	-113.504	-0.022	-0.004
-606.171	-177.344	-0.245	-0.006
-605.157	800.000	-0.098	0.367
-604.142	800.000	-0.083	0.305
-603.128	-22.316	-0.124	-0.075
-602.113	-112.112	-0.034	0.007
-601.098	2.683	-0.071	-0.051
-600.084	26.160	-0.136	-0.114
-599.069	-126.793	-0.187	0.028
-598.055	-103.770	-0.165	0.039
-597.040	226.668	0.232	0.378
-596.025	-111.553	0.228	0.046
-595.011	-60.801	-0.165	0.070
-593.996	-200.000	-0.007	-0.074
-592.982	219.454	-0.013	-0.022
-591.967	-45.190	0.252	0.125
-590.952	-117.720	0.230	-0.041
-589.938	137.226	0.180	-0.235
-588.923	-200.000	0.017	-0.144
-587.909	-200.000	-0.001	0.126
-586.894	800.000	0.064	-0.179
-585.879	87.163	-0.117	0.129
-584.865	-200.000	-0.011	-0.134
-583.850	-102.130	0.100	0.024
-582.836	-113.770	-0.357	-0.070
-581.821	-30.931	-0.166	-0.094
-580.806	-6.446	-0.118	-0.080
-579.792	-153.623	-0.364	0.025
-578.777	248.350	0.173	-0.293
-577.763	13.666	-0.053	-0.041
-576.748	69.406	0.146	-0.150
-575.733	-200.000	0.028	0.188
-574.719	800.000	-0.041	0.178
-573.704	248.838	-0.073	0.124
-572.690	-116.775	0.176	0.032
-571.675	132.155	-0.068	0.088
-570.661	-163.212	-0.258	0.012
-569.646	-73.953	-0.049	0.018
-568.631	24.857	0.236	-0.196
-567.617	41.836	-0.202	0.183
-566.602	13.996	-0.161	-0.125
-565.588	383.575	-0.116	0.238
-564.573	257.824	-0.155	-0.267
-563.558	103.326	0.095	-0.111
-562.544	96.314	0.055	-0.063
-561.529	165.072	-0.097	-0.137
-560.515	-167.897	0.243	-0.010
-559.500	89.151	-0.223	0.249
-558.485	262.900	0.169	-0.294
-557.471	57.204	0.079	0.077
-556.456	800.000	0.073	0.238
-555.442	-22.660	-0.187	0.113
-554.427	330.800	0.047	0.091
-553.412	184.995	-0.122	-0.181
-552.398	-103.132	-0.160	0.038
-551.383	-200.000	0.014	-0.173
-550.369	-31.119	0.151	-0.085
-549.354	-153.318	0.366	-0.025
-548.339	-155.304	-0.295	-0.019
-547.325	-200.000	-0.051	0.237
-546.310	-67.451	-0.189	0.074
-545.296	-71.883	-0.038	-0.014
-544.281	4.665	-0.306	-0.224
-543.266	-144.488	-0.336	-0.031
-542.252	-26.349	-0.187	-0.109
-541.237	-101.230	0.097	-0.024
-540.223	-29.669	0.131	0.075
-539.208	275.024	-0.030	-0.054
-538.193	16.686	0.100	-0.079
-537.179	-181.553	-0.372	-0.007
-536.164	-99.815	-0.083	0.021
-535.150	408.651	-0.022	0.047
-534.135	-15.975	0.240	0.152
-533.121	-165.897	0.172	-0.007
-532.106	800.000	0.019	0.065
-531.091	-169.920	-0.432	0.015
-530.077	-67.770	-0.106	-0.041
-529.062	271.973	-0.175	0.308
-528.048	-114.931	-0.420	-0.080
-527.033	-200.000	-0.003	-0.127
-526.018	73.235	0.092	0.096
-525.004	226.994	0.124	0.201
-523.989	146.967	0.157	0.211
-522.975	-111.305	0.042	-0.009
-521.960	800.000	0.054	-0.198
-520.945	800.000	0.026	-0.078
-519.931	-123.876	-0.280	-0.044
-518.916	-73.683	-0.257	0.093
-517.902	-200.000	0.052	0.446
-516.887	24.590	-0.154	0.128
-515.872	-75.629	-0.134	-0.047
-514.858	800.000	-0.132	-0.382
-513.843	-72.972	0.469	-0.172
-512.829	-200.000	0.001	-0.286
-511.814	-83.557	0.269	-0.086
-510.799	-147.124	0.416	0.035
-509.785	481.428	-0.132	0.300
-508.770	-115.408	-0.136	-0.026
-507.756	-17.276	0.114	0.071
-506.741	668.083	0.161	0.416
-505.726	-200.000	0.066	-0.308
-504.712	26.430	-0.133	0.111
-503.697	727.939	-0.035	0.094
-502.683	-55.989	-0.044	0.020
-501.668	89.866	-0.264	0.294
-500.653	-200.000	0.059	0.322
-499.639	427.152	-0.105	-0.225
-498.624	115.404	-0.077	0.094
-497.610	165.628	-0.111	0.156
-496.595	800.000	-0.033	-0.124
-495.581	-200.000	0.042	0.212
-494.566	800.000	0.061	0.209
-493.551	-66.211	0.242	0.096
-492.537	415.327	-0.091	0.192
-491.522	-144.615	-0.180	0.017
-490.508	-130.324	0.011	0.002
-489.493	-84.398	-0.146	-0.046
-488.478	-24.215	0.110	0.065
-487.464	256.038	0.007	-0.011
-486.449	340.059	-0.077	0.150
-485.435	800.000	-0.048	-0.198
-484.420	-95.212	-0.400	0.107
-483.405	35.803	-0.172	0.150
-482.391	36.517	0.270	0.237
-481.376	-172.559	0.248	0.008
-480.362	158.517	-0.194	-0.268
-479.347	-46.831	-0.232	0.113
-478.332	243.684	-0.102	0.170
-477.318	534.290	0.050	0.117
-476.303	112.616	-0.124	-0.149
-475.289	201.403	0.152	0.234
-474.274	134.642	-0.160	-0.206
-473.259	-200.000	0.042	-0.230
-472.245	-130.628	-0.300	-0.040
-471.230	800.000	0.117	-0.337
-470.216	129.094	0.298	-0.378
-469.201	-51.205	0.173	0.081
-468.186	-124.536	-0.237	-0.037
-467.172	-20.852	0.211	-0.129
-466.157	239.831	-0.099	0.165
-465.143	-168.413	-0.216	0.008
-464.128	91.648	-0.092	-0.103
-463.113	233.896	0.164	-0.270
-462.099	456.563	-0.092	0.203
-461.084	274.970	-0.172	0.303
-460.070	-200.000	0.006	0.082
-459.055	-160.558	0.256	0.014
-458.040	-132.575	-0.209	0.027
-457.026	-71.226	0.053	-0.020
-456.011	800.000	-0.013	-0.047
-454.997	341.681	-0.071	0.139
-453.982	-167.288	0.106	-0.004
-452.968	-156.099	-0.011	0.001
-451.953	345.100	-0.138	-0.270
-450.938	589.575	0.090	-0.222
-449.924	-200.000	0.033	-0.206
-448.909	-48.203	-0.083	-0.040
-447.895	-53.768	-0.076	-0.035
-446.880	800.000	0.077	0.285
-445.865	51.484	0.202	0.191
-444.851	269.847	0.049	0.085
-443.836	75.598	0.183	0.192
-442.822	225.857	0.134	0.216
-441.807	-25.129	0.018	0.011
-440.792	-94.067	-0.551	0.150
-439.778	800.000	-0.019	-0.067
-438.763	182.639	0.167	-0.245
-437.749	110.606	0.071	-0.085
-436.734	346.750	-0.155	-0.303
-435.719	13.024	-0.093	0.072
-434.705	150.628	-0.046	0.062
-433.690	328.626	-0.114	0.219
-432.676	-65.622	0.117	0.047
-431.661	594.585	-0.075	0.183
-430.646	239.052	-0.035	0.057
-429.632	-47.070	0.182	0.088
-428.617	-113.381	-0.108	0.021
-427.603	-55.559	0.294	-0.131
-426.588	212.689	0.241	0.378
-425.573	182.811	-0.164	-0.240
-424.559	-57.309	0.070	-0.031
-423.544	-200.000	0.036	0.307
-422.530	82.173	0.358	0.386
-421.515	89.889	0.148	-0.164
-420.500	800.000	0.096	-0.416
-419.486	-200.000	0.046	0.246
-418.471	800.000	0.030	-0.093
-417.457	207.692	0.107	-0.167
-416.442	-25.982	-0.093	0.054
-415.428	39.055	0.064	-0.056
-414.413	-99.951	-0.208	-0.052
-413.398	99.909	-0.044	-0.051
-412.384	-127.439	-0.047	0.007
-411.369	322.019	-0.181	0.342
-410.355	622.693	0.152	0.380
-409.340	-200.000	0.011	0.173
-408.325	241.569	-0.179	-0.297
-407.311	800.000	0.028	-0.088
-406.296	800.000	-0.089	0.263
-405.282	-200.000	-0.033	-0.184
-404.267	-200.000	-0.018	0.570
-403.252	14.599	-0.345	0.268
-402.238	4.905	-0.090	0.066
-401.223	-200.000	0.002	-0.188
-400.209	64.370	-0.215	0.215
-399.194	-117.060	-0.286	0.052
-398.179	-200.000	0.014	0.340
-397.165	-37.655	-0.320	0.169
-396.150	241.691	-0.044	0.072
-395.136	-101.136	-0.025	0.006
-394.121	31.361	0.143	0.122
-393.106	-192.347	0.304	0.003
-392.092	10.435	0.210	-0.159
-391.077	800.000	-0.016	0.060
-390.063	-98.326	-0.086	-0.022
-389.048	-30.609	0.484	-0.272
-388.033	232.340	-0.036	-0.059
-387.019	20.493	0.167	-0.134
-386.004	395.215	0.105	-0.217
-384.990	-43.579	0.237	0.119
-383.975	-125.495	0.425	0.064
-382.960	-200.000	-0.014	-0.062
-381.946	178.766	0.056	-0.081
-380.931	71.974	0.178	-0.184
-379.917	10.774	0.216	0.164
-378.902	250.741	0.360	-0.607
-377.888	76.565	-0.160	-0.169
-376.873	-200.000	-0.069	-0.404
-375.858	-200.000	0.010	-0.090
-374.844	-200.000	-0.004	0.243
-373.829	-139.465	-0.277	0.029
-372.815	-72.724	-0.170	0.062
-371.800	-1.745	0.143	0.100
-370.785	-83.377	-0.291	-0.093
-369.771	-72.338	0.506	-0.186
-368.756	318.115	0.067	0.125
-367.742	-74.260	0.330	-0.118
-366.727	-30.591	0.158	-0.089
-365.712	-200.000	0.009	-0.345
-364.698	407.880	-0.053	0.112
-363.683	381.898	0.087	0.177
-362.669	-200.000	0.062	-0.324
-361.654	-137.877	0.125	0.014
-360.639	4.269	-0.145	0.105
-359.625	370.922	-0.159	0.321
-358.610	170.749	0.120	-0.170
-357.596	800.000	-0.107	0.362
-356.581	-90.504	-0.287	-0.082
-355.566	-13.268	0.220	0.141
-354.552	95.404	0.211	-0.238
-353.537	-40.202	-0.324	-0.167
-352.523	79.422	-0.146	-0.155
-351.508	800.000	-0.058	-0.228
-350.493	-8.675	-0.362	0.241
-349.479	330.672	-0.074	0.141
-348.464	54.783	-0.066	0.063
-347.450	-33.034	-0.126	-0.069
-346.435	-0.785	0.374	-0.262
-345.420	429.283	0.227	-0.486
-344.406	-200.000	-0.002	-0.090
-343.391	-83.397	-0.298	0.095
-342.377	35.303	-0.208	-0.181
-341.362	269.200	-0.087	-0.152
-340.348	800.000	-0.089	-0.316
-339.333	454.027	-0.097	-0.214
-338.318	218.894	0.228	0.361
-337.304	-126.895	-0.533	-0.078
-336.289	226.162	0.141	-0.226
-335.275	-92.892	0.161	0.045
-334.260	-10.062	0.177	-0.117
-333.245	-93.678	0.178	-0.049
-332.231	93.925	0.091	-0.102
-331.216	38.252	-0.064	0.057
-330.202	208.794	-0.119	-0.185
-329.187	-200.000	-0.005	-0.311
-328.172	-101.076	-0.155	-0.038
-327.158	-63.231	0.214	-0.087
-326.143	-3.049	0.070	0.048
-325.129	647.696	0.055	-0.138
-324.114	54.525	-0.060	0.057
-323.099	298.878	-0.089	0.163
-322.085	800.000	-0.063	0.184
-321.070	-130.298	0.050	0.007
-320.056	-68.870	-0.134	0.051
-319.041	128.931	0.337	0.426
-318.026	800.000	0.059	0.182
-317.012	-21.640	-0.191	0.115
-315.997	271.328	0.081	-0.141
-314.983	-149.205	-0.119	0.009
-313.968	20.454	0.079	-0.063
-312.953	-100.897	0.226	0.055
-311.939	-49.114	-0.036	-0.017
-310.924	-200.000	-0.013	-0.377
-309.910	12.538	0.089	-0.068
-308.895	800.000	0.065	0.260
-307.880	800.000	-0.090	-0.300
-306.866	-142.369	0.048	0.005
-305.851	74.825	-0.162	0.168
-304.837	160.123	-0.112	0.155
-303.822	800.000	-0.054	0.186
-302.807	247.674	-0.107	-0.179
-301.793	-200.000	-0.000	-0.080
-300.778	251.376	0.129	-0.217
-299.764	2.096	0.062	-0.044
-298.749	-82.989	0.190	0.061
-297.735	-200.000	-0.011	0.340
-296.720	-22.495	0.326	-0.195
-295.705	405.904	0.123	-0.258
-294.691	-153.136	-0.289	-0.020
-293.676	-200.000	0.035	-0.321
-292.662	591.188	0.122	-0.297
-291.647	-200.000	-0.037	-0.315
-290.632	-116.808	0.207	0.037
-289.618	-138.414	0.136	-0.015
-288.603	-7.745	0.414	0.277
-287.589	32.789	-0.116	-0.099
-286.574	800.000	-0.160	0.667
-285.559	-200.000	0.048	0.311
-284.545	462.906	0.067	-0.148
-283.530	-33.717	0.288	-0.157
-282.516	-25.488	0.161	0.094
-281.501	-200.000	-0.038	-0.193
-280.486	253.386	-0.108	0.182
-279.472	371.717	-0.198	0.397
-278.457	-200.000	-0.063	-0.296
-277.443	-200.000	-0.049	-0.251
-276.428	136.023	0.141	0.182
-275.413	800.000	0.058	0.174
-274.399	-148.360	-0.123	0.010
-273.384	0.154	0.137	-0.096
-272.370	800.000	0.065	-0.182
-271.355	268.823	0.057	-0.099
-270.340	800.000	0.036	0.111
-269.326	-172.609	0.304	-0.009
-268.311	-34.637	-0.087	-0.047
-267.297	-39.209	0.383	0.199
-266.282	-200.000	0.011	-0.267
-265.267	800.000	0.013	-0.038
-264.253	-8.031	-0.143	-0.095
-263.238	49.731	-0.250	0.233
-262.224	138.098	0.120	-0.155
-261.209	800.000	0.103	0.343
-260.195	-54.228	-0.164	0.074
-259.180	800.000	0.032	-0.135
-258.165	-200.000	-0.058	-0.367
-257.151	-73.095	0.406	0.147
-256.136	45.520	0.320	0.292
-255.122	-200.000	0.012	-0.057
-254.107	-24.044	-0.082	-0.048
-253.092	800.000	0.032	-0.106
-252.078	405.028	0.060	-0.124
-251.063	-200.000	0.003	-0.144
-250.049	-200.000	0.013	-0.227
-249.034	-113.174	-0.151	-0.029
-248.019	64.646	-0.122	-0.121
-247.005	-62.037	0.394	-0.162
-245.990	-45.854	-0.268	-0.131
-244.976	-141.827	-0.141	-0.014
-243.961	-129.965	-0.236	-0.032
-242.946	587.901	-0.106	-0.257
-241.932	347.772	0.157	0.305
-240.917	75.567	-0.085	-0.088
-239.903	-108.165	-0.300	0.064
-238.888	404.235	-0.135	0.281
-237.873	5.932	-0.144	0.106
-236.859	-200.000	0.014	-0.064
-235.844	572.488	-0.077	0.185
-234.830	406.989	0.074	0.154
-233.815	-42.488	0.145	0.073
-232.800	202.134	-0.097	-0.147
-231.786	230.570	0.079	-0.127
-230.771	187.966	0.129	0.190
-229.757	-57.570	0.177	0.077
-228.742	-59.841	-0.151	-0.064
-227.727	-97.593	-0.171	-0.044
-226.713	153.057	-0.026	0.035
-225.698	-200.000	-0.045	-0.254
-224.684	-100.976	0.323	-0.078
-223.669	760.376	-0.082	-0.219
-222.655	-75.169	0.252	0.089
-221.640	-200.000	0.027	-0.277
-220.625	88.525	0.093	-0.102
-219.611	629.944	0.131	0.326
-218.596	-184.863	-0.121	-0.002
-217.582	104.221	0.105	0.122
-216.567	800.000	0.047	0.164
-215.552	-68.323	-0.130	0.050
-214.538	-46.478	0.130	-0.063
-213.523	123.891	0.110	-0.136
-212.509	-143.230	0.655	-0.062
-211.494	-9.359	-0.192	-0.126
-210.479	800.000	-0.041	0.152
-209.465	-200.000	0.020	0.102
-208.450	124.215	0.091	-0.112
-207.436	-5.114	0.298	-0.202
-206.421	367.783	-0.130	-0.259
-205.406	90.630	0.268	0.296
-204.392	541.995	-0.077	-0.180
-203.377	-4.627	0.283	0.193
-202.363	629.625	0.091	-0.226
-201.348	40.682	-0.144	-0.128
-200.333	800.000	0.074	0.220
-199.319	1.904	-0.065	-0.046
-198.304	-157.718	0.174	-0.010
-197.290	-156.142	-0.163	-0.010
-196.275	-200.000	0.044	-0.241
-195.260	-191.985	0.134	0.001
-194.246	-168.050	0.236	0.009
-193.231	190.564	-0.064	-0.095
-192.217	-116.522	0.469	0.085
-191.202	-54.087	0.187	-0.084
-190.187	-80.461	-0.246	-0.081
-189.173	56.290	-0.161	-0.154
-188.158	482.742	-0.141	0.316
-187.144	-91.326	0.102	-0.029
-186.129	-51.592	0.095	-0.044
-185.114	-67.084	0.177	0.069
-184.100	85.104	-0.228	0.247
-183.085	22.924	-0.133	0.108
-182.071	-200.000	0.014	0.162
-181.056	-200.000	-0.056	0.339
-180.042	-200.000	0.020	-0.092
-179.027	-200.000	0.010	0.042
-178.012	800.000	-0.039	-0.142
-176.998	-200.000	-0.065	0.299
-175.983	404.914	-0.031	-0.064
-174.969	-152.967	-0.285	-0.020
-173.954	800.000	-0.070	0.285
-172.939	14.472	0.162	-0.124
-171.925	-11.247	0.054	-0.035
-170.910	663.654	-0.115	-0.292
-169.896	-41.974	0.122	0.061
-168.881	-124.987	-0.076	-0.011
-167.866	6.400	0.223	0.163
-166.852	492.062	0.089	-0.202
-165.837	123.673	0.146	0.180
-164.823	1.100	-0.143	-0.101
-163.808	-200.000	-0.008	0.130
-162.793	-158.379	-0.081	-0.005
-161.779	-193.543	-0.242	-0.002
-160.764	-200.000	-0.004	0.029
-159.750	53.849	0.290	-0.274
-158.735	19.894	-0.219	0.173
-157.720	-200.000	-0.057	0.287
-156.706	63.432	-0.154	-0.152
-155.691	-200.000	0.012	-0.219
-154.677	27.658	0.166	-0.137
-153.662	-200.000	0.011	0.139
-152.647	80.823	0.234	0.248
-151.633	-200.000	0.007	0.083
-150.618	-200.000	-0.004	0.550
-149.604	800.000	0.038	0.140
-148.589	29.634	0.132	0.110
-147.574	-172.934	-0.335	-0.010
-146.560	50.192	0.317	-0.294
-145.545	-200.000	0.010	-0.104
-144.531	-24.222	0.093	0.055
-143.516	3.375	-0.161	0.115
-142.502	98.983	0.093	0.106
-141.487	-41.590	0.286	-0.145
-140.472	-91.438	0.343	-0.096
-139.458	33.693	0.085	0.073
-138.443	727.182	0.050	-0.132
-137.429	62.339	-0.075	0.074
-136.414	54.226	0.071	-0.068
-135.399	66.929	-0.307	0.307
-134.385	-79.142	-0.134	0.045
-133.370	103.429	-0.276	-0.318
-132.356	-93.780	-0.262	-0.071
-131.341	28.030	0.326	-0.270
-130.326	11.187	-0.039	-0.029
-129.312	-181.385	-0.102	0.002
-128.297	-84.773	-0.277	-0.086
-127.283	800.000	-0.026	0.109
-126.268	800.000	-0.074	0.231
-125.253	800.000	-0.049	0.186
-124.239	-200.000	0.071	0.426
-123.224	198.547	-0.118	-0.178
-122.210	82.752	0.097	0.104
-121.195	70.794	-0.195	0.198
