DTS Sentinel unit serial number:	SN413079Multiplexer serial number:	ORYXHardware model number:	OX4-SRSoftware version number:	ORYX F/W v4.00 Oryx Data Collector v3.7.2.0data status	okinstallation	princeton_trtdifferential loss correction	single-endedforward channel	channel 3reverse channel	N/Adate	2019/09/16time	05:00:35forward acquisition time	60.00reverse acquisition time	0.00gamma	496.2192k internal	0.2336k external	0.2336temperature offset calibration	0.9957default loss term (dB/km)	0.3790temperature slope calibration	1.0000multiplexer offset coefficient	1.0000multiplexer slope coefficient	1.0000fibre end	0.00T internal ref (°C)	27.17T ext. ref 1 (°C)	11.00T ext. ref 2 (°C)	21.91length (m)	temperature (°C)	Stokes	anti-Stokes-747.200	-138.585	0.353	-0.039
-746.185	800.000	0.049	0.153
-745.171	33.397	0.161	0.141
-744.156	-62.226	0.052	-0.022
-743.142	-8.729	0.364	-0.245
-742.127	34.522	-0.241	0.212
-741.112	800.000	-0.126	0.476
-740.098	-200.000	0.028	0.335
-739.083	-58.648	-0.296	-0.129
-738.069	348.976	0.113	0.224
-737.054	-200.000	0.051	0.242
-736.039	355.695	0.017	0.035
-735.025	737.563	0.035	-0.095
-734.010	-135.537	-0.456	0.054
-732.996	-178.413	-0.213	-0.005
-731.981	1.838	-0.185	-0.134
-730.966	-200.000	0.009	0.129
-729.952	800.000	-0.167	0.537
-728.937	206.218	0.047	-0.074
-727.923	-90.649	-0.198	-0.057
-726.908	-129.078	-0.201	-0.028
-725.894	107.931	0.220	-0.263
-724.879	-6.959	-0.181	-0.123
-723.864	494.770	0.016	-0.038
-722.850	37.819	0.068	-0.061
-721.835	-162.700	-0.498	0.024
-720.821	-200.000	-0.006	-0.308
-719.806	-53.486	0.218	-0.100
-718.791	-200.000	0.009	-0.119
-717.777	4.800	0.127	-0.094
-716.762	-114.631	-0.489	0.094
-715.748	-200.000	0.033	-0.203
-714.733	-200.000	-0.027	0.212
-713.718	-200.000	0.008	-0.366
-712.704	46.940	0.246	-0.230
-711.689	-200.000	-0.024	0.139
-710.675	-46.999	-0.192	0.094
-709.660	-200.000	0.036	-0.616
-708.645	-57.641	-0.189	-0.083
-707.631	18.630	-0.194	-0.156
-706.616	-66.472	0.101	0.040
-705.602	-2.757	0.196	0.138
-704.587	156.209	0.157	-0.217
-703.572	-200.000	-0.003	0.130
-702.558	-0.692	-0.343	-0.244
-701.543	-200.000	0.050	-0.412
-700.529	-27.640	0.323	-0.188
-699.514	33.776	-0.186	0.162
-698.499	-120.833	-0.203	-0.034
-697.485	551.347	0.047	0.114
-696.470	-137.688	-0.355	0.040
-695.456	-200.000	0.011	0.080
-694.441	-36.121	-0.111	-0.060
-693.426	-200.000	0.017	-0.234
-692.412	-144.767	-0.157	0.014
-691.397	13.255	-0.040	-0.031
-690.383	-134.870	0.351	-0.043
-689.368	-83.096	-0.175	0.057
-688.354	28.028	-0.216	-0.183
-687.339	-68.765	-0.172	0.067
-686.324	-8.888	-0.092	-0.062
-685.310	239.747	0.086	0.143
-684.295	87.326	-0.040	-0.044
-683.281	800.000	0.018	-0.078
-682.266	-137.062	0.076	-0.009
-681.251	-46.102	0.179	-0.088
-680.237	488.014	0.080	0.182
-679.222	80.515	0.209	-0.225
-678.208	62.801	-0.305	-0.306
-677.193	-95.336	0.176	-0.047
-676.178	17.715	0.205	-0.164
-675.164	35.859	-0.009	-0.008
-674.149	55.270	-0.250	0.242
-673.135	58.408	-0.146	0.143
-672.120	-10.132	0.331	-0.220
-671.105	-37.342	-0.260	-0.139
-670.091	469.493	-0.117	-0.263
-669.076	-200.000	0.083	-0.424
-668.062	417.046	0.158	-0.337
-667.047	-180.198	-0.182	-0.004
-666.032	-56.973	-0.223	-0.099
-665.018	156.981	-0.072	0.100
-664.003	-200.000	-0.004	-0.097
-662.989	16.677	-0.138	-0.109
-661.974	-36.358	-0.242	-0.130
-660.959	15.081	0.093	-0.073
-659.945	575.141	-0.074	0.180
-658.930	800.000	-0.072	-0.246
-657.916	71.773	-0.209	0.217
-656.901	27.377	0.086	0.072
-655.886	-72.546	-0.218	0.081
-654.872	-200.000	0.000	0.068
-653.857	640.044	0.045	0.114
-652.843	426.529	0.137	0.296
-651.828	117.401	-0.248	-0.305
-650.814	-80.875	0.281	-0.093
-649.799	-73.866	-0.356	-0.130
-648.784	-200.000	0.033	-0.157
-647.770	-24.670	-0.348	0.207
-646.755	-52.407	-0.295	0.136
-645.741	367.632	-0.171	-0.345
-644.726	-200.000	0.012	0.103
-643.711	-200.000	0.009	0.211
-642.697	69.705	-0.214	-0.221
-641.682	339.173	0.118	-0.229
-640.668	800.000	-0.020	-0.063
-639.653	-92.910	0.475	0.133
-638.638	153.195	-0.225	0.308
-637.624	291.217	0.096	0.174
-636.609	58.540	-0.107	0.105
-635.595	-55.832	0.108	0.048
-634.580	-200.000	-0.000	-0.198
-633.565	148.632	0.217	-0.293
-632.551	9.716	-0.356	-0.270
-631.536	800.000	0.124	-0.490
-630.522	111.751	-0.193	-0.233
-629.507	116.920	-0.254	-0.312
-628.492	-96.416	-0.247	-0.065
-627.478	31.958	0.099	-0.086
-626.463	-73.830	0.072	0.026
-625.449	-200.000	0.017	0.196
-624.434	-101.456	-0.250	-0.061
-623.419	-104.182	0.082	-0.019
-622.405	-93.253	-0.174	-0.048
-621.390	124.850	0.059	0.074
-620.376	166.873	-0.089	-0.126
-619.361	262.436	0.147	-0.255
-618.346	788.816	-0.090	-0.247
-617.332	-59.658	-0.212	0.091
-616.317	-150.575	0.326	0.025
-615.303	-157.496	0.073	0.004
-614.288	-53.319	0.339	-0.155
-613.273	52.415	0.313	0.298
-612.259	-200.000	0.013	0.497
-611.244	-109.755	0.178	-0.037
-610.230	42.700	0.277	0.252
-609.215	-91.627	-0.311	0.089
-608.201	-200.000	0.012	-0.140
-607.186	-200.000	-0.006	-0.074
-606.171	33.190	0.106	-0.092
-605.157	-21.264	-0.287	0.175
-604.142	-200.000	-0.012	-0.176
-603.128	-95.928	-0.159	-0.042
-602.113	118.555	0.135	-0.166
-601.098	-139.749	-0.263	0.028
-600.084	-31.861	-0.109	0.061
-599.069	4.240	0.260	0.190
-598.055	-62.384	0.104	0.043
-597.040	77.178	-0.220	0.234
-596.025	113.863	-0.111	0.135
-595.011	-13.666	-0.108	0.070
-593.996	74.637	-0.070	0.074
-592.982	-29.778	-0.226	0.129
-591.967	-28.928	0.021	0.012
-590.952	34.238	0.159	-0.139
-589.938	783.181	-0.066	-0.182
-588.923	64.848	-0.122	-0.123
-587.909	117.948	0.034	-0.042
-586.894	-200.000	-0.036	0.166
-585.879	258.443	-0.120	-0.206
-584.865	800.000	-0.087	-0.365
-583.850	331.421	0.140	0.269
-582.836	102.221	-0.042	-0.049
-581.821	171.168	0.164	-0.234
-580.806	-70.986	-0.267	-0.100
-579.792	-87.976	-0.211	0.063
-578.777	-85.797	-0.237	0.073
-577.763	-95.199	0.099	0.027
-576.748	-200.000	0.004	-0.206
-575.733	254.311	-0.094	0.161
-574.719	350.668	-0.107	0.211
-573.704	-25.715	0.031	-0.018
-572.690	181.189	-0.168	-0.246
-571.675	-110.446	0.172	0.036
-570.661	96.452	0.114	0.130
-569.646	377.501	-0.136	0.278
-568.631	488.157	0.118	-0.270
-567.617	21.164	0.164	0.133
-566.602	329.260	0.193	-0.370
-565.588	-200.000	0.032	0.141
-564.573	-200.000	-0.014	0.289
-563.558	-97.242	-0.225	0.059
-562.544	-57.112	-0.178	-0.078
-561.529	-110.949	0.285	-0.058
-560.515	151.136	0.306	-0.415
-559.500	800.000	0.083	0.257
-558.485	800.000	-0.047	0.193
-557.471	-200.000	-0.006	-0.073
-556.456	-132.318	-0.217	0.028
-555.442	16.905	0.086	-0.068
-554.427	338.512	-0.163	0.317
-553.412	-200.000	0.015	0.101
-552.398	259.799	0.046	0.079
-551.383	800.000	-0.079	-0.251
-550.369	230.785	0.108	0.177
-549.354	-87.729	0.103	0.031
-548.339	235.307	-0.188	-0.309
-547.325	800.000	0.074	-0.207
-546.310	-91.283	-0.204	0.058
-545.296	-111.013	-0.289	0.059
-544.281	251.936	-0.050	-0.085
-543.266	-41.742	-0.153	-0.078
-542.252	324.494	0.077	-0.147
-541.237	648.119	0.110	-0.281
-540.223	32.403	0.178	0.153
-539.208	-200.000	-0.022	0.290
-538.193	798.686	0.037	0.100
-537.179	-8.554	-0.173	0.116
-536.164	77.162	0.065	0.069
-535.150	-48.825	0.279	0.133
-534.135	-200.000	0.008	0.152
-533.121	-200.000	0.043	-0.198
-532.106	104.680	0.153	-0.180
-531.091	381.947	0.112	-0.229
-530.077	-56.537	-0.062	0.027
-529.062	-200.000	0.019	0.171
-528.048	-22.912	0.152	-0.091
-527.033	320.714	-0.259	-0.490
-526.018	-200.000	-0.024	0.171
-525.004	122.412	-0.145	-0.180
-523.989	39.121	-0.479	0.427
-522.975	-40.699	-0.304	-0.157
-521.960	37.096	0.223	-0.197
-520.945	-137.272	0.240	-0.027
-519.931	-38.221	-0.257	-0.135
-518.916	774.514	0.074	-0.200
-517.902	-110.437	-0.163	-0.034
-516.887	263.293	0.056	0.097
-515.872	-200.000	0.004	-0.365
-514.858	60.188	-0.238	-0.234
-513.843	190.213	-0.085	0.128
-512.829	-117.992	-0.295	0.053
-511.814	180.146	0.132	-0.192
-510.799	76.213	0.134	-0.141
-509.785	-200.000	-0.011	0.182
-508.770	-200.000	-0.015	0.308
-507.756	800.000	0.032	0.122
-506.741	-200.000	-0.007	0.045
-505.726	87.502	-0.054	0.060
-504.712	415.771	0.095	0.202
-503.697	-200.000	0.007	0.157
-502.683	40.496	0.128	0.114
-501.668	-38.432	-0.216	0.114
-500.653	-10.991	0.262	-0.172
-499.639	257.040	0.178	0.305
-498.624	153.715	0.126	-0.172
-497.610	-57.707	0.053	0.023
-496.595	-83.905	-0.293	0.093
-495.581	-141.770	0.346	-0.034
-494.566	14.092	0.050	-0.039
-493.551	42.400	0.197	-0.178
-492.537	800.000	-0.023	0.077
-491.522	270.595	-0.032	-0.055
-490.508	-196.405	-0.308	0.002
-489.493	58.420	0.128	0.124
-488.478	91.213	-0.131	0.147
-487.464	325.223	-0.177	-0.336
-486.449	198.038	-0.099	0.150
-485.435	178.886	0.128	0.186
-484.420	-29.969	0.162	0.092
-483.405	-139.552	-0.332	0.035
-482.391	-77.502	0.387	0.133
-481.376	-5.297	0.176	0.120
-480.362	790.939	-0.018	0.048
-479.347	-74.227	-0.212	0.076
-478.332	326.679	0.150	-0.287
-477.318	274.965	-0.092	-0.162
-476.303	-200.000	-0.003	-0.022
-475.289	-83.370	-0.134	-0.043
-474.274	62.304	0.360	-0.357
-473.259	800.000	-0.080	0.325
-472.245	146.817	0.047	-0.062
-471.230	-6.666	0.060	-0.040
-470.216	-77.511	0.104	0.036
-469.201	238.253	-0.203	0.336
-468.186	-58.822	-0.210	-0.090
-467.172	-200.000	-0.010	0.189
-466.157	-200.000	0.012	0.179
-465.143	-200.000	0.010	0.221
-464.128	-200.000	-0.004	-0.261
-463.113	529.045	0.180	-0.422
-462.099	-125.301	0.315	0.048
-461.084	210.711	-0.196	-0.306
-460.070	721.118	-0.140	0.371
-459.055	-94.564	-0.279	0.076
-458.040	16.781	-0.134	0.105
-457.026	-114.048	-0.420	0.081
-456.011	-35.235	-0.435	-0.235
-454.997	-200.000	0.021	-0.250
-453.982	67.704	0.155	-0.158
-452.968	-200.000	-0.008	-0.175
-451.953	-46.340	0.132	0.064
-450.938	-109.726	0.223	-0.047
-449.924	-156.559	-0.375	-0.023
-448.909	67.797	0.100	-0.102
-447.895	41.665	0.369	0.332
-446.880	66.404	0.237	0.239
-445.865	-15.295	-0.240	0.152
-444.851	164.368	-0.214	-0.299
-443.836	800.000	-0.097	0.316
-442.822	-32.014	0.168	0.093
-441.807	709.167	0.135	0.355
-440.792	666.110	-0.065	-0.167
-439.778	-117.053	-0.200	0.036
-438.763	83.592	0.212	0.229
-437.749	109.659	0.079	-0.093
-436.734	-27.812	-0.046	0.026
-435.719	60.951	-0.184	0.181
-434.705	-181.167	0.371	0.007
-433.690	-73.744	0.219	-0.079
-432.676	-75.370	0.181	-0.064
-431.661	-200.000	-0.017	0.090
-430.646	19.918	-0.101	-0.081
-429.632	-118.804	-0.252	0.044
-428.617	63.481	-0.213	-0.212
-427.603	-200.000	-0.040	-0.494
-426.588	747.976	0.092	-0.246
-425.573	21.684	0.210	0.170
-424.559	-56.342	0.395	-0.174
-423.544	-200.000	0.007	-0.050
-422.530	-200.000	-0.008	0.123
-421.515	800.000	-0.089	-0.263
-420.500	-97.378	0.225	-0.058
-419.486	410.820	-0.018	-0.037
-418.471	88.635	0.151	-0.166
-417.457	800.000	-0.051	-0.173
-416.442	123.536	-0.031	0.039
-415.428	-142.339	0.145	-0.014
-414.413	99.589	0.204	-0.234
-413.398	-200.000	0.033	0.256
-412.384	89.250	-0.073	-0.080
-411.369	-143.259	-0.068	-0.007
-410.355	-200.000	0.000	-0.129
-409.340	-200.000	0.037	0.179
-408.325	-200.000	-0.001	0.132
-407.311	0.860	-0.378	-0.268
-406.296	800.000	-0.062	0.225
-405.282	91.102	-0.224	0.249
-404.267	-200.000	0.071	-0.357
-403.252	116.587	-0.055	-0.067
-402.238	-36.130	-0.259	-0.139
-401.223	-16.828	-0.200	-0.125
-400.209	-158.376	0.187	0.011
-399.194	-51.171	0.193	-0.089
-398.179	425.800	0.009	0.019
-397.165	800.000	-0.047	0.159
-396.150	-33.021	-0.182	-0.100
-395.136	-84.070	-0.072	0.023
-394.121	-93.863	-0.268	0.073
-393.106	34.200	0.224	-0.193
-392.092	-200.000	-0.026	0.275
-391.077	-131.470	0.200	-0.026
-390.063	-80.097	0.181	-0.060
-389.048	218.646	-0.100	0.159
-388.033	-101.928	0.151	0.036
-387.019	430.925	-0.212	0.454
-386.004	800.000	-0.048	0.150
-384.990	-33.364	0.337	0.185
-383.975	29.309	-0.129	-0.108
-382.960	154.656	-0.152	-0.206
-381.946	-200.000	0.034	0.239
-380.931	-121.252	0.063	0.010
-379.917	18.363	-0.149	-0.118
-378.902	-200.000	0.053	-0.289
-377.888	220.578	-0.182	-0.289
-376.873	30.147	0.077	-0.065
-375.858	-82.091	0.208	0.067
-374.844	-200.000	-0.013	-0.093
-373.829	75.899	-0.090	-0.094
-372.815	107.624	-0.252	0.297
-371.800	-200.000	-0.054	-0.261
-370.785	46.713	-0.184	0.169
-369.771	704.723	0.077	-0.202
-368.756	101.370	-0.121	-0.140
-367.742	-103.286	0.352	-0.082
-366.727	-123.419	-0.525	-0.083
-365.712	-37.516	-0.231	-0.122
-364.698	744.215	-0.043	-0.113
-363.683	-119.359	-0.407	0.070
-362.669	91.593	0.301	0.335
-361.654	-200.000	0.007	0.485
-360.639	-200.000	-0.044	-0.195
-359.625	-50.881	-0.206	0.096
-358.610	-200.000	0.014	-0.164
-357.596	-63.927	-0.127	-0.051
-356.581	-53.288	-0.274	-0.124
-355.566	-115.054	0.116	0.022
-354.552	-187.181	-0.252	-0.003
-353.537	-22.611	-0.165	-0.099
-352.523	800.000	-0.038	-0.113
-351.508	58.859	-0.121	-0.118
-350.493	-70.148	-0.099	-0.037
-349.479	60.184	-0.206	-0.201
-348.464	103.330	-0.257	-0.298
-347.450	-122.976	0.272	0.043
-346.435	126.292	-0.130	-0.163
-345.420	13.986	0.044	0.034
-344.406	-94.299	0.071	0.019
-343.391	-61.720	-0.087	-0.036
-342.377	-200.000	0.041	-0.327
-341.362	95.096	-0.071	0.080
-340.348	-149.820	-0.136	-0.011
-339.333	-24.471	0.108	0.064
-338.318	-145.554	-0.256	-0.023
-337.304	151.544	0.126	0.170
-336.289	-200.000	0.035	-0.175
-335.275	-40.135	0.381	0.196
-334.260	-3.029	-0.149	0.103
-333.245	800.000	0.032	-0.139
-332.231	800.000	-0.062	-0.188
-331.216	-18.197	-0.131	-0.081
-330.202	-53.618	-0.083	0.038
-329.187	296.451	-0.018	0.033
-328.172	-50.694	0.255	-0.119
-327.158	-164.515	0.233	-0.010
-326.143	-134.265	-0.239	0.029
-325.129	299.990	0.174	0.317
-324.114	-56.252	0.412	0.181
-323.099	-101.385	0.346	0.083
-322.085	-200.000	-0.015	-0.219
-321.070	-67.272	0.167	-0.065
-320.056	800.000	-0.034	-0.110
-319.041	-12.452	0.167	0.108
-318.026	-25.018	-0.241	0.141
-317.012	-48.401	-0.178	-0.085
-315.997	-200.000	0.063	0.450
-314.983	350.574	-0.152	-0.296
-313.968	273.574	0.124	0.217
-312.953	378.607	-0.127	-0.257
-311.939	800.000	-0.045	0.176
-310.924	105.446	0.231	0.269
-309.910	205.718	0.185	-0.284
-308.895	-200.000	-0.057	-0.296
-307.880	118.184	-0.185	0.225
-306.866	149.910	0.066	0.088
-305.851	615.649	-0.044	-0.109
-304.837	-25.401	0.352	-0.205
-303.822	167.667	-0.123	-0.172
-302.807	16.485	0.267	0.208
-301.793	-200.000	-0.003	0.038
-300.778	-65.401	0.159	0.063
-299.764	-165.807	0.241	0.010
-298.749	-3.124	-0.293	0.201
-297.735	201.765	0.181	0.276
-296.720	-103.691	0.329	-0.076
-295.705	-52.876	0.167	-0.076
-294.691	-14.636	-0.015	0.009
-293.676	14.083	0.167	0.128
-292.662	-108.937	-0.371	0.078
-291.647	380.319	-0.067	0.135
-290.632	53.255	-0.046	-0.043
-289.618	800.000	-0.093	-0.294
-288.603	16.856	-0.048	-0.037
-287.589	97.448	0.121	0.137
-286.574	190.932	-0.174	0.258
-285.559	-27.971	0.255	0.146
-284.545	-6.208	-0.151	-0.102
-283.530	130.244	-0.122	-0.154
-282.516	-200.000	-0.032	-0.161
-281.501	67.817	0.044	0.044
-280.486	380.123	0.174	-0.352
-279.472	176.969	-0.111	0.160
-278.457	800.000	-0.021	-0.070
-277.443	-90.280	-0.022	-0.006
-276.428	-6.538	-0.188	0.127
-275.413	37.024	0.158	-0.138
-274.399	-200.000	0.014	0.224
-273.384	-176.987	-0.245	-0.006
-272.370	-79.597	-0.242	0.081
-271.355	126.983	0.112	-0.140
-270.340	85.213	0.180	-0.195
-269.326	172.585	0.145	0.206
-268.311	-90.466	0.322	-0.092
-267.297	97.309	-0.112	-0.127
-266.282	-74.339	0.159	0.057
-265.267	-30.115	-0.085	0.048
-264.253	564.014	-0.054	-0.129
-263.238	-200.000	-0.013	-0.165
-262.224	382.864	0.136	-0.276
-261.209	-87.864	-0.093	0.028
-260.195	23.128	-0.202	-0.163
-259.180	800.000	-0.040	-0.138
-258.165	-141.737	0.121	-0.012
-257.151	-15.751	0.181	-0.114
-256.136	-49.060	0.259	-0.122
-255.122	-123.451	0.089	0.014
-254.107	-81.199	0.430	-0.140
-253.092	-200.000	-0.039	-0.231
-252.078	28.123	-0.235	-0.195
-251.063	-31.190	0.123	-0.068
-250.049	-114.725	-0.198	0.037
-249.034	-43.361	-0.313	-0.156
-248.019	-200.000	-0.030	0.160
-247.005	190.369	0.098	-0.144
-245.990	241.899	0.228	0.376
-244.976	-143.995	-0.388	0.036
-243.961	47.572	-0.344	0.315
-242.946	-60.925	0.149	0.062
-241.932	-200.000	-0.032	0.264
-240.917	26.581	-0.183	-0.151
-239.903	800.000	-0.030	-0.090
-238.888	242.873	-0.175	-0.288
-237.873	-68.424	-0.421	0.161
-236.859	200.930	0.245	-0.371
-235.844	141.767	0.100	-0.131
-234.830	-71.491	0.246	0.090
-233.815	-127.936	0.135	0.019
-232.800	9.682	-0.056	0.042
-231.786	257.732	-0.110	0.186
-230.771	800.000	0.017	0.051
-229.757	265.039	-0.072	-0.123
-228.742	-5.852	-0.109	0.073
-227.727	-56.972	0.226	-0.098
-226.713	233.098	0.183	0.296
-225.698	177.767	-0.101	-0.145
-224.684	580.696	-0.063	0.152
-223.669	101.097	0.114	0.131
-222.655	-30.686	0.222	0.124
-221.640	463.704	-0.051	0.113
-220.625	-125.821	0.391	0.058
-219.611	-99.495	-0.188	0.047
-218.596	-200.000	0.012	-0.214
-217.582	672.630	-0.150	0.383
-216.567	-103.125	0.251	0.058
-215.552	393.197	0.150	-0.308
-214.538	55.493	-0.144	-0.137
-213.523	-200.000	0.018	-0.350
-212.509	-88.402	0.318	0.093
-211.494	125.050	0.137	0.170
-210.479	-200.000	0.014	0.284
-209.465	607.664	-0.113	0.277
-208.450	728.407	-0.131	-0.343
-207.436	43.597	-0.263	0.236
-206.421	-200.000	-0.002	0.286
-205.406	-128.188	0.130	-0.018
-204.392	595.771	-0.050	-0.122
-203.377	800.000	-0.127	0.378
-202.363	-200.000	-0.027	0.417
-201.348	-124.010	0.138	0.021
-200.333	-44.139	0.208	0.103
-199.319	100.494	-0.064	-0.073
-198.304	-132.438	0.109	-0.014
-197.290	-123.068	0.138	-0.022
-196.275	480.466	-0.056	0.124
-195.260	-200.000	-0.007	-0.096
-194.246	-200.000	0.022	0.176
-193.231	94.510	0.194	-0.217
-192.217	-200.000	0.012	0.519
-191.202	-200.000	-0.031	0.283
-190.187	-200.000	0.042	0.310
-189.173	78.555	0.189	-0.198
-188.158	800.000	-0.030	-0.130
-187.144	145.766	-0.096	-0.127
-186.129	800.000	0.107	-0.301
-185.114	-129.688	0.071	0.010
-184.100	69.015	0.222	-0.224
-183.085	67.169	-0.279	0.279
-182.071	-120.735	0.249	0.041
-181.056	-101.363	0.306	-0.073
-180.042	-88.325	0.163	0.048
-179.027	122.834	0.223	-0.274
-178.012	-115.323	0.193	-0.036
-176.998	-92.257	-0.082	-0.023
-175.983	670.033	-0.068	-0.172
-174.969	205.542	0.137	-0.209
-173.954	-128.065	0.361	-0.051
-172.939	496.452	0.135	0.305
-171.925	-200.000	0.002	0.143
-170.910	571.347	-0.026	-0.063
-169.896	-200.000	-0.028	-0.175
-168.881	-200.000	0.029	0.287
-167.866	429.201	0.076	0.161
-166.852	251.104	0.146	0.243
-165.837	-22.708	-0.097	-0.057
-164.823	113.425	0.176	0.209
-163.808	-31.513	0.598	0.330
-162.793	-200.000	0.026	0.393
-161.779	-200.000	-0.018	0.202
-160.764	-89.238	-0.362	0.105
-159.750	-95.489	-0.066	0.018
-158.735	357.850	0.142	-0.279
-157.720	-25.682	-0.337	0.195
-156.706	-43.128	-0.289	0.143
-155.691	-164.303	0.263	-0.012
-154.677	531.356	0.122	0.284
-153.662	214.751	-0.042	0.065
-152.647	-200.000	0.018	0.131
-151.633	-1.676	0.420	0.290
-150.618	800.000	0.079	-0.230
-149.604	-131.237	-0.230	0.030
-148.589	-9.699	-0.145	-0.095
-147.574	-200.000	0.237	0.000
-146.560	463.605	-0.101	-0.221
-145.545	-200.000	-0.015	-0.569
-144.531	-32.948	-0.247	-0.135
-143.516	232.339	-0.193	-0.311
-142.502	800.000	0.062	-0.216
-141.487	3.259	-0.309	0.221
-140.472	28.240	-0.072	-0.059
-139.458	345.424	0.057	0.110
-138.443	800.000	-0.110	0.369
-137.429	588.586	-0.068	-0.164
-136.414	-128.129	-0.046	0.006
-135.399	54.813	0.115	-0.109
-134.385	-35.882	0.212	-0.112
-133.370	-135.745	-0.143	-0.017
-132.356	-71.541	-0.340	0.125
-131.341	-75.108	0.012	-0.004
-130.326	-200.000	-0.027	0.160
-129.312	19.501	-0.133	-0.105
-128.297	800.000	-0.061	0.198
-127.283	-76.653	-0.251	0.086
-126.268	-102.670	-0.162	0.038
-125.253	106.601	-0.125	0.145
-124.239	-200.000	-0.057	0.257
-123.224	351.277	0.144	0.279
-122.210	800.000	-0.072	-0.265
-121.195	-103.785	0.087	0.020
