DTS Sentinel unit serial number:	SN413079Multiplexer serial number:	ORYXHardware model number:	OX4-SRSoftware version number:	ORYX F/W v4.00 Oryx Data Collector v3.7.2.0data status	okinstallation	princeton_trtdifferential loss correction	single-endedforward channel	channel 3reverse channel	N/Adate	2019/09/10time	22:50:10forward acquisition time	60.00reverse acquisition time	0.00gamma	496.2192k internal	0.2331k external	0.2331temperature offset calibration	0.9920default loss term (dB/km)	0.3790temperature slope calibration	1.0000multiplexer offset coefficient	1.0000multiplexer slope coefficient	1.0000fibre end	0.00T internal ref (°C)	30.14T ext. ref 1 (°C)	-0.31T ext. ref 2 (°C)	23.50length (m)	temperature (°C)	Stokes	anti-Stokes-747.200	-200.000	-0.013	-0.097
-746.185	293.307	-0.134	0.247
-745.171	-114.237	-0.181	-0.035
-744.156	214.863	-0.085	0.136
-743.142	-108.472	-0.222	-0.048
-742.127	800.000	0.125	0.356
-741.112	-44.012	0.191	-0.097
-740.098	-28.920	-0.133	0.077
-739.083	288.175	-0.083	-0.152
-738.069	-200.000	-0.029	0.293
-737.054	71.732	-0.196	0.205
-736.039	166.365	0.131	0.186
-735.025	656.437	-0.044	0.115
-734.010	362.784	-0.103	0.208
-732.996	10.276	-0.221	0.169
-731.981	-200.000	0.006	0.283
-730.966	-185.118	0.105	0.002
-729.952	-172.237	-0.361	0.012
-728.937	-34.518	-0.251	0.139
-727.923	800.000	-0.100	0.318
-726.908	-168.460	-0.161	-0.006
-725.894	800.000	-0.125	-0.372
-724.879	173.832	-0.206	-0.298
-723.864	-84.606	0.311	-0.099
-722.850	78.026	-0.224	-0.240
-721.835	580.510	0.126	-0.310
-720.821	-144.650	-0.323	-0.030
-719.806	800.000	-0.017	0.065
-718.791	-200.000	-0.023	-0.365
-717.777	-12.496	-0.227	-0.149
-716.762	800.000	0.124	0.349
-715.748	-78.553	-0.265	0.091
-714.733	-31.333	-0.238	-0.134
-713.718	-123.138	0.213	-0.034
-712.704	-71.253	0.215	-0.081
-711.689	800.000	0.095	0.276
-710.675	567.455	0.020	0.049
-709.660	-66.228	0.171	0.068
-708.645	-43.757	0.406	0.205
-707.631	-114.183	0.316	0.061
-706.616	800.000	0.029	-0.113
-705.602	425.930	-0.132	0.286
-704.587	189.858	-0.173	-0.261
-703.572	-167.664	-0.069	0.003
-702.558	46.142	0.156	0.145
-701.543	800.000	-0.009	0.026
-700.529	151.090	-0.183	0.250
-699.514	268.562	0.089	-0.156
-698.499	436.827	0.106	0.232
-697.485	364.355	0.079	-0.160
-696.470	318.386	0.098	-0.187
-695.456	190.272	0.127	-0.192
-694.441	-65.400	0.393	-0.159
-693.426	-53.085	0.029	-0.014
-692.412	-37.023	0.244	-0.132
-691.397	800.000	0.075	-0.305
-690.383	-200.000	-0.021	0.099
-689.368	-51.958	0.056	0.026
-688.354	-200.000	-0.014	-0.100
-687.339	-98.779	0.199	0.051
-686.324	-173.423	-0.043	-0.001
-685.310	23.187	0.096	0.079
-684.295	-200.000	-0.056	-0.254
-683.281	705.043	0.138	-0.365
-682.266	-195.379	-0.002	0.000
-681.251	-146.504	0.284	0.025
-680.237	-200.000	0.009	0.196
-679.222	-20.723	-0.164	0.101
-678.208	800.000	0.073	-0.251
-677.193	-96.646	0.385	-0.102
-676.178	-200.000	-0.001	-0.296
-675.164	-200.000	-0.016	-0.147
-674.149	-200.000	0.019	-0.090
-673.135	269.035	0.113	-0.198
-672.120	-68.883	-0.341	0.132
-671.105	800.000	0.043	0.138
-670.091	32.122	0.148	0.128
-669.076	-84.219	-0.156	-0.050
-668.062	-127.929	0.099	0.014
-667.047	800.000	-0.136	0.407
-666.032	715.879	-0.015	0.040
-665.018	800.000	-0.116	0.365
-664.003	97.968	-0.108	-0.124
-662.989	-87.355	0.574	0.174
-661.974	-158.077	-0.109	0.006
-660.959	264.680	-0.131	0.228
-659.945	800.000	0.101	-0.411
-658.930	-2.450	0.033	0.023
-657.916	-56.971	0.137	0.061
-656.901	-114.067	-0.175	0.034
-655.886	108.811	0.259	0.310
-654.872	-59.315	-0.326	0.141
-653.857	158.282	-0.145	-0.201
-652.843	-21.495	-0.166	0.102
-651.828	-51.785	0.056	0.026
-650.814	-46.476	0.134	-0.066
-649.799	236.070	-0.051	-0.085
-648.784	173.678	-0.115	0.167
-647.770	-200.000	-0.035	0.156
-646.755	-200.000	-0.014	-0.169
-645.741	-69.647	0.178	-0.068
-644.726	72.624	-0.238	-0.249
-643.711	172.965	-0.186	-0.269
-642.697	387.283	-0.105	-0.217
-641.682	-75.197	0.252	0.090
-640.668	800.000	0.089	-0.304
-639.653	-177.630	-0.109	-0.003
-638.638	-72.714	0.121	0.045
-637.624	-126.715	0.075	-0.011
-636.609	634.348	-0.050	-0.126
-635.595	-2.423	-0.167	-0.117
-634.580	-200.000	0.014	-0.370
-633.565	191.525	-0.078	-0.117
-632.551	-200.000	-0.022	-0.169
-631.536	-162.584	-0.138	-0.007
-630.522	-49.498	-0.127	0.061
-629.507	-200.000	-0.006	-0.384
-628.492	368.108	-0.023	0.047
-627.478	7.935	-0.173	0.130
-626.463	-105.259	-0.224	-0.051
-625.449	-63.475	-0.102	-0.042
-624.434	-200.000	-0.007	-0.098
-623.419	624.899	-0.186	-0.469
-622.405	186.450	-0.126	-0.188
-621.390	156.932	0.116	0.160
-620.376	125.281	0.070	0.088
-619.361	-95.503	-0.165	0.044
-618.346	-157.341	-0.097	-0.006
-617.332	407.991	0.114	-0.241
-616.317	-20.837	-0.075	0.046
-615.303	65.796	-0.084	0.085
-614.288	589.308	0.038	0.095
-613.273	800.000	-0.074	0.241
-612.259	737.787	0.076	0.204
-611.244	392.915	-0.084	0.175
-610.230	-85.367	-0.413	-0.129
-609.215	-149.227	-0.267	-0.021
-608.201	-200.000	-0.007	-0.161
-607.186	-53.776	-0.167	0.076
-606.171	76.314	-0.122	-0.130
-605.157	477.369	-0.219	-0.496
-604.142	-94.548	-0.103	0.028
-603.128	51.382	-0.077	-0.074
-602.113	75.254	0.094	-0.100
-601.098	-11.244	-0.035	0.023
-600.084	280.918	0.192	-0.343
-599.069	483.933	-0.025	0.057
-598.055	81.349	-0.028	-0.031
-597.040	-11.868	0.144	0.094
-596.025	-103.772	-0.189	0.044
-595.011	-37.232	-0.168	0.090
-593.996	-43.669	0.319	-0.161
-592.982	-190.393	-0.257	-0.003
-591.967	800.000	0.086	-0.239
-590.952	800.000	0.071	-0.274
-589.938	-155.798	0.082	-0.005
-588.923	-150.322	0.231	0.018
-587.909	-118.341	-0.181	-0.032
-586.894	154.901	-0.115	-0.158
-585.879	-59.246	-0.183	-0.079
-584.865	-200.000	0.008	0.488
-583.850	752.567	0.115	-0.310
-582.836	-61.765	-0.047	0.020
-581.821	-46.881	-0.112	0.055
-580.806	-200.000	0.018	-0.114
-579.792	-162.572	-0.089	-0.004
-578.777	204.001	0.157	-0.243
-577.763	-96.750	0.209	0.055
-576.748	77.456	0.060	-0.063
-575.733	800.000	0.055	0.236
-574.719	29.991	-0.110	-0.094
-573.704	-200.000	-0.020	0.266
-572.690	117.046	0.052	0.064
-571.675	195.437	0.026	0.039
-570.661	381.545	0.021	0.044
-569.646	-139.422	-0.189	-0.020
-568.631	-197.800	-0.199	0.001
-567.617	-11.749	-0.248	0.163
-566.602	-111.439	-0.247	-0.050
-565.588	236.073	0.033	-0.054
-564.573	800.000	0.021	0.070
-563.558	-154.119	-0.113	0.008
-562.544	-200.000	-0.021	-0.159
-561.529	800.000	-0.063	0.202
-560.515	-131.859	-0.222	0.029
-559.500	422.268	-0.001	0.002
-558.485	800.000	0.101	-0.367
-557.471	191.291	-0.181	-0.272
-556.456	260.901	-0.170	0.294
-555.442	-12.927	-0.345	0.224
-554.427	-47.014	0.214	-0.105
-553.412	93.032	0.069	-0.078
-552.398	103.801	-0.169	0.198
-551.383	280.605	-0.088	0.158
-550.369	-31.807	-0.181	0.101
-549.354	-4.690	-0.122	-0.084
-548.339	26.383	0.351	-0.293
-547.325	-109.713	0.338	-0.071
-546.310	18.765	0.136	-0.109
-545.296	-200.000	0.016	0.235
-544.281	-49.606	0.135	0.064
-543.266	-26.466	0.117	-0.069
-542.252	286.659	0.089	-0.161
-541.237	800.000	-0.059	0.184
-540.223	63.858	0.027	-0.027
-539.208	-41.485	-0.289	-0.148
-538.193	302.496	0.042	0.078
-537.179	-200.000	-0.012	0.129
-536.164	207.032	-0.132	0.206
-535.150	-44.768	-0.255	-0.127
-534.135	-37.588	-0.525	-0.279
-533.121	241.116	-0.105	-0.176
-532.106	249.887	0.228	-0.386
-531.091	41.621	0.121	0.110
-530.077	80.380	0.052	0.055
-529.062	157.153	-0.089	-0.123
-528.048	-200.000	0.002	-0.070
-527.033	-130.294	-0.268	0.036
-526.018	-116.217	0.272	0.050
-525.004	102.432	-0.262	-0.305
-523.989	-200.000	-0.042	-0.202
-522.975	-79.051	-0.415	-0.141
-521.960	800.000	0.123	0.409
-520.945	33.625	0.118	0.102
-519.931	363.173	-0.245	0.491
-518.916	23.690	-0.136	-0.111
-517.902	-200.000	0.045	-0.386
-516.887	-107.031	-0.441	-0.097
-515.872	800.000	-0.040	0.131
-514.858	800.000	-0.048	0.147
-513.843	214.765	-0.253	0.399
-512.829	86.859	-0.108	-0.119
-511.814	182.469	-0.125	0.184
-510.799	-200.000	-0.140	0.001
-509.785	631.223	0.153	0.387
-508.770	-12.091	0.381	0.249
-507.756	183.086	0.045	0.066
-506.741	381.986	-0.076	0.156
-505.726	-96.475	-0.011	-0.003
-504.712	-200.000	-0.016	-0.117
-503.697	-200.000	-0.026	-0.347
-502.683	-6.876	-0.126	-0.085
-501.668	800.000	-0.037	0.127
-500.653	-141.108	-0.366	-0.037
-499.639	153.372	-0.220	-0.300
-498.624	140.005	-0.151	0.198
-497.610	90.570	0.157	0.175
-496.595	-115.443	0.380	0.071
-495.581	692.680	0.041	0.107
-494.566	-200.000	0.004	0.162
-493.551	-200.000	0.024	0.245
-492.537	-26.782	0.335	-0.195
-491.522	-70.917	0.102	0.038
-490.508	-170.469	-0.395	0.014
-489.493	800.000	-0.040	0.166
-488.478	203.017	-0.070	0.108
-487.464	-12.874	0.144	0.093
-486.449	800.000	-0.014	-0.048
-485.435	-200.000	0.001	-0.113
-484.420	-140.342	0.276	-0.029
-483.405	756.986	-0.120	0.323
-482.391	221.839	-0.046	-0.074
-481.376	-200.000	-0.033	-0.276
-480.362	-113.757	0.305	0.059
-479.347	95.299	-0.168	-0.191
-478.332	82.667	-0.121	0.131
-477.318	-122.553	-0.394	-0.064
-476.303	-148.278	-0.118	0.010
-475.289	-157.567	0.329	0.020
-474.274	-200.000	0.016	-0.089
-473.259	185.300	-0.054	0.080
-472.245	-5.152	0.269	0.184
-471.230	800.000	0.145	0.530
-470.216	66.512	-0.056	-0.057
-469.201	-81.986	0.236	0.077
-468.186	-35.430	-0.328	-0.177
-467.172	-6.143	-0.126	-0.086
-466.157	-101.679	0.087	0.021
-465.143	800.000	-0.031	0.127
-464.128	800.000	-0.004	-0.016
-463.113	-143.155	0.247	-0.024
-462.099	-68.500	0.188	-0.073
-461.084	-108.582	0.052	0.011
-460.070	-200.000	-0.008	0.037
-459.055	54.755	-0.144	-0.139
-458.040	219.325	0.120	0.191
-457.026	-95.120	-0.051	0.014
-456.011	219.588	-0.079	-0.125
-454.997	228.371	0.020	-0.033
-453.982	-192.916	0.255	-0.002
-452.968	800.000	-0.034	0.130
-451.953	-0.979	-0.185	-0.130
-450.938	-35.237	-0.413	-0.224
-449.924	380.108	0.069	0.140
-448.909	264.389	-0.118	0.205
-447.895	-31.653	-0.272	0.152
-446.880	800.000	0.100	0.308
-445.865	-138.076	-0.136	0.015
-444.851	-200.000	-0.003	0.175
-443.836	-200.000	0.034	0.281
-442.822	143.455	0.162	0.215
-441.807	6.116	0.210	-0.155
-440.792	226.118	-0.115	-0.185
-439.778	-117.169	-0.216	-0.039
-438.763	188.031	-0.129	0.191
-437.749	800.000	-0.096	0.295
-436.734	-63.830	0.465	0.189
-435.719	-142.988	-0.169	0.016
-434.705	800.000	-0.063	-0.208
-433.690	2.390	0.473	0.341
-432.676	671.437	0.099	-0.255
-431.661	419.210	0.034	-0.072
-430.646	-157.818	0.247	0.015
-429.632	-15.093	-0.088	-0.056
-428.617	800.000	-0.047	0.197
-427.603	-174.914	0.131	0.004
-426.588	-90.275	-0.448	-0.129
-425.573	-30.404	0.201	-0.113
-424.559	207.658	-0.037	-0.057
-423.544	-26.620	0.184	0.107
-422.530	321.927	0.022	0.042
-421.515	-200.000	0.000	-0.022
-420.500	23.044	-0.036	-0.029
-419.486	-99.524	0.536	-0.134
-418.471	-104.742	-0.301	-0.069
-417.457	-38.776	-0.282	0.148
-416.442	800.000	0.024	0.076
-415.428	800.000	0.063	0.180
-414.413	-200.000	0.100	0.524
-413.398	-36.474	0.230	0.123
-412.384	33.300	0.194	-0.167
-411.369	-101.510	-0.092	0.022
-410.355	-124.126	0.231	0.036
-409.340	-131.023	0.118	0.016
-408.325	325.303	0.096	0.183
-407.311	64.457	-0.121	-0.121
-406.296	230.974	-0.091	-0.149
-405.282	800.000	0.104	0.351
-404.267	12.539	-0.068	-0.052
-403.252	197.619	-0.097	0.147
-402.238	331.157	0.091	0.173
-401.223	21.620	-0.275	-0.222
-400.209	-94.077	0.459	0.125
-399.194	77.731	0.160	0.170
-398.179	663.686	-0.094	-0.242
-397.165	-98.575	-0.150	0.038
-396.150	419.087	-0.134	-0.286
-395.136	193.388	0.120	-0.181
-394.121	-200.000	0.090	0.488
-393.106	199.074	0.037	-0.057
-392.092	-107.871	0.156	-0.034
-391.077	-0.580	0.130	-0.092
-390.063	-200.000	0.016	-0.073
-389.048	800.000	-0.042	-0.180
-388.033	79.123	0.094	0.100
-387.019	31.394	-0.201	0.172
-386.004	-200.000	-0.036	0.228
-384.990	-200.000	-0.019	-0.372
-383.975	-154.650	-0.229	0.015
-382.960	-200.000	0.017	-0.123
-381.946	-120.854	-0.140	0.023
-380.931	262.447	0.027	0.046
-379.917	-200.000	-0.028	0.156
-378.902	79.986	-0.017	0.018
-377.888	83.818	0.019	0.021
-376.873	13.575	0.073	0.056
-375.858	-200.000	-0.005	0.138
-374.844	800.000	0.123	0.354
-373.829	-30.592	0.391	-0.220
-372.815	396.099	-0.206	-0.426
-371.800	741.288	0.058	-0.154
-370.785	800.000	0.087	0.296
-369.771	-200.000	-0.002	0.102
-368.756	-58.740	0.190	-0.082
-367.742	800.000	-0.087	0.251
-366.727	-7.658	0.262	-0.175
-365.712	-200.000	0.012	-0.270
-364.698	9.834	0.216	-0.162
-363.683	-31.345	0.149	-0.083
-362.669	602.563	-0.060	0.147
-361.654	-200.000	-0.030	-0.196
-360.639	-140.920	-0.124	-0.013
-359.625	-200.000	0.033	0.284
-358.610	-200.000	0.039	0.224
-357.596	18.790	0.199	-0.158
-356.581	388.886	-0.042	0.086
-355.566	97.706	0.156	0.178
-354.552	195.468	-0.148	-0.222
-353.537	800.000	-0.067	-0.215
-352.523	300.808	0.247	0.452
-351.508	-102.548	0.098	0.023
-350.493	-100.245	-0.431	-0.106
-349.479	-46.745	0.341	-0.165
-348.464	800.000	0.025	0.095
-347.450	800.000	-0.043	0.139
-346.435	-200.000	0.031	0.363
-345.420	44.710	0.085	0.078
-344.406	-162.334	-0.182	0.009
-343.391	66.133	-0.085	-0.085
-342.377	-118.187	0.180	0.032
-341.362	-153.532	-0.111	0.008
-340.348	-152.523	0.037	0.003
-339.333	-200.000	0.049	0.481
-338.318	-106.064	0.136	-0.030
-337.304	-200.000	0.001	-0.095
-336.289	-52.515	0.326	-0.149
-335.275	380.749	-0.011	-0.023
-334.260	-200.000	-0.092	0.406
-333.245	85.499	0.089	0.097
-332.231	-83.403	-0.374	0.119
-331.216	-124.882	0.191	-0.029
-330.202	53.582	-0.084	-0.080
-329.187	610.671	0.089	-0.221
-328.172	-137.320	0.142	-0.016
-327.158	-127.506	0.493	-0.071
-326.143	134.395	0.040	0.051
-325.129	47.561	0.255	0.236
-324.114	-93.280	-0.285	0.078
-323.099	800.000	-0.063	-0.270
-322.085	501.139	-0.082	0.188
-321.070	90.063	0.310	0.342
-320.056	-200.000	0.027	0.144
-319.041	61.722	-0.151	-0.149
-318.026	370.968	-0.039	0.077
-317.012	-125.739	0.310	-0.046
-315.997	81.842	0.067	-0.072
-314.983	54.230	0.095	-0.090
-313.968	-64.716	-0.295	0.118
-312.953	-200.000	0.013	-0.184
-311.939	101.454	-0.192	0.221
-310.924	-200.000	0.008	-0.135
-309.910	-108.422	-0.145	-0.031
-308.895	-67.487	-0.187	0.073
-307.880	-77.143	0.590	-0.204
-306.866	-8.152	-0.022	0.014
-305.851	-187.278	0.016	-0.000
-304.837	-98.108	-0.137	-0.035
-303.822	-128.340	0.098	0.014
-302.807	-200.000	-0.040	-0.262
-301.793	57.122	-0.064	-0.062
-300.778	798.358	-0.051	-0.140
-299.764	35.656	-0.236	0.205
-298.749	-151.584	-0.304	-0.022
-297.735	800.000	0.173	0.498
-296.720	94.560	-0.172	0.193
-295.705	-200.000	0.008	0.069
-294.691	-165.108	0.054	0.002
-293.676	-169.180	0.314	0.011
-292.662	-175.108	-0.125	0.003
-291.647	17.873	0.265	0.209
-290.632	-115.789	-0.264	-0.049
-289.618	800.000	-0.016	0.051
-288.603	268.148	0.220	0.381
-287.589	-116.376	-0.073	-0.013
-286.574	349.565	-0.061	-0.119
-285.559	-99.131	0.255	0.064
-284.545	-161.464	-0.155	0.008
-283.530	-200.000	-0.038	-0.331
-282.516	-49.088	0.307	-0.145
-281.501	-73.971	-0.250	-0.090
-280.486	-161.985	-0.235	-0.012
-279.472	143.673	-0.073	0.097
-278.457	-200.000	-0.056	0.336
-277.443	-200.000	-0.014	0.238
-276.428	126.665	-0.023	-0.029
-275.413	787.052	-0.100	-0.270
-274.399	106.005	-0.139	-0.163
-273.384	-200.000	0.018	-0.093
-272.370	280.487	-0.055	-0.097
-271.355	-137.991	0.251	-0.028
-270.340	-200.000	0.001	0.066
-269.326	-115.325	0.360	-0.067
-268.311	800.000	-0.059	0.177
-267.297	141.298	0.196	0.256
-266.282	-200.000	0.016	0.156
-265.267	-77.871	-0.231	-0.079
-264.253	-83.339	0.134	-0.042
-263.238	-90.480	-0.216	-0.062
-262.224	1.960	0.306	-0.218
-261.209	-80.775	0.269	-0.088
-260.195	-200.000	-0.049	0.241
-259.180	-185.561	0.104	-0.002
-258.165	182.058	-0.078	0.114
-257.151	-200.000	0.012	-0.429
-256.136	70.253	0.102	-0.104
-255.122	378.356	-0.006	0.013
-254.107	126.622	0.013	0.016
-253.092	-92.143	0.036	0.010
-252.078	-200.000	0.013	-0.131
-251.063	-174.400	0.097	0.003
-250.049	418.919	0.033	0.069
-249.034	391.737	-0.279	-0.571
-248.019	-156.687	0.158	-0.010
-247.005	-141.853	0.221	-0.022
-245.990	53.537	-0.256	-0.242
-244.976	-117.934	0.071	0.013
-243.961	158.912	0.092	-0.126
-242.946	-116.793	0.191	-0.035
-241.932	298.516	-0.176	-0.319
-240.917	800.000	0.025	-0.076
-239.903	26.337	-0.121	0.100
-238.888	-51.910	-0.346	-0.159
-237.873	-200.000	-0.009	-0.131
-236.859	800.000	-0.065	-0.247
-235.844	21.768	-0.171	-0.138
-234.830	111.320	-0.134	0.159
-233.815	-20.688	0.361	0.219
-232.800	-48.082	0.083	-0.040
-231.786	-200.000	0.013	0.177
-230.771	-79.470	0.312	0.104
-229.757	-200.000	-0.029	-0.210
-228.742	255.304	0.046	-0.078
-227.727	224.418	0.152	-0.243
-226.713	-200.000	0.006	-0.223
-225.698	56.303	0.072	-0.069
-224.684	-86.879	0.304	-0.092
-223.669	-102.342	-0.028	0.007
-222.655	-200.000	-0.071	0.327
-221.640	95.671	-0.213	0.239
-220.625	-200.000	-0.021	-0.338
-219.611	800.000	0.099	-0.278
-218.596	-200.000	0.080	0.449
-217.582	-139.307	-0.209	0.022
-216.567	-27.630	0.197	-0.112
-215.552	175.768	-0.043	-0.061
-214.538	-38.495	0.087	0.045
-213.523	-119.915	-0.032	-0.005
-212.509	155.919	0.070	-0.095
-211.494	637.381	-0.047	0.117
-210.479	-87.594	0.174	-0.052
-209.465	-200.000	-0.031	-0.160
-208.450	145.912	0.062	0.082
-207.436	-142.354	-0.199	0.019
-206.421	-200.000	-0.001	-0.223
-205.406	120.620	-0.089	-0.109
-204.392	800.000	-0.006	0.018
-203.377	-88.554	-0.348	0.102
-202.363	-49.539	0.478	0.224
-201.348	-200.000	-0.014	-0.089
-200.333	-88.638	-0.144	0.042
-199.319	-135.945	0.252	0.029
-198.304	800.000	-0.076	0.208
-197.290	-200.000	0.004	0.059
-196.275	-89.490	-0.089	0.026
-195.260	-200.000	-0.019	0.107
-194.246	215.130	0.137	0.214
-193.231	-151.358	0.257	0.019
-192.217	87.006	0.112	0.122
-191.202	-13.820	0.030	-0.019
-190.187	-200.000	0.034	0.182
-189.173	-131.105	0.033	-0.004
-188.158	577.433	-0.103	-0.248
-187.144	800.000	0.023	-0.069
-186.129	-200.000	-0.029	-0.179
-185.114	109.587	0.046	-0.054
-184.100	-90.247	0.419	-0.120
-183.085	-76.756	-0.047	-0.016
-182.071	-200.000	-0.008	-0.146
-181.056	-142.838	0.345	-0.033
-180.042	573.067	0.100	-0.241
-179.027	-57.696	-0.119	-0.051
-178.012	-45.972	0.240	0.116
-176.998	-200.000	0.033	0.328
-175.983	-83.106	0.110	-0.035
-174.969	-200.000	-0.002	0.244
-173.954	240.456	-0.230	0.378
-172.939	-60.524	0.127	-0.053
-171.925	5.803	-0.163	-0.118
-170.910	110.709	-0.083	-0.099
-169.896	800.000	0.131	0.445
-168.881	7.041	0.091	0.067
-167.866	50.405	0.120	0.112
-166.852	-200.000	0.037	0.217
-165.837	-110.853	-0.242	-0.049
-164.823	-200.000	0.029	-0.515
-163.808	6.164	-0.008	-0.006
-162.793	461.155	-0.090	-0.198
-161.779	-167.785	0.246	-0.010
-160.764	48.664	0.250	0.230
-159.750	-30.364	0.191	0.107
-158.735	349.250	0.098	-0.191
-157.720	344.353	-0.085	-0.163
-156.706	-200.000	0.012	0.138
-155.691	5.500	-0.179	-0.130
-154.677	-100.522	-0.083	-0.020
-153.662	-49.485	0.045	0.021
-152.647	545.313	0.101	-0.238
-151.633	800.000	-0.043	-0.149
-150.618	58.452	0.090	-0.087
-149.604	413.720	0.079	-0.166
-148.589	305.423	-0.058	0.106
-147.574	-28.627	-0.122	0.069
-146.560	-131.934	0.201	0.026
-145.545	-185.348	0.162	0.002
-144.531	800.000	-0.076	-0.268
-143.516	-62.018	-0.124	-0.051
-142.502	9.825	0.220	-0.164
-141.487	-39.971	0.249	0.128
-140.472	-200.000	-0.015	0.131
-139.458	-200.000	-0.002	-0.061
-138.443	-71.403	-0.229	-0.084
-137.429	-30.870	0.174	0.097
-136.414	-14.006	0.089	-0.056
-135.399	-200.000	-0.041	-0.265
-134.385	154.384	-0.174	0.234
-133.370	216.869	0.240	0.375
-132.356	-84.432	-0.059	0.018
-131.341	314.664	-0.034	0.063
-130.326	56.966	0.063	0.061
-129.312	386.088	0.145	-0.293
-128.297	-117.883	0.237	0.042
-127.283	-200.000	0.003	0.060
-126.268	549.834	0.062	0.146
-125.253	98.074	-0.165	0.187
-124.239	-200.000	-0.028	0.342
-123.224	-131.842	0.274	0.035
