DTS Sentinel unit serial number:	SN413079Multiplexer serial number:	ORYXHardware model number:	OX4-SRSoftware version number:	ORYX F/W v4.00 Oryx Data Collector v3.7.2.0data status	okinstallation	princeton_trtdifferential loss correction	single-endedforward channel	channel 3reverse channel	N/Adate	2019/09/19time	12:44:34forward acquisition time	60.00reverse acquisition time	0.00gamma	496.2192k internal	0.2333k external	0.2333temperature offset calibration	0.9987default loss term (dB/km)	0.3790temperature slope calibration	1.0000multiplexer offset coefficient	1.0000multiplexer slope coefficient	1.0000fibre end	0.00T internal ref (°C)	27.78T ext. ref 1 (°C)	0.89T ext. ref 2 (°C)	25.92length (m)	temperature (°C)	Stokes	anti-Stokes-747.200	-200.000	0.011	-0.184
-746.185	-91.257	-0.410	-0.118
-745.171	-138.133	0.205	-0.023
-744.156	-36.888	0.133	0.072
-743.142	341.222	-0.142	0.280
-742.127	-4.724	0.192	-0.133
-741.112	238.665	-0.197	-0.329
-740.098	-18.410	-0.277	0.174
-739.083	-142.551	0.249	0.025
-738.069	24.507	-0.133	0.111
-737.054	-6.085	0.040	0.027
-736.039	33.444	-0.201	-0.175
-735.025	-159.839	0.200	-0.011
-734.010	5.166	0.089	-0.066
-732.996	153.149	0.056	0.077
-731.981	-64.047	0.038	0.016
-730.966	9.013	0.220	-0.167
-729.952	267.280	0.244	-0.429
-728.937	89.113	-0.232	-0.259
-727.923	243.060	-0.114	0.192
-726.908	222.718	-0.093	-0.151
-725.894	624.807	0.074	-0.186
-724.879	-133.266	-0.190	0.024
-723.864	4.490	-0.332	-0.245
-722.850	310.091	-0.096	-0.180
-721.835	69.768	0.014	-0.015
-720.821	800.000	-0.074	-0.275
-719.806	-144.920	-0.100	-0.009
-718.791	1.646	0.146	0.106
-717.777	-106.812	0.096	0.021
-716.762	-147.174	0.137	-0.012
-715.748	-8.115	-0.275	-0.186
-714.733	262.790	0.139	-0.243
-713.718	-11.608	-0.103	-0.068
-712.704	50.849	0.053	-0.050
-711.689	-200.000	0.074	-0.489
-710.675	-56.569	-0.446	-0.199
-709.660	-200.000	0.001	-0.149
-708.645	232.952	-0.142	-0.235
-707.631	-121.330	0.216	0.036
-706.616	346.430	0.202	-0.399
-705.602	-120.043	0.151	-0.026
-704.587	106.161	-0.278	-0.330
-703.572	-200.000	0.002	0.018
-702.558	-65.701	-0.123	-0.050
-701.543	800.000	-0.061	0.170
-700.529	800.000	0.098	0.284
-699.514	23.195	0.236	0.194
-698.499	-160.066	-0.164	-0.009
-697.485	-200.000	0.034	0.352
-696.470	-46.363	0.049	0.024
-695.456	-152.428	0.120	-0.009
-694.441	168.742	0.105	-0.150
-693.426	-63.104	-0.252	-0.104
-692.412	-93.782	0.098	-0.027
-691.397	618.801	-0.094	-0.238
-690.383	224.839	0.059	-0.096
-689.368	-200.000	0.004	0.314
-688.354	-200.000	0.371	-0.002
-687.339	-54.807	0.104	0.047
-686.324	-102.149	-0.380	-0.092
-685.310	130.115	-0.163	-0.210
-684.295	-200.000	-0.002	-0.174
-683.281	164.721	0.121	-0.171
-682.266	-108.751	-0.353	-0.076
-681.251	-103.126	-0.385	0.092
-680.237	-200.000	-0.012	0.160
-679.222	192.021	-0.059	-0.089
-678.208	11.278	-0.047	-0.036
-677.193	239.083	0.170	-0.284
-676.178	-93.276	-0.201	0.056
-675.164	-200.000	0.030	-0.198
-674.149	448.516	-0.027	-0.061
-673.135	-161.799	-0.297	-0.015
-672.120	-200.000	0.028	-0.249
-671.105	-49.050	0.097	0.046
-670.091	62.567	-0.230	-0.231
-669.076	-28.096	-0.060	0.035
-668.062	-8.967	-0.219	0.147
-667.047	-110.324	0.126	0.026
-666.032	264.304	0.252	0.440
-665.018	-200.000	0.007	-0.129
-664.003	136.853	-0.205	0.269
-662.989	800.000	-0.016	0.062
-661.974	-65.576	0.251	0.101
-660.959	800.000	0.039	0.147
-659.945	-17.102	-0.090	-0.057
-658.930	-19.829	0.367	-0.227
-657.916	800.000	0.072	-0.288
-656.901	262.103	0.086	-0.150
-655.886	-200.000	-0.066	0.306
-654.872	120.395	0.067	-0.083
-653.857	-200.000	0.000	0.154
-652.843	559.296	0.027	-0.066
-651.828	-140.823	0.088	-0.009
-650.814	304.617	-0.031	-0.057
-649.799	64.494	-0.096	0.097
-648.784	-162.129	0.038	0.002
-647.770	-35.829	-0.202	-0.110
-646.755	-138.687	-0.314	-0.034
-645.741	-114.222	-0.431	0.083
-644.726	-102.428	-0.277	-0.066
-643.711	243.313	0.189	0.317
-642.697	-105.722	-0.119	-0.027
-641.682	26.389	0.235	-0.196
-640.668	-19.523	-0.140	0.087
-639.653	-200.000	-0.046	0.231
-638.638	-182.115	0.251	0.005
-637.624	-200.000	0.003	0.087
-636.609	45.999	-0.245	-0.227
-635.595	129.241	0.130	-0.166
-634.580	-113.639	0.118	-0.023
-633.565	76.830	-0.156	-0.166
-632.551	-200.000	0.001	0.300
-631.536	-130.401	0.325	0.044
-630.522	-65.822	0.176	-0.070
-629.507	-176.463	0.129	0.003
-628.492	7.538	0.161	-0.121
-627.478	-200.000	-0.023	-0.268
-626.463	568.477	-0.137	-0.334
-625.449	192.049	-0.138	0.208
-624.434	-125.715	0.164	-0.025
-623.419	-102.742	0.257	-0.061
-622.405	-200.000	0.023	0.144
-621.390	67.597	0.221	0.225
-620.376	191.557	0.073	0.110
-619.361	19.661	0.047	-0.038
-618.346	64.641	0.065	0.066
-617.332	142.274	-0.072	-0.096
-616.317	182.919	-0.216	-0.318
-615.303	-96.537	-0.061	0.016
-614.288	-200.000	-0.018	0.125
-613.273	-100.641	0.158	-0.039
-612.259	-86.889	-0.221	0.067
-611.244	800.000	-0.106	-0.315
-610.230	-127.448	-0.436	-0.063
-609.215	170.655	-0.329	-0.471
-608.201	-14.719	0.145	-0.093
-607.186	-166.480	0.222	0.009
-606.171	800.000	0.075	0.320
-605.157	-200.000	0.016	-0.285
-604.142	50.010	0.083	-0.079
-603.128	119.249	-0.267	-0.330
-602.113	179.156	0.076	-0.111
-601.098	-53.966	0.298	-0.136
-600.084	-200.000	-0.033	-0.285
-599.069	-27.036	-0.269	0.157
-598.055	-200.000	0.071	0.430
-597.040	-110.968	-0.156	-0.032
-596.025	619.623	-0.008	-0.021
-595.011	-200.000	-0.002	0.063
-593.996	800.000	0.076	0.214
-592.982	-75.000	-0.381	-0.136
-591.967	-200.000	-0.046	0.317
-590.952	-66.670	0.197	0.078
-589.938	-200.000	0.045	-0.239
-588.923	157.578	-0.151	-0.209
-587.909	-81.892	-0.131	-0.043
-586.894	164.461	-0.167	-0.236
-585.879	-60.993	0.201	0.085
-584.865	37.685	0.215	-0.191
-583.850	-99.415	-0.327	0.082
-582.836	-148.588	0.254	0.021
-581.821	-134.936	-0.242	0.029
-580.806	-79.123	-0.187	0.063
-579.792	120.102	-0.167	-0.207
-578.777	119.491	0.231	-0.286
-577.763	12.760	-0.185	0.143
-576.748	108.994	-0.106	-0.127
-575.733	-94.767	0.200	0.054
-574.719	369.113	0.091	-0.184
-573.704	6.333	-0.105	0.078
-572.690	-41.110	-0.137	0.070
-571.675	-200.000	-0.011	0.082
-570.661	-17.308	-0.260	0.163
-569.646	-200.000	0.049	-0.366
-568.631	115.173	0.083	-0.101
-567.617	800.000	-0.061	-0.190
-566.602	-200.000	0.018	0.320
-565.588	-200.000	-0.005	0.197
-564.573	18.305	-0.238	0.190
-563.558	329.077	-0.019	-0.036
-562.544	-200.000	-0.048	0.367
-561.529	171.512	-0.289	-0.414
-560.515	-30.352	-0.299	0.170
-559.500	8.884	-0.070	0.053
-558.485	-146.976	-0.131	0.011
-557.471	-200.000	0.041	-0.340
-556.456	-200.000	0.003	0.252
-555.442	252.127	0.194	-0.330
-554.427	2.598	-0.101	0.073
-553.412	-16.001	0.258	0.164
-552.398	30.213	0.113	0.097
-551.383	-200.000	-0.029	0.256
-550.369	-21.537	0.122	0.074
-549.354	-84.069	-0.150	0.048
-548.339	-200.000	-0.037	0.343
-547.325	-200.000	-0.276	0.000
-546.310	8.114	0.053	-0.040
-545.296	27.543	-0.097	0.082
-544.281	-9.574	-0.214	0.142
-543.266	-21.799	0.032	-0.019
-542.252	-10.449	0.281	0.186
-541.237	800.000	-0.048	-0.162
-540.223	473.927	-0.026	-0.059
-539.208	-103.634	0.196	0.046
-538.193	-200.000	-0.033	0.223
-537.179	523.484	-0.005	0.012
-536.164	-121.723	-0.111	0.018
-535.150	-200.000	-0.005	0.303
-534.135	800.000	-0.100	0.423
-533.121	-144.044	-0.230	0.021
-532.106	-109.216	0.283	-0.060
-531.091	-86.035	0.146	-0.045
-530.077	-200.000	0.037	-0.305
-529.062	285.468	-0.061	0.110
-528.048	-17.839	0.122	-0.076
-527.033	800.000	0.050	-0.216
-526.018	-200.000	-0.005	0.085
-525.004	-200.000	0.007	-0.293
-523.989	-121.823	0.302	-0.050
-522.975	-92.529	-0.181	0.051
-521.960	-200.000	0.014	0.410
-520.945	-189.410	-0.117	-0.001
-519.931	83.708	0.229	-0.249
-518.916	-200.000	-0.012	-0.208
-517.902	273.389	0.035	-0.061
-516.887	-90.451	0.169	-0.049
-515.872	-58.956	0.288	0.124
-514.858	-200.000	-0.017	-0.141
-513.843	71.498	-0.150	-0.155
-512.829	133.119	0.088	0.113
-511.814	-156.567	-0.208	0.013
-510.799	-44.470	0.123	-0.061
-509.785	33.965	0.149	0.129
-508.770	244.244	0.057	0.095
-507.756	-112.870	0.113	0.022
-506.741	162.366	-0.199	-0.278
-505.726	35.603	-0.140	-0.122
-504.712	-139.048	0.023	0.002
-503.697	-53.019	0.258	0.118
-502.683	38.399	0.144	0.128
-501.668	-1.781	0.190	0.133
-500.653	-57.821	0.170	0.074
-499.639	11.916	0.123	0.094
-498.624	688.017	0.061	-0.158
-497.610	466.496	0.141	-0.315
-496.595	-200.000	0.065	-0.308
-495.581	-133.345	0.293	-0.037
-494.566	215.295	0.059	-0.094
-493.551	413.349	-0.056	-0.119
-492.537	726.451	0.149	0.396
-491.522	248.572	0.137	-0.231
-490.508	232.251	0.024	0.039
-489.493	-154.710	0.185	-0.012
-488.478	7.044	0.184	0.136
-487.464	800.000	0.105	0.329
-486.449	8.115	0.137	0.103
-485.435	-127.380	0.253	-0.037
-484.420	-102.757	0.255	-0.061
-483.405	-200.000	-0.060	0.387
-482.391	221.581	-0.031	0.050
-481.376	-200.000	0.008	0.390
-480.362	-200.000	0.011	-0.103
-479.347	130.594	-0.226	0.288
-478.332	45.490	0.111	0.102
-477.318	800.000	0.102	-0.446
-476.303	-112.843	0.174	0.034
-475.289	-135.391	-0.202	0.024
-474.274	53.910	-0.112	-0.107
-473.259	189.559	0.155	-0.231
-472.245	28.776	-0.077	-0.065
-471.230	-200.000	0.014	-0.284
-470.216	-41.377	-0.153	0.078
-469.201	-90.647	0.129	-0.037
-468.186	-30.472	0.640	0.361
-467.172	800.000	-0.160	0.524
-466.157	-154.290	-0.276	0.019
-465.143	305.564	-0.094	-0.173
-464.128	682.588	0.049	-0.127
-463.113	-57.430	-0.075	-0.033
-462.099	-94.595	-0.225	0.061
-461.084	800.000	-0.083	0.329
-460.070	-200.000	-0.035	-0.182
-459.055	-1.240	0.109	-0.076
-458.040	-11.251	-0.128	-0.084
-457.026	-7.287	-0.282	0.190
-456.011	-200.000	-0.002	0.482
-454.997	-102.784	-0.231	0.055
-453.982	-200.000	-0.007	-0.178
-452.968	532.644	-0.125	-0.293
-451.953	-200.000	0.017	0.159
-450.938	-95.606	0.286	-0.076
-449.924	235.769	0.066	0.108
-448.909	3.417	-0.120	0.087
-447.895	-125.297	-0.160	-0.024
-446.880	-60.018	-0.310	0.131
-445.865	800.000	0.049	-0.147
-444.851	-41.150	-0.034	0.017
-443.836	102.550	-0.134	0.156
-442.822	-200.000	-0.015	0.258
-441.807	-95.006	-0.062	0.017
-440.792	-143.661	0.114	0.011
-439.778	-41.447	0.212	-0.108
-438.763	-200.000	-0.027	-0.353
-437.749	-69.115	0.127	-0.048
-436.734	34.149	-0.110	-0.095
-435.719	151.589	-0.115	-0.156
-434.705	-39.910	-0.417	-0.216
-433.690	-200.000	-0.042	-0.216
-432.676	-200.000	0.006	-0.296
-431.661	-37.352	0.050	-0.026
-430.646	20.374	-0.211	0.169
-429.632	-195.518	-0.228	-0.002
-428.617	-40.109	-0.252	-0.130
-427.603	-200.000	-0.005	0.189
-426.588	-20.428	-0.077	0.047
-425.573	131.882	-0.031	0.039
-424.559	-125.795	-0.067	-0.010
-423.544	800.000	0.093	0.344
-422.530	165.810	0.062	0.087
-421.515	-9.395	0.043	0.028
-420.500	57.531	-0.347	0.336
-419.486	310.506	0.119	-0.222
-418.471	29.034	-0.359	-0.302
-417.457	309.638	0.152	-0.283
-416.442	-41.499	0.500	-0.255
-415.428	90.153	0.045	-0.050
-414.413	69.343	-0.125	-0.128
-413.398	127.221	-0.114	-0.143
-412.384	-73.904	-0.116	0.042
-411.369	187.514	0.113	0.167
-410.355	-200.000	0.005	-0.107
-409.340	23.394	0.179	0.146
-408.325	164.870	-0.033	0.047
-407.311	58.141	0.191	-0.186
-406.296	798.561	-0.072	-0.197
-405.282	37.118	-0.066	-0.058
-404.267	215.271	0.034	-0.053
-403.252	48.437	0.094	0.088
-402.238	-162.668	0.154	-0.007
-401.223	-33.519	-0.125	-0.069
-400.209	-200.000	0.053	-0.254
-399.194	-114.359	-0.317	-0.061
-398.179	79.771	0.267	0.285
-397.165	-18.491	-0.216	-0.134
-396.150	800.000	-0.081	-0.257
-395.136	156.096	-0.117	0.160
-394.121	148.402	-0.174	-0.233
-393.106	800.000	0.081	-0.244
-392.092	-200.000	0.026	-0.251
-391.077	-200.000	0.019	-0.175
-390.063	557.126	0.189	0.452
-389.048	-136.731	-0.327	-0.037
-388.033	-200.000	0.012	0.116
-387.019	-200.000	-0.031	0.469
-386.004	-200.000	-0.006	0.031
-384.990	800.000	0.075	0.268
-383.975	333.891	-0.060	0.115
-382.960	5.386	0.288	-0.210
-381.946	22.383	0.267	-0.216
-380.931	800.000	-0.037	-0.121
-379.917	101.607	0.168	0.194
-378.902	218.729	0.082	0.129
-377.888	-8.431	-0.257	-0.171
-376.873	-200.000	-0.008	-0.162
-375.858	53.667	0.284	0.271
-374.844	474.900	0.199	-0.446
-373.829	203.770	-0.087	0.134
-372.815	-130.575	-0.120	0.016
-371.800	58.548	-0.048	0.046
-370.785	-13.340	0.213	-0.137
-369.771	-200.000	0.030	-0.151
-368.756	-39.168	-0.097	-0.051
-367.742	-200.000	-0.054	-0.292
-366.727	800.000	-0.099	0.385
-365.712	-45.202	-0.068	0.034
-364.698	211.317	-0.146	-0.228
-363.683	-128.019	-0.033	0.005
-362.669	-122.524	0.151	-0.024
-361.654	-200.000	0.044	-0.455
-360.639	-200.000	-0.057	-0.338
-359.625	156.259	-0.094	0.129
-358.610	-174.292	-0.218	-0.006
-357.596	81.376	-0.074	-0.079
-356.581	15.481	0.197	-0.153
-355.566	800.000	-0.046	0.170
-354.552	14.699	0.359	-0.278
-353.537	-47.219	-0.107	0.052
-352.523	122.345	-0.065	-0.080
-351.508	55.774	0.178	0.170
-350.493	-200.000	0.016	0.216
-349.479	-200.000	0.013	-0.071
-348.464	-18.425	0.109	-0.067
-347.450	441.047	-0.160	0.345
-346.435	-200.000	0.008	0.270
-345.420	147.895	0.035	0.046
-344.406	183.033	0.123	0.180
-343.391	-200.000	0.050	-0.314
-342.377	260.198	0.197	0.338
-341.362	-200.000	-0.040	-0.282
-340.348	-200.000	-0.023	-0.368
-339.333	133.192	0.237	0.303
-338.318	320.646	0.139	0.261
-337.304	-23.293	0.177	-0.105
-336.289	800.000	-0.020	0.081
-335.275	279.113	-0.163	-0.288
-334.260	321.939	-0.192	0.361
-333.245	498.571	-0.073	0.166
-332.231	290.334	-0.081	0.145
-331.216	800.000	0.039	0.136
-330.202	-88.039	-0.158	0.047
-329.187	137.369	0.137	-0.178
-328.172	-150.121	-0.146	0.011
-327.158	513.963	-0.050	-0.115
-326.143	101.601	0.106	0.122
-325.129	34.335	0.346	0.298
-324.114	-11.211	0.195	0.127
-323.099	76.175	-0.019	-0.020
-322.085	-6.007	-0.308	-0.208
-321.070	192.442	0.249	-0.371
-320.056	-177.653	-0.184	0.004
-319.041	800.000	-0.080	-0.237
-318.026	183.170	-0.187	-0.273
-317.012	-87.651	0.247	0.074
-315.997	156.666	0.232	0.317
-314.983	16.126	0.157	0.122
-313.968	68.977	-0.071	0.072
-312.953	-100.763	0.324	0.079
-311.939	376.777	0.104	0.209
-310.924	-200.000	-0.018	0.164
-309.910	401.056	0.050	0.103
-308.895	63.452	0.056	0.055
-307.880	-122.692	0.262	0.042
-306.866	475.326	0.042	-0.094
-305.851	-53.721	-0.025	0.011
-304.837	67.498	0.275	0.278
-303.822	92.056	-0.076	0.084
-302.807	-72.930	-0.265	0.096
-301.793	800.000	0.057	-0.218
-300.778	-57.407	0.088	0.038
-299.764	560.582	0.131	-0.314
-298.749	235.437	0.179	-0.292
-297.735	22.990	-0.131	-0.106
-296.720	66.690	-0.142	-0.143
-295.705	197.438	0.128	0.192
-294.691	-64.847	-0.087	-0.035
-293.676	90.910	-0.074	-0.082
-292.662	800.000	-0.101	-0.295
-291.647	-111.128	0.273	0.055
-290.632	141.708	-0.228	-0.298
-289.618	-128.239	0.126	0.018
-288.603	47.921	0.054	0.050
-287.589	-154.174	0.082	0.005
-286.574	-29.263	0.186	0.105
-285.559	181.925	-0.104	-0.152
-284.545	124.595	-0.115	0.143
-283.530	-131.913	0.314	-0.041
-282.516	402.029	-0.096	-0.200
-281.501	-128.916	-0.389	0.054
-280.486	88.154	-0.106	-0.116
-279.472	800.000	-0.074	0.308
-278.457	123.850	-0.079	-0.098
-277.443	68.305	-0.193	-0.195
-276.428	16.582	0.357	0.279
-275.413	-200.000	-0.000	-0.068
-274.399	800.000	0.089	-0.255
-273.384	628.398	-0.060	0.149
-272.370	-92.950	-0.149	-0.041
-271.355	304.213	-0.035	-0.065
-270.340	800.000	0.028	-0.092
-269.326	800.000	0.030	-0.103
-268.311	-200.000	0.018	-0.082
-267.297	-200.000	-0.024	-0.261
-266.282	281.324	-0.170	-0.301
-265.267	-155.501	0.620	-0.039
-264.253	276.371	0.170	0.298
-263.238	-93.636	-0.165	0.045
-262.224	-179.467	0.340	0.007
-261.209	39.102	-0.206	-0.181
-260.195	49.205	-0.091	0.085
-259.180	-46.937	0.317	-0.153
-258.165	-200.000	-0.022	0.311
-257.151	-81.332	0.187	0.061
-256.136	85.175	-0.049	-0.053
-255.122	364.337	0.014	-0.027
-254.107	703.579	-0.042	0.109
-253.092	-149.487	-0.389	0.030
-252.078	-141.328	0.175	-0.018
-251.063	800.000	-0.186	0.548
-250.049	264.688	-0.149	0.256
-249.034	230.690	0.251	0.406
-248.019	-141.055	0.098	-0.010
-247.005	-41.036	-0.261	0.133
-245.990	11.625	-0.133	0.101
-244.976	-150.507	-0.243	0.018
-243.961	-81.746	-0.425	-0.137
-242.946	800.000	-0.103	0.314
-241.932	-112.527	0.150	-0.030
-240.917	-45.261	-0.439	0.215
-239.903	800.000	-0.037	-0.136
-238.888	13.136	-0.238	-0.181
-237.873	-142.102	0.235	-0.023
-236.859	-200.000	-0.002	0.076
-235.844	7.087	0.029	0.021
-234.830	-160.627	-0.291	0.015
-233.815	-125.287	-0.331	-0.050
-232.800	-120.634	0.296	-0.049
-231.786	800.000	-0.061	0.242
-230.771	222.262	-0.171	-0.272
-229.757	630.225	-0.052	-0.129
-228.742	127.984	0.144	-0.181
-227.727	380.219	0.066	-0.133
-226.713	-84.284	-0.196	-0.061
-225.698	133.529	0.118	0.151
-224.684	26.568	-0.118	0.097
-223.669	-200.000	0.001	-0.031
-222.655	550.188	0.036	0.086
-221.640	-59.208	-0.175	0.074
-220.625	-200.000	0.009	0.240
-219.611	70.330	-0.151	0.154
-218.596	111.900	-0.176	-0.209
-217.582	-200.000	-0.019	0.302
-216.567	48.008	0.278	-0.256
-215.552	-155.992	-0.189	0.012
-214.538	-200.000	0.008	0.203
-213.523	-200.000	-0.064	0.281
-212.509	86.948	0.202	-0.219
-211.494	-92.856	0.283	0.078
-210.479	692.171	-0.125	0.322
-209.465	411.735	-0.065	-0.136
-208.450	86.616	0.097	-0.105
-207.436	-134.225	0.227	0.028
-206.421	-200.000	0.006	0.048
-205.406	-66.943	-0.135	0.052
-204.392	49.690	0.218	-0.203
-203.377	-200.000	0.039	-0.354
-202.363	-49.598	0.088	0.041
-201.348	-6.767	0.243	0.163
-200.333	-92.041	-0.126	0.035
-199.319	130.653	-0.126	-0.159
-198.304	715.587	-0.107	0.279
-197.290	-49.781	-0.095	-0.045
-196.275	182.778	0.163	0.237
-195.260	-119.685	0.096	0.016
-194.246	133.880	-0.113	-0.144
-193.231	-148.265	-0.195	0.016
-192.217	-129.495	0.298	0.041
-191.202	519.919	0.131	-0.302
-190.187	-70.988	0.200	0.074
-189.173	28.388	0.070	0.058
-188.158	130.655	-0.084	0.106
-187.144	-200.000	0.011	0.538
-186.129	-158.970	0.393	0.022
-185.114	44.906	-0.243	0.220
-184.100	-23.791	0.390	0.230
-183.085	-84.541	-0.224	-0.070
-182.071	114.047	-0.248	-0.296
-181.056	800.000	-0.055	-0.176
-180.042	-200.000	-0.014	0.072
-179.027	-200.000	-0.034	0.158
-178.012	-140.547	0.208	-0.021
-176.998	80.092	-0.083	0.088
-175.983	124.385	0.079	-0.098
-174.969	-118.984	0.177	0.031
-173.954	800.000	0.111	-0.345
-172.939	-56.423	-0.117	-0.051
-171.925	71.774	-0.094	-0.096
-170.910	-114.865	0.162	0.030
-169.896	-200.000	-0.037	-0.247
-168.881	-53.412	0.157	-0.071
-167.866	800.000	0.061	0.177
-166.852	-200.000	-0.073	0.325
-165.837	-104.619	0.222	0.050
-164.823	32.144	0.080	-0.068
-163.808	-200.000	-0.016	0.294
-162.793	10.130	-0.177	0.132
-161.779	-95.638	-0.196	0.051
-160.764	191.875	0.153	-0.227
-159.750	-122.830	0.275	0.044
-158.735	-111.827	-0.215	0.043
-157.720	800.000	0.038	0.156
-156.706	257.531	0.125	-0.211
-155.691	22.622	-0.359	-0.289
-154.677	85.775	0.175	0.189
-153.662	-127.366	-0.261	0.037
-152.647	-104.039	-0.212	-0.049
-151.633	-103.462	-0.053	0.012
-150.618	13.157	0.133	-0.101
-149.604	332.455	0.114	0.216
-148.589	-16.602	-0.153	-0.095
-147.574	-31.540	0.099	-0.055
-146.560	158.817	-0.082	-0.112
-145.545	-17.503	0.134	-0.083
-144.531	2.447	0.139	0.099
-143.516	139.940	0.281	-0.363
-142.502	547.419	-0.136	0.319
-141.487	123.523	0.148	0.182
-140.472	-4.114	-0.116	0.079
-139.458	713.757	-0.029	-0.074
-138.443	-200.000	-0.051	-0.354
-137.429	-91.618	0.505	0.141
-136.414	151.208	0.361	0.483
-135.399	237.252	-0.217	-0.353
-134.385	-95.541	-0.276	-0.073
-133.370	-28.905	0.140	0.079
-132.356	351.561	0.034	0.066
-131.341	199.948	-0.075	0.113
-130.326	-89.738	-0.073	-0.021
-129.312	-76.127	0.093	-0.032
-128.297	68.341	0.100	0.101
-127.283	694.630	-0.047	0.120
-126.268	-129.190	0.136	-0.019
-125.253	178.952	0.169	-0.242
-124.239	-55.278	0.169	-0.075
-123.224	78.012	0.115	0.120
-122.210	800.000	0.112	-0.323
-121.195	162.222	0.093	0.128
