DTS Sentinel unit serial number:	SN413079Multiplexer serial number:	ORYXHardware model number:	OX4-SRSoftware version number:	ORYX F/W v4.00 Oryx Data Collector v3.7.2.0data status	okinstallation	princeton_trtdifferential loss correction	single-endedforward channel	channel 3reverse channel	N/Adate	2019/09/15time	03:24:35forward acquisition time	60.00reverse acquisition time	0.00gamma	496.2192k internal	0.2323k external	0.2323temperature offset calibration	0.9970default loss term (dB/km)	0.3790temperature slope calibration	1.0000multiplexer offset coefficient	1.0000multiplexer slope coefficient	1.0000fibre end	0.00T internal ref (°C)	31.05T ext. ref 1 (°C)	4.61T ext. ref 2 (°C)	25.76length (m)	temperature (°C)	Stokes	anti-Stokes-747.200	-76.344	-0.140	-0.050
-746.185	-147.674	-0.472	0.040
-745.171	199.478	-0.129	-0.200
-744.156	-200.000	-0.014	0.432
-743.142	-185.342	0.138	0.002
-742.127	130.503	0.109	0.141
-741.112	-75.989	0.172	-0.061
-740.098	800.000	0.028	0.114
-739.083	-200.000	0.008	0.303
-738.069	-87.799	-0.334	0.102
-737.054	800.000	0.130	0.433
-736.039	-200.000	-0.000	-0.397
-735.025	800.000	0.093	0.261
-734.010	189.486	-0.076	-0.115
-732.996	-29.099	-0.169	-0.098
-731.981	-200.000	0.079	-0.360
-730.966	-155.728	0.215	0.014
-729.952	-44.674	-0.361	0.182
-728.937	-58.147	-0.245	0.108
-727.923	101.152	0.047	-0.055
-726.908	241.674	-0.090	-0.152
-725.894	-42.083	-0.096	-0.049
-724.879	-74.197	-0.487	0.178
-723.864	231.995	-0.236	-0.391
-722.850	393.562	0.157	-0.330
-721.835	18.077	-0.126	-0.102
-720.821	223.019	0.086	-0.140
-719.806	-34.154	-0.120	-0.067
-718.791	-0.719	-0.230	0.164
-717.777	132.530	0.175	0.228
-716.762	-80.871	-0.213	-0.071
-715.748	-115.241	-0.317	0.060
-714.733	5.558	-0.140	0.105
-713.718	-91.202	-0.195	-0.056
-712.704	-101.168	0.205	-0.051
-711.689	56.833	0.040	-0.040
-710.675	-200.000	-0.045	-0.307
-709.660	-12.176	-0.146	0.097
-708.645	-20.091	-0.194	-0.121
-707.631	-200.000	-0.021	-0.148
-706.616	-132.413	-0.328	0.043
-705.602	-52.032	0.210	-0.098
-704.587	407.226	0.085	-0.180
-703.572	-100.308	0.220	-0.055
-702.558	-200.000	0.020	-0.109
-701.543	800.000	0.056	-0.204
-700.529	-64.800	0.174	-0.071
-699.514	-38.493	0.080	-0.043
-698.499	445.618	0.032	-0.071
-697.485	140.368	0.253	-0.337
-696.470	-97.375	-0.230	-0.060
-695.456	-75.865	-0.250	0.089
-694.441	-140.279	0.275	0.029
-693.426	175.653	0.096	-0.141
-692.412	82.086	-0.086	0.094
-691.397	-76.494	-0.206	-0.073
-690.383	800.000	-0.067	-0.293
-689.368	-200.000	0.034	0.151
-688.354	197.742	-0.101	-0.156
-687.339	73.734	0.173	-0.182
-686.324	7.858	-0.040	-0.030
-685.310	-61.295	-0.145	0.061
-684.295	598.885	0.088	-0.220
-683.281	800.000	0.090	0.273
-682.266	68.168	-0.050	-0.052
-681.251	587.601	0.012	-0.031
-680.237	120.855	0.018	0.022
-679.222	-132.610	-0.191	-0.025
-678.208	245.000	-0.188	0.318
-677.193	-119.857	-0.077	0.013
-676.178	5.918	-0.235	0.175
-675.164	800.000	0.070	-0.200
-674.149	-200.000	0.041	-0.379
-673.135	320.139	0.052	0.099
-672.120	-74.378	-0.300	-0.109
-671.105	265.856	-0.079	-0.139
-670.091	800.000	-0.064	-0.206
-669.076	-75.954	0.039	-0.014
-668.062	-200.000	-0.041	-0.208
-667.047	92.299	0.127	-0.144
-666.032	-122.233	-0.155	-0.025
-665.018	800.000	-0.128	-0.421
-664.003	154.792	-0.101	-0.140
-662.989	-40.302	-0.268	-0.140
-661.974	138.913	-0.089	-0.118
-660.959	-50.464	-0.373	0.177
-659.945	-98.260	0.156	-0.040
-658.930	-200.000	0.002	-0.231
-657.916	800.000	0.065	-0.238
-656.901	62.809	-0.255	-0.256
-655.886	25.481	-0.275	0.230
-654.872	800.000	0.066	0.254
-653.857	196.650	-0.121	0.185
-652.843	-200.000	-0.009	-0.250
-651.828	-113.707	-0.149	-0.029
-650.814	120.098	0.237	-0.296
-649.799	800.000	-0.087	-0.305
-648.784	320.245	0.086	0.164
-647.770	-24.573	0.227	0.136
-646.755	800.000	-0.069	-0.288
-645.741	800.000	0.050	0.155
-644.726	-139.452	0.421	-0.045
-643.711	-77.712	0.312	0.109
-642.697	156.766	0.205	0.284
-641.682	-200.000	-0.004	-0.239
-640.668	800.000	0.061	-0.200
-639.653	12.830	-0.068	0.053
-638.638	43.679	0.029	-0.027
-637.624	-40.006	0.206	-0.108
-636.609	800.000	0.027	0.087
-635.595	-26.147	-0.184	-0.109
-634.580	33.844	0.310	0.271
-633.565	113.508	-0.046	-0.056
-632.551	-200.000	0.006	-0.351
-631.536	-200.000	-0.009	-0.070
-630.522	267.856	0.150	-0.264
-629.507	-101.414	0.340	0.083
-628.492	739.274	0.111	-0.299
-627.478	35.424	-0.068	-0.060
-626.463	-176.324	0.105	0.003
-625.449	146.531	0.033	-0.045
-624.434	-29.274	0.154	-0.089
-623.419	-98.223	-0.090	0.023
-622.405	-25.215	0.388	-0.231
-621.390	800.000	-0.043	-0.136
-620.376	25.312	-0.109	-0.091
-619.361	-87.141	0.230	0.070
-618.346	87.787	0.213	-0.238
-617.332	-74.759	-0.135	0.049
-616.317	42.846	-0.366	-0.336
-615.303	-108.410	0.131	0.028
-614.288	800.000	-0.017	-0.058
-613.273	-146.319	-0.125	0.011
-612.259	214.207	0.133	-0.211
-611.244	217.184	-0.137	0.220
-610.230	-113.044	-0.299	0.059
-609.215	-107.236	-0.275	-0.061
-608.201	-200.000	-0.004	-0.101
-607.186	113.409	0.216	-0.263
-606.171	-66.996	-0.189	0.075
-605.157	-27.872	-0.375	0.218
-604.142	166.753	-0.189	-0.269
-603.128	-125.995	0.153	-0.023
-602.113	-13.326	-0.244	0.159
-601.098	-200.000	0.133	-0.001
-600.084	-126.495	-0.160	0.024
-599.069	52.835	0.081	0.077
-598.055	-49.938	-0.021	0.010
-597.040	62.620	0.179	0.180
-596.025	-85.403	-0.143	0.045
-595.011	-74.551	-0.155	-0.056
-593.996	114.220	-0.289	0.353
-592.982	-21.052	0.196	-0.121
-591.967	-200.000	-0.051	-0.242
-590.952	-200.000	0.034	-0.168
-589.938	-120.170	-0.268	0.046
-588.923	121.118	0.212	-0.264
-587.909	210.923	0.085	-0.134
-586.894	310.724	-0.084	-0.158
-585.879	-120.178	0.092	0.016
-584.865	-66.129	-0.097	0.039
-583.850	800.000	-0.051	-0.209
-582.836	-77.934	-0.212	-0.073
-581.821	-56.616	-0.198	-0.088
-580.806	45.588	0.285	-0.264
-579.792	-200.000	0.006	0.067
-578.777	18.779	-0.083	-0.067
-577.763	598.477	0.061	0.151
-576.748	-94.920	0.249	-0.068
-575.733	-152.867	0.112	-0.008
-574.719	93.473	-0.174	0.197
-573.704	561.307	0.074	-0.179
-572.690	-200.000	-0.019	-0.102
-571.675	620.018	-0.159	0.402
-570.661	-62.324	-0.092	0.038
-569.646	231.899	-0.160	-0.264
-568.631	-121.035	-0.377	-0.063
-567.617	750.022	-0.096	0.260
-566.602	-73.566	-0.175	-0.064
-565.588	-48.976	0.111	-0.053
-564.573	-111.308	0.210	-0.043
-563.558	-200.000	0.005	0.510
-562.544	208.706	-0.174	0.273
-561.529	227.541	-0.169	0.276
-560.515	-45.322	-0.092	0.046
-559.500	-9.778	0.180	0.120
-558.485	800.000	-0.062	0.219
-557.471	84.455	-0.041	-0.045
-556.456	2.987	0.171	0.125
-555.442	4.705	-0.364	0.268
-554.427	176.139	0.107	0.156
-553.412	688.050	-0.043	-0.113
-552.398	334.756	0.045	0.087
-551.383	-28.978	-0.289	0.167
-550.369	-200.000	-0.002	0.225
-549.354	-200.000	-0.013	-0.247
-548.339	-200.000	0.070	-0.338
-547.325	-183.529	-0.227	-0.004
-546.310	-6.979	0.161	0.109
-545.296	115.987	0.231	-0.283
-544.281	-110.838	-0.431	0.089
-543.266	175.198	0.079	-0.115
-542.252	-63.522	-0.154	-0.063
-541.237	-65.786	-0.046	-0.018
-540.223	269.326	0.174	0.306
-539.208	-200.000	-0.013	0.111
-538.193	-89.888	-0.124	-0.036
-537.179	594.981	0.096	-0.238
-536.164	-123.144	0.076	-0.012
-535.150	-12.636	0.010	0.007
-534.135	-83.034	-0.383	0.124
-533.121	357.959	0.167	-0.333
-532.106	57.520	-0.120	0.118
-531.091	-129.799	-0.410	-0.056
-530.077	800.000	-0.042	0.136
-529.062	-63.372	0.366	0.151
-528.048	-36.516	0.373	0.201
-527.033	-200.000	0.036	-0.213
-526.018	-149.087	-0.115	0.009
-525.004	145.651	-0.068	-0.091
-523.989	800.000	0.068	-0.257
-522.975	800.000	-0.060	0.178
-521.960	-73.515	-0.101	0.037
-520.945	-172.743	-0.191	-0.006
-519.931	589.335	-0.035	-0.086
-518.916	42.022	0.155	-0.141
-517.902	300.128	-0.127	0.235
-516.887	244.256	-0.147	0.247
-515.872	53.445	0.009	-0.009
-514.858	-200.000	-0.002	0.061
-513.843	710.480	-0.036	0.096
-512.829	-200.000	0.004	0.184
-511.814	-62.541	-0.155	0.064
-510.799	-200.000	0.035	-0.257
-509.785	82.561	0.138	0.150
-508.770	756.760	-0.105	0.284
-507.756	800.000	0.078	0.260
-506.741	-126.120	-0.143	0.021
-505.726	-95.114	0.131	0.035
-504.712	-188.940	0.214	-0.003
-503.697	-200.000	0.043	-0.193
-502.683	-120.558	0.220	-0.037
-501.668	35.824	0.287	0.252
-500.653	78.417	-0.149	-0.159
-499.639	800.000	0.058	-0.190
-498.624	32.675	0.187	0.161
-497.610	-15.060	-0.075	0.048
-496.595	-200.000	-0.011	-0.191
-495.581	-56.878	0.163	-0.072
-494.566	-102.166	-0.071	-0.017
-493.551	-200.000	0.001	-0.044
-492.537	-200.000	-0.038	0.268
-491.522	-200.000	0.001	-0.111
-490.508	3.719	0.263	0.192
-489.493	548.635	0.024	0.057
-488.478	221.252	-0.188	0.302
-487.464	-162.838	-0.166	0.008
-486.449	-102.732	0.135	0.032
-485.435	362.553	0.074	-0.149
-484.420	-99.735	-0.359	0.090
-483.405	101.497	-0.060	0.070
-482.391	186.174	0.179	-0.267
-481.376	800.000	0.025	0.108
-480.362	-144.503	-0.267	-0.025
-479.347	-24.547	-0.163	0.097
-478.332	-200.000	-0.034	0.335
-477.318	-122.609	-0.139	-0.022
-476.303	-48.215	-0.208	-0.101
-475.289	-200.000	-0.001	-0.097
-474.274	303.679	-0.181	0.335
-473.259	121.654	-0.264	-0.328
-472.245	-141.480	-0.175	-0.018
-471.230	800.000	0.012	0.043
-470.216	117.501	0.102	-0.125
-469.201	800.000	-0.052	0.159
-468.186	48.883	0.146	0.137
-467.172	450.412	-0.034	0.075
-466.157	-163.861	0.231	0.011
-465.143	-66.270	-0.198	-0.079
-464.128	-200.000	-0.027	-0.262
-463.113	277.918	-0.014	-0.025
-462.099	-200.000	0.025	0.422
-461.084	-92.758	0.337	-0.094
-460.070	436.031	-0.098	0.214
-459.055	193.727	-0.071	0.108
-458.040	350.575	-0.088	0.173
-457.026	-96.196	0.057	-0.015
-456.011	216.578	0.091	-0.144
-454.997	-26.115	0.228	0.134
-453.982	800.000	0.046	0.200
-452.968	-65.808	0.389	0.156
-451.953	-57.307	-0.097	0.043
-450.938	-200.000	-0.012	-0.109
-449.924	-43.696	-0.247	0.124
-448.909	-23.605	0.222	0.133
-447.895	-38.765	-0.138	0.073
-446.880	-189.866	-0.308	0.003
-445.865	34.436	0.304	-0.265
-444.851	-85.596	-0.187	-0.058
-443.836	69.657	-0.082	-0.084
-442.822	-200.000	0.007	-0.301
-441.807	800.000	-0.060	0.221
-440.792	-184.213	0.239	-0.004
-439.778	96.101	-0.072	0.082
-438.763	800.000	-0.035	-0.116
-437.749	-98.084	-0.102	-0.026
-436.734	-128.068	0.327	-0.047
-435.719	297.861	0.087	0.160
-434.705	129.165	0.153	0.194
-433.690	-73.065	0.256	-0.094
-432.676	294.714	-0.184	0.335
-431.661	105.587	-0.244	0.288
-430.646	800.000	0.029	-0.086
-429.632	159.608	0.082	0.114
-428.617	142.961	-0.125	-0.166
-427.603	-200.000	0.011	0.320
-426.588	-200.000	-0.001	0.103
-425.573	-160.129	0.300	-0.016
-424.559	-123.386	0.242	-0.039
-423.544	-200.000	0.034	-0.157
-422.530	-83.351	0.080	0.026
-421.515	800.000	-0.029	0.120
-420.500	-183.484	-0.228	-0.004
-419.486	91.937	0.045	-0.051
-418.471	-200.000	-0.005	0.049
-417.457	216.057	-0.119	0.188
-416.442	609.857	0.005	0.011
-415.428	288.037	-0.057	0.102
-414.413	-36.873	0.139	-0.074
-413.398	63.159	0.341	-0.341
-412.384	-133.143	-0.277	0.035
-411.369	502.613	-0.013	0.029
-410.355	-175.617	0.096	0.003
-409.340	-200.000	0.005	0.228
-408.325	-25.988	0.082	-0.048
-407.311	156.718	0.097	-0.134
-406.296	-62.138	-0.140	0.058
-405.282	283.999	0.215	0.384
-404.267	-182.774	-0.211	-0.004
-403.252	800.000	-0.061	-0.232
-402.238	297.307	0.127	0.232
-401.223	-105.453	0.307	0.070
-400.209	-200.000	-0.005	-0.124
-399.194	161.115	-0.060	-0.083
-398.179	800.000	-0.069	-0.234
-397.165	-83.423	-0.193	0.062
-396.150	163.591	0.195	0.273
-395.136	-112.629	0.163	-0.032
-394.121	188.559	0.077	0.115
-393.106	-29.636	0.382	0.217
-392.092	37.788	-0.120	0.106
-391.077	73.628	0.179	0.187
-390.063	-200.000	-0.035	0.247
-389.048	1.516	-0.200	0.143
-388.033	-200.000	-0.081	0.474
-387.019	31.438	-0.119	0.102
-386.004	-116.623	-0.106	0.019
-384.990	-200.000	0.052	0.300
-383.975	-1.293	-0.180	0.126
-382.960	-87.646	0.288	0.087
-381.946	-200.000	0.031	-0.228
-380.931	-13.235	-0.131	-0.084
-379.917	386.474	-0.146	-0.299
-378.902	58.661	-0.082	-0.080
-377.888	-89.956	0.294	-0.086
-376.873	-120.186	-0.348	0.059
-375.858	-138.509	-0.269	-0.029
-374.844	-30.926	0.200	0.113
-373.829	-118.636	-0.168	0.030
-372.815	-173.112	0.279	-0.009
-371.800	60.028	0.194	0.191
-370.785	-140.303	-0.082	-0.009
-369.771	-150.671	0.175	0.013
-368.756	-200.000	0.024	-0.221
-367.742	800.000	0.081	-0.305
-366.727	73.857	0.244	-0.254
-365.712	-128.522	0.437	-0.062
-364.698	196.694	-0.109	0.166
-363.683	-200.000	0.008	-0.207
-362.669	-106.377	-0.289	0.064
-361.654	-125.702	0.107	0.016
-360.639	-200.000	-0.012	-0.404
-359.625	6.514	0.239	0.176
-358.610	-139.684	0.169	0.018
-357.596	-91.100	-0.141	0.040
-356.581	800.000	0.122	-0.337
-355.566	-28.081	0.492	-0.283
-354.552	467.798	-0.035	-0.077
-353.537	-122.352	-0.065	-0.010
-352.523	-82.845	-0.361	-0.116
-351.508	-56.350	-0.372	-0.164
-350.493	800.000	0.072	-0.244
-349.479	-118.886	-0.141	-0.025
-348.464	180.217	0.061	0.089
-347.450	-138.519	-0.248	0.027
-346.435	-71.244	-0.180	-0.067
-345.420	184.167	0.177	-0.261
-344.406	123.996	0.025	0.031
-343.391	161.926	-0.037	-0.051
-342.377	-73.872	-0.252	-0.091
-341.362	-115.821	0.128	0.024
-340.348	96.161	0.222	-0.253
-339.333	221.234	-0.106	-0.169
-338.318	-27.688	-0.165	-0.095
-337.304	-158.122	0.279	0.016
-336.289	-127.386	-0.254	-0.037
-335.275	69.712	0.083	-0.084
-334.260	-132.759	0.166	-0.021
-333.245	-105.307	-0.377	-0.085
-332.231	800.000	0.026	0.109
-331.216	-83.532	0.410	0.130
-330.202	635.129	0.083	-0.210
-329.187	15.872	0.139	0.108
-328.172	266.298	0.204	-0.354
-327.158	193.203	-0.230	-0.345
-326.143	3.022	0.100	-0.072
-325.129	-44.365	0.029	-0.015
-324.114	-200.000	0.021	-0.315
-323.099	333.048	0.046	0.088
-322.085	97.301	0.094	-0.108
-321.070	-84.044	0.111	0.035
-320.056	800.000	0.071	-0.215
-319.041	447.321	0.147	0.320
-318.026	-136.908	0.158	-0.018
-317.012	63.286	0.219	-0.218
-315.997	-200.000	-0.036	-0.408
-314.983	-1.197	-0.072	-0.050
-313.968	-64.518	0.292	0.118
-312.953	-53.072	-0.061	0.028
-311.939	201.818	0.112	-0.172
-310.924	-79.851	0.443	0.148
-309.910	79.327	0.102	-0.108
-308.895	-152.422	0.045	-0.003
-307.880	-153.612	-0.371	-0.025
-306.866	393.541	0.086	-0.177
-305.851	-200.000	-0.010	0.118
-304.837	-96.220	-0.079	-0.021
-303.822	800.000	0.142	0.403
-302.807	249.967	-0.134	0.226
-301.793	800.000	-0.070	0.296
-300.778	-154.962	0.228	0.015
-299.764	-60.326	-0.166	-0.070
-298.749	-96.262	0.184	0.048
-297.735	800.000	0.066	-0.219
-296.720	-39.754	-0.258	-0.134
-295.705	-38.553	-0.309	0.162
-294.691	-139.535	-0.194	0.021
-293.676	-153.556	0.315	-0.022
-292.662	-200.000	-0.008	-0.211
-291.647	-61.863	-0.271	-0.113
-290.632	0.530	-0.474	-0.336
-289.618	170.869	0.189	-0.269
-288.603	480.376	0.127	-0.285
-287.589	-73.880	-0.139	-0.050
-286.574	-8.447	-0.297	0.198
-285.559	38.743	0.168	0.149
-284.545	-154.243	0.154	-0.010
-283.530	-36.619	-0.118	-0.063
-282.516	51.461	-0.194	0.183
-281.501	-200.000	0.072	0.348
-280.486	127.274	-0.054	0.068
-279.472	-167.674	0.357	0.014
-278.457	266.967	-0.060	0.105
-277.443	-38.268	0.237	0.124
-276.428	-200.000	-0.049	-0.214
-275.413	800.000	-0.026	0.071
-274.399	800.000	-0.059	-0.210
-273.384	-200.000	0.030	-0.598
-272.370	-30.787	0.239	-0.134
-271.355	-47.445	-0.123	-0.059
-270.340	-200.000	-0.005	0.460
-269.326	800.000	0.116	0.319
-268.311	800.000	-0.127	-0.382
-267.297	-149.255	0.280	-0.022
-266.282	-54.750	-0.323	-0.145
-265.267	-127.639	-0.148	-0.021
-264.253	704.111	-0.109	0.286
-263.238	107.017	-0.172	-0.203
-262.224	59.128	-0.243	0.237
-261.209	130.590	0.260	0.330
-260.195	-97.568	-0.295	-0.076
-259.180	800.000	0.099	0.310
-258.165	-128.158	-0.212	0.030
-257.151	800.000	-0.048	-0.142
-256.136	8.061	-0.325	-0.241
-255.122	-200.000	0.069	-0.315
-254.107	20.345	0.199	-0.159
-253.092	-48.202	-0.027	-0.013
-252.078	97.077	0.261	0.296
-251.063	233.507	-0.127	-0.207
-250.049	410.181	0.071	-0.148
-249.034	116.408	-0.073	-0.088
-248.019	297.855	0.120	0.218
-247.005	-52.146	-0.148	-0.068
-245.990	303.656	0.122	0.223
-244.976	-66.237	0.056	0.022
-243.961	57.945	-0.152	-0.147
-242.946	135.824	-0.163	0.210
-241.932	-200.000	0.010	0.108
-240.917	368.380	0.094	0.189
-239.903	-130.638	-0.278	-0.037
-238.888	179.904	-0.046	-0.067
-237.873	-18.934	0.148	-0.091
-236.859	-135.326	0.204	0.024
-235.844	-58.628	-0.081	0.035
-234.830	-200.000	-0.041	0.231
-233.815	29.899	-0.022	0.019
-232.800	120.571	-0.270	-0.332
-231.786	65.501	-0.201	0.202
-230.771	527.303	0.074	-0.172
-229.757	-32.417	-0.164	-0.091
-228.742	-161.931	0.040	0.002
-227.727	37.334	0.209	0.184
-226.713	800.000	0.144	0.442
-225.698	-177.079	0.422	0.010
-224.684	-200.000	-0.009	0.356
-223.669	88.549	-0.186	-0.204
-222.655	9.081	0.178	0.133
-221.640	800.000	-0.044	-0.135
-220.625	5.148	-0.162	-0.118
-219.611	800.000	-0.011	0.036
-218.596	386.591	-0.161	-0.329
-217.582	800.000	0.085	-0.317
-216.567	-200.000	-0.053	-0.283
-215.552	-41.226	-0.197	0.101
-214.538	-65.012	-0.428	0.171
-213.523	256.805	0.102	0.173
-212.509	36.555	-0.053	0.046
-211.494	286.665	0.142	-0.253
-210.479	-35.498	-0.023	0.012
-209.465	-61.209	0.080	-0.033
-208.450	390.871	-0.102	0.210
-207.436	-200.000	-0.049	0.330
-206.421	162.019	0.208	-0.288
-205.406	25.311	-0.294	-0.241
-204.392	44.268	0.091	-0.083
-203.377	178.996	-0.085	-0.124
-202.363	800.000	-0.010	-0.039
-201.348	661.653	0.054	-0.138
-200.333	-200.000	-0.034	0.248
-199.319	439.924	-0.019	-0.042
-198.304	467.286	-0.100	0.221
-197.290	-5.000	0.292	-0.199
-196.275	353.108	-0.198	-0.388
-195.260	82.846	0.126	-0.136
-194.246	-22.556	-0.178	-0.107
-193.231	-7.824	0.292	-0.195
-192.217	-200.000	0.031	0.279
-191.202	-168.739	-0.236	-0.009
-190.187	-186.347	-0.067	-0.001
-189.173	51.166	-0.155	0.146
-188.158	-0.486	-0.128	0.090
-187.144	489.959	0.025	-0.056
-186.129	-15.072	0.122	-0.077
-185.114	39.279	0.227	0.200
-184.100	-85.737	-0.133	0.041
-183.085	505.054	0.126	0.289
-182.071	-102.750	0.216	-0.051
-181.056	248.907	-0.140	-0.235
-180.042	-54.818	0.296	0.132
-179.027	164.500	-0.070	0.097
-178.012	132.644	0.044	-0.056
-176.998	256.836	0.128	-0.218
-175.983	-200.000	0.077	0.340
-174.969	-181.670	-0.198	0.004
-173.954	-200.000	0.046	0.240
-172.939	88.738	-0.150	0.165
-171.925	24.603	-0.147	0.120
-170.910	800.000	0.044	0.132
-169.896	-74.407	0.125	-0.045
-168.881	113.146	-0.064	-0.076
-167.866	-74.823	0.204	-0.072
-166.852	145.020	0.092	0.122
-165.837	800.000	-0.046	0.163
-164.823	-35.012	0.288	-0.155
-163.808	68.564	-0.129	0.131
-162.793	199.174	-0.055	-0.083
-161.779	542.159	-0.114	-0.269
-160.764	104.799	-0.186	0.216
-159.750	285.412	0.103	0.182
-158.735	800.000	-0.096	0.322
-157.720	-200.000	0.015	-0.115
-156.706	-48.464	0.149	0.071
-155.691	87.961	-0.080	-0.087
-154.677	128.531	0.091	0.114
-153.662	-102.800	-0.152	-0.036
-152.647	-130.964	-0.152	-0.020
-151.633	-200.000	-0.001	0.035
-150.618	-41.634	-0.096	0.049
-149.604	53.610	-0.160	-0.151
-148.589	-109.333	-0.444	0.093
-147.574	-98.193	0.255	0.065
-146.560	-200.000	-0.006	0.269
-145.545	134.006	-0.068	-0.087
-144.531	31.334	-0.110	0.093
-143.516	-117.125	0.149	-0.027
-142.502	288.371	0.106	-0.189
-141.487	-200.000	0.007	-0.118
-140.472	230.175	-0.178	0.287
-139.458	800.000	-0.059	0.178
-138.443	522.623	-0.149	-0.345
-137.429	424.035	-0.141	0.300
-136.414	172.538	-0.020	0.028
-135.399	-85.829	0.183	-0.056
-134.385	-45.312	0.126	-0.062
-133.370	0.947	0.245	-0.173
-132.356	152.223	-0.117	0.158
-131.341	342.851	0.134	0.258
-130.326	84.625	-0.166	0.179
-129.312	273.269	0.074	-0.128
-128.297	-200.000	0.045	0.418
-127.283	196.020	-0.117	0.175
-126.268	800.000	-0.043	-0.122
-125.253	-31.005	0.466	-0.260
-124.239	-137.391	0.293	-0.033
-123.224	92.314	-0.091	0.101
-122.210	10.377	0.252	-0.189
