DTS Sentinel unit serial number:	SN413079Multiplexer serial number:	ORYXHardware model number:	OX4-SRSoftware version number:	ORYX F/W v4.00 Oryx Data Collector v3.7.2.0data status	okinstallation	princeton_trtdifferential loss correction	single-endedforward channel	channel 3reverse channel	N/Adate	2019/09/16time	04:12:35forward acquisition time	60.00reverse acquisition time	0.00gamma	496.2192k internal	0.2335k external	0.2335temperature offset calibration	0.9958default loss term (dB/km)	0.3790temperature slope calibration	1.0000multiplexer offset coefficient	1.0000multiplexer slope coefficient	1.0000fibre end	0.00T internal ref (°C)	27.37T ext. ref 1 (°C)	10.77T ext. ref 2 (°C)	21.41length (m)	temperature (°C)	Stokes	anti-Stokes-747.200	-200.000	0.041	0.188
-746.185	800.000	0.052	0.157
-745.171	-200.000	0.055	0.264
-744.156	-10.730	0.407	0.270
-743.142	-200.000	0.002	0.140
-742.127	-123.619	-0.376	0.060
-741.112	-200.000	-0.045	0.392
-740.098	-200.000	0.053	-0.275
-739.083	386.015	0.123	0.254
-738.069	800.000	-0.010	-0.040
-737.054	-70.805	0.386	-0.146
-736.039	-158.732	-0.138	-0.008
-735.025	-115.531	0.323	-0.061
-734.010	-200.000	-0.011	-0.180
-732.996	-181.238	-0.329	0.007
-731.981	-25.052	-0.245	0.146
-730.966	-200.000	0.002	0.226
-729.952	-36.001	-0.347	-0.188
-728.937	-77.509	-0.095	0.033
-727.923	435.751	-0.044	0.096
-726.908	6.122	-0.142	-0.106
-725.894	-64.157	-0.251	0.103
-724.879	-12.651	-0.157	0.103
-723.864	-162.646	-0.386	0.019
-722.850	-200.000	0.022	0.245
-721.835	-117.060	-0.288	0.053
-720.821	-200.000	0.015	-0.080
-719.806	800.000	-0.143	0.476
-718.791	-69.917	0.086	0.033
-717.777	167.447	-0.124	-0.176
-716.762	214.287	-0.084	0.133
-715.748	-154.409	0.215	-0.014
-714.733	-77.974	0.500	-0.173
-713.718	-122.211	-0.108	-0.018
-712.704	-200.000	0.010	0.201
-711.689	-200.000	0.020	-0.466
-710.675	64.457	0.132	0.133
-709.660	-124.650	0.211	-0.033
-708.645	-64.424	-0.174	-0.071
-707.631	46.191	-0.039	0.036
-706.616	-113.099	-0.259	-0.051
-705.602	561.227	-0.111	0.269
-704.587	-67.300	-0.237	0.094
-703.572	519.823	0.024	0.057
-702.558	413.647	0.183	0.391
-701.543	-37.016	0.401	-0.215
-700.529	86.671	0.104	0.115
-699.514	-80.179	0.127	-0.043
-698.499	-41.119	0.279	-0.144
-697.485	-96.197	0.117	0.031
-696.470	-84.683	0.180	0.057
-695.456	185.344	0.055	0.082
-694.441	34.242	0.256	-0.224
-693.426	-52.994	0.368	0.170
-692.412	-131.861	0.080	0.011
-691.397	800.000	0.133	-0.420
-690.383	-200.000	-0.014	-0.169
-689.368	-34.868	0.101	0.056
-688.354	46.943	-0.174	0.162
-687.339	81.918	0.302	0.328
-686.324	-81.231	0.230	0.076
-685.310	73.596	-0.192	-0.202
-684.295	-96.928	-0.144	-0.038
-683.281	419.288	-0.063	0.136
-682.266	-200.000	0.009	0.194
-681.251	-200.000	0.040	-0.516
-680.237	-200.000	0.070	-0.429
-679.222	-71.145	0.162	-0.061
-678.208	-200.000	0.018	0.092
-677.193	397.236	-0.031	0.065
-676.178	-81.658	-0.144	-0.047
-675.164	75.968	-0.141	0.149
-674.149	-70.700	-0.243	0.092
-673.135	-200.000	0.003	0.341
-672.120	-17.490	0.298	-0.188
-671.105	143.944	0.123	-0.165
-670.091	719.669	0.037	-0.100
-669.076	113.816	-0.276	0.336
-668.062	56.780	0.129	-0.126
-667.047	14.208	-0.167	-0.130
-666.032	-11.962	0.327	0.215
-665.018	771.095	-0.125	-0.340
-664.003	-25.381	0.067	0.040
-662.989	-45.649	0.213	-0.106
-661.974	325.601	0.098	0.187
-660.959	800.000	0.041	-0.115
-659.945	-179.615	0.061	-0.001
-658.930	-38.522	-0.162	0.086
-657.916	-155.317	-0.082	0.005
-656.901	1.989	-0.133	-0.096
-655.886	211.491	0.048	-0.075
-654.872	155.104	-0.201	0.277
-653.857	-24.821	-0.187	0.111
-652.843	404.938	0.145	-0.305
-651.828	-200.000	0.061	0.268
-650.814	-102.325	-0.135	-0.032
-649.799	287.327	-0.119	-0.216
-648.784	800.000	0.048	-0.167
-647.770	237.760	0.074	0.123
-646.755	-2.270	0.140	0.098
-645.741	-200.000	-0.001	0.195
-644.726	-200.000	0.011	-0.450
-643.711	175.657	0.049	0.070
-642.697	-137.236	0.075	-0.009
-641.682	-200.000	-0.023	-0.501
-640.668	431.793	-0.169	-0.366
-639.653	41.712	-0.203	-0.184
-638.638	-115.381	-0.294	-0.055
-637.624	457.794	0.113	-0.251
-636.609	-121.051	-0.210	0.035
-635.595	-200.000	-0.015	0.105
-634.580	-17.475	-0.216	0.136
-633.565	251.866	0.113	0.192
-632.551	-47.345	0.147	0.072
-631.536	-200.000	-0.048	0.249
-630.522	-39.608	-0.101	0.053
-629.507	-139.445	0.095	-0.010
-628.492	-200.000	-0.050	0.285
-627.478	146.988	0.205	-0.276
-626.463	-200.000	-0.009	0.215
-625.449	-18.910	-0.169	-0.105
-624.434	-200.000	-0.065	0.471
-623.419	800.000	-0.070	-0.201
-622.405	712.970	0.065	-0.172
-621.390	48.556	0.135	-0.126
-620.376	-200.000	0.029	0.276
-619.361	72.681	0.119	-0.124
-618.346	-1.636	0.069	-0.048
-617.332	-49.337	0.164	-0.078
-616.317	-183.198	-0.257	0.005
-615.303	555.489	0.204	-0.492
-614.288	-22.502	-0.018	0.011
-613.273	-44.213	-0.030	0.015
-612.259	-200.000	0.015	-0.424
-611.244	-73.129	-0.547	0.200
-610.230	-200.000	-0.020	-0.203
-609.215	47.940	0.077	0.072
-608.201	750.182	-0.144	-0.388
-607.186	-73.981	0.365	-0.132
-606.171	800.000	-0.108	-0.352
-605.157	800.000	-0.051	0.198
-604.142	800.000	-0.095	-0.360
-603.128	800.000	0.123	-0.373
-602.113	71.686	-0.410	0.426
-601.098	800.000	0.029	-0.094
-600.084	-200.000	-0.022	0.222
-599.069	513.705	0.096	0.225
-598.055	27.098	0.121	0.101
-597.040	298.731	0.103	0.189
-596.025	-191.309	-0.124	0.001
-595.011	-2.698	0.362	0.253
-593.996	800.000	-0.079	0.330
-592.982	800.000	0.096	-0.394
-591.967	-129.455	-0.305	-0.042
-590.952	-200.000	-0.013	0.334
-589.938	-149.082	0.360	-0.029
-588.923	134.885	-0.105	-0.136
-587.909	800.000	-0.065	-0.234
-586.894	-3.037	-0.243	0.169
-585.879	101.041	-0.120	0.139
-584.865	42.568	-0.107	-0.097
-583.850	-200.000	-0.044	-0.196
-582.836	41.276	0.049	0.044
-581.821	-200.000	0.058	0.264
-580.806	19.674	0.099	-0.080
-579.792	-115.955	-0.232	-0.043
-578.777	-103.824	-0.291	0.068
-577.763	69.259	0.163	-0.168
-576.748	158.722	0.068	0.095
-575.733	-200.000	0.010	0.118
-574.719	-69.944	-0.333	0.127
-573.704	26.908	-0.050	0.042
-572.690	-94.122	-0.140	-0.038
-571.675	800.000	-0.018	0.076
-570.661	361.118	-0.063	0.126
-569.646	800.000	0.062	0.198
-568.631	10.712	-0.108	0.082
-567.617	-66.056	-0.416	0.165
-566.602	-134.437	-0.250	0.031
-565.588	-50.636	-0.274	0.129
-564.573	143.217	-0.111	0.148
-563.558	-19.527	0.265	-0.164
-562.544	-121.578	0.142	-0.024
-561.529	-120.956	0.401	0.067
-560.515	65.423	0.140	0.141
-559.500	64.847	0.074	-0.075
-558.485	-33.727	-0.092	-0.051
-557.471	-26.809	0.097	-0.057
-556.456	-46.817	-0.027	0.013
-555.442	-200.000	-0.007	-0.033
-554.427	-57.935	0.304	0.132
-553.412	84.909	-0.068	-0.075
-552.398	800.000	0.028	-0.105
-551.383	-10.669	0.147	0.097
-550.369	-11.579	-0.146	-0.096
-549.354	-61.590	-0.183	-0.076
-548.339	-136.298	-0.375	0.044
-547.325	334.346	0.116	-0.224
-546.310	-71.607	-0.395	-0.147
-545.296	-112.925	-0.227	-0.045
-544.281	110.624	-0.296	-0.355
-543.266	180.352	0.127	-0.185
-542.252	21.554	-0.303	-0.246
-541.237	-200.000	0.010	0.091
-540.223	-38.636	0.284	0.150
-539.208	-67.162	0.256	-0.100
-538.193	12.997	-0.037	-0.028
-537.179	85.599	0.055	0.060
-536.164	-21.993	-0.134	0.081
-535.150	31.245	-0.200	0.171
-534.135	789.314	0.043	0.119
-533.121	32.669	-0.053	-0.046
-532.106	-158.441	-0.190	-0.011
-531.091	69.143	-0.059	0.060
-530.077	-54.641	0.290	0.131
-529.062	57.588	0.071	-0.069
-528.048	691.222	-0.104	-0.272
-527.033	-200.000	0.006	-0.191
-526.018	370.841	-0.179	0.362
-525.004	27.210	0.122	0.102
-523.989	18.708	-0.051	-0.041
-522.975	800.000	0.114	-0.318
-521.960	43.823	-0.116	-0.106
-520.945	45.716	-0.090	0.083
-519.931	39.823	0.038	-0.034
-518.916	581.335	0.106	0.258
-517.902	800.000	0.036	-0.152
-516.887	-200.000	-0.051	0.255
-515.872	-0.184	0.184	-0.130
-514.858	-112.876	0.315	-0.062
-513.843	595.367	-0.105	-0.259
-512.829	-200.000	0.058	-0.441
-511.814	-123.084	0.075	0.012
-510.799	-75.642	-0.294	0.104
-509.785	227.087	-0.126	0.203
-508.770	27.566	0.161	-0.135
-507.756	-200.000	0.010	0.119
-506.741	17.672	0.184	0.145
-505.726	138.764	-0.296	0.387
-504.712	-114.038	0.135	0.026
-503.697	13.805	-0.167	0.129
-502.683	-200.000	-0.010	-0.219
-501.668	-88.776	0.286	0.084
-500.653	-10.984	-0.178	0.117
-499.639	-23.237	-0.354	-0.212
-498.624	-122.145	-0.265	-0.043
-497.610	-33.367	-0.114	0.063
-496.595	242.662	0.071	-0.119
-495.581	-164.931	-0.054	0.002
-494.566	800.000	-0.035	-0.126
-493.551	-150.691	-0.196	0.015
-492.537	145.965	-0.145	0.193
-491.522	35.386	-0.080	0.070
-490.508	6.365	0.172	-0.127
-489.493	66.215	0.086	0.087
-488.478	-200.000	-0.024	0.344
-487.464	-79.298	0.210	-0.071
-486.449	800.000	0.143	0.449
-485.435	-200.000	0.027	0.360
-484.420	-150.140	-0.186	0.014
-483.405	-167.605	-0.078	-0.003
-482.391	456.809	0.079	0.175
-481.376	-77.264	-0.273	0.094
-480.362	563.295	-0.005	0.012
-479.347	-142.231	-0.195	0.019
-478.332	-180.423	0.269	0.006
-477.318	314.124	-0.172	-0.322
-476.303	426.747	-0.039	0.084
-475.289	80.040	0.038	-0.040
-474.274	38.124	0.116	0.103
-473.259	-200.000	0.012	-0.126
-472.245	-29.223	-0.225	0.128
-471.230	22.004	0.306	-0.248
-470.216	-144.495	0.210	-0.019
-469.201	236.325	0.107	0.176
-468.186	-200.000	0.035	0.194
-467.172	-200.000	-0.009	-0.047
-466.157	-12.204	-0.220	-0.143
-465.143	-162.599	-0.455	0.022
-464.128	-103.065	0.150	-0.035
-463.113	61.167	0.048	0.047
-462.099	-109.783	0.116	-0.024
-461.084	26.099	0.176	-0.146
-460.070	108.403	0.163	-0.194
-459.055	14.410	-0.308	0.239
-458.040	-20.097	0.099	-0.061
-457.026	800.000	-0.037	-0.132
-456.011	50.916	-0.239	0.225
-454.997	172.272	-0.168	-0.240
-453.982	6.003	0.216	-0.159
-452.968	-200.000	0.030	-0.415
-451.953	-68.572	-0.131	-0.051
-450.938	-36.837	0.126	0.067
-449.924	-99.943	0.094	-0.023
-448.909	-200.000	0.009	0.122
-447.895	-86.970	-0.250	0.076
-446.880	10.969	0.258	-0.196
-445.865	-200.000	0.026	0.156
-444.851	141.850	-0.148	-0.195
-443.836	-136.368	0.060	0.007
-442.822	-200.000	-0.037	0.396
-441.807	364.323	0.151	-0.302
-440.792	223.290	0.242	-0.388
-439.778	664.188	0.040	-0.102
-438.763	7.645	-0.054	-0.040
-437.749	800.000	-0.101	-0.277
-436.734	-117.053	0.011	-0.002
-435.719	-85.746	0.239	0.074
-434.705	-21.052	0.132	0.080
-433.690	271.388	0.022	0.039
-432.676	149.208	-0.125	0.168
-431.661	35.022	0.210	-0.183
-430.646	-59.061	0.298	-0.128
-429.632	468.952	0.022	-0.050
-428.617	249.292	0.149	0.250
-427.603	388.211	-0.148	-0.303
-426.588	800.000	0.016	0.062
-425.573	537.412	-0.058	-0.136
-424.559	-127.487	0.152	-0.022
-423.544	368.742	0.050	0.100
-422.530	800.000	-0.039	-0.127
-421.515	800.000	-0.031	-0.126
-420.500	27.874	0.446	-0.373
-419.486	-47.856	0.099	-0.047
-418.471	-98.036	0.311	-0.079
-417.457	34.683	-0.197	0.171
-416.442	-101.295	-0.175	-0.042
-415.428	-56.719	-0.301	-0.132
-414.413	-200.000	-0.070	-0.375
-413.398	132.798	0.229	0.293
-412.384	415.816	-0.129	0.273
-411.369	-200.000	-0.027	-0.165
-410.355	149.926	0.149	0.200
-409.340	-103.848	-0.136	0.032
-408.325	-2.505	-0.195	-0.135
-407.311	800.000	0.012	-0.038
-406.296	-200.000	0.007	-0.111
-405.282	-200.000	-0.000	-0.109
-404.267	-11.177	0.264	0.173
-403.252	192.824	-0.105	0.157
-402.238	-55.715	-0.264	-0.117
-401.223	398.159	-0.032	-0.066
-400.209	266.940	-0.016	0.027
-399.194	-176.205	0.197	0.005
-398.179	800.000	-0.072	0.311
-397.165	1.662	0.245	-0.175
-396.150	800.000	0.052	0.145
-395.136	-164.879	-0.152	0.007
-394.121	-119.481	0.242	-0.042
-393.106	-120.980	-0.149	0.025
-392.092	129.707	-0.102	-0.130
-391.077	206.628	0.210	0.324
-390.063	-85.952	-0.222	0.068
-389.048	50.351	0.281	-0.263
-388.033	-54.554	-0.530	0.238
-387.019	110.005	0.211	0.251
-386.004	-120.544	0.312	0.052
-384.990	-73.264	-0.162	-0.059
-383.975	-98.587	0.526	-0.133
-382.960	-125.027	-0.274	-0.042
-381.946	-45.860	0.224	0.110
-380.931	-200.000	0.010	-0.078
-379.917	800.000	-0.125	0.351
-378.902	15.216	0.224	-0.174
-377.888	800.000	-0.068	-0.211
-376.873	800.000	0.037	-0.127
-375.858	146.353	-0.194	0.258
-374.844	-102.208	-0.089	-0.021
-373.829	-109.944	-0.258	0.054
-372.815	-200.000	-0.030	-0.260
-371.800	178.065	-0.226	-0.326
-370.785	132.423	-0.106	0.135
-369.771	-112.107	0.265	0.053
-368.756	-143.277	-0.227	0.022
-367.742	800.000	-0.077	-0.212
-366.727	-31.646	0.149	0.083
-365.712	127.351	0.155	0.195
-364.698	-200.000	-0.028	-0.163
-363.683	349.140	0.018	0.035
-362.669	-66.848	0.379	-0.148
-361.654	18.140	0.087	0.069
-360.639	9.376	-0.253	-0.189
-359.625	-27.389	0.119	0.069
-358.610	-200.000	0.008	-0.190
-357.596	83.196	0.203	0.219
-356.581	-200.000	-0.015	-0.418
-355.566	176.466	0.214	-0.308
-354.552	79.936	0.207	0.220
-353.537	27.089	0.139	0.116
-352.523	152.127	-0.030	0.041
-351.508	800.000	-0.027	0.112
-350.493	-200.000	0.021	-0.132
-349.479	-165.409	0.174	-0.008
-348.464	404.092	0.122	0.254
-347.450	-170.997	0.194	-0.007
-346.435	-0.046	0.147	-0.104
-345.420	658.997	-0.124	0.315
-344.406	-96.024	-0.240	0.063
-343.391	82.456	0.080	-0.086
-342.377	-200.000	-0.003	-0.128
-341.362	-2.137	-0.427	-0.297
-340.348	15.238	0.289	0.224
-339.333	23.281	0.137	-0.111
-338.318	-176.438	0.165	-0.004
-337.304	196.629	0.126	0.190
-336.289	3.746	-0.082	0.059
-335.275	-165.681	0.260	0.011
-334.260	32.306	0.324	0.277
-333.245	65.733	0.140	-0.140
-332.231	638.896	0.044	-0.111
-331.216	25.777	-0.161	0.133
-330.202	80.504	0.095	-0.101
-329.187	-26.334	-0.390	0.226
-328.172	-47.981	-0.131	0.063
-327.158	-20.584	0.198	-0.120
-326.143	800.000	-0.010	0.041
-325.129	-200.000	0.029	-0.203
-324.114	170.392	-0.127	0.180
-323.099	-113.466	-0.241	-0.047
-322.085	175.265	-0.113	0.161
-321.070	-200.000	-0.024	-0.123
-320.056	61.289	-0.191	-0.187
-319.041	800.000	0.096	0.276
-318.026	123.849	-0.059	0.073
-317.012	412.373	0.149	-0.312
-315.997	8.137	-0.074	-0.055
-314.983	-77.375	0.202	-0.069
-313.968	-200.000	-0.041	-0.292
-312.953	527.327	-0.034	0.080
-311.939	-200.000	0.057	0.326
-310.924	-1.717	0.240	-0.167
-309.910	-87.060	0.171	0.051
-308.895	-74.527	-0.253	-0.090
-307.880	482.826	-0.207	0.464
-306.866	-12.709	0.332	0.214
-305.851	-200.000	0.091	0.496
-304.837	-194.422	-0.114	0.001
-303.822	-62.713	-0.276	-0.113
-302.807	99.812	0.041	-0.047
-301.793	-21.650	-0.257	-0.154
-300.778	397.573	-0.054	-0.112
-299.764	-200.000	-0.006	-0.183
-298.749	-127.483	0.195	0.028
-297.735	44.450	-0.129	0.117
-296.720	-57.566	0.247	0.107
-295.705	54.564	-0.019	-0.018
-294.691	157.925	0.143	0.195
-293.676	238.593	0.131	0.214
-292.662	143.807	-0.128	-0.168
-291.647	43.703	-0.134	0.121
-290.632	800.000	-0.142	0.591
-289.618	-91.484	0.345	0.097
-288.603	800.000	-0.147	-0.476
-287.589	-135.125	-0.292	-0.035
-286.574	-115.451	-0.091	0.017
-285.559	-174.741	0.348	-0.010
-284.545	-62.447	0.228	0.094
-283.530	-8.907	-0.161	-0.106
-282.516	-200.000	0.015	-0.252
-281.501	-118.438	-0.057	0.010
-280.486	519.549	0.107	0.247
-279.472	-158.099	-0.388	0.022
-278.457	171.989	-0.117	-0.166
-277.443	-67.717	-0.096	-0.037
-276.428	149.683	0.147	0.197
-275.413	-200.000	-0.024	-0.164
-274.399	-200.000	-0.001	-0.128
-273.384	800.000	-0.065	0.191
-272.370	205.224	0.113	0.173
-271.355	26.643	0.187	-0.154
-270.340	-34.879	-0.169	0.091
-269.326	43.317	0.053	0.048
-268.311	6.457	-0.111	-0.081
-267.297	-200.000	-0.044	0.193
-266.282	-200.000	0.022	-0.192
-265.267	-200.000	0.016	-0.124
-264.253	-177.981	0.315	-0.007
-263.238	800.000	0.051	-0.153
-262.224	468.156	-0.014	-0.030
-261.209	166.875	0.050	-0.070
-260.195	-200.000	-0.023	-0.101
-259.180	51.985	0.040	0.038
-258.165	-32.914	-0.151	0.083
-257.151	-200.000	-0.032	0.216
-256.136	-95.148	-0.218	-0.058
-255.122	800.000	-0.038	-0.145
-254.107	-200.000	0.013	0.082
-253.092	-163.202	-0.139	0.007
-252.078	-100.702	-0.203	0.049
-251.063	257.516	-0.125	0.211
-250.049	395.734	-0.063	0.129
-249.034	-44.505	-0.226	0.111
-248.019	80.293	-0.136	0.144
-247.005	-15.284	0.180	0.113
-245.990	2.673	0.114	0.081
-244.976	3.390	0.186	0.133
-243.961	141.439	-0.155	0.202
-242.946	202.503	0.077	-0.118
-241.932	167.103	-0.138	-0.193
-240.917	-93.082	0.117	0.032
-239.903	-30.572	0.103	-0.057
-238.888	123.566	-0.097	-0.120
-237.873	-51.440	-0.414	0.190
-236.859	134.987	0.170	0.217
-235.844	-200.000	0.235	-0.000
-234.830	800.000	0.054	-0.229
-233.815	-200.000	0.013	0.418
-232.800	64.278	0.150	-0.149
-231.786	-200.000	-0.007	0.341
-230.771	-126.330	-0.342	0.050
-229.757	622.912	0.028	0.069
-228.742	180.764	0.142	0.205
-227.727	274.310	-0.188	0.328
-226.713	-2.214	0.247	0.171
-225.698	8.769	-0.122	-0.090
-224.684	-181.531	0.120	0.002
-223.669	-99.313	-0.226	-0.056
-222.655	800.000	-0.069	-0.199
-221.640	-60.446	0.274	-0.115
-220.625	-200.000	-0.028	0.230
-219.611	-171.404	0.248	-0.008
-218.596	3.169	-0.145	-0.104
-217.582	-128.037	-0.125	-0.018
-216.567	13.763	0.149	-0.114
-215.552	-200.000	0.046	-0.229
-214.538	462.322	0.081	0.178
-213.523	-200.000	0.016	-0.390
-212.509	135.624	-0.025	-0.032
-211.494	483.185	0.186	-0.415
-210.479	-139.821	0.332	-0.035
-209.465	117.438	0.187	0.226
-208.450	68.946	-0.177	-0.179
-207.436	-200.000	-0.030	0.320
-206.421	260.340	0.105	-0.179
-205.406	41.296	0.214	-0.190
-204.392	800.000	-0.029	0.102
-203.377	105.342	-0.059	0.069
-202.363	69.380	-0.288	-0.291
-201.348	-129.520	0.129	0.018
-200.333	-42.102	-0.194	0.098
-199.319	357.952	0.138	0.272
-198.304	182.098	-0.102	0.148
-197.290	649.503	-0.063	0.159
-196.275	800.000	0.082	0.230
-195.260	-200.000	0.014	-0.126
-194.246	-200.000	-0.054	-0.280
-193.231	-129.604	0.298	-0.040
-192.217	-81.129	-0.151	-0.049
-191.202	-83.817	-0.484	-0.152
-190.187	110.765	-0.200	-0.237
-189.173	75.023	0.165	0.171
-188.158	800.000	0.057	-0.231
-187.144	17.787	0.177	-0.138
-186.129	78.566	-0.090	0.094
-185.114	-35.163	-0.302	0.161
-184.100	376.428	0.199	0.399
-183.085	-89.019	-0.420	0.122
-182.071	-200.000	-0.048	-0.288
-181.056	-200.000	0.042	-0.224
-180.042	-45.987	0.212	-0.103
-179.027	260.666	-0.158	0.269
-178.012	181.119	-0.207	0.298
-176.998	149.147	0.040	0.054
-175.983	-49.983	0.353	0.164
-174.969	-200.000	0.054	-0.236
-173.954	-138.583	0.382	-0.041
-172.939	72.075	0.221	-0.226
-171.925	-200.000	0.052	0.297
-170.910	-155.212	0.394	-0.025
-169.896	-124.455	0.034	-0.005
-168.881	-200.000	0.005	0.260
-167.866	-18.551	0.187	-0.114
-166.852	1.742	0.059	-0.042
-165.837	60.694	0.059	0.058
-164.823	-49.480	-0.126	0.059
-163.808	800.000	-0.041	-0.174
-162.793	-157.135	0.253	-0.015
-161.779	122.117	-0.056	-0.069
-160.764	-200.000	0.001	-0.327
-159.750	113.790	0.157	-0.187
-158.735	310.440	0.103	0.190
-157.720	-200.000	-0.023	0.297
-156.706	560.792	-0.095	-0.224
-155.691	157.245	0.152	0.206
-154.677	246.631	-0.196	0.324
-153.662	-102.597	-0.100	-0.023
-152.647	-90.477	0.206	-0.058
-151.633	-37.659	-0.230	0.120
-150.618	794.541	0.103	-0.279
-149.604	-171.543	-0.317	0.010
-148.589	-1.918	0.346	0.239
-147.574	-200.000	0.058	-0.359
-146.560	800.000	0.090	-0.267
-145.545	-21.750	0.045	0.027
-144.531	218.677	0.042	-0.067
-143.516	-47.055	0.338	0.162
-142.502	-200.000	0.005	0.158
-141.487	35.522	0.141	0.121
-140.472	-107.765	0.134	-0.029
-139.458	-50.478	0.207	-0.096
-138.443	244.565	0.049	-0.081
-137.429	-172.266	-0.248	0.008
-136.414	44.052	0.158	0.142
-135.399	-77.220	-0.155	0.053
-134.385	551.477	0.068	-0.160
-133.370	-200.000	0.020	0.208
-132.356	-24.589	-0.132	0.077
-131.341	629.302	0.142	-0.353
-130.326	-91.222	-0.083	0.023
-129.312	800.000	0.095	0.338
-128.297	800.000	0.050	0.154
-127.283	126.520	0.095	0.118
-126.268	-125.225	-0.194	0.029
-125.253	-185.027	0.111	-0.002
-124.239	-39.549	-0.222	0.114
-123.224	800.000	0.054	0.231
-122.210	-84.192	0.297	0.092
-121.195	376.071	0.095	-0.191
-120.180	24.452	-0.179	-0.145
