DTS Sentinel unit serial number:	SN413079Multiplexer serial number:	ORYXHardware model number:	OX4-SRSoftware version number:	ORYX F/W v4.00 Oryx Data Collector v3.7.2.0data status	okinstallation	princeton_trtdifferential loss correction	single-endedforward channel	channel 3reverse channel	N/Adate	2019/09/13time	03:12:35forward acquisition time	60.00reverse acquisition time	0.00gamma	496.2192k internal	0.2334k external	0.2334temperature offset calibration	1.0143default loss term (dB/km)	0.3790temperature slope calibration	1.0000multiplexer offset coefficient	1.0000multiplexer slope coefficient	1.0000fibre end	0.00T internal ref (°C)	27.39T ext. ref 1 (°C)	4.09T ext. ref 2 (°C)	22.13length (m)	temperature (°C)	Stokes	anti-Stokes-747.200	153.268	-0.193	0.266
-746.185	149.954	-0.097	-0.132
-745.171	-200.000	-0.004	0.043
-744.156	192.380	-0.053	-0.080
-743.142	-108.425	0.490	0.106
-742.127	175.508	-0.094	0.138
-741.112	457.904	0.020	-0.044
-740.098	18.676	-0.212	0.170
-739.083	-200.000	-0.007	-0.047
-738.069	8.451	0.179	-0.135
-737.054	117.654	-0.220	0.272
-736.039	-14.935	-0.312	-0.201
-735.025	800.000	-0.053	0.177
-734.010	-200.000	0.023	-0.199
-732.996	-100.329	-0.294	0.073
-731.981	207.059	0.113	0.178
-730.966	-125.423	0.070	-0.011
-729.952	-200.000	-0.048	-0.312
-728.937	-200.000	0.038	-0.243
-727.923	-200.000	-0.023	-0.178
-726.908	800.000	-0.101	-0.393
-725.894	-156.274	-0.280	0.018
-724.879	587.288	-0.060	-0.148
-723.864	67.174	-0.021	-0.021
-722.850	388.697	0.117	-0.243
-721.835	718.360	0.072	0.191
-720.821	-36.641	-0.144	-0.078
-719.806	89.784	-0.200	-0.224
-718.791	-108.613	0.059	-0.013
-717.777	51.138	0.084	-0.080
-716.762	-44.378	-0.340	0.171
-715.748	-95.760	0.276	-0.074
-714.733	153.084	0.227	-0.312
-713.718	-200.000	-0.006	-0.202
-712.704	-200.000	-0.084	-0.394
-711.689	-32.888	-0.086	-0.048
-710.675	-200.000	0.009	-0.132
-709.660	-200.000	0.050	0.274
-708.645	47.443	0.228	0.213
-707.631	-69.070	0.103	-0.040
-706.616	23.149	0.085	-0.070
-705.602	-99.130	-0.342	0.087
-704.587	-120.798	-0.400	-0.068
-703.572	41.316	-0.264	-0.239
-702.558	-112.823	0.097	0.019
-701.543	-200.000	-0.018	0.147
-700.529	-17.614	-0.222	-0.140
-699.514	59.308	0.163	-0.161
-698.499	251.403	0.058	-0.098
-697.485	-200.000	-0.008	0.111
-696.470	800.000	0.059	-0.241
-695.456	-95.178	-0.228	-0.062
-694.441	800.000	0.030	-0.089
-693.426	-200.000	0.005	0.085
-692.412	76.113	-0.144	0.153
-691.397	-143.560	-0.457	-0.044
-690.383	-81.712	0.174	-0.057
-689.368	166.745	-0.181	-0.258
-688.354	-58.094	-0.037	0.016
-687.339	800.000	0.081	0.229
-686.324	-200.000	-0.030	0.264
-685.310	29.763	0.175	0.149
-684.295	-200.000	-0.009	0.334
-683.281	549.195	-0.087	0.210
-682.266	-61.736	0.205	-0.086
-681.251	-45.574	-0.152	-0.075
-680.237	-135.555	-0.368	0.044
-679.222	-140.572	0.109	-0.011
-678.208	469.580	-0.074	-0.166
-677.193	-62.698	0.020	-0.008
-676.178	55.178	-0.042	-0.041
-675.164	-108.266	-0.258	0.056
-674.149	-28.358	-0.279	-0.162
-673.135	305.396	0.052	0.098
-672.120	-200.000	-0.007	-0.204
-671.105	-1.018	0.083	-0.059
-670.091	256.867	0.114	0.196
-669.076	675.318	0.096	0.249
-668.062	-123.612	-0.111	0.018
-667.047	-200.000	0.000	0.116
-666.032	-117.851	-0.151	-0.027
-665.018	-42.383	-0.065	0.033
-664.003	-127.159	-0.037	-0.005
-662.989	113.609	-0.236	-0.288
-661.974	355.524	0.017	-0.033
-660.959	385.749	0.175	-0.361
-659.945	-68.033	0.236	-0.092
-658.930	190.752	0.085	-0.128
-657.916	-132.840	0.155	0.020
-656.901	-91.036	0.231	-0.066
-655.886	191.223	-0.045	0.067
-654.872	277.337	-0.161	-0.286
-653.857	-197.690	-0.504	0.003
-652.843	200.949	0.079	0.121
-651.828	-200.000	0.005	-0.264
-650.814	-200.000	-0.004	-0.158
-649.799	-21.094	-0.168	0.103
-648.784	-27.683	0.180	0.104
-647.770	-65.089	-0.095	0.038
-646.755	-28.908	-0.062	-0.035
-645.741	-15.559	-0.047	-0.030
-644.726	-182.527	-0.058	-0.001
-643.711	-200.000	-0.012	0.207
-642.697	-200.000	0.404	0.000
-641.682	37.695	-0.018	-0.016
-640.668	-200.000	-0.007	0.197
-639.653	48.637	0.158	-0.148
-638.638	272.392	0.038	-0.067
-637.624	-45.421	0.126	0.063
-636.609	-200.000	0.021	-0.132
-635.595	212.231	0.159	-0.251
-634.580	-55.251	-0.025	0.011
-633.565	-68.080	-0.178	0.070
-632.551	130.339	-0.141	-0.180
-631.536	571.486	0.108	-0.263
-630.522	-39.949	-0.087	0.045
-629.507	155.513	-0.155	0.214
-628.492	35.074	-0.108	-0.094
-627.478	800.000	0.055	-0.197
-626.463	376.377	0.081	-0.165
-625.449	-50.335	-0.040	-0.019
-624.434	747.968	-0.096	-0.258
-623.419	-50.415	-0.090	-0.042
-622.405	166.800	-0.162	-0.229
-621.390	800.000	0.029	-0.107
-620.376	448.725	0.132	-0.290
-619.361	473.695	0.107	0.241
-618.346	130.806	-0.177	0.227
-617.332	219.465	-0.201	0.321
-616.317	-132.573	-0.383	0.049
-615.303	239.184	-0.207	0.345
-614.288	-112.152	0.316	0.063
-613.273	-200.000	0.033	-0.176
-612.259	286.906	0.162	-0.293
-611.244	-110.845	-0.353	0.073
-610.230	45.335	-0.183	0.169
-609.215	699.086	0.031	-0.081
-608.201	-156.261	0.262	0.016
-607.186	-26.398	0.220	-0.129
-606.171	-26.494	0.237	0.139
-605.157	-200.000	0.022	-0.138
-604.142	80.998	0.171	0.184
-603.128	800.000	0.084	-0.238
-602.113	-101.416	0.208	-0.051
-601.098	192.860	-0.101	-0.152
-600.084	276.184	-0.043	0.077
-599.069	159.322	-0.037	0.051
-598.055	800.000	0.070	0.245
-597.040	116.616	-0.283	-0.347
-596.025	61.445	0.148	0.147
-595.011	-145.143	-0.113	-0.010
-593.996	-200.000	0.066	-0.317
-592.982	-10.112	0.357	0.237
-591.967	-200.000	-0.014	0.206
-590.952	-33.123	0.151	-0.084
-589.938	-200.000	-0.001	0.262
-588.923	800.000	0.041	0.147
-587.909	-187.086	0.262	-0.004
-586.894	386.733	-0.104	-0.214
-585.879	81.455	-0.195	0.210
-584.865	-57.854	-0.169	-0.074
-583.850	-200.000	-0.007	-0.132
-582.836	-43.529	0.351	0.177
-581.821	-50.657	-0.296	0.139
-580.806	-22.021	0.333	0.202
-579.792	-110.939	0.172	0.035
-578.777	-120.855	0.162	-0.027
-577.763	800.000	0.097	-0.338
-576.748	-200.000	0.009	0.244
-575.733	570.666	0.013	0.031
-574.719	43.063	-0.225	0.205
-573.704	166.899	0.244	0.345
-572.690	-18.674	-0.234	-0.145
-571.675	-200.000	0.023	0.323
-570.661	-124.706	0.415	0.064
-569.646	333.624	0.084	-0.162
-568.631	655.409	0.046	0.117
-567.617	81.379	0.017	-0.018
-566.602	-200.000	-0.004	0.039
-565.588	173.747	0.151	0.218
-564.573	-41.610	-0.314	0.161
-563.558	-31.798	0.209	-0.117
-562.544	150.838	0.014	0.019
-561.529	-200.000	-0.040	-0.405
-560.515	-106.309	-0.274	-0.061
-559.500	-140.741	0.262	0.027
-558.485	580.370	0.103	-0.252
-557.471	-200.000	0.022	0.125
-556.456	121.985	0.083	0.103
-555.442	800.000	-0.089	0.343
-554.427	63.891	-0.258	0.259
-553.412	-200.000	0.045	0.285
-552.398	-129.059	-0.174	0.024
-551.383	-100.135	0.192	0.048
-550.369	-200.000	0.002	-0.008
-549.354	-104.545	-0.208	-0.048
-548.339	-200.000	0.008	0.053
-547.325	-34.306	0.225	0.123
-546.310	21.696	-0.384	-0.312
-545.296	-17.846	0.220	-0.138
-544.281	445.558	0.046	-0.101
-543.266	800.000	-0.101	0.283
-542.252	-104.505	-0.098	0.023
-541.237	-97.323	-0.281	0.073
-540.223	-24.195	-0.246	0.146
-539.208	-80.169	-0.056	0.019
-538.193	800.000	0.154	-0.480
-537.179	-178.563	-0.527	0.012
-536.164	613.264	0.123	-0.306
-535.150	800.000	-0.026	0.101
-534.135	64.361	0.084	-0.084
-533.121	-116.855	0.213	-0.039
-532.106	175.450	-0.119	-0.172
-531.091	81.500	-0.142	-0.153
-530.077	-55.325	-0.165	0.074
-529.062	-200.000	-0.026	0.162
-528.048	800.000	-0.071	-0.237
-527.033	-82.707	0.126	-0.041
-526.018	-59.824	0.215	-0.092
-525.004	304.641	0.087	0.162
-523.989	-84.239	-0.088	-0.028
-522.975	-200.000	0.054	0.303
-521.960	659.609	-0.036	-0.092
-520.945	-126.397	-0.190	0.028
-519.931	-128.504	-0.223	-0.031
-518.916	-123.770	-0.145	-0.023
-517.902	-200.000	0.016	0.178
-516.887	-13.427	-0.103	0.067
-515.872	-200.000	0.027	0.193
-514.858	101.781	-0.263	0.306
-513.843	-200.000	-0.095	-0.447
-512.829	35.011	-0.027	-0.024
-511.814	-200.000	0.038	0.169
-510.799	-65.433	0.059	-0.024
-509.785	-14.067	0.249	0.160
-508.770	26.039	0.236	-0.196
-507.756	-144.511	0.297	0.027
-506.741	-16.488	-0.173	-0.109
-505.726	455.189	-0.063	0.139
-504.712	-75.383	-0.392	-0.139
-503.697	240.267	0.038	0.064
-502.683	-200.000	0.023	0.162
-501.668	-187.316	-0.317	0.004
-500.653	-200.000	0.010	0.238
-499.639	-40.694	0.082	0.042
-498.624	144.519	0.092	0.123
-497.610	-13.885	-0.137	0.088
-496.595	390.671	-0.055	0.114
-495.581	353.082	0.077	0.151
-494.566	25.974	0.106	0.088
-493.551	70.196	0.068	0.070
-492.537	-47.325	0.279	0.135
-491.522	-200.000	0.025	0.145
-490.508	-134.597	0.121	-0.015
-489.493	-0.359	-0.075	-0.053
-488.478	74.566	0.079	0.082
-487.464	800.000	0.026	-0.078
-486.449	750.324	0.080	0.216
-485.435	-168.728	-0.346	0.013
-484.420	7.470	0.228	0.169
-483.405	159.531	-0.085	0.118
-482.391	-77.289	-0.097	-0.033
-481.376	800.000	0.026	-0.072
-480.362	167.178	-0.132	0.186
-479.347	284.553	-0.031	0.056
-478.332	-200.000	-0.131	-0.000
-477.318	58.446	0.222	0.217
-476.303	55.110	0.135	0.129
-475.289	-200.000	-0.047	-0.221
-474.274	-68.852	-0.185	0.071
-473.259	338.037	-0.080	0.155
-472.245	-200.000	0.011	0.320
-471.230	147.061	-0.316	0.422
-470.216	-90.351	0.226	0.065
-469.201	-200.000	0.056	0.359
-468.186	-200.000	-0.001	-0.232
-467.172	41.716	-0.018	-0.016
-466.157	-36.270	-0.272	0.146
-465.143	495.925	-0.098	0.223
-464.128	-87.564	-0.249	-0.075
-463.113	7.851	0.204	0.152
-462.099	212.892	-0.153	0.240
-461.084	189.450	-0.063	-0.094
-460.070	282.665	0.028	0.050
-459.055	58.529	0.023	-0.022
-458.040	151.637	0.047	0.064
-457.026	673.682	0.058	0.151
-456.011	-152.069	-0.562	0.041
-454.997	551.109	0.060	0.143
-453.982	-19.418	0.066	0.041
-452.968	-125.843	0.487	0.073
-451.953	122.004	0.261	-0.323
-450.938	28.921	-0.029	0.025
-449.924	-3.583	-0.100	-0.069
-448.909	100.827	-0.073	0.084
-447.895	72.111	0.174	-0.180
-446.880	181.840	0.185	0.271
-445.865	123.177	0.085	0.105
-444.851	60.890	-0.069	-0.068
-443.836	-149.428	-0.235	0.019
-442.822	-72.889	0.165	-0.060
-441.807	-16.526	-0.298	-0.188
-440.792	-9.374	0.104	-0.069
-439.778	-30.601	-0.205	-0.115
-438.763	-200.000	-0.007	-0.439
-437.749	-35.512	-0.327	0.176
-436.734	244.820	-0.023	0.038
-435.719	99.231	0.213	0.245
-434.705	-200.000	-0.313	0.001
-433.690	116.884	-0.084	-0.103
-432.676	-144.484	-0.275	0.025
-431.661	124.358	-0.137	0.171
-430.646	-34.326	-0.163	-0.089
-429.632	108.135	0.172	-0.204
-428.617	-200.000	-0.014	-0.215
-427.603	-42.650	0.116	-0.059
-426.588	120.506	0.068	-0.083
-425.573	-200.000	0.037	-0.328
-424.559	-62.630	0.228	0.094
-423.544	-113.472	-0.228	-0.044
-422.530	-103.780	0.355	-0.083
-421.515	-200.000	-0.002	0.147
-420.500	62.048	-0.236	-0.234
-419.486	674.091	0.111	-0.286
-418.471	17.863	0.145	-0.114
-417.457	268.122	0.052	-0.091
-416.442	216.073	0.133	-0.210
-415.428	139.440	0.116	0.151
-414.413	403.645	-0.098	-0.204
-413.398	298.471	-0.080	0.146
-412.384	265.193	0.094	0.163
-411.369	-200.000	0.022	-0.215
-410.355	150.502	0.040	0.055
-409.340	-167.382	-0.369	-0.015
-408.325	-25.676	0.204	0.120
-407.311	-27.905	-0.255	-0.147
-406.296	14.802	-0.094	-0.073
-405.282	800.000	0.141	-0.442
-404.267	-155.061	0.075	0.005
-403.252	83.726	-0.118	-0.128
-402.238	249.912	0.040	-0.067
-401.223	-200.000	0.005	-0.107
-400.209	-91.751	-0.344	-0.097
-399.194	553.540	0.139	-0.332
-398.179	211.808	0.172	-0.268
-397.165	-200.000	-0.022	-0.234
-396.150	20.427	-0.131	-0.105
-395.136	-200.000	-0.016	-0.338
-394.121	27.127	-0.130	0.108
-393.106	-200.000	-0.066	0.289
-392.092	21.334	0.109	0.088
-391.077	-200.000	0.012	-0.227
-390.063	800.000	-0.042	-0.130
-389.048	144.912	0.203	-0.268
-388.033	41.117	-0.073	0.065
-387.019	471.311	0.022	-0.049
-386.004	-200.000	0.024	-0.150
-384.990	56.413	-0.077	0.074
-383.975	800.000	-0.050	-0.144
-382.960	305.415	-0.141	-0.259
-381.946	-4.937	0.200	0.136
-380.931	-92.901	0.032	0.009
-379.917	123.718	-0.063	-0.078
-378.902	-14.373	-0.192	0.122
-377.888	492.142	-0.162	-0.368
-376.873	-156.867	-0.259	-0.016
-375.858	29.559	0.244	0.206
-374.844	66.011	0.050	0.050
-373.829	-73.170	-0.033	-0.012
-372.815	-111.404	0.136	-0.027
-371.800	-141.518	0.155	0.016
-370.785	145.067	0.130	0.172
-369.771	96.899	0.156	-0.177
-368.756	-164.895	-0.137	0.006
-367.742	18.066	-0.216	-0.171
-366.727	218.386	-0.032	0.051
-365.712	79.604	-0.036	-0.038
-364.698	105.090	-0.072	0.084
-363.683	800.000	-0.067	-0.247
-362.669	25.417	-0.079	0.065
-361.654	134.801	-0.123	-0.158
-360.639	37.332	0.088	0.077
-359.625	-164.207	-0.290	-0.013
-358.610	95.530	0.271	-0.306
-357.596	800.000	-0.065	-0.217
-356.581	155.166	-0.086	-0.117
-355.566	129.442	-0.036	0.045
-354.552	-128.036	0.253	-0.036
-353.537	-200.000	0.165	0.001
-352.523	800.000	-0.070	0.228
-351.508	354.791	-0.075	0.147
-350.493	-100.050	0.267	0.066
-349.479	-200.000	0.053	-0.237
-348.464	236.955	-0.050	-0.081
-347.450	454.683	-0.083	0.182
-346.435	-59.558	0.128	-0.054
-345.420	-120.029	-0.416	0.071
-344.406	80.107	0.131	0.140
-343.391	-84.772	0.148	-0.046
-342.377	-104.063	-0.024	0.005
-341.362	800.000	0.093	-0.257
-340.348	8.896	0.155	-0.116
-339.333	410.079	-0.135	-0.284
-338.318	800.000	0.074	0.239
-337.304	382.372	-0.138	0.280
-336.289	148.269	0.279	0.373
-335.275	-75.660	0.056	0.020
-334.260	-200.000	0.012	0.144
-333.245	-6.131	-0.157	-0.106
-332.231	-200.000	0.021	0.262
-331.216	-44.131	0.113	-0.056
-330.202	619.185	0.122	0.304
-329.187	-200.000	0.003	0.052
-328.172	-139.630	-0.354	-0.037
-327.158	-37.206	-0.345	-0.183
-326.143	24.397	0.097	-0.080
-325.129	145.362	-0.009	0.012
-324.114	57.633	-0.133	0.128
-323.099	-200.000	0.011	-0.390
-322.085	-124.324	0.147	-0.023
-321.070	-200.000	-0.046	0.307
-320.056	-143.432	-0.278	0.026
-319.041	241.276	-0.083	0.137
-318.026	206.275	0.168	-0.258
-317.012	-200.000	0.005	0.131
-315.997	-49.749	0.110	-0.052
-314.983	90.200	-0.127	-0.141
-313.968	-14.080	-0.137	-0.087
-312.953	-107.533	-0.246	-0.053
-311.939	223.252	-0.124	0.198
-310.924	-147.601	-0.022	-0.002
-309.910	-181.520	-0.106	0.002
-308.895	-44.360	0.238	-0.118
-307.880	-26.513	0.130	0.075
-306.866	47.124	0.086	-0.079
-305.851	48.016	0.343	0.317
-304.837	-30.662	-0.243	0.136
-303.822	-77.086	-0.300	-0.103
-302.807	-200.000	-0.014	0.314
-301.793	-179.599	0.312	-0.007
-300.778	-200.000	-0.050	0.229
-299.764	170.323	-0.158	-0.223
-298.749	-189.354	-0.099	0.001
-297.735	-200.000	0.031	-0.178
-296.720	23.712	0.112	-0.091
-295.705	-99.770	0.226	-0.056
-294.691	-135.147	0.433	-0.051
-293.676	23.721	0.010	0.008
-292.662	70.736	0.255	0.260
-291.647	-57.177	-0.304	0.132
-290.632	15.428	-0.314	0.243
-289.618	-200.000	0.006	-0.138
-288.603	-200.000	-0.031	-0.223
-287.589	355.844	-0.096	-0.189
-286.574	32.876	0.197	0.169
-285.559	-200.000	-0.019	0.110
-284.545	-10.380	-0.224	-0.147
-283.530	-31.378	0.064	0.035
-282.516	151.175	-0.113	0.152
-281.501	145.573	-0.057	0.075
-280.486	696.024	0.088	0.228
-279.472	75.893	0.118	0.123
-278.457	-89.741	0.300	0.087
-277.443	60.311	-0.280	-0.274
-276.428	417.717	0.103	0.216
-275.413	-70.417	0.326	0.122
-274.399	-108.157	-0.267	0.057
-273.384	-25.507	-0.080	0.047
-272.370	-114.734	-0.173	-0.033
-271.355	42.858	0.199	-0.178
-270.340	316.972	0.134	0.249
-269.326	22.585	0.159	-0.129
-268.311	-146.018	-0.130	-0.011
-267.297	-52.684	0.144	-0.065
-266.282	54.106	0.111	0.105
-265.267	572.561	-0.051	-0.122
-264.253	-90.578	0.124	0.035
-263.238	-36.355	-0.194	-0.103
-262.224	307.785	0.205	-0.377
-261.209	-53.857	0.132	0.059
-260.195	42.943	-0.206	0.185
-259.180	-158.388	0.228	0.013
-258.165	800.000	-0.096	-0.374
-257.151	-161.386	-0.289	-0.015
-256.136	800.000	-0.014	0.057
-255.122	800.000	-0.074	0.230
-254.107	457.168	0.112	-0.245
-253.092	-42.789	-0.119	0.060
-252.078	-56.644	0.073	-0.032
-251.063	95.526	-0.054	-0.061
-250.049	256.730	-0.184	-0.311
-249.034	800.000	-0.077	-0.212
-248.019	37.628	0.141	-0.123
-247.005	-76.437	-0.271	-0.094
-245.990	130.327	0.090	0.113
-244.976	61.381	0.132	-0.129
-243.961	-101.237	0.385	-0.093
-242.946	97.526	-0.132	0.150
-241.932	-81.205	0.103	-0.033
-240.917	-19.965	-0.182	0.111
-239.903	-28.294	0.118	0.067
-238.888	165.084	0.154	-0.214
-237.873	-84.302	0.122	0.038
-236.859	800.000	-0.106	-0.329
-235.844	338.945	-0.016	-0.031
-234.830	-101.835	0.081	-0.019
-233.815	-70.664	0.140	0.052
-232.800	-15.981	0.274	0.172
-231.786	-149.093	0.358	0.028
-230.771	-146.933	0.212	0.018
-229.757	111.794	-0.129	0.154
-228.742	800.000	-0.136	-0.404
-227.727	200.737	0.116	0.175
-226.713	28.566	-0.035	0.029
-225.698	-132.529	0.079	-0.010
-224.684	-43.035	0.106	-0.053
-223.669	96.084	-0.162	-0.183
-222.655	194.826	0.133	-0.199
-221.640	-11.953	0.139	0.090
-220.625	268.881	-0.159	-0.275
-219.611	-57.587	-0.160	-0.069
-218.596	-200.000	0.060	-0.282
-217.582	40.375	-0.294	-0.261
-216.567	127.801	0.224	-0.280
-215.552	44.473	0.242	0.219
-214.538	504.464	0.081	0.185
-213.523	800.000	-0.089	-0.325
-212.509	-174.374	0.398	-0.011
-211.494	-130.931	0.133	-0.018
-210.479	27.371	-0.318	0.263
-209.465	-200.000	0.002	-0.011
-208.450	74.068	0.311	-0.322
-207.436	140.426	0.224	0.291
-206.421	800.000	0.109	-0.311
-205.406	-24.892	0.205	-0.120
-204.392	-200.000	-0.007	-0.083
-203.377	73.424	0.366	0.377
-202.363	303.411	-0.134	0.244
-201.348	-200.000	0.016	0.333
-200.333	-108.792	0.168	-0.035
-199.319	-1.839	-0.144	0.100
-198.304	-44.064	0.035	-0.018
-197.290	-200.000	0.022	0.159
-196.275	461.407	-0.013	0.029
-195.260	800.000	-0.084	-0.293
-194.246	800.000	-0.057	0.209
-193.231	-71.394	0.235	0.086
-192.217	-28.135	-0.163	-0.092
-191.202	800.000	0.047	-0.157
-190.187	43.484	-0.269	0.242
-189.173	-200.000	0.010	0.159
-188.158	-131.531	-0.159	-0.021
-187.144	-200.000	-0.004	0.508
-186.129	-196.124	-0.234	0.002
-185.114	-113.624	0.321	0.062
-184.100	192.493	0.104	-0.154
-183.085	-36.264	0.168	0.089
-182.071	29.545	0.217	0.181
-181.056	-121.251	-0.518	-0.085
-180.042	-200.000	0.025	-0.170
-179.027	-200.000	0.038	0.300
-178.012	-200.000	0.037	-0.185
-176.998	-200.000	-0.032	-0.245
-175.983	800.000	-0.046	-0.142
-174.969	800.000	0.109	-0.357
-173.954	-146.952	-0.174	-0.015
-172.939	3.350	-0.178	-0.128
-171.925	800.000	-0.064	0.175
-170.910	-72.347	-0.121	0.044
-169.896	-76.901	0.080	-0.027
-168.881	800.000	0.120	0.366
-167.866	639.966	-0.103	0.258
-166.852	242.870	-0.099	0.163
-165.837	387.027	0.066	0.134
-164.823	-200.000	0.032	-0.230
-163.808	-156.063	-0.390	-0.024
-162.793	800.000	-0.124	0.375
-161.779	17.581	-0.198	-0.154
-160.764	-99.700	0.390	-0.096
-159.750	29.877	-0.123	-0.103
-158.735	325.308	0.170	-0.320
-157.720	466.681	0.173	-0.380
-156.706	-50.645	-0.118	0.055
-155.691	-61.014	0.153	0.063
-154.677	800.000	-0.067	-0.224
-153.662	-7.127	-0.163	0.109
-152.647	-200.000	0.031	0.247
-151.633	-200.000	-0.004	0.353
-150.618	-88.703	0.239	0.070
-149.604	-92.893	0.294	-0.081
-148.589	-59.595	-0.077	-0.032
-147.574	800.000	-0.061	0.230
-146.560	-122.012	0.327	0.053
-145.545	-82.608	-0.151	-0.048
-144.531	-200.000	-0.004	-0.078
-143.516	-76.549	0.067	-0.023
-142.502	644.317	0.095	-0.238
-141.487	-103.970	0.037	0.008
-140.472	237.806	0.125	0.204
-139.458	800.000	-0.038	0.121
-138.443	93.085	0.027	0.030
-137.429	487.052	-0.176	0.394
-136.414	180.062	0.206	-0.297
-135.399	-83.673	0.185	-0.058
-134.385	92.286	0.108	0.119
-133.370	-165.473	0.084	-0.004
-132.356	-79.922	-0.078	0.026
-131.341	178.069	-0.167	-0.239
-130.326	623.973	0.101	-0.251
-129.312	-7.563	0.113	0.075
-128.297	1.172	-0.406	0.286
-127.283	703.426	-0.126	-0.326
-126.268	800.000	-0.053	-0.167
-125.253	-46.136	0.077	0.037
-124.239	-200.000	-0.014	-0.077
-123.224	-126.412	0.364	0.053
-122.210	18.616	-0.294	0.231
-121.195	-200.000	-0.041	-0.248
