DTS Sentinel unit serial number:	SN413079Multiplexer serial number:	ORYXHardware model number:	OX4-SRSoftware version number:	ORYX F/W v4.00 Oryx Data Collector v3.7.2.0data status	okinstallation	princeton_trtdifferential loss correction	single-endedforward channel	channel 3reverse channel	N/Adate	2019/09/16time	02:16:35forward acquisition time	60.00reverse acquisition time	0.00gamma	496.2192k internal	0.2334k external	0.2334temperature offset calibration	0.9949default loss term (dB/km)	0.3790temperature slope calibration	1.0000multiplexer offset coefficient	1.0000multiplexer slope coefficient	1.0000fibre end	0.00T internal ref (°C)	27.56T ext. ref 1 (°C)	10.18T ext. ref 2 (°C)	22.53length (m)	temperature (°C)	Stokes	anti-Stokes-747.200	372.126	0.102	-0.209
-746.185	800.000	-0.054	0.217
-745.171	-131.251	-0.324	0.043
-744.156	-47.962	-0.333	0.162
-743.142	-136.051	0.169	0.020
-742.127	800.000	0.101	0.413
-741.112	434.126	0.035	-0.077
-740.098	-154.599	0.141	0.009
-739.083	-21.538	0.093	0.057
-738.069	800.000	-0.032	0.133
-737.054	426.735	-0.145	0.314
-736.039	-173.101	-0.145	-0.004
-735.025	800.000	-0.036	0.141
-734.010	323.770	-0.147	0.281
-732.996	-25.715	-0.363	0.215
-731.981	-200.000	0.034	-0.306
-730.966	29.229	-0.085	-0.072
-729.952	-3.536	-0.078	0.054
-728.937	-200.000	-0.076	0.423
-727.923	-114.088	0.100	0.019
-726.908	800.000	0.062	0.179
-725.894	-178.712	0.340	0.008
-724.879	162.164	0.138	-0.194
-723.864	-142.686	0.099	-0.010
-722.850	-15.113	0.249	0.160
-721.835	-140.285	-0.122	0.013
-720.821	-175.686	-0.107	-0.003
-719.806	1.827	0.118	-0.086
-718.791	-80.960	0.104	-0.035
-717.777	-60.438	0.244	-0.104
-716.762	144.029	-0.175	0.234
-715.748	-72.929	-0.122	0.045
-714.733	80.027	0.055	0.059
-713.718	50.169	0.267	0.253
-712.704	-200.000	-0.010	-0.185
-711.689	-200.000	0.010	0.207
-710.675	800.000	0.068	0.209
-709.660	-47.884	-0.242	0.118
-708.645	800.000	0.120	-0.487
-707.631	-200.000	-0.006	0.031
-706.616	-151.412	-0.162	0.012
-705.602	800.000	-0.058	0.163
-704.587	187.758	0.164	-0.246
-703.572	-153.548	0.221	-0.015
-702.558	-105.841	-0.114	-0.026
-701.543	39.283	-0.120	-0.107
-700.529	-100.950	0.171	-0.042
-699.514	-118.447	0.155	-0.028
-698.499	-36.936	-0.208	-0.112
-697.485	800.000	-0.054	0.229
-696.470	-53.386	0.054	0.025
-695.456	-200.000	0.017	-0.279
-694.441	-8.618	-0.157	0.106
-693.426	292.293	0.134	-0.244
-692.412	58.558	-0.158	0.155
-691.397	-60.684	0.084	0.036
-690.383	-19.699	-0.078	-0.048
-689.368	2.447	0.172	0.125
-688.354	26.144	0.078	-0.065
-687.339	-200.000	0.036	-0.192
-686.324	114.916	0.172	0.211
-685.310	-64.464	0.212	0.087
-684.295	359.897	-0.142	-0.284
-683.281	-200.000	0.052	-0.331
-682.266	433.069	0.050	0.109
-681.251	800.000	-0.054	0.164
-680.237	198.590	-0.133	-0.205
-679.222	37.990	-0.097	0.086
-678.208	-164.942	0.299	0.013
-677.193	328.634	-0.118	0.227
-676.178	800.000	-0.018	-0.077
-675.164	-200.000	-0.030	-0.394
-674.149	136.424	-0.041	0.053
-673.135	162.304	-0.176	-0.248
-672.120	331.278	0.045	0.088
-671.105	505.492	-0.035	0.081
-670.091	-200.000	-0.043	-0.208
-669.076	51.577	0.074	0.071
-668.062	219.213	-0.117	0.188
-667.047	18.081	0.310	0.248
-666.032	15.284	0.153	-0.121
-665.018	-61.604	0.406	-0.171
-664.003	-109.382	0.123	0.026
-662.989	47.493	-0.186	0.173
-661.974	90.154	-0.123	-0.138
-660.959	-73.837	-0.067	0.024
-659.945	65.862	-0.074	-0.075
-658.930	-90.643	-0.080	-0.023
-657.916	-37.170	0.188	-0.101
-656.901	24.597	0.220	0.182
-655.886	149.700	0.203	0.275
-654.872	168.991	0.158	-0.226
-653.857	-47.064	0.223	-0.109
-652.843	99.720	-0.103	-0.119
-651.828	-12.236	0.206	-0.135
-650.814	-200.000	0.043	-0.382
-649.799	-100.427	0.290	0.072
-648.784	314.596	-0.092	-0.173
-647.770	-54.327	-0.289	0.131
-646.755	-200.000	-0.036	0.259
-645.741	324.548	-0.121	0.231
-644.726	-117.734	0.124	-0.022
-643.711	-95.805	-0.106	-0.028
-642.697	-200.000	-0.102	-0.621
-641.682	33.708	-0.212	0.185
-640.668	-137.034	0.258	-0.030
-639.653	-46.628	-0.154	-0.076
-638.638	-108.080	0.314	-0.068
-637.624	800.000	-0.097	-0.309
-636.609	-83.903	0.233	-0.074
-635.595	-90.076	-0.133	0.039
-634.580	-54.998	0.101	0.046
-633.565	-169.123	-0.465	-0.017
-632.551	-105.345	0.303	-0.069
-631.536	110.758	0.177	-0.213
-630.522	-200.000	-0.002	0.174
-629.507	88.043	-0.008	-0.009
-628.492	181.158	-0.171	-0.251
-627.478	581.807	0.118	-0.289
-626.463	-48.153	0.227	-0.110
-625.449	153.195	-0.113	0.154
-624.434	-157.325	-0.026	0.002
-623.419	236.848	-0.057	-0.094
-622.405	295.245	-0.183	-0.334
-621.390	-119.307	0.177	0.031
-620.376	-100.850	-0.404	0.099
-619.361	-7.780	0.172	-0.117
-618.346	133.686	-0.376	-0.487
-617.332	-70.156	0.186	0.071
-616.317	11.805	0.436	0.335
-615.303	-116.467	-0.404	-0.075
-614.288	800.000	0.044	0.178
-613.273	-200.000	0.007	-0.224
-612.259	-164.949	0.071	-0.003
-611.244	-38.194	-0.247	0.131
-610.230	322.201	0.132	-0.251
-609.215	120.814	0.297	0.369
-608.201	-200.000	-0.037	0.297
-607.186	-80.290	0.258	-0.086
-606.171	106.769	0.181	0.215
-605.157	-200.000	0.001	0.112
-604.142	-92.152	-0.194	-0.055
-603.128	5.757	0.125	0.092
-602.113	-108.182	-0.384	0.083
-601.098	-129.686	0.439	-0.060
-600.084	-200.000	0.006	-0.076
-599.069	88.398	-0.080	0.089
-598.055	-200.000	-0.005	-0.077
-597.040	-200.000	0.010	0.353
-596.025	32.624	0.119	0.102
-595.011	-22.957	0.267	0.161
-593.996	145.427	0.169	0.226
-592.982	-6.799	0.165	-0.112
-591.967	-91.329	-0.189	0.054
-590.952	-200.000	-0.014	0.090
-589.938	-200.000	0.005	-0.219
-588.923	149.997	-0.074	-0.101
-587.909	-200.000	-0.052	-0.310
-586.894	-99.043	0.350	0.089
-585.879	-200.000	-0.024	-0.156
-584.865	11.797	0.129	-0.099
-583.850	-86.273	-0.093	-0.029
-582.836	15.021	-0.049	0.038
-581.821	72.009	-0.102	-0.105
-580.806	31.807	-0.114	-0.098
-579.792	-15.212	-0.268	-0.171
-578.777	-131.639	-0.038	-0.005
-577.763	-191.166	-0.191	-0.002
-576.748	27.974	0.299	0.252
-575.733	-138.671	-0.380	0.041
-574.719	51.288	-0.163	0.154
-573.704	-43.938	0.189	-0.095
-572.690	-118.649	-0.289	-0.051
-571.675	68.135	0.293	0.299
-570.661	505.582	-0.202	-0.466
-569.646	-123.597	0.320	-0.051
-568.631	759.923	0.088	-0.239
-567.617	-55.698	0.221	0.099
-566.602	-72.440	0.183	0.068
-565.588	350.259	0.162	-0.319
-564.573	-43.559	-0.287	0.145
-563.558	-50.937	-0.201	-0.094
-562.544	49.986	-0.277	0.261
-561.529	-62.445	-0.172	-0.072
-560.515	66.364	-0.040	-0.040
-559.500	-92.415	0.276	-0.077
-558.485	61.648	0.226	0.225
-557.471	345.991	-0.079	-0.156
-556.456	741.491	-0.052	-0.141
-555.442	202.774	-0.063	0.098
-554.427	-56.218	0.373	0.166
-553.412	112.914	0.181	-0.219
-552.398	-200.000	0.007	-0.100
-551.383	-200.000	-0.004	0.188
-550.369	-42.476	0.103	0.052
-549.354	22.342	0.066	-0.054
-548.339	-38.442	-0.076	-0.040
-547.325	-104.859	0.163	-0.037
-546.310	800.000	0.026	0.083
-545.296	278.045	-0.194	-0.344
-544.281	274.049	0.096	0.170
-543.266	-86.723	-0.224	0.068
-542.252	-190.309	-0.385	0.004
-541.237	-200.000	-0.011	0.165
-540.223	-20.230	-0.223	0.137
-539.208	-40.370	0.175	-0.091
-538.193	25.633	-0.100	-0.083
-537.179	-200.000	-0.034	-0.156
-536.164	-200.000	0.003	0.254
-535.150	-34.659	0.149	-0.081
-534.135	265.540	-0.099	-0.173
-533.121	265.100	-0.073	0.128
-532.106	-98.212	-0.212	-0.054
-531.091	140.354	-0.051	0.068
-530.077	-200.000	-0.005	0.026
-529.062	1.333	-0.256	-0.183
-528.048	800.000	-0.077	0.312
-527.033	800.000	0.050	0.176
-526.018	-74.351	-0.095	-0.034
-525.004	97.311	0.091	-0.104
-523.989	-200.000	0.000	-0.096
-522.975	-117.893	-0.619	0.111
-521.960	25.470	0.089	-0.073
-520.945	11.161	0.149	-0.114
-519.931	-101.118	-0.113	-0.028
-518.916	-200.000	0.038	0.291
-517.902	-45.763	0.162	-0.080
-516.887	150.636	0.118	-0.160
-515.872	152.786	-0.252	0.343
-514.858	565.873	0.027	-0.066
-513.843	-109.481	0.059	0.013
-512.829	514.138	-0.141	0.328
-511.814	800.000	-0.024	0.086
-510.799	30.205	-0.044	0.038
-509.785	60.241	-0.251	0.247
-508.770	-200.000	-0.019	0.113
-507.756	-107.915	0.181	0.039
-506.741	-137.088	0.132	-0.015
-505.726	-41.618	-0.153	0.078
-504.712	-200.000	0.020	-0.206
-503.697	272.743	0.110	-0.193
-502.683	-47.443	0.339	-0.164
-501.668	412.024	-0.138	0.293
-500.653	-40.153	-0.285	-0.148
-499.639	-200.000	-0.042	0.381
-498.624	162.828	-0.123	0.172
-497.610	-69.631	-0.185	-0.071
-496.595	800.000	-0.158	0.522
-495.581	-200.000	0.006	0.037
-494.566	340.663	0.051	-0.100
-493.551	800.000	-0.040	-0.146
-492.537	-200.000	0.029	0.368
-491.522	-200.000	0.018	-0.242
-490.508	-53.428	0.407	0.185
-489.493	562.724	-0.128	-0.309
-488.478	442.436	0.040	-0.087
-487.464	285.605	0.070	-0.126
-486.449	800.000	-0.085	-0.324
-485.435	-51.975	0.183	-0.085
-484.420	-200.000	-0.081	-0.364
-483.405	-95.118	0.019	-0.005
-482.391	-200.000	0.003	0.093
-481.376	36.255	0.103	-0.090
-480.362	-125.855	0.338	0.051
-479.347	121.016	-0.201	0.249
-478.332	4.511	0.147	-0.107
-477.318	538.350	-0.073	-0.172
-476.303	27.732	0.354	0.296
-475.289	83.342	-0.136	0.148
-474.274	-111.346	0.123	0.025
-473.259	-52.952	-0.409	-0.187
-472.245	-122.027	0.051	-0.008
-471.230	-4.658	0.150	-0.103
-470.216	185.760	0.149	0.219
-469.201	800.000	0.042	0.143
-468.186	3.752	-0.093	0.067
-467.172	-200.000	-0.008	-0.120
-466.157	-120.408	0.222	0.037
-465.143	85.037	0.200	-0.218
-464.128	53.530	0.221	-0.211
-463.113	480.612	0.075	0.170
-462.099	-109.683	0.218	-0.046
-461.084	-119.910	0.061	-0.010
-460.070	717.784	-0.081	-0.215
-459.055	-200.000	0.028	0.381
-458.040	-76.471	0.202	-0.071
-457.026	666.021	0.127	-0.325
-456.011	800.000	-0.031	-0.094
-454.997	125.371	0.169	-0.212
-453.982	-160.996	0.178	0.009
-452.968	-182.044	-0.107	-0.002
-451.953	-16.127	-0.203	-0.128
-450.938	-200.000	0.008	-0.245
-449.924	-82.343	-0.113	0.036
-448.909	512.510	0.216	-0.500
-447.895	182.390	-0.086	0.125
-446.880	-197.534	0.231	-0.001
-445.865	138.195	0.135	0.176
-444.851	417.971	-0.052	-0.110
-443.836	534.407	-0.192	0.452
-442.822	110.733	-0.019	0.022
-441.807	-200.000	0.034	0.246
-440.792	6.120	-0.148	-0.109
-439.778	-148.698	-0.486	0.039
-438.763	-200.000	0.037	-0.385
-437.749	-55.503	0.254	0.113
-436.734	41.114	0.095	0.085
-435.719	-50.400	-0.181	-0.085
-434.705	-29.084	-0.120	-0.068
-433.690	-101.679	-0.209	0.050
-432.676	-176.640	0.307	-0.008
-431.661	-152.763	-0.396	-0.028
-430.646	173.996	-0.214	-0.306
-429.632	129.661	-0.263	0.334
-428.617	527.120	0.095	-0.223
-427.603	116.521	0.184	0.224
-426.588	69.795	-0.106	-0.109
-425.573	-101.504	-0.089	0.022
-424.559	-200.000	-0.052	0.261
-423.544	-50.580	0.203	-0.095
-422.530	427.612	0.032	-0.068
-421.515	6.824	0.349	0.258
-420.500	175.351	-0.173	0.249
-419.486	-43.563	0.207	-0.104
-418.471	-45.423	0.193	-0.095
-417.457	6.384	0.180	0.133
-416.442	53.664	-0.120	0.114
-415.428	-134.159	-0.231	0.028
-414.413	156.276	0.049	-0.067
-413.398	-120.375	-0.278	0.047
-412.384	135.129	0.135	0.173
-411.369	-37.880	-0.279	0.147
-410.355	-69.215	0.188	0.072
-409.340	-110.876	-0.112	-0.023
-408.325	-68.053	0.101	-0.039
-407.311	-200.000	0.025	-0.132
-406.296	198.476	0.187	-0.283
-405.282	-128.587	0.303	-0.043
-404.267	20.030	0.173	-0.138
-403.252	-200.000	-0.003	-0.322
-402.238	-200.000	-0.019	0.316
-401.223	-200.000	-0.002	-0.184
-400.209	537.563	0.101	0.237
-399.194	-200.000	0.007	0.122
-398.179	664.153	-0.163	0.416
-397.165	-131.123	0.124	-0.016
-396.150	98.521	0.309	0.354
-395.136	-114.581	-0.243	0.046
-394.121	-27.517	0.184	0.106
-393.106	-130.322	0.239	-0.032
-392.092	-200.000	0.017	-0.189
-391.077	30.667	0.261	-0.221
-390.063	107.559	-0.172	-0.202
-389.048	400.558	0.137	-0.286
-388.033	-200.000	-0.027	-0.135
-387.019	180.734	-0.170	0.248
-386.004	-109.434	-0.106	0.022
-384.990	-70.876	0.229	0.085
-383.975	773.233	-0.123	0.331
-382.960	214.352	0.129	-0.203
-381.946	185.515	0.128	-0.189
-380.931	35.280	0.035	0.030
-379.917	58.740	0.337	-0.328
-378.902	800.000	-0.116	0.417
-377.888	-107.380	-0.180	0.039
-376.873	-178.913	0.428	0.010
-375.858	-177.271	-0.076	-0.002
-374.844	12.271	-0.136	0.104
-373.829	-200.000	-0.026	0.195
-372.815	62.887	-0.054	-0.054
-371.800	-141.234	-0.286	-0.029
-370.785	32.420	-0.086	0.074
-369.771	339.874	0.103	0.200
-368.756	-40.035	0.458	0.236
-367.742	-85.527	0.265	0.082
-366.727	-162.780	-0.361	0.017
-365.712	158.494	-0.042	0.057
-364.698	-200.000	-0.023	0.163
-363.683	-19.036	0.040	0.024
-362.669	65.222	-0.035	0.035
-361.654	43.600	-0.189	0.171
-360.639	174.002	-0.184	-0.263
-359.625	75.785	-0.063	0.065
-358.610	-107.323	0.244	-0.053
-357.596	-62.500	0.206	-0.085
-356.581	-200.000	-0.006	0.062
-355.566	800.000	0.048	-0.178
-354.552	23.156	0.011	0.009
-353.537	277.488	-0.141	-0.248
-352.523	800.000	-0.046	-0.148
-351.508	-15.373	0.277	-0.176
-350.493	81.028	0.066	0.070
-349.479	-11.982	0.065	0.042
-348.464	587.112	0.021	0.050
-347.450	-200.000	0.032	0.309
-346.435	-122.334	0.342	-0.055
-345.420	183.147	-0.134	0.195
-344.406	-52.123	0.432	0.199
-343.391	-200.000	0.064	0.505
-342.377	-128.956	0.322	-0.045
-341.362	-21.063	-0.549	0.333
-340.348	-110.807	0.302	-0.062
-339.333	635.093	-0.124	0.312
-338.318	403.395	-0.115	-0.240
-337.304	800.000	0.095	0.325
-336.289	-200.000	-0.003	-0.077
-335.275	-38.373	-0.331	0.173
-334.260	442.018	-0.062	-0.135
-333.245	800.000	-0.070	0.260
-332.231	-37.919	-0.168	-0.088
-331.216	306.030	0.119	0.219
-330.202	156.802	0.091	-0.125
-329.187	-78.225	0.205	-0.070
-328.172	-200.000	-0.010	-0.072
-327.158	494.782	0.152	0.344
-326.143	689.431	-0.153	-0.397
-325.129	-150.014	0.311	0.024
-324.114	-200.000	-0.026	0.206
-323.099	-190.756	0.204	0.002
-322.085	-200.000	0.005	0.146
-321.070	171.275	-0.106	-0.151
-320.056	-1.751	0.317	0.220
-319.041	-0.744	-0.077	0.054
-318.026	3.564	-0.088	0.063
-317.012	62.825	0.194	0.192
-315.997	-57.445	0.297	-0.129
-314.983	-107.689	0.238	-0.051
-313.968	-54.955	-0.057	-0.025
-312.953	-74.439	-0.239	0.085
-311.939	-167.178	-0.116	-0.005
-310.924	99.541	0.095	-0.108
-309.910	180.788	-0.136	0.198
-308.895	295.340	-0.129	-0.234
-307.880	-80.300	-0.070	0.023
-306.866	12.593	0.169	0.129
-305.851	166.954	-0.049	-0.069
-304.837	95.565	0.066	0.074
-303.822	-200.000	0.004	-0.107
-302.807	-90.198	0.102	0.029
-301.793	-200.000	-0.006	0.132
-300.778	-72.286	-0.214	-0.078
-299.764	441.033	0.075	-0.163
-298.749	105.372	0.182	0.212
-297.735	-118.977	-0.103	0.018
-296.720	-200.000	0.052	-0.433
-295.705	-200.000	-0.069	0.502
-294.691	-60.202	0.369	0.155
-293.676	-155.022	0.294	0.019
-292.662	15.919	0.125	-0.097
-291.647	-95.100	0.266	-0.071
-290.632	-67.381	-0.250	0.097
-289.618	-134.597	0.296	-0.036
-288.603	435.292	-0.114	-0.244
-287.589	102.301	-0.113	-0.130
-286.574	500.079	0.007	0.015
-285.559	269.351	0.189	0.327
-284.545	48.767	0.203	0.188
-283.530	800.000	-0.043	0.156
-282.516	271.455	-0.085	-0.148
-281.501	358.099	0.073	-0.145
-280.486	35.822	0.394	0.342
-279.472	800.000	-0.015	0.060
-278.457	82.037	-0.100	-0.107
-277.443	-148.780	0.330	-0.026
-276.428	462.649	-0.045	-0.100
-275.413	-85.548	-0.385	0.118
-274.399	371.093	-0.076	0.153
-273.384	16.031	0.125	-0.097
-272.370	800.000	-0.047	-0.167
-271.355	-143.495	-0.192	0.018
-270.340	-200.000	0.003	0.154
-269.326	147.299	-0.279	0.371
-268.311	386.141	-0.253	-0.515
-267.297	-200.000	0.032	0.148
-266.282	116.222	0.204	0.246
-265.267	-141.023	-0.254	-0.026
-264.253	800.000	0.035	-0.131
-263.238	110.858	-0.184	0.219
-262.224	125.403	0.077	-0.096
-261.209	-200.000	0.022	-0.183
-260.195	-200.000	0.016	-0.195
-259.180	-100.010	-0.436	0.107
-258.165	-196.088	0.181	0.001
-257.151	44.133	0.184	0.166
-256.136	-79.776	-0.040	-0.013
-255.122	-118.799	-0.173	0.030
-254.107	178.006	-0.080	0.115
-253.092	-58.542	-0.213	-0.091
-252.078	354.875	-0.116	-0.227
-251.063	37.984	-0.162	0.142
-250.049	-110.869	-0.171	-0.035
-249.034	-96.541	0.421	-0.109
-248.019	-121.847	0.100	-0.016
-247.005	15.974	-0.186	0.144
-245.990	396.485	-0.140	-0.287
-244.976	123.573	0.098	-0.121
-243.961	197.652	0.131	-0.196
-242.946	-130.083	-0.367	0.049
-241.932	-200.000	-0.003	0.300
-240.917	344.435	-0.069	0.134
-239.903	-168.894	0.171	-0.006
-238.888	318.942	-0.103	-0.191
-237.873	800.000	-0.076	-0.213
-236.859	17.003	-0.325	-0.254
-235.844	-145.399	-0.085	-0.008
-234.830	-90.259	-0.039	0.011
-233.815	44.673	0.064	0.058
-232.800	416.930	0.114	0.239
-231.786	-94.220	-0.236	-0.064
-230.771	-200.000	0.053	-0.394
-229.757	17.690	-0.337	-0.264
-228.742	261.479	-0.118	-0.201
-227.727	-128.676	0.254	-0.035
-226.713	-87.085	-0.288	-0.086
-225.698	-200.000	-0.016	0.247
-224.684	-200.000	-0.017	-0.094
-223.669	800.000	0.047	-0.182
-222.655	-109.195	-0.362	-0.076
-221.640	-84.411	0.190	0.059
-220.625	-91.833	0.139	0.039
-219.611	114.563	0.198	-0.238
-218.596	800.000	0.038	0.110
-217.582	-88.299	-0.333	0.098
-216.567	-131.162	-0.374	-0.049
-215.552	92.157	-0.155	0.171
-214.538	800.000	-0.076	0.287
-213.523	-118.555	0.301	0.052
-212.509	-17.537	0.053	-0.033
-211.494	639.027	0.087	-0.217
-210.479	-113.252	-0.103	-0.020
-209.465	-120.987	0.370	0.061
-208.450	-100.453	0.238	0.058
-207.436	172.950	-0.083	-0.118
-206.421	-136.032	-0.304	-0.035
-205.406	250.091	-0.074	-0.124
-204.392	-181.158	-0.354	0.007
-203.377	-29.966	0.208	-0.117
-202.363	-179.912	-0.104	0.002
-201.348	-200.000	-0.020	-0.186
-200.333	372.468	-0.083	-0.165
-199.319	60.208	-0.330	-0.321
-198.304	-78.786	0.052	-0.018
-197.290	-200.000	0.033	-0.221
-196.275	-200.000	0.052	0.356
-195.260	800.000	-0.106	0.339
-194.246	84.837	0.111	0.120
-193.231	-121.805	-0.422	-0.068
-192.217	-200.000	-0.064	0.287
-191.202	-85.892	-0.284	0.086
-190.187	155.875	-0.229	0.311
-189.173	-97.078	-0.344	-0.088
-188.158	800.000	-0.101	-0.331
-187.144	55.978	-0.105	0.100
-186.129	-64.865	0.112	0.044
-185.114	120.860	-0.400	-0.489
-184.100	-143.737	0.071	-0.007
-183.085	-200.000	-0.006	-0.160
-182.071	147.943	0.398	-0.528
-181.056	55.532	-0.404	-0.385
-180.042	-200.000	-0.024	-0.112
-179.027	-184.708	0.250	-0.004
-178.012	-167.553	0.279	0.011
-176.998	-21.039	-0.220	-0.132
-175.983	-200.000	-0.004	-0.322
-174.969	-200.000	0.003	0.063
-173.954	-200.000	0.025	-0.226
-172.939	529.273	0.110	0.256
-171.925	-113.947	-0.307	-0.059
-170.910	1.388	0.282	0.199
-169.896	-91.459	-0.345	-0.097
-168.881	-12.168	0.156	-0.100
-167.866	-84.314	0.136	0.042
-166.852	195.818	0.176	0.263
-165.837	128.530	0.153	0.191
-164.823	53.368	-0.072	-0.068
-163.808	61.183	0.090	0.088
-162.793	122.020	0.123	0.151
-161.779	800.000	-0.043	-0.168
-160.764	-200.000	-0.038	-0.333
-159.750	-60.385	-0.324	-0.135
-158.735	-200.000	0.009	-0.279
-157.720	103.722	0.198	0.229
-156.706	190.932	0.096	0.142
-155.691	-93.608	-0.272	-0.074
-154.677	152.511	-0.115	-0.154
-153.662	-60.355	-0.181	0.075
-152.647	152.905	0.177	0.237
-151.633	292.630	0.160	0.287
-150.618	-127.000	-0.244	-0.035
-149.604	81.340	-0.257	-0.272
-148.589	-62.660	0.229	-0.093
-147.574	146.055	0.205	0.269
-146.560	-63.484	-0.192	0.077
-145.545	-200.000	-0.006	0.365
-144.531	610.750	-0.058	0.143
-143.516	-123.150	0.356	0.056
-142.502	526.877	0.077	0.178
-141.487	-200.000	0.001	0.328
-140.472	-125.246	-0.035	0.005
-139.458	-112.886	-0.182	-0.035
-138.443	-63.516	0.260	-0.105
-137.429	800.000	0.169	-0.481
-136.414	-200.000	-0.024	-0.106
-135.399	662.021	-0.076	0.192
-134.385	253.687	-0.205	-0.344
-133.370	155.629	0.117	-0.158
-132.356	800.000	0.076	0.231
-131.341	-200.000	0.005	0.264
-130.326	143.891	-0.233	0.305
-129.312	-200.000	-0.017	0.135
-128.297	14.360	0.122	-0.094
-127.283	78.688	0.261	0.274
-126.268	-68.042	-0.208	0.079
-125.253	-200.000	0.070	-0.427
-124.239	63.924	-0.144	0.142
-123.224	-23.237	0.209	0.123
-122.210	147.410	0.100	-0.132
