DTS Sentinel unit serial number:	SN413079Multiplexer serial number:	ORYXHardware model number:	OX4-SRSoftware version number:	ORYX F/W v4.00 Oryx Data Collector v3.7.2.0data status	okinstallation	princeton_trtdifferential loss correction	single-endedforward channel	channel 3reverse channel	N/Adate	2019/09/12time	17:38:11forward acquisition time	60.00reverse acquisition time	0.00gamma	496.2192k internal	0.2316k external	0.2316temperature offset calibration	1.0087default loss term (dB/km)	0.3790temperature slope calibration	1.0000multiplexer offset coefficient	1.0000multiplexer slope coefficient	1.0000fibre end	0.00T internal ref (°C)	34.37T ext. ref 1 (°C)	2.86T ext. ref 2 (°C)	28.40length (m)	temperature (°C)	Stokes	anti-Stokes-747.200	-140.572	-0.236	0.025
-746.185	-200.000	0.024	-0.124
-745.171	-67.106	0.206	-0.082
-744.156	35.011	-0.111	0.098
-743.142	36.612	-0.229	0.205
-742.127	44.463	-0.326	0.303
-741.112	47.112	-0.231	0.217
-740.098	104.491	0.052	-0.062
-739.083	763.905	-0.060	-0.165
-738.069	-87.877	0.271	-0.083
-737.054	-179.787	0.219	-0.005
-736.039	-200.000	-0.018	-0.096
-735.025	-47.035	0.161	0.080
-734.010	-150.196	-0.382	0.030
-732.996	-79.292	0.129	-0.044
-731.981	800.000	-0.083	-0.234
-730.966	-200.000	-0.062	-0.534
-729.952	529.409	0.061	-0.145
-728.937	-31.589	-0.102	-0.058
-727.923	-200.000	-0.077	-0.582
-726.908	-200.000	-0.014	-0.093
-725.894	-200.000	-0.034	-0.201
-724.879	-157.227	-0.351	-0.022
-723.864	-61.550	-0.266	-0.113
-722.850	-99.629	-0.278	0.071
-721.835	-200.000	-0.030	0.272
-720.821	-200.000	-0.054	0.243
-719.806	50.690	0.186	-0.178
-718.791	-200.000	0.007	-0.279
-717.777	-119.270	-0.488	0.086
-716.762	-129.067	0.054	-0.008
-715.748	-200.000	-0.039	-0.173
-714.733	-4.343	-0.197	-0.138
-713.718	132.317	0.139	-0.181
-712.704	207.038	-0.120	-0.190
-711.689	63.190	0.208	-0.211
-710.675	-200.000	-0.004	-0.177
-709.660	-73.292	0.277	-0.102
-708.645	358.748	0.085	-0.171
-707.631	-79.344	-0.346	-0.119
-706.616	800.000	-0.058	0.228
-705.602	-132.129	-0.054	0.007
-704.587	-125.719	0.169	0.026
-703.572	-165.570	0.135	0.006
-702.558	-175.842	-0.318	0.009
-701.543	260.720	-0.140	0.245
-700.529	174.102	-0.122	-0.178
-699.514	-200.000	-0.032	0.179
-698.499	47.646	-0.236	-0.223
-697.485	355.676	-0.160	-0.323
-696.470	-200.000	-0.001	-0.311
-695.456	5.433	0.144	-0.107
-694.441	-63.346	-0.155	0.065
-693.426	800.000	0.099	0.296
-692.412	-108.562	-0.197	-0.043
-691.397	800.000	-0.063	-0.230
-690.383	110.766	-0.056	0.068
-689.368	160.655	-0.179	-0.253
-688.354	-200.000	0.527	0.001
-687.339	-125.338	0.219	0.034
-686.324	268.632	-0.018	-0.031
-685.310	97.245	-0.202	0.234
-684.295	-150.765	-0.245	0.019
-683.281	538.109	-0.095	-0.228
-682.266	-118.078	0.110	-0.020
-681.251	320.811	0.132	0.253
-680.237	551.629	-0.141	0.342
-679.222	30.400	-0.222	-0.192
-678.208	-200.000	-0.002	-0.278
-677.193	240.112	-0.134	-0.226
-676.178	706.966	-0.130	-0.348
-675.164	460.270	0.169	-0.380
-674.149	-200.000	-0.121	-0.000
-673.135	-13.309	-0.280	-0.183
-672.120	-34.495	-0.047	0.026
-671.105	434.314	0.189	-0.414
-670.091	-17.599	-0.245	0.156
-669.076	29.033	-0.168	-0.144
-668.062	800.000	-0.049	-0.144
-667.047	-200.000	-0.014	-0.158
-666.032	800.000	-0.098	-0.278
-665.018	-117.397	-0.192	0.035
-664.003	-141.581	-0.232	0.024
-662.989	-200.000	0.019	-0.174
-661.974	747.972	-0.107	-0.290
-660.959	100.583	-0.089	-0.105
-659.945	389.056	-0.095	-0.198
-658.930	-111.720	0.137	-0.028
-657.916	81.719	0.290	0.317
-656.901	-200.000	-0.110	0.000
-655.886	669.358	0.057	-0.148
-654.872	415.462	-0.089	-0.191
-653.857	-97.505	-0.198	-0.052
-652.843	59.069	0.129	0.128
-651.828	-200.000	0.010	0.060
-650.814	-200.000	-0.025	0.185
-649.799	-52.358	-0.048	0.023
-648.784	-19.555	-0.209	0.131
-647.770	-93.391	-0.074	0.021
-646.755	800.000	-0.060	-0.250
-645.741	-154.408	-0.281	-0.019
-644.726	182.028	0.125	-0.186
-643.711	-200.000	0.008	-0.224
-642.697	-200.000	-0.032	-0.477
-641.682	-200.000	0.052	0.239
-640.668	-16.850	0.105	0.067
-639.653	2.648	0.178	-0.130
-638.638	-115.188	-0.098	-0.019
-637.624	-200.000	-0.023	-0.289
-636.609	455.878	-0.186	-0.416
-635.595	211.511	-0.238	-0.378
-634.580	-200.000	-0.057	-0.310
-633.565	-44.642	0.082	-0.041
-632.551	80.184	-0.190	-0.206
-631.536	29.454	0.253	0.217
-630.522	-64.316	0.144	-0.059
-629.507	-93.082	0.504	0.142
-628.492	25.583	-0.252	-0.212
-627.478	800.000	0.013	0.040
-626.463	-135.136	-0.252	0.031
-625.449	356.828	0.107	-0.215
-624.434	-51.551	0.117	0.055
-623.419	25.886	0.068	-0.057
-622.405	800.000	-0.100	0.296
-621.390	-61.298	-0.084	0.036
-620.376	59.218	-0.163	-0.161
-619.361	800.000	0.098	0.306
-618.346	-30.140	-0.215	-0.123
-617.332	25.731	0.167	0.140
-616.317	112.059	0.206	0.251
-615.303	386.092	-0.051	0.107
-614.288	-142.805	0.427	0.042
-613.273	-109.102	-0.381	-0.082
-612.259	348.604	0.116	-0.230
-611.244	-65.556	0.229	-0.093
-610.230	65.631	0.104	-0.106
-609.215	-200.000	0.061	0.367
-608.201	202.715	0.048	0.075
-607.186	-100.965	-0.036	-0.009
-606.171	-200.000	0.014	0.188
-605.157	-78.448	-0.106	-0.037
-604.142	-170.689	-0.277	0.010
-603.128	352.177	0.119	-0.237
-602.113	-49.358	0.298	-0.143
-601.098	-11.296	0.135	-0.090
-600.084	-96.694	0.339	0.090
-599.069	-200.000	0.034	-0.201
-598.055	-200.000	-0.028	-0.153
-597.040	-200.000	0.032	-0.210
-596.025	21.223	-0.200	0.164
-595.011	116.271	-0.043	0.053
-593.996	-33.233	-0.141	-0.079
-592.982	4.707	0.191	0.141
-591.967	-131.813	0.072	-0.010
-590.952	74.440	-0.234	0.247
-589.938	-200.000	-0.043	0.211
-588.923	-20.826	0.175	-0.108
-587.909	41.384	0.093	-0.084
-586.894	262.370	0.155	-0.271
-585.879	-200.000	-0.018	0.314
-584.865	-75.025	0.133	0.048
-583.850	100.119	0.176	0.205
-582.836	-118.264	-0.227	0.041
-581.821	-54.174	-0.383	0.175
-580.806	-200.000	0.010	0.102
-579.792	-111.650	0.212	-0.043
-578.777	7.505	-0.245	-0.184
-577.763	102.284	-0.259	-0.305
-576.748	12.900	0.153	-0.119
-575.733	-200.000	-0.013	0.074
-574.719	38.320	-0.106	-0.095
-573.704	-61.199	-0.184	-0.078
-572.690	168.135	-0.217	-0.310
-571.675	290.710	0.050	-0.091
-570.661	-44.150	-0.154	-0.078
-569.646	-117.531	0.239	0.043
-568.631	-107.643	-0.467	0.103
-567.617	-95.466	0.070	0.019
-566.602	107.977	0.099	-0.118
-565.588	-29.920	0.167	-0.096
-564.573	-200.000	-0.007	-0.236
-563.558	255.987	-0.058	0.101
-562.544	-133.209	0.464	-0.059
-561.529	372.013	0.027	-0.055
-560.515	248.902	0.037	0.063
-559.500	-131.318	0.287	-0.038
-558.485	92.577	-0.204	0.231
-557.471	-84.110	0.260	0.083
-556.456	-60.334	0.181	0.077
-555.442	800.000	0.073	-0.276
-554.427	-131.604	-0.097	-0.013
-553.412	69.666	0.128	0.133
-552.398	-11.300	-0.174	-0.115
-551.383	-200.000	-0.082	-0.409
-550.369	800.000	0.119	0.433
-549.354	-200.000	-0.035	-0.157
-548.339	-83.102	-0.215	0.070
-547.325	-40.240	-0.158	0.083
-546.310	-134.514	0.174	0.021
-545.296	35.348	-0.098	-0.086
-544.281	-200.000	0.039	-0.249
-543.266	-88.093	0.148	0.045
-542.252	-55.049	-0.199	0.090
-541.237	-41.745	-0.323	-0.167
-540.223	-200.000	-0.011	-0.187
-539.208	-64.038	0.229	-0.094
-538.193	-30.410	0.193	0.110
-537.179	-135.013	0.124	0.015
-536.164	-178.452	0.337	0.008
-535.150	800.000	-0.104	-0.352
-534.135	-164.692	-0.174	-0.008
-533.121	-69.313	-0.144	0.055
-532.106	174.615	0.050	0.072
-531.091	-8.422	-0.265	-0.179
-530.077	-158.812	-0.298	-0.017
-529.062	-147.038	0.179	0.015
-528.048	220.948	-0.101	-0.162
-527.033	703.915	0.051	-0.134
-526.018	800.000	0.079	0.300
-525.004	-87.071	0.191	-0.058
-523.989	287.499	0.115	-0.210
-522.975	135.277	0.224	0.292
-521.960	442.586	0.094	-0.206
-520.945	-16.372	0.263	-0.168
-519.931	-46.062	0.054	-0.027
-518.916	-53.553	-0.134	0.062
-517.902	800.000	-0.067	-0.217
-516.887	350.660	0.059	0.118
-515.872	17.933	0.111	-0.089
-514.858	117.408	-0.231	0.286
-513.843	-200.000	-0.012	0.083
-512.829	-33.573	0.214	0.119
-511.814	-200.000	-0.002	-0.086
-510.799	478.673	-0.077	-0.175
-509.785	-200.000	0.000	-0.049
-508.770	-152.843	-0.219	0.016
-507.756	-42.850	0.302	-0.154
-506.741	16.554	-0.203	0.161
-505.726	-74.158	-0.459	0.167
-504.712	-112.154	0.304	-0.061
-503.697	364.396	0.178	0.359
-502.683	277.374	-0.159	-0.283
-501.668	18.714	-0.149	-0.120
-500.653	-13.356	0.124	-0.081
-499.639	-65.682	0.200	0.080
-498.624	21.261	-0.132	0.108
-497.610	84.700	-0.090	0.099
-496.595	-124.119	-0.236	-0.037
-495.581	752.859	0.171	0.464
-494.566	167.641	-0.062	-0.088
-493.551	800.000	-0.062	-0.197
-492.537	-126.923	-0.242	0.036
-491.522	-200.000	-0.010	0.116
-490.508	-60.025	0.030	0.013
-489.493	100.040	-0.278	-0.323
-488.478	-39.753	0.079	0.042
-487.464	800.000	-0.047	-0.189
-486.449	357.335	-0.212	0.424
-485.435	-200.000	-0.003	-0.025
-484.420	222.508	-0.168	-0.272
-483.405	800.000	-0.061	0.207
-482.391	-200.000	0.039	-0.271
-481.376	-200.000	0.083	-0.528
-480.362	382.146	0.050	0.103
-479.347	-200.000	0.023	0.134
-478.332	316.932	-0.029	-0.054
-477.318	800.000	0.094	0.328
-476.303	400.743	-0.192	-0.404
-475.289	72.883	0.045	-0.047
-474.274	82.143	0.129	0.140
-473.259	113.364	-0.207	-0.251
-472.245	685.663	0.084	0.220
-471.230	189.695	0.167	-0.251
-470.216	51.808	0.257	0.245
-469.201	-92.586	0.191	-0.054
-468.186	-92.453	0.019	0.005
-467.172	47.706	-0.089	-0.083
-466.157	5.004	0.282	0.208
-465.143	83.692	-0.188	0.206
-464.128	378.479	-0.102	0.208
-463.113	-181.536	0.380	0.007
-462.099	-200.000	-0.001	-0.306
-461.084	-106.639	0.227	-0.051
-460.070	-3.728	0.061	-0.042
-459.055	-95.406	-0.243	-0.066
-458.040	18.451	0.394	-0.316
-457.026	137.001	0.186	0.244
-456.011	-185.658	0.156	0.002
-454.997	66.691	0.086	-0.088
-453.982	-107.509	0.243	-0.053
-452.968	143.600	-0.140	-0.186
-451.953	800.000	0.018	-0.061
-450.938	118.147	-0.149	0.184
-449.924	-200.000	0.005	0.239
-448.909	79.770	-0.159	0.171
-447.895	-142.707	0.193	-0.019
-446.880	-177.753	0.290	-0.007
-445.865	800.000	0.085	0.287
-444.851	-97.396	-0.187	-0.049
-443.836	29.402	-0.215	-0.183
-442.822	-200.000	-0.040	-0.180
-441.807	-101.663	-0.213	-0.052
-440.792	-132.327	-0.107	0.014
-439.778	640.823	-0.075	-0.191
-438.763	-145.535	-0.289	0.026
-437.749	-200.000	-0.001	0.224
-436.734	539.614	-0.094	0.223
-435.719	-200.000	0.042	0.219
-434.705	45.058	-0.086	0.079
-433.690	596.543	-0.069	-0.171
-432.676	-25.172	-0.181	0.107
-431.661	-200.000	-0.059	0.285
-430.646	52.232	-0.097	-0.092
-429.632	-200.000	-0.012	-0.179
-428.617	800.000	0.090	-0.304
-427.603	150.949	0.063	0.085
-426.588	196.689	0.026	0.040
-425.573	219.242	0.030	0.048
-424.559	-78.987	-0.087	-0.030
-423.544	-37.225	-0.242	-0.129
-422.530	240.759	0.119	0.199
-421.515	-200.000	0.016	-0.086
-420.500	-200.000	0.001	0.462
-419.486	-200.000	0.018	-0.342
-418.471	800.000	0.031	-0.129
-417.457	-200.000	0.010	0.162
-416.442	800.000	-0.007	-0.024
-415.428	-28.169	-0.210	0.121
-414.413	71.110	0.117	0.121
-413.398	35.285	-0.423	0.371
-412.384	-39.075	-0.214	0.112
-411.369	-54.815	-0.177	0.080
-410.355	184.418	-0.177	-0.262
-409.340	-200.000	0.004	0.207
-408.325	-200.000	-0.008	-0.389
-407.311	800.000	-0.099	0.290
-406.296	144.120	-0.177	-0.236
-405.282	286.767	0.151	0.273
-404.267	-200.000	-0.030	0.168
-403.252	800.000	-0.105	0.355
-402.238	-24.019	-0.055	-0.033
-401.223	423.352	0.074	-0.159
-400.209	215.536	-0.084	-0.134
-399.194	-65.062	-0.185	-0.074
-398.179	98.905	-0.198	-0.228
-397.165	-89.987	-0.211	-0.062
-396.150	59.624	-0.207	-0.204
-395.136	91.763	-0.133	-0.149
-394.121	800.000	0.048	-0.200
-393.106	21.177	-0.242	-0.196
-392.092	-200.000	-0.018	0.237
-391.077	-200.000	-0.026	0.284
-390.063	140.729	-0.206	-0.272
-389.048	125.923	0.125	-0.157
-388.033	-76.360	-0.047	-0.017
-387.019	800.000	-0.130	0.368
-386.004	473.749	-0.161	0.363
-384.990	-191.895	0.120	0.001
-383.975	-200.000	0.069	-0.353
-382.960	11.852	0.230	-0.177
-381.946	179.692	-0.269	0.393
-380.931	-154.826	-0.213	0.014
-379.917	-200.000	0.037	0.288
-378.902	-50.984	0.244	-0.115
-377.888	-200.000	-0.075	0.404
-376.873	-60.134	-0.239	-0.102
-375.858	2.671	-0.352	-0.255
-374.844	-141.251	0.339	-0.034
-373.829	-30.286	0.122	-0.069
-372.815	-200.000	-0.033	-0.205
-371.800	2.211	-0.128	0.092
-370.785	-36.403	-0.195	0.105
-369.771	-127.779	-0.124	-0.018
-368.756	-183.454	0.121	-0.002
-367.742	-200.000	-0.016	-0.103
-366.727	87.251	0.328	-0.362
-365.712	-150.088	0.100	-0.008
-364.698	268.901	0.050	0.088
-363.683	-139.464	0.228	-0.024
-362.669	25.379	-0.083	-0.069
-361.654	26.039	0.212	0.177
-360.639	581.981	-0.121	0.297
-359.625	10.439	-0.187	-0.142
-358.610	-74.826	-0.286	0.102
-357.596	175.828	-0.113	-0.164
-356.581	50.999	-0.265	0.250
-355.566	94.701	0.090	-0.102
-354.552	58.672	0.184	0.180
-353.537	-132.843	0.189	-0.024
-352.523	-137.689	-0.217	0.024
-351.508	-19.590	0.007	0.005
-350.493	139.199	-0.078	0.102
-349.479	800.000	0.094	0.309
-348.464	298.337	0.024	0.044
-347.450	-98.296	-0.136	0.035
-346.435	-200.000	-0.019	-0.121
-345.420	-98.318	-0.061	-0.016
-344.406	-200.000	0.012	-0.060
-343.391	-54.255	0.193	0.087
-342.377	-200.000	-0.034	0.239
-341.362	-90.886	0.170	0.049
-340.348	-50.267	-0.415	-0.195
-339.333	-38.298	-0.090	-0.048
-338.318	800.000	0.121	-0.418
-337.304	27.726	0.183	-0.154
-336.289	-200.000	-0.030	0.279
-335.275	39.585	-0.115	0.103
-334.260	800.000	0.051	0.178
-333.245	170.536	-0.061	-0.087
-332.231	59.521	0.025	0.025
-331.216	17.312	-0.219	0.173
-330.202	90.114	0.310	0.345
-329.187	-130.588	0.185	-0.025
-328.172	-200.000	0.005	-0.098
-327.158	800.000	0.089	0.271
-326.143	-83.171	-0.311	0.100
-325.129	141.253	-0.143	-0.189
-324.114	115.315	0.174	0.211
-323.099	60.639	0.175	-0.173
-322.085	-70.595	-0.111	0.042
-321.070	800.000	-0.059	0.191
-320.056	-1.408	-0.095	-0.067
-319.041	194.751	-0.176	0.266
-318.026	-200.000	-0.002	-0.046
-317.012	-51.570	0.065	-0.030
-315.997	-62.775	-0.112	0.046
-314.983	110.614	0.104	-0.125
-313.968	385.466	-0.102	-0.210
-312.953	156.604	0.100	0.138
-311.939	2.451	0.298	0.215
-310.924	28.417	0.225	0.189
-309.910	800.000	-0.127	0.371
-308.895	-89.503	0.115	-0.034
-307.880	-134.562	-0.260	-0.032
-306.866	-200.000	-0.026	-0.148
-305.851	143.358	0.169	0.224
-304.837	562.602	0.057	0.137
-303.822	28.450	-0.133	0.112
-302.807	50.352	0.250	0.235
-301.793	193.201	0.158	0.239
-300.778	74.018	0.049	0.052
-299.764	-199.152	-0.283	-0.002
-298.749	735.793	-0.038	0.100
-297.735	262.859	-0.083	0.143
-296.720	-95.424	0.361	0.096
-295.705	46.454	0.176	0.163
-294.691	328.794	0.083	-0.159
-293.676	89.219	0.227	-0.252
-292.662	-51.449	0.220	0.102
-291.647	-47.301	0.251	0.122
-290.632	44.177	-0.150	0.137
-289.618	156.676	0.063	0.087
-288.603	800.000	-0.142	-0.407
-287.589	-88.443	0.222	0.066
-286.574	40.687	0.099	-0.089
-285.559	800.000	-0.158	-0.507
-284.545	495.546	0.183	-0.419
-283.530	-192.576	-0.131	-0.001
-282.516	41.110	-0.178	0.160
-281.501	-111.390	0.183	0.037
-280.486	-77.934	-0.083	-0.028
-279.472	31.512	0.120	0.102
-278.457	-187.991	-0.195	0.003
-277.443	-200.000	0.028	-0.132
-276.428	-67.053	-0.348	0.136
-275.413	-200.000	-0.020	0.275
-274.399	178.626	-0.164	-0.238
-273.384	676.136	-0.090	-0.234
-272.370	-200.000	-0.013	-0.265
-271.355	-36.843	0.315	-0.168
-270.340	-200.000	0.047	0.329
-269.326	612.501	0.071	-0.178
-268.311	-193.223	-0.286	0.003
-267.297	-86.057	0.418	0.128
-266.282	800.000	0.136	0.453
-265.267	25.142	-0.163	-0.135
-264.253	267.420	0.134	-0.233
-263.238	139.772	0.035	-0.045
-262.224	248.637	-0.069	0.116
-261.209	-41.829	-0.197	-0.100
-260.195	-47.823	-0.158	0.076
-259.180	-161.965	-0.066	-0.003
-258.165	53.998	0.054	0.052
-257.151	26.020	-0.281	0.233
-256.136	26.350	-0.067	-0.056
-255.122	141.293	-0.110	0.145
-254.107	-53.111	0.323	-0.148
-253.092	-200.000	0.054	0.362
-252.078	800.000	0.106	0.294
-251.063	150.872	-0.175	0.237
-250.049	618.808	-0.100	0.250
-249.034	-145.168	0.376	-0.034
-248.019	800.000	-0.102	-0.409
-247.005	-103.644	0.289	-0.067
-245.990	-101.146	-0.225	0.055
-244.976	30.748	-0.309	-0.263
-243.961	800.000	-0.093	-0.273
-242.946	800.000	0.144	-0.402
-241.932	-200.000	0.047	-0.504
-240.917	-200.000	-0.040	0.321
-239.903	800.000	0.030	-0.113
-238.888	800.000	-0.037	0.114
-237.873	-117.550	0.122	0.022
-236.859	-113.363	0.074	0.014
-235.844	-160.421	0.256	0.014
-234.830	-200.000	-0.006	-0.177
-233.815	136.541	0.054	-0.070
-232.800	500.429	-0.057	0.131
-231.786	441.337	-0.157	0.340
-230.771	67.773	0.170	0.173
-229.757	-132.934	0.027	-0.003
-228.742	449.554	0.017	0.037
-227.727	-97.690	0.219	0.056
-226.713	800.000	0.056	0.184
-225.698	-162.581	0.139	0.007
-224.684	221.015	0.083	-0.132
-223.669	-200.000	0.061	0.298
-222.655	-200.000	0.003	0.021
-221.640	-154.543	0.361	0.024
-220.625	108.996	0.185	0.220
-219.611	100.621	0.066	0.076
-218.596	130.035	0.205	0.260
-217.582	-28.797	-0.059	-0.034
-216.567	231.328	-0.205	-0.334
-215.552	-131.352	-0.172	-0.023
-214.538	40.206	0.346	0.309
-213.523	-136.681	-0.062	-0.007
-212.509	800.000	-0.068	0.230
-211.494	-28.237	-0.277	-0.159
-210.479	-200.000	0.056	-0.273
-209.465	655.757	0.211	-0.538
-208.450	-72.409	0.007	-0.003
-207.436	291.682	0.200	0.362
-206.421	-127.695	-0.263	0.038
-205.406	-71.573	-0.284	0.105
-204.392	800.000	-0.040	-0.175
-203.377	579.492	0.025	-0.060
-202.363	260.122	-0.080	0.138
-201.348	173.344	0.056	0.079
-200.333	-103.507	-0.220	-0.051
-199.319	-200.000	-0.039	0.260
-198.304	33.137	0.246	-0.212
-197.290	-62.098	0.091	-0.038
-196.275	-115.435	-0.326	0.061
-195.260	-117.718	0.335	0.060
-194.246	-80.729	-0.286	0.094
-193.231	-200.000	-0.020	0.261
-192.217	291.669	-0.117	-0.212
-191.202	-105.011	0.156	0.035
-190.187	-58.201	-0.101	-0.044
-189.173	725.160	0.175	0.462
-188.158	800.000	-0.065	-0.282
-187.144	-200.000	-0.030	-0.144
-186.129	-69.441	0.108	0.041
-185.114	-200.000	0.032	0.270
-184.100	707.525	0.097	-0.253
-183.085	-122.262	-0.337	0.055
-182.071	42.947	0.104	-0.094
-181.056	800.000	0.101	0.341
-180.042	-24.513	-0.168	-0.099
-179.027	-200.000	-0.023	-0.132
-178.012	-39.644	0.108	0.056
-176.998	-44.315	-0.163	-0.081
-175.983	185.343	0.138	-0.202
-174.969	285.836	-0.226	0.403
-173.954	-82.523	0.196	-0.063
-172.939	208.424	0.081	-0.125
-171.925	800.000	-0.083	-0.257
-170.910	-50.686	-0.283	-0.132
-169.896	102.194	-0.107	0.124
-168.881	776.520	0.046	0.124
-167.866	-200.000	0.007	-0.089
-166.852	-55.382	-0.053	-0.024
-165.837	335.646	0.122	-0.235
-164.823	277.075	-0.181	0.319
-163.808	-154.767	0.202	-0.013
-162.793	-5.408	0.222	0.151
-161.779	-200.000	0.045	0.431
-160.764	-112.325	0.064	0.013
-159.750	39.874	0.183	0.163
-158.735	424.669	0.097	-0.206
-157.720	178.221	-0.099	-0.143
-156.706	358.902	0.116	-0.230
-155.691	-200.000	0.001	0.096
-154.677	180.675	0.315	-0.458
-153.662	-112.044	-0.134	0.027
-152.647	99.627	0.073	0.084
-151.633	-147.824	0.548	-0.045
-150.618	165.405	0.171	-0.239
-149.604	-123.713	0.151	0.024
-148.589	29.968	0.090	-0.076
-147.574	-110.472	-0.263	0.054
-146.560	652.152	-0.094	-0.240
-145.545	-121.042	0.112	0.019
-144.531	269.397	-0.176	0.307
-143.516	-135.553	0.131	-0.015
-142.502	410.106	0.093	-0.196
-141.487	-161.442	-0.328	0.017
-140.472	-86.173	0.059	-0.018
-139.458	288.592	-0.161	0.289
-138.443	77.139	-0.035	-0.037
-137.429	87.610	-0.233	0.255
-136.414	-179.085	-0.262	-0.006
-135.399	800.000	0.098	0.285
-134.385	424.765	-0.124	0.265
-133.370	22.002	-0.322	0.260
-132.356	-21.213	-0.068	-0.041
-131.341	-122.668	-0.097	-0.016
-130.326	15.682	-0.195	0.152
-129.312	34.936	0.257	-0.223
-128.297	490.400	-0.023	0.051
-127.283	-17.282	-0.274	0.170
-126.268	83.444	-0.088	-0.095
-125.253	-125.827	-0.268	-0.040
-124.239	35.978	-0.245	0.213
-123.224	-200.000	0.001	0.066
