DTS Sentinel unit serial number:	SN413079Multiplexer serial number:	ORYXHardware model number:	OX4-SRSoftware version number:	ORYX F/W v4.00 Oryx Data Collector v3.7.2.0data status	okinstallation	princeton_trtdifferential loss correction	single-endedforward channel	channel 3reverse channel	N/Adate	2019/09/19time	07:20:35forward acquisition time	60.00reverse acquisition time	0.00gamma	496.2192k internal	0.2348k external	0.2348temperature offset calibration	0.9985default loss term (dB/km)	0.3790temperature slope calibration	1.0000multiplexer offset coefficient	1.0000multiplexer slope coefficient	1.0000fibre end	0.00T internal ref (°C)	19.12T ext. ref 1 (°C)	0.55T ext. ref 2 (°C)	13.69length (m)	temperature (°C)	Stokes	anti-Stokes-747.200	-34.717	0.309	-0.169
-746.185	-117.216	-0.256	-0.046
-745.171	282.851	0.183	0.329
-744.156	-200.000	0.079	0.587
-743.142	780.879	0.096	0.263
-742.127	-35.414	-0.059	-0.032
-741.112	-98.839	0.183	-0.046
-740.098	162.717	0.210	0.295
-739.083	-0.018	0.311	-0.221
-738.069	49.162	-0.111	-0.104
-737.054	-29.579	-0.288	0.164
-736.039	-200.000	-0.013	-0.278
-735.025	-24.518	0.204	0.121
-734.010	-71.599	0.191	-0.071
-732.996	114.714	0.306	0.373
-731.981	21.047	-0.073	-0.059
-730.966	13.948	-0.147	-0.114
-729.952	-168.960	0.158	0.006
-728.937	-31.345	0.175	-0.098
-727.923	102.134	-0.172	-0.200
-726.908	-200.000	-0.010	-0.282
-725.894	-24.091	-0.118	0.070
-724.879	-21.958	-0.134	-0.081
-723.864	-48.290	-0.230	0.111
-722.850	800.000	0.033	0.112
-721.835	190.335	-0.104	0.156
-720.821	-176.154	-0.234	-0.006
-719.806	-200.000	-0.001	-0.188
-718.791	32.808	-0.094	-0.081
-717.777	149.458	0.085	0.115
-716.762	-66.677	-0.306	0.121
-715.748	61.822	0.094	-0.094
-714.733	-96.496	-0.482	0.127
-713.718	76.982	0.143	0.152
-712.704	82.960	0.068	0.074
-711.689	-90.449	-0.185	-0.054
-710.675	-48.141	0.097	-0.047
-709.660	-56.779	-0.027	-0.012
-708.645	-22.330	0.239	0.144
-707.631	-61.099	0.342	0.144
-706.616	-4.263	-0.157	0.108
-705.602	25.965	-0.153	0.127
-704.587	165.961	0.136	-0.192
-703.572	243.011	0.059	0.098
-702.558	34.587	-0.108	-0.094
-701.543	242.285	0.076	0.127
-700.529	-103.597	0.133	0.031
-699.514	-136.551	-0.283	0.033
-698.499	-13.324	0.219	-0.142
-697.485	166.972	0.176	-0.248
-696.470	-12.558	0.259	0.169
-695.456	199.329	-0.114	0.174
-694.441	-200.000	-0.017	0.154
-693.426	-104.321	0.059	-0.014
-692.412	-122.558	0.190	0.031
-691.397	3.872	0.262	0.191
-690.383	485.736	-0.096	0.217
-689.368	630.141	0.050	0.125
-688.354	-62.871	-0.182	0.075
-687.339	-200.000	0.019	-0.282
-686.324	-200.000	0.004	0.330
-685.310	-190.497	0.176	0.002
-684.295	-200.000	-0.017	0.106
-683.281	-76.920	0.386	0.135
-682.266	695.027	0.135	-0.353
-681.251	-165.622	0.150	0.006
-680.237	-54.514	-0.275	-0.124
-679.222	-200.000	0.043	-0.275
-678.208	-200.000	-0.047	0.467
-677.193	593.266	0.066	-0.163
-676.178	24.437	-0.145	0.120
-675.164	-35.549	0.166	0.090
-674.149	-96.040	0.161	0.043
-673.135	-191.216	-0.134	-0.001
-672.120	-123.125	0.286	-0.046
-671.105	-200.000	-0.025	-0.256
-670.091	-151.008	0.130	0.010
-669.076	800.000	0.053	-0.157
-668.062	286.893	-0.133	-0.239
-667.047	-190.905	0.266	0.003
-666.032	-200.000	0.014	0.186
-665.018	-25.619	-0.204	-0.120
-664.003	-126.945	-0.200	-0.029
-662.989	-200.000	-0.047	0.413
-661.974	-101.847	-0.255	-0.061
-660.959	172.014	0.052	0.075
-659.945	211.140	0.014	-0.022
-658.930	-76.983	0.277	-0.096
-657.916	117.439	0.176	-0.216
-656.901	-200.000	-0.026	0.126
-655.886	340.245	0.078	0.152
-654.872	-200.000	0.007	0.066
-653.857	-200.000	-0.006	-0.190
-652.843	1.210	-0.271	-0.194
-651.828	-200.000	0.022	0.281
-650.814	48.033	0.122	0.114
-649.799	-200.000	0.059	-0.402
-648.784	-105.278	0.161	0.036
-647.770	-138.912	-0.356	0.039
-646.755	19.540	-0.035	0.028
-645.741	40.231	-0.007	0.006
-644.726	-9.930	-0.347	-0.230
-643.711	83.423	-0.258	-0.279
-642.697	-103.779	-0.330	0.077
-641.682	-133.585	-0.043	-0.005
-640.668	181.075	0.076	-0.111
-639.653	618.263	0.077	-0.192
-638.638	-102.532	-0.199	0.047
-637.624	-147.476	0.160	0.013
-636.609	800.000	-0.023	-0.075
-635.595	317.216	0.146	0.275
-634.580	126.542	-0.310	0.390
-633.565	318.934	-0.175	0.329
-632.551	241.928	-0.108	0.180
-631.536	751.710	0.106	0.283
-630.522	38.425	-0.272	-0.241
-629.507	-97.390	0.416	0.108
-628.492	-72.035	-0.261	-0.096
-627.478	-200.000	0.015	-0.122
-626.463	-62.179	-0.281	0.116
-625.449	49.477	0.022	0.021
-624.434	-80.887	-0.265	-0.087
-623.419	123.213	-0.025	0.031
-622.405	-200.000	-0.022	0.160
-621.390	800.000	-0.053	0.200
-620.376	-160.705	-0.300	0.016
-619.361	800.000	0.037	-0.133
-618.346	27.343	0.052	-0.044
-617.332	-48.401	0.231	-0.111
-616.317	-0.292	-0.131	0.092
-615.303	192.736	0.111	0.167
-614.288	279.060	-0.167	0.296
-613.273	-200.000	0.009	-0.057
-612.259	-38.310	0.231	-0.122
-611.244	-171.375	-0.381	-0.013
-610.230	50.686	-0.298	-0.281
-609.215	185.696	-0.113	-0.167
-608.201	100.014	0.083	0.095
-607.186	59.530	0.325	-0.318
-606.171	800.000	-0.013	0.051
-605.157	31.181	-0.169	0.144
-604.142	588.324	-0.033	-0.080
-603.128	-83.160	-0.161	-0.051
-602.113	800.000	-0.065	0.274
-601.098	-134.125	-0.050	0.006
-600.084	-19.899	0.267	-0.164
-599.069	-71.753	-0.154	-0.057
-598.055	16.258	0.222	0.174
-597.040	291.031	0.128	-0.230
-596.025	-200.000	-0.094	-0.460
-595.011	-58.204	-0.350	0.151
-593.996	-200.000	-0.035	-0.342
-592.982	-131.444	-0.289	0.038
-591.967	-200.000	-0.025	0.130
-590.952	679.833	-0.119	-0.308
-589.938	117.291	0.208	-0.254
-588.923	-101.142	0.322	-0.078
-587.909	-26.645	-0.202	0.117
-586.894	762.147	0.052	0.140
-585.879	-183.882	-0.453	-0.008
-584.865	14.918	-0.165	0.128
-583.850	-200.000	0.053	-0.382
-582.836	-76.285	-0.247	0.086
-581.821	800.000	0.043	-0.158
-580.806	-121.316	-0.161	0.027
-579.792	-200.000	0.141	-0.001
-578.777	-51.823	0.299	-0.138
-577.763	-200.000	0.015	0.118
-576.748	-38.619	0.208	0.109
-575.733	154.590	-0.181	0.247
-574.719	-200.000	0.002	-0.206
-573.704	-169.039	-0.071	0.003
-572.690	-75.542	0.152	-0.054
-571.675	-20.925	0.141	-0.086
-570.661	-200.000	-0.005	-0.355
-569.646	800.000	0.023	-0.078
-568.631	-57.441	-0.129	0.056
-567.617	185.852	-0.085	-0.126
-566.602	-46.504	-0.087	0.042
-565.588	-72.041	-0.104	-0.038
-564.573	-167.431	-0.150	-0.006
-563.558	-168.500	-0.320	0.012
-562.544	135.931	0.084	0.108
-561.529	-200.000	-0.008	0.182
-560.515	-200.000	0.013	-0.132
-559.500	-175.141	0.115	-0.003
-558.485	-42.163	0.248	0.126
-557.471	-200.000	0.052	-0.315
-556.456	-9.614	0.143	0.095
-555.442	-200.000	-0.026	0.226
-554.427	-45.093	-0.214	0.106
-553.412	27.434	0.216	-0.180
-552.398	-107.578	0.116	-0.025
-551.383	-88.618	0.377	0.111
-550.369	-97.974	-0.289	-0.074
-549.354	371.681	0.081	0.162
-548.339	-131.835	0.193	0.025
-547.325	154.374	-0.055	0.075
-546.310	416.573	0.085	-0.181
-545.296	289.322	0.090	-0.162
-544.281	66.031	-0.144	-0.145
-543.266	-200.000	0.009	0.208
-542.252	459.985	-0.024	0.053
-541.237	168.221	-0.025	0.035
-540.223	-74.209	0.119	-0.043
-539.208	40.401	-0.229	0.204
-538.193	-159.901	0.042	-0.002
-537.179	-21.503	0.165	0.100
-536.164	-33.000	0.244	-0.134
-535.150	204.516	-0.106	-0.162
-534.135	234.028	-0.088	-0.144
-533.121	279.506	-0.117	-0.207
-532.106	-15.317	-0.155	-0.098
-531.091	-157.013	-0.542	-0.033
-530.077	160.013	-0.070	0.097
-529.062	133.024	-0.015	0.019
-528.048	129.600	-0.237	-0.300
-527.033	-200.000	-0.155	0.001
-526.018	449.673	0.083	-0.182
-525.004	3.256	0.207	-0.149
-523.989	800.000	0.022	-0.073
-522.975	-75.342	-0.224	0.079
-521.960	83.345	-0.106	-0.115
-520.945	-200.000	0.028	-0.201
-519.931	45.746	0.193	0.177
-518.916	-113.632	0.238	-0.046
-517.902	-50.365	0.299	-0.140
-516.887	-30.361	0.114	0.064
-515.872	-200.000	0.005	0.234
-514.858	-10.369	0.153	-0.101
-513.843	-12.719	-0.227	0.147
-512.829	52.093	0.257	-0.242
-511.814	-71.715	0.207	-0.076
-510.799	-8.316	-0.085	0.057
-509.785	-14.709	0.146	0.093
-508.770	800.000	-0.108	-0.318
-507.756	142.317	-0.109	0.143
-506.741	-200.000	0.069	0.315
-505.726	485.077	-0.063	-0.142
-504.712	265.511	-0.080	-0.138
-503.697	177.641	-0.113	0.163
-502.683	-20.128	0.216	-0.132
-501.668	197.675	0.157	-0.237
-500.653	800.000	0.071	0.302
-499.639	-170.458	0.329	0.011
-498.624	-131.225	0.153	-0.020
-497.610	800.000	0.068	-0.289
-496.595	-92.650	-0.179	0.050
-495.581	-83.051	0.171	-0.054
-494.566	-85.717	0.227	-0.070
-493.551	200.491	-0.157	-0.238
-492.537	-20.067	0.325	0.198
-491.522	-1.299	-0.148	-0.103
-490.508	800.000	0.090	-0.381
-489.493	214.860	-0.133	-0.208
-488.478	800.000	-0.047	0.145
-487.464	-137.420	-0.194	-0.022
-486.449	-142.152	0.124	-0.012
-485.435	-93.349	0.036	0.010
-484.420	-200.000	-0.001	-0.168
-483.405	-9.879	-0.112	-0.073
-482.391	-60.123	0.186	0.078
-481.376	368.596	0.059	0.119
-480.362	-200.000	-0.049	-0.255
-479.347	4.936	-0.118	0.086
-478.332	125.017	0.214	-0.266
-477.318	-26.231	-0.118	-0.068
-476.303	-31.604	0.050	0.028
-475.289	-56.185	-0.181	-0.079
-474.274	-200.000	0.088	0.624
-473.259	49.931	-0.040	0.037
-472.245	70.778	-0.143	0.147
-471.230	-200.000	-0.066	0.377
-470.216	-32.803	-0.182	-0.100
-469.201	19.364	0.177	0.141
-468.186	-50.993	-0.259	0.120
-467.172	-76.379	0.384	-0.134
-466.157	31.723	-0.057	-0.049
-465.143	-200.000	-0.024	0.157
-464.128	-82.695	0.407	0.130
-463.113	238.047	0.141	0.231
-462.099	372.283	0.039	0.078
-461.084	626.064	-0.058	0.143
-460.070	-200.000	0.043	-0.396
-459.055	11.369	0.204	0.154
-458.040	800.000	-0.048	0.189
-457.026	-200.000	0.042	0.254
-456.011	-15.641	-0.190	0.120
-454.997	-48.785	-0.232	-0.110
-453.982	800.000	0.127	0.417
-452.968	-34.738	0.204	0.110
-451.953	-200.000	-0.001	-0.107
-450.938	140.441	-0.048	-0.063
-449.924	8.325	-0.208	-0.154
-448.909	-160.817	-0.133	0.007
-447.895	172.047	-0.096	-0.136
-446.880	307.123	0.066	0.121
-445.865	18.942	0.065	-0.051
-444.851	-200.000	0.016	-0.164
-443.836	-167.570	-0.235	-0.009
-442.822	51.326	-0.183	0.172
-441.807	378.808	0.146	0.296
-440.792	-69.706	-0.321	0.121
-439.778	-60.280	-0.209	-0.088
-438.763	-116.606	-0.301	-0.055
-437.749	-200.000	-0.030	-0.234
-436.734	-89.250	-0.186	0.054
-435.719	29.493	0.256	0.215
-434.705	742.925	0.067	0.177
-433.690	11.529	0.109	-0.083
-432.676	18.453	-0.238	-0.188
-431.661	-154.044	0.485	-0.033
-430.646	-84.236	0.212	0.066
-429.632	-78.853	-0.108	-0.036
-428.617	782.637	0.018	0.049
-427.603	-200.000	-0.008	-0.149
-426.588	-200.000	-0.003	0.067
-425.573	800.000	0.027	0.093
-424.559	800.000	0.027	0.116
-423.544	-166.932	0.384	0.016
-422.530	161.590	0.112	-0.155
-421.515	570.985	0.053	-0.127
-420.500	43.619	-0.184	0.166
-419.486	-83.366	-0.078	0.025
-418.471	235.319	-0.102	-0.165
-417.457	799.302	-0.113	0.307
-416.442	286.708	0.125	-0.222
-415.428	-124.402	-0.212	0.033
-414.413	-200.000	-0.047	0.215
-413.398	-70.168	-0.174	-0.065
-412.384	-146.167	0.141	0.012
-411.369	412.981	-0.117	-0.245
-410.355	379.157	-0.068	-0.138
-409.340	94.803	-0.329	0.369
-408.325	449.288	0.065	0.141
-407.311	-125.222	-0.082	0.012
-406.296	-176.626	-0.104	0.003
-405.282	800.000	0.135	0.480
-404.267	40.328	0.302	0.268
-403.252	-139.399	-0.089	0.009
-402.238	20.827	0.121	0.096
-401.223	4.651	0.350	0.253
-400.209	-200.000	0.019	-0.139
-399.194	800.000	0.076	0.222
-398.179	111.574	0.087	0.104
-397.165	763.488	0.057	0.152
-396.150	14.981	-0.256	0.198
-395.136	82.076	0.203	-0.217
-394.121	158.351	-0.056	-0.076
-393.106	800.000	-0.052	0.150
-392.092	112.983	-0.069	0.082
-391.077	-200.000	-0.431	-0.002
-390.063	-33.190	-0.192	-0.105
-389.048	-200.000	-0.032	-0.227
-388.033	-103.145	0.257	-0.060
-387.019	28.147	0.258	0.215
-386.004	800.000	-0.050	-0.153
-384.990	37.611	0.136	0.119
-383.975	112.619	-0.087	-0.103
-382.960	-82.411	-0.245	-0.078
-381.946	2.522	0.326	0.232
-380.931	-160.965	-0.327	-0.017
-379.917	-200.000	-0.004	0.164
-378.902	-200.000	-0.016	0.235
-377.888	-60.754	-0.255	-0.106
-376.873	-104.409	0.172	-0.039
-375.858	800.000	0.115	0.422
-374.844	629.510	-0.061	0.151
-373.829	-47.736	0.151	-0.072
-372.815	-132.934	-0.179	0.022
-371.800	628.301	-0.061	-0.152
-370.785	13.711	0.075	0.057
-369.771	-61.697	-0.123	-0.051
-368.756	40.465	-0.226	0.200
-367.742	78.943	-0.279	-0.295
-366.727	152.168	-0.005	0.007
-365.712	119.750	-0.077	-0.094
-364.698	-129.353	0.163	0.022
-363.683	377.276	-0.070	0.140
-362.669	-67.623	0.118	-0.045
-361.654	296.769	0.053	0.095
-360.639	180.635	0.316	-0.457
-359.625	-102.524	-0.269	-0.063
-358.610	63.310	0.165	-0.163
-357.596	-51.727	0.069	-0.032
-356.581	35.317	-0.219	0.189
-355.566	-51.291	0.017	0.008
-354.552	-146.020	0.278	0.024
-353.537	-176.845	-0.525	-0.013
-352.523	-81.493	0.290	-0.094
-351.508	-200.000	-0.065	0.395
-350.493	-108.168	0.164	0.035
-349.479	-77.961	0.064	0.022
-348.464	233.409	-0.125	-0.203
-347.450	361.911	-0.026	0.051
-346.435	-104.734	0.134	0.030
-345.420	-200.000	-0.097	0.433
-344.406	-142.405	0.297	-0.029
-343.391	-49.406	0.166	0.078
-342.377	-55.304	-0.126	-0.056
-341.362	-82.657	0.278	0.089
-340.348	-200.000	-0.090	0.482
-339.333	335.362	0.043	0.082
-338.318	-107.702	-0.191	0.041
-337.304	10.458	0.183	-0.137
-336.289	800.000	0.088	0.345
-335.275	-25.890	0.039	0.023
-334.260	391.295	0.186	-0.380
-333.245	-194.011	-0.079	-0.001
-332.231	-6.634	-0.226	-0.151
-331.216	85.047	0.322	0.347
-330.202	-100.838	-0.165	-0.040
-329.187	-166.936	-0.454	-0.018
-328.172	800.000	-0.077	-0.221
-327.158	-167.633	0.153	-0.006
-326.143	211.910	-0.166	0.257
-325.129	79.278	0.160	-0.169
-324.114	-200.000	0.027	0.121
-323.099	131.190	0.126	-0.159
-322.085	466.320	0.145	0.319
-321.070	-123.777	-0.227	0.035
-320.056	211.318	0.088	-0.136
-319.041	-64.237	0.069	-0.028
-318.026	-42.568	0.072	-0.036
-317.012	105.894	0.160	-0.187
-315.997	-200.000	-0.039	-0.301
-314.983	-94.375	0.378	-0.101
-313.968	-200.000	0.030	-0.362
-312.953	114.153	-0.201	0.240
-311.939	-200.000	0.034	0.173
-310.924	800.000	0.032	0.127
-309.910	387.015	0.153	0.311
-308.895	171.638	-0.261	0.368
-307.880	-63.032	0.228	0.092
-306.866	58.947	-0.167	-0.161
-305.851	-2.250	0.074	-0.051
-304.837	-166.798	0.294	-0.012
-303.822	45.923	0.276	-0.250
-302.807	800.000	-0.049	-0.161
-301.793	-153.360	0.144	-0.010
-300.778	128.453	-0.182	0.227
-299.764	46.069	0.228	-0.207
-298.749	-52.265	0.092	0.042
-297.735	-200.000	0.017	0.499
-296.720	-67.936	0.148	0.057
-295.705	-55.793	0.417	-0.183
-294.691	359.103	0.092	-0.181
-293.676	-200.000	0.001	0.020
-292.662	-200.000	0.053	-0.485
-291.647	-200.000	0.016	0.157
-290.632	-59.587	0.031	-0.013
-289.618	-144.887	0.365	-0.033
-288.603	111.295	-0.132	0.156
-287.589	800.000	-0.079	-0.292
-286.574	212.047	-0.052	0.080
-285.559	-160.074	-0.192	-0.010
-284.545	-49.308	0.275	-0.129
-283.530	-200.000	-0.016	0.152
-282.516	-102.451	-0.124	-0.029
-281.501	152.061	-0.129	-0.172
-280.486	-89.087	0.158	0.046
-279.472	-39.307	-0.412	-0.212
-278.457	-79.236	-0.358	0.119
-277.443	252.459	-0.071	-0.119
-276.428	800.000	0.009	0.027
-275.413	184.994	0.218	-0.317
-274.399	170.278	-0.261	0.367
-273.384	-172.836	0.193	0.006
-272.370	47.062	0.151	0.137
-271.355	25.954	0.065	-0.053
-270.340	180.239	-0.049	0.071
-269.326	-14.057	-0.382	-0.242
-268.311	313.256	-0.092	0.169
-267.297	-200.000	-0.014	0.232
-266.282	123.071	0.146	0.180
-265.267	-132.607	0.050	0.006
-264.253	114.514	-0.213	0.255
-263.238	141.581	-0.147	0.191
-262.224	800.000	0.003	0.008
-261.209	19.622	0.225	-0.178
-260.195	207.228	-0.088	-0.135
-259.180	-66.389	0.191	0.074
-258.165	-151.488	0.109	-0.008
-257.151	756.779	0.056	0.148
-256.136	-200.000	0.008	-0.206
-255.122	116.409	0.100	-0.120
-254.107	163.273	0.229	-0.315
-253.092	140.569	0.018	-0.023
-252.078	38.190	0.269	-0.234
-251.063	11.323	0.082	-0.061
-250.049	-23.420	-0.083	-0.049
-249.034	295.595	-0.074	-0.133
-248.019	-57.051	0.433	0.187
-247.005	800.000	0.058	-0.216
-245.990	188.522	0.264	-0.388
-244.976	-200.000	0.032	-0.215
-243.961	490.229	0.036	0.080
-242.946	-43.175	-0.129	0.064
-241.932	-200.000	0.141	-0.001
-240.917	-7.978	0.297	0.197
-239.903	-9.321	-0.147	0.096
-238.888	469.847	-0.051	0.111
-237.873	30.972	0.084	0.070
-236.859	-200.000	0.012	0.203
-235.844	800.000	0.050	-0.200
-234.830	-200.000	-0.004	0.029
-233.815	92.645	0.231	-0.255
-232.800	-200.000	-0.006	0.258
-231.786	153.918	0.114	0.154
-230.771	-73.905	0.264	-0.094
-229.757	-200.000	0.018	-0.161
-228.742	149.515	0.114	-0.151
-227.727	-68.126	0.050	0.019
-226.713	-55.737	0.089	0.039
-225.698	482.032	-0.018	-0.040
-224.684	-21.217	-0.125	0.075
-223.669	-98.642	-0.306	0.077
-222.655	-200.000	-0.011	0.181
-221.640	330.044	-0.076	-0.142
-220.625	800.000	0.037	-0.128
-219.611	-85.795	-0.483	-0.147
-218.596	176.067	-0.086	0.123
-217.582	9.225	0.120	-0.089
-216.567	-112.473	-0.262	-0.051
-215.552	-200.000	-0.032	0.279
-214.538	-36.918	0.408	0.214
-213.523	-200.000	-0.010	0.056
-212.509	-40.033	0.076	-0.039
-211.494	523.873	0.141	-0.325
-210.479	-200.000	-0.039	-0.425
-209.465	-116.936	-0.305	-0.055
-208.450	-119.007	0.184	-0.031
-207.436	-200.000	-0.069	-0.481
-206.421	800.000	0.062	0.176
-205.406	54.122	-0.170	-0.160
-204.392	732.270	-0.081	-0.213
-203.377	-200.000	0.033	0.522
-202.363	302.661	0.153	-0.277
-201.348	57.981	0.299	-0.286
-200.333	-98.526	-0.154	0.039
-199.319	-200.000	0.008	-0.160
-198.304	96.604	-0.053	0.059
-197.290	-200.000	-0.007	0.228
-196.275	800.000	0.096	-0.305
-195.260	255.372	0.083	-0.139
-194.246	-200.000	0.028	0.128
-193.231	-20.858	0.142	0.085
-192.217	71.636	-0.104	-0.105
-191.202	-129.604	-0.128	0.017
-190.187	-144.772	-0.342	-0.031
-189.173	253.247	0.089	-0.149
-188.158	800.000	0.149	-0.482
-187.144	-70.917	-0.126	0.047
-186.129	54.285	0.142	0.133
-185.114	-23.504	0.207	0.122
-184.100	-68.311	-0.311	-0.118
-183.085	321.979	0.067	-0.125
-182.071	-143.190	-0.057	-0.005
-181.056	-40.312	0.169	0.086
-180.042	-200.000	0.011	0.227
-179.027	732.521	-0.109	0.286
-178.012	312.890	0.129	0.236
-176.998	800.000	-0.027	-0.075
-175.983	292.170	-0.057	-0.102
-174.969	-67.744	0.052	-0.020
-173.954	-76.662	-0.433	0.148
-172.939	-200.000	0.000	0.299
-171.925	66.965	0.242	-0.241
-170.910	12.957	0.083	0.063
-169.896	-70.894	-0.141	0.052
-168.881	499.269	-0.073	-0.163
-167.866	-36.428	-0.112	0.059
-166.852	69.781	0.105	-0.105
-165.837	-57.685	0.387	0.166
-164.823	198.981	-0.131	0.196
-163.808	68.998	-0.192	0.193
-162.793	800.000	0.053	-0.186
-161.779	54.926	-0.117	-0.110
-160.764	-97.339	0.228	0.058
-159.750	-99.390	-0.352	0.087
-158.735	68.364	0.066	0.066
-157.720	199.420	0.143	0.213
-156.706	-57.888	-0.062	0.027
-155.691	-118.896	-0.383	0.066
-154.677	88.017	-0.214	-0.232
-153.662	-185.226	0.257	-0.004
-152.647	800.000	0.045	0.136
-151.633	124.780	-0.149	0.184
-150.618	18.334	-0.158	0.123
-149.604	297.706	0.140	-0.252
-148.589	22.055	0.248	-0.197
-147.574	620.820	0.188	-0.460
-146.560	-13.183	0.148	-0.094
-145.545	-55.023	0.311	-0.137
-144.531	-150.210	-0.085	-0.006
-143.516	-176.272	-0.170	-0.004
-142.502	-63.967	-0.265	0.106
-141.487	-200.000	0.097	0.419
-140.472	12.834	-0.360	0.272
-139.458	-96.624	-0.093	0.024
-138.443	-84.082	-0.098	-0.030
-137.429	800.000	-0.066	0.251
-136.414	625.047	-0.127	-0.313
-135.399	-4.451	-0.340	0.229
-134.385	314.915	-0.047	0.086
-133.370	8.866	-0.244	-0.179
-132.356	-153.078	0.056	0.004
-131.341	135.347	0.060	-0.077
-130.326	111.261	0.168	-0.198
-129.312	-159.368	-0.090	-0.005
-128.297	-71.832	0.106	0.039
-127.283	-200.000	-0.050	0.221
-126.268	800.000	-0.071	0.246
-125.253	-122.677	-0.235	0.037
-124.239	18.944	0.090	-0.070
-123.224	-200.000	-0.016	0.194
-122.210	800.000	0.077	0.317
-121.195	-24.042	-0.181	0.106
