DTS Sentinel unit serial number:	SN413079Multiplexer serial number:	ORYXHardware model number:	OX4-SRSoftware version number:	ORYX F/W v4.00 Oryx Data Collector v3.7.2.0data status	okinstallation	princeton_trtdifferential loss correction	single-endedforward channel	channel 3reverse channel	N/Adate	2019/09/19time	01:28:35forward acquisition time	60.00reverse acquisition time	0.00gamma	496.2192k internal	0.2348k external	0.2348temperature offset calibration	0.9988default loss term (dB/km)	0.3790temperature slope calibration	1.0000multiplexer offset coefficient	1.0000multiplexer slope coefficient	1.0000fibre end	0.00T internal ref (°C)	21.61T ext. ref 1 (°C)	0.71T ext. ref 2 (°C)	15.15length (m)	temperature (°C)	Stokes	anti-Stokes-747.200	74.169	0.096	-0.101
-746.185	181.858	-0.178	0.261
-745.171	88.401	0.248	0.275
-744.156	800.000	0.041	0.172
-743.142	-200.000	-0.022	-0.171
-742.127	-73.339	-0.454	0.166
-741.112	194.343	-0.155	0.235
-740.098	132.460	-0.089	0.115
-739.083	800.000	0.031	-0.127
-738.069	210.519	-0.130	0.203
-737.054	-200.000	-0.018	-0.218
-736.039	95.352	-0.198	-0.225
-735.025	-134.395	0.252	-0.031
-734.010	10.249	-0.101	0.077
-732.996	-109.188	-0.222	0.047
-731.981	-63.473	-0.380	0.156
-730.966	27.675	-0.144	0.121
-729.952	-49.586	-0.166	-0.079
-728.937	-156.730	-0.365	-0.022
-727.923	240.101	-0.242	-0.403
-726.908	259.697	0.105	0.180
-725.894	205.242	-0.160	-0.248
-724.879	149.731	-0.139	-0.188
-723.864	684.194	-0.071	0.185
-722.850	414.695	-0.063	0.133
-721.835	-159.546	0.155	-0.009
-720.821	-43.454	-0.210	-0.106
-719.806	-9.054	-0.251	-0.168
-718.791	-112.257	0.083	-0.017
-717.777	-72.059	0.090	-0.033
-716.762	44.784	0.164	-0.151
-715.748	800.000	-0.065	-0.181
-714.733	-200.000	-0.018	-0.152
-713.718	-0.531	0.106	0.075
-712.704	-200.000	0.059	0.421
-711.689	-167.260	-0.121	-0.005
-710.675	-200.000	-0.017	-0.175
-709.660	450.485	0.046	-0.102
-708.645	85.339	0.061	-0.066
-707.631	427.143	-0.104	0.224
-706.616	-200.000	0.006	0.382
-705.602	3.644	0.295	0.215
-704.587	-131.655	-0.276	-0.036
-703.572	161.141	-0.064	-0.089
-702.558	-200.000	-0.022	-0.103
-701.543	-200.000	-0.008	-0.101
-700.529	67.848	0.200	-0.204
-699.514	-58.106	0.190	0.083
-698.499	-59.843	0.140	-0.060
-697.485	800.000	0.044	0.170
-696.470	-2.843	-0.040	0.028
-695.456	147.589	0.111	0.149
-694.441	800.000	0.091	0.310
-693.426	562.752	0.126	-0.304
-692.412	-200.000	0.063	-0.302
-691.397	800.000	0.046	-0.157
-690.383	75.701	0.252	-0.266
-689.368	-133.154	-0.404	-0.051
-688.354	208.384	-0.156	-0.243
-687.339	-130.135	-0.336	0.046
-686.324	-92.205	-0.059	0.017
-685.310	-178.584	0.174	-0.004
-684.295	-125.978	-0.192	-0.029
-683.281	-200.000	-0.020	0.227
-682.266	-44.417	-0.208	-0.104
-681.251	-105.059	-0.072	0.016
-680.237	120.817	-0.075	-0.093
-679.222	385.156	0.067	0.138
-678.208	187.778	-0.104	0.155
-677.193	-200.000	-0.015	-0.258
-676.178	-78.098	0.183	-0.063
-675.164	69.276	-0.215	-0.220
-674.149	181.863	0.089	0.130
-673.135	800.000	0.107	-0.353
-672.120	-192.949	-0.453	-0.004
-671.105	-200.000	-0.007	0.213
-670.091	18.328	-0.166	0.132
-669.076	-33.456	-0.155	0.085
-668.062	-162.614	0.186	-0.009
-667.047	800.000	-0.102	-0.398
-666.032	345.733	-0.090	0.176
-665.018	123.557	0.313	-0.391
-664.003	-200.000	0.009	-0.089
-662.989	-17.133	0.100	0.063
-661.974	72.731	-0.263	0.273
-660.959	-33.664	-0.261	-0.143
-659.945	800.000	-0.027	0.106
-658.930	-157.749	0.228	-0.014
-657.916	-43.000	-0.236	0.119
-656.901	635.386	0.075	0.190
-655.886	800.000	0.063	-0.263
-654.872	234.866	0.158	-0.259
-653.857	-118.691	0.180	-0.032
-652.843	379.606	0.096	-0.196
-651.828	-200.000	0.011	0.135
-650.814	710.881	-0.051	-0.136
-649.799	97.615	-0.158	0.180
-648.784	28.258	0.053	-0.044
-647.770	-156.353	0.101	-0.006
-646.755	-126.926	-0.319	0.047
-645.741	83.328	-0.241	-0.262
-644.726	195.694	-0.053	0.080
-643.711	-27.929	0.205	-0.118
-642.697	398.909	0.072	0.151
-641.682	51.130	-0.048	0.045
-640.668	-200.000	0.014	0.344
-639.653	800.000	0.152	-0.427
-638.638	41.640	-0.081	-0.073
-637.624	-72.074	-0.418	0.154
-636.609	61.986	0.100	0.099
-635.595	-93.558	-0.090	0.025
-634.580	-102.172	-0.264	-0.063
-633.565	-200.000	-0.051	-0.325
-632.551	-115.570	-0.087	-0.016
-631.536	800.000	0.036	0.102
-630.522	-200.000	0.057	0.258
-629.507	173.010	0.174	-0.250
-628.492	-52.879	0.044	-0.020
-627.478	31.503	0.212	0.181
-626.463	61.013	-0.191	0.189
-625.449	166.712	0.105	0.148
-624.434	314.757	0.180	-0.338
-623.419	-200.000	-0.026	-0.139
-622.405	281.637	0.080	0.142
-621.390	-200.000	0.044	0.476
-620.376	-15.289	-0.264	-0.168
-619.361	194.135	-0.079	-0.118
-618.346	-200.000	0.048	-0.208
-617.332	37.381	-0.130	-0.115
-616.317	-19.355	0.173	0.107
-615.303	-43.710	-0.116	0.058
-614.288	40.273	0.250	0.223
-613.273	-90.813	-0.408	0.117
-612.259	800.000	-0.013	0.043
-611.244	-200.000	0.004	-0.233
-610.230	18.523	-0.186	-0.148
-609.215	-27.419	-0.186	0.107
-608.201	260.577	-0.044	0.076
-607.186	-54.490	0.039	0.018
-606.171	-200.000	-0.026	-0.319
-605.157	692.551	-0.057	-0.147
-604.142	-69.444	0.229	0.087
-603.128	73.709	-0.075	0.079
-602.113	113.648	-0.264	-0.319
-601.098	800.000	0.039	0.121
-600.084	-153.338	0.271	0.019
-599.069	49.688	0.135	-0.126
-598.055	202.251	0.190	-0.291
-597.040	-156.412	-0.233	-0.014
-596.025	-66.092	-0.411	-0.163
-595.011	-200.000	0.016	-0.242
-593.996	442.444	0.075	0.164
-592.982	223.130	0.132	-0.212
-591.967	-198.202	0.284	0.002
-590.952	363.738	0.118	-0.235
-589.938	-101.623	0.035	0.008
-588.923	215.947	0.082	-0.130
-587.909	129.958	-0.074	-0.094
-586.894	-142.799	-0.119	0.012
-585.879	85.311	-0.080	0.087
-584.865	-200.000	0.018	0.158
-583.850	56.419	-0.070	0.068
-582.836	-150.098	0.396	0.031
-581.821	270.683	-0.059	-0.104
-580.806	-114.738	0.134	0.025
-579.792	61.740	-0.177	-0.175
-578.777	800.000	-0.026	-0.089
-577.763	-144.588	-0.225	-0.021
-576.748	-159.842	-0.165	0.009
-575.733	-200.000	-0.002	-0.242
-574.719	-200.000	-0.023	0.162
-573.704	178.494	-0.167	0.243
-572.690	-200.000	-0.005	0.148
-571.675	-33.659	0.234	-0.128
-570.661	619.923	-0.150	-0.375
-569.646	-167.051	0.121	-0.005
-568.631	-156.339	-0.271	-0.017
-567.617	-4.279	-0.236	-0.162
-566.602	800.000	0.103	0.391
-565.588	-3.076	-0.076	0.052
-564.573	-109.865	-0.284	-0.059
-563.558	118.895	0.098	-0.120
-562.544	184.157	-0.222	-0.326
-561.529	-65.943	-0.072	0.029
-560.515	175.426	-0.146	0.210
-559.500	607.743	-0.069	0.170
-558.485	800.000	0.055	0.231
-557.471	217.900	-0.148	-0.235
-556.456	-59.698	-0.009	0.004
-555.442	40.159	0.160	0.143
-554.427	132.401	0.036	-0.046
-553.412	37.028	0.140	-0.123
-552.398	196.639	0.158	0.238
-551.383	-21.156	-0.195	0.118
-550.369	712.900	0.033	0.088
-549.354	236.878	0.186	0.306
-548.339	-31.663	-0.055	-0.031
-547.325	-200.000	-0.007	0.055
-546.310	-46.369	0.436	0.212
-545.296	-86.853	0.152	-0.046
-544.281	-200.000	0.047	0.308
-543.266	-108.117	0.128	0.027
-542.252	-37.186	0.403	0.214
-541.237	-200.000	-0.028	0.256
-540.223	-44.683	-0.228	0.113
-539.208	109.703	0.234	-0.278
-538.193	102.992	-0.195	0.227
-537.179	800.000	0.014	-0.046
-536.164	109.254	-0.161	-0.191
-535.150	93.248	0.112	-0.126
-534.135	-94.911	0.209	-0.056
-533.121	-14.036	-0.290	-0.185
-532.106	-103.521	0.422	-0.098
-531.091	-163.717	0.258	-0.012
-530.077	-51.133	0.279	0.130
-529.062	18.267	-0.078	0.062
-528.048	-65.827	0.225	-0.089
-527.033	-155.032	-0.192	-0.012
-526.018	509.867	0.097	0.223
-525.004	411.301	-0.116	-0.243
-523.989	-91.891	-0.129	0.036
-522.975	153.917	0.148	0.201
-521.960	800.000	-0.007	0.023
-520.945	-200.000	0.006	0.304
-519.931	318.970	0.125	0.235
-518.916	57.196	0.064	-0.062
-517.902	455.942	-0.072	-0.157
-516.887	117.612	0.026	-0.032
-515.872	800.000	-0.080	0.244
-514.858	-58.785	-0.009	0.004
-513.843	-200.000	-0.018	0.162
-512.829	500.613	-0.069	0.157
-511.814	-24.646	0.161	-0.095
-510.799	226.898	-0.267	-0.430
-509.785	-165.838	0.287	-0.012
-508.770	-61.837	0.166	-0.069
-507.756	519.511	-0.028	-0.066
-506.741	-18.019	0.195	-0.121
-505.726	-86.202	0.166	0.051
-504.712	467.839	-0.055	0.123
-503.697	66.698	-0.058	-0.059
-502.683	800.000	-0.065	-0.265
-501.668	332.166	-0.149	0.285
-500.653	70.663	0.139	0.142
-499.639	307.946	0.053	-0.097
-498.624	340.261	0.093	0.179
-497.610	9.208	0.274	-0.205
-496.595	49.095	0.085	0.079
-495.581	222.612	-0.074	-0.118
-494.566	357.993	-0.048	0.094
-493.551	-139.611	-0.074	0.008
-492.537	-43.638	-0.338	-0.168
-491.522	176.012	-0.206	-0.296
-490.508	-200.000	0.006	0.102
-489.493	15.553	-0.189	-0.147
-488.478	152.548	0.155	0.209
-487.464	350.206	-0.169	-0.331
-486.449	-90.501	0.128	0.037
-485.435	800.000	0.085	0.286
-484.420	88.307	0.110	0.120
-483.405	-200.000	0.030	-0.181
-482.391	-121.790	-0.320	0.052
-481.376	18.443	0.260	-0.205
-480.362	-54.656	0.134	0.060
-479.347	-142.525	-0.129	-0.013
-478.332	191.217	-0.092	0.137
-477.318	117.675	-0.096	-0.116
-476.303	800.000	0.041	0.150
-475.289	257.199	-0.197	0.334
-474.274	-200.000	0.079	0.442
-473.259	89.988	-0.217	-0.239
-472.245	185.143	0.198	-0.291
-471.230	-4.528	-0.221	-0.151
-470.216	9.351	-0.345	-0.258
-469.201	-9.426	-0.080	-0.053
-468.186	15.718	-0.189	-0.147
-467.172	-75.086	-0.371	0.131
-466.157	-172.388	0.217	-0.007
-465.143	-26.172	0.118	-0.069
-464.128	700.366	-0.085	0.222
-463.113	800.000	0.143	0.415
-462.099	95.558	-0.024	-0.027
-461.084	140.602	0.119	0.156
-460.070	800.000	0.113	0.369
-459.055	147.710	-0.236	0.314
-458.040	-200.000	-0.072	0.365
-457.026	-101.360	-0.149	0.036
-456.011	227.891	0.185	-0.297
-454.997	-44.177	-0.267	0.132
-453.982	-101.268	-0.121	0.029
-452.968	56.182	-0.069	0.067
-451.953	-200.000	0.059	-0.301
-450.938	2.136	-0.251	-0.179
-449.924	-94.981	-0.142	0.038
-448.909	-200.000	0.019	-0.219
-447.895	18.304	-0.104	0.082
-446.880	-131.611	0.145	0.019
-445.865	250.435	-0.111	-0.186
-444.851	-57.249	0.282	0.122
-443.836	-173.747	0.445	0.013
-442.822	-46.992	-0.249	0.120
-441.807	-68.619	-0.293	-0.112
-440.792	-50.089	0.124	-0.058
-439.778	800.000	-0.060	0.181
-438.763	-144.745	-0.263	-0.024
-437.749	42.383	-0.027	-0.024
-436.734	155.794	0.283	0.385
-435.719	-200.000	0.009	-0.160
-434.705	393.797	0.119	-0.244
-433.690	-33.157	0.114	-0.062
-432.676	78.867	0.134	-0.142
-431.661	83.718	-0.188	-0.203
-430.646	800.000	-0.078	-0.241
-429.632	-6.223	0.243	-0.164
-428.617	-36.264	0.255	-0.136
-427.603	-98.120	-0.134	-0.034
-426.588	800.000	0.062	0.224
-425.573	-115.528	0.327	0.061
-424.559	250.769	-0.052	0.087
-423.544	36.713	0.046	0.040
-422.530	-29.454	0.129	-0.073
-421.515	-200.000	0.043	0.257
-420.500	142.216	0.043	0.056
-419.486	170.412	-0.141	0.199
-418.471	-132.227	-0.070	-0.009
-417.457	-200.000	0.026	0.520
-416.442	40.785	0.417	-0.371
-415.428	54.749	-0.276	-0.262
-414.413	-17.201	-0.294	-0.183
-413.398	119.613	0.131	0.160
-412.384	-200.000	0.001	0.186
-411.369	-169.429	-0.259	0.009
-410.355	238.217	-0.093	-0.153
-409.340	-8.213	-0.110	0.073
-408.325	134.251	-0.116	-0.149
-407.311	340.245	-0.118	0.226
-406.296	157.679	-0.240	0.328
-405.282	-200.000	0.064	0.346
-404.267	-26.548	0.216	-0.125
-403.252	-200.000	0.026	0.180
-402.238	-60.076	-0.289	0.122
-401.223	-61.729	-0.332	-0.137
-400.209	37.773	-0.147	0.129
-399.194	-200.000	0.006	0.042
-398.179	215.995	0.122	0.191
-397.165	-123.998	0.267	0.041
-396.150	-146.962	-0.360	-0.031
-395.136	-111.731	0.475	0.095
-394.121	-102.467	0.132	0.031
-393.106	-200.000	0.039	0.225
-392.092	-89.244	-0.281	-0.082
-391.077	68.176	0.039	-0.040
-390.063	-110.531	-0.235	0.048
-389.048	84.852	0.048	0.051
-388.033	-200.000	-0.027	-0.274
-387.019	-49.718	-0.338	0.158
-386.004	800.000	-0.036	0.141
-384.990	800.000	0.029	0.084
-383.975	-200.000	0.049	0.428
-382.960	-3.747	0.132	0.091
-381.946	371.538	0.110	-0.220
-380.931	-131.808	0.211	-0.027
-379.917	800.000	-0.039	0.108
-378.902	299.114	0.148	0.269
-377.888	-86.995	0.118	0.035
-376.873	-200.000	0.037	0.175
-375.858	800.000	0.021	0.080
-374.844	-32.510	-0.109	0.060
-373.829	117.064	0.282	0.342
-372.815	22.398	-0.062	-0.050
-371.800	-134.651	0.269	-0.032
-370.785	800.000	0.037	0.152
-369.771	-200.000	-0.009	0.360
-368.756	800.000	0.108	-0.370
-367.742	-38.484	0.268	0.140
-366.727	-78.308	0.377	-0.128
-365.712	800.000	-0.116	-0.414
-364.698	3.911	0.121	0.087
-363.683	-200.000	0.001	-0.159
-362.669	-99.559	0.060	0.015
-361.654	-200.000	-0.002	-0.310
-360.639	-200.000	0.021	-0.259
-359.625	232.990	-0.099	0.160
-358.610	800.000	0.085	-0.240
-357.596	294.273	0.019	0.035
-356.581	-168.276	-0.105	-0.004
-355.566	-30.077	-0.101	-0.056
-354.552	405.397	0.099	0.205
-353.537	-156.431	0.446	0.027
-352.523	49.628	0.383	0.355
-351.508	381.709	0.041	0.082
-350.493	-10.868	0.276	-0.179
-349.479	-200.000	-0.032	-0.432
-348.464	-200.000	0.037	-0.267
-347.450	-58.000	0.106	-0.046
-346.435	334.762	-0.139	-0.265
-345.420	-91.889	-0.308	-0.086
-344.406	-90.467	-0.015	-0.004
-343.391	-200.000	0.021	0.117
-342.377	-20.599	0.267	0.161
-341.362	26.880	-0.094	-0.078
-340.348	-200.000	0.001	0.058
-339.333	69.549	0.128	0.129
-338.318	-57.460	0.308	-0.133
-337.304	-200.000	0.014	-0.184
-336.289	-72.738	-0.104	0.038
-335.275	83.380	0.254	0.272
-334.260	-54.178	-0.171	-0.077
-333.245	-17.082	0.126	0.078
-332.231	-200.000	-0.005	-0.231
-331.216	800.000	-0.063	0.235
-330.202	-41.071	-0.127	-0.064
-329.187	456.619	-0.064	-0.139
-328.172	10.779	0.250	-0.187
-327.158	-179.600	-0.372	0.008
-326.143	366.027	-0.146	0.290
-325.129	8.141	-0.187	-0.138
-324.114	111.884	-0.058	-0.069
-323.099	246.334	-0.122	-0.201
-322.085	375.500	0.111	0.222
-321.070	341.886	0.077	-0.148
-320.056	6.852	-0.419	-0.306
-319.041	440.147	0.211	-0.452
-318.026	-200.000	0.018	-0.182
-317.012	-45.589	0.232	0.113
-315.997	20.189	-0.163	-0.130
-314.983	-147.959	0.124	-0.010
-313.968	3.919	0.170	-0.122
-312.953	224.272	0.126	0.200
-311.939	-39.119	0.106	0.055
-310.924	-165.373	-0.264	0.011
-309.910	800.000	-0.056	0.193
-308.895	800.000	-0.028	0.100
-307.880	-133.170	-0.227	0.028
-306.866	-200.000	0.014	-0.189
-305.851	70.091	0.176	0.179
-304.837	-88.772	-0.319	0.093
-303.822	126.018	-0.110	0.137
-302.807	-124.579	0.194	-0.030
-301.793	658.362	0.095	-0.239
-300.778	-200.000	-0.010	0.120
-299.764	71.385	-0.258	-0.263
-298.749	17.424	0.034	-0.026
-297.735	57.839	0.047	0.045
-296.720	123.588	-0.256	0.315
-295.705	35.659	-0.132	0.114
-294.691	43.483	-0.394	0.354
-293.676	-7.197	0.047	0.031
-292.662	-145.290	0.188	-0.017
-291.647	-200.000	-0.020	-0.125
-290.632	154.420	0.126	-0.169
-289.618	318.385	-0.079	-0.147
-288.603	-81.279	0.222	-0.072
-287.589	-125.801	-0.149	0.022
-286.574	-133.723	-0.215	0.026
-285.559	-200.000	0.003	0.250
-284.545	-200.000	-0.015	-0.098
-283.530	800.000	0.052	0.173
-282.516	-95.425	-0.369	-0.097
-281.501	-52.182	-0.248	-0.113
-280.486	-88.291	-0.137	-0.040
-279.472	-200.000	-0.008	-0.077
-278.457	77.854	0.205	0.214
-277.443	-200.000	0.040	-0.240
-276.428	38.712	-0.234	0.205
-275.413	-174.333	0.267	-0.008
-274.399	204.334	-0.175	0.266
-273.384	-8.696	0.117	0.077
-272.370	-47.635	0.361	0.172
-271.355	-62.229	0.109	0.044
-270.340	-200.000	-0.017	-0.153
-269.326	800.000	-0.098	-0.362
-268.311	-41.329	-0.017	-0.009
-267.297	800.000	-0.047	0.179
-266.282	-200.000	-0.027	-0.333
-265.267	168.360	0.317	-0.442
-264.253	54.458	0.226	-0.214
-263.238	-42.087	-0.155	0.078
-262.224	255.744	-0.084	0.141
-261.209	-13.380	0.137	0.087
-260.195	-108.279	0.064	0.014
-259.180	-99.788	-0.072	-0.018
-258.165	-73.654	0.349	-0.125
-257.151	-68.490	-0.273	0.104
-256.136	-76.434	0.216	-0.074
-255.122	-200.000	-0.015	-0.159
-254.107	26.863	-0.200	-0.164
-253.092	0.225	0.061	0.043
-252.078	-200.000	-0.006	-0.242
-251.063	408.738	-0.062	-0.128
-250.049	192.895	0.090	0.133
-249.034	800.000	0.086	0.296
-248.019	246.288	0.176	-0.290
-247.005	95.731	-0.153	-0.172
-245.990	-200.000	-0.014	0.256
-244.976	800.000	-0.260	0.704
-243.961	-149.560	0.288	-0.022
-242.946	147.839	-0.145	-0.192
-241.932	54.006	0.241	-0.227
-240.917	-37.944	-0.296	-0.154
-239.903	57.106	-0.067	0.064
-238.888	3.458	0.228	-0.163
-237.873	-200.000	0.001	0.005
-236.859	-200.000	0.035	0.301
-235.844	-200.000	0.086	0.515
-234.830	-85.467	0.163	-0.050
-233.815	-55.741	-0.177	-0.077
-232.800	-55.602	-0.100	-0.044
-231.786	-200.000	0.010	0.108
-230.771	95.226	0.164	0.183
-229.757	52.786	-0.115	-0.107
-228.742	687.551	-0.073	-0.188
-227.727	152.184	0.128	-0.171
-226.713	800.000	-0.063	-0.199
-225.698	359.497	-0.080	0.157
-224.684	-157.251	0.150	-0.009
-223.669	-200.000	-0.023	0.160
-222.655	355.796	0.073	0.142
-221.640	-170.849	0.250	0.008
-220.625	-57.164	-0.212	0.091
-219.611	-155.662	0.091	0.006
-218.596	87.031	0.221	0.239
-217.582	-46.551	0.215	-0.103
-216.567	63.930	-0.163	0.160
-215.552	-127.070	-0.095	-0.014
-214.538	106.320	-0.190	0.220
-213.523	-200.000	0.003	-0.079
-212.509	-15.878	-0.144	0.090
-211.494	54.745	-0.234	-0.221
-210.479	-43.989	0.232	0.114
-209.465	800.000	-0.078	-0.319
-208.450	386.709	-0.181	-0.366
-207.436	164.017	0.096	-0.132
-206.421	18.469	0.138	0.108
-205.406	110.272	-0.126	0.148
-204.392	800.000	0.134	0.383
-203.377	-92.236	-0.163	-0.045
-202.363	544.959	-0.106	-0.247
-201.348	-200.000	0.036	0.470
-200.333	-200.000	0.041	-0.405
-199.319	57.622	0.071	0.068
-198.304	16.947	-0.126	0.097
-197.290	30.438	0.240	-0.201
-196.275	-200.000	0.036	-0.269
-195.260	-200.000	-0.031	-0.152
-194.246	188.802	-0.167	0.244
-193.231	-118.309	0.407	0.071
-192.217	-145.475	0.267	-0.023
-191.202	-61.159	0.179	-0.074
-190.187	574.682	0.015	0.035
-189.173	764.391	-0.038	-0.101
-188.158	-200.000	0.007	0.411
-187.144	64.110	-0.202	-0.199
-186.129	-14.249	-0.107	-0.068
-185.114	116.120	0.140	-0.168
-184.100	768.673	-0.089	-0.237
-183.085	-20.265	-0.049	0.029
-182.071	436.470	-0.078	-0.167
-181.056	-87.129	0.220	0.065
-180.042	-71.401	-0.218	-0.080
-179.027	97.819	0.244	0.275
-178.012	800.000	0.030	-0.108
-176.998	800.000	-0.136	0.393
-175.983	-200.000	-0.007	-0.225
-174.969	-200.000	0.030	-0.137
-173.954	800.000	0.100	-0.282
-172.939	-9.518	-0.108	0.071
-171.925	800.000	-0.058	-0.186
-170.910	88.321	-0.143	-0.155
-169.896	-59.633	0.321	-0.134
-168.881	176.844	0.060	0.086
-167.866	-200.000	0.029	-0.170
-166.852	29.802	-0.267	-0.222
-165.837	241.350	0.189	0.308
-164.823	80.619	0.077	0.081
-163.808	-94.670	-0.040	0.011
-162.793	34.483	0.105	-0.090
-161.779	4.199	-0.215	-0.154
-160.764	-71.428	-0.115	0.042
-159.750	92.830	-0.168	0.186
-158.735	800.000	-0.055	0.202
-157.720	-156.320	-0.141	-0.009
-156.706	-55.172	-0.072	-0.032
-155.691	115.056	0.129	0.154
-154.677	28.185	-0.245	-0.202
-153.662	221.542	-0.110	-0.173
-152.647	-54.389	0.081	0.036
-151.633	222.998	0.211	-0.332
-150.618	-87.533	-0.219	-0.065
-149.604	-200.000	-0.001	-0.210
-148.589	-146.953	-0.314	-0.026
-147.574	-28.871	0.103	0.058
-146.560	-68.891	-0.139	-0.052
-145.545	-93.033	0.405	0.110
-144.531	63.773	-0.124	-0.122
-143.516	-23.713	-0.117	-0.068
-142.502	-90.267	0.168	0.048
-141.487	288.068	0.080	-0.140
-140.472	40.284	-0.240	-0.211
-139.458	-21.213	0.198	-0.118
-138.443	304.016	-0.057	0.103
-137.429	-24.778	0.056	0.033
-136.414	199.334	0.234	0.350
-135.399	270.420	-0.118	-0.202
-134.385	192.973	-0.107	-0.158
-133.370	-11.271	-0.035	0.022
-132.356	140.075	-0.162	0.209
-131.341	-200.000	-0.003	0.476
-130.326	-200.000	-0.158	0.001
-129.312	48.804	-0.256	0.235
-128.297	-104.627	0.198	-0.045
-127.283	800.000	-0.067	0.270
-126.268	273.493	0.127	-0.220
-125.253	66.372	-0.057	0.056
-124.239	800.000	0.110	0.429
-123.224	55.276	0.072	-0.068
-122.210	120.010	-0.086	0.104
-121.195	152.036	0.143	-0.190
-120.180	800.000	0.054	0.215
