DTS Sentinel unit serial number:	SN413079Multiplexer serial number:	ORYXHardware model number:	OX4-SRSoftware version number:	ORYX F/W v4.00 Oryx Data Collector v3.7.2.0data status	okinstallation	princeton_trtdifferential loss correction	single-endedforward channel	channel 3reverse channel	N/Adate	2019/09/12time	18:20:04forward acquisition time	15.00reverse acquisition time	0.00gamma	496.2192k internal	0.2317k external	0.2317temperature offset calibration	1.0095default loss term (dB/km)	0.3790temperature slope calibration	1.0000multiplexer offset coefficient	1.0000multiplexer slope coefficient	1.0000fibre end	0.00T internal ref (°C)	33.44T ext. ref 1 (°C)	2.91T ext. ref 2 (°C)	28.04length (m)	temperature (°C)	Stokes	anti-Stokes-747.200	-200.000	-0.081	0.607
-746.185	-86.000	0.871	-0.273
-745.171	800.000	-0.140	-0.469
-744.156	226.628	0.106	0.175
-743.142	-115.149	0.575	0.110
-742.127	56.125	-0.159	0.156
-741.112	-51.518	-0.078	-0.037
-740.098	-200.000	-0.030	0.240
-739.083	-38.186	0.241	0.130
-738.069	204.310	-0.413	0.648
-737.054	287.554	-0.397	-0.728
-736.039	800.000	0.101	0.384
-735.025	117.140	0.331	-0.412
-734.010	800.000	-0.158	0.446
-732.996	-97.183	-0.563	0.149
-731.981	800.000	0.185	0.678
-730.966	-50.052	-0.662	0.318
-729.952	-169.111	-0.500	-0.019
-728.937	-72.553	-0.275	-0.103
-727.923	133.154	0.292	-0.382
-726.908	17.631	0.169	0.136
-725.894	-124.857	-0.507	0.079
-724.879	41.098	0.634	0.580
-723.864	205.130	-0.103	-0.161
-722.850	-15.089	-0.214	-0.138
-721.835	393.679	-0.389	-0.820
-720.821	299.388	-0.111	0.207
-719.806	-153.535	-0.730	-0.051
-718.791	54.563	0.295	-0.288
-717.777	53.246	0.142	0.138
-716.762	-200.000	0.061	-0.454
-715.748	800.000	0.358	1.071
-714.733	-200.000	-0.038	-0.798
-713.718	420.763	-0.296	-0.641
-712.704	-16.388	-0.320	-0.205
-711.689	540.710	0.310	0.746
-710.675	800.000	-0.037	-0.161
-709.660	-200.000	0.071	-0.433
-708.645	-200.000	0.022	-0.628
-707.631	-57.767	0.118	-0.052
-706.616	188.490	-0.111	0.168
-705.602	484.895	-0.155	-0.357
-704.587	-200.000	0.021	-0.932
-703.572	-156.418	0.351	-0.022
-702.558	800.000	-0.043	0.138
-701.543	32.421	0.052	-0.045
-700.529	800.000	-0.135	-0.480
-699.514	-200.000	0.074	-0.495
-698.499	-97.404	-1.040	0.274
-697.485	302.952	0.165	0.309
-696.470	-88.486	0.706	-0.213
-695.456	-48.589	-0.475	-0.231
-694.441	-200.000	-0.124	-0.665
-693.426	-81.709	0.375	-0.124
-692.412	-29.554	-0.232	-0.134
-691.397	78.974	0.493	0.533
-690.383	-200.000	0.127	-0.911
-689.368	463.375	-0.147	-0.331
-688.354	-200.000	0.143	0.981
-687.339	754.370	-0.076	0.207
-686.324	800.000	0.047	0.145
-685.310	654.906	-0.268	-0.695
-684.295	75.575	0.375	-0.400
-683.281	-151.444	-0.572	0.043
-682.266	284.339	-0.323	-0.587
-681.251	289.658	0.418	-0.766
-680.237	-189.147	0.844	0.010
-679.222	668.113	-0.250	0.654
-678.208	235.200	-0.276	-0.460
-677.193	-200.000	-0.018	-0.438
-676.178	-111.805	-0.305	-0.062
-675.164	92.206	0.849	0.966
-674.149	800.000	0.130	0.471
-673.135	-17.222	-0.074	0.047
-672.120	-15.431	-0.392	0.253
-671.105	-200.000	-0.139	-0.725
-670.091	800.000	-0.078	-0.335
-669.076	341.091	-0.355	0.699
-668.062	-142.658	-0.605	-0.060
-667.047	800.000	-0.189	0.577
-666.032	-175.898	0.433	-0.012
-665.018	-200.000	-0.065	-0.501
-664.003	-200.000	-0.033	-0.754
-662.989	4.684	-0.528	0.391
-661.974	-200.000	0.129	-0.614
-660.959	-7.792	0.601	0.409
-659.945	-55.840	-0.897	0.404
-658.930	-200.000	0.042	0.923
-657.916	800.000	-0.085	0.338
-656.901	-114.653	0.971	0.187
-655.886	-11.749	-0.611	-0.405
-654.872	-200.000	0.050	0.402
-653.857	-200.000	0.155	-1.640
-652.843	-39.751	-0.293	0.155
-651.828	30.736	0.441	0.381
-650.814	-200.000	0.133	-0.943
-649.799	-69.093	0.178	-0.069
-648.784	-123.960	0.313	-0.050
-647.770	800.000	0.135	0.438
-646.755	241.201	0.248	-0.417
-645.741	-85.465	-0.441	0.139
-644.726	800.000	-0.297	0.893
-643.711	8.812	0.422	-0.321
-642.697	175.858	0.218	-0.319
-641.682	-81.829	-0.280	-0.093
-640.668	-200.000	-0.015	-0.417
-639.653	69.201	0.542	-0.562
-638.638	158.214	0.268	0.375
-637.624	-200.000	0.007	0.774
-636.609	-16.954	0.236	0.151
-635.595	61.618	-0.092	0.092
-634.580	19.228	-0.824	0.667
-633.565	-17.311	-0.466	0.296
-632.551	134.855	-0.382	0.500
-631.536	12.909	0.224	0.174
-630.522	11.614	-0.412	0.319
-629.507	492.877	0.160	-0.369
-628.492	76.241	-0.389	-0.415
-627.478	800.000	-0.062	0.233
-626.463	241.539	-0.329	-0.554
-625.449	-200.000	0.090	0.725
-624.434	-135.705	0.799	0.095
-623.419	-148.661	-0.636	-0.052
-622.405	-103.293	1.077	0.256
-621.390	167.745	0.499	0.714
-620.376	58.290	0.526	0.519
-619.361	218.427	0.341	-0.549
-618.346	-200.000	0.111	-0.868
-617.332	800.000	0.018	-0.057
-616.317	800.000	0.088	-0.293
-615.303	-41.822	-0.702	0.363
-614.288	-92.180	-0.292	0.083
-613.273	114.161	-0.535	-0.656
-612.259	193.830	-0.243	-0.371
-611.244	-39.831	-0.362	0.191
-610.230	162.425	0.393	0.556
-609.215	-200.000	-0.005	-0.028
-608.201	-200.000	0.044	-0.307
-607.186	86.817	-0.553	0.614
-606.171	364.019	-0.053	0.108
-605.157	616.931	-0.130	-0.328
-604.142	-16.889	-0.193	0.123
-603.128	309.086	-0.164	-0.309
-602.113	1.996	-0.238	-0.173
-601.098	-59.897	0.111	0.048
-600.084	271.890	0.173	0.306
-599.069	388.470	-0.187	-0.390
-598.055	-200.000	-0.024	-0.619
-597.040	119.499	-0.536	-0.668
-596.025	363.566	-0.097	0.195
-595.011	-2.185	0.406	-0.287
-593.996	-80.476	0.630	-0.212
-592.982	-200.000	-0.055	0.836
-591.967	-170.477	-0.494	0.017
-590.952	519.373	-0.192	-0.452
-589.938	48.439	-0.279	-0.263
-588.923	-100.600	-0.164	-0.041
-587.909	77.780	0.386	0.414
-586.894	12.320	-0.319	-0.247
-585.879	184.241	-0.147	-0.219
-584.865	-10.334	0.545	-0.364
-583.850	-200.000	-0.054	0.658
-582.836	775.925	-0.141	-0.386
-581.821	194.303	-0.138	0.210
-580.806	107.706	-0.263	-0.315
-579.792	117.871	-0.208	0.258
-578.777	-40.978	-0.234	-0.122
-577.763	-60.148	0.579	-0.248
-576.748	58.120	-0.318	-0.313
-575.733	-200.000	-0.306	-1.508
-574.719	-127.446	-0.326	0.048
-573.704	-41.717	-0.601	0.311
-572.690	10.319	0.670	-0.512
-571.675	10.430	0.316	-0.242
-570.661	-79.898	-0.465	0.157
-569.646	-84.213	-0.368	0.117
-568.631	88.079	0.250	0.279
-567.617	111.734	0.536	-0.651
-566.602	454.643	0.544	-1.212
-565.588	-200.000	-0.015	0.184
-564.573	-27.663	0.353	-0.206
-563.558	580.743	-0.056	-0.138
-562.544	-200.000	0.000	0.516
-561.529	-30.549	0.571	-0.325
-560.515	-0.198	0.725	0.519
-559.500	-200.000	0.053	0.686
-558.485	-27.221	-0.392	-0.229
-557.471	-36.465	0.397	-0.215
-556.456	75.096	0.511	0.542
-555.442	-76.401	-0.160	0.057
-554.427	-107.094	0.650	-0.144
-553.412	-107.071	-0.125	-0.028
-552.398	800.000	-0.410	1.179
-551.383	-200.000	-0.028	-0.879
-550.369	-119.339	-0.689	0.121
-549.354	265.936	-0.089	0.157
-548.339	-200.000	-0.047	-0.554
-547.325	416.787	-0.119	-0.255
-546.310	-91.186	0.097	-0.028
-545.296	-53.769	0.490	0.224
-544.281	800.000	-0.124	0.447
-543.266	-126.528	-0.360	-0.054
-542.252	-35.029	-0.183	0.100
-541.237	3.159	-0.534	-0.390
-540.223	800.000	0.156	-0.436
-539.208	-200.000	0.016	-0.604
-538.193	266.807	-0.155	0.272
-537.179	-48.519	-0.453	-0.219
-536.164	27.357	0.568	0.480
-535.150	26.754	-0.145	0.122
-534.135	325.560	0.584	1.122
-533.121	148.744	0.514	0.697
-532.106	-47.480	0.352	0.172
-531.091	-92.228	0.529	0.150
-530.077	-135.185	0.559	0.067
-529.062	6.054	-0.378	0.281
-528.048	-83.561	0.096	0.031
-527.033	-70.889	-0.455	-0.172
-526.018	-38.569	-0.696	-0.369
-525.004	193.089	-0.282	-0.428
-523.989	-200.000	0.029	0.333
-522.975	-200.000	0.069	-0.428
-521.960	-3.530	0.833	-0.581
-520.945	-200.000	-0.031	0.435
-519.931	-200.000	-0.122	-0.690
-518.916	800.000	0.165	0.643
-517.902	68.597	-0.162	0.167
-516.887	-200.000	-0.104	-1.101
-515.872	222.116	-0.499	-0.805
-514.858	-92.527	0.600	0.169
-513.843	16.449	-0.278	-0.220
-512.829	800.000	0.147	-0.516
-511.814	596.656	0.364	0.905
-510.799	532.984	-0.211	0.501
-509.785	42.298	-0.082	0.075
-508.770	172.632	-0.055	-0.079
-507.756	-81.457	0.699	0.231
-506.741	-123.591	-0.985	0.157
-505.726	169.993	0.154	0.222
-504.712	-200.000	-0.105	0.714
-503.697	800.000	0.120	0.409
-502.683	-200.000	-0.016	-0.207
-501.668	199.647	-0.110	0.169
-500.653	-119.410	-0.927	-0.162
-499.639	-200.000	0.005	0.282
-498.624	73.095	0.401	0.420
-497.610	-123.770	-0.174	0.028
-496.595	-34.247	-0.297	-0.163
-495.581	-52.212	-0.667	0.310
-494.566	-9.662	0.580	0.387
-493.551	147.251	-0.094	0.127
-492.537	-65.122	-0.619	-0.250
-491.522	-60.688	0.867	0.368
-490.508	-200.000	-0.076	-1.126
-489.493	27.370	-0.819	0.690
-488.478	425.824	-0.251	0.543
-487.464	-166.548	-0.716	-0.030
-486.449	-57.437	0.199	-0.088
-485.435	-102.577	0.243	-0.058
-484.420	-42.161	-0.495	0.254
-483.405	800.000	0.307	0.860
-482.391	341.698	-0.098	0.191
-481.376	82.595	-0.015	-0.017
-480.362	288.414	-0.236	-0.428
-479.347	1.053	0.425	0.305
-478.332	79.445	-0.263	0.283
-477.318	351.504	-0.409	-0.811
-476.303	-200.000	0.020	-0.469
-475.289	557.120	0.268	-0.647
-474.274	787.361	0.043	-0.118
-473.259	142.747	0.539	0.718
-472.245	-200.000	-0.069	0.442
-471.230	-134.652	-0.234	0.029
-470.216	-200.000	-0.032	-0.333
-469.201	-66.443	-0.615	0.245
-468.186	-43.162	0.158	-0.080
-467.172	31.707	-0.586	-0.505
-466.157	-73.317	-0.905	0.331
-465.143	82.750	0.525	0.571
-464.128	364.258	0.130	0.262
-463.113	44.397	0.410	-0.377
-462.099	224.658	0.244	0.396
-461.084	48.178	-0.577	0.540
-460.070	136.971	-0.151	0.198
-459.055	300.506	-0.060	0.110
-458.040	-44.697	-0.827	-0.413
-457.026	181.897	0.404	-0.596
-456.011	29.312	0.278	0.236
-454.997	-115.730	0.381	-0.072
-453.982	800.000	0.082	0.265
-452.968	-74.489	-0.464	-0.168
-451.953	800.000	0.103	0.392
-450.938	-120.581	0.522	0.088
-449.924	-114.788	0.488	0.093
-448.909	560.397	-0.185	0.448
-447.895	-55.789	-1.071	-0.479
-446.880	304.349	0.343	0.637
-445.865	800.000	-0.035	-0.140
-444.851	330.627	0.249	0.480
-443.836	-82.086	-0.301	-0.098
-442.822	-153.930	0.707	-0.048
-441.807	10.633	-0.425	-0.324
-440.792	-63.057	0.718	-0.297
-439.778	214.600	0.330	-0.523
-438.763	252.996	0.219	-0.374
-437.749	17.179	-0.216	-0.171
-436.734	-46.981	-0.248	0.121
-435.719	-95.265	0.293	-0.079
-434.705	86.591	-0.297	0.328
-433.690	-25.534	-0.716	-0.423
-432.676	84.653	-0.110	0.120
-431.661	-136.377	0.407	-0.047
-430.646	-200.000	-0.006	-0.274
-429.632	-12.429	-0.765	-0.500
-428.617	118.661	-0.218	-0.269
-427.603	21.351	0.807	0.656
-426.588	52.695	0.578	-0.553
-425.573	-200.000	-0.213	-1.035
-424.559	-128.499	0.550	-0.078
-423.544	70.162	-0.392	-0.404
-422.530	154.521	0.375	-0.514
-421.515	65.949	0.107	0.108
-420.500	347.310	0.129	0.254
-419.486	800.000	-0.199	0.611
-418.471	458.651	0.055	-0.123
-417.457	800.000	0.212	0.730
-416.442	34.384	0.535	-0.467
-415.428	-156.245	1.085	-0.068
-414.413	716.860	-0.077	0.205
-413.398	122.821	-0.360	-0.450
-412.384	-108.947	-0.752	-0.160
-411.369	-95.648	-0.702	-0.188
-410.355	65.922	0.405	-0.410
-409.340	800.000	0.174	-0.621
-408.325	506.175	-0.478	1.108
-407.311	-86.134	0.286	-0.088
-406.296	-200.000	0.072	-0.680
-405.282	101.972	0.244	-0.285
-404.267	-200.000	-0.014	0.414
-403.252	-66.725	1.398	0.553
-402.238	145.996	0.530	0.710
-401.223	57.512	-0.191	-0.186
-400.209	117.614	-0.514	0.632
-399.194	-134.553	-0.238	-0.029
-398.179	-200.000	0.046	-0.285
-397.165	83.555	0.440	0.480
-396.150	91.103	0.416	0.466
-395.136	43.624	-0.526	0.480
-394.121	19.344	-0.564	0.452
-393.106	-135.620	-0.871	0.103
-392.092	142.258	-0.287	0.381
-391.077	-62.769	1.235	0.511
-390.063	751.578	0.126	0.341
-389.048	-90.827	0.344	-0.099
-388.033	800.000	-0.123	-0.396
-387.019	-98.967	-0.488	-0.124
-386.004	87.916	-0.333	0.369
-384.990	-159.147	-0.626	0.035
-383.975	-95.146	-0.162	-0.044
-382.960	96.547	-0.208	0.237
-381.946	362.725	0.191	-0.383
-380.931	-71.140	0.451	0.169
-379.917	-46.554	-0.186	0.091
-378.902	-115.945	-0.815	-0.152
-377.888	-200.000	-0.027	-0.342
-376.873	-71.007	-0.655	0.246
-375.858	-112.220	0.245	0.049
-374.844	-91.534	-0.978	0.278
-373.829	-40.862	-0.167	-0.086
-372.815	-121.942	0.354	-0.058
-371.800	-200.000	-0.082	-0.447
-370.785	31.988	0.698	-0.600
-369.771	-200.000	-0.022	0.133
-368.756	347.425	0.126	-0.248
-367.742	688.390	-0.091	0.238
-366.727	-88.212	0.202	-0.060
-365.712	-121.910	0.546	-0.090
-364.698	800.000	0.124	0.480
-363.683	-27.029	-0.425	-0.247
-362.669	20.872	-0.320	0.259
-361.654	498.009	-0.331	0.759
-360.639	611.162	-0.237	-0.591
-359.625	800.000	-0.254	0.728
-358.610	800.000	0.305	1.123
-357.596	74.900	-0.074	-0.077
-356.581	800.000	0.150	-0.487
-355.566	800.000	-0.223	-0.656
-354.552	-96.158	-0.435	0.115
-353.537	91.713	0.340	0.382
-352.523	41.607	0.348	0.314
-351.508	800.000	-0.265	0.772
-350.493	122.487	-0.786	0.979
-349.479	-119.241	0.510	0.089
-348.464	-133.918	-0.160	0.020
-347.450	135.736	-0.299	-0.388
-346.435	24.647	0.425	0.351
-345.420	405.673	-0.237	-0.499
-344.406	-144.988	-0.230	-0.021
-343.391	531.702	-0.306	0.722
-342.377	550.762	-0.176	0.422
-341.362	1.723	0.096	-0.069
-340.348	-200.000	-0.105	0.719
-339.333	-28.887	-0.415	-0.237
-338.318	131.277	0.518	-0.663
-337.304	-10.875	0.751	-0.494
-336.289	80.275	-0.162	0.174
-335.275	-20.104	0.268	0.164
-334.260	-18.912	-0.402	-0.249
-333.245	-55.446	0.200	0.089
-332.231	-200.000	0.054	-0.293
-331.216	-53.563	0.492	-0.224
-330.202	35.347	0.346	-0.302
-329.187	0.835	0.423	0.302
-328.172	211.724	0.319	0.500
-327.158	89.727	-0.532	-0.591
-326.143	-200.000	0.058	-0.324
-325.129	10.957	0.820	0.624
-324.114	-200.000	-0.013	-0.359
-323.099	443.082	-0.277	-0.604
-322.085	171.497	-0.071	0.101
-321.070	-200.000	0.080	-0.672
-320.056	66.684	0.270	-0.274
-319.041	-81.777	0.117	-0.038
-318.026	800.000	0.012	-0.050
-317.012	68.128	-0.436	-0.444
-315.997	-13.862	-0.779	-0.501
-314.983	-200.000	-0.014	-0.171
-313.968	-93.960	-0.339	0.093
-312.953	-157.344	-0.243	0.015
-311.939	20.398	0.974	0.783
-310.924	-5.656	-0.920	0.628
-309.910	-80.428	-0.288	0.096
-308.895	-146.041	-0.446	-0.039
-307.880	-200.000	0.105	0.967
-306.866	130.442	-0.594	-0.757
-305.851	67.069	-0.538	0.546
-304.837	-200.000	0.031	0.378
-303.822	-145.593	0.802	0.072
-302.807	-200.000	-0.068	-0.393
-301.793	-83.044	-0.194	-0.062
-300.778	348.530	-0.383	-0.752
-299.764	-143.487	0.128	0.012
-298.749	-200.000	0.042	0.263
-297.735	328.501	-0.213	-0.407
-296.720	8.250	-0.464	0.347
-295.705	-200.000	-0.059	-0.703
-294.691	800.000	-0.177	-0.583
-293.676	-200.000	-0.011	0.167
-292.662	283.836	0.193	0.345
-291.647	197.950	-0.121	0.184
-290.632	80.327	-0.321	-0.343
-289.618	-200.000	0.127	1.168
-288.603	129.842	-0.493	0.627
-287.589	-75.697	-0.460	-0.162
-286.574	149.461	0.345	0.465
-285.559	32.734	0.411	0.353
-284.545	474.236	0.267	-0.598
-283.530	-106.106	-0.702	0.157
-282.516	800.000	-0.094	-0.337
-281.501	-140.649	-0.177	-0.018
-280.486	800.000	0.116	0.412
-279.472	26.858	-0.293	0.244
-278.457	-25.066	0.149	-0.088
-277.443	332.209	0.282	0.540
-276.428	162.140	-0.565	-0.787
-275.413	262.831	-0.233	0.402
-274.399	121.151	-0.274	-0.339
-273.384	-200.000	0.042	0.454
-272.370	800.000	0.061	0.171
-271.355	-134.159	-0.868	0.106
-270.340	-200.000	0.105	-0.593
-269.326	-200.000	-0.094	0.557
-268.311	-200.000	-0.012	-0.271
-267.297	-86.600	-0.233	-0.071
-266.282	-111.597	0.939	-0.189
-265.267	-115.637	-0.640	-0.119
-264.253	800.000	-0.188	-0.742
-263.238	-200.000	0.011	0.965
-262.224	451.533	0.184	-0.405
-261.209	800.000	0.291	-1.240
-260.195	-11.547	-0.366	-0.239
-259.180	126.991	0.358	-0.451
-258.165	-110.296	0.979	-0.202
-257.151	-32.581	1.068	0.591
-256.136	26.986	-0.151	0.126
-255.122	48.042	0.265	0.246
-254.107	37.191	-0.120	-0.105
-253.092	800.000	0.106	-0.426
-252.078	-42.613	0.626	0.316
-251.063	800.000	0.263	-0.762
-250.049	1.126	0.777	-0.554
-249.034	-116.809	0.248	0.045
-248.019	800.000	0.140	0.414
-247.005	538.816	-0.185	0.436
-245.990	-200.000	0.048	-0.405
-244.976	508.187	-0.187	-0.431
-243.961	800.000	0.139	-0.472
-242.946	224.000	0.306	-0.490
-241.932	-200.000	0.144	0.781
-240.917	-76.604	0.513	0.179
-239.903	800.000	-0.065	-0.264
-238.888	-19.875	0.916	-0.562
-237.873	-95.440	0.165	0.044
-236.859	36.304	0.608	0.532
-235.844	-63.598	0.532	-0.217
-234.830	150.778	-0.597	-0.805
-233.815	800.000	-0.192	0.616
-232.800	78.415	0.430	-0.455
-231.786	-14.981	-0.207	0.132
-230.771	-200.000	0.039	-0.781
-229.757	178.260	0.323	0.468
-228.742	41.160	0.242	-0.217
-227.727	-200.000	0.226	-1.147
-226.713	-107.351	0.872	-0.190
-225.698	302.790	0.568	1.044
-224.684	209.630	-0.303	-0.471
-223.669	635.594	0.214	-0.538
-222.655	-153.708	0.937	-0.064
-221.640	-133.094	0.361	-0.045
-220.625	87.120	-0.388	0.425
-219.611	-162.581	-0.591	-0.029
-218.596	-200.000	0.133	-0.759
-217.582	800.000	-0.142	-0.483
-216.567	269.657	0.352	-0.613
-215.552	-18.253	0.690	0.428
-214.538	365.699	0.328	0.655
-213.523	-14.333	-0.360	0.230
-212.509	-57.909	-0.863	0.374
-211.494	-200.000	0.140	-0.617
-210.479	168.743	-0.173	-0.244
-209.465	229.889	0.095	0.154
-208.450	-119.840	0.515	0.088
-207.436	-83.679	-0.431	0.136
-206.421	-51.784	-0.424	-0.196
-205.406	-75.110	0.388	0.137
-204.392	-11.138	0.302	0.197
-203.377	0.237	1.106	0.782
-202.363	-138.301	-0.668	0.073
-201.348	-146.481	-0.615	-0.053
-200.333	-36.701	-0.430	0.229
-199.319	-133.790	0.656	0.081
-198.304	800.000	0.267	0.830
-197.290	13.114	0.794	-0.609
-196.275	46.408	0.673	0.619
-195.260	552.806	-0.192	0.456
-194.246	-61.781	0.670	0.278
-193.231	28.428	-0.370	-0.310
-192.217	-6.342	0.781	-0.528
-191.202	800.000	0.103	0.296
-190.187	-56.744	0.754	-0.331
-189.173	-120.479	-0.581	0.098
-188.158	97.793	0.196	-0.223
-187.144	-138.771	-0.206	0.022
-186.129	-168.010	-0.822	0.032
-185.114	162.010	-0.271	0.376
-184.100	-106.968	1.200	0.263
-183.085	285.292	0.052	-0.092
-182.071	-200.000	0.025	0.560
-181.056	-33.513	-0.359	0.196
-180.042	393.247	-0.227	0.469
-179.027	43.774	0.283	-0.256
-178.012	-111.086	0.617	0.125
-176.998	-38.926	-0.411	0.214
-175.983	-87.449	-0.319	0.096
-174.969	-90.883	-0.438	-0.125
-173.954	800.000	0.256	-0.741
-172.939	-9.674	-0.560	0.370
-171.925	541.103	-0.360	-0.848
-170.910	93.519	-0.585	-0.656
-169.896	-200.000	-0.037	-0.522
-168.881	800.000	0.016	-0.065
-167.866	21.833	-0.167	-0.135
-166.852	-116.545	-0.646	-0.118
-165.837	-15.150	-0.157	0.099
-164.823	-158.352	0.235	-0.014
-163.808	-16.012	0.314	-0.198
-162.793	-200.000	-0.139	-1.144
-161.779	800.000	-0.232	0.911
-160.764	-129.520	-0.460	-0.063
-159.750	-61.643	0.451	-0.187
-158.735	-6.353	-0.152	-0.103
-157.720	72.992	-0.499	0.516
-156.706	233.030	-0.660	1.073
-155.691	800.000	0.256	-0.800
-154.677	-200.000	0.074	-0.409
-153.662	180.896	-0.196	-0.285
-152.647	31.221	0.224	-0.190
-151.633	800.000	0.123	0.413
-150.618	5.979	0.185	-0.135
-149.604	-38.690	0.231	-0.121
-148.589	-100.284	-0.457	0.112
-147.574	-5.674	1.082	-0.733
-146.560	-200.000	-0.083	-0.436
-145.545	11.062	-0.368	0.278
-144.531	-199.832	0.832	0.004
-143.516	90.072	-0.239	0.265
-142.502	-53.892	-0.571	0.257
-141.487	556.713	-0.317	0.755
-140.472	674.104	-0.115	0.294
-139.458	-36.930	0.128	0.068
-138.443	184.019	0.176	-0.258
-137.429	-158.221	-0.309	-0.018
-136.414	-200.000	-0.098	-0.443
-135.399	44.338	-0.157	-0.142
-134.385	136.908	0.310	0.401
-133.370	46.968	0.379	0.349
-132.356	-200.000	-0.067	-0.372
-131.341	273.647	0.409	0.714
-130.326	800.000	-0.162	-0.444
-129.312	712.548	0.282	0.737
-128.297	127.626	0.108	0.136
-127.283	-200.000	0.019	0.290
-126.268	-20.397	0.785	0.477
-125.253	44.329	-0.250	0.227
-124.239	800.000	0.267	0.757
-123.224	186.396	-0.169	0.249
-122.210	800.000	-0.103	-0.329
-121.195	-94.899	-0.737	0.197
