DTS Sentinel unit serial number:	SN413079Multiplexer serial number:	ORYXHardware model number:	OX4-SRSoftware version number:	ORYX F/W v4.00 Oryx Data Collector v3.7.2.0data status	okinstallation	princeton_trtdifferential loss correction	single-endedforward channel	channel 3reverse channel	N/Adate	2019/09/15time	11:20:34forward acquisition time	60.00reverse acquisition time	0.00gamma	496.2192k internal	0.2307k external	0.2307temperature offset calibration	0.9973default loss term (dB/km)	0.3790temperature slope calibration	1.0000multiplexer offset coefficient	1.0000multiplexer slope coefficient	1.0000fibre end	0.00T internal ref (°C)	34.30T ext. ref 1 (°C)	5.01T ext. ref 2 (°C)	29.58length (m)	temperature (°C)	Stokes	anti-Stokes-747.200	-103.303	-0.174	-0.042
-746.185	-78.486	-0.199	-0.069
-745.171	-116.413	-0.210	0.039
-744.156	224.353	0.093	0.153
-743.142	60.839	0.181	0.183
-742.127	-54.665	-0.090	-0.041
-741.112	-27.576	-0.109	0.065
-740.098	17.234	0.096	0.078
-739.083	-200.000	-0.291	-0.001
-738.069	-61.067	0.138	-0.059
-737.054	-49.731	-0.357	0.173
-736.039	419.577	0.233	0.507
-735.025	158.564	-0.062	0.088
-734.010	-200.000	-0.043	-0.200
-732.996	-200.000	-0.030	-0.154
-731.981	-161.777	0.186	-0.010
-730.966	-149.768	0.156	-0.012
-729.952	-26.216	0.188	-0.112
-728.937	-175.111	0.191	0.005
-727.923	-57.972	-0.179	-0.079
-726.908	97.577	-0.309	-0.361
-725.894	-182.147	-0.236	0.004
-724.879	-200.000	0.022	0.290
-723.864	-98.918	0.347	0.090
-722.850	-115.499	0.130	0.025
-721.835	6.970	-0.098	0.074
-720.821	-98.688	0.107	-0.028
-719.806	13.375	0.078	-0.061
-718.791	2.850	0.094	-0.069
-717.777	800.000	0.055	0.178
-716.762	800.000	0.119	-0.486
-715.748	-200.000	0.031	-0.138
-714.733	-119.415	-0.615	-0.109
-713.718	-16.235	-0.101	0.065
-712.704	500.912	0.084	-0.198
-711.689	-23.870	0.070	0.042
-710.675	800.000	-0.150	-0.497
-709.660	57.268	0.243	0.241
-708.645	258.238	0.097	-0.170
-707.631	82.056	0.304	-0.334
-706.616	800.000	0.071	0.253
-705.602	-66.322	0.262	-0.106
-704.587	-200.000	-0.052	-0.467
-703.572	800.000	0.023	-0.080
-702.558	800.000	0.035	-0.106
-701.543	55.687	-0.088	0.087
-700.529	-1.510	-0.026	-0.019
-699.514	0.557	0.265	-0.192
-698.499	-200.000	-0.015	-0.153
-697.485	-113.401	0.315	0.063
-696.470	316.714	0.069	-0.132
-695.456	-146.735	-0.113	-0.010
-694.441	134.312	-0.095	-0.125
-693.426	80.787	0.282	-0.309
-692.412	582.846	-0.113	-0.281
-691.397	800.000	-0.010	-0.041
-690.383	752.180	-0.074	-0.204
-689.368	169.594	-0.148	-0.215
-688.354	206.551	0.182	0.287
-687.339	-93.381	-0.135	-0.038
-686.324	-31.283	0.325	-0.185
-685.310	800.000	-0.025	-0.076
-684.295	-17.526	-0.202	-0.129
-683.281	-4.610	-0.266	-0.187
-682.266	800.000	0.081	-0.234
-681.251	-200.000	0.056	-0.471
-680.237	55.761	-0.135	-0.132
-679.222	-37.747	0.245	0.132
-678.208	-75.596	0.604	-0.218
-677.193	-120.595	0.216	-0.037
-676.178	87.485	-0.102	0.115
-675.164	-61.345	0.170	-0.072
-674.149	379.085	0.151	-0.313
-673.135	214.458	0.119	-0.192
-672.120	583.540	-0.083	-0.206
-671.105	36.103	-0.185	0.165
-670.091	800.000	-0.051	0.162
-669.076	144.269	-0.147	-0.199
-668.062	44.448	0.171	-0.159
-667.047	209.610	-0.055	0.088
-666.032	450.658	-0.062	-0.139
-665.018	329.734	0.026	0.050
-664.003	-200.000	-0.055	-0.292
-662.989	49.643	-0.218	-0.208
-661.974	666.391	-0.144	-0.378
-660.959	695.212	0.090	-0.239
-659.945	293.509	-0.089	-0.165
-658.930	676.826	-0.085	0.225
-657.916	-200.000	-0.029	-0.157
-656.901	-176.748	-0.033	-0.001
-655.886	-134.918	-0.288	0.035
-654.872	-82.394	-0.089	0.029
-653.857	307.521	0.096	0.181
-652.843	-2.280	-0.050	0.036
-651.828	-200.000	-0.013	0.134
-650.814	225.905	0.126	-0.207
-649.799	106.303	0.388	-0.466
-648.784	25.775	-0.248	-0.209
-647.770	245.582	0.221	0.377
-646.755	-157.944	-0.207	0.012
-645.741	-185.962	-0.042	0.001
-644.726	110.843	-0.153	-0.187
-643.711	-200.000	-0.075	-0.336
-642.697	800.000	-0.064	0.279
-641.682	82.462	-0.154	0.169
-640.668	-57.724	0.126	0.056
-639.653	-21.060	-0.297	-0.184
-638.638	-64.193	-0.193	-0.080
-637.624	215.066	-0.249	0.399
-636.609	-45.341	0.141	0.071
-635.595	-200.000	0.028	0.204
-634.580	-47.618	0.247	0.121
-633.565	-76.830	-0.219	0.078
-632.551	800.000	-0.088	-0.252
-631.536	27.002	-0.070	0.059
-630.522	-92.568	-0.111	0.031
-629.507	-10.803	-0.123	-0.082
-628.492	-19.317	-0.063	0.039
-627.478	310.397	0.079	-0.151
-626.463	234.180	-0.180	-0.301
-625.449	-69.985	-0.048	-0.019
-624.434	510.741	0.090	0.213
-623.419	-184.210	0.233	0.004
-622.405	-61.403	-0.104	-0.044
-621.390	27.242	0.115	-0.098
-620.376	-200.000	-0.033	0.391
-619.361	-110.775	-0.185	0.039
-618.346	-200.000	-0.005	-0.088
-617.332	35.276	0.101	0.089
-616.317	-200.000	-0.052	-0.284
-615.303	-25.153	-0.230	-0.138
-614.288	552.629	0.071	0.172
-613.273	-200.000	-0.014	-0.112
-612.259	800.000	0.077	0.237
-611.244	242.812	-0.208	-0.353
-610.230	15.020	0.167	0.132
-609.215	243.288	0.188	0.319
-608.201	-200.000	0.011	-0.243
-607.186	-145.278	-0.094	-0.009
-606.171	-200.000	-0.015	0.091
-605.157	-170.595	-0.305	0.011
-604.142	74.615	0.138	0.147
-603.128	69.706	0.096	0.100
-602.113	-9.184	0.354	-0.239
-601.098	3.426	0.265	-0.195
-600.084	9.027	-0.103	0.078
-599.069	-37.505	0.280	0.151
-598.055	172.193	-0.059	-0.086
-597.040	-129.036	0.183	-0.026
-596.025	-108.790	0.057	0.012
-595.011	-53.374	0.307	0.142
-593.996	-27.624	-0.129	-0.076
-592.982	8.831	-0.327	-0.249
-591.967	-200.000	0.001	0.232
-590.952	800.000	0.038	0.153
-589.938	-76.018	0.074	0.026
-588.923	463.623	0.009	-0.020
-587.909	73.703	-0.387	0.410
-586.894	278.565	0.117	-0.210
-585.879	800.000	0.058	0.242
-584.865	-138.852	0.359	-0.040
-583.850	30.482	0.315	0.272
-582.836	-194.467	0.317	0.003
-581.821	-12.012	-0.225	-0.149
-580.806	83.691	0.168	-0.185
-579.792	-200.000	0.035	-0.308
-578.777	-200.000	0.002	-0.050
-577.763	719.545	-0.071	-0.190
-576.748	76.815	-0.151	-0.162
-575.733	256.878	-0.008	0.014
-574.719	23.079	0.216	0.179
-573.704	56.498	0.061	-0.060
-572.690	126.258	0.082	-0.104
-571.675	-25.302	0.133	0.079
-570.661	187.946	-0.063	-0.096
-569.646	-14.760	-0.311	0.202
-568.631	-200.000	0.074	-0.388
-567.617	-1.819	-0.019	0.013
-566.602	144.805	-0.117	-0.158
-565.588	15.589	-0.147	-0.117
-564.573	-200.000	-0.022	0.121
-563.558	36.558	-0.057	0.051
-562.544	-200.000	-0.039	-0.250
-561.529	247.185	0.045	-0.076
-560.515	-200.000	0.007	-0.363
-559.500	-87.841	0.064	0.019
-558.485	-97.434	-0.135	-0.035
-557.471	262.365	0.213	-0.374
-556.456	800.000	0.059	-0.199
-555.442	-197.185	-0.178	-0.001
-554.427	189.032	0.171	-0.258
-553.412	154.495	-0.145	-0.201
-552.398	-71.827	-0.177	-0.067
-551.383	-46.949	0.252	-0.124
-550.369	-200.000	0.105	0.488
-549.354	34.386	0.184	-0.162
-548.339	-77.452	-0.193	-0.068
-547.325	98.322	-0.294	0.342
-546.310	0.145	-0.131	0.094
-545.296	-20.539	0.128	0.080
-544.281	139.992	0.088	-0.118
-543.266	0.544	0.034	0.025
-542.252	117.695	-0.097	-0.121
-541.237	-152.524	-0.255	0.018
-540.223	89.983	0.276	-0.311
-539.208	800.000	-0.045	0.175
-538.193	-37.282	0.266	0.143
-537.179	-6.271	-0.283	-0.195
-536.164	-97.808	-0.065	-0.017
-535.150	235.405	-0.121	0.202
-534.135	425.208	0.137	-0.298
-533.121	-200.000	-0.006	-0.276
-532.106	8.639	0.187	-0.142
-531.091	-178.062	-0.126	0.003
-530.077	-200.000	-0.001	-0.114
-529.062	21.413	-0.142	0.116
-528.048	-122.265	-0.102	-0.017
-527.033	-200.000	-0.016	-0.075
-526.018	-200.000	0.005	0.081
-525.004	-200.000	0.027	0.230
-523.989	-66.875	0.341	-0.136
-522.975	800.000	-0.086	-0.301
-521.960	144.743	0.115	-0.155
-520.945	-200.000	-0.036	-0.450
-519.931	-200.000	0.004	-0.040
-518.916	-200.000	0.022	-0.112
-517.902	-151.820	0.093	0.007
-516.887	-190.916	-0.172	0.002
-515.872	-86.761	-0.306	-0.094
-514.858	800.000	-0.068	0.231
-513.843	179.095	0.214	0.316
-512.829	51.757	0.037	-0.035
-511.814	303.865	0.032	0.060
-510.799	-200.000	0.020	0.107
-509.785	0.259	-0.077	-0.055
-508.770	-42.081	0.131	-0.068
-507.756	480.380	-0.071	0.162
-506.741	109.788	0.113	0.136
-505.726	-200.000	-0.007	-0.176
-504.712	-110.032	-0.273	-0.057
-503.697	-200.000	0.003	0.378
-502.683	525.915	0.111	-0.263
-501.668	193.519	0.119	0.182
-500.653	-200.000	-0.016	-0.207
-499.639	-200.000	0.026	-0.186
-498.624	374.299	0.131	-0.269
-497.610	-144.147	-0.174	-0.016
-496.595	-200.000	-0.009	-0.193
-495.581	5.722	-0.293	0.218
-494.566	80.966	0.060	0.066
-493.551	-18.076	-0.146	0.092
-492.537	171.830	0.143	-0.207
-491.522	123.457	0.113	0.143
-490.508	800.000	-0.024	-0.086
-489.493	-64.160	0.200	0.082
-488.478	64.419	-0.106	0.108
-487.464	-148.703	-0.590	-0.048
-486.449	800.000	0.123	0.370
-485.435	-47.798	-0.076	-0.037
-484.420	-11.860	-0.133	0.088
-483.405	48.974	0.059	0.055
-482.391	177.681	0.073	0.106
-481.376	800.000	-0.050	-0.159
-480.362	3.368	0.075	0.055
-479.347	314.822	-0.150	0.284
-478.332	89.717	0.088	0.099
-477.318	-25.601	0.087	0.052
-476.303	800.000	0.047	-0.169
-475.289	35.840	0.063	-0.056
-474.274	-1.156	0.398	0.283
-473.259	93.299	-0.087	-0.099
-472.245	-99.716	-0.320	-0.081
-471.230	-200.000	0.033	0.457
-470.216	-70.572	-0.396	0.151
-469.201	-0.953	0.188	0.134
-468.186	-200.000	-0.031	-0.233
-467.172	-71.467	0.194	-0.073
-466.157	-28.457	-0.112	-0.065
-465.143	60.688	-0.155	-0.154
-464.128	-27.493	0.151	0.088
-463.113	800.000	0.060	-0.215
-462.099	-136.772	0.335	-0.039
-461.084	-200.000	-0.015	-0.082
-460.070	18.254	-0.181	-0.146
-459.055	-200.000	0.069	0.440
-458.040	800.000	0.035	-0.114
-457.026	44.677	0.190	0.176
-456.011	-200.000	-0.000	0.093
-454.997	536.320	-0.226	0.539
-453.982	-153.475	-0.184	-0.013
-452.968	-135.004	0.405	-0.049
-451.953	95.055	0.152	0.174
-450.938	-52.067	0.117	-0.055
-449.924	-200.000	0.039	-0.237
-448.909	-130.389	-0.343	0.047
-447.895	-31.684	0.107	-0.060
-446.880	145.896	0.146	-0.196
-445.865	-111.530	-0.152	0.031
-444.851	800.000	-0.088	0.368
-443.836	-6.125	-0.069	-0.048
-442.822	-127.498	-0.254	-0.037
-441.807	-148.083	-0.215	-0.018
-440.792	-200.000	-0.018	-0.347
-439.778	723.029	0.043	-0.114
-438.763	164.509	-0.206	-0.291
-437.749	-143.051	-0.128	-0.012
-436.734	-79.740	0.047	0.016
-435.719	-38.697	0.318	0.169
-434.705	-51.125	-0.298	0.140
-433.690	16.016	-0.228	-0.181
-432.676	-52.983	-0.152	-0.070
-431.661	-122.431	-0.239	-0.039
-430.646	560.472	-0.173	0.420
-429.632	-103.885	-0.173	0.041
-428.617	54.428	-0.154	0.149
-427.603	-11.960	0.172	0.113
-426.588	178.491	-0.175	0.256
-425.573	103.724	0.214	0.252
-424.559	800.000	-0.060	0.218
-423.544	-4.267	-0.185	0.128
-422.530	-3.160	0.145	-0.101
-421.515	581.931	0.115	0.284
-420.500	-200.000	0.002	0.298
-419.486	115.284	0.120	0.147
-418.471	-79.092	-0.416	-0.142
-417.457	320.880	0.036	-0.068
-416.442	800.000	-0.063	0.186
-415.428	-200.000	0.015	-0.159
-414.413	-8.356	0.105	-0.071
-413.398	-200.000	-0.048	0.216
-412.384	-200.000	-0.027	0.157
-411.369	-25.425	0.100	0.059
-410.355	-16.774	0.329	0.209
-409.340	-200.000	0.019	0.163
-408.325	800.000	-0.026	0.073
-407.311	-184.848	0.245	0.004
-406.296	348.909	-0.145	-0.288
-405.282	16.922	0.209	0.166
-404.267	-62.519	0.032	0.014
-403.252	169.604	0.098	-0.141
-402.238	130.937	-0.212	0.273
-401.223	360.874	0.036	0.072
-400.209	800.000	0.064	0.191
-399.194	-200.000	-0.023	-0.168
-398.179	-136.860	-0.400	-0.046
-397.165	800.000	0.076	0.260
-396.150	-99.831	-0.072	-0.018
-395.136	95.551	0.108	0.124
-394.121	800.000	-0.030	0.103
-393.106	208.707	0.043	0.067
-392.092	332.560	0.169	0.327
-391.077	-118.467	-0.196	0.035
-390.063	-200.000	0.031	0.321
-389.048	-5.916	0.092	-0.063
-388.033	226.170	0.068	0.110
-387.019	-200.000	-0.072	-0.333
-386.004	-37.471	0.206	0.110
-384.990	-150.217	-0.192	-0.015
-383.975	100.404	-0.141	0.165
-382.960	-200.000	-0.002	-0.094
-381.946	-44.944	-0.180	-0.090
-380.931	47.554	-0.068	0.063
-379.917	39.350	0.186	-0.167
-378.902	-200.000	-0.023	0.275
-377.888	163.275	0.139	-0.196
-376.873	23.544	0.284	0.234
-375.858	-64.034	-0.214	0.088
-374.844	-155.992	-0.151	-0.010
-373.829	245.077	0.182	0.307
-372.815	-147.469	-0.058	0.005
-371.800	-87.257	-0.159	0.048
-370.785	-88.053	0.261	0.079
-369.771	-108.380	-0.235	0.051
-368.756	-111.880	0.376	0.076
-367.742	-200.000	0.015	-0.079
-366.727	-200.000	0.036	0.160
-365.712	-200.000	0.023	0.143
-364.698	-200.000	0.036	0.294
-363.683	-200.000	0.035	0.196
-362.669	-115.232	-0.328	-0.062
-361.654	-161.263	-0.307	-0.016
-360.639	215.870	-0.050	0.080
-359.625	-200.000	0.031	-0.230
-358.610	434.064	-0.030	0.065
-357.596	-200.000	-0.002	0.331
-356.581	-200.000	-0.053	0.285
-355.566	123.602	0.030	0.038
-354.552	270.914	0.219	-0.387
-353.537	-200.000	0.014	0.081
-352.523	257.002	0.175	-0.302
-351.508	77.986	-0.255	-0.273
-350.493	144.119	-0.053	0.070
-349.479	-125.170	-0.116	0.018
-348.464	117.063	0.270	0.332
-347.450	800.000	-0.113	-0.324
-346.435	233.376	-0.174	0.287
-345.420	54.342	0.199	-0.192
-344.406	800.000	0.023	-0.072
-343.391	261.664	-0.176	-0.305
-342.377	-200.000	0.025	-0.304
-341.362	-67.775	-0.239	-0.094
-340.348	800.000	-0.092	-0.356
-339.333	-200.000	-0.009	0.135
-338.318	-109.712	-0.290	-0.061
-337.304	-112.769	0.413	0.082
-336.289	711.606	0.033	0.088
-335.275	-86.385	-0.279	-0.086
-334.260	9.885	-0.140	0.107
-333.245	-46.808	0.244	0.120
-332.231	85.369	0.222	-0.244
-331.216	110.267	-0.025	-0.030
-330.202	-200.000	-0.020	0.162
-329.187	-196.684	-0.305	-0.002
-328.172	-101.569	-0.185	-0.045
-327.158	800.000	-0.217	-0.642
-326.143	-62.768	0.316	-0.131
-325.129	-38.362	-0.042	0.022
-324.114	-200.000	0.015	-0.173
-323.099	186.368	0.113	0.168
-322.085	-200.000	-0.081	-0.363
-321.070	800.000	-0.021	-0.073
-320.056	-45.464	-0.182	-0.090
-319.041	-95.351	0.473	0.127
-318.026	-66.806	0.164	-0.065
-317.012	-200.000	0.041	-0.247
-315.997	-42.539	0.114	0.058
-314.983	493.272	0.107	-0.245
-313.968	-98.841	-0.141	0.036
-312.953	-17.124	0.050	0.031
-311.939	800.000	0.037	-0.132
-310.924	-45.276	0.152	0.076
-309.910	-61.699	-0.167	-0.070
-308.895	-62.428	0.214	-0.089
-307.880	-121.392	-0.202	0.034
-306.866	800.000	0.054	-0.172
-305.851	77.274	0.017	0.018
-304.837	-107.170	0.213	-0.047
-303.822	-200.000	0.072	0.365
-302.807	-47.193	0.090	-0.044
-301.793	-200.000	-0.001	0.436
-300.778	362.336	-0.086	0.172
-299.764	188.512	-0.036	0.054
-298.749	800.000	0.112	-0.394
-297.735	98.394	0.120	-0.138
-296.720	283.457	-0.092	0.165
-295.705	-81.705	0.206	0.068
-294.691	-47.429	0.192	-0.093
-293.676	-73.340	0.178	0.065
-292.662	56.862	0.203	0.198
-291.647	-200.000	-0.020	0.114
-290.632	-113.193	-0.242	-0.048
-289.618	-200.000	-0.008	-0.170
-288.603	-200.000	-0.031	0.323
-287.589	-6.094	-0.208	-0.142
-286.574	24.621	-0.020	0.017
-285.559	482.900	-0.144	-0.326
-284.545	-58.332	-0.062	0.027
-283.530	-60.479	-0.202	0.086
-282.516	-4.579	-0.385	-0.265
-281.501	17.765	0.190	-0.151
-280.486	-44.188	0.191	-0.095
-279.472	-166.349	0.266	0.011
-278.457	26.984	-0.331	-0.278
-277.443	735.786	-0.095	-0.255
-276.428	-200.000	0.073	0.385
-275.413	-147.116	-0.053	0.004
-274.399	194.854	0.056	-0.085
-273.384	800.000	0.086	-0.302
-272.370	-22.120	0.093	0.056
-271.355	-116.933	-0.239	-0.044
-270.340	31.319	-0.122	-0.104
-269.326	342.366	0.108	-0.211
-268.311	-139.233	0.187	0.020
-267.297	308.726	0.102	-0.189
-266.282	-200.000	-0.047	-0.222
-265.267	-200.000	-0.047	-0.265
-264.253	683.666	0.053	-0.137
-263.238	800.000	0.021	0.060
-262.224	-128.898	-0.160	0.022
-261.209	-68.578	-0.072	0.028
-260.195	40.837	0.194	-0.174
-259.180	18.314	0.047	0.038
-258.165	630.819	0.070	-0.177
-257.151	-20.487	0.093	0.057
-256.136	203.014	-0.082	-0.127
-255.122	-179.197	0.282	0.006
-254.107	-11.285	-0.077	-0.050
-253.092	800.000	0.089	0.334
-252.078	207.019	-0.049	0.077
-251.063	-54.733	0.193	0.087
-250.049	-29.636	0.089	-0.051
-249.034	27.472	-0.117	0.098
-248.019	-122.905	0.145	-0.023
-247.005	-200.000	0.077	-0.359
-245.990	-21.688	0.143	0.087
-244.976	188.694	-0.110	-0.165
-243.961	-200.000	0.004	-0.092
-242.946	63.765	-0.056	-0.056
-241.932	103.800	0.297	-0.348
-240.917	420.785	0.173	-0.370
-239.903	-33.061	-0.507	0.280
-238.888	-4.224	0.395	0.273
-237.873	409.083	0.077	0.162
-236.859	333.415	-0.105	-0.203
-235.844	-163.549	0.240	0.011
-234.830	-38.683	0.095	0.050
-233.815	135.579	-0.067	-0.087
-232.800	-153.123	0.213	0.015
-231.786	-8.281	0.204	0.137
-230.771	800.000	0.094	-0.271
-229.757	260.512	-0.080	0.138
-228.742	47.909	-0.092	0.085
-227.727	800.000	-0.089	0.292
-226.713	205.113	-0.115	-0.179
-225.698	-11.432	-0.032	0.021
-224.684	210.130	-0.095	0.148
-223.669	189.732	0.101	-0.150
-222.655	259.541	-0.024	-0.041
-221.640	-109.915	-0.230	0.048
-220.625	-146.090	-0.251	-0.022
-219.611	383.941	-0.063	-0.129
-218.596	148.875	0.219	0.296
-217.582	50.244	-0.121	-0.114
-216.567	-44.002	0.210	0.105
-215.552	-200.000	-0.023	-0.278
-214.538	219.539	-0.174	0.277
-213.523	800.000	-0.041	0.161
-212.509	-7.694	0.219	-0.148
-211.494	-0.064	-0.192	0.136
-210.479	139.901	0.071	0.093
-209.465	114.100	0.195	0.236
-208.450	72.792	-0.282	0.293
-207.436	-200.000	0.043	0.265
-206.421	-24.656	-0.068	0.040
-205.406	-19.373	0.088	-0.054
-204.392	266.013	0.142	0.247
-203.377	-76.372	-0.069	0.024
-202.363	-160.482	0.232	0.012
-201.348	37.532	0.124	0.109
-200.333	47.835	-0.283	-0.263
-199.319	-108.297	-0.276	-0.059
-198.304	-111.316	0.078	0.016
-197.290	88.359	0.131	0.145
-196.275	-50.162	-0.245	0.116
-195.260	174.854	-0.165	0.238
-194.246	-88.231	0.130	0.039
-193.231	38.848	0.077	0.068
-192.217	40.356	-0.130	0.117
-191.202	-3.839	0.337	0.233
-190.187	250.733	0.141	0.238
-189.173	155.757	-0.103	-0.141
-188.158	213.102	0.067	-0.106
-187.144	192.832	0.040	0.060
-186.129	-84.158	-0.117	-0.037
-185.114	673.273	-0.056	-0.144
-184.100	-51.963	0.449	0.208
-183.085	-37.724	0.274	-0.145
-182.071	-16.277	-0.187	0.118
-181.056	-19.596	-0.363	-0.223
-180.042	-164.255	0.275	-0.013
-179.027	-3.545	0.288	-0.199
-178.012	-73.211	-0.212	0.077
-176.998	277.229	0.120	-0.211
-175.983	-161.398	-0.385	0.020
-174.969	290.503	0.064	0.116
-173.954	-200.000	-0.012	0.117
-172.939	233.702	0.174	0.285
-171.925	216.326	0.113	-0.179
-170.910	43.164	-0.089	-0.080
-169.896	-200.000	0.003	0.014
-168.881	252.413	0.025	0.042
-167.866	-13.177	0.271	-0.175
-166.852	187.325	0.045	-0.067
-165.837	-43.951	-0.279	-0.139
-164.823	-168.701	-0.167	0.006
-163.808	147.626	-0.049	-0.065
-162.793	-200.000	0.015	0.310
-161.779	-0.841	-0.218	0.153
-160.764	17.299	-0.250	-0.197
-159.750	800.000	-0.121	-0.376
-158.735	-200.000	0.071	-0.371
-157.720	405.106	0.078	-0.163
-156.706	267.382	0.137	0.239
-155.691	54.355	0.329	0.315
-154.677	-65.438	0.065	-0.026
-153.662	50.840	-0.238	-0.224
-152.647	-58.979	0.180	0.077
-151.633	-200.000	-0.011	0.340
-150.618	-50.072	-0.204	-0.096
-149.604	-200.000	-0.041	0.189
-148.589	182.689	-0.126	-0.185
-147.574	800.000	0.043	0.172
-146.560	-200.000	0.023	0.147
-145.545	-101.687	-0.187	0.045
-144.531	-34.836	-0.259	-0.140
-143.516	-83.190	-0.084	-0.027
-142.502	636.382	-0.045	-0.114
-141.487	-174.326	0.184	-0.005
-140.472	800.000	0.021	-0.071
-139.458	189.938	0.063	0.093
-138.443	-200.000	-0.037	0.302
-137.429	-122.280	0.292	0.047
-136.414	-115.745	0.204	-0.038
-135.399	-60.076	0.243	0.103
-134.385	78.980	0.328	0.349
-133.370	224.021	-0.103	-0.166
-132.356	327.037	0.110	-0.210
-131.341	-114.708	-0.101	-0.019
-130.326	183.882	-0.101	0.148
-129.312	166.209	-0.096	0.135
-128.297	261.890	0.079	-0.136
-127.283	416.604	0.112	0.237
-126.268	236.691	0.085	0.139
-125.253	347.581	0.103	-0.202
-124.239	-88.191	-0.294	0.087
-123.224	-87.271	-0.369	0.111
-122.210	-85.624	-0.131	-0.040
-121.195	229.947	-0.316	-0.513
