DTS Sentinel unit serial number:	SN413079Multiplexer serial number:	ORYXHardware model number:	OX4-SRSoftware version number:	ORYX F/W v4.00 Oryx Data Collector v3.7.2.0data status	okinstallation	princeton_trtdifferential loss correction	single-endedforward channel	channel 3reverse channel	N/Adate	2019/09/16time	17:16:35forward acquisition time	60.00reverse acquisition time	0.00gamma	496.2192k internal	0.2296k external	0.2296temperature offset calibration	0.9946default loss term (dB/km)	0.3790temperature slope calibration	1.0000multiplexer offset coefficient	1.0000multiplexer slope coefficient	1.0000fibre end	0.00T internal ref (°C)	38.87T ext. ref 1 (°C)	15.39T ext. ref 2 (°C)	32.92length (m)	temperature (°C)	Stokes	anti-Stokes-747.200	-67.244	-0.221	-0.089
-746.185	800.000	-0.139	0.404
-745.171	701.076	0.112	0.302
-744.156	-24.319	0.179	0.109
-743.142	-200.000	0.025	0.487
-742.127	-80.469	0.122	-0.042
-741.112	-138.155	0.173	0.020
-740.098	160.659	-0.164	0.234
-739.083	-7.762	-0.223	0.154
-738.069	176.610	-0.210	0.311
-737.054	-69.443	0.469	0.184
-736.039	331.507	-0.205	0.403
-735.025	191.275	0.073	-0.112
-734.010	-19.198	-0.178	0.113
-732.996	76.553	0.280	-0.303
-731.981	792.590	-0.042	0.119
-730.966	-137.459	-0.250	-0.029
-729.952	125.569	0.174	-0.224
-728.937	-200.000	0.008	0.058
-727.923	-200.000	0.042	0.195
-726.908	287.955	0.036	-0.067
-725.894	154.260	-0.229	-0.321
-724.879	-49.545	-0.387	0.188
-723.864	555.583	-0.147	0.361
-722.850	-200.000	-0.020	0.167
-721.835	54.345	-0.226	0.222
-720.821	-200.000	-0.021	-0.272
-719.806	-200.000	0.010	-0.378
-718.791	-130.226	-0.287	0.040
-717.777	12.366	-0.113	0.089
-716.762	499.412	-0.151	-0.355
-715.748	-200.000	0.011	0.063
-714.733	241.729	-0.037	0.062
-713.718	-200.000	-0.024	-0.157
-712.704	-46.853	-0.361	-0.180
-711.689	254.225	0.097	-0.169
-710.675	-115.069	0.216	-0.042
-709.660	8.434	-0.234	0.180
-708.645	-114.068	0.197	0.039
-707.631	-142.356	0.290	0.029
-706.616	408.804	-0.085	-0.183
-705.602	284.511	0.166	0.305
-704.587	94.476	0.089	-0.103
-703.572	165.480	0.078	0.112
-702.558	38.142	-0.133	-0.121
-701.543	201.755	-0.117	0.184
-700.529	30.643	-0.107	-0.093
-699.514	-35.211	-0.214	-0.119
-698.499	192.007	0.041	0.063
-697.485	138.837	-0.130	0.174
-696.470	-30.915	-0.131	-0.075
-695.456	52.579	0.048	0.046
-694.441	-51.216	0.328	0.157
-693.426	241.660	-0.083	0.141
-692.412	-51.484	0.116	0.055
-691.397	-200.000	0.008	-0.195
-690.383	141.622	0.286	0.386
-689.368	188.553	0.060	0.091
-688.354	-99.784	-0.160	-0.041
-687.339	-4.281	-0.411	-0.290
-686.324	-152.691	-0.408	-0.030
-685.310	-200.000	0.006	0.275
-684.295	-10.553	-0.066	0.044
-683.281	-133.985	-0.097	-0.012
-682.266	72.176	0.166	0.176
-681.251	-154.717	-0.236	0.016
-680.237	266.236	-0.138	0.246
-679.222	54.698	-0.084	-0.082
-678.208	235.419	0.163	0.275
-677.193	27.489	0.330	0.283
-676.178	800.000	-0.037	-0.155
-675.164	66.443	-0.327	-0.339
-674.149	-41.183	0.144	-0.076
-673.135	113.517	-0.207	-0.257
-672.120	24.179	-0.143	-0.120
-671.105	-200.000	0.038	0.228
-670.091	800.000	-0.023	0.070
-669.076	-80.025	0.422	0.144
-668.062	-138.029	-0.177	0.020
-667.047	7.732	-0.066	0.051
-666.032	130.829	0.212	-0.276
-665.018	70.425	-0.090	0.095
-664.003	-200.000	0.020	-0.132
-662.989	-200.000	-0.033	0.344
-661.974	99.894	0.210	-0.247
-660.959	-32.191	-0.265	0.151
-659.945	119.121	0.072	-0.090
-658.930	-97.072	0.547	0.146
-657.916	-19.357	0.253	0.160
-656.901	-22.662	0.210	0.129
-655.886	-32.259	-0.138	-0.079
-654.872	-65.676	-0.086	-0.035
-653.857	115.115	0.122	-0.151
-652.843	-200.000	0.000	0.261
-651.828	-200.000	-0.003	0.078
-650.814	361.532	0.118	0.241
-649.799	-140.004	-0.132	0.014
-648.784	-0.485	-0.123	0.089
-647.770	-133.953	-0.192	-0.024
-646.755	590.753	0.071	-0.179
-645.741	7.346	0.445	0.338
-644.726	-76.862	-0.280	-0.100
-643.711	-48.550	-0.119	0.058
-642.697	180.868	-0.179	0.268
-641.682	-200.000	0.011	-0.197
-640.668	800.000	-0.049	-0.214
-639.653	-37.456	0.141	-0.077
-638.638	111.599	0.121	-0.148
-637.624	-97.684	0.217	-0.057
-636.609	-163.759	-0.206	-0.010
-635.595	-200.000	-0.059	0.369
-634.580	800.000	0.055	-0.199
-633.565	137.286	-0.048	0.064
-632.551	-37.092	-0.231	0.126
-631.536	-64.987	0.204	0.084
-630.522	-74.400	-0.361	-0.132
-629.507	289.944	0.069	-0.127
-628.492	-200.000	0.021	-0.107
-627.478	-75.801	-0.320	-0.115
-626.463	73.590	0.163	0.174
-625.449	190.596	0.204	0.311
-624.434	-200.000	-0.030	0.232
-623.419	-140.299	-0.369	-0.039
-622.405	-99.437	-0.304	0.078
-621.390	618.061	0.096	-0.245
-620.376	-11.607	-0.099	-0.066
-619.361	-54.626	-0.216	-0.099
-618.346	-200.000	-0.062	-0.377
-617.332	56.803	-0.099	-0.098
-616.317	-200.000	-0.019	-0.279
-615.303	48.414	-0.098	-0.093
-614.288	-42.911	0.365	-0.188
-613.273	93.276	0.145	0.167
-612.259	497.675	-0.150	0.352
-611.244	800.000	-0.035	0.125
-610.230	-161.083	-0.520	-0.028
-609.215	-82.725	-0.264	-0.087
-608.201	588.226	-0.136	-0.339
-607.186	-8.537	-0.186	0.127
-606.171	8.609	-0.188	0.144
-605.157	276.950	-0.163	-0.294
-604.142	295.390	0.045	-0.083
-603.128	-67.289	-0.094	-0.037
-602.113	550.483	0.136	0.331
-601.098	-71.385	0.094	0.036
-600.084	5.845	0.188	0.141
-599.069	-3.992	-0.273	-0.193
-598.055	-200.000	-0.066	0.334
-597.040	63.649	0.180	-0.183
-596.025	122.505	-0.137	0.174
-595.011	117.581	-0.257	-0.322
-593.996	-11.903	-0.090	0.060
-592.982	-200.000	-0.007	0.073
-591.967	4.613	-0.190	-0.142
-590.952	245.133	-0.142	0.242
-589.938	-58.894	-0.123	-0.054
-588.923	800.000	-0.085	0.278
-587.909	323.936	0.212	0.411
-586.894	-19.528	0.067	0.042
-585.879	-200.000	0.027	0.231
-584.865	-60.186	-0.193	0.084
-583.850	-31.892	0.057	0.032
-582.836	800.000	-0.075	-0.298
-581.821	-118.384	0.160	0.029
-580.806	117.963	0.157	0.196
-579.792	-80.355	0.267	0.091
-578.777	105.135	0.273	-0.327
-577.763	800.000	0.116	0.458
-576.748	-190.986	-0.136	-0.001
-575.733	800.000	-0.018	-0.069
-574.719	30.662	0.167	-0.145
-573.704	800.000	-0.026	0.077
-572.690	254.874	-0.119	0.208
-571.675	-84.842	0.149	0.048
-570.661	-54.658	-0.337	-0.155
-569.646	-200.000	-0.009	-0.221
-568.631	-200.000	0.006	-0.036
-567.617	-57.343	0.123	0.055
-566.602	-2.777	-0.308	-0.218
-565.588	-111.962	0.173	0.035
-564.573	-123.619	0.126	0.020
-563.558	-71.357	-0.258	0.098
-562.544	-167.118	0.213	0.009
-561.529	-189.950	-0.205	0.002
-560.515	800.000	-0.042	-0.135
-559.500	-130.281	0.366	0.050
-558.485	240.058	0.137	-0.231
-557.471	160.235	0.173	-0.245
-556.456	12.258	0.266	-0.207
-555.442	-200.000	-0.009	-0.177
-554.427	-4.796	0.449	-0.314
-553.412	800.000	-0.034	0.129
-552.398	-100.991	-0.202	0.050
-551.383	80.331	0.124	0.136
-550.369	-24.146	-0.213	0.129
-549.354	172.498	-0.255	-0.372
-548.339	-189.998	-0.349	-0.004
-547.325	800.000	-0.023	-0.065
-546.310	90.268	-0.036	0.041
-545.296	405.260	0.208	0.444
-544.281	-101.492	-0.338	0.083
-543.266	47.811	-0.027	-0.025
-542.252	-50.215	0.327	0.157
-541.237	-21.254	-0.200	0.124
-540.223	-33.960	-0.112	0.062
-539.208	9.179	-0.050	-0.038
-538.193	-117.651	0.152	-0.028
-537.179	53.443	-0.198	-0.192
-536.164	-110.202	-0.334	0.071
-535.150	43.228	0.214	-0.198
-534.135	70.414	0.170	-0.178
-533.121	267.864	-0.167	0.297
-532.106	-39.961	0.489	-0.259
-531.091	-48.612	-0.031	-0.015
-530.077	-115.229	0.245	0.047
-529.062	690.682	-0.103	0.274
-528.048	-106.194	-0.296	-0.067
-527.033	-158.180	-0.217	0.013
-526.018	-33.713	0.187	-0.104
-525.004	20.770	0.183	-0.150
-523.989	629.574	0.126	0.324
-522.975	-73.890	0.155	-0.057
-521.960	14.143	-0.297	-0.234
-520.945	-200.000	0.003	-0.028
-519.931	-88.469	-0.217	0.065
-518.916	-78.428	-0.068	-0.023
-517.902	-200.000	-0.012	0.166
-516.887	605.236	0.167	-0.422
-515.872	-200.000	0.052	0.337
-514.858	76.822	0.145	-0.156
-513.843	479.978	0.044	-0.102
-512.829	39.847	0.143	-0.130
-511.814	-128.493	-0.299	-0.043
-510.799	189.572	-0.084	0.127
-509.785	800.000	-0.055	-0.243
-508.770	51.291	-0.228	0.219
-507.756	-122.091	-0.162	-0.027
-506.741	57.495	0.031	0.031
-505.726	-34.867	0.148	0.082
-504.712	-15.651	-0.141	-0.091
-503.697	-130.575	-0.524	0.072
-502.683	124.247	0.224	-0.285
-501.668	-163.611	0.586	-0.028
-500.653	800.000	0.095	0.390
-499.639	800.000	0.074	-0.253
-498.624	12.475	-0.163	-0.127
-497.610	-10.311	0.176	-0.118
-496.595	592.254	0.140	-0.349
-495.581	40.566	-0.210	0.191
-494.566	279.234	0.113	-0.204
-493.551	57.168	-0.132	-0.130
-492.537	69.840	-0.146	-0.152
-491.522	188.641	-0.123	-0.186
-490.508	13.446	-0.107	0.084
-489.493	-116.497	-0.073	0.014
-488.478	7.428	0.240	0.181
-487.464	100.086	-0.213	0.250
-486.449	-81.815	-0.132	0.044
-485.435	-155.685	0.298	0.019
-484.420	800.000	0.043	-0.133
-483.405	-127.248	0.159	-0.024
-482.391	-38.699	0.208	0.111
-481.376	-117.238	-0.211	-0.039
-480.362	537.060	0.061	0.147
-479.347	-72.993	-0.208	-0.077
-478.332	-140.391	0.457	-0.048
-477.318	800.000	-0.074	0.271
-476.303	-57.872	0.042	0.018
-475.289	-165.209	0.162	-0.007
-474.274	-164.367	0.403	0.019
-473.259	-183.381	0.411	-0.007
-472.245	98.905	-0.090	-0.105
-471.230	403.759	0.137	0.292
-470.216	110.802	0.130	0.158
-469.201	-200.000	-0.007	0.078
-468.186	-99.223	0.135	-0.034
-467.172	100.544	0.156	-0.184
-466.157	-105.406	-0.189	0.043
-465.143	-200.000	0.011	-0.163
-464.128	131.673	0.280	0.363
-463.113	-200.000	0.024	0.126
-462.099	-99.539	0.219	-0.056
-461.084	-117.598	-0.224	-0.041
-460.070	-84.794	-0.090	0.028
-459.055	-61.444	-0.156	-0.066
-458.040	132.068	-0.186	0.242
-457.026	-11.631	0.101	-0.067
-456.011	557.660	-0.112	-0.272
-454.997	-36.150	0.121	-0.066
-453.982	800.000	-0.079	0.242
-452.968	48.192	-0.285	0.270
-451.953	254.816	0.233	0.403
-450.938	624.371	-0.064	-0.163
-449.924	50.457	-0.078	-0.074
-448.909	-200.000	0.011	-0.113
-447.895	800.000	-0.032	-0.093
-446.880	23.913	0.119	-0.099
-445.865	800.000	0.087	-0.245
-444.851	110.684	-0.185	-0.225
-443.836	588.425	-0.074	-0.183
-442.822	800.000	0.145	0.423
-441.807	-23.802	0.308	0.186
-440.792	-156.919	-0.236	0.015
-439.778	-30.952	0.318	-0.181
-438.763	-119.873	0.458	-0.079
-437.749	-200.000	0.008	0.096
-436.734	-115.347	-0.235	-0.045
-435.719	-200.000	-0.043	-0.267
-434.705	-164.013	0.108	0.005
-433.690	17.384	0.145	0.116
-432.676	-113.417	0.233	0.046
-431.661	501.602	0.087	0.202
-430.646	-200.000	0.054	-0.393
-429.632	-26.103	0.135	0.080
-428.617	-100.739	0.128	0.032
-427.603	512.978	-0.074	-0.174
-426.588	435.862	-0.061	-0.133
-425.573	272.087	-0.134	0.239
-424.559	-200.000	0.009	-0.118
-423.544	31.928	0.107	0.093
-422.530	462.505	-0.093	0.209
-421.515	26.444	-0.118	0.099
-420.500	607.456	0.095	0.239
-419.486	598.432	0.144	-0.360
-418.471	61.523	-0.081	0.081
-417.457	-200.000	-0.035	-0.175
-416.442	-59.550	-0.085	0.037
-415.428	3.298	0.108	0.080
-414.413	9.644	0.210	-0.161
-413.398	602.845	0.130	0.325
-412.384	-87.456	0.158	-0.048
-411.369	-51.943	-0.323	-0.151
-410.355	800.000	-0.028	-0.099
-409.340	-200.000	-0.047	-0.211
-408.325	-78.771	0.089	0.031
-407.311	703.063	0.015	-0.041
-406.296	-200.000	0.008	0.112
-405.282	26.116	0.287	0.241
-404.267	32.087	-0.170	-0.148
-403.252	74.526	-0.026	-0.027
-402.238	-3.905	-0.057	-0.040
-401.223	-126.882	0.111	0.016
-400.209	616.964	-0.144	0.363
-399.194	32.476	0.133	-0.116
-398.179	140.292	-0.069	0.091
-397.165	-28.062	0.131	0.076
-396.150	-155.954	-0.295	0.019
-395.136	289.065	0.143	-0.262
-394.121	42.089	0.212	0.194
-393.106	-72.990	0.212	0.078
-392.092	68.241	0.318	0.328
-391.077	-44.812	-0.105	-0.053
-390.063	224.172	-0.168	0.273
-389.048	-150.993	-0.358	-0.027
-388.033	37.473	-0.169	-0.151
-387.019	15.563	-0.158	-0.125
-386.004	-135.495	-0.252	-0.030
-384.990	-18.338	-0.066	-0.041
-383.975	-69.006	0.134	0.052
-382.960	708.466	0.066	-0.177
-381.946	604.548	-0.123	0.310
-380.931	-99.604	-0.278	-0.070
-379.917	-200.000	-0.017	0.139
-378.902	-52.513	-0.307	-0.143
-377.888	-153.751	0.144	0.010
-376.873	462.525	0.099	-0.223
-375.858	-58.076	-0.143	0.063
-374.844	-200.000	-0.011	0.074
-373.829	-77.108	0.070	0.025
-372.815	-45.957	-0.077	-0.038
-371.800	-41.300	-0.126	0.065
-370.785	11.241	-0.385	0.297
-369.771	248.369	-0.062	-0.106
-368.756	-200.000	0.006	0.038
-367.742	-84.266	0.362	0.115
-366.727	-200.000	0.052	0.251
-365.712	-200.000	0.028	0.332
-364.698	-200.000	0.015	-0.088
-363.683	96.345	0.186	0.214
-362.669	-144.619	-0.064	-0.006
-361.654	38.634	-0.065	-0.058
-360.639	-200.000	0.024	0.105
-359.625	149.993	0.198	0.270
-358.610	322.682	-0.054	0.103
-357.596	800.000	0.039	0.142
-356.581	427.221	-0.147	-0.319
-355.566	-143.154	0.414	-0.040
-354.552	-185.622	0.080	-0.001
-353.537	-64.228	0.206	-0.085
-352.523	133.456	0.175	-0.227
-351.508	-98.486	-0.257	0.066
-350.493	267.764	0.188	-0.332
-349.479	-131.973	-0.262	0.034
-348.464	-25.555	0.152	-0.091
-347.450	31.948	-0.333	0.288
-346.435	85.524	0.150	-0.166
-345.420	236.132	-0.080	0.132
-344.406	-122.103	0.223	0.037
-343.391	-105.307	0.044	-0.010
-342.377	123.625	0.196	-0.247
-341.362	800.000	0.012	0.038
-340.348	-81.776	-0.321	-0.106
-339.333	-20.336	0.186	0.115
-338.318	-200.000	-0.003	-0.217
-337.304	211.744	-0.122	-0.193
-336.289	800.000	0.134	-0.466
-335.275	92.785	0.137	-0.156
-334.260	84.273	-0.127	0.140
-333.245	800.000	-0.115	0.330
-332.231	-200.000	-0.046	0.277
-331.216	80.970	0.178	0.193
-330.202	-20.321	0.287	-0.177
-329.187	-27.295	0.168	0.098
-328.172	39.599	0.068	-0.061
-327.158	-59.003	0.235	-0.102
-326.143	165.875	0.113	0.161
-325.129	379.427	-0.110	0.226
-324.114	376.357	-0.221	0.453
-323.099	28.261	0.147	0.124
-322.085	623.889	0.036	0.091
-321.070	438.188	0.122	-0.267
-320.056	170.715	-0.084	0.121
-319.041	-56.577	0.037	0.016
-318.026	319.457	0.104	-0.198
-317.012	5.751	-0.276	-0.205
-315.997	-47.362	0.144	0.070
-314.983	-23.235	0.053	-0.032
-313.968	455.391	-0.079	-0.175
-312.953	-200.000	0.026	0.346
-311.939	-84.528	-0.210	-0.066
-310.924	-200.000	0.052	-0.346
-309.910	-200.000	-0.019	-0.249
-308.895	800.000	0.052	0.157
-307.880	-200.000	0.018	-0.323
-306.866	800.000	-0.086	0.322
-305.851	-92.079	-0.036	0.010
-304.837	-67.352	-0.104	0.041
-303.822	800.000	0.062	-0.248
-302.807	-200.000	-0.020	0.244
-301.793	-200.000	0.089	0.438
-300.778	56.843	-0.075	0.073
-299.764	-167.872	0.245	-0.010
-298.749	800.000	0.017	0.052
-297.735	800.000	0.067	0.273
-296.720	-200.000	0.000	-0.302
-295.705	-200.000	0.097	0.000
-294.691	207.355	-0.173	-0.271
-293.676	-200.000	0.039	0.321
-292.662	-117.932	-0.271	0.049
-291.647	132.646	-0.216	-0.280
-290.632	108.359	-0.281	-0.336
-289.618	224.786	-0.104	0.168
-288.603	800.000	-0.036	-0.110
-287.589	192.919	-0.096	0.146
-286.574	-109.772	-0.432	0.091
-285.559	285.309	-0.017	0.031
-284.545	113.946	0.144	0.176
-283.530	131.102	-0.044	0.056
-282.516	330.886	0.073	0.142
-281.501	-163.089	-0.223	0.011
-280.486	-4.163	0.123	-0.085
-279.472	405.630	-0.116	0.246
-278.457	-155.709	0.510	-0.033
-277.443	29.330	-0.174	-0.149
-276.428	150.629	0.281	-0.383
-275.413	405.638	0.123	-0.260
-274.399	457.546	-0.112	-0.249
-273.384	-104.560	-0.231	-0.054
-272.370	-59.731	-0.107	0.046
-271.355	800.000	-0.050	0.170
-270.340	-58.829	0.192	0.083
-269.326	101.017	0.084	0.098
-268.311	-96.663	0.382	-0.101
-267.297	709.836	0.126	-0.333
-266.282	85.548	0.054	-0.060
-265.267	152.790	-0.143	-0.196
-264.253	48.221	-0.060	0.056
-263.238	-12.660	-0.220	-0.144
-262.224	494.448	0.090	-0.207
-261.209	296.763	-0.121	0.222
-260.195	800.000	-0.111	-0.339
-259.180	-130.254	0.105	0.014
-258.165	-200.000	-0.025	0.176
-257.151	-94.345	0.120	0.033
-256.136	411.967	-0.074	-0.157
-255.122	-26.044	0.115	0.068
-254.107	-104.738	0.122	-0.028
-253.092	-154.963	-0.205	-0.014
-252.078	-200.000	-0.029	0.278
-251.063	-161.738	-0.092	0.005
-250.049	-118.610	0.107	-0.019
-249.034	198.103	-0.074	-0.114
-248.019	15.602	0.269	-0.212
-247.005	-49.008	-0.232	0.111
-245.990	-200.000	-0.028	0.384
-244.976	-200.000	-0.009	0.123
-243.961	-55.537	-0.088	0.040
-242.946	800.000	0.044	-0.150
-241.932	121.917	-0.204	-0.255
-240.917	-200.000	-0.027	-0.157
-239.903	800.000	0.062	-0.181
-238.888	202.248	-0.170	0.263
-237.873	800.000	-0.093	-0.324
-236.859	437.847	0.026	-0.056
-235.844	-35.486	-0.233	0.127
-234.830	-69.760	0.181	-0.069
-233.815	-200.000	0.001	-0.334
-232.800	-58.098	0.464	-0.202
-231.786	-125.217	-0.088	0.014
-230.771	-127.665	0.193	-0.028
-229.757	280.646	0.038	-0.068
-228.742	-200.000	0.020	0.295
-227.727	-200.000	0.011	0.344
-226.713	-200.000	0.032	0.249
-225.698	-200.000	-0.014	-0.500
-224.684	203.288	0.052	-0.081
-223.669	205.954	-0.102	0.159
-222.655	-200.000	0.004	0.545
-221.640	-36.830	0.090	0.048
-220.625	-200.000	0.013	-0.079
-219.611	99.446	-0.123	-0.143
-218.596	-87.205	-0.244	0.074
-217.582	800.000	-0.054	-0.193
-216.567	0.088	-0.269	-0.192
-215.552	-200.000	-0.044	0.232
-214.538	-90.619	0.110	0.032
-213.523	388.222	0.135	0.279
-212.509	-24.985	0.151	0.090
-211.494	162.563	0.240	0.337
-210.479	428.581	0.065	0.140
-209.465	-37.290	-0.207	0.111
-208.450	315.457	-0.065	0.123
-207.436	-200.000	0.010	0.130
-206.421	800.000	0.030	-0.084
-205.406	-200.000	-0.001	-0.096
-204.392	800.000	-0.080	0.320
-203.377	800.000	0.093	0.316
-202.363	-95.544	-0.081	0.022
-201.348	-70.875	-0.139	-0.052
-200.333	37.658	-0.198	-0.176
-199.319	800.000	0.052	-0.167
-198.304	800.000	0.079	0.247
-197.290	-84.250	0.185	0.059
-196.275	95.854	-0.206	0.235
-195.260	-200.000	0.041	-0.218
-194.246	153.549	-0.048	-0.066
-193.231	0.221	-0.066	0.047
-192.217	-200.000	0.219	0.001
-191.202	469.789	-0.076	-0.170
-190.187	-152.650	0.381	-0.027
-189.173	-36.559	0.324	-0.174
-188.158	99.447	-0.095	-0.110
-187.144	48.825	-0.103	0.097
-186.129	-192.910	0.194	0.002
-185.114	157.226	0.213	0.295
-184.100	-41.195	0.130	0.067
-183.085	107.908	-0.148	-0.176
-182.071	-182.992	-0.290	0.005
-181.056	7.616	-0.140	-0.105
-180.042	257.527	0.062	0.107
-179.027	49.079	-0.091	-0.086
-178.012	56.392	-0.205	-0.199
-176.998	669.203	-0.047	-0.122
-175.983	800.000	0.071	-0.243
-174.969	654.705	0.103	-0.264
-173.954	-98.033	-0.132	0.034
-172.939	-152.462	-0.225	-0.016
-171.925	-200.000	0.027	-0.124
-170.910	-80.863	-0.309	0.102
-169.896	-200.000	0.080	0.376
-168.881	-22.867	0.294	-0.177
-167.866	741.864	0.071	-0.190
-166.852	-9.025	0.323	-0.216
-165.837	-76.463	-0.283	-0.099
-164.823	-200.000	0.003	-0.100
-163.808	-107.681	0.096	0.021
-162.793	137.049	0.042	0.054
-161.779	-38.844	-0.069	-0.036
-160.764	-200.000	0.016	0.247
-159.750	-52.856	0.152	-0.070
-158.735	-89.352	0.377	-0.111
-157.720	6.628	0.108	-0.080
-156.706	-198.917	0.251	0.001
-155.691	-1.813	-0.180	0.127
-154.677	-73.720	0.073	0.026
-153.662	-94.778	-0.104	0.028
-152.647	175.333	-0.114	0.164
-151.633	-46.584	-0.207	-0.101
-150.618	-74.560	-0.184	0.066
-149.604	-130.709	0.103	-0.014
-148.589	800.000	-0.034	0.097
-147.574	132.495	0.253	-0.326
-146.560	-200.000	0.079	0.385
-145.545	-200.000	0.020	0.218
-144.531	-200.000	0.011	0.323
-143.516	-200.000	0.023	0.257
-142.502	114.548	0.387	0.470
-141.487	332.011	-0.163	-0.313
-140.472	800.000	-0.093	-0.294
-139.458	-200.000	0.010	-0.484
-138.443	-30.291	0.137	-0.078
-137.429	-129.813	-0.197	0.027
-136.414	100.935	0.102	0.118
-135.399	298.292	0.103	0.188
-134.385	286.980	-0.202	0.363
-133.370	149.154	-0.067	-0.091
-132.356	-160.906	0.351	0.018
-131.341	431.163	-0.122	0.264
-130.326	-126.225	-0.240	-0.036
-129.312	-15.330	-0.125	-0.080
-128.297	-73.811	-0.370	0.134
-127.283	-200.000	-0.006	-0.054
-126.268	-87.874	0.364	-0.109
-125.253	417.809	-0.141	-0.301
-124.239	-92.257	-0.080	0.023
-123.224	-200.000	0.024	0.244
-122.210	26.532	-0.402	0.335
-121.195	-17.380	0.371	-0.233
-120.180	-54.166	0.179	-0.081
