DTS Sentinel unit serial number:	SN413079Multiplexer serial number:	ORYXHardware model number:	OX4-SRSoftware version number:	ORYX F/W v4.00 Oryx Data Collector v3.7.2.0data status	okinstallation	princeton_trtdifferential loss correction	single-endedforward channel	channel 3reverse channel	N/Adate	2019/09/17time	15:20:34forward acquisition time	60.00reverse acquisition time	0.00gamma	496.2192k internal	0.2294k external	0.2294temperature offset calibration	0.9955default loss term (dB/km)	0.3790temperature slope calibration	1.0000multiplexer offset coefficient	1.0000multiplexer slope coefficient	1.0000fibre end	0.00T internal ref (°C)	37.94T ext. ref 1 (°C)	0.38T ext. ref 2 (°C)	35.07length (m)	temperature (°C)	Stokes	anti-Stokes-747.200	-200.000	0.001	0.054
-746.185	-35.375	-0.135	0.075
-745.171	-72.468	0.142	-0.054
-744.156	-64.750	-0.200	-0.083
-743.142	-200.000	0.008	-0.226
-742.127	11.481	-0.288	0.225
-741.112	-56.362	-0.168	-0.076
-740.098	-200.000	0.013	0.114
-739.083	25.720	0.142	0.121
-738.069	-69.829	-0.212	-0.083
-737.054	276.638	-0.127	0.231
-736.039	-94.440	0.352	-0.098
-735.025	55.899	-0.089	-0.088
-734.010	125.882	-0.277	-0.358
-732.996	-174.273	-0.432	-0.013
-731.981	-10.381	0.118	0.080
-730.966	3.101	0.087	-0.064
-729.952	322.558	0.118	-0.230
-728.937	-200.000	-0.027	0.400
-727.923	-100.738	0.164	-0.041
-726.908	695.105	-0.084	-0.224
-725.894	-19.104	0.164	-0.104
-724.879	-42.621	-0.111	-0.058
-723.864	-78.267	-0.190	0.067
-722.850	800.000	-0.016	-0.069
-721.835	221.114	-0.075	0.123
-720.821	248.472	-0.126	-0.217
-719.806	800.000	-0.110	-0.363
-718.791	-126.588	0.235	0.036
-717.777	34.132	-0.168	-0.149
-716.762	24.793	0.073	-0.061
-715.748	800.000	0.051	-0.183
-714.733	-200.000	-0.011	-0.080
-713.718	-78.210	-0.194	-0.068
-712.704	408.283	0.064	0.139
-711.689	-112.123	0.099	-0.020
-710.675	-88.317	0.226	-0.069
-709.660	-164.557	-0.216	0.010
-708.645	-71.233	0.099	0.038
-707.631	-19.864	0.131	-0.083
-706.616	195.198	0.178	0.275
-705.602	371.014	0.100	-0.207
-704.587	402.762	-0.107	-0.230
-703.572	-200.000	-0.046	0.342
-702.558	230.934	-0.117	-0.196
-701.543	-29.459	-0.067	-0.039
-700.529	-166.109	0.323	-0.014
-699.514	732.103	-0.035	-0.096
-698.499	186.197	0.203	0.309
-697.485	-126.446	0.127	-0.019
-696.470	82.804	-0.128	0.142
-695.456	-90.105	0.131	-0.039
-694.441	-42.251	-0.191	-0.100
-693.426	-200.000	-0.066	0.382
-692.412	-114.634	-0.079	0.015
-691.397	-24.613	0.461	0.280
-690.383	-42.200	-0.055	0.028
-689.368	5.974	0.301	0.227
-688.354	149.457	0.099	0.136
-687.339	-80.881	0.149	-0.050
-686.324	93.342	0.207	0.239
-685.310	800.000	-0.036	0.157
-684.295	416.763	-0.091	-0.197
-683.281	-200.000	0.037	-0.173
-682.266	316.591	0.144	-0.277
-681.251	17.232	-0.051	-0.041
-680.237	-98.339	0.316	0.083
-679.222	-200.000	-0.128	0.616
-678.208	39.530	-0.270	-0.247
-677.193	21.369	-0.228	-0.189
-676.178	406.547	-0.047	0.101
-675.164	168.465	0.155	-0.226
-674.149	36.428	-0.309	-0.278
-673.135	-60.786	0.162	0.070
-672.120	800.000	0.021	-0.084
-671.105	-45.114	0.098	0.049
-670.091	377.340	-0.084	-0.175
-669.076	-176.441	-0.212	-0.006
-668.062	83.568	0.105	-0.117
-667.047	241.999	-0.171	-0.291
-666.032	108.378	0.092	-0.111
-665.018	-8.022	0.235	0.161
-664.003	-43.746	0.209	-0.107
-662.989	-200.000	-0.087	-0.699
-661.974	29.946	-0.168	-0.146
-660.959	800.000	0.080	-0.321
-659.945	-136.661	-0.333	0.039
-658.930	9.887	0.150	-0.116
-657.916	-200.000	0.029	-0.506
-656.901	68.770	-0.096	0.100
-655.886	145.209	0.171	0.233
-654.872	178.224	0.117	-0.174
-653.857	-36.851	0.178	-0.097
-652.843	-54.961	0.144	-0.066
-651.828	22.303	-0.098	-0.081
-650.814	-85.319	0.043	0.014
-649.799	800.000	0.044	0.146
-648.784	-17.649	-0.082	0.053
-647.770	-6.332	-0.108	-0.075
-646.755	280.654	0.161	0.294
-645.741	-200.000	0.050	0.239
-644.726	700.357	0.123	-0.329
-643.711	344.454	-0.028	0.056
-642.697	-115.189	0.331	-0.064
-641.682	-137.437	-0.364	0.042
-640.668	-200.000	-0.050	0.455
-639.653	70.677	-0.068	-0.072
-638.638	-101.669	-0.165	-0.041
-637.624	-60.473	-0.295	0.128
-636.609	-172.308	-0.240	-0.008
-635.595	253.127	-0.082	-0.143
-634.580	201.075	0.204	0.320
-633.565	282.346	0.092	0.167
-632.551	-58.096	-0.088	-0.039
-631.536	-160.075	0.137	-0.008
-630.522	64.534	0.079	0.081
-629.507	119.241	-0.142	0.179
-628.492	-135.604	0.341	0.041
-627.478	-164.276	0.338	0.016
-626.463	-50.643	-0.316	-0.152
-625.449	-200.000	-0.025	0.191
-624.434	800.000	-0.048	0.188
-623.419	-40.689	-0.160	-0.084
-622.405	135.399	0.128	-0.169
-621.390	232.608	0.072	-0.121
-620.376	-200.000	-0.013	-0.363
-619.361	-200.000	0.018	0.178
-618.346	-68.528	-0.185	0.073
-617.332	8.937	0.054	-0.041
-616.317	-37.176	-0.172	-0.093
-615.303	-200.000	-0.016	-0.140
-614.288	161.513	-0.121	0.172
-613.273	-151.498	-0.117	-0.009
-612.259	-1.408	-0.209	0.150
-611.244	-148.225	0.349	0.029
-610.230	800.000	-0.063	0.280
-609.215	166.630	-0.090	0.130
-608.201	-50.250	-0.495	-0.238
-607.186	100.253	-0.011	-0.013
-606.171	-200.000	0.055	0.275
-605.157	-106.971	0.089	-0.020
-604.142	14.216	0.180	0.142
-603.128	246.185	-0.017	-0.030
-602.113	18.599	-0.120	-0.098
-601.098	-79.832	0.352	0.121
-600.084	438.451	-0.034	-0.075
-599.069	-200.000	-0.020	0.264
-598.055	162.908	-0.058	-0.083
-597.040	232.888	-0.052	0.088
-596.025	-13.098	0.257	-0.170
-595.011	183.258	-0.114	0.171
-593.996	-38.747	0.385	0.206
-592.982	9.896	-0.199	-0.153
-591.967	-8.242	0.196	-0.134
-590.952	63.490	0.006	-0.006
-589.938	-175.249	0.245	0.007
-588.923	82.980	-0.091	-0.101
-587.909	551.980	0.087	-0.213
-586.894	32.818	0.106	-0.094
-585.879	800.000	-0.055	0.163
-584.865	160.073	0.057	0.081
-583.850	179.768	-0.197	0.294
-582.836	271.008	-0.133	0.238
-581.821	-115.910	-0.178	0.034
-580.806	-72.052	-0.139	0.053
-579.792	243.392	-0.050	0.085
-578.777	111.433	0.047	-0.057
-577.763	-8.998	0.080	-0.055
-576.748	125.514	0.286	0.367
-575.733	-132.130	0.672	-0.089
-574.719	3.977	0.219	0.163
-573.704	56.033	-0.260	-0.257
-572.690	28.019	0.109	-0.093
-571.675	-200.000	-0.053	-0.332
-570.661	84.081	0.138	-0.153
-569.646	-44.626	-0.358	-0.182
-568.631	-91.358	0.139	-0.040
-567.617	519.214	-0.044	-0.106
-566.602	741.651	-0.005	-0.014
-565.588	-174.199	0.284	-0.008
-564.573	114.188	0.380	0.469
-563.558	-101.877	-0.189	-0.046
-562.544	-65.243	-0.120	0.049
-561.529	-68.436	0.028	-0.011
-560.515	-79.974	-0.082	0.028
-559.500	-88.640	-0.220	0.066
-558.485	-200.000	-0.023	-0.131
-557.471	-129.233	0.217	0.031
-556.456	-64.935	0.240	-0.098
-555.442	0.318	-0.104	0.075
-554.427	-200.000	0.057	0.309
-553.412	129.809	0.203	-0.264
-552.398	-200.000	0.003	-0.077
-551.383	20.762	-0.222	-0.182
-550.369	-31.577	-0.268	-0.153
-549.354	92.991	0.110	0.126
-548.339	486.262	0.128	0.296
-547.325	-158.054	-0.352	-0.021
-546.310	-49.903	0.471	-0.227
-545.296	138.128	-0.257	0.342
-544.281	-200.000	-0.022	0.204
-543.266	-92.718	-0.199	0.056
-542.252	-158.975	-0.276	-0.016
-541.237	635.422	0.065	-0.167
-540.223	-200.000	-0.029	-0.291
-539.208	-186.744	-0.205	-0.003
-538.193	-172.944	-0.183	0.006
-537.179	-70.480	-0.062	-0.024
-536.164	138.504	-0.048	0.064
-535.150	-200.000	0.029	0.249
-534.135	200.162	0.091	0.142
-533.121	730.459	-0.111	-0.301
-532.106	125.730	0.112	0.144
-531.091	-62.407	-0.214	0.090
-530.077	-200.000	-0.032	0.264
-529.062	-200.000	-0.025	0.137
-528.048	-134.374	-0.327	-0.041
-527.033	88.609	-0.153	-0.172
-526.018	46.577	0.088	0.083
-525.004	37.794	0.218	0.196
-523.989	-13.355	0.117	0.077
-522.975	800.000	0.024	0.098
-521.960	-200.000	0.013	-0.080
-520.945	395.630	-0.150	-0.318
-519.931	228.698	-0.036	0.059
-518.916	-44.063	-0.380	-0.194
-517.902	68.451	0.014	-0.015
-516.887	30.045	-0.164	-0.142
-515.872	-200.000	-0.008	0.388
-514.858	466.959	0.008	0.018
-513.843	-51.965	0.416	-0.196
-512.829	-70.705	-0.166	0.063
-511.814	-200.000	-0.044	0.278
-510.799	-41.568	-0.201	-0.105
-509.785	0.930	0.170	0.124
-508.770	-200.000	-0.019	0.110
-507.756	215.996	0.111	-0.179
-506.741	-39.653	0.114	0.060
-505.726	-126.082	-0.067	-0.010
-504.712	-200.000	0.048	0.314
-503.697	126.530	-0.106	-0.136
-502.683	261.642	-0.167	-0.294
-501.668	-106.755	-0.055	0.012
-500.653	-200.000	-0.015	-0.368
-499.639	-61.934	0.118	0.050
-498.624	437.196	0.125	-0.277
-497.610	194.679	-0.173	0.266
-496.595	-120.317	0.390	0.067
-495.581	1.619	0.162	-0.118
-494.566	-200.000	-0.026	-0.196
-493.551	-61.906	-0.216	-0.092
-492.537	-127.802	-0.107	0.016
-491.522	-200.000	0.043	-0.517
-490.508	-49.401	0.160	0.077
-489.493	147.817	0.080	0.109
-488.478	144.313	0.236	-0.319
-487.464	77.127	0.158	-0.170
-486.449	164.533	0.122	-0.174
-485.435	-11.307	-0.154	-0.103
-484.420	65.077	0.080	-0.081
-483.405	28.700	-0.061	-0.053
-482.391	-45.924	0.285	-0.143
-481.376	-200.000	-0.053	-0.277
-480.362	-200.000	-0.013	0.165
-479.347	-200.000	-0.027	-0.216
-478.332	-101.341	-0.179	-0.044
-477.318	62.015	0.499	-0.503
-476.303	-107.112	-0.232	0.052
-475.289	114.862	-0.164	-0.202
-474.274	-72.715	-0.201	0.075
-473.259	488.368	0.048	0.110
-472.245	-195.175	-0.085	0.001
-471.230	35.630	-0.236	-0.210
-470.216	-200.000	0.016	-0.226
-469.201	-5.070	-0.092	-0.064
-468.186	342.419	-0.093	0.184
-467.172	-200.000	0.003	0.245
-466.157	-200.000	-0.028	-0.210
-465.143	800.000	-0.063	-0.185
-464.128	-30.819	-0.205	-0.117
-463.113	23.850	0.120	-0.100
-462.099	-140.830	-0.187	0.019
-461.084	-200.000	0.001	0.240
-460.070	-200.000	0.021	-0.202
-459.055	207.259	0.117	-0.185
-458.040	-85.135	-0.139	0.044
-457.026	-30.857	-0.109	-0.062
-456.011	5.018	-0.196	0.146
-454.997	-91.660	-0.150	-0.043
-453.982	-55.896	0.250	-0.113
-452.968	-66.294	0.270	0.109
-451.953	451.887	0.086	0.193
-450.938	131.844	0.174	0.227
-449.924	800.000	-0.033	-0.128
-448.909	7.752	0.329	-0.249
-447.895	-103.944	0.200	0.047
-446.880	-200.000	0.046	0.274
-445.865	-200.000	-0.061	-0.410
-444.851	62.920	-0.215	-0.218
-443.836	83.071	0.304	-0.334
-442.822	-142.629	-0.264	0.026
-441.807	-200.000	0.012	0.223
-440.792	800.000	0.075	0.230
-439.778	181.864	-0.220	0.327
-438.763	-28.283	-0.342	-0.200
-437.749	-145.990	-0.321	0.029
-436.734	800.000	0.083	0.255
-435.719	80.444	-0.130	-0.141
-434.705	-200.000	0.005	0.135
-433.690	800.000	0.071	0.228
-432.676	-200.000	0.020	0.187
-431.661	-160.318	0.315	-0.017
-430.646	251.905	-0.178	-0.306
-429.632	423.844	0.133	0.290
-428.617	85.914	-0.185	-0.206
-427.603	-43.078	-0.054	-0.028
-426.588	-108.424	0.104	0.023
-425.573	-154.318	0.112	0.008
-424.559	-3.972	-0.301	-0.211
-423.544	-167.745	0.410	0.016
-422.530	-21.730	0.173	-0.106
-421.515	24.294	0.147	0.123
-420.500	-96.060	0.092	-0.025
-419.486	283.598	-0.089	0.162
-418.471	83.132	0.107	0.117
-417.457	-111.156	-0.069	-0.014
-416.442	-200.000	0.007	-0.077
-415.428	115.731	0.163	-0.201
-414.413	152.483	-0.049	-0.068
-413.398	-48.596	-0.045	0.022
-412.384	179.625	-0.142	-0.210
-411.369	-109.614	-0.089	0.019
-410.355	189.432	-0.069	0.104
-409.340	-151.274	-0.014	0.001
-408.325	31.916	0.275	-0.239
-407.311	-118.728	-0.228	-0.041
-406.296	314.080	0.095	-0.181
-405.282	800.000	0.084	0.246
-404.267	-200.000	-0.029	0.188
-403.252	107.554	0.197	-0.237
-402.238	186.645	-0.065	-0.097
-401.223	-200.000	-0.011	-0.077
-400.209	-84.179	-0.172	0.055
-399.194	-200.000	0.004	0.049
-398.179	-120.390	-0.200	-0.034
-397.165	304.225	0.072	-0.135
-396.150	800.000	-0.066	0.196
-395.136	-133.484	0.133	0.017
-394.121	-115.263	-0.129	0.025
-393.106	122.497	0.025	-0.032
-392.092	-79.381	-0.294	-0.100
-391.077	224.711	0.229	-0.373
-390.063	-38.171	0.358	-0.192
-389.048	-104.112	-0.222	-0.052
-388.033	356.711	-0.051	-0.103
-387.019	21.284	-0.083	0.068
-386.004	-200.000	0.035	-0.266
-384.990	0.927	0.243	0.176
-383.975	280.135	-0.164	-0.295
-382.960	800.000	-0.049	0.164
-381.946	-111.483	0.258	-0.053
-380.931	-98.080	0.206	0.053
-379.917	-186.408	0.120	0.002
-378.902	-2.877	-0.289	-0.203
-377.888	20.802	0.176	-0.144
-376.873	-95.863	-0.083	-0.022
-375.858	788.424	-0.089	-0.247
-374.844	-133.254	-0.121	-0.015
-373.829	-60.560	-0.097	-0.041
-372.815	47.664	-0.182	0.171
-371.800	123.439	-0.255	-0.323
-370.785	146.249	-0.125	-0.169
-369.771	207.760	-0.053	-0.083
-368.756	2.615	0.186	0.136
-367.742	-200.000	0.003	-0.532
-366.727	-74.927	0.114	-0.041
-365.712	-200.000	-0.040	0.260
-364.698	32.133	-0.022	0.019
-363.683	270.775	0.076	-0.134
-362.669	-54.213	0.021	-0.010
-361.654	492.867	-0.154	0.356
-360.639	800.000	0.050	0.170
-359.625	-66.283	-0.185	-0.074
-358.610	800.000	-0.014	-0.050
-357.596	-4.640	-0.171	-0.119
-356.581	-42.630	-0.214	-0.110
-355.566	-41.773	-0.171	0.089
-354.552	68.196	0.090	0.092
-353.537	800.000	-0.049	0.145
-352.523	800.000	-0.072	0.274
-351.508	166.291	0.068	0.097
-350.493	243.577	0.084	-0.142
-349.479	489.348	-0.035	-0.080
-348.464	325.562	0.136	0.261
-347.450	131.914	0.263	0.341
-346.435	-200.000	0.000	0.163
-345.420	-99.102	-0.037	-0.009
-344.406	-26.969	-0.129	-0.076
-343.391	-150.760	0.081	0.006
-342.377	-125.156	-0.133	-0.021
-341.362	91.491	-0.385	-0.435
-340.348	-200.000	-0.038	0.179
-339.333	-105.972	-0.145	-0.033
-338.318	-200.000	0.024	0.336
-337.304	-147.210	-0.248	-0.021
-336.289	-200.000	-0.023	0.123
-335.275	-126.097	-0.177	-0.027
-334.260	73.000	0.274	0.288
-333.245	0.986	0.090	-0.065
-332.231	-150.266	-0.226	0.018
-331.216	21.700	0.360	0.295
-330.202	24.833	0.168	-0.140
-329.187	-97.957	-0.191	0.050
-328.172	-12.070	0.268	-0.177
-327.158	-20.493	0.143	0.088
-326.143	-181.035	0.459	0.009
-325.129	334.155	-0.068	0.132
-324.114	-60.225	0.060	-0.026
-323.099	-200.000	0.046	0.227
-322.085	-46.887	0.414	-0.204
-321.070	-79.522	-0.135	0.046
-320.056	-200.000	-0.009	-0.234
-319.041	800.000	0.146	-0.406
-318.026	-74.148	0.226	0.082
-317.012	204.588	0.106	-0.165
-315.997	-22.948	-0.214	0.130
-314.983	-78.853	-0.124	-0.043
-313.968	72.070	0.210	0.220
-312.953	3.943	-0.195	-0.144
-311.939	-200.000	0.011	-0.233
-310.924	-200.000	-0.010	-0.085
-309.910	2.640	-0.283	0.206
-308.895	387.382	0.090	0.188
-307.880	-64.741	-0.109	0.044
-306.866	-95.916	-0.112	0.030
-305.851	129.707	-0.063	-0.081
-304.837	78.944	-0.213	0.229
-303.822	326.945	0.101	-0.195
-302.807	93.254	-0.179	0.204
-301.793	82.644	-0.066	-0.072
-300.778	43.971	0.233	-0.215
-299.764	181.215	-0.203	0.301
-298.749	70.546	-0.178	0.185
-297.735	85.604	0.097	-0.107
-296.720	-200.000	0.042	-0.272
-295.705	139.218	0.215	0.284
-294.691	321.746	-0.087	-0.166
-293.676	800.000	0.072	-0.249
-292.662	800.000	0.061	-0.188
-291.647	-32.319	0.188	0.106
-290.632	-132.984	0.123	0.016
-289.618	534.760	-0.079	-0.187
-288.603	32.941	0.280	0.243
-287.589	-200.000	0.040	-0.247
-286.574	-110.657	0.116	0.024
-285.559	114.556	-0.261	0.319
-284.545	138.637	0.130	-0.172
-283.530	-51.496	0.119	0.056
-282.516	800.000	-0.050	-0.160
-281.501	-144.279	-0.209	-0.020
-280.486	-40.911	0.232	0.121
-279.472	-107.359	0.371	0.082
-278.457	-200.000	-0.018	-0.169
-277.443	25.799	-0.099	0.083
-276.428	51.408	0.137	0.131
-275.413	800.000	0.081	-0.326
-274.399	250.240	-0.040	-0.068
-273.384	-130.091	-0.059	0.008
-272.370	-138.225	0.260	0.029
-271.355	-200.000	0.004	-0.068
-270.340	800.000	-0.069	-0.200
-269.326	241.215	-0.158	0.265
-268.311	-14.511	-0.193	0.125
-267.297	-200.000	0.018	-0.423
-266.282	8.016	0.085	-0.064
-265.267	-200.000	-0.033	-0.190
-264.253	65.012	0.204	-0.206
-263.238	257.749	0.102	0.176
-262.224	64.962	-0.080	0.081
-261.209	71.950	0.155	0.162
-260.195	196.190	0.305	0.466
-259.180	-157.844	-0.201	-0.012
-258.165	16.819	-0.284	-0.226
-257.151	180.528	-0.117	-0.172
-256.136	29.372	0.235	0.201
-255.122	84.980	-0.095	0.104
-254.107	-200.000	0.104	0.457
-253.092	-137.548	0.230	0.026
-252.078	-200.000	0.044	0.215
-251.063	800.000	0.018	0.054
-250.049	-136.156	-0.142	-0.017
-249.034	-26.770	0.095	0.056
-248.019	91.232	-0.199	-0.224
-247.005	800.000	-0.047	-0.200
-245.990	232.266	0.118	-0.194
-244.976	633.424	-0.026	0.067
-243.961	-141.597	-0.136	-0.014
-242.946	114.315	0.229	-0.280
-241.932	87.835	0.173	-0.192
-240.917	658.530	-0.025	0.065
-239.903	-73.222	0.170	-0.063
-238.888	-156.303	0.122	-0.008
-237.873	138.711	0.069	0.091
-236.859	22.945	-0.125	-0.103
-235.844	-104.189	-0.143	0.033
-234.830	-17.267	0.253	-0.160
-233.815	800.000	0.075	0.243
-232.800	-200.000	-0.053	0.400
-231.786	-101.895	-0.277	0.067
-230.771	-54.936	-0.203	0.092
-229.757	-122.095	0.225	-0.037
-228.742	-60.943	-0.214	0.091
-227.727	-73.460	0.321	0.117
-226.713	-115.279	-0.341	-0.065
-225.698	-113.711	0.173	-0.034
-224.684	-200.000	0.019	-0.195
-223.669	336.057	0.126	0.245
-222.655	-124.703	-0.115	-0.018
-221.640	242.544	-0.135	-0.226
-220.625	-165.179	0.220	-0.010
-219.611	-59.305	-0.155	0.067
-218.596	-44.823	0.279	0.139
-217.582	800.000	-0.028	0.086
-216.567	-98.505	-0.309	0.079
-215.552	-16.509	0.236	-0.150
-214.538	800.000	-0.009	-0.028
-213.523	-157.508	-0.016	-0.001
-212.509	-200.000	-0.005	0.053
-211.494	95.818	-0.056	-0.064
-210.479	366.616	-0.142	-0.287
-209.465	-200.000	0.025	-0.168
-208.450	-69.340	0.145	-0.056
-207.436	-59.022	-0.306	-0.132
-206.421	-200.000	0.028	0.192
-205.406	-200.000	0.058	0.273
-204.392	-139.266	-0.244	0.026
-203.377	-200.000	0.025	0.207
-202.363	276.692	0.078	0.139
-201.348	-47.825	-0.024	-0.011
-200.333	800.000	0.017	0.072
-199.319	-111.470	-0.085	0.017
-198.304	508.401	0.045	0.104
-197.290	-54.302	0.363	-0.165
-196.275	800.000	0.036	0.133
-195.260	-7.442	0.222	0.150
-194.246	800.000	0.018	-0.068
-193.231	-200.000	-0.016	0.552
-192.217	-82.228	0.211	0.069
-191.202	-200.000	-0.014	-0.124
-190.187	31.778	0.135	-0.116
-189.173	84.845	0.155	-0.170
-188.158	665.447	-0.054	-0.140
-187.144	-56.524	-0.167	-0.074
-186.129	2.136	0.195	-0.141
-185.114	800.000	-0.022	-0.073
-184.100	275.019	-0.059	-0.105
-183.085	150.611	-0.119	0.162
-182.071	670.373	-0.082	-0.213
-181.056	-200.000	-0.035	0.246
-180.042	-129.993	0.277	-0.038
-179.027	-119.769	-0.126	-0.022
-178.012	-97.985	-0.207	-0.053
-176.998	-81.539	-0.160	-0.053
-175.983	-200.000	-0.003	0.072
-174.969	-200.000	-0.030	-0.304
-173.954	-63.487	-0.174	-0.071
-172.939	178.914	-0.070	-0.102
-171.925	50.377	0.317	0.299
-170.910	800.000	-0.025	0.086
-169.896	800.000	0.074	-0.225
-168.881	800.000	-0.043	-0.141
-167.866	-113.700	-0.245	-0.048
-166.852	372.041	0.037	0.076
-165.837	-200.000	-0.007	0.087
-164.823	64.734	-0.212	0.213
-163.808	-200.000	-0.012	0.128
-162.793	66.973	-0.270	0.275
-161.779	-200.000	-0.060	0.343
-160.764	227.484	0.145	0.235
-159.750	-33.241	0.373	0.207
-158.735	271.369	-0.136	0.239
-157.720	-22.371	-0.215	0.130
-156.706	-63.610	-0.087	-0.036
-155.691	-200.000	-0.022	0.496
-154.677	166.936	-0.132	-0.187
-153.662	-200.000	-0.016	-0.090
-152.647	-147.882	0.257	-0.021
-151.633	-91.407	0.105	0.030
-150.618	203.401	-0.230	0.356
-149.604	-200.000	0.001	0.140
-148.589	-44.249	0.342	-0.171
-147.574	-200.000	0.039	-0.213
-146.560	368.090	-0.082	-0.165
-145.545	463.572	-0.089	0.199
-144.531	62.836	-0.207	0.207
-143.516	-200.000	-0.019	0.228
-142.502	-101.643	-0.092	0.022
-141.487	126.260	0.073	0.092
-140.472	-81.180	-0.258	-0.085
-139.458	-200.000	-0.003	-0.060
-138.443	-200.000	-0.034	0.177
-137.429	416.467	-0.165	-0.352
-136.414	334.689	-0.068	0.132
-135.399	-48.060	0.337	-0.163
-134.385	800.000	0.065	-0.203
-133.370	69.579	0.064	-0.066
-132.356	800.000	-0.088	0.300
-131.341	-46.399	-0.056	-0.028
-130.326	408.781	0.141	-0.298
-129.312	-41.232	0.136	0.070
-128.297	-200.000	-0.001	0.433
-127.283	179.131	0.075	0.110
-126.268	9.347	0.122	-0.092
-125.253	15.552	-0.080	-0.063
-124.239	800.000	-0.015	-0.049
-123.224	-200.000	-0.112	0.524
-122.210	-146.690	0.210	-0.018
