DTS Sentinel unit serial number:	SN413079Multiplexer serial number:	ORYXHardware model number:	OX4-SRSoftware version number:	ORYX F/W v4.00 Oryx Data Collector v3.7.2.0data status	okinstallation	princeton_trtdifferential loss correction	single-endedforward channel	channel 3reverse channel	N/Adate	2019/09/18time	01:16:35forward acquisition time	60.00reverse acquisition time	0.00gamma	496.2192k internal	0.2345k external	0.2345temperature offset calibration	0.9948default loss term (dB/km)	0.3790temperature slope calibration	1.0000multiplexer offset coefficient	1.0000multiplexer slope coefficient	1.0000fibre end	0.00T internal ref (°C)	23.19T ext. ref 1 (°C)	0.16T ext. ref 2 (°C)	16.92length (m)	temperature (°C)	Stokes	anti-Stokes-747.200	-62.233	-0.039	-0.016
-746.185	-162.699	-0.419	-0.021
-745.171	-62.148	-0.352	-0.147
-744.156	-68.575	0.042	0.016
-743.142	-200.000	-0.009	0.289
-742.127	-200.000	0.055	0.414
-741.112	-53.356	-0.346	-0.159
-740.098	800.000	0.132	0.496
-739.083	-200.000	0.043	0.288
-738.069	-60.447	0.042	0.018
-737.054	-117.957	0.149	-0.027
-736.039	-61.226	0.050	0.021
-735.025	-116.221	0.178	-0.033
-734.010	-66.456	-0.494	-0.196
-732.996	-200.000	-0.005	-0.036
-731.981	91.290	0.107	-0.120
-730.966	135.701	-0.050	0.065
-729.952	-44.261	-0.222	0.111
-728.937	-22.668	-0.371	-0.224
-727.923	-37.570	-0.061	-0.032
-726.908	-200.000	-0.019	-0.116
-725.894	-21.195	0.080	0.049
-724.879	55.744	0.225	0.218
-723.864	800.000	-0.031	0.120
-722.850	-145.017	0.362	0.033
-721.835	-172.774	-0.078	0.002
-720.821	-54.433	-0.150	0.068
-719.806	24.034	-0.034	-0.028
-718.791	12.177	-0.121	0.093
-717.777	-28.065	-0.147	0.085
-716.762	302.139	0.053	-0.097
-715.748	-200.000	-0.005	0.087
-714.733	246.881	-0.108	-0.183
-713.718	-61.009	0.261	0.110
-712.704	-200.000	-0.013	0.102
-711.689	-121.438	-0.188	-0.031
-710.675	461.973	-0.130	-0.289
-709.660	-200.000	0.009	0.110
-708.645	11.111	-0.262	-0.200
-707.631	45.685	-0.310	-0.287
-706.616	194.884	-0.126	-0.191
-705.602	-5.055	0.055	-0.038
-704.587	411.501	-0.070	-0.148
-703.572	-200.000	-0.105	-0.543
-702.558	800.000	0.108	-0.337
-701.543	-200.000	-0.002	-0.259
-700.529	725.564	-0.081	0.216
-699.514	-61.659	0.197	-0.082
-698.499	523.880	0.067	0.158
-697.485	-29.834	-0.056	-0.032
-696.470	60.943	0.213	0.211
-695.456	-59.445	0.264	-0.113
-694.441	-200.000	-0.057	-0.384
-693.426	76.093	0.176	-0.186
-692.412	-74.149	-0.423	-0.153
-691.397	-76.605	-0.065	-0.023
-690.383	247.697	0.074	-0.125
-689.368	-21.228	0.293	0.179
-688.354	-24.452	-0.030	0.018
-687.339	-200.000	0.045	0.277
-686.324	41.894	-0.125	-0.114
-685.310	-200.000	0.024	-0.203
-684.295	140.356	0.162	-0.213
-683.281	88.782	0.264	0.293
-682.266	800.000	-0.066	-0.209
-681.251	-120.333	-0.394	-0.067
-680.237	70.128	0.048	0.050
-679.222	215.571	0.093	-0.148
-678.208	-119.159	0.132	-0.023
-677.193	-90.030	-0.198	0.058
-676.178	-140.911	0.118	-0.012
-675.164	155.976	-0.079	0.108
-674.149	-77.700	-0.349	-0.120
-673.135	-200.000	-0.079	-0.486
-672.120	-200.000	-0.047	-0.270
-671.105	-60.537	0.236	-0.100
-670.091	478.763	-0.087	-0.197
-669.076	673.631	0.082	-0.211
-668.062	-200.000	-0.096	0.437
-667.047	76.067	-0.202	-0.213
-666.032	22.957	0.197	-0.161
-665.018	800.000	-0.031	-0.133
-664.003	7.136	0.122	-0.091
-662.989	-25.032	-0.280	-0.166
-661.974	28.439	0.271	0.229
-660.959	-144.845	-0.277	-0.025
-659.945	800.000	0.018	-0.076
-658.930	204.665	-0.268	-0.415
-657.916	-82.905	-0.044	-0.014
-656.901	623.181	-0.013	-0.032
-655.886	4.645	0.234	0.172
-654.872	135.179	0.040	-0.052
-653.857	-135.559	-0.223	-0.026
-652.843	84.904	0.122	0.134
-651.828	800.000	-0.119	-0.332
-650.814	48.306	0.282	-0.263
-649.799	-93.236	-0.160	-0.044
-648.784	1.871	-0.107	0.077
-647.770	-136.090	0.342	0.040
-646.755	-48.953	-0.267	-0.128
-645.741	-10.144	0.095	-0.063
-644.726	57.192	0.271	0.264
-643.711	-88.437	0.247	-0.074
-642.697	421.298	0.163	0.348
-641.682	-4.401	0.325	0.224
-640.668	-200.000	-0.003	-0.189
-639.653	-92.435	-0.081	-0.023
-638.638	-63.742	0.467	-0.190
-637.624	328.585	0.069	-0.132
-636.609	798.403	0.046	-0.125
-635.595	-82.063	-0.182	0.059
-634.580	-74.909	0.148	-0.053
-633.565	233.446	-0.215	0.353
-632.551	5.838	-0.219	-0.161
-631.536	-200.000	0.005	0.206
-630.522	84.677	-0.195	-0.213
-629.507	609.149	0.029	0.072
-628.492	50.095	-0.185	-0.174
-627.478	-0.273	-0.180	0.127
-626.463	800.000	0.028	-0.079
-625.449	-138.730	0.196	0.021
-624.434	59.091	-0.218	-0.214
-623.419	-103.554	0.606	-0.142
-622.405	79.185	0.214	-0.228
-621.390	108.563	0.275	-0.327
-620.376	150.511	0.074	-0.100
-619.361	-200.000	0.001	-0.213
-618.346	800.000	-0.067	-0.264
-617.332	-75.684	-0.124	0.044
-616.317	51.926	-0.121	-0.115
-615.303	-200.000	0.020	-0.499
-614.288	219.789	0.087	0.139
-613.273	297.356	-0.064	-0.117
-612.259	-102.065	-0.147	0.035
-611.244	-200.000	0.008	0.059
-610.230	-200.000	-0.012	-0.225
-609.215	-113.786	-0.102	0.020
-608.201	800.000	-0.136	0.474
-607.186	-169.584	-0.306	0.011
-606.171	-200.000	0.016	0.181
-605.157	-2.778	0.194	-0.135
-604.142	-112.324	0.019	-0.004
-603.128	277.238	0.102	0.181
-602.113	358.893	0.071	0.141
-601.098	114.600	0.245	0.297
-600.084	-135.934	0.166	0.019
-599.069	-36.576	-0.390	0.209
-598.055	7.147	0.173	0.128
-597.040	-200.000	0.027	0.213
-596.025	-155.324	0.368	-0.024
-595.011	-109.904	-0.141	-0.029
-593.996	-200.000	-0.019	0.199
-592.982	-40.828	0.127	0.065
-591.967	-200.000	0.010	-0.077
-590.952	228.188	0.077	-0.124
-589.938	-57.059	-0.204	-0.089
-588.923	-0.130	0.069	0.049
-587.909	161.104	-0.174	-0.241
-586.894	23.303	-0.032	-0.026
-585.879	-17.963	0.097	-0.061
-584.865	-23.518	-0.143	-0.085
-583.850	800.000	0.042	0.137
-582.836	800.000	0.084	-0.305
-581.821	-97.342	0.246	0.064
-580.806	-110.655	-0.245	-0.050
-579.792	161.766	0.271	0.377
-578.777	20.512	0.102	-0.082
-577.763	-182.988	-0.322	0.006
-576.748	-35.435	-0.223	0.121
-575.733	708.099	0.065	0.171
-574.719	-104.896	-0.317	0.072
-573.704	800.000	-0.033	-0.120
-572.690	22.880	-0.084	0.068
-571.675	-200.000	-0.003	-0.019
-570.661	-106.259	-0.133	0.030
-569.646	287.202	-0.141	0.254
-568.631	178.516	0.223	-0.323
-567.617	-200.000	0.033	0.381
-566.602	-117.359	-0.050	0.009
-565.588	68.270	0.246	-0.251
-564.573	209.943	-0.109	0.170
-563.558	-27.497	-0.124	-0.072
-562.544	283.118	-0.047	0.083
-561.529	-102.800	0.082	-0.019
-560.515	371.058	-0.199	0.400
-559.500	142.287	-0.097	-0.127
-558.485	-70.319	-0.128	-0.048
-557.471	-136.431	0.161	-0.019
-556.456	-77.556	0.032	0.011
-555.442	-200.000	-0.013	0.169
-554.427	257.358	0.136	0.233
-553.412	-0.155	0.295	-0.208
-552.398	11.571	-0.165	-0.126
-551.383	113.632	-0.207	-0.249
-550.369	73.743	-0.135	0.141
-549.354	263.599	0.065	-0.113
-548.339	-124.866	0.363	-0.056
-547.325	565.694	-0.130	0.312
-546.310	-80.105	0.037	-0.012
-545.296	-34.715	-0.324	0.176
-544.281	-114.163	-0.253	0.049
-543.266	800.000	-0.041	0.151
-542.252	-8.850	0.235	-0.156
-541.237	-169.596	-0.203	-0.007
-540.223	195.542	0.137	0.207
-539.208	-159.338	-0.319	0.018
-538.193	-132.906	0.234	-0.030
-537.179	-200.000	0.003	-0.197
-536.164	-60.051	-0.248	0.105
-535.150	800.000	0.133	-0.407
-534.135	67.016	-0.190	0.192
-533.121	170.685	0.224	0.318
-532.106	-100.193	-0.042	-0.010
-531.091	33.791	-0.205	0.177
-530.077	-200.000	-0.142	-0.001
-529.062	800.000	0.037	-0.125
-528.048	-200.000	0.043	0.200
-527.033	-120.535	-0.209	0.035
-526.018	-23.785	-0.155	-0.092
-525.004	355.212	-0.125	0.247
-523.989	-123.852	-0.504	0.079
-522.975	-154.754	-0.267	0.018
-521.960	-200.000	0.086	0.425
-520.945	90.697	0.087	-0.097
-519.931	-163.989	0.268	-0.012
-518.916	575.906	0.091	-0.220
-517.902	483.016	-0.045	-0.102
-516.887	-99.371	-0.137	0.034
-515.872	-130.623	-0.219	0.029
-514.858	-14.846	-0.252	0.160
-513.843	543.775	0.061	-0.146
-512.829	15.587	-0.206	0.161
-511.814	-200.000	0.000	0.057
-510.799	-200.000	0.090	0.400
-509.785	19.103	0.204	-0.162
-508.770	-200.000	0.026	-0.239
-507.756	800.000	0.032	-0.119
-506.741	27.900	0.109	-0.091
-505.726	-200.000	0.029	-0.160
-504.712	800.000	-0.052	-0.170
-503.697	453.095	0.069	-0.152
-502.683	207.209	0.102	-0.158
-501.668	-200.000	-0.041	-0.398
-500.653	295.678	-0.174	-0.317
-499.639	-15.524	-0.078	-0.049
-498.624	-134.902	0.160	-0.019
-497.610	-147.913	0.358	0.030
-496.595	-200.000	-0.049	-0.328
-495.581	-200.000	-0.027	-0.386
-494.566	800.000	0.046	0.201
-493.551	-120.258	-0.359	-0.061
-492.537	-150.197	-0.235	-0.018
-491.522	-200.000	0.026	0.266
-490.508	158.884	-0.142	-0.195
-489.493	60.557	0.041	-0.041
-488.478	-200.000	0.001	0.015
-487.464	330.003	0.114	0.217
-486.449	607.379	-0.150	0.371
-485.435	-200.000	0.010	0.218
-484.420	-200.000	0.023	-0.257
-483.405	800.000	-0.068	-0.253
-482.391	-68.587	0.088	-0.034
-481.376	-137.902	0.293	-0.032
-480.362	-145.113	-0.456	0.041
-479.347	-77.301	-0.273	-0.094
-478.332	346.612	-0.090	0.176
-477.318	0.464	-0.208	0.147
-476.303	-5.476	-0.312	0.212
-475.289	289.558	0.060	-0.107
-474.274	221.841	-0.057	0.091
-473.259	-200.000	0.047	-0.222
-472.245	-115.563	0.283	-0.053
-471.230	9.175	0.214	-0.160
-470.216	-200.000	-0.043	0.252
-469.201	246.146	0.104	-0.174
-468.186	-34.608	-0.279	-0.151
-467.172	-53.030	0.298	0.136
-466.157	-45.801	-0.355	-0.174
-465.143	160.303	-0.058	-0.080
-464.128	594.348	-0.142	-0.348
-463.113	410.251	0.046	0.096
-462.099	361.118	-0.083	-0.164
-461.084	-156.868	0.077	0.005
-460.070	411.828	-0.040	0.085
-459.055	800.000	-0.042	0.180
-458.040	800.000	-0.009	0.028
-457.026	-200.000	-0.018	0.182
-456.011	-160.833	-0.146	0.008
-454.997	-111.327	-0.209	-0.042
-453.982	51.111	-0.126	-0.118
-452.968	117.131	0.140	0.170
-451.953	17.945	-0.149	0.117
-450.938	800.000	0.051	0.215
-449.924	-164.880	-0.092	-0.004
-448.909	-200.000	0.004	-0.213
-447.895	-165.164	0.093	0.004
-446.880	215.362	0.020	0.031
-445.865	-5.445	-0.196	-0.133
-444.851	85.912	-0.081	0.088
-443.836	-125.071	-0.377	0.057
-442.822	79.692	-0.039	-0.041
-441.807	16.058	0.141	0.110
-440.792	298.250	-0.036	0.065
-439.778	-20.241	-0.137	0.083
-438.763	107.825	-0.128	0.151
-437.749	561.118	-0.133	0.317
-436.734	59.150	-0.275	-0.267
-435.719	-140.136	-0.035	-0.004
-434.705	800.000	0.058	0.167
-433.690	-200.000	0.032	0.236
-432.676	197.508	-0.197	0.297
-431.661	-84.347	0.179	-0.056
-430.646	346.266	-0.133	-0.258
-429.632	-57.239	0.162	-0.070
-428.617	-71.894	0.110	0.041
-427.603	2.795	0.096	0.069
-426.588	-162.643	-0.216	0.010
-425.573	-18.949	-0.192	0.118
-424.559	737.492	-0.022	-0.059
-423.544	-78.743	-0.159	-0.054
-422.530	-92.882	-0.067	0.018
-421.515	-200.000	0.044	0.237
-420.500	-200.000	-0.056	0.250
-419.486	279.507	0.016	0.028
-418.471	-113.220	0.363	0.071
-417.457	439.893	-0.138	0.298
-416.442	64.331	-0.223	0.222
-415.428	158.708	0.242	0.332
-414.413	-137.575	0.175	0.020
-413.398	-200.000	0.024	-0.162
-412.384	-200.000	-0.032	-0.314
-411.369	-80.510	-0.322	0.106
-410.355	163.731	0.013	0.018
-409.340	26.094	0.146	0.121
-408.325	11.408	-0.131	0.099
-407.311	-124.938	0.070	0.011
-406.296	800.000	-0.073	-0.227
-405.282	52.233	0.283	0.266
-404.267	434.465	-0.027	-0.058
-403.252	-117.572	-0.094	-0.017
-402.238	649.215	0.153	-0.386
-401.223	14.923	0.088	0.068
-400.209	139.116	0.205	-0.267
-399.194	800.000	-0.077	-0.258
-398.179	57.480	-0.095	-0.092
-397.165	-200.000	0.024	-0.235
-396.150	715.225	0.111	-0.291
-395.136	-200.000	-0.010	-0.226
-394.121	239.450	-0.122	-0.201
-393.106	74.409	-0.090	-0.093
-392.092	16.973	0.138	0.108
-391.077	-34.669	-0.134	-0.072
-390.063	-200.000	-0.002	-0.127
-389.048	-6.890	0.243	0.163
-388.033	-6.755	-0.174	0.117
-387.019	-98.762	-0.029	0.007
-386.004	-200.000	0.006	0.395
-384.990	-53.789	0.373	0.168
-383.975	-10.085	-0.223	-0.146
-382.960	297.042	0.055	-0.100
-381.946	-92.235	-0.365	0.102
-380.931	49.363	0.192	-0.178
-379.917	-101.793	0.103	-0.025
-378.902	-98.635	0.178	0.045
-377.888	-70.321	0.165	-0.062
-376.873	262.492	-0.143	-0.244
-375.858	25.409	-0.173	0.142
-374.844	341.204	-0.092	-0.177
-373.829	-38.050	0.111	-0.058
-372.815	169.696	0.158	-0.223
-371.800	58.056	-0.316	-0.306
-370.785	-200.000	0.036	0.302
-369.771	-200.000	-0.047	0.468
-368.756	-51.062	0.220	0.102
-367.742	-129.512	-0.238	-0.033
-366.727	-110.561	-0.372	0.076
-365.712	-21.690	0.158	-0.095
-364.698	800.000	-0.093	0.258
-363.683	-200.000	-0.006	-0.052
-362.669	229.429	-0.215	0.345
-361.654	377.452	0.116	0.234
-360.639	800.000	-0.054	0.200
-359.625	63.871	0.067	-0.066
-358.610	-200.000	0.001	-0.060
-357.596	-131.542	-0.310	0.040
-356.581	-123.214	0.413	-0.065
-355.566	800.000	-0.028	-0.092
-354.552	-200.000	0.001	-0.079
-353.537	540.626	-0.053	0.125
-352.523	-39.208	-0.139	0.072
-351.508	-0.657	0.152	-0.106
-350.493	-87.740	-0.377	0.112
-349.479	130.093	-0.226	0.285
-348.464	800.000	-0.095	-0.371
-347.450	-111.369	0.261	0.052
-346.435	100.740	0.135	-0.154
-345.420	194.807	-0.027	0.040
-344.406	476.208	-0.052	-0.116
-343.391	-104.893	-0.265	-0.060
-342.377	334.248	-0.025	0.047
-341.362	-104.102	-0.266	0.061
-340.348	-50.005	0.240	-0.112
-339.333	9.195	-0.173	0.129
-338.318	48.688	0.047	0.044
-337.304	-77.932	-0.038	-0.013
-336.289	11.317	0.120	-0.091
-335.275	-158.320	0.136	-0.008
-334.260	-200.000	0.008	0.270
-333.245	-65.106	0.152	-0.060
-332.231	-67.556	-0.353	0.136
-331.216	51.648	0.307	0.287
-330.202	-38.168	0.097	0.051
-329.187	-200.000	0.086	-0.408
-328.172	-200.000	-0.007	-0.237
-327.158	52.958	0.092	0.087
-326.143	-20.441	0.113	0.069
-325.129	366.469	0.130	-0.259
-324.114	-62.718	-0.117	0.048
-323.099	-59.166	0.422	-0.179
-322.085	-200.000	0.009	0.074
-321.070	-31.713	0.219	-0.121
-320.056	417.090	0.026	-0.054
-319.041	13.124	0.215	-0.164
-318.026	68.489	0.125	0.126
-317.012	-200.000	-0.011	0.079
-315.997	-83.185	0.135	-0.043
-314.983	-141.387	0.121	0.012
-313.968	382.631	-0.081	0.164
-312.953	85.559	0.295	-0.319
-311.939	-200.000	-0.002	-0.081
-310.924	220.613	-0.201	-0.317
-309.910	-106.727	0.141	-0.031
-308.895	-200.000	0.021	-0.130
-307.880	-66.395	0.373	0.146
-306.866	45.148	-0.065	0.059
-305.851	6.509	0.204	0.149
-304.837	640.200	-0.123	-0.307
-303.822	608.690	-0.171	-0.419
-302.807	-34.532	-0.211	0.114
-301.793	-9.845	0.295	0.193
-300.778	706.533	0.171	0.443
-299.764	-77.151	-0.301	0.103
-298.749	20.397	0.176	0.139
-297.735	800.000	0.035	0.122
-296.720	-200.000	-0.010	-0.211
-295.705	-19.023	-0.293	-0.179
-294.691	200.443	-0.184	-0.278
-293.676	800.000	0.138	0.489
-292.662	800.000	-0.031	-0.104
-291.647	96.597	-0.255	-0.287
-290.632	-21.517	-0.330	0.198
-289.618	-200.000	-0.014	-0.333
-288.603	129.246	0.118	-0.148
-287.589	-121.353	-0.376	-0.062
-286.574	-200.000	-0.004	-0.088
-285.559	476.174	0.115	-0.256
-284.545	-80.856	0.027	0.009
-283.530	616.652	-0.096	0.237
-282.516	4.161	0.226	-0.163
-281.501	82.128	0.074	0.079
-280.486	-74.208	0.204	0.072
-279.472	-100.588	0.199	-0.048
-278.457	-44.914	-0.053	-0.026
-277.443	-51.054	-0.285	-0.131
-276.428	-37.262	-0.311	0.163
-275.413	10.695	0.113	-0.084
-274.399	-136.271	0.268	-0.031
-273.384	-53.205	-0.297	0.134
-272.370	-200.000	0.020	-0.207
-271.355	68.713	0.361	-0.364
-270.340	-142.719	-0.227	0.022
-269.326	800.000	0.032	-0.100
-268.311	219.802	-0.056	0.088
-267.297	-106.165	0.239	-0.053
-266.282	800.000	0.102	0.434
-265.267	800.000	0.051	0.173
-264.253	-158.425	0.053	-0.003
-263.238	-104.281	0.093	-0.021
-262.224	-103.450	-0.271	0.063
-261.209	301.126	0.123	0.224
-260.195	-129.726	-0.115	0.016
-259.180	-0.972	0.094	-0.065
-258.165	-200.000	0.032	0.295
-257.151	31.533	-0.068	-0.057
-256.136	530.524	0.072	0.167
-255.122	221.260	0.060	0.095
-254.107	-200.000	-0.037	-0.214
-253.092	-200.000	0.023	0.202
-252.078	778.369	-0.037	0.098
-251.063	17.243	0.143	0.111
-250.049	-200.000	0.002	-0.213
-249.034	-128.387	0.461	-0.064
-248.019	70.904	0.097	-0.099
-247.005	-16.214	0.120	0.075
-245.990	-200.000	-0.001	-0.280
-244.976	-15.691	-0.214	0.134
-243.961	97.312	0.271	-0.305
-242.946	185.440	-0.115	0.168
-241.932	-78.223	0.197	0.067
-240.917	-163.553	0.519	0.024
-239.903	177.852	-0.015	-0.022
-238.888	-200.000	0.011	0.277
-237.873	128.847	0.154	-0.192
-236.859	-113.374	0.335	-0.064
-235.844	758.654	-0.107	0.285
-234.830	-37.643	0.236	0.123
-233.815	41.631	-0.178	0.158
-232.800	800.000	-0.043	-0.142
-231.786	-200.000	0.046	-0.390
-230.771	-95.727	-0.195	0.051
-229.757	-147.969	-0.186	-0.015
-228.742	33.084	0.170	-0.144
-227.727	15.899	-0.316	0.244
-226.713	126.076	-0.179	0.221
-225.698	79.217	0.143	-0.150
-224.684	-34.293	-0.148	-0.080
-223.669	216.753	0.030	0.047
-222.655	-29.281	-0.116	-0.065
-221.640	-200.000	-0.003	-0.324
-220.625	59.668	0.187	0.181
-219.611	-16.098	-0.072	0.045
-218.596	230.374	0.072	-0.115
-217.582	38.079	-0.268	0.234
-216.567	-181.890	0.226	-0.004
-215.552	619.163	0.019	-0.046
-214.538	-102.975	-0.285	0.066
-213.523	-200.000	0.057	-0.261
-212.509	416.233	-0.040	-0.084
-211.494	-132.287	0.060	-0.008
-210.479	800.000	-0.078	-0.236
-209.465	800.000	0.023	0.088
-208.450	119.517	0.229	-0.278
-207.436	62.110	0.150	0.146
-206.421	-33.750	-0.443	-0.239
-205.406	-58.100	0.291	-0.124
-204.392	-22.093	0.200	-0.119
-203.377	9.065	0.070	-0.052
-202.363	113.821	0.166	-0.198
-201.348	-200.000	-0.006	0.370
-200.333	145.070	-0.038	0.049
-199.319	-200.000	0.037	0.188
-198.304	28.969	-0.323	0.268
-197.290	-200.000	0.197	-0.001
-196.275	363.533	0.082	0.161
-195.260	-21.391	0.187	-0.112
-194.246	-200.000	0.025	0.151
-193.231	-200.000	0.014	-0.079
-192.217	238.071	0.050	-0.081
-191.202	-104.517	-0.192	0.043
-190.187	800.000	-0.092	-0.308
-189.173	-200.000	-0.037	0.248
-188.158	-160.267	0.237	-0.013
-187.144	-189.824	0.112	-0.001
-186.129	800.000	-0.079	-0.294
-185.114	-131.433	0.336	-0.044
-184.100	800.000	-0.033	0.137
-183.085	-157.101	-0.140	-0.008
-182.071	-117.498	0.233	0.041
-181.056	50.891	-0.308	0.286
-180.042	-200.000	-0.003	-0.062
-179.027	311.166	0.140	0.257
-178.012	258.460	0.075	0.126
-176.998	-98.593	-0.236	0.059
-175.983	-38.735	0.059	0.030
-174.969	-8.958	0.226	0.148
-173.954	75.527	-0.218	-0.225
-172.939	-15.670	0.074	-0.046
-171.925	504.186	-0.091	-0.207
-170.910	-73.329	-0.308	0.110
-169.896	87.742	-0.110	0.120
-168.881	800.000	0.066	-0.236
-167.866	18.909	0.296	0.232
-166.852	-200.000	0.028	0.387
-165.837	225.361	0.216	-0.342
-164.823	-200.000	-0.009	0.037
-163.808	455.027	0.033	0.072
-162.793	710.160	0.031	-0.080
-161.779	-200.000	0.176	-0.000
-160.764	-200.000	-0.053	0.309
-159.750	117.490	-0.355	0.427
-158.735	-103.856	0.300	0.068
-157.720	194.094	0.312	-0.462
-156.706	-200.000	-0.068	-0.303
-155.691	104.385	0.192	-0.221
-154.677	-200.000	-0.026	-0.118
-153.662	32.074	0.175	-0.148
-152.647	-200.000	-0.005	0.133
-151.633	-16.720	0.313	0.194
-150.618	22.494	0.108	-0.087
-149.604	-200.000	-0.057	-0.271
-148.589	666.096	-0.202	-0.510
-147.574	73.747	0.094	-0.096
-146.560	21.674	0.212	-0.169
-145.545	48.938	0.210	0.192
-144.531	-200.000	0.012	-0.067
-143.516	18.438	-0.077	-0.060
-142.502	38.252	0.211	0.184
-141.487	166.779	0.139	-0.193
-140.472	-36.830	0.270	-0.142
-139.458	-200.000	-0.049	0.262
-138.443	73.153	0.149	-0.153
-137.429	142.828	0.218	0.283
-136.414	210.542	0.125	0.191
-135.399	800.000	0.044	0.126
-134.385	-28.997	0.298	0.167
-133.370	238.291	0.180	-0.292
-132.356	-200.000	-0.002	-0.393
-131.341	-144.602	-0.151	-0.014
-130.326	800.000	0.042	-0.154
-129.312	-128.918	0.143	-0.020
-128.297	-25.795	0.112	0.065
-127.283	207.917	-0.157	-0.239
-126.268	-200.000	-0.012	-0.117
-125.253	-73.413	0.521	-0.186
-124.239	-130.825	0.164	-0.021
-123.224	333.175	0.119	-0.225
-122.210	-85.315	0.245	-0.075
