DTS Sentinel unit serial number:	SN413079Multiplexer serial number:	ORYXHardware model number:	OX4-SRSoftware version number:	ORYX F/W v4.00 Oryx Data Collector v3.7.2.0data status	okinstallation	princeton_trtdifferential loss correction	single-endedforward channel	channel 3reverse channel	N/Adate	2019/09/19time	14:56:35forward acquisition time	60.00reverse acquisition time	0.00gamma	496.2192k internal	0.2315k external	0.2315temperature offset calibration	1.0009default loss term (dB/km)	0.3790temperature slope calibration	1.0000multiplexer offset coefficient	1.0000multiplexer slope coefficient	1.0000fibre end	0.00T internal ref (°C)	33.00T ext. ref 1 (°C)	1.11T ext. ref 2 (°C)	29.97length (m)	temperature (°C)	Stokes	anti-Stokes-747.200	120.861	-0.150	0.189
-746.185	800.000	-0.093	0.295
-745.171	383.883	-0.106	0.221
-744.156	752.576	-0.028	0.076
-743.142	-200.000	0.001	0.132
-742.127	800.000	-0.089	0.347
-741.112	-113.996	0.194	0.038
-740.098	318.749	-0.181	0.347
-739.083	-146.412	-0.162	-0.014
-738.069	48.427	-0.099	0.093
-737.054	-121.810	-0.243	0.041
-736.039	-10.483	0.304	0.204
-735.025	-135.463	0.105	-0.013
-734.010	-121.014	-0.194	-0.033
-732.996	405.140	-0.140	-0.300
-731.981	-200.000	-0.257	0.000
-730.966	-9.763	0.179	0.121
-729.952	156.711	0.145	-0.203
-728.937	-21.622	-0.177	0.109
-727.923	800.000	0.070	0.208
-726.908	-200.000	-0.011	0.063
-725.894	-40.447	-0.139	0.073
-724.879	18.717	0.040	-0.033
-723.864	53.523	-0.052	0.050
-722.850	-101.099	-0.111	0.027
-721.835	-85.057	0.319	0.101
-720.821	-170.625	0.145	0.005
-719.806	365.123	-0.185	-0.378
-718.791	57.203	-0.344	0.340
-717.777	197.368	0.115	0.177
-716.762	584.367	-0.086	0.214
-715.748	-118.333	-0.195	-0.035
-714.733	50.910	0.281	-0.270
-713.718	-83.849	0.167	-0.054
-712.704	-149.301	0.480	-0.039
-711.689	189.672	-0.238	0.361
-710.675	-81.110	0.079	-0.027
-709.660	497.779	0.078	0.181
-708.645	173.212	-0.050	0.073
-707.631	800.000	0.022	0.077
-706.616	800.000	0.074	0.260
-705.602	3.419	-0.050	-0.037
-704.587	18.399	-0.093	-0.075
-703.572	-105.936	-0.135	-0.031
-702.558	61.969	-0.213	-0.215
-701.543	275.479	0.129	0.232
-700.529	106.383	-0.145	0.174
-699.514	-81.955	-0.086	-0.029
-698.499	-100.062	-0.255	-0.064
-697.485	213.154	0.109	-0.174
-696.470	800.000	0.041	0.126
-695.456	-23.535	-0.295	-0.179
-694.441	72.614	0.121	0.128
-693.426	-47.951	0.328	0.161
-692.412	-200.000	0.008	0.059
-691.397	-75.737	-0.168	-0.060
-690.383	611.422	-0.038	-0.097
-689.368	-29.948	-0.030	-0.017
-688.354	-200.000	-0.055	-0.286
-687.339	-29.461	0.162	0.094
-686.324	800.000	-0.058	0.172
-685.310	93.322	-0.181	0.207
-684.295	71.062	0.095	-0.099
-683.281	-200.000	-0.001	-0.049
-682.266	-86.945	-0.176	0.054
-681.251	-141.513	-0.241	0.025
-680.237	-193.423	0.156	0.001
-679.222	-200.000	0.005	-0.238
-678.208	54.296	-0.121	-0.118
-677.193	144.467	-0.027	0.037
-676.178	-200.000	0.028	-0.145
-675.164	125.580	-0.017	0.022
-674.149	550.359	0.064	-0.155
-673.135	-200.000	0.039	-0.186
-672.120	-156.047	0.041	-0.003
-671.105	-200.000	-0.019	-0.248
-670.091	-25.893	0.148	-0.088
-669.076	-200.000	0.012	-0.159
-668.062	632.486	-0.051	0.129
-667.047	-52.889	-0.383	-0.178
-666.032	165.349	-0.095	0.136
-665.018	-29.159	-0.092	0.053
-664.003	-35.984	-0.277	0.151
-662.989	-96.810	-0.225	-0.060
-661.974	-97.413	-0.326	0.086
-660.959	-73.066	-0.222	-0.082
-659.945	800.000	0.052	-0.189
-658.930	-200.000	0.011	-0.250
-657.916	-20.704	0.162	0.101
-656.901	169.030	0.072	-0.104
-655.886	369.447	-0.156	0.320
-654.872	-142.201	0.253	0.025
-653.857	40.128	-0.238	-0.216
-652.843	487.064	-0.120	-0.277
-651.828	-137.840	0.034	-0.004
-650.814	-51.549	0.347	0.164
-649.799	495.211	-0.056	-0.130
-648.784	-200.000	0.033	-0.158
-647.770	-200.000	-0.021	0.128
-646.755	800.000	-0.086	-0.261
-645.741	305.400	-0.093	0.174
-644.726	254.686	-0.066	0.114
-643.711	-152.097	-0.336	0.025
-642.697	-113.789	-0.392	-0.077
-641.682	228.097	0.147	0.241
-640.668	-23.930	-0.191	0.115
-639.653	15.133	-0.207	-0.164
-638.638	372.742	-0.032	0.066
-637.624	-100.182	-0.114	0.029
-636.609	-200.000	0.022	0.164
-635.595	641.208	-0.074	-0.191
-634.580	268.085	0.212	-0.375
-633.565	-28.468	0.032	0.019
-632.551	-78.446	0.179	0.062
-631.536	455.416	-0.037	-0.083
-630.522	-46.700	-0.153	0.075
-629.507	58.928	-0.066	0.065
-628.492	329.692	-0.277	-0.537
-627.478	-200.000	0.044	-0.252
-626.463	-200.000	0.005	-0.054
-625.449	-15.590	-0.090	0.058
-624.434	74.354	-0.400	-0.424
-623.419	740.482	0.061	0.166
-622.405	345.733	0.066	-0.131
-621.390	-84.730	-0.165	0.052
-620.376	217.545	-0.042	-0.067
-619.361	-200.000	-0.004	-0.041
-618.346	126.718	0.065	0.083
-617.332	-18.355	0.253	-0.160
-616.317	271.015	-0.091	-0.161
-615.303	285.775	0.018	0.033
-614.288	-70.183	0.081	0.031
-613.273	-184.202	-0.215	0.004
-612.259	-67.613	0.033	-0.013
-611.244	70.027	-0.130	0.136
-610.230	89.102	0.295	-0.332
-609.215	800.000	0.029	-0.093
-608.201	96.134	0.154	0.177
-607.186	207.366	-0.102	-0.160
-606.171	-13.994	-0.292	0.190
-605.157	-65.757	-0.136	-0.055
-604.142	-44.490	0.317	0.160
-603.128	24.012	-0.114	-0.095
-602.113	62.199	0.049	0.049
-601.098	-200.000	-0.014	0.070
-600.084	-200.000	-0.066	0.465
-599.069	800.000	-0.130	0.432
-598.055	-56.295	0.101	-0.045
-597.040	-172.514	-0.317	0.010
-596.025	30.548	0.104	0.090
-595.011	800.000	0.060	0.256
-593.996	-79.253	-0.391	0.134
-592.982	-24.141	-0.239	-0.144
-591.967	16.462	-0.168	-0.134
-590.952	-26.829	0.138	-0.081
-589.938	483.663	-0.046	-0.104
-588.923	-159.680	0.085	-0.005
-587.909	800.000	0.059	0.249
-586.894	-200.000	0.009	0.218
-585.879	-70.284	0.192	0.074
-584.865	4.122	-0.123	-0.091
-583.850	-119.906	0.152	-0.026
-582.836	-129.317	0.242	0.034
-581.821	-200.000	-0.005	-0.202
-580.806	-59.914	-0.156	-0.067
-579.792	-57.072	-0.109	0.048
-578.777	-116.318	0.164	0.031
-577.763	-200.000	-0.028	0.138
-576.748	587.387	-0.018	-0.045
-575.733	69.903	0.244	-0.253
-574.719	-200.000	-0.067	-0.333
-573.704	29.512	-0.266	-0.227
-572.690	145.693	0.264	-0.355
-571.675	-90.262	-0.222	-0.065
-570.661	-137.976	0.068	0.008
-569.646	-108.765	-0.152	0.033
-568.631	800.000	-0.031	0.121
-567.617	-23.909	-0.026	-0.015
-566.602	743.395	-0.070	0.190
-565.588	-200.000	-0.030	-0.323
-564.573	-161.083	-0.208	-0.011
-563.558	269.052	-0.089	-0.157
-562.544	-115.412	-0.409	-0.078
-561.529	-133.863	0.324	0.040
-560.515	-55.662	-0.322	-0.145
-559.500	438.135	-0.074	-0.161
-558.485	-200.000	-0.031	-0.176
-557.471	-124.967	-0.295	-0.046
-556.456	74.594	0.128	0.135
-555.442	-200.000	-0.000	-0.234
-554.427	-200.000	0.018	0.343
-553.412	-29.519	-0.221	-0.127
-552.398	275.039	0.072	0.129
-551.383	800.000	-0.059	-0.204
-550.369	-200.000	-0.086	-0.460
-549.354	115.438	-0.207	-0.254
-548.339	-59.614	-0.198	0.085
-547.325	-136.722	0.058	-0.007
-546.310	67.747	-0.150	-0.154
-545.296	800.000	-0.009	-0.027
-544.281	-200.000	0.003	0.048
-543.266	-58.103	-0.385	0.169
-542.252	434.475	-0.072	-0.156
-541.237	-29.624	0.389	-0.224
-540.223	235.254	0.141	-0.234
-539.208	423.894	0.049	-0.105
-538.193	607.560	0.075	0.188
-537.179	49.319	0.065	-0.061
-536.164	579.852	0.107	-0.264
-535.150	216.405	-0.132	0.211
-534.135	5.103	-0.077	0.057
-533.121	800.000	0.138	-0.390
-532.106	-165.447	0.301	0.013
-531.091	-42.436	-0.121	-0.062
-530.077	-126.508	-0.382	-0.057
-529.062	-70.939	0.188	-0.071
-528.048	440.090	0.168	-0.369
-527.033	66.438	-0.084	0.086
-526.018	-152.363	-0.174	-0.013
-525.004	-191.789	0.103	0.001
-523.989	-137.863	-0.342	-0.038
-522.975	-13.786	0.207	-0.134
-521.960	-106.508	0.271	0.061
-520.945	-129.950	0.166	0.023
-519.931	-43.320	0.289	-0.147
-518.916	800.000	0.027	-0.097
-517.902	800.000	-0.064	-0.180
-516.887	56.330	0.210	-0.205
-515.872	157.305	0.191	-0.266
-514.858	21.328	-0.273	0.222
-513.843	202.204	0.018	-0.028
-512.829	-129.689	0.303	-0.042
-511.814	146.779	-0.179	-0.241
-510.799	350.064	-0.102	-0.202
-509.785	-11.272	-0.134	-0.089
-508.770	-64.150	0.038	0.016
-507.756	-200.000	0.029	-0.162
-506.741	-92.862	-0.143	0.040
-505.726	91.474	-0.101	-0.114
-504.712	-38.071	0.249	-0.133
-503.697	800.000	-0.038	0.111
-502.683	105.550	0.064	0.075
-501.668	800.000	0.073	-0.212
-500.653	-68.401	-0.209	0.081
-499.639	253.284	-0.097	-0.166
-498.624	-54.419	-0.095	-0.043
-497.610	-164.160	-0.228	0.011
-496.595	800.000	0.027	0.096
-495.581	-200.000	-0.024	-0.215
-494.566	7.238	-0.222	0.167
-493.551	-52.642	-0.259	0.120
-492.537	-128.535	0.136	-0.019
-491.522	-200.000	-0.001	-0.092
-490.508	-63.736	0.110	0.045
-489.493	712.425	-0.015	-0.040
-488.478	39.115	0.380	-0.341
-487.464	-105.025	-0.051	0.012
-486.449	800.000	0.032	0.096
-485.435	598.541	0.152	-0.377
-484.420	-64.655	0.151	-0.061
-483.405	-200.000	0.011	-0.077
-482.391	-7.158	-0.208	0.142
-481.376	800.000	0.079	-0.219
-480.362	-6.339	0.196	0.134
-479.347	551.558	-0.077	-0.184
-478.332	-52.416	0.281	0.131
-477.318	800.000	-0.058	0.168
-476.303	-200.000	-0.013	-0.128
-475.289	-104.354	0.122	-0.028
-474.274	248.847	0.129	0.220
-473.259	64.917	0.332	-0.336
-472.245	-34.467	0.113	-0.062
-471.230	-25.694	-0.046	-0.027
-470.216	-117.516	0.035	-0.006
-469.201	159.582	0.042	0.059
-468.186	107.530	0.030	0.036
-467.172	170.800	0.050	-0.072
-466.157	148.277	0.287	0.389
-465.143	238.015	0.267	0.444
-464.128	-200.000	0.033	-0.248
-463.113	800.000	0.084	0.294
-462.099	800.000	-0.046	0.136
-461.084	-162.383	-0.087	0.004
-460.070	-89.400	-0.350	0.103
-459.055	-67.615	-0.083	0.033
-458.040	800.000	-0.006	-0.020
-457.026	-97.308	-0.233	-0.061
-456.011	-113.767	0.082	-0.016
-454.997	-71.450	0.317	0.119
-453.982	439.905	-0.020	-0.043
-452.968	800.000	-0.052	-0.179
-451.953	143.470	-0.054	-0.072
-450.938	800.000	-0.141	-0.425
-449.924	-200.000	-0.006	0.031
-448.909	40.799	-0.278	0.251
-447.895	231.020	0.204	-0.335
-446.880	800.000	0.095	-0.350
-445.865	800.000	0.039	-0.115
-444.851	-9.652	0.253	0.169
-443.836	-106.553	-0.250	0.056
-442.822	-189.682	0.119	0.001
-441.807	677.490	0.070	0.182
-440.792	29.654	-0.151	-0.128
-439.778	-28.371	0.194	0.112
-438.763	-64.730	0.170	0.069
-437.749	-14.154	-0.314	-0.203
-436.734	-82.304	0.078	-0.025
-435.719	-65.110	0.057	-0.023
-434.705	54.413	0.104	0.100
-433.690	-25.230	-0.377	0.224
-432.676	-200.000	0.031	0.227
-431.661	286.503	0.138	0.249
-430.646	-162.668	0.289	-0.014
-429.632	-91.957	-0.166	0.047
-428.617	38.387	-0.156	-0.139
-427.603	-19.034	-0.138	0.086
-426.588	-155.943	0.138	0.009
-425.573	154.120	-0.059	-0.080
-424.559	177.851	-0.149	0.218
-423.544	-151.940	-0.259	0.019
-422.530	-128.174	-0.324	0.046
-421.515	-200.000	0.002	0.344
-420.500	-200.000	0.004	0.130
-419.486	116.453	0.281	-0.345
-418.471	-175.400	-0.172	-0.005
-417.457	68.252	-0.180	0.184
-416.442	-168.983	-0.056	0.002
-415.428	-147.902	-0.294	-0.025
-414.413	-3.574	0.099	0.069
-413.398	-200.000	-0.037	-0.194
-412.384	-70.654	0.238	-0.090
-411.369	-200.000	0.049	0.247
-410.355	-89.464	0.263	-0.077
-409.340	-141.684	-0.193	-0.019
-408.325	126.761	-0.324	0.410
-407.311	-167.681	0.269	0.011
-406.296	-10.523	0.388	-0.257
-405.282	-200.000	-0.021	0.164
-404.267	396.638	0.061	-0.127
-403.252	448.879	-0.096	-0.212
-402.238	452.117	0.060	0.132
-401.223	151.081	-0.120	-0.163
-400.209	503.491	0.026	-0.061
-399.194	-7.745	-0.304	-0.206
-398.179	-200.000	0.003	0.188
-397.165	133.540	0.310	0.401
-396.150	-14.973	-0.190	-0.122
-395.136	-16.857	0.349	0.220
-394.121	-200.000	0.010	0.185
-393.106	51.819	-0.304	0.289
-392.092	-176.040	-0.422	0.011
-391.077	-53.393	-0.122	0.056
-390.063	110.946	-0.069	-0.084
-389.048	-200.000	-0.000	-0.085
-388.033	-101.322	0.063	0.015
-387.019	584.218	-0.052	0.127
-386.004	-200.000	0.001	0.358
-384.990	43.733	-0.196	-0.179
-383.975	-158.141	-0.317	0.019
-382.960	-173.198	-0.189	0.006
-381.946	-122.954	0.329	-0.053
-380.931	-141.912	-0.089	0.009
-379.917	29.167	-0.334	-0.283
-378.902	-61.289	-0.177	0.074
-377.888	-200.000	0.066	0.304
-376.873	-104.400	-0.094	-0.022
-375.858	-200.000	-0.017	-0.101
-374.844	195.467	0.174	-0.264
-373.829	-116.338	-0.199	0.037
-372.815	-200.000	-0.044	-0.451
-371.800	-30.482	0.304	0.172
-370.785	63.022	-0.261	0.261
-369.771	77.135	0.211	0.224
-368.756	772.650	0.030	0.082
-367.742	121.966	0.128	0.159
-366.727	21.144	-0.313	0.254
-365.712	85.567	-0.072	-0.079
-364.698	-200.000	-0.046	0.307
-363.683	-200.000	-0.003	-0.066
-362.669	284.240	0.125	0.225
-361.654	105.756	-0.279	-0.330
-360.639	-200.000	0.034	0.199
-359.625	-144.414	0.229	-0.021
-358.610	-103.403	0.168	0.040
-357.596	132.192	-0.249	-0.320
-356.581	-117.551	0.158	-0.029
-355.566	-135.648	0.276	0.033
-354.552	-80.976	-0.267	-0.088
-353.537	122.164	0.101	0.126
-352.523	-70.254	0.083	0.031
-351.508	-84.909	-0.122	-0.038
-350.493	-119.731	0.272	-0.047
-349.479	-74.949	0.068	0.024
-348.464	-132.250	-0.213	0.028
-347.450	-200.000	0.004	0.185
-346.435	-200.000	0.014	0.329
-345.420	218.557	0.288	0.459
-344.406	509.336	-0.016	0.037
-343.391	-200.000	-0.002	-0.122
-342.377	-116.939	0.269	-0.049
-341.362	11.977	0.115	-0.089
-340.348	14.877	-0.162	-0.126
-339.333	-200.000	0.088	-0.543
-338.318	1.906	-0.207	-0.149
-337.304	108.911	-0.093	-0.110
-336.289	583.598	0.122	0.299
-335.275	-97.345	0.343	0.089
-334.260	-200.000	-0.034	-0.223
-333.245	800.000	-0.056	-0.217
-332.231	254.338	-0.158	0.270
-331.216	-200.000	-0.025	0.390
-330.202	442.816	-0.137	-0.299
-329.187	33.418	0.114	-0.099
-328.172	59.020	-0.070	0.068
-327.158	451.684	0.090	0.198
-326.143	-154.716	-0.376	0.025
-325.129	-103.471	0.106	0.025
-324.114	-78.308	0.221	-0.076
-323.099	-52.514	0.239	-0.110
-322.085	408.418	0.132	0.278
-321.070	-6.425	0.254	0.172
-320.056	-200.000	-0.007	0.293
-319.041	439.011	-0.023	0.049
-318.026	800.000	-0.043	-0.140
-317.012	-11.464	0.324	0.212
-315.997	458.802	-0.063	0.140
-314.983	-32.652	-0.069	-0.038
-313.968	-52.155	-0.177	0.082
-312.953	-200.000	-0.032	-0.173
-311.939	-200.000	0.020	-0.387
-310.924	116.233	0.026	0.031
-309.910	325.170	-0.104	-0.198
-308.895	-84.260	0.114	-0.036
-307.880	800.000	-0.003	-0.010
-306.866	-54.717	-0.100	0.045
-305.851	556.236	0.069	-0.167
-304.837	-31.456	-0.091	-0.051
-303.822	-172.339	0.172	0.005
-302.807	1.309	0.100	0.072
-301.793	-115.497	0.299	-0.056
-300.778	-128.767	0.202	0.028
-299.764	800.000	0.062	0.249
-298.749	-186.480	0.273	0.004
-297.735	-200.000	-0.007	-0.064
-296.720	-179.416	-0.425	-0.009
-295.705	-100.399	-0.120	0.030
-294.691	368.900	-0.069	0.140
-293.676	-200.000	-0.027	-0.203
-292.662	800.000	-0.054	-0.207
-291.647	800.000	0.078	0.309
-290.632	-138.338	0.197	-0.022
-289.618	-80.488	-0.236	-0.079
-288.603	-179.315	-0.197	0.004
-287.589	-91.744	0.167	0.047
-286.574	342.839	-0.083	-0.162
-285.559	284.308	0.077	-0.137
-284.545	-37.454	0.141	0.075
-283.530	496.031	-0.016	0.037
-282.516	440.385	-0.049	0.106
-281.501	98.933	0.083	0.096
-280.486	800.000	-0.040	0.123
-279.472	649.426	-0.097	-0.248
-278.457	22.029	-0.144	-0.117
-277.443	-120.013	0.290	0.050
-276.428	-7.209	-0.538	0.363
-275.413	21.756	-0.166	-0.135
-274.399	296.731	0.092	0.167
-273.384	-200.000	0.007	0.153
-272.370	17.103	-0.047	0.037
-271.355	-39.331	-0.377	0.197
-270.340	-92.677	-0.259	0.072
-269.326	84.977	0.110	-0.120
-268.311	-77.688	0.101	-0.035
-267.297	800.000	0.104	0.352
-266.282	117.542	0.211	-0.259
-265.267	290.725	0.179	-0.323
-264.253	-200.000	-0.001	0.040
-263.238	-139.628	0.168	0.018
-262.224	47.890	-0.208	0.193
-261.209	-200.000	0.067	-0.468
-260.195	-200.000	0.049	-0.227
-259.180	800.000	0.033	0.124
-258.165	800.000	-0.024	0.084
-257.151	172.432	-0.057	0.081
-256.136	-73.557	-0.192	-0.070
-255.122	112.668	-0.063	0.076
-254.107	800.000	-0.059	0.243
-253.092	-95.260	0.274	0.073
-252.078	-83.036	0.316	0.101
-251.063	-172.817	0.379	-0.012
-250.049	-138.840	-0.298	-0.032
-249.034	800.000	-0.050	-0.153
-248.019	134.394	0.165	-0.212
-247.005	-88.124	0.197	0.059
-245.990	800.000	0.037	0.137
-244.976	8.092	0.096	-0.071
-243.961	322.960	-0.174	0.330
-242.946	2.482	0.178	0.128
-241.932	263.099	-0.104	0.179
-240.917	-87.184	0.152	0.046
-239.903	-115.355	-0.321	-0.060
-238.888	368.026	-0.160	-0.322
-237.873	348.760	0.090	0.176
-236.859	118.552	0.235	0.288
-235.844	-93.685	0.239	0.066
-234.830	62.715	0.183	0.181
-233.815	-147.906	0.272	-0.023
-232.800	-159.774	-0.196	-0.011
-231.786	-121.009	0.368	0.061
-230.771	-74.144	-0.347	0.125
-229.757	-164.208	-0.324	-0.015
-228.742	123.831	-0.126	0.157
-227.727	-110.456	-0.202	0.042
-226.713	345.995	-0.161	-0.313
-225.698	77.052	0.158	-0.167
-224.684	-80.681	0.218	0.072
-223.669	-36.562	0.176	0.094
-222.655	90.229	-0.074	0.082
-221.640	183.854	0.247	-0.363
-220.625	697.174	0.005	-0.014
-219.611	43.758	0.142	-0.129
-218.596	800.000	0.108	0.396
-217.582	-56.310	0.315	-0.139
-216.567	-15.250	0.280	-0.178
-215.552	-53.745	-0.154	0.070
-214.538	-39.726	-0.255	-0.133
-213.523	-99.776	-0.174	0.043
-212.509	556.304	0.144	0.344
-211.494	366.899	-0.140	0.280
-210.479	79.335	-0.216	0.229
-209.465	-200.000	0.001	0.276
-208.450	-34.918	0.231	0.125
-207.436	536.869	0.108	0.255
-206.421	-0.452	-0.144	0.102
-205.406	110.118	-0.109	0.130
-204.392	800.000	0.064	0.186
-203.377	-200.000	0.009	-0.104
-202.363	-200.000	-0.048	-0.313
-201.348	-54.079	0.261	-0.118
-200.333	56.157	0.299	0.288
-199.319	125.539	-0.092	0.115
-198.304	10.482	-0.090	0.068
-197.290	-53.875	0.276	0.125
-196.275	340.362	0.124	-0.241
-195.260	800.000	-0.053	0.182
-194.246	613.386	-0.090	0.224
-193.231	800.000	-0.123	0.366
-192.217	74.247	0.053	0.055
-191.202	406.676	0.074	0.154
-190.187	79.985	0.056	-0.060
-189.173	800.000	-0.011	0.044
-188.158	800.000	-0.079	-0.293
-187.144	800.000	-0.026	-0.076
-186.129	-200.000	0.048	-0.300
-185.114	117.817	0.239	-0.292
-184.100	-200.000	-0.019	-0.143
-183.085	-7.664	0.163	0.109
-182.071	-200.000	-0.010	0.096
-181.056	-66.039	-0.181	-0.071
-180.042	96.871	-0.258	0.294
-179.027	-141.658	-0.154	0.015
-178.012	93.514	0.182	-0.205
-176.998	-39.483	-0.236	0.123
-175.983	-135.602	0.335	-0.039
-174.969	-200.000	-0.001	0.182
-173.954	639.962	0.088	-0.223
-172.939	-78.945	0.268	0.090
-171.925	370.351	0.087	0.174
-170.910	-131.123	-0.305	-0.040
-169.896	-76.412	-0.227	0.079
-168.881	85.824	0.098	0.106
-167.866	-200.000	0.010	0.214
-166.852	-135.225	0.469	-0.056
-165.837	-200.000	0.033	-0.333
-164.823	800.000	0.031	-0.092
-163.808	-113.964	0.100	-0.019
-162.793	-90.153	-0.464	0.134
-161.779	220.476	-0.096	0.152
-160.764	-60.912	0.103	0.043
-159.750	-17.531	0.030	0.019
-158.735	757.739	0.221	-0.592
-157.720	-78.608	0.363	0.123
-156.706	-78.168	0.388	0.132
-155.691	-200.000	0.051	0.395
-154.677	582.785	0.106	0.256
-153.662	-27.192	0.261	-0.151
-152.647	333.810	-0.016	0.031
-151.633	133.647	-0.078	0.099
-150.618	-13.256	0.018	0.012
-149.604	-103.265	0.300	-0.070
-148.589	-200.000	0.018	-0.115
-147.574	-200.000	-0.012	0.148
-146.560	-9.052	-0.084	0.056
-145.545	800.000	-0.075	0.213
-144.531	-37.303	0.405	0.214
-143.516	34.375	0.110	0.095
-142.502	350.793	0.037	-0.073
-141.487	-96.593	0.215	0.056
-140.472	-200.000	0.039	-0.228
-139.458	59.944	-0.170	-0.166
-138.443	157.367	-0.103	-0.141
-137.429	-32.623	0.037	-0.020
-136.414	-39.050	0.203	-0.106
-135.399	10.969	-0.275	-0.208
-134.385	104.202	-0.120	0.139
-133.370	800.000	0.070	-0.210
-132.356	800.000	-0.088	-0.295
-131.341	-200.000	0.008	-0.083
-130.326	800.000	0.099	0.299
-129.312	-77.936	-0.217	-0.074
-128.297	800.000	0.058	0.246
-127.283	-100.461	0.157	0.038
-126.268	-163.427	-0.240	0.011
-125.253	115.343	-0.104	0.126
-124.239	78.340	-0.131	0.138
-123.224	23.211	-0.126	0.102
-122.210	-42.304	0.154	-0.078
-121.195	35.266	-0.174	-0.151
