DTS Sentinel unit serial number:	SN413079Multiplexer serial number:	ORYXHardware model number:	OX4-SRSoftware version number:	ORYX F/W v4.00 Oryx Data Collector v3.7.2.0data status	okinstallation	princeton_trtdifferential loss correction	single-endedforward channel	channel 3reverse channel	N/Adate	2019/09/18time	16:16:35forward acquisition time	60.00reverse acquisition time	0.00gamma	496.2192k internal	0.2292k external	0.2292temperature offset calibration	0.9982default loss term (dB/km)	0.3790temperature slope calibration	1.0000multiplexer offset coefficient	1.0000multiplexer slope coefficient	1.0000fibre end	0.00T internal ref (°C)	38.50T ext. ref 1 (°C)	0.82T ext. ref 2 (°C)	36.49length (m)	temperature (°C)	Stokes	anti-Stokes-747.200	266.074	-0.158	-0.283
-746.185	-200.000	0.010	0.075
-745.171	27.284	0.069	-0.060
-744.156	45.746	-0.223	0.211
-743.142	510.003	-0.107	-0.254
-742.127	-200.000	-0.014	0.132
-741.112	4.492	0.261	0.196
-740.098	800.000	0.115	0.349
-739.083	800.000	-0.083	-0.327
-738.069	501.365	0.042	0.099
-737.054	-50.273	-0.202	0.098
-736.039	65.607	0.246	-0.255
-735.025	263.755	0.178	-0.317
-734.010	116.084	-0.142	-0.178
-732.996	-41.641	-0.130	0.068
-731.981	204.620	0.081	0.128
-730.966	-141.302	-0.303	-0.032
-729.952	-200.000	-0.007	0.056
-728.937	49.218	-0.171	-0.164
-727.923	800.000	-0.011	0.040
-726.908	259.992	-0.105	-0.186
-725.894	-121.735	-0.383	0.065
-724.879	-145.965	-0.282	0.026
-723.864	800.000	-0.035	-0.123
-722.850	218.253	-0.173	-0.282
-721.835	-14.790	-0.159	0.104
-720.821	-200.000	-0.038	0.238
-719.806	800.000	0.081	-0.272
-718.791	211.361	-0.036	-0.059
-717.777	-79.355	0.142	-0.049
-716.762	220.181	0.098	-0.161
-715.748	-200.000	-0.024	0.193
-714.733	-54.018	-0.317	0.147
-713.718	800.000	0.119	-0.456
-712.704	163.649	-0.254	-0.365
-711.689	-134.803	0.057	-0.007
-710.675	54.617	0.263	-0.259
-709.660	-126.159	-0.318	-0.049
-708.645	175.789	-0.029	0.043
-707.631	-200.000	-0.034	0.363
-706.616	-81.740	-0.122	0.041
-705.602	133.158	-0.044	-0.058
-704.587	-141.205	-0.361	-0.038
-703.572	-200.000	0.012	0.230
-702.558	-22.099	-0.202	0.125
-701.543	-70.976	0.481	0.185
-700.529	800.000	0.143	0.510
-699.514	25.300	0.142	0.121
-698.499	39.405	0.087	-0.079
-697.485	-149.256	0.241	-0.020
-696.470	-77.586	0.040	-0.014
-695.456	-122.971	-0.167	-0.027
-694.441	-26.716	0.094	-0.056
-693.426	-99.372	-0.206	0.053
-692.412	120.352	-0.082	0.104
-691.397	318.487	-0.079	-0.154
-690.383	-45.976	0.054	0.027
-689.368	30.937	0.264	-0.231
-688.354	-66.022	0.253	0.103
-687.339	11.077	-0.100	-0.078
-686.324	800.000	-0.085	-0.267
-685.310	16.178	0.267	0.215
-684.295	-200.000	0.016	0.186
-683.281	627.093	0.086	-0.221
-682.266	-55.563	-0.031	0.014
-681.251	-200.000	-0.002	-0.029
-680.237	800.000	-0.010	-0.040
-679.222	-89.432	-0.212	-0.064
-678.208	-62.638	-0.167	0.071
-677.193	708.612	0.146	0.393
-676.178	113.358	-0.045	0.056
-675.164	126.951	-0.205	0.266
-674.149	-31.423	0.243	-0.139
-673.135	-200.000	0.021	-0.183
-672.120	-110.171	-0.131	-0.028
-671.105	-200.000	0.014	-0.207
-670.091	800.000	-0.058	-0.257
-669.076	151.929	0.140	-0.195
-668.062	-136.520	0.350	0.041
-667.047	280.707	0.132	0.240
-666.032	-87.142	0.201	-0.062
-665.018	218.439	-0.132	-0.215
-664.003	-25.658	-0.220	-0.133
-662.989	-200.000	0.039	0.313
-661.974	156.483	-0.080	-0.112
-660.959	-200.000	0.010	0.059
-659.945	-85.787	-0.063	0.020
-658.930	177.344	0.083	-0.123
-657.916	800.000	-0.027	0.090
-656.901	-10.151	-0.137	-0.093
-655.886	800.000	-0.069	-0.204
-654.872	-200.000	0.006	-0.063
-653.857	460.528	-0.011	-0.025
-652.843	-200.000	0.004	-0.030
-651.828	-200.000	-0.032	-0.363
-650.814	-40.497	0.233	0.124
-649.799	-200.000	0.016	0.160
-648.784	800.000	0.055	0.200
-647.770	1.365	0.233	-0.171
-646.755	509.439	-0.111	0.262
-645.741	51.972	0.101	0.098
-644.726	-41.249	-0.309	-0.162
-643.711	-9.065	-0.202	-0.138
-642.697	800.000	-0.015	-0.052
-641.682	-13.684	0.412	0.272
-640.668	-148.340	-0.137	0.012
-639.653	399.550	-0.015	0.032
-638.638	-37.655	-0.150	-0.081
-637.624	70.008	0.127	0.133
-636.609	258.471	-0.136	0.239
-635.595	175.519	0.065	0.096
-634.580	-200.000	-0.012	-0.449
-633.565	-40.673	0.372	-0.197
-632.551	800.000	0.062	-0.225
-631.536	800.000	0.051	-0.176
-630.522	160.365	-0.089	-0.126
-629.507	-200.000	0.064	0.296
-628.492	-200.000	0.054	0.413
-627.478	-32.296	-0.260	0.148
-626.463	-104.905	0.077	-0.018
-625.449	800.000	-0.071	0.289
-624.434	210.387	0.032	0.052
-623.419	-36.170	0.304	-0.167
-622.405	-133.891	0.042	0.005
-621.390	245.403	-0.118	0.203
-620.376	-200.000	0.001	0.076
-619.361	93.991	0.117	0.135
-618.346	-111.503	0.085	0.018
-617.332	66.599	-0.164	0.170
-616.317	-48.770	0.069	-0.034
-615.303	-8.505	0.268	-0.183
-614.288	70.910	-0.067	0.071
-613.273	-130.705	0.047	0.006
-612.259	66.075	-0.079	-0.081
-611.244	-159.735	0.097	-0.005
-610.230	-79.109	-0.277	0.096
-609.215	83.713	-0.260	0.288
-608.201	-83.068	-0.049	-0.016
-607.186	-19.562	0.255	0.161
-606.171	-96.580	0.163	0.044
-605.157	313.429	0.145	-0.277
-604.142	-13.040	-0.171	-0.113
-603.128	-200.000	-0.095	-0.523
-602.113	-70.290	0.143	-0.055
-601.098	-57.784	0.234	0.104
-600.084	-200.000	0.036	-0.258
-599.069	-144.595	0.239	-0.022
-598.055	46.822	-0.356	-0.337
-597.040	6.103	0.094	-0.071
-596.025	-113.557	-0.144	0.029
-595.011	-200.000	0.043	0.229
-593.996	-200.000	0.015	0.300
-592.982	33.717	0.096	0.085
-591.967	260.850	0.081	-0.143
-590.952	-55.646	0.161	-0.073
-589.938	-63.351	-0.080	-0.034
-588.923	-36.410	-0.261	-0.143
-587.909	-139.479	-0.106	0.012
-586.894	800.000	-0.021	-0.060
-585.879	-140.343	0.044	0.005
-584.865	388.103	0.105	-0.222
-583.850	55.535	0.165	-0.163
-582.836	401.190	-0.142	0.304
-581.821	-105.375	-0.219	0.051
-580.806	-75.661	0.275	0.099
-579.792	-123.849	0.075	0.012
-578.777	800.000	0.071	-0.242
-577.763	800.000	-0.035	0.107
-576.748	686.367	0.158	-0.418
-575.733	22.918	0.147	-0.123
-574.719	-86.587	-0.108	-0.034
-573.704	255.585	-0.060	0.105
-572.690	-166.379	-0.272	0.012
-571.675	211.797	-0.140	-0.224
-570.661	162.310	0.041	0.059
-569.646	800.000	-0.134	-0.443
-568.631	-200.000	-0.017	-0.175
-567.617	-94.022	0.144	0.040
-566.602	-17.842	-0.078	0.049
-565.588	184.098	-0.158	-0.238
-564.573	266.175	0.060	0.106
-563.558	189.166	0.162	-0.246
-562.544	-114.617	0.200	0.039
-561.529	-200.000	-0.058	-0.374
-560.515	20.533	-0.283	-0.233
-559.500	366.313	-0.169	0.346
-558.485	156.308	-0.067	-0.094
-557.471	-127.684	-0.148	0.022
-556.456	19.136	-0.065	-0.053
-555.442	49.511	-0.062	0.059
-554.427	-183.478	-0.064	-0.001
-553.412	27.173	0.116	-0.099
-552.398	-200.000	-0.069	-0.310
-551.383	-200.000	-0.036	-0.206
-550.369	349.000	-0.115	0.231
-549.354	800.000	-0.043	0.154
-548.339	374.416	-0.058	0.120
-547.325	30.034	0.090	-0.078
-546.310	-200.000	-0.006	-0.292
-545.296	303.929	-0.161	-0.304
-544.281	-48.480	0.201	0.098
-543.266	-200.000	0.003	-0.168
-542.252	15.437	0.103	-0.082
-541.237	-139.491	-0.268	0.029
-540.223	-200.000	0.003	-0.150
-539.208	-200.000	0.011	-0.247
-538.193	154.014	-0.116	0.161
-537.179	2.865	0.152	-0.112
-536.164	-76.729	-0.097	-0.034
-535.150	-200.000	0.010	-0.204
-534.135	-200.000	-0.038	-0.192
-533.121	4.414	-0.120	-0.089
-532.106	-7.779	0.176	-0.121
-531.091	0.636	-0.141	0.102
-530.077	800.000	-0.035	-0.135
-529.062	44.734	-0.123	-0.115
-528.048	113.583	-0.123	0.151
-527.033	-200.000	0.024	-0.223
-526.018	-103.447	0.337	0.081
-525.004	-69.234	-0.307	0.120
-523.989	-70.309	-0.081	0.031
-522.975	-62.463	-0.097	0.041
-521.960	-55.744	0.282	0.128
-520.945	145.978	-0.071	-0.097
-519.931	-111.929	0.347	-0.071
-518.916	84.810	0.277	0.308
-517.902	160.570	0.034	0.048
-516.887	-23.067	0.255	0.156
-515.872	-67.322	0.254	-0.101
-514.858	-200.000	-0.017	0.284
-513.843	787.326	0.035	-0.097
-512.829	-200.000	0.018	0.093
-511.814	203.944	-0.074	-0.116
-510.799	-129.405	0.352	-0.050
-509.785	-45.870	0.211	-0.106
-508.770	508.292	0.168	-0.395
-507.756	147.450	-0.048	-0.065
-506.741	650.201	0.157	-0.407
-505.726	-96.691	-0.106	-0.028
-504.712	800.000	-0.137	0.412
-503.697	62.852	0.064	0.065
-502.683	800.000	0.045	0.136
-501.668	-200.000	-0.022	-0.174
-500.653	-200.000	-0.056	-0.343
-499.639	-70.312	0.218	0.084
-498.624	-200.000	0.013	0.217
-497.610	800.000	-0.018	-0.067
-496.595	41.251	0.354	0.325
-495.581	55.329	0.035	-0.034
-494.566	-184.131	-0.012	-0.000
-493.551	660.932	0.050	0.131
-492.537	5.258	-0.192	0.144
-491.522	-40.489	-0.453	-0.238
-490.508	-200.000	0.011	-0.051
-489.493	800.000	0.049	0.137
-488.478	58.197	0.123	0.122
-487.464	585.237	-0.105	-0.263
-486.449	-200.000	-0.024	0.313
-485.435	-35.919	-0.325	-0.178
-484.420	141.204	-0.167	0.224
-483.405	188.513	-0.209	0.317
-482.391	-200.000	0.052	0.253
-481.376	-117.114	0.292	0.054
-480.362	377.055	-0.049	-0.102
-479.347	46.769	0.238	0.224
-478.332	147.555	0.123	0.168
-477.318	-105.446	-0.169	0.039
-476.303	194.407	-0.146	0.224
-475.289	123.867	-0.128	0.162
-474.274	-109.579	0.404	-0.086
-473.259	-200.000	-0.003	-0.163
-472.245	14.856	-0.091	0.072
-471.230	238.741	-0.076	-0.129
-470.216	655.467	-0.082	-0.212
-469.201	-136.201	-0.342	0.041
-468.186	-21.350	0.240	0.148
-467.172	-114.862	-0.575	0.111
-466.157	800.000	0.051	-0.207
-465.143	82.419	0.214	0.235
-464.128	-131.520	0.330	-0.044
-463.113	75.483	-0.230	0.246
-462.099	-90.747	0.341	-0.100
-461.084	42.217	0.018	-0.016
-460.070	-200.000	0.011	-0.113
-459.055	258.163	-0.260	0.454
-458.040	-96.611	-0.026	-0.007
-457.026	-170.717	-0.325	-0.011
-456.011	1.230	0.171	-0.125
-454.997	-26.046	0.384	0.228
-453.982	151.748	-0.190	0.262
-452.968	-15.454	-0.166	-0.107
-451.953	2.259	0.165	0.120
-450.938	-124.383	0.211	0.033
-449.924	571.977	0.056	-0.138
-448.909	-76.215	-0.141	-0.050
-447.895	103.221	-0.255	0.302
-446.880	372.162	0.068	0.140
-445.865	83.136	-0.098	0.108
-444.851	-140.646	0.271	0.028
-443.836	-43.369	-0.276	0.141
-442.822	72.465	0.213	0.224
-441.807	-120.761	-0.095	0.016
-440.792	258.496	0.196	0.341
-439.778	-200.000	0.016	0.282
-438.763	-130.383	0.409	0.056
-437.749	-37.334	-0.131	0.071
-436.734	58.434	0.087	-0.086
-435.719	-181.502	0.259	-0.005
-434.705	-68.710	0.065	-0.026
-433.690	-114.463	0.069	0.013
-432.676	8.560	-0.175	-0.133
-431.661	-140.501	-0.084	0.009
-430.646	-68.027	0.127	-0.050
-429.632	-200.000	-0.021	0.104
-428.617	-200.000	0.023	0.380
-427.603	-106.145	0.119	-0.027
-426.588	-34.158	0.209	-0.116
-425.573	-28.595	0.117	-0.068
-424.559	356.402	0.185	0.373
-423.544	622.927	0.092	-0.233
-422.530	188.492	0.195	-0.295
-421.515	45.327	0.019	-0.018
-420.500	-41.563	0.155	-0.080
-419.486	-43.903	0.235	-0.120
-418.471	-200.000	0.027	-0.223
-417.457	64.684	0.202	0.206
-416.442	-127.055	-0.102	0.015
-415.428	-139.668	-0.230	0.025
-414.413	-52.777	-0.447	-0.208
-413.398	-140.809	0.358	0.037
-412.384	-67.177	0.117	0.047
-411.369	370.570	-0.025	-0.051
-410.355	-200.000	0.038	0.208
-409.340	-134.594	-0.203	-0.025
-408.325	256.528	0.064	-0.111
-407.311	43.143	0.049	-0.045
-406.296	26.568	-0.134	0.113
-405.282	800.000	0.060	-0.201
-404.267	800.000	0.064	0.199
-403.252	68.018	0.063	-0.065
-402.238	-200.000	-0.030	-0.216
-401.223	-59.068	-0.452	0.197
-400.209	-131.969	0.029	-0.004
-399.194	-125.947	0.099	0.015
-398.179	17.987	-0.128	-0.103
-397.165	-132.254	0.315	-0.041
-396.150	224.484	-0.209	0.342
-395.136	-200.000	-0.002	-0.207
-394.121	333.261	-0.065	0.128
-393.106	64.156	-0.064	0.065
-392.092	103.930	-0.199	0.236
-391.077	-94.892	-0.429	0.117
-390.063	-7.785	-0.113	0.077
-389.048	461.956	-0.096	0.216
-388.033	330.853	-0.140	-0.273
-387.019	-25.245	0.120	0.072
-386.004	166.500	0.073	0.105
-384.990	152.445	0.096	-0.132
-383.975	2.891	-0.172	-0.126
-382.960	-200.000	0.032	0.171
-381.946	45.715	-0.131	0.122
-380.931	378.450	-0.030	0.062
-379.917	800.000	0.123	-0.484
-378.902	246.445	-0.045	-0.077
-377.888	203.462	-0.149	-0.233
-376.873	-146.421	0.287	0.025
-375.858	588.613	0.061	0.150
-374.844	-122.106	-0.148	0.024
-373.829	49.624	0.133	-0.126
-372.815	800.000	-0.013	-0.041
-371.800	67.359	-0.120	-0.124
-370.785	270.983	-0.108	0.191
-369.771	-24.431	0.370	-0.223
-368.756	351.377	-0.037	0.073
-367.742	29.801	-0.134	-0.115
-366.727	-67.795	0.256	0.101
-365.712	-115.418	-0.234	-0.045
-364.698	76.090	0.190	-0.203
-363.683	-46.100	-0.404	-0.200
-362.669	9.192	0.184	-0.140
-361.654	-200.000	0.011	-0.284
-360.639	327.107	0.005	-0.009
-359.625	-200.000	-0.070	-0.442
-358.610	378.366	0.149	-0.307
-357.596	-23.015	-0.274	-0.166
-356.581	-48.843	-0.097	0.047
-355.566	-61.068	-0.160	0.068
-354.552	-115.251	-0.273	-0.052
-353.537	53.747	-0.141	0.136
-352.523	287.753	0.061	0.112
-351.508	-200.000	0.043	-0.224
-350.493	444.187	-0.103	0.228
-349.479	137.289	0.091	-0.120
-348.464	800.000	-0.053	0.206
-347.450	800.000	0.053	0.177
-346.435	-8.475	0.236	-0.160
-345.420	-200.000	0.021	-0.106
-344.406	-113.147	-0.279	0.055
-343.391	-109.098	-0.112	0.024
-342.377	652.489	0.107	-0.276
-341.362	199.827	-0.058	0.090
-340.348	123.865	-0.152	-0.192
-339.333	800.000	0.028	-0.105
-338.318	-64.636	0.325	0.133
-337.304	-87.143	-0.386	0.118
-336.289	89.041	0.053	0.059
-335.275	334.835	-0.101	-0.197
-334.260	-57.848	0.190	0.084
-333.245	-34.378	-0.104	-0.057
-332.231	-117.727	0.334	0.060
-331.216	800.000	-0.054	-0.227
-330.202	-200.000	-0.007	0.258
-329.187	-67.945	-0.116	-0.045
-328.172	-200.000	0.018	0.267
-327.158	102.727	0.112	-0.132
-326.143	-76.444	0.361	0.128
-325.129	-89.397	-0.175	-0.052
-324.114	-200.000	0.048	-0.282
-323.099	-94.887	0.103	-0.028
-322.085	79.847	0.084	0.091
-321.070	-200.000	0.005	-0.302
-320.056	209.021	-0.198	-0.313
-319.041	800.000	-0.102	0.367
-318.026	-63.837	-0.374	0.154
-317.012	-200.000	0.000	0.150
-315.997	800.000	-0.123	-0.518
-314.983	137.810	0.067	0.089
-313.968	-142.552	0.104	-0.010
-312.953	218.909	-0.225	0.362
-311.939	-49.157	-0.248	-0.119
-310.924	-45.248	-0.250	-0.125
-309.910	-59.078	-0.200	0.087
-308.895	-80.594	0.211	-0.071
-307.880	-157.974	0.256	-0.015
-306.866	800.000	-0.050	-0.174
-305.851	556.510	-0.099	0.240
-304.837	-31.903	0.172	0.097
-303.822	64.757	0.198	-0.201
-302.807	632.319	0.068	-0.174
-301.793	-200.000	0.066	-0.456
-300.778	287.046	0.107	0.195
-299.764	-173.767	-0.319	-0.010
-298.749	-49.788	0.087	-0.042
-297.735	-200.000	-0.015	0.078
-296.720	15.193	-0.171	-0.134
-295.705	800.000	-0.184	-0.583
-294.691	-109.401	0.534	0.114
-293.676	136.377	-0.095	-0.125
-292.662	75.960	-0.097	0.103
-291.647	-43.739	0.006	-0.003
-290.632	-2.429	-0.094	-0.066
-289.618	-41.385	-0.267	-0.138
-288.603	800.000	0.050	-0.175
-287.589	-93.903	0.181	0.050
-286.574	-200.000	0.056	-0.264
-285.559	165.292	-0.084	-0.120
-284.545	-111.104	-0.200	-0.041
-283.530	691.868	0.016	0.042
-282.516	-141.408	-0.258	-0.026
-281.501	770.300	0.050	0.137
-280.486	67.689	-0.042	-0.043
-279.472	769.094	-0.108	0.296
-278.457	-200.000	0.029	-0.134
-277.443	242.858	-0.073	-0.123
-276.428	-3.454	-0.136	-0.095
-275.413	-145.100	-0.287	0.026
-274.399	143.695	0.054	-0.072
-273.384	-109.201	-0.206	-0.044
-272.370	-66.850	-0.689	-0.274
-271.355	416.962	0.143	0.307
-270.340	544.873	0.212	0.508
-269.326	20.034	-0.136	0.110
-268.311	259.867	0.105	-0.181
-267.297	-200.000	-0.011	0.196
-266.282	-180.899	0.332	0.007
-265.267	161.452	0.148	0.207
-264.253	29.070	-0.209	-0.178
-263.238	-61.169	0.183	-0.077
-262.224	4.805	-0.152	0.112
-261.209	450.577	-0.135	-0.298
-260.195	-83.439	-0.317	-0.102
-259.180	26.031	0.168	-0.141
-258.165	-200.000	-0.030	0.191
-257.151	-200.000	-0.057	0.424
-256.136	335.521	0.030	0.059
-255.122	-126.334	-0.056	0.008
-254.107	-13.532	0.239	-0.156
-253.092	-200.000	-0.018	0.085
-252.078	169.221	0.086	0.123
-251.063	586.789	0.127	-0.313
-250.049	34.321	0.216	-0.189
-249.034	-54.301	0.312	-0.142
-248.019	96.187	-0.101	-0.116
-247.005	76.697	-0.130	0.138
-245.990	-110.863	0.137	0.028
-244.976	83.710	-0.081	0.089
-243.961	258.987	0.170	-0.294
-242.946	-164.661	-0.057	-0.003
-241.932	-55.322	0.265	0.119
-240.917	140.140	-0.122	0.162
-239.903	-69.515	0.184	0.071
-238.888	-23.466	-0.078	-0.047
-237.873	-46.511	-0.133	-0.065
-236.859	-31.583	-0.209	0.118
-235.844	67.962	0.143	-0.146
-234.830	-104.278	-0.239	-0.056
-233.815	-119.591	-0.396	0.069
-232.800	-70.456	0.291	-0.111
-231.786	445.886	0.049	0.109
-230.771	-200.000	-0.033	0.233
-229.757	169.336	-0.080	-0.115
-228.742	0.915	0.223	-0.160
-227.727	174.143	0.185	0.269
-226.713	-167.405	0.076	0.003
-225.698	-132.258	-0.060	-0.008
-224.684	-131.148	-0.247	-0.033
-223.669	-32.748	0.217	0.121
-222.655	-104.032	0.183	-0.043
-221.640	800.000	-0.102	0.314
-220.625	-200.000	0.031	0.371
-219.611	800.000	0.054	0.208
-218.596	-163.605	-0.205	-0.010
-217.582	-200.000	-0.018	0.097
-216.567	59.928	-0.066	-0.065
-215.552	-172.529	0.279	-0.009
-214.538	23.596	0.147	-0.122
-213.523	-119.692	0.238	0.041
-212.509	23.613	0.163	0.134
-211.494	800.000	-0.054	0.188
-210.479	120.570	-0.089	-0.110
-209.465	-200.000	0.034	0.217
-208.450	-200.000	-0.021	0.289
-207.436	610.902	0.171	0.428
-206.421	659.983	0.040	-0.103
-205.406	254.575	-0.062	-0.106
-204.392	9.865	-0.138	0.105
-203.377	-200.000	0.003	0.111
-202.363	-63.244	-0.189	0.078
-201.348	169.639	-0.185	0.265
-200.333	120.034	0.138	-0.172
-199.319	-139.208	0.091	-0.010
-198.304	162.409	0.100	-0.141
-197.290	-200.000	-0.010	-0.126
-196.275	-95.324	0.181	0.049
-195.260	800.000	0.080	0.244
-194.246	800.000	0.074	0.277
-193.231	-200.000	-0.016	0.409
-192.217	90.686	-0.096	0.107
-191.202	-30.943	-0.258	-0.146
-190.187	98.754	-0.137	0.158
-189.173	-200.000	-0.036	0.206
-188.158	-89.632	-0.062	0.018
-187.144	-118.013	-0.158	-0.028
-186.129	-142.107	0.345	-0.034
-185.114	-200.000	0.030	0.131
-184.100	-200.000	-0.015	-0.152
-183.085	-200.000	-0.059	-0.435
-182.071	500.407	-0.171	-0.395
-181.056	94.042	-0.152	-0.172
-180.042	-131.156	-0.172	0.023
-179.027	244.210	0.236	-0.397
-178.012	165.754	-0.051	0.073
-176.998	800.000	0.087	0.254
-175.983	-77.716	0.241	-0.083
-174.969	17.010	-0.253	0.200
-173.954	-63.558	0.252	0.103
-172.939	431.297	0.194	0.421
-171.925	-173.469	0.125	-0.004
-170.910	-200.000	0.020	-0.237
-169.896	-19.282	-0.115	0.072
-168.881	-74.099	-0.134	-0.048
-167.866	93.812	-0.151	-0.171
-166.852	52.380	0.065	0.062
-165.837	473.674	0.017	0.038
-164.823	800.000	-0.091	-0.316
-163.808	800.000	0.033	0.110
-162.793	-200.000	0.007	-0.093
-161.779	173.751	0.235	0.339
-160.764	-151.589	-0.043	0.003
-159.750	241.564	0.195	0.325
-158.735	108.311	-0.134	0.160
-157.720	-42.022	-0.105	-0.054
-156.706	157.101	0.158	0.219
-155.691	117.375	0.212	0.260
-154.677	35.740	-0.061	0.053
-153.662	463.181	0.103	-0.229
-152.647	-36.065	-0.198	0.107
-151.633	-14.197	-0.241	-0.155
-150.618	-139.019	-0.126	0.014
-149.604	-49.608	0.113	-0.054
-148.589	-49.904	0.268	-0.127
-147.574	-200.000	-0.033	-0.226
-146.560	800.000	0.040	0.128
-145.545	36.931	0.100	0.088
-144.531	128.411	-0.236	0.300
-143.516	60.413	0.339	0.335
-142.502	283.832	-0.092	0.165
-141.487	192.605	0.110	-0.166
-140.472	-200.000	-0.066	-0.434
-139.458	20.226	-0.056	-0.045
-138.443	-133.434	0.257	-0.032
-137.429	-31.603	0.255	0.143
-136.414	-200.000	0.028	0.234
-135.399	-112.533	-0.221	-0.044
-134.385	-200.000	0.029	0.308
-133.370	-73.712	0.400	-0.145
-132.356	-82.510	-0.260	0.084
-131.341	-143.717	0.481	-0.046
-130.326	800.000	0.024	0.080
-129.312	251.172	0.158	0.268
-128.297	229.412	-0.206	-0.336
-127.283	113.828	-0.088	0.107
-126.268	-99.966	0.054	-0.014
-125.253	-131.757	0.251	0.033
-124.239	-130.442	0.100	0.014
-123.224	519.741	0.111	-0.260
-122.210	153.827	-0.212	0.291
-121.195	-200.000	-0.036	0.245
