DTS Sentinel unit serial number:	SN413079Multiplexer serial number:	ORYXHardware model number:	OX4-SRSoftware version number:	ORYX F/W v4.00 Oryx Data Collector v3.7.2.0data status	okinstallation	princeton_trtdifferential loss correction	single-endedforward channel	channel 3reverse channel	N/Adate	2019/09/15time	16:32:35forward acquisition time	60.00reverse acquisition time	0.00gamma	496.2192k internal	0.2288k external	0.2288temperature offset calibration	0.9938default loss term (dB/km)	0.3790temperature slope calibration	1.0000multiplexer offset coefficient	1.0000multiplexer slope coefficient	1.0000fibre end	0.00T internal ref (°C)	43.94T ext. ref 1 (°C)	5.59T ext. ref 2 (°C)	40.51length (m)	temperature (°C)	Stokes	anti-Stokes-747.200	63.833	0.163	0.168
-746.185	-75.500	-0.167	0.061
-745.171	-93.592	-0.466	0.132
-744.156	-137.529	-0.187	-0.022
-743.142	-86.885	0.162	0.051
-742.127	-200.000	-0.040	0.203
-741.112	127.169	-0.098	0.127
-740.098	371.258	-0.123	0.255
-739.083	178.253	0.178	-0.266
-738.069	-58.813	-0.176	0.078
-737.054	40.845	-0.104	-0.096
-736.039	-179.955	0.038	0.001
-735.025	800.000	0.026	0.099
-734.010	113.091	-0.118	-0.147
-732.996	23.574	-0.204	-0.172
-731.981	346.442	0.110	0.221
-730.966	800.000	0.073	0.229
-729.952	246.339	0.149	0.257
-728.937	223.213	-0.186	0.307
-727.923	-200.000	-0.022	0.178
-726.908	235.432	-0.094	-0.159
-725.894	-9.432	0.098	0.067
-724.879	-55.084	0.047	0.021
-723.864	-20.031	-0.074	0.047
-722.850	-108.607	-0.211	-0.046
-721.835	92.812	0.348	-0.403
-720.821	-9.491	0.160	-0.109
-719.806	21.645	0.036	0.030
-718.791	-103.418	-0.070	-0.017
-717.777	-63.622	0.067	-0.028
-716.762	68.906	-0.291	-0.306
-715.748	-20.424	-0.246	-0.155
-714.733	65.270	0.053	0.055
-713.718	-101.041	0.246	-0.062
-712.704	41.629	-0.303	-0.281
-711.689	800.000	0.046	-0.176
-710.675	31.987	-0.336	-0.296
-709.660	-69.542	0.092	-0.036
-708.645	-19.635	0.095	-0.060
-707.631	155.988	-0.030	0.043
-706.616	-77.806	0.377	-0.133
-705.602	-52.903	-0.358	0.169
-704.587	785.753	0.085	-0.240
-703.572	-21.079	0.208	0.130
-702.558	-200.000	0.039	-0.259
-701.543	800.000	-0.098	0.354
-700.529	11.186	0.121	0.094
-699.514	-200.000	-0.042	-0.192
-698.499	314.654	-0.036	-0.070
-697.485	74.518	-0.053	-0.057
-696.470	637.297	0.073	0.190
-695.456	25.904	-0.137	-0.117
-694.441	-78.575	0.213	-0.074
-693.426	-184.097	0.180	0.003
-692.412	-169.309	0.311	-0.012
-691.397	-200.000	0.013	0.144
-690.383	273.161	0.176	0.318
-689.368	-112.101	-0.476	-0.098
-688.354	114.782	-0.267	-0.333
-687.339	-124.895	-0.053	0.008
-686.324	-200.000	-0.052	0.262
-685.310	96.933	0.176	0.206
-684.295	103.132	-0.231	-0.277
-683.281	129.778	0.215	-0.282
-682.266	288.207	0.206	0.381
-681.251	-113.317	-0.075	-0.015
-680.237	800.000	-0.104	-0.349
-679.222	245.567	-0.087	-0.150
-678.208	749.965	0.054	0.149
-677.193	-86.556	0.168	0.053
-676.178	662.296	-0.076	-0.201
-675.164	82.347	0.082	-0.091
-674.149	45.391	0.182	-0.172
-673.135	79.706	-0.048	0.052
-672.120	94.398	-0.092	-0.107
-671.105	-61.725	0.406	0.174
-670.091	-200.000	-0.020	0.267
-669.076	-81.003	-0.148	-0.050
-668.062	111.277	0.195	-0.241
-667.047	-200.000	-0.036	-0.275
-666.032	-200.000	-0.008	-0.081
-665.018	-72.009	-0.178	-0.068
-664.003	242.675	-0.091	0.156
-662.989	2.373	0.248	-0.183
-661.974	571.201	-0.072	0.180
-660.959	-200.000	-0.020	-0.094
-659.945	114.599	-0.044	0.055
-658.930	50.582	-0.438	0.424
-657.916	150.387	0.059	0.082
-656.901	-200.000	-0.005	0.146
-655.886	43.875	-0.301	-0.282
-654.872	144.168	0.308	-0.420
-653.857	-125.072	-0.247	0.039
-652.843	260.769	0.111	-0.196
-651.828	79.164	0.072	-0.079
-650.814	188.281	0.106	-0.162
-649.799	-95.083	0.209	0.058
-648.784	432.985	-0.118	0.261
-647.770	57.191	0.229	-0.229
-646.755	234.247	0.136	-0.228
-645.741	-94.139	-0.238	0.067
-644.726	55.023	-0.117	0.116
-643.711	182.978	-0.090	-0.136
-642.697	362.913	-0.014	-0.030
-641.682	-107.076	-0.145	-0.033
-640.668	136.625	0.133	0.177
-639.653	800.000	0.029	0.120
-638.638	800.000	0.040	-0.124
-637.624	202.957	0.081	-0.128
-636.609	26.597	-0.114	0.097
-635.595	2.457	-0.532	-0.393
-634.580	168.046	-0.038	0.055
-633.565	12.342	-0.123	-0.097
-632.551	156.204	0.098	-0.138
-631.536	-200.000	-0.067	-0.341
-630.522	-67.086	-0.399	-0.161
-629.507	177.236	0.117	-0.174
-628.492	800.000	-0.027	-0.118
-627.478	451.565	-0.120	0.270
-626.463	-175.971	0.261	0.007
-625.449	498.993	0.045	-0.105
-624.434	-123.655	-0.250	0.040
-623.419	-22.956	0.142	-0.087
-622.405	-200.000	0.026	0.117
-621.390	-17.672	0.103	-0.066
-620.376	-167.046	-0.176	-0.007
-619.361	206.844	-0.204	0.324
-618.346	-117.462	0.476	-0.088
-617.332	800.000	-0.049	-0.177
-616.317	187.954	0.176	-0.268
-615.303	513.085	0.060	0.142
-614.288	-47.855	-0.250	0.123
-613.273	123.225	-0.071	0.091
-612.259	-21.810	0.177	0.110
-611.244	-97.826	-0.151	0.040
-610.230	-91.780	0.161	0.047
-609.215	-169.682	0.052	0.002
-608.201	800.000	0.048	0.158
-607.186	52.551	-0.125	0.122
-606.171	-200.000	-0.020	0.189
-605.157	-113.731	-0.298	0.059
-604.142	150.180	-0.132	-0.183
-603.128	-71.138	0.116	0.044
-602.113	-127.528	-0.096	-0.014
-601.098	-149.274	-0.199	0.016
-600.084	201.766	-0.082	0.128
-599.069	29.942	-0.408	0.354
-598.055	42.248	-0.165	-0.153
-597.040	446.659	0.102	-0.229
-596.025	-200.000	0.007	-0.259
-595.011	-25.001	-0.242	-0.147
-593.996	-42.450	-0.150	0.078
-592.982	800.000	0.018	0.079
-591.967	-200.000	0.013	-0.169
-590.952	13.870	0.086	0.068
-589.938	-200.000	-0.016	0.218
-588.923	13.200	-0.203	-0.160
-587.909	-27.311	0.357	0.212
-586.894	-200.000	-0.013	0.094
-585.879	-9.057	0.203	-0.138
-584.865	-75.568	0.203	-0.073
-583.850	-180.184	-0.396	-0.009
-582.836	-200.000	-0.015	-0.279
-581.821	-180.085	0.153	-0.003
-580.806	15.391	-0.238	0.190
-579.792	327.230	-0.077	-0.150
-578.777	530.468	0.062	-0.150
-577.763	95.898	0.182	-0.212
-576.748	800.000	-0.079	0.269
-575.733	86.647	0.188	-0.212
-574.719	538.468	0.088	0.214
-573.704	-22.240	-0.148	-0.091
-572.690	800.000	0.053	-0.199
-571.675	188.165	-0.391	-0.594
-570.661	-93.911	-0.140	-0.039
-569.646	71.764	-0.112	0.119
-568.631	138.570	-0.073	0.098
-567.617	-119.548	-0.050	0.009
-566.602	800.000	0.099	-0.280
-565.588	-126.742	0.090	-0.014
-564.573	108.110	-0.309	-0.375
-563.558	-200.000	0.021	-0.229
-562.544	203.021	0.090	-0.142
-561.529	156.137	-0.201	0.282
-560.515	-117.029	0.349	-0.065
-559.500	110.631	0.155	0.190
-558.485	-111.565	0.419	-0.087
-557.471	75.926	-0.245	0.264
-556.456	-200.000	0.035	-0.169
-555.442	121.298	0.127	0.161
-554.427	-116.310	-0.238	0.045
-553.412	-200.000	-0.012	0.057
-552.398	754.065	-0.058	0.158
-551.383	800.000	0.080	0.253
-550.369	-77.692	-0.269	-0.095
-549.354	-21.585	0.420	-0.260
-548.339	219.140	0.213	-0.347
-547.325	756.954	-0.012	-0.034
-546.310	-200.000	0.011	-0.226
-545.296	-179.691	0.482	0.011
-544.281	6.131	0.240	-0.181
-543.266	-53.161	-0.237	0.111
-542.252	-200.000	-0.004	-0.205
-541.237	107.014	0.036	0.044
-540.223	-62.249	0.210	-0.089
-539.208	-34.951	-0.208	0.115
-538.193	800.000	0.040	-0.140
-537.179	-59.150	-0.231	-0.101
-536.164	220.549	0.136	-0.223
-535.150	-200.000	-0.026	0.284
-534.135	-107.059	0.403	0.090
-533.121	138.049	0.113	0.150
-532.106	-16.835	0.126	-0.081
-531.091	-37.643	-0.162	-0.088
-530.077	-93.803	0.075	-0.021
-529.062	-164.426	-0.202	-0.009
-528.048	-90.288	0.119	-0.035
-527.033	-23.721	0.148	0.090
-526.018	-61.664	0.379	-0.162
-525.004	-31.858	-0.121	-0.069
-523.989	-134.988	0.121	-0.015
-522.975	-200.000	0.012	-0.265
-521.960	268.289	-0.093	-0.165
-520.945	322.562	-0.009	-0.018
-519.931	-30.396	-0.112	0.065
-518.916	-139.455	-0.140	0.015
-517.902	732.936	0.090	0.244
-516.887	-30.634	0.346	0.199
-515.872	800.000	-0.068	-0.268
-514.858	200.889	-0.303	-0.474
-513.843	-156.128	-0.120	0.008
-512.829	-101.526	0.314	0.078
-511.814	-2.555	0.119	0.085
-510.799	65.913	-0.162	-0.167
-509.785	-200.000	0.002	0.150
-508.770	173.317	0.227	-0.333
-507.756	90.456	0.087	-0.099
-506.741	35.775	-0.167	0.149
-505.726	-200.000	0.001	0.069
-504.712	-126.359	-0.411	0.062
-503.697	-176.918	0.197	-0.005
-502.683	800.000	0.044	-0.147
-501.668	169.687	-0.075	-0.109
-500.653	-200.000	-0.006	0.040
-499.639	-116.563	0.116	0.022
-498.624	-43.869	0.207	-0.106
-497.610	-167.242	0.195	0.008
-496.595	149.377	-0.221	-0.303
-495.581	347.120	0.115	0.231
-494.566	-191.511	-0.475	0.005
-493.551	-117.535	-0.199	0.036
-492.537	-112.795	-0.183	-0.037
-491.522	800.000	0.063	-0.176
-490.508	204.086	0.157	0.246
-489.493	128.526	0.201	-0.260
-488.478	-200.000	0.010	0.239
-487.464	-97.631	-0.163	-0.043
-486.449	-200.000	0.015	-0.102
-485.435	40.647	-0.122	0.112
-484.420	-102.689	0.057	0.014
-483.405	-131.212	-0.062	0.008
-482.391	411.530	-0.101	0.218
-481.376	348.183	0.078	0.157
-480.362	-57.139	-0.304	-0.136
-479.347	800.000	-0.081	-0.298
-478.332	15.982	-0.248	-0.198
-477.318	-34.723	-0.200	0.111
-476.303	43.258	0.155	-0.143
-475.289	-86.462	-0.086	-0.027
-474.274	-200.000	0.017	-0.264
-473.259	116.651	0.048	-0.059
-472.245	-87.466	-0.174	-0.053
-471.230	76.582	-0.147	-0.158
-470.216	-158.956	-0.055	-0.003
-469.201	17.437	-0.217	-0.175
-468.186	-10.879	0.061	-0.041
-467.172	800.000	-0.098	0.333
-466.157	-57.474	0.091	0.041
-465.143	61.224	-0.140	-0.141
-464.128	35.280	0.112	-0.100
-463.113	-96.453	-0.357	-0.096
-462.099	-120.101	0.089	-0.015
-461.084	116.898	-0.169	-0.211
-460.070	-200.000	-0.020	-0.346
-459.055	-124.441	0.604	0.095
-458.040	-49.906	0.301	-0.145
-457.026	173.472	0.214	0.314
-456.011	-200.000	0.014	0.129
-454.997	77.614	0.158	-0.171
-453.982	-41.070	0.197	-0.103
-452.968	-49.968	0.085	-0.041
-451.953	-87.087	0.351	0.108
-450.938	-125.501	0.167	0.026
-449.924	-107.063	0.163	-0.036
-448.909	-200.000	-0.017	0.086
-447.895	124.272	0.193	0.246
-446.880	296.959	-0.089	-0.165
-445.865	-200.000	0.020	0.168
-444.851	-21.794	-0.278	-0.171
-443.836	-128.288	-0.276	-0.040
-442.822	130.648	0.106	0.138
-441.807	188.156	0.042	-0.064
-440.792	-144.772	-0.062	-0.006
-439.778	-107.089	0.127	0.028
-438.763	-15.633	-0.139	0.090
-437.749	25.091	-0.091	-0.077
-436.734	346.744	-0.089	0.178
-435.719	-117.928	0.140	-0.025
-434.705	-200.000	0.030	-0.200
-433.690	37.404	-0.161	0.145
-432.676	-120.590	0.328	-0.056
-431.661	-101.905	-0.298	-0.073
-430.646	-170.254	-0.104	-0.004
-429.632	-200.000	-0.001	0.356
-428.617	-176.163	-0.073	-0.002
-427.603	34.800	0.262	-0.232
-426.588	-162.184	0.298	0.015
-425.573	-166.735	0.204	0.009
-424.559	26.609	0.193	0.164
-423.544	168.074	0.112	0.162
-422.530	-98.791	-0.243	-0.063
-421.515	-49.823	-0.046	0.022
-420.500	159.880	0.116	0.163
-419.486	800.000	0.070	0.223
-418.471	-82.661	0.127	-0.042
-417.457	-200.000	0.000	0.120
-416.442	-27.021	0.196	0.116
-415.428	-54.774	0.107	0.049
-414.413	-102.593	0.424	-0.102
-413.398	349.839	-0.125	-0.250
-412.384	-77.203	-0.349	0.123
-411.369	800.000	0.092	0.285
-410.355	800.000	0.016	0.066
-409.340	6.060	0.135	-0.101
-408.325	-200.000	0.036	-0.168
-407.311	6.671	0.130	-0.098
-406.296	800.000	0.033	0.117
-405.282	60.763	-0.158	0.159
-404.267	496.178	-0.053	-0.123
-403.252	-48.725	0.478	-0.232
-402.238	8.303	-0.118	0.090
-401.223	115.478	-0.177	0.219
-400.209	800.000	-0.067	-0.230
-399.194	-29.135	0.042	0.024
-398.179	800.000	-0.012	0.039
-397.165	0.872	0.045	0.033
-396.150	1.765	0.116	-0.084
-395.136	-76.344	-0.171	-0.061
-394.121	-200.000	-0.422	0.001
-393.106	-200.000	0.023	0.123
-392.092	-52.213	-0.332	0.156
-391.077	-91.367	-0.189	0.055
-390.063	-200.000	0.070	0.348
-389.048	-200.000	0.007	0.092
-388.033	-67.198	-0.300	0.120
-387.019	800.000	0.077	-0.303
-386.004	49.254	-0.117	0.111
-384.990	370.734	-0.059	-0.121
-383.975	-200.000	0.009	0.125
-382.960	-152.335	-0.276	0.020
-381.946	-151.597	0.260	0.019
-380.931	3.287	-0.147	0.108
-379.917	48.594	-0.387	0.366
-378.902	16.791	-0.149	-0.119
-377.888	-78.846	-0.380	0.131
-376.873	-64.091	-0.175	0.072
-375.858	38.147	-0.232	0.208
-374.844	154.935	-0.204	0.284
-373.829	-200.000	0.009	0.358
-372.815	-119.053	0.075	0.013
-371.800	56.786	0.095	-0.093
-370.785	-124.210	-0.135	-0.021
-369.771	800.000	-0.037	0.144
-368.756	-200.000	0.011	0.338
-367.742	257.520	-0.037	0.065
-366.727	-136.505	0.259	0.030
-365.712	-75.746	0.098	0.035
-364.698	105.484	0.196	0.235
-363.683	-58.098	-0.156	0.069
-362.669	771.452	-0.097	-0.266
-361.654	-25.351	-0.075	-0.045
-360.639	-143.637	0.346	0.033
-359.625	25.647	0.082	-0.069
-358.610	-155.696	0.102	0.007
-357.596	53.640	0.059	-0.057
-356.581	183.054	-0.105	0.157
-355.566	76.348	-0.009	-0.010
-354.552	-128.294	-0.318	0.046
-353.537	334.148	-0.087	-0.170
-352.523	-146.838	0.519	0.045
-351.508	112.371	0.108	0.132
-350.493	800.000	0.020	0.069
-349.479	-66.338	0.242	0.097
-348.464	-140.924	0.244	0.025
-347.450	-161.257	0.181	-0.010
-346.435	-200.000	0.012	-0.163
-345.420	606.013	-0.018	0.045
-344.406	-95.636	-0.205	-0.056
-343.391	-200.000	0.001	0.369
-342.377	29.837	0.033	-0.029
-341.362	580.749	-0.022	-0.055
-340.348	800.000	-0.072	0.211
-339.333	800.000	0.093	0.360
-338.318	-124.544	-0.414	-0.065
-337.304	-41.635	0.243	-0.126
-336.289	91.379	0.126	-0.143
-335.275	451.059	0.069	-0.153
-334.260	-34.154	0.218	-0.121
-333.245	-15.682	0.117	0.075
-332.231	-42.754	0.156	0.080
-331.216	-118.780	0.170	-0.030
-330.202	7.402	-0.185	0.140
-329.187	620.280	-0.042	0.106
-328.172	-69.343	0.336	0.130
-327.158	31.296	0.160	-0.138
-326.143	60.504	0.174	0.174
-325.129	9.675	0.137	0.105
-324.114	-130.415	0.192	0.026
-323.099	-118.312	0.103	0.018
-322.085	38.801	0.087	-0.079
-321.070	-118.991	-0.214	-0.038
-320.056	280.962	-0.141	-0.255
-319.041	-52.521	0.110	0.051
-318.026	-200.000	-0.012	0.102
-317.012	-48.264	-0.224	0.109
-315.997	538.843	-0.080	0.191
-314.983	-123.186	-0.102	0.016
-313.968	96.429	-0.080	0.092
-312.953	-81.368	-0.339	0.113
-311.939	800.000	-0.022	0.061
-310.924	-130.940	0.340	0.046
-309.910	413.353	-0.170	0.365
-308.895	-68.169	0.358	0.141
-307.880	52.180	0.131	-0.126
-306.866	-40.861	-0.193	-0.101
-305.851	-80.105	-0.183	-0.062
-304.837	-29.332	-0.223	-0.128
-303.822	86.402	-0.104	-0.116
-302.807	193.969	-0.065	0.100
-301.793	90.012	0.249	0.280
-300.778	-1.934	0.062	-0.044
-299.764	24.715	0.071	0.059
-298.749	109.141	-0.213	0.257
-297.735	-86.622	0.320	-0.099
-296.720	-28.834	-0.311	-0.180
-295.705	145.291	-0.129	-0.174
-294.691	-200.000	0.012	-0.121
-293.676	-90.179	0.395	-0.116
-292.662	200.508	0.077	-0.120
-291.647	-29.126	-0.267	-0.154
-290.632	-4.405	0.172	-0.120
-289.618	124.516	0.124	-0.157
-288.603	50.715	0.193	0.184
-287.589	-65.317	0.124	0.050
-286.574	-61.056	-0.149	0.063
-285.559	800.000	-0.118	-0.349
-284.545	180.718	0.082	-0.122
-283.530	-20.473	0.326	-0.202
-282.516	-79.877	0.090	0.031
-281.501	-133.330	-0.336	0.043
-280.486	199.936	-0.129	0.199
-279.472	91.188	-0.183	0.207
-278.457	102.211	0.095	-0.112
-277.443	-191.693	-0.188	0.002
-276.428	-181.272	0.014	0.000
-275.413	309.426	-0.105	-0.197
-274.399	800.000	-0.065	0.242
-273.384	72.356	0.214	0.224
-272.370	-99.345	0.158	0.040
-271.355	32.663	-0.206	-0.180
-270.340	-200.000	0.033	-0.211
-269.326	29.079	0.191	-0.163
-268.311	-36.658	0.186	0.100
-267.297	-41.456	-0.124	0.064
-266.282	30.189	0.016	0.014
-265.267	4.957	0.109	0.080
-264.253	800.000	0.151	-0.484
-263.238	88.387	-0.141	-0.158
-262.224	800.000	0.056	0.203
-261.209	-124.517	0.247	0.039
-260.195	247.580	0.042	-0.071
-259.180	-200.000	0.033	-0.195
-258.165	-200.000	-0.004	0.185
-257.151	-128.774	-0.188	0.027
-256.136	-34.396	0.174	-0.096
-255.122	800.000	-0.035	-0.137
-254.107	-200.000	-0.018	0.199
-253.092	-10.460	-0.168	-0.112
-252.078	134.937	-0.068	-0.089
-251.063	-200.000	-0.011	0.219
-250.049	16.404	-0.211	0.168
-249.034	22.730	0.253	0.209
-248.019	-66.409	-0.337	-0.135
-247.005	458.469	-0.117	0.263
-245.990	-120.273	-0.285	-0.049
-244.976	-93.835	0.216	-0.060
-243.961	-50.435	-0.108	0.051
-242.946	-200.000	-0.005	-0.109
-241.932	-200.000	-0.001	0.397
-240.917	-19.427	0.161	-0.100
-239.903	40.830	0.136	0.123
-238.888	48.709	-0.105	0.099
-237.873	800.000	-0.145	0.451
-236.859	36.870	0.156	0.139
-235.844	-54.068	0.124	-0.057
-234.830	152.714	0.222	-0.305
-233.815	-122.938	-0.239	0.039
-232.800	-130.999	0.136	0.018
-231.786	146.822	0.051	-0.069
-230.771	71.476	-0.052	-0.054
-229.757	-9.987	0.058	-0.039
-228.742	349.511	-0.026	0.052
-227.727	26.001	0.187	0.157
-226.713	-54.377	-0.123	-0.056
-225.698	-200.000	-0.015	0.172
-224.684	6.366	0.327	-0.244
-223.669	-200.000	-0.034	-0.292
-222.655	-136.166	0.134	0.016
-221.640	800.000	-0.052	-0.188
-220.625	-82.426	-0.201	0.066
-219.611	-135.249	0.175	-0.021
-218.596	-162.897	-0.163	0.008
-217.582	-85.669	0.182	0.057
-216.567	-141.369	-0.163	-0.017
-215.552	-200.000	0.002	0.141
-214.538	-135.752	-0.116	-0.014
-213.523	225.235	0.155	0.252
-212.509	5.436	-0.317	0.235
-211.494	-133.115	-0.239	-0.030
-210.479	-200.000	-0.006	0.091
-209.465	682.048	-0.094	0.246
-208.450	-40.790	0.295	0.153
-207.436	-160.167	0.212	0.012
-206.421	-100.864	-0.203	-0.050
-205.406	375.098	-0.094	-0.193
-204.392	21.226	-0.212	0.173
-203.377	459.469	0.077	0.173
-202.363	-200.000	0.064	0.344
-201.348	800.000	0.039	-0.115
-200.333	354.773	-0.060	0.120
-199.319	-200.000	0.001	0.068
-198.304	-6.920	-0.217	-0.148
-197.290	800.000	-0.026	-0.098
-196.275	-171.663	-0.111	0.004
-195.260	-40.691	-0.202	0.105
-194.246	-152.748	0.669	0.048
-193.231	800.000	0.058	-0.181
-192.217	73.828	-0.037	-0.039
-191.202	226.493	-0.009	0.015
-190.187	-25.394	-0.099	0.059
-189.173	418.628	0.061	0.130
-188.158	10.430	-0.055	-0.042
-187.144	381.448	0.127	0.262
-186.129	-147.039	-0.151	-0.013
-185.114	-96.517	0.096	0.026
-184.100	-62.140	-0.230	0.096
-183.085	800.000	-0.029	-0.109
-182.071	261.339	0.145	-0.251
-181.056	111.068	0.108	0.131
-180.042	335.503	0.032	0.063
-179.027	-1.967	-0.161	-0.114
-178.012	-88.714	0.146	0.044
-176.998	-37.809	0.203	-0.108
-175.983	800.000	-0.095	-0.303
-174.969	479.821	0.011	0.025
-173.954	-27.399	-0.209	-0.122
-172.939	-200.000	0.080	-0.423
-171.925	-200.000	0.064	-0.502
-170.910	-16.550	0.399	-0.253
-169.896	-95.242	-0.228	-0.061
-168.881	-200.000	-0.028	-0.125
-167.866	8.800	0.170	-0.129
-166.852	-5.422	0.043	-0.030
-165.837	-125.409	-0.235	-0.036
-164.823	2.078	-0.200	0.145
-163.808	-83.787	0.227	0.072
-162.793	47.561	-0.191	-0.178
-161.779	-200.000	0.018	0.083
-160.764	-200.000	0.038	0.336
-159.750	-200.000	-0.028	0.275
-158.735	450.298	0.090	0.199
-157.720	2.784	0.189	0.138
-156.706	-49.936	-0.017	-0.008
-155.691	28.144	-0.091	0.077
-154.677	-14.434	-0.204	-0.132
-153.662	-200.000	-0.031	0.326
-152.647	583.589	-0.071	-0.174
-151.633	-14.891	-0.133	0.086
-150.618	69.438	-0.157	-0.162
-149.604	800.000	-0.137	-0.401
-148.589	64.593	-0.106	-0.107
-147.574	290.554	0.060	-0.110
-146.560	56.111	0.250	0.243
-145.545	-200.000	0.006	0.041
-144.531	-200.000	-0.002	-0.019
-143.516	800.000	0.053	-0.163
-142.502	378.951	0.128	0.262
-141.487	765.281	0.035	-0.094
-140.472	11.162	-0.242	0.185
-139.458	31.586	-0.154	0.133
-138.443	-56.212	-0.139	0.062
-137.429	-148.946	-0.197	-0.016
-136.414	-83.493	0.322	-0.103
-135.399	-200.000	0.005	-0.121
-134.385	-54.717	0.089	0.040
-133.370	489.744	-0.093	0.214
-132.356	-129.936	0.183	0.025
-131.341	166.555	0.025	-0.035
-130.326	244.386	-0.093	-0.156
-129.312	-200.000	0.039	-0.348
-128.297	-129.691	-0.346	0.048
-127.283	800.000	-0.058	-0.233
-126.268	-200.000	0.013	0.126
-125.253	-200.000	-0.013	0.192
-124.239	-58.751	-0.440	-0.191
-123.224	-116.283	-0.216	0.040
-122.210	-200.000	0.012	0.273
-121.195	-200.000	0.040	-0.279
-120.180	-200.000	-0.031	0.296
