DTS Sentinel unit serial number:	SN413079Multiplexer serial number:	ORYXHardware model number:	OX4-SRSoftware version number:	ORYX F/W v4.00 Oryx Data Collector v3.7.2.0data status	okinstallation	princeton_trtdifferential loss correction	single-endedforward channel	channel 3reverse channel	N/Adate	2019/09/17time	00:12:35forward acquisition time	60.00reverse acquisition time	0.00gamma	496.2192k internal	0.2325k external	0.2325temperature offset calibration	0.9942default loss term (dB/km)	0.3790temperature slope calibration	1.0000multiplexer offset coefficient	1.0000multiplexer slope coefficient	1.0000fibre end	0.00T internal ref (°C)	29.53T ext. ref 1 (°C)	0.10T ext. ref 2 (°C)	23.77length (m)	temperature (°C)	Stokes	anti-Stokes-747.200	-200.000	-0.043	0.251
-746.185	-71.680	-0.359	-0.135
-745.171	800.000	0.080	-0.297
-744.156	-0.188	-0.337	-0.242
-743.142	53.951	0.130	-0.126
-742.127	0.283	-0.314	0.226
-741.112	128.220	-0.124	0.159
-740.098	170.231	-0.126	0.182
-739.083	-31.309	-0.415	0.235
-738.069	22.827	-0.200	0.166
-737.054	800.000	-0.069	0.297
-736.039	235.532	-0.147	-0.244
-735.025	33.100	-0.088	0.077
-734.010	-82.589	-0.170	0.056
-732.996	452.851	-0.204	0.454
-731.981	-200.000	-0.032	0.362
-730.966	-113.154	0.198	-0.039
-729.952	796.164	-0.057	0.159
-728.937	-151.057	0.337	-0.026
-727.923	-200.000	0.021	-0.295
-726.908	-7.166	0.024	0.016
-725.894	51.806	-0.008	-0.008
-724.879	244.292	0.078	-0.132
-723.864	-200.000	-0.008	-0.089
-722.850	-40.688	0.177	-0.093
-721.835	-181.513	0.162	-0.003
-720.821	648.366	-0.067	-0.173
-719.806	-134.164	-0.252	-0.031
-718.791	314.073	-0.059	0.111
-717.777	114.854	-0.096	0.118
-716.762	-46.009	-0.230	-0.115
-715.748	4.407	-0.025	-0.018
-714.733	251.192	-0.191	0.327
-713.718	-14.997	-0.352	-0.227
-712.704	-200.000	0.010	0.214
-711.689	800.000	0.018	0.056
-710.675	-200.000	-0.022	-0.242
-709.660	-70.004	-0.264	-0.101
-708.645	56.600	0.039	0.038
-707.631	126.493	0.185	-0.236
-706.616	-101.210	0.035	-0.009
-705.602	-154.311	-0.309	0.021
-704.587	-173.997	0.399	0.012
-703.572	72.251	-0.146	-0.154
-702.558	215.995	0.073	-0.117
-701.543	-200.000	-0.027	0.213
-700.529	-46.783	0.159	-0.078
-699.514	-91.528	-0.161	0.046
-698.499	800.000	0.059	-0.237
-697.485	198.038	0.278	0.428
-696.470	115.740	0.150	0.185
-695.456	255.179	-0.070	0.120
-694.441	-49.290	0.312	0.150
-693.426	-200.000	0.016	-0.366
-692.412	-115.019	-0.147	0.028
-691.397	-11.441	-0.258	0.171
-690.383	-196.959	0.332	0.002
-689.368	-200.000	0.064	-0.325
-688.354	-200.000	-0.033	0.273
-687.339	175.705	-0.127	-0.186
-686.324	79.161	0.061	-0.066
-685.310	140.114	0.048	0.063
-684.295	-126.718	-0.252	0.037
-683.281	13.470	0.177	0.138
-682.266	-114.783	0.112	0.021
-681.251	7.361	-0.245	0.184
-680.237	-200.000	0.052	-0.378
-679.222	75.633	0.069	-0.073
-678.208	186.470	-0.166	0.248
-677.193	-200.000	-0.022	0.216
-676.178	-200.000	-0.003	-0.288
-675.164	-200.000	0.072	-0.356
-674.149	-4.163	0.179	-0.125
-673.135	800.000	-0.048	0.139
-672.120	-95.768	-0.076	0.020
-671.105	-142.322	0.214	0.021
-670.091	-78.573	0.202	0.070
-669.076	-117.660	0.298	0.054
-668.062	-8.569	0.211	-0.143
-667.047	-9.003	0.328	-0.221
-666.032	-127.552	-0.376	-0.055
-665.018	100.501	-0.052	-0.061
-664.003	583.294	-0.139	0.342
-662.989	-57.659	-0.260	-0.114
-661.974	8.725	0.133	0.101
-660.959	1.292	0.027	0.019
-659.945	-123.705	0.146	0.023
-658.930	158.659	-0.055	-0.077
-657.916	25.534	0.081	-0.068
-656.901	-5.952	-0.130	-0.090
-655.886	800.000	0.072	-0.212
-654.872	-101.496	0.368	0.090
-653.857	-31.196	0.246	0.140
-652.843	-128.956	0.156	-0.022
-651.828	33.354	0.291	0.254
-650.814	-200.000	-0.057	-0.336
-649.799	800.000	0.068	-0.264
-648.784	800.000	-0.033	0.119
-647.770	420.853	-0.161	0.348
-646.755	-64.906	0.198	0.081
-645.741	-143.696	0.234	0.022
-644.726	766.276	0.115	0.314
-643.711	-150.590	0.233	0.018
-642.697	-76.809	0.390	-0.137
-641.682	-200.000	-0.005	-0.084
-640.668	129.193	-0.168	-0.215
-639.653	-200.000	-0.084	0.401
-638.638	57.194	-0.198	-0.194
-637.624	113.929	0.234	0.286
-636.609	-36.666	-0.202	-0.109
-635.595	88.488	-0.226	-0.252
-634.580	-185.161	0.033	-0.001
-633.565	800.000	0.019	-0.083
-632.551	-129.606	-0.098	0.014
-631.536	800.000	-0.056	0.181
-630.522	217.736	-0.087	0.140
-629.507	440.949	-0.027	0.058
-628.492	-200.000	-0.068	0.376
-627.478	129.342	-0.071	0.091
-626.463	479.051	0.014	0.032
-625.449	197.202	-0.156	-0.240
-624.434	-200.000	0.040	-0.445
-623.419	-178.283	0.260	-0.006
-622.405	461.594	0.099	-0.222
-621.390	-200.000	-0.003	0.238
-620.376	147.623	0.110	0.149
-619.361	-200.000	0.021	0.224
-618.346	-200.000	-0.003	0.241
-617.332	-80.778	0.308	0.103
-616.317	800.000	0.081	0.290
-615.303	11.283	-0.113	-0.087
-614.288	-200.000	0.037	-0.326
-613.273	136.347	0.140	0.184
-612.259	800.000	0.134	-0.378
-611.244	114.679	0.219	-0.268
-610.230	-82.637	-0.616	0.200
-609.215	583.621	0.095	0.235
-608.201	-47.256	0.223	-0.109
-607.186	-43.080	0.092	-0.047
-606.171	-111.466	0.244	0.050
-605.157	81.228	-0.059	0.064
-604.142	-157.637	0.187	-0.011
-603.128	-91.853	-0.234	0.067
-602.113	404.181	-0.089	-0.188
-601.098	-12.403	0.150	-0.098
-600.084	-142.022	-0.200	0.020
-599.069	518.242	0.100	0.235
-598.055	800.000	-0.069	-0.289
-597.040	46.383	-0.108	-0.101
-596.025	397.476	0.155	-0.325
-595.011	-62.351	-0.102	-0.043
-593.996	-109.638	0.372	0.079
-592.982	12.344	0.083	0.064
-591.967	-36.937	0.244	-0.131
-590.952	-200.000	-0.026	-0.205
-589.938	73.967	0.054	-0.057
-588.923	-91.353	-0.234	0.067
-587.909	-128.719	0.128	-0.018
-586.894	469.383	0.144	-0.324
-585.879	-200.000	0.004	-0.167
-584.865	60.953	-0.074	0.074
-583.850	-200.000	-0.005	0.172
-582.836	-111.272	-0.244	0.050
-581.821	41.447	-0.039	-0.035
-580.806	-54.961	0.116	0.053
-579.792	20.768	0.034	0.027
-578.777	-149.634	-0.264	0.021
-577.763	617.796	-0.056	0.141
-576.748	625.489	0.085	-0.214
-575.733	-55.356	-0.072	0.032
-574.719	-200.000	-0.042	-0.295
-573.704	-120.732	-0.052	0.009
-572.690	-123.979	-0.211	-0.033
-571.675	-109.184	0.294	0.063
-570.661	800.000	-0.075	0.238
-569.646	81.806	-0.253	0.274
-568.631	-74.316	-0.100	-0.036
-567.617	38.451	-0.206	0.184
-566.602	96.394	-0.052	-0.059
-565.588	-200.000	0.008	0.222
-564.573	-35.119	-0.282	-0.154
-563.558	-46.224	-0.195	0.096
-562.544	-200.000	-0.012	-0.175
-561.529	-200.000	-0.057	-0.256
-560.515	800.000	-0.111	0.366
-559.500	800.000	0.197	0.563
-558.485	374.300	-0.204	0.415
-557.471	0.100	0.328	0.234
-556.456	278.630	-0.048	0.086
-555.442	194.635	-0.073	0.111
-554.427	74.054	0.083	-0.087
-553.412	-39.465	-0.087	-0.046
-552.398	-5.818	0.063	0.043
-551.383	76.228	0.148	-0.157
-550.369	133.337	0.083	-0.107
-549.354	-116.365	-0.366	-0.068
-548.339	800.000	0.094	0.317
-547.325	-52.726	-0.178	0.082
-546.310	-110.188	0.350	-0.073
-545.296	800.000	0.084	-0.292
-544.281	-99.453	-0.387	-0.097
-543.266	627.048	-0.106	0.268
-542.252	151.605	-0.140	0.191
-541.237	-160.129	0.244	-0.013
-540.223	-36.343	0.339	0.183
-539.208	89.085	-0.174	-0.194
-538.193	800.000	0.039	-0.111
-537.179	62.478	-0.125	0.125
-536.164	-98.760	-0.457	0.117
-535.150	355.535	-0.191	0.381
-534.135	-200.000	-0.001	0.120
-533.121	-200.000	-0.028	0.254
-532.106	-173.045	-0.248	0.008
-531.091	-200.000	0.011	-0.313
-530.077	-86.968	0.203	0.062
-529.062	-200.000	-0.041	0.248
-528.048	113.021	-0.081	0.098
-527.033	-45.738	-0.158	0.078
-526.018	-90.213	0.498	-0.145
-525.004	462.211	0.101	0.227
-523.989	-48.927	0.066	0.032
-522.975	-110.410	-0.344	0.072
-521.960	163.764	-0.203	0.286
-520.945	93.181	-0.171	-0.193
-519.931	-200.000	-0.032	0.509
-518.916	800.000	0.044	0.131
-517.902	-4.440	0.207	0.143
-516.887	300.893	0.080	-0.148
-515.872	295.041	0.127	-0.233
-514.858	-84.264	-0.141	-0.045
-513.843	-200.000	0.025	0.305
-512.829	-62.297	-0.515	0.215
-511.814	51.956	0.231	-0.220
-510.799	42.703	0.107	0.098
-509.785	205.617	-0.249	0.386
-508.770	188.850	-0.042	0.063
-507.756	298.468	0.070	0.128
-506.741	-200.000	-0.008	0.038
-505.726	561.597	-0.097	-0.235
-504.712	-200.000	-0.076	-0.510
-503.697	-3.155	-0.281	0.196
-502.683	-125.032	0.180	0.028
-501.668	-89.936	0.078	-0.023
-500.653	39.176	-0.209	-0.187
-499.639	-200.000	0.068	0.298
-498.624	159.775	-0.134	0.187
-497.610	115.065	0.247	0.301
-496.595	384.608	0.105	-0.216
-495.581	199.717	-0.232	0.356
-494.566	-56.334	-0.129	0.057
-493.551	-26.771	-0.118	-0.069
-492.537	68.440	-0.250	-0.256
-491.522	800.000	-0.078	0.293
-490.508	-200.000	0.038	-0.296
-489.493	-100.909	0.026	0.006
-488.478	68.364	-0.156	0.159
-487.464	496.933	-0.118	0.270
-486.449	7.467	-0.061	-0.046
-485.435	-93.016	-0.190	-0.053
-484.420	64.401	0.102	0.102
-483.405	800.000	-0.120	0.338
-482.391	-200.000	0.000	-0.362
-481.376	300.819	0.134	-0.247
-480.362	800.000	-0.106	-0.301
-479.347	-200.000	-0.046	-0.338
-478.332	-25.356	0.292	0.172
-477.318	-200.000	-0.020	0.096
-476.303	-75.476	-0.230	0.082
-475.289	169.041	-0.153	-0.218
-474.274	-53.209	-0.284	-0.130
-473.259	-200.000	-0.030	-0.383
-472.245	102.990	-0.084	0.098
-471.230	-173.775	-0.207	-0.006
-470.216	0.513	-0.173	-0.123
-469.201	-133.205	-0.082	0.010
-468.186	-200.000	-0.063	0.566
-467.172	-15.567	0.110	0.070
-466.157	166.199	0.097	-0.137
-465.143	-109.297	0.338	0.072
-464.128	3.336	0.251	0.182
-463.113	81.608	-0.100	0.107
-462.099	373.160	-0.102	-0.207
-461.084	219.109	-0.077	0.122
-460.070	-50.786	-0.096	-0.045
-459.055	-139.641	0.136	0.014
-458.040	-161.995	-0.337	0.017
-457.026	265.184	-0.243	-0.422
-456.011	-112.661	0.183	-0.036
-454.997	-73.454	-0.134	0.049
-453.982	88.487	-0.157	-0.174
-452.968	-59.442	-0.103	-0.044
-451.953	800.000	0.104	-0.354
-450.938	800.000	-0.021	0.079
-449.924	176.698	0.073	0.106
-448.909	25.253	0.259	-0.215
-447.895	-94.250	0.272	-0.074
-446.880	-121.625	-0.201	0.033
-445.865	-200.000	0.003	0.212
-444.851	-52.493	0.161	0.074
-443.836	63.106	0.242	0.242
-442.822	78.812	-0.175	-0.187
-441.807	-136.407	0.121	-0.014
-440.792	230.522	-0.160	0.262
-439.778	-156.842	0.349	-0.021
-438.763	-22.761	0.202	-0.122
-437.749	-55.239	0.053	-0.024
-436.734	76.631	-0.068	-0.072
-435.719	91.801	-0.242	0.271
-434.705	-64.623	0.331	-0.134
-433.690	800.000	-0.111	-0.349
-432.676	200.451	-0.205	-0.314
-431.661	6.755	0.087	-0.064
-430.646	-57.753	-0.044	-0.019
-429.632	75.053	0.092	0.097
-428.617	-47.198	0.146	-0.071
-427.603	158.284	-0.134	0.185
-426.588	134.486	0.203	-0.262
-425.573	-81.186	-0.161	-0.053
-424.559	19.194	0.204	0.164
-423.544	-71.833	0.066	0.024
-422.530	-200.000	0.045	-0.297
-421.515	255.441	-0.076	0.131
-420.500	-0.848	-0.279	0.197
-419.486	800.000	0.032	0.131
-418.471	-106.656	0.267	-0.059
-417.457	-200.000	0.006	0.108
-416.442	-200.000	0.039	0.173
-415.428	-46.954	0.130	-0.063
-414.413	800.000	-0.076	-0.323
-413.398	-136.417	0.264	0.031
-412.384	-73.353	0.223	-0.081
-411.369	-64.339	-0.193	-0.078
-410.355	783.857	0.064	-0.175
-409.340	346.868	0.205	-0.401
-408.325	-200.000	0.009	-0.081
-407.311	800.000	-0.045	0.189
-406.296	445.657	-0.076	-0.166
-405.282	342.349	-0.066	-0.128
-404.267	-53.136	0.208	0.095
-403.252	294.964	-0.100	-0.181
-402.238	532.575	0.136	-0.319
-401.223	537.183	0.074	0.174
-400.209	-200.000	0.011	0.184
-399.194	-200.000	0.061	0.268
-398.179	60.824	0.105	0.104
-397.165	283.585	-0.037	-0.067
-396.150	453.259	0.116	0.256
-395.136	800.000	-0.138	0.381
-394.121	-92.824	-0.256	0.071
-393.106	13.296	-0.081	-0.063
-392.092	-172.135	-0.284	-0.009
-391.077	95.087	-0.082	-0.093
-390.063	-93.458	-0.241	0.067
-389.048	-18.701	0.171	-0.106
-388.033	-83.933	-0.181	0.057
-387.019	-83.850	0.286	0.091
-386.004	85.336	-0.191	0.208
-384.990	461.542	-0.057	0.127
-383.975	-10.426	-0.227	-0.150
-382.960	479.084	-0.097	0.219
-381.946	-21.316	0.338	0.205
-380.931	-37.869	-0.206	0.109
-379.917	-72.337	-0.116	-0.043
-378.902	-91.382	-0.285	0.081
-377.888	-118.595	-0.187	-0.033
-376.873	-0.866	-0.217	-0.153
-375.858	28.650	-0.012	0.010
-374.844	596.407	0.070	0.174
-373.829	-11.063	-0.091	0.060
-372.815	-155.557	0.152	0.010
-371.800	394.655	-0.067	-0.140
-370.785	604.836	0.079	-0.195
-369.771	800.000	-0.053	-0.157
-368.756	-200.000	0.005	-0.079
-367.742	184.715	0.031	-0.045
-366.727	-81.119	0.205	-0.067
-365.712	149.438	0.007	0.009
-364.698	-126.964	0.445	-0.065
-363.683	491.528	0.124	-0.282
-362.669	-64.421	-0.271	0.110
-361.654	54.376	0.046	0.044
-360.639	-85.095	-0.105	0.033
-359.625	-17.113	0.093	0.058
-358.610	-34.195	-0.259	-0.141
-357.596	800.000	-0.065	0.272
-356.581	317.909	0.122	-0.230
-355.566	800.000	0.077	0.236
-354.552	800.000	0.060	-0.238
-353.537	-7.671	-0.235	0.158
-352.523	-24.791	0.010	0.006
-351.508	-42.091	-0.359	-0.182
-350.493	31.163	-0.106	0.090
-349.479	-18.520	0.062	-0.039
-348.464	20.104	0.400	-0.321
-347.450	-72.710	0.109	0.040
-346.435	-68.379	0.322	-0.124
-345.420	-200.000	0.009	0.129
-344.406	-82.586	0.266	-0.086
-343.391	800.000	-0.056	0.189
-342.377	148.326	0.081	0.109
-341.362	-47.233	0.228	0.110
-340.348	-200.000	-0.043	-0.283
-339.333	-60.786	-0.151	0.064
-338.318	-54.352	-0.191	0.086
-337.304	368.921	0.083	0.167
-336.289	800.000	0.097	-0.305
-335.275	-200.000	-0.014	-0.230
-334.260	-37.059	-0.084	-0.045
-333.245	-151.130	0.122	-0.009
-332.231	3.866	0.248	0.180
-331.216	-121.945	0.264	0.043
-330.202	-68.851	-0.228	0.087
-329.187	53.842	0.077	0.074
-328.172	674.929	-0.092	-0.238
-327.158	336.399	-0.056	0.109
-326.143	-200.000	0.076	0.441
-325.129	800.000	0.023	0.077
-324.114	133.678	0.176	-0.227
-323.099	-66.549	0.182	-0.072
-322.085	-109.919	-0.176	-0.037
-321.070	263.573	-0.101	-0.175
-320.056	-85.270	0.190	-0.059
-319.041	131.966	0.149	-0.190
-318.026	-116.554	-0.279	-0.051
-317.012	-200.000	-0.007	-0.157
-315.997	-200.000	-0.022	-0.271
-314.983	800.000	0.147	0.413
-313.968	-85.426	-0.139	0.043
-312.953	800.000	-0.098	-0.275
-311.939	-200.000	0.040	0.403
-310.924	-16.650	0.421	0.264
-309.910	-84.172	0.275	-0.086
-308.895	800.000	0.028	-0.115
-307.880	169.655	-0.119	-0.169
-306.866	42.386	0.131	-0.118
-305.851	69.942	-0.191	0.195
-304.837	158.300	0.272	-0.374
-303.822	800.000	0.122	0.352
-302.807	-200.000	0.015	-0.131
-301.793	-200.000	-0.028	0.181
-300.778	-59.951	-0.316	0.134
-299.764	204.665	0.080	-0.123
-298.749	76.617	-0.088	0.092
-297.735	-200.000	-0.023	-0.204
-296.720	-200.000	0.016	-0.085
-295.705	8.548	0.225	0.168
-294.691	125.408	-0.252	-0.315
-293.676	-81.826	-0.063	0.021
-292.662	-41.810	0.222	0.113
-291.647	-176.791	0.179	-0.005
-290.632	-134.475	-0.393	0.048
-289.618	22.686	0.063	0.051
-288.603	-172.666	-0.354	-0.011
-287.589	297.082	-0.088	-0.161
-286.574	-142.330	-0.078	0.008
-285.559	104.625	0.116	0.136
-284.545	-41.646	0.177	-0.090
-283.530	-61.366	0.117	0.049
-282.516	682.494	0.066	0.171
-281.501	42.572	-0.186	-0.168
-280.486	-200.000	0.003	-0.383
-279.472	300.276	-0.107	-0.196
-278.457	520.378	0.017	-0.040
-277.443	232.709	0.268	0.436
-276.428	-7.526	0.264	0.177
-275.413	-92.220	0.150	0.042
-274.399	-130.593	0.228	-0.030
-273.384	-8.683	0.396	-0.263
-272.370	-200.000	-0.031	0.206
-271.355	397.606	-0.083	-0.173
-270.340	193.164	0.059	0.089
-269.326	-23.219	0.074	0.044
-268.311	641.923	-0.121	-0.305
-267.297	9.926	0.006	0.005
-266.282	26.837	0.238	-0.198
-265.267	174.245	-0.208	-0.298
-264.253	-15.847	-0.238	0.150
-263.238	30.915	-0.273	0.232
-262.224	102.241	-0.209	-0.242
-261.209	-200.000	-0.025	-0.109
-260.195	504.995	-0.156	-0.359
-259.180	-73.686	0.346	-0.125
-258.165	82.783	0.093	0.100
-257.151	-124.187	-0.007	0.001
-256.136	-91.007	0.086	0.024
-255.122	-97.505	0.249	-0.064
-254.107	-186.378	0.007	0.000
-253.092	800.000	0.028	0.116
-252.078	35.337	0.119	-0.103
-251.063	500.122	-0.152	-0.347
-250.049	-134.015	0.166	-0.020
-249.034	484.799	-0.052	-0.118
-248.019	147.879	-0.115	-0.153
-247.005	-200.000	0.002	-0.218
-245.990	82.053	-0.051	-0.055
-244.976	-92.417	-0.166	0.046
-243.961	-200.000	-0.005	-0.114
-242.946	-79.954	-0.066	-0.022
-241.932	-84.832	-0.060	0.019
-240.917	-169.652	-0.159	0.006
-239.903	-200.000	0.035	-0.282
-238.888	-1.320	-0.249	-0.174
-237.873	-5.537	-0.114	-0.077
-236.859	-200.000	-0.015	-0.073
-235.844	800.000	0.081	-0.255
-234.830	-200.000	0.002	0.030
-233.815	-37.123	0.617	-0.327
-232.800	559.547	0.133	0.318
-231.786	49.393	-0.149	-0.139
-230.771	-155.131	0.274	0.018
-229.757	179.773	-0.052	-0.075
-228.742	-138.928	0.168	0.018
-227.727	800.000	0.103	0.296
-226.713	225.657	-0.182	0.292
-225.698	-200.000	0.035	-0.243
-224.684	164.340	-0.081	-0.113
-223.669	800.000	-0.058	-0.173
-222.655	-200.000	0.078	0.413
-221.640	-200.000	-0.011	-0.113
-220.625	-64.298	-0.281	-0.113
-219.611	-11.457	-0.101	-0.066
-218.596	105.859	-0.021	0.024
-217.582	-168.724	0.291	-0.011
-216.567	37.683	-0.108	-0.095
-215.552	105.174	-0.124	-0.144
-214.538	501.345	0.114	0.259
-213.523	-12.426	0.234	0.151
-212.509	34.731	-0.079	0.068
-211.494	-16.785	-0.230	-0.144
-210.479	-15.322	0.084	0.053
-209.465	-200.000	0.045	-0.246
-208.450	-33.398	-0.358	0.196
-207.436	249.933	-0.050	-0.084
-206.421	-117.834	-0.316	-0.056
-205.406	-11.860	0.031	0.020
-204.392	332.257	0.031	-0.058
-203.377	-158.276	0.102	0.006
-202.363	-87.175	0.237	0.071
-201.348	34.409	0.079	0.068
-200.333	-110.057	0.246	-0.051
-199.319	68.869	-0.150	0.152
-198.304	-20.593	-0.307	-0.186
-197.290	-131.714	-0.312	0.040
-196.275	560.308	-0.126	0.300
-195.260	464.299	0.118	0.262
-194.246	407.293	0.091	0.189
-193.231	137.258	-0.081	0.105
-192.217	-103.983	0.138	-0.032
-191.202	800.000	-0.085	0.241
-190.187	-166.158	0.243	0.010
-189.173	60.621	-0.147	0.143
-188.158	-30.163	0.182	0.102
-187.144	407.008	0.121	0.253
-186.129	-200.000	-0.008	-0.048
-185.114	-151.030	0.336	-0.025
-184.100	93.411	-0.200	-0.223
-183.085	35.509	0.334	-0.289
-182.071	192.477	0.198	-0.295
-181.056	326.628	-0.073	0.138
-180.042	58.547	0.204	-0.197
-179.027	173.292	-0.211	0.301
-178.012	210.901	0.168	0.260
-176.998	800.000	0.040	-0.128
-175.983	47.266	0.205	-0.188
-174.969	-52.829	0.120	0.055
-173.954	-30.896	-0.348	-0.194
-172.939	474.701	0.106	-0.237
-171.925	244.164	-0.198	-0.328
-170.910	-110.969	-0.241	-0.049
-169.896	-200.000	0.027	0.223
-168.881	-88.527	0.271	0.080
-167.866	47.493	-0.056	-0.051
-166.852	-200.000	0.001	-0.277
-165.837	552.594	0.087	0.207
-164.823	-134.424	-0.120	0.014
-163.808	-34.817	-0.316	0.170
-162.793	-87.416	0.242	0.072
-161.779	-153.595	-0.247	0.017
-160.764	132.888	-0.135	-0.172
-159.750	-43.243	0.214	-0.107
-158.735	178.585	0.048	-0.070
-157.720	164.183	-0.049	-0.068
-156.706	291.965	-0.148	-0.266
-155.691	-39.678	0.543	0.280
-154.677	48.406	-0.084	0.078
-153.662	-73.985	0.131	0.047
-152.647	800.000	-0.031	0.116
-151.633	-200.000	0.014	0.206
-150.618	-200.000	-0.063	-0.285
-149.604	117.862	-0.225	0.273
-148.589	-55.981	0.434	0.191
-147.574	-168.693	-0.129	-0.005
-146.560	800.000	0.048	-0.144
-145.545	-115.468	-0.274	0.051
-144.531	191.507	0.213	-0.316
-143.516	145.449	0.243	0.320
-142.502	694.458	-0.050	0.130
-141.487	-200.000	0.005	-0.266
-140.472	713.829	-0.065	0.170
-139.458	239.004	-0.140	-0.229
-138.443	1.272	-0.042	-0.029
-137.429	79.023	-0.115	0.122
-136.414	800.000	-0.062	-0.175
-135.399	32.558	-0.250	-0.213
-134.385	62.548	-0.196	0.193
-133.370	229.052	0.132	0.212
-132.356	-77.168	-0.120	0.041
-131.341	800.000	-0.087	0.331
-130.326	241.244	0.153	-0.251
-129.312	-200.000	0.004	0.297
-128.297	-117.331	-0.290	0.052
-127.283	57.368	0.220	-0.212
-126.268	-73.099	0.089	0.032
-125.253	-200.000	0.034	0.201
-124.239	483.932	-0.125	0.281
-123.224	-115.828	-0.161	0.030
-122.210	8.714	-0.018	0.013
-121.195	78.758	0.076	-0.080
-120.180	13.810	0.257	0.197
