DTS Sentinel unit serial number:	SN413079Multiplexer serial number:	ORYXHardware model number:	OX4-SRSoftware version number:	ORYX F/W v4.00 Oryx Data Collector v3.7.2.0data status	okinstallation	princeton_trtdifferential loss correction	single-endedforward channel	channel 3reverse channel	N/Adate	2019/09/12time	04:38:11forward acquisition time	60.00reverse acquisition time	0.00gamma	496.2192k internal	0.2324k external	0.2324temperature offset calibration	1.0112default loss term (dB/km)	0.3790temperature slope calibration	1.0000multiplexer offset coefficient	1.0000multiplexer slope coefficient	1.0000fibre end	0.00T internal ref (°C)	31.62T ext. ref 1 (°C)	2.85T ext. ref 2 (°C)	27.02length (m)	temperature (°C)	Stokes	anti-Stokes-747.200	-20.330	0.206	0.128
-746.185	-66.493	-0.194	0.078
-745.171	-200.000	0.000	-0.035
-744.156	-96.449	-0.297	-0.079
-743.142	-47.061	0.398	-0.196
-742.127	-17.788	-0.102	0.064
-741.112	-200.000	-0.013	-0.332
-740.098	-10.377	-0.258	-0.173
-739.083	14.724	0.136	0.107
-738.069	-69.578	-0.115	0.044
-737.054	-90.408	0.184	0.054
-736.039	92.415	-0.053	0.060
-735.025	-61.949	0.120	-0.051
-734.010	44.034	-0.346	-0.320
-732.996	-84.827	-0.141	-0.045
-731.981	-74.296	0.272	0.099
-730.966	29.408	-0.192	0.165
-729.952	-76.879	0.173	0.061
-728.937	-200.000	-0.035	-0.166
-727.923	-1.971	0.239	-0.169
-726.908	154.735	0.126	-0.175
-725.894	51.473	-0.329	-0.316
-724.879	68.523	0.109	-0.112
-723.864	80.124	0.095	-0.103
-722.850	153.791	0.057	0.079
-721.835	234.312	0.114	-0.189
-720.821	-24.515	-0.275	-0.165
-719.806	-56.175	-0.129	0.058
-718.791	-48.394	-0.454	0.220
-717.777	131.606	-0.105	0.136
-716.762	-69.318	0.147	-0.057
-715.748	98.668	-0.100	-0.116
-714.733	-21.588	0.264	0.162
-713.718	-97.646	-0.295	0.077
-712.704	164.830	-0.120	0.171
-711.689	-200.000	-0.010	-0.319
-710.675	11.605	0.106	-0.082
-709.660	262.624	0.063	-0.110
-708.645	126.398	0.313	-0.400
-707.631	73.525	0.298	0.315
-706.616	235.244	-0.094	0.157
-705.602	-88.077	0.414	-0.125
-704.587	800.000	-0.126	-0.453
-703.572	-123.930	-0.477	-0.076
-702.558	-200.000	-0.028	-0.653
-701.543	800.000	0.047	-0.159
-700.529	-119.448	-0.176	-0.031
-699.514	336.173	0.080	0.157
-698.499	-189.794	0.299	-0.003
-697.485	-149.342	-0.088	-0.007
-696.470	-75.070	-0.130	0.047
-695.456	513.293	-0.115	0.271
-694.441	-44.772	-0.326	-0.164
-693.426	112.460	-0.145	-0.176
-692.412	-112.929	0.323	-0.064
-691.397	96.242	0.309	-0.356
-690.383	107.834	-0.052	0.062
-689.368	506.561	-0.095	-0.221
-688.354	-200.000	0.011	0.239
-687.339	-88.451	0.356	-0.107
-686.324	155.861	0.180	0.250
-685.310	163.679	-0.092	-0.131
-684.295	-11.808	0.090	-0.059
-683.281	-30.954	-0.096	-0.055
-682.266	-55.927	0.264	-0.119
-681.251	800.000	-0.075	0.242
-680.237	161.529	-0.088	0.124
-679.222	239.689	0.078	-0.131
-678.208	-200.000	0.022	-0.162
-677.193	-18.574	0.216	0.136
-676.178	7.172	-0.148	-0.111
-675.164	800.000	-0.033	-0.129
-674.149	108.881	-0.112	0.135
-673.135	33.592	0.123	0.107
-672.120	143.700	-0.094	0.126
-671.105	729.272	0.063	-0.169
-670.091	94.564	0.162	-0.185
-669.076	-105.101	0.200	0.046
-668.062	-2.981	-0.141	0.099
-667.047	1.013	-0.066	-0.048
-666.032	800.000	0.074	-0.288
-665.018	-200.000	-0.077	0.500
-664.003	-200.000	-0.034	0.178
-662.989	-153.918	0.347	-0.024
-661.974	414.293	-0.089	0.190
-660.959	308.330	0.072	-0.136
-659.945	-200.000	-0.015	-0.390
-658.930	98.116	-0.165	0.191
-657.916	-21.886	-0.128	0.078
-656.901	-200.000	-0.005	0.158
-655.886	-200.000	-0.047	0.210
-654.872	261.083	-0.048	0.084
-653.857	112.248	-0.140	-0.170
-652.843	420.233	0.075	-0.163
-651.828	3.932	-0.434	-0.319
-650.814	231.611	-0.153	0.252
-649.799	-69.392	0.032	-0.012
-648.784	-0.761	-0.105	-0.075
-647.770	19.578	-0.200	0.162
-646.755	317.928	0.120	-0.228
-645.741	-95.182	-0.263	-0.071
-644.726	-200.000	-0.035	-0.179
-643.711	-51.554	0.282	-0.132
-642.697	302.702	0.173	0.322
-641.682	67.862	-0.047	0.049
-640.668	-79.306	-0.453	0.154
-639.653	145.476	0.116	0.156
-638.638	-200.000	0.054	0.291
-637.624	252.722	-0.072	0.123
-636.609	-155.874	0.146	-0.009
-635.595	-21.192	0.096	0.059
-634.580	-97.133	0.388	0.102
-633.565	-200.000	0.001	-0.347
-632.551	-63.035	0.244	-0.101
-631.536	800.000	0.055	-0.198
-630.522	-200.000	0.011	0.429
-629.507	-110.604	0.061	0.013
-628.492	37.498	0.192	-0.171
-627.478	-15.287	0.133	0.085
-626.463	43.808	0.131	-0.121
-625.449	-200.000	0.044	-0.528
-624.434	-110.590	-0.095	0.020
-623.419	24.973	-0.173	-0.144
-622.405	800.000	-0.040	0.131
-621.390	-64.528	-0.039	0.016
-620.376	-200.000	-0.004	0.081
-619.361	-76.960	-0.250	0.088
-618.346	118.346	0.073	0.090
-617.332	-78.905	0.025	-0.008
-616.317	-45.606	0.084	0.042
-615.303	-60.964	0.213	0.091
-614.288	93.178	-0.165	-0.187
-613.273	-50.558	-0.275	0.130
-612.259	-200.000	-0.037	0.333
-611.244	-123.972	-0.049	-0.008
-610.230	800.000	0.002	0.009
-609.215	800.000	0.079	0.225
-608.201	-42.577	0.079	-0.040
-607.186	800.000	-0.066	-0.192
-606.171	800.000	0.117	-0.362
-605.157	-200.000	0.056	0.343
-604.142	66.487	-0.373	-0.381
-603.128	302.852	0.034	-0.062
-602.113	-42.281	-0.334	0.171
-601.098	-47.023	-0.161	-0.079
-600.084	-200.000	-0.062	-0.428
-599.069	28.539	0.102	0.087
-598.055	73.774	-0.090	-0.094
-597.040	-136.083	0.034	0.004
-596.025	-200.000	0.005	-0.082
-595.011	-62.776	-0.256	0.106
-593.996	-125.527	0.095	0.015
-592.982	257.900	0.196	0.338
-591.967	800.000	-0.028	-0.110
-590.952	304.583	0.065	0.121
-589.938	232.879	0.096	-0.159
-588.923	-200.000	-0.016	-0.340
-587.909	-22.647	0.293	0.177
-586.894	-61.657	0.286	0.120
-585.879	-25.472	-0.168	-0.100
-584.865	75.528	0.311	0.329
-583.850	50.854	0.265	-0.251
-582.836	120.563	0.056	-0.070
-581.821	-64.346	0.365	0.149
-580.806	192.421	0.041	0.062
-579.792	123.898	-0.417	-0.525
-578.777	800.000	0.028	0.091
-577.763	-95.680	0.225	-0.060
-576.748	293.017	-0.053	-0.096
-575.733	72.528	-0.066	-0.070
-574.719	78.973	-0.146	-0.156
-573.704	-56.135	0.108	-0.048
-572.690	-200.000	-0.003	-0.140
-571.675	-200.000	0.033	-0.222
-570.661	91.924	0.209	-0.236
-569.646	-86.543	0.169	-0.052
-568.631	-25.675	-0.064	0.038
-567.617	-200.000	0.012	-0.265
-566.602	188.796	0.166	0.249
-565.588	-43.989	-0.176	0.089
-564.573	-123.738	-0.269	-0.043
-563.558	-78.101	0.106	0.037
-562.544	165.623	-0.137	0.194
-561.529	-1.389	-0.175	-0.124
-560.515	-200.000	0.007	0.195
-559.500	97.079	0.078	0.090
-558.485	72.585	-0.060	-0.062
-557.471	4.374	0.166	0.122
-556.456	-69.315	-0.250	-0.096
-555.442	-200.000	0.005	-0.366
-554.427	-3.812	0.394	-0.274
-553.412	-22.843	-0.140	0.084
-552.398	-114.115	0.269	-0.052
-551.383	-200.000	0.061	0.276
-550.369	220.529	0.192	0.308
-549.354	69.537	-0.046	0.047
-548.339	-34.017	0.315	0.173
-547.325	50.520	-0.412	0.390
-546.310	-166.718	0.326	-0.014
-545.296	87.874	-0.087	0.097
-544.281	242.402	-0.216	0.362
-543.266	-72.722	-0.204	0.075
-542.252	-151.106	-0.109	-0.008
-541.237	-109.062	0.462	-0.099
-540.223	450.588	0.086	-0.190
-539.208	800.000	-0.022	0.089
-538.193	-148.249	0.125	0.010
-537.179	121.660	0.034	0.043
-536.164	-149.059	0.275	-0.022
-535.150	28.098	-0.153	-0.130
-534.135	-62.792	0.266	0.110
-533.121	800.000	-0.042	-0.117
-532.106	122.415	-0.137	-0.172
-531.091	177.421	0.030	-0.044
-530.077	-200.000	-0.052	0.284
-529.062	-40.429	-0.405	-0.211
-528.048	192.185	-0.205	0.310
-527.033	800.000	0.131	-0.501
-526.018	-200.000	-0.009	-0.105
-525.004	800.000	-0.081	-0.339
-523.989	41.483	-0.284	-0.258
-522.975	-200.000	-0.025	-0.163
-521.960	343.752	0.097	0.191
-520.945	35.097	-0.095	0.083
-519.931	-200.000	-0.021	0.142
-518.916	-135.431	0.300	0.036
-517.902	14.129	-0.147	0.114
-516.887	4.685	-0.248	-0.182
-515.872	-14.076	0.311	0.201
-514.858	-35.295	0.150	0.082
-513.843	-17.092	0.288	-0.182
-512.829	-200.000	0.026	0.267
-511.814	571.865	-0.101	0.246
-510.799	-200.000	-0.003	-0.151
-509.785	-127.399	0.170	0.025
-508.770	-28.311	0.047	-0.027
-507.756	-200.000	0.035	0.280
-506.741	-200.000	-0.013	0.231
-505.726	-119.518	0.336	-0.058
-504.712	-157.303	0.248	0.015
-503.697	-118.902	0.056	0.010
-502.683	-200.000	0.043	-0.323
-501.668	-105.529	-0.076	0.017
-500.653	-200.000	0.066	0.355
-499.639	800.000	-0.099	0.385
-498.624	178.259	-0.105	0.153
-497.610	-200.000	-0.010	-0.402
-496.595	-11.040	-0.240	0.158
-495.581	800.000	0.038	0.159
-494.566	-134.203	0.355	0.044
-493.551	-63.862	0.104	-0.043
-492.537	63.361	-0.116	0.116
-491.522	-83.145	0.174	-0.056
-490.508	-23.037	0.173	0.104
-489.493	-25.028	0.202	0.120
-488.478	-60.348	0.160	-0.068
-487.464	58.156	-0.178	0.175
-486.449	-100.486	0.177	0.044
-485.435	-200.000	0.045	0.326
-484.420	-14.338	-0.015	0.010
-483.405	501.019	0.082	0.188
-482.391	-133.517	-0.358	-0.045
-481.376	-76.321	0.196	0.069
-480.362	-55.393	0.426	-0.191
-479.347	201.257	0.051	-0.078
-478.332	65.797	-0.260	0.264
-477.318	-84.109	-0.235	0.075
-476.303	-38.072	-0.367	-0.195
-475.289	188.945	0.169	0.252
-474.274	52.860	0.046	-0.044
-473.259	-134.689	-0.308	-0.037
-472.245	21.338	0.177	0.143
-471.230	38.832	-0.094	-0.084
-470.216	278.713	-0.203	-0.362
-469.201	-50.184	-0.110	-0.052
-468.186	-200.000	0.020	-0.159
-467.172	-59.612	0.273	0.117
-466.157	-102.956	-0.105	0.025
-465.143	-81.226	-0.167	0.055
-464.128	-124.440	0.210	-0.033
-463.113	800.000	-0.065	-0.259
-462.099	470.095	-0.074	-0.167
-461.084	-200.000	0.010	0.140
-460.070	-46.152	0.159	0.078
-459.055	26.194	0.228	0.190
-458.040	91.323	0.127	0.142
-457.026	-92.244	0.072	0.020
-456.011	-28.057	-0.255	-0.147
-454.997	131.979	0.312	0.401
-453.982	-77.264	-0.075	0.026
-452.968	288.309	0.048	-0.087
-451.953	372.014	0.254	0.514
-450.938	-92.628	-0.223	-0.062
-449.924	-200.000	0.042	0.256
-448.909	52.913	-0.439	-0.419
-447.895	47.085	-0.119	-0.110
-446.880	-79.133	0.140	-0.047
-445.865	-200.000	0.002	0.099
-444.851	-2.256	0.305	-0.213
-443.836	-120.744	0.195	0.033
-442.822	-78.427	-0.241	-0.082
-441.807	-168.393	-0.159	0.006
-440.792	-200.000	0.049	0.283
-439.778	166.837	0.068	0.097
-438.763	132.957	-0.079	-0.102
-437.749	-83.912	-0.211	0.067
-436.734	-43.542	-0.061	0.031
-435.719	-99.140	-0.433	0.109
-434.705	-56.787	-0.313	-0.138
-433.690	184.534	0.171	0.252
-432.676	-200.000	0.009	0.165
-431.661	-200.000	0.062	-0.345
-430.646	78.906	0.062	-0.066
-429.632	81.464	0.240	-0.259
-428.617	562.244	-0.109	-0.263
-427.603	285.080	-0.109	0.195
-426.588	800.000	0.072	0.199
-425.573	-30.484	0.202	0.114
-424.559	706.178	0.038	0.100
-423.544	-140.414	-0.068	-0.007
-422.530	-200.000	0.037	-0.224
-421.515	275.851	0.136	-0.241
-420.500	-2.054	0.064	0.045
-419.486	39.483	0.339	0.303
-418.471	-62.434	0.066	0.027
-417.457	-200.000	0.004	0.090
-416.442	800.000	0.089	0.249
-415.428	25.731	-0.065	0.054
-414.413	23.570	0.114	-0.093
-413.398	222.917	0.046	0.074
-412.384	26.877	-0.099	-0.082
-411.369	121.828	0.067	-0.083
-410.355	800.000	-0.152	-0.497
-409.340	241.982	-0.146	-0.242
-408.325	-200.000	0.016	0.195
-407.311	162.663	0.060	-0.085
-406.296	96.481	-0.168	0.192
-405.282	366.541	-0.226	-0.454
-404.267	-89.325	0.229	-0.067
-403.252	-200.000	-0.007	-0.139
-402.238	-163.190	0.281	0.013
-401.223	105.322	0.051	0.060
-400.209	426.811	-0.094	-0.201
-399.194	-42.111	0.079	-0.040
-398.179	800.000	0.063	-0.266
-397.165	-200.000	-0.044	0.401
-396.150	91.146	-0.142	-0.158
-395.136	-21.046	0.198	0.120
-394.121	401.602	0.107	0.224
-393.106	-0.460	0.047	0.033
-392.092	-200.000	-0.021	-0.110
-391.077	-200.000	0.035	0.604
-390.063	128.747	0.077	-0.097
-389.048	-200.000	0.048	0.233
-388.033	-114.166	-0.121	-0.023
-387.019	-200.000	-0.127	-0.000
-386.004	219.356	0.063	0.100
-384.990	-54.679	0.200	0.090
-383.975	9.497	0.171	-0.129
-382.960	-11.355	-0.328	0.215
-381.946	255.463	-0.121	0.206
-380.931	-7.327	-0.149	-0.101
-379.917	-200.000	0.018	0.433
-378.902	344.966	0.078	-0.153
-377.888	800.000	0.192	-0.530
-376.873	-200.000	-0.031	0.222
-375.858	469.307	-0.150	0.335
-374.844	800.000	-0.104	0.350
-373.829	-200.000	-0.027	0.335
-372.815	800.000	0.022	-0.073
-371.800	-200.000	0.011	0.261
-370.785	-73.002	0.192	0.070
-369.771	-56.792	0.077	0.034
-368.756	393.209	-0.160	-0.331
-367.742	-173.639	-0.100	-0.003
-366.727	423.736	0.093	-0.199
-365.712	196.915	-0.270	-0.409
-364.698	64.691	0.216	0.216
-363.683	137.928	-0.295	0.384
-362.669	-143.575	-0.259	0.024
-361.654	800.000	-0.040	-0.160
-360.639	-30.520	0.244	0.138
-359.625	-62.885	-0.152	0.063
-358.610	-55.947	-0.055	0.024
-357.596	-200.000	0.070	-0.631
-356.581	-21.186	0.117	0.071
-355.566	-200.000	-0.001	-0.022
-354.552	-97.214	0.214	0.056
-353.537	7.933	-0.186	0.138
-352.523	-200.000	-0.017	0.095
-351.508	99.088	0.311	-0.357
-350.493	800.000	0.067	0.213
-349.479	-19.664	0.181	0.111
-348.464	-72.006	0.072	0.027
-347.450	-23.753	0.159	-0.095
-346.435	-200.000	0.005	-0.024
-345.420	2.120	-0.253	0.181
-344.406	124.884	-0.066	0.082
-343.391	-5.295	-0.039	0.027
-342.377	-200.000	0.076	0.000
-341.362	326.767	-0.215	-0.410
-340.348	67.143	0.153	-0.155
-339.333	192.100	0.023	0.034
-338.318	-8.069	-0.132	-0.088
-337.304	-200.000	-0.075	0.329
-336.289	171.879	-0.072	0.103
-335.275	-200.000	-0.038	-0.212
-334.260	107.230	-0.218	0.257
-333.245	-82.269	-0.250	-0.081
-332.231	-107.346	-0.187	-0.041
-331.216	-20.894	-0.036	0.022
-330.202	-165.506	0.271	0.012
-329.187	800.000	-0.084	0.253
-328.172	-42.905	0.029	0.015
-327.158	496.715	-0.044	-0.101
-326.143	-200.000	-0.449	-0.001
-325.129	180.376	0.173	-0.252
-324.114	155.271	-0.101	0.138
-323.099	239.307	-0.112	-0.184
-322.085	111.554	0.147	-0.176
-321.070	755.341	-0.043	0.116
-320.056	-200.000	0.015	-0.067
-319.041	-39.482	-0.087	0.045
-318.026	208.842	-0.129	0.201
-317.012	-182.006	0.251	0.005
-315.997	47.659	0.342	0.317
-314.983	-87.655	-0.469	0.140
-313.968	212.262	0.037	0.058
-312.953	41.568	-0.167	-0.150
-311.939	-68.262	-0.192	0.074
-310.924	239.213	-0.132	0.217
-309.910	800.000	-0.088	0.271
-308.895	-154.684	0.276	0.018
-307.880	-46.995	-0.269	0.131
-306.866	-17.481	-0.229	-0.143
-305.851	127.551	-0.247	-0.311
-304.837	677.004	0.112	-0.289
-303.822	-68.903	0.114	0.043
-302.807	225.004	0.097	0.156
-301.793	-106.110	-0.254	0.057
-300.778	-200.000	0.029	-0.402
-299.764	-76.667	0.256	0.089
-298.749	-156.196	-0.199	0.012
-297.735	147.920	-0.202	0.270
-296.720	5.647	0.058	0.043
-295.705	59.362	0.161	-0.157
-294.691	-200.000	-0.007	-0.177
-293.676	-200.000	-0.192	-0.000
-292.662	-66.357	0.057	0.023
-291.647	-74.895	-0.466	-0.166
-290.632	-15.744	-0.148	0.093
-289.618	-170.176	0.119	0.004
-288.603	-116.655	-0.352	0.064
-287.589	71.414	-0.175	-0.180
-286.574	-88.416	0.156	0.046
-285.559	-200.000	-0.005	-0.066
-284.545	759.540	0.062	0.167
-283.530	199.106	0.104	0.157
-282.516	-47.545	0.346	0.167
-281.501	681.405	0.102	0.262
-280.486	-200.000	-0.003	-0.044
-279.472	-68.280	-0.244	-0.094
-278.457	397.881	0.050	0.104
-277.443	-181.421	0.230	0.004
-276.428	252.555	-0.114	0.192
-275.413	-36.667	-0.400	0.213
-274.399	16.365	0.155	-0.121
-273.384	160.951	-0.109	-0.150
-272.370	422.515	0.083	0.177
-271.355	-200.000	0.017	-0.086
-270.340	371.489	-0.214	-0.429
-269.326	-200.000	0.053	-0.276
-268.311	-14.040	0.189	0.121
-267.297	-100.571	-0.243	-0.060
-266.282	-143.025	-0.126	-0.012
-265.267	-42.084	0.288	0.146
-264.253	-97.409	-0.207	0.053
-263.238	800.000	0.036	-0.140
-262.224	-46.736	0.092	-0.045
-261.209	53.636	-0.071	-0.067
-260.195	-47.637	-0.041	-0.020
-259.180	145.705	0.161	-0.214
-258.165	-200.000	0.041	-0.190
-257.151	-83.844	-0.113	0.036
-256.136	595.196	0.093	-0.227
-255.122	-113.211	-0.368	0.072
-254.107	206.811	-0.174	0.269
-253.092	379.006	-0.144	0.293
-252.078	800.000	-0.070	0.208
-251.063	166.406	0.109	-0.153
-250.049	-112.259	0.320	0.064
-249.034	-72.087	0.209	0.077
-248.019	-38.214	-0.259	-0.136
-247.005	800.000	-0.052	0.163
-245.990	175.417	0.113	0.162
-244.976	112.563	-0.144	0.172
-243.961	-200.000	0.025	-0.306
-242.946	-200.000	-0.002	-0.139
-241.932	176.658	-0.185	-0.267
-240.917	-200.000	0.034	-0.183
-239.903	-200.000	0.008	-0.128
-238.888	102.209	0.222	0.257
-237.873	-200.000	-0.032	0.146
-236.859	-200.000	-0.034	-0.357
-235.844	-200.000	0.031	-0.154
-234.830	-89.829	0.161	0.047
-233.815	15.431	0.221	0.172
-232.800	800.000	0.054	-0.198
-231.786	-200.000	-0.051	-0.293
-230.771	-66.629	-0.471	-0.185
-229.757	5.613	-0.204	-0.149
-228.742	-120.348	0.168	-0.028
-227.727	-150.608	-0.241	0.018
-226.713	-93.495	-0.249	0.068
-225.698	-182.255	0.162	-0.003
-224.684	-64.703	-0.484	0.194
-223.669	-200.000	0.051	0.308
-222.655	-176.513	0.179	-0.005
-221.640	153.092	-0.203	0.275
-220.625	-160.958	0.179	-0.009
-219.611	-200.000	0.000	-0.060
-218.596	1.771	0.211	-0.150
-217.582	-167.976	0.162	-0.006
-216.567	-102.063	0.304	0.072
-215.552	-200.000	-0.013	-0.165
-214.538	124.006	0.175	0.217
-213.523	-33.995	-0.107	-0.058
-212.509	-200.000	-0.007	-0.142
-211.494	-140.720	-0.250	-0.026
-210.479	350.867	-0.022	0.043
-209.465	40.024	0.167	0.149
-208.450	-112.025	0.246	-0.049
-207.436	428.114	-0.118	-0.253
-206.421	-88.791	0.217	0.064
-205.406	73.429	-0.116	0.120
-204.392	81.974	-0.169	-0.181
-203.377	427.751	0.072	-0.154
-202.363	-96.119	0.076	-0.020
-201.348	172.026	0.027	0.039
-200.333	105.672	-0.217	-0.254
-199.319	800.000	-0.081	-0.278
-198.304	-42.946	0.051	-0.026
-197.290	-131.213	0.241	-0.032
-196.275	-24.508	0.191	-0.112
-195.260	24.047	-0.163	-0.133
-194.246	161.640	0.087	-0.121
-193.231	160.760	-0.163	-0.225
-192.217	112.614	0.153	-0.183
-191.202	84.731	-0.064	-0.069
-190.187	586.716	-0.074	-0.181
-189.173	-116.974	-0.052	-0.009
-188.158	301.605	-0.054	0.098
-187.144	-58.524	-0.259	0.111
-186.129	-200.000	-0.017	0.190
-185.114	-190.519	0.085	-0.001
-184.100	-95.692	0.139	-0.037
-183.085	-123.422	0.218	-0.034
-182.071	-200.000	0.048	0.231
-181.056	-73.614	-0.393	0.141
-180.042	-200.000	-0.014	-0.126
-179.027	-62.925	0.208	0.085
-178.012	-56.856	0.205	-0.089
-176.998	-200.000	-0.005	-0.050
-175.983	77.349	-0.068	0.071
-174.969	297.393	-0.069	-0.126
-173.954	63.425	0.188	0.186
-172.939	24.926	-0.270	-0.221
-171.925	-104.726	0.166	0.038
-170.910	574.498	-0.024	-0.057
-169.896	-200.000	0.057	-0.311
-168.881	153.645	0.120	-0.162
-167.866	800.000	-0.069	-0.245
-166.852	-94.080	0.116	0.031
-165.837	-200.000	0.004	0.051
-164.823	109.929	0.140	-0.166
-163.808	-119.106	-0.121	-0.021
-162.793	-200.000	0.024	-0.112
-161.779	-50.134	-0.322	-0.150
-160.764	-126.350	-0.361	-0.053
-159.750	-82.510	-0.194	0.062
-158.735	133.270	0.076	0.097
-157.720	-43.166	0.210	-0.105
-156.706	201.627	-0.030	0.045
-155.691	-200.000	-0.036	0.202
-154.677	-56.257	0.289	0.127
-153.662	-80.569	-0.299	0.098
-152.647	-76.787	0.147	-0.051
-151.633	800.000	-0.038	-0.112
-150.618	-200.000	-0.025	0.338
-149.604	-200.000	0.020	-0.214
-148.589	246.513	-0.055	-0.091
-147.574	-200.000	0.022	-0.243
-146.560	123.746	-0.223	0.277
-145.545	-61.153	0.426	-0.177
-144.531	800.000	0.028	-0.115
-143.516	-173.298	0.065	0.002
-142.502	119.515	0.108	-0.131
-141.487	736.301	0.148	-0.392
-140.472	373.261	-0.128	0.256
-139.458	7.261	-0.295	0.217
-138.443	-151.103	0.184	-0.014
-137.429	485.305	-0.067	-0.151
-136.414	79.745	-0.104	0.110
-135.399	800.000	0.016	0.062
-134.385	800.000	-0.052	0.181
-133.370	339.549	-0.043	-0.083
-132.356	-13.650	0.130	0.083
-131.341	28.064	-0.203	0.169
-130.326	-146.398	0.201	0.017
-129.312	-135.325	0.418	0.049
-128.297	800.000	-0.062	0.242
-127.283	176.264	-0.110	-0.158
-126.268	-142.555	-0.177	-0.017
-125.253	-200.000	-0.004	0.087
-124.239	-200.000	-0.024	-0.254
-123.224	-64.682	0.240	-0.096
-122.210	71.028	-0.215	-0.219
-121.195	-200.000	-0.026	-0.276
