DTS Sentinel unit serial number:	SN413079Multiplexer serial number:	ORYXHardware model number:	OX4-SRSoftware version number:	ORYX F/W v4.00 Oryx Data Collector v3.7.2.0data status	okinstallation	princeton_trtdifferential loss correction	single-endedforward channel	channel 3reverse channel	N/Adate	2019/09/18time	09:24:35forward acquisition time	60.00reverse acquisition time	0.00gamma	496.2192k internal	0.2339k external	0.2339temperature offset calibration	0.9942default loss term (dB/km)	0.3790temperature slope calibration	1.0000multiplexer offset coefficient	1.0000multiplexer slope coefficient	1.0000fibre end	0.00T internal ref (°C)	26.12T ext. ref 1 (°C)	0.26T ext. ref 2 (°C)	23.44length (m)	temperature (°C)	Stokes	anti-Stokes-747.200	-67.961	0.184	0.072
-746.185	800.000	0.094	-0.325
-745.171	62.636	-0.214	-0.215
-744.156	-12.150	0.108	0.071
-743.142	26.829	0.168	0.141
-742.127	37.319	-0.172	0.152
-741.112	-200.000	0.005	-0.243
-740.098	106.055	0.245	0.291
-739.083	-102.523	0.327	0.078
-738.069	-79.782	0.362	-0.122
-737.054	310.654	-0.060	0.112
-736.039	-115.870	-0.277	0.052
-735.025	95.239	0.287	0.327
-734.010	-200.000	-0.004	-0.189
-732.996	800.000	0.103	-0.369
-731.981	0.573	-0.248	0.178
-730.966	-52.743	-0.058	-0.027
-729.952	-200.000	0.015	-0.316
-728.937	422.490	-0.140	-0.302
-727.923	-200.000	-0.005	-0.451
-726.908	0.278	0.248	0.178
-725.894	-197.176	-0.178	-0.001
-724.879	-67.311	-0.376	-0.148
-723.864	59.769	-0.216	0.213
-722.850	509.190	-0.176	-0.410
-721.835	166.145	0.130	-0.184
-720.821	35.832	0.370	-0.326
-719.806	-146.767	-0.501	-0.043
-718.791	-200.000	0.017	-0.257
-717.777	800.000	-0.112	-0.322
-716.762	-95.497	-0.173	0.046
-715.748	-200.000	0.023	-0.142
-714.733	248.032	-0.013	0.022
-713.718	-152.418	-0.263	-0.019
-712.704	-189.414	-0.169	0.002
-711.689	139.341	0.195	-0.257
-710.675	327.441	0.077	-0.148
-709.660	-151.285	0.027	-0.002
-708.645	-200.000	-0.016	-0.398
-707.631	74.443	0.154	-0.162
-706.616	39.618	0.126	-0.113
-705.602	64.340	-0.234	-0.236
-704.587	105.998	0.147	-0.175
-703.572	11.244	0.108	-0.082
-702.558	-67.669	0.147	0.058
-701.543	-11.502	-0.213	-0.140
-700.529	-200.000	0.050	0.336
-699.514	549.833	-0.065	-0.155
-698.499	-21.098	0.395	0.242
-697.485	800.000	-0.029	-0.114
-696.470	-62.783	-0.254	-0.105
-695.456	666.762	0.123	-0.317
-694.441	-150.631	-0.051	0.004
-693.426	-88.632	-0.349	-0.104
-692.412	302.875	0.082	-0.152
-691.397	-88.094	0.049	-0.015
-690.383	800.000	-0.026	-0.088
-689.368	-57.504	-0.205	0.090
-688.354	800.000	-0.062	0.242
-687.339	-93.129	0.169	-0.047
-686.324	23.595	0.087	0.072
-685.310	-30.469	-0.049	-0.028
-684.295	311.178	-0.108	-0.203
-683.281	-84.580	-0.397	-0.125
-682.266	800.000	-0.056	-0.202
-681.251	73.512	0.186	-0.195
-680.237	800.000	-0.105	-0.454
-679.222	69.453	0.374	-0.386
-678.208	-82.820	-0.141	0.046
-677.193	138.964	-0.260	0.342
-676.178	-168.106	0.109	-0.004
-675.164	-200.000	0.023	0.324
-674.149	-118.098	-0.376	0.067
-673.135	217.966	-0.214	0.342
-672.120	1.567	-0.155	-0.111
-671.105	95.685	-0.353	0.403
-670.091	315.414	0.133	0.251
-669.076	-19.788	0.280	-0.173
-668.062	-160.387	-0.211	-0.011
-667.047	238.035	-0.073	0.121
-666.032	800.000	-0.012	-0.038
-665.018	-200.000	-0.031	-0.167
-664.003	-98.895	-0.257	-0.065
-662.989	4.021	0.159	-0.116
-661.974	143.884	-0.109	0.145
-660.959	-50.518	0.293	0.138
-659.945	15.290	0.263	-0.206
-658.930	-200.000	0.007	0.248
-657.916	-200.000	-0.043	0.226
-656.901	-192.964	-0.384	0.003
-655.886	-48.720	0.147	0.070
-654.872	23.598	-0.219	-0.180
-653.857	-79.824	0.079	-0.027
-652.843	91.161	0.286	0.320
-651.828	-200.000	-0.022	-0.251
-650.814	-128.976	-0.299	-0.042
-649.799	-96.122	0.262	0.069
-648.784	-69.160	0.271	-0.104
-647.770	-86.564	-0.337	0.103
-646.755	-107.829	0.080	0.017
-645.741	800.000	-0.110	-0.317
-644.726	-138.168	0.137	0.015
-643.711	207.781	-0.126	-0.197
-642.697	114.158	0.141	0.172
-641.682	-35.487	0.222	0.120
-640.668	-200.000	-0.037	-0.205
-639.653	-200.000	-0.139	-0.000
-638.638	-6.140	-0.047	-0.032
-637.624	800.000	0.076	-0.284
-636.609	34.099	-0.063	0.054
-635.595	665.046	-0.064	0.165
-634.580	97.192	-0.116	0.133
-633.565	-144.481	-0.038	-0.004
-632.551	61.756	0.098	0.098
-631.536	225.700	-0.036	-0.059
-630.522	-98.089	0.202	0.052
-629.507	-19.856	0.326	-0.201
-628.492	-39.302	-0.312	-0.163
-627.478	39.084	0.159	-0.142
-626.463	-35.516	0.151	0.082
-625.449	-200.000	0.070	-0.342
-624.434	-92.425	-0.079	-0.022
-623.419	-200.000	0.044	0.377
-622.405	747.379	-0.062	0.167
-621.390	-200.000	-0.016	0.096
-620.376	734.058	-0.150	-0.401
-619.361	-200.000	0.004	-0.150
-618.346	87.850	-0.217	0.240
-617.332	-82.952	-0.237	-0.076
-616.317	-158.770	0.354	0.020
-615.303	-157.034	-0.179	0.011
-614.288	-133.270	0.311	0.039
-613.273	800.000	-0.028	-0.078
-612.259	112.416	0.233	0.281
-611.244	751.737	-0.029	-0.078
-610.230	-200.000	-0.011	-0.148
-609.215	24.043	0.204	0.168
-608.201	61.286	-0.133	0.132
-607.186	800.000	0.112	-0.383
-606.171	229.050	-0.083	-0.135
-605.157	572.919	0.088	-0.213
-604.142	6.673	-0.227	0.168
-603.128	87.639	-0.298	0.330
-602.113	-81.032	0.382	0.126
-601.098	-200.000	0.021	0.123
-600.084	-94.639	-0.283	-0.077
-599.069	402.824	-0.057	-0.119
-598.055	684.183	-0.109	-0.284
-597.040	-200.000	0.003	-0.075
-596.025	-200.000	0.019	0.346
-595.011	-172.572	0.173	-0.005
-593.996	114.214	-0.082	0.100
-592.982	-23.871	-0.080	0.048
-591.967	-134.356	0.081	-0.010
-590.952	-200.000	0.039	0.240
-589.938	-82.973	0.388	0.125
-588.923	226.774	0.179	-0.289
-587.909	800.000	-0.020	0.085
-586.894	-112.677	-0.201	-0.040
-585.879	-165.949	-0.203	0.009
-584.865	499.694	0.090	0.207
-583.850	800.000	0.057	0.188
-582.836	800.000	-0.086	0.242
-581.821	435.004	-0.073	-0.157
-580.806	94.238	0.145	0.164
-579.792	89.520	-0.079	-0.088
-578.777	-62.704	0.205	-0.085
-577.763	-200.000	0.001	0.391
-576.748	404.404	-0.037	0.078
-575.733	-64.122	-0.288	0.117
-574.719	800.000	0.068	-0.215
-573.704	800.000	0.033	0.140
-572.690	-63.807	-0.455	-0.185
-571.675	-111.549	-0.041	-0.008
-570.661	235.950	0.018	-0.030
-569.646	-80.507	0.126	0.042
-568.631	104.644	0.170	-0.200
-567.617	-91.485	-0.117	-0.033
-566.602	684.540	-0.025	-0.065
-565.588	64.533	-0.100	-0.101
-564.573	-32.484	0.063	-0.035
-563.558	-94.492	-0.264	0.072
-562.544	599.865	-0.051	-0.126
-561.529	-57.537	0.278	-0.121
-560.515	-157.043	0.177	0.011
-559.500	-200.000	0.000	-0.052
-558.485	800.000	0.060	-0.244
-557.471	144.345	-0.288	0.383
-556.456	800.000	-0.092	-0.265
-555.442	-81.301	-0.222	0.073
-554.427	-73.279	0.408	-0.149
-553.412	-64.415	-0.205	-0.083
-552.398	-144.586	0.086	0.008
-551.383	800.000	-0.023	-0.072
-550.369	554.765	-0.115	0.275
-549.354	70.324	-0.222	-0.228
-548.339	8.206	0.239	0.178
-547.325	-57.083	-0.269	0.118
-546.310	484.193	0.020	0.045
-545.296	-70.574	-0.268	0.101
-544.281	-35.894	0.074	0.040
-543.266	99.112	-0.045	-0.052
-542.252	23.526	0.208	-0.170
-541.237	36.558	-0.323	-0.284
-540.223	-80.008	0.213	-0.071
-539.208	-200.000	-0.066	0.312
-538.193	-135.325	-0.333	-0.040
-537.179	-200.000	-0.013	0.240
-536.164	-200.000	0.044	-0.310
-535.150	-200.000	-0.011	0.120
-534.135	-62.430	-0.086	-0.036
-533.121	6.915	0.137	0.101
-532.106	-142.107	0.023	0.002
-531.091	-80.899	0.114	-0.038
-530.077	465.477	-0.081	-0.180
-529.062	71.404	0.186	-0.192
-528.048	363.805	0.066	0.132
-527.033	107.238	-0.100	0.118
-526.018	-62.886	-0.279	-0.115
-525.004	-200.000	-0.226	-0.000
-523.989	-96.076	-0.307	-0.081
-522.975	70.955	-0.065	0.067
-521.960	-165.369	-0.063	-0.003
-520.945	-140.436	-0.144	-0.015
-519.931	-200.000	0.028	0.335
-518.916	66.636	-0.188	0.190
-517.902	800.000	-0.122	-0.383
-516.887	34.492	-0.314	-0.273
-515.872	-175.525	-0.119	-0.003
-514.858	155.545	0.110	-0.151
-513.843	-68.495	0.146	-0.056
-512.829	-131.129	-0.430	0.057
-511.814	-20.220	-0.101	-0.062
-510.799	-200.000	0.029	-0.215
-509.785	-68.467	-0.226	-0.087
-508.770	54.169	0.299	-0.286
-507.756	204.380	0.095	-0.146
-506.741	-50.450	0.167	-0.078
-505.726	-149.405	0.102	0.008
-504.712	-52.397	0.319	-0.147
-503.697	363.036	-0.076	0.151
-502.683	800.000	0.072	0.278
-501.668	800.000	-0.061	0.234
-500.653	-200.000	0.005	0.302
-499.639	-82.694	-0.104	-0.033
-498.624	-141.010	-0.187	0.019
-497.610	800.000	-0.131	0.444
-496.595	-200.000	0.029	-0.142
-495.581	-90.890	0.090	-0.026
-494.566	800.000	0.111	0.336
-493.551	43.054	-0.181	0.164
-492.537	-73.045	0.312	0.114
-491.522	210.146	0.193	0.301
-490.508	-200.000	-0.046	-0.266
-489.493	-49.834	-0.103	-0.049
-488.478	16.052	0.163	0.127
-487.464	800.000	0.088	0.277
-486.449	-200.000	0.061	0.381
-485.435	741.227	0.056	0.149
-484.420	43.704	0.137	-0.124
-483.405	129.425	-0.118	-0.149
-482.391	-200.000	-0.035	-0.197
-481.376	-200.000	0.020	-0.169
-480.362	220.538	0.113	0.180
-479.347	800.000	0.029	0.116
-478.332	800.000	0.096	0.324
-477.318	-55.797	-0.305	-0.135
-476.303	627.160	0.078	0.195
-475.289	-13.763	-0.121	-0.078
-474.274	198.154	-0.079	0.120
-473.259	-105.558	-0.510	-0.115
-472.245	7.227	-0.061	-0.045
-471.230	800.000	-0.043	0.183
-470.216	3.592	0.101	0.073
-469.201	-41.511	0.107	-0.055
-468.186	472.387	0.101	0.225
-467.172	-34.058	-0.338	0.184
-466.157	123.429	-0.035	0.044
-465.143	-130.676	0.123	0.016
-464.128	-31.555	-0.281	0.157
-463.113	157.196	-0.055	0.075
-462.099	-200.000	-0.001	0.247
-461.084	800.000	-0.108	0.303
-460.070	-102.298	0.359	-0.086
-459.055	-50.789	0.232	0.108
-458.040	618.562	0.037	0.093
-457.026	116.365	-0.033	0.040
-456.011	94.611	-0.161	0.182
-454.997	779.027	-0.112	-0.305
-453.982	-30.242	-0.122	-0.069
-452.968	-26.479	-0.213	-0.124
-451.953	421.321	-0.153	-0.326
-450.938	-200.000	-0.010	-0.557
-449.924	800.000	0.115	-0.484
-448.909	-114.225	0.288	0.055
-447.895	123.442	0.115	-0.143
-446.880	-184.348	-0.353	-0.006
-445.865	-23.499	0.151	-0.090
-444.851	197.097	0.138	-0.209
-443.836	-200.000	0.013	0.322
-442.822	70.233	-0.128	0.131
-441.807	6.495	-0.226	-0.166
-440.792	129.088	0.230	0.291
-439.778	-118.344	0.081	0.014
-438.763	-200.000	-0.021	-0.277
-437.749	17.534	0.165	0.130
-436.734	-101.597	-0.221	0.053
-435.719	-198.280	0.111	0.001
-434.705	573.574	0.135	0.325
-433.690	-144.673	0.168	0.015
-432.676	-16.830	-0.382	0.239
-431.661	143.076	-0.134	-0.177
-430.646	-60.692	-0.217	-0.091
-429.632	-20.708	-0.271	-0.165
-428.617	47.910	-0.194	0.179
-427.603	61.111	0.148	-0.146
-426.588	525.107	0.066	0.153
-425.573	133.563	0.093	-0.119
-424.559	283.387	-0.166	0.296
-423.544	5.794	0.210	0.154
-422.530	-15.451	-0.072	0.046
-421.515	-148.827	0.126	0.010
-420.500	235.624	-0.042	-0.069
-419.486	-26.460	-0.300	0.174
-418.471	-200.000	-0.061	-0.532
-417.457	143.609	0.171	-0.225
-416.442	-121.766	-0.152	-0.025
-415.428	-72.667	0.431	0.157
-414.413	85.977	-0.218	0.237
-413.398	-88.589	0.273	0.080
-412.384	-74.297	0.315	-0.113
-411.369	-89.564	0.124	0.036
-410.355	-96.511	-0.123	0.032
-409.340	85.769	-0.121	0.132
-408.325	189.441	-0.128	-0.190
-407.311	-141.467	-0.273	-0.027
-406.296	-150.540	-0.172	-0.013
-405.282	-77.351	0.208	0.072
-404.267	-20.348	0.227	0.138
-403.252	177.704	0.030	0.044
-402.238	-126.448	-0.273	-0.040
-401.223	-200.000	0.046	-0.218
-400.209	16.854	-0.131	0.103
-399.194	800.000	-0.054	-0.214
-398.179	9.918	0.204	0.154
-397.165	0.034	-0.219	-0.155
-396.150	-44.595	0.289	0.143
-395.136	49.267	-0.101	0.094
-394.121	-200.000	-0.037	-0.291
-393.106	-50.108	-0.211	0.099
-392.092	27.825	0.077	0.064
-391.077	-161.071	-0.505	0.026
-390.063	800.000	-0.092	0.347
-389.048	-10.303	0.387	0.254
-388.033	-115.994	-0.266	-0.049
-387.019	-0.099	0.283	0.199
-386.004	160.188	-0.108	-0.149
-384.990	117.431	0.077	-0.093
-383.975	-200.000	-0.073	0.425
-382.960	-35.369	0.112	0.060
-381.946	-12.054	0.393	-0.255
-380.931	-147.800	-0.183	0.015
-379.917	-50.198	-0.270	0.127
-378.902	-60.310	0.149	0.063
-377.888	-157.977	-0.309	0.018
-376.873	-9.548	-0.117	0.077
-375.858	-120.054	-0.535	0.091
-374.844	800.000	-0.099	0.342
-373.829	-83.342	0.251	-0.080
-372.815	-200.000	0.501	-0.001
-371.800	107.951	0.193	0.227
-370.785	-112.331	-0.153	-0.030
-369.771	-144.877	0.126	-0.011
-368.756	124.483	-0.172	0.214
-367.742	-200.000	-0.021	-0.437
-366.727	-200.000	-0.007	-0.167
-365.712	-98.238	-0.087	-0.022
-364.698	-200.000	0.000	-0.288
-363.683	217.171	-0.135	-0.212
-362.669	-200.000	0.041	0.352
-361.654	800.000	-0.009	0.025
-360.639	-200.000	-0.044	0.281
-359.625	-48.778	0.115	-0.054
-358.610	-200.000	0.026	-0.125
-357.596	201.532	-0.055	-0.083
-356.581	176.802	0.202	-0.290
-355.566	574.002	-0.140	0.338
-354.552	-200.000	-0.012	-0.485
-353.537	108.155	-0.327	-0.386
-352.523	800.000	0.109	-0.353
-351.508	-148.747	-0.186	0.015
-350.493	183.989	-0.124	0.182
-349.479	33.369	0.168	0.144
-348.464	90.929	-0.230	-0.255
-347.450	-103.795	0.400	-0.092
-346.435	-187.854	-0.603	0.008
-345.420	-200.000	-0.048	-0.306
-344.406	282.828	0.033	-0.058
-343.391	-72.776	-0.265	-0.096
-342.377	204.757	0.073	-0.112
-341.362	-200.000	-0.076	0.342
-340.348	64.343	-0.139	-0.139
-339.333	800.000	-0.093	0.315
-338.318	800.000	-0.059	0.170
-337.304	-66.164	0.087	-0.034
-336.289	172.924	0.114	-0.162
-335.275	-110.296	0.115	-0.024
-334.260	-200.000	-0.001	0.082
-333.245	4.352	-0.067	0.048
-332.231	94.989	-0.078	-0.087
-331.216	-10.012	-0.170	-0.112
-330.202	340.750	0.108	-0.209
-329.187	-97.680	0.378	0.097
-328.172	175.698	0.067	-0.095
-327.158	800.000	-0.094	0.404
-326.143	466.773	0.058	0.128
-325.129	194.744	-0.124	-0.186
-324.114	-32.121	-0.282	-0.155
-323.099	56.477	0.274	0.263
-322.085	-81.449	0.244	0.079
-321.070	800.000	-0.051	-0.206
-320.056	10.505	0.132	-0.099
-319.041	762.040	0.142	0.381
-318.026	-40.275	0.272	-0.139
-317.012	215.098	0.122	-0.191
-315.997	-73.254	-0.102	-0.037
-314.983	-66.498	-0.291	0.114
-313.968	-200.000	0.039	-0.314
-312.953	289.693	-0.063	-0.113
-311.939	-70.233	0.211	0.079
-310.924	-31.652	-0.221	-0.122
-309.910	-200.000	0.039	-0.280
-308.895	26.497	0.239	0.197
-307.880	91.020	0.059	0.065
-306.866	202.217	-0.053	-0.080
-305.851	-17.876	-0.165	0.102
-304.837	-183.769	-0.298	-0.005
-303.822	-8.601	0.075	0.050
-302.807	6.737	0.365	-0.268
-301.793	-147.554	0.170	0.014
-300.778	17.495	-0.104	0.081
-299.764	694.660	0.036	0.094
-298.749	76.358	-0.181	-0.189
-297.735	214.962	0.060	0.094
-296.720	8.128	0.266	0.197
-295.705	147.418	-0.111	-0.147
-294.691	-120.542	0.234	0.039
-293.676	-37.680	-0.023	0.012
-292.662	-87.910	0.249	0.074
-291.647	-33.565	-0.191	0.104
-290.632	-107.230	-0.024	-0.005
-289.618	9.209	-0.402	-0.300
-288.603	64.323	0.222	-0.220
-287.589	-200.000	0.074	0.339
-286.574	-200.000	0.006	-0.138
-285.559	-200.000	0.040	-0.312
-284.545	417.898	0.077	0.163
-283.530	800.000	-0.060	0.216
-282.516	1.653	-0.097	0.069
-281.501	425.697	0.039	-0.082
-280.486	-22.528	-0.181	-0.108
-279.472	72.031	0.073	0.075
-278.457	44.796	-0.073	0.066
-277.443	68.259	-0.242	0.244
-276.428	29.865	0.166	-0.140
-275.413	247.493	-0.198	0.329
-274.399	-101.217	0.403	-0.097
-273.384	-177.930	-0.090	0.002
-272.370	424.946	-0.031	-0.066
-271.355	126.556	0.148	-0.185
-270.340	-119.314	0.270	0.046
-269.326	468.459	-0.052	0.115
-268.311	800.000	0.050	0.150
-267.297	-64.197	-0.102	0.041
-266.282	32.771	0.266	-0.227
-265.267	344.220	0.152	0.293
-264.253	706.773	0.034	0.088
-263.238	229.477	0.158	-0.254
-262.224	800.000	0.088	-0.356
-261.209	81.998	0.427	0.455
-260.195	147.722	-0.079	-0.104
-259.180	382.389	0.082	-0.166
-258.165	684.872	0.075	-0.194
-257.151	800.000	-0.027	-0.104
-256.136	-59.260	0.085	0.036
-255.122	673.434	-0.108	-0.275
-254.107	362.432	-0.054	0.107
-253.092	-112.750	-0.232	0.045
-252.078	-200.000	0.002	-0.093
-251.063	166.469	0.107	0.149
-250.049	359.483	-0.113	-0.223
-249.034	-139.805	-0.390	-0.041
-248.019	-155.505	0.265	-0.017
-247.005	278.527	-0.209	-0.366
-245.990	-200.000	0.035	-0.222
-244.976	75.965	0.097	0.101
-243.961	-64.221	-0.114	0.046
-242.946	800.000	0.115	-0.401
-241.932	-200.000	0.004	0.430
-240.917	364.294	0.053	0.105
-239.903	-200.000	-0.003	-0.177
-238.888	-92.019	0.049	-0.014
-237.873	800.000	-0.033	-0.113
-236.859	27.151	-0.091	0.076
-235.844	213.796	-0.176	0.273
-234.830	36.358	0.226	-0.196
-233.815	369.648	-0.157	-0.313
-232.800	-200.000	0.063	-0.418
-231.786	-49.519	0.199	-0.093
-230.771	-200.000	-0.001	-0.100
-229.757	477.329	0.072	0.159
-228.742	-200.000	-0.025	0.244
-227.727	-200.000	-0.062	-0.327
-226.713	800.000	0.046	0.140
-225.698	-66.104	0.107	0.042
-224.684	-42.456	-0.219	-0.110
-223.669	20.503	-0.255	0.203
-222.655	-24.609	-0.091	0.053
-221.640	-200.000	0.017	-0.125
-220.625	283.130	0.176	0.310
-219.611	-200.000	0.026	-0.312
-218.596	242.890	-0.088	0.145
-217.582	122.673	-0.119	0.146
-216.567	-96.418	-0.071	-0.018
-215.552	24.260	0.256	-0.207
-214.538	-200.000	0.001	0.136
-213.523	314.763	0.131	0.243
-212.509	46.785	0.298	-0.272
-211.494	-59.177	0.152	-0.064
-210.479	193.297	0.054	-0.081
-209.465	-99.665	0.226	0.056
-208.450	-2.309	-0.291	-0.201
-207.436	-109.915	0.330	0.068
-206.421	375.738	0.081	-0.162
-205.406	-40.047	0.052	0.027
-204.392	-16.503	0.219	-0.136
-203.377	-157.344	-0.294	0.017
-202.363	439.942	0.025	0.053
-201.348	800.000	-0.087	0.313
-200.333	-200.000	0.090	0.000
-199.319	55.550	0.069	0.066
-198.304	-73.026	0.115	-0.041
-197.290	-103.561	0.105	0.024
-196.275	800.000	0.019	0.070
-195.260	490.453	0.055	0.123
-194.246	-84.671	-0.176	0.054
-193.231	-55.911	0.213	0.093
-192.217	256.231	-0.119	0.200
-191.202	-68.611	0.244	-0.093
-190.187	-200.000	-0.012	-0.218
-189.173	288.972	0.060	0.106
-188.158	365.392	0.204	0.404
-187.144	-200.000	0.082	0.372
-186.129	89.342	-0.154	-0.169
-185.114	234.552	0.078	0.127
-184.100	-186.863	-0.036	0.000
-183.085	800.000	-0.095	-0.296
-182.071	85.112	0.161	-0.173
-181.056	-200.000	0.023	0.137
-180.042	-165.489	0.335	-0.014
-179.027	362.900	0.129	-0.254
-178.012	-89.032	-0.142	-0.041
-176.998	-200.000	-0.060	0.364
-175.983	472.863	0.080	-0.177
-174.969	-21.001	0.186	0.112
-173.954	-170.783	-0.109	-0.004
-172.939	800.000	0.096	-0.391
-171.925	-200.000	0.017	0.170
-170.910	74.250	0.165	-0.170
-169.896	223.570	0.211	-0.333
-168.881	800.000	-0.141	0.512
-167.866	-127.481	-0.230	-0.033
-166.852	800.000	0.046	0.176
-165.837	543.053	-0.125	-0.292
-164.823	-10.051	0.179	0.117
-163.808	296.830	0.041	-0.073
-162.793	-177.440	-0.255	0.006
-161.779	-130.562	0.214	-0.028
-160.764	-200.000	-0.031	0.178
-159.750	15.893	0.307	-0.237
-158.735	-200.000	0.056	0.286
-157.720	187.633	-0.142	0.207
-156.706	-95.225	0.169	0.045
-155.691	217.314	-0.078	-0.121
-154.677	-98.035	0.179	0.045
-153.662	-64.173	-0.382	-0.153
-152.647	-64.139	0.113	0.045
-151.633	-43.866	0.253	0.125
-150.618	401.259	0.124	0.254
-149.604	40.783	0.194	0.171
-148.589	22.610	-0.129	0.104
-147.574	-154.001	0.119	-0.008
-146.560	-81.571	-0.051	0.017
-145.545	280.024	-0.073	0.128
-144.531	-47.731	0.475	-0.226
-143.516	-200.000	-0.015	0.124
-142.502	144.599	-0.173	0.226
-141.487	-42.689	0.218	-0.109
-140.472	617.080	0.084	0.208
-139.458	800.000	-0.017	0.046
-138.443	800.000	-0.070	-0.242
-137.429	-200.000	-0.005	0.169
-136.414	-200.000	-0.017	-0.189
-135.399	-200.000	-0.042	0.228
-134.385	-45.566	-0.420	-0.204
-133.370	-144.843	0.441	-0.040
-132.356	477.063	0.039	-0.087
-131.341	-200.000	0.018	0.326
-130.326	-200.000	0.006	-0.064
-129.312	220.420	-0.141	-0.222
-128.297	-200.000	0.021	-0.180
-127.283	800.000	-0.047	-0.198
-126.268	800.000	-0.122	-0.376
-125.253	-200.000	0.014	-0.185
-124.239	-4.488	-0.289	-0.195
-123.224	23.395	0.102	-0.082
-122.210	-145.612	-0.179	-0.016
-121.195	-168.318	-0.101	-0.004
