DTS Sentinel unit serial number:	SN413079Multiplexer serial number:	ORYXHardware model number:	OX4-SRSoftware version number:	ORYX F/W v4.00 Oryx Data Collector v3.7.2.0data status	okinstallation	princeton_trtdifferential loss correction	single-endedforward channel	channel 3reverse channel	N/Adate	2019/09/12time	01:42:11forward acquisition time	60.00reverse acquisition time	0.00gamma	496.2192k internal	0.2320k external	0.2320temperature offset calibration	1.0064default loss term (dB/km)	0.3790temperature slope calibration	1.0000multiplexer offset coefficient	1.0000multiplexer slope coefficient	1.0000fibre end	0.00T internal ref (°C)	32.87T ext. ref 1 (°C)	2.09T ext. ref 2 (°C)	27.48length (m)	temperature (°C)	Stokes	anti-Stokes-747.200	-146.017	0.259	-0.023
-746.185	-35.317	-0.287	0.158
-745.171	-200.000	0.028	0.194
-744.156	599.082	-0.058	0.145
-743.142	800.000	-0.015	-0.063
-742.127	54.476	0.108	0.105
-741.112	-200.000	0.180	-0.001
-740.098	-154.693	-0.323	0.022
-739.083	554.053	-0.035	0.086
-738.069	277.006	0.105	-0.189
-737.054	495.173	0.139	0.323
-736.039	172.743	0.074	0.108
-735.025	-133.036	0.185	0.024
-734.010	800.000	0.034	0.128
-732.996	146.143	0.193	-0.261
-731.981	253.866	-0.197	0.340
-730.966	39.920	-0.224	0.203
-729.952	800.000	0.041	-0.145
-728.937	800.000	0.080	-0.226
-727.923	-167.205	-0.204	0.008
-726.908	-2.180	0.289	-0.205
-725.894	150.724	-0.142	-0.195
-724.879	-153.493	-0.208	-0.015
-723.864	45.411	-0.073	-0.069
-722.850	-100.998	-0.290	-0.072
-721.835	-200.000	0.033	-0.195
-720.821	800.000	0.063	-0.207
-719.806	-118.757	-0.304	-0.054
-718.791	-27.192	0.050	-0.029
-717.777	-200.000	-0.015	0.198
-716.762	49.993	0.069	-0.066
-715.748	-15.050	-0.192	-0.124
-714.733	-200.000	-0.004	-0.186
-713.718	800.000	0.041	0.144
-712.704	614.599	-0.021	0.052
-711.689	-128.144	-0.178	0.026
-710.675	-110.622	-0.169	0.035
-709.660	-190.224	-0.062	-0.001
-708.645	-120.699	-0.253	0.043
-707.631	-99.283	0.409	-0.104
-706.616	224.310	-0.210	0.343
-705.602	-46.782	-0.353	-0.174
-704.587	72.999	0.160	-0.168
-703.572	-200.000	0.024	0.163
-702.558	410.797	0.082	0.175
-701.543	-193.587	-0.337	-0.003
-700.529	490.139	0.059	0.136
-699.514	-200.000	0.005	-0.083
-698.499	-30.161	0.037	0.021
-697.485	-200.000	0.000	-0.088
-696.470	89.639	0.078	0.088
-695.456	106.412	-0.163	-0.195
-694.441	28.271	0.183	-0.156
-693.426	-2.285	0.223	-0.158
-692.412	-146.705	0.306	-0.027
-691.397	-164.293	-0.437	0.020
-690.383	-75.820	0.042	-0.015
-689.368	-34.488	-0.138	-0.076
-688.354	174.779	-0.143	0.209
-687.339	50.620	-0.048	0.046
-686.324	-54.451	0.102	0.046
-685.310	-28.289	-0.367	-0.214
-684.295	-200.000	-0.041	0.387
-683.281	496.967	0.170	-0.394
-682.266	211.937	-0.160	0.254
-681.251	-66.049	-0.305	0.123
-680.237	42.169	0.195	0.179
-679.222	-200.000	0.009	-0.111
-678.208	353.084	0.093	0.186
-677.193	154.008	-0.048	0.066
-676.178	-36.774	-0.251	0.136
-675.164	-56.353	-0.203	0.091
-674.149	78.032	-0.254	0.274
-673.135	-115.578	0.256	0.048
-672.120	-126.436	-0.389	0.058
-671.105	-26.814	0.152	-0.090
-670.091	-24.908	0.040	-0.024
-669.076	183.252	0.088	0.132
-668.062	17.725	-0.087	0.069
-667.047	136.197	0.153	-0.201
-666.032	-37.138	0.145	0.078
-665.018	316.938	0.152	0.289
-664.003	-32.783	0.311	-0.174
-662.989	-200.000	0.021	-0.176
-661.974	194.675	0.173	-0.265
-660.959	-74.053	0.085	-0.031
-659.945	-200.000	-0.020	-0.188
-658.930	-30.944	0.146	-0.083
-657.916	80.613	0.056	-0.060
-656.901	-200.000	0.017	-0.336
-655.886	-15.548	0.222	0.143
-654.872	495.413	0.020	-0.046
-653.857	-77.584	0.140	-0.049
-652.843	-132.130	-0.710	-0.093
-651.828	-200.000	-0.005	0.246
-650.814	119.144	0.095	0.119
-649.799	-86.469	-0.286	-0.089
-648.784	-84.671	-0.393	0.125
-647.770	-31.447	-0.231	-0.131
-646.755	47.730	-0.207	-0.195
-645.741	-200.000	0.001	-0.342
-644.726	-69.708	-0.217	0.084
-643.711	336.941	0.099	-0.195
-642.697	800.000	-0.069	-0.286
-641.682	-63.952	-0.234	0.096
-640.668	-31.206	-0.308	0.175
-639.653	-61.940	-0.212	-0.089
-638.638	-54.311	-0.092	0.042
-637.624	784.344	0.051	0.141
-636.609	-200.000	-0.058	-0.393
-635.595	242.288	-0.086	-0.144
-634.580	-200.000	-0.016	0.087
-633.565	73.868	-0.109	-0.116
-632.551	800.000	0.063	0.215
-631.536	14.583	-0.035	-0.027
-630.522	-133.390	-0.402	0.051
-629.507	-200.000	0.000	0.119
-628.492	-200.000	-0.034	0.202
-627.478	-3.856	0.189	0.132
-626.463	-200.000	-0.000	0.127
-625.449	-121.688	0.161	0.027
-624.434	117.181	0.117	0.144
-623.419	-87.080	-0.169	0.052
-622.405	83.736	0.141	0.155
-621.390	-23.954	-0.283	0.171
-620.376	29.968	-0.190	-0.163
-619.361	589.428	-0.095	-0.235
-618.346	180.337	-0.161	0.237
-617.332	354.218	-0.164	-0.329
-616.317	-28.200	0.252	-0.147
-615.303	-132.195	0.108	-0.014
-614.288	220.849	0.125	0.201
-613.273	-200.000	-0.022	-0.104
-612.259	-112.165	0.252	-0.051
-611.244	-52.100	-0.319	0.149
-610.230	596.013	-0.073	0.182
-609.215	225.700	-0.065	0.106
-608.201	213.556	0.197	-0.313
-607.186	-200.000	0.247	0.001
-606.171	-200.000	-0.042	-0.436
-605.157	-186.480	-0.467	-0.007
-604.142	-165.516	-0.182	-0.008
-603.128	355.449	0.026	-0.051
-602.113	23.669	-0.067	-0.055
-601.098	79.213	0.196	0.212
-600.084	248.691	-0.177	-0.302
-599.069	800.000	-0.053	0.181
-598.055	-88.289	-0.116	-0.035
-597.040	-76.214	-0.257	0.091
-596.025	548.852	0.113	0.272
-595.011	65.157	0.130	-0.132
-593.996	-141.260	-0.202	0.021
-592.982	-63.560	0.325	-0.134
-591.967	-102.351	-0.106	-0.026
-590.952	-167.306	0.245	0.010
-589.938	800.000	0.135	-0.441
-588.923	376.496	-0.192	-0.394
-587.909	-3.954	-0.064	0.044
-586.894	-74.237	-0.116	0.042
-585.879	-200.000	-0.051	0.326
-584.865	-134.431	-0.276	-0.034
-583.850	-83.744	0.452	0.145
-582.836	135.940	0.142	-0.186
-581.821	-200.000	0.021	-0.482
-580.806	483.806	-0.061	-0.139
-579.792	-130.990	0.465	0.062
-578.777	-37.605	-0.122	-0.065
-577.763	800.000	0.052	0.177
-576.748	-12.978	-0.035	-0.023
-575.733	-144.905	-0.329	-0.030
-574.719	-200.000	-0.028	-0.172
-573.704	-161.717	0.175	0.009
-572.690	-99.547	-0.162	-0.041
-571.675	44.589	0.080	-0.074
-570.661	305.948	0.050	0.093
-569.646	1.579	0.207	-0.150
-568.631	-46.961	-0.227	0.111
-567.617	346.469	-0.149	-0.295
-566.602	-97.589	0.137	0.036
-565.588	-200.000	-0.017	-0.166
-564.573	676.414	0.019	-0.050
-563.558	-110.313	-0.143	-0.030
-562.544	-1.740	-0.092	0.065
-561.529	-89.465	0.065	-0.019
-560.515	-200.000	-0.027	-0.469
-559.500	-109.039	-0.333	0.071
-558.485	268.802	0.132	-0.233
-557.471	23.403	0.220	-0.181
-556.456	-200.000	0.001	0.160
-555.442	272.477	-0.078	0.139
-554.427	372.665	-0.118	0.241
-553.412	20.800	-0.337	-0.274
-552.398	800.000	0.040	0.111
-551.383	8.011	-0.107	-0.080
-550.369	800.000	-0.138	-0.522
-549.354	24.734	0.178	-0.148
-548.339	-176.994	-0.122	0.003
-547.325	-143.937	-0.120	-0.011
-546.310	97.126	-0.153	-0.177
-545.296	-138.431	-0.218	0.024
-544.281	-133.192	0.468	0.059
-543.266	-67.329	0.315	0.124
-542.252	180.027	-0.274	0.402
-541.237	420.424	-0.114	0.246
-540.223	150.735	0.085	-0.115
-539.208	250.764	-0.030	0.051
-538.193	-200.000	0.037	-0.222
-537.179	-95.862	0.081	0.022
-536.164	-56.452	0.160	0.071
-535.150	98.125	-0.186	0.215
-534.135	-66.457	0.116	0.046
-533.121	601.104	0.038	0.094
-532.106	-69.587	-0.307	0.118
-531.091	122.661	0.095	-0.119
-530.077	-106.358	-0.039	0.009
-529.062	800.000	-0.075	-0.257
-528.048	0.723	-0.130	0.093
-527.033	-140.428	-0.103	-0.011
-526.018	-3.372	0.023	-0.016
-525.004	153.403	-0.205	0.281
-523.989	-200.000	-0.048	-0.223
-522.975	31.343	0.095	0.082
-521.960	800.000	0.064	0.236
-520.945	-77.050	-0.416	0.145
-519.931	-118.784	-0.304	-0.054
-518.916	333.956	0.117	0.228
-517.902	-150.351	0.113	0.009
-516.887	-180.902	-0.369	0.007
-515.872	-91.245	-0.373	0.107
-514.858	-200.000	-0.056	-0.329
-513.843	-80.471	-0.066	0.022
-512.829	321.605	0.141	-0.268
-511.814	120.443	0.231	-0.288
-510.799	401.797	0.069	-0.144
-509.785	-113.815	-0.161	0.031
-508.770	-138.776	-0.313	0.034
-507.756	83.922	-0.194	0.212
-506.741	-140.933	0.282	0.029
-505.726	-12.841	0.057	-0.037
-504.712	-200.000	-0.020	0.456
-503.697	800.000	-0.111	-0.365
-502.683	84.742	-0.167	-0.184
-501.668	20.011	0.274	-0.221
-500.653	24.684	-0.199	0.165
-499.639	-200.000	-0.008	0.123
-498.624	-135.861	-0.317	0.037
-497.610	-10.690	-0.155	0.102
-496.595	125.391	0.162	0.205
-495.581	800.000	0.053	-0.230
-494.566	1.913	0.177	0.128
-493.551	-200.000	-0.133	0.001
-492.537	115.730	-0.271	-0.332
-491.522	-37.235	0.262	0.141
-490.508	-109.554	0.326	-0.069
-489.493	800.000	-0.046	-0.171
-488.478	2.405	0.149	0.108
-487.464	-5.278	-0.246	-0.169
-486.449	-146.876	-0.114	0.010
-485.435	97.051	-0.162	-0.185
-484.420	-200.000	-0.020	0.233
-483.405	264.948	0.169	0.294
-482.391	-102.371	-0.169	-0.040
-481.376	398.028	-0.156	0.326
-480.362	-200.000	0.070	-0.331
-479.347	578.537	-0.071	0.173
-478.332	-200.000	-0.002	0.213
-477.318	-80.699	0.322	-0.107
-476.303	126.465	0.147	-0.186
-475.289	400.486	-0.089	-0.186
-474.274	-39.120	0.195	0.103
-473.259	-34.148	-0.017	-0.009
-472.245	279.186	0.117	-0.208
-471.230	800.000	0.044	0.166
-470.216	-68.735	0.250	0.097
-469.201	-200.000	0.002	0.459
-468.186	-102.040	0.061	-0.015
-467.172	-72.847	-0.281	0.103
-466.157	-105.262	-0.269	0.061
-465.143	-119.509	0.236	0.041
-464.128	-200.000	-0.069	-0.346
-463.113	131.828	0.243	0.313
-462.099	67.509	0.116	-0.118
-461.084	-118.880	-0.195	-0.034
-460.070	-76.895	0.201	0.070
-459.055	-67.582	0.377	-0.148
-458.040	-25.940	0.088	0.052
-457.026	65.273	0.174	-0.176
-456.011	299.566	0.048	-0.089
-454.997	-157.390	0.123	0.007
-453.982	72.559	0.098	0.102
-452.968	-120.669	0.253	-0.043
-451.953	-112.144	-0.184	0.037
-450.938	-112.009	-0.241	0.049
-449.924	-200.000	0.009	-0.129
-448.909	-200.000	0.002	0.270
-447.895	22.835	0.216	0.177
-446.880	800.000	0.075	-0.219
-445.865	800.000	-0.064	0.243
-444.851	-200.000	-0.040	0.192
-443.836	245.501	-0.199	0.335
-442.822	-200.000	0.006	0.167
-441.807	-145.090	-0.130	-0.012
-440.792	-200.000	-0.034	-0.194
-439.778	522.592	-0.025	-0.059
-438.763	59.590	-0.131	-0.129
-437.749	-200.000	-0.016	-0.469
-436.734	18.474	-0.167	-0.133
-435.719	-86.187	0.117	0.036
-434.705	-73.403	-0.181	0.066
-433.690	154.526	-0.187	0.256
-432.676	17.886	-0.106	0.084
-431.661	-46.324	0.256	-0.126
-430.646	139.910	-0.204	0.269
-429.632	-191.405	0.376	-0.004
-428.617	62.290	-0.241	-0.241
-427.603	-70.745	-0.152	0.057
-426.588	-137.589	0.227	-0.026
-425.573	-32.508	0.184	0.103
-424.559	47.094	0.219	0.204
-423.544	-110.063	0.152	0.032
-422.530	176.887	-0.067	0.097
-421.515	-56.249	-0.177	0.079
-420.500	-155.407	-0.425	-0.027
-419.486	-99.416	-0.255	-0.064
-418.471	38.790	0.080	-0.072
-417.457	251.633	0.069	-0.117
-416.442	-81.268	0.216	0.071
-415.428	-82.834	-0.248	-0.080
-414.413	215.210	-0.300	0.474
-413.398	-200.000	0.031	0.166
-412.384	-121.031	0.289	0.048
-411.369	-114.784	0.274	-0.052
-410.355	-138.827	0.443	0.048
-409.340	261.896	0.122	0.212
-408.325	-159.131	0.179	0.010
-407.311	-30.652	-0.193	-0.109
-406.296	68.478	0.107	0.110
-405.282	254.189	-0.122	-0.207
-404.267	3.895	-0.192	0.140
-403.252	-200.000	0.039	0.194
-402.238	-200.000	-0.015	0.177
-401.223	55.073	0.130	-0.125
-400.209	328.767	-0.186	-0.357
-399.194	-104.084	-0.131	-0.030
-398.179	185.484	0.071	0.105
-397.165	-68.664	0.125	0.048
-396.150	-39.394	-0.126	-0.066
-395.136	-38.998	-0.226	-0.118
-394.121	-117.763	-0.140	0.025
-393.106	-152.703	0.187	-0.013
-392.092	-64.303	-0.275	0.112
-391.077	-73.046	-0.443	0.162
-390.063	21.709	0.107	0.087
-389.048	147.587	0.214	-0.288
-388.033	106.956	0.210	-0.249
-387.019	-20.971	0.052	-0.032
-386.004	-0.373	-0.358	0.254
-384.990	-136.838	0.131	0.015
-383.975	-91.257	-0.040	-0.011
-382.960	-185.199	0.281	0.004
-381.946	62.591	0.250	-0.249
-380.931	92.405	-0.156	-0.176
-379.917	-42.710	0.192	0.097
-378.902	34.249	-0.260	-0.226
-377.888	-93.392	-0.352	0.097
-376.873	76.586	-0.150	-0.158
-375.858	-200.000	0.027	-0.322
-374.844	3.962	-0.230	0.167
-373.829	-158.061	0.177	0.010
-372.815	-134.262	-0.195	0.024
-371.800	-104.504	0.132	0.030
-370.785	800.000	-0.040	0.113
-369.771	235.946	0.171	0.282
-368.756	-200.000	-0.003	0.163
-367.742	-73.015	0.159	0.058
-366.727	800.000	0.084	-0.276
-365.712	-65.766	-0.286	-0.114
-364.698	-59.400	0.101	-0.043
-363.683	176.509	0.018	-0.026
-362.669	288.791	-0.023	0.041
-361.654	-89.003	-0.169	0.050
-360.639	142.290	-0.168	-0.223
-359.625	95.256	-0.092	0.104
-358.610	14.361	0.061	0.047
-357.596	-15.962	-0.124	-0.079
-356.581	-184.702	0.245	0.004
-355.566	-200.000	0.042	-0.355
-354.552	45.433	-0.240	0.221
-353.537	-162.164	-0.457	0.023
-352.523	-65.643	-0.273	0.109
-351.508	-95.121	0.073	0.020
-350.493	-108.978	-0.091	-0.019
-349.479	464.299	-0.193	0.430
-348.464	-26.878	0.360	-0.209
-347.450	-42.203	0.154	0.078
-346.435	-200.000	-0.024	-0.161
-345.420	97.183	0.035	0.040
-344.406	800.000	0.017	0.054
-343.391	800.000	-0.076	0.231
-342.377	-163.158	0.045	0.002
-341.362	-200.000	0.007	0.212
-340.348	69.768	0.173	-0.178
-339.333	-56.935	0.559	-0.246
-338.318	800.000	-0.036	0.148
-337.304	-200.000	-0.045	-0.214
-336.289	-2.454	0.089	0.062
-335.275	-24.014	0.164	0.098
-334.260	56.638	-0.253	0.245
-333.245	-2.083	0.136	0.095
-332.231	134.280	-0.047	-0.061
-331.216	-90.398	-0.201	0.058
-330.202	291.731	0.141	-0.256
-329.187	465.477	-0.052	0.115
-328.172	-67.371	-0.264	-0.103
-327.158	-14.561	0.080	-0.051
-326.143	-149.168	0.204	0.016
-325.129	-111.719	-0.247	-0.050
-324.114	-18.641	0.008	0.005
-323.099	-50.942	0.126	-0.059
-322.085	-147.452	0.306	0.026
-321.070	52.148	0.367	0.348
-320.056	-200.000	0.021	0.250
-319.041	-200.000	-0.001	0.064
-318.026	-112.747	0.011	-0.002
-317.012	-168.836	-0.146	0.005
-315.997	348.765	-0.155	-0.303
-314.983	800.000	-0.054	0.188
-313.968	125.334	0.191	-0.240
-312.953	-200.000	0.005	0.117
-311.939	800.000	-0.081	0.262
-310.924	462.202	-0.250	0.554
-309.910	92.590	-0.210	-0.236
-308.895	305.378	0.057	-0.106
-307.880	-124.968	0.101	0.015
-306.866	-22.021	0.138	-0.083
-305.851	70.330	-0.107	-0.110
-304.837	-195.980	0.216	-0.002
-303.822	-200.000	-0.022	-0.106
-302.807	-136.298	0.367	0.043
-301.793	4.372	0.213	0.155
-300.778	413.199	-0.148	-0.313
-299.764	-51.159	0.213	0.099
-298.749	187.301	0.010	0.015
-297.735	-38.974	0.220	0.115
-296.720	-94.113	0.384	0.105
-295.705	485.929	0.026	0.059
-294.691	-91.690	0.324	-0.091
-293.676	-200.000	0.026	0.382
-292.662	321.905	0.038	-0.072
-291.647	-78.507	-0.299	0.102
-290.632	-11.148	0.178	0.117
-289.618	-58.196	0.179	-0.077
-288.603	-95.855	0.153	0.041
-287.589	-19.197	-0.405	0.250
-286.574	413.538	0.103	0.218
-285.559	-123.050	-0.350	-0.056
-284.545	180.606	-0.214	-0.312
-283.530	-200.000	0.031	0.244
-282.516	104.765	-0.045	-0.053
-281.501	181.434	-0.058	-0.085
-280.486	165.749	-0.084	0.118
-279.472	198.428	-0.026	0.040
-278.457	146.196	0.126	0.168
-277.443	-121.181	0.135	0.022
-276.428	-56.912	0.131	0.057
-275.413	800.000	0.133	-0.482
-274.399	-77.166	-0.226	0.078
-273.384	-22.706	-0.221	0.132
-272.370	-180.616	0.115	0.002
-271.355	423.868	-0.078	0.166
-270.340	-30.502	0.084	-0.048
-269.326	-114.862	0.091	-0.017
-268.311	-112.678	0.363	-0.072
-267.297	65.333	0.059	-0.059
-266.282	-135.148	0.020	-0.002
-265.267	-37.047	0.315	-0.167
-264.253	-65.438	-0.158	-0.063
-263.238	37.500	0.167	-0.147
-262.224	50.669	-0.135	0.127
-261.209	-200.000	0.037	-0.203
-260.195	710.094	-0.075	0.196
-259.180	-142.077	0.230	-0.023
-258.165	27.910	-0.129	-0.108
-257.151	-68.389	-0.335	0.129
-256.136	-200.000	0.021	-0.098
-255.122	-61.110	0.205	0.086
-254.107	146.787	0.052	0.069
-253.092	800.000	-0.118	0.414
-252.078	-97.051	-0.169	-0.044
-251.063	-106.610	0.458	-0.101
-250.049	419.634	-0.050	0.107
-249.034	11.580	0.157	-0.119
-248.019	800.000	-0.087	0.312
-247.005	800.000	0.093	-0.296
-245.990	-51.926	-0.112	-0.052
-244.976	-98.839	0.110	-0.028
-243.961	12.789	0.244	-0.187
-242.946	-18.649	0.241	-0.149
-241.932	-200.000	0.194	-0.001
-240.917	49.970	-0.220	0.206
-239.903	-147.205	0.496	-0.042
-238.888	-189.051	0.142	0.002
-237.873	459.063	-0.079	-0.175
-236.859	19.996	0.303	-0.242
-235.844	-13.578	0.077	-0.050
-234.830	800.000	0.033	0.108
-233.815	-187.773	0.352	0.005
-232.800	-200.000	0.054	-0.409
-231.786	-28.341	-0.159	-0.091
-230.771	-29.789	-0.219	0.124
-229.757	1.182	-0.058	-0.041
-228.742	195.914	-0.207	0.313
-227.727	-20.017	0.257	0.157
-226.713	-168.465	0.213	0.008
-225.698	-200.000	0.017	0.192
-224.684	-200.000	0.053	0.336
-223.669	-50.712	-0.356	-0.166
-222.655	-42.294	0.249	-0.126
-221.640	14.348	0.070	0.054
-220.625	-5.699	-0.184	-0.125
-219.611	60.038	0.105	-0.103
-218.596	-30.392	0.178	0.100
-217.582	706.765	0.041	-0.106
-216.567	-20.268	0.312	0.190
-215.552	-46.685	0.284	0.138
-214.538	-117.482	0.081	-0.014
-213.523	41.501	0.280	0.251
-212.509	-12.445	0.083	0.054
-211.494	-74.515	0.376	0.134
-210.479	-64.333	-0.104	0.042
-209.465	-56.697	0.250	0.110
-208.450	-157.079	-0.308	0.019
-207.436	800.000	0.197	-0.589
-206.421	528.137	0.111	-0.259
-205.406	-51.676	-0.334	0.154
-204.392	56.344	-0.064	-0.062
-203.377	59.458	-0.233	-0.227
-202.363	800.000	0.069	0.194
-201.348	-97.703	-0.000	0.000
-200.333	43.394	-0.195	-0.177
-199.319	-4.496	0.234	0.160
-198.304	758.727	-0.050	0.135
-197.290	82.671	0.140	-0.151
-196.275	-200.000	-0.050	-0.333
-195.260	286.960	-0.179	0.320
-194.246	800.000	-0.047	0.198
-193.231	-54.141	-0.272	-0.123
-192.217	-64.627	0.261	-0.105
-191.202	33.046	0.062	-0.053
-190.187	110.554	0.126	0.150
-189.173	-12.948	0.095	-0.061
-188.158	201.788	0.120	0.183
-187.144	-117.784	0.103	0.018
-186.129	-200.000	0.047	0.517
-185.114	90.574	0.149	-0.165
-184.100	800.000	-0.061	0.220
-183.085	50.914	-0.128	-0.120
-182.071	64.271	0.025	0.025
-181.056	-81.311	-0.054	0.018
-180.042	-103.709	-0.066	0.015
-179.027	-107.732	0.256	0.055
-178.012	140.070	0.107	0.140
-176.998	75.302	0.220	-0.229
-175.983	-200.000	0.037	0.206
-174.969	181.818	-0.057	-0.083
-173.954	163.677	0.093	0.129
-172.939	97.735	-0.151	-0.172
-171.925	-85.247	-0.073	-0.023
-170.910	51.056	-0.246	0.231
-169.896	152.239	-0.089	-0.120
-168.881	130.289	0.279	-0.354
-167.866	-180.767	-0.115	-0.002
-166.852	426.150	-0.082	-0.175
-165.837	-66.208	0.135	-0.053
-164.823	-40.727	-0.100	-0.051
-163.808	55.172	0.196	0.188
-162.793	-96.759	0.126	-0.033
-161.779	19.811	0.251	-0.200
-160.764	-40.696	-0.286	-0.147
-159.750	279.032	0.121	0.213
-158.735	800.000	-0.099	-0.318
-157.720	456.884	-0.128	0.282
-156.706	-128.401	-0.260	0.036
-155.691	-54.732	-0.285	0.127
-154.677	-50.121	0.342	0.160
-153.662	650.533	-0.064	-0.163
-152.647	800.000	0.078	0.216
-151.633	800.000	0.137	-0.481
-150.618	391.040	0.101	0.207
-149.604	-25.417	-0.251	0.147
-148.589	279.611	0.021	-0.036
-147.574	397.280	0.108	-0.224
-146.560	-37.932	-0.260	0.136
-145.545	-52.060	0.089	0.041
-144.531	106.345	0.092	-0.108
-143.516	-152.501	0.238	0.017
-142.502	101.456	-0.181	0.208
-141.487	-5.307	-0.058	0.039
-140.472	-117.908	-0.165	-0.029
-139.458	-200.000	-0.023	0.301
-138.443	269.524	-0.116	-0.201
-137.429	220.499	0.137	0.217
-136.414	71.653	-0.149	-0.153
-135.399	387.938	-0.100	-0.203
-134.385	54.254	0.200	-0.190
-133.370	160.751	-0.095	-0.131
-132.356	-43.025	0.133	-0.067
-131.341	49.635	0.319	0.297
-130.326	402.638	0.059	-0.123
-129.312	543.872	-0.095	0.225
-128.297	-102.778	-0.320	0.075
-127.283	111.168	-0.167	0.199
-126.268	800.000	0.091	-0.291
-125.253	-85.505	-0.280	-0.086
-124.239	-195.788	-0.193	-0.001
-123.224	800.000	0.012	0.049
-122.210	521.232	0.077	-0.178
-121.195	528.255	-0.069	-0.161
-120.180	-48.735	-0.223	0.106
