DTS Sentinel unit serial number:	SN413079Multiplexer serial number:	ORYXHardware model number:	OX4-SRSoftware version number:	ORYX F/W v4.00 Oryx Data Collector v3.7.2.0data status	okinstallation	princeton_trtdifferential loss correction	single-endedforward channel	channel 3reverse channel	N/Adate	2019/09/13time	22:32:34forward acquisition time	60.00reverse acquisition time	0.00gamma	496.2192k internal	0.2336k external	0.2336temperature offset calibration	1.0062default loss term (dB/km)	0.3790temperature slope calibration	1.0000multiplexer offset coefficient	1.0000multiplexer slope coefficient	1.0000fibre end	0.00T internal ref (°C)	27.75T ext. ref 1 (°C)	3.23T ext. ref 2 (°C)	22.10length (m)	temperature (°C)	Stokes	anti-Stokes-747.200	-200.000	0.002	-0.119
-746.185	-200.000	-0.025	0.170
-745.171	-138.320	0.249	-0.028
-744.156	-59.420	-0.142	-0.061
-743.142	31.090	-0.312	0.269
-742.127	398.614	0.096	0.202
-741.112	800.000	-0.088	0.289
-740.098	-66.285	0.169	0.067
-739.083	34.908	0.112	-0.099
-738.069	-149.637	0.487	0.039
-737.054	319.126	0.101	0.192
-736.039	-85.747	-0.067	0.021
-735.025	320.931	0.130	-0.248
-734.010	-15.039	0.236	-0.152
-732.996	361.668	-0.134	-0.269
-731.981	281.114	-0.110	-0.197
-730.966	800.000	0.070	-0.278
-729.952	-80.385	0.126	-0.042
-728.937	87.871	-0.279	0.311
-727.923	47.332	-0.113	-0.106
-726.908	-95.665	0.200	0.054
-725.894	-200.000	0.021	0.252
-724.879	-200.000	-0.001	-0.232
-723.864	-128.346	0.104	0.015
-722.850	800.000	0.032	-0.137
-721.835	-200.000	0.006	-0.346
-720.821	-42.356	0.093	0.048
-719.806	-8.685	0.145	0.098
-718.791	-86.855	0.256	0.078
-717.777	304.232	-0.117	-0.217
-716.762	-31.122	0.337	-0.191
-715.748	-17.963	0.387	0.244
-714.733	261.006	-0.259	0.449
-713.718	-53.506	-0.070	-0.032
-712.704	-46.383	-0.084	-0.042
-711.689	800.000	-0.024	-0.069
-710.675	800.000	-0.064	-0.193
-709.660	-200.000	0.014	-0.129
-708.645	-200.000	0.020	-0.176
-707.631	800.000	-0.058	-0.176
-706.616	29.252	-0.162	-0.138
-705.602	44.620	0.133	-0.122
-704.587	-37.521	0.305	-0.163
-703.572	800.000	0.029	0.111
-702.558	-108.848	0.075	-0.016
-701.543	443.811	-0.149	0.327
-700.529	72.257	0.113	0.118
-699.514	793.212	0.043	-0.118
-698.499	-39.259	0.232	-0.122
-697.485	3.420	0.301	-0.220
-696.470	-89.996	0.173	-0.051
-695.456	800.000	0.121	0.381
-694.441	265.181	0.045	0.079
-693.426	-200.000	-0.039	-0.203
-692.412	-107.090	-0.059	-0.013
-691.397	-132.381	-0.327	0.042
-690.383	-200.000	0.012	-0.530
-689.368	-33.678	0.219	-0.121
-688.354	-200.000	0.005	-0.028
-687.339	-97.257	0.514	0.134
-686.324	55.163	-0.079	-0.077
-685.310	105.396	-0.224	-0.265
-684.295	316.948	0.072	-0.136
-683.281	-128.099	0.174	0.025
-682.266	-19.169	-0.206	0.128
-681.251	10.947	0.338	0.259
-680.237	-200.000	-0.007	0.089
-679.222	230.720	0.199	-0.327
-678.208	-24.628	-0.454	-0.271
-677.193	-167.116	0.259	0.011
-676.178	373.549	-0.144	0.294
-675.164	-135.865	0.339	-0.040
-674.149	-200.000	-0.040	0.229
-673.135	-46.643	0.265	-0.130
-672.120	800.000	0.055	0.177
-671.105	-146.973	0.175	0.015
-670.091	707.263	-0.045	-0.119
-669.076	320.674	-0.085	0.161
-668.062	800.000	0.031	-0.094
-667.047	800.000	0.061	-0.251
-666.032	-200.000	-0.013	0.154
-665.018	158.513	0.057	0.080
-664.003	-3.294	0.191	0.133
-662.989	742.038	0.089	0.239
-661.974	119.483	0.069	-0.085
-660.959	222.668	-0.018	-0.029
-659.945	-200.000	0.033	-0.163
-658.930	-37.884	-0.152	-0.081
-657.916	625.386	-0.032	0.081
-656.901	54.315	0.077	-0.074
-655.886	-101.678	0.468	-0.114
-654.872	800.000	-0.017	-0.051
-653.857	227.324	-0.045	0.073
-652.843	800.000	-0.044	-0.169
-651.828	14.858	-0.209	-0.164
-650.814	95.853	0.292	-0.334
-649.799	-156.115	0.288	-0.018
-648.784	-200.000	0.012	-0.093
-647.770	-82.057	-0.224	0.073
-646.755	-22.811	0.041	0.025
-645.741	-57.126	-0.454	-0.200
-644.726	558.439	-0.133	0.321
-643.711	7.956	0.177	0.133
-642.697	11.138	-0.029	0.022
-641.682	-200.000	-0.025	-0.190
-640.668	-35.897	-0.142	0.077
-639.653	203.150	0.098	0.151
-638.638	106.614	0.073	0.086
-637.624	9.032	-0.324	0.245
-636.609	62.308	0.293	0.292
-635.595	800.000	0.094	0.305
-634.580	99.022	-0.262	-0.303
-633.565	-100.285	-0.169	0.042
-632.551	-200.000	-0.026	0.237
-631.536	800.000	-0.049	-0.164
-630.522	-87.501	-0.326	-0.099
-629.507	-78.307	0.164	0.056
-628.492	-68.734	-0.186	0.072
-627.478	144.338	-0.184	0.246
-626.463	96.788	-0.266	0.305
-625.449	-200.000	0.020	0.221
-624.434	-63.316	-0.131	-0.054
-623.419	-200.000	-0.055	-0.276
-622.405	-173.112	0.156	0.005
-621.390	-132.705	-0.249	-0.032
-620.376	233.677	0.105	-0.172
-619.361	58.170	0.100	-0.098
-618.346	217.569	0.103	0.165
-617.332	-130.703	-0.175	0.023
-616.317	317.866	0.047	-0.089
-615.303	800.000	-0.031	-0.101
-614.288	254.300	-0.105	0.179
-613.273	-175.031	0.147	-0.004
-612.259	-8.157	0.183	0.123
-611.244	38.064	0.119	0.106
-610.230	-200.000	0.024	-0.154
-609.215	33.455	0.187	-0.162
-608.201	-200.000	0.022	0.318
-607.186	-20.964	0.369	-0.226
-606.171	800.000	0.073	0.224
-605.157	-200.000	0.034	0.166
-604.142	-103.702	0.178	-0.042
-603.128	61.956	-0.196	0.195
-602.113	-88.241	0.252	0.075
-601.098	146.736	0.199	0.267
-600.084	-200.000	-0.030	-0.328
-599.069	-111.248	-0.361	-0.074
-598.055	-120.487	0.362	0.061
-597.040	-62.148	-0.110	-0.046
-596.025	800.000	-0.074	0.222
-595.011	61.737	0.106	0.105
-593.996	259.025	-0.152	0.261
-592.982	-75.913	0.185	-0.065
-591.967	97.682	-0.139	-0.160
-590.952	-57.899	-0.232	-0.101
-589.938	-104.069	0.185	0.043
-588.923	6.273	-0.111	-0.082
-587.909	101.506	0.145	-0.168
-586.894	-28.773	0.190	-0.109
-585.879	-120.011	0.196	-0.033
-584.865	301.254	-0.237	0.437
-583.850	-112.196	-0.210	0.042
-582.836	-164.783	-0.100	0.005
-581.821	127.166	0.130	0.165
-580.806	-62.804	-0.153	0.063
-579.792	85.523	-0.160	0.175
-578.777	-156.968	-0.161	0.010
-577.763	-75.761	-0.190	0.067
-576.748	38.465	-0.130	-0.115
-575.733	-179.348	-0.129	0.003
-574.719	135.654	0.067	0.087
-573.704	215.829	-0.131	-0.208
-572.690	800.000	0.037	-0.106
-571.675	-200.000	0.008	-0.165
-570.661	168.744	0.088	-0.125
-569.646	9.596	0.306	0.231
-568.631	17.267	-0.090	-0.071
-567.617	259.753	-0.167	-0.288
-566.602	-22.307	0.208	-0.126
-565.588	-90.652	-0.092	-0.027
-564.573	-200.000	0.136	-0.001
-563.558	-200.000	-0.025	0.191
-562.544	-125.352	-0.112	0.017
-561.529	165.542	-0.158	0.222
-560.515	-92.107	-0.297	0.084
-559.500	-200.000	0.025	-0.418
-558.485	11.704	-0.006	0.004
-557.471	-82.900	0.275	-0.089
-556.456	-200.000	-0.044	0.292
-555.442	364.146	-0.155	0.311
-554.427	800.000	-0.165	0.617
-553.412	66.909	0.153	0.155
-552.398	800.000	0.026	0.081
-551.383	-42.178	0.178	-0.091
-550.369	777.776	-0.038	-0.105
-549.354	-190.904	-0.223	-0.002
-548.339	517.136	-0.004	-0.009
-547.325	216.202	0.204	-0.324
-546.310	-34.448	-0.416	-0.227
-545.296	-200.000	-0.038	0.276
-544.281	83.074	0.188	0.204
-543.266	800.000	0.084	0.273
-542.252	269.658	-0.163	-0.286
-541.237	177.726	-0.071	0.104
-540.223	115.691	-0.099	-0.120
-539.208	-117.390	-0.247	-0.045
-538.193	117.875	-0.097	-0.119
-537.179	-20.601	-0.024	-0.015
-536.164	-107.571	0.037	0.008
-535.150	-105.907	0.118	0.026
-534.135	65.597	-0.242	-0.244
-533.121	-141.986	0.122	-0.012
-532.106	-56.601	-0.204	0.090
-531.091	-88.799	-0.228	-0.067
-530.077	6.294	-0.054	-0.040
-529.062	800.000	0.036	0.109
-528.048	-113.484	-0.116	0.023
-527.033	134.539	-0.103	0.132
-526.018	19.035	-0.202	0.162
-525.004	800.000	-0.092	-0.355
-523.989	-200.000	-0.017	0.217
-522.975	6.707	-0.179	0.132
-521.960	508.009	0.182	-0.421
-520.945	524.087	-0.125	-0.292
-519.931	800.000	-0.054	-0.199
-518.916	-67.420	-0.361	0.141
-517.902	-200.000	-0.008	0.278
-516.887	-200.000	0.025	0.315
-515.872	-127.634	0.215	-0.031
-514.858	-200.000	-0.029	-0.348
-513.843	-8.529	0.101	0.068
-512.829	800.000	-0.065	0.243
-511.814	-12.621	-0.152	0.099
-510.799	-200.000	-0.022	0.240
-509.785	29.978	-0.057	-0.048
-508.770	-68.719	-0.284	0.109
-507.756	-167.345	0.164	0.007
-506.741	-193.804	-0.022	0.000
-505.726	191.014	0.115	0.171
-504.712	800.000	-0.127	-0.351
-503.697	-108.362	0.161	0.035
-502.683	-83.855	0.112	-0.036
-501.668	345.400	0.138	-0.270
-500.653	-96.213	0.180	0.047
-499.639	545.294	0.008	-0.018
-498.624	-200.000	-0.046	0.203
-497.610	119.534	-0.287	0.354
-496.595	23.752	0.169	0.138
-495.581	-200.000	0.018	-0.219
-494.566	-138.965	-0.190	0.020
-493.551	-63.384	-0.127	-0.052
-492.537	64.847	0.243	-0.244
-491.522	-72.174	0.297	0.110
-490.508	69.178	0.208	0.213
-489.493	297.253	-0.158	0.288
-488.478	-81.275	0.462	0.152
-487.464	-92.134	-0.373	0.105
-486.449	24.157	0.072	-0.059
-485.435	-144.372	0.081	-0.008
-484.420	151.914	-0.131	-0.177
-483.405	-125.800	0.103	-0.016
-482.391	226.083	0.104	0.168
-481.376	-74.485	0.058	-0.021
-480.362	232.872	0.029	0.047
-479.347	-70.467	-0.093	-0.035
-478.332	55.445	0.023	-0.022
-477.318	219.139	0.141	-0.224
-476.303	-118.735	0.088	-0.015
-475.289	-40.356	-0.322	0.166
-474.274	800.000	0.050	0.183
-473.259	96.273	-0.186	-0.211
-472.245	800.000	-0.068	0.214
-471.230	10.756	-0.294	0.223
-470.216	37.045	-0.119	-0.104
-469.201	49.665	0.109	-0.102
-468.186	138.456	0.268	0.350
-467.172	83.204	-0.256	0.277
-466.157	-58.804	0.090	-0.039
-465.143	-200.000	0.027	-0.205
-464.128	81.650	0.183	-0.196
-463.113	-3.151	-0.094	0.065
-462.099	170.764	0.122	0.173
-461.084	-3.627	0.203	-0.140
-460.070	-3.412	0.067	0.046
-459.055	800.000	-0.067	0.219
-458.040	-200.000	0.001	0.236
-457.026	-43.862	0.108	-0.054
-456.011	-30.702	0.128	-0.072
-454.997	547.042	0.016	-0.038
-453.982	-81.566	0.201	-0.066
-452.968	-138.392	0.083	-0.009
-451.953	-65.640	-0.331	-0.132
-450.938	10.408	-0.180	-0.136
-449.924	800.000	0.012	-0.037
-448.909	800.000	0.039	0.145
-447.895	-87.635	0.032	0.010
-446.880	-59.092	-0.029	0.012
-445.865	99.176	-0.167	-0.191
-444.851	-200.000	-0.018	-0.183
-443.836	-200.000	-0.055	-0.308
-442.822	-147.744	-0.040	0.003
-441.807	-143.780	-0.073	0.007
-440.792	-39.130	-0.466	-0.243
-439.778	-166.515	0.083	0.003
-438.763	-29.407	-0.265	0.151
-437.749	437.082	-0.118	-0.255
-436.734	94.674	-0.103	-0.116
-435.719	800.000	-0.044	-0.181
-434.705	-46.815	0.182	0.088
-433.690	-72.104	-0.090	-0.033
-432.676	-71.336	0.127	0.047
-431.661	527.510	0.072	-0.167
-430.646	-200.000	-0.026	0.119
-429.632	89.726	-0.277	-0.306
-428.617	-73.939	0.093	-0.033
-427.603	12.445	0.059	-0.045
-426.588	-200.000	0.014	0.066
-425.573	80.694	0.130	0.139
-424.559	-200.000	-0.001	0.334
-423.544	800.000	0.044	-0.130
-422.530	176.418	0.074	-0.106
-421.515	480.667	0.049	0.111
-420.500	-77.518	0.118	-0.041
-419.486	355.612	0.109	-0.214
-418.471	528.873	0.083	-0.195
-417.457	144.072	0.180	-0.238
-416.442	-107.865	-0.179	-0.039
-415.428	-200.000	-0.010	-0.427
-414.413	-167.450	0.081	-0.003
-413.398	-130.782	-0.102	0.014
-412.384	494.602	0.066	0.151
-411.369	265.053	-0.154	-0.265
-410.355	322.204	0.164	0.310
-409.340	-21.034	-0.056	0.034
-408.325	737.728	-0.019	0.051
-407.311	-19.743	0.088	-0.054
-406.296	-82.653	0.295	-0.095
-405.282	255.662	-0.200	0.341
-404.267	38.558	-0.182	-0.161
-403.252	478.061	-0.052	-0.116
-402.238	800.000	-0.056	-0.184
-401.223	-200.000	-0.032	-0.179
-400.209	-200.000	0.015	-0.264
-399.194	-66.942	0.161	0.063
-398.179	800.000	0.101	-0.339
-397.165	800.000	-0.037	0.155
-396.150	-28.567	0.251	0.143
-395.136	-127.524	-0.045	-0.006
-394.121	114.674	0.006	0.008
-393.106	175.679	-0.158	0.227
-392.092	-111.694	0.276	0.055
-391.077	224.305	0.071	0.113
-390.063	800.000	0.053	0.153
-389.048	52.384	0.120	0.113
-388.033	-22.962	0.143	-0.086
-387.019	75.780	0.253	0.265
-386.004	-141.124	-0.306	-0.031
-384.990	-0.320	0.264	-0.186
-383.975	392.354	0.142	0.293
-382.960	609.836	-0.007	-0.018
-381.946	-70.913	0.358	-0.133
-380.931	228.414	-0.228	0.367
-379.917	800.000	-0.062	-0.178
-378.902	7.459	-0.087	-0.064
-377.888	-148.442	0.312	-0.025
-376.873	-106.685	0.260	0.057
-375.858	-200.000	-0.003	-0.063
-374.844	-200.000	-0.047	0.211
-373.829	338.877	-0.021	-0.041
-372.815	-100.333	0.406	-0.100
-371.800	-98.368	-0.214	-0.054
-370.785	236.279	0.115	-0.189
-369.771	-69.206	-0.056	0.021
-368.756	199.874	0.082	-0.124
-367.742	-200.000	0.011	-0.228
-366.727	-66.415	0.255	0.100
-365.712	345.376	-0.085	-0.166
-364.698	800.000	-0.029	-0.082
-363.683	78.684	-0.212	0.224
-362.669	180.929	0.077	0.112
-361.654	23.703	0.106	0.086
-360.639	112.223	-0.095	0.114
-359.625	-130.249	0.200	-0.027
-358.610	-52.899	-0.200	-0.091
-357.596	800.000	-0.028	-0.121
-356.581	-22.902	-0.145	0.086
-355.566	-130.086	-0.188	-0.025
-354.552	-200.000	0.042	-0.299
-353.537	49.993	-0.191	0.178
-352.523	-137.330	-0.387	-0.043
-351.508	-30.791	0.152	-0.085
-350.493	800.000	0.124	-0.374
-349.479	34.484	-0.324	-0.279
-348.464	47.174	-0.237	0.218
-347.450	36.228	0.088	-0.076
-346.435	284.573	0.109	-0.193
-345.420	-12.629	-0.048	-0.031
-344.406	-76.573	0.197	-0.068
-343.391	521.470	0.200	0.464
-342.377	27.652	-0.460	-0.383
-341.362	-60.727	0.185	0.077
-340.348	180.171	-0.151	0.219
-339.333	-200.000	-0.019	-0.284
-338.318	-200.000	0.037	0.287
-337.304	29.537	0.100	0.084
-336.289	687.624	0.053	-0.136
-335.275	-200.000	0.024	-0.116
-334.260	-188.372	0.146	0.002
-333.245	117.121	-0.144	0.175
-332.231	-131.807	0.256	0.033
-331.216	-16.684	0.134	0.084
-330.202	-79.971	0.106	-0.035
-329.187	142.858	0.155	0.203
-328.172	179.803	0.080	-0.115
-327.158	59.777	0.145	0.141
-326.143	355.302	0.122	-0.240
-325.129	-9.476	-0.044	0.029
-324.114	-82.000	0.230	0.074
-323.099	-2.693	-0.165	0.114
-322.085	-200.000	0.090	-0.515
-321.070	-200.000	-0.003	0.153
-320.056	-200.000	0.018	0.206
-319.041	75.115	0.065	-0.068
-318.026	162.438	-0.044	0.061
-317.012	800.000	-0.064	-0.242
-315.997	800.000	-0.022	-0.070
-314.983	-70.417	-0.106	0.040
-313.968	140.957	-0.128	0.167
-312.953	268.979	0.170	-0.295
-311.939	241.152	0.116	0.191
-310.924	145.907	-0.320	0.424
-309.910	800.000	0.115	0.477
-308.895	135.925	0.275	-0.354
-307.880	-144.186	0.128	-0.012
-306.866	9.692	-0.133	0.100
-305.851	800.000	-0.087	-0.297
-304.837	-200.000	-0.002	-0.411
-303.822	446.176	-0.125	-0.271
-302.807	166.218	0.121	0.169
-301.793	124.059	0.179	0.222
-300.778	208.479	0.065	-0.101
-299.764	-67.207	0.035	-0.013
-298.749	800.000	-0.022	0.096
-297.735	-49.503	-0.289	-0.136
-296.720	220.397	0.054	0.086
-295.705	-126.281	0.190	0.028
-294.691	306.524	0.110	0.202
-293.676	800.000	0.062	-0.171
-292.662	27.901	0.083	-0.069
-291.647	-36.998	0.237	-0.125
-290.632	-200.000	-0.085	0.430
-289.618	699.501	0.063	-0.165
-288.603	-200.000	-0.088	-0.653
-287.589	0.438	0.150	0.106
-286.574	268.514	0.123	0.212
-285.559	395.005	0.067	-0.138
-284.545	-78.387	0.356	-0.121
-283.530	-108.180	0.064	-0.014
-282.516	630.323	-0.021	0.053
-281.501	257.515	0.094	0.160
-280.486	438.192	0.116	-0.250
-279.472	-55.927	-0.089	0.039
-278.457	-56.163	0.092	0.040
-277.443	169.246	0.130	-0.183
-276.428	-45.247	-0.293	0.144
-275.413	800.000	0.037	0.144
-274.399	-200.000	-0.030	0.186
-273.384	-18.255	-0.185	0.114
-272.370	800.000	-0.043	-0.157
-271.355	-87.550	-0.415	-0.124
-270.340	74.138	0.182	0.188
-269.326	112.719	-0.153	-0.182
-268.311	-50.263	0.315	0.147
-267.297	800.000	0.045	0.172
-266.282	800.000	0.082	-0.338
-265.267	-126.290	0.165	0.024
-264.253	-136.806	-0.594	-0.067
-263.238	-200.000	-0.007	-0.174
-262.224	124.281	0.035	-0.044
-261.209	246.811	0.058	-0.097
-260.195	-120.290	0.159	-0.027
-259.180	-200.000	0.013	0.136
-258.165	-47.599	0.147	0.070
-257.151	731.564	-0.139	-0.367
-256.136	800.000	0.056	0.156
-255.122	8.601	-0.216	0.160
-254.107	58.999	0.145	0.140
-253.092	25.404	-0.173	-0.141
-252.078	53.016	0.057	0.054
-251.063	24.095	0.136	0.111
-250.049	701.922	0.122	-0.315
-249.034	447.111	0.094	0.204
-248.019	800.000	0.059	-0.234
-247.005	69.819	0.154	-0.157
-245.990	-200.000	-0.017	0.202
-244.976	-200.000	0.002	0.192
-243.961	800.000	0.063	-0.229
-242.946	673.862	0.064	-0.164
-241.932	-200.000	0.013	0.111
-240.917	-12.223	-0.104	0.067
-239.903	63.100	0.056	0.055
-238.888	-31.515	-0.078	0.043
-237.873	-100.705	-0.168	0.041
-236.859	-35.578	0.104	-0.055
-235.844	-200.000	-0.012	-0.072
-234.830	-138.948	0.140	-0.015
-233.815	800.000	-0.039	0.154
-232.800	-200.000	-0.009	-0.252
-231.786	-134.992	0.484	-0.057
-230.771	-0.179	-0.347	-0.243
-229.757	-115.179	0.249	-0.046
-228.742	-200.000	0.008	0.168
-227.727	-57.283	-0.100	0.043
-226.713	27.880	-0.301	-0.249
-225.698	-11.295	-0.257	-0.167
-224.684	287.251	0.029	0.052
-223.669	134.712	-0.090	0.115
-222.655	-5.662	0.085	0.058
-221.640	468.406	0.054	-0.119
-220.625	15.415	-0.280	0.216
-219.611	-143.139	0.243	-0.023
-218.596	-167.622	-0.350	0.014
-217.582	-96.947	-0.037	-0.010
-216.567	-67.557	0.050	0.019
-215.552	266.714	0.086	-0.149
-214.538	-98.940	0.066	-0.017
-213.523	-75.828	0.198	-0.069
-212.509	-48.302	-0.101	0.048
-211.494	68.909	-0.217	0.219
-210.479	-109.002	-0.189	0.040
-209.465	800.000	0.068	0.187
-208.450	800.000	0.180	-0.569
-207.436	-184.113	-0.348	0.006
-206.421	-68.910	0.379	0.144
-205.406	-200.000	-0.007	-0.256
-204.392	800.000	0.050	0.157
-203.377	-97.810	0.149	0.038
-202.363	-200.000	-0.063	0.419
-201.348	-5.743	-0.160	0.108
-200.333	158.940	-0.048	0.066
-199.319	-50.072	0.228	-0.106
-198.304	-44.408	-0.093	-0.046
-197.290	75.297	-0.169	-0.176
-196.275	-72.635	-0.199	-0.072
-195.260	-59.752	-0.037	-0.016
-194.246	168.984	-0.088	-0.124
-193.231	800.000	0.078	-0.250
-192.217	-200.000	0.014	0.113
-191.202	-2.251	-0.026	-0.018
-190.187	-92.804	0.168	-0.046
-189.173	594.925	-0.069	0.169
-188.158	-2.340	0.093	-0.064
-187.144	-72.202	-0.290	-0.106
-186.129	-7.677	-0.236	0.157
-185.114	266.863	0.069	0.119
-184.100	326.225	0.219	-0.412
-183.085	-22.909	0.301	-0.178
-182.071	-200.000	0.046	0.222
-181.056	-3.352	0.352	-0.241
-180.042	198.644	-0.085	0.128
-179.027	105.448	-0.145	0.168
-178.012	-163.306	0.182	-0.009
-176.998	168.780	0.091	-0.128
-175.983	-200.000	0.054	-0.356
-174.969	385.598	-0.123	-0.249
-173.954	92.358	-0.281	0.311
-172.939	531.914	0.026	-0.060
-171.925	9.953	0.033	0.025
-170.910	-169.118	0.128	0.005
-169.896	-97.682	-0.205	0.052
-168.881	-200.000	0.050	0.369
-167.866	260.010	-0.164	-0.278
-166.852	324.134	0.070	-0.132
-165.837	41.694	-0.176	0.157
-164.823	-54.635	0.209	-0.093
-163.808	-70.485	-0.319	0.119
-162.793	-41.829	0.119	-0.060
-161.779	-85.353	0.499	-0.153
-160.764	-16.057	-0.292	0.182
-159.750	800.000	0.052	0.209
-158.735	-167.445	0.084	0.003
-157.720	741.063	-0.097	0.255
-156.706	-200.000	0.016	-0.280
-155.691	-44.100	0.226	-0.111
-154.677	452.039	0.122	0.265
-153.662	192.621	-0.158	-0.234
-152.647	-200.000	0.033	0.331
-151.633	-94.043	-0.195	0.053
-150.618	-93.939	0.220	0.059
-149.604	34.497	-0.085	-0.072
-148.589	-200.000	0.015	0.109
-147.574	68.417	0.070	0.070
-146.560	-77.344	-0.028	-0.010
-145.545	800.000	0.137	-0.380
-144.531	-135.489	0.130	-0.015
-143.516	240.935	0.181	0.297
-142.502	173.020	-0.188	0.266
-141.487	-84.906	0.179	0.055
-140.472	161.105	0.176	-0.241
-139.458	-3.507	0.043	0.029
-138.443	-200.000	-0.042	-0.263
-137.429	-147.160	0.195	-0.016
-136.414	-200.000	0.001	-0.040
-135.399	-200.000	0.001	-0.064
-134.385	-8.344	0.119	0.079
-133.370	48.234	-0.204	-0.187
-132.356	-82.831	0.189	0.060
-131.341	-129.882	0.140	0.019
-130.326	222.541	-0.136	0.215
-129.312	158.332	0.256	0.349
-128.297	11.583	0.167	-0.125
-127.283	-6.846	-0.133	-0.089
-126.268	69.916	0.067	-0.067
-125.253	108.029	-0.127	0.149
-124.239	-91.070	-0.143	-0.040
-123.224	194.021	0.093	-0.139
-122.210	-109.768	-0.131	-0.027
-121.195	-50.969	0.230	0.106
-120.180	-14.269	0.081	-0.051
-119.166	-102.177	-0.201	0.047
