DTS Sentinel unit serial number:	SN413079Multiplexer serial number:	ORYXHardware model number:	OX4-SRSoftware version number:	ORYX F/W v4.00 Oryx Data Collector v3.7.2.0data status	okinstallation	princeton_trtdifferential loss correction	single-endedforward channel	channel 3reverse channel	N/Adate	2019/09/11time	07:18:10forward acquisition time	60.00reverse acquisition time	0.00gamma	496.2192k internal	0.2328k external	0.2328temperature offset calibration	0.9904default loss term (dB/km)	0.3790temperature slope calibration	1.0000multiplexer offset coefficient	1.0000multiplexer slope coefficient	1.0000fibre end	0.00T internal ref (°C)	30.66T ext. ref 1 (°C)	-0.03T ext. ref 2 (°C)	27.15length (m)	temperature (°C)	Stokes	anti-Stokes-747.200	153.752	-0.051	-0.071
-746.185	287.121	0.008	0.015
-745.171	23.865	-0.329	0.273
-744.156	105.763	0.173	0.206
-743.142	-200.000	0.014	0.420
-742.127	-94.862	-0.298	0.081
-741.112	342.946	-0.130	-0.257
-740.098	-41.824	-0.223	0.115
-739.083	-124.983	0.084	0.013
-738.069	247.963	-0.137	-0.234
-737.054	-103.973	-0.109	-0.026
-736.039	-50.384	-0.062	-0.030
-735.025	53.258	0.171	-0.165
-734.010	407.284	0.017	0.037
-732.996	-107.263	-0.493	0.109
-731.981	77.549	-0.201	-0.216
-730.966	800.000	-0.007	0.023
-729.952	3.624	-0.120	-0.088
-728.937	47.973	-0.265	-0.249
-727.923	-74.089	-0.088	-0.032
-726.908	800.000	-0.059	0.197
-725.894	33.603	-0.170	-0.149
-724.879	16.277	0.115	-0.092
-723.864	-58.658	-0.434	0.189
-722.850	351.501	0.065	0.129
-721.835	-166.975	-0.074	-0.003
-720.821	676.428	-0.026	0.069
-719.806	-200.000	0.010	-0.092
-718.791	-99.635	-0.082	0.021
-717.777	-200.000	-0.057	-0.299
-716.762	169.391	0.231	0.333
-715.748	-200.000	0.053	-0.240
-714.733	-0.761	0.228	-0.162
-713.718	-45.736	-0.324	-0.161
-712.704	78.687	-0.105	-0.113
-711.689	-112.603	-0.120	-0.024
-710.675	-40.157	0.111	0.058
-709.660	-31.264	0.276	0.157
-708.645	-125.278	-0.245	0.038
-707.631	800.000	0.048	-0.179
-706.616	27.705	0.314	0.266
-705.602	297.252	0.064	-0.119
-704.587	-91.978	0.042	0.012
-703.572	77.343	0.231	-0.248
-702.558	-133.547	-0.078	0.010
-701.543	800.000	0.078	0.292
-700.529	-13.475	-0.243	0.159
-699.514	12.278	0.257	-0.199
-698.499	30.656	-0.048	-0.041
-697.485	206.162	-0.074	0.115
-696.470	325.694	0.247	-0.476
-695.456	129.097	0.121	-0.155
-694.441	-53.628	0.358	-0.165
-693.426	-58.868	-0.413	-0.180
-692.412	-200.000	-0.032	0.249
-691.397	19.017	0.160	-0.129
-690.383	-65.718	0.172	-0.069
-689.368	800.000	0.024	0.069
-688.354	800.000	0.073	-0.228
-687.339	65.635	-0.113	-0.116
-686.324	33.023	-0.151	0.132
-685.310	90.776	-0.101	0.114
-684.295	-19.424	-0.124	-0.078
-683.281	370.333	-0.071	-0.144
-682.266	800.000	0.085	0.370
-681.251	-200.000	0.017	0.481
-680.237	-34.733	-0.376	-0.207
-679.222	177.610	-0.131	0.193
-678.208	214.100	0.129	0.205
-677.193	112.283	0.137	-0.166
-676.178	-110.686	0.203	-0.042
-675.164	31.720	-0.145	-0.125
-674.149	-43.145	0.186	0.095
-673.135	66.695	-0.067	0.068
-672.120	-57.515	0.128	0.056
-671.105	113.928	-0.052	-0.064
-670.091	-200.000	0.023	0.123
-669.076	-200.000	0.032	-0.151
-668.062	-67.784	-0.135	-0.053
-667.047	-64.240	0.236	-0.096
-666.032	800.000	-0.065	0.243
-665.018	-200.000	0.007	-0.196
-664.003	99.592	-0.182	-0.212
-662.989	-140.597	0.421	-0.044
-661.974	-200.000	-0.021	-0.166
-660.959	47.997	-0.099	-0.093
-659.945	800.000	-0.068	0.206
-658.930	-46.918	0.096	0.047
-657.916	800.000	-0.079	-0.229
-656.901	-51.599	-0.095	-0.045
-655.886	-82.797	-0.106	-0.034
-654.872	-200.000	-0.006	0.304
-653.857	-0.954	-0.151	-0.107
-652.843	314.946	-0.108	-0.204
-651.828	-43.309	0.321	-0.163
-650.814	-63.264	-0.384	-0.159
-649.799	-200.000	-0.014	-0.243
-648.784	4.768	0.157	-0.116
-647.770	645.858	0.101	-0.260
-646.755	102.303	-0.078	0.092
-645.741	-27.796	0.227	-0.132
-644.726	524.972	-0.113	-0.267
-643.711	-21.394	0.100	0.061
-642.697	250.026	0.096	0.163
-641.682	89.843	-0.115	0.129
-640.668	-200.000	-0.001	0.324
-639.653	27.995	0.188	-0.160
-638.638	800.000	-0.107	0.384
-637.624	-17.389	0.141	0.089
-636.609	-10.947	-0.126	0.084
-635.595	143.940	-0.143	0.191
-634.580	297.737	-0.030	-0.056
-633.565	132.740	0.215	-0.279
-632.551	800.000	-0.072	-0.210
-631.536	800.000	0.066	-0.247
-630.522	236.601	0.071	0.118
-629.507	800.000	0.177	0.492
-628.492	-97.848	-0.103	-0.027
-627.478	-127.301	0.101	-0.015
-626.463	109.578	-0.235	-0.282
-625.449	14.488	-0.219	-0.172
-624.434	-103.297	0.150	0.036
-623.419	-200.000	0.036	0.217
-622.405	-18.464	-0.235	-0.147
-621.390	45.326	-0.262	-0.242
-620.376	-24.024	0.067	-0.040
-619.361	-200.000	0.001	-0.156
-618.346	42.379	-0.299	0.273
-617.332	-200.000	-0.034	0.164
-616.317	-155.245	0.128	-0.008
-615.303	-125.989	-0.400	0.060
-614.288	-78.936	0.041	-0.014
-613.273	-200.000	0.007	-0.397
-612.259	-45.681	-0.242	0.120
-611.244	-92.605	0.218	0.061
-610.230	71.953	0.202	0.211
-609.215	60.698	0.121	0.120
-608.201	800.000	-0.083	-0.348
-607.186	-60.488	0.048	0.020
-606.171	114.334	0.055	-0.067
-605.157	-163.409	0.250	0.012
-604.142	-156.030	0.211	0.013
-603.128	800.000	-0.020	-0.087
-602.113	147.198	0.164	-0.221
-601.098	-131.064	-0.207	-0.028
-600.084	192.142	-0.052	0.079
-599.069	-48.367	-0.279	-0.135
-598.055	-40.244	-0.092	0.048
-597.040	-200.000	-0.019	0.287
-596.025	32.232	0.211	-0.182
-595.011	53.901	-0.052	0.050
-593.996	-200.000	0.014	0.074
-592.982	52.420	0.240	-0.230
-591.967	609.001	-0.084	0.211
-590.952	84.579	-0.262	0.288
-589.938	-102.488	-0.246	0.059
-588.923	-77.658	0.201	0.070
-587.909	59.711	0.274	0.271
-586.894	-41.677	0.147	-0.076
-585.879	232.440	0.064	-0.105
-584.865	88.030	-0.325	-0.361
-583.850	-200.000	-0.018	-0.097
-582.836	-116.289	0.255	-0.047
-581.821	504.156	0.110	-0.254
-580.806	-200.000	-0.000	0.118
-579.792	17.227	0.193	-0.153
-578.777	19.751	-0.038	0.030
-577.763	800.000	0.048	-0.189
-576.748	-200.000	-0.004	0.132
-575.733	-200.000	-0.021	0.203
-574.719	141.400	-0.048	0.064
-573.704	50.605	-0.101	-0.096
-572.690	-11.758	-0.157	-0.103
-571.675	-147.312	-0.041	-0.003
-570.661	-200.000	0.001	0.085
-569.646	-8.258	-0.069	-0.046
-568.631	800.000	0.050	0.219
-567.617	-38.504	-0.197	-0.104
-566.602	800.000	0.056	0.167
-565.588	-80.509	0.104	-0.035
-564.573	800.000	0.095	0.280
-563.558	-130.284	-0.151	-0.021
-562.544	308.989	0.106	0.197
-561.529	-6.105	-0.273	-0.187
-560.515	56.214	0.089	-0.087
-559.500	156.339	-0.173	0.239
-558.485	800.000	0.051	0.203
-557.471	-118.274	-0.198	0.035
-556.456	238.131	-0.160	0.266
-555.442	176.166	0.099	-0.145
-554.427	605.733	0.143	-0.356
-553.412	-17.394	-0.079	-0.050
-552.398	55.176	0.090	-0.087
-551.383	-18.114	0.147	0.092
-550.369	-200.000	-0.038	0.296
-549.354	-38.979	-0.074	-0.039
-548.339	696.081	-0.044	-0.117
-547.325	-64.916	-0.107	-0.043
-546.310	39.813	0.215	0.193
-545.296	-25.933	-0.215	0.127
-544.281	156.130	-0.141	-0.194
-543.266	212.987	0.064	-0.101
-542.252	-87.048	0.257	-0.078
-541.237	-145.987	-0.406	-0.036
-540.223	-65.213	-0.458	0.185
-539.208	-48.085	-0.177	0.085
-538.193	-166.911	0.225	0.009
-537.179	-108.339	0.127	-0.028
-536.164	-6.230	0.332	-0.226
-535.150	800.000	-0.066	0.188
-534.135	-89.676	-0.273	-0.080
-533.121	800.000	0.077	-0.237
-532.106	121.315	0.257	-0.320
-531.091	-178.360	0.232	0.005
-530.077	-103.940	-0.186	-0.043
-529.062	-85.067	-0.080	0.025
-528.048	-150.067	0.310	-0.024
-527.033	-30.144	-0.071	-0.041
-526.018	800.000	-0.084	0.285
-525.004	-55.148	-0.133	-0.060
-523.989	56.694	0.168	-0.163
-522.975	800.000	-0.053	-0.213
-521.960	142.983	-0.146	0.194
-520.945	800.000	0.072	-0.268
-519.931	-83.507	-0.379	-0.121
-518.916	-55.718	-0.438	-0.196
-517.902	-9.487	-0.099	-0.066
-516.887	-200.000	0.003	0.016
-515.872	126.297	-0.110	-0.139
-514.858	-121.442	-0.227	0.038
-513.843	149.670	-0.196	0.266
-512.829	72.632	-0.181	-0.188
-511.814	-57.704	-0.087	0.038
-510.799	557.556	0.051	0.122
-509.785	-6.534	-0.301	-0.205
-508.770	67.968	-0.070	0.072
-507.756	33.543	0.103	0.090
-506.741	143.456	-0.252	0.334
-505.726	-14.855	0.187	0.120
-504.712	-79.504	0.424	-0.143
-503.697	-65.582	-0.139	0.056
-502.683	800.000	0.065	0.225
-501.668	-49.969	-0.100	0.047
-500.653	130.602	0.204	0.261
-499.639	101.481	-0.073	0.084
-498.624	-200.000	-0.007	0.074
-497.610	40.935	-0.307	0.277
-496.595	76.328	0.043	0.046
-495.581	571.424	0.086	-0.208
-494.566	-105.896	0.127	0.029
-493.551	-100.325	-0.222	-0.055
-492.537	27.911	0.020	0.017
-491.522	-200.000	-0.036	-0.166
-490.508	800.000	-0.045	0.157
-489.493	-200.000	-0.023	0.217
-488.478	-99.927	0.034	0.009
-487.464	-107.253	0.117	-0.026
-486.449	-125.612	-0.240	-0.036
-485.435	-105.736	0.079	0.018
-484.420	751.481	0.091	0.246
-483.405	175.966	0.161	0.233
-482.391	-200.000	-0.026	0.262
-481.376	-40.446	0.084	-0.044
-480.362	-167.638	0.279	0.011
-479.347	45.543	-0.205	-0.189
-478.332	-64.934	0.314	0.127
-477.318	562.018	0.166	-0.400
-476.303	-144.617	0.291	0.027
-475.289	-200.000	0.002	-0.057
-474.274	150.069	0.072	0.098
-473.259	-200.000	-0.015	0.466
-472.245	351.190	-0.034	-0.067
-471.230	495.898	0.032	0.073
-470.216	20.665	0.252	0.204
-469.201	-161.875	-0.336	-0.017
-468.186	25.300	0.234	0.194
-467.172	-143.841	-0.308	0.029
-466.157	-58.570	0.092	-0.040
-465.143	240.587	0.121	0.202
-464.128	800.000	0.045	-0.186
-463.113	65.535	-0.195	-0.197
-462.099	-43.026	-0.195	-0.099
-461.084	19.051	-0.319	0.255
-460.070	-200.000	-0.027	0.143
-459.055	-185.170	-0.147	0.002
-458.040	-200.000	-0.047	0.255
-457.026	800.000	0.086	-0.270
-456.011	415.856	0.064	-0.136
-454.997	225.949	-0.198	-0.321
-453.982	-25.922	-0.249	-0.146
-452.968	399.707	0.063	-0.131
-451.953	-200.000	0.002	-0.223
-450.938	-95.239	-0.036	-0.010
-449.924	-143.889	-0.263	-0.025
-448.909	133.190	-0.169	-0.217
-447.895	-98.779	0.261	-0.066
-446.880	341.425	-0.150	0.292
-445.865	412.590	-0.114	-0.241
-444.851	800.000	0.007	0.022
-443.836	278.916	-0.175	0.312
-442.822	51.601	-0.238	0.225
-441.807	-101.393	0.199	0.048
-440.792	708.662	0.034	0.088
-439.778	183.058	0.064	0.094
-438.763	800.000	-0.029	0.085
-437.749	-156.527	-0.288	-0.018
-436.734	93.002	-0.322	-0.362
-435.719	-200.000	0.019	-0.120
-434.705	800.000	-0.043	-0.125
-433.690	-38.050	0.319	-0.169
-432.676	191.806	0.136	0.204
-431.661	-125.621	0.228	0.034
-430.646	72.156	-0.195	-0.202
-429.632	17.833	-0.169	-0.134
-428.617	-118.808	0.279	0.049
-427.603	-53.000	0.047	-0.022
-426.588	-200.000	-0.219	-0.000
-425.573	-126.574	0.126	0.019
-424.559	-29.401	0.242	-0.138
-423.544	48.920	-0.018	0.016
-422.530	-13.720	-0.402	0.259
-421.515	360.868	0.047	-0.093
-420.500	800.000	-0.077	0.257
-419.486	-117.949	-0.192	0.034
-418.471	17.051	0.027	0.021
-417.457	-200.000	-0.050	0.232
-416.442	90.534	0.192	-0.214
-415.428	-166.136	-0.086	0.004
-414.413	438.116	-0.130	0.283
-413.398	-178.718	-0.257	0.006
-412.384	-75.459	0.407	-0.144
-411.369	-200.000	0.005	-0.088
-410.355	800.000	0.009	0.025
-409.340	127.102	-0.160	0.203
-408.325	800.000	-0.080	0.276
-407.311	28.169	-0.068	0.057
-406.296	189.796	0.045	0.068
-405.282	-31.693	-0.182	0.102
-404.267	-200.000	-0.364	-0.001
-403.252	-5.269	0.076	-0.052
-402.238	158.893	-0.129	-0.179
-401.223	-40.711	0.117	-0.060
-400.209	-26.371	0.199	-0.116
-399.194	118.150	0.220	-0.269
-398.179	-57.681	-0.304	-0.132
-397.165	-200.000	-0.001	-0.056
-396.150	94.132	0.140	0.158
-395.136	-129.163	0.074	0.010
-394.121	800.000	0.027	0.109
-393.106	-90.931	0.393	0.112
-392.092	-93.925	-0.192	-0.053
-391.077	-134.561	-0.277	-0.034
-390.063	-200.000	0.037	-0.267
-389.048	-65.706	-0.104	-0.042
-388.033	325.871	-0.160	0.305
-387.019	-170.274	-0.392	0.014
-386.004	-38.869	0.330	-0.173
-384.990	-169.508	-0.174	-0.006
-383.975	-63.432	-0.291	0.119
-382.960	93.572	-0.147	0.165
-381.946	800.000	0.078	-0.260
-380.931	-117.633	0.221	-0.040
-379.917	-100.451	0.066	-0.016
-378.902	-21.951	0.285	0.172
-377.888	-102.332	-0.147	-0.035
-376.873	260.622	-0.140	0.241
-375.858	180.104	-0.256	0.373
-374.844	184.077	0.066	-0.097
-373.829	-118.116	0.343	0.061
-372.815	-200.000	0.047	-0.361
-371.800	800.000	0.029	-0.088
-370.785	-200.000	0.027	0.162
-369.771	58.031	-0.184	-0.179
-368.756	-144.001	0.282	-0.026
-367.742	-80.672	0.129	-0.043
-366.727	-4.283	0.466	0.320
-365.712	589.422	0.071	0.174
-364.698	-135.555	-0.055	0.006
-363.683	-60.671	0.196	-0.082
-362.669	5.628	0.274	0.201
-361.654	-1.785	-0.183	0.128
-360.639	60.906	-0.324	-0.319
-359.625	-112.596	0.224	-0.044
-358.610	57.087	0.178	0.172
-357.596	-200.000	-0.044	-0.208
-356.581	-200.000	0.012	-0.163
-355.566	-197.189	0.108	-0.001
-354.552	-97.224	0.099	-0.026
-353.537	29.814	0.373	0.316
-352.523	800.000	-0.058	-0.185
-351.508	103.344	0.110	0.128
-350.493	238.403	0.082	-0.136
-349.479	800.000	-0.067	0.285
-348.464	-6.323	0.170	0.115
-347.450	-140.134	-0.065	-0.007
-346.435	227.074	0.156	-0.252
-345.420	800.000	0.089	0.378
-344.406	-81.486	-0.129	-0.042
-343.391	-88.138	0.127	0.038
-342.377	246.226	0.034	0.057
-341.362	185.720	0.119	-0.176
-340.348	436.843	0.109	-0.235
-339.333	271.204	0.151	-0.265
-338.318	-158.424	0.419	0.024
-337.304	-200.000	-0.028	-0.131
-336.289	597.121	0.053	0.131
-335.275	159.412	-0.260	-0.359
-334.260	-200.000	0.031	0.258
-333.245	-200.000	-0.003	0.063
-332.231	223.184	-0.186	0.298
-331.216	-58.820	-0.167	0.072
-330.202	245.555	0.159	-0.265
-329.187	-200.000	0.001	-0.042
-328.172	262.310	0.066	-0.113
-327.158	240.313	0.307	-0.507
-326.143	91.677	0.138	-0.154
-325.129	56.293	0.102	0.098
-324.114	-200.000	-0.034	0.247
-323.099	-104.700	-0.152	0.035
-322.085	-200.000	-0.052	0.291
-321.070	60.534	-0.303	0.298
-320.056	-200.000	0.266	0.001
-319.041	800.000	0.076	0.246
-318.026	262.728	-0.179	-0.308
-317.012	242.312	0.076	0.126
-315.997	-108.736	-0.157	0.033
-314.983	-200.000	-0.019	0.332
-313.968	-56.039	-0.143	0.063
-312.953	-123.983	0.334	-0.052
-311.939	623.658	-0.109	0.271
-310.924	-167.732	-0.301	-0.012
-309.910	-111.404	0.175	-0.035
-308.895	77.548	0.203	-0.214
-307.880	249.717	-0.141	0.237
-306.866	499.691	0.168	0.383
-305.851	-22.316	0.363	-0.218
-304.837	-136.406	-0.311	0.036
-303.822	-79.611	0.199	-0.067
-302.807	22.688	-0.016	-0.013
-301.793	-200.000	-0.001	0.210
-300.778	-117.653	0.198	0.035
-299.764	-47.848	-0.279	0.134
-298.749	95.781	0.088	0.100
-297.735	-73.861	0.222	0.080
-296.720	-159.397	0.427	0.024
-295.705	-200.000	0.033	0.190
-294.691	-200.000	-0.002	-0.213
-293.676	-109.903	0.236	-0.049
-292.662	45.531	-0.116	-0.106
-291.647	-200.000	-0.011	0.248
-290.632	-86.858	-0.221	0.067
-289.618	-9.283	0.167	0.110
-288.603	-200.000	0.041	-0.296
-287.589	478.291	0.041	-0.092
-286.574	-200.000	0.004	0.113
-285.559	762.658	0.073	-0.197
-284.545	800.000	-0.045	0.153
-283.530	-11.757	-0.100	0.065
-282.516	-13.747	0.151	-0.097
-281.501	-200.000	-0.019	-0.319
-280.486	14.877	0.202	-0.156
-279.472	401.051	0.019	-0.040
-278.457	-57.070	-0.042	0.018
-277.443	56.481	-0.169	-0.162
-276.428	195.616	-0.096	-0.144
-275.413	-76.869	0.181	-0.063
-274.399	-200.000	0.005	-0.177
-273.384	-172.883	-0.138	0.004
-272.370	-132.014	0.147	0.019
-271.355	-36.428	0.082	-0.044
-270.340	289.597	-0.102	-0.184
-269.326	-29.745	-0.175	0.099
-268.311	-200.000	-0.020	0.210
-267.297	-85.884	-0.296	-0.091
-266.282	106.607	0.144	0.169
-265.267	-15.358	0.295	-0.187
-264.253	-132.529	0.150	0.019
-263.238	-0.863	0.220	0.154
-262.224	-4.410	-0.179	0.122
-261.209	-60.532	-0.075	-0.032
-260.195	-200.000	0.038	0.201
-259.180	-125.067	-0.280	0.042
-258.165	-106.577	-0.341	-0.075
-257.151	-66.826	0.327	-0.128
-256.136	800.000	-0.043	0.130
-255.122	148.528	-0.093	-0.125
-254.107	-100.239	-0.224	-0.055
-253.092	-200.000	-0.034	0.194
-252.078	800.000	0.022	-0.074
-251.063	-124.080	-0.204	0.032
-250.049	150.283	-0.040	-0.054
-249.034	-81.233	0.286	0.094
-248.019	-79.909	0.193	0.064
-247.005	358.575	0.169	-0.334
-245.990	93.739	0.058	0.065
-244.976	-103.055	0.166	-0.039
-243.961	193.618	0.023	-0.035
-242.946	-169.680	0.350	-0.013
-241.932	-200.000	-0.045	-0.338
-240.917	256.289	-0.104	-0.176
-239.903	-200.000	-0.038	-0.205
-238.888	-48.304	-0.199	-0.095
-237.873	-29.607	-0.272	0.154
-236.859	653.925	0.018	0.045
-235.844	301.538	-0.213	-0.389
-234.830	800.000	0.039	-0.160
-233.815	800.000	-0.026	0.087
-232.800	-136.821	0.153	-0.017
-231.786	54.425	0.209	0.199
-230.771	800.000	0.041	0.153
-229.757	-14.832	-0.082	-0.052
-228.742	800.000	-0.038	-0.126
-227.727	-200.000	-0.016	0.416
-226.713	-86.307	-0.011	-0.003
-225.698	643.940	-0.069	-0.173
-224.684	93.449	-0.212	0.237
-223.669	-49.514	-0.311	0.146
-222.655	54.885	-0.146	-0.139
-221.640	-8.698	0.223	-0.148
-220.625	-200.000	0.031	0.217
-219.611	496.490	0.082	0.187
-218.596	122.277	-0.154	-0.190
-217.582	431.851	-0.113	0.241
-216.567	48.520	-0.243	-0.225
-215.552	16.434	0.079	-0.061
-214.538	-175.914	0.144	-0.004
-213.523	-87.928	-0.258	0.077
-212.509	800.000	-0.058	0.166
-211.494	168.906	-0.103	-0.145
-210.479	-200.000	-0.074	-0.324
-209.465	-81.376	0.280	-0.091
-208.450	-160.931	-0.144	0.007
-207.436	75.830	0.236	0.246
-206.421	-127.043	-0.119	0.017
-205.406	201.377	-0.191	-0.290
-204.392	-112.936	0.236	0.046
-203.377	800.000	0.078	-0.294
-202.363	800.000	0.070	0.196
-201.348	111.941	-0.123	-0.147
-200.333	-77.693	-0.259	0.088
-199.319	-97.103	-0.143	0.037
-198.304	87.649	-0.138	-0.151
-197.290	99.006	-0.103	-0.118
-196.275	-9.206	0.076	0.050
-195.260	73.763	0.109	-0.113
-194.246	149.486	0.066	-0.088
-193.231	167.528	0.159	-0.223
-192.217	800.000	-0.022	-0.075
-191.202	-34.536	0.333	0.180
-190.187	-168.273	-0.247	0.009
-189.173	85.129	0.169	-0.183
-188.158	52.230	-0.313	0.294
-187.144	101.997	-0.095	-0.110
-186.129	179.684	0.252	-0.364
-185.114	257.671	-0.054	0.092
-184.100	146.401	0.113	0.150
-183.085	66.302	0.297	-0.298
-182.071	44.878	-0.109	0.099
-181.056	331.970	0.033	0.063
-180.042	-200.000	-0.024	0.112
-179.027	-200.000	0.027	-0.191
-178.012	-79.604	0.232	0.077
-176.998	-200.000	0.017	0.104
-175.983	391.859	0.003	-0.007
-174.969	510.675	0.132	-0.302
-173.954	-200.000	-0.026	0.298
-172.939	54.218	0.372	0.353
-171.925	800.000	0.065	0.263
-170.910	-48.531	0.227	-0.108
-169.896	-126.229	0.200	0.029
-168.881	-129.837	-0.240	0.033
-167.866	420.303	0.148	-0.313
-166.852	-148.353	0.605	0.049
-165.837	11.613	-0.190	-0.144
-164.823	-200.000	0.027	-0.416
-163.808	-198.657	-0.201	-0.001
-162.793	7.006	-0.036	-0.026
-161.779	74.448	-0.388	-0.402
-160.764	-34.744	-0.099	0.053
-159.750	48.958	-0.134	0.124
-158.735	800.000	0.045	0.169
-157.720	-200.000	-0.021	-0.128
-156.706	-29.818	-0.047	-0.026
-155.691	800.000	0.024	0.073
-154.677	800.000	0.108	0.441
-153.662	-110.565	0.028	-0.006
-152.647	-144.808	0.206	-0.019
-151.633	399.379	-0.056	-0.116
-150.618	-38.261	0.161	0.084
-149.604	346.299	-0.115	-0.223
-148.589	-140.098	0.098	-0.010
-147.574	800.000	0.029	0.113
-146.560	-135.854	0.584	0.068
-145.545	194.883	-0.129	-0.192
-144.531	-100.534	0.023	-0.006
-143.516	-200.000	-0.048	0.235
-142.502	-20.961	0.292	0.176
-141.487	-200.000	-0.037	-0.176
-140.472	-18.416	0.288	-0.177
-139.458	0.962	0.214	-0.151
-138.443	-52.756	-0.116	-0.053
-137.429	-16.999	0.173	-0.107
-136.414	800.000	0.028	-0.092
-135.399	-200.000	-0.331	0.000
-134.385	-111.033	-0.171	-0.034
-133.370	-200.000	0.012	0.101
-132.356	-8.745	0.218	0.144
-131.341	-200.000	0.003	0.492
-130.326	-56.950	-0.285	-0.124
-129.312	91.551	-0.086	0.095
-128.297	-22.228	-0.112	0.067
-127.283	-22.164	-0.101	-0.061
-126.268	-200.000	0.016	0.195
-125.253	800.000	-0.049	-0.166
-124.239	-17.314	0.320	-0.198
-123.224	12.220	-0.151	0.114
-122.210	-48.811	0.269	0.127
-121.195	-36.157	0.115	-0.061
