DTS Sentinel unit serial number:	SN413079Multiplexer serial number:	ORYXHardware model number:	OX4-SRSoftware version number:	ORYX F/W v4.00 Oryx Data Collector v3.7.2.0data status	okinstallation	princeton_trtdifferential loss correction	single-endedforward channel	channel 3reverse channel	N/Adate	2019/09/13time	05:40:35forward acquisition time	60.00reverse acquisition time	0.00gamma	496.2192k internal	0.2338k external	0.2338temperature offset calibration	1.0137default loss term (dB/km)	0.3790temperature slope calibration	1.0000multiplexer offset coefficient	1.0000multiplexer slope coefficient	1.0000fibre end	0.00T internal ref (°C)	26.20T ext. ref 1 (°C)	4.06T ext. ref 2 (°C)	20.86length (m)	temperature (°C)	Stokes	anti-Stokes-747.200	-200.000	0.008	-0.289
-746.185	48.689	-0.178	0.168
-745.171	-113.613	0.170	0.033
-744.156	257.480	-0.156	-0.270
-743.142	-51.374	-0.197	-0.092
-742.127	-1.502	0.135	0.096
-741.112	-50.315	-0.171	0.081
-740.098	161.390	0.034	-0.048
-739.083	32.740	-0.169	-0.147
-738.069	-107.947	0.152	-0.033
-737.054	-200.000	0.022	0.108
-736.039	7.215	-0.219	-0.164
-735.025	0.195	-0.149	0.107
-734.010	-85.226	-0.280	0.088
-732.996	304.756	-0.142	-0.265
-731.981	42.532	-0.246	0.224
-730.966	173.334	-0.105	-0.151
-729.952	-135.563	-0.189	0.023
-728.937	-136.134	-0.251	0.030
-727.923	-164.910	-0.318	0.014
-726.908	-5.298	0.087	-0.060
-725.894	48.443	-0.121	-0.113
-724.879	800.000	-0.049	-0.160
-723.864	208.397	-0.151	-0.237
-722.850	332.873	0.050	0.098
-721.835	-200.000	-0.005	-0.082
-720.821	-46.606	-0.167	0.082
-719.806	-195.700	0.332	0.002
-718.791	-126.890	0.170	0.025
-717.777	-111.747	0.054	-0.011
-716.762	800.000	0.140	0.502
-715.748	800.000	0.016	0.049
-714.733	90.337	0.134	0.151
-713.718	-60.815	-0.253	-0.108
-712.704	-89.218	0.305	-0.090
-711.689	-133.997	-0.304	0.038
-710.675	11.182	0.140	0.107
-709.660	16.800	-0.067	-0.053
-708.645	-133.563	-0.193	0.024
-707.631	225.864	-0.193	0.313
-706.616	33.948	0.126	0.110
-705.602	800.000	0.072	-0.289
-704.587	129.990	-0.068	0.087
-703.572	-200.000	0.016	-0.223
-702.558	-71.864	-0.181	-0.067
-701.543	-49.195	0.330	-0.158
-700.529	-200.000	0.003	-0.148
-699.514	-33.746	-0.332	-0.184
-698.499	-6.853	0.250	-0.170
-697.485	-200.000	-0.007	-0.176
-696.470	-200.000	0.005	-0.287
-695.456	-139.827	-0.332	0.035
-694.441	800.000	0.026	-0.095
-693.426	-200.000	-0.051	-0.295
-692.412	71.165	-0.180	-0.187
-691.397	-62.776	-0.147	-0.061
-690.383	306.177	-0.083	-0.154
-689.368	-200.000	0.033	-0.163
-688.354	391.520	-0.110	0.229
-687.339	-200.000	0.055	0.370
-686.324	-39.531	0.540	0.283
-685.310	63.391	0.219	0.220
-684.295	-13.150	-0.153	-0.100
-683.281	62.592	-0.142	-0.142
-682.266	-162.302	0.214	0.011
-681.251	265.639	-0.065	-0.113
-680.237	55.112	-0.160	0.155
-679.222	170.840	-0.146	-0.209
-678.208	-200.000	-0.010	-0.106
-677.193	32.992	-0.145	-0.125
-676.178	-200.000	-0.043	-0.203
-675.164	-30.801	0.382	0.216
-674.149	-123.319	0.251	0.040
-673.135	349.406	-0.095	0.188
-672.120	43.803	0.133	0.122
-671.105	-71.195	0.204	0.077
-670.091	-53.600	-0.253	-0.116
-669.076	458.381	0.051	-0.113
-668.062	-200.000	-0.012	-0.082
-667.047	-61.664	-0.192	-0.080
-666.032	-200.000	0.014	-0.381
-665.018	-98.211	0.319	-0.082
-664.003	56.506	-0.172	-0.167
-662.989	93.007	-0.087	-0.098
-661.974	-200.000	0.010	-0.045
-660.959	-200.000	-0.003	-0.084
-659.945	-78.994	0.196	0.067
-658.930	800.000	-0.068	-0.248
-657.916	800.000	-0.087	-0.361
-656.901	78.164	-0.099	0.106
-655.886	-126.963	-0.310	-0.046
-654.872	45.368	0.227	-0.209
-653.857	-63.170	0.311	0.128
-652.843	-63.127	0.121	-0.050
-651.828	800.000	0.037	-0.130
-650.814	-80.291	-0.214	-0.072
-649.799	47.139	0.122	-0.113
-648.784	-200.000	-0.042	0.294
-647.770	134.698	0.096	0.124
-646.755	341.753	-0.072	-0.140
-645.741	-129.539	-0.223	-0.031
-644.726	108.162	0.122	-0.146
-643.711	-104.199	0.346	-0.080
-642.697	-16.855	-0.048	0.031
-641.682	-33.939	0.238	0.131
-640.668	180.490	-0.167	-0.245
-639.653	364.101	-0.040	-0.080
-638.638	146.349	0.120	-0.161
-637.624	-56.363	0.591	-0.262
-636.609	66.005	-0.158	-0.160
-635.595	-200.000	-0.069	-0.321
-634.580	334.350	0.090	-0.175
-633.565	220.885	0.127	0.203
-632.551	285.104	-0.100	0.181
-631.536	-136.041	-0.201	-0.024
-630.522	-147.265	0.158	-0.013
-629.507	-75.895	0.135	-0.048
-628.492	148.217	0.192	-0.259
-627.478	-200.000	-0.018	0.140
-626.463	192.364	-0.085	0.128
-625.449	-97.967	-0.047	0.012
-624.434	332.027	0.087	0.168
-623.419	-102.833	0.344	0.082
-622.405	228.638	-0.134	0.219
-621.390	-200.000	-0.008	-0.168
-620.376	-12.958	-0.502	-0.326
-619.361	340.216	0.033	-0.065
-618.346	800.000	0.046	0.145
-617.332	-11.519	0.197	-0.129
-616.317	150.207	0.049	-0.067
-615.303	280.932	-0.183	-0.326
-614.288	-72.026	-0.121	-0.045
-613.273	800.000	0.023	-0.073
-612.259	244.121	0.093	-0.156
-611.244	-117.719	-0.160	0.029
-610.230	209.621	0.079	-0.124
-609.215	-157.947	0.239	0.014
-608.201	-124.579	-0.114	-0.018
-607.186	-65.903	0.195	0.078
-606.171	-119.881	0.392	0.067
-605.157	-126.573	-0.154	0.023
-604.142	-200.000	-0.016	-0.172
-603.128	54.674	-0.112	0.108
-602.113	247.790	0.141	-0.237
-601.098	-145.913	-0.149	0.013
-600.084	-50.582	-0.072	-0.034
-599.069	-179.127	0.119	-0.003
-598.055	82.529	0.147	-0.159
-597.040	131.784	-0.210	0.270
-596.025	-62.877	0.302	0.124
-595.011	26.477	0.030	-0.025
-593.996	-97.894	-0.259	-0.067
-592.982	-174.380	0.227	0.007
-591.967	-200.000	-0.007	-0.047
-590.952	-200.000	0.075	-0.389
-589.938	-70.182	-0.200	0.076
-588.923	800.000	0.072	0.307
-587.909	-49.090	-0.213	0.102
-586.894	800.000	-0.014	0.047
-585.879	-124.155	0.451	0.070
-584.865	-22.102	0.230	0.139
-583.850	123.794	0.068	-0.085
-582.836	-56.972	0.036	-0.016
-581.821	-146.126	-0.220	0.019
-580.806	800.000	-0.095	-0.301
-579.792	800.000	0.045	0.160
-578.777	800.000	0.028	0.113
-577.763	-200.000	-0.008	-0.373
-576.748	49.130	-0.280	-0.262
-575.733	650.939	-0.116	-0.296
-574.719	-177.552	0.213	-0.005
-573.704	-109.923	-0.280	0.058
-572.690	32.183	0.090	-0.078
-571.675	-200.000	0.038	0.172
-570.661	12.404	-0.243	0.186
-569.646	225.198	-0.178	-0.287
-568.631	-162.817	0.177	-0.009
-567.617	-200.000	-0.004	-0.316
-566.602	-200.000	-0.040	-0.230
-565.588	357.894	-0.099	0.197
-564.573	-173.429	-0.380	0.011
-563.558	-165.899	-0.235	-0.010
-562.544	-27.993	-0.028	0.016
-561.529	-200.000	-0.031	0.235
-560.515	82.324	0.126	-0.136
-559.500	619.873	0.060	0.150
-558.485	-200.000	0.209	0.000
-557.471	-200.000	-0.003	-0.216
-556.456	318.361	0.054	-0.102
-555.442	89.707	-0.207	0.230
-554.427	759.534	-0.080	0.216
-553.412	454.645	-0.164	-0.361
-552.398	-104.620	0.019	-0.004
-551.383	131.029	0.217	0.277
-550.369	256.353	0.142	-0.242
-549.354	658.862	-0.087	-0.222
-548.339	42.654	-0.168	-0.152
-547.325	-49.455	0.152	-0.072
-546.310	-55.739	-0.143	-0.064
-545.296	-200.000	0.062	-0.343
-544.281	-200.000	-0.061	-0.390
-543.266	359.068	-0.060	-0.119
-542.252	-200.000	0.038	0.279
-541.237	427.337	0.113	-0.244
-540.223	50.945	0.280	0.264
-539.208	-114.760	-0.250	-0.048
-538.193	800.000	0.107	-0.342
-537.179	493.944	0.124	-0.283
-536.164	-44.524	0.076	-0.038
-535.150	717.137	0.003	0.007
-534.135	595.630	0.150	-0.371
-533.121	-110.264	-0.203	-0.042
-532.106	-41.780	-0.220	-0.112
-531.091	-134.179	0.129	-0.016
-530.077	-53.671	0.118	0.053
-529.062	-44.827	-0.224	-0.111
-528.048	800.000	0.032	0.110
-527.033	-52.466	0.147	0.068
-526.018	800.000	-0.073	0.238
-525.004	-95.816	0.106	0.028
-523.989	146.734	-0.109	0.145
-522.975	7.024	0.076	0.057
-521.960	-178.598	0.226	-0.005
-520.945	800.000	-0.039	-0.109
-519.931	-200.000	0.010	0.405
-518.916	-200.000	-0.005	0.206
-517.902	-9.816	-0.200	0.133
-516.887	282.106	-0.171	0.305
-515.872	-75.868	-0.151	0.053
-514.858	138.112	-0.034	-0.045
-513.843	800.000	-0.063	-0.226
-512.829	-200.000	0.016	-0.166
-511.814	306.735	0.076	0.141
-510.799	205.677	-0.202	-0.312
-509.785	130.950	0.287	0.366
-508.770	-97.238	-0.353	0.092
-507.756	-200.000	-0.007	-0.296
-506.741	-114.760	0.372	0.071
-505.726	355.617	0.132	0.261
-504.712	200.927	0.123	-0.188
-503.697	15.821	-0.047	0.037
-502.683	-13.296	-0.365	0.235
-501.668	-89.291	0.126	-0.037
-500.653	-53.179	-0.175	-0.080
-499.639	-75.233	0.276	0.098
-498.624	800.000	0.030	-0.110
-497.610	369.924	-0.280	-0.564
-496.595	61.865	0.011	-0.010
-495.581	444.411	0.200	-0.435
-494.566	-72.317	-0.194	-0.071
-493.551	-114.981	-0.364	-0.069
-492.537	-200.000	0.009	0.293
-491.522	-35.108	0.064	0.035
-490.508	-200.000	-0.045	-0.261
-489.493	328.650	0.049	0.094
-488.478	-124.039	-0.025	-0.004
-487.464	-48.486	-0.204	0.098
-486.449	131.137	-0.183	0.233
-485.435	157.291	0.143	-0.197
-484.420	-200.000	-0.041	-0.410
-483.405	16.514	-0.116	-0.091
-482.391	800.000	0.056	0.194
-481.376	79.336	-0.044	-0.047
-480.362	-62.660	-0.045	0.019
-479.347	663.690	0.098	0.252
-478.332	116.852	0.318	-0.388
-477.318	-66.893	-0.159	0.062
-476.303	19.388	-0.200	0.159
-475.289	-51.484	-0.140	0.065
-474.274	289.169	0.067	-0.120
-473.259	119.235	-0.084	-0.103
-472.245	-200.000	-0.001	0.146
-471.230	-200.000	-0.011	0.115
-470.216	800.000	0.116	-0.346
-469.201	358.253	-0.149	0.295
-468.186	-200.000	0.016	0.293
-467.172	-190.728	-0.364	-0.004
-466.157	-128.734	-0.426	0.060
-465.143	-144.080	0.086	0.008
-464.128	-93.147	-0.129	0.035
-463.113	-53.199	-0.010	-0.004
-462.099	100.288	-0.067	0.078
-461.084	800.000	0.060	0.173
-460.070	-115.026	-0.257	-0.048
-459.055	-107.881	0.271	-0.059
-458.040	156.865	-0.144	0.198
-457.026	-17.796	0.202	-0.126
-456.011	-200.000	-0.026	0.170
-454.997	-55.681	-0.204	-0.091
-453.982	-42.149	0.011	-0.005
-452.968	-200.000	-0.033	0.208
-451.953	-99.571	-0.119	0.030
-450.938	33.464	0.103	-0.089
-449.924	-200.000	-0.020	0.209
-448.909	-59.871	-0.173	-0.073
-447.895	472.302	0.155	0.346
-446.880	-28.005	0.044	-0.025
-445.865	-48.849	0.191	-0.091
-444.851	32.466	-0.027	0.023
-443.836	-136.598	0.229	0.026
-442.822	800.000	-0.130	-0.373
-441.807	124.417	0.127	0.159
-440.792	-200.000	-0.043	0.312
-439.778	7.886	-0.094	0.070
-438.763	395.023	-0.154	-0.319
-437.749	-63.606	0.184	0.075
-436.734	-161.231	-0.233	0.012
-435.719	136.121	0.024	0.031
-434.705	40.842	0.330	0.295
-433.690	-200.000	0.001	0.057
-432.676	-56.295	0.260	-0.114
-431.661	800.000	-0.055	0.152
-430.646	800.000	-0.013	-0.051
-429.632	123.174	0.046	0.057
-428.617	-57.956	-0.089	0.038
-427.603	-94.954	-0.177	-0.048
-426.588	133.406	-0.262	-0.336
-425.573	-83.767	0.493	0.156
-424.559	178.224	0.133	-0.193
-423.544	-200.000	0.013	-0.500
-422.530	300.327	0.112	0.205
-421.515	800.000	-0.076	0.247
-420.500	-200.000	-0.008	0.429
-419.486	-186.495	0.082	-0.001
-418.471	-48.982	0.239	-0.113
-417.457	13.473	-0.427	0.328
-416.442	800.000	0.020	0.085
-415.428	-199.271	0.261	0.001
-414.413	-200.000	0.009	0.111
-413.398	-200.000	0.001	0.145
-412.384	20.988	0.031	0.025
-411.369	108.330	-0.055	0.064
-410.355	-200.000	0.016	0.185
-409.340	800.000	-0.093	0.295
-408.325	-200.000	0.013	0.150
-407.311	800.000	0.123	-0.417
-406.296	-49.240	-0.192	-0.091
-405.282	116.085	0.162	0.196
-404.267	800.000	-0.060	-0.191
-403.252	-87.363	-0.241	0.072
-402.238	127.655	0.054	-0.069
-401.223	-103.758	-0.338	0.078
-400.209	-83.993	-0.048	-0.015
-399.194	383.041	0.098	-0.200
-398.179	-6.473	0.138	-0.093
-397.165	-200.000	0.024	0.288
-396.150	-200.000	0.007	-0.040
-395.136	159.641	-0.169	-0.232
-394.121	-200.000	-0.012	0.158
-393.106	25.243	-0.132	-0.109
-392.092	800.000	-0.048	0.159
-391.077	-54.942	0.080	-0.036
-390.063	-160.799	0.374	-0.020
-389.048	46.975	-0.113	-0.104
-388.033	-51.295	-0.260	0.120
-387.019	-53.629	-0.084	-0.038
-386.004	114.838	-0.135	0.162
-384.990	538.526	0.181	0.426
-383.975	676.713	0.074	0.191
-382.960	-40.990	-0.126	-0.064
-381.946	-33.808	0.325	-0.177
-380.931	105.475	0.036	0.042
-379.917	-144.185	-0.374	0.035
-378.902	90.768	0.122	0.135
-377.888	-126.557	0.114	0.017
-376.873	349.729	0.124	0.242
-375.858	-49.977	0.089	-0.042
-374.844	796.781	0.157	-0.427
-373.829	-33.415	0.269	-0.147
-372.815	402.698	0.178	-0.370
-371.800	-1.570	-0.126	0.088
-370.785	97.747	-0.164	-0.187
-369.771	12.578	-0.129	-0.098
-368.756	10.316	0.009	-0.007
-367.742	-110.248	-0.135	-0.028
-366.727	800.000	0.059	0.247
-365.712	480.317	0.150	0.336
-364.698	23.772	-0.170	0.139
-363.683	-120.326	-0.053	0.009
-362.669	-200.000	0.001	0.020
-361.654	-200.000	-0.111	-0.491
-360.639	130.606	0.130	0.165
-359.625	-200.000	0.019	0.159
-358.610	28.748	-0.231	0.193
-357.596	17.502	-0.174	0.136
-356.581	-130.012	0.234	0.032
-355.566	-200.000	-0.012	0.106
-354.552	-200.000	0.076	0.343
-353.537	95.832	0.202	-0.228
-352.523	-200.000	0.012	0.229
-351.508	-127.904	-0.235	-0.033
-350.493	-42.050	0.172	-0.087
-349.479	-52.168	-0.143	0.066
-348.464	-12.942	0.289	0.186
-347.450	60.761	-0.147	0.144
-346.435	-152.161	0.466	0.033
-345.420	-41.327	-0.237	0.120
-344.406	-124.146	0.079	-0.012
-343.391	156.976	-0.125	0.170
-342.377	-43.115	-0.329	-0.165
-341.362	-41.714	-0.287	-0.145
-340.348	-133.474	-0.510	0.063
-339.333	311.445	-0.162	0.300
-338.318	-92.804	0.317	-0.087
-337.304	800.000	-0.022	0.090
-336.289	-63.551	-0.115	0.047
-335.275	-200.000	0.064	0.347
-334.260	800.000	0.029	-0.106
-333.245	-1.282	-0.102	0.071
-332.231	349.743	0.074	0.144
-331.216	-154.909	-0.171	0.011
-330.202	-200.000	-0.102	-0.795
-329.187	-200.000	-0.012	-0.119
-328.172	800.000	-0.064	-0.176
-327.158	-47.479	0.059	0.028
-326.143	129.628	-0.034	-0.043
-325.129	-93.171	0.161	0.044
-324.114	454.979	-0.011	-0.024
-323.099	100.339	-0.073	0.084
-322.085	-200.000	-0.068	-0.370
-321.070	-33.424	-0.149	0.081
-320.056	800.000	-0.126	0.344
-319.041	340.803	0.207	0.399
-318.026	-57.067	0.305	0.132
-317.012	-15.094	0.131	0.083
-315.997	-95.908	-0.044	0.012
-314.983	-41.750	0.147	-0.074
-313.968	-78.439	-0.125	-0.042
-312.953	27.523	0.119	0.099
-311.939	57.086	0.065	-0.063
-310.924	-1.142	0.024	0.016
-309.910	600.823	-0.112	0.273
-308.895	-52.152	-0.157	-0.072
-307.880	-109.869	-0.160	-0.033
-306.866	35.772	0.099	-0.085
-305.851	419.029	-0.169	0.357
-304.837	-109.840	-0.109	0.023
-303.822	-40.819	0.403	0.206
-302.807	-108.964	0.221	-0.047
-301.793	-196.764	-0.164	0.001
-300.778	213.676	0.235	-0.367
-299.764	-49.699	-0.343	0.161
-298.749	64.008	-0.185	0.183
-297.735	-54.651	0.181	-0.081
-296.720	-200.000	0.036	-0.394
-295.705	92.578	0.096	0.107
-294.691	-200.000	0.010	0.064
-293.676	-69.685	-0.122	0.046
-292.662	51.411	-0.248	-0.232
-291.647	-16.550	0.111	-0.069
-290.632	735.867	0.034	-0.089
-289.618	249.302	0.108	0.181
-288.603	800.000	-0.040	0.138
-287.589	-118.055	0.063	0.011
-286.574	-49.700	0.137	0.064
-285.559	-87.380	0.224	0.067
-284.545	-200.000	-0.063	-0.394
-283.530	-200.000	-0.040	-0.392
-282.516	-200.000	-0.004	-0.398
-281.501	374.318	0.105	0.210
-280.486	-200.000	-0.013	-0.136
-279.472	69.104	-0.090	0.092
-278.457	-5.932	-0.161	0.109
-277.443	227.259	-0.196	-0.313
-276.428	93.604	-0.148	0.165
-275.413	-149.276	-0.045	-0.004
-274.399	237.376	-0.065	-0.106
-273.384	-200.000	-0.003	0.153
-272.370	457.334	0.077	-0.168
-271.355	125.693	0.031	-0.039
-270.340	-200.000	0.009	0.242
-269.326	800.000	0.078	0.287
-268.311	63.667	0.151	-0.149
-267.297	-77.884	-0.115	0.039
-266.282	82.296	0.193	0.206
-265.267	-77.298	-0.104	0.036
-264.253	272.305	-0.205	-0.356
-263.238	-106.872	0.212	0.046
-262.224	-200.000	-0.078	-0.371
-261.209	-30.460	-0.356	0.199
-260.195	-200.000	0.019	-0.139
-259.180	231.680	-0.078	-0.126
-258.165	-146.760	0.155	0.013
-257.151	-200.000	-0.056	0.306
-256.136	160.622	-0.155	0.212
-255.122	32.611	0.108	-0.092
-254.107	-200.000	-0.051	0.287
-253.092	-4.564	-0.234	0.159
-252.078	174.606	-0.065	0.092
-251.063	180.048	0.135	-0.195
-250.049	-75.375	0.302	-0.106
-249.034	400.160	-0.211	-0.434
-248.019	-121.187	-0.098	-0.016
-247.005	47.182	0.180	0.165
-245.990	742.911	-0.068	0.179
-244.976	82.279	0.237	-0.253
-243.961	-75.514	-0.327	0.115
-242.946	57.952	0.368	-0.354
-241.932	167.246	-0.042	0.059
-240.917	52.044	-0.020	0.018
-239.903	422.617	0.093	0.197
-238.888	255.078	-0.019	-0.032
-237.873	704.179	-0.050	0.131
-236.859	800.000	-0.059	0.205
-235.844	67.888	0.145	-0.146
-234.830	-114.626	0.464	-0.087
-233.815	800.000	0.076	-0.279
-232.800	614.077	-0.084	0.207
-231.786	-41.863	-0.455	0.229
-230.771	368.256	0.074	-0.148
-229.757	-58.572	-0.185	-0.079
-228.742	360.783	0.040	-0.078
-227.727	-151.672	0.098	0.007
-226.713	38.702	-0.122	-0.107
-225.698	60.960	-0.548	0.534
-224.684	-70.166	0.322	0.120
-223.669	266.754	-0.103	0.177
-222.655	287.097	0.098	0.174
-221.640	-116.761	0.165	0.030
-220.625	-86.277	0.266	-0.081
-219.611	-200.000	-0.059	0.257
-218.596	610.638	0.083	0.204
-217.582	-84.498	-0.138	0.043
-216.567	800.000	0.070	0.224
-215.552	800.000	0.084	-0.333
-214.538	-42.676	0.266	-0.133
-213.523	-200.000	-0.030	0.197
-212.509	800.000	-0.020	0.066
-211.494	373.688	0.079	0.158
-210.479	-26.373	0.382	0.220
-209.465	152.202	0.161	-0.215
-208.450	-143.764	-0.138	0.013
-207.436	576.510	0.081	-0.194
-206.421	-16.254	-0.243	-0.151
-205.406	800.000	-0.082	0.228
-204.392	-200.000	-0.038	-0.181
-203.377	10.240	0.106	-0.079
-202.363	800.000	0.083	0.254
-201.348	-40.658	0.080	0.041
-200.333	471.615	0.040	0.088
-199.319	91.232	0.162	0.178
-198.304	-30.546	0.202	-0.113
-197.290	-200.000	0.273	-0.001
-196.275	275.951	0.060	0.104
-195.260	800.000	-0.069	0.248
-194.246	192.169	0.047	-0.069
-193.231	-94.508	0.237	0.063
-192.217	-200.000	0.055	-0.295
-191.202	53.915	-0.164	0.155
-190.187	-1.200	-0.299	-0.207
-189.173	599.735	-0.088	-0.214
-188.158	-29.636	0.207	0.116
-187.144	69.430	-0.174	-0.176
-186.129	363.924	0.069	-0.136
-185.114	-200.000	-0.017	0.096
-184.100	-92.436	-0.150	0.041
-183.085	-106.757	-0.168	0.037
-182.071	518.652	0.048	0.111
-181.056	128.961	0.045	-0.057
-180.042	-105.794	0.155	-0.034
-179.027	253.086	0.058	-0.097
-178.012	-137.872	0.115	-0.013
-176.998	-146.900	0.146	-0.012
-175.983	-158.235	0.212	-0.012
-174.969	106.155	0.045	-0.053
-173.954	306.560	0.025	0.046
-172.939	-200.000	0.015	0.066
-171.925	-200.000	-0.036	0.345
-170.910	-106.152	0.195	0.043
-169.896	-105.490	-0.233	0.052
-168.881	192.864	-0.140	-0.208
-167.866	-160.306	0.110	0.006
-166.852	800.000	-0.035	-0.145
-165.837	268.521	-0.019	-0.032
-164.823	613.006	0.088	-0.216
-163.808	-18.165	0.147	-0.090
-162.793	-200.000	0.076	-0.343
-161.779	-78.515	-0.166	-0.056
-160.764	0.488	-0.106	-0.075
-159.750	595.517	-0.091	-0.221
-158.735	-65.416	0.438	0.173
-157.720	191.617	-0.194	0.286
-156.706	109.605	-0.143	-0.168
-155.691	336.130	-0.117	0.222
-154.677	800.000	-0.071	0.306
-153.662	-62.075	0.169	-0.069
-152.647	-2.132	-0.203	0.139
-151.633	767.395	0.048	-0.129
-150.618	145.392	0.166	-0.218
-149.604	-76.066	0.137	-0.047
-148.589	800.000	-0.013	0.051
-147.574	-148.320	-0.436	-0.035
-146.560	800.000	-0.013	-0.039
-145.545	-129.896	0.166	0.022
-144.531	119.567	0.069	-0.084
-143.516	800.000	-0.022	0.074
-142.502	583.435	-0.154	0.371
-141.487	652.989	-0.053	0.134
-140.472	800.000	0.115	0.345
-139.458	-200.000	0.011	0.077
-138.443	-73.151	-0.107	0.038
-137.429	30.243	-0.236	-0.198
-136.414	-200.000	0.038	-0.470
-135.399	-14.178	0.035	-0.022
-134.385	-2.649	-0.215	0.148
-133.370	181.607	-0.082	-0.118
-132.356	23.552	-0.229	-0.185
-131.341	63.885	0.050	0.050
-130.326	-200.000	-0.024	0.138
-129.312	-58.552	0.170	0.072
-128.297	-34.091	0.165	-0.089
-127.283	102.898	-0.301	-0.346
-126.268	-21.166	0.159	-0.095
-125.253	-161.349	0.064	-0.003
-124.239	-200.000	0.013	0.079
-123.224	800.000	-0.029	0.123
-122.210	-28.949	-0.119	-0.067
