DTS Sentinel unit serial number:	SN413079Multiplexer serial number:	ORYXHardware model number:	OX4-SRSoftware version number:	ORYX F/W v4.00 Oryx Data Collector v3.7.2.0data status	okinstallation	princeton_trtdifferential loss correction	single-endedforward channel	channel 3reverse channel	N/Adate	2019/09/17time	03:48:34forward acquisition time	60.00reverse acquisition time	0.00gamma	496.2192k internal	0.2322k external	0.2322temperature offset calibration	0.9943default loss term (dB/km)	0.3790temperature slope calibration	1.0000multiplexer offset coefficient	1.0000multiplexer slope coefficient	1.0000fibre end	0.00T internal ref (°C)	29.94T ext. ref 1 (°C)	0.14T ext. ref 2 (°C)	24.44length (m)	temperature (°C)	Stokes	anti-Stokes-747.200	-122.322	0.209	0.035
-746.185	492.404	-0.072	-0.167
-745.171	76.870	0.321	-0.344
-744.156	354.556	-0.155	0.311
-743.142	-200.000	-0.009	-0.070
-742.127	-133.430	0.169	-0.021
-741.112	-63.836	-0.311	0.128
-740.098	-200.000	-0.011	0.082
-739.083	294.024	0.113	-0.208
-738.069	100.176	-0.144	0.169
-737.054	-44.457	0.243	0.123
-736.039	-20.333	-0.131	0.082
-735.025	63.663	0.080	0.081
-734.010	-200.000	0.040	-0.307
-732.996	-75.450	-0.286	-0.103
-731.981	453.702	-0.105	-0.234
-730.966	576.754	0.073	-0.179
-729.952	-123.085	-0.150	-0.024
-728.937	-183.054	-0.115	0.002
-727.923	-200.000	-0.013	-0.282
-726.908	340.678	0.070	-0.138
-725.894	-92.154	-0.076	-0.022
-724.879	-134.286	-0.271	0.034
-723.864	62.244	0.127	-0.128
-722.850	116.609	-0.044	0.054
-721.835	-0.978	-0.136	-0.097
-720.821	-200.000	0.004	0.039
-719.806	105.671	0.071	-0.084
-718.791	-200.000	-0.036	-0.293
-717.777	54.391	-0.239	-0.232
-716.762	26.495	-0.161	0.136
-715.748	58.489	0.072	-0.072
-714.733	800.000	0.034	0.152
-713.718	-40.147	0.263	-0.138
-712.704	-3.885	-0.161	-0.113
-711.689	-139.331	0.381	0.041
-710.675	-18.147	-0.160	-0.101
-709.660	-200.000	-0.045	0.275
-708.645	-64.658	-0.116	0.048
-707.631	0.361	0.057	-0.041
-706.616	-200.000	-0.018	0.164
-705.602	-200.000	0.018	0.405
-704.587	20.935	0.289	-0.236
-703.572	163.868	-0.304	-0.432
-702.558	-0.274	-0.265	0.190
-701.543	-159.918	-0.098	-0.005
-700.529	215.679	0.167	0.267
-699.514	354.956	0.114	0.228
-698.499	800.000	-0.045	0.177
-697.485	96.626	0.143	-0.165
-696.470	-126.783	-0.260	0.039
-695.456	-200.000	-0.132	0.000
-694.441	29.818	-0.174	0.149
-693.426	163.443	-0.017	-0.025
-692.412	-90.802	-0.287	-0.084
-691.397	-99.143	0.174	-0.044
-690.383	-99.088	-0.387	0.099
-689.368	162.179	-0.295	-0.417
-688.354	54.430	0.201	-0.195
-687.339	-84.984	-0.350	-0.111
-686.324	144.726	0.152	-0.204
-685.310	130.009	0.107	-0.138
-684.295	-108.580	0.382	-0.083
-683.281	102.499	0.175	-0.206
-682.266	533.413	-0.048	-0.113
-681.251	-200.000	0.042	-0.452
-680.237	-121.530	0.259	-0.043
-679.222	104.953	0.018	-0.022
-678.208	800.000	-0.007	-0.026
-677.193	-71.697	0.182	0.069
-676.178	-48.158	-0.336	-0.163
-675.164	-13.517	0.182	0.119
-674.149	509.520	0.047	0.111
-673.135	-27.447	-0.255	0.150
-672.120	-173.184	-0.226	-0.007
-671.105	-107.089	0.242	-0.054
-670.091	201.972	0.088	-0.136
-669.076	800.000	0.005	-0.018
-668.062	-200.000	0.073	-0.384
-667.047	-130.761	-0.129	0.017
-666.032	24.884	-0.209	0.174
-665.018	-134.117	0.175	0.022
-664.003	-69.414	-0.235	-0.091
-662.989	21.116	-0.042	-0.035
-661.974	-200.000	0.032	0.361
-660.959	-16.465	0.141	-0.090
-659.945	800.000	0.016	0.057
-658.930	561.005	0.104	-0.253
-657.916	-135.865	0.239	-0.028
-656.901	800.000	0.040	0.115
-655.886	60.813	0.196	-0.195
-654.872	-58.525	0.121	0.053
-653.857	101.606	0.256	-0.301
-652.843	3.759	-0.145	0.107
-651.828	-200.000	-0.005	-0.088
-650.814	66.947	-0.364	-0.374
-649.799	60.456	0.021	0.020
-648.784	300.227	0.034	-0.063
-647.770	800.000	-0.048	-0.188
-646.755	-108.963	0.317	-0.068
-645.741	-46.509	-0.324	-0.160
-644.726	-4.666	0.115	-0.080
-643.711	0.872	-0.224	0.161
-642.697	9.832	0.051	0.039
-641.682	-106.953	0.340	0.076
-640.668	103.533	0.199	-0.235
-639.653	-60.279	0.252	-0.108
-638.638	576.900	0.063	0.156
-637.624	356.480	0.144	0.289
-636.609	-108.150	-0.213	0.046
-635.595	423.400	0.040	0.085
-634.580	-79.201	-0.312	-0.107
-633.565	69.694	0.295	-0.306
-632.551	48.414	0.190	-0.179
-631.536	-178.482	-0.248	-0.006
-630.522	800.000	0.012	-0.046
-629.507	-200.000	-0.021	-0.351
-628.492	-163.562	0.117	0.006
-627.478	800.000	-0.047	-0.139
-626.463	800.000	-0.065	0.204
-625.449	800.000	0.107	-0.318
-624.434	-127.183	-0.114	0.017
-623.419	279.765	0.051	-0.091
-622.405	117.127	-0.130	-0.161
-621.390	36.832	-0.118	-0.105
-620.376	76.362	0.092	-0.098
-619.361	-122.106	-0.153	-0.025
-618.346	119.253	0.095	0.118
-617.332	48.197	-0.113	0.106
-616.317	108.483	0.002	0.002
-615.303	29.536	-0.098	0.083
-614.288	-69.080	0.263	0.102
-613.273	238.739	0.082	-0.137
-612.259	242.406	0.040	-0.067
-611.244	55.977	0.079	-0.077
-610.230	-132.632	-0.214	0.028
-609.215	-200.000	0.000	-0.046
-608.201	16.716	-0.309	0.245
-607.186	-60.035	-0.227	0.098
-606.171	64.400	0.150	0.152
-605.157	173.096	-0.199	-0.287
-604.142	619.747	-0.080	-0.203
-603.128	-63.419	0.173	-0.071
-602.113	46.220	-0.116	0.108
-601.098	118.036	-0.083	0.103
-600.084	-115.963	0.439	-0.082
-599.069	-27.301	-0.077	-0.045
-598.055	60.487	0.048	-0.048
-597.040	176.909	-0.077	-0.113
-596.025	279.622	-0.062	0.111
-595.011	137.891	-0.171	0.225
-593.996	-200.000	-0.016	-0.199
-592.982	266.454	-0.251	-0.440
-591.967	-135.880	-0.389	0.046
-590.952	272.732	-0.125	0.222
-589.938	-93.567	0.197	0.055
-588.923	-44.853	-0.043	0.021
-587.909	538.093	-0.150	-0.357
-586.894	-66.630	0.095	-0.038
-585.879	70.224	-0.051	0.053
-584.865	800.000	-0.086	0.304
-583.850	131.640	-0.089	0.115
-582.836	197.988	0.099	0.152
-581.821	-118.046	0.172	0.031
-580.806	-200.000	0.005	-0.092
-579.792	-27.845	-0.223	-0.130
-578.777	-67.785	-0.122	-0.048
-577.763	150.639	0.105	-0.144
-576.748	-200.000	0.045	0.241
-575.733	-18.750	-0.113	0.071
-574.719	194.400	0.054	0.082
-573.704	65.722	0.233	-0.237
-572.690	800.000	-0.171	-0.595
-571.675	-41.767	-0.176	0.091
-570.661	-113.332	0.231	0.046
-569.646	0.261	-0.211	0.151
-568.631	-200.000	0.059	0.313
-567.617	800.000	0.057	0.172
-566.602	483.520	-0.066	-0.151
-565.588	-98.978	-0.333	0.085
-564.573	-58.794	-0.167	0.073
-563.558	254.169	0.128	0.220
-562.544	800.000	0.066	-0.274
-561.529	16.767	0.399	-0.317
-560.515	-200.000	-0.034	0.286
-559.500	158.343	-0.146	0.203
-558.485	-44.274	0.408	-0.205
-557.471	736.612	0.066	-0.177
-556.456	36.555	-0.205	0.181
-555.442	-115.095	0.039	0.007
-554.427	-83.034	0.135	-0.044
-553.412	27.709	-0.077	-0.065
-552.398	-50.921	-0.185	-0.087
-551.383	1.110	-0.201	-0.145
-550.369	-4.201	0.082	-0.057
-549.354	83.689	0.319	-0.349
-548.339	-114.821	-0.160	-0.031
-547.325	418.931	0.068	0.145
-546.310	-200.000	-0.091	0.455
-545.296	-200.000	0.062	-0.365
-544.281	36.703	0.149	0.132
-543.266	85.073	-0.030	0.033
-542.252	35.568	0.370	-0.326
-541.237	219.998	0.051	-0.083
-540.223	-41.952	-0.340	0.175
-539.208	-17.357	0.252	0.159
-538.193	-60.921	-0.093	-0.039
-537.179	255.071	0.215	0.368
-536.164	154.334	-0.327	0.449
-535.150	13.437	0.115	-0.089
-534.135	800.000	-0.074	-0.260
-533.121	12.850	0.140	-0.109
-532.106	57.275	-0.090	-0.088
-531.091	176.125	-0.178	0.259
-530.077	-131.376	-0.211	0.028
-529.062	-200.000	-0.020	-0.201
-528.048	-96.707	-0.198	-0.052
-527.033	-200.000	-0.011	-0.063
-526.018	-31.573	0.078	-0.044
-525.004	23.355	-0.388	-0.319
-523.989	-200.000	0.031	-0.150
-522.975	-106.307	0.217	-0.049
-521.960	69.596	0.182	-0.187
-520.945	249.122	0.247	-0.420
-519.931	800.000	0.098	-0.367
-518.916	-36.645	0.191	-0.103
-517.902	-99.278	0.338	0.086
-516.887	251.697	-0.029	-0.049
-515.872	-99.886	-0.186	0.047
-514.858	-146.699	0.307	0.027
-513.843	210.180	-0.159	-0.249
-512.829	-90.569	0.175	-0.051
-511.814	135.286	0.212	-0.276
-510.799	-56.804	0.118	-0.052
-509.785	105.806	0.112	-0.132
-508.770	800.000	0.011	-0.046
-507.756	70.512	-0.188	0.195
-506.741	-125.207	0.004	-0.001
-505.726	21.325	0.319	0.260
-504.712	345.764	0.103	-0.202
-503.697	5.020	0.270	-0.199
-502.683	-200.000	0.049	0.365
-501.668	-175.404	-0.010	0.000
-500.653	-176.650	0.032	0.001
-499.639	796.729	0.149	0.409
-498.624	-41.099	-0.372	-0.192
-497.610	-37.043	0.187	0.100
-496.595	-24.736	-0.122	-0.072
-495.581	11.553	-0.126	0.097
-494.566	68.578	-0.124	-0.127
-493.551	177.459	0.167	0.243
-492.537	-138.222	0.586	-0.065
-491.522	-200.000	-0.021	-0.214
-490.508	-200.000	0.002	-0.093
-489.493	-109.983	0.238	0.050
-488.478	102.624	-0.237	-0.277
-487.464	-106.970	0.273	0.060
-486.449	-132.491	-0.152	-0.019
-485.435	-200.000	-0.064	-0.423
-484.420	45.534	-0.076	0.070
-483.405	251.343	0.103	0.175
-482.391	117.522	-0.095	-0.116
-481.376	406.981	-0.029	0.061
-480.362	-48.939	-0.434	-0.208
-479.347	-15.607	-0.196	0.125
-478.332	-131.248	-0.315	0.042
-477.318	-64.950	-0.334	-0.135
-476.303	-98.650	-0.412	-0.105
-475.289	107.197	0.125	-0.149
-474.274	346.844	0.059	-0.116
-473.259	-102.286	0.054	0.013
-472.245	-200.000	0.030	-0.176
-471.230	1.949	0.066	0.048
-470.216	-200.000	-0.000	0.108
-469.201	-10.462	0.176	0.117
-468.186	-144.623	0.250	0.023
-467.172	180.644	0.156	0.229
-466.157	13.714	-0.340	-0.264
-465.143	23.910	-0.107	-0.088
-464.128	-19.198	-0.216	-0.134
-463.113	568.211	0.074	-0.180
-462.099	-36.389	-0.088	0.047
-461.084	800.000	-0.043	0.129
-460.070	22.642	-0.155	0.127
-459.055	-72.044	0.396	0.147
-458.040	800.000	0.026	-0.080
-457.026	-43.269	-0.130	-0.066
-456.011	784.267	-0.070	-0.193
-454.997	17.229	-0.098	-0.077
-453.982	76.996	-0.129	0.137
-452.968	276.222	0.094	-0.167
-451.953	-11.498	0.455	0.299
-450.938	-108.861	-0.047	0.010
-449.924	-5.566	-0.035	0.024
-448.909	19.345	-0.276	0.222
-447.895	-200.000	-0.042	0.328
-446.880	-144.850	-0.378	0.035
-445.865	-200.000	-0.024	0.159
-444.851	-159.426	-0.380	0.021
-443.836	-200.000	0.008	0.190
-442.822	-56.110	-0.144	-0.064
-441.807	706.499	-0.105	-0.275
-440.792	320.193	0.029	-0.056
-439.778	-167.425	0.272	-0.011
-438.763	-162.699	0.342	0.017
-437.749	-8.221	-0.334	-0.224
-436.734	-65.660	0.240	0.096
-435.719	588.781	0.089	-0.219
-434.705	122.389	0.136	0.169
-433.690	-200.000	-0.012	0.125
-432.676	-200.000	-0.047	-0.263
-431.661	-57.431	0.184	0.081
-430.646	71.371	-0.302	0.313
-429.632	-34.587	0.361	0.197
-428.617	-153.389	-0.199	-0.014
-427.603	-130.905	0.179	-0.024
-426.588	128.645	-0.247	-0.314
-425.573	3.273	0.054	-0.039
-424.559	23.571	0.071	0.058
-423.544	-200.000	0.021	-0.153
-422.530	-58.437	-0.206	-0.089
-421.515	367.173	0.087	0.175
-420.500	-32.253	-0.127	-0.071
-419.486	99.815	0.058	-0.068
-418.471	-52.604	-0.400	0.184
-417.457	-121.096	0.187	0.031
-416.442	116.584	0.218	-0.267
-415.428	20.846	0.109	0.088
-414.413	562.186	0.075	-0.182
-413.398	29.910	-0.198	0.168
-412.384	-149.709	-0.055	-0.004
-411.369	-101.345	0.303	-0.074
-410.355	18.639	-0.205	0.163
-409.340	-114.651	-0.272	0.052
-408.325	-104.553	0.126	-0.029
-407.311	408.675	0.043	-0.091
-406.296	14.033	-0.236	-0.183
-405.282	218.218	-0.107	-0.171
-404.267	-175.685	0.243	0.007
-403.252	50.675	0.183	-0.173
-402.238	-200.000	-0.044	-0.298
-401.223	281.522	0.101	-0.181
-400.209	142.048	-0.077	-0.101
-399.194	-200.000	0.028	0.157
-398.179	800.000	0.121	0.347
-397.165	-200.000	0.023	0.112
-396.150	-138.474	0.334	0.037
-395.136	88.967	0.130	0.144
-394.121	-114.712	-0.434	-0.083
-393.106	12.589	-0.082	0.063
-392.092	-67.745	0.511	0.199
-391.077	118.998	-0.096	0.118
-390.063	-200.000	0.027	-0.152
-389.048	631.382	-0.048	-0.122
-388.033	-52.956	0.364	-0.167
-387.019	30.187	-0.328	-0.279
-386.004	119.858	0.146	-0.180
-384.990	51.202	0.305	0.288
-383.975	-3.666	-0.370	0.256
-382.960	146.427	-0.079	-0.106
-381.946	138.074	0.035	-0.045
-380.931	-38.076	0.124	-0.065
-379.917	-200.000	0.049	-0.627
-378.902	-19.165	-0.272	-0.168
-377.888	68.018	-0.169	-0.172
-376.873	-164.186	0.305	0.014
-375.858	-23.779	-0.020	-0.012
-374.844	-79.048	0.108	-0.037
-373.829	-124.965	-0.199	-0.031
-372.815	-73.741	0.276	-0.100
-371.800	-124.052	0.514	-0.080
-370.785	-200.000	-0.007	0.056
-369.771	-93.424	0.312	0.086
-368.756	-47.841	-0.185	0.089
-367.742	-17.797	0.106	0.066
-366.727	589.809	-0.064	-0.157
-365.712	800.000	0.012	0.038
-364.698	96.899	0.259	0.296
-363.683	-44.855	0.120	-0.059
-362.669	70.115	0.142	0.146
-361.654	337.923	0.157	0.304
-360.639	31.709	0.354	0.303
-359.625	-46.620	0.201	-0.098
-358.610	-18.071	-0.168	0.105
-357.596	14.324	0.160	-0.124
-356.581	-115.856	0.189	-0.035
-355.566	114.001	-0.149	-0.180
-354.552	534.821	-0.139	-0.328
-353.537	800.000	0.075	0.311
-352.523	-111.263	0.146	0.030
-351.508	800.000	-0.062	-0.182
-350.493	134.527	0.056	0.072
-349.479	516.727	0.073	-0.169
-348.464	741.272	-0.033	0.089
-347.450	-84.782	0.275	0.086
-346.435	-47.831	-0.433	0.209
-345.420	202.731	0.108	0.166
-344.406	132.496	-0.079	0.101
-343.391	-200.000	-0.018	0.122
-342.377	-7.684	-0.295	0.198
-341.362	-81.218	0.211	-0.069
-340.348	87.436	-0.269	0.296
-339.333	170.855	-0.058	0.083
-338.318	-101.986	0.199	0.048
-337.304	-66.223	0.214	0.085
-336.289	38.140	0.182	0.161
-335.275	800.000	0.036	0.109
-334.260	800.000	0.026	0.107
-333.245	50.651	0.089	0.084
-332.231	33.706	0.021	0.018
-331.216	-200.000	-0.055	-0.431
-330.202	-200.000	-0.005	-0.135
-329.187	-159.355	-0.328	0.018
-328.172	-67.178	0.319	-0.125
-327.158	156.510	0.157	0.216
-326.143	800.000	0.051	0.161
-325.129	-121.275	-0.173	-0.029
-324.114	154.185	-0.122	0.166
-323.099	-70.570	0.128	0.048
-322.085	727.027	0.058	0.153
-321.070	-97.163	-0.235	-0.061
-320.056	76.756	-0.038	-0.040
-319.041	-149.919	-0.155	0.012
-318.026	630.055	0.044	-0.110
-317.012	-57.516	-0.325	0.141
-315.997	95.663	-0.014	0.016
-314.983	-131.929	0.432	0.056
-313.968	-50.289	0.330	-0.155
-312.953	-200.000	-0.038	-0.267
-311.939	-34.492	0.129	0.070
-310.924	48.084	-0.256	0.238
-309.910	20.044	0.109	0.087
-308.895	82.570	-0.152	0.164
-307.880	178.102	-0.119	0.173
-306.866	-83.291	-0.382	-0.122
-305.851	-120.750	0.263	0.044
-304.837	-70.247	-0.274	-0.103
-303.822	72.805	0.090	-0.093
-302.807	-168.345	0.202	-0.008
-301.793	34.839	-0.229	0.199
-300.778	470.225	0.129	-0.288
-299.764	-53.733	0.181	-0.082
-298.749	54.699	0.138	0.132
-297.735	-88.513	-0.031	-0.009
-296.720	-162.148	0.417	-0.021
-295.705	25.269	-0.143	0.118
-294.691	-149.522	-0.094	0.007
-293.676	7.001	-0.121	-0.089
-292.662	-99.653	-0.144	0.036
-291.647	39.731	0.063	0.056
-290.632	35.133	0.324	0.282
-289.618	115.103	-0.069	-0.083
-288.603	-127.877	-0.047	0.007
-287.589	-105.967	-0.328	-0.073
-286.574	-200.000	0.039	0.207
-285.559	-200.000	0.039	0.228
-284.545	-4.369	0.246	0.169
-283.530	-103.306	-0.290	-0.068
-282.516	125.405	-0.232	0.291
-281.501	800.000	0.052	0.182
-280.486	266.609	0.107	0.186
-279.472	800.000	-0.083	-0.331
-278.457	-200.000	-0.039	0.276
-277.443	207.202	-0.283	0.438
-276.428	-105.628	-0.241	-0.054
-275.413	86.833	-0.095	-0.104
-274.399	-159.810	-0.299	-0.016
-273.384	-111.949	0.088	-0.018
-272.370	7.707	0.235	0.174
-271.355	-46.889	0.239	0.116
-270.340	-157.245	-0.474	-0.028
-269.326	39.945	0.066	0.059
-268.311	12.649	-0.237	-0.182
-267.297	800.000	0.062	-0.240
-266.282	-126.973	-0.131	0.019
-265.267	-4.153	-0.129	0.088
-264.253	64.045	0.070	-0.070
-263.238	-40.984	-0.133	-0.068
-262.224	-152.034	-0.088	-0.006
-261.209	800.000	0.078	-0.294
-260.195	800.000	0.010	0.035
-259.180	-65.630	-0.373	0.148
-258.165	-200.000	-0.069	0.324
-257.151	52.981	0.128	-0.122
-256.136	-200.000	0.162	0.000
-255.122	-200.000	-0.009	0.116
-254.107	800.000	0.145	-0.407
-253.092	633.426	0.100	0.251
-252.078	148.840	0.115	-0.154
-251.063	-63.538	-0.013	0.005
-250.049	-45.918	0.410	-0.200
-249.034	33.142	0.166	-0.143
-248.019	-72.084	0.231	0.085
-247.005	-200.000	0.027	0.231
-245.990	326.647	-0.160	0.304
-244.976	800.000	-0.080	0.254
-243.961	800.000	-0.108	-0.390
-242.946	-72.758	-0.243	-0.089
-241.932	356.105	-0.146	-0.287
-240.917	-5.656	-0.218	0.148
-239.903	25.650	-0.268	-0.221
-238.888	75.901	-0.172	0.180
-237.873	33.809	0.116	0.100
-236.859	-27.810	-0.257	0.148
-235.844	656.889	0.109	0.276
-234.830	365.776	0.068	0.135
-233.815	32.050	-0.135	0.116
-232.800	470.794	-0.123	0.274
-231.786	-26.083	0.212	0.124
-230.771	-200.000	0.002	0.192
-229.757	577.687	0.050	-0.120
-228.742	74.498	0.099	-0.103
-227.727	-108.740	-0.127	-0.027
-226.713	800.000	0.032	0.098
-225.698	240.658	-0.032	0.053
-224.684	800.000	0.050	-0.210
-223.669	-55.996	0.118	0.052
-222.655	64.722	-0.215	-0.214
-221.640	245.473	0.103	-0.171
-220.625	-68.245	-0.057	-0.022
-219.611	800.000	-0.090	0.313
-218.596	-200.000	-0.031	0.147
-217.582	-37.582	-0.037	-0.019
-216.567	-0.768	-0.180	0.126
-215.552	-23.814	-0.125	-0.074
-214.538	45.731	0.213	0.195
-213.523	730.939	-0.116	0.308
-212.509	408.542	0.079	0.166
-211.494	-61.249	-0.103	0.043
-210.479	300.730	-0.156	-0.284
-209.465	55.225	-0.145	0.139
-208.450	-37.414	-0.185	-0.098
-207.436	-17.015	-0.231	0.144
-206.421	-56.430	-0.062	0.027
-205.406	-58.511	0.193	0.083
-204.392	-200.000	0.055	0.359
-203.377	79.188	0.153	-0.162
-202.363	-200.000	-0.005	-0.038
-201.348	102.095	0.235	0.272
-200.333	-64.331	-0.334	0.135
-199.319	1.946	0.200	-0.143
-198.304	228.759	0.191	-0.307
-197.290	-161.047	-0.077	-0.004
-196.275	800.000	0.045	0.183
-195.260	-129.961	-0.142	-0.019
-194.246	96.003	0.249	-0.281
-193.231	-87.589	-0.328	-0.098
-192.217	-165.232	0.263	-0.011
-191.202	-62.584	0.243	0.100
-190.187	-76.041	-0.172	0.060
-189.173	-75.917	0.103	0.036
-188.158	92.672	0.184	0.205
-187.144	56.359	0.051	0.049
-186.129	230.914	-0.255	0.413
-185.114	-72.648	-0.039	-0.014
-184.100	-44.859	0.224	-0.110
-183.085	-99.185	-0.078	-0.020
-182.071	-200.000	0.044	-0.215
-181.056	-200.000	-0.004	-0.086
-180.042	49.705	-0.205	-0.190
-179.027	103.488	0.219	0.254
-178.012	800.000	-0.053	-0.175
-176.998	-200.000	0.014	-0.065
-175.983	-142.366	-0.228	-0.022
-174.969	-87.577	0.405	0.121
-173.954	-89.577	0.034	-0.010
-172.939	-200.000	-0.005	-0.036
-171.925	-90.783	0.093	0.027
-170.910	9.210	-0.160	0.120
-169.896	77.632	0.173	-0.182
-168.881	549.613	-0.029	0.068
-167.866	123.191	0.010	0.012
-166.852	19.825	-0.227	0.181
-165.837	199.092	-0.124	-0.188
-164.823	-108.367	0.174	0.037
-163.808	-161.566	-0.280	0.014
-162.793	-41.092	0.011	0.005
-161.779	51.467	-0.113	0.106
-160.764	-42.505	-0.245	-0.123
-159.750	63.188	-0.240	-0.237
-158.735	-86.787	-0.066	-0.020
-157.720	-56.093	0.324	0.142
-156.706	128.842	0.030	-0.038
-155.691	-30.783	-0.362	-0.202
-154.677	-200.000	0.063	0.276
-153.662	-91.831	0.238	-0.067
-152.647	-200.000	-0.008	0.091
-151.633	-2.673	0.294	0.203
-150.618	-180.720	0.096	-0.002
-149.604	-200.000	0.013	0.202
-148.589	800.000	0.070	-0.226
-147.574	-76.233	0.181	0.063
-146.560	-153.484	0.078	-0.005
-145.545	316.857	0.123	0.229
-144.531	305.767	0.136	-0.250
-143.516	108.642	0.194	0.228
-142.502	-200.000	-0.097	0.423
-141.487	-168.531	-0.293	0.011
-140.472	-91.225	-0.242	0.069
-139.458	127.093	-0.139	-0.173
-138.443	-51.769	-0.180	-0.083
-137.429	453.967	-0.062	-0.135
-136.414	76.724	0.101	-0.106
-135.399	403.935	-0.085	0.177
-134.385	-14.127	0.383	0.243
-133.370	14.121	0.064	0.049
-132.356	-200.000	0.029	0.177
-131.341	-12.168	0.307	0.198
-130.326	38.555	-0.164	0.145
-129.312	-200.000	-0.015	-0.082
-128.297	129.943	-0.105	0.133
-127.283	239.277	0.013	0.021
-126.268	344.311	0.087	-0.169
-125.253	800.000	0.010	-0.037
-124.239	140.617	0.142	-0.184
-123.224	-97.503	-0.248	0.064
-122.210	-200.000	-0.042	-0.191
-121.195	-34.305	-0.221	-0.120
-120.180	-43.691	0.148	-0.074
-119.166	-5.997	-0.193	0.130
