DTS Sentinel unit serial number:	SN413079Multiplexer serial number:	ORYXHardware model number:	OX4-SRSoftware version number:	ORYX F/W v4.00 Oryx Data Collector v3.7.2.0data status	okinstallation	princeton_trtdifferential loss correction	single-endedforward channel	channel 3reverse channel	N/Adate	2019/09/13time	11:16:35forward acquisition time	60.00reverse acquisition time	0.00gamma	496.2192k internal	0.2316k external	0.2316temperature offset calibration	1.0140default loss term (dB/km)	0.3790temperature slope calibration	1.0000multiplexer offset coefficient	1.0000multiplexer slope coefficient	1.0000fibre end	0.00T internal ref (°C)	32.31T ext. ref 1 (°C)	4.70T ext. ref 2 (°C)	29.64length (m)	temperature (°C)	Stokes	anti-Stokes-747.200	-200.000	0.012	0.183
-746.185	70.165	-0.173	0.181
-745.171	159.194	0.200	-0.282
-744.156	-125.751	-0.182	0.028
-743.142	-80.366	0.253	-0.086
-742.127	26.675	0.174	0.147
-741.112	-200.000	0.027	-0.279
-740.098	-22.507	0.176	-0.108
-739.083	5.828	0.244	-0.183
-738.069	343.900	0.064	0.128
-737.054	-13.247	-0.296	-0.195
-736.039	154.096	-0.181	-0.252
-735.025	-200.000	0.003	0.171
-734.010	159.954	-0.239	-0.338
-732.996	-0.447	-0.152	0.109
-731.981	-200.000	0.004	-0.069
-730.966	-200.000	0.074	-0.329
-729.952	209.285	-0.131	-0.208
-728.937	-32.626	-0.304	-0.171
-727.923	31.911	-0.122	-0.106
-726.908	34.344	0.438	-0.387
-725.894	3.491	0.050	-0.037
-724.879	14.666	-0.200	0.158
-723.864	32.211	-0.053	0.046
-722.850	79.764	-0.074	0.081
-721.835	-200.000	-0.037	-0.254
-720.821	-200.000	0.037	-0.251
-719.806	532.468	0.081	-0.195
-718.791	-200.000	0.032	-0.163
-717.777	-17.608	-0.025	-0.016
-716.762	-79.578	0.037	0.013
-715.748	114.110	0.154	-0.190
-714.733	-110.260	-0.186	0.039
-713.718	188.953	0.112	-0.169
-712.704	-88.581	-0.302	-0.091
-711.689	37.733	-0.044	-0.039
-710.675	-77.347	-0.096	0.034
-709.660	106.175	0.197	0.236
-708.645	710.275	0.060	-0.160
-707.631	-79.171	0.366	-0.126
-706.616	-82.707	0.345	0.113
-705.602	-131.689	0.294	0.039
-704.587	-162.878	-0.238	-0.012
-703.572	243.603	0.044	-0.075
-702.558	3.493	0.093	-0.069
-701.543	13.911	0.382	-0.301
-700.529	-80.424	-0.276	0.093
-699.514	-60.637	0.205	0.088
-698.499	-200.000	-0.014	-0.123
-697.485	570.213	-0.233	-0.573
-696.470	-37.975	0.381	-0.205
-695.456	-70.137	0.166	0.064
-694.441	259.474	-0.132	0.230
-693.426	800.000	-0.046	0.168
-692.412	-118.393	-0.171	0.031
-691.397	-78.433	0.373	-0.129
-690.383	776.516	-0.057	0.158
-689.368	93.046	-0.299	-0.341
-688.354	76.255	0.273	-0.292
-687.339	-200.000	-0.058	0.485
-686.324	-200.000	-0.031	0.228
-685.310	200.735	0.113	0.176
-684.295	-161.123	0.390	0.021
-683.281	217.568	0.094	0.152
-682.266	-5.267	0.175	0.121
-681.251	-62.919	-0.158	0.066
-680.237	-70.340	-0.278	-0.106
-679.222	243.345	0.162	-0.275
-678.208	511.889	0.124	-0.292
-677.193	-200.000	0.014	-0.080
-676.178	405.140	0.122	-0.260
-675.164	-32.462	0.250	0.141
-674.149	800.000	-0.156	-0.502
-673.135	-182.169	-0.042	0.001
-672.120	-200.000	-0.000	-0.187
-671.105	336.895	0.196	-0.384
-670.091	567.293	0.147	-0.361
-669.076	-134.395	-0.150	-0.019
-668.062	-35.666	-0.172	0.094
-667.047	-18.947	0.122	-0.077
-666.032	12.945	0.139	0.108
-665.018	-123.366	0.276	0.045
-664.003	83.383	-0.117	-0.128
-662.989	800.000	-0.071	0.281
-661.974	-138.084	0.094	0.011
-660.959	-159.378	0.074	0.004
-659.945	38.659	0.092	-0.083
-658.930	-119.190	-0.438	-0.077
-657.916	-141.939	0.318	0.032
-656.901	-84.839	0.148	0.047
-655.886	101.605	-0.095	0.112
-654.872	297.933	0.077	0.143
-653.857	94.256	0.089	-0.102
-652.843	-111.362	0.381	-0.079
-651.828	-200.000	0.001	-0.210
-650.814	-71.507	0.163	0.062
-649.799	-108.825	-0.374	0.081
-648.784	-36.986	0.082	-0.044
-647.770	-200.000	-0.002	-0.245
-646.755	-77.442	0.256	0.090
-645.741	-129.039	-0.079	-0.011
-644.726	68.085	0.104	0.108
-643.711	-102.062	0.255	0.062
-642.697	-98.331	0.180	-0.047
-641.682	-28.126	0.331	0.193
-640.668	800.000	0.119	0.491
-639.653	61.395	0.124	-0.124
-638.638	-84.732	-0.102	0.032
-637.624	-156.599	0.344	-0.022
-636.609	-56.895	0.207	-0.092
-635.595	-32.841	-0.372	0.208
-634.580	26.613	-0.083	-0.070
-633.565	-200.000	0.018	0.128
-632.551	38.883	-0.135	0.122
-631.536	-162.859	0.148	0.007
-630.522	800.000	-0.066	-0.193
-629.507	29.101	0.447	-0.383
-628.492	84.943	0.238	0.263
-627.478	-165.178	-0.223	0.010
-626.463	61.352	0.220	-0.220
-625.449	238.713	0.028	-0.048
-624.434	-190.457	0.402	-0.004
-623.419	-200.000	-0.018	0.185
-622.405	94.956	0.107	0.122
-621.390	-10.446	0.232	0.155
-620.376	-133.464	-0.202	0.026
-619.361	16.180	0.206	-0.164
-618.346	-200.000	-0.003	0.083
-617.332	-99.362	0.493	-0.125
-616.317	591.819	0.127	0.315
-615.303	800.000	-0.058	-0.241
-614.288	121.876	-0.056	-0.070
-613.273	30.407	0.296	-0.255
-612.259	800.000	-0.051	0.163
-611.244	31.657	-0.365	-0.316
-610.230	480.038	0.076	0.175
-609.215	39.910	-0.141	0.128
-608.201	-118.760	-0.285	-0.051
-607.186	-36.725	0.159	0.086
-606.171	5.164	-0.089	0.066
-605.157	-200.000	-0.003	-0.196
-604.142	55.211	0.106	-0.104
-603.128	-59.249	0.207	0.090
-602.113	160.916	-0.031	-0.044
-601.098	800.000	0.030	-0.106
-600.084	145.850	-0.111	-0.150
-599.069	-50.943	0.241	-0.114
-598.055	800.000	0.191	-0.597
-597.040	239.938	-0.109	-0.183
-596.025	171.234	-0.076	-0.110
-595.011	-84.735	-0.298	-0.094
-593.996	-200.000	-0.076	0.513
-592.982	111.754	0.130	0.157
-591.967	45.077	-0.156	-0.145
-590.952	109.001	-0.177	-0.213
-589.938	-57.682	-0.204	0.090
-588.923	439.047	-0.109	-0.239
-587.909	-147.549	-0.129	-0.011
-586.894	28.499	-0.117	-0.100
-585.879	45.787	-0.073	-0.068
-584.865	233.535	-0.142	0.236
-583.850	-131.591	-0.400	-0.053
-582.836	-26.491	0.307	-0.181
-581.821	128.193	-0.139	0.178
-580.806	124.054	0.089	0.112
-579.792	50.723	-0.126	-0.120
-578.777	-110.015	0.165	0.035
-577.763	-200.000	0.003	-0.308
-576.748	-44.380	0.313	-0.158
-575.733	44.649	-0.171	0.158
-574.719	1.519	0.240	-0.174
-573.704	-11.476	0.057	0.038
-572.690	-200.000	-0.006	0.221
-571.675	800.000	0.047	-0.189
-570.661	800.000	-0.010	-0.033
-569.646	-200.000	0.008	0.323
-568.631	-108.479	-0.244	-0.053
-567.617	14.262	-0.232	0.182
-566.602	28.443	0.109	0.093
-565.588	211.688	-0.131	0.208
-564.573	237.684	0.047	0.078
-563.558	132.353	0.123	0.160
-562.544	-200.000	-0.012	-0.101
-561.529	-137.614	-0.337	-0.038
-560.515	-28.104	-0.174	-0.101
-559.500	800.000	0.013	-0.039
-558.485	-154.769	0.310	-0.021
-557.471	101.924	-0.159	-0.187
-556.456	-98.533	0.426	0.109
-555.442	800.000	0.083	-0.271
-554.427	-200.000	-0.025	0.133
-553.412	138.666	0.188	-0.248
-552.398	-69.983	0.152	-0.058
-551.383	193.588	-0.162	0.247
-550.369	250.777	0.116	-0.198
-549.354	602.240	0.121	0.301
-548.339	75.194	0.080	0.085
-547.325	-48.847	-0.080	-0.039
-546.310	-63.502	-0.171	0.071
-545.296	-85.297	-0.166	0.052
-544.281	140.943	0.029	0.038
-543.266	-97.159	0.068	0.018
-542.252	205.598	-0.222	0.347
-541.237	176.471	0.099	-0.144
-540.223	446.827	0.101	0.222
-539.208	700.357	-0.129	0.342
-538.193	-200.000	0.001	0.491
-537.179	55.995	0.112	0.109
-536.164	-21.414	0.311	-0.191
-535.150	800.000	0.013	-0.042
-534.135	-3.219	-0.292	-0.204
-533.121	198.494	-0.071	0.109
-532.106	69.723	0.086	-0.089
-531.091	-69.728	0.158	0.061
-530.077	136.429	0.080	-0.105
-529.062	52.184	-0.113	0.108
-528.048	-200.000	-0.004	-0.175
-527.033	189.234	-0.066	-0.099
-526.018	800.000	-0.037	-0.118
-525.004	-66.693	-0.056	-0.022
-523.989	-53.060	-0.356	-0.164
-522.975	33.943	-0.144	-0.126
-521.960	67.283	0.192	-0.197
-520.945	-103.558	0.244	-0.057
-519.931	89.701	0.079	0.089
-518.916	-108.927	0.158	0.034
-517.902	800.000	0.121	0.358
-516.887	122.437	-0.206	0.258
-515.872	-47.127	-0.231	-0.113
-514.858	-5.907	-0.089	-0.061
-513.843	-57.224	0.162	-0.072
-512.829	-51.196	-0.125	0.059
-511.814	68.205	0.242	-0.248
-510.799	-200.000	-0.020	-0.283
-509.785	-55.305	-0.436	-0.197
-508.770	103.032	-0.153	-0.180
-507.756	39.938	-0.059	-0.053
-506.741	800.000	0.107	-0.310
-505.726	-100.570	0.413	-0.102
-504.712	388.896	0.115	0.240
-503.697	-127.418	0.335	0.049
-502.683	-55.315	0.271	0.122
-501.668	114.220	-0.096	0.117
-500.653	52.950	0.199	-0.191
-499.639	-108.935	0.088	0.019
-498.624	284.704	0.084	-0.152
-497.610	-144.751	0.291	0.027
-496.595	142.744	-0.146	-0.194
-495.581	800.000	-0.035	0.100
-494.566	-104.391	-0.048	-0.011
-493.551	-200.000	0.002	-0.120
-492.537	33.741	0.148	0.129
-491.522	638.781	0.094	0.239
-490.508	163.616	-0.206	0.291
-489.493	34.024	0.244	0.213
-488.478	140.798	-0.150	-0.199
-487.464	-62.678	0.387	-0.161
-486.449	169.443	0.095	0.136
-485.435	40.750	-0.050	-0.045
-484.420	33.024	-0.069	0.060
-483.405	172.796	-0.186	0.268
-482.391	-123.244	0.328	0.053
-481.376	-133.807	-0.453	0.056
-480.362	56.720	-0.050	-0.048
-479.347	54.708	0.277	0.268
-478.332	185.376	0.209	-0.311
-477.318	51.446	-0.256	0.244
-476.303	71.555	0.332	0.346
-475.289	-200.000	0.010	-0.271
-474.274	800.000	-0.057	-0.211
-473.259	-200.000	-0.035	-0.264
-472.245	30.383	0.209	0.179
-471.230	-200.000	0.006	0.293
-470.216	-200.000	-0.019	0.283
-469.201	377.950	-0.100	0.205
-468.186	-200.000	-0.063	-0.321
-467.172	226.898	-0.103	-0.168
-466.157	-70.937	0.077	0.029
-465.143	-89.144	-0.376	-0.111
-464.128	91.378	0.109	0.123
-463.113	-48.426	-0.180	0.087
-462.099	-113.583	0.210	0.041
-461.084	542.635	0.057	-0.137
-460.070	193.592	0.071	-0.108
-459.055	-7.045	-0.174	0.118
-458.040	228.015	-0.142	-0.232
-457.026	-200.000	-0.038	0.374
-456.011	-64.544	-0.153	0.062
-454.997	-37.053	-0.397	0.213
-453.982	96.137	-0.088	-0.101
-452.968	-200.000	-0.025	-0.354
-451.953	414.737	-0.106	-0.227
-450.938	325.025	-0.029	-0.055
-449.924	-200.000	-0.016	-0.147
-448.909	187.269	0.111	0.166
-447.895	551.399	0.103	0.247
-446.880	-200.000	0.028	0.140
-445.865	-36.049	-0.320	0.173
-444.851	91.932	-0.080	0.090
-443.836	-114.127	-0.199	0.039
-442.822	204.065	0.069	0.107
-441.807	-90.775	-0.229	-0.066
-440.792	696.692	0.190	-0.499
-439.778	-66.574	0.305	-0.121
-438.763	-78.481	-0.133	0.046
-437.749	-168.043	-0.332	0.013
-436.734	-113.262	0.095	0.019
-435.719	779.396	-0.146	0.400
-434.705	-103.080	-0.085	0.020
-433.690	85.380	0.193	-0.212
-432.676	34.796	-0.239	-0.209
-431.661	-61.137	-0.413	0.174
-430.646	-9.622	-0.139	0.093
-429.632	-200.000	-0.007	-0.046
-428.617	-105.728	-0.117	-0.027
-427.603	121.587	0.284	0.355
-426.588	-200.000	0.004	0.221
-425.573	35.025	0.065	0.057
-424.559	560.441	0.046	0.111
-423.544	782.234	-0.124	-0.340
-422.530	529.742	-0.131	0.309
-421.515	206.543	-0.108	-0.169
-420.500	90.140	0.181	0.202
-419.486	800.000	-0.117	0.348
-418.471	800.000	0.071	0.246
-417.457	-140.195	-0.024	-0.002
-416.442	800.000	0.053	0.197
-415.428	15.669	0.119	0.093
-414.413	800.000	0.032	-0.122
-413.398	-94.159	0.138	-0.038
-412.384	-200.000	0.006	-0.207
-411.369	-49.399	0.172	0.082
-410.355	-200.000	0.046	-0.212
-409.340	54.154	-0.253	-0.243
-408.325	-130.540	-0.035	0.005
-407.311	-200.000	0.024	-0.357
-406.296	800.000	-0.026	0.111
-405.282	4.175	0.296	0.217
-404.267	263.447	-0.169	-0.293
-403.252	800.000	-0.087	-0.309
-402.238	-195.195	-0.159	-0.001
-401.223	-200.000	-0.048	-0.254
-400.209	88.209	-0.148	-0.164
-399.194	90.590	-0.189	0.211
-398.179	-132.370	-0.246	0.032
-397.165	800.000	-0.072	0.222
-396.150	37.570	0.218	0.193
-395.136	-128.990	0.243	-0.034
-394.121	-200.000	-0.050	-0.293
-393.106	800.000	0.089	0.307
-392.092	-155.945	-0.089	0.006
-391.077	800.000	-0.078	-0.320
-390.063	15.584	0.238	-0.187
-389.048	-86.952	-0.260	-0.079
-388.033	-61.359	-0.240	0.101
-387.019	37.060	0.070	-0.062
-386.004	60.365	-0.187	0.185
-384.990	92.062	-0.132	-0.148
-383.975	315.459	-0.015	-0.028
-382.960	800.000	0.112	-0.353
-381.946	184.366	-0.279	-0.412
-380.931	-39.667	-0.363	0.190
-379.917	800.000	-0.074	0.260
-378.902	-162.630	0.268	-0.013
-377.888	-6.083	0.028	-0.019
-376.873	-60.085	0.324	-0.138
-375.858	-104.108	-0.115	0.027
-374.844	-167.034	-0.136	0.006
-373.829	-86.034	0.415	0.128
-372.815	322.179	0.127	0.242
-371.800	-87.002	-0.140	0.043
-370.785	105.188	-0.113	0.133
-369.771	309.762	-0.129	-0.241
-368.756	-200.000	-0.009	-0.192
-367.742	800.000	0.074	0.299
-366.727	-115.660	0.360	0.067
-365.712	-160.894	-0.231	-0.012
-364.698	-29.355	0.313	-0.179
-363.683	-200.000	0.016	-0.200
-362.669	224.708	0.141	0.228
-361.654	448.422	-0.113	-0.249
-360.639	50.998	0.131	-0.124
-359.625	-48.134	0.223	-0.108
-358.610	-10.677	0.080	0.053
-357.596	28.739	-0.112	0.095
-356.581	85.790	-0.180	0.197
-355.566	-86.140	-0.066	-0.020
-354.552	-127.012	-0.379	-0.056
-353.537	244.733	0.018	0.030
-352.523	8.984	0.136	-0.102
-351.508	216.948	-0.221	-0.351
-350.493	800.000	0.053	-0.221
-349.479	405.305	0.126	0.265
-348.464	800.000	0.016	-0.064
-347.450	-107.515	-0.303	-0.066
-346.435	-34.511	0.459	0.251
-345.420	-45.596	-0.200	-0.099
-344.406	-200.000	-0.003	0.074
-343.391	-200.000	0.063	0.300
-342.377	-132.422	0.450	-0.058
-341.362	-60.464	-0.025	-0.010
-340.348	-7.334	-0.177	0.120
-339.333	-200.000	0.012	-0.069
-338.318	38.911	0.271	-0.241
-337.304	-173.263	-0.069	-0.002
-336.289	86.439	-0.219	-0.240
-335.275	276.953	-0.072	0.127
-334.260	44.420	0.204	0.186
-333.245	-23.502	0.064	-0.039
-332.231	-176.719	-0.200	0.005
-331.216	-28.085	0.075	-0.043
-330.202	53.359	-0.144	0.138
-329.187	-9.283	0.250	0.167
-328.172	25.541	-0.219	-0.181
-327.158	-55.732	-0.203	-0.091
-326.143	-32.389	-0.060	-0.034
-325.129	-200.000	0.014	0.087
-324.114	262.865	-0.130	-0.225
-323.099	-28.258	-0.093	-0.054
-322.085	-113.514	-0.142	0.028
-321.070	-57.114	-0.193	0.085
-320.056	-157.844	0.418	0.025
-319.041	387.120	-0.051	-0.105
-318.026	-41.566	-0.308	-0.158
-317.012	800.000	0.107	0.319
-315.997	210.119	0.137	0.214
-314.983	318.041	-0.125	0.236
-313.968	800.000	-0.097	0.367
-312.953	113.549	-0.073	0.088
-311.939	-78.323	0.238	0.081
-310.924	-133.865	0.126	0.016
-309.910	800.000	-0.078	-0.246
-308.895	-200.000	-0.009	0.122
-307.880	113.694	0.103	-0.125
-306.866	-200.000	0.002	-0.349
-305.851	-95.856	-0.277	0.074
-304.837	-200.000	-0.009	0.266
-303.822	-200.000	-0.031	0.236
-302.807	-200.000	0.032	0.147
-301.793	-85.274	-0.147	-0.046
-300.778	444.780	-0.087	-0.189
-299.764	216.257	-0.061	-0.097
-298.749	-16.827	-0.152	-0.096
-297.735	123.185	-0.138	-0.172
-296.720	14.219	0.116	-0.090
-295.705	151.156	0.226	-0.306
-294.691	759.303	-0.074	-0.199
-293.676	-154.301	0.358	-0.024
-292.662	-91.536	0.126	-0.036
-291.647	-122.010	-0.261	-0.043
-290.632	-200.000	0.080	0.360
-289.618	-200.000	0.005	0.244
-288.603	14.981	-0.267	-0.208
-287.589	75.977	0.134	-0.141
-286.574	-90.393	-0.264	0.076
-285.559	-65.919	0.030	-0.012
-284.545	207.315	-0.084	0.130
-283.530	332.652	0.113	-0.218
-282.516	-124.387	-0.231	-0.036
-281.501	36.807	0.171	-0.151
-280.486	353.527	-0.063	0.125
-279.472	-34.033	-0.130	-0.071
-278.457	640.785	0.016	0.039
-277.443	-200.000	0.015	-0.172
-276.428	111.673	-0.134	-0.161
-275.413	-140.469	0.055	-0.006
-274.399	336.555	-0.176	-0.339
-273.384	-165.605	0.188	-0.008
-272.370	66.952	0.189	-0.192
-271.355	-129.140	0.133	-0.018
-270.340	428.363	-0.112	0.240
-269.326	284.668	0.094	0.168
-268.311	-200.000	-0.008	-0.090
-267.297	-147.902	-0.304	-0.025
-266.282	-56.266	-0.232	-0.102
-265.267	-200.000	-0.001	-0.015
-264.253	800.000	-0.039	-0.131
-263.238	-200.000	0.016	-0.182
-262.224	271.279	0.132	0.230
-261.209	22.046	0.187	-0.152
-260.195	316.228	-0.151	0.284
-259.180	-200.000	-0.003	-0.154
-258.165	-200.000	0.022	-0.179
-257.151	-40.287	0.290	0.150
-256.136	-114.948	-0.242	-0.046
-255.122	-78.060	-0.069	0.024
-254.107	-120.185	0.357	0.061
-253.092	210.662	0.074	-0.116
-252.078	-200.000	-0.051	-0.236
-251.063	4.606	-0.206	-0.150
-250.049	212.235	0.171	0.268
-249.034	638.753	0.178	0.449
-248.019	335.239	-0.085	0.165
-247.005	800.000	-0.120	-0.361
-245.990	-133.536	-0.176	-0.022
-244.976	800.000	0.019	0.054
-243.961	-200.000	-0.042	0.280
-242.946	-65.466	0.270	-0.108
-241.932	-142.958	-0.133	-0.013
-240.917	-35.993	-0.056	0.030
-239.903	388.279	0.104	-0.215
-238.888	800.000	-0.055	-0.214
-237.873	46.963	0.117	-0.108
-236.859	-73.566	-0.146	-0.053
-235.844	344.126	-0.093	0.181
-234.830	140.730	0.088	-0.116
-233.815	-162.452	-0.443	0.022
-232.800	800.000	-0.117	0.471
-231.786	-105.141	0.318	0.072
-230.771	-200.000	-0.027	0.194
-229.757	403.451	-0.077	0.160
-228.742	62.823	-0.378	0.375
-227.727	5.128	0.111	0.081
-226.713	766.660	-0.039	-0.106
-225.698	-200.000	-0.013	-0.144
-224.684	800.000	-0.037	0.142
-223.669	-59.361	-0.278	-0.119
-222.655	195.066	0.221	0.334
-221.640	72.213	0.174	-0.180
-220.625	-167.157	-0.108	0.004
-219.611	31.359	-0.092	0.078
-218.596	245.409	-0.201	-0.336
-217.582	207.313	0.031	0.048
-216.567	-183.625	-0.108	0.002
-215.552	286.255	0.032	-0.057
-214.538	-200.000	-0.028	0.212
-213.523	577.112	-0.076	-0.185
-212.509	-176.590	-0.148	0.004
-211.494	-137.675	-0.070	0.008
-210.479	250.597	0.049	-0.082
-209.465	-200.000	0.080	-0.458
-208.450	-33.132	0.251	-0.138
-207.436	-200.000	0.001	0.344
-206.421	351.256	0.106	0.208
-205.406	-86.469	-0.220	-0.067
-204.392	-200.000	-0.055	-0.271
-203.377	19.185	0.129	0.103
-202.363	-157.437	-0.130	0.008
-201.348	-20.881	0.220	-0.134
-200.333	17.909	-0.285	0.225
-199.319	800.000	0.085	0.261
-198.304	-161.165	0.208	0.011
-197.290	-23.056	0.183	0.109
-196.275	130.587	0.129	0.163
-195.260	-23.126	0.170	0.101
-194.246	52.239	0.132	-0.125
-193.231	-200.000	0.004	-0.186
-192.217	-200.000	0.004	0.068
-191.202	-161.684	0.164	-0.008
-190.187	-96.820	0.314	0.082
-189.173	121.881	0.268	0.332
-188.158	219.883	-0.187	0.297
-187.144	49.097	0.057	0.054
-186.129	800.000	-0.079	-0.276
-185.114	-28.552	-0.063	0.036
-184.100	-121.572	0.303	-0.050
-183.085	800.000	0.061	-0.180
-182.071	178.426	-0.082	0.118
-181.056	-200.000	0.021	-0.098
-180.042	-150.814	-0.126	-0.009
-179.027	347.358	-0.033	-0.063
-178.012	-26.386	-0.274	0.159
-176.998	-33.703	-0.113	-0.062
-175.983	-200.000	0.031	0.160
-174.969	-119.642	0.209	0.036
-173.954	-200.000	0.013	-0.162
-172.939	691.066	0.024	-0.061
-171.925	-200.000	0.073	-0.319
-170.910	-117.387	0.286	-0.051
-169.896	75.540	-0.161	0.168
-168.881	122.058	-0.091	0.112
-167.866	4.340	-0.306	0.222
-166.852	-200.000	-0.010	0.061
-165.837	26.703	-0.192	-0.159
-164.823	800.000	0.027	0.090
-163.808	60.141	-0.127	-0.125
-162.793	-43.375	0.294	0.147
-161.779	-140.989	0.183	0.019
-160.764	-90.296	-0.201	0.058
-159.750	45.904	0.156	-0.143
-158.735	50.817	0.309	0.290
-157.720	-46.902	0.083	-0.040
-156.706	134.545	0.173	-0.223
-155.691	-45.569	-0.198	-0.097
-154.677	-1.319	0.087	-0.061
-153.662	207.241	0.159	0.245
-152.647	-119.084	-0.371	-0.064
-151.633	165.181	0.037	0.051
-150.618	-90.794	0.317	-0.090
-149.604	-200.000	-0.057	0.358
-148.589	-145.345	0.317	0.028
-147.574	-80.506	-0.256	0.084
-146.560	-7.505	0.017	-0.012
-145.545	-200.000	-0.012	0.143
-144.531	-103.178	-0.131	0.031
-143.516	-200.000	-0.082	0.369
-142.502	-200.000	0.021	0.223
-141.487	-200.000	-0.015	0.084
-140.472	585.951	0.134	-0.325
-139.458	-50.776	0.131	-0.061
-138.443	800.000	0.024	0.090
-137.429	-72.225	0.081	0.030
-136.414	-79.142	0.272	-0.091
-135.399	56.999	0.114	-0.110
-134.385	682.317	0.152	-0.391
-133.370	-141.747	0.077	0.008
-132.356	5.799	0.190	-0.139
-131.341	-200.000	-0.051	-0.264
-130.326	80.623	0.380	0.405
-129.312	225.871	-0.133	0.213
-128.297	800.000	0.143	0.461
-127.283	-96.912	-0.169	0.044
-126.268	-200.000	0.010	0.281
-125.253	-23.461	0.170	-0.101
-124.239	-200.000	0.033	-0.216
-123.224	-200.000	0.068	0.324
-122.210	-88.570	0.160	-0.047
-121.195	-79.744	-0.080	0.027
