DTS Sentinel unit serial number:	SN413079Multiplexer serial number:	ORYXHardware model number:	OX4-SRSoftware version number:	ORYX F/W v4.00 Oryx Data Collector v3.7.2.0data status	okinstallation	princeton_trtdifferential loss correction	single-endedforward channel	channel 3reverse channel	N/Adate	2019/09/13time	14:16:35forward acquisition time	60.00reverse acquisition time	0.00gamma	496.2192k internal	0.2302k external	0.2302temperature offset calibration	1.0147default loss term (dB/km)	0.3790temperature slope calibration	1.0000multiplexer offset coefficient	1.0000multiplexer slope coefficient	1.0000fibre end	0.00T internal ref (°C)	35.27T ext. ref 1 (°C)	4.61T ext. ref 2 (°C)	31.44length (m)	temperature (°C)	Stokes	anti-Stokes-747.200	-85.819	-0.212	0.067
-746.185	-51.088	0.178	0.085
-745.171	-49.739	0.090	0.043
-744.156	106.641	-0.230	0.278
-743.142	-200.000	0.015	0.193
-742.127	800.000	-0.070	0.285
-741.112	-157.910	-0.081	-0.005
-740.098	-70.290	-0.220	-0.085
-739.083	177.598	0.230	-0.341
-738.069	134.089	-0.140	-0.184
-737.054	62.186	-0.189	-0.192
-736.039	-200.000	-0.010	-0.333
-735.025	800.000	-0.065	-0.186
-734.010	-61.731	-0.146	-0.063
-732.996	-63.307	-0.073	0.030
-731.981	331.291	-0.051	-0.100
-730.966	33.405	0.083	0.074
-729.952	-180.826	0.337	0.007
-728.937	66.797	-0.122	0.126
-727.923	-200.000	0.036	0.428
-726.908	-184.314	-0.107	0.002
-725.894	63.661	-0.111	-0.113
-724.879	-84.635	0.236	-0.076
-723.864	-200.000	-0.013	-0.228
-722.850	-200.000	-0.013	-0.219
-721.835	-98.024	-0.095	0.025
-720.821	-41.397	-0.199	0.105
-719.806	-200.000	0.001	-0.107
-718.791	-45.619	0.171	-0.086
-717.777	-200.000	-0.050	-0.236
-716.762	800.000	-0.061	0.242
-715.748	82.011	-0.310	-0.341
-714.733	-200.000	0.005	-0.288
-713.718	-92.606	0.113	0.032
-712.704	288.027	-0.041	0.076
-711.689	-37.686	0.101	0.055
-710.675	210.116	-0.090	0.143
-709.660	-119.550	0.484	-0.085
-708.645	-200.000	0.019	-0.180
-707.631	539.368	0.103	0.250
-706.616	-200.000	-0.008	0.215
-705.602	-129.383	0.125	0.018
-704.587	48.731	-0.133	0.127
-703.572	-200.000	-0.027	-0.146
-702.558	167.116	0.197	-0.285
-701.543	-22.696	-0.103	0.064
-700.529	119.179	0.229	-0.288
-699.514	134.621	-0.185	-0.245
-698.499	-62.887	-0.369	0.155
-697.485	-135.290	0.319	0.039
-696.470	142.049	0.194	0.262
-695.456	151.949	-0.153	-0.213
-694.441	-200.000	-0.042	-0.364
-693.426	-80.073	-0.307	-0.105
-692.412	67.152	-0.157	-0.163
-691.397	328.000	0.079	-0.154
-690.383	-200.000	-0.025	0.317
-689.368	800.000	0.119	-0.390
-688.354	-200.000	-0.009	-0.445
-687.339	365.126	-0.095	-0.196
-686.324	-103.725	0.441	-0.105
-685.310	499.350	0.128	-0.300
-684.295	-1.495	-0.156	-0.112
-683.281	-200.000	0.034	-0.411
-682.266	800.000	0.042	-0.120
-681.251	800.000	-0.017	0.051
-680.237	-200.000	-0.028	-0.181
-679.222	343.847	0.116	0.232
-678.208	209.397	0.095	-0.152
-677.193	76.765	-0.075	-0.081
-676.178	96.170	-0.159	0.184
-675.164	-33.172	-0.117	-0.066
-674.149	339.301	0.052	0.103
-673.135	136.533	0.126	-0.167
-672.120	-55.942	-0.160	0.073
-671.105	-105.447	-0.104	-0.024
-670.091	800.000	-0.010	0.034
-669.076	-93.681	-0.098	0.028
-668.062	-200.000	0.003	0.197
-667.047	759.416	0.051	-0.141
-666.032	392.569	0.120	0.254
-665.018	199.157	-0.197	-0.306
-664.003	-50.245	0.221	-0.106
-662.989	-200.000	-0.042	0.464
-661.974	-200.000	0.031	-0.179
-660.959	50.566	-0.176	-0.169
-659.945	147.305	0.079	0.108
-658.930	800.000	-0.073	-0.244
-657.916	-52.231	0.328	0.154
-656.901	-200.000	-0.000	-0.168
-655.886	-52.309	0.179	-0.084
-654.872	-72.020	-0.119	-0.045
-653.857	202.071	-0.118	0.185
-652.843	-172.499	-0.180	-0.006
-651.828	337.490	-0.098	-0.194
-650.814	-200.000	0.066	0.304
-649.799	304.526	-0.083	0.157
-648.784	-37.992	-0.128	-0.069
-647.770	586.971	-0.133	0.331
-646.755	800.000	0.088	-0.298
-645.741	669.402	-0.034	0.089
-644.726	-200.000	0.016	-0.073
-643.711	171.633	-0.100	-0.146
-642.697	-16.280	0.214	-0.138
-641.682	66.271	0.125	-0.129
-640.668	103.096	0.036	0.043
-639.653	196.623	0.050	0.077
-638.638	-200.000	0.009	0.047
-637.624	728.639	0.091	0.248
-636.609	459.158	0.017	0.038
-635.595	68.580	0.171	-0.178
-634.580	-75.533	0.459	-0.166
-633.565	-105.320	0.342	0.079
-632.551	800.000	0.054	0.231
-631.536	-58.318	-0.397	0.175
-630.522	-57.021	-0.212	-0.095
-629.507	214.053	0.115	0.185
-628.492	-142.041	-0.432	-0.044
-627.478	53.627	0.314	0.306
-626.463	-200.000	0.007	-0.277
-625.449	-64.301	0.113	-0.047
-624.434	800.000	-0.070	-0.199
-623.419	321.866	-0.183	0.353
-622.405	-142.814	-0.272	-0.027
-621.390	155.403	0.197	0.275
-620.376	16.430	-0.119	-0.095
-619.361	-137.447	-0.200	-0.023
-618.346	-200.000	0.002	0.025
-617.332	-200.000	0.006	-0.188
-616.317	62.291	-0.157	-0.159
-615.303	-32.073	0.111	0.063
-614.288	186.607	-0.094	0.141
-613.273	303.802	0.025	-0.047
-612.259	352.360	0.179	-0.360
-611.244	653.689	-0.152	-0.395
-610.230	33.455	-0.049	0.043
-609.215	121.619	-0.031	-0.039
-608.201	-51.151	0.288	-0.137
-607.186	-31.360	0.216	-0.123
-606.171	180.516	0.181	-0.269
-605.157	243.129	-0.105	-0.178
-604.142	-56.439	-0.085	-0.038
-603.128	-102.454	-0.108	-0.026
-602.113	-65.186	-0.178	-0.073
-601.098	-200.000	0.030	-0.135
-600.084	-176.757	-0.121	-0.003
-599.069	-91.355	-0.307	0.089
-598.055	-108.559	-0.112	-0.024
-597.040	-84.517	0.305	-0.098
-596.025	-55.991	0.175	-0.079
-595.011	-15.268	-0.300	-0.194
-593.996	502.333	-0.093	0.219
-592.982	243.428	0.126	0.214
-591.967	-88.054	0.362	0.110
-590.952	44.153	0.037	0.035
-589.938	-200.000	-0.101	0.448
-588.923	-181.154	-0.104	0.002
-587.909	-154.844	0.142	-0.010
-586.894	-162.874	-0.274	-0.013
-585.879	-200.000	0.020	0.187
-584.865	800.000	0.103	0.392
-583.850	680.692	-0.030	-0.078
-582.836	154.447	-0.168	-0.234
-581.821	-65.638	0.124	0.050
-580.806	243.085	0.020	0.035
-579.792	-200.000	0.015	-0.076
-578.777	-200.000	0.004	-0.343
-577.763	788.617	0.097	-0.269
-576.748	-27.455	-0.191	-0.112
-575.733	-81.566	-0.351	-0.117
-574.719	693.626	0.104	0.275
-573.704	-189.858	0.362	0.004
-572.690	40.337	0.076	0.070
-571.675	119.234	-0.095	0.119
-570.661	-200.000	-0.013	0.119
-569.646	488.664	0.088	0.203
-568.631	-101.175	-0.209	-0.052
-567.617	399.638	-0.008	0.017
-566.602	-200.000	-0.030	0.154
-565.588	473.729	0.181	-0.413
-564.573	27.806	0.158	0.135
-563.558	-200.000	0.031	0.167
-562.544	-27.918	-0.326	0.191
-561.529	-70.927	0.280	0.107
-560.515	-200.000	0.037	0.226
-559.500	-200.000	-0.039	-0.526
-558.485	-77.132	-0.359	-0.126
-557.471	-189.215	0.395	0.005
-556.456	272.412	0.044	0.079
-555.442	-170.240	-0.258	0.009
-554.427	-49.544	-0.352	-0.169
-553.412	62.674	-0.089	0.090
-552.398	-116.688	-0.418	-0.078
-551.383	-97.788	-0.310	-0.081
-550.369	383.097	0.109	-0.226
-549.354	64.097	-0.075	-0.076
-548.339	293.950	0.044	-0.081
-547.325	53.811	0.129	0.125
-546.310	-200.000	0.060	-0.383
-545.296	-138.163	-0.341	0.038
-544.281	182.428	0.110	0.165
-543.266	-200.000	0.020	0.135
-542.252	375.291	-0.114	-0.235
-541.237	-71.886	0.172	-0.065
-540.223	-200.000	-0.029	0.143
-539.208	-171.505	-0.305	0.010
-538.193	-170.584	-0.156	-0.005
-537.179	-200.000	-0.076	0.500
-536.164	-35.199	-0.086	0.047
-535.150	201.684	-0.012	-0.019
-534.135	88.619	0.036	0.041
-533.121	6.307	-0.116	0.087
-532.106	-200.000	0.021	-0.118
-531.091	176.552	-0.056	-0.083
-530.077	26.289	-0.105	0.088
-529.062	-54.969	-0.079	-0.036
-528.048	295.349	0.113	-0.208
-527.033	800.000	0.083	0.359
-526.018	-92.781	-0.105	-0.030
-525.004	-131.090	0.152	0.020
-523.989	89.285	0.225	0.254
-522.975	108.748	-0.090	-0.109
-521.960	89.598	0.053	0.059
-520.945	66.266	0.070	0.071
-519.931	616.090	0.111	-0.281
-518.916	-82.748	-0.180	-0.059
-517.902	134.181	0.060	-0.078
-516.887	800.000	-0.045	-0.182
-515.872	-165.282	0.190	-0.008
-514.858	-23.967	-0.229	-0.138
-513.843	246.729	0.084	-0.143
-512.829	599.070	0.130	-0.325
-511.814	-4.859	-0.256	0.178
-510.799	278.112	-0.045	0.081
-509.785	800.000	0.017	-0.075
-508.770	-100.397	-0.096	0.024
-507.756	13.038	0.147	0.114
-506.741	800.000	-0.054	0.159
-505.726	-136.942	-0.276	0.032
-504.712	196.233	-0.304	-0.468
-503.697	68.639	0.203	-0.210
-502.683	-95.457	0.108	-0.029
-501.668	800.000	-0.079	-0.299
-500.653	-200.000	0.015	0.240
-499.639	-200.000	-0.050	0.317
-498.624	-77.581	-0.201	0.070
-497.610	800.000	0.081	-0.250
-496.595	-14.877	0.037	-0.024
-495.581	-85.813	0.062	0.019
-494.566	300.245	-0.073	-0.136
-493.551	4.809	0.133	-0.099
-492.537	-25.185	0.415	-0.248
-491.522	-133.280	-0.315	0.040
-490.508	-139.442	0.183	-0.020
-489.493	-118.969	0.079	0.014
-488.478	800.000	0.037	-0.123
-487.464	-200.000	0.033	-0.244
-486.449	40.993	0.148	0.135
-485.435	56.439	-0.179	-0.176
-484.420	47.816	-0.085	0.080
-483.405	435.375	0.051	0.113
-482.391	800.000	-0.037	-0.154
-481.376	110.922	0.114	-0.139
-480.362	-96.423	0.409	-0.109
-479.347	-200.000	-0.027	-0.139
-478.332	243.481	0.125	0.211
-477.318	146.501	-0.109	-0.147
-476.303	-41.767	-0.152	-0.079
-475.289	12.566	0.126	0.098
-474.274	800.000	-0.045	0.169
-473.259	-100.715	-0.248	-0.062
-472.245	-70.616	-0.234	-0.089
-471.230	-179.345	0.106	-0.002
-470.216	63.713	0.049	0.050
-469.201	-200.000	0.036	-0.310
-468.186	20.700	-0.182	0.148
-467.172	-36.440	-0.068	0.037
-466.157	-101.932	0.347	0.084
-465.143	141.727	0.076	0.102
-464.128	800.000	-0.076	0.242
-463.113	-200.000	-0.047	-0.247
-462.099	-200.000	-0.000	-0.194
-461.084	176.241	0.184	0.269
-460.070	77.482	-0.102	-0.109
-459.055	36.267	-0.198	0.176
-458.040	-150.496	-0.111	0.009
-457.026	-87.619	0.187	0.057
-456.011	-14.621	-0.019	-0.012
-454.997	187.264	0.064	0.095
-453.982	-38.566	0.246	-0.131
-452.968	185.727	-0.190	-0.285
-451.953	52.368	-0.089	-0.085
-450.938	-165.541	0.152	-0.007
-449.924	-90.266	-0.072	-0.021
-448.909	-84.266	-0.251	-0.080
-447.895	-2.042	-0.132	0.093
-446.880	-90.304	-0.161	0.047
-445.865	-124.202	-0.115	0.018
-444.851	-156.192	-0.285	-0.018
-443.836	60.266	-0.248	-0.247
-442.822	31.611	0.226	-0.196
-441.807	-101.647	-0.100	-0.025
-440.792	-200.000	-0.006	-0.038
-439.778	231.157	0.029	0.048
-438.763	-84.789	-0.085	0.027
-437.749	-0.830	0.027	0.019
-436.734	-136.721	-0.448	-0.052
-435.719	9.586	-0.245	0.187
-434.705	163.142	0.117	0.166
-433.690	-119.072	0.327	-0.058
-432.676	30.204	0.215	0.185
-431.661	284.384	-0.151	0.274
-430.646	-86.721	-0.236	0.073
-429.632	307.911	0.168	-0.316
-428.617	-200.000	-0.050	-0.260
-427.603	11.127	0.205	0.158
-426.588	80.922	0.170	0.184
-425.573	-200.000	-0.020	-0.147
-424.559	90.544	-0.038	-0.043
-423.544	-45.774	0.161	0.080
-422.530	78.911	0.050	0.054
-421.515	489.560	0.106	0.245
-420.500	-6.390	-0.122	0.084
-419.486	10.335	-0.116	-0.089
-418.471	91.002	0.153	-0.173
-417.457	-104.622	0.363	0.084
-416.442	107.447	0.041	0.049
-415.428	3.999	0.223	-0.164
-414.413	187.033	0.102	0.152
-413.398	39.473	0.192	-0.173
-412.384	-127.289	0.119	-0.018
-411.369	106.119	-0.233	-0.277
-410.355	211.728	-0.272	-0.431
-409.340	-159.411	0.217	-0.012
-408.325	363.704	0.008	0.016
-407.311	800.000	0.123	-0.402
-406.296	254.794	-0.056	-0.096
-405.282	-180.904	-0.183	-0.004
-404.267	42.226	0.242	0.221
-403.252	131.239	0.120	0.155
-402.238	-200.000	0.012	0.089
-401.223	337.591	0.101	0.198
-400.209	-48.323	-0.440	0.213
-399.194	27.635	0.070	0.060
-398.179	206.443	0.160	-0.250
-397.165	-171.767	0.095	-0.003
-396.150	184.733	0.059	0.088
-395.136	-200.000	-0.010	0.072
-394.121	-200.000	0.038	-0.241
-393.106	-52.562	0.094	0.043
-392.092	-105.803	-0.127	0.029
-391.077	-27.115	0.350	-0.205
-390.063	-26.754	0.180	0.106
-389.048	-86.686	0.223	-0.069
-388.033	122.261	0.183	-0.230
-387.019	-200.000	-0.004	0.074
-386.004	-98.760	0.479	-0.122
-384.990	-200.000	0.058	0.266
-383.975	380.960	0.022	0.045
-382.960	-200.000	-0.064	0.304
-381.946	-200.000	0.079	0.449
-380.931	-20.435	0.228	0.141
-379.917	-107.779	-0.186	-0.041
-378.902	-200.000	-0.017	-0.110
-377.888	800.000	0.048	-0.160
-376.873	800.000	0.059	0.234
-375.858	-148.751	-0.173	-0.014
-374.844	800.000	0.066	0.235
-373.829	800.000	0.099	-0.314
-372.815	-200.000	-0.016	0.206
-371.800	-32.534	0.208	0.117
-370.785	-200.000	-0.004	0.162
-369.771	-144.337	-0.162	0.015
-368.756	800.000	-0.037	-0.141
-367.742	270.841	0.115	-0.204
-366.727	-73.585	-0.315	0.115
-365.712	-200.000	-0.018	-0.109
-364.698	-57.297	0.207	-0.091
-363.683	-200.000	-0.006	0.170
-362.669	-93.696	-0.186	0.052
-361.654	-148.985	0.118	0.010
-360.639	244.499	0.062	-0.105
-359.625	-69.140	0.229	-0.089
-358.610	353.452	-0.028	0.056
-357.596	-71.292	-0.155	0.059
-356.581	-175.778	-0.215	-0.006
-355.566	727.851	-0.094	0.251
-354.552	-10.726	0.337	0.224
-353.537	631.499	-0.162	0.411
-352.523	-74.550	0.141	0.051
-351.508	-78.680	-0.112	0.038
-350.493	275.113	0.143	-0.255
-349.479	-59.491	-0.096	-0.041
-348.464	1.648	-0.239	0.173
-347.450	-200.000	-0.020	0.314
-346.435	-121.332	0.126	-0.021
-345.420	-45.560	0.110	0.054
-344.406	-35.129	0.152	-0.083
-343.391	22.207	0.222	-0.182
-342.377	173.665	-0.112	-0.162
-341.362	-19.081	0.175	-0.109
-340.348	25.250	-0.295	-0.246
-339.333	510.478	0.118	-0.276
-338.318	800.000	-0.064	0.202
-337.304	-64.260	-0.279	0.114
-336.289	90.053	-0.328	0.367
-335.275	-190.363	-0.364	-0.004
-334.260	-57.278	-0.176	0.077
-333.245	413.756	-0.166	0.353
-332.231	-88.779	0.259	0.077
-331.216	389.291	-0.128	-0.266
-330.202	-20.666	0.259	-0.159
-329.187	115.439	0.282	0.346
-328.172	-69.442	-0.203	-0.078
-327.158	-200.000	0.015	-0.123
-326.143	-200.000	-0.002	0.044
-325.129	-21.665	0.143	-0.088
-324.114	-2.769	-0.326	0.228
-323.099	-16.438	0.440	0.279
-322.085	-130.479	-0.354	0.048
-321.070	-70.972	-0.142	-0.054
-320.056	-72.789	-0.299	-0.110
-319.041	-157.200	-0.236	-0.014
-318.026	-154.450	0.117	-0.008
-317.012	-47.573	-0.174	-0.085
-315.997	800.000	0.044	-0.186
-314.983	-200.000	0.000	-0.111
-313.968	33.517	-0.212	0.185
-312.953	-122.966	-0.240	0.039
-311.939	-200.000	0.019	0.000
-310.924	-45.153	0.028	0.014
-309.910	-77.508	-0.240	0.083
-308.895	361.353	-0.088	-0.176
-307.880	800.000	0.037	-0.129
-306.866	82.037	-0.179	0.194
-305.851	-48.105	0.207	0.100
-304.837	-31.995	-0.121	0.068
-303.822	233.876	0.164	0.270
-302.807	-152.996	0.300	-0.021
-301.793	31.115	-0.087	-0.074
-300.778	138.740	0.102	0.134
-299.764	78.030	0.190	0.203
-298.749	730.636	0.052	0.140
-297.735	800.000	-0.106	0.317
-296.720	-81.752	0.134	0.044
-295.705	283.969	-0.052	0.094
-294.691	35.933	0.081	-0.072
-293.676	724.014	-0.020	0.053
-292.662	-200.000	0.006	-0.136
-291.647	35.160	-0.097	0.085
-290.632	16.421	0.008	-0.006
-289.618	251.555	0.036	0.061
-288.603	370.140	-0.089	-0.180
-287.589	66.620	0.239	-0.243
-286.574	-35.843	0.236	0.128
-285.559	-105.769	0.140	0.032
-284.545	198.175	0.163	-0.250
-283.530	-155.658	0.030	0.002
-282.516	-26.263	-0.047	-0.028
-281.501	-81.084	-0.272	0.090
-280.486	185.543	0.017	-0.026
-279.472	1.536	-0.332	-0.239
-278.457	-24.358	-0.093	0.056
-277.443	-110.049	0.222	0.046
-276.428	22.658	0.241	0.198
-275.413	-130.360	0.389	0.053
-274.399	676.745	-0.080	0.208
-273.384	137.697	0.094	-0.123
-272.370	800.000	0.023	-0.073
-271.355	-197.809	-0.246	-0.001
-270.340	800.000	0.066	-0.240
-269.326	-83.276	0.052	-0.017
-268.311	-200.000	0.005	0.234
-267.297	14.848	0.225	-0.176
-266.282	27.866	0.079	0.067
-265.267	-111.728	-0.291	0.059
-264.253	15.941	-0.117	0.092
-263.238	-130.582	0.124	-0.017
-262.224	8.409	0.118	-0.089
-261.209	800.000	-0.023	0.064
-260.195	800.000	0.063	-0.223
-259.180	800.000	0.165	-0.533
-258.165	-106.870	-0.237	-0.053
-257.151	70.585	-0.043	-0.044
-256.136	-200.000	0.017	-0.208
-255.122	800.000	0.119	-0.363
-254.107	-59.285	0.010	0.004
-253.092	655.557	-0.122	-0.312
-252.078	-200.000	-0.010	0.094
-251.063	-117.596	0.181	0.033
-250.049	462.079	0.133	-0.298
-249.034	94.660	-0.127	0.144
-248.019	78.104	0.183	-0.195
-247.005	505.465	-0.068	0.156
-245.990	-194.020	-0.410	-0.003
-244.976	-103.471	-0.123	0.029
-243.961	-200.000	-0.019	0.326
-242.946	-62.053	-0.262	-0.109
-241.932	579.375	-0.063	-0.154
-240.917	-7.015	0.010	0.007
-239.903	-78.309	0.167	0.057
-238.888	-200.000	0.011	-0.081
-237.873	800.000	0.038	0.141
-236.859	97.129	-0.132	0.151
-235.844	-24.318	0.111	-0.066
-234.830	-116.637	0.296	-0.054
-233.815	82.498	0.125	0.136
-232.800	-105.551	0.135	0.031
-231.786	-119.996	-0.176	0.030
-230.771	-200.000	-0.034	0.179
-229.757	-79.565	-0.149	-0.050
-228.742	774.238	-0.069	-0.189
-227.727	-63.191	0.203	0.084
-226.713	-58.813	-0.464	-0.200
-225.698	217.010	0.122	-0.194
-224.684	73.243	-0.056	0.058
-223.669	116.204	0.070	0.086
-222.655	-67.545	0.246	0.096
-221.640	273.614	-0.149	0.262
-220.625	-86.941	0.230	-0.070
-219.611	132.043	0.172	-0.221
-218.596	-16.987	-0.141	-0.089
-217.582	-200.000	0.022	-0.203
-216.567	509.496	-0.119	0.276
-215.552	-200.000	0.026	-0.200
-214.538	-192.251	0.455	-0.004
-213.523	92.589	-0.108	0.122
-212.509	-200.000	-0.002	-0.198
-211.494	-156.920	0.100	0.006
-210.479	-84.319	0.169	-0.053
-209.465	-92.191	0.300	0.084
-208.450	-62.014	0.078	0.032
-207.436	-200.000	0.299	0.001
-206.421	-200.000	0.015	-0.187
-205.406	-200.000	-0.024	0.181
-204.392	308.327	-0.037	0.069
-203.377	800.000	-0.030	-0.088
-202.363	-74.219	-0.345	0.124
-201.348	483.814	0.051	0.115
-200.333	-66.465	-0.096	-0.038
-199.319	-200.000	-0.066	0.330
-198.304	800.000	-0.037	0.134
-197.290	-169.195	-0.330	0.012
-196.275	638.127	0.029	0.074
-195.260	-200.000	0.039	-0.184
-194.246	47.580	-0.109	-0.101
-193.231	800.000	-0.106	-0.356
-192.217	800.000	-0.065	0.195
-191.202	-140.331	0.416	-0.043
-190.187	800.000	0.068	-0.250
-189.173	-200.000	0.027	0.142
-188.158	-22.645	-0.235	-0.142
-187.144	-141.422	-0.026	-0.003
-186.129	274.937	0.068	-0.120
-185.114	-200.000	0.029	0.227
-184.100	-32.193	0.133	0.074
-183.085	565.212	-0.158	-0.383
-182.071	-81.021	-0.233	0.077
-181.056	5.981	0.068	0.050
-180.042	139.802	0.100	0.131
-179.027	-53.850	0.261	0.118
-178.012	-123.740	-0.121	-0.019
-176.998	-78.501	0.372	0.127
-175.983	297.517	-0.192	0.352
-174.969	-200.000	-0.061	0.292
-173.954	-200.000	0.043	0.474
-172.939	-40.971	-0.136	-0.070
-171.925	-134.801	0.295	0.036
-170.910	24.599	-0.247	-0.204
-169.896	-34.811	-0.147	-0.080
-168.881	752.904	0.104	-0.280
-167.866	-200.000	-0.011	0.085
-166.852	-74.227	-0.188	-0.068
-165.837	-200.000	0.366	-0.001
-164.823	-52.871	-0.177	-0.081
-163.808	6.994	-0.088	0.066
-162.793	-30.767	0.100	-0.057
-161.779	69.809	-0.087	0.089
-160.764	-200.000	0.032	0.291
-159.750	-125.882	-0.121	0.018
-158.735	-200.000	0.004	0.025
-157.720	-200.000	-0.019	-0.120
-156.706	-200.000	0.005	0.386
-155.691	90.263	-0.187	0.209
-154.677	800.000	0.015	-0.057
-153.662	90.257	0.083	-0.092
-152.647	-200.000	0.079	0.366
-151.633	168.486	0.084	0.119
-150.618	-5.444	-0.154	-0.106
-149.604	800.000	-0.034	-0.106
-148.589	-79.278	0.126	0.043
-147.574	92.593	-0.173	0.194
-146.560	-110.425	-0.096	0.020
-145.545	-140.916	-0.265	0.027
-144.531	-180.804	-0.360	0.007
-143.516	7.097	0.120	0.089
-142.502	662.484	0.032	0.082
-141.487	800.000	0.080	-0.242
-140.472	205.826	-0.106	0.165
-139.458	185.882	-0.226	-0.334
-138.443	-200.000	-0.072	0.327
-137.429	-137.510	-0.568	-0.064
-136.414	-200.000	0.012	0.206
-135.399	160.401	0.237	0.329
-134.385	86.146	0.219	0.240
-133.370	-200.000	-0.023	0.124
-132.356	398.635	0.124	-0.257
-131.341	-97.730	-0.166	-0.043
-130.326	-200.000	0.007	0.187
-129.312	392.743	-0.147	0.305
-128.297	-145.832	0.081	0.007
-127.283	31.699	-0.149	0.127
-126.268	191.506	0.127	-0.190
-125.253	-67.049	0.185	-0.072
-124.239	-121.537	0.086	0.014
-123.224	-89.744	0.173	0.050
-122.210	-73.720	0.248	0.090
-121.195	-200.000	-0.208	-0.000
