DTS Sentinel unit serial number:	SN413079Multiplexer serial number:	ORYXHardware model number:	OX4-SRSoftware version number:	ORYX F/W v4.00 Oryx Data Collector v3.7.2.0data status	okinstallation	princeton_trtdifferential loss correction	single-endedforward channel	channel 3reverse channel	N/Adate	2019/09/15time	12:20:35forward acquisition time	60.00reverse acquisition time	0.00gamma	496.2192k internal	0.2302k external	0.2302temperature offset calibration	0.9971default loss term (dB/km)	0.3790temperature slope calibration	1.0000multiplexer offset coefficient	1.0000multiplexer slope coefficient	1.0000fibre end	0.00T internal ref (°C)	34.80T ext. ref 1 (°C)	5.05T ext. ref 2 (°C)	32.05length (m)	temperature (°C)	Stokes	anti-Stokes-747.200	1.948	-0.196	0.144
-746.185	322.985	0.087	-0.169
-745.171	124.078	0.007	-0.009
-744.156	130.196	0.132	0.173
-743.142	800.000	-0.075	-0.295
-742.127	-55.136	-0.043	0.020
-741.112	-200.000	-0.001	0.027
-740.098	-37.708	0.347	0.188
-739.083	464.173	-0.094	-0.214
-738.069	132.512	0.259	0.340
-737.054	-19.961	-0.132	0.083
-736.039	800.000	0.091	-0.303
-735.025	-127.331	0.166	0.025
-734.010	62.627	-0.191	-0.194
-732.996	32.503	-0.252	-0.222
-731.981	-92.610	0.441	-0.126
-730.966	-43.652	0.040	0.020
-729.952	99.704	-0.070	0.083
-728.937	-23.000	-0.089	-0.055
-727.923	-33.330	0.128	-0.072
-726.908	-122.056	-0.319	0.053
-725.894	-63.718	-0.173	0.072
-724.879	800.000	0.007	-0.020
-723.864	786.489	0.029	0.081
-722.850	108.381	0.217	0.263
-721.835	174.448	0.138	-0.203
-720.821	-197.737	-0.124	-0.001
-719.806	-110.738	-0.282	-0.059
-718.791	36.895	-0.124	-0.112
-717.777	-16.674	0.322	-0.207
-716.762	489.055	0.165	-0.384
-715.748	-27.377	-0.135	-0.080
-714.733	766.523	-0.013	-0.037
-713.718	52.443	0.019	0.019
-712.704	-25.231	0.118	-0.071
-711.689	800.000	-0.090	0.291
-710.675	100.887	0.124	0.147
-709.660	-29.796	0.273	0.159
-708.645	800.000	-0.073	0.247
-707.631	180.566	0.159	0.237
-706.616	175.156	0.074	-0.109
-705.602	20.735	0.236	0.194
-704.587	42.557	0.020	-0.019
-703.572	115.899	0.220	0.273
-702.558	-200.000	0.081	-0.427
-701.543	1.165	0.070	0.051
-700.529	-102.625	0.227	-0.055
-699.514	-93.354	0.034	-0.009
-698.499	252.593	0.228	0.395
-697.485	-38.963	-0.151	-0.081
-696.470	352.768	0.087	0.175
-695.456	354.525	0.058	-0.117
-694.441	279.356	-0.135	0.246
-693.426	-47.042	0.249	0.124
-692.412	-200.000	-0.004	-0.194
-691.397	159.663	-0.216	-0.305
-690.383	-78.205	-0.088	-0.031
-689.368	-200.000	-0.012	-0.197
-688.354	-200.000	-0.029	0.488
-687.339	34.763	-0.380	-0.338
-686.324	-53.034	-0.188	0.088
-685.310	800.000	0.145	-0.459
-684.295	-71.464	0.086	0.033
-683.281	-43.745	-0.447	-0.229
-682.266	-84.795	0.202	0.065
-681.251	520.682	0.032	-0.076
-680.237	-200.000	0.055	0.364
-679.222	15.289	0.068	-0.054
-678.208	-92.924	-0.292	-0.083
-677.193	156.074	0.115	0.161
-676.178	-4.602	-0.063	-0.045
-675.164	-0.527	-0.163	-0.117
-674.149	49.179	0.219	-0.210
-673.135	140.881	-0.053	-0.072
-672.120	-45.579	-0.211	0.106
-671.105	800.000	0.070	-0.226
-670.091	-42.779	-0.218	0.113
-669.076	-200.000	0.010	0.194
-668.062	214.487	0.108	0.174
-667.047	200.774	0.155	0.242
-666.032	48.443	0.170	0.162
-665.018	32.491	-0.184	0.161
-664.003	-143.539	-0.154	0.015
-662.989	85.523	0.028	-0.032
-661.974	-103.481	-0.219	-0.052
-660.959	800.000	0.016	0.067
-659.945	800.000	0.113	-0.378
-658.930	369.076	0.092	0.190
-657.916	29.272	-0.129	0.112
-656.901	54.207	-0.219	-0.214
-655.886	48.839	0.166	0.158
-654.872	-26.279	0.130	-0.077
-653.857	800.000	-0.120	-0.482
-652.843	125.192	0.103	-0.132
-651.828	1.118	0.245	-0.179
-650.814	72.065	-0.366	-0.387
-649.799	-47.894	0.200	0.098
-648.784	-153.030	0.390	-0.028
-647.770	-64.471	-0.408	-0.168
-646.755	-119.399	0.165	-0.029
-645.741	-114.538	-0.391	-0.076
-644.726	792.849	0.039	-0.108
-643.711	-49.952	-0.404	-0.194
-642.697	-63.619	0.096	-0.040
-641.682	315.818	0.025	-0.049
-640.668	72.744	0.090	0.096
-639.653	66.830	-0.344	-0.356
-638.638	-151.231	-0.023	0.002
-637.624	233.952	0.149	0.250
-636.609	800.000	-0.050	0.222
-635.595	-158.875	-0.174	0.010
-634.580	102.731	0.255	-0.302
-633.565	-0.092	0.069	-0.050
-632.551	15.010	0.181	-0.144
-631.536	800.000	0.130	-0.397
-630.522	-83.338	-0.192	0.062
-629.507	-55.494	-0.281	0.128
-628.492	800.000	-0.029	0.111
-627.478	70.412	0.066	-0.070
-626.463	-200.000	0.005	-0.096
-625.449	-185.310	0.172	-0.003
-624.434	-200.000	-0.021	0.100
-623.419	-200.000	-0.013	0.126
-622.405	443.484	-0.052	-0.116
-621.390	2.762	-0.265	0.195
-620.376	-46.201	-0.201	-0.100
-619.361	-139.225	-0.284	-0.031
-618.346	-8.915	-0.237	0.161
-617.332	-38.819	-0.361	0.193
-616.317	14.081	0.247	0.195
-615.303	-123.782	0.040	-0.006
-614.288	-143.288	0.177	-0.017
-613.273	4.720	-0.577	0.430
-612.259	147.882	0.241	-0.330
-611.244	-171.081	0.406	-0.014
-610.230	70.598	0.119	0.125
-609.215	197.899	0.037	-0.057
-608.201	-147.277	-0.248	-0.021
-607.186	46.127	-0.101	-0.094
-606.171	-63.040	0.219	0.092
-605.157	3.100	0.229	0.169
-604.142	-131.886	-0.358	-0.047
-603.128	-61.281	-0.138	-0.059
-602.113	593.626	-0.050	-0.125
-601.098	164.828	0.212	0.303
-600.084	14.626	0.240	0.190
-599.069	-88.022	0.160	-0.049
-598.055	693.981	-0.136	0.361
-597.040	228.941	-0.120	0.198
-596.025	170.983	0.146	0.212
-595.011	-200.000	-0.001	-0.037
-593.996	-200.000	0.015	0.112
-592.982	-44.801	-0.245	-0.124
-591.967	308.657	0.115	-0.217
-590.952	307.628	0.098	-0.186
-589.938	-200.000	-0.004	0.370
-588.923	72.134	0.188	0.199
-587.909	281.535	-0.106	-0.192
-586.894	98.894	-0.197	-0.231
-585.879	636.374	-0.070	-0.179
-584.865	800.000	-0.056	-0.216
-583.850	-22.869	-0.227	0.139
-582.836	43.245	0.125	0.116
-581.821	800.000	0.045	-0.138
-580.806	135.955	0.194	0.256
-579.792	800.000	-0.124	-0.508
-578.777	345.050	-0.006	0.013
-577.763	-200.000	-0.044	0.352
-576.748	137.239	-0.098	-0.129
-575.733	-52.874	0.206	0.096
-574.719	800.000	-0.089	-0.293
-573.704	60.267	-0.171	0.171
-572.690	19.091	0.245	-0.199
-571.675	-200.000	0.035	-0.199
-570.661	-200.000	0.083	-0.410
-569.646	-109.810	0.104	-0.022
-568.631	474.417	-0.048	-0.110
-567.617	-50.495	-0.348	-0.166
-566.602	-66.386	-0.123	0.050
-565.588	-5.449	0.165	0.114
-564.573	-79.749	-0.150	0.051
-563.558	-200.000	-0.077	-0.406
-562.544	260.837	0.043	0.076
-561.529	-200.000	-0.088	-0.525
-560.515	154.884	0.155	-0.216
-559.500	264.564	0.167	-0.295
-558.485	-55.394	-0.271	0.123
-557.471	-111.730	0.140	0.029
-556.456	-141.807	0.360	-0.037
-555.442	600.233	0.111	-0.278
-554.427	96.866	-0.067	-0.078
-553.412	163.487	-0.111	-0.158
-552.398	86.595	0.074	0.082
-551.383	-69.420	-0.281	-0.109
-550.369	800.000	-0.030	-0.085
-549.354	-56.111	0.203	0.092
-548.339	-23.729	-0.233	0.141
-547.325	-54.591	-0.358	-0.164
-546.310	180.339	0.207	-0.307
-545.296	-143.121	0.154	0.015
-544.281	105.065	-0.126	0.150
-543.266	154.625	-0.091	0.127
-542.252	-21.362	-0.222	0.137
-541.237	-200.000	-0.029	0.379
-540.223	314.599	-0.088	0.167
-539.208	800.000	0.016	0.054
-538.193	38.176	-0.173	-0.155
-537.179	-102.488	-0.381	-0.092
-536.164	-31.408	0.154	0.087
-535.150	-72.373	-0.076	0.028
-534.135	800.000	-0.036	-0.128
-533.121	800.000	-0.069	-0.266
-532.106	15.327	0.141	-0.112
-531.091	-200.000	-0.033	-0.260
-530.077	140.060	0.143	0.191
-529.062	-14.484	0.279	-0.182
-528.048	218.514	-0.122	0.197
-527.033	326.926	0.151	0.293
-526.018	-179.168	-0.133	-0.003
-525.004	-51.967	0.107	0.050
-523.989	174.743	-0.085	0.124
-522.975	800.000	0.045	-0.141
-521.960	30.658	0.161	-0.139
-520.945	-200.000	0.043	0.240
-519.931	250.505	0.241	-0.413
-518.916	-159.647	-0.337	0.019
-517.902	14.830	-0.169	-0.133
-516.887	649.252	0.092	-0.238
-515.872	677.515	0.009	0.023
-514.858	-200.000	-0.023	-0.219
-513.843	-200.000	0.006	-0.297
-512.829	34.398	0.203	-0.179
-511.814	-200.000	0.015	-0.221
-510.799	-200.000	0.020	-0.132
-509.785	144.847	0.051	0.068
-508.770	320.001	-0.112	-0.214
-507.756	-200.000	0.061	0.460
-506.741	800.000	0.021	-0.066
-505.726	616.880	-0.058	0.148
-504.712	800.000	-0.063	0.212
-503.697	11.761	0.244	0.189
-502.683	243.161	-0.198	0.335
-501.668	306.020	-0.071	-0.133
-500.653	-200.000	-0.020	-0.183
-499.639	21.699	0.132	-0.108
-498.624	745.142	0.069	-0.187
-497.610	9.278	-0.264	0.201
-496.595	-72.278	0.443	-0.166
-495.581	417.505	-0.032	0.069
-494.566	800.000	-0.015	0.046
-493.551	468.962	-0.075	0.170
-492.537	-200.000	0.054	0.414
-491.522	-56.663	0.090	0.040
-490.508	800.000	-0.164	0.477
-489.493	-78.476	-0.221	-0.076
-488.478	-67.003	-0.113	-0.045
-487.464	186.769	0.009	-0.013
-486.449	308.122	0.009	-0.018
-485.435	-97.478	-0.275	-0.072
-484.420	650.152	0.084	-0.216
-483.405	-200.000	-0.027	0.223
-482.391	800.000	0.025	-0.075
-481.376	-200.000	-0.006	0.049
-480.362	11.057	-0.170	-0.131
-479.347	-160.022	-0.189	-0.010
-478.332	-86.649	0.196	0.061
-477.318	-53.781	0.349	-0.160
-476.303	-84.240	-0.385	0.123
-475.289	-81.106	0.031	0.011
-474.274	-131.889	0.281	0.037
-473.259	-97.569	-0.129	-0.034
-472.245	-17.174	-0.284	0.180
-471.230	-200.000	-0.006	0.177
-470.216	150.222	-0.117	-0.160
-469.201	-39.259	0.287	-0.152
-468.186	190.874	0.081	-0.122
-467.172	-200.000	-0.011	0.167
-466.157	160.542	0.119	-0.167
-465.143	102.349	0.093	-0.110
-464.128	-61.044	0.245	0.104
-463.113	29.147	-0.095	0.082
-462.099	-183.229	-0.159	0.003
-461.084	602.919	0.096	-0.240
-460.070	198.792	0.171	-0.264
-459.055	800.000	-0.076	-0.285
-458.040	143.681	-0.118	-0.159
-457.026	800.000	0.132	-0.425
-456.011	-163.819	-0.311	-0.015
-454.997	524.920	0.028	0.066
-453.982	-200.000	0.048	-0.288
-452.968	212.616	-0.059	-0.094
-451.953	15.355	0.161	-0.128
-450.938	-200.000	0.015	0.369
-449.924	-200.000	-0.016	-0.187
-448.909	9.921	0.158	0.121
-447.895	386.893	0.079	0.165
-446.880	-200.000	-0.006	0.054
-445.865	202.281	-0.097	-0.151
-444.851	-196.504	0.279	0.002
-443.836	106.526	-0.090	0.107
-442.822	-129.603	0.032	0.004
-441.807	-71.605	0.174	0.066
-440.792	-42.680	0.089	-0.046
-439.778	-32.828	-0.178	-0.100
-438.763	-165.865	0.267	0.012
-437.749	-98.901	-0.100	-0.026
-436.734	-6.911	-0.101	0.069
-435.719	-200.000	-0.019	-0.264
-434.705	380.064	-0.097	-0.200
-433.690	-85.891	-0.243	0.076
-432.676	-67.581	-0.360	0.142
-431.661	34.283	0.126	0.111
-430.646	96.968	0.069	0.079
-429.632	124.185	0.207	-0.262
-428.617	-122.562	0.127	0.021
-427.603	196.754	-0.102	0.157
-426.588	33.773	0.059	0.052
-425.573	-82.692	-0.147	-0.048
-424.559	406.746	0.100	0.214
-423.544	-79.646	-0.030	-0.010
-422.530	-11.721	-0.492	0.325
-421.515	-12.698	-0.139	-0.091
-420.500	172.525	-0.218	-0.315
-419.486	-111.995	0.214	0.043
-418.471	-87.525	0.177	0.054
-417.457	-72.494	-0.479	0.178
-416.442	-200.000	0.032	-0.189
-415.428	53.727	0.169	0.164
-414.413	-53.135	-0.176	0.082
-413.398	-121.362	0.179	0.030
-412.384	-200.000	0.017	-0.109
-411.369	-106.367	-0.184	0.041
-410.355	-125.586	0.439	-0.067
-409.340	31.267	-0.058	0.050
-408.325	-125.589	-0.224	-0.034
-407.311	57.348	0.146	0.143
-406.296	800.000	-0.037	-0.124
-405.282	62.137	-0.126	0.127
-404.267	232.583	0.159	-0.262
-403.252	-74.895	0.534	0.193
-402.238	-136.475	0.175	0.020
-401.223	13.229	0.166	-0.129
-400.209	-44.673	-0.034	0.017
-399.194	13.794	0.111	0.087
-398.179	-200.000	0.018	0.197
-397.165	-200.000	-0.003	0.265
-396.150	-0.254	0.277	0.198
-395.136	109.404	0.077	-0.093
-394.121	-29.926	-0.144	-0.082
-393.106	-37.977	0.153	-0.082
-392.092	-123.846	0.063	-0.010
-391.077	33.949	-0.116	-0.101
-390.063	800.000	-0.057	0.243
-389.048	800.000	-0.017	-0.051
-388.033	-52.318	0.223	0.104
-387.019	-200.000	-0.032	0.284
-386.004	-200.000	-0.001	0.033
-384.990	-200.000	0.010	0.184
-383.975	-127.004	0.365	0.054
-382.960	81.860	-0.198	0.215
-381.946	-20.794	0.224	-0.138
-380.931	455.831	-0.162	-0.360
-379.917	-37.247	0.305	-0.164
-378.902	-24.588	-0.172	0.103
-377.888	540.518	-0.143	0.342
-376.873	-116.513	-0.349	0.065
-375.858	68.152	-0.210	-0.216
-374.844	-86.783	-0.306	0.094
-373.829	436.599	0.072	-0.156
-372.815	57.754	-0.112	0.110
-371.800	87.497	0.193	0.215
-370.785	53.787	0.024	0.023
-369.771	68.744	0.324	0.334
-368.756	-71.836	0.245	-0.092
-367.742	-21.984	-0.172	0.105
-366.727	-78.740	-0.208	-0.071
-365.712	103.097	0.173	-0.203
-364.698	-200.000	-0.012	-0.181
-363.683	172.246	0.123	-0.177
-362.669	-200.000	-0.022	-0.097
-361.654	683.742	-0.064	0.167
-360.639	-200.000	-0.008	0.052
-359.625	-77.201	0.329	0.115
-358.610	-163.247	-0.058	-0.003
-357.596	-92.208	-0.220	0.062
-356.581	415.767	0.103	0.221
-355.566	199.602	0.094	-0.145
-354.552	141.611	0.115	0.153
-353.537	800.000	-0.060	-0.240
-352.523	-56.311	-0.058	-0.026
-351.508	401.219	0.148	0.313
-350.493	-113.997	-0.090	-0.017
-349.479	-200.000	0.038	-0.365
-348.464	-110.628	0.409	0.085
-347.450	185.560	0.249	-0.372
-346.435	109.350	0.169	0.204
-345.420	41.611	-0.310	-0.281
-344.406	-18.482	-0.031	-0.020
-343.391	621.749	-0.089	-0.224
-342.377	-200.000	-0.052	-0.238
-341.362	-76.156	0.308	-0.109
-340.348	-19.351	-0.294	-0.183
-339.333	-52.682	-0.384	0.178
-338.318	800.000	-0.095	0.271
-337.304	-31.138	-0.397	0.224
-336.289	166.696	0.144	0.205
-335.275	-200.000	-0.024	-0.105
-334.260	-14.214	0.157	-0.101
-333.245	-101.751	-0.169	-0.041
-332.231	-22.155	0.079	-0.048
-331.216	-200.000	-0.023	0.279
-330.202	800.000	0.033	0.118
-329.187	-1.290	0.314	-0.222
-328.172	153.509	0.040	0.055
-327.158	-200.000	0.053	-0.286
-326.143	-145.279	0.198	0.018
-325.129	800.000	-0.051	0.174
-324.114	-110.283	0.443	0.093
-323.099	-120.929	-0.103	0.017
-322.085	-200.000	0.012	0.054
-321.070	116.219	-0.112	0.137
-320.056	-200.000	-0.006	-0.219
-319.041	-166.988	-0.310	0.013
-318.026	37.623	0.314	0.279
-317.012	669.468	-0.109	-0.281
-315.997	301.340	-0.116	0.215
-314.983	-6.474	0.141	0.096
-313.968	155.587	-0.090	0.124
-312.953	800.000	0.046	-0.175
-311.939	-28.072	-0.421	0.244
-310.924	-15.187	-0.295	0.189
-309.910	-11.690	-0.125	-0.082
-308.895	213.759	-0.093	0.147
-307.880	229.770	0.280	0.459
-306.866	-122.559	-0.048	-0.008
-305.851	-95.790	-0.274	0.073
-304.837	182.979	-0.079	0.117
-303.822	-200.000	0.032	0.365
-302.807	102.010	-0.093	-0.109
-301.793	-8.447	-0.388	0.261
-300.778	208.084	-0.086	0.135
-299.764	-4.629	-0.264	-0.182
-298.749	800.000	0.025	0.089
-297.735	-200.000	-0.001	0.193
-296.720	155.511	-0.219	-0.301
-295.705	492.029	0.072	-0.166
-294.691	-200.000	-0.033	-0.185
-293.676	-200.000	-0.055	-0.246
-292.662	-100.840	0.437	0.108
-291.647	-50.336	-0.291	0.138
-290.632	99.046	0.065	0.075
-289.618	-122.727	0.179	-0.029
-288.603	-21.239	-0.244	0.150
-287.589	800.000	0.032	-0.122
-286.574	-180.900	0.185	-0.004
-285.559	51.448	-0.016	0.015
-284.545	-65.578	-0.103	0.041
-283.530	-73.922	0.149	0.054
-282.516	51.859	-0.152	-0.145
-281.501	-76.037	-0.166	-0.059
-280.486	-200.000	0.009	0.187
-279.472	-107.637	-0.275	-0.060
-278.457	-81.536	-0.153	-0.050
-277.443	-200.000	0.024	-0.290
-276.428	-200.000	0.010	0.226
-275.413	374.770	0.091	0.185
-274.399	-197.945	0.318	0.002
-273.384	200.662	0.303	0.466
-272.370	40.922	-0.385	-0.347
-271.355	-48.292	0.257	-0.124
-270.340	-138.583	0.287	-0.031
-269.326	-111.577	0.085	0.017
-268.311	-119.620	-0.226	-0.039
-267.297	-200.000	-0.024	0.150
-266.282	70.330	-0.067	0.069
-265.267	156.822	0.067	-0.092
-264.253	-104.569	-0.069	0.016
-263.238	-126.283	0.085	0.013
-262.224	-169.823	-0.329	0.012
-261.209	-138.792	0.097	-0.011
-260.195	-200.000	-0.023	0.136
-259.180	-83.399	-0.268	0.086
-258.165	213.085	0.171	-0.270
-257.151	-66.724	-0.245	0.097
-256.136	800.000	0.068	0.223
-255.122	-90.020	-0.279	0.081
-254.107	-145.245	-0.357	0.032
-253.092	4.153	0.094	-0.069
-252.078	-84.085	0.190	0.060
-251.063	33.971	-0.140	-0.122
-250.049	-142.568	0.251	0.025
-249.034	-97.625	0.277	-0.072
-248.019	-200.000	-0.000	-0.098
-247.005	-200.000	-0.004	0.051
-245.990	150.104	-0.187	-0.253
-244.976	-15.474	0.228	0.145
-243.961	35.582	0.169	-0.148
-242.946	-93.842	-0.121	0.033
-241.932	-200.000	-0.048	-0.326
-240.917	25.210	-0.214	0.178
-239.903	34.331	-0.215	0.188
-238.888	-82.083	-0.050	-0.016
-237.873	-25.872	0.153	0.090
-236.859	-103.810	0.364	-0.085
-235.844	-194.357	0.328	0.003
-234.830	-200.000	0.008	-0.166
-233.815	-34.069	-0.111	-0.061
-232.800	-32.273	0.114	-0.064
-231.786	-56.981	0.150	0.066
-230.771	143.054	0.145	0.192
-229.757	-200.000	0.012	-0.150
-228.742	-3.417	0.280	-0.195
-227.727	12.917	0.153	0.118
-226.713	-80.057	-0.201	0.067
-225.698	-46.165	0.273	0.134
-224.684	228.381	-0.109	0.177
-223.669	-98.204	0.391	-0.100
-222.655	-200.000	0.050	0.220
-221.640	51.211	-0.044	-0.042
-220.625	-45.832	-0.176	0.087
-219.611	-96.819	0.329	-0.086
-218.596	800.000	-0.049	-0.199
-217.582	-200.000	-0.007	0.104
-216.567	565.807	-0.019	0.046
-215.552	-200.000	0.010	0.062
-214.538	80.310	0.162	-0.174
-213.523	-113.074	0.187	-0.037
-212.509	800.000	0.071	-0.243
-211.494	-121.115	-0.264	0.044
-210.479	-87.724	0.223	-0.067
-209.465	221.346	-0.097	0.156
-208.450	138.033	-0.063	-0.083
-207.436	378.886	-0.160	0.327
-206.421	800.000	0.086	-0.335
-205.406	-77.521	-0.147	-0.051
-204.392	-13.007	0.243	0.158
-203.377	-129.641	0.267	0.037
-202.363	800.000	-0.042	0.186
-201.348	-44.636	0.270	0.134
-200.333	-92.791	-0.226	0.063
-199.319	254.764	0.155	-0.265
-198.304	-36.070	0.090	-0.048
-197.290	-106.510	0.206	0.046
-196.275	-200.000	-0.006	-0.026
-195.260	292.202	0.218	-0.396
-194.246	-200.000	0.027	0.203
-193.231	-200.000	-0.012	0.347
-192.217	800.000	0.048	0.191
-191.202	800.000	0.050	0.190
-190.187	-70.858	-0.119	0.045
-189.173	-200.000	0.014	0.492
-188.158	7.041	-0.344	0.256
-187.144	170.220	0.167	0.238
-186.129	-33.479	-0.136	-0.075
-185.114	-127.507	-0.100	0.015
-184.100	-200.000	-0.002	0.050
-183.085	-200.000	-0.016	0.078
-182.071	340.689	-0.035	-0.068
-181.056	-126.731	0.324	0.048
-180.042	-200.000	0.031	-0.350
-179.027	-137.996	0.209	0.023
-178.012	800.000	-0.120	-0.449
-176.998	26.377	-0.135	0.113
-175.983	129.899	-0.105	-0.135
-174.969	-200.000	0.029	0.166
-173.954	261.684	-0.056	-0.097
-172.939	-122.990	-0.295	-0.047
-171.925	-200.000	0.010	0.144
-170.910	675.915	-0.060	-0.156
-169.896	-114.915	0.113	-0.021
-168.881	212.629	0.031	0.050
-167.866	-158.122	0.046	-0.003
-166.852	800.000	-0.099	0.362
-165.837	-200.000	0.012	0.169
-164.823	-152.203	0.046	-0.003
-163.808	800.000	-0.154	-0.525
-162.793	15.030	-0.223	-0.174
-161.779	145.799	0.218	0.291
-160.764	800.000	0.086	-0.265
-159.750	25.425	0.071	0.059
-158.735	300.807	-0.055	0.101
-157.720	-109.236	0.328	0.069
-156.706	-200.000	0.006	0.129
-155.691	115.057	0.070	-0.085
-154.677	-63.466	-0.160	-0.065
-153.662	-200.000	-0.040	0.209
-152.647	724.708	-0.053	-0.142
-151.633	277.019	0.090	-0.159
-150.618	-98.656	0.367	-0.093
-149.604	39.429	0.156	0.139
-148.589	800.000	0.019	0.072
-147.574	-167.852	-0.151	0.006
-146.560	96.711	0.097	0.110
-145.545	-161.891	-0.276	-0.014
-144.531	-200.000	-0.036	0.203
-143.516	-35.906	-0.180	0.097
-142.502	-27.000	0.225	0.130
-141.487	43.255	0.197	-0.179
-140.472	-19.697	0.313	-0.193
-139.458	800.000	0.125	-0.400
-138.443	86.147	-0.183	0.200
-137.429	-200.000	0.017	-0.109
-136.414	66.381	-0.107	0.109
-135.399	-66.629	0.181	-0.071
-134.385	-200.000	0.015	0.097
-133.370	-74.790	0.371	-0.133
-132.356	160.764	-0.058	0.080
-131.341	4.014	0.138	0.101
-130.326	50.041	0.226	-0.213
-129.312	302.333	0.087	-0.160
-128.297	166.354	0.138	0.195
-127.283	-107.748	-0.414	-0.090
-126.268	-111.300	-0.200	0.041
-125.253	-23.465	0.150	0.090
-124.239	-63.991	0.514	-0.209
-123.224	800.000	0.086	-0.373
-122.210	-92.975	0.196	0.054
-121.195	23.304	0.277	0.226
-120.180	-200.000	-0.009	-0.067
