DTS Sentinel unit serial number:	SN413079Multiplexer serial number:	ORYXHardware model number:	OX4-SRSoftware version number:	ORYX F/W v4.00 Oryx Data Collector v3.7.2.0data status	okinstallation	princeton_trtdifferential loss correction	single-endedforward channel	channel 3reverse channel	N/Adate	2019/09/10time	19:06:11forward acquisition time	60.00reverse acquisition time	0.00gamma	496.2192k internal	0.2315k external	0.2315temperature offset calibration	0.9913default loss term (dB/km)	0.3790temperature slope calibration	1.0000multiplexer offset coefficient	1.0000multiplexer slope coefficient	1.0000fibre end	0.00T internal ref (°C)	34.33T ext. ref 1 (°C)	-0.34T ext. ref 2 (°C)	26.66length (m)	temperature (°C)	Stokes	anti-Stokes-747.200	800.000	0.042	0.169
-746.185	-185.877	-0.269	-0.004
-745.171	-167.186	0.121	0.005
-744.156	167.945	-0.168	-0.243
-743.142	-113.675	0.237	-0.047
-742.127	-157.705	-0.242	-0.015
-741.112	691.538	0.005	-0.013
-740.098	401.064	0.122	0.261
-739.083	250.196	-0.141	-0.243
-738.069	136.173	-0.033	-0.043
-737.054	31.902	-0.105	-0.091
-736.039	-88.244	0.236	0.072
-735.025	-166.014	0.157	0.007
-734.010	-176.847	-0.310	0.008
-732.996	65.011	-0.167	-0.171
-731.981	36.739	-0.160	0.143
-730.966	-175.415	0.250	0.007
-729.952	-132.015	-0.469	0.062
-728.937	24.347	0.131	-0.109
-727.923	225.729	-0.203	-0.333
-726.908	-200.000	-0.050	0.253
-725.894	-73.335	-0.174	0.064
-724.879	80.189	-0.140	0.152
-723.864	-49.021	0.187	0.090
-722.850	-141.724	0.085	-0.009
-721.835	-35.468	0.269	-0.148
-720.821	18.548	-0.152	0.123
-719.806	800.000	-0.019	-0.077
-718.791	-200.000	0.012	0.132
-717.777	-200.000	0.005	-0.372
-716.762	800.000	0.042	-0.151
-715.748	442.619	0.133	-0.294
-714.733	188.033	-0.042	-0.064
-713.718	-82.760	-0.105	0.034
-712.704	9.314	-0.071	0.055
-711.689	-94.111	0.124	0.035
-710.675	235.587	0.179	0.300
-709.660	123.063	0.123	-0.156
-708.645	-200.000	-0.049	-0.337
-707.631	-23.625	-0.155	0.094
-706.616	-125.139	-0.231	0.036
-705.602	141.822	-0.112	-0.150
-704.587	96.753	-0.163	0.189
-703.572	55.074	0.107	-0.105
-702.558	-200.000	-0.029	-0.187
-701.543	-54.485	-0.221	0.101
-700.529	72.853	0.346	0.366
-699.514	-30.805	-0.136	-0.078
-698.499	2.102	0.163	-0.119
-697.485	52.613	-0.339	0.328
-696.470	-200.000	-0.040	-0.279
-695.456	25.824	0.148	-0.125
-694.441	675.036	-0.134	-0.353
-693.426	800.000	-0.040	-0.168
-692.412	-200.000	-0.013	0.112
-691.397	440.694	0.105	0.232
-690.383	-58.854	-0.038	0.017
-689.368	-46.053	-0.179	-0.089
-688.354	-93.590	0.384	-0.107
-687.339	-96.735	0.099	-0.026
-686.324	47.922	0.051	0.048
-685.310	-90.079	-0.086	0.025
-684.295	-108.465	-0.128	-0.028
-683.281	-39.620	-0.285	-0.151
-682.266	48.913	-0.227	-0.215
-681.251	41.030	0.254	-0.232
-680.237	-200.000	0.055	-0.313
-679.222	800.000	0.049	0.147
-678.208	22.414	0.100	-0.082
-677.193	85.143	0.072	-0.080
-676.178	-200.000	0.009	-0.193
-675.164	-151.136	0.421	-0.032
-674.149	-200.000	-0.013	-0.179
-673.135	88.896	-0.152	0.171
-672.120	9.404	-0.120	0.092
-671.105	-200.000	-0.012	0.447
-670.091	-200.000	-0.009	-0.072
-669.076	424.249	-0.067	-0.145
-668.062	67.984	0.090	-0.093
-667.047	-45.120	-0.114	0.057
-666.032	162.548	-0.114	-0.162
-665.018	-101.583	0.082	-0.020
-664.003	-49.829	0.237	0.114
-662.989	-84.311	-0.474	0.151
-661.974	800.000	0.013	-0.045
-660.959	-200.000	0.048	-0.570
-659.945	-101.155	-0.090	-0.022
-658.930	-160.117	-0.028	-0.002
-657.916	-84.435	0.335	0.107
-656.901	-37.067	-0.413	0.223
-655.886	-160.407	-0.335	0.018
-654.872	-21.194	0.323	0.199
-653.857	-53.238	0.225	-0.104
-652.843	386.100	0.173	-0.360
-651.828	800.000	0.088	0.265
-650.814	-200.000	-0.029	-0.147
-649.799	174.527	-0.121	0.176
-648.784	800.000	-0.056	0.170
-647.770	-200.000	-0.014	-0.273
-646.755	-174.432	-0.152	0.004
-645.741	268.104	-0.052	0.092
-644.726	33.520	-0.149	-0.130
-643.711	800.000	0.158	-0.448
-642.697	-64.947	-0.102	-0.042
-641.682	-166.582	-0.093	-0.004
-640.668	277.447	0.053	-0.095
-639.653	-132.644	-0.173	0.022
-638.638	68.092	-0.107	-0.110
-637.624	284.516	0.171	-0.312
-636.609	-72.236	0.285	-0.106
-635.595	58.971	-0.156	-0.155
-634.580	-39.462	0.071	0.038
-633.565	151.523	-0.043	0.060
-632.551	-86.012	-0.290	0.090
-631.536	109.130	0.310	-0.374
-630.522	-31.631	-0.278	-0.157
-629.507	49.606	0.155	0.148
-628.492	201.686	-0.157	0.244
-627.478	177.005	0.129	-0.190
-626.463	800.000	0.096	0.343
-625.449	-76.598	-0.160	0.056
-624.434	371.419	-0.067	-0.137
-623.419	-143.785	0.175	-0.017
-622.405	800.000	-0.067	0.205
-621.390	-200.000	-0.059	0.522
-620.376	-200.000	0.014	0.338
-619.361	-155.182	-0.369	0.024
-618.346	-167.172	0.064	0.003
-617.332	283.412	0.111	-0.200
-616.317	-134.396	-0.119	-0.015
-615.303	41.222	0.180	0.164
-614.288	-134.903	-0.086	-0.010
-613.273	124.879	0.288	-0.366
-612.259	-68.841	0.134	0.052
-611.244	-150.403	-0.150	0.012
-610.230	-60.668	0.136	0.058
-609.215	654.073	-0.116	0.299
-608.201	-96.827	-0.490	-0.130
-607.186	-200.000	-0.027	0.183
-606.171	98.201	-0.172	0.199
-605.157	-200.000	0.006	0.321
-604.142	391.880	-0.099	-0.208
-603.128	327.432	-0.104	-0.202
-602.113	385.209	0.105	-0.218
-601.098	118.808	0.080	-0.099
-600.084	-17.934	-0.188	0.119
-599.069	4.818	0.060	0.044
-598.055	-142.036	0.100	-0.010
-597.040	15.614	0.052	-0.041
-596.025	-15.165	-0.080	-0.052
-595.011	24.174	0.270	-0.224
-593.996	53.097	-0.125	0.121
-592.982	-26.248	0.293	-0.173
-591.967	225.619	-0.191	-0.312
-590.952	-125.154	-0.217	0.033
-589.938	-55.160	0.106	0.048
-588.923	207.656	-0.113	-0.177
-587.909	-152.179	0.151	-0.011
-586.894	-27.092	0.084	-0.049
-585.879	169.578	0.075	-0.107
-584.865	-200.000	0.005	0.051
-583.850	721.102	-0.045	0.121
-582.836	-69.981	0.255	-0.098
-581.821	-49.718	-0.122	-0.059
-580.806	442.490	0.040	0.088
-579.792	78.805	-0.197	-0.212
-578.777	95.631	0.092	-0.106
-577.763	52.562	0.204	0.196
-576.748	-172.648	-0.284	0.009
-575.733	131.083	-0.163	0.211
-574.719	-28.372	0.207	-0.120
-573.704	-40.747	-0.207	-0.108
-572.690	-105.509	-0.375	-0.086
-571.675	-200.000	0.010	-0.197
-570.661	-200.000	-0.025	0.146
-569.646	800.000	0.078	-0.231
-568.631	389.293	0.059	0.124
-567.617	-200.000	-0.056	0.305
-566.602	231.481	0.116	-0.191
-565.588	-147.332	-0.169	-0.014
-564.573	-132.365	-0.249	0.032
-563.558	-74.069	-0.313	0.114
-562.544	180.365	-0.384	0.567
-561.529	-35.470	-0.344	0.188
-560.515	235.645	0.048	0.080
-559.500	-92.337	-0.416	-0.118
-558.485	181.409	-0.042	0.062
-557.471	-173.041	0.290	0.009
-556.456	-200.000	0.003	0.071
-555.442	156.443	0.106	-0.147
-554.427	289.982	-0.157	-0.287
-553.412	-200.000	0.012	-0.104
-552.398	16.995	0.122	-0.097
-551.383	-200.000	-0.021	-0.139
-550.369	-166.152	-0.436	-0.019
-549.354	-88.059	-0.227	0.069
-548.339	210.481	0.138	0.218
-547.325	800.000	-0.095	0.277
-546.310	93.108	0.130	-0.147
-545.296	-74.446	-0.318	-0.115
-544.281	63.787	-0.203	-0.205
-543.266	-122.097	0.222	-0.037
-542.252	-6.248	-0.089	0.061
-541.237	163.514	0.083	-0.118
-540.223	-147.282	0.228	-0.019
-539.208	44.360	0.264	-0.244
-538.193	-6.553	-0.225	-0.154
-537.179	-200.000	-0.016	-0.259
-536.164	127.845	-0.135	-0.172
-535.150	-7.393	-0.147	-0.100
-534.135	250.758	-0.060	0.103
-533.121	-200.000	0.005	-0.310
-532.106	-22.756	0.167	-0.101
-531.091	-200.000	-0.008	-0.105
-530.077	332.567	0.043	-0.084
-529.062	-65.203	-0.125	0.051
-528.048	128.055	-0.004	-0.006
-527.033	-200.000	0.017	0.130
-526.018	-200.000	-0.050	0.239
-525.004	-128.613	0.265	0.038
-523.989	800.000	0.093	-0.372
-522.975	57.818	0.260	0.256
-521.960	108.657	0.230	0.277
-520.945	722.740	0.077	0.206
-519.931	98.521	0.164	-0.190
-518.916	91.753	0.133	0.150
-517.902	57.624	-0.211	0.207
-516.887	53.577	0.204	0.197
-515.872	191.083	-0.050	0.075
-514.858	-99.737	-0.289	0.073
-513.843	-200.000	0.036	0.436
-512.829	-169.497	0.200	-0.007
-511.814	-173.050	0.080	0.002
-510.799	402.439	0.105	-0.221
-509.785	-67.756	-0.155	0.061
-508.770	-200.000	-0.047	-0.223
-507.756	800.000	-0.091	0.262
-506.741	75.402	0.092	-0.097
-505.726	800.000	0.032	0.105
-504.712	245.135	-0.119	-0.200
-503.697	140.315	-0.098	-0.130
-502.683	-113.975	-0.183	0.036
-501.668	-78.233	0.364	-0.126
-500.653	247.659	-0.271	0.460
-499.639	-28.862	0.017	0.010
-498.624	282.830	0.015	-0.028
-497.610	-39.808	0.346	-0.181
-496.595	317.200	0.036	-0.067
-495.581	-103.270	-0.190	-0.045
-494.566	-132.633	0.283	-0.036
-493.551	303.399	0.107	-0.199
-492.537	-35.832	-0.268	0.146
-491.522	221.013	0.121	-0.195
-490.508	48.800	0.118	0.112
-489.493	800.000	0.052	-0.161
-488.478	-129.418	-0.299	0.042
-487.464	197.556	0.169	0.259
-486.449	-108.776	-0.134	0.029
-485.435	-36.610	0.185	0.100
-484.420	-111.184	0.296	-0.061
-483.405	-200.000	0.035	0.157
-482.391	-200.000	0.033	0.154
-481.376	800.000	0.038	0.113
-480.362	800.000	-0.033	0.105
-479.347	18.133	-0.211	0.169
-478.332	157.753	-0.085	-0.117
-477.318	-200.000	0.041	0.237
-476.303	64.656	-0.075	-0.076
-475.289	-200.000	-0.020	0.102
-474.274	-156.898	0.334	-0.021
-473.259	75.333	0.114	-0.121
-472.245	209.619	0.031	0.049
-471.230	-121.323	-0.407	-0.068
-470.216	47.784	-0.053	0.050
-469.201	-200.000	-0.008	-0.080
-468.186	-164.182	-0.236	0.011
-467.172	-43.069	0.085	0.043
-466.157	-78.078	0.162	-0.056
-465.143	262.279	0.142	-0.246
-464.128	366.335	-0.038	0.076
-463.113	732.880	-0.023	0.061
-462.099	-200.000	0.102	-0.457
-461.084	800.000	0.105	-0.442
-460.070	-84.436	-0.109	0.035
-459.055	238.028	-0.114	0.189
-458.040	387.536	0.024	0.050
-457.026	430.849	0.130	0.282
-456.011	112.705	0.077	-0.094
-454.997	785.809	-0.021	-0.057
-453.982	-176.747	0.409	-0.010
-452.968	60.552	0.062	0.061
-451.953	-5.929	-0.244	-0.167
-450.938	145.987	-0.057	0.077
-449.924	44.211	0.205	0.189
-448.909	0.513	-0.170	0.121
-447.895	-117.509	-0.199	-0.036
-446.880	800.000	0.069	-0.190
-445.865	-130.062	0.014	0.002
-444.851	-92.847	0.189	0.053
-443.836	746.082	0.163	0.438
-442.822	-200.000	-0.212	-0.001
-441.807	39.879	0.105	-0.094
-440.792	-2.019	-0.186	-0.131
-439.778	-48.205	-0.166	0.080
-438.763	-31.933	0.150	-0.084
-437.749	-114.134	-0.273	0.053
-436.734	-27.032	0.108	0.063
-435.719	-200.000	-0.056	0.273
-434.705	-200.000	0.061	-0.318
-433.690	-98.693	0.050	-0.013
-432.676	-73.276	-0.166	-0.061
-431.661	-36.359	-0.088	-0.048
-430.646	-69.186	0.134	0.052
-429.632	800.000	0.087	-0.379
-428.617	72.854	0.045	0.047
-427.603	38.269	-0.286	-0.255
-426.588	-21.721	0.180	-0.110
-425.573	75.370	-0.074	0.078
-424.559	25.535	0.087	0.073
-423.544	-200.000	-0.013	-0.103
-422.530	800.000	-0.025	0.079
-421.515	210.799	0.105	0.165
-420.500	800.000	0.061	-0.225
-419.486	22.170	0.143	0.116
-418.471	800.000	-0.076	0.287
-417.457	800.000	0.078	-0.216
-416.442	-107.841	0.269	0.059
-415.428	-200.000	0.002	-0.088
-414.413	319.485	-0.055	-0.105
-413.398	184.291	0.055	-0.081
-412.384	254.281	-0.197	-0.336
-411.369	75.686	0.169	-0.179
-410.355	-200.000	-0.003	0.274
-409.340	21.449	0.219	-0.178
-408.325	800.000	0.125	-0.383
-407.311	50.292	-0.110	0.104
-406.296	-169.348	0.180	0.007
-405.282	-179.167	-0.142	-0.003
-404.267	-138.590	0.392	0.043
-403.252	102.511	0.245	-0.287
-402.238	-75.660	0.401	0.143
-401.223	578.530	-0.109	-0.267
-400.209	-200.000	-0.029	-0.151
-399.194	24.938	0.268	-0.222
-398.179	-29.874	-0.190	-0.108
-397.165	-200.000	-0.010	-0.252
-396.150	-0.677	0.189	-0.134
-395.136	-152.678	-0.257	-0.018
-394.121	45.881	-0.248	-0.229
-393.106	-95.999	-0.042	0.011
-392.092	91.742	-0.154	0.174
-391.077	800.000	-0.046	-0.193
-390.063	186.176	-0.092	0.137
-389.048	-42.656	-0.450	0.229
-388.033	-103.597	-0.183	-0.043
-387.019	-26.847	0.270	-0.158
-386.004	131.494	-0.052	-0.066
-384.990	-49.452	0.128	-0.061
-383.975	-173.224	-0.172	-0.005
-382.960	-29.344	-0.261	-0.149
-381.946	-200.000	0.035	0.281
-380.931	-83.781	-0.389	0.124
-379.917	41.081	0.256	0.231
-378.902	-200.000	0.002	-0.128
-377.888	688.677	-0.108	0.283
-376.873	262.122	-0.120	0.208
-375.858	-143.041	-0.085	-0.008
-374.844	223.523	0.241	-0.389
-373.829	48.428	0.063	-0.059
-372.815	231.218	-0.059	0.096
-371.800	800.000	0.059	0.175
-370.785	-98.377	-0.202	0.052
-369.771	-14.133	0.191	-0.123
-368.756	219.084	0.192	0.307
-367.742	-200.000	0.004	-0.064
-366.727	429.272	0.063	0.137
-365.712	-92.429	-0.154	-0.043
-364.698	-93.035	-0.208	-0.058
-363.683	-12.048	0.136	0.089
-362.669	-200.000	-0.027	-0.179
-361.654	79.774	-0.204	0.219
-360.639	93.314	0.097	0.109
-359.625	42.197	-0.122	-0.111
-358.610	-85.827	0.191	-0.059
-357.596	-107.928	-0.186	-0.040
-356.581	-150.027	0.358	-0.028
-355.566	-110.841	-0.158	0.032
-354.552	-121.643	0.063	-0.010
-353.537	-102.519	0.102	0.024
-352.523	-68.825	-0.081	-0.031
-351.508	144.538	-0.161	0.215
-350.493	270.083	0.149	0.261
-349.479	392.624	0.071	0.148
-348.464	-152.532	0.161	-0.011
-347.450	-43.575	0.316	-0.159
-346.435	185.959	-0.190	-0.281
-345.420	-200.000	0.004	0.062
-344.406	29.609	-0.224	-0.190
-343.391	-200.000	0.008	0.232
-342.377	-135.256	-0.172	-0.021
-341.362	11.180	0.031	0.024
-340.348	174.707	0.093	-0.134
-339.333	-96.080	0.209	-0.056
-338.318	477.166	0.095	-0.215
-337.304	189.638	0.054	0.081
-336.289	-71.779	-0.196	0.073
-335.275	53.671	0.192	0.184
-334.260	124.684	-0.209	0.263
-333.245	-95.394	-0.176	-0.047
-332.231	-72.483	0.441	0.163
-331.216	173.831	0.237	0.341
-330.202	16.317	-0.068	0.054
-329.187	85.104	-0.051	-0.056
-328.172	139.121	-0.110	0.144
-327.158	64.687	-0.296	0.298
-326.143	-33.386	-0.258	-0.142
-325.129	109.371	0.119	0.142
-324.114	800.000	-0.053	0.155
-323.099	-96.507	-0.245	-0.064
-322.085	-30.802	-0.104	-0.059
-321.070	11.744	0.073	-0.056
-320.056	65.682	0.075	-0.075
-319.041	-200.000	0.021	-0.095
-318.026	-93.265	-0.252	0.070
-317.012	80.802	-0.175	0.188
-315.997	82.691	0.095	0.103
-314.983	-118.457	-0.014	0.002
-313.968	-59.044	-0.281	0.121
-312.953	208.478	-0.096	0.150
-311.939	27.090	0.361	0.302
-310.924	800.000	-0.045	0.157
-309.910	-99.860	0.309	-0.077
-308.895	373.480	0.195	0.395
-307.880	-133.521	0.147	-0.018
-306.866	86.990	0.167	-0.184
-305.851	-200.000	0.000	-0.016
-304.837	558.641	-0.077	-0.186
-303.822	800.000	0.048	-0.207
-302.807	-40.046	0.303	-0.157
-301.793	-57.670	0.140	-0.061
-300.778	20.285	0.217	-0.175
-299.764	89.074	-0.136	0.151
-298.749	-167.118	-0.153	0.006
-297.735	-93.316	0.124	-0.034
-296.720	260.497	-0.171	0.294
-295.705	151.831	0.164	0.223
-294.691	-200.000	-0.016	-0.257
-293.676	7.546	0.120	0.089
-292.662	800.000	0.085	0.243
-291.647	-167.712	0.133	-0.005
-290.632	12.330	-0.264	-0.202
-289.618	-110.323	-0.174	0.036
-288.603	-36.633	-0.246	0.132
-287.589	-15.984	-0.082	0.052
-286.574	-50.830	-0.242	0.113
-285.559	21.328	0.264	0.214
-284.545	141.912	0.112	-0.147
-283.530	6.093	-0.390	0.288
-282.516	239.255	-0.033	0.055
-281.501	800.000	0.060	-0.253
-280.486	800.000	-0.030	-0.119
-279.472	-86.039	-0.206	0.063
-278.457	800.000	-0.119	0.348
-277.443	459.331	0.087	-0.192
-276.428	145.495	-0.068	-0.091
-275.413	12.621	0.169	-0.130
-274.399	-200.000	0.018	0.107
-273.384	-200.000	-0.008	0.154
-272.370	72.172	-0.042	-0.043
-271.355	48.977	0.111	-0.103
-270.340	-79.662	-0.348	-0.117
-269.326	-55.549	0.335	0.149
-268.311	369.022	-0.150	-0.303
-267.297	-175.256	0.088	-0.002
-266.282	-200.000	0.094	-0.568
-265.267	18.361	-0.248	-0.197
-264.253	111.560	-0.240	0.288
-263.238	286.324	0.047	0.083
-262.224	164.572	0.258	0.362
-261.209	-108.690	0.379	-0.081
-260.195	-149.943	-0.034	0.003
-259.180	-92.532	-0.184	0.051
-258.165	-124.615	-0.134	-0.021
-257.151	266.393	0.063	0.110
-256.136	-200.000	-0.070	-0.419
-255.122	44.060	0.218	-0.199
-254.107	-200.000	0.029	0.179
-253.092	47.429	-0.071	0.065
-252.078	47.053	0.154	0.143
-251.063	229.410	0.173	0.280
-250.049	448.804	0.103	-0.226
-249.034	620.599	-0.112	-0.280
-248.019	0.376	0.444	-0.315
-247.005	565.104	0.149	-0.358
-245.990	7.543	-0.216	-0.160
-244.976	18.573	0.153	-0.122
-243.961	-144.414	0.073	0.007
-242.946	-13.376	0.036	0.023
-241.932	-200.000	0.032	-0.323
-240.917	79.095	-0.248	-0.264
-239.903	157.481	-0.211	-0.291
-238.888	-169.590	0.048	0.002
-237.873	-110.195	0.258	0.053
-236.859	-90.813	-0.142	0.041
-235.844	194.465	0.091	0.137
-234.830	-106.518	0.329	0.073
-233.815	800.000	0.049	-0.135
-232.800	-160.762	-0.356	-0.019
-231.786	-200.000	0.050	0.264
-230.771	-200.000	0.009	0.151
-229.757	-200.000	0.042	-0.398
-228.742	-30.777	-0.337	0.189
-227.727	-200.000	-0.034	0.256
-226.713	7.404	0.179	0.133
-225.698	-80.463	-0.178	0.059
-224.684	-91.757	0.348	-0.098
-223.669	-7.879	0.381	0.255
-222.655	661.687	0.077	-0.198
-221.640	19.952	0.322	-0.257
-220.625	-49.610	-0.135	-0.064
-219.611	-200.000	-0.028	0.267
-218.596	-200.000	-0.003	0.196
-217.582	-40.213	-0.221	0.114
-216.567	-34.017	-0.383	-0.209
-215.552	91.941	-0.109	0.122
-214.538	-9.824	0.184	0.122
-213.523	326.046	-0.119	0.225
-212.509	-82.628	0.111	0.036
-211.494	50.463	-0.110	0.103
-210.479	-126.006	0.144	0.021
-209.465	-144.216	0.193	-0.018
-208.450	-153.885	-0.087	0.006
-207.436	-68.229	-0.419	0.162
-206.421	-129.905	0.355	-0.048
-205.406	-107.610	0.279	-0.061
-204.392	264.363	0.059	0.103
-203.377	800.000	0.040	-0.112
-202.363	-112.346	0.037	-0.007
-201.348	471.518	-0.057	0.127
-200.333	-200.000	0.003	0.127
-199.319	381.908	-0.129	0.264
-198.304	-3.099	-0.037	0.025
-197.290	-55.109	-0.141	-0.063
-196.275	-197.255	-0.079	-0.000
-195.260	800.000	-0.069	0.213
-194.246	-16.190	0.118	-0.074
-193.231	-200.000	-0.044	0.199
-192.217	800.000	-0.032	0.101
-191.202	-200.000	0.018	-0.104
-190.187	214.185	-0.047	0.074
-189.173	141.265	0.068	0.090
-188.158	-59.576	-0.242	-0.103
-187.144	40.381	0.065	0.058
-186.129	-200.000	-0.032	0.201
-185.114	791.326	-0.104	0.285
-184.100	-46.440	0.125	0.061
-183.085	-200.000	0.044	-0.298
-182.071	-200.000	0.001	0.027
-181.056	-51.743	0.127	-0.059
-180.042	-200.000	0.045	0.306
-179.027	-6.390	-0.213	0.144
-178.012	-200.000	-0.062	0.369
-176.998	165.080	-0.106	-0.148
-175.983	-50.508	0.292	-0.137
-174.969	99.844	0.029	0.033
-173.954	-17.831	-0.355	0.221
-172.939	800.000	-0.092	-0.278
-171.925	-54.877	0.575	0.257
-170.910	51.429	-0.230	-0.217
-169.896	-200.000	-0.022	-0.268
-168.881	-200.000	-0.019	0.193
-167.866	-41.001	0.355	0.182
-166.852	-140.737	-0.166	-0.017
-165.837	-149.149	0.145	-0.011
-164.823	-83.535	-0.152	0.048
-163.808	-155.037	0.184	0.012
-162.793	120.907	-0.133	-0.164
-161.779	800.000	0.086	-0.247
-160.764	-106.267	0.126	-0.028
-159.750	-200.000	0.009	0.152
-158.735	-200.000	-0.009	0.131
-157.720	43.327	0.135	0.122
-156.706	122.339	0.225	-0.279
-155.691	19.247	-0.164	0.131
-154.677	159.264	-0.156	-0.215
-153.662	129.603	0.107	-0.135
-152.647	81.186	0.291	-0.312
-151.633	-158.169	0.106	-0.006
-150.618	-51.119	0.292	0.135
-149.604	-200.000	0.002	0.050
-148.589	-134.960	0.199	0.024
-147.574	248.814	0.053	0.089
-146.560	204.318	0.162	-0.249
-145.545	162.879	-0.188	0.261
-144.531	203.634	0.164	0.252
-143.516	800.000	0.097	-0.367
-142.502	800.000	0.061	-0.201
-141.487	446.829	-0.060	0.130
-140.472	-200.000	-0.034	0.154
-139.458	750.711	-0.159	-0.425
-138.443	800.000	0.083	0.228
-137.429	523.713	0.022	-0.050
-136.414	426.168	0.100	-0.214
-135.399	-200.000	-0.044	0.420
-134.385	-96.479	0.243	-0.064
-133.370	123.813	0.218	-0.271
-132.356	-94.049	-0.130	0.035
-131.341	-179.300	-0.079	0.002
-130.326	-184.316	-0.471	0.008
-129.312	-159.421	0.289	0.016
-128.297	66.822	0.053	-0.054
-127.283	-200.000	-0.054	-0.509
-126.268	0.425	0.127	0.089
-125.253	122.863	0.105	-0.130
-124.239	249.344	0.098	0.165
-123.224	-41.111	0.270	0.138
-122.210	-96.956	0.183	0.047
-121.195	336.662	0.171	0.328
-120.180	-111.717	0.178	0.036
