DTS Sentinel unit serial number:	SN413079Multiplexer serial number:	ORYXHardware model number:	OX4-SRSoftware version number:	ORYX F/W v4.00 Oryx Data Collector v3.7.2.0data status	okinstallation	princeton_trtdifferential loss correction	single-endedforward channel	channel 3reverse channel	N/Adate	2019/09/16time	10:32:35forward acquisition time	60.00reverse acquisition time	0.00gamma	496.2192k internal	0.2304k external	0.2304temperature offset calibration	0.9950default loss term (dB/km)	0.3790temperature slope calibration	1.0000multiplexer offset coefficient	1.0000multiplexer slope coefficient	1.0000fibre end	0.00T internal ref (°C)	35.41T ext. ref 1 (°C)	12.59T ext. ref 2 (°C)	33.79length (m)	temperature (°C)	Stokes	anti-Stokes-747.200	23.661	0.409	-0.343
-746.185	800.000	-0.026	0.108
-745.171	-156.519	0.314	-0.020
-744.156	-6.641	0.106	0.073
-743.142	251.765	0.084	0.146
-742.127	800.000	-0.049	0.205
-741.112	182.839	0.165	0.248
-740.098	-200.000	-0.067	0.527
-739.083	-200.000	0.014	0.265
-738.069	-195.066	0.178	-0.001
-737.054	-160.077	0.169	-0.009
-736.039	115.196	0.155	0.192
-735.025	-61.960	0.251	0.107
-734.010	-37.199	0.214	-0.116
-732.996	-123.256	-0.187	0.030
-731.981	-34.376	-0.050	-0.028
-730.966	-200.000	-0.010	-0.160
-729.952	800.000	-0.047	-0.141
-728.937	-165.639	-0.252	0.011
-727.923	-22.005	-0.080	0.049
-726.908	-113.752	-0.076	0.015
-725.894	130.929	-0.103	0.135
-724.879	6.814	-0.023	-0.017
-723.864	242.314	-0.054	0.092
-722.850	-192.068	0.243	-0.002
-721.835	-168.929	-0.247	-0.009
-720.821	33.703	-0.073	0.064
-719.806	-81.336	0.250	0.084
-718.791	-92.836	-0.203	0.058
-717.777	-172.387	0.379	0.012
-716.762	-105.698	0.139	-0.032
-715.748	800.000	0.045	0.189
-714.733	-182.273	0.102	-0.002
-713.718	96.122	-0.124	-0.145
-712.704	55.393	-0.356	0.351
-711.689	-108.031	0.392	-0.086
-710.675	-200.000	0.012	0.058
-709.660	-200.000	0.041	-0.217
-708.645	23.304	-0.185	-0.155
-707.631	-142.748	-0.056	0.006
-706.616	531.497	0.149	0.358
-705.602	-34.683	0.279	-0.155
-704.587	90.311	-0.139	-0.158
-703.572	-200.000	0.023	-0.374
-702.558	90.048	0.197	0.224
-701.543	-119.099	0.170	-0.030
-700.529	89.999	-0.119	0.135
-699.514	15.403	0.073	-0.058
-698.499	50.577	0.130	0.125
-697.485	-200.000	-0.049	-0.266
-696.470	122.291	-0.228	0.290
-695.456	219.604	-0.137	0.223
-694.441	-200.000	0.060	-0.289
-693.426	-69.790	0.184	0.071
-692.412	633.797	0.198	-0.511
-691.397	-200.000	-0.003	-0.113
-690.383	-200.000	0.008	-0.040
-689.368	-97.502	-0.331	-0.088
-688.354	-30.338	-0.293	0.169
-687.339	333.099	-0.118	-0.232
-686.324	-93.115	-0.138	0.039
-685.310	217.741	-0.195	0.316
-684.295	658.701	-0.074	0.193
-683.281	-44.902	-0.114	-0.058
-682.266	-72.515	-0.128	0.048
-681.251	287.499	0.081	0.148
-680.237	-68.108	-0.343	-0.136
-679.222	389.888	-0.146	0.306
-678.208	43.257	0.418	0.388
-677.193	-100.981	-0.388	-0.097
-676.178	-31.584	-0.144	0.082
-675.164	-200.000	0.028	0.270
-674.149	-85.237	-0.260	-0.083
-673.135	356.752	0.083	0.167
-672.120	-125.236	0.215	-0.033
-671.105	15.256	0.128	0.102
-670.091	-200.000	0.034	-0.237
-669.076	-99.698	0.406	-0.103
-668.062	-200.000	-0.008	0.041
-667.047	-149.333	-0.087	-0.007
-666.032	381.585	0.067	0.139
-665.018	-146.593	0.292	-0.026
-664.003	353.814	-0.049	0.098
-662.989	-70.035	-0.138	0.053
-661.974	-86.385	-0.431	0.134
-660.959	-95.505	-0.213	0.058
-659.945	187.445	0.076	0.115
-658.930	66.588	0.236	0.244
-657.916	5.072	-0.188	-0.140
-656.901	-200.000	-0.005	-0.311
-655.886	-200.000	0.030	0.154
-654.872	-52.206	-0.357	0.168
-653.857	432.526	-0.095	0.209
-652.843	-150.005	0.227	0.018
-651.828	-200.000	0.035	-0.319
-650.814	-200.000	0.025	0.205
-649.799	-92.124	-0.066	0.019
-648.784	89.448	-0.240	0.271
-647.770	-39.734	-0.412	0.219
-646.755	39.219	0.256	0.232
-645.741	73.743	-0.143	0.152
-644.726	-200.000	0.105	0.479
-643.711	48.831	-0.115	-0.109
-642.697	155.249	0.108	-0.151
-641.682	-134.421	0.286	0.035
-640.668	-200.000	-0.004	0.125
-639.653	-105.508	-0.264	-0.061
-638.638	-75.450	0.293	0.106
-637.624	-45.766	0.175	-0.088
-636.609	-110.585	-0.214	0.045
-635.595	369.813	-0.140	0.287
-634.580	173.528	-0.032	-0.047
-633.565	30.124	-0.104	0.090
-632.551	232.056	-0.060	0.100
-631.536	162.021	0.169	0.240
-630.522	174.549	-0.005	0.007
-629.507	471.590	0.021	0.047
-628.492	-71.738	0.253	0.096
-627.478	139.253	0.085	0.113
-626.463	234.693	-0.081	-0.135
-625.449	128.176	-0.080	0.104
-624.434	-119.898	-0.468	-0.082
-623.419	335.534	-0.042	-0.083
-622.405	-169.053	-0.406	-0.015
-621.390	314.020	-0.230	0.438
-620.376	-70.172	-0.254	-0.098
-619.361	-23.571	0.062	-0.037
-618.346	-73.196	0.274	-0.102
-617.332	-98.809	-0.060	0.015
-616.317	219.028	-0.074	0.119
-615.303	44.587	0.264	0.246
-614.288	-164.806	-0.221	0.010
-613.273	108.105	-0.073	0.089
-612.259	-200.000	0.023	0.252
-611.244	-200.000	0.040	-0.199
-610.230	800.000	-0.022	0.077
-609.215	-118.455	-0.379	0.068
-608.201	619.069	-0.138	-0.350
-607.186	269.616	-0.031	-0.055
-606.171	-117.826	-0.387	0.070
-605.157	352.310	-0.044	0.088
-604.142	192.826	0.150	0.230
-603.128	-44.382	0.206	-0.104
-602.113	106.966	0.268	-0.322
-601.098	-121.361	-0.185	-0.031
-600.084	173.425	0.198	0.289
-599.069	117.067	0.086	-0.107
-598.055	64.547	0.122	0.125
-597.040	-152.669	0.270	0.019
-596.025	-26.511	-0.257	0.152
-595.011	-66.405	0.283	0.114
-593.996	396.944	-0.098	-0.207
-592.982	103.090	0.128	0.152
-591.967	-200.000	0.001	-0.028
-590.952	-56.698	-0.099	0.044
-589.938	488.458	-0.190	0.440
-588.923	-136.897	-0.077	-0.009
-587.909	137.005	0.160	-0.212
-586.894	-200.000	-0.046	0.447
-585.879	-104.940	-0.127	0.030
-584.865	-108.936	-0.166	0.036
-583.850	123.684	0.275	-0.349
-582.836	-75.248	-0.333	-0.120
-581.821	-83.757	-0.252	0.081
-580.806	-200.000	0.001	-0.106
-579.792	-44.596	-0.324	0.164
-578.777	153.294	0.151	0.209
-577.763	-130.916	0.299	-0.040
-576.748	41.595	0.348	-0.318
-575.733	-89.423	-0.269	-0.080
-574.719	-200.000	0.055	-0.307
-573.704	-200.000	0.071	-0.520
-572.690	-200.000	-0.005	-0.244
-571.675	481.578	-0.135	-0.310
-570.661	-127.357	-0.290	0.043
-569.646	-136.582	-0.126	-0.015
-568.631	284.567	-0.162	0.294
-567.617	-118.219	-0.302	0.054
-566.602	415.966	0.066	-0.143
-565.588	96.963	-0.068	-0.079
-564.573	-57.923	0.245	-0.108
-563.558	316.510	0.038	0.072
-562.544	261.396	-0.144	-0.252
-561.529	-200.000	0.030	-0.162
-560.515	-0.525	-0.043	0.031
-559.500	-73.708	-0.184	0.068
-558.485	-133.918	-0.065	-0.008
-557.471	244.872	-0.118	0.201
-556.456	82.375	-0.114	-0.125
-555.442	799.192	0.065	-0.182
-554.427	240.014	0.236	0.397
-553.412	79.493	0.154	-0.167
-552.398	-151.247	-0.132	0.010
-551.383	-49.276	0.248	-0.120
-550.369	85.363	-0.217	-0.240
-549.354	-28.744	-0.153	0.089
-548.339	-200.000	0.003	-0.474
-547.325	263.170	0.086	-0.151
-546.310	-54.771	0.172	-0.079
-545.296	800.000	0.026	0.105
-544.281	269.987	0.077	-0.136
-543.266	-200.000	0.022	0.284
-542.252	0.589	0.114	0.082
-541.237	-38.101	-0.141	0.075
-540.223	800.000	-0.061	-0.238
-539.208	-112.750	0.169	0.034
-538.193	-200.000	-0.001	-0.097
-537.179	-56.319	0.173	-0.078
-536.164	155.186	-0.140	0.194
-535.150	4.244	-0.239	0.177
-534.135	-29.643	0.163	0.094
-533.121	-71.564	0.324	-0.122
-532.106	147.260	-0.050	-0.068
-531.091	800.000	0.127	-0.440
-530.077	-105.094	-0.252	0.058
-529.062	16.505	-0.066	-0.053
-528.048	-64.966	0.134	-0.055
-527.033	-177.304	-0.266	0.007
-526.018	251.580	-0.113	-0.195
-525.004	800.000	-0.060	-0.257
-523.989	-200.000	-0.018	-0.108
-522.975	-134.294	-0.456	0.057
-521.960	119.458	0.150	-0.187
-520.945	123.593	0.061	-0.077
-519.931	91.845	0.076	-0.086
-518.916	51.032	0.102	-0.097
-517.902	53.832	-0.207	0.200
-516.887	-118.133	-0.160	-0.029
-515.872	-129.837	0.208	-0.029
-514.858	800.000	0.048	0.200
-513.843	-91.216	0.220	0.064
-512.829	226.198	-0.092	0.151
-511.814	288.342	-0.096	0.175
-510.799	800.000	0.060	0.198
-509.785	140.805	0.021	-0.028
-508.770	-139.814	0.113	0.012
-507.756	456.752	-0.076	-0.171
-506.741	-51.586	0.127	-0.060
-505.726	-87.982	-0.292	-0.089
-504.712	177.583	-0.131	0.193
-503.697	95.005	-0.293	-0.337
-502.683	-34.883	-0.434	0.239
-501.668	-162.344	0.145	0.007
-500.653	124.927	0.110	-0.139
-499.639	-116.463	-0.353	0.066
-498.624	-200.000	0.027	-0.290
-497.610	-14.783	0.111	0.072
-496.595	-200.000	-0.038	0.182
-495.581	-184.344	0.314	-0.005
-494.566	87.870	0.094	-0.105
-493.551	-129.511	-0.426	-0.059
-492.537	-42.640	0.320	-0.164
-491.522	-128.123	0.247	-0.036
-490.508	26.004	-0.117	-0.098
-489.493	52.050	0.208	0.200
-488.478	-74.476	-0.261	-0.095
-487.464	-63.679	-0.263	-0.109
-486.449	272.533	-0.155	-0.276
-485.435	-23.951	0.044	0.027
-484.420	-15.493	-0.162	0.104
-483.405	-117.323	0.212	0.039
-482.391	717.222	0.105	0.281
-481.376	800.000	-0.039	-0.168
-480.362	-176.668	0.221	-0.006
-479.347	128.439	-0.089	-0.114
-478.332	47.889	-0.065	-0.062
-477.318	185.162	0.071	-0.106
-476.303	479.149	0.100	-0.229
-475.289	-55.489	-0.234	0.106
-474.274	-200.000	0.002	0.165
-473.259	237.865	0.033	0.056
-472.245	800.000	-0.101	-0.424
-471.230	-14.884	0.230	0.149
-470.216	-200.000	0.001	0.282
-469.201	-200.000	-0.003	-0.089
-468.186	800.000	-0.071	0.223
-467.172	-123.730	0.278	0.044
-466.157	7.923	-0.052	0.039
-465.143	-15.381	-0.252	0.162
-464.128	-200.000	-0.041	0.249
-463.113	-49.842	0.489	-0.234
-462.099	271.150	0.160	0.283
-461.084	-176.727	-0.110	0.003
-460.070	77.162	0.162	-0.173
-459.055	-56.029	-0.247	-0.111
-458.040	-160.658	0.179	0.010
-457.026	-71.364	-0.232	-0.087
-456.011	800.000	-0.037	-0.135
-454.997	800.000	-0.122	0.374
-453.982	448.205	-0.084	-0.186
-452.968	179.874	0.251	-0.371
-451.953	800.000	0.027	-0.101
-450.938	-83.212	0.179	-0.058
-449.924	-67.238	0.386	-0.153
-448.909	-200.000	0.010	-0.199
-447.895	-200.000	0.028	-0.272
-446.880	1.188	0.143	-0.103
-445.865	-66.691	-0.216	0.086
-444.851	800.000	0.073	-0.286
-443.836	-200.000	-0.072	-0.408
-442.822	-10.666	0.056	-0.037
-441.807	-106.333	-0.358	-0.081
-440.792	-200.000	0.015	0.110
-439.778	63.290	0.136	0.137
-438.763	-136.807	0.160	0.019
-437.749	-200.000	0.036	0.309
-436.734	-156.143	-0.073	0.005
-435.719	-79.658	0.103	-0.035
-434.705	-78.382	-0.079	-0.027
-433.690	739.338	-0.057	0.155
-432.676	180.782	0.089	0.132
-431.661	-24.823	-0.284	0.169
-430.646	345.412	0.159	-0.315
-429.632	-8.736	0.411	-0.278
-428.617	84.942	-0.078	0.086
-427.603	800.000	0.023	-0.083
-426.588	-8.884	-0.276	-0.186
-425.573	-200.000	-0.011	0.065
-424.559	690.781	0.062	0.164
-423.544	-10.424	0.096	0.064
-422.530	800.000	0.099	-0.306
-421.515	-200.000	0.027	-0.117
-420.500	242.282	-0.147	-0.247
-419.486	653.707	0.111	0.285
-418.471	-84.956	0.161	-0.051
-417.457	221.130	0.087	0.141
-416.442	-200.000	-0.002	-0.045
-415.428	-34.571	0.246	0.135
-414.413	-81.583	-0.105	-0.035
-413.398	-17.872	0.228	-0.144
-412.384	-19.572	0.111	-0.069
-411.369	29.385	0.088	0.075
-410.355	18.279	-0.095	-0.076
-409.340	-146.424	-0.178	-0.016
-408.325	-133.648	0.077	0.010
-407.311	-10.818	-0.087	-0.058
-406.296	-47.623	-0.136	-0.066
-405.282	186.128	-0.306	-0.457
-404.267	265.825	0.154	-0.270
-403.252	-200.000	-0.002	0.074
-402.238	572.675	0.063	-0.153
-401.223	-200.000	-0.022	0.144
-400.209	-200.000	0.023	0.231
-399.194	121.689	0.107	-0.134
-398.179	408.249	-0.076	0.162
-397.165	230.432	0.267	-0.438
-396.150	82.603	-0.148	-0.161
-395.136	-175.516	-0.480	-0.013
-394.121	42.968	0.380	0.348
-393.106	-6.801	0.105	0.072
-392.092	264.625	-0.163	0.284
-391.077	-160.553	-0.292	-0.016
-390.063	113.397	-0.197	-0.240
-389.048	92.174	0.095	0.107
-388.033	-74.312	-0.163	0.059
-387.019	-200.000	-0.019	0.233
-386.004	93.385	-0.050	0.056
-384.990	-59.059	-0.093	-0.040
-383.975	67.414	-0.070	-0.071
-382.960	-118.887	-0.143	-0.025
-381.946	-2.137	0.335	0.236
-380.931	-111.433	0.282	0.058
-379.917	-106.292	-0.274	-0.062
-378.902	89.463	-0.209	0.233
-377.888	224.890	-0.183	0.297
-376.873	-131.211	0.312	0.042
-375.858	-200.000	-0.026	-0.294
-374.844	-200.000	0.010	0.258
-373.829	800.000	0.028	0.092
-372.815	-19.141	0.117	-0.073
-371.800	115.737	0.052	0.064
-370.785	84.385	0.180	0.197
-369.771	352.792	-0.057	-0.114
-368.756	-46.736	-0.117	0.057
-367.742	800.000	0.065	0.240
-366.727	-74.203	-0.291	-0.105
-365.712	5.417	0.228	0.169
-364.698	-200.000	0.012	-0.306
-363.683	581.733	0.084	-0.207
-362.669	-87.659	-0.065	0.020
-361.654	800.000	-0.057	0.215
-360.639	162.869	0.155	0.218
-359.625	538.376	0.131	0.313
-358.610	-200.000	0.051	-0.255
-357.596	-66.343	-0.128	-0.051
-356.581	75.269	-0.041	-0.044
-355.566	-120.005	0.104	-0.018
-354.552	800.000	0.094	0.273
-353.537	83.468	-0.151	-0.165
-352.523	-107.760	0.036	-0.008
-351.508	783.677	0.036	0.098
-350.493	100.263	-0.117	-0.137
-349.479	104.088	-0.208	-0.245
-348.464	-117.205	-0.166	-0.030
-347.450	-96.397	0.305	0.081
-346.435	-123.695	0.175	-0.028
-345.420	5.206	-0.140	0.103
-344.406	800.000	0.010	-0.041
-343.391	225.561	-0.107	0.173
-342.377	115.487	0.269	-0.330
-341.362	-117.430	-0.237	0.043
-340.348	-200.000	0.007	-0.185
-339.333	-88.138	-0.085	0.026
-338.318	193.969	-0.180	-0.273
-337.304	14.973	0.119	0.093
-336.289	62.471	0.393	-0.394
-335.275	800.000	0.112	-0.320
-334.260	-68.493	-0.135	0.053
-333.245	-116.059	-0.093	-0.017
-332.231	24.418	0.239	0.198
-331.216	309.262	-0.104	0.194
-330.202	-61.947	-0.309	0.129
-329.187	-200.000	-0.037	0.286
-328.172	23.217	0.151	-0.124
-327.158	542.199	0.146	-0.348
-326.143	800.000	0.041	-0.173
-325.129	126.094	-0.174	-0.221
-324.114	358.110	-0.035	-0.071
-323.099	-118.390	0.155	-0.028
-322.085	282.329	0.064	-0.115
-321.070	141.903	0.154	-0.204
-320.056	-155.444	0.152	-0.010
-319.041	-121.582	0.158	0.026
-318.026	-200.000	-0.032	-0.185
-317.012	-48.094	0.140	0.068
-315.997	71.122	0.334	-0.347
-314.983	236.605	-0.129	0.213
-313.968	139.349	0.115	-0.152
-312.953	287.487	-0.145	-0.262
-311.939	243.106	0.159	-0.268
-310.924	-200.000	-0.021	-0.134
-309.910	53.157	0.198	0.189
-308.895	125.982	0.171	0.216
-307.880	-65.439	-0.277	-0.111
-306.866	-84.425	-0.109	-0.034
-305.851	800.000	0.026	-0.108
-304.837	-178.586	0.257	0.006
-303.822	314.188	-0.095	-0.179
-302.807	28.638	-0.010	0.009
-301.793	-43.055	-0.122	0.062
-300.778	49.693	0.103	0.097
-299.764	-43.199	0.140	0.071
-298.749	-123.480	-0.051	-0.008
-297.735	54.752	0.197	0.190
-296.720	-200.000	-0.025	-0.153
-295.705	-200.000	-0.029	0.237
-294.691	-148.875	-0.342	-0.028
-293.676	705.361	-0.049	-0.130
-292.662	-40.895	0.091	-0.047
-291.647	-24.072	-0.150	0.090
-290.632	-40.762	0.326	-0.169
-289.618	58.184	-0.049	0.048
-288.603	53.265	-0.244	0.234
-287.589	-200.000	-0.028	-0.125
-286.574	-72.804	0.245	0.090
-285.559	-98.575	0.182	-0.047
-284.545	-96.537	0.261	-0.069
-283.530	-46.102	0.024	0.012
-282.516	-200.000	0.072	-0.381
-281.501	-7.211	-0.138	0.094
-280.486	-200.000	-0.021	-0.123
-279.472	-154.477	-0.282	-0.019
-278.457	-200.000	0.060	0.274
-277.443	-27.966	-0.097	0.056
-276.428	101.614	-0.233	-0.272
-275.413	-200.000	0.005	-0.178
-274.399	-17.781	-0.134	0.084
-273.384	-24.682	-0.199	0.118
-272.370	-193.886	0.160	-0.001
-271.355	-54.939	-0.181	-0.082
-270.340	303.694	0.076	-0.140
-269.326	196.595	0.132	-0.201
-268.311	800.000	0.029	0.109
-267.297	-87.604	-0.025	0.008
-266.282	57.885	0.273	-0.267
-265.267	-40.468	-0.083	0.043
-264.253	417.758	0.064	-0.136
-263.238	161.365	0.056	-0.079
-262.224	-26.118	-0.299	0.176
-261.209	40.475	0.317	0.285
-260.195	-170.797	0.130	0.004
-259.180	26.694	0.133	0.111
-258.165	-94.629	-0.294	-0.080
-257.151	-81.117	-0.054	-0.018
-256.136	73.532	0.056	0.059
-255.122	642.524	0.120	-0.305
-254.107	-14.034	0.256	0.165
-253.092	800.000	-0.105	0.355
-252.078	141.335	0.214	-0.283
-251.063	24.859	0.272	0.225
-250.049	223.322	0.039	0.062
-249.034	-70.158	0.459	-0.174
-248.019	76.682	0.257	0.272
-247.005	-200.000	0.029	0.217
-245.990	171.235	0.084	-0.120
-244.976	322.146	-0.082	0.156
-243.961	-200.000	-0.010	0.262
-242.946	-129.356	-0.145	-0.020
-241.932	-141.874	-0.036	-0.004
-240.917	-63.987	0.071	-0.029
-239.903	70.679	-0.232	-0.240
-238.888	46.493	-0.198	0.183
-237.873	139.176	-0.074	-0.098
-236.859	-200.000	-0.057	-0.321
-235.844	-10.249	0.127	0.084
-234.830	-200.000	0.001	-0.025
-233.815	69.475	0.218	0.224
-232.800	-200.000	-0.085	0.558
-231.786	-51.441	-0.277	0.129
-230.771	385.674	0.086	0.177
-229.757	800.000	0.093	0.269
-228.742	800.000	0.048	-0.176
-227.727	373.961	-0.034	0.069
-226.713	194.993	-0.110	0.167
-225.698	-1.586	-0.087	0.061
-224.684	35.677	-0.255	0.223
-223.669	-51.500	0.324	0.151
-222.655	800.000	-0.075	0.239
-221.640	-63.811	0.169	-0.069
-220.625	185.824	0.174	-0.258
-219.611	-78.165	-0.289	0.099
-218.596	-56.641	-0.231	-0.102
-217.582	39.640	0.177	-0.158
-216.567	125.016	-0.211	-0.265
-215.552	-98.824	-0.259	-0.066
-214.538	800.000	0.110	0.352
-213.523	210.892	0.129	-0.202
-212.509	-56.463	-0.216	-0.096
-211.494	155.433	-0.082	0.112
-210.479	-96.645	0.230	-0.060
-209.465	231.329	0.157	0.257
-208.450	-39.433	-0.122	-0.064
-207.436	-176.972	0.331	-0.008
-206.421	-144.669	0.305	0.028
-205.406	9.407	-0.039	-0.029
-204.392	-200.000	-0.075	0.000
-203.377	144.775	0.201	0.268
-202.363	619.475	0.098	-0.246
-201.348	-115.551	0.473	-0.089
-200.333	-142.608	0.293	-0.029
-199.319	331.170	-0.017	-0.032
-198.304	800.000	-0.077	0.302
-197.290	-200.000	-0.030	0.296
-196.275	-130.810	-0.244	0.033
-195.260	-56.699	-0.208	-0.092
-194.246	234.211	-0.148	0.243
-193.231	697.038	-0.053	0.138
-192.217	800.000	0.022	-0.087
-191.202	183.292	-0.014	-0.021
-190.187	637.295	0.063	-0.160
-189.173	-34.428	-0.168	0.092
-188.158	-200.000	-0.002	-0.021
-187.144	-100.437	-0.278	0.069
-186.129	175.831	0.098	-0.141
-185.114	800.000	-0.055	-0.211
-184.100	172.713	-0.041	0.059
-183.085	-200.000	0.013	0.189
-182.071	800.000	0.116	0.326
-181.056	-88.268	0.110	0.033
-180.042	-200.000	0.068	0.351
-179.027	-85.774	-0.361	0.111
-178.012	190.168	-0.019	0.029
-176.998	800.000	-0.110	-0.339
-175.983	800.000	-0.036	0.133
-174.969	-35.283	-0.421	0.228
-173.954	520.054	-0.057	0.133
-172.939	105.317	0.239	0.282
-171.925	-21.693	-0.027	0.017
-170.910	51.658	-0.155	0.146
-169.896	-65.294	0.115	-0.046
-168.881	-42.891	0.302	-0.153
-167.866	187.988	0.107	-0.160
-166.852	-82.434	-0.126	0.041
-165.837	800.000	-0.045	-0.142
-164.823	748.321	0.108	-0.290
-163.808	-53.084	0.163	0.075
-162.793	8.610	-0.341	0.256
-161.779	-94.759	0.163	0.044
-160.764	487.665	0.011	-0.025
-159.750	-200.000	0.079	0.489
-158.735	-32.934	0.169	0.093
-157.720	273.034	0.162	0.285
-156.706	-75.807	-0.320	0.113
-155.691	798.742	-0.070	-0.192
-154.677	145.868	0.075	0.100
-153.662	-200.000	0.007	0.155
-152.647	10.143	0.115	-0.087
-151.633	126.657	0.206	-0.259
-150.618	-93.381	0.451	0.124
-149.604	343.876	0.203	0.395
-148.589	-200.000	-0.016	0.078
-147.574	142.099	0.088	0.117
-146.560	78.535	0.124	-0.132
-145.545	-57.920	0.212	0.092
-144.531	95.444	0.303	0.344
-143.516	-127.038	-0.108	-0.016
-142.502	-133.184	0.501	0.063
-141.487	-200.000	-0.003	0.110
-140.472	-89.275	0.334	0.098
-139.458	-127.993	0.287	-0.041
-138.443	80.531	0.233	-0.249
-137.429	15.585	0.158	0.123
-136.414	800.000	-0.042	0.157
-135.399	-131.698	0.198	-0.026
-134.385	-58.170	-0.165	-0.071
-133.370	-109.890	0.237	-0.049
-132.356	-200.000	-0.030	-0.140
-131.341	-49.814	0.193	-0.091
-130.326	-200.000	-0.032	0.203
-129.312	-0.501	-0.317	-0.224
-128.297	355.841	0.063	-0.124
-127.283	-172.591	-0.055	0.002
-126.268	67.918	0.022	0.023
-125.253	-14.087	-0.194	0.124
-124.239	-12.125	0.253	0.164
-123.224	107.806	-0.097	0.115
-122.210	178.680	0.292	-0.424
-121.195	607.383	0.134	0.333
