DTS Sentinel unit serial number:	SN413079Multiplexer serial number:	ORYXHardware model number:	OX4-SRSoftware version number:	ORYX F/W v4.00 Oryx Data Collector v3.7.2.0data status	okinstallation	princeton_trtdifferential loss correction	single-endedforward channel	channel 3reverse channel	N/Adate	2019/09/15time	07:04:34forward acquisition time	60.00reverse acquisition time	0.00gamma	496.2192k internal	0.2325k external	0.2325temperature offset calibration	0.9981default loss term (dB/km)	0.3790temperature slope calibration	1.0000multiplexer offset coefficient	1.0000multiplexer slope coefficient	1.0000fibre end	0.00T internal ref (°C)	30.50T ext. ref 1 (°C)	4.86T ext. ref 2 (°C)	25.61length (m)	temperature (°C)	Stokes	anti-Stokes-747.200	61.121	0.157	0.157
-746.185	57.421	-0.264	0.260
-745.171	-200.000	0.022	0.183
-744.156	188.423	0.080	-0.121
-743.142	49.737	0.108	-0.103
-742.127	180.056	-0.068	0.101
-741.112	-200.000	0.017	0.198
-740.098	469.757	0.130	0.294
-739.083	127.173	-0.079	0.102
-738.069	455.170	-0.045	0.102
-737.054	-30.607	0.188	0.107
-736.039	274.019	-0.083	-0.147
-735.025	178.253	0.055	0.081
-734.010	-86.079	0.165	-0.051
-732.996	800.000	0.017	-0.066
-731.981	-200.000	0.009	0.164
-730.966	199.195	-0.053	0.082
-729.952	160.770	0.106	-0.150
-728.937	800.000	-0.072	-0.223
-727.923	29.997	0.089	0.077
-726.908	112.636	-0.149	0.182
-725.894	-40.704	-0.326	-0.171
-724.879	-134.668	-0.254	-0.031
-723.864	11.698	-0.157	-0.121
-722.850	-144.683	-0.387	0.036
-721.835	-124.595	0.312	0.049
-720.821	-4.410	-0.276	0.192
-719.806	193.618	-0.037	0.057
-718.791	-112.820	-0.176	0.035
-717.777	-200.000	-0.003	-0.242
-716.762	-97.245	-0.075	0.020
-715.748	-83.062	-0.189	0.061
-714.733	-200.000	-0.001	0.020
-713.718	-162.090	-0.273	-0.014
-712.704	800.000	-0.077	-0.232
-711.689	-153.887	0.248	-0.017
-710.675	-99.896	-0.490	-0.123
-709.660	-57.407	0.052	-0.023
-708.645	-97.044	0.165	-0.044
-707.631	25.019	0.211	-0.177
-706.616	-200.000	0.008	-0.314
-705.602	84.506	0.126	-0.139
-704.587	-9.466	-0.167	-0.112
-703.572	534.735	-0.066	-0.159
-702.558	-90.596	0.603	0.176
-701.543	-51.912	0.076	-0.036
-700.529	165.448	-0.110	0.156
-699.514	461.580	-0.105	0.237
-698.499	-200.000	0.015	-0.218
-697.485	260.062	-0.199	-0.347
-696.470	419.779	-0.177	-0.381
-695.456	11.194	-0.176	-0.135
-694.441	51.829	0.077	0.074
-693.426	-38.904	-0.153	0.081
-692.412	800.000	-0.041	0.118
-691.397	-98.163	-0.259	-0.067
-690.383	-189.294	0.207	0.002
-689.368	-27.012	-0.269	-0.158
-688.354	-32.971	-0.084	-0.047
-687.339	-16.962	-0.062	0.039
-686.324	76.120	-0.178	0.189
-685.310	144.581	-0.206	-0.277
-684.295	14.458	-0.137	0.107
-683.281	-58.670	-0.497	0.217
-682.266	-85.636	-0.318	0.100
-681.251	102.113	0.114	-0.134
-680.237	-5.640	0.124	-0.085
-679.222	286.937	-0.118	0.215
-678.208	280.593	0.144	0.259
-677.193	-97.813	-0.190	0.049
-676.178	-200.000	0.057	-0.330
-675.164	228.984	0.122	0.201
-674.149	800.000	0.094	-0.284
-673.135	-91.035	0.252	0.073
-672.120	221.793	0.173	0.280
-671.105	2.936	0.241	-0.176
-670.091	117.985	0.124	0.154
-669.076	-28.954	0.209	-0.121
-668.062	-105.818	-0.129	-0.029
-667.047	-200.000	0.048	-0.365
-666.032	800.000	-0.022	0.067
-665.018	510.098	0.050	0.116
-664.003	-107.628	-0.107	-0.024
-662.989	-186.173	-0.299	0.004
-661.974	-16.137	-0.162	-0.103
-660.959	152.380	-0.312	-0.429
-659.945	92.540	0.111	0.125
-658.930	-168.991	-0.350	0.013
-657.916	-106.592	0.100	0.022
-656.901	-54.804	-0.076	0.034
-655.886	-132.811	-0.306	0.039
-654.872	-115.670	-0.426	0.080
-653.857	-200.000	-0.007	-0.150
-652.843	31.488	-0.245	0.212
-651.828	-56.673	-0.131	0.058
-650.814	-81.858	-0.287	-0.095
-649.799	78.931	-0.244	0.263
-648.784	800.000	0.035	-0.134
-647.770	-183.656	-0.400	-0.007
-646.755	-134.313	0.087	0.011
-645.741	-200.000	0.081	-0.519
-644.726	800.000	0.071	-0.286
-643.711	-200.000	0.034	-0.346
-642.697	-101.901	0.123	-0.030
-641.682	800.000	-0.123	-0.499
-640.668	-200.000	-0.002	0.149
-639.653	-2.608	0.112	-0.079
-638.638	800.000	-0.102	0.327
-637.624	-59.166	0.229	-0.099
-636.609	339.507	-0.180	-0.353
-635.595	-200.000	-0.072	-0.382
-634.580	-200.000	0.052	0.287
-633.565	38.073	-0.079	-0.071
-632.551	368.371	0.088	0.180
-631.536	-146.256	0.137	-0.012
-630.522	215.380	-0.144	-0.230
-629.507	-200.000	0.023	0.149
-628.492	-200.000	0.012	-0.136
-627.478	39.303	-0.220	0.198
-626.463	-78.692	0.128	-0.044
-625.449	-103.183	0.076	-0.018
-624.434	800.000	0.101	-0.359
-623.419	800.000	-0.068	0.266
-622.405	-31.164	-0.073	0.041
-621.390	800.000	-0.118	0.329
-620.376	-111.584	-0.207	0.042
-619.361	473.059	0.096	-0.217
-618.346	-200.000	0.064	-0.336
-617.332	-180.281	-0.200	-0.004
-616.317	-200.000	-0.073	-0.431
-615.303	26.872	-0.203	0.170
-614.288	310.406	0.087	-0.164
-613.273	-34.228	-0.068	-0.037
-612.259	-29.629	0.355	0.204
-611.244	0.277	-0.276	-0.198
-610.230	33.994	-0.141	-0.124
-609.215	705.270	0.048	-0.128
-608.201	192.005	0.152	-0.230
-607.186	228.231	-0.165	-0.269
-606.171	-200.000	0.016	-0.215
-605.157	-1.253	0.259	-0.184
-604.142	-50.023	0.255	-0.121
-603.128	800.000	-0.038	-0.109
-602.113	-84.962	-0.270	0.085
-601.098	-1.250	-0.163	0.115
-600.084	800.000	-0.053	0.220
-599.069	-200.000	0.019	0.206
-598.055	800.000	-0.071	-0.213
-597.040	-26.784	-0.023	-0.014
-596.025	-132.518	-0.193	0.025
-595.011	800.000	0.077	0.249
-593.996	18.001	0.305	0.244
-592.982	800.000	-0.054	0.196
-591.967	-42.107	0.316	0.162
-590.952	800.000	0.029	0.103
-589.938	745.500	-0.117	0.316
-588.923	800.000	-0.108	-0.373
-587.909	-37.518	0.334	-0.179
-586.894	-46.244	-0.180	-0.089
-585.879	-94.402	0.370	-0.101
-584.865	-29.041	-0.172	-0.099
-583.850	-101.041	-0.277	0.068
-582.836	83.486	0.157	-0.171
-581.821	-40.714	0.135	-0.070
-580.806	42.891	-0.066	0.060
-579.792	800.000	-0.050	0.206
-578.777	69.753	-0.113	-0.117
-577.763	469.684	0.071	0.160
-576.748	329.692	-0.102	0.197
-575.733	-76.324	-0.256	-0.090
-574.719	240.255	0.065	0.109
-573.704	-105.220	-0.088	-0.020
-572.690	-41.521	-0.275	-0.142
-571.675	-93.273	-0.143	-0.040
-570.661	73.043	-0.305	0.319
-569.646	228.183	-0.188	0.306
-568.631	800.000	0.105	0.346
-567.617	13.118	0.055	-0.043
-566.602	200.000	-0.116	0.179
-565.588	800.000	0.063	-0.223
-564.573	-119.885	0.135	-0.023
-563.558	800.000	0.063	-0.190
-562.544	-200.000	0.002	-0.071
-561.529	-1.211	0.164	0.116
-560.515	-200.000	-0.020	0.294
-559.500	99.129	0.026	-0.030
-558.485	-200.000	-0.001	0.108
-557.471	800.000	0.093	-0.301
-556.456	0.820	0.327	0.235
-555.442	-200.000	-0.029	0.168
-554.427	54.589	-0.118	0.114
-553.412	632.211	-0.066	0.166
-552.398	381.501	-0.117	0.242
-551.383	-110.899	0.243	0.050
-550.369	526.395	-0.205	0.483
-549.354	139.725	0.115	-0.152
-548.339	800.000	-0.102	0.337
-547.325	-9.426	0.297	-0.198
-546.310	768.680	0.083	-0.227
-545.296	-68.062	-0.083	0.032
-544.281	-50.668	0.214	0.101
-543.266	-17.949	0.247	-0.155
-542.252	35.571	0.258	-0.227
-541.237	-112.219	-0.128	0.026
-540.223	-5.645	0.052	-0.036
-539.208	87.526	0.175	-0.193
-538.193	-95.416	0.110	0.030
-537.179	498.365	-0.106	-0.244
-536.164	800.000	0.078	-0.249
-535.150	-21.185	-0.172	0.105
-534.135	800.000	-0.077	-0.299
-533.121	41.008	0.146	-0.132
-532.106	30.967	-0.152	-0.130
-531.091	141.922	0.060	0.079
-530.077	-75.830	-0.025	0.009
-529.062	707.189	0.114	0.300
-528.048	71.753	-0.102	-0.106
-527.033	-200.000	-0.053	0.234
-526.018	22.359	0.233	0.191
-525.004	19.366	-0.266	-0.214
-523.989	-25.902	-0.273	-0.161
-522.975	800.000	0.037	-0.121
-521.960	109.918	-0.228	-0.274
-520.945	-200.000	-0.078	-0.349
-519.931	-77.125	-0.230	-0.080
-518.916	88.447	-0.067	-0.075
-517.902	800.000	0.057	-0.196
-516.887	231.721	-0.040	0.066
-515.872	509.499	-0.149	-0.347
-514.858	-55.875	0.093	0.041
-513.843	636.461	-0.039	0.100
-512.829	-96.284	0.184	-0.049
-511.814	64.007	0.164	0.165
-510.799	88.367	-0.073	-0.081
-509.785	-2.990	-0.199	-0.139
-508.770	-200.000	-0.024	0.179
-507.756	166.234	-0.123	-0.174
-506.741	20.813	-0.142	0.115
-505.726	101.735	-0.343	-0.400
-504.712	-200.000	-0.016	-0.393
-503.697	305.157	-0.043	0.079
-502.683	-200.000	0.021	0.520
-501.668	74.718	-0.282	0.296
-500.653	-60.490	-0.241	-0.102
-499.639	34.044	-0.249	-0.216
-498.624	-116.578	0.177	0.033
-497.610	-121.870	-0.266	-0.044
-496.595	279.360	-0.149	0.265
-495.581	405.344	-0.074	-0.156
-494.566	272.542	0.051	-0.089
-493.551	-22.767	-0.191	0.115
-492.537	-54.351	-0.069	-0.031
-491.522	22.949	-0.213	-0.175
-490.508	134.549	0.141	-0.183
-489.493	-31.742	-0.065	-0.036
-488.478	-126.887	-0.144	-0.021
-487.464	236.163	-0.087	-0.143
-486.449	-74.156	0.018	-0.006
-485.435	433.377	0.083	-0.179
-484.420	25.419	-0.140	-0.116
-483.405	474.000	0.098	-0.221
-482.391	68.730	-0.121	0.124
-481.376	270.429	-0.109	-0.192
-480.362	-143.554	-0.115	0.011
-479.347	-108.720	0.034	-0.007
-478.332	53.317	-0.276	-0.264
-477.318	279.815	-0.084	0.149
-476.303	741.935	-0.007	-0.020
-475.289	-83.223	-0.227	0.073
-474.274	18.520	-0.184	-0.147
-473.259	315.174	0.159	0.299
-472.245	368.393	-0.120	-0.243
-471.230	30.641	-0.171	-0.146
-470.216	-20.238	-0.173	-0.107
-469.201	-123.423	0.237	-0.038
-468.186	-122.217	0.206	-0.034
-467.172	800.000	-0.044	0.187
-466.157	800.000	0.094	-0.407
-465.143	767.199	0.053	-0.144
-464.128	683.397	-0.124	0.324
-463.113	-5.179	0.436	-0.299
-462.099	-200.000	0.008	0.061
-461.084	589.029	0.115	0.283
-460.070	-1.625	0.187	-0.131
-459.055	-18.575	0.084	-0.053
-458.040	-84.002	-0.145	0.046
-457.026	800.000	0.065	-0.206
-456.011	-125.384	-0.117	-0.018
-454.997	-139.494	0.173	0.018
-453.982	-116.633	-0.138	-0.025
-452.968	-200.000	0.012	0.308
-451.953	-111.348	-0.248	0.051
-450.938	213.846	0.216	-0.341
-449.924	27.579	0.084	0.071
-448.909	298.699	0.073	-0.134
-447.895	-200.000	-0.027	-0.147
-446.880	-142.763	-0.121	-0.012
-445.865	-137.964	0.235	-0.026
-444.851	122.310	-0.135	0.169
-443.836	-11.114	-0.168	-0.110
-442.822	170.160	0.134	0.192
-441.807	800.000	-0.125	0.468
-440.792	-76.392	-0.073	0.026
-439.778	-29.650	0.033	-0.019
-438.763	800.000	0.053	0.214
-437.749	30.295	-0.346	-0.295
-436.734	-104.116	-0.157	-0.036
-435.719	354.086	0.056	0.110
-434.705	63.410	0.250	-0.250
-433.690	-53.370	-0.101	0.046
-432.676	800.000	-0.116	-0.327
-431.661	-200.000	0.019	-0.296
-430.646	602.534	-0.128	0.317
-429.632	-98.111	0.385	-0.099
-428.617	-138.088	-0.303	-0.034
-427.603	-200.000	-0.021	-0.197
-426.588	-54.374	-0.289	-0.131
-425.573	-99.335	0.147	0.037
-424.559	-200.000	0.066	0.340
-423.544	-38.423	0.075	-0.040
-422.530	255.946	-0.193	-0.330
-421.515	293.998	0.079	0.145
-420.500	800.000	0.085	0.275
-419.486	-200.000	0.011	-0.188
-418.471	554.977	-0.058	-0.140
-417.457	-94.729	0.234	0.063
-416.442	800.000	-0.098	0.345
-415.428	-200.000	0.006	-0.050
-414.413	-109.530	-0.101	-0.021
-413.398	-22.599	-0.132	-0.079
-412.384	-81.326	0.132	-0.044
-411.369	800.000	0.021	-0.060
-410.355	-23.098	-0.263	-0.158
-409.340	-30.295	-0.054	-0.030
-408.325	436.227	0.031	0.067
-407.311	-69.138	0.185	-0.071
-406.296	158.039	0.226	0.313
-405.282	11.724	0.158	0.121
-404.267	-106.980	0.305	0.067
-403.252	-200.000	-0.047	0.219
-402.238	800.000	0.089	-0.330
-401.223	800.000	-0.065	-0.273
-400.209	556.699	0.100	-0.241
-399.194	162.699	-0.152	0.213
-398.179	146.246	-0.240	0.321
-397.165	-200.000	0.022	-0.147
-396.150	-131.008	-0.202	-0.027
-395.136	-18.743	0.133	0.083
-394.121	-142.414	0.241	0.024
-393.106	-75.109	0.189	0.067
-392.092	-105.341	0.081	0.018
-391.077	-13.498	0.080	0.052
-390.063	-58.811	-0.064	-0.028
-389.048	-77.098	-0.140	0.049
-388.033	71.949	0.186	0.193
-387.019	448.664	0.027	-0.058
-386.004	-126.344	0.351	-0.052
-384.990	604.391	0.068	-0.168
-383.975	-20.961	-0.249	-0.151
-382.960	36.083	-0.040	0.035
-381.946	800.000	0.069	0.288
-380.931	-108.896	0.300	-0.064
-379.917	800.000	0.052	0.151
-378.902	-92.625	0.030	0.008
-377.888	188.199	0.195	0.290
-376.873	-99.070	0.139	-0.035
-375.858	-27.989	-0.232	0.134
-374.844	-24.090	0.016	-0.009
-373.829	83.848	-0.126	-0.136
-372.815	-139.330	-0.403	0.043
-371.800	164.605	-0.106	0.149
-370.785	90.423	-0.038	-0.043
-369.771	-70.902	0.131	0.049
-368.756	-200.000	-0.014	-0.097
-367.742	100.761	0.109	-0.126
-366.727	800.000	-0.050	-0.162
-365.712	-107.613	0.069	0.015
-364.698	54.302	0.064	-0.062
-363.683	-200.000	0.060	0.274
-362.669	144.078	0.097	0.129
-361.654	57.157	0.063	-0.061
-360.639	-200.000	-0.013	-0.101
-359.625	-160.187	0.263	-0.014
-358.610	-103.710	0.166	0.039
-357.596	-123.504	-0.195	-0.031
-356.581	340.562	-0.079	-0.153
-355.566	-80.390	0.050	0.017
-354.552	800.000	0.031	-0.119
-353.537	61.128	0.269	0.265
-352.523	-123.732	-0.308	-0.048
-351.508	-57.183	0.331	-0.145
-350.493	800.000	0.083	-0.249
-349.479	-101.166	-0.284	0.069
-348.464	-150.776	-0.373	0.028
-347.450	-200.000	-0.002	-0.127
-346.435	150.060	-0.047	-0.063
-345.420	108.482	0.252	-0.299
-344.406	633.791	0.077	0.193
-343.391	366.056	0.160	0.320
-342.377	-200.000	0.006	0.032
-341.362	-132.055	-0.358	0.046
-340.348	-89.531	0.255	0.074
-339.333	50.641	-0.067	0.063
-338.318	45.870	-0.244	0.224
-337.304	-200.000	-0.022	0.215
-336.289	-161.094	0.373	0.019
-335.275	800.000	0.022	0.067
-334.260	800.000	-0.050	0.145
-333.245	60.644	0.108	0.106
-332.231	-50.051	-0.032	0.015
-331.216	-31.223	0.167	0.093
-330.202	-41.692	-0.173	0.088
-329.187	-200.000	0.016	-0.229
-328.172	231.975	-0.107	-0.174
-327.158	800.000	0.142	-0.497
-326.143	-200.000	0.035	0.152
-325.129	-22.331	-0.104	-0.063
-324.114	-200.000	-0.014	-0.124
-323.099	-31.019	-0.346	0.194
-322.085	63.268	0.131	0.130
-321.070	-135.830	0.202	0.024
-320.056	-200.000	-0.012	-0.077
-319.041	30.022	0.215	0.182
-318.026	58.812	-0.234	-0.228
-317.012	-152.740	-0.106	0.008
-315.997	231.162	-0.059	-0.096
-314.983	-70.076	0.333	0.126
-313.968	73.897	0.210	0.218
-312.953	684.625	0.039	-0.102
-311.939	396.975	0.096	0.200
-310.924	52.539	0.160	0.151
-309.910	154.401	-0.130	-0.178
-308.895	1.636	0.154	0.110
-307.880	-18.178	0.273	0.170
-306.866	-83.254	0.273	-0.087
-305.851	219.281	0.124	-0.196
-304.837	-21.519	-0.128	0.077
-303.822	-124.106	0.095	0.015
-302.807	800.000	-0.043	-0.119
-301.793	670.902	0.080	0.205
-300.778	800.000	0.060	0.231
-299.764	-56.833	-0.199	0.087
-298.749	800.000	-0.018	0.069
-297.735	800.000	0.068	0.193
-296.720	-15.332	0.164	-0.104
-295.705	-103.642	0.297	0.069
-294.691	224.157	-0.220	-0.352
-293.676	402.630	-0.095	0.199
-292.662	-150.443	0.083	0.006
-291.647	800.000	0.055	0.176
-290.632	-90.268	0.238	0.068
-289.618	-115.851	-0.173	0.032
-288.603	-200.000	0.008	-0.039
-287.589	114.466	-0.223	0.270
-286.574	-133.224	0.119	0.015
-285.559	131.473	0.017	0.021
-284.545	-19.060	0.256	-0.158
-283.530	111.853	0.227	-0.272
-282.516	67.125	0.204	-0.206
-281.501	-181.076	-0.334	0.007
-280.486	-36.987	0.181	0.096
-279.472	-101.070	0.361	0.088
-278.457	274.442	0.092	-0.162
-277.443	-155.773	-0.340	-0.022
-276.428	-200.000	0.026	-0.263
-275.413	-126.284	-0.264	0.039
-274.399	472.447	0.127	-0.283
-273.384	84.426	0.274	0.297
-272.370	0.331	-0.216	-0.153
-271.355	-200.000	-0.007	0.260
-270.340	-66.981	0.205	0.080
-269.326	-200.000	-0.011	0.064
-268.311	-50.008	-0.163	0.076
-267.297	146.240	0.190	0.252
-266.282	800.000	-0.099	0.325
-265.267	-144.316	0.134	0.012
-264.253	240.898	0.103	-0.170
-263.238	-64.212	0.099	0.040
-262.224	-118.279	0.388	-0.068
-261.209	-42.480	-0.293	0.148
-260.195	531.230	0.039	0.092
-259.180	-123.884	-0.155	-0.024
-258.165	19.265	-0.056	0.044
-257.151	-129.945	-0.184	-0.025
-256.136	-163.420	0.184	-0.009
-255.122	-10.994	-0.215	-0.140
-254.107	-109.367	0.257	0.054
-253.092	-200.000	-0.005	0.260
-252.078	256.011	-0.131	0.222
-251.063	35.153	-0.257	0.223
-250.049	-168.278	0.165	0.006
-249.034	-189.255	0.157	-0.002
-248.019	280.847	0.169	-0.299
-247.005	-174.402	-0.237	0.007
-245.990	224.208	0.044	-0.071
-244.976	645.459	0.195	-0.492
-243.961	-134.187	-0.083	-0.010
-242.946	32.260	-0.205	-0.175
-241.932	140.120	0.151	-0.197
-240.917	-154.328	-0.315	-0.021
-239.903	800.000	0.132	0.447
-238.888	-153.229	-0.301	-0.021
-237.873	-53.072	-0.138	-0.063
-236.859	800.000	0.102	0.288
-235.844	135.787	0.234	-0.302
-234.830	-200.000	0.003	0.122
-233.815	-1.816	0.082	-0.057
-232.800	800.000	-0.022	0.079
-231.786	37.248	-0.072	0.063
-230.771	-29.387	-0.343	-0.194
-229.757	-122.387	0.358	-0.058
-228.742	-187.816	0.179	0.002
-227.727	525.999	0.088	0.205
-226.713	326.474	0.045	0.086
-225.698	4.901	-0.118	-0.086
-224.684	-49.276	0.146	0.069
-223.669	2.821	-0.133	-0.095
-222.655	-122.287	-0.190	0.031
-221.640	-200.000	0.003	-0.091
-220.625	-145.570	0.296	0.026
-219.611	271.609	-0.063	-0.110
-218.596	-118.030	0.225	0.040
-217.582	-13.213	-0.175	0.112
-216.567	-124.432	0.147	0.023
-215.552	269.777	-0.098	-0.169
-214.538	800.000	-0.061	0.239
-213.523	-181.293	-0.270	0.005
-212.509	53.278	0.124	0.118
-211.494	214.966	-0.125	0.195
-210.479	-5.107	-0.077	-0.053
-209.465	204.516	0.038	0.058
-208.450	-124.549	0.207	-0.032
-207.436	470.356	-0.054	0.119
-206.421	90.996	-0.144	0.160
-205.406	-76.752	-0.104	0.036
-204.392	-200.000	0.024	0.260
-203.377	-97.080	0.345	0.089
-202.363	429.459	0.105	-0.224
-201.348	46.818	0.017	0.016
-200.333	31.539	-0.206	-0.175
-199.319	647.296	-0.110	0.279
-198.304	439.887	0.078	0.169
-197.290	69.563	-0.066	0.067
-196.275	396.117	0.076	0.156
-195.260	-134.419	0.311	0.038
-194.246	15.003	-0.192	-0.149
-193.231	800.000	-0.114	0.383
-192.217	173.496	-0.210	0.299
-191.202	20.746	0.106	0.084
-190.187	453.102	0.237	-0.517
-189.173	-83.137	0.133	-0.042
-188.158	-107.189	-0.256	-0.056
-187.144	800.000	-0.037	0.160
-186.129	-200.000	-0.097	0.499
-185.114	-72.912	-0.242	-0.088
-184.100	-152.667	-0.478	0.034
-183.085	223.701	-0.048	-0.076
-182.071	-137.734	-0.433	0.048
-181.056	-135.122	-0.434	-0.052
-180.042	-77.734	0.110	0.038
-179.027	-200.000	-0.004	-0.272
-178.012	244.594	0.198	0.328
-176.998	800.000	-0.149	0.431
-175.983	393.385	0.155	0.319
-174.969	-55.763	0.305	0.135
-173.954	-122.864	0.108	-0.017
-172.939	325.223	0.047	-0.089
-171.925	-200.000	0.024	0.263
-170.910	54.236	0.188	-0.179
-169.896	-200.000	0.009	0.058
-168.881	433.812	0.049	0.105
-167.866	-20.736	0.193	0.117
-166.852	62.876	-0.226	0.223
-165.837	800.000	0.075	-0.300
-164.823	168.262	0.215	-0.302
-163.808	-195.890	-0.198	-0.001
-162.793	-73.111	0.190	-0.069
-161.779	-122.718	0.224	-0.036
-160.764	16.398	-0.222	-0.173
-159.750	-67.806	0.534	0.206
-158.735	-200.000	-0.032	0.304
-157.720	-97.440	0.111	-0.028
-156.706	800.000	-0.037	0.122
-155.691	527.329	-0.073	-0.169
-154.677	-18.650	0.100	0.061
-153.662	88.967	0.042	-0.046
-152.647	-200.000	-0.014	0.155
-151.633	33.244	0.063	-0.054
-150.618	-200.000	0.084	0.446
-149.604	-146.755	0.253	0.022
-148.589	-31.426	0.364	-0.202
-147.574	113.486	0.296	0.354
-146.560	-34.518	0.276	-0.149
-145.545	-25.372	-0.350	0.204
-144.531	800.000	0.124	0.402
-143.516	-177.854	0.179	0.004
-142.502	-171.293	0.092	0.003
-141.487	-52.947	-0.097	0.044
-140.472	-200.000	-0.051	0.241
-139.458	-71.076	-0.286	0.106
-138.443	-200.000	0.014	0.133
-137.429	244.051	0.055	-0.091
-136.414	538.929	-0.155	0.364
-135.399	466.352	0.140	-0.309
-134.385	486.430	-0.091	0.205
-133.370	-71.158	-0.149	-0.055
-132.356	-185.954	0.352	0.005
-131.341	11.198	-0.164	0.123
-130.326	219.343	0.111	0.174
-129.312	366.418	-0.075	0.149
-128.297	-56.856	0.271	-0.118
-127.283	124.295	0.143	0.178
-126.268	-145.940	-0.181	0.016
-125.253	-120.517	0.062	-0.010
-124.239	318.448	-0.114	0.212
-123.224	-80.612	-0.192	-0.063
-122.210	-56.055	0.151	0.066
-121.195	140.350	0.132	0.172
-120.180	64.214	-0.227	0.225
