DTS Sentinel unit serial number:	SN413079Multiplexer serial number:	ORYXHardware model number:	OX4-SRSoftware version number:	ORYX F/W v4.00 Oryx Data Collector v3.7.2.0data status	okinstallation	princeton_trtdifferential loss correction	single-endedforward channel	channel 3reverse channel	N/Adate	2019/09/11time	16:02:11forward acquisition time	60.00reverse acquisition time	0.00gamma	496.2192k internal	0.2288k external	0.2288temperature offset calibration	0.9988default loss term (dB/km)	0.3790temperature slope calibration	1.0000multiplexer offset coefficient	1.0000multiplexer slope coefficient	1.0000fibre end	0.00T internal ref (°C)	43.06T ext. ref 1 (°C)	1.02T ext. ref 2 (°C)	38.58length (m)	temperature (°C)	Stokes	anti-Stokes-747.200	-200.000	0.007	0.094
-746.185	38.670	-0.307	0.281
-745.171	197.094	-0.111	0.174
-744.156	-40.444	-0.100	0.053
-743.142	51.620	0.155	0.151
-742.127	270.836	-0.060	0.109
-741.112	-173.658	0.110	0.003
-740.098	128.248	-0.201	0.263
-739.083	800.000	0.077	-0.260
-738.069	123.078	-0.057	-0.073
-737.054	-103.005	-0.026	-0.006
-736.039	-116.490	0.113	0.021
-735.025	800.000	0.097	0.319
-734.010	800.000	0.100	-0.287
-732.996	-35.126	0.047	0.027
-731.981	117.616	-0.124	0.157
-730.966	63.387	0.139	-0.143
-729.952	398.572	-0.058	-0.125
-728.937	800.000	0.011	0.035
-727.923	-200.000	0.057	-0.291
-726.908	-130.309	-0.236	-0.033
-725.894	-183.172	0.166	-0.003
-724.879	217.392	-0.134	0.219
-723.864	-2.160	-0.208	0.149
-722.850	800.000	-0.068	-0.238
-721.835	-200.000	0.106	-0.562
-720.821	27.168	0.033	-0.028
-719.806	-24.252	-0.127	-0.078
-718.791	100.258	0.058	-0.069
-717.777	45.953	-0.254	-0.240
-716.762	-29.884	-0.383	-0.223
-715.748	403.785	-0.035	-0.076
-714.733	-101.759	0.102	-0.025
-713.718	719.783	0.082	0.224
-712.704	-131.905	-0.103	0.014
-711.689	-170.158	-0.085	0.003
-710.675	-200.000	-0.011	-0.228
-709.660	239.214	-0.175	0.298
-708.645	-200.000	-0.031	-0.571
-707.631	-66.568	-0.209	0.085
-706.616	-66.004	-0.312	-0.128
-705.602	155.031	-0.034	0.048
-704.587	-100.343	-0.078	0.020
-703.572	800.000	-0.024	0.093
-702.558	26.710	0.122	-0.105
-701.543	-128.554	0.156	0.023
-700.529	-141.272	-0.363	-0.038
-699.514	78.040	0.092	-0.101
-698.499	-43.701	0.302	0.156
-697.485	-200.000	0.015	-0.206
-696.470	-200.000	-0.011	0.209
-695.456	304.400	-0.224	0.425
-694.441	-175.568	0.277	0.008
-693.426	-77.026	-0.038	0.014
-692.412	-101.161	-0.108	-0.027
-691.397	666.498	-0.128	0.339
-690.383	-118.242	0.347	-0.063
-689.368	160.467	-0.204	-0.291
-688.354	-83.483	-0.267	-0.088
-687.339	-200.000	-0.011	-0.549
-686.324	-99.342	-0.456	0.118
-685.310	-154.887	0.321	-0.022
-684.295	-103.421	0.107	-0.026
-683.281	-200.000	0.014	-0.064
-682.266	96.135	-0.319	-0.374
-681.251	-19.853	0.174	0.110
-680.237	-190.765	-0.038	0.000
-679.222	-200.000	0.004	0.209
-678.208	800.000	0.052	-0.198
-677.193	-34.505	-0.240	-0.135
-676.178	-12.300	-0.258	-0.172
-675.164	800.000	-0.034	0.114
-674.149	-200.000	0.047	-0.265
-673.135	-37.978	0.162	0.088
-672.120	-66.623	0.149	-0.061
-671.105	-200.000	0.034	-0.185
-670.091	-150.682	0.160	-0.012
-669.076	-200.000	-0.019	0.131
-668.062	42.970	0.219	0.204
-667.047	800.000	-0.022	0.084
-666.032	-58.751	-0.091	0.040
-665.018	-146.792	0.178	0.016
-664.003	65.709	-0.294	-0.305
-662.989	800.000	-0.062	-0.271
-661.974	115.089	-0.059	-0.074
-660.959	-11.345	-0.235	-0.158
-659.945	46.384	-0.153	0.145
-658.930	-53.668	0.297	0.139
-657.916	-119.904	-0.115	0.020
-656.901	345.997	0.179	-0.360
-655.886	-200.000	0.067	0.397
-654.872	-23.549	0.164	0.100
-653.857	66.155	-0.186	-0.192
-652.843	-37.703	-0.267	-0.145
-651.828	48.113	-0.109	0.104
-650.814	2.241	0.203	0.150
-649.799	148.499	-0.099	-0.136
-648.784	800.000	-0.057	0.225
-647.770	-67.858	-0.191	0.076
-646.755	-59.223	-0.189	0.083
-645.741	69.011	0.050	0.052
-644.726	22.789	0.102	-0.085
-643.711	-40.284	0.072	0.038
-642.697	-145.176	-0.073	0.007
-641.682	-46.801	0.128	0.064
-640.668	-96.537	-0.459	0.124
-639.653	322.988	-0.169	-0.330
-638.638	-67.411	0.296	-0.119
-637.624	35.601	0.105	0.095
-636.609	-126.176	-0.450	-0.069
-635.595	-176.268	-0.199	0.005
-634.580	78.319	0.082	-0.090
-633.565	123.730	-0.110	-0.141
-632.551	-118.001	0.271	-0.050
-631.536	-117.343	-0.204	-0.038
-630.522	129.009	0.264	-0.344
-629.507	-124.790	-0.215	-0.034
-628.492	11.314	0.133	-0.104
-627.478	-93.981	-0.067	-0.019
-626.463	-200.000	-0.027	-0.123
-625.449	800.000	-0.062	-0.208
-624.434	249.371	-0.047	-0.082
-623.419	585.591	0.012	-0.031
-622.405	243.045	-0.093	0.159
-621.390	223.517	-0.180	-0.296
-620.376	-68.593	-0.091	0.036
-619.361	-25.132	0.119	0.072
-618.346	-31.628	0.344	-0.197
-617.332	67.970	0.143	-0.149
-616.317	-28.138	0.223	0.131
-615.303	-93.816	0.230	0.065
-614.288	-45.191	0.229	-0.116
-613.273	-200.000	-0.007	0.315
-612.259	162.814	-0.110	0.157
-611.244	-10.138	-0.321	0.217
-610.230	-192.069	0.237	0.002
-609.215	-200.000	0.010	-0.077
-608.201	-159.771	0.320	-0.018
-607.186	71.904	0.077	0.082
-606.171	800.000	0.063	0.273
-605.157	-200.000	-0.024	-0.531
-604.142	800.000	0.052	0.174
-603.128	7.956	-0.085	-0.065
-602.113	-200.000	0.006	0.248
-601.098	-37.633	-0.287	-0.156
-600.084	-20.363	-0.326	0.204
-599.069	-13.223	-0.086	-0.057
-598.055	-161.990	0.140	0.007
-597.040	-36.470	0.061	0.034
-596.025	800.000	-0.073	-0.238
-595.011	800.000	0.061	-0.201
-593.996	-200.000	0.002	-0.055
-592.982	-200.000	-0.001	-0.121
-591.967	39.918	-0.031	0.029
-590.952	-64.276	-0.166	-0.069
-589.938	-149.655	-0.036	0.003
-588.923	-131.443	0.282	0.038
-587.909	591.855	0.098	-0.246
-586.894	196.054	-0.179	-0.277
-585.879	-24.484	-0.293	0.178
-584.865	-86.276	-0.162	-0.051
-583.850	-200.000	0.014	-0.181
-582.836	60.232	-0.135	0.136
-581.821	208.273	-0.052	-0.082
-580.806	-77.744	-0.428	-0.151
-579.792	111.336	-0.103	-0.127
-578.777	800.000	0.052	0.215
-577.763	277.458	0.090	0.163
-576.748	45.460	-0.149	0.140
-575.733	-50.208	-0.087	0.042
-574.719	141.696	0.209	0.282
-573.704	-200.000	-0.017	-0.157
-572.690	-35.422	-0.108	-0.060
-571.675	69.325	0.080	-0.084
-570.661	800.000	0.145	-0.441
-569.646	12.151	0.187	0.146
-568.631	5.761	0.152	0.114
-567.617	115.652	-0.138	-0.172
-566.602	415.785	-0.041	0.089
-565.588	740.166	-0.063	0.173
-564.573	-124.653	-0.144	-0.023
-563.558	-167.853	-0.367	-0.015
-562.544	-126.264	0.090	-0.014
-561.529	-80.797	-0.158	-0.053
-560.515	-102.968	-0.131	-0.032
-559.500	326.639	-0.064	0.125
-558.485	800.000	-0.067	0.222
-557.471	322.391	0.108	0.210
-556.456	-200.000	0.056	-0.395
-555.442	-200.000	0.030	0.145
-554.427	-108.520	-0.270	0.059
-553.412	-172.466	0.118	0.004
-552.398	-200.000	0.035	-0.176
-551.383	346.264	-0.048	0.095
-550.369	-181.941	0.136	0.003
-549.354	-159.910	-0.102	-0.006
-548.339	-27.592	0.119	-0.070
-547.325	-66.166	-0.265	-0.108
-546.310	-200.000	0.026	0.259
-545.296	28.137	0.100	0.086
-544.281	188.457	-0.007	0.011
-543.266	-200.000	0.018	-0.223
-542.252	-115.694	-0.312	-0.059
-541.237	94.643	0.103	0.119
-540.223	498.002	-0.128	-0.299
-539.208	-39.965	0.395	-0.209
-538.193	-126.066	0.328	-0.050
-537.179	81.647	-0.031	0.034
-536.164	-144.567	0.161	0.015
-535.150	800.000	-0.087	-0.268
-534.135	-33.915	0.175	0.098
-533.121	-69.385	-0.193	0.075
-532.106	-85.154	-0.205	-0.065
-531.091	-69.142	-0.149	0.058
-530.077	-57.956	0.336	-0.149
-529.062	800.000	-0.035	0.152
-528.048	-140.007	0.325	-0.035
-527.033	-50.377	0.104	0.050
-526.018	-0.341	0.048	0.035
-525.004	1.307	0.123	-0.090
-523.989	-200.000	0.009	0.245
-522.975	800.000	-0.023	0.080
-521.960	233.101	-0.113	0.189
-520.945	174.497	0.264	-0.388
-519.931	413.083	-0.073	-0.159
-518.916	-34.605	-0.177	-0.098
-517.902	133.854	-0.156	0.206
-516.887	-117.537	0.620	-0.114
-515.872	-200.000	-0.000	-0.166
-514.858	-73.227	-0.249	0.093
-513.843	134.772	-0.111	0.146
-512.829	-200.000	-0.037	-0.174
-511.814	-59.205	-0.208	-0.091
-510.799	-200.000	0.027	-0.263
-509.785	-83.762	-0.295	0.096
-508.770	45.147	-0.101	-0.095
-507.756	-3.900	0.066	0.047
-506.741	-44.479	-0.071	0.036
-505.726	-200.000	-0.048	-0.354
-504.712	376.818	0.156	0.324
-503.697	102.204	0.200	0.237
-502.683	-79.151	-0.041	0.014
-501.668	282.184	-0.055	-0.100
-500.653	800.000	0.091	0.371
-499.639	800.000	0.074	0.262
-498.624	110.629	-0.125	-0.153
-497.610	-118.895	0.278	-0.050
-496.595	-104.318	0.232	0.055
-495.581	-54.151	-0.147	-0.068
-494.566	-65.452	-0.294	0.120
-493.551	-117.606	-0.372	-0.068
-492.537	-82.100	-0.374	0.124
-491.522	62.079	0.247	0.250
-490.508	46.601	0.018	-0.017
-489.493	800.000	0.086	0.250
-488.478	135.624	-0.091	0.120
-487.464	170.878	0.188	-0.274
-486.449	610.681	-0.077	-0.195
-485.435	-65.112	0.118	-0.049
-484.420	-32.434	-0.220	0.124
-483.405	373.036	-0.047	0.098
-482.391	199.977	0.035	0.055
-481.376	-200.000	-0.019	0.161
-480.362	223.649	-0.182	0.299
-479.347	33.512	-0.088	-0.078
-478.332	123.640	-0.107	-0.137
-477.318	-52.413	-0.132	0.062
-476.303	58.154	0.103	-0.102
-475.289	800.000	0.089	0.381
-474.274	-200.000	0.003	-0.097
-473.259	258.560	-0.051	0.088
-472.245	-123.900	-0.264	-0.042
-471.230	-200.000	-0.020	-0.111
-470.216	-61.109	-0.246	-0.105
-469.201	-23.752	0.190	-0.116
-468.186	-200.000	0.032	-0.272
-467.172	390.678	0.098	-0.206
-466.157	116.730	-0.145	-0.180
-465.143	-200.000	-0.027	-0.233
-464.128	-88.735	-0.375	0.113
-463.113	314.809	-0.031	0.060
-462.099	-109.610	-0.342	0.073
-461.084	800.000	-0.064	0.192
-460.070	-124.837	0.292	-0.046
-459.055	641.916	-0.057	-0.146
-458.040	184.927	-0.070	-0.106
-457.026	-69.932	-0.109	-0.042
-456.011	-71.822	0.190	0.072
-454.997	-8.087	0.055	-0.037
-453.982	-45.587	-0.237	0.119
-452.968	-200.000	-0.031	0.253
-451.953	602.769	0.072	0.181
-450.938	251.761	-0.104	0.180
-449.924	90.551	-0.222	-0.251
-448.909	-200.000	0.003	0.150
-447.895	-69.773	0.179	0.069
-446.880	253.923	-0.051	-0.089
-445.865	800.000	0.117	-0.329
-444.851	68.950	0.344	-0.358
-443.836	-64.078	-0.242	0.100
-442.822	-79.719	0.038	0.013
-441.807	-15.556	-0.139	0.090
-440.792	-111.987	-0.210	0.043
-439.778	800.000	-0.039	-0.127
-438.763	482.252	0.124	0.286
-437.749	44.831	0.099	-0.092
-436.734	-200.000	-0.021	0.170
-435.719	116.385	-0.081	-0.101
-434.705	608.949	-0.014	-0.035
-433.690	299.891	-0.037	0.070
-432.676	-5.942	-0.127	0.088
-431.661	800.000	0.196	0.555
-430.646	-21.499	-0.105	-0.065
-429.632	-145.412	0.117	-0.011
-428.617	153.717	-0.368	0.511
-427.603	267.767	-0.117	0.207
-426.588	82.036	0.170	0.186
-425.573	-37.502	0.246	0.133
-424.559	162.465	0.177	0.252
-423.544	-200.000	0.053	0.290
-422.530	38.761	0.264	-0.238
-421.515	237.764	-0.068	0.115
-420.500	20.976	0.158	-0.130
-419.486	95.621	-0.064	-0.074
-418.471	-20.969	0.262	0.162
-417.457	236.490	-0.026	-0.043
-416.442	54.335	0.070	-0.068
-415.428	800.000	-0.060	0.173
-414.413	277.377	0.101	0.182
-413.398	-200.000	0.043	0.397
-412.384	571.141	0.066	-0.164
-411.369	-79.696	0.188	-0.064
-410.355	636.243	0.061	-0.158
-409.340	-200.000	-0.041	-0.242
-408.325	293.014	0.110	0.203
-407.311	1.110	0.074	0.054
-406.296	800.000	-0.115	-0.350
-405.282	48.957	-0.031	-0.029
-404.267	664.069	-0.001	0.003
-403.252	-33.549	-0.122	-0.068
-402.238	-65.851	-0.239	-0.097
-401.223	0.194	-0.172	0.124
-400.209	-200.000	0.011	0.170
-399.194	123.609	-0.189	-0.240
-398.179	189.622	-0.173	0.262
-397.165	33.397	0.163	-0.143
-396.150	456.751	-0.134	0.300
-395.136	-128.421	-0.054	-0.008
-394.121	309.461	0.086	-0.162
-393.106	322.256	0.056	0.107
-392.092	196.719	0.156	-0.241
-391.077	541.904	-0.062	0.149
-390.063	769.106	-0.132	0.364
-389.048	86.159	-0.005	-0.005
-388.033	-200.000	-0.000	0.282
-387.019	-130.359	0.260	0.036
-386.004	291.493	0.038	0.069
-384.990	-153.192	0.163	0.012
-383.975	146.625	0.166	0.225
-382.960	85.446	0.065	-0.072
-381.946	-16.548	0.139	-0.089
-380.931	407.092	0.120	0.257
-379.917	-14.219	0.068	-0.044
-378.902	357.762	0.032	-0.064
-377.888	32.612	-0.154	0.135
-376.873	287.961	0.197	-0.360
-375.858	-200.000	-0.040	-0.333
-374.844	-200.000	0.012	0.350
-373.829	-200.000	-0.001	0.034
-372.815	-26.704	0.291	-0.172
-371.800	39.300	-0.096	0.087
-370.785	48.018	0.141	-0.133
-369.771	800.000	0.021	-0.066
-368.756	-165.322	-0.346	0.015
-367.742	-110.862	0.099	-0.021
-366.727	77.595	-0.222	0.239
-365.712	-113.676	0.208	0.041
-364.698	342.613	0.126	-0.249
-363.683	-53.649	-0.186	0.086
-362.669	148.833	-0.098	-0.134
-361.654	21.113	-0.270	0.221
-360.639	-100.428	-0.078	-0.020
-359.625	258.928	0.176	-0.307
-358.610	126.067	0.132	0.169
-357.596	-0.510	0.222	-0.159
-356.581	-200.000	0.315	0.001
-355.566	-43.979	-0.134	0.068
-354.552	136.012	-0.206	0.271
-353.537	-112.545	-0.453	0.091
-352.523	-138.840	0.317	-0.035
-351.508	543.112	-0.139	0.336
-350.493	-94.191	-0.222	-0.061
-349.479	1.551	-0.391	-0.284
-348.464	-1.139	0.254	0.181
-347.450	-200.000	-0.010	0.064
-346.435	-200.000	0.003	-0.064
-345.420	-51.463	0.234	0.110
-344.406	-1.479	-0.219	-0.156
-343.391	-200.000	0.001	0.258
-342.377	-108.956	0.211	0.045
-341.362	-17.501	0.255	0.162
-340.348	20.126	0.122	-0.100
-339.333	-102.793	0.326	0.078
-338.318	-183.619	-0.417	0.007
-337.304	102.709	-0.156	-0.184
-336.289	10.611	-0.148	0.114
-335.275	-200.000	0.004	-0.118
-334.260	-200.000	-0.017	0.299
-333.245	650.823	0.149	-0.385
-332.231	800.000	0.104	0.298
-331.216	-27.164	-0.011	-0.006
-330.202	313.103	-0.094	-0.179
-329.187	-200.000	0.047	0.220
-328.172	-200.000	0.011	0.257
-327.158	-134.372	-0.295	-0.037
-326.143	-27.849	-0.144	-0.084
-325.129	800.000	0.034	0.144
-324.114	-56.391	0.432	-0.193
-323.099	-78.264	0.256	-0.089
-322.085	-200.000	-0.039	-0.221
-321.070	-85.196	0.068	0.021
-320.056	-200.000	-0.036	0.242
-319.041	-108.099	-0.061	-0.013
-318.026	-81.539	0.290	-0.096
-317.012	-200.000	0.027	-0.349
-315.997	-200.000	0.014	-0.128
-314.983	-124.658	0.387	-0.061
-313.968	460.408	0.125	-0.281
-312.953	-131.602	0.142	-0.019
-311.939	130.650	0.131	0.169
-310.924	71.141	-0.279	0.292
-309.910	32.531	0.070	0.061
-308.895	-91.939	0.263	-0.075
-307.880	800.000	0.017	0.060
-306.866	-200.000	-0.026	0.246
-305.851	-200.000	-0.027	-0.325
-304.837	-119.601	0.208	-0.036
-303.822	-200.000	0.127	-0.001
-302.807	-29.149	0.543	-0.313
-301.793	-101.475	0.160	0.039
-300.778	800.000	-0.038	0.112
-299.764	192.042	-0.270	-0.410
-298.749	13.268	-0.310	0.242
-297.735	-53.312	-0.012	-0.006
-296.720	-100.606	0.230	-0.057
-295.705	-147.098	0.312	-0.027
-294.691	800.000	0.072	0.254
-293.676	173.360	-0.131	0.190
-292.662	-8.904	-0.102	-0.069
-291.647	-122.733	-0.247	-0.040
-290.632	253.939	0.106	-0.183
-289.618	800.000	0.044	0.171
-288.603	131.900	0.283	-0.367
-287.589	-200.000	0.006	-0.140
-286.574	-200.000	0.012	-0.167
-285.559	361.726	0.073	-0.148
-284.545	62.766	0.247	-0.249
-283.530	4.598	0.332	-0.245
-282.516	-200.000	-0.051	-0.321
-281.501	-200.000	-0.007	-0.099
-280.486	-8.076	0.408	-0.277
-279.472	-134.761	0.071	0.009
-278.457	100.374	-0.051	-0.059
-277.443	-200.000	0.008	-0.153
-276.428	-159.186	-0.240	0.014
-275.413	-39.844	0.136	-0.071
-274.399	-200.000	0.013	0.319
-273.384	800.000	0.102	-0.332
-272.370	99.239	0.077	-0.090
-271.355	-113.900	0.040	-0.008
-270.340	356.472	-0.177	0.354
-269.326	800.000	0.137	0.490
-268.311	3.277	-0.366	0.268
-267.297	236.148	-0.214	0.356
-266.282	800.000	0.045	0.181
-265.267	800.000	-0.079	0.287
-264.253	-47.593	0.340	0.166
-263.238	338.030	0.036	-0.071
-262.224	-51.840	-0.115	0.054
-261.209	-50.467	0.035	0.017
-260.195	26.890	-0.255	-0.215
-259.180	16.149	-0.160	-0.127
-258.165	-200.000	0.060	-0.367
-257.151	418.965	-0.123	-0.264
-256.136	800.000	0.068	0.270
-255.122	-200.000	-0.078	0.434
-254.107	-114.126	-0.269	-0.052
-253.092	145.173	-0.173	0.233
-252.078	125.361	0.070	0.089
-251.063	102.629	-0.220	-0.258
-250.049	50.029	-0.159	-0.151
-249.034	85.065	0.097	0.107
-248.019	800.000	0.061	-0.227
-247.005	-200.000	0.078	0.388
-245.990	199.942	0.072	0.111
-244.976	295.390	0.058	0.106
-243.961	-59.033	0.413	-0.179
-242.946	132.679	0.074	0.095
-241.932	128.750	0.098	0.125
-240.917	263.641	-0.138	-0.240
-239.903	-23.294	0.030	-0.018
-238.888	181.888	-0.118	0.174
-237.873	-76.426	0.102	-0.036
-236.859	-200.000	-0.017	-0.225
-235.844	-200.000	0.014	-0.295
-234.830	355.756	-0.096	0.192
-233.815	253.379	-0.159	0.272
-232.800	800.000	-0.115	-0.384
-231.786	-79.177	0.132	-0.045
-230.771	576.003	-0.127	0.312
-229.757	-62.392	-0.300	0.125
-228.742	223.619	-0.115	0.186
-227.727	-134.044	-0.240	-0.030
-226.713	800.000	0.040	-0.145
-225.698	15.659	0.144	0.114
-224.684	-200.000	0.016	0.079
-223.669	288.996	-0.128	-0.233
-222.655	-96.439	0.191	-0.051
-221.640	-200.000	-0.082	-0.471
-220.625	-157.366	0.130	-0.008
-219.611	33.329	-0.031	0.027
-218.596	40.375	0.054	-0.049
-217.582	236.013	0.175	-0.290
-216.567	-200.000	0.006	0.049
-215.552	-70.724	0.412	0.156
-214.538	269.738	0.073	-0.129
-213.523	154.514	0.118	0.162
-212.509	-102.904	-0.080	-0.019
-211.494	380.334	0.152	0.313
-210.479	64.022	0.036	0.037
-209.465	-36.478	-0.215	-0.116
-208.450	-67.443	-0.116	0.046
-207.436	-70.346	-0.181	0.069
-206.421	316.567	-0.064	-0.122
-205.406	-174.416	0.104	-0.003
-204.392	800.000	-0.093	-0.346
-203.377	208.429	0.018	-0.028
-202.363	18.558	-0.314	-0.252
-201.348	124.397	0.216	-0.273
-200.333	-200.000	-0.009	0.146
-199.319	-18.544	-0.044	0.028
-198.304	387.202	-0.147	0.304
-197.290	800.000	-0.019	0.071
-196.275	-200.000	-0.012	0.191
-195.260	-193.575	-0.082	0.001
-194.246	210.646	0.043	-0.068
-193.231	604.328	-0.169	0.423
-192.217	-52.967	0.120	0.055
-191.202	-19.527	-0.206	0.128
-190.187	-38.779	-0.050	0.027
-189.173	-34.745	-0.081	0.044
-188.158	-25.125	0.009	-0.005
-187.144	335.265	0.054	-0.105
-186.129	243.970	0.076	-0.128
-185.114	128.743	-0.228	0.291
-184.100	173.017	-0.136	0.197
-183.085	10.243	-0.153	-0.117
-182.071	29.833	-0.208	-0.178
-181.056	88.187	0.122	-0.136
-180.042	-80.767	0.194	-0.065
-179.027	-200.000	-0.021	0.113
-178.012	-200.000	0.054	-0.308
-176.998	-200.000	0.030	-0.213
-175.983	-200.000	0.038	-0.255
-174.969	-200.000	0.039	-0.261
-173.954	12.520	0.094	-0.072
-172.939	-192.299	-0.012	0.000
-171.925	37.614	0.198	-0.176
-170.910	9.837	0.408	0.310
-169.896	-17.833	0.024	0.015
-168.881	666.650	-0.040	0.103
-167.866	31.518	-0.047	0.041
-166.852	-187.995	0.163	-0.002
-165.837	-2.900	0.300	0.210
-164.823	68.896	0.106	-0.109
-163.808	-42.846	0.348	0.177
-162.793	-24.985	0.183	-0.109
-161.779	22.418	-0.058	0.048
-160.764	800.000	0.035	-0.105
-159.750	-139.099	-0.097	0.010
-158.735	-144.227	-0.328	0.031
-157.720	800.000	0.103	-0.394
-156.706	-0.530	-0.253	0.180
-155.691	-74.387	0.442	0.160
-154.677	61.771	-0.133	0.132
-153.662	66.386	-0.137	-0.139
-152.647	-142.809	-0.226	0.022
-151.633	-145.177	-0.215	0.020
-150.618	26.755	0.110	0.092
-149.604	386.598	-0.100	0.207
-148.589	86.363	0.394	-0.435
-147.574	-164.230	0.173	0.008
-146.560	-119.562	-0.414	0.072
-145.545	-200.000	-0.033	-0.150
-144.531	208.179	-0.164	0.257
-143.516	-84.643	0.026	-0.008
-142.502	164.405	-0.117	0.166
-141.487	141.745	0.176	0.233
-140.472	-200.000	-0.008	-0.181
-139.458	-154.352	-0.232	-0.016
-138.443	800.000	0.050	-0.139
-137.429	800.000	-0.013	-0.041
-136.414	-200.000	0.013	-0.202
-135.399	-11.892	-0.295	-0.194
-134.385	185.644	0.123	-0.183
-133.370	583.944	0.066	0.163
-132.356	41.658	0.157	0.142
-131.341	-83.890	-0.133	0.043
-130.326	84.563	-0.100	-0.110
-129.312	-147.528	0.144	-0.012
-128.297	-162.172	0.073	0.004
-127.283	183.648	-0.076	0.112
-126.268	312.228	0.103	-0.193
-125.253	345.956	-0.071	0.139
-124.239	-21.941	-0.312	-0.190
-123.224	42.167	0.294	0.267
-122.210	-78.003	-0.249	-0.086
-121.195	-200.000	-0.009	0.269
