DTS Sentinel unit serial number:	SN413079Multiplexer serial number:	ORYXHardware model number:	OX4-SRSoftware version number:	ORYX F/W v4.00 Oryx Data Collector v3.7.2.0data status	okinstallation	princeton_trtdifferential loss correction	single-endedforward channel	channel 3reverse channel	N/Adate	2019/09/17time	20:56:34forward acquisition time	60.00reverse acquisition time	0.00gamma	496.2192k internal	0.2336k external	0.2336temperature offset calibration	0.9955default loss term (dB/km)	0.3790temperature slope calibration	1.0000multiplexer offset coefficient	1.0000multiplexer slope coefficient	1.0000fibre end	0.00T internal ref (°C)	28.87T ext. ref 1 (°C)	0.19T ext. ref 2 (°C)	20.40length (m)	temperature (°C)	Stokes	anti-Stokes-747.200	365.056	-0.161	0.326
-746.185	120.952	-0.065	-0.082
-745.171	-66.795	-0.366	-0.145
-744.156	109.887	0.111	0.133
-743.142	-84.787	0.214	-0.068
-742.127	-53.355	-0.333	0.153
-741.112	-90.434	-0.154	-0.045
-740.098	-35.825	-0.196	0.107
-739.083	457.178	-0.071	-0.158
-738.069	-30.087	-0.151	0.086
-737.054	4.840	0.249	-0.184
-736.039	-97.747	-0.364	-0.095
-735.025	-41.523	0.198	0.102
-734.010	-49.658	0.183	-0.087
-732.996	-25.277	-0.304	-0.180
-731.981	-135.057	-0.163	0.020
-730.966	-115.271	-0.355	-0.067
-729.952	172.470	-0.149	-0.215
-728.937	195.741	-0.246	-0.375
-727.923	-93.701	0.053	0.015
-726.908	-200.000	0.047	-0.292
-725.894	-79.784	-0.170	-0.057
-724.879	-156.576	-0.209	0.013
-723.864	800.000	0.042	-0.150
-722.850	11.743	0.127	-0.098
-721.835	-15.989	0.225	-0.144
-720.821	-10.782	-0.289	-0.192
-719.806	-12.760	-0.174	-0.114
-718.791	-67.631	-0.116	-0.046
-717.777	-27.357	-0.124	0.072
-716.762	-200.000	-0.004	-0.077
-715.748	-200.000	-0.044	-0.397
-714.733	403.659	0.092	-0.194
-713.718	800.000	0.045	-0.143
-712.704	-64.566	-0.128	-0.052
-711.689	209.339	-0.110	0.172
-710.675	21.568	0.219	0.179
-709.660	-103.184	-0.134	0.032
-708.645	-145.423	-0.199	0.018
-707.631	-52.894	0.341	-0.157
-706.616	-14.056	0.203	0.132
-705.602	572.025	-0.055	-0.134
-704.587	291.809	0.119	-0.217
-703.572	-63.424	0.102	-0.042
-702.558	-200.000	0.020	0.152
-701.543	-36.448	0.167	-0.090
-700.529	59.341	-0.148	0.146
-699.514	605.750	0.040	0.100
-698.499	43.836	-0.178	-0.163
-697.485	-100.250	0.222	0.055
-696.470	717.240	-0.076	0.203
-695.456	-200.000	0.003	-0.063
-694.441	0.082	0.245	0.175
-693.426	-92.283	0.089	0.025
-692.412	109.191	-0.137	0.164
-691.397	-166.942	-0.301	0.012
-690.383	485.610	-0.205	-0.469
-689.368	-165.417	-0.400	0.018
-688.354	-141.191	-0.460	-0.047
-687.339	-127.270	0.143	0.021
-686.324	-14.575	-0.134	0.086
-685.310	-45.091	-0.196	-0.098
-684.295	-177.615	0.317	-0.008
-683.281	36.529	0.002	-0.002
-682.266	152.754	-0.216	0.296
-681.251	-35.207	-0.184	-0.100
-680.237	92.148	-0.292	-0.329
-679.222	-3.112	-0.090	0.063
-678.208	608.140	-0.055	-0.137
-677.193	-158.296	-0.213	-0.012
-676.178	-200.000	0.005	0.118
-675.164	351.783	-0.068	-0.135
-674.149	-128.510	-0.120	-0.017
-673.135	800.000	-0.127	0.369
-672.120	-200.000	0.001	0.123
-671.105	-78.223	0.190	-0.065
-670.091	-92.640	0.367	-0.103
-669.076	-200.000	-0.006	0.053
-668.062	-45.437	0.207	-0.103
-667.047	-200.000	0.096	-0.472
-666.032	-30.440	0.181	-0.103
-665.018	-49.686	-0.094	-0.045
-664.003	-94.327	0.116	0.032
-662.989	242.223	0.365	-0.612
-661.974	-97.960	0.196	0.051
-660.959	10.567	0.162	-0.124
-659.945	-98.618	0.150	-0.038
-658.930	340.570	0.122	0.239
-657.916	-200.000	-0.007	-0.147
-656.901	-200.000	-0.042	0.358
-655.886	293.901	-0.106	0.194
-654.872	-118.382	-0.198	0.035
-653.857	-29.406	0.148	0.085
-652.843	-136.600	0.167	-0.019
-651.828	-6.346	-0.160	-0.109
-650.814	-200.000	0.010	-0.061
-649.799	-74.094	-0.084	0.031
-648.784	-69.278	-0.183	0.070
-647.770	-148.951	0.055	0.004
-646.755	-38.921	-0.287	-0.152
-645.741	-200.000	0.035	-0.256
-644.726	-200.000	0.029	-0.264
-643.711	-200.000	-0.058	0.272
-642.697	-36.396	-0.207	0.112
-641.682	266.952	0.066	-0.116
-640.668	132.456	0.275	0.354
-639.653	-200.000	-0.009	0.136
-638.638	-200.000	0.030	-0.186
-637.624	-29.861	-0.223	-0.127
-636.609	-20.471	-0.107	-0.066
-635.595	-103.777	-0.302	-0.071
-634.580	-162.625	-0.258	-0.013
-633.565	-120.772	-0.133	0.022
-632.551	-90.935	0.231	0.066
-631.536	232.176	0.198	-0.326
-630.522	-58.534	-0.080	-0.035
-629.507	251.987	-0.097	0.165
-628.492	109.200	-0.059	0.070
-627.478	-200.000	-0.040	-0.186
-626.463	123.676	0.123	-0.154
-625.449	-98.524	0.059	0.015
-624.434	-59.154	0.229	0.099
-623.419	-141.085	0.323	0.033
-622.405	-200.000	0.021	0.243
-621.390	17.063	-0.211	0.168
-620.376	-5.890	-0.167	0.114
-619.361	408.041	0.128	0.270
-618.346	-200.000	0.007	0.172
-617.332	-118.352	0.176	-0.031
-616.317	-108.025	-0.054	0.012
-615.303	-31.941	0.035	-0.020
-614.288	-59.989	0.347	-0.148
-613.273	800.000	0.102	-0.307
-612.259	-200.000	-0.047	-0.361
-611.244	114.070	0.104	-0.126
-610.230	38.873	-0.290	-0.258
-609.215	800.000	0.029	-0.096
-608.201	-103.100	-0.308	-0.073
-607.186	-189.390	0.178	-0.002
-606.171	-200.000	0.023	0.111
-605.157	-85.080	0.217	-0.068
-604.142	-40.857	-0.131	-0.068
-603.128	-116.213	0.137	-0.025
-602.113	-69.320	0.252	-0.097
-601.098	-55.845	-0.161	0.072
-600.084	80.145	0.135	0.145
-599.069	800.000	-0.161	0.460
-598.055	-147.464	0.248	0.021
-597.040	245.900	0.122	-0.205
-596.025	-43.532	-0.197	-0.099
-595.011	49.978	-0.057	0.053
-593.996	-200.000	0.075	0.451
-592.982	-95.903	-0.245	0.065
-591.967	-200.000	-0.010	0.109
-590.952	-74.202	-0.174	-0.063
-589.938	-68.341	-0.502	0.195
-588.923	-200.000	0.033	0.181
-587.909	800.000	-0.080	0.327
-586.894	800.000	0.175	0.515
-585.879	-86.296	0.223	-0.068
-584.865	-75.954	0.177	-0.063
-583.850	800.000	0.119	0.339
-582.836	800.000	0.113	0.365
-581.821	-152.741	-0.287	0.020
-580.806	441.564	-0.095	0.207
-579.792	5.970	-0.345	0.255
-578.777	558.153	-0.086	0.207
-577.763	104.112	0.170	-0.200
-576.748	32.292	-0.363	0.312
-575.733	-162.048	0.088	-0.004
-574.719	33.202	0.193	0.167
-573.704	800.000	0.071	-0.294
-572.690	-83.664	-0.166	0.053
-571.675	-200.000	0.005	-0.442
-570.661	423.371	-0.017	0.037
-569.646	-119.305	0.241	-0.042
-568.631	401.165	-0.118	0.247
-567.617	89.347	-0.152	0.169
-566.602	-107.997	0.160	-0.035
-565.588	-34.077	-0.343	-0.188
-564.573	-125.683	0.229	0.035
-563.558	87.251	-0.215	-0.237
-562.544	-41.805	0.256	-0.131
-561.529	800.000	0.025	0.080
-560.515	-38.393	-0.349	0.184
-559.500	-200.000	-0.060	0.297
-558.485	-107.277	-0.062	0.014
-557.471	5.969	-0.018	-0.013
-556.456	621.211	-0.103	-0.258
-555.442	-200.000	-0.044	0.226
-554.427	-148.797	-0.035	-0.003
-553.412	-81.181	0.185	0.061
-552.398	-19.006	-0.242	0.150
-551.383	-150.300	-0.351	0.027
-550.369	-200.000	-0.011	-0.448
-549.354	-122.056	0.535	0.088
-548.339	-82.046	-0.223	0.073
-547.325	31.096	-0.197	0.169
-546.310	800.000	0.041	0.113
-545.296	98.162	0.286	0.328
-544.281	-59.293	0.028	-0.012
-543.266	800.000	-0.088	0.348
-542.252	-89.516	-0.103	0.030
-541.237	-103.614	-0.227	-0.053
-540.223	-4.875	-0.122	0.084
-539.208	800.000	-0.025	-0.096
-538.193	-173.440	0.325	-0.010
-537.179	86.142	-0.151	-0.166
-536.164	5.546	0.108	0.079
-535.150	-33.910	0.185	-0.101
-534.135	-112.886	-0.156	-0.031
-533.121	38.742	-0.364	-0.324
-532.106	187.959	0.135	-0.201
-531.091	-200.000	0.015	0.423
-530.077	-200.000	0.054	-0.260
-529.062	-6.517	-0.144	-0.098
-528.048	800.000	0.161	0.468
-527.033	-107.828	0.261	-0.057
-526.018	-200.000	-0.012	-0.054
-525.004	-7.123	0.065	0.044
-523.989	217.607	-0.152	-0.241
-522.975	-143.868	-0.487	0.046
-521.960	-92.794	-0.259	0.072
-520.945	-163.672	0.075	-0.004
-519.931	-141.606	0.272	0.027
-518.916	17.778	-0.065	-0.051
-517.902	-95.925	0.100	-0.027
-516.887	-100.960	0.178	-0.043
-515.872	191.041	0.224	-0.336
-514.858	-200.000	0.057	-0.306
-513.843	800.000	-0.044	-0.167
-512.829	-70.004	0.188	-0.071
-511.814	800.000	0.013	0.041
-510.799	-5.459	0.089	0.061
-509.785	-42.679	-0.159	0.081
-508.770	-149.947	-0.461	0.036
-507.756	-149.976	0.377	-0.029
-506.741	543.935	-0.109	-0.259
-505.726	707.862	0.052	0.136
-504.712	103.589	0.064	-0.074
-503.697	-94.713	0.164	-0.044
-502.683	285.774	-0.136	-0.244
-501.668	79.957	0.357	0.381
-500.653	-156.676	-0.185	-0.011
-499.639	-5.060	-0.295	-0.202
-498.624	800.000	0.059	-0.175
-497.610	800.000	-0.189	-0.641
-496.595	-32.377	-0.028	0.016
-495.581	-91.888	-0.310	0.087
-494.566	-200.000	0.001	-0.008
-493.551	-200.000	0.005	0.218
-492.537	4.390	-0.216	0.157
-491.522	-130.196	-0.182	0.025
-490.508	261.677	0.159	0.275
-489.493	-89.202	-0.141	-0.042
-488.478	379.266	0.157	-0.319
-487.464	305.262	0.108	0.200
-486.449	-74.457	0.224	0.080
-485.435	419.472	-0.099	-0.211
-484.420	800.000	-0.030	-0.098
-483.405	713.489	0.062	0.163
-482.391	-8.903	0.289	-0.193
-481.376	12.645	0.140	0.107
-480.362	800.000	0.013	-0.042
-479.347	-82.576	-0.259	-0.084
-478.332	-123.943	0.373	-0.058
-477.318	281.013	-0.183	-0.326
-476.303	-200.000	-0.019	0.202
-475.289	126.503	0.089	0.112
-474.274	3.104	0.164	0.119
-473.259	108.537	-0.086	0.103
-472.245	-138.533	0.229	-0.025
-471.230	-52.989	-0.289	-0.132
-470.216	-49.683	-0.100	0.047
-469.201	58.260	0.029	0.028
-468.186	-89.165	-0.254	0.074
-467.172	55.356	-0.100	-0.096
-466.157	-145.092	-0.188	-0.017
-465.143	31.743	-0.080	0.068
-464.128	-135.402	0.163	-0.019
-463.113	426.482	0.060	-0.128
-462.099	-200.000	0.013	-0.254
-461.084	271.593	0.260	-0.455
-460.070	173.832	-0.281	-0.403
-459.055	-156.355	0.248	-0.015
-458.040	-130.529	-0.243	-0.033
-457.026	-200.000	0.031	-0.181
-456.011	-40.617	0.171	-0.088
-454.997	-30.244	0.140	-0.079
-453.982	-69.009	0.163	0.062
-452.968	243.813	-0.152	-0.253
-451.953	-200.000	0.025	-0.126
-450.938	-46.422	0.348	0.170
-449.924	-85.108	0.184	0.057
-448.909	-121.182	-0.162	0.027
-447.895	-63.910	0.227	-0.092
-446.880	-83.382	-0.288	0.092
-445.865	229.748	0.088	0.142
-444.851	256.989	0.124	-0.211
-443.836	28.691	-0.303	0.255
-442.822	-64.927	-0.148	0.059
-441.807	-200.000	-0.007	-0.269
-440.792	36.542	-0.156	-0.136
-439.778	-106.578	0.129	-0.029
-438.763	104.264	0.056	-0.065
-437.749	-21.013	0.260	-0.158
-436.734	487.236	0.058	-0.132
-435.719	800.000	0.151	0.437
-434.705	-200.000	-0.001	0.063
-433.690	-75.630	0.068	-0.024
-432.676	-154.447	0.058	0.004
-431.661	-73.530	-0.121	0.044
-430.646	81.777	-0.218	-0.234
-429.632	87.858	-0.280	-0.308
-428.617	800.000	0.049	0.164
-427.603	800.000	-0.072	-0.215
-426.588	62.156	-0.071	-0.070
-425.573	-12.090	0.209	-0.136
-424.559	-200.000	-0.015	-0.127
-423.544	105.423	0.070	-0.082
-422.530	-27.108	0.233	-0.135
-421.515	800.000	-0.019	-0.057
-420.500	800.000	0.061	-0.260
-419.486	-200.000	-0.029	-0.341
-418.471	-59.766	-0.092	-0.039
-417.457	124.291	-0.216	-0.269
-416.442	531.453	0.115	-0.269
-415.428	279.308	0.044	0.078
-414.413	-12.776	0.044	0.028
-413.398	-139.374	-0.340	0.036
-412.384	91.242	0.182	-0.203
-411.369	800.000	0.008	-0.027
-410.355	800.000	0.075	0.234
-409.340	-156.055	0.083	0.005
-408.325	414.921	-0.098	0.207
-407.311	-11.843	0.127	-0.082
-406.296	800.000	-0.061	-0.239
-405.282	-200.000	0.017	0.204
-404.267	-200.000	0.031	0.211
-403.252	-200.000	-0.057	-0.326
-402.238	800.000	-0.047	-0.138
-401.223	-200.000	-0.004	-0.232
-400.209	-152.931	0.335	-0.023
-399.194	-90.712	-0.182	0.052
-398.179	-118.139	0.091	-0.016
-397.165	-117.348	0.190	-0.034
-396.150	-24.325	-0.182	0.108
-395.136	20.431	0.140	0.112
-394.121	-160.781	0.252	-0.013
-393.106	204.142	0.127	-0.195
-392.092	-200.000	0.001	0.377
-391.077	800.000	-0.058	-0.167
-390.063	227.828	-0.034	-0.055
-389.048	-97.938	-0.242	0.062
-388.033	273.674	-0.119	-0.208
-387.019	-200.000	-0.003	0.067
-386.004	92.388	-0.138	0.155
-384.990	333.308	0.229	0.439
-383.975	-51.548	0.254	-0.117
-382.960	-200.000	0.051	-0.313
-381.946	-131.477	-0.079	0.010
-380.931	-200.000	0.003	-0.111
-379.917	800.000	-0.005	0.017
-378.902	-22.866	0.320	0.191
-377.888	800.000	0.101	-0.391
-376.873	-172.491	0.190	0.006
-375.858	-200.000	-0.042	-0.252
-374.844	-78.454	0.183	-0.062
-373.829	-200.000	-0.009	0.070
-372.815	304.522	0.091	0.167
-371.800	-72.536	0.295	0.108
-370.785	699.482	-0.101	-0.263
-369.771	110.286	0.190	-0.226
-368.756	13.236	0.111	0.085
-367.742	240.749	-0.051	-0.085
-366.727	-39.285	-0.098	-0.051
-365.712	148.408	0.118	-0.158
-364.698	294.684	-0.046	0.083
-363.683	-87.693	-0.068	-0.020
-362.669	53.707	-0.133	-0.126
-361.654	84.977	-0.156	0.169
-360.639	-169.069	0.146	0.005
-359.625	-130.679	-0.189	-0.025
-358.610	168.518	0.173	-0.244
-357.596	-70.148	-0.144	0.054
-356.581	-84.496	-0.131	0.041
-355.566	131.094	0.212	-0.269
-354.552	-78.397	-0.215	0.073
-353.537	-79.178	-0.226	0.076
-352.523	-103.333	-0.095	-0.022
-351.508	-157.044	-0.261	-0.016
-350.493	800.000	0.079	0.305
-349.479	-135.433	-0.239	0.028
-348.464	-54.340	-0.350	-0.157
-347.450	-140.634	0.098	0.010
-346.435	-152.266	0.150	0.011
-345.420	-96.674	0.279	-0.073
-344.406	-23.742	0.091	-0.054
-343.391	-86.284	-0.152	-0.046
-342.377	268.838	0.172	-0.298
-341.362	-200.000	-0.012	-0.076
-340.348	-109.164	0.394	-0.083
-339.333	198.680	0.105	0.159
-338.318	136.418	-0.134	0.173
-337.304	-92.446	0.031	0.009
-336.289	594.664	0.092	0.225
-335.275	-200.000	-0.014	-0.156
-334.260	800.000	-0.096	-0.272
-333.245	83.289	-0.130	0.140
-332.231	-200.000	-0.005	-0.129
-331.216	-110.728	0.237	-0.048
-330.202	800.000	-0.064	0.231
-329.187	232.357	-0.078	0.126
-328.172	-113.224	-0.065	-0.013
-327.158	-200.000	0.028	-0.228
-326.143	-168.234	-0.125	0.005
-325.129	101.887	-0.228	0.262
-324.114	800.000	-0.036	-0.127
-323.099	-10.191	-0.059	-0.039
-322.085	394.688	-0.092	-0.189
-321.070	-153.628	0.250	-0.017
-320.056	145.028	0.256	-0.339
-319.041	186.128	-0.206	-0.302
-318.026	89.838	0.082	-0.091
-317.012	-24.809	-0.187	-0.110
-315.997	800.000	-0.030	0.098
-314.983	-107.051	-0.116	-0.025
-313.968	-200.000	0.041	0.241
-312.953	395.325	0.059	0.122
-311.939	-37.514	-0.161	0.085
-310.924	800.000	-0.080	0.222
-309.910	-65.732	-0.170	-0.067
-308.895	-185.462	0.186	0.003
-307.880	800.000	-0.053	0.219
-306.866	-72.065	0.184	0.068
-305.851	800.000	-0.029	0.083
-304.837	206.219	-0.131	0.202
-303.822	-59.659	0.167	-0.071
-302.807	-200.000	0.018	0.227
-301.793	154.286	0.049	-0.066
-300.778	-49.960	0.339	0.159
-299.764	-200.000	0.024	0.242
-298.749	68.524	0.135	-0.136
-297.735	-200.000	0.048	0.301
-296.720	-19.268	0.380	0.233
-295.705	-103.835	0.202	-0.047
-294.691	403.308	-0.046	-0.096
-293.676	-64.472	0.127	-0.051
-292.662	5.256	-0.222	0.161
-291.647	-90.905	0.178	-0.051
-290.632	-200.000	-0.020	0.424
-289.618	20.729	-0.134	0.107
-288.603	-103.128	0.166	-0.039
-287.589	166.589	-0.194	0.271
-286.574	115.243	0.217	-0.261
-285.559	15.494	0.121	0.093
-284.545	-98.508	-0.370	-0.093
-283.530	-200.000	0.000	-0.201
-282.516	800.000	-0.103	0.346
-281.501	8.837	0.081	0.060
-280.486	-24.686	0.058	0.034
-279.472	-126.909	-0.067	-0.010
-278.457	-155.677	-0.049	-0.003
-277.443	-3.237	0.146	-0.100
-276.428	-45.130	-0.307	-0.151
-275.413	113.770	-0.228	0.274
-274.399	-94.962	0.088	0.023
-273.384	-121.865	0.241	0.039
-272.370	162.091	0.096	0.133
-271.355	-114.510	-0.288	0.054
-270.340	76.636	0.149	0.156
-269.326	-200.000	0.085	0.577
-268.311	-200.000	0.082	0.380
-267.297	-32.204	0.181	-0.099
-266.282	-200.000	-0.024	-0.284
-265.267	48.538	0.079	-0.073
-264.253	-110.544	0.298	-0.061
-263.238	665.539	-0.040	-0.103
-262.224	268.841	-0.275	0.476
-261.209	-5.527	-0.042	-0.028
-260.195	-91.165	0.193	0.055
-259.180	489.357	-0.172	0.386
-258.165	30.192	-0.111	-0.093
-257.151	-200.000	0.005	0.068
-256.136	-200.000	0.040	0.291
-255.122	7.681	0.237	-0.175
-254.107	-89.817	-0.346	-0.100
-253.092	-29.114	-0.219	-0.123
-252.078	18.504	0.047	-0.037
-251.063	-4.886	-0.245	-0.166
-250.049	-28.861	-0.150	-0.085
-249.034	14.344	-0.082	0.063
-248.019	-99.232	0.293	-0.073
-247.005	-200.000	-0.063	0.414
-245.990	-76.291	0.244	0.085
-244.976	800.000	0.042	0.141
-243.961	-200.000	-0.043	0.229
-242.946	336.164	-0.077	0.146
-241.932	69.154	-0.106	-0.107
-240.917	-61.027	-0.272	-0.113
-239.903	-87.756	0.196	-0.058
-238.888	-200.000	-0.024	0.200
-237.873	-64.082	-0.341	0.137
-236.859	-40.481	-0.255	0.130
-235.844	-200.000	-0.061	-0.363
-234.830	-81.183	0.208	0.068
-233.815	99.371	-0.121	-0.138
-232.800	-98.549	-0.352	0.088
-231.786	800.000	-0.041	0.176
-230.771	248.041	0.180	0.300
-229.757	-200.000	0.021	0.125
-228.742	161.340	-0.043	0.060
-227.727	-0.535	0.188	0.131
-226.713	800.000	0.061	-0.180
-225.698	124.599	-0.249	-0.308
-224.684	21.815	0.144	0.115
-223.669	-111.797	0.179	0.036
-222.655	192.666	-0.064	0.095
-221.640	21.641	0.221	0.177
-220.625	200.332	-0.125	0.189
-219.611	-200.000	0.007	-0.059
-218.596	-175.817	0.319	-0.008
-217.582	161.606	0.100	0.137
-216.567	-72.937	-0.165	0.060
-215.552	-1.401	0.131	-0.091
-214.538	-200.000	0.053	0.438
-213.523	756.224	0.073	0.195
-212.509	296.719	0.076	0.138
-211.494	699.974	0.138	0.357
-210.479	59.744	0.101	-0.098
-209.465	71.343	-0.171	0.174
-208.450	-61.909	0.120	0.050
-207.436	76.720	-0.099	-0.103
-206.421	126.891	-0.149	-0.186
-205.406	-200.000	0.266	0.000
-204.392	-96.618	0.172	0.045
-203.377	-65.700	-0.104	-0.041
-202.363	150.047	0.088	-0.117
-201.348	-14.114	-0.067	-0.043
-200.333	126.991	0.165	-0.206
-199.319	118.469	-0.124	0.151
-198.304	-98.161	0.075	0.019
-197.290	196.940	0.158	-0.237
-196.275	800.000	-0.053	-0.180
-195.260	19.729	0.063	0.050
-194.246	-126.778	-0.287	-0.042
-193.231	-200.000	-0.029	0.168
-192.217	-22.602	-0.121	-0.072
-191.202	145.814	0.191	-0.252
-190.187	301.215	-0.037	0.067
-189.173	-81.703	0.201	0.065
-188.158	-86.498	-0.382	0.115
-187.144	128.961	0.167	-0.209
-186.129	-86.560	0.209	-0.063
-185.114	391.256	-0.066	-0.135
-184.100	-149.877	-0.265	0.020
-183.085	-200.000	-0.039	-0.367
-182.071	-200.000	-0.052	-0.341
-181.056	800.000	-0.029	0.112
-180.042	-200.000	-0.014	-0.184
-179.027	236.292	-0.047	0.077
-178.012	362.121	0.068	-0.135
-176.998	45.064	-0.444	-0.402
-175.983	800.000	-0.038	0.111
-174.969	37.613	-0.257	0.224
-173.954	23.265	-0.062	0.050
-172.939	-134.043	-0.222	0.027
-171.925	210.712	0.128	-0.198
-170.910	-200.000	0.069	0.305
-169.896	-200.000	-0.003	-0.108
-168.881	-107.398	0.356	-0.077
-167.866	-58.781	0.192	-0.082
-166.852	160.847	-0.305	-0.419
-165.837	-1.826	-0.111	0.077
-164.823	-200.000	-0.063	0.431
-163.808	-27.643	0.186	-0.106
-162.793	120.008	-0.132	-0.161
-161.779	-200.000	-0.040	0.210
-160.764	-24.381	-0.173	-0.101
-159.750	167.283	-0.082	-0.114
-158.735	-39.539	0.460	-0.237
-157.720	555.786	0.117	-0.277
-156.706	-15.479	-0.098	-0.062
-155.691	-187.936	0.318	0.004
-154.677	800.000	-0.083	0.260
-153.662	92.025	0.111	0.123
-152.647	-15.783	-0.225	0.140
-151.633	153.233	0.346	0.464
-150.618	114.099	-0.121	0.144
-149.604	-200.000	0.034	-0.307
-148.589	-93.195	0.164	0.045
-147.574	-30.370	-0.159	0.089
-146.560	308.318	-0.093	-0.171
-145.545	-118.418	0.442	-0.077
-144.531	-128.495	-0.032	0.004
-143.516	-200.000	0.031	-0.371
-142.502	130.440	0.080	-0.101
-141.487	-12.061	0.101	0.065
-140.472	-43.322	0.210	-0.104
-139.458	-92.831	0.365	0.100
-138.443	-150.076	-0.224	-0.017
-137.429	800.000	-0.058	0.249
-136.414	19.952	-0.038	-0.030
-135.399	-200.000	0.011	0.193
-134.385	-98.576	-0.054	0.014
-133.370	800.000	0.058	-0.193
-132.356	677.999	-0.050	0.126
-131.341	-200.000	0.010	-0.046
-130.326	-10.325	-0.056	0.036
-129.312	0.538	-0.168	0.118
-128.297	-140.585	-0.653	0.066
-127.283	134.872	0.240	0.305
-126.268	800.000	0.075	-0.230
-125.253	-200.000	0.007	0.325
-124.239	-171.914	-0.301	0.010
-123.224	-88.954	-0.032	-0.009
-122.210	37.536	-0.083	0.072
