DTS Sentinel unit serial number:	SN413079Multiplexer serial number:	ORYXHardware model number:	OX4-SRSoftware version number:	ORYX F/W v4.00 Oryx Data Collector v3.7.2.0data status	okinstallation	princeton_trtdifferential loss correction	single-endedforward channel	channel 3reverse channel	N/Adate	2019/09/16time	18:52:35forward acquisition time	60.00reverse acquisition time	0.00gamma	496.2192k internal	0.2309k external	0.2309temperature offset calibration	0.9936default loss term (dB/km)	0.3790temperature slope calibration	1.0000multiplexer offset coefficient	1.0000multiplexer slope coefficient	1.0000fibre end	0.00T internal ref (°C)	35.86T ext. ref 1 (°C)	0.05T ext. ref 2 (°C)	29.16length (m)	temperature (°C)	Stokes	anti-Stokes-747.200	-200.000	-0.046	0.285
-746.185	318.767	0.120	-0.232
-745.171	-23.304	0.328	-0.201
-744.156	-136.774	-0.310	0.036
-743.142	800.000	-0.078	-0.258
-742.127	301.769	-0.048	-0.090
-741.112	122.149	0.161	-0.205
-740.098	61.854	-0.270	0.273
-739.083	-74.642	0.137	0.050
-738.069	-53.783	0.081	-0.038
-737.054	-200.000	0.005	0.088
-736.039	800.000	-0.045	0.161
-735.025	19.378	0.193	-0.158
-734.010	582.779	-0.235	-0.587
-732.996	-58.855	0.046	0.020
-731.981	185.544	-0.107	0.162
-730.966	-84.634	0.120	-0.038
-729.952	-110.260	-0.353	-0.075
-728.937	-190.544	-0.519	-0.006
-727.923	-144.528	-0.191	-0.018
-726.908	-200.000	-0.009	-0.191
-725.894	800.000	-0.072	-0.316
-724.879	-173.219	-0.065	0.002
-723.864	-169.816	-0.186	0.007
-722.850	-173.247	-0.176	0.005
-721.835	383.296	0.214	-0.448
-720.821	-200.000	-0.033	-0.205
-719.806	304.438	-0.115	-0.218
-718.791	-200.000	0.039	-0.257
-717.777	274.030	0.120	0.216
-716.762	-92.135	-0.394	-0.113
-715.748	426.903	0.090	0.196
-714.733	285.172	0.144	-0.263
-713.718	20.717	0.114	-0.094
-712.704	-87.332	0.440	0.135
-711.689	472.709	-0.211	-0.482
-710.675	-130.532	0.137	0.019
-709.660	380.290	0.059	0.124
-708.645	-8.447	0.242	0.165
-707.631	-99.900	0.295	-0.075
-706.616	-126.905	-0.164	0.025
-705.602	357.446	0.113	0.229
-704.587	-129.379	-0.182	-0.026
-703.572	-115.971	-0.235	-0.045
-702.558	800.000	0.020	-0.056
-701.543	247.701	0.093	0.160
-700.529	150.346	0.120	-0.165
-699.514	177.131	0.160	-0.236
-698.499	422.614	-0.117	-0.255
-697.485	-76.628	0.049	-0.017
-696.470	325.803	-0.040	0.078
-695.456	-88.422	-0.154	0.047
-694.441	78.821	0.098	-0.106
-693.426	40.786	0.289	0.265
-692.412	-145.843	0.082	0.007
-691.397	42.306	0.128	0.118
-690.383	-65.074	0.168	-0.069
-689.368	-6.810	-0.223	0.154
-688.354	248.964	0.126	0.216
-687.339	-35.164	0.319	0.176
-686.324	-200.000	0.003	0.039
-685.310	-170.283	-0.298	0.011
-684.295	-200.000	0.034	0.267
-683.281	216.751	-0.095	0.154
-682.266	-200.000	0.001	0.056
-681.251	-167.470	-0.319	-0.013
-680.237	800.000	-0.076	-0.278
-679.222	-200.000	-0.014	0.113
-678.208	-86.871	-0.196	0.061
-677.193	-200.000	-0.003	-0.083
-676.178	-138.015	0.099	-0.011
-675.164	59.448	0.140	-0.140
-674.149	-135.816	-0.191	-0.023
-673.135	-200.000	0.005	-0.145
-672.120	-105.984	-0.112	0.026
-671.105	-18.699	0.111	0.070
-670.091	-200.000	0.014	0.075
-669.076	-115.643	-0.158	0.030
-668.062	800.000	-0.117	-0.459
-667.047	394.043	-0.215	-0.454
-666.032	252.127	-0.060	-0.103
-665.018	-27.021	-0.211	0.125
-664.003	-69.072	0.186	-0.073
-662.989	-200.000	-0.016	0.137
-661.974	-200.000	-0.004	0.103
-660.959	-21.197	-0.323	-0.200
-659.945	79.281	0.247	0.268
-658.930	-33.948	-0.179	0.100
-657.916	-130.006	-0.286	0.040
-656.901	-200.000	0.046	0.359
-655.886	10.512	-0.152	-0.117
-654.872	-146.195	0.065	0.006
-653.857	-118.003	0.157	0.028
-652.843	454.560	-0.045	-0.102
-651.828	800.000	-0.016	-0.048
-650.814	-105.163	0.202	0.047
-649.799	-200.000	-0.011	-0.109
-648.784	-200.000	0.051	0.253
-647.770	753.780	0.077	-0.211
-646.755	492.815	0.114	-0.265
-645.741	688.126	0.108	-0.286
-644.726	800.000	0.053	-0.201
-643.711	-35.501	-0.213	-0.117
-642.697	-77.859	0.169	-0.059
-641.682	19.124	-0.228	0.185
-640.668	105.106	-0.131	0.157
-639.653	189.563	-0.068	-0.104
-638.638	-30.434	0.188	-0.108
-637.624	26.148	0.113	-0.095
-636.609	-175.309	0.292	0.008
-635.595	800.000	0.052	-0.187
-634.580	-200.000	0.008	0.175
-633.565	-34.460	0.142	0.079
-632.551	-200.000	-0.020	-0.097
-631.536	-161.916	-0.202	0.010
-630.522	-81.613	0.421	0.140
-629.507	-46.274	0.426	-0.212
-628.492	27.116	-0.197	-0.167
-627.478	-200.000	-0.022	0.266
-626.463	-49.628	-0.209	-0.100
-625.449	144.332	-0.081	0.109
-624.434	800.000	0.083	0.324
-623.419	-44.806	-0.063	-0.032
-622.405	800.000	-0.084	-0.347
-621.390	238.248	0.178	0.299
-620.376	-90.383	-0.398	0.117
-619.361	205.741	0.108	0.170
-618.346	-49.176	-0.051	-0.025
-617.332	4.167	-0.204	0.151
-616.317	800.000	0.047	0.191
-615.303	378.320	0.089	-0.184
-614.288	-200.000	0.012	0.086
-613.273	-48.462	0.092	-0.045
-612.259	-145.416	-0.163	0.015
-611.244	-27.015	0.038	-0.022
-610.230	-9.613	0.143	-0.097
-609.215	-75.676	-0.369	0.133
-608.201	50.819	-0.148	-0.142
-607.186	446.696	0.129	0.286
-606.171	34.306	-0.160	-0.141
-605.157	-128.183	-0.160	0.023
-604.142	161.346	-0.160	0.227
-603.128	-39.159	0.198	0.105
-602.113	19.655	-0.092	-0.075
-601.098	372.314	-0.024	-0.050
-600.084	-200.000	-0.049	-0.288
-599.069	-115.086	0.082	0.016
-598.055	-97.271	-0.323	-0.085
-597.040	-115.091	0.067	0.013
-596.025	-200.000	-0.056	-0.349
-595.011	-44.880	-0.095	0.048
-593.996	-32.321	-0.124	0.070
-592.982	-200.000	0.062	-0.364
-591.967	-8.753	-0.123	-0.083
-590.952	-57.940	0.246	-0.109
-589.938	-148.423	0.034	-0.003
-588.923	-85.363	-0.200	-0.063
-587.909	-133.429	-0.529	0.067
-586.894	-55.855	-0.296	0.133
-585.879	-93.536	0.101	0.028
-584.865	29.033	0.188	-0.161
-583.850	47.055	0.147	-0.138
-582.836	800.000	-0.065	-0.197
-581.821	800.000	-0.035	0.113
-580.806	-151.460	0.276	0.021
-579.792	350.935	-0.020	-0.040
-578.777	-7.836	0.314	0.214
-577.763	104.605	-0.152	-0.180
-576.748	200.445	0.174	-0.269
-575.733	-165.960	-0.368	-0.016
-574.719	72.873	0.143	-0.151
-573.704	-12.535	0.266	0.175
-572.690	-28.802	0.148	-0.086
-571.675	480.617	-0.049	-0.113
-570.661	-73.343	0.311	-0.115
-569.646	412.960	-0.045	0.097
-568.631	-200.000	-0.031	-0.452
-567.617	132.755	-0.087	-0.113
-566.602	-135.983	0.084	-0.010
-565.588	-18.780	-0.060	-0.038
-564.573	-200.000	-0.016	-0.350
-563.558	540.022	-0.050	-0.120
-562.544	-68.698	-0.200	-0.078
-561.529	16.799	0.294	-0.234
-560.515	-86.514	0.040	-0.012
-559.500	-83.556	-0.211	-0.068
-558.485	-146.808	0.239	-0.021
-557.471	-119.302	0.109	-0.019
-556.456	702.415	0.061	-0.162
-555.442	47.068	-0.112	-0.105
-554.427	-50.634	0.148	-0.070
-553.412	800.000	-0.177	-0.528
-552.398	427.942	-0.156	-0.339
-551.383	97.856	-0.131	-0.152
-550.369	800.000	-0.040	0.128
-549.354	-117.086	0.195	-0.036
-548.339	595.756	0.037	-0.093
-547.325	800.000	0.031	-0.111
-546.310	-135.204	-0.321	-0.039
-545.296	-118.510	-0.028	-0.005
-544.281	-26.873	-0.209	0.123
-543.266	-200.000	0.002	-0.114
-542.252	-200.000	0.044	-0.242
-541.237	-7.536	0.170	0.116
-540.223	-0.806	-0.309	0.221
-539.208	86.469	0.119	0.133
-538.193	197.971	0.046	0.070
-537.179	-39.013	0.027	-0.014
-536.164	287.198	-0.095	0.173
-535.150	11.806	0.232	0.180
-534.135	-97.767	-0.319	0.083
-533.121	-7.534	-0.205	0.140
-532.106	-57.998	0.419	0.184
-531.091	-200.000	-0.017	-0.326
-530.077	-94.725	-0.225	-0.062
-529.062	-146.478	-0.316	-0.028
-528.048	-107.550	-0.321	-0.071
-527.033	-109.997	-0.374	-0.079
-526.018	-18.790	0.071	0.045
-525.004	-66.245	0.134	-0.054
-523.989	800.000	-0.037	-0.124
-522.975	-200.000	0.015	-0.326
-521.960	-125.521	0.197	0.030
-520.945	183.389	0.113	-0.169
-519.931	-99.804	0.091	-0.023
-518.916	-200.000	-0.032	-0.200
-517.902	205.822	-0.112	0.175
-516.887	-78.175	0.104	0.036
-515.872	-75.497	0.065	-0.023
-514.858	156.672	-0.178	0.247
-513.843	-49.594	0.366	0.176
-512.829	54.629	-0.107	0.104
-511.814	97.424	-0.256	0.296
-510.799	-105.024	-0.138	-0.032
-509.785	-139.771	0.027	0.003
-508.770	22.584	0.127	-0.105
-507.756	-38.824	-0.202	-0.107
-506.741	-115.767	-0.201	-0.038
-505.726	-74.485	-0.238	-0.086
-504.712	-1.198	0.279	-0.198
-503.697	84.586	-0.189	0.208
-502.683	26.292	0.031	-0.026
-501.668	-82.035	-0.203	0.067
-500.653	-200.000	-0.040	0.234
-499.639	-89.508	-0.276	0.082
-498.624	33.509	-0.027	-0.023
-497.610	-166.355	0.253	-0.011
-496.595	-146.465	0.032	-0.003
-495.581	-20.824	-0.181	-0.112
-494.566	-65.127	0.079	0.032
-493.551	58.871	-0.254	-0.252
-492.537	-188.679	-0.193	-0.002
-491.522	-16.369	0.269	-0.172
-490.508	800.000	-0.087	-0.370
-489.493	-141.034	0.199	-0.021
-488.478	-200.000	-0.001	-0.260
-487.464	-97.873	0.262	0.068
-486.449	709.941	-0.080	-0.213
-485.435	-200.000	0.039	0.247
-484.420	-200.000	0.044	0.316
-483.405	201.100	0.045	-0.070
-482.391	78.438	-0.134	-0.144
-481.376	10.031	-0.107	-0.082
-480.362	407.018	-0.119	-0.252
-479.347	-200.000	-0.031	0.212
-478.332	-200.000	-0.009	0.393
-477.318	800.000	-0.031	-0.088
-476.303	-90.947	-0.093	-0.027
-475.289	800.000	-0.132	0.380
-474.274	41.357	-0.107	-0.098
-473.259	800.000	0.037	-0.135
-472.245	-3.501	0.098	0.068
-471.230	213.054	0.139	-0.221
-470.216	3.515	-0.132	0.096
-469.201	12.781	-0.195	0.151
-468.186	333.175	-0.064	0.125
-467.172	45.402	0.278	-0.258
-466.157	63.717	-0.310	0.313
-465.143	-200.000	0.038	-0.324
-464.128	338.249	0.016	0.031
-463.113	481.551	0.088	0.201
-462.099	-35.369	-0.033	-0.018
-461.084	-200.000	0.004	0.182
-460.070	204.008	-0.129	-0.201
-459.055	-103.373	-0.314	-0.074
-458.040	177.190	-0.094	-0.137
-457.026	41.890	0.056	0.051
-456.011	-34.158	-0.148	-0.081
-454.997	-173.261	0.006	-0.000
-453.982	453.983	-0.049	0.109
-452.968	238.333	-0.151	-0.251
-451.953	62.462	0.110	0.110
-450.938	-160.670	0.057	0.003
-449.924	385.612	0.191	0.396
-448.909	-152.351	-0.063	0.005
-447.895	-77.898	-0.241	-0.084
-446.880	-200.000	0.026	0.232
-445.865	315.754	-0.093	0.176
-444.851	-200.000	0.023	-0.105
-443.836	-102.286	0.146	0.035
-442.822	-71.144	-0.055	0.021
-441.807	184.527	-0.080	-0.119
-440.792	-193.513	0.502	-0.004
-439.778	-65.605	0.050	0.020
-438.763	-200.000	-0.033	-0.216
-437.749	-3.305	-0.047	-0.033
-436.734	-200.000	0.026	-0.174
-435.719	-68.819	0.182	0.070
-434.705	-148.054	0.093	-0.008
-433.690	800.000	-0.084	0.295
-432.676	71.057	-0.042	-0.044
-431.661	549.544	0.152	0.365
-430.646	161.213	-0.175	0.246
-429.632	-35.316	-0.218	0.119
-428.617	272.263	-0.099	-0.176
-427.603	-200.000	0.049	0.222
-426.588	-200.000	-0.007	0.144
-425.573	800.000	0.070	0.265
-424.559	314.465	-0.121	0.229
-423.544	-37.649	0.110	0.059
-422.530	-122.088	-0.109	-0.018
-421.515	84.087	-0.048	-0.053
-420.500	-23.907	-0.202	-0.121
-419.486	-6.414	0.184	0.126
-418.471	-65.183	0.332	-0.134
-417.457	-153.384	-0.197	0.014
-416.442	-200.000	0.004	0.024
-415.428	-35.273	0.144	-0.079
-414.413	-12.005	-0.274	-0.180
-413.398	24.846	-0.239	-0.199
-412.384	325.941	0.280	0.538
-411.369	-105.705	0.244	0.055
-410.355	-14.504	-0.179	0.116
-409.340	580.320	0.120	0.295
-408.325	-200.000	-0.021	-0.187
-407.311	4.677	-0.088	0.065
-406.296	-51.620	0.098	0.046
-405.282	125.448	0.332	0.421
-404.267	16.151	-0.319	-0.252
-403.252	122.348	0.106	-0.133
-402.238	-200.000	0.007	-0.056
-401.223	387.224	-0.061	-0.126
-400.209	380.237	-0.098	-0.201
-399.194	-113.423	-0.242	-0.048
-398.179	-109.256	-0.130	-0.028
-397.165	196.031	0.109	-0.167
-396.150	-200.000	0.059	-0.289
-395.136	800.000	-0.035	-0.118
-394.121	-121.371	0.201	0.034
-393.106	-200.000	0.010	0.170
-392.092	183.522	0.229	0.340
-391.077	19.288	0.128	-0.103
-390.063	-1.195	-0.128	0.090
-389.048	8.539	0.153	0.115
-388.033	-200.000	0.006	-0.030
-387.019	-188.962	-0.039	-0.000
-386.004	-1.426	-0.086	0.061
-384.990	143.890	-0.051	0.068
-383.975	-24.303	-0.064	-0.038
-382.960	800.000	0.202	0.628
-381.946	800.000	-0.031	0.134
-380.931	36.044	0.120	0.106
-379.917	-101.658	0.158	0.038
-378.902	-124.215	-0.178	-0.028
-377.888	-159.249	-0.289	0.016
-376.873	-65.081	0.086	-0.035
-375.858	11.676	-0.058	0.044
-374.844	136.548	0.071	0.093
-373.829	7.852	0.250	-0.188
-372.815	132.824	-0.158	-0.205
-371.800	26.222	0.275	-0.230
-370.785	-116.362	0.207	0.038
-369.771	-200.000	-0.021	0.187
-368.756	-107.135	0.301	0.067
-367.742	277.317	-0.090	-0.161
-366.727	20.687	0.113	0.092
-365.712	-119.750	-0.638	-0.110
-364.698	-200.000	-0.015	0.150
-363.683	431.754	-0.170	-0.369
-362.669	-82.351	-0.142	-0.046
-361.654	-200.000	0.034	0.202
-360.639	-86.448	0.162	0.050
-359.625	800.000	-0.081	-0.255
-358.610	-125.912	0.077	-0.012
-357.596	32.482	-0.161	0.140
-356.581	-161.106	-0.168	-0.009
-355.566	-40.613	0.168	0.087
-354.552	-200.000	0.016	0.171
-353.537	217.476	0.148	0.236
-352.523	800.000	-0.031	-0.121
-351.508	-100.583	-0.110	0.027
-350.493	-91.042	-0.465	-0.134
-349.479	26.521	0.260	-0.218
-348.464	156.836	-0.103	-0.142
-347.450	-141.754	-0.086	-0.009
-346.435	480.761	-0.140	-0.318
-345.420	800.000	-0.031	0.095
-344.406	-137.474	0.375	-0.042
-343.391	-62.374	-0.098	0.041
-342.377	-200.000	-0.011	-0.122
-341.362	800.000	-0.084	0.276
-340.348	-68.749	-0.329	0.127
-339.333	767.032	-0.076	0.207
-338.318	-200.000	0.078	0.343
-337.304	9.347	-0.032	-0.024
-336.289	-123.261	0.147	0.024
-335.275	-54.505	0.133	0.060
-334.260	-65.156	0.132	-0.053
-333.245	-200.000	0.003	-0.136
-332.231	-9.805	0.204	-0.136
-331.216	-17.285	-0.037	0.024
-330.202	93.478	0.088	0.100
-329.187	-4.720	-0.103	-0.071
-328.172	-126.235	-0.183	-0.027
-327.158	-200.000	-0.032	0.340
-326.143	85.171	-0.123	0.135
-325.129	-61.623	0.176	0.074
-324.114	-49.221	0.195	-0.093
-323.099	800.000	0.082	-0.313
-322.085	55.195	-0.087	0.085
-321.070	14.711	0.054	0.042
-320.056	48.782	0.162	0.152
-319.041	484.674	-0.076	-0.172
-318.026	135.736	-0.120	-0.157
-317.012	-39.766	-0.012	0.006
-315.997	318.060	-0.092	-0.174
-314.983	-79.198	-0.193	-0.065
-313.968	-200.000	0.014	0.392
-312.953	-200.000	-0.043	0.451
-311.939	-121.245	0.147	-0.024
-310.924	124.355	0.229	0.288
-309.910	218.357	-0.189	0.302
-308.895	-68.716	0.004	-0.001
-307.880	50.654	0.262	0.248
-306.866	-72.415	-0.198	-0.073
-305.851	800.000	0.098	-0.282
-304.837	-18.300	-0.180	0.113
-303.822	-200.000	0.037	-0.262
-302.807	-200.000	-0.028	-0.217
-301.793	187.508	0.146	0.217
-300.778	69.340	0.121	0.124
-299.764	259.898	-0.076	-0.131
-298.749	800.000	-0.028	0.089
-297.735	648.536	0.073	0.188
-296.720	-145.521	-0.194	-0.017
-295.705	-200.000	0.025	0.237
-294.691	-200.000	-0.016	-0.136
-293.676	119.996	-0.149	0.184
-292.662	-15.062	0.271	-0.173
-291.647	88.329	0.020	-0.023
-290.632	10.358	0.087	0.066
-289.618	-18.311	0.200	-0.125
-288.603	800.000	-0.048	-0.142
-287.589	-139.547	0.256	-0.027
-286.574	9.223	0.360	0.272
-285.559	-200.000	0.040	0.310
-284.545	123.690	0.156	0.195
-283.530	25.794	-0.288	-0.240
-282.516	-113.048	0.416	-0.082
-281.501	800.000	0.060	0.220
-280.486	-200.000	-0.018	-0.088
-279.472	45.742	0.252	-0.233
-278.457	169.276	-0.047	-0.067
-277.443	67.951	0.112	0.114
-276.428	7.765	0.244	0.182
-275.413	800.000	-0.077	-0.313
-274.399	-94.289	0.207	-0.057
-273.384	-129.574	-0.179	-0.025
-272.370	-42.039	0.211	0.108
-271.355	139.277	-0.058	-0.076
-270.340	-146.676	-0.109	0.009
-269.326	-69.020	-0.100	-0.039
-268.311	-156.813	-0.056	-0.003
-267.297	208.657	0.124	0.194
-266.282	800.000	-0.054	0.183
-265.267	-78.174	-0.298	-0.102
-264.253	-38.217	0.084	-0.045
-263.238	319.648	-0.054	-0.102
-262.224	800.000	0.029	-0.123
-261.209	-35.049	-0.234	-0.127
-260.195	-200.000	-0.019	0.242
-259.180	-127.835	0.206	-0.030
-258.165	144.445	0.087	-0.116
-257.151	162.932	-0.320	-0.448
-256.136	-19.204	0.176	0.109
-255.122	-70.226	0.288	-0.109
-254.107	-42.401	-0.342	0.174
-253.092	45.707	-0.139	0.128
-252.078	-75.080	0.023	-0.008
-251.063	800.000	-0.055	-0.164
-250.049	133.336	0.152	-0.196
-249.034	172.351	-0.177	-0.253
-248.019	8.965	-0.204	-0.154
-247.005	474.578	0.089	0.200
-245.990	-140.525	0.273	0.028
-244.976	270.448	0.154	-0.270
-243.961	-200.000	0.110	0.549
-242.946	210.698	0.109	0.171
-241.932	-108.372	-0.190	0.041
-240.917	-189.010	0.286	-0.003
-239.903	416.194	0.034	-0.073
-238.888	-200.000	-0.042	0.326
-237.873	-200.000	0.013	0.174
-236.859	580.940	0.205	0.500
-235.844	96.810	0.094	0.107
-234.830	-59.724	0.139	-0.059
-233.815	-176.919	0.120	-0.003
-232.800	-69.749	0.231	0.088
-231.786	675.073	0.104	0.269
-230.771	346.388	0.153	-0.300
-229.757	-200.000	0.027	-0.201
-228.742	-4.648	0.043	0.029
-227.727	222.471	-0.247	0.396
-226.713	800.000	0.075	-0.259
-225.698	800.000	-0.045	-0.178
-224.684	-51.417	-0.273	-0.127
-223.669	-200.000	-0.140	0.000
-222.655	-200.000	0.040	0.217
-221.640	407.674	-0.056	-0.118
-220.625	-15.330	0.205	-0.131
-219.611	-17.128	0.248	-0.156
-218.596	-200.000	-0.057	0.249
-217.582	94.740	-0.172	-0.195
-216.567	295.440	-0.119	0.217
-215.552	435.520	0.105	-0.227
-214.538	254.639	-0.185	-0.314
-213.523	138.830	-0.209	-0.273
-212.509	77.158	0.132	0.140
-211.494	-4.106	0.149	0.103
-210.479	800.000	-0.029	-0.099
-209.465	-200.000	-0.024	0.272
-208.450	-127.473	0.324	0.047
-207.436	27.456	-0.099	-0.083
-206.421	-200.000	0.004	-0.034
-205.406	-132.643	-0.157	0.020
-204.392	-200.000	0.016	-0.146
-203.377	-200.000	0.043	0.288
-202.363	269.222	-0.024	-0.042
-201.348	349.589	-0.017	0.034
-200.333	-112.249	0.404	-0.081
-199.319	292.539	-0.075	-0.136
-198.304	-103.074	0.142	0.033
-197.290	11.376	-0.214	-0.163
-196.275	-95.681	-0.214	0.057
-195.260	-200.000	-0.017	0.121
-194.246	-122.508	0.155	0.025
-193.231	161.069	-0.135	0.188
-192.217	800.000	-0.041	0.161
-191.202	-47.469	0.218	0.105
-190.187	35.400	-0.266	0.232
-189.173	214.235	0.188	-0.295
-188.158	151.928	0.054	0.073
-187.144	-57.540	0.211	0.092
-186.129	-98.945	0.127	0.032
-185.114	8.925	0.163	0.123
-184.100	4.781	0.162	0.118
-183.085	800.000	-0.112	0.315
-182.071	-26.105	0.217	-0.127
-181.056	479.888	-0.047	-0.105
-180.042	-200.000	0.050	-0.404
-179.027	169.277	-0.138	0.196
-178.012	300.384	-0.066	0.120
-176.998	614.569	-0.104	0.260
-175.983	800.000	0.073	-0.213
-174.969	-200.000	-0.013	0.221
-173.954	240.788	0.102	0.169
-172.939	700.625	0.036	-0.094
-171.925	-73.745	-0.059	-0.021
-170.910	132.370	0.144	0.184
-169.896	-200.000	-0.075	0.392
-168.881	800.000	-0.068	-0.219
-167.866	181.795	-0.099	-0.145
-166.852	57.304	-0.060	0.058
-165.837	-50.922	0.346	0.162
-164.823	141.020	-0.198	0.260
-163.808	-2.288	-0.198	-0.138
-162.793	68.407	0.125	-0.127
-161.779	-164.956	-0.250	0.011
-160.764	197.410	0.046	0.070
-159.750	66.972	0.011	-0.011
-158.735	800.000	-0.111	-0.310
-157.720	167.989	0.078	-0.110
-156.706	214.842	0.081	-0.128
-155.691	-70.171	0.250	-0.094
-154.677	800.000	0.049	-0.144
-153.662	-20.606	0.060	-0.037
-152.647	158.985	-0.135	-0.187
-151.633	-200.000	-0.053	0.362
-150.618	145.239	-0.145	-0.193
-149.604	159.026	0.086	0.119
-148.589	-147.499	-0.208	0.017
-147.574	70.830	-0.112	0.115
-146.560	-87.278	0.201	-0.061
-145.545	45.776	-0.394	-0.362
-144.531	-62.718	0.197	0.081
-143.516	-200.000	0.011	-0.050
-142.502	93.544	-0.084	0.094
-141.487	10.372	-0.068	0.051
-140.472	162.563	0.149	0.207
-139.458	635.472	-0.126	-0.318
-138.443	-59.883	-0.187	-0.079
-137.429	-131.930	0.299	0.039
-136.414	-66.351	-0.199	-0.079
-135.399	-166.747	-0.142	-0.006
-134.385	-52.253	0.260	-0.119
-133.370	79.799	-0.179	0.190
-132.356	40.426	-0.191	0.170
-131.341	0.573	-0.154	-0.109
-130.326	-148.926	0.203	0.016
-129.312	800.000	0.078	-0.244
-128.297	8.205	-0.157	0.117
-127.283	136.296	-0.201	-0.260
-126.268	800.000	-0.061	-0.203
-125.253	-79.360	0.046	0.016
-124.239	-114.968	0.188	0.035
-123.224	-200.000	0.050	0.243
-122.210	-18.906	-0.159	0.098
