DTS Sentinel unit serial number:	SN413079Multiplexer serial number:	ORYXHardware model number:	OX4-SRSoftware version number:	ORYX F/W v4.00 Oryx Data Collector v3.7.2.0data status	okinstallation	princeton_trtdifferential loss correction	single-endedforward channel	channel 3reverse channel	N/Adate	2019/09/13time	23:56:35forward acquisition time	60.00reverse acquisition time	0.00gamma	496.2192k internal	0.2340k external	0.2340temperature offset calibration	1.0061default loss term (dB/km)	0.3790temperature slope calibration	1.0000multiplexer offset coefficient	1.0000multiplexer slope coefficient	1.0000fibre end	0.00T internal ref (°C)	26.55T ext. ref 1 (°C)	3.18T ext. ref 2 (°C)	21.31length (m)	temperature (°C)	Stokes	anti-Stokes-747.200	689.709	-0.055	-0.143
-746.185	53.610	-0.167	0.161
-745.171	800.000	-0.028	0.098
-744.156	800.000	-0.063	0.182
-743.142	-200.000	-0.043	-0.202
-742.127	-200.000	-0.025	0.178
-741.112	774.838	0.087	-0.238
-740.098	-200.000	-0.014	0.244
-739.083	-200.000	-0.009	0.140
-738.069	-84.804	-0.274	0.086
-737.054	21.512	0.127	-0.104
-736.039	313.309	-0.067	0.127
-735.025	464.338	-0.105	0.235
-734.010	-135.839	-0.089	0.011
-732.996	400.853	0.033	0.070
-731.981	589.730	0.043	-0.107
-730.966	-200.000	-0.014	-0.134
-729.952	-26.842	0.186	0.109
-728.937	-21.321	-0.200	0.122
-727.923	-200.000	0.041	0.202
-726.908	-43.318	0.314	0.159
-725.894	-111.027	0.291	-0.060
-724.879	800.000	0.062	0.196
-723.864	105.368	-0.124	0.147
-722.850	-57.396	-0.331	-0.146
-721.835	-200.000	-0.088	-0.421
-720.821	186.250	-0.124	0.185
-719.806	-75.108	-0.260	0.093
-718.791	-155.256	-0.147	0.010
-717.777	-8.631	0.168	0.113
-716.762	4.880	-0.258	0.190
-715.748	186.117	0.191	0.284
-714.733	-113.153	0.095	-0.019
-713.718	-189.667	0.074	-0.001
-712.704	-200.000	0.048	-0.430
-711.689	105.038	-0.218	-0.258
-710.675	-24.572	-0.365	-0.217
-709.660	-134.925	-0.136	-0.016
-708.645	-152.702	0.272	0.019
-707.631	184.702	0.144	0.214
-706.616	-149.500	-0.293	0.023
-705.602	103.331	0.216	-0.254
-704.587	-200.000	0.026	-0.230
-703.572	-15.511	-0.137	-0.088
-702.558	-68.523	-0.037	0.014
-701.543	-28.896	0.288	-0.165
-700.529	-39.244	-0.357	-0.187
-699.514	-67.056	-0.305	-0.121
-698.499	-200.000	0.064	0.356
-697.485	-16.766	-0.078	-0.050
-696.470	106.612	0.099	0.118
-695.456	448.979	-0.126	-0.279
-694.441	800.000	-0.117	-0.344
-693.426	-200.000	-0.012	-0.254
-692.412	-44.324	0.037	0.018
-691.397	196.837	-0.091	0.138
-690.383	-159.622	0.204	-0.011
-689.368	23.830	-0.158	-0.130
-688.354	-163.028	0.283	-0.014
-687.339	-200.000	0.002	0.280
-686.324	19.849	0.128	0.103
-685.310	-162.664	-0.155	0.008
-684.295	-55.247	0.329	-0.148
-683.281	231.012	0.260	-0.426
-682.266	10.522	-0.332	-0.253
-681.251	105.434	-0.089	0.105
-680.237	-200.000	-0.006	-0.171
-679.222	-97.605	-0.154	-0.040
-678.208	89.899	0.167	0.187
-677.193	-42.111	0.144	0.073
-676.178	-200.000	0.060	-0.373
-675.164	174.312	-0.087	-0.126
-674.149	-85.413	-0.563	0.176
-673.135	9.188	0.083	0.063
-672.120	27.428	-0.107	0.090
-671.105	800.000	0.066	0.197
-670.091	52.222	0.138	-0.131
-669.076	106.809	0.190	0.225
-668.062	800.000	0.055	0.198
-667.047	800.000	-0.037	0.139
-666.032	584.647	-0.033	-0.081
-665.018	-200.000	0.208	0.000
-664.003	89.964	-0.106	-0.118
-662.989	325.134	0.152	-0.290
-661.974	-23.705	-0.483	-0.290
-660.959	194.108	-0.152	0.231
-659.945	800.000	-0.016	-0.070
-658.930	800.000	0.039	-0.115
-657.916	-8.935	-0.105	0.070
-656.901	-200.000	0.010	-0.208
-655.886	-45.739	0.220	-0.109
-654.872	800.000	0.062	-0.258
-653.857	518.479	0.120	-0.281
-652.843	-87.668	-0.496	0.150
-651.828	7.012	-0.125	0.093
-650.814	159.602	0.135	0.187
-649.799	397.617	0.007	0.014
-648.784	-200.000	0.031	0.181
-647.770	170.445	-0.123	-0.176
-646.755	-82.658	-0.151	0.049
-645.741	212.498	-0.120	0.189
-644.726	54.936	-0.194	0.187
-643.711	-122.133	0.237	0.039
-642.697	-5.916	-0.273	0.187
-641.682	9.511	-0.092	0.069
-640.668	202.291	-0.264	-0.406
-639.653	354.198	0.102	-0.203
-638.638	-26.852	-0.157	-0.092
-637.624	-200.000	-0.010	-0.195
-636.609	-200.000	0.015	0.117
-635.595	-85.838	-0.206	0.064
-634.580	-200.000	-0.036	-0.300
-633.565	-200.000	0.024	-0.538
-632.551	400.446	0.052	0.109
-631.536	-136.031	0.131	-0.015
-630.522	-133.249	0.166	-0.021
-629.507	493.117	-0.047	-0.108
-628.492	800.000	0.077	0.300
-627.478	159.443	-0.031	0.044
-626.463	-93.529	0.256	0.071
-625.449	564.967	-0.100	-0.242
-624.434	-5.496	0.110	0.075
-623.419	19.294	-0.261	-0.209
-622.405	-111.795	0.441	0.089
-621.390	-42.067	0.284	0.145
-620.376	233.445	0.018	0.029
-619.361	-200.000	-0.005	-0.175
-618.346	-200.000	0.014	0.254
-617.332	-31.071	0.262	-0.147
-616.317	4.341	0.079	-0.058
-615.303	-141.116	0.123	-0.012
-614.288	170.895	-0.152	-0.217
-613.273	683.966	0.029	0.076
-612.259	-32.766	0.250	-0.139
-611.244	800.000	-0.066	-0.207
-610.230	70.362	-0.062	-0.064
-609.215	-200.000	-0.025	0.155
-608.201	165.745	-0.102	-0.144
-607.186	17.191	0.296	0.234
-606.171	-135.827	0.160	0.019
-605.157	193.359	0.291	0.439
-604.142	52.851	0.170	-0.162
-603.128	-58.724	0.088	-0.038
-602.113	189.444	-0.054	-0.081
-601.098	-92.126	-0.082	0.023
-600.084	-98.884	0.499	0.127
-599.069	-66.310	-0.238	0.094
-598.055	34.171	-0.317	-0.276
-597.040	16.429	-0.239	-0.188
-596.025	389.707	-0.074	-0.153
-595.011	-91.774	-0.112	0.032
-593.996	-200.000	-0.036	-0.181
-592.982	6.667	0.200	0.148
-591.967	-61.494	0.303	0.127
-590.952	-200.000	-0.021	0.158
-589.938	-53.435	-0.210	0.096
-588.923	336.250	-0.159	0.308
-587.909	800.000	-0.033	-0.126
-586.894	212.315	0.079	-0.123
-585.879	-87.562	0.200	-0.060
-584.865	9.351	-0.055	-0.041
-583.850	-200.000	0.076	0.351
-582.836	-34.961	0.107	0.058
-581.821	-98.163	0.253	0.065
-580.806	-126.583	0.211	0.031
-579.792	-200.000	0.031	0.232
-578.777	-64.922	-0.370	-0.149
-577.763	18.433	0.227	0.180
-576.748	-200.000	-0.041	0.269
-575.733	-45.411	0.190	0.094
-574.719	202.450	-0.121	0.186
-573.704	28.207	-0.049	0.041
-572.690	-164.665	0.338	0.015
-571.675	547.530	0.041	0.098
-570.661	-164.742	-0.067	-0.003
-569.646	800.000	-0.023	0.079
-568.631	-126.136	0.040	0.006
-567.617	77.254	0.017	-0.018
-566.602	-96.628	0.181	-0.047
-565.588	-75.597	-0.238	0.084
-564.573	800.000	0.032	-0.095
-563.558	-200.000	-0.025	-0.260
-562.544	-31.280	-0.257	0.144
-561.529	-45.276	-0.224	0.111
-560.515	-180.762	0.115	0.002
-559.500	-200.000	-0.026	-0.125
-558.485	-34.565	0.283	0.154
-557.471	74.445	-0.135	-0.141
-556.456	-38.801	-0.372	-0.195
-555.442	-122.351	-0.345	-0.056
-554.427	-153.126	0.191	0.013
-553.412	-18.071	-0.150	-0.093
-552.398	378.429	0.185	-0.376
-551.383	-102.081	0.145	-0.035
-550.369	-183.635	-0.176	-0.003
-549.354	47.484	0.205	-0.191
-548.339	217.875	0.092	-0.147
-547.325	-200.000	-0.015	-0.133
-546.310	-192.982	-0.211	0.002
-545.296	409.709	0.065	0.136
-544.281	27.789	0.073	-0.061
-543.266	-5.620	0.319	0.218
-542.252	152.750	-0.085	-0.116
-541.237	-149.755	-0.096	-0.008
-540.223	-68.166	-0.292	0.113
-539.208	97.017	-0.147	0.168
-538.193	-47.841	0.127	0.061
-537.179	-52.407	-0.133	0.061
-536.164	-127.445	-0.155	-0.022
-535.150	-131.004	0.529	-0.070
-534.135	-105.810	0.111	0.025
-533.121	-142.927	-0.226	-0.022
-532.106	-35.169	0.087	-0.047
-531.091	82.180	-0.277	-0.299
-530.077	-3.308	0.212	-0.147
-529.062	310.650	0.091	-0.169
-528.048	736.684	-0.103	0.275
-527.033	505.963	-0.042	-0.096
-526.018	800.000	0.043	0.133
-525.004	437.890	-0.006	0.012
-523.989	-38.646	0.279	0.147
-522.975	-102.073	0.219	-0.052
-521.960	-48.798	0.072	0.034
-520.945	-200.000	-0.005	-0.154
-519.931	-168.738	0.358	0.013
-518.916	-139.674	-0.185	-0.020
-517.902	-200.000	0.058	-0.296
-516.887	-24.831	-0.252	-0.149
-515.872	202.689	0.138	-0.211
-514.858	-200.000	0.085	0.000
-513.843	19.043	-0.129	0.103
-512.829	186.197	0.077	-0.114
-511.814	65.628	-0.216	-0.218
-510.799	800.000	0.052	-0.163
-509.785	81.045	-0.031	-0.033
-508.770	-75.322	0.175	0.062
-507.756	8.783	0.129	-0.097
-506.741	800.000	0.073	0.224
-505.726	144.777	-0.264	0.351
-504.712	800.000	0.032	0.137
-503.697	350.299	0.078	-0.153
-502.683	-95.895	-0.126	0.033
-501.668	-120.854	-0.275	-0.046
-500.653	-56.843	-0.105	-0.046
-499.639	-169.833	-0.101	-0.004
-498.624	-126.296	0.321	-0.048
-497.610	-33.584	-0.285	-0.156
-496.595	800.000	-0.050	-0.192
-495.581	-30.280	-0.206	0.116
-494.566	-200.000	0.008	-0.146
-493.551	800.000	0.019	-0.064
-492.537	-200.000	-0.023	-0.209
-491.522	-200.000	0.033	0.229
-490.508	-150.032	-0.136	-0.010
-489.493	-157.205	0.188	-0.011
-488.478	-144.522	0.412	0.038
-487.464	10.593	-0.164	-0.124
-486.449	-200.000	-0.020	-0.282
-485.435	73.441	-0.082	0.085
-484.420	-55.437	0.154	0.068
-483.405	-73.645	0.395	-0.143
-482.391	-33.837	0.048	-0.026
-481.376	-118.066	-0.237	0.042
-480.362	85.956	-0.144	0.158
-479.347	194.815	-0.089	-0.135
-478.332	-45.386	0.204	0.100
-477.318	-66.362	-0.005	0.002
-476.303	-44.606	0.185	-0.092
-475.289	-200.000	-0.060	0.294
-474.274	-200.000	0.047	0.271
-473.259	284.663	-0.130	0.232
-472.245	-14.400	-0.255	-0.163
-471.230	-30.351	0.195	0.110
-470.216	-156.691	0.321	-0.020
-469.201	-71.814	-0.087	-0.032
-468.186	-28.300	-0.418	-0.239
-467.172	-10.627	0.189	0.124
-466.157	-83.088	-0.160	-0.051
-465.143	800.000	-0.055	-0.194
-464.128	-51.765	0.280	-0.129
-463.113	-18.844	-0.153	-0.095
-462.099	-149.456	-0.376	0.030
-461.084	-86.861	-0.135	-0.041
-460.070	-200.000	0.028	-0.463
-459.055	152.942	0.183	-0.248
-458.040	-23.380	-0.130	0.077
-457.026	353.770	0.131	0.258
-456.011	29.613	0.165	0.139
-454.997	64.909	-0.085	0.085
-453.982	-7.335	0.205	0.138
-452.968	448.787	-0.053	0.115
-451.953	-29.791	0.248	-0.140
-450.938	-128.231	0.136	0.019
-449.924	-134.580	-0.240	-0.029
-448.909	-136.573	0.130	-0.015
-447.895	-200.000	0.213	0.000
-446.880	800.000	-0.038	-0.119
-445.865	-97.651	0.280	-0.072
-444.851	78.616	-0.069	0.073
-443.836	137.622	0.298	-0.386
-442.822	-200.000	0.017	0.214
-441.807	-200.000	-0.039	0.218
-440.792	-130.225	-0.233	0.031
-439.778	-84.821	-0.271	-0.084
-438.763	-183.662	0.072	-0.001
-437.749	27.957	-0.326	0.272
-436.734	-0.476	0.072	-0.050
-435.719	22.177	0.269	-0.218
-434.705	493.104	0.087	0.198
-433.690	553.337	0.051	0.120
-432.676	-200.000	0.006	-0.327
-431.661	-200.000	0.022	0.102
-430.646	1.598	-0.018	0.013
-429.632	-200.000	-0.067	-0.334
-428.617	-134.525	0.256	0.031
-427.603	-60.721	0.247	0.104
-426.588	9.788	0.152	0.114
-425.573	52.369	-0.175	-0.165
-424.559	-200.000	-0.070	-0.343
-423.544	-156.077	0.436	0.027
-422.530	86.093	-0.078	-0.085
-421.515	574.029	-0.103	-0.248
-420.500	51.961	0.107	-0.101
-419.486	181.772	0.127	0.184
-418.471	-151.903	-0.052	-0.004
-417.457	174.227	-0.139	0.199
-416.442	-68.186	0.171	-0.066
-415.428	182.982	0.029	0.042
-414.413	357.423	0.074	0.146
-413.398	-13.660	-0.179	0.115
-412.384	-200.000	-0.007	-0.291
-411.369	-200.000	0.007	0.295
-410.355	-109.698	-0.105	0.022
-409.340	-18.333	0.113	-0.070
-408.325	-200.000	-0.050	0.332
-407.311	800.000	-0.073	-0.263
-406.296	100.716	0.175	-0.201
-405.282	-146.191	0.192	-0.017
-404.267	-144.444	-0.139	0.013
-403.252	-137.513	0.376	0.042
-402.238	-200.000	-0.047	-0.333
-401.223	-200.000	-0.000	-0.086
-400.209	-82.444	0.212	0.068
-399.194	-200.000	0.019	0.199
-398.179	-98.918	-0.176	0.044
-397.165	-102.129	-0.046	-0.011
-396.150	0.514	-0.095	-0.067
-395.136	-200.000	0.020	0.160
-394.121	304.329	0.211	-0.388
-393.106	800.000	-0.078	0.312
-392.092	-40.113	-0.278	0.143
-391.077	122.892	0.126	0.156
-390.063	-106.326	0.295	-0.065
-389.048	-5.289	0.212	-0.144
-388.033	86.665	0.112	-0.122
-387.019	-42.819	-0.172	0.086
-386.004	334.208	0.159	0.305
-384.990	-56.158	-0.219	0.097
-383.975	-43.233	-0.065	-0.033
-382.960	146.499	0.229	-0.304
-381.946	165.886	-0.145	0.203
-380.931	-107.227	-0.309	-0.067
-379.917	488.853	-0.027	0.060
-378.902	388.498	-0.232	0.474
-377.888	800.000	0.019	0.068
-376.873	18.039	0.138	0.108
-375.858	-24.197	0.139	0.082
-374.844	-5.046	-0.337	-0.229
-373.829	-43.232	-0.070	0.035
-372.815	212.576	-0.113	0.177
-371.800	229.625	0.105	0.170
-370.785	-85.133	-0.089	-0.028
-369.771	-120.062	-0.248	-0.042
-368.756	800.000	-0.044	-0.175
-367.742	-15.867	0.297	-0.187
-366.727	800.000	0.046	-0.198
-365.712	265.056	-0.024	0.042
-364.698	17.482	-0.072	-0.056
-363.683	-150.120	0.093	-0.007
-362.669	-154.781	0.170	-0.011
-361.654	-97.584	-0.199	-0.051
-360.639	-33.799	-0.117	-0.063
-359.625	140.691	0.115	0.150
-358.610	519.412	-0.046	0.107
-357.596	-30.798	-0.111	0.062
-356.581	-36.811	0.026	-0.014
-355.566	-200.000	0.017	0.250
-354.552	-18.639	-0.070	-0.043
-353.537	-96.961	-0.137	0.036
-352.523	-175.179	0.091	-0.002
-351.508	-167.579	0.103	-0.004
-350.493	-200.000	-0.006	-0.147
-349.479	102.967	-0.062	-0.071
-348.464	58.217	-0.264	0.255
-347.450	514.563	-0.047	0.109
-346.435	-197.558	0.443	0.003
-345.420	800.000	0.067	-0.195
-344.406	-12.475	-0.248	0.160
-343.391	485.679	-0.121	-0.272
-342.377	77.131	0.154	-0.161
-341.362	176.808	0.069	0.099
-340.348	-113.961	-0.167	-0.032
-339.333	-96.653	0.079	0.020
-338.318	263.772	0.076	0.131
-337.304	-160.944	-0.449	-0.023
-336.289	-6.821	-0.279	0.187
-335.275	-200.000	-0.015	0.084
-334.260	43.282	-0.331	0.298
-333.245	233.128	0.191	0.310
-332.231	-200.000	0.028	0.156
-331.216	-109.506	0.389	0.081
-330.202	-200.000	-0.005	-0.159
-329.187	28.555	0.103	-0.086
-328.172	40.675	-0.233	-0.207
-327.158	-92.621	-0.303	0.084
-326.143	-1.023	-0.238	-0.166
-325.129	-52.363	-0.259	-0.118
-324.114	800.000	0.100	-0.275
-323.099	800.000	-0.026	-0.104
-322.085	-111.941	-0.050	0.010
-321.070	350.001	-0.121	0.235
-320.056	-63.641	0.142	-0.057
-319.041	373.888	-0.206	0.414
-318.026	-173.422	0.024	-0.001
-317.012	-129.917	0.223	-0.030
-315.997	-200.000	-0.030	-0.149
-314.983	601.837	0.078	-0.190
-313.968	-105.783	-0.317	0.071
-312.953	161.463	-0.221	0.305
-311.939	-73.562	0.055	-0.020
-310.924	-200.000	-0.001	0.279
-309.910	153.237	0.144	0.194
-308.895	735.868	-0.110	-0.291
-307.880	-200.000	-0.066	-0.338
-306.866	-200.000	-0.011	-0.451
-305.851	381.478	-0.057	-0.115
-304.837	-37.159	-0.182	0.096
-303.822	92.795	-0.149	0.166
-302.807	246.956	-0.114	-0.189
-301.793	-179.893	-0.539	-0.011
-300.778	-97.455	-0.237	-0.061
-299.764	30.450	-0.009	-0.008
-298.749	-55.751	-0.147	0.065
-297.735	-200.000	-0.002	0.115
-296.720	-34.911	-0.142	-0.076
-295.705	28.471	-0.073	0.061
-294.691	-163.881	0.188	-0.009
-293.676	33.121	0.043	0.036
-292.662	800.000	0.084	-0.319
-291.647	-200.000	-0.054	-0.286
-290.632	-66.197	0.250	-0.098
-289.618	-120.397	-0.364	0.061
-288.603	-130.012	0.200	0.027
-287.589	-117.265	0.054	-0.010
-286.574	-200.000	0.004	0.177
-285.559	362.658	0.026	0.052
-284.545	-200.000	0.048	0.241
-283.530	593.103	0.132	0.322
-282.516	800.000	0.052	0.157
-281.501	153.978	0.068	0.092
-280.486	6.219	0.346	-0.253
-279.472	140.715	-0.204	-0.266
-278.457	-94.160	-0.320	-0.086
-277.443	-200.000	0.007	-0.111
-276.428	415.694	-0.199	0.417
-275.413	36.183	0.212	0.184
-274.399	-12.425	-0.141	-0.091
-273.384	-200.000	0.037	-0.263
-272.370	-200.000	0.052	-0.230
-271.355	-164.882	0.310	0.014
-270.340	800.000	-0.066	0.237
-269.326	-200.000	0.008	-0.123
-268.311	-68.612	0.251	-0.096
-267.297	-200.000	-0.002	0.114
-266.282	-111.010	-0.191	0.039
-265.267	-89.021	-0.060	-0.018
-264.253	-200.000	-0.030	-0.162
-263.238	115.197	-0.106	-0.127
-262.224	-185.520	0.538	-0.008
-261.209	13.249	-0.231	0.176
-260.195	-65.874	0.364	0.143
-259.180	-157.339	-0.278	0.016
-258.165	800.000	-0.033	0.130
-257.151	-200.000	0.008	-0.052
-256.136	800.000	-0.040	0.166
-255.122	-149.708	-0.277	-0.021
-254.107	-200.000	-0.010	0.388
-253.092	305.051	-0.248	0.453
-252.078	-142.695	0.047	0.005
-251.063	387.091	-0.042	-0.085
-250.049	545.947	-0.163	-0.382
-249.034	-143.447	0.162	-0.015
-248.019	76.627	-0.104	-0.109
-247.005	477.474	0.122	0.272
-245.990	-175.263	0.341	-0.009
-244.976	17.726	0.083	0.065
-243.961	-200.000	0.044	0.190
-242.946	-200.000	-0.013	0.172
-241.932	-112.562	-0.390	0.076
-240.917	240.595	-0.050	0.083
-239.903	-200.000	-0.004	-0.206
-238.888	72.736	0.169	-0.174
-237.873	-103.775	-0.108	-0.025
-236.859	113.098	-0.048	-0.057
-235.844	124.096	-0.246	0.304
-234.830	80.223	0.264	0.279
-233.815	800.000	-0.107	0.314
-232.800	-38.750	0.167	-0.086
-231.786	469.142	-0.054	-0.119
-230.771	115.433	-0.070	-0.084
-229.757	339.447	0.191	0.365
-228.742	-41.198	0.122	0.062
-227.727	-200.000	0.003	-0.198
-226.713	-80.388	-0.209	0.069
-225.698	-108.296	0.313	-0.066
-224.684	-177.369	-0.093	0.002
-223.669	-134.310	-0.190	-0.023
-222.655	251.829	-0.119	0.200
-221.640	-62.204	0.327	0.134
-220.625	-200.000	-0.004	-0.137
-219.611	-54.904	-0.360	0.160
-218.596	-200.000	0.008	-0.070
-217.582	-1.595	-0.323	0.224
-216.567	527.592	-0.130	-0.301
-215.552	78.092	0.229	-0.240
-214.538	382.239	-0.082	-0.166
-213.523	165.724	0.367	0.509
-212.509	-99.226	-0.098	0.024
-211.494	-200.000	0.018	-0.235
-210.479	800.000	-0.020	0.071
-209.465	-34.665	-0.171	-0.092
-208.450	70.259	0.252	0.256
-207.436	78.540	0.170	-0.179
-206.421	-134.564	0.364	0.044
-205.406	-200.000	-0.018	0.117
-204.392	-36.192	-0.176	0.093
-203.377	-131.174	0.324	-0.042
-202.363	-14.827	-0.176	-0.111
-201.348	-113.262	0.279	0.054
-200.333	1.801	0.060	0.042
-199.319	-200.000	0.019	0.164
-198.304	-129.520	-0.246	0.033
-197.290	-48.118	-0.467	-0.221
-196.275	-200.000	-0.028	0.160
-195.260	800.000	-0.027	-0.093
-194.246	-96.407	-0.298	-0.077
-193.231	317.250	0.088	0.163
-192.217	-115.039	0.163	0.030
-191.202	684.221	-0.167	-0.428
-190.187	-27.562	0.246	-0.140
-189.173	-31.992	-0.166	-0.091
-188.158	-129.824	-0.098	0.013
-187.144	-93.326	-0.447	0.122
-186.129	492.856	0.072	0.161
-185.114	37.387	-0.210	0.182
-184.100	85.001	0.197	0.212
-183.085	-120.230	-0.215	0.036
-182.071	-10.753	0.290	0.188
-181.056	-200.000	-0.018	-0.087
-180.042	-200.000	0.017	-0.168
-179.027	188.462	0.171	0.250
-178.012	70.794	-0.184	-0.187
-176.998	-200.000	0.007	0.158
-175.983	519.171	0.169	0.389
-174.969	-200.000	-0.013	0.143
-173.954	800.000	-0.085	0.306
-172.939	800.000	0.127	-0.422
-171.925	-96.755	-0.271	-0.070
-170.910	800.000	-0.060	-0.169
-169.896	-106.611	0.297	-0.065
-168.881	60.413	-0.090	-0.087
-167.866	800.000	0.009	0.030
-166.852	364.723	0.155	-0.305
-165.837	535.642	0.127	-0.296
-164.823	30.125	0.114	0.095
-163.808	800.000	0.059	-0.184
-162.793	61.886	0.161	-0.157
-161.779	-200.000	-0.217	-0.000
-160.764	657.752	-0.107	-0.270
-159.750	-106.315	0.144	0.032
-158.735	-46.706	0.097	-0.046
-157.720	-5.116	-0.105	0.071
-156.706	-129.622	0.156	0.021
-155.691	-25.073	0.155	0.090
-154.677	516.996	0.064	-0.146
-153.662	754.696	0.060	0.158
-152.647	10.980	-0.151	0.113
-151.633	-200.000	0.007	0.066
-150.618	-200.000	-0.028	-0.163
-149.604	15.876	-0.239	0.185
-148.589	-38.000	-0.093	-0.048
-147.574	43.756	0.331	0.297
-146.560	126.925	-0.298	0.369
-145.545	69.021	-0.263	0.265
-144.531	800.000	-0.071	0.222
-143.516	-98.778	0.417	0.104
-142.502	-116.293	-0.138	-0.025
-141.487	205.433	0.313	-0.477
-140.472	800.000	0.014	-0.046
-139.458	-200.000	0.062	-0.275
-138.443	800.000	-0.053	-0.154
-137.429	75.148	-0.092	-0.095
-136.414	122.868	0.291	-0.357
-135.399	314.234	0.158	0.291
-134.385	-154.051	0.140	0.009
-133.370	-200.000	0.010	-0.224
-132.356	-200.000	-0.007	0.241
-131.341	49.592	0.264	-0.243
-130.326	-200.000	-0.005	0.070
-129.312	240.875	0.031	0.051
-128.297	800.000	0.106	0.441
-127.283	-159.525	-0.257	0.014
-126.268	-122.935	0.138	0.022
-125.253	-164.495	0.239	-0.011
-124.239	-23.159	0.269	-0.158
-123.224	-71.777	-0.508	-0.185
-122.210	-4.178	-0.116	0.079
