DTS Sentinel unit serial number:	SN413079Multiplexer serial number:	ORYXHardware model number:	OX4-SRSoftware version number:	ORYX F/W v4.00 Oryx Data Collector v3.7.2.0data status	okinstallation	princeton_trtdifferential loss correction	single-endedforward channel	channel 3reverse channel	N/Adate	2019/09/19time	04:52:35forward acquisition time	60.00reverse acquisition time	0.00gamma	496.2192k internal	0.2347k external	0.2347temperature offset calibration	0.9997default loss term (dB/km)	0.3790temperature slope calibration	1.0000multiplexer offset coefficient	1.0000multiplexer slope coefficient	1.0000fibre end	0.00T internal ref (°C)	19.81T ext. ref 1 (°C)	0.61T ext. ref 2 (°C)	12.98length (m)	temperature (°C)	Stokes	anti-Stokes-747.200	51.228	0.065	-0.062
-746.185	-22.541	0.116	-0.070
-745.171	800.000	0.101	0.323
-744.156	800.000	0.027	0.097
-743.142	142.606	-0.163	0.217
-742.127	-200.000	0.009	-0.092
-741.112	-89.379	0.145	-0.043
-740.098	-161.524	0.087	0.004
-739.083	-43.764	0.141	0.071
-738.069	-25.130	-0.239	-0.142
-737.054	159.981	0.124	-0.172
-736.039	39.161	0.040	-0.036
-735.025	-3.216	-0.039	0.027
-734.010	-17.140	-0.169	-0.106
-732.996	-73.740	-0.219	-0.079
-731.981	-50.381	0.247	-0.116
-730.966	-9.888	0.290	0.193
-729.952	-200.000	-0.025	-0.224
-728.937	-110.353	-0.058	-0.012
-727.923	-200.000	0.017	0.486
-726.908	-34.073	0.223	-0.123
-725.894	-137.889	-0.371	-0.041
-724.879	110.822	-0.187	-0.225
-723.864	-91.891	-0.123	-0.035
-722.850	42.597	-0.555	-0.504
-721.835	220.841	-0.083	-0.134
-720.821	300.306	-0.138	-0.255
-719.806	94.811	-0.088	-0.100
-718.791	49.480	0.100	-0.094
-717.777	30.375	-0.031	0.026
-716.762	-154.116	-0.363	-0.025
-715.748	-110.690	-0.232	-0.048
-714.733	-200.000	-0.024	-0.274
-713.718	-200.000	-0.015	-0.099
-712.704	-69.502	-0.299	0.114
-711.689	-200.000	-0.023	-0.333
-710.675	80.374	0.165	0.177
-709.660	800.000	-0.057	-0.162
-708.645	94.510	0.321	-0.363
-707.631	771.830	-0.080	0.219
-706.616	-131.390	0.082	0.011
-705.602	-52.701	-0.265	0.122
-704.587	153.125	-0.168	-0.230
-703.572	288.919	-0.158	-0.285
-702.558	220.479	0.167	-0.267
-701.543	-103.094	-0.298	-0.070
-700.529	40.616	-0.060	0.054
-699.514	800.000	-0.067	0.243
-698.499	-44.590	0.092	0.046
-697.485	112.954	-0.109	-0.132
-696.470	-116.248	-0.290	-0.054
-695.456	-200.000	0.012	0.102
-694.441	-200.000	0.027	0.139
-693.426	198.187	0.065	-0.099
-692.412	136.342	0.193	-0.251
-691.397	-164.391	0.182	0.008
-690.383	378.271	0.165	-0.337
-689.368	-200.000	-0.024	0.376
-688.354	-200.000	-0.015	-0.117
-687.339	443.153	0.044	-0.096
-686.324	-32.362	-0.202	-0.113
-685.310	800.000	0.031	-0.094
-684.295	21.142	0.107	-0.087
-683.281	800.000	-0.046	-0.128
-682.266	219.763	0.294	-0.469
-681.251	-9.650	-0.235	-0.156
-680.237	130.326	-0.038	-0.048
-679.222	-118.646	-0.153	-0.027
-678.208	445.081	0.104	-0.228
-677.193	244.157	-0.232	-0.388
-676.178	322.897	-0.073	-0.140
-675.164	229.625	0.276	0.449
-674.149	15.077	0.060	0.047
-673.135	447.859	-0.238	-0.522
-672.120	35.617	0.132	-0.115
-671.105	483.121	0.169	-0.383
-670.091	54.431	-0.247	-0.237
-669.076	-100.963	-0.140	-0.034
-668.062	71.234	-0.281	0.291
-667.047	620.302	0.065	-0.163
-666.032	-130.241	0.325	-0.044
-665.018	-58.890	0.438	0.189
-664.003	-96.979	-0.277	-0.072
-662.989	-108.299	-0.350	-0.075
-661.974	-22.797	0.277	-0.167
-660.959	-200.000	-0.000	-0.284
-659.945	7.455	-0.033	0.025
-658.930	-111.215	-0.267	-0.054
-657.916	-62.604	0.293	-0.121
-656.901	-108.246	0.311	0.067
-655.886	-86.116	0.317	0.097
-654.872	39.158	0.189	-0.168
-653.857	616.011	-0.068	-0.169
-652.843	-200.000	-0.020	0.174
-651.828	-147.816	-0.291	-0.024
-650.814	-53.114	-0.381	0.174
-649.799	-200.000	-0.023	-0.385
-648.784	-188.200	-0.164	0.002
-647.770	39.239	0.060	0.054
-646.755	-63.952	-0.116	0.047
-645.741	-200.000	-0.041	0.391
-644.726	-132.694	-0.142	-0.018
-643.711	800.000	-0.051	-0.163
-642.697	37.932	0.143	0.126
-641.682	-118.765	-0.016	-0.003
-640.668	-43.038	-0.181	0.091
-639.653	-144.661	-0.077	-0.007
-638.638	-200.000	0.014	-0.254
-637.624	-200.000	-0.024	-0.116
-636.609	416.490	0.144	-0.305
-635.595	-200.000	-0.008	-0.272
-634.580	25.657	-0.127	0.105
-633.565	98.156	-0.056	0.064
-632.551	-149.401	-0.053	-0.004
-631.536	108.660	0.012	0.015
-630.522	-18.570	0.274	0.170
-629.507	50.452	-0.382	0.359
-628.492	-89.418	0.276	0.081
-627.478	536.882	-0.043	0.102
-626.463	800.000	-0.131	-0.509
-625.449	129.124	0.070	-0.089
-624.434	5.871	0.013	-0.010
-623.419	-99.035	0.024	0.006
-622.405	-42.259	-0.217	0.110
-621.390	800.000	0.061	0.234
-620.376	-141.602	0.338	-0.034
-619.361	-70.633	-0.285	0.107
-618.346	555.824	-0.096	-0.231
-617.332	800.000	0.056	-0.205
-616.317	0.346	0.027	0.019
-615.303	-200.000	0.013	-0.484
-614.288	-65.182	0.058	0.023
-613.273	666.506	0.048	0.122
-612.259	-140.823	-0.246	-0.025
-611.244	-200.000	-0.000	0.135
-610.230	-130.513	-0.123	-0.016
-609.215	-43.683	0.261	-0.131
-608.201	-32.190	-0.268	-0.149
-607.186	0.971	-0.315	0.224
-606.171	-172.396	0.169	-0.005
-605.157	184.410	0.113	-0.166
-604.142	466.672	0.146	-0.326
-603.128	133.615	-0.085	-0.110
-602.113	576.675	0.065	0.158
-601.098	-200.000	0.057	0.288
-600.084	-156.937	-0.190	-0.012
-599.069	-16.035	0.082	0.052
-598.055	800.000	0.004	-0.014
-597.040	301.556	-0.152	0.278
-596.025	29.119	0.365	-0.308
-595.011	-200.000	0.012	-0.075
-593.996	0.928	0.120	0.086
-592.982	-112.720	-0.142	0.028
-591.967	-27.957	-0.235	0.135
-590.952	-99.083	-0.199	-0.050
-589.938	-60.141	-0.304	0.129
-588.923	-133.865	0.256	0.032
-587.909	485.732	-0.190	0.429
-586.894	-127.137	0.115	0.017
-585.879	-114.042	-0.326	0.063
-584.865	145.849	0.134	0.179
-583.850	97.291	-0.264	0.300
-582.836	-200.000	0.039	0.378
-581.821	10.609	-0.278	-0.210
-580.806	-111.093	-0.394	0.080
-579.792	750.005	0.047	-0.126
-578.777	-200.000	-0.023	0.129
-577.763	-20.033	-0.132	0.081
-576.748	-151.733	-0.482	-0.035
-575.733	-123.361	0.161	0.026
-574.719	-17.808	-0.188	-0.117
-573.704	-20.537	0.198	-0.121
-572.690	10.131	0.112	-0.084
-571.675	97.917	-0.145	0.165
-570.661	-97.921	0.266	0.068
-569.646	640.132	-0.189	-0.478
-568.631	-200.000	0.005	-0.114
-567.617	-28.858	-0.246	0.140
-566.602	235.102	-0.196	-0.321
-565.588	-200.000	0.004	0.114
-564.573	-35.933	-0.177	-0.095
-563.558	-86.721	0.397	-0.121
-562.544	-125.652	-0.478	-0.072
-561.529	113.331	-0.240	-0.289
-560.515	-92.772	-0.189	0.053
-559.500	-200.000	0.005	-0.120
-558.485	255.472	-0.073	0.123
-557.471	-200.000	0.024	-0.156
-556.456	800.000	-0.069	0.288
-555.442	-30.733	-0.211	-0.119
-554.427	-200.000	-0.027	-0.544
-553.412	-95.796	0.175	0.046
-552.398	153.097	-0.116	-0.157
-551.383	-3.936	-0.110	0.075
-550.369	249.136	0.087	-0.146
-549.354	-200.000	-0.018	-0.183
-548.339	300.178	-0.153	-0.280
-547.325	800.000	-0.022	-0.074
-546.310	800.000	0.163	-0.495
-545.296	93.632	-0.038	-0.043
-544.281	-188.036	0.226	-0.003
-543.266	-134.444	-0.354	0.043
-542.252	-200.000	0.054	0.312
-541.237	299.782	0.158	-0.289
-540.223	-140.583	-0.398	0.041
-539.208	-77.085	0.129	0.045
-538.193	-2.682	0.262	-0.182
-537.179	-33.102	0.157	-0.087
-536.164	50.298	0.271	-0.253
-535.150	-92.170	-0.079	-0.022
-534.135	-200.000	0.029	-0.247
-533.121	500.453	0.209	0.478
-532.106	18.067	-0.238	0.188
-531.091	414.226	0.132	-0.279
-530.077	-69.530	-0.069	-0.026
-529.062	182.189	0.127	0.186
-528.048	-200.000	-0.039	0.267
-527.033	558.332	0.076	0.182
-526.018	-200.000	-0.014	0.126
-525.004	-100.564	0.238	0.058
-523.989	303.036	-0.139	-0.255
-522.975	-105.256	0.206	-0.047
-521.960	800.000	0.114	-0.346
-520.945	43.307	0.115	0.104
-519.931	7.610	0.130	0.096
-518.916	3.708	-0.093	-0.068
-517.902	-91.550	0.254	-0.072
-516.887	-200.000	0.022	-0.113
-515.872	122.140	0.136	0.169
-514.858	196.468	-0.017	0.026
-513.843	-132.299	-0.141	-0.018
-512.829	-105.104	0.034	-0.008
-511.814	-200.000	-0.019	-0.328
-510.799	-149.071	0.215	0.017
-509.785	-76.308	0.231	-0.081
-508.770	650.969	0.079	-0.201
-507.756	-114.790	-0.119	-0.022
-506.741	-63.809	0.212	0.086
-505.726	-200.000	-0.035	0.201
-504.712	393.467	-0.106	0.218
-503.697	18.346	-0.140	-0.111
-502.683	800.000	-0.057	0.244
-501.668	-19.969	-0.112	0.069
-500.653	-200.000	-0.008	0.356
-499.639	-56.731	0.318	-0.139
-498.624	120.474	-0.209	-0.257
-497.610	800.000	0.041	-0.130
-496.595	50.730	-0.208	0.195
-495.581	56.677	-0.189	-0.182
-494.566	-132.111	0.179	-0.023
-493.551	-33.052	-0.150	0.082
-492.537	-167.589	-0.170	-0.007
-491.522	-200.000	0.004	0.133
-490.508	800.000	-0.063	-0.174
-489.493	-112.838	-0.221	0.043
-488.478	-194.288	0.222	-0.002
-487.464	-59.627	0.256	-0.109
-486.449	-65.894	-0.197	-0.078
-485.435	-168.320	-0.107	-0.004
-484.420	-39.927	0.342	0.177
-483.405	-89.083	0.222	0.065
-482.391	54.333	-0.329	0.313
-481.376	800.000	0.061	-0.217
-480.362	-139.932	0.060	0.006
-479.347	-10.447	-0.277	-0.182
-478.332	4.278	0.184	-0.133
-477.318	-161.843	-0.209	0.010
-476.303	605.462	0.045	-0.112
-475.289	41.740	0.321	-0.288
-474.274	221.106	-0.067	0.106
-473.259	-36.151	-0.273	-0.146
-472.245	-6.734	-0.133	-0.090
-471.230	-102.562	0.169	0.040
-470.216	500.472	0.130	0.296
-469.201	2.017	-0.088	-0.063
-468.186	-2.012	-0.159	0.110
-467.172	-78.007	-0.275	0.094
-466.157	716.874	-0.133	-0.349
-465.143	111.762	0.074	0.089
-464.128	171.803	-0.062	-0.088
-463.113	39.458	0.220	0.194
-462.099	-41.929	-0.100	-0.051
-461.084	22.464	0.267	-0.216
-460.070	-200.000	0.032	-0.603
-459.055	22.638	-0.213	0.173
-458.040	-70.344	0.186	0.070
-457.026	65.929	-0.036	0.036
-456.011	374.584	-0.086	-0.174
-454.997	-73.983	0.134	0.048
-453.982	-200.000	0.009	0.076
-452.968	284.439	-0.099	0.177
-451.953	351.833	0.150	0.293
-450.938	-143.947	-0.250	-0.023
-449.924	31.166	-0.319	-0.270
-448.909	65.634	0.125	-0.125
-447.895	-2.483	-0.186	0.129
-446.880	-57.887	0.054	-0.024
-445.865	452.824	-0.060	-0.132
-444.851	-53.007	-0.278	-0.126
-443.836	800.000	-0.083	-0.228
-442.822	-38.918	-0.212	-0.110
-441.807	-200.000	-0.017	-0.119
-440.792	-67.622	-0.141	-0.055
-439.778	236.068	0.223	-0.363
-438.763	800.000	-0.057	0.224
-437.749	85.150	0.131	-0.142
-436.734	-200.000	-0.133	-0.000
-435.719	74.536	0.137	-0.142
-434.705	-159.565	0.521	-0.029
-433.690	31.995	-0.362	0.308
-432.676	-137.044	-0.217	-0.025
-431.661	800.000	-0.039	-0.111
-430.646	102.171	-0.078	0.090
-429.632	430.660	0.182	0.390
-428.617	-91.984	0.203	-0.057
-427.603	-200.000	0.040	0.214
-426.588	-139.704	0.337	0.035
-425.573	-200.000	0.002	-0.259
-424.559	53.242	-0.154	-0.146
-423.544	39.264	0.253	-0.223
-422.530	800.000	0.075	-0.305
-421.515	-7.415	-0.205	-0.137
-420.500	800.000	-0.010	-0.038
-419.486	-200.000	-0.003	0.182
-418.471	338.651	0.153	0.294
-417.457	231.947	-0.053	-0.086
-416.442	-57.014	-0.242	0.105
-415.428	-77.116	-0.236	0.081
-414.413	-96.303	-0.158	0.041
-413.398	-65.688	-0.131	-0.052
-412.384	637.725	0.033	-0.083
-411.369	-61.633	0.222	-0.092
-410.355	-87.258	-0.120	-0.036
-409.340	259.766	-0.195	-0.332
-408.325	40.309	-0.026	0.023
-407.311	800.000	-0.061	-0.182
-406.296	-35.681	0.180	0.096
-405.282	251.796	-0.085	-0.143
-404.267	34.793	0.323	-0.279
-403.252	477.828	0.031	0.068
-402.238	98.162	0.140	-0.159
-401.223	-200.000	-0.043	-0.217
-400.209	310.362	0.219	0.404
-399.194	168.364	-0.134	0.188
-398.179	-200.000	-0.001	0.056
-397.165	87.250	0.244	0.266
-396.150	-54.913	0.294	-0.130
-395.136	137.876	-0.216	-0.279
-394.121	-153.028	-0.163	-0.011
-393.106	-139.125	0.203	-0.022
-392.092	-79.192	-0.122	0.041
-391.077	-200.000	-0.073	0.510
-390.063	142.936	0.138	0.181
-389.048	-33.072	0.204	0.112
-388.033	-49.430	-0.220	-0.103
-387.019	-80.315	-0.142	-0.047
-386.004	-175.955	-0.173	0.005
-384.990	-200.000	-0.039	-0.376
-383.975	-200.000	0.000	0.257
-382.960	-190.933	0.215	0.002
-381.946	-92.978	-0.028	-0.008
-380.931	-200.000	0.012	0.105
-379.917	15.524	0.092	-0.071
-378.902	28.087	0.040	-0.033
-377.888	-92.437	0.231	0.064
-376.873	68.957	-0.144	0.145
-375.858	-19.830	-0.136	-0.083
-374.844	236.676	0.071	0.116
-373.829	606.647	0.090	-0.220
-372.815	590.465	-0.078	-0.188
-371.800	725.228	-0.073	0.191
-370.785	-127.408	-0.434	-0.062
-369.771	-129.251	-0.330	0.045
-368.756	-128.378	-0.147	-0.021
-367.742	800.000	-0.061	-0.183
-366.727	562.411	0.079	0.187
-365.712	60.355	-0.161	-0.156
-364.698	-200.000	0.017	0.284
-363.683	800.000	-0.061	0.185
-362.669	-62.711	-0.369	-0.151
-361.654	800.000	-0.080	-0.226
-360.639	417.376	-0.067	0.141
-359.625	266.323	0.094	-0.162
-358.610	-50.187	-0.101	-0.047
-357.596	184.081	0.200	0.291
-356.581	-154.215	0.294	0.020
-355.566	250.793	0.044	-0.074
-354.552	693.372	0.151	-0.389
-353.537	-125.737	0.056	-0.008
-352.523	19.197	0.219	0.173
-351.508	376.941	-0.111	0.222
-350.493	-69.590	0.381	-0.144
-349.479	89.228	0.076	0.084
-348.464	-51.704	0.098	-0.045
-347.450	51.968	-0.237	0.222
-346.435	-200.000	0.003	0.040
-345.420	-45.017	-0.500	-0.245
-344.406	-200.000	-0.085	-0.388
-343.391	58.924	0.125	-0.121
-342.377	-118.479	-0.255	0.045
-341.362	-12.382	0.202	0.130
-340.348	-107.111	0.100	-0.022
-339.333	128.922	0.193	-0.242
-338.318	800.000	-0.010	0.037
-337.304	579.189	0.109	-0.263
-336.289	-104.264	0.196	0.045
-335.275	129.954	-0.045	0.056
-334.260	170.131	0.032	-0.045
-333.245	-38.829	0.025	0.013
-332.231	-136.183	0.248	-0.028
-331.216	-159.276	0.146	-0.008
-330.202	-61.041	0.102	0.042
-329.187	-200.000	0.003	-0.159
-328.172	-27.115	-0.119	0.068
-327.158	-161.138	0.545	-0.028
-326.143	-151.863	-0.241	0.017
-325.129	-33.754	0.183	-0.099
-324.114	-116.567	-0.092	0.017
-323.099	-123.241	0.062	-0.010
-322.085	-107.989	-0.358	-0.076
-321.070	-200.000	0.017	-0.201
-320.056	95.117	-0.191	-0.214
-319.041	144.352	0.156	0.205
-318.026	-49.721	0.101	-0.047
-317.012	113.319	-0.214	0.255
-315.997	4.451	0.129	0.093
-314.983	270.976	-0.125	-0.216
-313.968	-200.000	0.056	-0.307
-312.953	-200.000	-0.015	0.094
-311.939	-32.221	0.244	0.134
-310.924	-200.000	0.024	-0.189
-309.910	306.932	-0.050	-0.092
-308.895	-200.000	0.028	-0.269
-307.880	-168.001	0.228	0.009
-306.866	-200.000	0.026	-0.169
-305.851	-26.943	-0.170	0.097
-304.837	-200.000	0.017	0.233
-303.822	-200.000	-0.046	0.240
-302.807	800.000	0.004	0.016
-301.793	800.000	-0.078	0.295
-300.778	-200.000	0.016	0.172
-299.764	800.000	-0.039	0.166
-298.749	-61.334	0.113	0.047
-297.735	624.086	-0.038	-0.093
-296.720	-41.839	-0.064	0.032
-295.705	252.052	0.037	0.062
-294.691	59.057	-0.047	-0.045
-293.676	98.149	-0.150	-0.169
-292.662	31.971	-0.171	-0.145
-291.647	25.065	-0.209	-0.170
-290.632	136.620	0.239	-0.307
-289.618	800.000	-0.046	0.194
-288.603	800.000	0.017	0.062
-287.589	-194.989	0.039	0.000
-286.574	-200.000	-0.038	-0.303
-285.559	456.568	-0.124	0.270
-284.545	-200.000	0.056	0.348
-283.530	800.000	0.104	0.294
-282.516	-200.000	0.028	0.427
-281.501	82.230	0.153	0.163
-280.486	792.211	-0.116	-0.312
-279.472	-200.000	-0.053	0.345
-278.457	-103.222	-0.044	-0.010
-277.443	-155.296	0.107	0.007
-276.428	211.858	-0.167	-0.258
-275.413	-200.000	-0.032	0.306
-274.399	103.989	0.279	0.322
-273.384	384.965	0.129	0.260
-272.370	-14.764	0.219	-0.138
-271.355	249.729	-0.109	-0.181
-270.340	96.437	0.254	0.285
-269.326	3.123	-0.100	0.071
-268.311	-57.277	-0.180	0.078
-267.297	-19.402	-0.197	0.120
-266.282	-102.111	0.205	-0.048
-265.267	1.070	0.206	-0.145
-264.253	-103.233	-0.226	0.052
-263.238	190.112	0.091	-0.134
-262.224	601.702	0.131	0.320
-261.209	-200.000	-0.033	0.325
-260.195	-5.446	-0.297	-0.200
-259.180	139.432	-0.135	-0.174
-258.165	91.730	-0.077	-0.085
-257.151	-163.482	0.516	-0.024
-256.136	-200.000	0.015	0.222
-255.122	124.721	0.147	-0.182
-254.107	46.583	-0.046	-0.041
-253.092	800.000	0.014	0.060
-252.078	20.862	0.300	0.239
-251.063	-200.000	-0.026	0.335
-250.049	516.008	0.064	-0.146
-249.034	-200.000	0.047	-0.305
-248.019	22.762	0.124	0.099
-247.005	800.000	0.053	-0.188
-245.990	-49.902	-0.115	0.053
-244.976	-127.073	0.415	-0.060
-243.961	-159.356	-0.223	0.012
-242.946	-68.758	-0.231	-0.088
-241.932	-200.000	-0.014	0.095
-240.917	223.612	0.191	0.302
-239.903	-200.000	0.008	0.328
-238.888	-49.037	-0.228	0.107
-237.873	70.772	0.111	0.112
-236.859	227.148	-0.093	-0.149
-235.844	-65.108	-0.057	0.023
-234.830	-133.936	0.052	0.006
-233.815	-68.437	-0.156	0.059
-232.800	800.000	0.080	0.281
-231.786	-118.652	0.288	-0.050
-230.771	196.506	0.075	0.113
-229.757	50.277	-0.234	0.216
-228.742	76.728	0.130	0.135
-227.727	99.433	0.186	0.211
-226.713	800.000	0.101	0.292
-225.698	-200.000	0.078	0.361
-224.684	-126.230	0.189	0.028
-223.669	34.185	-0.095	0.081
-222.655	208.362	0.022	-0.033
-221.640	-103.516	-0.289	-0.067
-220.625	-137.458	-0.182	-0.020
-219.611	47.496	0.128	0.117
-218.596	529.087	-0.083	-0.191
-217.582	474.632	0.137	0.304
-216.567	-37.143	0.218	-0.114
-215.552	-200.000	0.003	0.232
-214.538	-47.742	-0.164	0.078
-213.523	-119.214	-0.069	-0.012
-212.509	-200.000	-0.058	0.290
-211.494	-99.715	0.042	-0.010
-210.479	800.000	-0.078	-0.335
-209.465	-200.000	0.035	0.159
-208.450	102.076	-0.069	-0.079
-207.436	-97.052	-0.177	0.045
-206.421	-200.000	-0.003	0.230
-205.406	213.928	-0.134	0.208
-204.392	35.033	0.097	0.083
-203.377	595.427	-0.110	-0.266
-202.363	707.452	-0.058	-0.150
-201.348	-79.142	0.240	-0.080
-200.333	-121.328	-0.101	-0.016
-199.319	145.679	0.201	0.263
-198.304	71.236	0.074	0.075
-197.290	13.887	0.269	0.205
-196.275	-86.654	0.077	0.023
-195.260	-17.864	0.234	0.144
-194.246	800.000	0.070	-0.218
-193.231	155.707	0.058	-0.078
-192.217	-46.664	0.081	0.039
-191.202	-200.000	-0.022	-0.157
-190.187	96.471	0.080	-0.090
-189.173	35.695	0.159	0.136
-188.158	-10.934	-0.252	0.163
-187.144	68.456	0.152	-0.152
-186.129	-125.929	0.026	-0.004
-185.114	-200.000	-0.027	-0.700
-184.100	-200.000	0.001	0.242
-183.085	-200.000	0.013	0.173
-182.071	-80.231	-0.330	-0.108
-181.056	800.000	-0.065	0.232
-180.042	-129.810	0.079	0.011
-179.027	-131.564	0.111	-0.014
-178.012	-103.023	0.270	-0.062
-176.998	125.331	0.144	0.177
-175.983	-24.146	0.318	-0.186
-174.969	-200.000	-0.088	-0.500
-173.954	-114.213	0.319	-0.060
-172.939	800.000	0.108	-0.336
-171.925	-8.394	-0.237	-0.156
-170.910	5.440	0.273	0.197
-169.896	-29.086	0.167	-0.094
-168.881	-200.000	0.012	-0.254
-167.866	48.826	0.094	-0.086
-166.852	-96.377	-0.141	0.036
-165.837	-5.885	0.089	0.060
-164.823	-200.000	-0.006	0.172
-163.808	-19.354	0.318	0.192
-162.793	101.879	0.110	0.125
-161.779	142.182	-0.124	0.160
-160.764	-130.310	-0.160	-0.021
-159.750	800.000	0.079	0.326
-158.735	-200.000	0.448	-0.001
-157.720	-7.175	-0.126	0.083
-156.706	83.680	0.106	0.113
-155.691	371.241	0.066	-0.131
-154.677	172.863	-0.334	0.470
-153.662	424.292	-0.147	0.308
-152.647	-83.976	-0.112	-0.035
-151.633	332.253	0.077	0.145
-150.618	278.577	0.185	0.323
-149.604	88.700	-0.136	-0.148
-148.589	-19.066	0.213	-0.129
-147.574	-200.000	-0.014	-0.445
-146.560	-62.955	-0.279	0.112
-145.545	44.159	0.166	-0.148
-144.531	295.317	-0.073	0.131
-143.516	59.499	0.180	0.173
-142.502	-8.616	0.281	0.184
-141.487	29.185	-0.102	0.085
-140.472	202.253	0.100	-0.151
-139.458	181.713	0.152	0.218
-138.443	-200.000	0.021	-0.136
-137.429	-200.000	-0.016	0.314
-136.414	-148.895	-0.093	0.007
-135.399	-23.392	-0.309	-0.181
-134.385	-138.248	0.244	0.026
-133.370	-157.784	-0.302	0.018
-132.356	800.000	-0.129	-0.431
-131.341	563.450	-0.243	-0.573
-130.326	66.577	-0.221	-0.219
-129.312	-48.437	0.127	0.060
-128.297	800.000	0.076	0.237
-127.283	-140.689	0.148	0.015
-126.268	-32.674	0.316	-0.172
-125.253	-200.000	-0.002	-0.062
-124.239	18.624	0.218	0.170
-123.224	123.261	0.081	0.099
-122.210	62.537	0.137	-0.134
