DTS Sentinel unit serial number:	SN413079Multiplexer serial number:	ORYXHardware model number:	OX4-SRSoftware version number:	ORYX F/W v4.00 Oryx Data Collector v3.7.2.0data status	okinstallation	princeton_trtdifferential loss correction	single-endedforward channel	channel 3reverse channel	N/Adate	2019/09/13time	02:16:35forward acquisition time	60.00reverse acquisition time	0.00gamma	496.2192k internal	0.2334k external	0.2334temperature offset calibration	1.0133default loss term (dB/km)	0.3790temperature slope calibration	1.0000multiplexer offset coefficient	1.0000multiplexer slope coefficient	1.0000fibre end	0.00T internal ref (°C)	27.56T ext. ref 1 (°C)	3.92T ext. ref 2 (°C)	22.32length (m)	temperature (°C)	Stokes	anti-Stokes-747.200	-60.401	0.191	-0.082
-746.185	-200.000	0.015	0.294
-745.171	413.560	0.082	0.176
-744.156	163.265	0.132	0.186
-743.142	-110.655	-0.261	-0.054
-742.127	123.862	0.088	-0.111
-741.112	-200.000	-0.045	-0.445
-740.098	27.993	-0.045	-0.038
-739.083	-188.296	-0.288	-0.004
-738.069	229.290	-0.278	0.456
-737.054	556.497	0.053	-0.127
-736.039	-27.488	-0.284	0.166
-735.025	185.343	0.174	0.259
-734.010	800.000	-0.070	-0.220
-732.996	-200.000	0.038	-0.338
-731.981	-18.841	-0.094	0.058
-730.966	-149.274	-0.179	-0.014
-729.952	3.238	0.097	-0.071
-728.937	-200.000	0.014	0.139
-727.923	-200.000	0.024	-0.279
-726.908	-134.981	-0.178	-0.022
-725.894	-11.735	0.256	-0.169
-724.879	-200.000	0.030	-0.290
-723.864	-52.295	-0.127	-0.059
-722.850	8.423	-0.160	-0.121
-721.835	-79.080	-0.290	0.099
-720.821	-24.765	0.073	0.043
-719.806	161.421	0.030	-0.042
-718.791	512.523	0.064	-0.150
-717.777	-59.013	0.178	-0.077
-716.762	-47.395	0.307	0.150
-715.748	-111.790	-0.311	0.063
-714.733	224.342	0.081	0.131
-713.718	85.892	0.235	0.259
-712.704	800.000	0.127	-0.399
-711.689	800.000	-0.109	0.347
-710.675	-78.791	-0.071	0.024
-709.660	51.486	-0.361	-0.344
-708.645	-200.000	0.005	0.366
-707.631	-156.148	0.338	0.021
-706.616	145.274	0.159	-0.213
-705.602	-77.063	0.025	0.009
-704.587	15.437	0.211	-0.166
-703.572	-62.243	0.233	-0.097
-702.558	-200.000	-0.026	0.230
-701.543	-200.000	0.025	0.167
-700.529	-178.213	0.300	-0.007
-699.514	-200.000	-0.058	-0.270
-698.499	-91.516	0.243	0.070
-697.485	125.307	-0.114	0.144
-696.470	-30.479	-0.196	-0.111
-695.456	81.118	0.130	-0.141
-694.441	65.739	-0.196	-0.200
-693.426	-55.561	0.309	-0.139
-692.412	-124.607	-0.346	0.054
-691.397	800.000	-0.099	-0.305
-690.383	139.202	0.106	-0.140
-689.368	800.000	0.075	-0.309
-688.354	147.872	0.221	-0.299
-687.339	-119.535	-0.093	-0.016
-686.324	131.055	0.206	-0.265
-685.310	26.495	0.087	0.073
-684.295	-200.000	0.008	0.105
-683.281	301.425	0.075	-0.138
-682.266	476.870	-0.145	0.330
-681.251	-51.104	-0.263	0.124
-680.237	304.941	0.095	0.177
-679.222	800.000	0.087	0.331
-678.208	-154.686	0.137	0.009
-677.193	333.577	0.083	-0.160
-676.178	569.935	-0.048	0.116
-675.164	800.000	-0.133	0.428
-674.149	-73.083	-0.212	-0.078
-673.135	-50.658	-0.143	-0.067
-672.120	-132.848	-0.418	-0.053
-671.105	800.000	-0.058	0.227
-670.091	83.407	-0.366	0.400
-669.076	-200.000	0.001	-0.072
-668.062	150.384	0.198	-0.269
-667.047	490.952	-0.153	0.351
-666.032	190.320	-0.094	-0.141
-665.018	-93.728	-0.223	0.062
-664.003	-200.000	-0.031	0.227
-662.989	800.000	0.040	-0.169
-661.974	102.904	-0.102	0.120
-660.959	800.000	0.143	0.403
-659.945	419.981	-0.080	-0.172
-658.930	800.000	0.087	-0.300
-657.916	49.172	0.173	0.163
-656.901	-200.000	0.004	-0.080
-655.886	157.931	-0.114	-0.158
-654.872	-200.000	-0.030	-0.146
-653.857	264.657	-0.082	0.142
-652.843	-61.895	-0.077	-0.032
-651.828	-54.889	0.101	-0.046
-650.814	-200.000	-0.035	-0.175
-649.799	653.442	-0.069	-0.176
-648.784	-200.000	0.003	-0.029
-647.770	-139.185	-0.246	-0.027
-646.755	-78.403	-0.185	0.064
-645.741	800.000	-0.063	0.201
-644.726	-200.000	0.010	0.047
-643.711	-155.955	-0.316	0.020
-642.697	21.339	-0.052	0.042
-641.682	-200.000	-0.057	-0.297
-640.668	295.141	-0.078	-0.143
-639.653	274.931	0.048	-0.085
-638.638	-73.764	-0.156	0.057
-637.624	138.104	0.341	0.448
-636.609	51.532	0.040	-0.038
-635.595	245.431	-0.121	0.203
-634.580	43.017	0.153	-0.140
-633.565	-49.552	0.056	-0.027
-632.551	800.000	-0.042	0.122
-631.536	-200.000	0.012	-0.134
-630.522	-200.000	-0.025	-0.270
-629.507	-200.000	0.030	0.194
-628.492	182.146	-0.164	-0.241
-627.478	-133.217	-0.167	0.021
-626.463	362.120	0.080	-0.160
-625.449	9.483	-0.244	0.185
-624.434	-109.236	-0.110	-0.023
-623.419	-87.857	-0.060	-0.018
-622.405	-85.980	-0.303	-0.094
-621.390	-148.061	0.433	-0.036
-620.376	50.032	0.352	0.332
-619.361	175.977	-0.035	0.050
-618.346	221.167	0.161	-0.258
-617.332	-200.000	0.090	0.454
-616.317	800.000	0.017	0.060
-615.303	175.868	-0.145	0.210
-614.288	9.074	-0.367	0.277
-613.273	8.053	-0.179	0.135
-612.259	-173.000	-0.366	-0.011
-611.244	-200.000	-0.042	-0.459
-610.230	-200.000	0.056	-0.395
-609.215	503.657	0.060	0.139
-608.201	-193.070	-0.284	-0.003
-607.186	488.043	-0.101	0.231
-606.171	-200.000	-0.031	0.267
-605.157	486.606	0.117	0.267
-604.142	-200.000	0.012	0.183
-603.128	-26.315	0.167	-0.098
-602.113	-200.000	0.008	0.136
-601.098	-200.000	-0.019	-0.388
-600.084	200.587	0.094	-0.144
-599.069	5.621	-0.384	-0.284
-598.055	800.000	0.170	-0.475
-597.040	792.848	-0.120	-0.331
-596.025	-200.000	0.032	0.257
-595.011	-108.648	-0.102	-0.022
-593.996	800.000	-0.075	-0.230
-592.982	-200.000	0.012	-0.107
-591.967	176.640	-0.152	-0.220
-590.952	131.947	0.054	-0.069
-589.938	-74.620	-0.397	-0.143
-588.923	-85.457	0.178	-0.055
-587.909	766.994	0.019	-0.052
-586.894	800.000	-0.017	-0.050
-585.879	-200.000	0.017	-0.136
-584.865	437.808	-0.064	0.139
-583.850	-147.435	0.266	-0.022
-582.836	-59.640	0.208	-0.089
-581.821	-147.411	0.162	-0.014
-580.806	-200.000	-0.028	-0.196
-579.792	157.815	-0.267	-0.369
-578.777	168.667	0.159	0.226
-577.763	359.422	-0.197	-0.393
-576.748	168.243	0.070	0.099
-575.733	-200.000	-0.021	-0.144
-574.719	-71.808	-0.087	-0.032
-573.704	70.991	-0.087	0.090
-572.690	800.000	0.107	0.344
-571.675	-200.000	-0.032	-0.159
-570.661	513.521	0.072	-0.167
-569.646	800.000	-0.124	0.440
-568.631	-200.000	0.023	-0.109
-567.617	-73.753	0.209	0.076
-566.602	-127.319	0.130	0.019
-565.588	-25.631	0.310	-0.182
-564.573	-67.321	-0.302	0.119
-563.558	-200.000	0.008	0.250
-562.544	142.655	0.177	0.235
-561.529	800.000	-0.036	-0.112
-560.515	149.974	-0.199	0.269
-559.500	-136.514	-0.137	0.016
-558.485	154.102	-0.073	-0.100
-557.471	93.394	-0.196	0.221
-556.456	675.386	0.057	0.149
-555.442	43.299	0.184	-0.168
-554.427	-200.000	0.009	0.043
-553.412	21.098	0.269	0.218
-552.398	313.379	0.126	0.236
-551.383	97.548	-0.073	0.084
-550.369	-54.860	0.199	-0.089
-549.354	381.363	-0.058	-0.118
-548.339	-186.705	-0.162	0.002
-547.325	30.580	0.173	-0.147
-546.310	91.125	-0.180	-0.202
-545.296	-200.000	0.009	0.074
-544.281	166.107	-0.040	-0.056
-543.266	70.978	0.247	-0.255
-542.252	-63.012	-0.264	-0.109
-541.237	54.782	0.282	0.272
-540.223	133.235	-0.062	0.080
-539.208	-200.000	-0.004	-0.189
-538.193	26.139	0.077	0.064
-537.179	251.390	0.229	-0.388
-536.164	19.149	0.135	0.108
-535.150	-115.832	-0.132	-0.025
-534.135	137.722	0.195	-0.255
-533.121	12.885	-0.141	-0.109
-532.106	-136.554	0.246	0.028
-531.091	800.000	0.047	-0.176
-530.077	800.000	-0.068	-0.255
-529.062	-26.568	-0.462	-0.270
-528.048	28.877	0.323	0.273
-527.033	-200.000	-0.012	0.248
-526.018	100.183	0.156	-0.181
-525.004	-150.596	0.189	-0.014
-523.989	530.678	-0.045	0.106
-522.975	5.409	0.135	0.099
-521.960	13.342	0.176	-0.136
-520.945	618.878	-0.129	0.322
-519.931	-13.196	0.063	-0.041
-518.916	1.698	-0.144	-0.104
-517.902	-200.000	0.037	-0.198
-516.887	-200.000	-0.079	-0.461
-515.872	34.420	0.147	-0.128
-514.858	122.113	-0.234	0.291
-513.843	127.296	0.112	0.141
-512.829	334.837	0.081	0.156
-511.814	-37.857	0.302	-0.160
-510.799	-9.978	-0.321	-0.213
-509.785	-200.000	0.012	-0.081
-508.770	800.000	-0.012	0.049
-507.756	-200.000	-0.001	-0.128
-506.741	128.740	0.092	-0.117
-505.726	-11.285	0.282	0.185
-504.712	490.854	0.118	0.268
-503.697	777.354	-0.093	0.254
-502.683	-3.019	-0.168	-0.117
-501.668	90.327	0.357	0.398
-500.653	-39.352	-0.170	0.089
-499.639	-200.000	0.000	-0.075
-498.624	-200.000	-0.033	0.152
-497.610	-121.927	-0.471	-0.077
-496.595	-102.278	-0.093	-0.022
-495.581	-130.338	0.063	-0.009
-494.566	800.000	0.053	-0.224
-493.551	172.896	-0.198	0.284
-492.537	563.733	-0.028	0.068
-491.522	248.249	0.194	-0.327
-490.508	-129.501	0.199	-0.027
-489.493	800.000	0.099	0.305
-488.478	-200.000	-0.007	0.356
-487.464	-102.652	-0.073	0.017
-486.449	-56.001	0.143	0.063
-485.435	-56.456	-0.101	0.044
-484.420	800.000	0.067	-0.267
-483.405	800.000	-0.016	0.065
-482.391	104.586	0.232	0.272
-481.376	-82.780	0.227	-0.073
-480.362	-99.904	-0.164	-0.041
-479.347	-83.202	0.348	-0.111
-478.332	-38.225	-0.262	0.138
-477.318	16.890	-0.198	0.156
-476.303	-200.000	0.057	0.314
-475.289	-200.000	0.020	0.132
-474.274	112.925	0.186	0.224
-473.259	-200.000	0.075	-0.336
-472.245	-200.000	0.015	-0.172
-471.230	531.117	-0.169	0.398
-470.216	-150.058	0.885	0.068
-469.201	800.000	0.053	0.164
-468.186	71.720	-0.179	0.185
-467.172	19.221	0.291	0.233
-466.157	115.594	-0.125	0.152
-465.143	128.420	-0.267	-0.338
-464.128	-122.342	-0.190	-0.031
-463.113	800.000	0.072	0.301
-462.099	-200.000	0.003	-0.038
-461.084	-92.149	-0.308	0.086
-460.070	-40.677	-0.299	0.154
-459.055	60.544	0.087	-0.086
-458.040	800.000	-0.013	0.045
-457.026	-116.092	-0.422	-0.078
-456.011	-105.762	0.276	0.062
-454.997	800.000	-0.079	0.332
-453.982	-119.227	0.121	0.021
-452.968	-72.204	0.271	-0.100
-451.953	-51.781	0.214	0.099
-450.938	-200.000	0.004	-0.064
-449.924	-129.291	0.206	-0.029
-448.909	-200.000	0.013	0.087
-447.895	-37.597	0.330	-0.175
-446.880	-200.000	-0.040	-0.234
-445.865	59.629	-0.086	-0.084
-444.851	-15.102	0.138	-0.088
-443.836	298.822	-0.078	0.143
-442.822	-168.644	-0.041	0.002
-441.807	-149.945	-0.100	-0.008
-440.792	800.000	0.068	0.221
-439.778	-101.278	0.083	-0.020
-438.763	168.125	0.042	-0.060
-437.749	-200.000	-0.014	-0.306
-436.734	-199.147	-0.492	-0.003
-435.719	263.652	-0.109	0.189
-434.705	252.308	-0.199	0.336
-433.690	-144.132	-0.308	0.029
-432.676	517.264	0.179	0.416
-431.661	-200.000	-0.013	-0.251
-430.646	123.386	0.242	-0.301
-429.632	-5.737	-0.168	-0.114
-428.617	10.317	-0.159	0.120
-427.603	26.814	-0.254	0.211
-426.588	60.973	0.252	0.248
-425.573	671.085	-0.078	0.200
-424.559	-78.932	-0.250	0.085
-423.544	-154.333	0.238	0.016
-422.530	683.136	-0.163	-0.421
-421.515	-6.645	-0.098	-0.066
-420.500	-131.116	0.122	0.016
-419.486	78.658	0.043	0.046
-418.471	-10.230	0.115	-0.076
-417.457	800.000	-0.051	-0.172
-416.442	-200.000	-0.048	-0.233
-415.428	-181.439	0.169	-0.003
-414.413	235.033	0.090	-0.148
-413.398	26.735	0.194	-0.161
-412.384	-200.000	0.023	0.225
-411.369	-87.766	0.181	0.054
-410.355	-200.000	0.016	-0.089
-409.340	150.144	0.159	0.214
-408.325	800.000	-0.054	-0.179
-407.311	-106.949	-0.033	0.007
-406.296	-82.151	0.423	0.137
-405.282	368.356	-0.164	-0.329
-404.267	-4.106	-0.211	0.145
-403.252	-200.000	0.004	-0.129
-402.238	-8.912	0.018	0.012
-401.223	-83.484	-0.183	-0.058
-400.209	727.924	-0.060	0.160
-399.194	-200.000	0.021	0.364
-398.179	-60.235	0.403	-0.170
-397.165	134.673	0.112	0.144
-396.150	54.679	-0.340	-0.325
-395.136	-129.559	0.198	0.027
-394.121	800.000	-0.042	-0.147
-393.106	-140.503	-0.290	-0.030
-392.092	-123.555	-0.124	-0.020
-391.077	800.000	0.059	0.230
-390.063	441.411	-0.089	-0.192
-389.048	-200.000	-0.001	-0.203
-388.033	352.830	-0.153	-0.300
-387.019	124.559	0.151	-0.189
-386.004	-200.000	0.023	0.171
-384.990	-122.014	-0.080	0.013
-383.975	-66.890	-0.154	0.060
-382.960	-200.000	0.058	0.509
-381.946	275.788	-0.110	-0.194
-380.931	-200.000	-0.002	0.342
-379.917	109.544	0.061	0.073
-378.902	-200.000	-0.001	0.037
-377.888	43.944	0.219	-0.199
-376.873	-87.994	0.237	0.071
-375.858	800.000	-0.061	0.264
-374.844	-200.000	0.041	0.319
-373.829	-200.000	-0.055	0.309
-372.815	-14.554	-0.094	-0.060
-371.800	-123.623	-0.228	0.036
-370.785	114.677	0.131	0.158
-369.771	-90.635	0.418	0.120
-368.756	800.000	-0.076	0.236
-367.742	33.594	-0.150	0.129
-366.727	181.599	-0.279	-0.406
-365.712	-27.410	-0.080	0.046
-364.698	14.667	-0.073	-0.057
-363.683	9.227	-0.154	-0.115
-362.669	-61.212	-0.164	0.069
-361.654	800.000	0.062	-0.236
-360.639	800.000	-0.072	0.233
-359.625	158.988	-0.180	0.248
-358.610	-171.767	-0.096	0.003
-357.596	-122.770	-0.063	0.010
-356.581	24.791	-0.114	0.093
-355.566	-81.000	0.089	-0.029
-354.552	85.794	0.100	0.109
-353.537	800.000	0.052	0.202
-352.523	-130.336	0.292	-0.039
-351.508	-200.000	0.007	0.085
-350.493	-200.000	-0.052	-0.235
-349.479	-23.486	-0.472	-0.280
-348.464	-100.766	-0.321	0.078
-347.450	-79.190	-0.165	0.055
-346.435	-117.316	0.049	0.009
-345.420	-200.000	0.014	-0.266
-344.406	-63.708	-0.058	0.024
-343.391	38.001	-0.191	0.168
-342.377	800.000	0.032	-0.134
-341.362	111.682	0.028	0.033
-340.348	800.000	-0.033	0.126
-339.333	9.863	0.338	-0.254
-338.318	181.178	0.103	0.149
-337.304	93.462	0.105	-0.118
-336.289	55.232	-0.152	-0.145
-335.275	-200.000	-0.008	-0.153
-334.260	-144.127	-0.436	-0.040
-333.245	800.000	-0.059	-0.208
-332.231	180.056	0.032	0.046
-331.216	-200.000	0.029	0.200
-330.202	46.909	0.243	0.223
-329.187	-100.829	-0.142	0.035
-328.172	-34.466	0.147	0.080
-327.158	-83.511	0.047	0.015
-326.143	800.000	-0.087	-0.371
-325.129	-200.000	-0.043	-0.219
-324.114	403.559	0.126	0.263
-323.099	7.161	-0.125	0.093
-322.085	-45.009	0.317	-0.156
-321.070	-68.324	-0.177	-0.068
-320.056	434.677	0.092	0.197
-319.041	46.816	0.107	0.098
-318.026	-51.483	0.180	-0.083
-317.012	151.318	-0.102	0.137
-315.997	166.379	0.172	-0.241
-314.983	-200.000	0.060	-0.285
-313.968	69.881	0.124	-0.126
-312.953	112.738	0.098	0.117
-311.939	-59.015	0.183	-0.078
-310.924	-30.828	0.236	-0.132
-309.910	231.148	0.104	-0.168
-308.895	-147.079	-0.466	0.039
-307.880	90.165	-0.047	-0.052
-306.866	-6.047	0.286	-0.193
-305.851	-200.000	-0.027	0.172
-304.837	27.831	0.191	0.159
-303.822	-87.904	-0.137	0.041
-302.807	-133.502	-0.328	0.041
-301.793	-187.139	-0.232	-0.003
-300.778	-89.857	-0.094	-0.027
-299.764	-200.000	-0.058	-0.293
-298.749	-91.641	0.205	-0.058
-297.735	7.776	-0.040	-0.030
-296.720	-119.872	-0.122	0.021
-295.705	-172.595	0.491	0.015
-294.691	-73.800	0.239	0.086
-293.676	29.940	0.104	-0.088
-292.662	24.190	0.149	0.122
-291.647	198.668	-0.017	-0.026
-290.632	800.000	0.067	-0.230
-289.618	63.362	-0.073	0.073
-288.603	45.164	-0.247	0.225
-287.589	-78.565	0.308	-0.104
-286.574	-74.022	-0.193	-0.069
-285.559	-15.479	-0.084	-0.053
-284.545	-129.001	0.200	0.028
-283.530	85.555	0.290	0.314
-282.516	309.506	0.018	-0.034
-281.501	-200.000	0.012	-0.198
-280.486	412.570	0.039	-0.083
-279.472	89.973	0.175	0.193
-278.457	-200.000	-0.027	-0.178
-277.443	-119.106	0.115	0.020
-276.428	-112.448	-0.311	-0.061
-275.413	-200.000	0.047	-0.291
-274.399	79.993	0.141	-0.150
-273.384	-37.244	0.032	-0.017
-272.370	366.451	-0.096	-0.190
-271.355	-150.983	0.064	-0.005
-270.340	32.458	0.269	0.229
-269.326	-104.018	-0.306	-0.070
-268.311	-51.919	0.222	0.102
-267.297	-200.000	-0.063	-0.294
-266.282	4.218	-0.178	0.128
-265.267	-200.000	-0.017	0.140
-264.253	16.618	0.354	0.276
-263.238	62.490	-0.189	-0.186
-262.224	-43.272	0.424	-0.212
-261.209	127.751	-0.221	-0.277
-260.195	-200.000	0.032	0.244
-259.180	-200.000	0.033	-0.200
-258.165	-170.101	0.215	-0.008
-257.151	154.090	0.141	0.190
-256.136	-59.286	-0.265	-0.112
-255.122	17.214	0.220	0.172
-254.107	800.000	-0.029	0.090
-253.092	2.840	0.135	0.097
-252.078	-105.818	0.265	-0.059
-251.063	-38.892	-0.192	0.100
-250.049	21.211	-0.260	-0.208
-249.034	-200.000	0.008	-0.384
-248.019	208.751	0.109	0.168
-247.005	-200.000	-0.033	0.237
-245.990	800.000	0.156	-0.452
-244.976	-125.160	-0.209	-0.032
-243.961	-63.205	0.202	-0.082
-242.946	-132.848	-0.122	0.015
-241.932	-51.774	-0.159	-0.073
-240.917	-200.000	-0.031	0.364
-239.903	-132.284	0.362	0.046
-238.888	41.013	-0.219	0.195
-237.873	95.570	0.074	0.083
-236.859	389.333	-0.110	-0.224
-235.844	-136.057	-0.145	-0.017
-234.830	-72.918	0.077	0.028
-233.815	-73.597	-0.427	0.153
-232.800	-200.000	0.021	0.196
-231.786	-53.237	-0.122	-0.055
-230.771	458.159	-0.169	0.369
-229.757	-36.682	-0.178	-0.094
-228.742	-33.981	-0.047	-0.025
-227.727	350.471	0.040	-0.078
-226.713	398.355	-0.054	0.112
-225.698	-108.034	-0.269	-0.058
-224.684	120.724	-0.031	-0.038
-223.669	-60.052	0.115	0.048
-222.655	-200.000	0.011	-0.095
-221.640	-32.088	-0.076	-0.042
-220.625	124.538	0.081	-0.100
-219.611	-82.551	0.370	-0.118
-218.596	-7.772	-0.171	0.114
-217.582	-134.242	-0.254	0.031
-216.567	-200.000	0.009	-0.135
-215.552	170.028	0.080	-0.113
-214.538	171.948	0.027	0.039
-213.523	-79.261	0.334	-0.111
-212.509	458.246	-0.050	0.109
-211.494	800.000	0.030	-0.101
-210.479	517.619	0.093	-0.213
-209.465	-67.669	0.171	0.066
-208.450	-149.812	-0.190	0.015
-207.436	217.998	-0.180	0.282
-206.421	800.000	0.041	0.144
-205.406	132.582	-0.080	-0.102
-204.392	800.000	-0.013	-0.046
-203.377	-28.956	0.041	0.023
-202.363	3.127	-0.195	0.140
-201.348	-79.202	0.374	-0.125
-200.333	-62.764	0.091	0.037
-199.319	-104.484	0.182	0.041
-198.304	-32.078	0.205	-0.113
-197.290	-21.935	-0.170	-0.102
-196.275	-102.174	0.331	0.078
-195.260	132.562	-0.228	-0.289
-194.246	5.678	-0.299	-0.217
-193.231	55.459	-0.107	0.102
-192.217	232.003	-0.227	0.366
-191.202	668.037	-0.067	-0.169
-190.187	112.610	0.142	-0.169
-189.173	-113.558	0.314	0.060
-188.158	93.087	0.141	-0.157
-187.144	-20.533	-0.105	-0.063
-186.129	-145.918	0.124	0.011
-185.114	-75.580	-0.162	0.056
-184.100	39.335	-0.059	-0.052
-183.085	134.002	-0.054	0.069
-182.071	-31.956	0.226	0.124
-181.056	-1.097	0.131	-0.091
-180.042	-66.355	-0.255	0.100
-179.027	800.000	-0.047	0.135
-178.012	151.353	-0.159	0.212
-176.998	-200.000	0.009	0.084
-175.983	-200.000	-0.013	-0.187
-174.969	338.313	-0.093	-0.178
-173.954	-60.814	0.181	-0.075
-172.939	-157.123	-0.050	0.003
-171.925	283.941	-0.032	0.057
-170.910	482.748	-0.163	0.364
-169.896	-200.000	-0.002	0.016
-168.881	-200.000	-0.008	-0.381
-167.866	13.274	-0.174	0.132
-166.852	257.062	0.094	-0.158
-165.837	150.170	0.089	-0.118
-164.823	-28.730	-0.154	0.087
-163.808	166.636	0.135	0.188
-162.793	-20.670	-0.118	-0.071
-161.779	94.077	-0.074	0.083
-160.764	-200.000	0.016	0.478
-159.750	118.789	-0.092	0.111
-158.735	89.416	-0.222	0.243
-157.720	-200.000	0.009	-0.093
-156.706	-18.977	0.093	0.057
-155.691	24.189	0.216	-0.175
-154.677	238.106	0.090	-0.147
-153.662	-105.209	0.222	0.050
-152.647	26.205	-0.302	-0.248
-151.633	48.928	0.125	-0.116
-150.618	81.390	0.081	0.086
-149.604	-169.108	-0.065	0.002
-148.589	106.570	0.128	0.149
-147.574	-120.867	-0.275	-0.045
-146.560	-17.020	-0.202	0.125
-145.545	220.396	-0.080	0.125
-144.531	-132.915	0.246	0.031
-143.516	-7.349	-0.245	-0.163
-142.502	34.396	0.042	-0.036
-141.487	8.751	0.079	0.058
-140.472	-200.000	-0.003	0.145
-139.458	214.374	0.088	0.137
-138.443	-165.551	0.189	0.008
-137.429	488.785	-0.065	0.145
-136.414	31.858	-0.134	0.113
-135.399	-1.639	-0.127	-0.088
-134.385	263.835	-0.170	0.290
-133.370	-144.571	-0.298	0.027
-132.356	-200.000	-0.099	0.601
-131.341	102.287	-0.181	0.207
-130.326	-157.393	0.072	-0.004
-129.312	69.050	0.089	-0.089
-128.297	-120.521	-0.141	0.024
-127.283	-29.785	-0.101	0.057
-126.268	99.791	0.157	-0.178
-125.253	-16.626	-0.250	-0.155
-124.239	800.000	-0.051	0.195
-123.224	-200.000	-0.041	0.202
-122.210	-200.000	0.029	-0.276
-121.195	-200.000	-0.043	-0.213
