DTS Sentinel unit serial number:	SN413079Multiplexer serial number:	ORYXHardware model number:	OX4-SRSoftware version number:	ORYX F/W v4.00 Oryx Data Collector v3.7.2.0data status	okinstallation	princeton_trtdifferential loss correction	single-endedforward channel	channel 3reverse channel	N/Adate	2019/09/17time	19:40:34forward acquisition time	60.00reverse acquisition time	0.00gamma	496.2192k internal	0.2314k external	0.2314temperature offset calibration	0.9953default loss term (dB/km)	0.3790temperature slope calibration	1.0000multiplexer offset coefficient	1.0000multiplexer slope coefficient	1.0000fibre end	0.00T internal ref (°C)	35.42T ext. ref 1 (°C)	0.24T ext. ref 2 (°C)	24.51length (m)	temperature (°C)	Stokes	anti-Stokes-747.200	800.000	0.013	0.053
-746.185	-200.000	0.002	0.327
-745.171	-34.499	0.166	-0.092
-744.156	-196.948	-0.266	0.002
-743.142	-62.410	0.149	-0.063
-742.127	203.146	-0.348	0.545
-741.112	16.330	-0.150	0.120
-740.098	29.423	-0.029	0.025
-739.083	-200.000	0.060	0.495
-738.069	237.896	0.089	0.150
-737.054	-200.000	-0.037	0.448
-736.039	-34.208	-0.369	0.205
-735.025	-85.956	0.345	0.108
-734.010	79.837	-0.123	-0.134
-732.996	-57.423	-0.264	0.117
-731.981	-175.939	0.307	0.008
-730.966	-58.857	-0.296	-0.130
-729.952	128.230	0.141	-0.182
-728.937	-124.022	0.161	-0.026
-727.923	800.000	-0.050	-0.186
-726.908	-56.223	-0.324	0.146
-725.894	-128.710	-0.117	-0.017
-724.879	-200.000	-0.041	-0.238
-723.864	-61.882	-0.117	-0.050
-722.850	-67.267	-0.190	0.076
-721.835	-113.255	0.340	-0.068
-720.821	670.263	0.044	-0.115
-719.806	132.562	-0.088	0.115
-718.791	-200.000	0.030	0.199
-717.777	138.685	-0.210	-0.279
-716.762	-200.000	-0.001	-0.240
-715.748	-165.883	0.444	-0.019
-714.733	-200.000	0.021	-0.096
-713.718	-114.398	0.129	-0.025
-712.704	-88.102	0.177	0.054
-711.689	704.888	-0.040	0.108
-710.675	11.496	0.329	0.255
-709.660	34.852	-0.044	0.039
-708.645	-48.490	-0.320	-0.156
-707.631	-200.000	-0.015	-0.076
-706.616	-120.791	0.245	-0.042
-705.602	800.000	0.077	-0.333
-704.587	-35.603	0.053	0.029
-703.572	126.078	0.289	-0.370
-702.558	57.670	0.202	0.200
-701.543	-119.890	-0.212	-0.037
-700.529	-163.256	-0.244	0.012
-699.514	-133.218	0.089	-0.011
-698.499	9.777	0.125	-0.096
-697.485	65.079	-0.210	-0.215
-696.470	-200.000	0.015	-0.247
-695.456	14.198	-0.127	0.100
-694.441	112.085	0.128	0.156
-693.426	800.000	0.075	0.239
-692.412	213.259	-0.166	0.265
-691.397	800.000	0.102	-0.303
-690.383	-62.905	-0.519	-0.217
-689.368	607.937	-0.071	-0.180
-688.354	-122.346	-0.334	-0.055
-687.339	-35.600	0.279	0.153
-686.324	-51.204	-0.151	-0.072
-685.310	-101.578	-0.297	0.073
-684.295	52.454	-0.185	0.179
-683.281	-160.184	-0.332	0.018
-682.266	-62.403	-0.091	0.038
-681.251	-200.000	-0.040	0.189
-680.237	272.179	-0.126	-0.226
-679.222	298.940	0.119	0.221
-678.208	-70.620	-0.344	0.131
-677.193	-53.691	0.105	-0.049
-676.178	279.552	-0.152	0.274
-675.164	-11.796	-0.299	-0.199
-674.149	-30.700	0.215	-0.123
-673.135	-2.141	-0.065	0.046
-672.120	-200.000	-0.003	0.163
-671.105	233.969	-0.154	0.257
-670.091	9.765	-0.249	-0.191
-669.076	159.508	-0.227	0.319
-668.062	-97.919	0.279	0.073
-667.047	-200.000	0.001	0.006
-666.032	202.189	-0.129	-0.201
-665.018	-200.000	0.011	-0.238
-664.003	114.647	-0.059	0.072
-662.989	92.891	0.099	0.113
-661.974	-169.675	-0.355	0.013
-660.959	86.861	-0.161	-0.180
-659.945	800.000	0.054	-0.230
-658.930	-80.949	0.262	0.088
-657.916	-80.364	-0.144	0.049
-656.901	-112.908	0.123	-0.025
-655.886	-128.401	-0.171	-0.025
-654.872	33.999	0.095	-0.084
-653.857	556.111	0.052	-0.128
-652.843	42.849	-0.312	-0.287
-651.828	-111.685	0.121	-0.025
-650.814	80.389	0.130	0.141
-649.799	-23.334	-0.110	-0.067
-648.784	-159.761	-0.375	0.021
-647.770	2.664	0.102	0.075
-646.755	-200.000	0.057	-0.275
-645.741	110.477	-0.168	0.204
-644.726	209.340	0.160	-0.253
-643.711	-47.738	0.231	0.113
-642.697	-139.725	0.031	-0.003
-641.682	126.021	0.078	-0.100
-640.668	800.000	0.101	0.314
-639.653	-141.740	0.273	0.028
-638.638	800.000	0.105	-0.378
-637.624	-43.399	0.344	0.176
-636.609	64.411	0.137	-0.139
-635.595	-19.670	-0.087	-0.054
-634.580	800.000	0.033	0.124
-633.565	-200.000	-0.055	0.251
-632.551	-200.000	-0.020	-0.207
-631.536	108.423	0.150	0.180
-630.522	58.084	-0.138	0.137
-629.507	275.735	0.139	-0.249
-628.492	68.912	-0.320	-0.331
-627.478	94.098	-0.095	0.109
-626.463	-31.257	0.172	-0.098
-625.449	-200.000	-0.006	-0.407
-624.434	16.350	0.071	0.057
-623.419	53.986	0.302	0.293
-622.405	800.000	0.047	-0.187
-621.390	32.891	-0.094	0.082
-620.376	128.446	-0.144	-0.185
-619.361	-200.000	-0.046	-0.249
-618.346	112.941	0.140	-0.171
-617.332	289.473	0.113	0.206
-616.317	501.154	0.039	0.090
-615.303	-54.599	-0.334	-0.152
-614.288	23.284	0.316	0.261
-613.273	-178.320	-0.243	0.006
-612.259	475.088	0.118	0.270
-611.244	-200.000	-0.280	0.001
-610.230	800.000	-0.065	0.227
-609.215	104.482	-0.343	0.408
-608.201	15.431	0.305	-0.241
-607.186	385.626	0.091	-0.190
-606.171	-200.000	-0.018	0.236
-605.157	800.000	0.040	-0.123
-604.142	81.084	-0.108	0.117
-603.128	800.000	0.035	0.104
-602.113	-200.000	0.025	-0.191
-601.098	452.361	-0.185	-0.412
-600.084	-105.986	-0.225	0.051
-599.069	-80.480	-0.260	-0.088
-598.055	-200.000	0.009	0.042
-597.040	-200.000	0.011	0.288
-596.025	168.148	-0.274	-0.393
-595.011	-177.683	0.199	0.005
-593.996	-0.782	-0.301	-0.215
-592.982	17.466	-0.265	-0.212
-591.967	-49.746	-0.413	-0.198
-590.952	5.230	0.232	-0.172
-589.938	-23.828	0.264	0.159
-588.923	-40.734	-0.309	-0.161
-587.909	61.436	0.216	-0.216
-586.894	-0.851	0.058	-0.041
-585.879	175.875	0.149	0.218
-584.865	31.343	0.114	-0.099
-583.850	-139.551	0.182	0.020
-582.836	-133.977	-0.392	-0.049
-581.821	-16.221	-0.275	-0.176
-580.806	800.000	0.048	-0.203
-579.792	447.008	0.008	-0.019
-578.777	153.707	0.165	0.228
-577.763	-179.385	-0.246	0.005
-576.748	-63.452	-0.219	-0.091
-575.733	-4.856	-0.046	0.032
-574.719	800.000	-0.055	0.183
-573.704	-10.593	0.271	0.180
-572.690	-125.729	0.181	-0.028
-571.675	-105.846	-0.024	-0.006
-570.661	0.849	0.366	-0.264
-569.646	53.837	0.111	0.108
-568.631	6.104	0.168	0.125
-567.617	-130.280	0.089	-0.012
-566.602	519.374	-0.135	0.318
-565.588	-24.262	-0.030	0.018
-564.573	-49.364	0.220	-0.105
-563.558	800.000	0.048	-0.170
-562.544	43.685	0.096	0.089
-561.529	334.947	-0.093	0.181
-560.515	-162.431	0.148	0.007
-559.500	134.460	0.129	0.169
-558.485	-96.895	-0.104	-0.027
-557.471	-135.923	0.531	-0.063
-556.456	800.000	0.062	0.265
-555.442	290.871	0.103	0.188
-554.427	-45.096	0.403	0.202
-553.412	-43.934	-0.052	0.026
-552.398	-115.176	0.087	0.017
-551.383	-200.000	0.007	-0.223
-550.369	-9.587	0.094	-0.063
-549.354	131.110	-0.244	-0.315
-548.339	-3.292	0.117	0.082
-547.325	99.771	0.210	0.244
-546.310	-85.300	-0.097	-0.031
-545.296	-124.787	-0.283	-0.044
-544.281	327.432	0.135	-0.261
-543.266	-19.123	0.145	-0.090
-542.252	-134.746	0.479	-0.058
-541.237	422.312	-0.154	-0.333
-540.223	256.030	0.181	-0.312
-539.208	-200.000	-0.020	-0.285
-538.193	-120.765	-0.321	0.055
-537.179	800.000	-0.031	0.108
-536.164	-200.000	-0.077	-0.358
-535.150	-93.259	-0.295	-0.082
-534.135	-133.683	0.258	-0.032
-533.121	-44.872	-0.396	-0.198
-532.106	-107.596	0.108	-0.024
-531.091	-60.040	-0.115	-0.050
-530.077	800.000	-0.109	-0.327
-529.062	48.991	-0.295	0.278
-528.048	145.036	-0.200	-0.269
-527.033	-200.000	-0.035	0.223
-526.018	-200.000	-0.006	-0.188
-525.004	285.234	0.115	0.207
-523.989	-51.052	-0.337	-0.159
-522.975	-98.488	-0.159	-0.041
-521.960	186.033	0.153	0.228
-520.945	-200.000	-0.036	0.207
-519.931	-24.684	-0.202	0.121
-518.916	-28.548	0.291	0.169
-517.902	379.207	-0.153	-0.315
-516.887	-44.905	-0.098	-0.049
-515.872	-53.904	0.214	0.098
-514.858	-39.166	-0.284	0.150
-513.843	-119.060	-0.143	-0.025
-512.829	-128.382	-0.431	-0.062
-511.814	800.000	-0.082	-0.249
-510.799	29.407	0.166	0.142
-509.785	137.374	-0.044	-0.057
-508.770	285.710	-0.162	-0.293
-507.756	-200.000	0.027	-0.264
-506.741	800.000	0.142	-0.425
-505.726	-16.650	0.178	0.113
-504.712	22.296	0.216	-0.177
-503.697	-200.000	-0.041	-0.196
-502.683	148.735	-0.092	0.125
-501.668	-200.000	-0.013	-0.181
-500.653	347.889	-0.083	-0.164
-499.639	220.911	0.089	0.144
-498.624	44.317	-0.226	-0.208
-497.610	-166.688	0.427	0.018
-496.595	-104.053	0.170	0.040
-495.581	119.879	0.087	-0.108
-494.566	-27.483	0.266	0.155
-493.551	-76.293	0.102	-0.036
-492.537	2.109	-0.086	-0.062
-491.522	-58.389	-0.293	0.128
-490.508	316.324	-0.047	0.089
-489.493	-20.584	-0.200	0.123
-488.478	800.000	-0.079	-0.280
-487.464	-81.271	0.437	-0.145
-486.449	731.667	0.040	0.108
-485.435	-171.078	0.023	-0.001
-484.420	360.218	0.189	0.379
-483.405	-45.690	-0.086	-0.042
-482.391	-62.129	-0.302	-0.126
-481.376	-87.525	-0.278	0.084
-480.362	-70.352	-0.231	0.088
-479.347	-62.416	0.243	-0.101
-478.332	800.000	0.017	0.066
-477.318	532.603	0.116	0.274
-476.303	324.868	-0.149	0.285
-475.289	-41.569	-0.112	-0.058
-474.274	-98.099	0.191	0.049
-473.259	-200.000	0.203	0.001
-472.245	67.671	-0.104	0.106
-471.230	-88.340	0.209	-0.063
-470.216	-33.551	-0.304	-0.168
-469.201	-200.000	-0.009	-0.203
-468.186	-200.000	0.057	0.254
-467.172	-24.923	-0.231	-0.138
-466.157	-18.806	0.260	-0.162
-465.143	-138.254	0.153	-0.017
-464.128	199.712	0.126	0.194
-463.113	-200.000	-0.044	0.261
-462.099	21.000	0.054	-0.044
-461.084	180.624	-0.056	0.083
-460.070	115.494	0.264	-0.324
-459.055	-100.783	0.386	-0.095
-458.040	-106.348	-0.069	-0.015
-457.026	-200.000	0.014	0.159
-456.011	-103.974	-0.131	0.031
-454.997	-133.571	-0.091	-0.011
-453.982	-36.862	0.194	-0.104
-452.968	411.699	0.062	0.133
-451.953	83.864	0.118	0.129
-450.938	800.000	-0.043	0.155
-449.924	271.360	0.083	0.147
-448.909	59.336	-0.233	0.230
-447.895	350.943	0.035	0.069
-446.880	47.778	-0.043	-0.040
-445.865	187.152	0.153	0.229
-444.851	-142.076	0.149	-0.015
-443.836	256.876	-0.024	0.040
-442.822	800.000	0.061	0.230
-441.807	-67.375	-0.071	-0.028
-440.792	101.581	0.072	-0.084
-439.778	657.754	-0.085	0.220
-438.763	426.408	0.050	0.108
-437.749	77.745	-0.145	0.154
-436.734	-129.504	-0.281	0.039
-435.719	-70.404	0.281	0.107
-434.705	-200.000	-0.002	-0.072
-433.690	29.374	-0.195	-0.166
-432.676	-200.000	-0.089	-0.438
-431.661	225.246	0.147	-0.238
-430.646	-200.000	-0.011	0.235
-429.632	162.667	-0.181	-0.254
-428.617	-105.515	0.300	-0.068
-427.603	12.455	-0.119	0.092
-426.588	-35.120	0.169	-0.092
-425.573	-200.000	0.022	-0.397
-424.559	-107.079	0.252	-0.056
-423.544	-46.900	-0.216	-0.106
-422.530	-68.703	0.039	0.015
-421.515	146.808	0.031	0.041
-420.500	-46.693	-0.339	0.166
-419.486	106.842	-0.254	0.302
-418.471	-200.000	0.024	0.272
-417.457	-5.590	0.225	-0.154
-416.442	-200.000	-0.005	-0.241
-415.428	-129.659	0.206	0.028
-414.413	-200.000	0.004	0.051
-413.398	-200.000	-0.023	0.272
-412.384	800.000	0.017	0.067
-411.369	17.599	0.276	-0.220
-410.355	-141.301	-0.354	0.036
-409.340	556.220	0.050	-0.121
-408.325	346.412	0.103	0.203
-407.311	-200.000	-0.051	-0.437
-406.296	168.553	0.132	0.188
-405.282	298.264	-0.085	-0.156
-404.267	-1.387	0.291	0.205
-403.252	50.761	-0.050	0.047
-402.238	51.870	-0.129	-0.123
-401.223	92.758	-0.181	-0.204
-400.209	-74.735	-0.558	-0.200
-399.194	800.000	0.059	0.173
-398.179	170.646	0.086	0.124
-397.165	102.736	-0.110	0.129
-396.150	-18.942	0.081	0.050
-395.136	-200.000	0.006	0.170
-394.121	387.332	-0.209	-0.432
-393.106	41.591	0.101	-0.091
-392.092	732.052	0.152	-0.407
-391.077	800.000	0.089	-0.269
-390.063	-61.620	-0.509	-0.213
-389.048	800.000	0.144	0.483
-388.033	-200.000	-0.069	0.339
-387.019	-200.000	-0.042	-0.331
-386.004	-21.890	-0.150	0.091
-384.990	-78.363	-0.104	0.036
-383.975	-104.405	-0.322	-0.074
-382.960	-200.000	0.018	0.188
-381.946	-106.939	-0.280	-0.062
-380.931	800.000	-0.105	-0.389
-379.917	-2.441	-0.216	-0.151
-378.902	17.248	0.053	0.042
-377.888	-85.525	-0.163	0.051
-376.873	-85.456	0.240	-0.075
-375.858	521.301	-0.032	-0.074
-374.844	39.941	-0.028	-0.025
-373.829	-31.288	0.133	0.075
-372.815	-32.785	0.188	-0.105
-371.800	-200.000	-0.034	-0.217
-370.785	-39.635	0.219	0.114
-369.771	800.000	-0.070	-0.203
-368.756	-90.709	-0.153	-0.044
-367.742	-34.764	-0.159	-0.087
-366.727	-34.748	0.229	-0.125
-365.712	-33.061	-0.113	0.063
-364.698	117.593	0.138	-0.169
-363.683	727.631	-0.034	-0.089
-362.669	-28.833	-0.064	-0.037
-361.654	-177.129	-0.070	0.002
-360.639	800.000	-0.006	0.017
-359.625	-64.755	-0.268	0.109
-358.610	24.922	0.098	0.081
-357.596	-179.704	0.283	-0.006
-356.581	180.175	-0.157	-0.230
-355.566	54.152	-0.264	0.254
-354.552	296.856	-0.128	0.234
-353.537	58.728	0.095	0.093
-352.523	127.515	0.067	-0.085
-351.508	56.516	-0.271	0.263
-350.493	436.253	-0.090	-0.196
-349.479	219.191	0.126	-0.201
-348.464	727.487	0.053	-0.142
-347.450	800.000	-0.080	-0.295
-346.435	228.407	0.084	0.136
-345.420	84.283	0.116	-0.127
-344.406	274.111	0.045	-0.079
-343.391	7.925	-0.312	0.234
-342.377	-100.413	-0.217	0.054
-341.362	166.751	-0.126	0.179
-340.348	395.549	0.111	0.230
-339.333	-106.641	-0.185	-0.041
-338.318	-52.246	0.268	0.124
-337.304	-200.000	-0.032	-0.140
-336.289	-65.906	0.019	0.008
-335.275	222.613	0.151	-0.242
-334.260	-200.000	-0.021	-0.204
-333.245	116.760	0.100	0.122
-332.231	-82.948	0.136	0.044
-331.216	42.053	0.049	0.044
-330.202	800.000	0.132	-0.513
-329.187	-200.000	-0.036	0.184
-328.172	163.868	0.066	0.093
-327.158	-63.668	-0.163	0.067
-326.143	34.167	-0.232	0.202
-325.129	53.393	-0.136	0.130
-324.114	-200.000	0.050	0.304
-323.099	-200.000	-0.007	-0.310
-322.085	-78.046	-0.127	-0.044
-321.070	-116.078	0.449	0.083
-320.056	-200.000	-0.504	-0.002
-319.041	-200.000	0.062	-0.418
-318.026	-85.022	0.156	-0.049
-317.012	-200.000	-0.024	0.293
-315.997	-192.928	-0.179	0.002
-314.983	-54.139	0.349	-0.158
-313.968	386.833	0.027	0.056
-312.953	28.237	-0.224	-0.188
-311.939	511.519	0.011	-0.026
-310.924	-200.000	0.067	0.336
-309.910	79.589	-0.103	0.110
-308.895	40.348	-0.089	-0.080
-307.880	38.943	-0.297	-0.264
-306.866	17.902	-0.220	0.175
-305.851	800.000	0.098	-0.340
-304.837	800.000	0.096	0.339
-303.822	-121.774	-0.423	0.070
-302.807	294.406	-0.293	-0.534
-301.793	766.161	-0.050	-0.137
-300.778	-200.000	-0.006	0.157
-299.764	-20.407	0.274	-0.168
-298.749	50.902	0.060	-0.057
-297.735	-165.971	0.362	0.015
-296.720	-125.090	0.158	0.024
-295.705	462.943	0.077	0.172
-294.691	5.226	-0.318	0.233
-293.676	-200.000	0.048	0.225
-292.662	800.000	-0.065	0.210
-291.647	-117.381	-0.368	-0.066
-290.632	119.666	-0.159	-0.196
-289.618	-88.919	0.328	-0.097
-288.603	-176.302	0.350	-0.009
-287.589	15.439	0.275	0.215
-286.574	-18.483	0.297	-0.184
-285.559	356.050	-0.059	-0.116
-284.545	360.296	-0.078	-0.156
-283.530	-200.000	0.049	-0.256
-282.516	-92.848	0.332	-0.092
-281.501	-73.619	0.188	-0.068
-280.486	800.000	-0.076	-0.260
-279.472	-148.279	-0.358	-0.029
-278.457	-100.283	0.480	-0.119
-277.443	-63.852	-0.073	0.030
-276.428	24.021	0.154	0.126
-275.413	800.000	0.020	0.072
-274.399	245.624	0.112	0.187
-273.384	86.957	0.055	-0.060
-272.370	800.000	-0.150	0.505
-271.355	699.009	-0.156	0.409
-270.340	-200.000	-0.030	0.250
-269.326	686.293	-0.038	-0.098
-268.311	800.000	0.015	-0.043
-267.297	-200.000	-0.017	0.079
-266.282	-94.340	0.161	0.044
-265.267	-144.323	-0.010	-0.001
-264.253	-174.310	-0.306	-0.009
-263.238	-16.500	0.296	-0.187
-262.224	-200.000	0.023	-0.163
-261.209	-200.000	0.047	-0.219
-260.195	17.985	0.112	0.089
-259.180	800.000	0.045	0.141
-258.165	37.225	-0.130	0.114
-257.151	-59.573	0.390	-0.167
-256.136	-102.707	0.107	0.025
-255.122	-66.239	-0.313	-0.124
-254.107	586.023	0.083	0.202
-253.092	751.845	0.058	0.156
-252.078	800.000	0.103	-0.317
-251.063	80.994	0.250	0.269
-250.049	800.000	0.068	0.237
-249.034	-80.954	-0.167	0.055
-248.019	62.797	-0.117	0.116
-247.005	-1.049	-0.045	0.032
-245.990	341.232	0.152	0.296
-244.976	383.419	-0.049	-0.101
-243.961	18.258	0.025	0.020
-242.946	-43.954	0.052	-0.026
-241.932	800.000	-0.085	-0.255
-240.917	-37.693	0.184	-0.097
-239.903	237.114	0.067	-0.111
-238.888	82.044	0.119	-0.128
-237.873	-157.659	-0.184	0.011
-236.859	-179.828	-0.332	0.007
-235.844	447.774	0.095	0.209
-234.830	150.802	-0.055	-0.075
-233.815	-200.000	0.175	0.000
-232.800	27.231	0.229	0.191
-231.786	-200.000	0.011	-0.071
-230.771	-200.000	-0.056	0.281
-229.757	-22.735	0.151	0.090
-228.742	-111.592	0.055	-0.011
-227.727	200.588	0.034	-0.053
-226.713	681.262	-0.119	0.308
-225.698	-200.000	-0.008	-0.065
-224.684	-34.544	-0.143	-0.078
-223.669	-200.000	-0.003	-0.196
-222.655	-34.508	-0.313	0.171
-221.640	-73.253	0.127	-0.046
-220.625	-101.494	0.312	0.075
-219.611	78.383	-0.141	0.150
-218.596	-9.304	-0.178	0.118
-217.582	-101.039	0.073	-0.018
-216.567	317.238	-0.093	0.175
-215.552	279.586	0.062	-0.110
-214.538	800.000	-0.086	0.289
-213.523	8.820	-0.346	0.259
-212.509	-138.895	0.173	0.019
-211.494	33.724	-0.121	0.104
-210.479	2.048	0.149	0.106
-209.465	800.000	0.109	0.351
-208.450	-71.288	0.239	-0.089
-207.436	-46.103	0.172	0.084
-206.421	-99.416	0.262	-0.065
-205.406	-2.091	0.063	-0.044
-204.392	-46.198	0.142	-0.069
-203.377	-110.495	0.222	0.046
-202.363	-117.446	-0.225	-0.040
-201.348	19.513	0.194	0.155
-200.333	-55.848	-0.304	0.135
-199.319	-105.740	-0.086	0.019
-198.304	-147.753	-0.250	0.021
-197.290	-143.320	-0.381	0.036
-196.275	93.965	0.110	-0.124
-195.260	197.484	-0.012	0.019
-194.246	42.075	-0.067	0.060
-193.231	-7.154	0.070	-0.047
-192.217	385.976	0.193	0.396
-191.202	423.713	0.138	0.295
-190.187	-128.801	-0.251	-0.035
-189.173	800.000	-0.088	0.254
-188.158	414.125	0.053	0.112
-187.144	-200.000	-0.022	-0.138
-186.129	-107.618	-0.370	-0.080
-185.114	308.156	0.198	-0.367
-184.100	90.258	-0.204	0.226
-183.085	-200.000	-0.005	-0.348
-182.071	-200.000	0.263	-0.001
-181.056	282.683	-0.090	0.159
-180.042	-84.284	0.324	0.102
-179.027	319.369	0.018	-0.034
-178.012	11.770	0.270	-0.205
-176.998	192.111	-0.146	-0.218
-175.983	-18.027	-0.111	-0.069
-174.969	39.065	0.230	0.204
-173.954	201.584	0.041	0.063
-172.939	-200.000	0.013	-0.097
-171.925	34.956	0.291	0.253
-170.910	-200.000	0.003	0.103
-169.896	-56.012	-0.074	0.033
-168.881	800.000	-0.057	0.214
-167.866	74.671	0.314	0.327
-166.852	-126.843	0.173	0.025
-165.837	356.439	-0.040	-0.078
-164.823	-21.574	-0.216	-0.131
-163.808	-200.000	0.027	-0.185
-162.793	149.518	0.062	0.083
-161.779	44.808	0.068	0.062
-160.764	-8.548	-0.172	0.115
-159.750	-200.000	0.062	0.286
-158.735	53.474	-0.112	-0.107
-157.720	-131.842	-0.463	0.060
-156.706	273.544	-0.138	0.242
-155.691	522.528	0.187	0.434
-154.677	218.138	0.160	0.253
-153.662	-185.362	-0.203	0.003
-152.647	-76.772	-0.315	-0.109
-151.633	-58.727	0.023	0.010
-150.618	356.061	-0.050	0.098
-149.604	226.103	-0.087	0.140
-148.589	800.000	0.002	0.007
-147.574	800.000	0.096	0.282
-146.560	92.968	-0.235	0.263
-145.545	-88.479	-0.094	0.028
-144.531	117.497	-0.137	-0.167
-143.516	115.489	0.227	0.274
-142.502	-200.000	-0.001	-0.132
-141.487	-128.118	0.085	0.012
-140.472	-4.108	-0.146	-0.100
-139.458	388.921	0.161	-0.329
-138.443	800.000	-0.155	-0.540
-137.429	-103.261	-0.167	0.039
-136.414	137.999	-0.133	-0.173
-135.399	-137.700	0.304	-0.034
-134.385	-200.000	-0.033	0.149
-133.370	632.346	0.030	-0.076
-132.356	740.402	0.101	0.268
-131.341	-126.862	-0.305	0.044
-130.326	-120.286	0.173	-0.029
-129.312	-53.220	-0.189	0.086
-128.297	-39.469	-0.336	0.174
-127.283	-95.709	0.152	0.040
-126.268	-137.695	0.446	0.050
-125.253	716.868	-0.056	0.147
-124.239	-125.959	-0.378	0.056
-123.224	-37.432	-0.340	-0.179
-122.210	-200.000	0.214	0.001
-121.195	-19.424	0.364	0.223
-120.180	800.000	0.026	-0.109
