DTS Sentinel unit serial number:	SN413079Multiplexer serial number:	ORYXHardware model number:	OX4-SRSoftware version number:	ORYX F/W v4.00 Oryx Data Collector v3.7.2.0data status	okinstallation	princeton_trtdifferential loss correction	single-endedforward channel	channel 3reverse channel	N/Adate	2019/09/11time	05:18:10forward acquisition time	60.00reverse acquisition time	0.00gamma	496.2192k internal	0.2330k external	0.2330temperature offset calibration	0.9907default loss term (dB/km)	0.3790temperature slope calibration	1.0000multiplexer offset coefficient	1.0000multiplexer slope coefficient	1.0000fibre end	0.00T internal ref (°C)	29.44T ext. ref 1 (°C)	-0.26T ext. ref 2 (°C)	23.34length (m)	temperature (°C)	Stokes	anti-Stokes-747.200	124.940	-0.074	-0.094
-746.185	-200.000	0.090	0.556
-745.171	800.000	0.133	0.391
-744.156	82.864	-0.079	0.087
-743.142	-124.343	0.093	-0.015
-742.127	495.065	0.079	0.183
-741.112	-200.000	-0.009	0.132
-740.098	-200.000	-0.005	0.424
-739.083	-200.000	0.044	0.395
-738.069	-200.000	0.038	0.388
-737.054	-95.643	-0.126	0.034
-736.039	27.119	-0.367	0.310
-735.025	-200.000	0.011	-0.067
-734.010	362.119	-0.063	-0.127
-732.996	203.770	-0.136	-0.213
-731.981	2.974	0.239	-0.175
-730.966	214.514	-0.144	-0.230
-729.952	-171.425	0.109	0.004
-728.937	-200.000	-0.063	0.299
-727.923	13.371	-0.038	0.030
-726.908	288.679	-0.061	0.111
-725.894	9.952	-0.189	0.145
-724.879	-12.021	-0.196	-0.129
-723.864	59.326	0.084	0.083
-722.850	-152.529	-0.291	0.021
-721.835	-4.171	-0.232	-0.162
-720.821	493.701	0.036	-0.083
-719.806	-153.251	-0.171	-0.012
-718.791	-200.000	0.040	-0.177
-717.777	-9.283	0.109	-0.073
-716.762	-200.000	-0.009	-0.086
-715.748	38.912	0.197	0.177
-714.733	-200.000	0.054	0.314
-713.718	-181.777	-0.490	0.009
-712.704	-14.706	-0.250	-0.161
-711.689	-77.284	-0.317	0.111
-710.675	-10.545	-0.284	-0.189
-709.660	-93.480	0.307	-0.085
-708.645	-54.600	0.151	-0.069
-707.631	-66.995	-0.375	0.149
-706.616	-122.461	-0.195	-0.032
-705.602	93.158	0.301	-0.342
-704.587	800.000	-0.017	-0.052
-703.572	-166.351	-0.222	-0.009
-702.558	-2.158	0.033	0.023
-701.543	54.901	0.288	-0.280
-700.529	31.629	-0.175	0.151
-699.514	-25.308	-0.242	0.144
-698.499	-200.000	0.031	-0.139
-697.485	-107.121	-0.453	0.101
-696.470	800.000	0.021	0.084
-695.456	205.608	-0.219	0.342
-694.441	222.444	0.053	0.085
-693.426	-200.000	0.094	0.429
-692.412	-108.573	0.143	-0.031
-691.397	-158.736	-0.235	-0.014
-690.383	-104.318	-0.089	0.021
-689.368	800.000	-0.012	0.045
-688.354	-127.737	-0.356	0.052
-687.339	-64.453	0.262	-0.107
-686.324	-200.000	0.009	0.151
-685.310	14.984	-0.120	-0.094
-684.295	-200.000	-0.024	0.305
-683.281	-64.753	-0.320	0.130
-682.266	153.807	0.083	0.114
-681.251	-31.264	0.258	0.146
-680.237	276.215	-0.207	-0.369
-679.222	-169.306	-0.386	-0.014
-678.208	-200.000	0.004	0.038
-677.193	-200.000	0.016	-0.106
-676.178	-27.595	-0.240	0.140
-675.164	-92.263	0.062	0.017
-674.149	-130.373	-0.141	0.019
-673.135	-141.003	0.145	0.015
-672.120	782.114	0.095	-0.261
-671.105	-50.981	-0.268	0.126
-670.091	800.000	-0.102	-0.322
-669.076	293.981	-0.174	-0.318
-668.062	57.403	-0.208	0.204
-667.047	-110.277	-0.241	-0.050
-666.032	-68.551	-0.393	0.153
-665.018	-45.729	0.220	-0.109
-664.003	129.968	0.059	0.076
-662.989	-114.439	0.208	-0.040
-661.974	-200.000	-0.012	0.234
-660.959	-200.000	-0.032	-0.257
-659.945	178.336	-0.164	0.240
-658.930	-144.809	-0.018	-0.002
-657.916	-148.843	0.251	0.020
-656.901	-108.292	-0.344	0.075
-655.886	27.172	0.185	-0.155
-654.872	-200.000	0.011	-0.515
-653.857	-137.452	-0.295	0.033
-652.843	600.087	0.023	-0.058
-651.828	-56.230	-0.299	0.134
-650.814	-200.000	-0.015	-0.120
-649.799	-136.288	-0.115	0.013
-648.784	-200.000	-0.013	0.277
-647.770	800.000	0.133	-0.400
-646.755	-50.147	0.202	-0.096
-645.741	800.000	0.011	0.044
-644.726	-130.395	-0.289	0.039
-643.711	-200.000	-0.004	-0.078
-642.697	-76.244	-0.372	-0.131
-641.682	-64.817	-0.111	-0.045
-640.668	204.383	-0.037	-0.058
-639.653	306.474	-0.133	-0.248
-638.638	-124.698	0.298	0.046
-637.624	-200.000	-0.000	0.190
-636.609	38.478	0.068	-0.061
-635.595	-104.211	0.352	-0.082
-634.580	-177.887	0.227	0.005
-633.565	-200.000	0.054	-0.264
-632.551	-167.196	-0.193	0.008
-631.536	-82.242	-0.271	-0.088
-630.522	-106.282	0.242	0.054
-629.507	-200.000	0.009	-0.095
-628.492	-200.000	-0.025	-0.278
-627.478	14.738	-0.198	-0.155
-626.463	-83.251	0.171	0.055
-625.449	797.831	0.116	0.321
-624.434	-47.220	-0.105	0.051
-623.419	-24.877	-0.178	-0.106
-622.405	800.000	0.112	-0.356
-621.390	-152.550	-0.030	0.002
-620.376	-200.000	-0.013	0.075
-619.361	-8.605	0.197	-0.132
-618.346	-69.033	0.148	-0.057
-617.332	-36.300	0.222	0.120
-616.317	-138.498	-0.257	0.028
-615.303	718.107	0.078	0.207
-614.288	-42.430	-0.146	-0.075
-613.273	-42.394	-0.275	0.140
-612.259	83.764	0.085	-0.093
-611.244	418.400	0.015	0.031
-610.230	-113.839	-0.218	0.042
-609.215	88.844	0.075	-0.084
-608.201	-200.000	0.036	-0.165
-607.186	-107.720	0.166	0.036
-606.171	-200.000	0.031	-0.339
-605.157	-65.502	-0.266	-0.107
-604.142	27.684	-0.108	-0.091
-603.128	229.835	0.093	-0.153
-602.113	-102.795	0.231	0.055
-601.098	-200.000	-0.029	0.226
-600.084	463.172	-0.101	0.226
-599.069	-108.374	0.117	-0.025
-598.055	-188.678	-0.117	0.001
-597.040	19.658	-0.408	-0.328
-596.025	800.000	-0.082	0.236
-595.011	-13.122	-0.385	0.251
-593.996	800.000	-0.088	-0.289
-592.982	800.000	-0.081	-0.256
-591.967	57.341	-0.202	0.197
-590.952	43.082	-0.063	0.057
-589.938	323.286	-0.136	0.260
-588.923	-200.000	0.068	-0.391
-587.909	13.958	-0.177	-0.138
-586.894	115.990	0.187	-0.229
-585.879	-200.000	-0.016	0.422
-584.865	-84.751	0.054	0.017
-583.850	71.590	0.067	0.070
-582.836	513.790	-0.082	-0.191
-581.821	-78.716	-0.197	-0.067
-580.806	-95.880	0.051	0.014
-579.792	77.076	-0.050	-0.053
-578.777	246.248	0.104	-0.176
-577.763	-200.000	-0.021	-0.227
-576.748	-42.847	0.112	0.057
-575.733	60.772	0.179	0.177
-574.719	333.808	0.205	-0.396
-573.704	-81.327	-0.053	0.017
-572.690	3.294	0.422	-0.307
-571.675	-28.128	0.168	-0.097
-570.661	745.183	0.166	-0.447
-569.646	-23.590	0.206	0.124
-568.631	-200.000	0.020	0.247
-567.617	324.386	0.173	-0.330
-566.602	-200.000	0.008	0.073
-565.588	-124.522	0.109	-0.017
-564.573	106.965	-0.107	-0.127
-563.558	110.888	-0.059	0.071
-562.544	-200.000	0.004	-0.197
-561.529	800.000	-0.041	0.155
-560.515	226.092	0.115	-0.186
-559.500	-119.659	-0.380	-0.066
-558.485	36.956	0.277	0.244
-557.471	790.295	-0.187	-0.514
-556.456	-78.564	-0.268	-0.092
-555.442	73.927	-0.277	-0.291
-554.427	-24.052	0.152	0.091
-553.412	192.262	0.096	0.144
-552.398	-99.987	0.210	-0.052
-551.383	-176.856	-0.221	0.006
-550.369	139.069	-0.174	0.229
-549.354	-60.476	-0.394	-0.167
-548.339	135.238	0.110	-0.142
-547.325	78.504	-0.117	-0.125
-546.310	-200.000	-0.018	0.265
-545.296	45.106	0.223	-0.206
-544.281	-200.000	-0.072	-0.395
-543.266	-75.338	-0.103	-0.037
-542.252	36.194	0.188	0.166
-541.237	75.154	-0.146	-0.154
-540.223	240.466	0.014	0.023
-539.208	9.747	0.294	0.223
-538.193	-200.000	0.024	0.140
-537.179	-36.435	-0.066	0.035
-536.164	-127.119	-0.100	0.015
-535.150	37.980	0.122	0.108
-534.135	-200.000	-0.015	-0.164
-533.121	105.939	-0.123	-0.146
-532.106	800.000	-0.039	-0.122
-531.091	413.220	-0.050	0.106
-530.077	-143.360	0.320	0.031
-529.062	-0.835	-0.211	-0.149
-528.048	-191.940	-0.389	-0.004
-527.033	37.331	-0.235	-0.208
-526.018	800.000	-0.102	0.396
-525.004	-197.863	-0.253	-0.002
-523.989	-44.781	0.240	0.119
-522.975	800.000	-0.037	-0.130
-521.960	-154.785	0.293	-0.019
-520.945	268.575	0.053	-0.093
-519.931	-200.000	0.051	-0.248
-518.916	5.005	-0.306	-0.225
-517.902	41.533	0.240	-0.217
-516.887	-200.000	0.012	0.075
-515.872	-27.260	0.312	0.181
-514.858	-200.000	0.013	-0.189
-513.843	-200.000	0.006	-0.364
-512.829	-150.724	-0.285	0.022
-511.814	-33.524	-0.358	0.197
-510.799	225.224	0.193	-0.312
-509.785	-63.206	-0.362	-0.149
-508.770	170.824	0.137	-0.196
-507.756	104.215	-0.147	-0.173
-506.741	-21.914	-0.130	-0.079
-505.726	-64.082	0.208	0.085
-504.712	-200.000	0.036	0.234
-503.697	131.257	-0.039	-0.050
-502.683	80.471	0.315	-0.338
-501.668	-44.878	0.094	0.046
-500.653	800.000	0.118	0.382
-499.639	36.472	0.293	0.258
-498.624	-200.000	0.079	0.507
-497.610	12.160	0.133	-0.102
-496.595	-200.000	-0.014	0.094
-495.581	186.932	0.121	-0.180
-494.566	-73.088	-0.204	-0.075
-493.551	-54.222	0.050	-0.023
-492.537	12.688	-0.274	0.211
-491.522	-62.833	-0.164	0.068
-490.508	52.490	-0.190	-0.180
-489.493	177.610	-0.111	-0.161
-488.478	-13.534	-0.320	0.207
-487.464	800.000	-0.043	0.133
-486.449	-85.014	0.032	0.010
-485.435	102.420	-0.009	0.011
-484.420	800.000	0.120	0.398
-483.405	-88.033	0.137	0.041
-482.391	19.387	-0.087	-0.070
-481.376	800.000	0.111	0.408
-480.362	-128.631	-0.374	0.053
-479.347	193.486	0.277	0.418
-478.332	-200.000	-0.063	0.391
-477.318	90.133	0.023	-0.026
-476.303	-81.935	-0.170	0.055
-475.289	200.074	-0.131	0.200
-474.274	-89.847	-0.139	-0.041
-473.259	-200.000	0.015	-0.123
-472.245	94.287	0.576	-0.651
-471.230	315.209	-0.186	-0.348
-470.216	-2.694	0.261	-0.182
-469.201	96.268	-0.139	-0.158
-468.186	112.197	0.139	-0.167
-467.172	-24.078	-0.062	-0.037
-466.157	-132.354	0.120	0.015
-465.143	-200.000	0.017	0.268
-464.128	240.595	0.151	-0.251
-463.113	-163.347	-0.370	0.018
-462.099	-123.078	0.245	0.039
-461.084	-41.258	0.273	-0.140
-460.070	800.000	0.057	0.215
-459.055	-92.112	0.153	0.043
-458.040	485.291	-0.087	0.198
-457.026	-200.000	-0.341	-0.000
-456.011	273.933	0.117	0.207
-454.997	-200.000	-0.026	-0.252
-453.982	120.701	0.106	-0.132
-452.968	386.003	0.057	-0.118
-451.953	322.373	0.206	0.390
-450.938	-93.291	0.178	0.049
-449.924	-200.000	-0.012	-0.214
-448.909	-155.958	0.097	-0.006
-447.895	-200.000	-0.004	-0.055
-446.880	-200.000	-0.003	0.017
-445.865	213.299	0.008	0.013
-444.851	107.898	0.060	0.071
-443.836	-117.196	0.194	-0.035
-442.822	800.000	0.082	-0.276
-441.807	-123.640	0.254	-0.040
-440.792	-185.477	0.308	0.005
-439.778	-50.437	-0.368	-0.173
-438.763	2.415	-0.161	-0.116
-437.749	-104.122	0.325	-0.075
-436.734	-200.000	-0.025	-0.306
-435.719	-125.439	-0.261	0.040
-434.705	-200.000	0.008	-0.365
-433.690	54.117	0.139	-0.133
-432.676	-179.804	-0.246	-0.005
-431.661	-200.000	0.026	-0.161
-430.646	41.902	-0.112	0.101
-429.632	-118.381	-0.151	-0.027
-428.617	-138.973	0.115	-0.012
-427.603	-187.346	0.230	0.003
-426.588	86.286	-0.230	0.252
-425.573	194.882	0.204	0.307
-424.559	-200.000	0.002	0.077
-423.544	82.552	0.203	0.219
-422.530	36.132	-0.138	-0.121
-421.515	315.137	0.097	0.181
-420.500	-200.000	0.013	-0.161
-419.486	421.694	0.023	0.050
-418.471	-200.000	0.016	0.083
-417.457	799.255	-0.031	0.086
-416.442	718.840	0.045	0.120
-415.428	-116.487	0.273	-0.050
-414.413	-166.248	-0.154	-0.006
-413.398	93.541	0.073	0.082
-412.384	-107.946	0.209	-0.045
-411.369	800.000	-0.087	-0.308
-410.355	84.168	-0.094	0.102
-409.340	-167.774	0.462	-0.018
-408.325	605.164	0.087	0.215
-407.311	-200.000	-0.040	-0.234
-406.296	-81.192	0.195	-0.064
-405.282	-63.096	-0.218	-0.089
-404.267	-200.000	-0.008	-0.045
-403.252	139.329	0.293	0.382
-402.238	-168.969	0.321	-0.012
-401.223	-145.690	0.334	0.030
-400.209	-106.572	0.325	-0.072
-399.194	-38.744	0.187	0.098
-398.179	175.031	-0.046	0.067
-397.165	-162.283	0.082	-0.004
-396.150	193.794	-0.131	0.198
-395.136	-13.994	-0.085	-0.054
-394.121	-200.000	-0.025	0.259
-393.106	-200.000	-0.003	-0.419
-392.092	800.000	-0.034	0.117
-391.077	-98.673	0.141	-0.036
-390.063	-145.129	-0.259	0.023
-389.048	-83.161	0.115	0.037
-388.033	36.956	0.286	0.251
-387.019	-200.000	-0.024	-0.230
-386.004	-93.881	-0.099	-0.027
-384.990	-114.159	-0.227	0.044
-383.975	109.705	0.057	-0.068
-382.960	800.000	0.097	-0.270
-381.946	-200.000	-0.009	-0.076
-380.931	-98.606	-0.209	-0.053
-379.917	-101.808	0.155	-0.037
-378.902	-62.335	-0.199	-0.082
-377.888	63.739	-0.082	-0.082
-376.873	304.798	-0.055	0.101
-375.858	237.008	0.157	-0.258
-374.844	255.039	0.195	0.331
-373.829	-200.000	-0.001	-0.181
-372.815	113.948	0.094	-0.114
-371.800	173.591	-0.146	0.209
-370.785	-200.000	0.015	-0.328
-369.771	-14.667	0.037	0.024
-368.756	-200.000	-0.006	0.116
-367.742	-49.969	0.344	0.162
-366.727	-199.820	-0.349	0.002
-365.712	-109.494	-0.019	-0.004
-364.698	-103.622	0.494	0.115
-363.683	-80.560	0.176	0.058
-362.669	179.806	0.135	0.196
-361.654	126.252	0.099	-0.124
-360.639	442.268	0.031	-0.068
-359.625	-122.485	-0.084	0.014
-358.610	132.861	-0.257	-0.330
-357.596	82.873	-0.040	0.044
-356.581	-100.246	0.112	-0.028
-355.566	-44.579	0.214	0.106
-354.552	-178.797	-0.238	-0.005
-353.537	-39.160	-0.203	-0.106
-352.523	146.514	0.156	0.208
-351.508	38.517	-0.121	-0.107
-350.493	6.997	-0.340	-0.251
-349.479	-52.622	-0.111	0.051
-348.464	100.043	0.166	-0.191
-347.450	-73.668	0.268	0.097
-346.435	521.980	0.169	0.393
-345.420	690.883	0.058	0.149
-344.406	-53.734	0.260	-0.117
-343.391	673.572	0.024	0.062
-342.377	-34.188	0.026	0.014
-341.362	117.771	0.214	0.261
-340.348	749.947	-0.057	0.151
-339.333	168.672	-0.159	0.225
-338.318	-200.000	0.023	0.148
-337.304	36.028	0.188	0.164
-336.289	-38.932	0.124	0.065
-335.275	77.324	-0.125	-0.132
-334.260	-80.207	0.151	-0.050
-333.245	-200.000	-0.034	-0.234
-332.231	-39.453	-0.428	-0.222
-331.216	-88.230	0.123	-0.036
-330.202	420.653	-0.129	0.273
-329.187	-77.042	0.148	-0.051
-328.172	-200.000	-0.001	-0.059
-327.158	-70.698	-0.408	0.153
-326.143	800.000	-0.101	0.395
-325.129	-76.372	0.207	-0.072
-324.114	548.422	-0.076	0.181
-323.099	-125.242	-0.450	-0.068
-322.085	-12.540	0.171	-0.110
-321.070	282.219	0.043	0.076
-320.056	10.644	0.098	0.074
-319.041	-31.069	-0.384	0.215
-318.026	800.000	0.040	0.172
-317.012	-82.641	0.173	0.056
-315.997	-83.700	0.245	0.077
-314.983	-200.000	0.038	0.345
-313.968	16.588	0.122	-0.096
-312.953	800.000	0.090	-0.337
-311.939	-89.513	-0.501	-0.146
-310.924	-89.114	-0.115	0.034
-309.910	-96.183	0.129	-0.034
-308.895	182.279	0.098	0.142
-307.880	18.638	-0.205	-0.162
-306.866	104.839	-0.300	0.350
-305.851	800.000	0.019	-0.057
-304.837	800.000	-0.166	-0.481
-303.822	5.192	0.101	-0.074
-302.807	38.625	0.174	0.153
-301.793	800.000	-0.055	-0.223
-300.778	-200.000	-0.097	0.436
-299.764	-200.000	0.001	0.051
-298.749	-196.870	-0.217	-0.001
-297.735	-38.184	-0.095	-0.050
-296.720	54.127	-0.183	-0.174
-295.705	800.000	0.019	-0.055
-294.691	-56.532	-0.055	-0.024
-293.676	-146.792	0.194	0.017
-292.662	368.726	-0.013	0.026
-291.647	-119.039	-0.112	0.019
-290.632	525.543	0.116	-0.269
-289.618	-94.032	0.310	0.084
-288.603	383.719	0.112	-0.227
-287.589	-179.592	-0.315	0.007
-286.574	-5.779	-0.010	-0.006
-285.559	51.224	0.163	-0.153
-284.545	189.788	-0.025	0.037
-283.530	-52.850	-0.281	0.128
-282.516	-93.114	0.103	-0.028
-281.501	65.044	-0.160	0.160
-280.486	136.121	0.165	0.213
-279.472	-11.234	-0.090	0.059
-278.457	-85.256	-0.282	0.087
-277.443	800.000	0.026	0.093
-276.428	-88.691	0.197	0.058
-275.413	-200.000	0.000	-0.008
-274.399	23.132	0.113	-0.092
-273.384	76.116	-0.065	-0.068
-272.370	-200.000	0.002	0.037
-271.355	-26.492	0.329	0.191
-270.340	-138.626	-0.161	-0.017
-269.326	-130.074	0.022	-0.003
-268.311	763.766	-0.107	-0.288
-267.297	-168.222	0.075	-0.003
-266.282	-86.851	0.224	0.068
-265.267	-200.000	0.031	0.229
-264.253	-200.000	-0.033	0.319
-263.238	-77.617	0.125	0.043
-262.224	7.429	-0.136	0.101
-261.209	-51.158	-0.296	-0.137
-260.195	575.608	-0.156	0.377
-259.180	-103.982	-0.061	-0.014
-258.165	-110.680	0.272	0.056
-257.151	-15.163	0.221	0.140
-256.136	-110.566	-0.277	-0.057
-255.122	260.596	0.080	0.136
-254.107	-77.356	0.124	-0.042
-253.092	50.062	-0.108	0.100
-252.078	-165.123	0.080	0.003
-251.063	-49.581	0.232	0.109
-250.049	-35.667	-0.290	0.155
-249.034	-200.000	-0.022	0.290
-248.019	-200.000	0.000	-0.139
-247.005	-79.156	-0.472	0.158
-245.990	95.621	0.040	0.045
-244.976	-200.000	0.012	-0.195
-243.961	-151.446	-0.104	0.008
-242.946	138.500	0.243	-0.315
-241.932	434.516	0.119	0.256
-240.917	1.214	0.244	-0.173
-239.903	25.458	0.087	-0.072
-238.888	-200.000	-0.007	-0.073
-237.873	-200.000	0.006	0.208
-236.859	800.000	0.046	-0.155
-235.844	-73.496	-0.111	0.040
-234.830	-33.269	-0.143	-0.078
-233.815	-200.000	-0.009	-0.475
-232.800	-118.567	-0.203	-0.035
-231.786	800.000	0.065	0.188
-230.771	34.983	0.382	-0.330
-229.757	-54.534	-0.011	-0.005
-228.742	543.143	0.081	0.191
-227.727	-55.504	-0.084	-0.037
-226.713	-190.820	-0.039	0.000
-225.698	-12.628	-0.217	0.140
-224.684	32.699	0.218	0.186
-223.669	311.113	-0.036	-0.067
-222.655	284.825	0.192	-0.342
-221.640	800.000	0.125	0.443
-220.625	-122.855	-0.284	0.045
-219.611	375.209	0.144	-0.289
-218.596	-135.810	0.133	0.016
-217.582	800.000	-0.042	0.177
-216.567	-200.000	-0.064	0.484
-215.552	-80.378	-0.269	0.089
-214.538	18.680	0.075	0.059
-213.523	-122.203	-0.071	0.011
-212.509	12.187	-0.278	-0.211
-211.494	66.242	0.331	-0.331
-210.479	-200.000	0.008	0.301
-209.465	-135.269	-0.337	0.040
-208.450	-200.000	-0.026	0.279
-207.436	-109.325	-0.230	-0.048
-206.421	-79.970	-0.393	-0.130
-205.406	-133.658	0.169	0.021
-204.392	800.000	-0.082	-0.254
-203.377	-200.000	0.005	0.136
-202.363	70.114	0.062	-0.063
-201.348	-18.710	-0.166	-0.102
-200.333	799.543	0.058	0.156
-199.319	257.301	-0.034	0.058
-198.304	318.157	0.146	0.272
-197.290	711.801	-0.071	-0.186
-196.275	141.775	0.087	0.113
-195.260	337.391	0.142	0.272
-194.246	-200.000	-0.062	0.272
-193.231	-200.000	0.011	0.256
-192.217	313.982	0.240	0.445
-191.202	347.823	-0.038	0.073
-190.187	-200.000	-0.052	-0.301
-189.173	16.102	0.035	0.027
-188.158	3.318	-0.245	-0.176
-187.144	-200.000	-0.030	0.227
-186.129	-85.071	0.103	0.032
-185.114	308.430	0.081	-0.149
-184.100	663.221	-0.075	-0.192
-183.085	302.269	-0.171	-0.311
-182.071	249.447	0.068	-0.113
-181.056	-1.728	0.168	-0.116
-180.042	-150.026	-0.186	-0.014
-179.027	-24.155	-0.317	0.186
-178.012	-200.000	0.055	0.267
-176.998	-164.366	0.206	-0.009
-175.983	-200.000	-0.030	0.333
-174.969	418.322	0.085	-0.178
-173.954	800.000	0.034	-0.124
-172.939	-130.725	-0.181	0.024
-171.925	800.000	-0.050	0.185
-170.910	515.960	-0.059	-0.137
-169.896	70.041	0.227	-0.230
-168.881	-200.000	-0.061	0.558
-167.866	-6.954	-0.078	0.052
-166.852	-170.666	-0.259	-0.009
-165.837	136.741	0.077	0.099
-164.823	316.087	0.169	0.314
-163.808	-95.495	-0.343	-0.091
-162.793	-155.049	0.123	-0.008
-161.779	63.029	0.195	0.192
-160.764	-106.805	-0.216	0.047
-159.750	2.575	-0.154	0.110
-158.735	800.000	0.039	0.156
-157.720	-85.052	-0.288	-0.089
-156.706	185.630	-0.139	-0.202
-155.691	60.817	0.074	0.072
-154.677	-200.000	-0.014	0.138
-153.662	-200.000	-0.075	0.000
-152.647	-88.496	-0.196	-0.058
-151.633	61.008	0.213	0.208
-150.618	380.092	0.045	-0.091
-149.604	74.725	-0.320	0.331
-148.589	21.641	-0.085	-0.068
-147.574	710.240	-0.112	0.290
-146.560	-200.000	0.020	0.373
-145.545	800.000	0.047	0.190
-144.531	-71.978	-0.318	0.116
-143.516	-200.000	-0.040	-0.389
-142.502	292.652	0.139	-0.250
-141.487	167.501	-0.229	0.320
-140.472	-200.000	-0.033	0.148
-139.458	800.000	0.007	-0.022
-138.443	-36.736	-0.155	-0.082
-137.429	27.995	-0.040	0.033
-136.414	-117.169	-0.430	-0.077
-135.399	-200.000	0.008	0.157
-134.385	-200.000	-0.006	0.146
-133.370	45.000	0.056	-0.051
-132.356	-182.665	0.211	-0.004
-131.341	-200.000	0.021	0.370
-130.326	-200.000	0.015	0.221
-129.312	-13.252	-0.129	-0.082
-128.297	45.113	-0.136	0.123
-127.283	50.509	-0.239	-0.222
-126.268	800.000	-0.047	0.142
-125.253	429.035	-0.126	-0.267
-124.239	-82.438	0.332	0.106
-123.224	596.175	-0.110	0.268
-122.210	-9.143	0.523	-0.344
