DTS Sentinel unit serial number:	SN413079Multiplexer serial number:	ORYXHardware model number:	OX4-SRSoftware version number:	ORYX F/W v4.00 Oryx Data Collector v3.7.2.0data status	okinstallation	princeton_trtdifferential loss correction	single-endedforward channel	channel 3reverse channel	N/Adate	2019/09/12time	19:33:04forward acquisition time	15.00reverse acquisition time	0.00gamma	496.2192k internal	0.2323k external	0.2323temperature offset calibration	1.0106default loss term (dB/km)	0.3790temperature slope calibration	1.0000multiplexer offset coefficient	1.0000multiplexer slope coefficient	1.0000fibre end	0.00T internal ref (°C)	32.25T ext. ref 1 (°C)	3.34T ext. ref 2 (°C)	26.76length (m)	temperature (°C)	Stokes	anti-Stokes-747.200	49.614	0.437	0.416
-746.185	131.535	-0.371	-0.482
-745.171	-132.367	0.418	-0.055
-744.156	454.361	-0.282	-0.630
-743.142	59.842	0.187	-0.186
-742.127	64.335	-0.067	-0.068
-741.112	-48.441	-0.817	0.397
-740.098	-72.592	-0.190	0.071
-739.083	9.539	-0.176	0.135
-738.069	136.080	-0.102	-0.135
-737.054	259.662	0.344	0.600
-736.039	773.092	0.074	-0.204
-735.025	-142.755	-0.435	0.043
-734.010	462.805	-0.161	-0.362
-732.996	210.274	-0.284	-0.451
-731.981	264.599	0.087	0.153
-730.966	-83.114	-0.334	-0.109
-729.952	71.713	0.457	-0.480
-728.937	-78.984	0.297	-0.102
-727.923	-62.093	0.758	-0.319
-726.908	800.000	-0.242	0.890
-725.894	-46.668	0.332	-0.164
-724.879	-105.422	-0.224	0.051
-723.864	-200.000	0.054	-0.460
-722.850	800.000	0.124	0.518
-721.835	-164.714	-0.119	-0.005
-720.821	386.273	0.196	-0.408
-719.806	-31.742	-1.141	-0.646
-718.791	-0.349	-0.453	0.325
-717.777	-90.750	0.837	0.244
-716.762	106.780	0.212	0.254
-715.748	-77.020	-0.563	-0.198
-714.733	-200.000	-0.097	-0.469
-713.718	-61.427	0.724	-0.307
-712.704	-154.551	-0.210	0.014
-711.689	-6.483	-0.518	-0.356
-710.675	-200.000	0.010	0.311
-709.660	-16.319	-0.060	-0.038
-708.645	32.910	-0.433	0.378
-707.631	-18.592	0.971	0.611
-706.616	-200.000	-0.040	0.236
-705.602	800.000	0.201	0.621
-704.587	332.191	0.313	0.608
-703.572	-26.433	-0.398	-0.235
-702.558	227.405	0.170	-0.278
-701.543	-79.621	-0.222	-0.075
-700.529	491.095	-0.511	1.180
-699.514	216.260	0.348	-0.558
-698.499	-118.894	0.069	-0.012
-697.485	161.938	-0.188	0.266
-696.470	37.973	-0.447	0.400
-695.456	210.463	0.569	-0.901
-694.441	800.000	-0.087	-0.367
-693.426	-200.000	-0.011	0.297
-692.412	97.516	0.413	-0.479
-691.397	-6.347	0.224	0.154
-690.383	261.866	-0.240	0.420
-689.368	-200.000	-0.044	-0.401
-688.354	800.000	-0.268	-0.800
-687.339	350.770	-0.123	-0.245
-686.324	27.492	-1.421	-1.205
-685.310	800.000	0.076	-0.311
-684.295	7.858	1.115	0.842
-683.281	800.000	-0.253	-0.780
-682.266	800.000	0.041	0.153
-681.251	800.000	-0.169	-0.553
-680.237	-117.357	0.367	-0.067
-679.222	43.289	-0.856	-0.788
-678.208	-119.610	0.570	-0.099
-677.193	143.336	-0.287	-0.385
-676.178	65.085	-0.431	0.439
-675.164	-23.563	-1.277	-0.772
-674.149	-103.761	0.708	0.167
-673.135	574.889	0.244	0.601
-672.120	-163.513	0.528	0.025
-671.105	171.107	0.289	-0.417
-670.091	-200.000	-0.195	0.960
-669.076	-200.000	0.091	-1.174
-668.062	-25.414	-0.741	0.441
-667.047	800.000	-0.035	0.147
-666.032	-200.000	-0.152	0.683
-665.018	-200.000	0.074	0.671
-664.003	-49.283	0.606	-0.291
-662.989	-176.995	-0.217	0.005
-661.974	-98.533	-0.374	0.096
-660.959	346.966	0.271	0.538
-659.945	73.429	-0.407	-0.428
-658.930	133.806	-0.527	-0.687
-657.916	-116.003	0.495	0.093
-656.901	-28.908	0.437	0.253
-655.886	-38.315	-0.454	-0.242
-654.872	-88.993	0.230	-0.068
-653.857	-200.000	-0.129	0.672
-652.843	36.880	-0.221	0.197
-651.828	-30.359	0.475	0.271
-650.814	102.832	-0.488	0.575
-649.799	-200.000	0.094	0.619
-648.784	-148.403	0.450	0.037
-647.770	119.271	0.088	-0.109
-646.755	433.658	-0.302	0.660
-645.741	-163.587	0.968	-0.046
-644.726	800.000	-0.201	-0.830
-643.711	-146.609	-0.947	0.083
-642.697	-123.211	-0.781	-0.126
-641.682	800.000	-0.025	0.090
-640.668	-200.000	0.002	0.207
-639.653	800.000	0.129	-0.446
-638.638	172.474	-0.246	0.355
-637.624	-200.000	-0.038	0.357
-636.609	-45.197	-0.408	0.204
-635.595	-123.789	0.533	0.085
-634.580	-44.322	0.620	0.313
-633.565	-75.621	0.316	0.113
-632.551	196.201	0.223	-0.341
-631.536	212.749	0.097	-0.154
-630.522	112.741	0.523	-0.637
-629.507	225.445	0.567	-0.923
-628.492	-100.905	-0.560	-0.138
-627.478	-133.797	0.037	-0.005
-626.463	-19.566	-0.302	-0.188
-625.449	-7.278	-0.300	0.204
-624.434	5.107	0.033	-0.025
-623.419	-200.000	-0.032	-0.367
-622.405	-200.000	-0.233	1.030
-621.390	-44.114	0.258	-0.130
-620.376	169.211	0.063	-0.090
-619.361	-140.127	0.238	0.025
-618.346	36.645	0.531	-0.472
-617.332	312.804	-0.178	0.336
-616.317	-131.693	0.485	0.064
-615.303	-24.590	0.180	0.108
-614.288	393.497	0.181	-0.379
-613.273	247.523	0.204	0.347
-612.259	77.617	0.547	0.585
-611.244	-116.314	-0.202	0.038
-610.230	-152.898	-1.239	0.088
-609.215	141.714	-0.147	0.196
-608.201	-21.875	-0.173	0.106
-607.186	376.092	-0.313	0.641
-606.171	-200.000	-0.153	0.878
-605.157	800.000	-0.068	-0.289
-604.142	-200.000	0.040	-0.308
-603.128	800.000	-0.174	-0.594
-602.113	-113.020	-0.308	-0.061
-601.098	-152.671	1.033	0.074
-600.084	366.204	-0.215	0.434
-599.069	121.329	0.169	0.211
-598.055	63.926	-0.323	0.326
-597.040	-99.935	0.399	-0.100
-596.025	-20.557	0.100	-0.062
-595.011	-39.823	-0.814	0.427
-593.996	-200.000	0.094	0.487
-592.982	-161.551	0.264	-0.014
-591.967	-200.000	0.026	0.409
-590.952	-200.000	0.141	-0.880
-589.938	-109.567	-1.117	-0.237
-588.923	-126.439	-0.393	-0.059
-587.909	-104.119	-0.589	-0.137
-586.894	79.569	-0.312	-0.336
-585.879	-200.000	-0.141	-0.679
-584.865	-15.949	-0.696	0.444
-583.850	49.353	0.372	-0.352
-582.836	703.356	0.315	-0.833
-581.821	-120.033	-1.150	0.198
-580.806	6.750	0.065	-0.048
-579.792	-200.000	0.092	-0.525
-578.777	-34.852	-0.388	-0.212
-577.763	800.000	-0.141	-0.507
-576.748	-107.397	0.203	0.045
-575.733	-127.971	0.184	0.026
-574.719	23.677	-0.446	-0.368
-573.704	-200.000	0.152	0.896
-572.690	-20.590	-0.434	0.267
-571.675	-175.774	1.043	-0.028
-570.661	-200.000	-0.096	0.867
-569.646	-117.073	-0.298	0.054
-568.631	800.000	0.082	0.252
-567.617	-64.994	0.782	-0.317
-566.602	272.307	0.169	0.299
-565.588	-200.000	-0.099	-0.676
-564.573	-89.756	0.430	-0.126
-563.558	82.386	0.636	0.692
-562.544	800.000	-0.232	0.685
-561.529	447.726	0.220	-0.486
-560.515	800.000	-0.139	0.455
-559.500	219.343	0.353	0.567
-558.485	-46.811	-0.708	0.347
-557.471	-93.130	-0.291	0.081
-556.456	-10.947	0.565	0.374
-555.442	-74.032	-0.287	-0.104
-554.427	141.467	-0.245	0.326
-553.412	711.369	0.074	0.196
-552.398	40.938	-0.280	-0.254
-551.383	348.835	0.274	-0.541
-550.369	29.959	0.371	0.317
-549.354	44.333	0.405	-0.372
-548.339	-97.589	-0.249	-0.065
-547.325	-16.168	-0.575	-0.366
-546.310	12.482	0.402	0.310
-545.296	-97.413	-0.306	-0.080
-544.281	3.027	-0.474	0.345
-543.266	-34.125	-0.864	-0.476
-542.252	800.000	-0.126	-0.378
-541.237	325.585	0.404	-0.774
-540.223	-200.000	0.026	-0.643
-539.208	494.933	0.282	-0.650
-538.193	307.736	0.179	0.335
-537.179	648.995	0.175	0.447
-536.164	127.268	0.248	-0.316
-535.150	32.132	0.262	0.227
-534.135	-59.381	-0.112	-0.048
-533.121	223.751	0.355	-0.575
-532.106	517.996	-0.260	-0.610
-531.091	-72.998	0.332	0.122
-530.077	81.611	-0.315	-0.341
-529.062	-200.000	0.115	-1.103
-528.048	-141.774	-0.817	0.082
-527.033	181.442	-0.279	0.411
-526.018	82.273	0.374	-0.406
-525.004	-106.996	0.147	0.032
-523.989	153.728	0.352	0.483
-522.975	-200.000	0.117	-0.727
-521.960	469.080	-0.042	-0.094
-520.945	-144.180	-0.298	-0.028
-519.931	84.455	0.231	-0.253
-518.916	356.921	0.252	0.503
-517.902	-107.543	-0.286	-0.063
-516.887	-150.083	0.491	0.038
-515.872	-200.000	-0.012	0.330
-514.858	-64.294	-0.513	-0.209
-513.843	163.707	0.226	0.318
-512.829	19.738	0.520	0.419
-511.814	-200.000	0.297	0.000
-510.799	654.891	0.079	-0.203
-509.785	304.073	-0.356	0.660
-508.770	189.038	0.395	0.592
-507.756	-32.670	-0.983	-0.548
-506.741	-17.187	0.742	0.468
-505.726	-200.000	-0.017	0.333
-504.712	195.377	0.176	0.268
-503.697	147.320	-0.143	0.192
-502.683	32.551	-0.409	0.354
-501.668	-60.459	0.766	0.326
-500.653	-119.193	0.457	-0.080
-499.639	-200.000	0.079	-0.755
-498.624	800.000	0.196	0.762
-497.610	751.832	-0.121	0.326
-496.595	-103.629	0.968	-0.227
-495.581	-18.212	-0.527	0.330
-494.566	-103.150	-0.520	0.123
-493.551	-42.011	0.772	-0.395
-492.537	800.000	-0.057	0.247
-491.522	-200.000	0.045	-0.281
-490.508	-69.871	-0.213	-0.081
-489.493	-47.351	0.617	-0.300
-488.478	-200.000	0.003	0.701
-487.464	-200.000	-0.012	-0.432
-486.449	-49.656	0.229	-0.109
-485.435	800.000	-0.359	-1.107
-484.420	369.913	-0.220	0.445
-483.405	-110.907	0.428	-0.088
-482.391	800.000	0.053	0.179
-481.376	-200.000	0.004	0.084
-480.362	45.876	0.364	-0.336
-479.347	86.574	-0.393	0.433
-478.332	800.000	0.121	-0.370
-477.318	18.776	0.316	-0.253
-476.303	108.149	0.425	0.507
-475.289	198.037	-0.162	-0.248
-474.274	-4.627	-0.250	0.173
-473.259	44.835	0.413	-0.380
-472.245	-159.804	0.637	-0.035
-471.230	113.787	0.483	0.586
-470.216	-3.795	0.611	0.424
-469.201	-14.363	-0.305	0.197
-468.186	181.426	0.330	0.484
-467.172	98.093	-0.593	0.682
-466.157	663.152	-0.297	0.766
-465.143	685.365	0.102	-0.267
-464.128	173.046	0.399	0.575
-463.113	261.519	0.259	-0.449
-462.099	-200.000	0.057	-0.309
-461.084	-89.457	1.204	-0.354
-460.070	667.962	0.130	-0.336
-459.055	-200.000	-0.034	-0.875
-458.040	-176.326	0.331	0.009
-457.026	-132.182	0.460	0.060
-456.011	-67.087	-0.600	0.236
-454.997	48.916	-0.348	0.326
-453.982	-35.333	-0.711	0.386
-452.968	347.463	-0.300	-0.591
-451.953	-43.805	-0.571	-0.287
-450.938	-25.300	-0.277	0.164
-449.924	800.000	0.119	-0.342
-448.909	-126.355	-0.157	0.023
-447.895	160.940	0.598	0.834
-446.880	800.000	-0.108	-0.340
-445.865	-90.283	-0.345	0.100
-444.851	800.000	-0.193	0.765
-443.836	-200.000	-0.010	0.052
-442.822	111.326	-0.692	0.832
-441.807	-135.515	-0.030	0.004
-440.792	-63.282	0.187	0.077
-439.778	-200.000	-0.041	0.367
-438.763	-200.000	-0.133	0.652
-437.749	-82.987	0.094	-0.030
-436.734	-200.000	0.011	-0.874
-435.719	81.521	-0.570	0.615
-434.705	800.000	0.144	-0.497
-433.690	-88.246	0.160	-0.048
-432.676	110.010	0.317	-0.380
-431.661	-85.642	0.752	-0.233
-430.646	-78.012	0.094	-0.032
-429.632	-200.000	0.121	-1.187
-428.617	-200.000	0.073	-0.381
-427.603	8.681	-0.350	0.263
-426.588	-117.142	-0.309	0.056
-425.573	-41.635	-0.080	-0.041
-424.559	-115.339	-0.349	0.066
-423.544	-186.850	0.443	0.006
-422.530	-71.367	-0.328	-0.123
-421.515	800.000	0.266	0.796
-420.500	115.950	-0.393	-0.479
-419.486	-34.140	0.371	-0.203
-418.471	452.635	-0.203	0.448
-417.457	2.424	-0.642	-0.463
-416.442	-200.000	-0.047	-0.461
-415.428	668.085	0.085	0.219
-414.413	8.435	-0.208	-0.156
-413.398	800.000	0.105	0.305
-412.384	-2.587	0.568	-0.396
-411.369	-200.000	-0.023	-0.145
-410.355	800.000	-0.142	-0.528
-409.340	48.834	-0.469	-0.438
-408.325	-26.938	-0.204	-0.119
-407.311	285.123	0.207	-0.372
-406.296	800.000	0.129	-0.491
-405.282	-73.699	-0.152	-0.055
-404.267	800.000	0.396	1.096
-403.252	247.194	-0.632	1.063
-402.238	800.000	-0.110	-0.435
-401.223	-200.000	0.064	-0.348
-400.209	69.838	0.345	-0.355
-399.194	-21.614	-0.102	-0.062
-398.179	104.465	-0.251	0.294
-397.165	111.211	-0.231	-0.277
-396.150	-46.306	0.202	0.099
-395.136	49.394	0.249	-0.233
-394.121	-78.922	0.336	0.114
-393.106	394.373	-0.227	-0.470
-392.092	16.426	0.404	0.318
-391.077	-180.819	-0.236	-0.005
-390.063	33.982	0.412	0.358
-389.048	162.677	-0.172	-0.241
-388.033	165.449	-0.386	-0.543
-387.019	-4.534	-0.285	0.196
-386.004	-200.000	0.014	-0.199
-384.990	6.049	0.556	-0.410
-383.975	442.529	-0.384	-0.838
-382.960	800.000	-0.096	-0.295
-381.946	800.000	0.149	0.460
-380.931	-200.000	-0.027	-0.192
-379.917	800.000	-0.241	-0.845
-378.902	-200.000	0.039	-0.393
-377.888	-25.555	-0.608	-0.357
-376.873	800.000	-0.050	0.181
-375.858	-96.951	-0.248	0.065
-374.844	-88.531	-0.616	0.183
-373.829	252.010	-0.152	-0.258
-372.815	-168.013	0.778	0.030
-371.800	32.263	0.228	0.196
-370.785	-104.079	0.198	-0.046
-369.771	89.389	0.136	-0.150
-368.756	49.845	-0.445	0.418
-367.742	-200.000	-0.015	0.122
-366.727	-200.000	0.027	-0.339
-365.712	-61.064	-0.047	0.020
-364.698	800.000	-0.119	-0.513
-363.683	-200.000	0.118	0.560
-362.669	-75.297	-0.528	0.188
-361.654	19.340	0.395	-0.316
-360.639	800.000	0.150	0.643
-359.625	-93.419	-0.365	-0.101
-358.610	-2.631	0.394	-0.274
-357.596	-200.000	0.092	-0.811
-356.581	226.526	0.115	-0.186
-355.566	-108.548	0.543	-0.116
-354.552	-40.083	-0.484	0.251
-353.537	-165.950	0.857	-0.036
-352.523	-89.628	0.588	-0.171
-351.508	-7.074	1.016	-0.686
-350.493	129.305	-1.009	-1.281
-349.479	-20.003	-0.338	0.207
-348.464	25.358	-0.527	-0.436
-347.450	15.212	0.249	-0.194
-346.435	-107.071	0.616	-0.135
-345.420	332.011	0.440	-0.844
-344.406	6.832	0.341	-0.252
-343.391	-200.000	-0.011	-0.406
-342.377	-57.411	0.306	-0.134
-341.362	-52.795	-0.734	-0.336
-340.348	-200.000	0.057	-0.464
-339.333	800.000	-0.403	-1.147
-338.318	-120.511	0.062	-0.010
-337.304	149.482	-0.270	0.364
-336.289	24.289	-0.434	-0.356
-335.275	-200.000	-0.022	-0.369
-334.260	-200.000	0.065	0.664
-333.245	-54.531	-0.499	0.224
-332.231	136.915	-0.258	-0.334
-331.216	-200.000	-0.051	0.633
-330.202	-200.000	0.043	0.276
-329.187	261.665	-0.078	0.135
-328.172	-200.000	-0.049	0.767
-327.158	35.421	-0.208	-0.182
-326.143	19.282	-0.182	0.145
-325.129	-17.031	-0.185	-0.116
-324.114	-65.537	0.224	0.089
-323.099	148.760	0.430	0.578
-322.085	-103.808	0.338	-0.078
-321.070	65.133	-0.558	0.560
-320.056	292.589	-0.394	-0.713
-319.041	384.656	-0.310	0.634
-318.026	335.792	0.342	0.659
-317.012	169.940	0.504	-0.715
-315.997	-125.117	-0.589	-0.090
-314.983	180.317	0.163	-0.238
-313.968	8.267	-0.931	-0.695
-312.953	-200.000	-0.043	0.352
-311.939	800.000	-0.168	0.629
-310.924	-36.350	-0.759	-0.406
-309.910	800.000	-0.142	-0.584
-308.895	-200.000	-0.045	-0.608
-307.880	-61.046	-0.401	0.168
-306.866	123.035	-0.495	0.616
-305.851	308.771	0.380	0.705
-304.837	800.000	0.218	0.600
-303.822	37.707	-0.391	0.344
-302.807	800.000	-0.085	-0.272
-301.793	-25.779	0.796	-0.466
-300.778	-59.201	0.077	-0.033
-299.764	-107.125	1.124	0.246
-298.749	88.018	0.272	0.300
-297.735	129.803	0.082	-0.104
-296.720	24.902	0.536	0.441
-295.705	42.249	0.401	-0.362
-294.691	800.000	0.169	-0.552
-293.676	57.916	0.030	-0.029
-292.662	-56.698	-0.152	-0.067
-291.647	-200.000	0.093	-0.653
-290.632	5.338	-0.275	-0.202
-289.618	-29.561	-0.799	-0.453
-288.603	64.346	0.559	-0.558
-287.589	238.485	0.482	-0.794
-286.574	118.933	-0.473	0.580
-285.559	128.677	-0.319	0.403
-284.545	800.000	-0.235	-0.987
-283.530	-131.656	-0.283	-0.037
-282.516	-200.000	0.092	0.591
-281.501	-80.773	1.134	0.374
-280.486	-110.371	0.401	-0.083
-279.472	22.400	-0.777	-0.630
-278.457	-58.931	0.433	0.186
-277.443	-200.000	0.015	-0.132
-276.428	-200.000	-0.143	0.637
-275.413	-200.000	-0.035	0.152
-274.399	362.182	-0.370	0.737
-273.384	-200.000	0.035	0.679
-272.370	258.333	-0.211	0.360
-271.355	-136.995	-0.609	-0.069
-270.340	46.527	-0.220	-0.203
-269.326	124.878	-0.542	0.677
-268.311	-5.278	-0.278	-0.189
-267.297	-136.025	0.272	0.032
-266.282	-125.010	0.780	0.119
-265.267	-176.576	-0.353	-0.009
-264.253	-122.013	0.821	-0.134
-263.238	-8.371	-0.162	0.108
-262.224	-187.957	-0.461	-0.006
-261.209	-65.186	0.267	-0.107
-260.195	10.950	-0.103	0.078
-259.180	48.839	-0.637	-0.593
-258.165	-20.560	0.485	0.295
-257.151	-65.034	0.142	-0.057
-256.136	-28.227	-0.178	0.102
-255.122	-178.613	0.397	0.009
-254.107	-200.000	0.097	0.500
-253.092	-200.000	-0.069	-0.403
-252.078	-200.000	-0.042	0.827
-251.063	-200.000	-0.065	-0.855
-250.049	-178.590	-0.396	-0.009
-249.034	51.604	-0.521	0.491
-248.019	-49.679	1.222	0.576
-247.005	-200.000	-0.111	-0.816
-245.990	183.241	-0.066	-0.096
-244.976	664.634	0.094	0.239
-243.961	264.080	-0.264	0.455
-242.946	426.736	-0.103	-0.219
-241.932	362.321	0.076	-0.151
-240.917	-200.000	-0.048	-0.478
-239.903	-5.194	0.477	-0.325
-238.888	-200.000	0.050	1.133
-237.873	44.160	-0.494	-0.448
-236.859	131.801	0.205	-0.261
-235.844	-200.000	-0.021	0.804
-234.830	-119.224	-0.485	-0.084
-233.815	33.554	0.186	-0.160
-232.800	24.315	-0.059	-0.048
-231.786	-33.121	-0.425	0.233
-230.771	800.000	-0.129	-0.423
-229.757	170.421	-0.193	0.274
-228.742	129.781	-0.220	0.279
-227.727	-91.065	-0.584	-0.166
-226.713	-66.925	-0.158	0.062
-225.698	-167.606	-0.476	0.019
-224.684	-8.125	0.428	-0.285
-223.669	-200.000	0.093	0.464
-222.655	-200.000	0.019	0.382
-221.640	-7.480	0.210	0.141
-220.625	-88.249	-0.713	0.211
-219.611	146.654	0.256	0.341
-218.596	-200.000	-0.053	0.314
-217.582	178.801	-0.202	-0.292
-216.567	32.946	0.375	0.321
-215.552	-96.128	0.707	0.186
-214.538	800.000	-0.222	0.828
-213.523	-103.768	-0.671	-0.155
-212.509	730.486	-0.311	-0.822
-211.494	-200.000	-0.076	0.705
-210.479	73.994	0.109	0.113
-209.465	208.123	-0.259	-0.400
-208.450	151.091	-0.149	0.201
-207.436	-200.000	0.055	-0.470
-206.421	702.603	-0.249	0.648
-205.406	-12.730	-0.477	0.307
-204.392	-83.964	-0.192	-0.061
-203.377	800.000	0.181	0.551
-202.363	576.549	0.168	-0.406
-201.348	96.234	0.369	0.417
-200.333	-45.215	-0.398	0.196
-199.319	-11.404	-0.566	0.368
-198.304	256.040	-0.206	-0.349
-197.290	174.600	-0.190	0.271
-196.275	769.322	-0.205	0.553
-195.260	-44.549	0.277	-0.137
-194.246	-34.467	0.698	0.378
-193.231	66.603	-0.397	-0.399
-192.217	-77.382	0.633	-0.217
-191.202	55.007	0.189	-0.180
-190.187	-10.477	0.662	0.433
-189.173	800.000	-0.070	-0.231
-188.158	-200.000	0.238	-1.126
-187.144	-200.000	-0.015	-0.276
-186.129	180.604	-0.046	0.067
-185.114	-15.354	-0.390	-0.247
-184.100	-182.467	0.492	0.009
-183.085	-78.773	0.222	-0.075
-182.071	150.037	-0.667	0.894
-181.056	-130.526	-0.445	0.059
-180.042	7.034	0.171	-0.126
-179.027	44.705	0.751	0.682
-178.012	-136.570	0.191	0.022
-176.998	430.398	0.169	-0.362
-175.983	45.476	-0.246	0.224
-174.969	-51.685	0.767	-0.353
-173.954	104.222	0.131	-0.152
-172.939	-71.366	0.412	0.153
-171.925	-41.065	-0.650	-0.332
-170.910	-39.415	-0.655	0.339
-169.896	-155.281	0.472	-0.030
-168.881	57.981	-0.519	0.502
-167.866	167.637	0.155	-0.218
-166.852	161.053	-0.129	0.178
-165.837	38.386	0.135	-0.119
-164.823	-59.843	0.421	-0.178
-163.808	-110.590	-0.814	-0.166
-162.793	-200.000	0.002	0.915
-161.779	-22.780	-0.102	-0.061
-160.764	72.262	0.453	0.466
-159.750	-21.119	0.438	-0.265
-158.735	234.903	-0.296	-0.482
-157.720	-200.000	0.032	0.350
-156.706	-200.000	0.054	0.422
-155.691	161.800	0.288	0.397
-154.677	800.000	-0.071	-0.261
-153.662	110.592	0.329	0.390
-152.647	-56.201	0.446	0.196
-151.633	38.112	0.685	0.602
-150.618	-17.977	-0.255	0.158
-149.604	131.007	0.659	0.834
-148.589	800.000	0.092	0.302
-147.574	-92.841	-0.340	-0.094
-146.560	645.771	0.373	-0.940
-145.545	-28.176	-0.177	-0.101
-144.531	12.037	0.438	0.332
-143.516	68.615	-0.258	0.261
-142.502	570.305	0.385	-0.923
-141.487	60.663	-0.302	-0.295
-140.472	-88.787	-0.158	-0.046
-139.458	-44.385	-0.622	0.307
-138.443	265.190	0.711	1.223
-137.429	91.917	0.308	-0.342
-136.414	-200.000	-0.056	0.406
-135.399	-200.000	0.202	-1.086
-134.385	800.000	-0.343	1.042
-133.370	-29.517	-0.637	-0.359
-132.356	-164.530	0.642	0.029
-131.341	26.278	0.715	0.589
-130.326	11.417	0.483	-0.365
-129.312	-135.114	0.588	-0.070
-128.297	-200.000	0.058	0.411
-127.283	-106.019	0.304	-0.067
-126.268	48.481	0.448	-0.414
-125.253	-4.083	-0.314	-0.215
-124.239	34.953	0.290	0.250
-123.224	66.321	0.525	-0.525
-122.210	-200.000	0.063	-0.292
-121.195	-101.751	0.469	0.112
