DTS Sentinel unit serial number:	SN413079Multiplexer serial number:	ORYXHardware model number:	OX4-SRSoftware version number:	ORYX F/W v4.00 Oryx Data Collector v3.7.2.0data status	okinstallation	princeton_trtdifferential loss correction	single-endedforward channel	channel 3reverse channel	N/Adate	2019/09/16time	04:36:35forward acquisition time	60.00reverse acquisition time	0.00gamma	496.2192k internal	0.2336k external	0.2336temperature offset calibration	0.9954default loss term (dB/km)	0.3790temperature slope calibration	1.0000multiplexer offset coefficient	1.0000multiplexer slope coefficient	1.0000fibre end	0.00T internal ref (°C)	27.25T ext. ref 1 (°C)	10.88T ext. ref 2 (°C)	21.40length (m)	temperature (°C)	Stokes	anti-Stokes-747.200	-125.105	-0.378	-0.058
-746.185	-200.000	0.053	0.275
-745.171	7.366	-0.160	0.120
-744.156	32.732	-0.271	0.235
-743.142	-2.058	0.191	-0.135
-742.127	-1.712	-0.401	0.283
-741.112	247.315	0.106	-0.180
-740.098	-200.000	0.013	0.210
-739.083	-200.000	0.024	0.178
-738.069	-165.059	-0.334	0.015
-737.054	149.841	0.201	0.274
-736.039	-107.771	0.128	0.028
-735.025	125.623	-0.116	-0.147
-734.010	-200.000	0.024	-0.178
-732.996	-46.152	-0.206	-0.102
-731.981	800.000	0.091	-0.292
-730.966	-25.798	-0.192	-0.113
-729.952	302.496	-0.167	-0.310
-728.937	-1.850	-0.466	-0.329
-727.923	-49.086	-0.651	-0.313
-726.908	-200.000	-0.007	-0.343
-725.894	800.000	0.043	-0.187
-724.879	104.738	-0.025	0.030
-723.864	14.200	0.165	0.129
-722.850	-18.788	-0.299	0.187
-721.835	-111.537	0.186	-0.038
-720.821	800.000	0.031	-0.119
-719.806	-200.000	-0.024	-0.251
-718.791	-200.000	-0.035	0.442
-717.777	-111.144	-0.271	0.056
-716.762	-104.987	0.276	-0.063
-715.748	-32.370	0.263	0.147
-714.733	59.440	-0.316	-0.313
-713.718	-200.000	0.011	0.062
-712.704	-200.000	0.029	0.187
-711.689	11.802	-0.154	-0.119
-710.675	-7.083	0.066	0.045
-709.660	-10.615	-0.291	-0.193
-708.645	-8.504	-0.321	0.217
-707.631	-200.000	0.028	0.178
-706.616	-200.000	-0.028	0.265
-705.602	800.000	0.101	0.392
-704.587	800.000	-0.029	0.103
-703.572	-72.773	0.191	-0.070
-702.558	-31.522	-0.215	-0.121
-701.543	-200.000	0.109	-0.481
-700.529	85.868	-0.164	0.181
-699.514	-138.837	0.061	0.007
-698.499	40.223	0.395	0.356
-697.485	-52.322	0.292	0.135
-696.470	90.676	-0.280	0.314
-695.456	-47.126	-0.428	-0.209
-694.441	-39.733	0.260	0.136
-693.426	-131.051	-0.124	-0.017
-692.412	5.050	0.194	-0.143
-691.397	-200.000	-0.051	-0.264
-690.383	800.000	0.055	-0.228
-689.368	174.388	0.038	0.055
-688.354	-114.828	-0.258	-0.049
-687.339	-113.564	0.324	0.064
-686.324	80.728	0.178	-0.192
-685.310	181.339	-0.089	0.131
-684.295	8.900	0.323	-0.244
-683.281	-200.000	-0.083	0.478
-682.266	-108.713	-0.133	-0.029
-681.251	-55.218	0.205	-0.092
-680.237	-115.070	0.444	-0.084
-679.222	-200.000	0.031	0.227
-678.208	153.375	0.109	-0.150
-677.193	152.560	-0.067	0.092
-676.178	209.529	-0.176	0.277
-675.164	-81.499	0.163	-0.054
-674.149	800.000	-0.014	0.043
-673.135	27.411	0.124	0.104
-672.120	-15.206	0.177	-0.113
-671.105	341.328	-0.099	-0.193
-670.091	-33.299	0.208	0.115
-669.076	-80.845	0.615	0.204
-668.062	-200.000	0.012	-0.109
-667.047	-6.088	0.156	-0.107
-666.032	800.000	0.121	0.371
-665.018	-71.266	-0.458	0.172
-664.003	-200.000	0.033	0.406
-662.989	14.012	-0.064	-0.050
-661.974	572.631	0.083	-0.203
-660.959	-135.950	-0.125	-0.015
-659.945	800.000	0.079	0.289
-658.930	-200.000	0.005	-0.161
-657.916	602.925	0.056	0.139
-656.901	-184.039	0.174	0.003
-655.886	-62.683	0.085	0.035
-654.872	152.096	-0.131	0.179
-653.857	3.530	-0.224	0.163
-652.843	64.230	-0.148	-0.149
-651.828	-24.751	0.150	-0.089
-650.814	-43.367	-0.033	-0.017
-649.799	43.825	-0.052	-0.048
-648.784	800.000	0.060	0.172
-647.770	2.785	-0.019	-0.014
-646.755	266.448	-0.024	-0.042
-645.741	-117.606	-0.462	-0.083
-644.726	800.000	-0.133	-0.381
-643.711	317.677	0.055	-0.104
-642.697	-85.236	0.347	0.108
-641.682	-9.063	-0.189	-0.127
-640.668	-200.000	-0.031	-0.221
-639.653	-92.452	-0.261	-0.073
-638.638	39.822	-0.042	-0.037
-637.624	-200.000	0.020	-0.156
-636.609	304.178	-0.257	0.477
-635.595	-172.372	-0.180	0.006
-634.580	800.000	-0.020	-0.084
-633.565	800.000	0.094	0.334
-632.551	496.722	0.023	-0.053
-631.536	398.607	0.066	-0.137
-630.522	-161.853	0.338	0.017
-629.507	800.000	0.036	0.105
-628.492	-39.193	0.126	-0.066
-627.478	7.348	-0.206	-0.154
-626.463	-97.042	0.260	0.068
-625.449	-74.492	-0.296	0.107
-624.434	-200.000	0.025	-0.172
-623.419	-43.356	0.286	-0.144
-622.405	379.536	-0.108	0.220
-621.390	535.915	0.022	-0.052
-620.376	-121.908	-0.335	-0.055
-619.361	800.000	0.043	0.180
-618.346	-66.609	0.276	0.109
-617.332	800.000	-0.044	-0.190
-616.317	178.212	0.172	-0.250
-615.303	-2.214	-0.022	0.015
-614.288	-85.297	-0.118	0.037
-613.273	18.577	-0.137	0.109
-612.259	-200.000	-0.005	0.196
-611.244	-130.605	-0.250	0.034
-610.230	-200.000	-0.017	-0.109
-609.215	-38.727	-0.095	-0.050
-608.201	16.830	0.114	0.090
-607.186	319.063	0.065	0.123
-606.171	506.604	0.065	0.151
-605.157	800.000	-0.038	0.158
-604.142	800.000	0.074	-0.298
-603.128	-200.000	0.051	-0.318
-602.113	800.000	0.089	0.260
-601.098	-2.086	-0.312	0.219
-600.084	-145.280	0.107	-0.010
-599.069	-64.608	0.081	0.033
-598.055	175.755	-0.034	-0.049
-597.040	-200.000	-0.039	-0.220
-596.025	-44.314	-0.040	0.020
-595.011	-106.326	0.065	-0.015
-593.996	800.000	-0.019	-0.073
-592.982	157.200	0.048	-0.067
-591.967	0.423	0.046	-0.033
-590.952	126.863	-0.191	-0.241
-589.938	-90.236	-0.287	0.083
-588.923	50.659	-0.145	0.137
-587.909	-14.432	0.299	-0.192
-586.894	335.412	-0.036	0.071
-585.879	-22.669	-0.103	0.062
-584.865	154.810	-0.036	0.049
-583.850	-8.311	-0.100	0.067
-582.836	-200.000	0.022	-0.191
-581.821	127.556	-0.122	-0.154
-580.806	165.702	0.024	0.034
-579.792	-53.067	-0.173	-0.079
-578.777	800.000	0.051	0.198
-577.763	227.473	0.152	0.247
-576.748	-200.000	0.036	0.347
-575.733	-130.343	-0.138	0.019
-574.719	240.255	-0.114	0.189
-573.704	800.000	0.114	-0.477
-572.690	-75.665	-0.090	0.032
-571.675	-200.000	0.048	-0.329
-570.661	312.260	-0.029	0.054
-569.646	-73.546	-0.269	0.098
-568.631	44.177	0.365	0.334
-567.617	-200.000	0.018	-0.260
-566.602	3.399	0.129	-0.094
-565.588	170.252	-0.038	0.054
-564.573	-22.956	0.117	0.071
-563.558	66.774	0.305	-0.310
-562.544	38.676	0.216	0.192
-561.529	-80.588	-0.314	0.104
-560.515	86.143	-0.207	-0.227
-559.500	-200.000	-0.024	0.158
-558.485	-89.873	-0.081	-0.024
-557.471	-200.000	0.019	-0.120
-556.456	230.163	-0.148	-0.242
-555.442	-200.000	-0.027	0.243
-554.427	-111.982	0.047	-0.010
-553.412	800.000	-0.096	-0.275
-552.398	-60.698	0.504	0.213
-551.383	-200.000	0.050	0.302
-550.369	-69.558	0.092	0.035
-549.354	762.384	-0.020	-0.053
-548.339	-150.562	-0.290	-0.022
-547.325	-48.055	-0.316	-0.152
-546.310	-200.000	0.026	0.187
-545.296	-53.327	0.536	0.245
-544.281	-72.986	-0.225	-0.082
-543.266	300.160	-0.139	0.255
-542.252	13.584	-0.079	0.061
-541.237	-200.000	-0.005	0.217
-540.223	-200.000	0.049	0.292
-539.208	36.758	0.240	0.212
-538.193	16.589	0.105	-0.083
-537.179	-117.220	-0.170	-0.031
-536.164	96.103	0.099	-0.112
-535.150	253.950	-0.077	-0.131
-534.135	-7.759	-0.117	-0.078
-533.121	-200.000	-0.054	-0.414
-532.106	680.368	-0.050	0.130
-531.091	-200.000	0.030	0.243
-530.077	-78.700	0.087	-0.030
-529.062	-52.371	-0.267	-0.123
-528.048	660.471	-0.084	-0.215
-527.033	87.811	0.027	0.030
-526.018	104.846	0.086	0.101
-525.004	-200.000	-0.021	0.176
-523.989	130.656	0.061	0.078
-522.975	83.562	-0.157	0.171
-521.960	-89.560	-0.089	-0.026
-520.945	800.000	0.008	-0.032
-519.931	289.636	0.164	0.296
-518.916	-3.185	-0.105	-0.073
-517.902	-153.725	-0.291	-0.020
-516.887	195.606	0.044	0.067
-515.872	126.400	0.162	-0.205
-514.858	-81.139	0.134	-0.044
-513.843	312.747	-0.037	0.070
-512.829	-85.405	0.083	-0.026
-511.814	62.812	-0.302	0.300
-510.799	153.006	0.097	0.131
-509.785	215.536	-0.191	-0.301
-508.770	447.217	-0.107	-0.233
-507.756	-15.237	0.142	0.090
-506.741	-3.155	-0.087	-0.060
-505.726	-200.000	-0.023	0.109
-504.712	290.341	-0.107	0.194
-503.697	-123.790	0.254	-0.040
-502.683	-34.711	-0.286	-0.156
-501.668	-135.533	0.167	-0.020
-500.653	227.367	-0.166	0.269
-499.639	-200.000	-0.070	-0.373
-498.624	103.944	-0.255	-0.298
-497.610	373.004	0.061	-0.124
-496.595	800.000	0.029	0.110
-495.581	271.829	-0.179	-0.314
-494.566	-62.640	0.348	-0.143
-493.551	-83.011	-0.218	0.070
-492.537	-48.409	-0.109	0.052
-491.522	-155.785	-0.116	0.007
-490.508	-128.526	0.323	-0.046
-489.493	-183.776	0.190	0.003
-488.478	-97.403	0.198	0.051
-487.464	-200.000	0.030	-0.132
-486.449	274.449	-0.064	-0.113
-485.435	-139.926	-0.166	-0.017
-484.420	694.497	-0.091	-0.238
-483.405	-169.186	-0.252	0.009
-482.391	283.641	0.095	-0.169
-481.376	70.231	-0.204	-0.209
-480.362	111.233	-0.198	-0.237
-479.347	-200.000	-0.046	-0.381
-478.332	-31.645	0.212	0.118
-477.318	-140.889	-0.124	-0.013
-476.303	80.465	-0.070	-0.075
-475.289	-200.000	-0.060	-0.526
-474.274	-130.513	0.146	0.020
-473.259	800.000	-0.011	0.032
-472.245	23.725	-0.193	-0.158
-471.230	-126.175	0.126	-0.019
-470.216	-200.000	0.012	0.140
-469.201	800.000	0.117	-0.380
-468.186	226.053	0.186	-0.300
-467.172	30.760	-0.062	-0.053
-466.157	800.000	0.086	0.264
-465.143	292.572	0.034	0.062
-464.128	-93.963	0.347	-0.095
-463.113	647.847	-0.048	-0.123
-462.099	5.266	0.191	0.140
-461.084	-200.000	0.015	-0.107
-460.070	-71.088	-0.180	0.067
-459.055	-200.000	0.008	-0.158
-458.040	-200.000	-0.042	0.559
-457.026	-121.831	-0.068	-0.011
-456.011	-200.000	0.026	-0.199
-454.997	-0.132	-0.062	0.044
-453.982	-200.000	-0.011	0.194
-452.968	-200.000	-0.033	-0.416
-451.953	-24.697	0.341	0.201
-450.938	-200.000	-0.048	0.232
-449.924	-54.089	-0.293	-0.132
-448.909	-47.935	-0.247	0.119
-447.895	-35.916	0.480	-0.258
-446.880	-8.779	-0.079	0.053
-445.865	168.354	-0.093	0.132
-444.851	-38.429	0.247	-0.130
-443.836	5.730	-0.220	-0.161
-442.822	-109.513	0.140	0.029
-441.807	-122.278	-0.313	0.051
-440.792	340.051	0.064	0.123
-439.778	-180.527	0.278	-0.006
-438.763	613.814	-0.131	0.325
-437.749	338.347	0.175	0.337
-436.734	-172.717	0.022	0.001
-435.719	286.636	0.040	0.071
-434.705	-200.000	-0.017	0.224
-433.690	190.574	0.039	-0.058
-432.676	-110.521	0.446	0.092
-431.661	-81.536	0.178	-0.058
-430.646	-200.000	-0.006	0.075
-429.632	99.323	-0.117	-0.135
-428.617	215.059	-0.055	0.086
-427.603	2.381	-0.162	-0.116
-426.588	66.871	-0.113	-0.114
-425.573	-200.000	-0.033	-0.337
-424.559	180.496	-0.155	0.225
-423.544	-137.182	0.114	0.013
-422.530	132.606	0.101	-0.129
-421.515	-41.118	-0.178	-0.091
-420.500	-200.000	0.020	0.336
-419.486	186.197	-0.246	0.363
-418.471	502.657	0.117	0.269
-417.457	-200.000	0.044	-0.444
-416.442	27.120	0.253	0.211
-415.428	-170.298	-0.470	0.016
-414.413	87.298	0.115	0.126
-413.398	-200.000	-0.026	-0.336
-412.384	-200.000	-0.008	-0.315
-411.369	91.888	0.196	-0.219
-410.355	18.495	0.184	0.146
-409.340	-51.208	0.153	0.071
-408.325	-200.000	0.014	-0.158
-407.311	-102.856	-0.221	-0.052
-406.296	-22.847	0.243	0.145
-405.282	-200.000	-0.007	0.068
-404.267	312.781	-0.037	0.070
-403.252	197.328	-0.146	0.220
-402.238	800.000	0.037	-0.109
-401.223	-114.521	0.164	0.031
-400.209	-15.269	-0.225	0.142
-399.194	-130.858	0.103	0.014
-398.179	115.377	-0.033	-0.041
-397.165	800.000	-0.052	-0.178
-396.150	724.458	0.080	-0.212
-395.136	-200.000	-0.027	0.262
-394.121	-200.000	0.008	-0.058
-393.106	12.345	-0.205	-0.157
-392.092	28.190	-0.154	-0.129
-391.077	174.420	0.087	-0.125
-390.063	9.575	0.213	0.160
-389.048	77.550	-0.220	0.232
-388.033	-200.000	0.009	-0.056
-387.019	-75.885	0.200	-0.070
-386.004	-200.000	-0.003	0.336
-384.990	-116.785	0.355	-0.064
-383.975	148.570	-0.125	0.167
-382.960	20.015	-0.179	-0.143
-381.946	4.746	0.196	-0.142
-380.931	-4.632	0.243	-0.166
-379.917	800.000	0.147	-0.420
-378.902	131.863	-0.168	-0.215
-377.888	-43.435	0.310	-0.155
-376.873	528.525	0.023	0.054
-375.858	-200.000	0.001	0.252
-374.844	169.870	-0.085	-0.120
-373.829	148.988	-0.167	-0.223
-372.815	37.399	-0.280	-0.246
-371.800	546.060	-0.110	-0.260
-370.785	-154.280	-0.126	0.008
-369.771	-56.422	-0.039	-0.017
-368.756	10.506	-0.161	-0.121
-367.742	-91.481	0.206	0.058
-366.727	170.965	0.143	0.203
-365.712	-28.270	0.271	0.155
-364.698	315.505	0.098	-0.182
-363.683	275.239	-0.046	0.080
-362.669	800.000	-0.113	0.363
-361.654	-99.003	0.305	-0.077
-360.639	47.388	0.302	0.278
-359.625	800.000	-0.062	-0.200
-358.610	-86.571	-0.081	0.025
-357.596	-74.170	-0.199	0.071
-356.581	-200.000	-0.050	-0.244
-355.566	-200.000	0.000	-0.282
-354.552	655.313	-0.059	0.151
-353.537	155.185	-0.118	-0.160
-352.523	800.000	0.062	0.207
-351.508	198.678	0.077	-0.117
-350.493	-200.000	-0.001	0.120
-349.479	-200.000	-0.075	0.361
-348.464	38.208	0.251	0.221
-347.450	-200.000	-0.005	0.025
-346.435	-68.016	-0.104	-0.040
-345.420	341.519	0.042	-0.080
-344.406	387.555	0.054	0.110
-343.391	234.489	0.089	-0.146
-342.377	-200.000	0.018	0.082
-341.362	-170.525	0.243	-0.008
-340.348	226.016	-0.044	0.070
-339.333	62.256	-0.191	-0.188
-338.318	-82.575	0.130	0.042
-337.304	-25.221	0.032	0.019
-336.289	241.391	-0.027	0.045
-335.275	-200.000	-0.030	0.232
-334.260	-102.378	-0.321	0.076
-333.245	82.519	0.192	0.206
-332.231	-200.000	-0.060	-0.365
-331.216	-26.924	-0.121	-0.070
-330.202	464.042	0.108	-0.238
-329.187	-86.129	-0.135	0.041
-328.172	463.891	0.105	0.231
-327.158	-138.583	0.247	-0.027
-326.143	-200.000	-0.005	-0.181
-325.129	14.583	-0.200	-0.154
-324.114	762.079	-0.069	0.186
-323.099	800.000	0.066	-0.216
-322.085	-136.548	0.199	-0.023
-321.070	189.578	0.096	-0.143
-320.056	-113.193	-0.365	-0.071
-319.041	800.000	-0.101	-0.291
-318.026	20.616	0.251	-0.201
-317.012	800.000	-0.108	-0.340
-315.997	8.816	-0.317	0.236
-314.983	63.718	-0.117	-0.116
-313.968	746.714	-0.078	-0.209
-312.953	190.739	-0.142	-0.211
-311.939	-11.990	-0.109	-0.070
-310.924	-200.000	0.028	0.139
-309.910	343.159	-0.084	0.163
-308.895	166.073	-0.120	0.167
-307.880	-200.000	-0.003	-0.124
-306.866	172.052	0.241	-0.342
-305.851	-100.970	-0.206	-0.050
-304.837	198.396	-0.170	0.257
-303.822	139.979	-0.231	0.301
-302.807	800.000	-0.032	0.127
-301.793	-6.451	-0.118	0.079
-300.778	-33.385	0.469	0.256
-299.764	-200.000	0.019	0.121
-298.749	420.060	0.042	0.089
-297.735	-110.880	-0.228	0.046
-296.720	-200.000	0.004	-0.194
-295.705	-33.213	0.277	-0.151
-294.691	-200.000	-0.069	0.361
-293.676	-16.558	-0.156	0.098
-292.662	30.163	0.228	0.192
-291.647	47.415	0.152	-0.139
-290.632	-200.000	-0.019	0.124
-289.618	101.508	0.219	0.252
-288.603	623.505	-0.043	-0.106
-287.589	800.000	-0.036	-0.099
-286.574	3.692	-0.212	0.153
-285.559	0.728	0.216	-0.152
-284.545	-38.605	0.193	-0.100
-283.530	194.101	-0.047	-0.071
-282.516	-80.752	0.168	-0.055
-281.501	800.000	0.093	0.292
-280.486	185.720	0.053	-0.078
-279.472	477.944	0.024	0.054
-278.457	76.704	-0.206	0.215
-277.443	-200.000	0.040	-0.182
-276.428	-101.043	-0.258	-0.062
-275.413	-102.424	0.130	-0.031
-274.399	799.921	-0.116	-0.316
-273.384	195.153	-0.185	0.277
-272.370	-200.000	-0.024	0.123
-271.355	-36.295	-0.199	-0.106
-270.340	-98.138	-0.230	0.058
-269.326	-200.000	-0.058	0.272
-268.311	-200.000	0.029	0.142
-267.297	800.000	0.097	-0.279
-266.282	800.000	-0.101	0.370
-265.267	14.645	-0.162	0.124
-264.253	-140.431	-0.207	-0.021
-263.238	219.171	-0.032	0.051
-262.224	596.291	-0.116	0.283
-261.209	-101.238	0.170	0.041
-260.195	-39.917	0.436	0.224
-259.180	-71.448	0.237	-0.088
-258.165	-50.209	0.393	-0.183
-257.151	800.000	-0.071	-0.260
-256.136	142.015	-0.145	-0.190
-255.122	413.410	0.098	-0.204
-254.107	-150.557	-0.077	-0.006
-253.092	800.000	-0.046	0.143
-252.078	-47.473	-0.425	0.203
-251.063	-44.486	0.419	-0.207
-250.049	-70.869	0.128	-0.047
-249.034	-200.000	-0.013	0.155
-248.019	-181.632	-0.111	-0.002
-247.005	347.852	-0.042	0.081
-245.990	104.269	-0.074	-0.086
-244.976	772.454	-0.122	0.326
-243.961	0.923	0.196	0.138
-242.946	-102.250	-0.093	0.022
-241.932	800.000	0.033	0.092
-240.917	-173.163	-0.165	0.005
-239.903	800.000	-0.046	0.194
-238.888	288.058	0.137	0.245
-237.873	148.043	0.116	0.154
-236.859	8.171	0.141	-0.104
-235.844	-118.455	0.561	0.098
-234.830	289.955	0.038	-0.068
-233.815	800.000	-0.050	0.162
-232.800	-48.499	0.103	0.049
-231.786	-10.419	0.229	-0.149
-230.771	-82.752	-0.148	-0.047
-229.757	787.254	0.115	-0.309
-228.742	800.000	0.082	0.267
-227.727	-126.433	-0.150	0.022
-226.713	-61.646	0.273	0.113
-225.698	-200.000	0.011	0.133
-224.684	87.339	0.082	0.089
-223.669	-192.638	0.256	0.002
-222.655	-169.573	0.184	-0.007
-221.640	294.199	-0.050	-0.090
-220.625	-67.763	0.314	0.121
-219.611	-200.000	-0.003	0.106
-218.596	42.715	-0.025	0.022
-217.582	-129.745	-0.124	-0.017
-216.567	-79.420	-0.259	0.086
-215.552	-173.333	0.463	-0.014
-214.538	-109.947	0.105	0.022
-213.523	133.257	-0.027	0.035
-212.509	514.329	-0.094	-0.215
-211.494	232.813	0.034	-0.055
-210.479	-200.000	-0.000	-0.111
-209.465	-167.384	0.268	-0.011
-208.450	309.689	-0.067	-0.124
-207.436	514.045	-0.086	-0.198
-206.421	-200.000	-0.003	-0.109
-205.406	-0.992	-0.213	0.148
-204.392	-13.881	-0.217	-0.138
-203.377	800.000	0.064	0.223
-202.363	175.214	0.137	-0.195
-201.348	-200.000	-0.003	0.211
-200.333	-200.000	0.005	-0.221
-199.319	-92.971	-0.216	-0.059
-198.304	0.256	0.093	0.065
-197.290	-111.297	0.296	-0.060
-196.275	-200.000	0.003	-0.286
-195.260	525.343	-0.056	0.130
-194.246	269.807	0.192	0.332
-193.231	351.594	-0.070	-0.135
-192.217	225.388	-0.150	-0.239
-191.202	138.540	0.134	-0.173
-190.187	-104.541	0.256	0.058
-189.173	-135.553	0.182	-0.021
-188.158	67.841	-0.273	0.275
-187.144	-200.000	-0.014	0.243
-186.129	93.114	0.042	-0.047
-185.114	-76.684	-0.430	0.148
-184.100	800.000	-0.100	0.350
-183.085	54.482	-0.211	0.200
-182.071	137.603	0.076	-0.098
-181.056	237.699	0.135	-0.220
-180.042	529.202	-0.058	0.135
-179.027	-46.681	-0.163	0.078
-178.012	-74.680	-0.266	0.094
-176.998	46.180	0.337	-0.306
-175.983	-51.957	0.239	-0.109
-174.969	-149.983	-0.038	0.003
-173.954	-200.000	-0.023	-0.137
-172.939	721.786	0.056	-0.147
-171.925	-18.436	-0.172	0.105
-170.910	-200.000	0.042	-0.251
-169.896	284.943	0.091	0.161
-168.881	-200.000	-0.061	0.327
-167.866	393.058	-0.175	-0.357
-166.852	-117.163	0.245	0.044
-165.837	-200.000	-0.006	0.130
-164.823	-88.357	0.047	-0.014
-163.808	-59.372	0.229	-0.097
-162.793	-109.538	0.124	0.026
-161.779	327.264	-0.164	0.309
-160.764	-67.301	-0.457	0.176
-159.750	117.743	-0.042	-0.051
-158.735	40.511	0.188	-0.166
-157.720	-85.266	0.173	-0.053
-156.706	-200.000	0.010	-0.313
-155.691	-159.001	-0.353	-0.020
-154.677	439.876	0.234	0.503
-153.662	195.196	0.063	0.094
-152.647	-141.910	-0.333	-0.033
-151.633	520.410	0.186	0.428
-150.618	-144.957	0.087	-0.008
-149.604	108.928	0.249	0.292
-148.589	-135.066	-0.219	-0.026
-147.574	-200.000	0.018	-0.249
-146.560	1.145	0.241	-0.170
-145.545	59.602	0.288	0.278
-144.531	-111.542	0.125	-0.025
-143.516	-109.440	-0.272	0.056
-142.502	-8.988	0.126	0.083
-141.487	800.000	-0.056	0.194
-140.472	63.266	0.092	0.090
-139.458	-200.000	0.005	0.213
-138.443	800.000	-0.072	0.249
-137.429	-117.363	-0.107	-0.019
-136.414	-73.725	-0.265	-0.095
-135.399	-200.000	0.036	-0.200
-134.385	-33.812	-0.193	-0.104
-133.370	-200.000	-0.050	-0.292
-132.356	25.362	0.143	-0.117
-131.341	556.126	0.082	-0.193
-130.326	-127.253	0.226	0.032
-129.312	29.607	0.129	0.107
-128.297	628.869	0.125	0.309
-127.283	-66.560	0.197	-0.077
-126.268	-200.000	-0.024	-0.211
-125.253	-78.136	0.091	0.031
-124.239	27.218	0.161	-0.132
-123.224	71.341	-0.238	-0.242
-122.210	29.318	0.170	0.142
-121.195	-200.000	0.054	0.286
