DTS Sentinel unit serial number:	SN413079Multiplexer serial number:	ORYXHardware model number:	OX4-SRSoftware version number:	ORYX F/W v4.00 Oryx Data Collector v3.7.2.0data status	okinstallation	princeton_trtdifferential loss correction	single-endedforward channel	channel 3reverse channel	N/Adate	2019/09/18time	17:12:34forward acquisition time	60.00reverse acquisition time	0.00gamma	496.2192k internal	0.2294k external	0.2294temperature offset calibration	0.9984default loss term (dB/km)	0.3790temperature slope calibration	1.0000multiplexer offset coefficient	1.0000multiplexer slope coefficient	1.0000fibre end	0.00T internal ref (°C)	39.87T ext. ref 1 (°C)	0.88T ext. ref 2 (°C)	35.10length (m)	temperature (°C)	Stokes	anti-Stokes-747.200	-79.995	0.101	-0.035
-746.185	-200.000	-0.006	-0.129
-745.171	-142.603	-0.111	0.011
-744.156	-200.000	-0.079	0.442
-743.142	317.427	0.072	-0.140
-742.127	-200.000	-0.055	0.297
-741.112	-103.970	-0.138	0.033
-740.098	-200.000	0.031	0.357
-739.083	-105.051	-0.118	0.028
-738.069	68.473	0.085	0.089
-737.054	-107.442	0.069	0.015
-736.039	-148.936	-0.238	-0.020
-735.025	800.000	0.137	0.543
-734.010	-144.648	-0.111	0.010
-732.996	-200.000	0.044	0.252
-731.981	-200.000	-0.033	-0.216
-730.966	77.278	-0.222	-0.242
-729.952	-140.801	0.422	0.044
-728.937	-150.632	-0.354	0.028
-727.923	392.282	-0.111	0.236
-726.908	-138.426	-0.196	-0.022
-725.894	40.428	0.072	-0.066
-724.879	-200.000	-0.046	-0.272
-723.864	-200.000	0.025	0.129
-722.850	800.000	0.045	-0.150
-721.835	195.585	-0.077	-0.119
-720.821	800.000	0.004	-0.014
-719.806	-200.000	0.025	0.289
-718.791	-93.813	0.206	-0.058
-717.777	534.116	0.118	-0.285
-716.762	800.000	-0.078	-0.276
-715.748	235.406	-0.035	-0.058
-714.733	46.985	0.130	0.123
-713.718	800.000	0.093	-0.275
-712.704	-100.163	-0.210	-0.053
-711.689	18.137	0.156	0.127
-710.675	68.370	-0.170	0.177
-709.660	-200.000	0.017	0.089
-708.645	-200.000	0.029	0.143
-707.631	385.039	0.202	0.425
-706.616	61.497	-0.211	-0.214
-705.602	-200.000	-0.001	0.044
-704.587	-99.634	-0.209	-0.054
-703.572	153.885	-0.038	-0.053
-702.558	-164.683	0.325	-0.015
-701.543	800.000	0.075	0.253
-700.529	73.761	-0.185	-0.198
-699.514	-93.775	0.268	0.075
-698.499	-96.364	0.069	0.019
-697.485	-37.815	-0.246	0.134
-696.470	247.312	0.124	-0.214
-695.456	-80.778	0.281	-0.095
-694.441	11.494	-0.287	-0.224
-693.426	-200.000	-0.003	-0.111
-692.412	-195.885	0.246	-0.002
-691.397	-200.000	-0.044	-0.259
-690.383	-88.608	-0.265	-0.080
-689.368	-30.038	-0.118	0.068
-688.354	509.965	-0.063	0.149
-687.339	513.938	0.129	-0.308
-686.324	-200.000	-0.038	-0.184
-685.310	-35.399	0.062	0.034
-684.295	-200.000	-0.015	0.257
-683.281	765.235	-0.152	0.423
-682.266	-200.000	-0.015	0.219
-681.251	800.000	-0.068	-0.297
-680.237	-71.752	0.072	0.027
-679.222	-141.889	-0.327	0.033
-678.208	800.000	0.032	0.129
-677.193	260.329	-0.159	-0.281
-676.178	-106.497	0.097	0.022
-675.164	-91.213	0.311	0.091
-674.149	800.000	-0.021	0.083
-673.135	-71.900	-0.112	-0.042
-672.120	10.461	0.197	-0.153
-671.105	-31.666	-0.221	0.127
-670.091	64.251	-0.219	0.225
-669.076	231.963	-0.081	0.136
-668.062	-120.439	0.211	0.037
-667.047	504.262	-0.023	-0.054
-666.032	-29.411	-0.194	-0.113
-665.018	-200.000	-0.004	-0.375
-664.003	-200.000	-0.042	-0.281
-662.989	800.000	0.032	0.094
-661.974	-32.899	-0.144	-0.081
-660.959	-200.000	0.012	-0.212
-659.945	-73.087	0.177	0.066
-658.930	-118.693	0.068	0.012
-657.916	204.496	0.081	0.129
-656.901	-156.555	-0.320	0.020
-655.886	800.000	-0.059	-0.175
-654.872	-161.295	-0.122	-0.006
-653.857	-39.137	-0.094	-0.051
-652.843	374.679	-0.102	-0.211
-651.828	-60.834	-0.217	-0.093
-650.814	225.448	-0.134	-0.221
-649.799	179.908	0.062	-0.093
-648.784	800.000	-0.059	0.184
-647.770	-93.455	-0.113	-0.032
-646.755	254.972	0.150	-0.262
-645.741	41.681	-0.271	0.250
-644.726	-200.000	-0.033	0.154
-643.711	152.271	-0.139	-0.193
-642.697	800.000	-0.040	0.117
-641.682	-200.000	-0.070	-0.315
-640.668	-45.845	-0.232	-0.117
-639.653	-180.346	0.174	0.004
-638.638	-48.127	0.225	-0.111
-637.624	270.558	0.078	-0.139
-636.609	-15.383	0.302	0.197
-635.595	-200.000	-0.008	0.193
-634.580	-148.424	-0.249	-0.021
-633.565	-29.784	-0.227	0.132
-632.551	419.463	0.142	-0.309
-631.536	51.035	0.131	-0.127
-630.522	-69.988	0.183	0.071
-629.507	35.054	0.175	-0.156
-628.492	-200.000	-0.008	-0.093
-627.478	337.610	0.155	0.307
-626.463	-92.165	-0.099	0.029
-625.449	-64.984	-0.312	-0.128
-624.434	-60.426	-0.281	-0.122
-623.419	800.000	0.107	-0.322
-622.405	-42.240	-0.183	-0.095
-621.390	282.422	-0.091	0.166
-620.376	-172.604	-0.290	0.009
-619.361	-140.992	-0.247	0.026
-618.346	-93.303	0.186	0.052
-617.332	132.012	0.028	0.037
-616.317	42.690	-0.317	0.294
-615.303	8.391	-0.064	0.049
-614.288	-98.135	-0.165	-0.043
-613.273	271.235	0.006	-0.010
-612.259	85.806	-0.166	-0.186
-611.244	-168.012	-0.116	-0.005
-610.230	-100.116	-0.151	0.038
-609.215	-47.246	0.199	0.099
-608.201	-57.169	0.098	0.044
-607.186	147.637	0.020	-0.027
-606.171	-34.868	0.323	-0.179
-605.157	-29.229	0.035	-0.021
-604.142	-93.566	0.236	0.066
-603.128	-136.613	-0.160	-0.019
-602.113	800.000	-0.037	-0.146
-601.098	493.442	0.197	-0.460
-600.084	-105.175	-0.206	0.048
-599.069	-200.000	-0.032	-0.321
-598.055	-178.549	0.198	-0.005
-597.040	-100.869	0.319	-0.080
-596.025	89.954	0.294	-0.334
-595.011	-151.049	-0.246	-0.019
-593.996	-200.000	0.015	0.076
-592.982	-118.748	-0.438	-0.078
-591.967	91.376	0.063	0.073
-590.952	128.856	0.164	-0.212
-589.938	148.511	-0.227	-0.312
-588.923	430.128	-0.195	-0.428
-587.909	322.795	0.078	0.152
-586.894	-39.706	0.210	0.111
-585.879	-200.000	0.019	0.191
-584.865	177.055	0.081	0.120
-583.850	-36.311	-0.245	-0.134
-582.836	-200.000	-0.020	-0.227
-581.821	-131.715	-0.287	-0.038
-580.806	-125.029	-0.080	0.012
-579.792	800.000	-0.139	-0.406
-578.777	-200.000	0.056	-0.287
-577.763	-118.157	-0.153	-0.028
-576.748	-98.741	0.140	0.036
-575.733	-200.000	0.063	-0.430
-574.719	-159.160	-0.334	0.019
-573.704	144.220	-0.161	-0.219
-572.690	-5.311	-0.244	0.170
-571.675	113.262	-0.092	-0.113
-570.661	-110.739	0.374	0.078
-569.646	160.749	-0.125	-0.178
-568.631	-86.977	0.191	-0.059
-567.617	117.023	0.300	-0.375
-566.602	-200.000	-0.008	0.135
-565.588	800.000	0.067	-0.238
-564.573	800.000	-0.014	0.047
-563.558	-74.026	-0.150	-0.055
-562.544	-200.000	-0.071	0.366
-561.529	800.000	-0.008	-0.037
-560.515	-147.331	-0.258	-0.022
-559.500	15.070	0.248	-0.197
-558.485	-200.000	-0.047	-0.317
-557.471	800.000	-0.056	-0.215
-556.456	-200.000	0.010	0.070
-555.442	2.774	-0.127	-0.094
-554.427	-200.000	-0.015	0.272
-553.412	-66.077	-0.073	-0.030
-552.398	287.965	-0.220	0.405
-551.383	243.754	-0.071	0.121
-550.369	22.652	0.166	-0.138
-549.354	326.993	0.132	-0.257
-548.339	54.954	-0.094	0.092
-547.325	-100.037	-0.038	-0.010
-546.310	442.270	0.203	-0.450
-545.296	35.441	-0.178	0.159
-544.281	94.993	-0.336	-0.388
-543.266	-200.000	-0.020	-0.126
-542.252	285.038	-0.064	-0.116
-541.237	-168.323	0.348	0.014
-540.223	138.707	-0.066	-0.088
-539.208	-133.733	-0.126	-0.016
-538.193	-22.578	0.179	0.110
-537.179	800.000	0.089	0.341
-536.164	-108.341	0.235	-0.051
-535.150	-34.845	-0.030	-0.016
-534.135	-127.324	0.101	0.015
-533.121	-134.429	0.111	-0.014
-532.106	468.098	-0.065	-0.147
-531.091	800.000	0.008	0.034
-530.077	12.971	-0.208	0.163
-529.062	-94.447	0.184	0.051
-528.048	292.693	0.106	0.196
-527.033	-23.240	0.160	0.098
-526.018	-152.823	0.134	0.010
-525.004	42.406	0.351	0.324
-523.989	800.000	0.017	-0.064
-522.975	-45.726	-0.144	-0.072
-521.960	183.263	0.060	0.090
-520.945	-90.672	0.453	0.133
-519.931	-115.369	0.474	-0.091
-518.916	280.464	-0.038	0.070
-517.902	-200.000	0.021	-0.191
-516.887	-200.000	-0.019	-0.183
-515.872	-200.000	0.049	-0.295
-514.858	-100.353	0.100	0.025
-513.843	68.682	-0.102	0.106
-512.829	-98.777	-0.093	-0.024
-511.814	98.536	-0.115	0.134
-510.799	-65.692	-0.117	-0.048
-509.785	800.000	-0.097	-0.304
-508.770	-170.311	-0.128	0.005
-507.756	81.738	-0.227	0.249
-506.741	-200.000	-0.040	-0.241
-505.726	-66.747	-0.238	-0.096
-504.712	698.717	0.058	-0.155
-503.697	-49.559	0.075	0.036
-502.683	800.000	0.093	0.279
-501.668	514.221	0.086	-0.204
-500.653	124.144	-0.071	0.090
-499.639	71.210	-0.233	-0.245
-498.624	-149.261	-0.353	-0.029
-497.610	254.474	-0.122	0.211
-496.595	-127.711	-0.137	0.020
-495.581	800.000	0.063	-0.265
-494.566	-200.000	-0.020	-0.183
-493.551	-67.767	0.210	-0.083
-492.537	800.000	-0.053	-0.233
-491.522	-92.184	-0.199	-0.057
-490.508	375.780	-0.125	-0.257
-489.493	163.967	0.167	0.238
-488.478	800.000	-0.150	-0.483
-487.464	2.432	-0.190	-0.139
-486.449	-165.950	0.073	-0.003
-485.435	95.858	0.099	0.115
-484.420	-175.114	0.236	0.007
-483.405	-141.636	0.199	0.020
-482.391	-91.605	-0.216	-0.062
-481.376	103.681	0.228	0.271
-480.362	364.798	0.082	0.167
-479.347	134.854	-0.136	-0.179
-478.332	-61.728	0.273	-0.116
-477.318	270.935	-0.162	-0.289
-476.303	-51.781	0.398	-0.187
-475.289	-80.290	-0.239	-0.081
-474.274	-200.000	0.001	-0.220
-473.259	-124.272	-0.222	0.035
-472.245	-111.070	0.143	0.030
-471.230	-87.881	0.286	0.087
-470.216	-200.000	0.012	0.147
-469.201	-200.000	0.015	0.103
-468.186	-200.000	-0.334	-0.001
-467.172	176.216	0.101	-0.148
-466.157	45.266	-0.277	-0.258
-465.143	-200.000	-0.015	0.242
-464.128	-200.000	-0.012	0.350
-463.113	-113.175	0.147	-0.029
-462.099	-138.588	0.179	0.020
-461.084	25.177	-0.063	-0.053
-460.070	-96.212	0.141	0.038
-459.055	800.000	-0.025	0.081
-458.040	350.862	-0.078	0.156
-457.026	-42.682	-0.383	-0.197
-456.011	-200.000	0.021	0.143
-454.997	-27.603	0.367	-0.215
-453.982	-66.295	-0.100	0.040
-452.968	-200.000	-0.023	-0.226
-451.953	-16.434	0.233	0.149
-450.938	800.000	0.076	-0.273
-449.924	-200.000	0.013	0.069
-448.909	-200.000	-0.081	-0.389
-447.895	800.000	0.070	-0.285
-446.880	257.062	0.005	-0.008
-445.865	800.000	-0.044	0.136
-444.851	146.277	0.174	0.235
-443.836	12.590	0.428	-0.334
-442.822	110.576	-0.116	-0.141
-441.807	-200.000	0.018	0.261
-440.792	-200.000	-0.054	0.350
-439.778	-8.821	-0.261	0.177
-438.763	107.027	-0.045	0.054
-437.749	355.860	-0.100	-0.202
-436.734	-115.881	0.197	-0.037
-435.719	-200.000	-0.070	-0.360
-434.705	-136.185	0.345	0.041
-433.690	-86.688	0.177	-0.055
-432.676	-81.836	-0.237	0.078
-431.661	-88.353	0.191	-0.058
-430.646	-60.062	-0.383	0.165
-429.632	-182.155	0.483	0.009
-428.617	-200.000	-0.057	0.387
-427.603	59.630	0.180	0.179
-426.588	-200.000	-0.037	-0.214
-425.573	-200.000	0.012	0.099
-424.559	-35.809	0.207	0.113
-423.544	-51.106	0.238	0.113
-422.530	-13.471	-0.357	-0.234
-421.515	174.376	-0.060	0.087
-420.500	-14.713	0.091	0.059
-419.486	576.896	0.026	0.065
-418.471	800.000	0.105	-0.339
-417.457	-70.487	-0.081	0.031
-416.442	-200.000	0.095	0.428
-415.428	-6.139	0.164	-0.113
-414.413	-124.294	-0.068	-0.011
-413.398	320.451	0.068	-0.130
-412.384	-95.506	0.065	-0.018
-411.369	41.963	-0.165	0.151
-410.355	196.662	-0.061	-0.094
-409.340	-73.847	0.105	0.039
-408.325	219.989	-0.101	-0.164
-407.311	-95.604	0.308	0.083
-406.296	-115.404	0.195	-0.037
-405.282	-93.755	0.051	0.014
-404.267	800.000	-0.097	-0.350
-403.252	605.432	0.058	-0.147
-402.238	-28.682	-0.127	0.074
-401.223	503.869	0.143	0.333
-400.209	-200.000	-0.020	-0.282
-399.194	-200.000	-0.029	-0.400
-398.179	-200.000	0.028	-0.274
-397.165	-136.277	-0.163	0.019
-396.150	-110.820	-0.360	0.075
-395.136	-200.000	0.043	-0.291
-394.121	-88.486	0.137	-0.041
-393.106	65.954	-0.074	0.076
-392.092	-47.158	0.060	0.030
-391.077	-200.000	0.029	-0.396
-390.063	454.323	-0.085	0.191
-389.048	-50.492	-0.502	0.239
-388.033	-105.958	-0.080	-0.018
-387.019	-23.292	0.121	0.073
-386.004	78.241	0.243	0.261
-384.990	-200.000	0.062	0.323
-383.975	800.000	-0.070	0.223
-382.960	-114.178	-0.078	-0.015
-381.946	103.843	-0.086	-0.101
-380.931	-13.615	-0.102	0.067
-379.917	49.464	-0.319	0.302
-378.902	40.596	0.151	0.137
-377.888	377.484	-0.108	-0.222
-376.873	-200.000	-0.024	0.353
-375.858	-200.000	-0.010	-0.088
-374.844	-35.920	0.164	-0.090
-373.829	-113.154	0.170	-0.034
-372.815	266.056	0.220	0.387
-371.800	-145.271	-0.306	0.028
-370.785	-74.866	-0.314	-0.114
-369.771	-77.083	-0.132	0.046
-368.756	-200.000	0.038	0.212
-367.742	-110.174	-0.381	-0.080
-366.727	-200.000	0.032	0.367
-365.712	800.000	0.109	0.357
-364.698	-10.734	-0.028	0.018
-363.683	-7.748	-0.242	0.165
-362.669	21.832	-0.307	-0.252
-361.654	-200.000	-0.012	0.164
-360.639	-200.000	0.017	0.185
-359.625	-200.000	0.059	0.355
-358.610	-200.000	0.015	0.356
-357.596	-28.634	-0.186	-0.108
-356.581	-122.491	-0.351	0.058
-355.566	-43.639	-0.144	-0.073
-354.552	-116.855	0.064	0.012
-353.537	-7.632	0.292	0.199
-352.523	175.836	-0.110	0.160
-351.508	170.817	-0.075	-0.108
-350.493	-147.751	0.182	0.015
-349.479	-143.931	0.405	0.038
-348.464	372.974	-0.091	-0.187
-347.450	-164.580	0.490	0.022
-346.435	-52.210	-0.098	-0.046
-345.420	281.873	0.194	-0.350
-344.406	-77.810	-0.010	0.004
-343.391	-200.000	-0.013	-0.136
-342.377	-92.322	0.333	-0.094
-341.362	-147.482	-0.028	-0.002
-340.348	-200.000	0.013	0.346
-339.333	132.702	0.193	0.250
-338.318	149.011	-0.296	0.403
-337.304	-40.084	-0.197	0.103
-336.289	-100.390	0.127	-0.032
-335.275	-40.120	0.402	-0.211
-334.260	91.888	0.150	0.169
-333.245	-11.617	0.170	0.113
-332.231	800.000	-0.027	0.085
-331.216	-150.152	0.070	-0.005
-330.202	-195.392	0.352	0.003
-329.187	-102.681	0.199	0.048
-328.172	-200.000	0.042	0.363
-327.158	32.185	-0.098	0.085
-326.143	62.667	-0.128	-0.129
-325.129	103.109	0.265	0.313
-324.114	-200.000	-0.002	0.029
-323.099	40.253	-0.165	-0.149
-322.085	800.000	-0.049	0.167
-321.070	-113.143	0.102	0.020
-320.056	-149.660	0.326	-0.026
-319.041	-200.000	0.020	0.312
-318.026	-140.090	0.319	-0.034
-317.012	-17.064	0.214	-0.136
-315.997	800.000	0.147	-0.553
-314.983	324.461	0.096	-0.184
-313.968	-200.000	-0.064	-0.319
-312.953	546.267	0.099	-0.238
-311.939	-100.341	-0.096	0.024
-310.924	800.000	-0.015	-0.050
-309.910	-115.844	0.181	0.034
-308.895	168.668	-0.095	-0.136
-307.880	-200.000	-0.000	-0.197
-306.866	-133.632	-0.410	-0.051
-305.851	383.245	-0.158	-0.327
-304.837	298.847	0.042	-0.077
-303.822	-60.370	-0.327	-0.140
-302.807	-200.000	-0.060	0.325
-301.793	-64.873	-0.077	-0.032
-300.778	-93.594	-0.251	-0.070
-299.764	168.708	-0.090	0.129
-298.749	-124.478	-0.086	0.013
-297.735	787.428	-0.045	-0.124
-296.720	-57.515	0.153	-0.067
-295.705	-116.282	0.121	-0.023
-294.691	151.250	-0.105	0.143
-293.676	800.000	0.117	0.411
-292.662	51.771	0.100	-0.095
-291.647	28.535	0.459	-0.390
-290.632	17.758	0.214	-0.172
-289.618	315.083	-0.183	-0.347
-288.603	-29.099	0.117	-0.068
-287.589	-164.858	0.232	-0.010
-286.574	37.423	-0.085	0.076
-285.559	31.441	0.109	0.094
-284.545	-59.547	-0.318	0.137
-283.530	183.719	0.058	-0.086
-282.516	194.993	0.158	0.242
-281.501	108.908	-0.121	0.145
-280.486	50.671	0.402	-0.382
-279.472	206.144	-0.066	-0.104
-278.457	132.882	0.181	-0.235
-277.443	-200.000	-0.032	0.210
-276.428	-64.863	-0.251	-0.102
-275.413	-39.347	-0.320	0.169
-274.399	419.711	-0.133	0.285
-273.384	44.665	0.127	-0.117
-272.370	-200.000	0.088	0.416
-271.355	-25.492	0.468	0.278
-270.340	-180.477	-0.314	-0.007
-269.326	96.027	0.056	0.064
-268.311	800.000	0.032	0.106
-267.297	-200.000	0.004	0.122
-266.282	134.378	0.068	0.088
-265.267	-41.653	-0.220	-0.113
-264.253	-80.846	0.176	0.059
-263.238	-56.643	-0.327	0.146
-262.224	-107.785	0.195	0.043
-261.209	-160.016	-0.284	0.016
-260.195	310.294	-0.057	0.108
-259.180	800.000	0.095	-0.264
-258.165	-77.743	0.074	-0.026
-257.151	47.100	0.107	-0.100
-256.136	-11.115	0.073	0.048
-255.122	70.770	0.209	0.218
-254.107	233.272	-0.190	0.313
-253.092	-78.621	0.267	0.092
-252.078	-200.000	0.014	0.275
-251.063	-119.571	-0.241	-0.042
-250.049	52.054	-0.129	-0.123
-249.034	26.985	-0.142	-0.119
-248.019	455.958	-0.076	-0.170
-247.005	12.275	0.188	-0.145
-245.990	-200.000	0.045	-0.217
-244.976	193.851	0.188	0.285
-243.961	-200.000	0.006	0.266
-242.946	724.958	0.006	0.016
-241.932	-71.025	-0.034	0.013
-240.917	25.027	0.087	0.072
-239.903	-150.406	0.469	0.036
-238.888	-200.000	0.049	-0.314
-237.873	-200.000	0.021	0.107
-236.859	-23.970	0.021	-0.012
-235.844	12.321	0.036	-0.027
-234.830	800.000	0.055	-0.235
-233.815	37.983	0.159	0.142
-232.800	128.661	-0.188	0.240
-231.786	176.759	0.059	-0.086
-230.771	-120.223	0.257	0.044
-229.757	397.279	-0.173	0.362
-228.742	800.000	-0.080	0.240
-227.727	800.000	-0.019	0.082
-226.713	675.371	-0.176	0.458
-225.698	722.393	0.147	0.392
-224.684	-11.264	-0.458	0.302
-223.669	800.000	-0.112	-0.364
-222.655	100.768	-0.115	-0.134
-221.640	-86.895	0.179	-0.055
-220.625	333.011	0.062	-0.120
-219.611	-200.000	0.031	-0.165
-218.596	-111.120	-0.164	-0.034
-217.582	446.746	0.028	-0.061
-216.567	226.847	0.061	0.099
-215.552	43.456	0.172	0.157
-214.538	-13.931	0.346	0.224
-213.523	-180.724	-0.138	-0.003
-212.509	-200.000	0.005	0.096
-211.494	278.423	-0.055	-0.097
-210.479	130.831	-0.101	0.129
-209.465	-200.000	-0.010	-0.111
-208.450	-142.691	0.198	0.019
-207.436	-60.509	-0.193	-0.082
-206.421	212.041	0.212	-0.334
-205.406	65.911	-0.072	-0.073
-204.392	-50.746	-0.311	-0.147
-203.377	-148.833	-0.080	0.007
-202.363	-86.224	-0.384	0.118
-201.348	-200.000	0.003	-0.109
-200.333	25.566	-0.094	0.078
-199.319	800.000	-0.045	0.154
-198.304	138.588	-0.164	0.216
-197.290	309.686	0.178	-0.333
-196.275	-123.456	-0.361	0.058
-195.260	380.005	0.114	0.234
-194.246	-200.000	-0.084	0.436
-193.231	-184.391	-0.054	0.001
-192.217	-116.148	-0.420	0.078
-191.202	-172.445	-0.322	-0.010
-190.187	-200.000	-0.004	0.047
-189.173	150.668	-0.202	0.275
-188.158	19.776	0.129	0.104
-187.144	-200.000	-0.057	0.362
-186.129	-200.000	0.030	-0.202
-185.114	38.388	-0.162	-0.145
-184.100	800.000	0.023	0.065
-183.085	-168.091	-0.370	-0.014
-182.071	87.642	-0.166	-0.184
-181.056	-108.440	0.282	-0.061
-180.042	34.149	-0.169	0.147
-179.027	-93.816	-0.131	0.036
-178.012	-152.899	-0.163	0.012
-176.998	-200.000	-0.075	0.557
-175.983	155.116	-0.291	0.401
-174.969	-200.000	0.017	0.296
-173.954	14.505	0.111	0.086
-172.939	-144.571	0.188	-0.017
-171.925	-200.000	-0.023	0.175
-170.910	-152.780	0.207	-0.015
-169.896	646.093	0.174	-0.444
-168.881	-95.392	0.040	0.011
-167.866	-26.149	-0.106	0.062
-166.852	-55.054	0.223	0.101
-165.837	270.636	-0.047	-0.082
-164.823	800.000	0.068	-0.232
-163.808	233.357	0.164	-0.270
-162.793	347.714	0.089	-0.176
-161.779	451.132	-0.101	-0.224
-160.764	10.469	0.181	0.138
-159.750	765.271	0.049	-0.134
-158.735	194.414	0.101	0.154
-157.720	427.705	-0.133	0.287
-156.706	510.998	0.095	0.221
-155.691	800.000	-0.027	-0.080
-154.677	-200.000	0.005	0.188
-153.662	168.957	0.209	0.299
-152.647	-110.581	-0.024	-0.005
-151.633	-200.000	0.030	0.282
-150.618	107.615	0.160	0.190
-149.604	-110.913	-0.050	0.010
-148.589	-200.000	0.011	-0.137
-147.574	-11.286	0.150	0.099
-146.560	-98.683	-0.382	-0.097
-145.545	-57.854	0.321	0.140
-144.531	66.025	-0.213	-0.216
-143.516	212.548	0.097	0.153
-142.502	-200.000	-0.001	0.115
-141.487	-200.000	-0.006	0.055
-140.472	-107.813	0.226	-0.049
-139.458	800.000	-0.107	-0.327
-138.443	-106.177	0.313	-0.070
-137.429	-200.000	0.017	-0.245
-136.414	94.583	0.185	0.210
-135.399	74.223	0.104	-0.110
-134.385	41.384	0.041	-0.037
-133.370	800.000	-0.103	0.324
-132.356	-200.000	0.073	0.357
-131.341	-200.000	-0.048	-0.356
-130.326	-81.650	0.337	-0.111
-129.312	84.560	0.104	0.113
-128.297	-121.151	0.371	-0.062
-127.283	412.154	-0.138	-0.292
-126.268	-68.140	-0.241	-0.094
-125.253	132.267	-0.284	0.365
-124.239	-163.657	-0.227	-0.011
-123.224	151.023	-0.058	-0.078
