DTS Sentinel unit serial number:	SN413079Multiplexer serial number:	ORYXHardware model number:	OX4-SRSoftware version number:	ORYX F/W v4.00 Oryx Data Collector v3.7.2.0data status	okinstallation	princeton_trtdifferential loss correction	single-endedforward channel	channel 3reverse channel	N/Adate	2019/09/10time	23:42:10forward acquisition time	60.00reverse acquisition time	0.00gamma	496.2192k internal	0.2331k external	0.2331temperature offset calibration	0.9922default loss term (dB/km)	0.3790temperature slope calibration	1.0000multiplexer offset coefficient	1.0000multiplexer slope coefficient	1.0000fibre end	0.00T internal ref (°C)	29.56T ext. ref 1 (°C)	-0.31T ext. ref 2 (°C)	23.02length (m)	temperature (°C)	Stokes	anti-Stokes-747.200	39.804	0.227	-0.205
-746.185	-79.999	-0.327	-0.110
-745.171	-91.975	-0.110	-0.031
-744.156	86.926	-0.173	0.192
-743.142	-11.966	0.279	0.184
-742.127	-169.802	-0.073	-0.003
-741.112	-25.782	0.159	-0.094
-740.098	275.162	-0.233	0.416
-739.083	328.671	-0.031	-0.059
-738.069	-156.174	-0.367	-0.023
-737.054	-29.446	-0.219	-0.126
-736.039	-50.716	-0.171	-0.081
-735.025	-76.702	0.082	-0.029
-734.010	-70.812	0.108	-0.041
-732.996	-5.419	-0.142	0.098
-731.981	-200.000	-0.022	0.130
-730.966	-56.188	0.437	0.196
-729.952	144.561	-0.102	-0.137
-728.937	-32.076	0.140	-0.079
-727.923	-200.000	-0.020	0.287
-726.908	-12.433	-0.178	0.117
-725.894	36.708	0.175	-0.155
-724.879	-200.000	-0.007	-0.141
-723.864	-107.670	0.195	0.043
-722.850	11.729	0.072	-0.055
-721.835	-190.263	0.291	-0.003
-720.821	744.654	-0.046	-0.123
-719.806	-5.994	0.171	-0.118
-718.791	329.313	0.070	0.135
-717.777	-200.000	0.020	0.111
-716.762	16.380	0.267	0.212
-715.748	-200.000	0.026	0.128
-714.733	-112.050	-0.300	-0.061
-713.718	800.000	-0.094	0.327
-712.704	-33.709	-0.243	0.135
-711.689	-1.441	0.145	-0.103
-710.675	318.508	-0.177	0.338
-709.660	-50.930	0.223	-0.105
-708.645	225.852	0.078	-0.127
-707.631	38.081	-0.195	-0.175
-706.616	-41.985	0.183	-0.094
-705.602	-150.304	0.151	-0.012
-704.587	163.296	-0.174	0.246
-703.572	554.204	0.088	-0.213
-702.558	602.732	0.074	-0.185
-701.543	-106.817	-0.275	-0.061
-700.529	-77.163	0.116	0.041
-699.514	140.013	-0.207	0.274
-698.499	223.813	0.268	0.434
-697.485	39.402	0.401	0.361
-696.470	54.701	-0.192	0.186
-695.456	220.970	0.142	0.230
-694.441	-200.000	0.021	-0.116
-693.426	9.906	0.214	-0.163
-692.412	13.639	0.134	-0.104
-691.397	24.557	0.104	0.086
-690.383	-158.575	-0.191	0.011
-689.368	-34.186	-0.117	-0.064
-688.354	-38.675	0.171	0.091
-687.339	-157.282	-0.231	-0.014
-686.324	583.688	-0.065	0.161
-685.310	-200.000	0.001	-0.384
-684.295	-162.794	-0.192	0.009
-683.281	800.000	-0.069	-0.231
-682.266	-200.000	0.028	0.139
-681.251	800.000	-0.089	-0.252
-680.237	87.324	0.174	-0.194
-679.222	-113.172	-0.158	0.031
-678.208	-141.805	-0.144	-0.014
-677.193	-121.118	-0.023	-0.004
-676.178	-101.772	0.317	-0.077
-675.164	-104.557	0.185	0.043
-674.149	-98.170	-0.334	0.086
-673.135	-162.500	-0.162	0.008
-672.120	178.440	-0.086	0.126
-671.105	-167.806	0.059	-0.002
-670.091	54.128	-0.069	-0.067
-669.076	520.322	-0.138	-0.324
-668.062	-186.914	0.059	0.001
-667.047	-20.912	-0.160	0.099
-666.032	-14.155	0.169	-0.110
-665.018	213.035	0.112	-0.177
-664.003	543.023	0.010	0.023
-662.989	800.000	-0.096	-0.295
-661.974	-124.489	-0.244	-0.038
-660.959	-81.105	0.240	0.080
-659.945	58.501	0.076	0.075
-658.930	110.158	0.111	-0.133
-657.916	289.666	0.066	0.121
-656.901	262.543	-0.257	-0.447
-655.886	37.132	0.126	-0.112
-654.872	-200.000	0.004	0.289
-653.857	-200.000	-0.013	0.206
-652.843	90.978	0.109	0.123
-651.828	-200.000	-0.012	-0.146
-650.814	-159.072	0.195	-0.011
-649.799	-97.563	0.107	0.028
-648.784	335.729	-0.057	-0.111
-647.770	-83.999	0.065	-0.021
-646.755	-44.511	-0.179	0.090
-645.741	109.558	0.047	0.057
-644.726	-200.000	0.004	0.166
-643.711	5.772	0.217	-0.161
-642.697	-200.000	0.038	-0.441
-641.682	65.128	0.282	-0.285
-640.668	-140.232	-0.238	0.025
-639.653	799.607	0.080	-0.222
-638.638	800.000	-0.020	-0.076
-637.624	162.828	-0.138	-0.195
-636.609	-67.680	-0.127	-0.050
-635.595	-200.000	-0.001	0.094
-634.580	33.942	0.122	-0.106
-633.565	800.000	-0.117	-0.498
-632.551	-85.447	-0.140	-0.044
-631.536	647.156	0.161	-0.413
-630.522	445.855	-0.094	-0.207
-629.507	-136.938	0.232	-0.027
-628.492	74.465	-0.121	0.127
-627.478	-84.089	-0.418	-0.133
-626.463	-200.000	-0.024	0.284
-625.449	-68.903	0.246	-0.095
-624.434	800.000	-0.023	-0.074
-623.419	355.440	0.187	0.373
-622.405	-60.221	0.080	-0.034
-621.390	515.557	0.106	0.249
-620.376	800.000	-0.022	0.078
-619.361	69.486	0.247	0.254
-618.346	-184.979	-0.120	-0.002
-617.332	-200.000	-0.032	0.156
-616.317	49.723	0.143	-0.135
-615.303	-49.154	0.162	0.078
-614.288	-200.000	0.005	0.233
-613.273	305.128	-0.054	-0.100
-612.259	71.391	-0.109	-0.113
-611.244	12.366	-0.190	0.147
-610.230	122.566	-0.334	0.418
-609.215	800.000	-0.172	-0.495
-608.201	-200.000	0.019	-0.211
-607.186	-200.000	-0.026	0.278
-606.171	115.000	-0.038	0.047
-605.157	269.577	-0.053	-0.092
-604.142	-59.778	-0.285	-0.122
-603.128	800.000	0.019	0.063
-602.113	74.564	-0.038	0.040
-601.098	-200.000	-0.045	0.297
-600.084	24.373	-0.212	0.175
-599.069	-102.471	0.453	-0.108
-598.055	-200.000	0.013	-0.073
-597.040	-187.810	-0.254	-0.003
-596.025	-200.000	0.021	-0.402
-595.011	14.373	-0.224	0.175
-593.996	-27.744	0.074	-0.043
-592.982	-55.910	-0.295	0.132
-591.967	-200.000	-0.000	-0.003
-590.952	-14.174	0.275	0.178
-589.938	800.000	-0.172	0.480
-588.923	53.223	-0.232	0.222
-587.909	-33.492	0.123	0.068
-586.894	581.676	-0.022	-0.055
-585.879	-200.000	0.016	0.127
-584.865	-37.013	0.234	0.126
-583.850	-16.115	-0.263	0.167
-582.836	-144.642	-0.200	-0.018
-581.821	-200.000	-0.017	-0.435
-580.806	-38.241	-0.447	-0.237
-579.792	81.611	0.045	-0.048
-578.777	43.701	-0.166	0.152
-577.763	800.000	0.114	-0.450
-576.748	143.926	0.102	0.137
-575.733	-8.482	0.273	0.183
-574.719	728.357	0.094	0.250
-573.704	800.000	0.014	-0.061
-572.690	-74.467	0.193	-0.069
-571.675	-188.170	0.253	-0.003
-570.661	-98.397	-0.239	-0.061
-569.646	89.638	0.141	0.158
-568.631	-113.064	0.150	-0.030
-567.617	195.766	0.210	0.319
-566.602	-48.257	-0.339	0.164
-565.588	-45.991	0.068	0.034
-564.573	432.418	0.101	-0.220
-563.558	-105.903	0.390	0.088
-562.544	-200.000	-0.018	0.332
-561.529	-200.000	0.065	0.379
-560.515	35.103	0.283	-0.248
-559.500	50.388	-0.384	-0.362
-558.485	494.415	-0.084	-0.192
-557.471	-156.268	-0.179	-0.011
-556.456	37.141	-0.152	0.134
-555.442	-159.937	0.262	-0.014
-554.427	-77.833	0.370	-0.128
-553.412	-200.000	0.026	0.532
-552.398	45.882	-0.102	-0.094
-551.383	-87.653	-0.313	0.095
-550.369	-148.693	0.158	-0.013
-549.354	-107.845	0.241	0.052
-548.339	-143.324	0.304	0.029
-547.325	-64.871	-0.297	-0.120
-546.310	-140.635	-0.191	0.020
-545.296	-92.111	0.313	-0.088
-544.281	-143.959	-0.305	-0.029
-543.266	199.203	0.165	-0.253
-542.252	800.000	-0.023	-0.083
-541.237	-108.600	-0.398	0.085
-540.223	126.228	-0.193	0.244
-539.208	0.192	0.495	0.352
-538.193	504.065	0.162	-0.374
-537.179	-200.000	0.019	-0.203
-536.164	21.869	0.147	0.120
-535.150	-200.000	-0.055	0.314
-534.135	-14.304	0.230	0.148
-533.121	-117.143	-0.264	-0.048
-532.106	321.267	-0.058	-0.110
-531.091	-87.334	-0.304	-0.092
-530.077	800.000	-0.128	-0.380
-529.062	-85.598	0.356	-0.111
-528.048	115.279	-0.070	0.086
-527.033	73.847	-0.315	-0.330
-526.018	33.389	0.162	0.140
-525.004	-60.292	0.037	0.016
-523.989	-64.590	-0.193	0.078
-522.975	-48.433	0.128	-0.062
-521.960	800.000	-0.055	-0.212
-520.945	115.060	-0.188	0.229
-519.931	184.321	-0.223	0.329
-518.916	19.988	-0.306	-0.246
-517.902	800.000	-0.039	-0.135
-516.887	68.704	0.346	-0.354
-515.872	800.000	-0.092	-0.290
-514.858	800.000	0.061	0.219
-513.843	-200.000	-0.032	0.336
-512.829	800.000	-0.029	0.083
-511.814	-24.906	-0.170	0.101
-510.799	-200.000	-0.004	-0.025
-509.785	-87.556	0.196	0.059
-508.770	-4.824	0.254	0.175
-507.756	-57.895	0.198	-0.086
-506.741	-200.000	-0.081	-0.449
-505.726	-37.621	0.128	-0.068
-504.712	17.839	0.287	-0.228
-503.697	-147.119	0.231	-0.020
-502.683	-74.259	0.142	-0.051
-501.668	179.129	0.099	-0.144
-500.653	565.092	-0.141	0.341
-499.639	-102.115	-0.102	0.025
-498.624	-121.455	0.262	-0.043
-497.610	373.730	-0.012	0.025
-496.595	219.352	0.100	0.160
-495.581	159.848	-0.082	0.113
-494.566	-28.979	0.082	0.047
-493.551	-200.000	-0.036	0.616
-492.537	-119.815	-0.117	0.020
-491.522	-200.000	-0.046	0.231
-490.508	-200.000	0.018	-0.287
-489.493	-132.006	-0.219	0.028
-488.478	-84.556	0.162	0.051
-487.464	500.723	-0.098	-0.226
-486.449	-32.147	-0.249	0.139
-485.435	-200.000	-0.042	-0.475
-484.420	-200.000	-0.009	-0.322
-483.405	-200.000	-0.030	-0.217
-482.391	800.000	-0.056	0.205
-481.376	48.644	-0.283	-0.265
-480.362	800.000	-0.060	0.171
-479.347	-200.000	-0.004	0.137
-478.332	157.817	0.054	0.075
-477.318	800.000	0.054	0.153
-476.303	295.593	0.159	-0.290
-475.289	230.895	-0.191	-0.311
-474.274	-145.311	0.178	-0.016
-473.259	800.000	-0.037	0.109
-472.245	-148.475	-0.148	0.012
-471.230	800.000	0.013	-0.043
-470.216	-2.173	0.100	0.070
-469.201	-0.039	0.103	-0.073
-468.186	-66.696	-0.125	0.049
-467.172	30.138	-0.244	-0.207
-466.157	-28.115	0.423	-0.243
-465.143	-133.474	-0.033	-0.004
-464.128	60.097	0.064	0.063
-463.113	-36.943	-0.174	-0.093
-462.099	26.889	-0.086	0.072
-461.084	800.000	-0.059	-0.185
-460.070	-37.435	0.112	-0.059
-459.055	156.814	0.139	-0.192
-458.040	-4.897	0.162	-0.111
-457.026	10.184	-0.310	0.235
-456.011	-164.666	0.331	0.015
-454.997	7.917	0.175	0.130
-453.982	-68.261	-0.255	0.099
-452.968	287.494	0.053	0.095
-451.953	-200.000	0.070	0.309
-450.938	-67.813	0.177	-0.069
-449.924	579.796	0.085	-0.206
-448.909	-200.000	0.008	0.095
-447.895	-15.359	0.252	-0.160
-446.880	-200.000	-0.022	-0.168
-445.865	-82.820	0.117	-0.037
-444.851	200.470	-0.024	0.036
-443.836	-14.845	0.154	-0.098
-442.822	-114.870	0.193	0.037
-441.807	-20.494	-0.066	0.041
-440.792	-200.000	-0.012	-0.091
-439.778	265.605	-0.112	0.195
-438.763	-200.000	0.033	0.245
-437.749	113.208	-0.092	0.111
-436.734	-58.521	-0.189	0.082
-435.719	-200.000	0.015	-0.138
-434.705	-51.856	0.124	0.057
-433.690	-69.271	-0.115	-0.044
-432.676	-77.205	-0.196	0.068
-431.661	-96.453	0.081	0.021
-430.646	66.325	-0.176	0.178
-429.632	-59.919	-0.193	0.082
-428.617	43.773	-0.167	-0.152
-427.603	52.557	0.321	-0.305
-426.588	800.000	-0.029	-0.127
-425.573	41.071	0.141	-0.127
-424.559	-112.723	-0.157	0.031
-423.544	105.005	-0.060	0.070
-422.530	-200.000	-0.028	-0.165
-421.515	-66.859	-0.013	-0.005
-420.500	-200.000	0.015	-0.229
-419.486	800.000	-0.060	-0.247
-418.471	-109.779	0.169	0.035
-417.457	-200.000	-0.000	0.051
-416.442	-74.256	-0.306	-0.110
-415.428	-200.000	-0.030	0.165
-414.413	800.000	-0.014	0.059
-413.398	64.708	0.137	0.138
-412.384	124.204	-0.058	0.072
-411.369	-162.965	-0.273	-0.013
-410.355	-51.086	0.192	0.090
-409.340	73.826	0.136	0.142
-408.325	800.000	-0.119	-0.343
-407.311	29.283	-0.241	0.203
-406.296	10.560	0.151	0.115
-405.282	613.973	-0.030	0.074
-404.267	-89.571	0.127	-0.037
-403.252	-136.504	-0.350	-0.040
-402.238	-120.021	-0.300	0.051
-401.223	95.828	-0.172	-0.196
-400.209	-81.437	0.248	0.081
-399.194	285.562	0.071	-0.127
-398.179	800.000	0.041	0.141
-397.165	-200.000	0.016	-0.163
-396.150	800.000	-0.035	-0.102
-395.136	-46.827	0.189	0.092
-394.121	800.000	0.050	-0.148
-393.106	137.114	-0.163	0.212
-392.092	58.369	0.214	0.208
-391.077	-102.620	0.081	-0.019
-390.063	-200.000	0.007	-0.080
-389.048	-56.427	-0.187	0.082
-388.033	-25.198	0.088	-0.052
-387.019	-200.000	-0.010	0.210
-386.004	2.876	0.145	0.104
-384.990	800.000	-0.071	0.220
-383.975	-89.513	-0.171	0.050
-382.960	-112.434	-0.136	0.027
-381.946	231.025	0.144	-0.234
-380.931	298.225	-0.102	0.186
-379.917	-78.137	0.352	0.120
-378.902	3.552	-0.166	0.120
-377.888	-177.017	0.116	-0.003
-376.873	-130.905	-0.105	0.014
-375.858	11.355	-0.110	0.084
-374.844	274.393	0.094	0.166
-373.829	800.000	0.077	0.258
-372.815	197.066	0.136	-0.206
-371.800	-47.086	0.238	0.115
-370.785	182.370	-0.118	0.173
-369.771	101.339	-0.064	-0.074
-368.756	340.270	-0.077	0.149
-367.742	71.830	-0.113	0.117
-366.727	-200.000	0.038	0.189
-365.712	-92.270	-0.113	0.032
-364.698	-200.000	-0.002	-0.086
-363.683	-157.411	-0.215	0.013
-362.669	10.071	0.103	0.077
-361.654	-13.167	0.191	-0.123
-360.639	-190.265	-0.072	0.001
-359.625	213.452	0.122	-0.192
-358.610	800.000	0.036	-0.136
-357.596	-63.193	0.145	0.059
-356.581	405.026	-0.082	-0.172
-355.566	227.768	-0.172	-0.278
-354.552	-54.232	0.326	-0.147
-353.537	-105.607	0.142	-0.032
-352.523	-46.246	-0.296	-0.144
-351.508	508.788	0.076	0.175
-350.493	-139.476	0.090	-0.010
-349.479	800.000	0.046	0.162
-348.464	-200.000	0.004	0.182
-347.450	-200.000	0.001	0.261
-346.435	91.884	0.225	0.251
-345.420	-133.744	0.153	0.019
-344.406	136.158	0.101	-0.131
-343.391	-200.000	0.047	-0.218
-342.377	-130.369	-0.250	0.034
-341.362	-140.591	-0.053	-0.005
-340.348	122.016	0.228	-0.282
-339.333	-200.000	-0.016	0.325
-338.318	800.000	-0.031	0.096
-337.304	-59.668	0.039	-0.017
-336.289	115.146	-0.137	-0.165
-335.275	-33.056	-0.082	0.045
-334.260	800.000	0.060	0.217
-333.245	-100.054	-0.260	-0.064
-332.231	145.710	0.193	-0.256
-331.216	117.398	-0.110	0.134
-330.202	-200.000	-0.017	-0.117
-329.187	-24.261	-0.030	0.018
-328.172	-200.000	0.022	0.144
-327.158	71.738	0.061	0.063
-326.143	-86.933	-0.022	0.007
-325.129	5.981	0.103	-0.076
-324.114	112.692	-0.121	0.145
-323.099	28.737	0.124	-0.104
-322.085	283.076	-0.112	0.199
-321.070	39.096	-0.192	-0.170
-320.056	-87.609	0.057	0.017
-319.041	-200.000	-0.049	-0.320
-318.026	-4.338	0.084	-0.058
-317.012	-105.761	0.226	0.051
-315.997	-9.367	-0.088	0.058
-314.983	253.557	0.113	0.191
-313.968	-200.000	0.010	0.357
-312.953	-200.000	-0.023	-0.163
-311.939	130.186	0.145	-0.184
-310.924	25.210	-0.070	-0.058
-309.910	-60.162	0.300	-0.127
-308.895	-200.000	-0.003	0.128
-307.880	800.000	-0.076	-0.248
-306.866	-123.074	0.340	0.054
-305.851	233.745	-0.163	0.266
-304.837	657.213	0.070	-0.178
-303.822	319.388	0.249	-0.467
-302.807	74.356	0.169	0.176
-301.793	-49.180	0.147	0.069
-300.778	800.000	-0.071	0.216
-299.764	-48.596	0.169	0.080
-298.749	-57.852	0.090	0.039
-297.735	-163.942	0.236	0.011
-296.720	800.000	-0.056	-0.239
-295.705	-200.000	0.008	-0.059
-294.691	28.792	0.124	0.104
-293.676	636.487	0.065	0.163
-292.662	-19.277	-0.189	-0.116
-291.647	-65.136	-0.184	-0.073
-290.632	-133.387	0.188	0.023
-289.618	-115.632	0.073	-0.014
-288.603	-200.000	0.071	0.349
-287.589	13.255	-0.144	0.110
-286.574	233.316	-0.049	0.080
-285.559	686.171	0.061	-0.157
-284.545	89.894	-0.200	0.221
-283.530	-19.003	-0.146	-0.090
-282.516	-120.945	-0.233	-0.039
-281.501	109.008	-0.219	0.259
-280.486	13.495	0.153	0.117
-279.472	-200.000	0.015	-0.293
-278.457	-58.154	0.087	-0.038
-277.443	77.289	-0.196	0.206
-276.428	460.325	-0.030	-0.067
-275.413	-87.749	0.316	0.094
-274.399	-50.501	-0.225	0.105
-273.384	508.112	-0.093	-0.213
-272.370	316.778	0.025	0.046
-271.355	246.079	-0.158	-0.263
-270.340	800.000	0.122	-0.375
-269.326	85.898	-0.075	-0.081
-268.311	159.872	-0.120	0.165
-267.297	204.800	-0.078	-0.120
-266.282	85.406	-0.150	-0.163
-265.267	139.126	0.057	0.074
-264.253	617.859	-0.067	0.166
-263.238	-115.699	-0.341	0.063
-262.224	282.353	-0.010	-0.017
-261.209	435.242	-0.062	0.132
-260.195	-166.559	0.203	-0.008
-259.180	-161.978	-0.123	0.006
-258.165	68.000	-0.238	-0.240
-257.151	800.000	-0.052	-0.166
-256.136	-163.166	0.129	-0.006
-255.122	-200.000	-0.009	-0.151
-254.107	-200.000	0.008	-0.216
-253.092	469.736	-0.033	-0.074
-252.078	456.443	0.103	-0.225
-251.063	-26.875	-0.276	-0.159
-250.049	800.000	0.077	0.260
-249.034	29.109	-0.159	0.133
-248.019	-97.395	0.204	-0.052
-247.005	-174.606	-0.202	0.006
-245.990	800.000	-0.017	0.063
-244.976	-112.418	-0.140	0.028
-243.961	-200.000	0.083	0.456
-242.946	800.000	-0.104	-0.347
-241.932	-37.765	-0.332	-0.174
-240.917	399.032	-0.088	-0.183
-239.903	-200.000	0.002	0.048
-238.888	-44.383	0.403	-0.199
-237.873	177.983	0.070	0.101
-236.859	-65.922	0.147	0.058
-235.844	298.015	0.086	-0.156
-234.830	-147.330	-0.311	-0.026
-233.815	308.160	-0.065	0.120
-232.800	-113.400	0.371	0.072
-231.786	-200.000	-0.030	-0.479
-230.771	46.517	-0.064	0.059
-229.757	-200.000	0.005	0.152
-228.742	-136.685	0.386	0.044
-227.727	-14.414	-0.329	0.209
-226.713	800.000	-0.126	0.392
-225.698	44.730	0.157	-0.142
-224.684	800.000	0.094	-0.339
-223.669	-111.390	0.158	-0.032
-222.655	800.000	0.042	-0.144
-221.640	-200.000	-0.016	-0.502
-220.625	412.218	-0.076	0.159
-219.611	-200.000	0.010	-0.249
-218.596	297.187	0.131	-0.237
-217.582	-101.721	-0.065	0.016
-216.567	800.000	0.060	0.218
-215.552	402.024	0.119	0.247
-214.538	36.094	-0.181	-0.157
-213.523	-200.000	-0.039	0.200
-212.509	187.858	0.131	-0.193
-211.494	78.629	-0.195	-0.205
-210.479	-183.468	0.163	-0.003
-209.465	68.378	-0.116	0.117
-208.450	-124.868	0.087	0.013
-207.436	-125.162	0.076	0.012
-206.421	-200.000	-0.020	-0.234
-205.406	-66.972	0.075	-0.029
-204.392	800.000	-0.040	0.123
-203.377	-200.000	-0.001	0.173
-202.363	488.493	-0.091	0.206
-201.348	67.253	0.063	0.064
-200.333	-200.000	-0.046	-0.216
-199.319	800.000	0.079	-0.242
-198.304	20.296	-0.185	-0.148
-197.290	-41.035	0.102	-0.052
-196.275	104.180	-0.050	0.058
-195.260	-25.969	-0.137	0.079
-194.246	-200.000	0.011	0.056
-193.231	128.917	-0.131	-0.165
-192.217	-15.546	0.141	-0.089
-191.202	-200.000	0.012	0.108
-190.187	-163.119	-0.190	-0.009
-189.173	-38.743	0.444	-0.231
-188.158	-20.587	-0.106	-0.064
-187.144	800.000	-0.033	-0.107
-186.129	185.570	-0.102	-0.150
-185.114	-147.072	-0.066	0.006
-184.100	46.942	-0.208	0.191
-183.085	72.721	-0.133	0.137
-182.071	-200.000	-0.016	-0.303
-181.056	-12.110	-0.094	0.060
-180.042	320.050	0.194	0.362
-179.027	800.000	-0.047	0.129
-178.012	-3.788	0.107	0.073
-176.998	-200.000	-0.008	0.320
-175.983	296.750	0.109	-0.197
-174.969	332.873	0.022	0.041
-173.954	523.928	-0.040	0.093
-172.939	-200.000	-0.026	0.149
-171.925	-66.958	0.194	0.075
-170.910	159.930	0.115	-0.158
-169.896	800.000	0.144	0.459
-168.881	1.062	0.120	-0.085
-167.866	145.165	-0.074	0.098
-166.852	-200.000	0.039	0.292
-165.837	-200.000	-0.024	0.223
-164.823	-200.000	0.032	0.183
-163.808	-100.675	-0.464	0.113
-162.793	-200.000	0.003	0.060
-161.779	408.830	0.096	-0.200
-160.764	-160.441	0.156	-0.008
-159.750	-70.505	0.111	0.041
-158.735	800.000	-0.015	-0.047
-157.720	63.920	0.180	-0.178
-156.706	-61.580	-0.242	0.100
-155.691	151.991	0.160	0.214
-154.677	-152.630	-0.310	0.022
-153.662	556.600	0.142	0.336
-152.647	284.409	-0.096	-0.171
-151.633	408.857	0.015	-0.032
-150.618	459.456	0.106	-0.231
-149.604	166.836	0.193	-0.269
-148.589	-76.200	-0.088	0.030
-147.574	217.866	-0.119	0.187
-146.560	122.144	0.303	0.372
-145.545	-188.358	-0.147	0.002
-144.531	372.528	-0.174	0.349
-143.516	342.205	0.197	0.380
-142.502	-127.973	0.016	-0.002
-141.487	56.387	0.209	-0.199
-140.472	-150.084	0.180	0.014
-139.458	80.816	-0.136	0.145
-138.443	800.000	-0.066	-0.182
-137.429	-200.000	0.031	-0.426
-136.414	-92.025	-0.276	-0.077
-135.399	45.314	0.055	0.050
-134.385	50.914	-0.160	-0.149
-133.370	-104.499	-0.397	-0.090
-132.356	-41.800	0.066	0.033
-131.341	-48.684	0.180	-0.085
-130.326	-100.393	-0.348	0.085
-129.312	-48.147	-0.330	-0.157
-128.297	-45.335	-0.226	-0.110
-127.283	-200.000	0.048	0.238
-126.268	-200.000	-0.039	0.187
-125.253	32.651	-0.132	0.112
-124.239	-29.241	0.178	0.100
-123.224	-2.791	0.129	0.089
-122.210	361.491	-0.066	0.131
-121.195	-54.889	0.263	0.116
