DTS Sentinel unit serial number:	SN413079Multiplexer serial number:	ORYXHardware model number:	OX4-SRSoftware version number:	ORYX F/W v4.00 Oryx Data Collector v3.7.2.0data status	okinstallation	princeton_trtdifferential loss correction	single-endedforward channel	channel 3reverse channel	N/Adate	2019/09/17time	08:20:34forward acquisition time	60.00reverse acquisition time	0.00gamma	496.2192k internal	0.2333k external	0.2333temperature offset calibration	0.9942default loss term (dB/km)	0.3790temperature slope calibration	1.0000multiplexer offset coefficient	1.0000multiplexer slope coefficient	1.0000fibre end	0.00T internal ref (°C)	27.44T ext. ref 1 (°C)	0.11T ext. ref 2 (°C)	22.81length (m)	temperature (°C)	Stokes	anti-Stokes-747.200	223.565	-0.131	0.213
-746.185	168.412	-0.100	0.143
-745.171	-138.614	-0.386	-0.043
-744.156	655.389	-0.100	0.258
-743.142	77.130	-0.249	0.266
-742.127	-200.000	0.024	0.312
-741.112	160.486	-0.269	0.378
-740.098	-95.631	0.121	0.033
-739.083	-60.053	0.159	-0.068
-738.069	359.372	-0.071	0.143
-737.054	-200.000	-0.053	-0.285
-736.039	-133.773	-0.434	0.054
-735.025	258.655	0.066	0.115
-734.010	-50.714	-0.109	0.052
-732.996	-55.295	-0.051	0.023
-731.981	89.188	-0.199	-0.222
-730.966	203.432	-0.073	0.114
-729.952	-45.756	-0.237	-0.118
-728.937	800.000	-0.042	-0.159
-727.923	181.561	0.151	-0.223
-726.908	104.826	-0.149	-0.176
-725.894	800.000	-0.021	0.074
-724.879	216.136	-0.137	0.218
-723.864	94.645	-0.028	0.032
-722.850	12.892	-0.333	-0.259
-721.835	-200.000	-0.042	0.187
-720.821	-80.160	-0.316	0.106
-719.806	650.714	-0.067	-0.174
-718.791	-96.515	-0.223	0.059
-717.777	-172.119	0.244	-0.008
-716.762	297.760	-0.105	0.194
-715.748	484.853	-0.137	-0.312
-714.733	264.742	-0.064	0.111
-713.718	-44.689	0.155	0.078
-712.704	-200.000	0.013	-0.242
-711.689	-200.000	0.024	0.124
-710.675	800.000	0.107	-0.333
-709.660	800.000	-0.194	-0.593
-708.645	-200.000	-0.051	-0.275
-707.631	-152.093	0.356	-0.026
-706.616	-104.418	0.198	-0.046
-705.602	45.328	-0.249	-0.231
-704.587	-77.662	0.078	-0.027
-703.572	-70.258	0.267	-0.102
-702.558	340.951	-0.120	-0.235
-701.543	-145.178	-0.184	-0.017
-700.529	-54.799	-0.062	-0.028
-699.514	-124.278	0.210	-0.033
-698.499	234.088	0.028	0.046
-697.485	-88.034	-0.102	0.031
-696.470	3.258	0.157	-0.115
-695.456	101.381	0.071	-0.083
-694.441	110.426	-0.204	-0.246
-693.426	-115.125	0.196	-0.037
-692.412	67.352	-0.051	-0.052
-691.397	-174.441	0.089	-0.003
-690.383	124.032	-0.203	0.256
-689.368	107.904	-0.107	0.129
-688.354	-88.883	-0.237	-0.070
-687.339	-41.766	-0.290	0.149
-686.324	51.098	-0.064	-0.061
-685.310	800.000	-0.063	-0.240
-684.295	-83.510	0.179	0.057
-683.281	-200.000	-0.008	0.089
-682.266	800.000	-0.032	0.092
-681.251	-125.526	0.149	-0.023
-680.237	15.393	-0.141	0.111
-679.222	490.315	0.114	-0.261
-678.208	-55.358	-0.335	0.151
-677.193	69.816	-0.058	-0.060
-676.178	17.115	-0.298	-0.237
-675.164	-21.444	0.160	-0.098
-674.149	800.000	0.010	0.038
-673.135	114.706	0.225	0.275
-672.120	-129.738	-0.423	0.058
-671.105	-200.000	0.032	-0.241
-670.091	-200.000	0.024	0.170
-669.076	-3.367	-0.145	0.101
-668.062	-57.207	-0.190	-0.084
-667.047	-111.785	-0.149	-0.030
-666.032	-178.962	0.250	0.006
-665.018	339.050	0.080	-0.156
-664.003	800.000	0.082	0.246
-662.989	-25.550	0.352	-0.209
-661.974	200.240	0.089	-0.137
-660.959	-81.111	0.146	-0.049
-659.945	85.621	0.180	-0.199
-658.930	97.680	-0.089	-0.103
-657.916	606.113	0.062	-0.155
-656.901	800.000	0.109	-0.342
-655.886	-86.953	0.223	0.068
-654.872	-9.284	-0.198	-0.132
-653.857	115.755	-0.118	-0.145
-652.843	-106.853	0.247	0.055
-651.828	-200.000	0.035	-0.394
-650.814	-147.554	-0.194	0.016
-649.799	-147.480	-0.331	0.028
-648.784	109.285	-0.150	-0.181
-647.770	121.893	0.175	0.218
-646.755	-200.000	0.077	0.414
-645.741	-85.720	-0.354	0.110
-644.726	200.029	-0.187	0.287
-643.711	-63.713	0.234	0.096
-642.697	22.906	-0.134	-0.110
-641.682	424.817	0.141	0.304
-640.668	800.000	-0.040	-0.165
-639.653	-200.000	0.007	0.182
-638.638	74.891	-0.115	-0.121
-637.624	-105.936	-0.069	0.016
-636.609	16.699	0.117	0.093
-635.595	800.000	-0.062	-0.261
-634.580	115.545	-0.098	0.120
-633.565	176.078	-0.037	0.053
-632.551	800.000	-0.076	-0.314
-631.536	-169.526	0.346	0.013
-630.522	-159.041	-0.210	-0.012
-629.507	-141.163	-0.415	0.042
-628.492	-149.735	-0.145	0.011
-627.478	-7.093	0.190	-0.129
-626.463	-151.373	-0.147	0.011
-625.449	4.085	0.011	-0.008
-624.434	184.697	-0.018	-0.027
-623.419	68.594	-0.434	0.446
-622.405	388.778	0.068	0.141
-621.390	-29.634	-0.144	0.082
-620.376	-74.755	-0.296	-0.106
-619.361	-56.257	0.322	-0.143
-618.346	648.394	0.048	0.123
-617.332	-5.938	-0.190	-0.130
-616.317	513.004	-0.120	-0.280
-615.303	63.027	-0.087	-0.088
-614.288	452.075	0.056	0.124
-613.273	-200.000	-0.062	-0.453
-612.259	718.632	-0.116	-0.308
-611.244	-74.439	0.329	-0.119
-610.230	68.482	-0.175	-0.180
-609.215	-63.715	-0.257	0.105
-608.201	-200.000	-0.008	0.072
-607.186	408.135	0.066	0.139
-606.171	800.000	-0.063	-0.254
-605.157	-46.256	-0.375	0.184
-604.142	-52.960	0.123	-0.056
-603.128	19.136	0.087	0.070
-602.113	86.789	0.059	0.065
-601.098	395.839	0.038	-0.079
-600.084	16.247	0.244	-0.192
-599.069	316.593	0.156	0.294
-598.055	-84.342	0.272	0.086
-597.040	-39.197	-0.101	0.053
-596.025	61.903	0.345	0.344
-595.011	91.930	-0.098	-0.111
-593.996	300.231	0.130	0.239
-592.982	-83.450	0.381	-0.122
-591.967	466.566	-0.143	-0.319
-590.952	-200.000	0.034	0.236
-589.938	800.000	-0.047	-0.182
-588.923	634.698	-0.119	-0.301
-587.909	-13.630	-0.257	-0.166
-586.894	254.096	-0.090	-0.155
-585.879	537.654	0.055	-0.131
-584.865	-200.000	-0.033	0.143
-583.850	120.315	0.169	0.210
-582.836	76.045	0.111	0.117
-581.821	3.905	0.173	0.126
-580.806	90.135	0.099	-0.111
-579.792	710.698	0.183	0.485
-578.777	150.351	-0.150	0.203
-577.763	125.634	-0.193	-0.244
-576.748	627.492	0.120	-0.304
-575.733	-139.172	-0.057	-0.006
-574.719	800.000	0.074	-0.263
-573.704	-97.520	-0.297	-0.077
-572.690	665.994	0.063	-0.162
-571.675	-200.000	0.008	-0.256
-570.661	-29.426	0.173	-0.099
-569.646	-128.650	0.155	-0.022
-568.631	-123.241	0.083	-0.013
-567.617	-200.000	-0.053	-0.551
-566.602	-2.970	-0.158	-0.110
-565.588	44.968	0.245	0.225
-564.573	-71.627	-0.118	-0.044
-563.558	-23.405	-0.334	0.200
-562.544	-107.128	-0.045	-0.010
-561.529	-34.358	-0.018	0.010
-560.515	-200.000	0.032	-0.208
-559.500	800.000	0.051	-0.185
-558.485	-200.000	0.017	-0.089
-557.471	70.072	0.172	0.178
-556.456	-200.000	0.021	-0.269
-555.442	510.761	-0.031	0.072
-554.427	-177.611	-0.049	0.001
-553.412	119.565	-0.136	0.168
-552.398	-89.626	0.279	-0.082
-551.383	-200.000	-0.015	-0.087
-550.369	-25.020	-0.191	-0.113
-549.354	44.283	-0.093	-0.085
-548.339	109.794	-0.034	-0.041
-547.325	-139.820	-0.320	-0.034
-546.310	413.576	-0.101	0.214
-545.296	800.000	-0.032	-0.104
-544.281	489.616	-0.099	0.227
-543.266	-0.081	0.225	0.160
-542.252	-200.000	-0.001	-0.423
-541.237	-136.314	-0.232	0.027
-540.223	-63.703	-0.264	0.108
-539.208	237.328	-0.116	-0.192
-538.193	-39.071	-0.295	0.155
-537.179	-15.640	0.262	-0.167
-536.164	-200.000	-0.040	-0.193
-535.150	-75.873	-0.467	-0.165
-534.135	800.000	-0.150	-0.439
-533.121	225.186	-0.076	-0.123
-532.106	137.829	0.138	-0.180
-531.091	623.448	-0.136	-0.343
-530.077	-131.022	-0.172	0.023
-529.062	424.883	-0.141	-0.303
-528.048	344.215	0.144	0.281
-527.033	141.094	0.180	0.237
-526.018	145.223	0.170	0.227
-525.004	78.763	0.155	0.165
-523.989	-87.791	0.036	0.011
-522.975	297.202	-0.035	-0.065
-521.960	246.224	0.097	-0.164
-520.945	-200.000	0.028	-0.138
-519.931	-29.048	0.331	0.189
-518.916	800.000	-0.092	-0.368
-517.902	-28.381	0.125	0.072
-516.887	-135.201	-0.180	-0.022
-515.872	-200.000	-0.022	-0.147
-514.858	-135.142	0.242	-0.029
-513.843	64.044	-0.024	0.024
-512.829	-155.700	0.225	0.014
-511.814	-80.569	-0.461	0.153
-510.799	267.223	-0.092	0.161
-509.785	8.135	0.072	0.054
-508.770	-22.426	-0.148	-0.089
-507.756	-200.000	0.007	-0.100
-506.741	61.085	-0.104	-0.103
-505.726	-66.954	0.087	0.034
-504.712	790.701	-0.051	-0.138
-503.697	14.579	-0.189	0.147
-502.683	-21.483	0.222	0.135
-501.668	76.497	0.187	0.198
-500.653	-200.000	-0.016	0.133
-499.639	-200.000	0.056	-0.272
-498.624	-65.045	-0.109	0.044
-497.610	-176.084	0.204	0.005
-496.595	-37.786	-0.219	-0.116
-495.581	53.798	0.029	-0.028
-494.566	-134.554	-0.260	-0.032
-493.551	-56.121	0.146	0.065
-492.537	-200.000	-0.041	0.276
-491.522	-200.000	0.001	0.275
-490.508	-200.000	-0.002	0.356
-489.493	-61.543	0.212	-0.089
-488.478	-36.986	-0.112	-0.060
-487.464	88.882	-0.123	0.136
-486.449	800.000	0.029	0.105
-485.435	51.691	-0.273	0.258
-484.420	-122.222	0.110	0.018
-483.405	-166.937	-0.094	-0.004
-482.391	-200.000	-0.007	-0.079
-481.376	800.000	0.082	0.240
-480.362	62.361	-0.134	-0.133
-479.347	800.000	0.066	-0.184
-478.332	284.586	-0.098	-0.175
-477.318	-200.000	-0.014	-0.174
-476.303	800.000	0.177	0.538
-475.289	-58.578	0.358	-0.155
-474.274	-200.000	-0.003	0.192
-473.259	-35.442	-0.175	-0.095
-472.245	228.340	-0.281	0.456
-471.230	-23.591	0.249	-0.149
-470.216	800.000	0.046	0.165
-469.201	-43.575	0.177	0.089
-468.186	-200.000	0.033	-0.150
-467.172	24.711	-0.081	0.067
-466.157	-185.831	-0.167	0.002
-465.143	-98.998	0.226	0.057
-464.128	-132.701	-0.067	-0.008
-463.113	51.417	-0.023	0.022
-462.099	-75.845	-0.029	0.010
-461.084	-136.005	-0.168	0.020
-460.070	-101.722	0.163	-0.039
-459.055	-68.148	-0.275	0.107
-458.040	524.031	0.149	-0.349
-457.026	-188.000	-0.195	-0.003
-456.011	-52.310	-0.253	-0.117
-454.997	283.508	-0.062	0.111
-453.982	-200.000	0.024	0.112
-452.968	-200.000	0.015	0.130
-451.953	-1.816	0.025	-0.017
-450.938	357.585	0.152	-0.302
-449.924	148.681	-0.111	0.149
-448.909	378.089	-0.150	0.306
-447.895	-97.111	0.316	-0.082
-446.880	-200.000	0.018	0.195
-445.865	800.000	0.050	-0.219
-444.851	-72.665	0.217	0.080
-443.836	800.000	0.074	0.253
-442.822	-0.413	-0.227	-0.161
-441.807	332.816	0.212	-0.407
-440.792	260.304	0.073	-0.126
-439.778	800.000	0.090	-0.312
-438.763	-19.471	0.063	-0.039
-437.749	-200.000	0.014	0.158
-436.734	-79.817	0.210	-0.070
-435.719	113.688	-0.122	0.147
-434.705	300.313	0.039	-0.071
-433.690	-91.127	0.230	0.066
-432.676	106.396	-0.194	-0.228
-431.661	-37.731	0.267	0.141
-430.646	119.668	-0.129	0.159
-429.632	-120.091	0.175	-0.030
-428.617	800.000	-0.049	0.194
-427.603	9.052	0.219	0.164
-426.588	800.000	-0.037	-0.153
-425.573	61.097	-0.092	-0.091
-424.559	359.386	0.061	-0.121
-423.544	-107.992	0.085	-0.018
-422.530	-200.000	-0.008	-0.063
-421.515	-78.084	-0.124	0.042
-420.500	380.945	0.072	-0.146
-419.486	-133.087	0.408	0.051
-418.471	800.000	-0.019	0.079
-417.457	800.000	-0.031	0.096
-416.442	-107.922	-0.160	-0.035
-415.428	5.642	0.172	-0.126
-414.413	108.725	-0.133	0.158
-413.398	711.822	-0.191	0.502
-412.384	-200.000	0.032	0.229
-411.369	54.295	-0.101	0.096
-410.355	-5.500	0.261	0.178
-409.340	248.914	0.047	-0.079
-408.325	159.775	0.136	0.188
-407.311	-82.067	-0.340	-0.110
-406.296	-22.433	0.143	0.086
-405.282	-142.687	-0.250	0.024
-404.267	800.000	-0.104	-0.431
-403.252	800.000	0.105	-0.296
-402.238	-63.253	-0.207	-0.085
-401.223	-200.000	-0.002	0.087
-400.209	97.064	-0.245	-0.279
-399.194	70.125	-0.185	-0.190
-398.179	298.865	-0.341	-0.623
-397.165	-22.515	-0.171	-0.102
-396.150	275.011	-0.179	0.314
-395.136	499.451	-0.033	0.075
-394.121	18.858	0.225	0.179
-393.106	-20.169	0.295	-0.180
-392.092	-134.334	0.280	-0.034
-391.077	95.685	-0.200	0.226
-390.063	38.382	-0.121	-0.107
-389.048	307.134	-0.118	0.218
-388.033	4.619	0.054	0.039
-387.019	5.971	0.181	0.133
-386.004	88.586	0.101	0.112
-384.990	800.000	-0.017	0.046
-383.975	254.639	0.182	-0.310
-382.960	-172.720	0.536	-0.017
-381.946	-95.968	-0.382	-0.101
-380.931	10.839	-0.224	0.170
-379.917	676.753	-0.094	0.241
-378.902	-77.573	-0.082	-0.028
-377.888	0.566	-0.156	0.110
-376.873	249.407	0.029	0.049
-375.858	-112.520	-0.489	-0.097
-374.844	-10.207	0.208	0.137
-373.829	-85.482	-0.227	0.070
-372.815	316.099	0.170	0.318
-371.800	-200.000	-0.024	-0.172
-370.785	419.154	0.107	0.227
-369.771	13.140	-0.078	0.059
-368.756	21.148	0.059	0.048
-367.742	139.668	0.135	-0.176
-366.727	-37.684	0.041	0.021
-365.712	406.691	0.103	-0.215
-364.698	-200.000	0.026	0.128
-363.683	-114.985	-0.144	-0.027
-362.669	85.797	-0.171	-0.187
-361.654	-55.024	0.086	-0.039
-360.639	373.151	-0.129	-0.260
-359.625	-200.000	-0.029	0.254
-358.610	-200.000	0.026	-0.336
-357.596	-140.604	0.162	-0.017
-356.581	347.007	-0.161	-0.315
-355.566	241.930	-0.148	0.245
-354.552	-200.000	-0.021	0.185
-353.537	-65.526	0.142	0.057
-352.523	-200.000	-0.037	0.176
-351.508	-61.692	0.319	0.132
-350.493	27.639	-0.217	-0.181
-349.479	-200.000	0.002	-0.019
-348.464	-1.176	0.199	-0.139
-347.450	309.533	0.172	0.319
-346.435	-200.000	0.017	0.381
-345.420	13.797	-0.187	-0.144
-344.406	-65.937	-0.213	-0.084
-343.391	-200.000	0.018	-0.203
-342.377	17.091	-0.099	0.078
-341.362	-82.076	-0.214	-0.069
-340.348	-139.503	0.232	-0.025
-339.333	-200.000	0.040	-0.288
-338.318	-200.000	-0.001	0.091
-337.304	64.980	0.107	0.107
-336.289	-48.217	0.132	0.063
-335.275	40.285	-0.069	-0.061
-334.260	199.923	-0.039	0.059
-333.245	-200.000	0.051	0.393
-332.231	-65.098	0.084	-0.033
-331.216	97.947	0.263	-0.299
-330.202	800.000	-0.047	-0.151
-329.187	-200.000	-0.009	0.067
-328.172	84.209	-0.259	-0.280
-327.158	-36.587	-0.120	-0.064
-326.143	9.603	-0.274	0.205
-325.129	-141.946	0.227	0.022
-324.114	-200.000	0.020	0.156
-323.099	7.569	0.203	-0.151
-322.085	-79.934	-0.100	-0.033
-321.070	188.621	0.136	0.201
-320.056	2.393	0.221	0.158
-319.041	589.192	0.070	0.170
-318.026	-200.000	0.026	-0.321
-317.012	71.505	0.031	-0.031
-315.997	51.713	-0.049	-0.046
-314.983	800.000	0.063	-0.218
-313.968	-55.849	-0.359	0.158
-312.953	-76.850	-0.346	-0.120
-311.939	-44.548	-0.150	0.074
-310.924	-52.612	-0.203	0.093
-309.910	800.000	0.022	0.080
-308.895	-94.639	0.042	-0.011
-307.880	800.000	-0.027	-0.078
-306.866	423.575	-0.028	0.060
-305.851	172.503	-0.145	-0.206
-304.837	159.224	-0.124	-0.170
-303.822	-37.235	0.309	0.163
-302.807	800.000	0.033	0.124
-301.793	-107.453	0.214	-0.046
-300.778	8.746	0.214	-0.160
-299.764	153.082	-0.106	0.143
-298.749	11.734	-0.130	-0.098
-297.735	-200.000	0.058	0.336
-296.720	74.270	-0.169	0.176
-295.705	65.595	-0.093	-0.093
-294.691	-200.000	0.045	0.299
-293.676	-200.000	0.001	0.061
-292.662	-63.856	-0.157	0.063
-291.647	4.100	0.321	-0.232
-290.632	-200.000	-0.002	-0.080
-289.618	800.000	-0.067	0.225
-288.603	800.000	0.028	0.084
-287.589	-200.000	0.013	-0.088
-286.574	34.510	0.305	0.263
-285.559	-200.000	-0.015	0.109
-284.545	115.752	-0.105	-0.127
-283.530	24.694	0.199	0.163
-282.516	-49.274	-0.384	0.181
-281.501	-124.625	0.265	-0.041
-280.486	217.777	-0.166	-0.261
-279.472	-200.000	0.008	0.048
-278.457	-200.000	-0.019	0.106
-277.443	-87.179	0.181	-0.054
-276.428	800.000	0.045	-0.171
-275.413	-140.910	0.320	-0.033
-274.399	-29.873	0.258	-0.145
-273.384	-187.894	-0.142	-0.002
-272.370	83.959	-0.304	-0.328
-271.355	102.998	-0.206	0.239
-270.340	286.826	0.219	0.391
-269.326	444.134	0.158	-0.343
-268.311	185.269	0.085	0.125
-267.297	-88.769	-0.063	-0.018
-266.282	-72.404	-0.215	0.079
-265.267	-200.000	0.020	-0.257
-264.253	-12.791	-0.075	-0.048
-263.238	-32.394	0.304	-0.167
-262.224	-200.000	-0.011	0.157
-261.209	-102.991	0.078	0.018
-260.195	77.274	0.417	0.438
-259.180	47.382	0.228	-0.210
-258.165	-2.911	0.294	0.203
-257.151	-200.000	-0.014	0.065
-256.136	-107.578	-0.186	0.040
-255.122	30.852	-0.171	-0.144
-254.107	397.975	-0.060	0.123
-253.092	-131.832	0.217	0.028
-252.078	66.411	-0.129	-0.129
-251.063	132.401	0.067	-0.085
-250.049	-110.078	0.116	-0.024
-249.034	-97.392	-0.192	0.049
-248.019	-115.240	0.175	-0.033
-247.005	-137.200	-0.320	-0.036
-245.990	-130.882	0.184	0.024
-244.976	96.321	0.269	-0.303
-243.961	-121.629	-0.186	-0.030
-242.946	-63.998	0.182	-0.073
-241.932	121.733	0.116	-0.142
-240.917	-115.460	-0.053	-0.010
-239.903	117.251	-0.123	-0.149
-238.888	127.811	0.110	0.138
-237.873	142.353	-0.117	-0.153
-236.859	-155.704	0.168	0.011
-235.844	-85.647	-0.184	0.056
-234.830	-82.082	-0.197	-0.063
-233.815	149.992	0.058	-0.078
-232.800	-106.700	-0.204	-0.045
-231.786	762.918	-0.038	0.101
-230.771	-50.191	-0.560	-0.261
-229.757	800.000	0.022	-0.077
-228.742	717.295	0.115	0.300
-227.727	-10.261	-0.214	-0.140
-226.713	-73.096	-0.046	0.017
-225.698	622.044	0.157	-0.390
-224.684	165.204	-0.058	-0.080
-223.669	-200.000	0.001	-0.176
-222.655	-119.323	-0.336	-0.058
-221.640	-151.459	0.233	-0.017
-220.625	-120.671	0.235	0.039
-219.611	-200.000	-0.004	-0.120
-218.596	-107.384	-0.121	-0.026
-217.582	682.102	-0.034	0.086
-216.567	504.843	0.108	-0.245
-215.552	800.000	-0.031	-0.115
-214.538	217.797	-0.280	0.440
-213.523	-200.000	0.024	0.287
-212.509	800.000	-0.054	-0.163
-211.494	-200.000	0.021	-0.291
-210.479	126.654	-0.194	0.242
-209.465	62.072	-0.171	0.168
-208.450	77.175	-0.060	0.063
-207.436	134.051	-0.184	0.235
-206.421	285.075	-0.084	0.149
-205.406	-115.249	-0.162	0.030
-204.392	8.300	0.137	0.101
-203.377	-106.949	0.446	-0.097
-202.363	194.453	0.158	-0.236
-201.348	800.000	-0.083	-0.325
-200.333	20.909	0.199	0.158
-199.319	82.590	0.113	0.121
-198.304	-22.748	0.181	0.107
-197.290	-200.000	0.005	-0.169
-196.275	-200.000	0.015	-0.266
-195.260	231.483	0.046	-0.075
-194.246	-88.365	0.286	0.084
-193.231	31.007	0.324	0.273
-192.217	-83.551	-0.088	-0.028
-191.202	-37.265	0.068	0.036
-190.187	68.564	0.049	-0.049
-189.173	-71.744	0.062	-0.023
-188.158	-154.100	-0.045	-0.003
-187.144	-200.000	-0.038	0.179
-186.129	114.736	0.215	0.258
-185.114	-161.062	0.086	-0.004
-184.100	-33.743	0.331	0.180
-183.085	255.016	0.208	0.351
-182.071	18.239	0.065	0.051
-181.056	-200.000	-0.074	0.417
-180.042	-51.455	0.183	0.084
-179.027	-128.743	0.183	0.025
-178.012	-200.000	0.073	-0.378
-176.998	48.407	0.303	-0.279
-175.983	800.000	0.048	0.165
-174.969	187.756	0.071	-0.104
-173.954	206.858	0.253	0.388
-172.939	-67.978	0.132	-0.051
-171.925	-139.718	-0.264	-0.028
-170.910	33.333	0.066	0.056
-169.896	800.000	0.070	0.238
-168.881	-83.445	0.154	0.049
-167.866	119.741	0.166	-0.202
-166.852	36.183	0.155	0.135
-165.837	-200.000	0.006	-0.047
-164.823	274.045	0.177	0.309
-163.808	-82.664	-0.266	0.085
-162.793	-9.548	-0.278	-0.182
-161.779	332.782	-0.070	-0.132
-160.764	-165.896	-0.323	-0.014
-159.750	478.744	-0.033	-0.074
-158.735	-200.000	-0.011	0.091
-157.720	-73.321	0.228	-0.082
-156.706	373.141	0.071	-0.142
-155.691	25.513	0.114	-0.093
-154.677	800.000	0.047	0.141
-153.662	774.020	-0.150	0.403
-152.647	-27.865	-0.212	-0.121
-151.633	-74.352	0.174	-0.062
-150.618	-38.242	0.214	0.111
-149.604	-200.000	0.021	0.116
-148.589	-1.365	0.263	-0.182
-147.574	-200.000	0.030	0.435
-146.560	-80.226	-0.283	-0.093
-145.545	-175.142	-0.249	0.007
-144.531	236.677	-0.090	0.146
-143.516	-56.605	0.138	0.060
-142.502	116.382	0.207	-0.249
-141.487	-134.542	-0.124	-0.015
-140.472	-45.223	-0.120	0.058
-139.458	764.938	0.020	0.052
-138.443	-31.583	0.054	-0.030
-137.429	3.308	-0.211	0.151
-136.414	291.869	-0.051	-0.092
-135.399	-98.923	0.018	0.005
-134.385	265.620	-0.084	-0.145
-133.370	-74.334	-0.320	-0.113
-132.356	442.656	0.082	0.176
-131.341	-131.948	0.187	-0.024
-130.326	-27.056	-0.218	0.125
-129.312	800.000	0.046	0.152
-128.297	-159.081	-0.174	0.010
-127.283	360.228	0.047	-0.093
-126.268	234.637	-0.136	-0.221
-125.253	-179.508	-0.257	-0.006
-124.239	-200.000	-0.036	-0.265
-123.224	10.189	-0.200	-0.150
-122.210	111.313	-0.115	-0.136
-121.195	-200.000	0.011	0.121
