DTS Sentinel unit serial number:	SN413079Multiplexer serial number:	ORYXHardware model number:	OX4-SRSoftware version number:	ORYX F/W v4.00 Oryx Data Collector v3.7.2.0data status	okinstallation	princeton_trtdifferential loss correction	single-endedforward channel	channel 3reverse channel	N/Adate	2019/09/15time	00:44:34forward acquisition time	60.00reverse acquisition time	0.00gamma	496.2192k internal	0.2319k external	0.2319temperature offset calibration	0.9973default loss term (dB/km)	0.3790temperature slope calibration	1.0000multiplexer offset coefficient	1.0000multiplexer slope coefficient	1.0000fibre end	0.00T internal ref (°C)	32.06T ext. ref 1 (°C)	4.58T ext. ref 2 (°C)	27.04length (m)	temperature (°C)	Stokes	anti-Stokes-747.200	800.000	0.087	-0.351
-746.185	-44.133	0.364	-0.185
-745.171	151.836	-0.252	-0.347
-744.156	42.193	-0.138	0.127
-743.142	800.000	0.012	-0.042
-742.127	469.596	0.061	0.138
-741.112	641.448	-0.067	-0.172
-740.098	23.628	-0.085	0.071
-739.083	-88.565	0.025	0.008
-738.069	-200.000	0.006	0.187
-737.054	154.810	-0.126	-0.175
-736.039	-141.398	-0.224	0.023
-735.025	146.878	0.214	-0.291
-734.010	-200.000	-0.022	-0.199
-732.996	18.456	-0.355	-0.287
-731.981	800.000	-0.076	0.264
-730.966	-18.021	-0.189	-0.120
-729.952	179.753	-0.044	0.065
-728.937	135.497	-0.169	0.223
-727.923	-89.316	-0.420	-0.125
-726.908	-64.190	-0.346	-0.143
-725.894	-200.000	0.010	0.087
-724.879	-200.000	0.005	0.207
-723.864	-92.862	-0.053	-0.015
-722.850	-104.293	0.261	-0.061
-721.835	-114.284	-0.071	-0.014
-720.821	47.380	-0.173	-0.163
-719.806	-200.000	0.054	-0.341
-718.791	-140.882	-0.309	0.032
-717.777	28.305	-0.131	-0.112
-716.762	-20.014	-0.166	0.103
-715.748	-182.588	-0.031	-0.001
-714.733	43.292	-0.208	0.192
-713.718	8.089	0.107	-0.081
-712.704	76.450	0.071	0.076
-711.689	50.146	0.256	-0.244
-710.675	275.140	-0.104	-0.185
-709.660	-11.130	-0.053	0.036
-708.645	304.320	0.033	0.062
-707.631	-200.000	0.010	0.108
-706.616	800.000	0.032	-0.112
-705.602	-134.833	-0.122	-0.015
-704.587	-104.520	0.257	0.060
-703.572	279.650	0.085	-0.153
-702.558	9.042	-0.293	-0.224
-701.543	-200.000	0.016	0.090
-700.529	-96.871	0.039	0.010
-699.514	453.465	0.093	0.209
-698.499	-200.000	-0.003	-0.153
-697.485	-34.763	0.129	-0.071
-696.470	800.000	-0.080	0.266
-695.456	270.865	0.121	-0.215
-694.441	573.344	0.039	-0.096
-693.426	-200.000	0.044	0.260
-692.412	-81.412	-0.407	-0.135
-691.397	-59.657	-0.155	-0.067
-690.383	-61.413	-0.127	0.054
-689.368	-200.000	-0.005	-0.247
-688.354	-110.810	-0.119	0.025
-687.339	-7.171	0.211	-0.144
-686.324	-104.627	0.237	0.055
-685.310	-82.018	0.136	-0.045
-684.295	-109.049	-0.250	-0.054
-683.281	191.183	0.345	-0.524
-682.266	650.215	-0.140	0.361
-681.251	227.031	0.104	0.170
-680.237	-131.562	0.188	0.025
-679.222	-42.326	-0.274	0.141
-678.208	-79.171	0.198	-0.068
-677.193	-200.000	0.005	0.273
-676.178	-69.508	-0.145	-0.056
-675.164	-142.226	0.355	-0.035
-674.149	800.000	0.063	-0.209
-673.135	150.974	0.276	-0.379
-672.120	33.848	0.190	-0.167
-671.105	20.810	-0.088	0.072
-670.091	216.789	-0.129	0.208
-669.076	800.000	0.102	-0.394
-668.062	-78.909	0.163	-0.056
-667.047	-3.960	-0.091	-0.064
-666.032	113.725	0.293	0.360
-665.018	-200.000	0.029	0.229
-664.003	377.056	0.077	0.159
-662.989	-200.000	0.036	-0.238
-661.974	210.948	0.167	0.265
-660.959	37.306	-0.110	-0.098
-659.945	-53.775	-0.492	-0.226
-658.930	38.820	-0.131	0.118
-657.916	-16.315	0.211	-0.135
-656.901	-128.882	-0.141	-0.020
-655.886	-200.000	0.029	-0.200
-654.872	-132.318	0.141	-0.018
-653.857	177.576	0.182	-0.267
-652.843	-114.580	-0.440	0.085
-651.828	2.735	0.143	0.104
-650.814	-149.977	0.145	-0.011
-649.799	800.000	0.019	-0.066
-648.784	-9.263	-0.327	-0.220
-647.770	-200.000	0.038	0.296
-646.755	120.616	0.202	0.253
-645.741	-200.000	-0.013	-0.206
-644.726	766.024	0.089	-0.245
-643.711	-17.961	0.170	-0.107
-642.697	80.746	-0.305	0.331
-641.682	800.000	-0.061	0.238
-640.668	227.953	0.044	-0.072
-639.653	800.000	0.045	0.165
-638.638	-200.000	0.047	-0.247
-637.624	184.635	-0.145	0.216
-636.609	-92.447	0.297	-0.084
-635.595	-104.648	-0.291	0.067
-634.580	35.748	-0.120	-0.106
-633.565	-11.332	-0.070	-0.046
-632.551	39.173	-0.226	-0.203
-631.536	105.149	0.151	-0.180
-630.522	-72.881	0.243	-0.090
-629.507	-200.000	0.008	-0.182
-628.492	593.608	0.052	-0.130
-627.478	22.087	-0.104	-0.085
-626.463	-74.624	0.208	0.075
-625.449	-6.072	-0.168	0.116
-624.434	-115.140	0.281	0.054
-623.419	175.837	-0.160	0.234
-622.405	599.665	-0.013	0.034
-621.390	142.417	-0.076	-0.101
-620.376	679.173	-0.162	0.423
-619.361	686.025	-0.071	-0.186
-618.346	-15.590	0.078	-0.050
-617.332	-200.000	0.029	-0.142
-616.317	153.417	-0.195	-0.269
-615.303	224.017	0.137	0.222
-614.288	102.862	-0.158	0.187
-613.273	-53.716	-0.320	-0.147
-612.259	-200.000	-0.040	0.185
-611.244	203.154	-0.045	0.069
-610.230	-200.000	0.000	-0.062
-609.215	800.000	0.187	-0.587
-608.201	-200.000	0.006	0.167
-607.186	-19.743	-0.153	-0.095
-606.171	-107.668	-0.295	-0.065
-605.157	17.626	0.297	0.238
-604.142	800.000	0.049	-0.211
-603.128	695.351	-0.165	-0.436
-602.113	171.158	0.045	0.066
-601.098	800.000	-0.038	0.154
-600.084	800.000	0.038	-0.131
-599.069	-30.359	0.111	-0.063
-598.055	-2.346	-0.194	0.137
-597.040	-9.428	-0.204	0.137
-596.025	42.195	0.127	0.116
-595.011	-91.099	-0.454	-0.131
-593.996	56.042	-0.041	-0.040
-592.982	800.000	0.035	0.136
-591.967	-108.941	0.315	0.068
-590.952	204.168	-0.184	-0.287
-589.938	800.000	0.042	-0.167
-588.923	-124.787	0.087	0.013
-587.909	-70.360	0.053	0.020
-586.894	-10.455	0.116	0.078
-585.879	-16.390	0.168	-0.107
-584.865	-4.624	0.155	-0.107
-583.850	23.497	0.009	-0.008
-582.836	61.058	-0.085	0.085
-581.821	247.761	-0.145	-0.247
-580.806	-100.813	0.233	-0.058
-579.792	-200.000	0.003	-0.203
-578.777	528.082	-0.038	0.091
-577.763	123.868	0.216	-0.273
-576.748	29.520	-0.105	0.090
-575.733	6.812	-0.066	-0.050
-574.719	-68.833	-0.277	-0.108
-573.704	-83.168	-0.408	0.132
-572.690	-200.000	0.007	0.056
-571.675	-200.000	0.008	0.286
-570.661	433.260	0.115	0.251
-569.646	284.102	-0.094	0.171
-568.631	-200.000	-0.035	0.258
-567.617	-67.154	0.107	0.042
-566.602	153.799	0.139	0.191
-565.588	279.054	0.098	0.176
-564.573	46.256	0.163	-0.151
-563.558	119.273	0.186	-0.231
-562.544	-94.459	-0.302	0.083
-561.529	195.770	-0.113	0.172
-560.515	111.595	-0.256	0.310
-559.500	-82.912	-0.273	0.089
-558.485	340.356	0.154	-0.301
-557.471	-167.550	0.240	-0.010
-556.456	-81.105	0.144	-0.048
-555.442	-119.545	0.256	0.045
-554.427	-2.477	-0.135	-0.095
-553.412	365.314	0.225	-0.454
-552.398	226.535	-0.145	-0.236
-551.383	43.010	0.198	-0.181
-550.369	-200.000	-0.003	-0.136
-549.354	180.909	-0.056	0.083
-548.339	-133.060	0.223	0.028
-547.325	800.000	-0.054	0.216
-546.310	89.504	-0.111	0.125
-545.296	800.000	-0.100	0.296
-544.281	235.491	-0.180	0.298
-543.266	-109.229	0.147	-0.031
-542.252	290.425	0.052	0.095
-541.237	-107.814	-0.298	0.065
-540.223	-28.883	-0.171	-0.099
-539.208	-200.000	0.040	-0.351
-538.193	-200.000	-0.070	-0.518
-537.179	-116.531	0.188	-0.035
-536.164	-200.000	0.012	-0.094
-535.150	-22.820	-0.246	-0.149
-534.135	-77.496	-0.244	0.085
-533.121	63.611	-0.281	0.283
-532.106	800.000	0.025	0.074
-531.091	39.588	0.127	0.114
-530.077	-101.266	-0.117	-0.029
-529.062	-200.000	-0.073	-0.429
-528.048	800.000	0.081	0.247
-527.033	50.234	0.188	-0.178
-526.018	-200.000	-0.013	-0.288
-525.004	-140.288	0.096	-0.010
-523.989	30.709	0.164	-0.141
-522.975	800.000	-0.044	-0.124
-521.960	-67.028	0.111	-0.044
-520.945	199.243	0.010	0.015
-519.931	800.000	0.055	-0.195
-518.916	552.452	0.138	-0.332
-517.902	-200.000	-0.024	-0.121
-516.887	-66.529	-0.282	-0.112
-515.872	131.870	-0.136	0.176
-514.858	-200.000	0.009	-0.149
-513.843	-97.581	-0.380	-0.099
-512.829	-80.920	-0.156	-0.052
-511.814	-96.204	0.187	-0.050
-510.799	44.927	0.174	-0.161
-509.785	-53.418	0.087	0.040
-508.770	-68.582	0.358	0.139
-507.756	-42.928	-0.317	0.161
-506.741	352.557	0.047	-0.093
-505.726	-200.000	-0.046	-0.354
-504.712	181.150	0.105	0.154
-503.697	-200.000	-0.022	0.101
-502.683	-130.465	0.263	0.036
-501.668	498.193	0.095	-0.220
-500.653	-53.464	0.097	-0.044
-499.639	-50.812	-0.325	0.153
-498.624	481.766	-0.069	-0.157
-497.610	258.243	0.111	0.192
-496.595	-200.000	-0.051	0.226
-495.581	-200.000	0.008	0.367
-494.566	-20.025	-0.283	0.175
-493.551	-200.000	0.024	-0.198
-492.537	-200.000	0.005	-0.126
-491.522	-200.000	-0.043	-0.361
-490.508	218.444	0.092	0.148
-489.493	-77.293	-0.249	0.087
-488.478	-89.234	0.165	-0.049
-487.464	-65.102	0.166	0.067
-486.449	-200.000	0.007	0.058
-485.435	-200.000	-0.015	0.228
-484.420	277.509	0.122	0.217
-483.405	-18.362	0.221	0.138
-482.391	11.769	0.284	0.219
-481.376	-65.497	0.122	-0.049
-480.362	-200.000	0.003	-0.448
-479.347	108.887	0.140	-0.167
-478.332	-111.464	-0.119	0.024
-477.318	-200.000	-0.020	0.130
-476.303	13.009	-0.213	-0.165
-475.289	200.845	0.068	0.104
-474.274	-35.553	-0.282	0.153
-473.259	-200.000	0.197	-0.000
-472.245	-11.073	-0.089	0.059
-471.230	-200.000	0.004	-0.084
-470.216	410.795	0.120	0.255
-469.201	211.199	0.139	0.219
-468.186	-60.619	-0.285	-0.121
-467.172	199.050	0.095	0.145
-466.157	105.952	0.174	0.206
-465.143	152.167	-0.069	0.094
-464.128	800.000	0.075	-0.276
-463.113	221.406	0.268	0.431
-462.099	-25.293	-0.051	0.030
-461.084	-200.000	-0.032	0.300
-460.070	-128.733	-0.223	0.031
-459.055	-107.334	-0.175	-0.039
-458.040	36.384	-0.274	-0.242
-457.026	231.105	-0.079	-0.129
-456.011	407.105	0.137	-0.290
-454.997	-25.431	0.323	0.191
-453.982	131.527	0.145	-0.186
-452.968	800.000	-0.060	-0.198
-451.953	-200.000	-0.006	-0.255
-450.938	238.214	-0.007	0.012
-449.924	-139.142	-0.298	0.032
-448.909	-200.000	-0.005	0.142
-447.895	-200.000	-0.021	0.109
-446.880	-23.854	0.173	0.103
-445.865	1.545	-0.128	0.092
-444.851	255.216	-0.168	-0.288
-443.836	23.222	-0.209	0.172
-442.822	-200.000	-0.016	0.252
-441.807	-200.000	-0.025	-0.137
-440.792	633.237	-0.019	-0.049
-439.778	38.012	-0.065	-0.058
-438.763	-30.371	-0.475	0.269
-437.749	-200.000	-0.039	0.187
-436.734	800.000	0.148	0.416
-435.719	81.450	-0.223	-0.241
-434.705	-97.394	-0.242	-0.063
-433.690	64.372	0.142	-0.143
-432.676	-84.306	0.150	-0.047
-431.661	-49.403	0.180	-0.086
-430.646	46.215	-0.172	0.160
-429.632	439.806	-0.147	0.321
-428.617	-200.000	-0.018	-0.101
-427.603	-200.000	-0.012	-0.379
-426.588	-200.000	0.016	0.149
-425.573	-143.038	0.238	0.023
-424.559	-31.463	-0.028	-0.016
-423.544	-94.982	0.208	0.056
-422.530	800.000	-0.012	-0.043
-421.515	136.929	0.106	-0.138
-420.500	-173.169	0.237	0.007
-419.486	141.062	-0.062	-0.081
-418.471	-200.000	0.019	0.108
-417.457	123.879	0.263	0.330
-416.442	130.523	0.136	0.174
-415.428	-200.000	0.033	0.258
-414.413	284.592	0.109	0.196
-413.398	354.985	0.074	-0.147
-412.384	-75.292	0.187	0.067
-411.369	-54.770	0.100	0.045
-410.355	-112.208	-0.101	-0.020
-409.340	-108.533	0.572	0.123
-408.325	-200.000	0.005	0.098
-407.311	-9.424	0.309	-0.206
-406.296	-200.000	-0.038	-0.258
-405.282	-42.920	-0.067	-0.034
-404.267	43.306	0.221	-0.202
-403.252	155.632	-0.046	0.063
-402.238	-111.382	0.273	0.056
-401.223	-41.656	0.328	-0.168
-400.209	213.249	0.049	-0.077
-399.194	-34.784	-0.044	0.024
-398.179	-54.216	0.114	-0.052
-397.165	-200.000	-0.013	0.213
-396.150	-91.389	0.207	0.059
-395.136	70.348	-0.193	0.199
-394.121	-168.761	0.378	-0.014
-393.106	-200.000	0.036	-0.164
-392.092	187.464	-0.197	-0.293
-391.077	206.990	-0.206	0.321
-390.063	-83.937	0.381	-0.121
-389.048	-85.773	-0.215	-0.066
-388.033	-200.000	0.055	-0.288
-387.019	800.000	-0.098	-0.338
-386.004	-50.555	-0.093	0.044
-384.990	640.899	0.132	-0.334
-383.975	-81.107	0.260	0.086
-382.960	110.875	-0.076	-0.091
-381.946	-122.421	0.214	0.035
-380.931	42.622	0.217	-0.197
-379.917	348.010	-0.130	-0.256
-378.902	800.000	-0.100	0.304
-377.888	154.009	-0.062	-0.085
-376.873	-101.847	-0.214	0.052
-375.858	150.739	0.123	0.166
-374.844	491.154	-0.047	0.107
-373.829	39.110	-0.250	-0.223
-372.815	-166.953	-0.182	0.007
-371.800	537.019	0.075	-0.178
-370.785	594.612	0.076	0.187
-369.771	8.966	0.223	-0.167
-368.756	363.216	0.049	-0.098
-367.742	-200.000	0.034	0.162
-366.727	24.749	-0.183	-0.151
-365.712	-200.000	0.028	0.243
-364.698	0.767	0.223	-0.159
-363.683	99.523	-0.076	-0.087
-362.669	235.289	-0.117	0.193
-361.654	68.240	0.231	-0.236
-360.639	-140.391	0.281	-0.029
-359.625	-97.009	0.339	-0.089
-358.610	321.140	-0.156	0.295
-357.596	-96.209	-0.164	0.043
-356.581	13.875	-0.295	0.229
-355.566	-9.730	-0.178	-0.118
-354.552	-200.000	-0.022	-0.249
-353.537	-116.896	-0.098	0.018
-352.523	-165.068	-0.232	0.010
-351.508	-41.217	-0.235	0.121
-350.493	-56.208	-0.137	0.061
-349.479	-6.092	-0.142	0.097
-348.464	352.281	-0.039	0.077
-347.450	-145.372	0.063	0.006
-346.435	9.757	-0.196	0.148
-345.420	190.684	-0.105	-0.157
-344.406	-96.017	0.213	0.057
-343.391	41.523	0.138	-0.125
-342.377	-20.312	-0.223	-0.136
-341.362	335.216	-0.100	-0.193
-340.348	-5.726	0.123	-0.084
-339.333	723.816	-0.123	0.327
-338.318	-7.381	-0.087	-0.059
-337.304	-200.000	0.009	-0.277
-336.289	196.088	-0.063	0.095
-335.275	-200.000	-0.016	0.227
-334.260	-37.325	0.023	0.012
-333.245	800.000	0.109	0.329
-332.231	220.423	0.041	-0.066
-331.216	-68.568	0.098	0.038
-330.202	45.236	0.210	0.193
-329.187	800.000	-0.076	-0.271
-328.172	539.707	0.033	0.077
-327.158	-166.795	-0.174	-0.007
-326.143	62.661	0.077	-0.077
-325.129	-153.679	-0.136	0.009
-324.114	217.838	-0.151	0.240
-323.099	-125.558	-0.230	-0.035
-322.085	17.093	-0.347	-0.273
-321.070	-200.000	-0.062	-0.317
-320.056	474.931	0.017	-0.038
-319.041	102.628	0.041	-0.048
-318.026	-30.529	-0.262	0.148
-317.012	389.785	0.010	-0.021
-315.997	-113.812	0.215	0.042
-314.983	199.081	0.115	0.175
-313.968	70.923	-0.114	-0.117
-312.953	347.234	-0.090	-0.176
-311.939	151.112	-0.236	-0.319
-310.924	87.227	-0.168	0.184
-309.910	-152.887	0.239	0.017
-308.895	-145.702	0.317	0.028
-307.880	-200.000	0.018	0.277
-306.866	-200.000	-0.060	0.304
-305.851	800.000	0.053	-0.191
-304.837	-147.399	-0.308	-0.026
-303.822	103.105	0.155	-0.180
-302.807	73.076	0.087	0.090
-301.793	-98.213	-0.239	-0.061
-300.778	800.000	0.024	0.082
-299.764	-200.000	0.006	-0.123
-298.749	-80.582	0.182	0.060
-297.735	-190.355	-0.262	0.003
-296.720	752.420	-0.078	-0.209
-295.705	-200.000	0.024	0.325
-294.691	-200.000	-0.055	0.270
-293.676	270.664	-0.063	-0.111
-292.662	-200.000	-0.028	0.294
-291.647	-127.949	-0.165	0.024
-290.632	-200.000	-0.009	-0.080
-289.618	-38.936	0.073	0.038
-288.603	-200.000	0.072	-0.364
-287.589	800.000	0.030	-0.107
-286.574	57.307	0.098	0.095
-285.559	800.000	0.017	0.055
-284.545	-4.936	-0.148	-0.101
-283.530	388.466	-0.018	-0.037
-282.516	-200.000	0.014	0.134
-281.501	-200.000	-0.001	0.083
-280.486	773.080	0.027	-0.074
-279.472	91.647	0.184	0.205
-278.457	-119.459	-0.199	0.034
-277.443	3.162	0.088	0.064
-276.428	509.500	-0.176	-0.407
-275.413	433.347	-0.147	-0.317
-274.399	-89.422	-0.245	0.071
-273.384	486.234	0.087	0.196
-272.370	800.000	0.068	-0.215
-271.355	-200.000	-0.015	-0.170
-270.340	-61.322	0.128	0.053
-269.326	110.503	-0.135	0.162
-268.311	-176.411	-0.120	0.003
-267.297	119.213	0.094	-0.115
-266.282	800.000	0.060	0.188
-265.267	584.000	-0.064	0.156
-264.253	-200.000	0.048	-0.274
-263.238	-10.612	0.183	0.120
-262.224	-154.271	-0.206	-0.014
-261.209	-200.000	0.071	0.320
-260.195	-174.133	0.180	-0.005
-259.180	-3.045	0.056	0.039
-258.165	-104.581	0.042	-0.010
-257.151	-110.736	-0.069	0.014
-256.136	120.055	-0.117	0.144
-255.122	57.640	-0.046	0.045
-254.107	105.976	0.073	-0.086
-253.092	-200.000	-0.022	0.142
-252.078	-106.511	-0.243	-0.054
-251.063	-200.000	-0.052	-0.366
-250.049	-200.000	0.027	0.229
-249.034	-0.110	0.206	0.145
-248.019	-200.000	0.028	-0.155
-247.005	-190.513	0.486	0.005
-245.990	-200.000	0.014	-0.071
-244.976	-200.000	0.035	-0.184
-243.961	127.742	0.074	0.093
-242.946	-148.513	0.064	-0.005
-241.932	-200.000	-0.005	0.076
-240.917	142.579	0.202	-0.267
-239.903	-87.055	-0.086	-0.026
-238.888	800.000	-0.043	-0.145
-237.873	-200.000	0.021	-0.116
-236.859	197.400	0.083	-0.125
-235.844	-145.136	-0.069	0.006
-234.830	487.948	-0.144	-0.327
-233.815	-200.000	-0.043	0.200
-232.800	-200.000	0.022	0.151
-231.786	66.316	0.046	-0.046
-230.771	-108.011	-0.157	-0.034
-229.757	-142.794	0.282	0.027
-228.742	46.771	-0.292	0.269
-227.727	-200.000	0.053	0.378
-226.713	-200.000	0.031	0.523
-225.698	-200.000	-0.024	-0.114
-224.684	21.413	-0.272	0.219
-223.669	800.000	0.046	-0.174
-222.655	-200.000	0.061	0.417
-221.640	-150.195	0.221	-0.017
-220.625	26.823	0.185	0.154
-219.611	-21.005	0.239	0.145
-218.596	800.000	-0.033	0.124
-217.582	408.622	-0.095	-0.198
-216.567	800.000	0.023	0.076
-215.552	133.383	-0.096	-0.122
-214.538	484.574	-0.075	0.169
-213.523	800.000	0.054	-0.151
-212.509	-148.166	0.178	0.015
-211.494	-56.657	0.079	0.035
-210.479	266.895	-0.096	0.167
-209.465	33.891	-0.184	-0.159
-208.450	-126.006	-0.088	-0.013
-207.436	76.360	0.202	-0.212
-206.421	-200.000	-0.010	0.068
-205.406	-200.000	-0.073	-0.397
-204.392	97.333	0.057	0.065
-203.377	-200.000	-0.012	0.360
-202.363	352.046	-0.176	0.345
-201.348	-81.229	0.344	0.113
-200.333	251.206	-0.087	0.146
-199.319	-48.507	-0.269	0.128
-198.304	-12.348	-0.177	0.114
-197.290	-200.000	-0.000	0.171
-196.275	-24.100	-0.125	-0.074
-195.260	257.570	0.171	-0.291
-194.246	-102.112	0.279	-0.066
-193.231	110.126	-0.101	0.120
-192.217	319.207	0.044	-0.082
-191.202	98.101	0.084	0.096
-190.187	58.467	0.267	-0.259
-189.173	-134.047	0.109	-0.013
-188.158	800.000	-0.132	0.406
-187.144	535.732	0.038	0.089
-186.129	-103.536	-0.177	-0.041
-185.114	-200.000	0.012	0.119
-184.100	66.020	0.088	-0.088
-183.085	-99.095	0.035	-0.009
-182.071	-101.673	-0.430	-0.103
-181.056	69.812	-0.168	-0.172
-180.042	800.000	0.024	0.079
-179.027	-200.000	-0.017	-0.109
-178.012	59.824	0.347	0.339
-176.998	800.000	-0.016	0.069
-175.983	736.610	0.021	-0.056
-174.969	-71.644	0.078	0.029
-173.954	-62.755	0.183	0.075
-172.939	-102.730	0.216	-0.051
-171.925	-125.246	0.147	0.022
-170.910	-12.267	0.193	0.125
-169.896	-200.000	0.049	0.216
-168.881	-135.538	-0.247	0.029
-167.866	-196.620	-0.161	0.001
-166.852	-95.288	0.182	-0.049
-165.837	-200.000	-0.032	-0.468
-164.823	773.555	0.093	0.252
-163.808	-33.955	-0.262	-0.142
-162.793	-88.635	-0.163	0.048
-161.779	29.996	0.366	0.308
-160.764	-157.152	0.084	0.005
-159.750	-200.000	-0.027	-0.228
-158.735	85.745	0.102	0.111
-157.720	-76.141	-0.079	-0.028
-156.706	32.433	-0.122	0.104
-155.691	292.833	-0.195	-0.352
-154.677	800.000	-0.046	-0.143
-153.662	-93.098	0.241	-0.066
-152.647	-200.000	0.010	-0.182
-151.633	366.526	0.042	0.084
-150.618	-52.600	0.311	-0.142
-149.604	8.994	0.332	-0.248
-148.589	-61.395	-0.135	-0.056
-147.574	-30.087	-0.333	-0.187
-146.560	718.575	-0.046	0.120
-145.545	-137.191	-0.091	-0.010
-144.531	800.000	0.140	-0.472
-143.516	47.368	0.154	0.142
-142.502	267.602	0.028	-0.049
-141.487	800.000	-0.049	-0.204
-140.472	-8.330	0.126	0.083
-139.458	800.000	-0.072	0.288
-138.443	-87.816	0.281	-0.084
-137.429	12.672	-0.110	-0.084
-136.414	800.000	0.127	0.463
-135.399	-92.377	0.157	0.044
-134.385	-117.183	-0.229	-0.041
-133.370	-72.337	0.145	0.053
-132.356	-151.807	0.227	-0.016
-131.341	-200.000	0.027	-0.145
-130.326	-140.865	-0.359	-0.036
-129.312	493.166	0.133	-0.302
-128.297	-136.044	-0.240	0.028
-127.283	-200.000	-0.005	0.170
-126.268	8.068	0.231	-0.171
-125.253	55.178	-0.213	0.203
-124.239	-82.729	0.310	0.099
-123.224	-25.853	-0.193	-0.112
-122.210	-200.000	0.079	-0.401
-121.195	327.695	0.127	0.241
