DTS Sentinel unit serial number:	SN413079Multiplexer serial number:	ORYXHardware model number:	OX4-SRSoftware version number:	ORYX F/W v4.00 Oryx Data Collector v3.7.2.0data status	okinstallation	princeton_trtdifferential loss correction	single-endedforward channel	channel 3reverse channel	N/Adate	2019/09/13time	00:16:34forward acquisition time	60.00reverse acquisition time	0.00gamma	496.2192k internal	0.2329k external	0.2329temperature offset calibration	1.0127default loss term (dB/km)	0.3790temperature slope calibration	1.0000multiplexer offset coefficient	1.0000multiplexer slope coefficient	1.0000fibre end	0.00T internal ref (°C)	28.50T ext. ref 1 (°C)	3.76T ext. ref 2 (°C)	23.18length (m)	temperature (°C)	Stokes	anti-Stokes-747.200	33.252	-0.087	0.076
-746.185	97.262	0.118	0.136
-745.171	-200.000	0.019	0.145
-744.156	56.501	-0.257	0.252
-743.142	-173.892	0.318	0.009
-742.127	411.555	-0.143	0.306
-741.112	800.000	0.027	0.079
-740.098	40.448	-0.246	0.223
-739.083	-112.325	-0.330	0.067
-738.069	59.119	0.253	-0.251
-737.054	-200.000	-0.009	-0.071
-736.039	-64.499	-0.123	0.050
-735.025	-27.294	0.206	-0.121
-734.010	17.197	-0.200	-0.160
-732.996	-200.000	0.001	-0.471
-731.981	-200.000	-0.005	-0.265
-730.966	-4.741	-0.176	-0.122
-729.952	-80.105	-0.130	0.044
-728.937	-113.709	-0.121	-0.024
-727.923	-1.861	-0.172	-0.122
-726.908	-200.000	0.041	-0.222
-725.894	189.502	-0.107	-0.162
-724.879	-97.319	-0.391	-0.103
-723.864	396.663	0.089	-0.187
-722.850	-200.000	-0.036	-0.181
-721.835	140.546	0.171	0.227
-720.821	-158.878	-0.251	0.014
-719.806	404.740	0.003	-0.006
-718.791	800.000	0.092	-0.260
-717.777	-80.787	0.189	-0.063
-716.762	-59.241	-0.368	-0.159
-715.748	127.229	0.057	0.073
-714.733	26.060	0.191	0.160
-713.718	-200.000	0.013	0.069
-712.704	-200.000	0.020	0.087
-711.689	-200.000	0.038	-0.260
-710.675	286.516	0.030	0.055
-709.660	-200.000	0.058	-0.493
-708.645	633.744	-0.114	-0.290
-707.631	800.000	0.043	-0.124
-706.616	-200.000	0.005	0.235
-705.602	-109.983	0.115	-0.024
-704.587	-200.000	0.002	-0.075
-703.572	-42.681	0.159	0.081
-702.558	-171.447	-0.191	-0.006
-701.543	-200.000	-0.034	-0.208
-700.529	280.603	0.124	0.223
-699.514	-84.045	-0.207	-0.066
-698.499	360.722	0.029	-0.058
-697.485	753.847	-0.069	0.186
-696.470	34.287	-0.179	-0.157
-695.456	-133.808	-0.349	-0.044
-694.441	351.180	0.131	-0.260
-693.426	19.650	-0.200	-0.162
-692.412	-200.000	0.006	0.048
-691.397	338.265	0.062	0.122
-690.383	-26.266	0.088	0.052
-689.368	-158.401	0.308	0.018
-688.354	-181.982	-0.258	-0.005
-687.339	568.919	0.135	0.329
-686.324	-200.000	-0.009	-0.165
-685.310	800.000	-0.049	-0.192
-684.295	-200.000	-0.022	-0.214
-683.281	-126.814	-0.189	0.028
-682.266	-43.477	-0.274	-0.139
-681.251	113.474	0.123	0.150
-680.237	800.000	0.102	0.331
-679.222	290.997	-0.063	-0.115
-678.208	800.000	-0.029	-0.121
-677.193	800.000	-0.039	0.170
-676.178	65.814	0.171	-0.174
-675.164	105.438	-0.113	-0.134
-674.149	150.226	0.168	-0.229
-673.135	45.109	-0.234	0.217
-672.120	-28.292	-0.237	0.137
-671.105	166.333	-0.105	0.150
-670.091	17.252	-0.215	0.171
-669.076	1.706	-0.182	-0.132
-668.062	10.876	-0.309	0.237
-667.047	4.384	-0.207	0.152
-666.032	-134.856	0.234	-0.028
-665.018	-172.143	0.207	0.007
-664.003	-32.023	-0.313	-0.176
-662.989	8.485	-0.251	-0.190
-661.974	280.142	0.074	0.133
-660.959	-104.856	-0.100	-0.023
-659.945	-135.715	-0.344	-0.041
-658.930	-200.000	0.027	-0.306
-657.916	-116.278	0.315	-0.059
-656.901	-20.562	-0.099	0.061
-655.886	-91.437	0.055	-0.016
-654.872	296.079	0.057	-0.105
-653.857	39.340	0.202	-0.182
-652.843	485.351	0.065	-0.150
-651.828	91.213	0.162	-0.182
-650.814	-200.000	-0.021	-0.102
-649.799	777.692	0.084	-0.229
-648.784	208.855	0.057	0.090
-647.770	57.488	-0.057	-0.056
-646.755	800.000	-0.055	-0.183
-645.741	800.000	-0.043	-0.135
-644.726	800.000	-0.062	0.219
-643.711	-149.733	-0.210	0.017
-642.697	388.743	-0.173	0.359
-641.682	-14.000	0.230	0.149
-640.668	-190.927	0.129	0.001
-639.653	-194.984	-0.017	0.000
-638.638	220.141	0.027	-0.044
-637.624	92.461	0.183	0.207
-636.609	325.284	-0.055	-0.105
-635.595	211.100	-0.068	-0.108
-634.580	161.661	-0.038	-0.053
-633.565	96.969	0.136	0.157
-632.551	800.000	-0.102	-0.397
-631.536	-200.000	-0.050	-0.260
-630.522	-200.000	-0.011	0.202
-629.507	800.000	0.059	-0.253
-628.492	354.804	0.331	-0.661
-627.478	-58.443	0.219	-0.095
-626.463	234.380	0.177	-0.293
-625.449	371.829	-0.137	-0.280
-624.434	-69.120	-0.223	-0.086
-623.419	-68.084	0.124	0.048
-622.405	12.815	0.147	-0.114
-621.390	-180.180	-0.190	-0.004
-620.376	245.296	0.160	0.269
-619.361	140.152	0.127	0.167
-618.346	-21.574	-0.211	0.129
-617.332	-147.337	0.447	-0.038
-616.317	446.329	0.057	0.126
-615.303	26.466	-0.229	-0.192
-614.288	366.484	0.066	0.134
-613.273	800.000	0.049	0.186
-612.259	264.850	0.082	-0.143
-611.244	-138.306	-0.298	0.033
-610.230	230.922	0.215	0.352
-609.215	-52.133	-0.313	0.145
-608.201	169.018	-0.234	-0.335
-607.186	23.673	0.109	-0.090
-606.171	748.413	-0.038	0.103
-605.157	-146.124	-0.161	-0.014
-604.142	-190.170	-0.105	-0.001
-603.128	58.012	0.086	-0.084
-602.113	-200.000	-0.023	0.417
-601.098	-30.281	-0.181	-0.103
-600.084	-174.166	0.131	-0.004
-599.069	-145.484	0.237	-0.021
-598.055	15.340	-0.168	0.132
-597.040	-76.857	-0.241	-0.085
-596.025	88.846	-0.203	-0.226
-595.011	-80.371	0.153	0.051
-593.996	-36.267	-0.176	-0.095
-592.982	-8.563	-0.035	0.024
-591.967	21.016	0.189	0.153
-590.952	136.539	0.123	-0.160
-589.938	-183.431	-0.118	-0.002
-588.923	-154.912	0.169	-0.011
-587.909	592.347	-0.027	0.067
-586.894	-200.000	-0.012	0.074
-585.879	228.446	0.082	0.133
-584.865	-75.009	0.399	0.143
-583.850	-180.184	-0.210	-0.004
-582.836	129.500	0.363	-0.464
-581.821	-12.366	-0.031	0.020
-580.806	-200.000	0.013	-0.097
-579.792	-57.044	0.131	0.058
-578.777	-122.530	-0.031	-0.005
-577.763	149.186	-0.152	0.206
-576.748	-42.028	-0.230	0.118
-575.733	-86.858	-0.045	-0.014
-574.719	-200.000	0.025	-0.483
-573.704	-200.000	-0.050	-0.264
-572.690	109.209	0.076	-0.091
-571.675	-151.934	-0.254	0.019
-570.661	190.471	-0.146	-0.219
-569.646	-116.236	0.145	-0.027
-568.631	317.861	0.157	0.298
-567.617	-200.000	-0.025	-0.240
-566.602	-75.731	-0.224	-0.079
-565.588	366.751	-0.056	0.113
-564.573	800.000	-0.047	0.163
-563.558	92.757	0.105	-0.119
-562.544	342.478	-0.077	-0.151
-561.529	95.147	0.220	0.250
-560.515	800.000	0.051	0.193
-559.500	-200.000	-0.007	0.186
-558.485	-13.765	0.260	0.168
-557.471	504.587	-0.066	-0.153
-556.456	300.427	0.081	-0.150
-555.442	-6.175	0.171	-0.117
-554.427	-168.576	-0.401	0.015
-553.412	416.583	-0.158	0.337
-552.398	-200.000	0.046	-0.315
-551.383	224.378	-0.132	0.214
-550.369	103.053	-0.116	0.136
-549.354	-55.805	-0.155	-0.069
-548.339	-200.000	0.011	0.227
-547.325	276.342	0.129	-0.229
-546.310	49.831	0.224	-0.211
-545.296	-92.784	-0.317	0.089
-544.281	-19.462	-0.164	-0.101
-543.266	-176.524	0.058	0.002
-542.252	119.334	-0.147	0.182
-541.237	-103.896	0.303	0.071
-540.223	75.045	-0.237	-0.249
-539.208	16.565	0.160	-0.126
-538.193	140.006	-0.155	-0.204
-537.179	112.888	-0.054	-0.066
-536.164	11.628	-0.186	0.142
-535.150	-200.000	-0.029	0.132
-534.135	-178.672	-0.214	-0.005
-533.121	-108.075	0.381	-0.082
-532.106	-139.390	0.188	-0.020
-531.091	311.053	0.045	-0.084
-530.077	800.000	0.039	0.160
-529.062	-200.000	0.034	-0.167
-528.048	7.748	0.057	0.042
-527.033	-117.352	0.305	0.055
-526.018	-91.994	-0.314	-0.089
-525.004	1.601	0.103	0.074
-523.989	-95.252	0.242	-0.065
-522.975	-20.707	-0.217	0.133
-521.960	87.870	0.113	0.126
-520.945	82.183	0.077	0.083
-519.931	-60.772	0.318	0.134
-518.916	385.706	0.038	-0.078
-517.902	-149.696	-0.323	-0.025
-516.887	465.403	0.094	-0.210
-515.872	-24.998	0.129	0.077
-514.858	-96.120	-0.129	-0.034
-513.843	169.544	-0.263	-0.376
-512.829	800.000	0.056	0.214
-511.814	21.287	0.043	-0.035
-510.799	28.695	-0.163	0.138
-509.785	201.395	-0.119	-0.182
-508.770	-12.733	-0.352	-0.229
-507.756	-42.901	0.083	0.042
-506.741	175.032	0.149	0.216
-505.726	-49.165	0.279	0.133
-504.712	-200.000	0.024	-0.109
-503.697	27.376	-0.166	0.139
-502.683	-69.640	-0.300	-0.114
-501.668	117.142	-0.123	0.151
-500.653	-69.555	-0.182	-0.069
-499.639	-73.980	0.340	0.123
-498.624	-200.000	0.037	-0.362
-497.610	461.421	-0.105	0.234
-496.595	-69.993	0.164	0.062
-495.581	63.139	-0.179	0.178
-494.566	-200.000	-0.003	-0.114
-493.551	-26.169	-0.055	-0.032
-492.537	-40.049	-0.283	-0.147
-491.522	-91.664	0.400	0.113
-490.508	231.022	-0.103	0.168
-489.493	-200.000	0.041	0.298
-488.478	-57.820	-0.228	0.099
-487.464	-200.000	-0.023	-0.287
-486.449	45.807	-0.195	0.180
-485.435	-74.826	0.299	0.107
-484.420	-200.000	0.010	-0.117
-483.405	445.892	0.020	0.043
-482.391	800.000	-0.031	-0.096
-481.376	-79.095	0.178	-0.060
-480.362	791.086	0.098	-0.268
-479.347	-14.176	0.168	-0.108
-478.332	493.668	-0.054	0.124
-477.318	728.414	0.109	-0.289
-476.303	283.242	0.156	0.279
-475.289	-92.053	0.240	-0.068
-474.274	162.315	-0.054	0.075
-473.259	-61.779	-0.226	0.094
-472.245	117.456	0.052	-0.064
-471.230	685.512	0.127	-0.329
-470.216	18.706	-0.242	0.193
-469.201	-128.368	-0.166	0.024
-468.186	31.141	-0.229	0.196
-467.172	-79.890	0.170	0.057
-466.157	100.181	0.168	-0.195
-465.143	-12.404	-0.145	-0.094
-464.128	4.543	0.075	0.055
-463.113	800.000	0.038	-0.105
-462.099	-200.000	-0.011	0.076
-461.084	-200.000	0.040	0.226
-460.070	76.538	-0.173	-0.183
-459.055	-5.662	0.181	-0.124
-458.040	-11.778	-0.235	-0.154
-457.026	193.709	-0.158	-0.238
-456.011	-200.000	0.015	-0.109
-454.997	-200.000	0.012	-0.233
-453.982	-200.000	0.004	-0.206
-452.968	800.000	-0.043	0.168
-451.953	318.694	-0.070	0.131
-450.938	-33.465	-0.186	-0.102
-449.924	-52.558	-0.182	-0.084
-448.909	13.139	-0.182	-0.140
-447.895	211.834	-0.045	-0.071
-446.880	46.132	-0.153	-0.141
-445.865	7.997	-0.299	-0.223
-444.851	800.000	0.058	-0.210
-443.836	99.639	0.177	-0.204
-442.822	-23.458	0.150	0.090
-441.807	800.000	0.029	0.096
-440.792	-84.773	-0.247	-0.077
-439.778	474.849	-0.095	-0.213
-438.763	-200.000	0.030	-0.140
-437.749	800.000	-0.027	0.075
-436.734	800.000	-0.050	0.164
-435.719	-71.469	-0.161	0.060
-434.705	-200.000	0.034	0.239
-433.690	120.056	0.116	-0.143
-432.676	-122.672	-0.182	0.029
-431.661	-200.000	0.011	0.281
-430.646	-32.433	-0.152	-0.084
-429.632	-200.000	-0.012	-0.056
-428.617	81.515	-0.161	-0.173
-427.603	-200.000	0.011	-0.091
-426.588	-44.902	-0.180	-0.089
-425.573	38.218	-0.057	-0.050
-424.559	201.941	0.096	-0.147
-423.544	-135.317	0.444	-0.053
-422.530	130.795	-0.084	0.108
-421.515	-200.000	-0.005	-0.233
-420.500	-19.253	0.342	-0.211
-419.486	-126.855	-0.189	-0.028
-418.471	11.405	0.052	-0.040
-417.457	763.950	-0.126	-0.339
-416.442	111.366	-0.187	0.224
-415.428	165.242	0.104	0.146
-414.413	800.000	0.021	-0.087
-413.398	-86.993	0.277	0.084
-412.384	14.103	-0.211	-0.164
-411.369	-64.297	-0.144	0.058
-410.355	800.000	0.010	-0.042
-409.340	-200.000	0.073	0.480
-408.325	14.241	0.194	0.151
-407.311	-106.002	-0.383	0.086
-406.296	-200.000	0.014	-0.402
-405.282	264.102	-0.066	0.115
-404.267	144.004	0.164	0.218
-403.252	-112.678	0.361	-0.071
-402.238	176.458	-0.109	-0.157
-401.223	260.851	-0.051	-0.088
-400.209	171.182	-0.171	-0.243
-399.194	-47.473	-0.093	0.045
-398.179	-200.000	0.009	-0.095
-397.165	237.838	-0.079	0.130
-396.150	533.822	0.017	0.040
-395.136	-200.000	0.006	-0.071
-394.121	800.000	-0.087	-0.339
-393.106	182.092	-0.061	-0.090
-392.092	97.873	0.231	-0.264
-391.077	-102.767	-0.488	-0.116
-390.063	101.460	0.017	0.019
-389.048	-200.000	0.026	-0.306
-388.033	740.531	0.094	-0.250
-387.019	-160.795	0.178	0.009
-386.004	-47.312	-0.184	0.089
-384.990	-96.578	-0.329	-0.086
-383.975	474.834	-0.049	-0.110
-382.960	237.476	-0.235	-0.386
-381.946	-200.000	-0.016	-0.125
-380.931	-96.409	-0.262	0.069
-379.917	-200.000	-0.033	0.153
-378.902	-48.775	0.201	-0.096
-377.888	800.000	-0.044	0.189
-376.873	-200.000	-0.044	0.467
-375.858	-140.576	-0.138	0.014
-374.844	20.680	-0.088	-0.071
-373.829	18.122	0.130	-0.103
-372.815	-151.250	-0.259	-0.019
-371.800	800.000	-0.085	-0.348
-370.785	-200.000	-0.124	-0.000
-369.771	-39.103	0.247	-0.129
-368.756	-103.505	0.298	0.070
-367.742	58.924	0.113	0.110
-366.727	50.361	-0.307	0.288
-365.712	-141.057	0.184	0.019
-364.698	65.276	0.162	0.163
-363.683	-16.092	0.190	0.120
-362.669	-200.000	0.010	-0.182
-361.654	-200.000	0.019	0.158
-360.639	154.042	0.207	-0.281
-359.625	-200.000	0.053	0.353
-358.610	800.000	-0.045	0.130
-357.596	179.246	-0.059	0.085
-356.581	800.000	-0.013	0.042
-355.566	-41.911	0.226	0.115
-354.552	800.000	0.113	-0.390
-353.537	-200.000	-0.034	0.265
-352.523	800.000	-0.033	0.131
-351.508	-200.000	0.039	-0.294
-350.493	54.851	0.087	0.084
-349.479	-200.000	-0.019	-0.094
-348.464	83.820	0.128	0.138
-347.450	-200.000	-0.049	0.234
-346.435	-165.059	0.468	0.021
-345.420	-19.464	-0.163	-0.100
-344.406	274.034	0.191	-0.335
-343.391	-30.935	-0.193	0.108
-342.377	6.943	0.134	0.099
-341.362	-68.189	0.147	-0.057
-340.348	-200.000	-0.018	0.101
-339.333	17.688	0.079	-0.063
-338.318	-146.295	-0.142	0.012
-337.304	-38.154	0.370	0.195
-336.289	800.000	-0.150	-0.464
-335.275	800.000	0.044	-0.139
-334.260	-9.211	0.050	-0.033
-333.245	-94.302	0.283	-0.077
-332.231	240.644	-0.080	0.132
-331.216	-26.127	-0.147	0.086
-330.202	242.505	0.189	0.313
-329.187	-184.912	-0.302	0.005
-328.172	-93.274	0.240	0.066
-327.158	402.919	0.008	-0.017
-326.143	-120.037	0.199	-0.034
-325.129	-155.597	-0.135	-0.009
-324.114	-173.840	-0.222	-0.007
-323.099	800.000	-0.067	-0.261
-322.085	-200.000	0.081	0.587
-321.070	-132.617	-0.171	-0.022
-320.056	363.220	0.068	0.136
-319.041	221.390	0.151	0.241
-318.026	-63.942	0.148	-0.060
-317.012	-120.018	-0.145	-0.025
-315.997	82.162	-0.215	-0.231
-314.983	93.208	-0.185	-0.207
-313.968	-8.585	0.132	0.088
-312.953	21.202	0.187	0.151
-311.939	-200.000	0.030	0.300
-310.924	-175.438	-0.280	-0.008
-309.910	-35.639	0.158	0.085
-308.895	-200.000	-0.024	0.255
-307.880	68.603	0.036	0.037
-306.866	97.763	0.253	-0.288
-305.851	-200.000	0.030	-0.217
-304.837	-27.527	-0.099	0.057
-303.822	95.737	-0.147	0.166
-302.807	541.008	0.058	0.137
-301.793	-200.000	0.002	-0.182
-300.778	-200.000	0.327	-0.001
-299.764	-95.228	0.317	0.084
-298.749	12.396	0.143	0.109
-297.735	-200.000	-0.005	0.022
-296.720	-172.121	-0.269	0.009
-295.705	-189.327	0.498	0.006
-294.691	120.980	-0.266	-0.328
-293.676	-112.144	-0.089	-0.018
-292.662	-100.333	-0.092	0.023
-291.647	98.692	-0.197	-0.225
-290.632	-200.000	0.023	-0.132
-289.618	-132.047	0.305	-0.039
-288.603	443.237	0.046	-0.100
-287.589	9.275	0.065	0.049
-286.574	-200.000	0.015	0.263
-285.559	104.675	-0.069	0.081
-284.545	324.101	-0.071	0.135
-283.530	-113.266	-0.214	-0.042
-282.516	21.275	0.065	0.052
-281.501	132.705	0.103	-0.132
-280.486	-54.107	0.117	0.053
-279.472	-200.000	-0.039	0.240
-278.457	362.397	-0.083	-0.164
-277.443	67.952	0.023	0.023
-276.428	96.528	-0.216	0.244
-275.413	123.739	0.150	-0.186
-274.399	-150.754	-0.178	-0.013
-273.384	147.083	0.109	0.145
-272.370	16.520	-0.119	0.093
-271.355	747.036	0.036	0.095
-270.340	343.469	-0.148	0.287
-269.326	-38.334	-0.412	0.216
-268.311	800.000	0.057	-0.231
-267.297	380.568	-0.101	0.205
-266.282	-200.000	0.045	0.326
-265.267	149.982	-0.230	0.308
-264.253	-200.000	0.046	0.568
-263.238	-6.209	-0.217	-0.146
-262.224	188.445	0.094	0.139
-261.209	-78.901	0.338	-0.114
-260.195	-51.933	0.252	0.116
-259.180	662.556	-0.042	-0.108
-258.165	800.000	0.055	0.187
-257.151	99.503	0.061	0.070
-256.136	172.624	0.130	0.185
-255.122	-52.166	0.309	-0.142
-254.107	-10.461	-0.049	0.032
-253.092	-98.694	0.247	-0.062
-252.078	12.099	-0.276	-0.209
-251.063	-200.000	-0.044	0.204
-250.049	-96.769	-0.171	0.044
-249.034	-200.000	-0.052	-0.300
-248.019	90.034	-0.139	0.153
-247.005	-166.716	-0.247	0.010
-245.990	-60.488	0.315	0.132
-244.976	63.502	0.091	-0.090
-243.961	800.000	0.031	0.121
-242.946	103.171	0.101	-0.117
-241.932	800.000	-0.015	0.050
-240.917	-147.162	0.162	0.014
-239.903	-157.421	-0.020	0.001
-238.888	-91.357	0.389	0.110
-237.873	760.074	0.080	0.213
-236.859	-43.522	0.146	0.073
-235.844	199.781	-0.212	-0.321
-234.830	129.146	0.062	-0.078
-233.815	107.310	-0.188	0.220
-232.800	-200.000	-0.033	0.189
-231.786	321.106	0.171	-0.321
-230.771	-125.867	0.175	-0.026
-229.757	6.772	0.107	-0.079
-228.742	-127.082	-0.273	-0.040
-227.727	800.000	-0.061	0.203
-226.713	148.911	-0.029	0.038
-225.698	-83.566	-0.260	0.082
-224.684	-200.000	-0.007	-0.173
-223.669	-102.629	0.040	0.009
-222.655	-200.000	0.033	-0.189
-221.640	800.000	-0.104	0.394
-220.625	146.181	-0.066	0.087
-219.611	-200.000	0.083	0.400
-218.596	-111.304	0.119	-0.024
-217.582	373.523	0.115	0.232
-216.567	18.023	-0.134	-0.105
-215.552	375.308	-0.179	0.361
-214.538	-90.452	0.307	0.088
-213.523	107.833	0.162	-0.190
-212.509	-166.766	0.266	0.011
-211.494	190.461	-0.101	0.150
-210.479	-60.617	0.189	0.079
-209.465	-72.669	0.093	-0.034
-208.450	21.492	0.270	-0.217
-207.436	800.000	0.021	-0.064
-206.421	-48.482	-0.291	0.138
-205.406	484.513	0.143	0.320
-204.392	-200.000	0.002	0.049
-203.377	-152.117	-0.097	0.007
-202.363	800.000	0.074	-0.214
-201.348	24.067	-0.268	0.218
-200.333	800.000	0.052	0.193
-199.319	101.521	-0.295	-0.339
-198.304	352.616	-0.053	0.104
-197.290	24.464	0.030	0.024
-196.275	542.524	-0.042	-0.099
-195.260	-105.016	0.258	0.058
-194.246	78.694	0.062	0.066
-193.231	527.787	0.138	0.321
-192.217	-37.479	0.277	0.146
-191.202	800.000	0.103	-0.386
-190.187	-200.000	0.051	0.337
-189.173	-17.158	-0.117	-0.073
-188.158	30.980	0.252	-0.212
-187.144	-62.293	-0.105	0.043
-186.129	364.991	-0.107	-0.211
-185.114	-189.291	-0.101	0.001
-184.100	552.222	-0.092	0.217
-183.085	-78.462	0.155	-0.052
-182.071	-94.527	-0.190	0.051
-181.056	199.877	0.086	0.130
-180.042	-200.000	-0.058	0.340
-179.027	32.133	0.208	0.177
-178.012	-200.000	0.006	0.223
-176.998	-200.000	-0.052	0.374
-175.983	106.718	0.118	0.137
-174.969	-7.785	0.027	0.018
-173.954	-20.231	-0.342	-0.207
-172.939	-200.000	0.034	-0.289
-171.925	-6.363	0.181	0.121
-170.910	263.252	0.124	0.213
-169.896	67.850	-0.047	-0.047
-168.881	-77.660	-0.229	0.078
-167.866	18.238	-0.219	-0.172
-166.852	120.394	0.212	-0.259
-165.837	105.936	-0.097	-0.113
-164.823	-127.333	-0.062	-0.009
-163.808	-42.731	-0.312	-0.156
-162.793	-67.415	-0.332	-0.128
-161.779	-183.762	0.205	0.003
-160.764	-200.000	0.055	0.485
-159.750	53.687	0.154	0.146
-158.735	192.677	-0.105	-0.156
-157.720	113.654	-0.088	-0.105
-156.706	-91.298	0.337	-0.095
-155.691	120.856	-0.097	-0.118
-154.677	-200.000	0.031	-0.172
-153.662	25.508	0.197	-0.161
-152.647	-200.000	-0.014	-0.171
-151.633	-25.543	-0.202	0.118
-150.618	82.545	-0.120	-0.128
-149.604	-200.000	-0.007	-0.187
-148.589	394.065	-0.031	0.064
-147.574	-48.642	0.213	0.101
-146.560	800.000	-0.040	0.144
-145.545	-60.206	-0.103	-0.043
-144.531	-134.038	0.386	0.047
-143.516	201.905	-0.065	-0.099
-142.502	454.420	0.115	-0.250
-141.487	-51.425	-0.083	-0.038
-140.472	-200.000	0.046	0.370
-139.458	-114.594	-0.376	0.071
-138.443	-177.884	0.359	-0.008
-137.429	-103.270	-0.090	-0.021
-136.414	104.855	0.273	0.316
-135.399	-108.595	0.101	0.021
-134.385	97.350	-0.161	0.182
-133.370	39.793	-0.068	0.060
-132.356	-94.749	-0.177	0.047
-131.341	-15.511	0.190	-0.119
-130.326	-60.974	-0.137	-0.057
-129.312	-43.190	0.163	-0.081
-128.297	108.253	-0.085	-0.100
-127.283	-93.503	0.089	-0.024
-126.268	19.218	0.265	-0.209
-125.253	149.575	-0.221	-0.294
-124.239	800.000	-0.015	0.044
-123.224	-162.924	-0.226	-0.011
-122.210	476.264	0.118	0.263
-121.195	-18.940	0.221	0.135
