DTS Sentinel unit serial number:	SN413079Multiplexer serial number:	ORYXHardware model number:	OX4-SRSoftware version number:	ORYX F/W v4.00 Oryx Data Collector v3.7.2.0data status	okinstallation	princeton_trtdifferential loss correction	single-endedforward channel	channel 3reverse channel	N/Adate	2019/09/18time	01:52:35forward acquisition time	60.00reverse acquisition time	0.00gamma	496.2192k internal	0.2344k external	0.2344temperature offset calibration	0.9946default loss term (dB/km)	0.3790temperature slope calibration	1.0000multiplexer offset coefficient	1.0000multiplexer slope coefficient	1.0000fibre end	0.00T internal ref (°C)	22.98T ext. ref 1 (°C)	0.17T ext. ref 2 (°C)	16.65length (m)	temperature (°C)	Stokes	anti-Stokes-747.200	-92.071	-0.106	0.030
-746.185	-154.547	0.184	0.012
-745.171	781.789	0.058	-0.159
-744.156	127.327	-0.045	-0.057
-743.142	-13.480	-0.446	0.290
-742.127	-159.467	-0.218	-0.012
-741.112	-121.065	-0.171	-0.029
-740.098	-200.000	0.007	0.151
-739.083	-200.000	-0.021	-0.104
-738.069	800.000	0.042	-0.121
-737.054	-29.567	0.080	0.046
-736.039	-200.000	-0.011	-0.073
-735.025	-60.140	0.279	0.119
-734.010	-125.093	0.088	0.013
-732.996	168.749	-0.052	-0.074
-731.981	-200.000	-0.005	-0.051
-730.966	800.000	0.084	0.255
-729.952	-46.738	-0.084	0.041
-728.937	800.000	-0.059	0.241
-727.923	-74.710	-0.266	-0.096
-726.908	-72.051	0.268	0.099
-725.894	-7.661	-0.101	-0.068
-724.879	35.433	0.318	-0.279
-723.864	800.000	-0.071	-0.203
-722.850	21.107	-0.141	-0.114
-721.835	-35.314	0.299	-0.163
-720.821	317.764	-0.070	0.133
-719.806	-137.637	0.210	-0.024
-718.791	-200.000	0.019	0.140
-717.777	-55.163	0.151	-0.068
-716.762	320.184	-0.078	-0.149
-715.748	105.177	0.110	0.130
-714.733	-79.658	-0.229	-0.077
-713.718	-200.000	-0.001	-0.149
-712.704	-200.000	-0.020	-0.141
-711.689	-126.675	-0.408	0.060
-710.675	109.148	0.084	-0.100
-709.660	-4.441	0.123	-0.085
-708.645	175.091	-0.224	-0.324
-707.631	-66.838	-0.165	-0.065
-706.616	-200.000	0.057	-0.255
-705.602	-142.695	0.233	-0.023
-704.587	570.218	0.101	-0.246
-703.572	-134.739	-0.253	0.031
-702.558	146.143	-0.074	-0.099
-701.543	-78.121	-0.154	-0.053
-700.529	78.982	0.175	0.187
-699.514	-24.579	-0.274	0.163
-698.499	308.038	-0.093	0.173
-697.485	-57.866	-0.291	0.127
-696.470	-200.000	0.013	-0.162
-695.456	-200.000	-0.013	0.112
-694.441	667.841	-0.037	-0.095
-693.426	800.000	-0.123	-0.374
-692.412	800.000	-0.045	-0.160
-691.397	219.308	-0.256	-0.409
-690.383	10.264	0.217	0.165
-689.368	297.669	-0.091	-0.168
-688.354	89.534	0.197	-0.220
-687.339	-5.089	0.124	-0.085
-686.324	-140.406	-0.252	-0.026
-685.310	-64.213	-0.073	-0.030
-684.295	-200.000	-0.002	0.039
-683.281	-132.063	0.135	0.017
-682.266	-200.000	-0.007	0.218
-681.251	-66.417	-0.173	0.069
-680.237	241.149	-0.110	0.184
-679.222	129.941	-0.103	-0.132
-678.208	-200.000	-0.030	0.311
-677.193	-46.544	-0.076	0.037
-676.178	-107.440	0.257	-0.056
-675.164	-159.601	-0.169	-0.009
-674.149	232.675	0.080	0.131
-673.135	-86.237	-0.133	-0.041
-672.120	800.000	-0.076	0.329
-671.105	94.018	-0.093	-0.105
-670.091	178.413	0.136	-0.199
-669.076	-31.451	0.140	-0.079
-668.062	-200.000	-0.050	-0.357
-667.047	800.000	-0.033	0.102
-666.032	-200.000	-0.012	-0.338
-665.018	-99.422	-0.125	0.031
-664.003	-192.408	-0.185	-0.002
-662.989	-200.000	-0.055	0.301
-661.974	-62.326	0.206	-0.085
-660.959	-108.954	-0.361	0.077
-659.945	181.616	0.098	0.144
-658.930	-200.000	-0.001	-0.131
-657.916	800.000	0.018	-0.059
-656.901	-153.901	-0.087	0.006
-655.886	230.534	0.239	-0.390
-654.872	152.522	0.061	0.083
-653.857	23.098	-0.142	0.117
-652.843	355.972	-0.083	-0.164
-651.828	-25.304	-0.335	0.198
-650.814	0.867	0.341	0.244
-649.799	-91.007	-0.457	0.131
-648.784	-200.000	-0.070	0.325
-647.770	-0.073	-0.245	0.174
-646.755	-173.807	-0.366	0.011
-645.741	-200.000	0.030	0.298
-644.726	-49.697	-0.168	0.079
-643.711	189.830	0.117	-0.175
-642.697	-113.481	-0.204	0.040
-641.682	5.951	-0.278	-0.205
-640.668	-145.686	0.185	-0.016
-639.653	90.046	-0.083	-0.093
-638.638	64.993	-0.189	0.191
-637.624	46.748	0.101	0.094
-636.609	-200.000	-0.004	-0.023
-635.595	120.502	-0.081	0.101
-634.580	-200.000	-0.014	-0.099
-633.565	10.531	0.371	0.282
-632.551	-44.974	-0.067	-0.033
-631.536	800.000	0.030	0.099
-630.522	760.636	0.068	0.184
-629.507	-1.774	0.120	0.084
-628.492	-19.843	-0.199	0.123
-627.478	-200.000	0.015	0.134
-626.463	-40.174	-0.199	0.103
-625.449	-153.009	0.118	-0.008
-624.434	149.305	-0.279	0.376
-623.419	-17.822	0.133	0.083
-622.405	-124.156	-0.477	-0.074
-621.390	-52.958	-0.237	-0.109
-620.376	-18.553	0.163	0.101
-619.361	15.700	-0.350	0.274
-618.346	117.941	0.115	0.142
-617.332	-90.869	-0.318	0.091
-616.317	-200.000	0.012	0.258
-615.303	65.020	-0.021	-0.022
-614.288	-127.894	-0.196	-0.028
-613.273	17.333	0.179	0.141
-612.259	117.338	-0.051	-0.063
-611.244	273.697	0.044	-0.078
-610.230	-200.000	0.032	0.177
-609.215	412.789	-0.137	-0.290
-608.201	65.342	-0.094	0.095
-607.186	-55.687	-0.255	0.113
-606.171	86.412	0.119	-0.130
-605.157	-200.000	-0.050	0.290
-604.142	-200.000	-0.007	0.139
-603.128	-200.000	-0.025	-0.203
-602.113	-140.697	0.072	0.007
-601.098	303.312	-0.115	-0.212
-600.084	-94.551	-0.174	0.047
-599.069	-200.000	-0.038	-0.430
-598.055	-75.566	0.154	-0.054
-597.040	-12.292	-0.226	0.147
-596.025	88.497	0.237	-0.262
-595.011	148.519	0.199	-0.268
-593.996	-98.717	0.101	0.026
-592.982	-200.000	0.016	0.291
-591.967	261.527	0.130	0.223
-590.952	-200.000	-0.011	-0.137
-589.938	-200.000	-0.049	-0.289
-588.923	-200.000	-0.032	-0.156
-587.909	-56.471	0.151	0.067
-586.894	-84.940	-0.209	0.065
-585.879	-70.036	-0.313	0.119
-584.865	-67.765	-0.133	-0.052
-583.850	-75.461	0.247	-0.088
-582.836	-11.411	0.070	0.046
-581.821	133.880	0.129	-0.166
-580.806	21.968	-0.063	-0.051
-579.792	-93.210	0.255	-0.071
-578.777	111.849	0.173	-0.207
-577.763	228.646	-0.105	-0.170
-576.748	695.752	-0.064	0.166
-575.733	-200.000	-0.029	0.167
-574.719	-128.479	0.173	-0.024
-573.704	128.913	-0.287	0.364
-572.690	-139.187	-0.395	0.042
-571.675	-92.015	-0.082	-0.023
-570.661	16.308	-0.334	0.262
-569.646	24.130	-0.190	-0.156
-568.631	514.156	0.035	-0.080
-567.617	800.000	-0.048	-0.137
-566.602	80.278	0.152	0.162
-565.588	-200.000	0.020	-0.180
-564.573	-200.000	-0.000	-0.061
-563.558	-109.196	-0.405	0.085
-562.544	-200.000	-0.096	0.530
-561.529	270.606	-0.253	0.442
-560.515	53.652	0.031	0.030
-559.500	-71.405	0.163	-0.061
-558.485	-200.000	0.001	-0.020
-557.471	-3.845	-0.216	-0.149
-556.456	333.880	-0.094	0.180
-555.442	-200.000	0.012	-0.172
-554.427	81.280	-0.170	-0.182
-553.412	108.921	0.220	-0.262
-552.398	-48.198	-0.206	0.099
-551.383	159.815	0.098	0.136
-550.369	-88.300	-0.196	0.058
-549.354	-90.634	0.286	-0.082
-548.339	277.809	-0.095	-0.167
-547.325	-135.890	0.305	-0.036
-546.310	172.159	0.152	-0.217
-545.296	-175.834	0.134	0.004
-544.281	28.440	-0.040	0.034
-543.266	-0.405	-0.012	0.009
-542.252	800.000	0.028	0.102
-541.237	478.434	0.049	0.110
-540.223	-108.030	0.271	-0.058
-539.208	58.282	-0.181	0.176
-538.193	-14.707	-0.344	0.219
-537.179	-53.935	0.102	0.046
-536.164	-200.000	-0.097	-0.439
-535.150	-200.000	0.023	-0.255
-534.135	800.000	0.067	-0.201
-533.121	169.038	0.206	0.292
-532.106	-140.577	-0.182	-0.019
-531.091	-2.169	-0.151	0.105
-530.077	124.644	0.055	0.069
-529.062	-200.000	0.011	-0.053
-528.048	-200.000	-0.006	0.235
-527.033	-102.141	-0.273	-0.065
-526.018	-13.253	0.140	0.090
-525.004	233.125	0.181	0.295
-523.989	-59.484	0.239	-0.102
-522.975	-200.000	0.049	0.214
-521.960	9.944	-0.266	-0.201
-520.945	103.941	0.068	0.080
-519.931	-131.144	-0.065	-0.009
-518.916	-200.000	0.009	-0.048
-517.902	100.346	-0.144	-0.166
-516.887	575.932	-0.093	0.225
-515.872	274.685	0.095	0.167
-514.858	-76.113	0.251	-0.088
-513.843	-129.409	0.157	-0.022
-512.829	800.000	-0.053	-0.196
-511.814	-24.849	-0.170	-0.100
-510.799	-76.498	-0.283	0.098
-509.785	521.150	-0.047	-0.110
-508.770	109.944	0.059	0.070
-507.756	-200.000	0.038	-0.226
-506.741	800.000	0.045	-0.143
-505.726	-200.000	0.029	-0.276
-504.712	800.000	0.118	0.348
-503.697	-135.787	-0.138	0.016
-502.683	177.124	0.224	-0.323
-501.668	-40.050	0.332	-0.172
-500.653	379.734	-0.047	0.095
-499.639	-74.502	0.333	-0.119
-498.624	-200.000	0.012	0.154
-497.610	269.967	0.231	0.402
-496.595	-13.287	-0.335	0.216
-495.581	571.303	0.122	0.294
-494.566	-100.805	0.224	0.055
-493.551	249.951	0.160	-0.268
-492.537	800.000	-0.033	-0.098
-491.522	-83.296	-0.298	-0.095
-490.508	83.002	0.022	0.024
-489.493	-80.292	-0.067	0.022
-488.478	177.529	0.233	-0.336
-487.464	36.099	-0.147	-0.128
-486.449	539.778	0.043	0.101
-485.435	-200.000	0.016	0.195
-484.420	445.089	-0.060	-0.131
-483.405	800.000	0.087	0.247
-482.391	-151.522	-0.301	0.022
-481.376	-200.000	-0.045	0.199
-480.362	-200.000	0.004	0.058
-479.347	-200.000	-0.047	-0.244
-478.332	800.000	-0.013	-0.038
-477.318	648.570	-0.089	-0.224
-476.303	177.547	0.125	0.180
-475.289	13.873	-0.120	0.092
-474.274	-122.783	-0.208	0.033
-473.259	-134.631	0.341	-0.041
-472.245	67.694	-0.259	-0.262
-471.230	82.886	0.164	-0.176
-470.216	147.167	-0.186	-0.248
-469.201	699.295	0.029	-0.075
-468.186	76.131	-0.110	0.115
-467.172	-24.568	0.146	0.086
-466.157	162.748	0.174	0.242
-465.143	80.301	-0.122	-0.130
-464.128	-19.485	-0.155	0.095
-463.113	-200.000	-0.008	-0.117
-462.099	-164.467	-0.322	0.015
-461.084	-51.614	0.384	0.177
-460.070	-118.008	0.322	-0.057
-459.055	241.517	0.055	-0.092
-458.040	-200.000	-0.007	-0.264
-457.026	-191.754	0.112	0.001
-456.011	11.284	0.042	0.032
-454.997	32.531	-0.417	0.357
-453.982	-200.000	-0.014	0.208
-452.968	88.320	-0.187	0.206
-451.953	-125.098	-0.174	-0.026
-450.938	-200.000	-0.099	0.492
-449.924	77.383	-0.347	-0.365
-448.909	-136.594	-0.177	0.020
-447.895	-61.971	0.102	-0.042
-446.880	693.122	0.058	-0.151
-445.865	-200.000	0.037	0.292
-444.851	37.964	-0.129	-0.114
-443.836	283.426	0.108	-0.192
-442.822	-125.737	-0.097	-0.014
-441.807	450.568	0.106	-0.232
-440.792	111.690	0.206	0.245
-439.778	-33.040	-0.297	0.163
-438.763	131.976	-0.041	-0.052
-437.749	800.000	-0.030	-0.086
-436.734	271.266	-0.248	-0.432
-435.719	54.407	0.054	-0.051
-434.705	3.943	-0.231	-0.167
-433.690	-46.753	0.172	-0.083
-432.676	-3.403	0.107	0.074
-431.661	644.107	0.130	-0.328
-430.646	-200.000	-0.003	0.197
-429.632	-86.692	-0.080	0.024
-428.617	-24.623	0.132	0.077
-427.603	-91.064	-0.317	0.090
-426.588	-16.149	0.059	0.037
-425.573	-138.823	-0.096	0.010
-424.559	800.000	-0.036	0.142
-423.544	22.717	0.136	-0.110
-422.530	373.705	-0.136	0.273
-421.515	800.000	0.127	0.351
-420.500	124.165	0.087	-0.108
-419.486	-98.287	0.198	-0.050
-418.471	221.632	-0.130	-0.206
-417.457	145.301	-0.138	-0.182
-416.442	-124.081	0.311	0.048
-415.428	78.988	-0.050	0.053
-414.413	-50.068	0.308	-0.144
-413.398	772.428	-0.138	-0.373
-412.384	-200.000	0.003	0.033
-411.369	28.653	0.265	-0.222
-410.355	173.620	-0.123	0.175
-409.340	-200.000	0.004	-0.135
-408.325	800.000	0.056	-0.206
-407.311	-130.317	-0.196	0.026
-406.296	407.283	-0.026	-0.053
-405.282	-134.550	0.589	-0.071
-404.267	-55.810	-0.254	-0.112
-403.252	800.000	0.049	0.139
-402.238	65.149	0.401	-0.400
-401.223	32.844	0.211	0.180
-400.209	-98.966	0.082	0.021
-399.194	117.182	0.115	-0.140
-398.179	30.222	-0.076	-0.064
-397.165	605.860	0.147	0.363
-396.150	23.638	0.239	0.194
-395.136	-137.783	-0.119	-0.013
-394.121	800.000	0.018	0.059
-393.106	106.671	-0.087	0.102
-392.092	-118.671	0.230	-0.040
-391.077	-65.303	0.241	0.096
-390.063	800.000	0.058	0.211
-389.048	-47.513	0.201	0.096
-388.033	-76.779	0.198	-0.068
-387.019	-164.590	0.110	-0.005
-386.004	-152.970	-0.266	-0.018
-384.990	-10.999	0.228	0.149
-383.975	109.263	-0.131	0.154
-382.960	-40.645	-0.214	-0.110
-381.946	-80.807	0.062	-0.020
-380.931	-97.306	-0.277	-0.071
-379.917	-106.578	0.233	-0.051
-378.902	-200.000	0.001	0.110
-377.888	800.000	-0.003	0.009
-376.873	-200.000	-0.016	-0.083
-375.858	73.377	0.088	0.091
-374.844	-10.493	-0.120	-0.078
-373.829	12.494	0.167	-0.127
-372.815	273.713	-0.125	-0.217
-371.800	-92.654	0.436	0.120
-370.785	-38.789	-0.304	0.158
-369.771	800.000	-0.086	-0.365
-368.756	-4.218	0.013	-0.009
-367.742	-2.809	-0.327	0.225
-366.727	-69.838	0.160	0.060
-365.712	351.712	0.062	-0.121
-364.698	-200.000	0.049	-0.349
-363.683	-35.822	0.253	0.135
-362.669	13.223	0.067	-0.051
-361.654	233.692	0.133	-0.215
-360.639	-36.209	0.247	-0.132
-359.625	60.964	0.277	0.271
-358.610	-200.000	0.004	-0.075
-357.596	26.358	0.119	0.098
-356.581	-151.842	-0.242	0.017
-355.566	-106.621	-0.278	0.061
-354.552	12.115	0.118	0.090
-353.537	70.505	-0.030	-0.030
-352.523	-200.000	-0.040	-0.219
-351.508	-200.000	-0.029	-0.282
-350.493	550.351	-0.116	0.274
-349.479	155.753	0.287	0.390
-348.464	-87.832	-0.204	-0.061
-347.450	-87.299	-0.101	-0.030
-346.435	113.807	0.254	0.304
-345.420	-46.460	-0.290	0.140
-344.406	-200.000	-0.042	0.330
-343.391	82.059	-0.263	-0.280
-342.377	-200.000	-0.216	0.000
-341.362	-200.000	0.025	-0.109
-340.348	328.002	-0.151	0.285
-339.333	58.290	0.346	0.334
-338.318	23.386	0.284	-0.230
-337.304	-169.740	0.099	-0.004
-336.289	70.584	0.108	-0.110
-335.275	-65.952	0.198	0.078
-334.260	-31.931	0.040	-0.022
-333.245	800.000	-0.010	0.035
-332.231	-159.816	0.195	-0.011
-331.216	-100.524	0.055	-0.013
-330.202	757.629	-0.054	0.143
-329.187	75.748	0.130	-0.135
-328.172	800.000	0.046	0.130
-327.158	-85.068	-0.071	0.022
-326.143	563.752	-0.047	-0.111
-325.129	49.975	-0.244	-0.226
-324.114	-81.234	0.150	-0.049
-323.099	-37.509	0.136	-0.072
-322.085	-200.000	0.016	0.121
-321.070	659.384	0.029	0.073
-320.056	453.379	0.082	0.178
-319.041	375.946	-0.057	-0.115
-318.026	30.591	0.267	-0.224
-317.012	-24.745	0.302	0.176
-315.997	502.954	-0.096	-0.218
-314.983	276.700	0.140	0.246
-313.968	800.000	0.028	-0.109
-312.953	800.000	0.114	-0.414
-311.939	-158.072	-0.169	-0.010
-310.924	-200.000	-0.031	0.274
-309.910	21.001	-0.342	0.273
-308.895	49.039	0.179	-0.165
-307.880	111.781	0.135	-0.160
-306.866	-200.000	0.008	0.170
-305.851	-4.905	0.165	-0.112
-304.837	39.931	0.267	0.236
-303.822	28.620	0.427	0.355
-302.807	-121.295	0.250	-0.041
-301.793	800.000	0.092	-0.278
-300.778	-161.361	-0.436	-0.022
-299.764	-200.000	-0.024	0.164
-298.749	480.247	0.119	-0.266
-297.735	331.207	-0.218	-0.413
-296.720	-170.529	0.081	-0.003
-295.705	-35.618	0.148	0.079
-294.691	-200.000	-0.002	0.041
-293.676	-51.889	-0.158	-0.072
-292.662	681.201	-0.135	0.346
-291.647	-200.000	0.014	-0.333
-290.632	800.000	-0.073	-0.219
-289.618	-22.574	0.291	0.173
-288.603	218.356	-0.165	-0.259
-287.589	-15.377	-0.115	-0.072
-286.574	-168.190	0.196	0.007
-285.559	-18.449	-0.133	0.082
-284.545	-200.000	0.023	0.129
-283.530	-34.907	-0.240	0.129
-282.516	-200.000	0.021	0.111
-281.501	45.598	0.100	-0.091
-280.486	-119.550	-0.244	0.042
-279.472	-3.516	-0.087	-0.060
-278.457	-200.000	-0.019	-0.161
-277.443	173.348	-0.019	-0.027
-276.428	-52.662	-0.328	-0.149
-275.413	-200.000	-0.036	0.301
-274.399	32.041	0.084	0.071
-273.384	41.990	0.058	-0.052
-272.370	155.181	0.216	-0.292
-271.355	26.175	-0.217	0.178
-270.340	-56.770	-0.220	0.095
-269.326	42.368	-0.176	0.157
-268.311	169.479	0.187	0.263
-267.297	-43.294	-0.088	0.044
-266.282	553.468	0.106	0.251
-265.267	84.024	-0.156	0.167
-264.253	478.846	-0.193	0.429
-263.238	-133.673	0.261	-0.032
-262.224	21.827	-0.189	-0.151
-261.209	-148.718	-0.312	0.025
-260.195	261.354	0.071	-0.120
-259.180	-130.250	-0.104	0.014
-258.165	-159.000	-0.185	-0.010
-257.151	800.000	0.041	0.134
-256.136	62.811	0.129	-0.127
-255.122	98.041	-0.045	-0.051
-254.107	737.436	0.098	-0.257
-253.092	271.641	0.146	0.253
-252.078	328.113	0.055	-0.103
-251.063	-86.797	0.373	-0.112
-250.049	800.000	-0.070	-0.279
-249.034	-9.051	-0.108	0.071
-248.019	-200.000	-0.019	0.174
-247.005	-135.082	0.295	-0.035
-245.990	-9.229	-0.096	0.063
-244.976	38.384	0.315	0.275
-243.961	67.020	-0.143	-0.143
-242.946	-60.231	-0.116	-0.049
-241.932	73.532	0.227	0.233
-240.917	-200.000	0.003	-0.038
-239.903	49.529	0.164	-0.152
-238.888	-200.000	-0.053	-0.341
-237.873	30.791	-0.242	-0.203
-236.859	800.000	0.058	-0.210
-235.844	-200.000	-0.048	0.207
-234.830	238.418	0.124	0.201
-233.815	-60.052	0.154	0.064
-232.800	-80.530	-0.358	-0.117
-231.786	-200.000	0.055	0.255
-230.771	-22.928	-0.236	-0.140
-229.757	96.886	0.188	0.211
-228.742	-137.597	-0.431	0.048
-227.727	116.433	-0.075	0.090
-226.713	50.114	0.173	-0.160
-225.698	736.852	0.061	-0.160
-224.684	235.739	0.121	0.196
-223.669	121.009	-0.090	-0.109
-222.655	-181.850	0.048	-0.001
-221.640	467.667	-0.109	-0.240
-220.625	190.976	0.324	-0.478
-219.611	-200.000	-0.031	-0.141
-218.596	-87.514	0.288	-0.085
-217.582	354.190	-0.121	-0.236
-216.567	800.000	0.095	-0.303
-215.552	-200.000	0.018	-0.158
-214.538	-200.000	-0.014	0.192
-213.523	138.788	-0.259	0.333
-212.509	-16.372	0.189	-0.118
-211.494	800.000	-0.054	-0.213
-210.479	-74.284	-0.105	0.037
-209.465	-105.089	0.371	-0.083
-208.450	-200.000	-0.030	-0.311
-207.436	8.145	-0.249	0.183
-206.421	-173.712	0.193	0.006
-205.406	-60.588	0.107	-0.044
-204.392	60.634	0.185	0.180
-203.377	29.278	0.238	-0.198
-202.363	-135.909	-0.218	-0.025
-201.348	-106.360	-0.136	-0.030
-200.333	-200.000	0.006	0.090
-199.319	-200.000	0.019	0.265
-198.304	-200.000	0.015	0.227
-197.290	-186.780	0.058	0.001
-196.275	800.000	0.064	-0.257
-195.260	-200.000	-0.004	0.109
-194.246	-200.000	0.044	0.219
-193.231	-200.000	0.016	-0.137
-192.217	800.000	-0.114	-0.324
-191.202	417.539	-0.053	0.110
-190.187	396.946	-0.096	-0.196
-189.173	292.963	-0.194	0.347
-188.158	800.000	0.089	-0.299
-187.144	410.209	0.160	-0.332
-186.129	37.619	-0.291	-0.253
-185.114	210.148	-0.065	-0.099
-184.100	800.000	-0.072	-0.238
-183.085	-160.750	-0.162	-0.008
-182.071	-121.468	0.313	-0.051
-181.056	254.239	-0.053	0.089
-180.042	129.012	-0.096	0.120
-179.027	-154.649	0.238	0.015
-178.012	332.677	0.127	-0.240
-176.998	-200.000	0.002	-0.149
-175.983	110.500	-0.118	0.139
-174.969	800.000	0.035	-0.111
-173.954	170.473	-0.135	-0.190
-172.939	-86.735	0.090	-0.027
-171.925	68.150	-0.272	0.272
-170.910	50.974	-0.035	-0.033
-169.896	800.000	0.025	-0.099
-168.881	-97.826	-0.222	0.056
-167.866	-104.152	-0.098	0.022
-166.852	800.000	0.079	-0.280
-165.837	800.000	0.059	-0.244
-164.823	-24.707	0.179	0.104
-163.808	-33.463	0.432	0.234
-162.793	-200.000	0.039	0.187
-161.779	-200.000	0.054	0.264
-160.764	800.000	0.032	-0.118
-159.750	52.404	0.206	0.192
-158.735	-15.650	0.164	0.103
-157.720	26.890	0.120	-0.099
-156.706	215.473	-0.150	0.232
-155.691	-111.364	0.322	0.064
-154.677	227.837	-0.190	-0.302
-153.662	-82.749	-0.213	-0.067
-152.647	-157.421	0.218	0.013
-151.633	-200.000	-0.016	-0.138
-150.618	66.254	-0.303	0.301
-149.604	128.497	0.081	0.101
-148.589	-155.796	0.099	-0.006
-147.574	2.361	0.144	0.102
-146.560	187.205	-0.101	0.148
-145.545	177.687	-0.092	0.130
-144.531	13.098	0.056	-0.043
-143.516	-54.505	0.228	-0.101
-142.502	380.790	0.028	0.056
-141.487	-200.000	0.038	-0.237
-140.472	-4.025	0.131	0.088
-139.458	-200.000	-0.046	-0.241
-138.443	-87.774	0.063	0.018
-137.429	367.713	-0.155	-0.306
-136.414	-200.000	-0.009	-0.280
-135.399	-2.961	0.023	-0.016
-134.385	-84.125	0.194	-0.060
-133.370	44.616	-0.206	-0.185
-132.356	-183.409	-0.329	-0.006
-131.341	218.782	0.161	0.251
-130.326	-101.541	-0.201	0.048
-129.312	-181.910	0.079	0.001
-128.297	573.700	-0.090	-0.214
-127.283	-122.318	-0.398	0.063
-126.268	800.000	0.039	0.111
-125.253	-10.405	0.247	0.160
-124.239	-200.000	0.037	0.213
-123.224	-94.636	-0.279	0.074
-122.210	174.683	0.099	0.140
