DTS Sentinel unit serial number:	SN413079Multiplexer serial number:	ORYXHardware model number:	OX4-SRSoftware version number:	ORYX F/W v4.00 Oryx Data Collector v3.7.2.0data status	okinstallation	princeton_trtdifferential loss correction	single-endedforward channel	channel 3reverse channel	N/Adate	2019/09/14time	05:56:35forward acquisition time	60.00reverse acquisition time	0.00gamma	496.2192k internal	0.2338k external	0.2338temperature offset calibration	1.0054default loss term (dB/km)	0.3790temperature slope calibration	1.0000multiplexer offset coefficient	1.0000multiplexer slope coefficient	1.0000fibre end	0.00T internal ref (°C)	26.87T ext. ref 1 (°C)	3.41T ext. ref 2 (°C)	21.16length (m)	temperature (°C)	Stokes	anti-Stokes-747.200	-200.000	-0.008	-0.195
-746.185	-200.000	0.036	-0.264
-745.171	-58.228	-0.165	-0.072
-744.156	44.864	0.047	0.043
-743.142	-52.587	0.158	-0.073
-742.127	213.187	-0.198	0.313
-741.112	-125.277	0.180	0.028
-740.098	693.002	-0.219	0.576
-739.083	-148.925	-0.034	-0.003
-738.069	104.819	-0.067	0.079
-737.054	800.000	0.069	0.267
-736.039	396.542	-0.100	-0.210
-735.025	173.071	0.295	0.427
-734.010	-108.080	-0.113	-0.024
-732.996	-84.774	-0.604	-0.191
-731.981	-200.000	-0.044	-0.246
-730.966	-58.099	0.150	-0.066
-729.952	-200.000	0.004	-0.080
-728.937	-54.007	-0.118	0.054
-727.923	800.000	0.047	-0.179
-726.908	138.091	0.094	-0.123
-725.894	-200.000	0.084	-0.596
-724.879	800.000	-0.021	0.068
-723.864	54.710	-0.068	0.065
-722.850	-3.504	-0.175	-0.122
-721.835	-45.453	-0.342	0.170
-720.821	-200.000	0.009	-0.220
-719.806	-88.403	-0.300	-0.090
-718.791	411.469	0.114	0.243
-717.777	-109.006	-0.227	0.048
-716.762	-66.942	-0.272	-0.108
-715.748	308.921	0.142	-0.266
-714.733	109.531	-0.100	-0.120
-713.718	-116.663	0.220	0.040
-712.704	-68.913	-0.306	-0.118
-711.689	648.421	0.078	0.200
-710.675	-14.880	-0.127	-0.082
-709.660	100.602	0.125	-0.145
-708.645	309.838	0.026	-0.049
-707.631	-70.135	-0.225	-0.086
-706.616	-200.000	-0.014	-0.249
-705.602	15.721	-0.207	-0.163
-704.587	800.000	-0.068	0.227
-703.572	36.833	0.162	0.144
-702.558	-200.000	0.045	0.201
-701.543	800.000	-0.081	-0.348
-700.529	506.107	-0.044	-0.102
-699.514	-52.721	0.190	-0.088
-698.499	230.990	0.134	-0.220
-697.485	-200.000	-0.022	0.179
-696.470	-128.523	0.199	-0.028
-695.456	-105.675	0.366	0.083
-694.441	-200.000	-0.029	0.159
-693.426	-200.000	0.015	0.150
-692.412	800.000	-0.025	-0.084
-691.397	253.529	-0.142	-0.243
-690.383	-47.205	-0.323	0.158
-689.368	424.897	-0.013	0.029
-688.354	4.624	0.183	0.134
-687.339	-42.654	-0.093	0.047
-686.324	-200.000	-0.008	-0.252
-685.310	238.784	0.162	-0.269
-684.295	34.985	0.290	0.254
-683.281	289.441	0.129	-0.234
-682.266	-179.224	-0.255	0.006
-681.251	-89.004	-0.293	0.087
-680.237	800.000	0.081	0.310
-679.222	107.512	-0.176	-0.209
-678.208	38.542	-0.125	-0.112
-677.193	479.239	0.047	-0.107
-676.178	5.133	-0.121	-0.089
-675.164	90.442	-0.037	-0.042
-674.149	-16.425	0.233	0.148
-673.135	-17.689	-0.358	0.225
-672.120	-15.239	0.138	-0.088
-671.105	52.024	-0.133	-0.126
-670.091	449.409	-0.040	0.089
-669.076	800.000	-0.013	0.055
-668.062	665.165	0.078	0.201
-667.047	688.771	0.086	0.226
-666.032	189.525	0.293	0.439
-665.018	800.000	-0.047	0.140
-664.003	118.351	-0.128	-0.158
-662.989	-200.000	0.022	0.230
-661.974	-158.222	-0.195	-0.011
-660.959	69.562	0.078	-0.081
-659.945	108.667	-0.126	-0.150
-658.930	-200.000	-0.058	0.333
-657.916	-76.707	-0.296	-0.104
-656.901	-68.362	0.200	-0.078
-655.886	-126.678	-0.177	0.026
-654.872	135.810	-0.233	0.304
-653.857	95.976	-0.090	0.103
-652.843	-140.439	-0.255	-0.027
-651.828	-23.493	-0.410	0.246
-650.814	-63.856	-0.051	0.021
-649.799	-105.729	-0.408	-0.092
-648.784	289.426	0.077	-0.140
-647.770	291.004	-0.100	0.182
-646.755	-200.000	0.046	0.321
-645.741	90.556	-0.080	0.090
-644.726	-200.000	-0.031	0.330
-643.711	-200.000	0.028	0.139
-642.697	-44.778	-0.163	0.081
-641.682	259.738	0.061	0.105
-640.668	146.563	0.160	-0.214
-639.653	-93.838	-0.241	0.066
-638.638	-92.973	-0.182	-0.051
-637.624	-200.000	0.022	0.309
-636.609	-200.000	0.008	0.097
-635.595	182.295	-0.099	0.146
-634.580	159.152	-0.114	-0.158
-633.565	631.996	0.072	0.183
-632.551	-25.363	0.334	-0.197
-631.536	800.000	0.035	-0.129
-630.522	-200.000	-0.004	0.191
-629.507	333.148	0.129	-0.249
-628.492	113.905	-0.190	-0.230
-627.478	-64.360	0.189	-0.077
-626.463	-54.054	0.277	-0.126
-625.449	-130.403	-0.234	0.032
-624.434	-84.140	-0.324	-0.103
-623.419	107.099	0.172	0.204
-622.405	-200.000	-0.018	-0.121
-621.390	63.418	0.073	0.073
-620.376	153.440	-0.139	-0.190
-619.361	114.869	-0.271	-0.330
-618.346	-134.918	0.214	-0.026
-617.332	186.362	-0.213	-0.317
-616.317	-123.585	-0.041	-0.007
-615.303	-200.000	0.009	-0.205
-614.288	3.194	-0.063	-0.046
-613.273	-62.463	-0.060	-0.025
-612.259	-13.671	-0.219	-0.142
-611.244	-157.459	0.427	-0.026
-610.230	339.613	-0.104	0.203
-609.215	800.000	0.079	0.256
-608.201	-200.000	-0.040	-0.463
-607.186	-22.622	0.166	0.100
-606.171	101.685	-0.189	-0.220
-605.157	-200.000	0.016	-0.359
-604.142	-80.410	-0.216	-0.072
-603.128	242.071	-0.217	0.363
-602.113	-115.037	-0.135	-0.026
-601.098	-103.461	0.204	0.048
-600.084	-7.431	0.044	-0.030
-599.069	800.000	0.123	0.369
-598.055	-49.248	0.264	0.126
-597.040	33.432	-0.284	0.246
-596.025	800.000	0.127	-0.421
-595.011	-134.144	0.298	0.037
-593.996	720.407	-0.072	-0.190
-592.982	-115.612	-0.274	-0.051
-591.967	40.576	-0.369	0.332
-590.952	137.036	-0.075	0.097
-589.938	-200.000	0.033	0.187
-588.923	-161.325	0.347	-0.018
-587.909	146.752	0.123	-0.165
-586.894	434.202	-0.086	0.187
-585.879	-15.997	-0.352	0.223
-584.865	-17.397	-0.212	0.133
-583.850	614.720	-0.025	-0.063
-582.836	118.092	-0.135	0.166
-581.821	34.463	-0.304	-0.264
-580.806	36.809	0.084	0.074
-579.792	114.053	-0.102	0.124
-578.777	-200.000	-0.017	-0.083
-577.763	-26.401	-0.244	-0.142
-576.748	366.427	-0.083	0.167
-575.733	800.000	0.131	0.438
-574.719	117.911	-0.120	-0.147
-573.704	-200.000	0.001	-0.259
-572.690	-90.759	0.140	0.040
-571.675	-163.342	-0.359	-0.017
-570.661	-200.000	-0.019	-0.106
-569.646	-200.000	-0.034	-0.519
-568.631	161.076	-0.205	0.285
-567.617	-57.056	0.229	-0.101
-566.602	4.592	0.096	-0.071
-565.588	-200.000	0.050	0.223
-564.573	-33.821	0.336	0.184
-563.558	-176.205	-0.147	0.004
-562.544	80.934	0.081	0.087
-561.529	212.063	-0.097	0.152
-560.515	198.803	-0.185	-0.283
-559.500	800.000	0.076	0.254
-558.485	-13.524	-0.227	-0.147
-557.471	-200.000	0.005	0.108
-556.456	610.421	-0.100	0.250
-555.442	-107.166	0.235	-0.052
-554.427	-42.955	-0.307	0.155
-553.412	7.667	-0.125	0.093
-552.398	-57.195	0.280	-0.123
-551.383	19.691	0.165	-0.132
-550.369	800.000	0.040	-0.132
-549.354	-158.539	-0.279	-0.016
-548.339	89.276	-0.105	0.116
-547.325	-200.000	0.004	-0.049
-546.310	101.135	-0.210	-0.244
-545.296	-200.000	-0.036	-0.278
-544.281	800.000	0.079	0.335
-543.266	285.271	0.208	0.372
-542.252	1.224	-0.083	0.060
-541.237	49.691	0.101	0.094
-540.223	-40.079	0.374	0.194
-539.208	-143.003	0.160	-0.015
-538.193	-74.118	-0.217	0.078
-537.179	-165.924	-0.163	0.007
-536.164	800.000	-0.085	-0.239
-535.150	-0.255	0.404	0.286
-534.135	-200.000	0.086	0.544
-533.121	-200.000	0.007	0.078
-532.106	-200.000	0.004	0.024
-531.091	-181.021	-0.104	-0.002
-530.077	-9.839	-0.114	-0.075
-529.062	102.160	-0.173	-0.201
-528.048	122.086	0.076	0.095
-527.033	-165.328	-0.295	-0.013
-526.018	527.160	-0.081	0.190
-525.004	800.000	-0.110	0.317
-523.989	356.316	-0.093	-0.185
-522.975	-141.809	0.207	-0.021
-521.960	326.258	0.026	0.049
-520.945	-7.689	0.177	-0.119
-519.931	-182.815	0.457	0.008
-518.916	-17.935	0.293	0.183
-517.902	-45.963	-0.167	0.082
-516.887	39.409	-0.128	0.114
-515.872	127.025	0.081	0.102
-514.858	48.979	-0.150	-0.140
-513.843	79.911	-0.080	-0.086
-512.829	59.121	0.209	-0.204
-511.814	769.885	-0.093	0.251
-510.799	-89.186	0.254	-0.074
-509.785	-153.132	0.176	-0.012
-508.770	-200.000	-0.020	0.129
-507.756	361.930	0.105	-0.209
-506.741	-33.369	-0.237	0.131
-505.726	-200.000	-0.006	0.259
-504.712	307.491	0.024	0.045
-503.697	-152.820	0.055	0.004
-502.683	148.714	0.038	-0.052
-501.668	800.000	-0.077	-0.280
-500.653	-41.799	-0.202	0.103
-499.639	-50.210	0.022	0.010
-498.624	144.556	0.121	-0.161
-497.610	-1.116	-0.260	0.183
-496.595	-165.115	0.263	-0.012
-495.581	-168.005	-0.431	-0.017
-494.566	-200.000	-0.374	0.000
-493.551	-94.294	-0.162	0.044
-492.537	-166.427	0.438	0.018
-491.522	67.700	0.159	-0.161
-490.508	191.284	0.138	-0.207
-489.493	-66.486	-0.113	0.045
-488.478	-158.336	-0.100	-0.006
-487.464	-20.634	0.136	0.083
-486.449	-53.815	-0.144	-0.065
-485.435	21.065	0.472	0.380
-484.420	-200.000	0.063	0.310
-483.405	64.584	-0.166	0.167
-482.391	-35.712	-0.310	-0.167
-481.376	800.000	-0.063	-0.185
-480.362	-121.025	-0.148	-0.025
-479.347	-9.756	0.258	-0.171
-478.332	60.830	0.235	-0.232
-477.318	-200.000	-0.014	-0.174
-476.303	-78.510	-0.119	0.040
-475.289	-200.000	-0.006	-0.162
-474.274	-94.088	-0.168	0.046
-473.259	232.037	-0.182	0.297
-472.245	203.766	0.060	-0.092
-471.230	701.816	-0.043	-0.112
-470.216	800.000	0.069	-0.282
-469.201	-7.484	-0.180	-0.121
-468.186	108.459	0.164	0.195
-467.172	277.889	0.130	-0.230
-466.157	74.794	0.185	0.193
-465.143	-126.391	0.153	0.023
-464.128	588.723	-0.058	0.142
-463.113	370.958	0.081	-0.163
-462.099	224.430	-0.099	-0.159
-461.084	-81.639	0.385	-0.126
-460.070	88.257	0.098	-0.108
-459.055	142.145	-0.209	0.276
-458.040	-200.000	-0.062	0.337
-457.026	-7.736	-0.067	-0.045
-456.011	-200.000	-0.004	-0.217
-454.997	106.299	-0.165	-0.194
-453.982	-161.657	0.333	-0.017
-452.968	78.630	0.100	0.106
-451.953	192.771	-0.090	0.136
-450.938	81.528	-0.138	0.148
-449.924	-91.518	-0.047	0.013
-448.909	-200.000	-0.004	0.109
-447.895	-49.056	0.121	0.057
-446.880	70.184	0.176	0.181
-445.865	-7.809	0.156	0.104
-444.851	242.494	0.069	0.114
-443.836	18.127	-0.123	-0.098
-442.822	-200.000	0.006	0.037
-441.807	-200.000	0.043	-0.310
-440.792	53.356	-0.187	0.178
-439.778	-9.242	0.128	-0.085
-438.763	78.156	-0.159	-0.168
-437.749	-93.457	-0.438	0.120
-436.734	12.742	0.077	-0.059
-435.719	800.000	-0.075	0.207
-434.705	-200.000	0.014	0.216
-433.690	-18.349	-0.271	-0.168
-432.676	-74.652	-0.168	0.060
-431.661	111.133	-0.150	0.179
-430.646	-200.000	-0.007	-0.127
-429.632	800.000	0.020	0.071
-428.617	-143.089	0.175	-0.017
-427.603	800.000	-0.018	-0.075
-426.588	-85.705	-0.455	-0.140
-425.573	60.307	-0.045	-0.044
-424.559	327.380	-0.083	0.159
-423.544	-87.696	-0.300	0.090
-422.530	-8.186	0.184	-0.122
-421.515	-87.529	0.184	0.055
-420.500	426.229	-0.099	-0.211
-419.486	-32.998	-0.171	-0.094
-418.471	130.298	0.022	-0.028
-417.457	-77.707	-0.359	-0.123
-416.442	341.687	0.072	0.139
-415.428	-113.983	0.229	-0.044
-414.413	84.901	-0.076	-0.083
-413.398	54.961	-0.211	-0.202
-412.384	-157.830	-0.068	-0.004
-411.369	321.995	-0.084	0.158
-410.355	413.988	-0.113	-0.239
-409.340	579.921	-0.037	0.089
-408.325	21.708	-0.047	-0.038
-407.311	295.642	0.104	-0.188
-406.296	-7.049	-0.124	-0.083
-405.282	-200.000	0.234	0.001
-404.267	429.219	0.130	-0.278
-403.252	-200.000	0.022	0.316
-402.238	5.502	-0.166	0.122
-401.223	-82.967	0.151	-0.048
-400.209	-143.557	-0.207	-0.020
-399.194	-13.606	0.103	0.066
-398.179	-200.000	-0.311	0.001
-397.165	12.211	-0.058	0.044
-396.150	26.150	0.227	-0.188
-395.136	251.138	0.191	0.321
-394.121	800.000	-0.028	-0.092
-393.106	-178.607	-0.300	-0.007
-392.092	-200.000	0.027	0.228
-391.077	-79.809	0.161	-0.054
-390.063	-40.050	-0.176	0.091
-389.048	-200.000	0.007	-0.072
-388.033	213.862	0.102	0.159
-387.019	-200.000	-0.040	0.396
-386.004	-200.000	0.115	-0.576
-384.990	116.809	0.222	-0.270
-383.975	-200.000	0.060	0.286
-382.960	-200.000	0.040	0.458
-381.946	227.445	-0.165	-0.265
-380.931	-115.728	0.291	-0.054
-379.917	-65.151	-0.163	0.065
-378.902	-111.935	0.182	0.036
-377.888	800.000	-0.033	0.142
-376.873	800.000	-0.037	-0.108
-375.858	10.009	0.081	0.061
-374.844	-31.647	0.186	0.103
-373.829	56.885	-0.087	0.084
-372.815	-24.677	0.204	-0.120
-371.800	-161.318	0.192	0.010
-370.785	195.296	0.091	-0.137
-369.771	-53.926	0.166	0.075
-368.756	-200.000	-0.037	0.194
-367.742	473.659	0.048	0.106
-366.727	-6.570	-0.097	-0.065
-365.712	2.160	0.146	0.104
-364.698	-87.187	0.184	0.055
-363.683	-200.000	-0.066	0.392
-362.669	529.082	-0.066	0.155
-361.654	-200.000	-0.013	-0.342
-360.639	220.726	0.091	-0.145
-359.625	-3.873	0.250	-0.171
-358.610	-162.450	-0.270	-0.013
-357.596	251.223	-0.175	-0.294
-356.581	-86.091	0.197	0.060
-355.566	137.106	-0.136	0.176
-354.552	800.000	0.144	0.480
-353.537	333.713	0.029	-0.055
-352.523	562.734	-0.027	-0.065
-351.508	800.000	0.050	0.139
-350.493	-18.353	0.169	-0.104
-349.479	613.571	-0.010	0.026
-348.464	-143.565	-0.153	-0.014
-347.450	800.000	-0.042	0.166
-346.435	329.218	0.083	-0.157
-345.420	385.345	0.028	-0.056
-344.406	357.891	-0.120	0.237
-343.391	322.978	0.155	0.292
-342.377	-99.391	-0.246	0.061
-341.362	346.443	0.052	-0.101
-340.348	-97.030	-0.257	0.067
-339.333	-200.000	0.017	-0.273
-338.318	-200.000	0.049	0.223
-337.304	250.326	0.177	-0.297
-336.289	-54.920	-0.450	-0.201
-335.275	271.780	0.122	-0.213
-334.260	657.941	0.133	-0.338
-333.245	-200.000	0.007	-0.349
-332.231	35.215	-0.217	0.188
-331.216	-200.000	0.036	0.231
-330.202	55.689	0.035	0.033
-329.187	16.124	-0.087	-0.068
-328.172	-200.000	-0.008	-0.235
-327.158	-190.432	0.114	0.001
-326.143	-152.410	0.117	0.008
-325.129	-77.506	0.305	-0.105
-324.114	-200.000	-0.040	0.243
-323.099	-200.000	-0.070	0.461
-322.085	6.884	0.010	-0.007
-321.070	-73.567	0.272	-0.098
-320.056	-200.000	0.046	-0.237
-319.041	646.148	0.060	-0.151
-318.026	30.529	0.097	0.082
-317.012	-200.000	-0.054	0.255
-315.997	800.000	-0.090	0.285
-314.983	-139.485	0.048	0.005
-313.968	110.720	-0.337	-0.400
-312.953	-200.000	-0.015	0.226
-311.939	-200.000	-0.010	-0.135
-310.924	800.000	-0.012	-0.049
-309.910	109.063	0.167	0.197
-308.895	800.000	0.038	0.117
-307.880	545.285	-0.032	-0.077
-306.866	-200.000	0.064	0.293
-305.851	1.638	-0.239	0.170
-304.837	45.397	-0.082	-0.075
-303.822	-66.084	-0.246	0.097
-302.807	-30.225	0.185	-0.104
-301.793	-200.000	-0.033	-0.163
-300.778	7.650	0.216	0.160
-299.764	-200.000	0.110	0.511
-298.749	104.680	-0.290	-0.337
-297.735	-141.254	-0.334	-0.034
-296.720	-73.493	0.303	-0.109
-295.705	175.363	0.071	-0.102
-294.691	131.414	-0.121	0.153
-293.676	-75.080	0.068	0.024
-292.662	-141.089	0.250	0.025
-291.647	65.015	0.147	0.147
-290.632	-18.318	-0.334	-0.206
-289.618	-200.000	0.008	0.121
-288.603	4.583	0.110	0.079
-287.589	-200.000	0.015	0.074
-286.574	403.824	0.103	-0.213
-285.559	800.000	0.071	0.224
-284.545	800.000	0.026	-0.105
-283.530	20.108	0.041	0.032
-282.516	675.094	0.092	-0.234
-281.501	-95.720	0.207	-0.055
-280.486	-108.718	0.245	-0.052
-279.472	328.881	-0.028	0.053
-278.457	-149.246	-0.297	-0.023
-277.443	-58.032	0.233	-0.100
-276.428	800.000	-0.026	0.082
-275.413	220.562	0.070	0.111
-274.399	-200.000	-0.014	0.069
-273.384	800.000	0.031	-0.104
-272.370	95.657	-0.053	-0.059
-271.355	-200.000	-0.027	-0.184
-270.340	264.661	0.065	-0.112
-269.326	168.904	-0.155	0.217
-268.311	439.662	-0.027	-0.058
-267.297	800.000	-0.020	-0.080
-266.282	800.000	-0.090	0.296
-265.267	800.000	0.040	0.132
-264.253	-166.215	0.234	-0.010
-263.238	43.901	0.138	0.125
-262.224	13.909	0.067	-0.051
-261.209	-200.000	0.039	0.180
-260.195	1.419	-0.224	0.159
-259.180	-80.061	0.179	0.059
-258.165	-148.867	0.279	-0.022
-257.151	-49.917	0.346	-0.162
-256.136	800.000	0.045	-0.126
-255.122	-86.226	0.285	-0.086
-254.107	-76.835	0.267	-0.092
-253.092	-200.000	-0.015	-0.096
-252.078	-13.149	-0.390	0.250
-251.063	-37.840	-0.168	-0.088
-250.049	-72.772	-0.174	-0.063
-249.034	49.579	-0.178	-0.165
-248.019	-200.000	-0.105	-0.464
-247.005	2.847	-0.072	0.051
-245.990	395.843	-0.117	-0.241
-244.976	0.051	0.047	0.033
-243.961	-52.112	0.146	0.066
-242.946	360.879	0.119	-0.235
-241.932	-168.415	-0.341	-0.013
-240.917	154.047	0.098	-0.132
-239.903	137.628	0.264	-0.340
-238.888	800.000	-0.053	0.214
-237.873	-141.673	-0.398	-0.039
-236.859	-13.137	0.161	-0.103
-235.844	226.265	-0.156	0.249
-234.830	-122.771	0.447	0.071
-233.815	458.782	0.073	-0.159
-232.800	800.000	0.043	0.132
-231.786	-200.000	0.006	0.172
-230.771	-200.000	0.015	-0.183
-229.757	-56.491	0.242	0.105
-228.742	-200.000	-0.028	0.340
-227.727	-200.000	-0.004	-0.559
-226.713	-115.740	-0.084	-0.015
-225.698	-60.768	0.157	0.065
-224.684	444.527	-0.087	-0.187
-223.669	-149.074	0.072	0.006
-222.655	-104.802	0.270	0.061
-221.640	325.955	0.097	0.183
-220.625	800.000	-0.130	-0.388
-219.611	-48.364	0.189	-0.089
-218.596	145.670	0.102	-0.134
-217.582	-59.967	0.183	0.077
-216.567	-25.801	-0.121	0.070
-215.552	800.000	0.037	0.144
-214.538	-57.790	-0.175	0.075
-213.523	79.794	-0.153	0.162
-212.509	-91.556	-0.179	0.050
-211.494	105.481	-0.287	-0.333
-210.479	718.717	0.085	0.222
-209.465	800.000	-0.064	-0.265
-208.450	156.514	0.158	-0.215
-207.436	-28.455	-0.079	0.045
-206.421	-12.442	0.109	-0.070
-205.406	-21.085	-0.082	0.049
-204.392	27.412	0.263	-0.217
-203.377	800.000	0.083	-0.327
-202.363	-73.041	0.047	-0.017
-201.348	30.483	-0.120	-0.101
-200.333	70.740	0.317	-0.323
-199.319	195.902	-0.096	-0.144
-198.304	-200.000	0.007	-0.035
-197.290	-84.891	0.099	-0.031
-196.275	0.198	0.207	0.145
-195.260	-200.000	-0.005	-0.086
-194.246	129.047	-0.170	0.213
-193.231	-200.000	-0.006	0.136
-192.217	-200.000	0.015	0.104
-191.202	800.000	0.140	-0.408
-190.187	-147.627	-0.530	-0.044
-189.173	-200.000	0.083	0.423
-188.158	42.874	-0.360	-0.322
-187.144	-200.000	0.030	-0.162
-186.129	-98.991	0.204	0.051
-185.114	-200.000	-0.002	0.301
-184.100	-180.560	0.286	-0.006
-183.085	-38.921	0.239	-0.124
-182.071	800.000	0.038	-0.137
-181.056	75.212	-0.204	-0.211
-180.042	-200.000	-0.057	-0.342
-179.027	69.160	-0.083	-0.083
-178.012	222.989	0.136	0.214
-176.998	82.076	-0.233	-0.248
-175.983	14.594	-0.254	-0.195
-174.969	-200.000	0.041	-0.207
-173.954	23.363	0.112	-0.090
-172.939	-53.468	0.277	-0.125
-171.925	800.000	0.068	-0.202
-170.910	125.940	0.229	0.284
-169.896	-101.899	0.227	-0.054
-168.881	-120.653	-0.357	0.059
-167.866	800.000	-0.071	-0.258
-166.852	188.482	-0.094	-0.137
-165.837	277.544	-0.102	0.178
-164.823	-95.853	-0.160	-0.042
-163.808	222.973	-0.070	-0.111
-162.793	-177.489	0.418	-0.010
-161.779	-15.088	-0.231	0.145
-160.764	-200.000	0.007	-0.125
-159.750	-200.000	0.026	0.471
-158.735	-129.899	0.058	0.008
-157.720	-200.000	0.100	0.448
-156.706	149.924	-0.052	0.070
-155.691	-200.000	-0.035	0.251
-154.677	-167.833	0.318	-0.012
-153.662	-125.080	0.334	-0.050
-152.647	-200.000	-0.014	0.348
-151.633	285.355	-0.135	-0.239
-150.618	220.785	-0.018	-0.028
-149.604	-200.000	0.017	-0.390
-148.589	-200.000	0.050	-0.312
-147.574	-74.641	-0.294	-0.104
-146.560	54.568	0.120	-0.114
-145.545	-53.347	0.290	-0.130
-144.531	800.000	-0.027	-0.096
-143.516	72.001	0.140	0.143
-142.502	-30.309	-0.187	0.104
-141.487	211.834	-0.371	0.572
-140.472	228.919	0.118	0.189
-139.458	203.064	-0.148	-0.224
-138.443	362.460	-0.133	-0.261
-137.429	-200.000	-0.009	0.217
-136.414	-104.349	-0.049	-0.011
-135.399	92.296	0.032	0.036
-134.385	-200.000	0.044	0.330
-133.370	-83.216	-0.481	-0.152
-132.356	171.328	-0.214	-0.301
-131.341	223.988	0.134	-0.211
-130.326	-78.464	0.462	-0.155
-129.312	627.037	-0.060	-0.148
-128.297	165.051	-0.179	0.247
-127.283	-200.000	-0.005	-0.332
-126.268	69.405	0.270	0.272
-125.253	800.000	-0.105	0.285
-124.239	593.620	-0.023	-0.056
-123.224	103.113	0.195	0.223
-122.210	102.751	-0.127	-0.145
