DTS Sentinel unit serial number:	SN413079Multiplexer serial number:	ORYXHardware model number:	OX4-SRSoftware version number:	ORYX F/W v4.00 Oryx Data Collector v3.7.2.0data status	okinstallation	princeton_trtdifferential loss correction	single-endedforward channel	channel 3reverse channel	N/Adate	2019/09/19time	13:12:35forward acquisition time	60.00reverse acquisition time	0.00gamma	496.2192k internal	0.2327k external	0.2327temperature offset calibration	0.9990default loss term (dB/km)	0.3790temperature slope calibration	1.0000multiplexer offset coefficient	1.0000multiplexer slope coefficient	1.0000fibre end	0.00T internal ref (°C)	29.25T ext. ref 1 (°C)	0.94T ext. ref 2 (°C)	27.04length (m)	temperature (°C)	Stokes	anti-Stokes-747.200	-114.190	0.316	-0.062
-746.185	800.000	0.032	0.107
-745.171	115.137	0.021	-0.025
-744.156	424.839	-0.023	-0.051
-743.142	-113.306	0.070	0.014
-742.127	2.552	-0.343	0.250
-741.112	402.058	-0.038	0.080
-740.098	800.000	-0.085	0.308
-739.083	333.546	0.118	0.229
-738.069	105.937	-0.125	-0.149
-737.054	-200.000	-0.009	0.040
-736.039	-41.790	-0.269	0.139
-735.025	-200.000	0.011	0.332
-734.010	-122.312	0.316	0.052
-732.996	-200.000	0.035	-0.180
-731.981	-200.000	-0.011	0.122
-730.966	35.802	0.193	0.171
-729.952	786.377	-0.043	-0.119
-728.937	4.598	0.229	-0.169
-727.923	-177.038	0.052	0.001
-726.908	-200.000	-0.040	0.195
-725.894	-200.000	0.037	-0.333
-724.879	-93.400	-0.106	-0.030
-723.864	-111.118	-0.316	0.065
-722.850	342.059	0.081	0.159
-721.835	-0.189	-0.381	0.273
-720.821	-200.000	-0.038	0.179
-719.806	-45.092	-0.228	0.114
-718.791	800.000	-0.117	-0.336
-717.777	-168.858	0.334	-0.013
-716.762	129.019	0.090	-0.115
-715.748	184.019	0.105	-0.157
-714.733	-93.275	0.250	-0.070
-713.718	-68.561	-0.274	0.107
-712.704	116.924	0.166	0.205
-711.689	-125.705	0.168	-0.026
-710.675	-153.354	-0.193	0.014
-709.660	69.777	-0.045	-0.046
-708.645	-120.054	0.086	-0.015
-707.631	-200.000	-0.035	0.262
-706.616	36.103	0.252	0.223
-705.602	-75.902	-0.546	0.195
-704.587	77.631	0.068	-0.073
-703.572	-200.000	-0.048	-0.307
-702.558	174.411	0.160	-0.232
-701.543	-200.000	0.002	0.103
-700.529	634.207	-0.027	-0.069
-699.514	43.985	-0.151	0.139
-698.499	92.112	-0.080	-0.091
-697.485	-75.885	0.100	0.035
-696.470	153.935	-0.096	0.132
-695.456	72.443	0.029	0.031
-694.441	-126.618	-0.426	-0.064
-693.426	-70.028	-0.360	-0.138
-692.412	-200.000	-0.004	-0.057
-691.397	17.159	-0.120	-0.096
-690.383	-109.520	-0.099	0.021
-689.368	616.972	-0.026	-0.066
-688.354	-16.781	0.156	-0.099
-687.339	-200.000	0.048	-0.289
-686.324	-83.692	-0.188	0.060
-685.310	-85.193	-0.196	-0.062
-684.295	-200.000	-0.022	0.160
-683.281	-88.754	0.201	-0.060
-682.266	-15.451	-0.548	0.352
-681.251	-200.000	-0.020	-0.144
-680.237	522.498	-0.060	0.142
-679.222	-97.201	-0.165	0.043
-678.208	-171.871	0.073	-0.002
-677.193	-25.655	0.440	0.261
-676.178	-143.204	-0.211	-0.020
-675.164	-139.289	-0.162	0.018
-674.149	-62.100	0.211	0.089
-673.135	496.923	0.111	0.257
-672.120	-13.006	0.097	-0.063
-671.105	41.961	-0.345	0.314
-670.091	301.678	0.090	0.167
-669.076	66.057	0.146	0.149
-668.062	-134.866	-0.284	0.035
-667.047	148.598	-0.112	0.152
-666.032	-190.997	-0.282	0.003
-665.018	405.830	-0.129	0.273
-664.003	800.000	-0.016	0.046
-662.989	-200.000	0.022	0.375
-661.974	-90.573	-0.186	-0.054
-660.959	796.794	0.075	0.207
-659.945	28.991	-0.167	-0.142
-658.930	-124.918	-0.204	0.032
-657.916	-157.306	-0.419	-0.025
-656.901	-200.000	0.004	0.119
-655.886	236.904	-0.053	-0.088
-654.872	185.705	-0.203	0.302
-653.857	-107.603	-0.127	-0.028
-652.843	-200.000	-0.010	0.055
-651.828	78.270	-0.070	0.075
-650.814	-72.799	0.299	0.111
-649.799	435.652	0.059	-0.128
-648.784	-200.000	0.052	-0.386
-647.770	-200.000	-0.028	-0.183
-646.755	82.886	0.077	0.084
-645.741	110.267	-0.195	-0.236
-644.726	-89.411	0.243	0.072
-643.711	-131.829	-0.170	0.022
-642.697	-62.134	-0.213	0.089
-641.682	63.848	0.177	0.178
-640.668	-200.000	0.019	0.121
-639.653	67.826	-0.353	-0.362
-638.638	-51.312	0.048	0.023
-637.624	16.364	-0.201	0.159
-636.609	-200.000	0.007	0.232
-635.595	678.167	0.071	-0.185
-634.580	-58.568	-0.437	-0.190
-633.565	-200.000	0.000	-0.036
-632.551	-200.000	-0.043	-0.289
-631.536	-190.250	0.041	-0.000
-630.522	800.000	-0.028	0.122
-629.507	89.357	0.085	-0.095
-628.492	119.285	0.104	0.129
-627.478	69.813	-0.196	0.203
-626.463	82.899	0.167	-0.183
-625.449	-92.491	0.112	-0.032
-624.434	-153.402	0.211	-0.015
-623.419	-200.000	-0.007	-0.243
-622.405	-34.055	-0.034	0.019
-621.390	-200.000	-0.001	0.438
-620.376	18.017	0.162	-0.129
-619.361	465.242	0.035	-0.078
-618.346	-61.159	0.385	0.163
-617.332	-74.487	0.215	0.078
-616.317	-67.622	0.206	-0.081
-615.303	156.674	-0.229	0.318
-614.288	268.975	0.177	0.311
-613.273	64.022	0.218	0.219
-612.259	1.935	-0.089	-0.064
-611.244	539.663	-0.055	-0.131
-610.230	217.455	0.046	0.074
-609.215	5.616	0.188	0.139
-608.201	-66.653	-0.137	-0.055
-607.186	104.081	-0.278	0.327
-606.171	-172.405	0.350	-0.011
-605.157	-108.577	0.153	0.033
-604.142	271.418	0.176	-0.312
-603.128	228.491	0.015	0.025
-602.113	379.263	0.196	0.402
-601.098	2.073	0.137	-0.099
-600.084	-59.093	-0.290	-0.125
-599.069	69.137	-0.247	-0.255
-598.055	800.000	-0.130	-0.423
-597.040	-200.000	0.041	-0.236
-596.025	-200.000	0.019	0.208
-595.011	-61.256	0.185	0.078
-593.996	101.982	-0.201	-0.235
-592.982	-134.900	0.107	-0.013
-591.967	-159.838	0.413	0.023
-590.952	305.562	-0.009	0.016
-589.938	-200.000	-0.041	0.273
-588.923	-24.357	-0.139	-0.083
-587.909	-145.618	0.275	-0.025
-586.894	-103.847	-0.142	0.033
-585.879	-200.000	0.038	-0.254
-584.865	-200.000	0.004	0.187
-583.850	63.983	-0.305	-0.307
-582.836	65.774	0.156	-0.158
-581.821	-67.513	0.017	-0.007
-580.806	87.732	0.151	0.168
-579.792	-25.851	-0.244	0.144
-578.777	-56.214	-0.218	-0.097
-577.763	284.623	-0.068	-0.123
-576.748	-15.060	0.058	0.037
-575.733	-200.000	0.028	-0.164
-574.719	126.251	-0.012	-0.015
-573.704	800.000	-0.072	-0.293
-572.690	-200.000	0.055	-0.250
-571.675	612.087	0.043	-0.109
-570.661	69.948	0.027	-0.028
-569.646	150.507	-0.127	-0.173
-568.631	703.995	-0.014	0.036
-567.617	392.413	-0.167	-0.347
-566.602	1.659	0.205	0.148
-565.588	-2.741	-0.270	-0.189
-564.573	-200.000	-0.028	-0.434
-563.558	8.675	0.123	-0.093
-562.544	-67.127	-0.100	0.040
-561.529	800.000	-0.131	0.363
-560.515	294.834	-0.045	-0.082
-559.500	-117.840	0.320	0.057
-558.485	800.000	0.048	-0.164
-557.471	-169.086	-0.179	0.007
-556.456	-57.082	0.208	-0.092
-555.442	-200.000	-0.004	-0.122
-554.427	800.000	0.045	0.180
-553.412	676.658	0.074	-0.192
-552.398	-6.852	-0.096	-0.065
-551.383	249.753	-0.065	-0.111
-550.369	45.256	-0.161	-0.149
-549.354	80.262	0.162	-0.175
-548.339	-4.077	-0.078	-0.054
-547.325	518.527	0.070	-0.163
-546.310	244.886	0.148	0.248
-545.296	126.223	-0.196	-0.248
-544.281	-65.694	-0.255	-0.102
-543.266	409.648	-0.141	0.300
-542.252	62.624	0.104	0.104
-541.237	800.000	-0.064	0.220
-540.223	-142.580	-0.341	0.033
-539.208	-99.042	0.291	-0.074
-538.193	-61.586	0.079	-0.033
-537.179	-44.738	-0.081	0.040
-536.164	-200.000	0.018	0.113
-535.150	-200.000	-0.037	-0.167
-534.135	800.000	0.048	-0.162
-533.121	225.703	-0.110	0.179
-532.106	-85.165	-0.088	-0.028
-531.091	-200.000	-0.005	0.099
-530.077	-200.000	-0.057	0.295
-529.062	-166.125	0.091	-0.004
-528.048	-35.687	-0.171	0.093
-527.033	-21.775	-0.355	-0.216
-526.018	-119.935	-0.114	0.020
-525.004	216.218	0.095	-0.151
-523.989	337.987	0.099	0.193
-522.975	-185.766	-0.247	0.004
-521.960	63.072	-0.129	0.129
-520.945	-96.352	-0.232	-0.061
-519.931	-61.999	0.332	-0.138
-518.916	-11.279	0.119	-0.078
-517.902	17.008	0.228	-0.180
-516.887	-170.397	-0.297	0.010
-515.872	-43.708	-0.295	-0.149
-514.858	9.960	-0.269	0.204
-513.843	198.867	0.071	0.109
-512.829	-200.000	0.004	0.246
-511.814	-85.267	-0.008	0.002
-510.799	240.599	0.222	0.370
-509.785	375.896	0.070	0.143
-508.770	-89.258	0.098	-0.029
-507.756	-200.000	0.010	-0.192
-506.741	-111.401	0.297	0.060
-505.726	664.222	-0.069	0.177
-504.712	-129.359	-0.240	-0.033
-503.697	-200.000	-0.038	-0.188
-502.683	-56.750	-0.075	0.033
-501.668	111.190	0.168	-0.202
-500.653	-27.965	0.445	-0.257
-499.639	-118.669	0.181	-0.032
-498.624	-137.104	0.403	-0.046
-497.610	-99.955	-0.140	-0.035
-496.595	-25.940	0.361	-0.212
-495.581	800.000	0.066	0.204
-494.566	800.000	0.051	0.204
-493.551	576.496	-0.186	-0.454
-492.537	68.595	0.141	-0.145
-491.522	760.867	-0.059	-0.160
-490.508	-12.548	0.409	-0.267
-489.493	588.463	0.153	-0.377
-488.478	800.000	-0.044	-0.144
-487.464	-125.421	-0.160	-0.024
-486.449	-45.036	-0.101	-0.050
-485.435	358.093	0.081	0.161
-484.420	168.926	0.148	-0.210
-483.405	75.281	0.077	-0.081
-482.391	462.635	0.078	0.174
-481.376	-62.738	-0.175	0.072
-480.362	168.743	0.125	0.178
-479.347	-1.941	-0.095	0.066
-478.332	215.828	-0.146	-0.232
-477.318	-137.233	-0.084	0.009
-476.303	-200.000	-0.008	0.056
-475.289	33.380	0.367	0.318
-474.274	-200.000	-0.035	-0.165
-473.259	-43.371	-0.272	0.137
-472.245	800.000	0.087	-0.330
-471.230	-200.000	0.027	0.386
-470.216	76.375	0.214	0.226
-469.201	800.000	0.028	0.120
-468.186	-79.196	0.309	0.104
-467.172	-51.384	0.278	-0.130
-466.157	-96.994	-0.286	0.075
-465.143	800.000	0.032	-0.134
-464.128	-200.000	0.023	-0.126
-463.113	127.897	0.130	-0.165
-462.099	7.371	-0.312	-0.232
-461.084	-200.000	0.029	-0.147
-460.070	63.417	-0.138	0.138
-459.055	-105.363	-0.090	-0.020
-458.040	300.307	-0.050	0.093
-457.026	-200.000	-0.042	0.235
-456.011	338.362	-0.016	-0.031
-454.997	50.044	0.331	-0.311
-453.982	-115.153	-0.293	-0.055
-452.968	76.998	0.119	-0.126
-451.953	-121.391	-0.096	0.016
-450.938	-48.022	-0.377	-0.182
-449.924	-77.296	-0.103	-0.036
-448.909	-64.710	-0.262	-0.106
-447.895	221.663	0.116	0.186
-446.880	0.350	-0.089	0.063
-445.865	7.868	-0.223	0.167
-444.851	581.580	0.103	-0.252
-443.836	137.802	-0.181	-0.236
-442.822	101.218	0.053	-0.062
-441.807	-71.118	0.253	-0.095
-440.792	125.276	0.111	-0.140
-439.778	-61.173	0.115	-0.048
-438.763	-104.562	-0.192	0.044
-437.749	314.803	0.183	0.344
-436.734	326.922	-0.018	0.035
-435.719	-111.235	0.114	0.023
-434.705	281.703	0.030	0.053
-433.690	-200.000	0.040	0.446
-432.676	-42.425	0.314	0.160
-431.661	-53.717	0.150	0.068
-430.646	-129.330	-0.168	0.023
-429.632	-129.692	0.180	0.025
-428.617	447.222	-0.123	-0.269
-427.603	-200.000	-0.026	-0.232
-426.588	-4.224	0.229	0.158
-425.573	-108.636	-0.147	0.031
-424.559	-122.240	0.223	0.036
-423.544	689.572	-0.160	0.416
-422.530	-0.400	-0.193	-0.136
-421.515	42.246	0.196	-0.178
-420.500	-200.000	-0.002	0.357
-419.486	58.270	0.199	-0.194
-418.471	-107.251	0.128	-0.028
-417.457	-163.819	-0.213	0.010
-416.442	-3.499	0.109	0.075
-415.428	369.758	-0.092	-0.185
-414.413	430.573	0.064	0.139
-413.398	-200.000	0.027	0.308
-412.384	402.669	-0.099	0.208
-411.369	-108.201	-0.252	0.054
-410.355	-21.172	-0.138	-0.084
-409.340	-200.000	-0.018	0.395
-408.325	522.250	-0.060	0.141
-407.311	580.682	0.092	0.224
-406.296	64.636	0.224	-0.225
-405.282	538.805	-0.081	0.191
-404.267	-113.471	-0.201	-0.039
-403.252	-48.610	-0.222	0.106
-402.238	475.650	0.092	-0.206
-401.223	-49.481	-0.095	0.045
-400.209	230.261	-0.188	0.305
-399.194	48.645	0.131	0.122
-398.179	258.277	0.081	-0.139
-397.165	-6.742	-0.237	-0.161
-396.150	-45.855	-0.201	0.099
-395.136	11.063	0.243	0.185
-394.121	-200.000	-0.010	-0.088
-393.106	110.760	-0.007	-0.008
-392.092	371.178	-0.086	0.173
-391.077	453.896	0.013	-0.029
-390.063	-200.000	0.019	0.107
-389.048	-138.414	-0.114	-0.012
-388.033	221.471	0.210	-0.335
-387.019	109.120	-0.105	0.125
-386.004	266.062	-0.034	0.060
-384.990	13.306	-0.116	0.090
-383.975	18.628	-0.208	-0.166
-382.960	402.212	0.054	0.113
-381.946	20.472	-0.165	-0.133
-380.931	-89.423	0.348	0.102
-379.917	-200.000	0.034	-0.188
-378.902	42.862	0.045	0.041
-377.888	-132.373	0.257	0.033
-376.873	205.901	-0.104	0.160
-375.858	118.142	-0.223	0.273
-374.844	54.291	0.269	0.257
-373.829	-120.370	-0.104	-0.018
-372.815	-113.215	-0.274	0.054
-371.800	-200.000	-0.011	-0.131
-370.785	368.466	0.126	-0.254
-369.771	800.000	0.053	0.153
-368.756	-59.191	-0.201	0.086
-367.742	-200.000	0.047	-0.310
-366.727	-200.000	-0.041	0.228
-365.712	-17.741	-0.127	0.079
-364.698	-175.062	0.021	0.001
-363.683	-89.146	0.136	0.040
-362.669	171.072	-0.340	-0.485
-361.654	-108.761	0.381	0.081
-360.639	-87.177	-0.207	0.062
-359.625	-200.000	0.078	-0.377
-358.610	-80.771	-0.209	-0.069
-357.596	-200.000	0.029	-0.271
-356.581	-60.430	-0.194	-0.082
-355.566	800.000	-0.071	0.226
-354.552	-111.886	-0.197	0.040
-353.537	38.747	0.181	0.160
-352.523	211.492	0.187	-0.292
-351.508	-47.042	-0.141	0.068
-350.493	36.171	-0.096	0.084
-349.479	-146.453	-0.201	0.017
-348.464	800.000	0.022	-0.080
-347.450	127.056	0.187	-0.235
-346.435	71.933	-0.160	0.165
-345.420	-200.000	-0.002	-0.220
-344.406	-29.398	0.164	-0.093
-343.391	244.123	-0.114	-0.190
-342.377	-111.337	0.246	0.050
-341.362	-18.805	-0.068	-0.042
-340.348	33.392	-0.168	-0.145
-339.333	-151.337	0.370	-0.027
-338.318	-48.290	-0.377	0.180
-337.304	56.356	-0.284	0.274
-336.289	199.684	-0.052	0.079
-335.275	-145.015	-0.380	-0.034
-334.260	-200.000	0.006	-0.198
-333.245	-69.243	0.084	-0.032
-332.231	-200.000	0.011	-0.249
-331.216	-2.506	-0.259	-0.180
-330.202	447.682	0.119	0.260
-329.187	-200.000	0.089	-0.397
-328.172	-77.240	0.322	0.111
-327.158	598.902	0.064	0.157
-326.143	-50.645	-0.340	0.159
-325.129	83.629	0.104	0.112
-324.114	61.177	0.133	0.131
-323.099	147.935	0.156	0.209
-322.085	-76.211	-0.105	0.037
-321.070	56.899	-0.114	-0.110
-320.056	-29.143	0.103	0.059
-319.041	-200.000	0.040	0.221
-318.026	125.264	-0.172	-0.215
-317.012	522.138	-0.048	0.111
-315.997	-188.386	0.347	-0.004
-314.983	12.398	0.140	-0.107
-313.968	-89.723	0.151	-0.044
-312.953	-200.000	0.011	0.228
-311.939	138.318	0.060	-0.078
-310.924	-122.564	0.271	0.044
-309.910	-124.071	0.044	-0.007
-308.895	45.776	0.130	0.119
-307.880	-71.151	-0.348	0.130
-306.866	122.511	-0.083	0.102
-305.851	672.435	-0.088	0.226
-304.837	-92.089	0.218	0.061
-303.822	154.035	-0.138	-0.187
-302.807	-100.674	-0.197	0.048
-301.793	42.371	0.162	0.146
-300.778	-200.000	0.023	-0.126
-299.764	120.882	0.174	0.214
-298.749	-200.000	0.007	-0.330
-297.735	-52.065	0.254	0.117
-296.720	83.727	0.062	0.067
-295.705	5.951	-0.090	0.066
-294.691	800.000	0.070	-0.240
-293.676	658.767	-0.073	-0.185
-292.662	-200.000	0.028	-0.241
-291.647	-200.000	0.021	0.446
-290.632	-111.491	0.199	-0.040
-289.618	-16.403	0.039	-0.024
-288.603	-200.000	0.002	0.098
-287.589	-58.249	-0.104	-0.045
-286.574	4.255	-0.212	0.153
-285.559	-200.000	0.011	-0.138
-284.545	140.688	-0.203	0.265
-283.530	-70.942	0.345	0.128
-282.516	-39.202	0.165	0.086
-281.501	-32.800	0.188	0.103
-280.486	-192.879	-0.233	-0.002
-279.472	-124.677	0.028	0.004
-278.457	110.562	-0.096	0.114
-277.443	-94.342	0.137	-0.037
-276.428	-38.285	-0.085	0.044
-275.413	800.000	0.081	-0.229
-274.399	-107.669	-0.272	0.059
-273.384	321.753	0.109	-0.205
-272.370	476.629	-0.051	0.115
-271.355	-200.000	0.019	-0.167
-270.340	185.760	0.190	-0.279
-269.326	14.722	0.267	0.207
-268.311	38.179	0.141	0.124
-267.297	-200.000	-0.014	-0.109
-266.282	-200.000	-0.014	0.241
-265.267	576.755	-0.122	0.294
-264.253	57.497	-0.179	0.173
-263.238	-200.000	0.006	0.075
-262.224	16.662	0.173	-0.135
-261.209	285.263	0.092	-0.164
-260.195	753.756	-0.041	0.108
-259.180	478.107	0.106	0.237
-258.165	266.056	0.036	-0.063
-257.151	12.465	0.145	-0.110
-256.136	92.405	0.133	0.148
-255.122	-200.000	0.034	-0.311
-254.107	800.000	0.063	0.250
-253.092	-200.000	0.018	-0.163
-252.078	-60.553	0.161	0.067
-251.063	-200.000	0.067	-0.369
-250.049	182.527	-0.021	-0.031
-249.034	-153.996	-0.112	0.008
-248.019	525.501	-0.024	-0.056
-247.005	259.154	0.089	-0.152
-245.990	-200.000	0.018	-0.108
-244.976	-50.073	-0.240	0.112
-243.961	-67.616	0.278	-0.108
-242.946	641.445	-0.133	0.334
-241.932	-39.254	-0.333	0.173
-240.917	132.219	0.145	-0.185
-239.903	-200.000	-0.023	-0.220
-238.888	244.900	-0.074	0.123
-237.873	55.315	0.172	-0.165
-236.859	-101.850	0.206	-0.049
-235.844	108.917	-0.111	-0.131
-234.830	-165.183	0.218	-0.010
-233.815	-156.631	0.281	0.017
-232.800	64.321	-0.213	0.212
-231.786	-200.000	0.053	0.242
-230.771	-86.979	0.458	0.138
-229.757	674.292	0.074	-0.190
-228.742	-200.000	0.031	-0.433
-227.727	-114.466	-0.142	-0.027
-226.713	-6.123	-0.343	0.231
-225.698	321.233	0.092	0.172
-224.684	-156.711	-0.321	0.020
-223.669	-200.000	0.007	-0.183
-222.655	-45.315	-0.138	0.067
-221.640	98.031	-0.165	-0.188
-220.625	800.000	-0.033	-0.115
-219.611	385.149	-0.090	-0.182
-218.596	-200.000	-0.021	0.174
-217.582	201.633	-0.109	0.165
-216.567	410.226	0.023	-0.049
-215.552	220.705	-0.116	-0.185
-214.538	-84.142	-0.060	0.019
-213.523	-4.408	-0.122	0.083
-212.509	800.000	-0.100	-0.376
-211.494	8.682	-0.267	0.199
-210.479	-200.000	0.009	0.168
-209.465	-200.000	0.016	0.334
-208.450	55.611	0.141	0.134
-207.436	-200.000	-0.051	0.350
-206.421	800.000	0.051	-0.175
-205.406	-100.673	-0.433	0.105
-204.392	-129.828	-0.166	0.023
-203.377	800.000	0.130	-0.444
-202.363	800.000	0.131	-0.432
-201.348	-200.000	0.014	-0.177
-200.333	-90.776	0.164	0.047
-199.319	-200.000	0.054	0.316
-198.304	52.744	-0.212	0.200
-197.290	2.880	0.173	0.124
-196.275	-50.540	-0.191	0.089
-195.260	318.268	0.091	-0.171
-194.246	28.098	-0.054	0.045
-193.231	-200.000	-0.011	0.108
-192.217	665.579	-0.052	0.134
-191.202	393.090	0.203	0.416
-190.187	86.132	-0.145	0.157
-189.173	-92.978	0.268	0.074
-188.158	-100.379	-0.090	0.022
-187.144	-200.000	-0.013	0.321
-186.129	181.491	0.217	0.315
-185.114	63.859	-0.225	0.223
-184.100	-200.000	0.040	0.284
-183.085	89.167	-0.145	-0.159
-182.071	59.499	-0.101	0.098
-181.056	-129.958	0.179	0.024
-180.042	-200.000	0.058	-0.253
-179.027	-200.000	-0.016	0.120
-178.012	-8.206	0.301	-0.200
-176.998	-87.215	-0.279	0.084
-175.983	-104.089	-0.282	0.065
-174.969	28.600	-0.112	0.094
-173.954	-200.000	0.014	0.308
-172.939	800.000	0.016	0.058
-171.925	-110.642	-0.174	0.035
-170.910	-10.064	-0.104	0.068
-169.896	-200.000	-0.008	0.215
-168.881	-115.694	0.207	-0.038
-167.866	4.258	-0.152	0.110
-166.852	102.498	-0.105	0.121
-165.837	118.022	-0.020	0.024
-164.823	130.600	0.075	-0.095
-163.808	-127.345	-0.173	0.025
-162.793	800.000	0.009	0.037
-161.779	800.000	-0.090	-0.349
-160.764	800.000	0.075	-0.257
-159.750	191.990	0.136	0.202
-158.735	-200.000	0.023	-0.139
-157.720	446.576	-0.042	-0.090
-156.706	-200.000	0.001	-0.162
-155.691	152.720	-0.123	-0.166
-154.677	50.830	0.138	0.129
-153.662	-129.772	-0.066	0.009
-152.647	-57.029	0.295	0.128
-151.633	800.000	-0.105	-0.411
-150.618	74.060	0.150	-0.155
-149.604	95.784	-0.210	0.236
-148.589	-65.829	0.158	0.062
-147.574	115.578	0.174	-0.209
-146.560	78.644	-0.219	-0.230
-145.545	-200.000	-0.032	0.141
-144.531	91.092	0.062	-0.069
-143.516	-64.685	0.157	0.063
-142.502	800.000	0.051	-0.174
-141.487	-200.000	0.018	-0.116
-140.472	800.000	0.073	0.222
-139.458	750.505	-0.111	-0.294
-138.443	800.000	0.067	0.183
-137.429	-107.158	0.101	0.022
-136.414	-0.077	0.257	0.180
-135.399	800.000	0.076	-0.233
-134.385	-200.000	0.053	0.305
-133.370	-200.000	0.009	0.174
-132.356	-200.000	0.049	-0.230
-131.341	-82.116	-0.111	-0.036
-130.326	-18.488	0.040	0.025
-129.312	-79.436	-0.217	0.072
-128.297	-83.898	0.298	0.093
-127.283	41.570	-0.110	-0.098
-126.268	20.923	-0.085	0.067
-125.253	219.205	-0.023	-0.036
-124.239	-1.285	-0.197	0.137
-123.224	-200.000	-0.020	0.093
-122.210	-200.000	-0.020	-0.211
-121.195	-106.080	0.350	0.077
-120.180	-37.402	0.036	-0.019
