DTS Sentinel unit serial number:	SN413079Multiplexer serial number:	ORYXHardware model number:	OX4-SRSoftware version number:	ORYX F/W v4.00 Oryx Data Collector v3.7.2.0data status	okinstallation	princeton_trtdifferential loss correction	single-endedforward channel	channel 3reverse channel	N/Adate	2019/09/15time	00:28:35forward acquisition time	60.00reverse acquisition time	0.00gamma	496.2192k internal	0.2319k external	0.2319temperature offset calibration	0.9976default loss term (dB/km)	0.3790temperature slope calibration	1.0000multiplexer offset coefficient	1.0000multiplexer slope coefficient	1.0000fibre end	0.00T internal ref (°C)	32.12T ext. ref 1 (°C)	4.57T ext. ref 2 (°C)	27.18length (m)	temperature (°C)	Stokes	anti-Stokes-747.200	-200.000	0.031	0.319
-746.185	-10.477	-0.220	0.147
-745.171	-71.224	-0.244	-0.093
-744.156	272.971	0.175	0.312
-743.142	-200.000	0.028	-0.166
-742.127	40.745	0.138	0.126
-741.112	30.809	-0.140	0.121
-740.098	800.000	0.164	0.460
-739.083	-200.000	-0.037	0.226
-738.069	-200.000	-0.042	0.195
-737.054	73.092	-0.022	-0.024
-736.039	-56.020	-0.220	0.099
-735.025	-154.586	0.054	-0.004
-734.010	392.104	-0.164	-0.344
-732.996	-138.125	-0.108	0.012
-731.981	23.558	-0.012	0.010
-730.966	7.399	0.296	-0.223
-729.952	-157.111	-0.388	-0.024
-728.937	132.441	-0.128	-0.167
-727.923	-63.097	0.326	-0.136
-726.908	73.164	-0.202	0.214
-725.894	800.000	-0.081	0.334
-724.879	-179.943	-0.374	-0.008
-723.864	3.945	0.254	0.187
-722.850	-200.000	-0.015	-0.132
-721.835	4.764	0.129	-0.096
-720.821	-200.000	-0.031	-0.267
-719.806	800.000	-0.039	-0.127
-718.791	-133.243	0.184	-0.024
-717.777	-56.628	-0.103	-0.046
-716.762	-82.303	-0.093	-0.030
-715.748	85.671	0.048	0.054
-714.733	-63.622	0.102	-0.042
-713.718	40.239	-0.291	-0.264
-712.704	39.057	-0.194	-0.175
-711.689	160.038	-0.200	-0.281
-710.675	54.653	-0.254	0.248
-709.660	9.657	0.184	0.141
-708.645	16.069	-0.024	-0.019
-707.631	-50.056	0.117	-0.056
-706.616	-200.000	-0.036	-0.361
-705.602	-115.749	-0.391	0.074
-704.587	-47.477	-0.227	0.111
-703.572	-8.203	0.134	-0.091
-702.558	-34.667	0.276	-0.152
-701.543	-200.000	0.023	-0.498
-700.529	-200.000	-0.154	-0.000
-699.514	-200.000	0.006	-0.082
-698.499	783.009	-0.199	-0.552
-697.485	-61.818	-0.103	-0.043
-696.470	-200.000	0.011	0.092
-695.456	800.000	-0.029	-0.080
-694.441	-169.310	-0.369	0.014
-693.426	8.376	-0.011	0.008
-692.412	800.000	-0.098	-0.363
-691.397	-200.000	0.051	-0.385
-690.383	123.767	-0.189	-0.240
-689.368	44.247	-0.171	-0.158
-688.354	800.000	-0.094	0.278
-687.339	-51.810	-0.224	-0.105
-686.324	133.528	-0.138	0.180
-685.310	800.000	0.030	-0.092
-684.295	-173.578	0.071	-0.002
-683.281	-200.000	0.061	0.621
-682.266	-200.000	-0.035	0.158
-681.251	636.883	-0.043	-0.110
-680.237	-71.046	0.284	0.108
-679.222	-158.615	-0.176	0.010
-678.208	-200.000	-0.000	0.040
-677.193	-200.000	-0.000	0.117
-676.178	170.249	-0.050	-0.072
-675.164	-102.846	-0.143	-0.034
-674.149	800.000	-0.037	-0.147
-673.135	148.105	-0.141	-0.192
-672.120	78.620	-0.050	-0.054
-671.105	-116.500	0.132	-0.024
-670.091	144.495	-0.043	0.058
-669.076	0.996	-0.216	-0.156
-668.062	78.220	0.197	-0.212
-667.047	175.578	-0.217	0.318
-666.032	274.718	-0.160	0.287
-665.018	213.638	0.225	-0.359
-664.003	-83.711	-0.066	0.021
-662.989	800.000	-0.037	-0.114
-661.974	198.641	-0.112	-0.173
-660.959	159.194	-0.124	-0.173
-659.945	-167.892	0.182	0.007
-658.930	429.365	0.062	0.135
-657.916	800.000	0.033	-0.100
-656.901	800.000	-0.052	-0.167
-655.886	-200.000	0.011	0.137
-654.872	-200.000	0.035	-0.211
-653.857	101.395	-0.032	0.038
-652.843	-22.974	-0.247	0.150
-651.828	-21.511	-0.368	0.226
-650.814	-200.000	0.109	0.504
-649.799	-138.178	0.165	0.018
-648.784	-43.008	-0.138	-0.071
-647.770	190.716	0.203	0.308
-646.755	53.024	-0.146	0.141
-645.741	-108.498	0.093	0.020
-644.726	-95.485	-0.393	-0.106
-643.711	-200.000	-0.056	0.294
-642.697	110.208	0.171	0.207
-641.682	335.997	-0.011	0.021
-640.668	118.785	-0.112	-0.140
-639.653	-59.829	0.438	0.189
-638.638	-136.288	-0.366	0.043
-637.624	800.000	0.054	-0.191
-636.609	-100.808	0.212	-0.052
-635.595	-200.000	-0.019	-0.133
-634.580	270.918	-0.078	-0.139
-633.565	-200.000	0.021	-0.231
-632.551	-5.385	-0.277	0.191
-631.536	-200.000	0.067	-0.309
-630.522	-200.000	-0.019	-0.324
-629.507	800.000	-0.014	0.042
-628.492	211.346	0.019	0.030
-627.478	151.589	-0.019	-0.026
-626.463	-76.781	-0.209	-0.074
-625.449	-42.069	0.146	0.075
-624.434	-127.160	-0.164	-0.024
-623.419	404.924	-0.115	-0.244
-622.405	97.314	0.076	0.088
-621.390	-200.000	-0.023	0.127
-620.376	-117.009	-0.115	-0.021
-619.361	-144.997	-0.419	0.038
-618.346	213.112	0.168	0.266
-617.332	230.525	0.162	0.266
-616.317	-169.381	-0.060	-0.002
-615.303	-91.111	-0.364	0.105
-614.288	-84.383	-0.109	0.035
-613.273	-200.000	-0.030	-0.466
-612.259	96.057	-0.021	0.024
-611.244	-104.737	0.147	0.034
-610.230	-58.836	0.371	-0.161
-609.215	-110.347	0.205	0.043
-608.201	800.000	-0.059	0.227
-607.186	-200.000	0.004	0.196
-606.171	-200.000	-0.057	0.294
-605.157	18.364	-0.220	0.177
-604.142	-32.824	-0.195	0.109
-603.128	-1.622	-0.201	0.143
-602.113	34.165	-0.269	-0.236
-601.098	94.614	0.203	-0.232
-600.084	34.999	0.351	-0.309
-599.069	-25.031	-0.121	-0.072
-598.055	-6.473	0.127	-0.087
-597.040	268.708	-0.062	0.109
-596.025	160.572	-0.034	0.048
-595.011	800.000	-0.077	-0.220
-593.996	-200.000	-0.007	0.141
-592.982	800.000	-0.071	-0.233
-591.967	-26.209	0.398	0.235
-590.952	-119.337	-0.331	-0.058
-589.938	-200.000	0.064	-0.355
-588.923	-108.008	0.174	-0.038
-587.909	162.716	0.084	-0.118
-586.894	-67.063	0.065	-0.026
-585.879	37.080	0.223	-0.198
-584.865	-61.208	0.113	-0.048
-583.850	180.976	0.127	-0.187
-582.836	-200.000	0.002	-0.224
-581.821	-132.336	0.172	0.022
-580.806	17.508	0.135	-0.107
-579.792	80.642	-0.159	-0.172
-578.777	-32.505	0.267	0.149
-577.763	-141.309	0.070	0.007
-576.748	77.878	-0.024	0.026
-575.733	-200.000	0.109	-0.493
-574.719	-139.086	-0.155	-0.017
-573.704	-47.559	0.153	-0.075
-572.690	235.876	-0.085	0.142
-571.675	-144.835	0.208	0.019
-570.661	-200.000	-0.034	0.207
-569.646	129.603	0.131	-0.168
-568.631	33.980	-0.202	0.177
-567.617	-114.836	0.239	0.046
-566.602	-116.042	-0.022	-0.004
-565.588	-42.967	-0.037	-0.019
-564.573	74.831	0.133	0.141
-563.558	1.424	0.053	-0.038
-562.544	-200.000	0.024	-0.191
-561.529	-200.000	-0.029	0.141
-560.515	-128.470	0.233	0.033
-559.500	-200.000	-0.015	0.251
-558.485	-168.733	-0.326	-0.012
-557.471	93.770	-0.276	-0.314
-556.456	112.004	-0.088	-0.107
-555.442	-11.489	-0.293	-0.193
-554.427	199.566	0.111	-0.171
-553.412	142.094	-0.102	0.136
-552.398	-200.000	-0.055	-0.388
-551.383	-178.083	0.255	0.006
-550.369	130.380	0.255	0.328
-549.354	-44.551	0.246	0.123
-548.339	-86.669	-0.282	-0.087
-547.325	95.237	0.094	-0.108
-546.310	-200.000	0.010	0.229
-545.296	186.709	-0.078	0.116
-544.281	800.000	0.048	-0.142
-543.266	-200.000	0.027	-0.205
-542.252	11.696	-0.246	-0.190
-541.237	138.345	-0.237	0.313
-540.223	-74.137	-0.380	-0.138
-539.208	104.408	-0.268	0.317
-538.193	-111.968	-0.161	0.033
-537.179	-30.439	-0.069	0.039
-536.164	-35.475	0.185	-0.101
-535.150	145.841	0.019	-0.026
-534.135	-200.000	0.005	0.153
-533.121	-1.714	0.260	0.184
-532.106	-0.101	-0.104	0.074
-531.091	800.000	-0.064	-0.199
-530.077	-200.000	0.005	0.060
-529.062	198.542	0.090	0.138
-528.048	-78.844	-0.119	-0.041
-527.033	800.000	0.018	-0.067
-526.018	250.931	-0.042	-0.072
-525.004	-121.910	0.048	0.008
-523.989	-137.449	-0.010	-0.001
-522.975	78.167	-0.152	0.163
-521.960	-200.000	0.027	-0.291
-520.945	-200.000	0.033	-0.226
-519.931	-135.503	0.151	-0.018
-518.916	-36.199	0.060	0.032
-517.902	278.881	-0.165	0.296
-516.887	72.516	-0.169	-0.177
-515.872	-200.000	-0.019	0.189
-514.858	-200.000	0.009	-0.369
-513.843	-69.962	-0.144	0.055
-512.829	-200.000	-0.016	0.288
-511.814	102.903	0.079	0.093
-510.799	-43.809	-0.111	-0.056
-509.785	-140.070	-0.172	-0.018
-508.770	-200.000	-0.029	-0.446
-507.756	-67.522	0.198	-0.078
-506.741	800.000	-0.012	-0.046
-505.726	-1.492	-0.194	-0.137
-504.712	-129.063	0.177	-0.025
-503.697	-130.765	0.445	-0.060
-502.683	97.025	0.151	0.174
-501.668	800.000	0.091	0.309
-500.653	-76.146	-0.102	0.036
-499.639	-69.496	-0.274	-0.105
-498.624	-30.412	-0.237	-0.135
-497.610	-103.210	0.179	-0.042
-496.595	-90.038	0.048	-0.014
-495.581	-122.969	-0.294	0.047
-494.566	-86.895	-0.124	-0.038
-493.551	-79.353	-0.108	0.037
-492.537	-200.000	-0.013	-0.304
-491.522	464.632	0.169	0.379
-490.508	-89.334	0.427	0.126
-489.493	56.054	0.188	-0.183
-488.478	124.119	0.141	-0.178
-487.464	-200.000	0.043	-0.257
-486.449	-200.000	0.037	-0.274
-485.435	-200.000	0.001	-0.238
-484.420	-22.371	-0.030	0.018
-483.405	-10.837	0.036	-0.024
-482.391	82.848	-0.100	-0.109
-481.376	-200.000	0.007	-0.242
-480.362	-200.000	0.032	0.178
-479.347	800.000	0.102	-0.289
-478.332	448.331	-0.113	-0.249
-477.318	60.709	-0.083	0.083
-476.303	40.443	-0.083	-0.075
-475.289	-141.565	-0.478	-0.048
-474.274	-200.000	0.065	0.304
-473.259	272.690	0.129	0.229
-472.245	251.609	-0.158	-0.269
-471.230	-137.669	0.158	0.018
-470.216	328.479	0.201	0.386
-469.201	93.528	-0.177	0.200
-468.186	182.561	0.075	-0.111
-467.172	329.698	0.124	0.238
-466.157	312.003	-0.160	0.301
-465.143	-57.832	-0.094	-0.041
-464.128	-131.190	0.045	-0.006
-463.113	-200.000	0.009	0.079
-462.099	800.000	0.084	-0.270
-461.084	110.635	-0.225	-0.271
-460.070	131.349	-0.160	-0.206
-459.055	-117.545	-0.110	-0.020
-458.040	800.000	-0.088	0.291
-457.026	-200.000	0.019	0.346
-456.011	-129.441	0.291	0.040
-454.997	-113.893	-0.222	-0.043
-453.982	-60.219	0.041	0.017
-452.968	800.000	-0.095	-0.307
-451.953	-200.000	-0.034	0.161
-450.938	7.744	0.206	-0.154
-449.924	800.000	0.024	0.100
-448.909	-200.000	-0.012	0.214
-447.895	-200.000	0.066	-0.296
-446.880	-200.000	-0.007	-0.035
-445.865	383.929	0.013	0.027
-444.851	-200.000	-0.060	-0.425
-443.836	74.250	-0.068	-0.071
-442.822	800.000	0.012	0.054
-441.807	458.325	0.042	-0.092
-440.792	-141.722	-0.255	-0.026
-439.778	203.653	0.137	0.211
-438.763	440.563	0.117	0.256
-437.749	800.000	-0.051	-0.192
-436.734	-84.960	-0.081	0.025
-435.719	-114.136	0.101	0.019
-434.705	800.000	-0.008	0.029
-433.690	83.056	-0.321	-0.349
-432.676	372.067	0.073	-0.148
-431.661	131.090	0.199	0.256
-430.646	-26.489	0.236	0.138
-429.632	-5.735	0.078	-0.054
-428.617	-129.479	-0.204	-0.028
-427.603	58.179	-0.178	-0.174
-426.588	310.332	-0.072	-0.135
-425.573	-200.000	-0.014	0.185
-424.559	271.750	-0.071	-0.125
-423.544	-51.422	-0.182	-0.085
-422.530	-46.896	-0.057	-0.028
-421.515	28.094	-0.259	0.218
-420.500	90.913	0.030	0.034
-419.486	471.046	-0.034	0.077
-418.471	2.693	0.270	-0.195
-417.457	322.129	-0.081	-0.155
-416.442	75.216	-0.080	-0.084
-415.428	-200.000	-0.049	-0.219
-414.413	-93.875	-0.296	0.081
-413.398	46.767	0.293	0.271
-412.384	100.881	-0.092	0.107
-411.369	-200.000	0.033	-0.342
-410.355	-185.154	0.281	-0.004
-409.340	351.036	0.125	0.247
-408.325	406.068	0.109	-0.229
-407.311	-186.660	-0.315	0.004
-406.296	583.641	-0.028	0.069
-405.282	-128.941	0.161	0.023
-404.267	282.599	-0.048	-0.087
-403.252	487.592	-0.041	0.093
-402.238	-200.000	-0.001	0.052
-401.223	-86.415	-0.453	0.139
-400.209	-110.914	-0.182	0.037
-399.194	-200.000	-0.024	-0.238
-398.179	35.851	0.376	0.330
-397.165	-75.317	-0.382	-0.136
-396.150	180.493	-0.054	0.078
-395.136	-57.718	-0.068	-0.030
-394.121	-32.046	-0.031	0.017
-393.106	-0.559	-0.022	-0.016
-392.092	-132.352	-0.164	-0.021
-391.077	105.458	-0.158	0.187
-390.063	267.130	-0.094	-0.165
-389.048	424.406	0.028	-0.059
-388.033	81.347	0.044	-0.048
-387.019	800.000	0.053	0.156
-386.004	-55.137	0.223	0.100
-384.990	10.045	-0.271	-0.206
-383.975	-200.000	-0.025	0.259
-382.960	377.449	-0.170	0.347
-381.946	-85.262	-0.148	-0.046
-380.931	-22.398	-0.072	0.043
-379.917	800.000	0.078	-0.220
-378.902	40.425	0.135	-0.121
-377.888	-200.000	-0.034	-0.169
-376.873	800.000	0.039	0.139
-375.858	-30.920	0.105	-0.059
-374.844	146.402	0.200	-0.268
-373.829	-130.695	0.333	0.045
-372.815	-115.559	0.280	0.052
-371.800	129.634	0.307	-0.392
-370.785	95.734	0.249	0.283
-369.771	-39.195	0.050	-0.026
-368.756	-81.540	0.396	0.130
-367.742	94.502	-0.115	-0.130
-366.727	27.855	0.067	-0.056
-365.712	744.259	0.034	0.091
-364.698	77.376	-0.187	0.198
-363.683	46.893	-0.128	0.118
-362.669	87.367	0.155	0.171
-361.654	35.492	0.104	-0.091
-360.639	-149.267	0.136	0.011
-359.625	134.764	-0.194	-0.251
-358.610	800.000	-0.040	-0.121
-357.596	269.859	-0.041	0.071
-356.581	-23.084	0.135	-0.081
-355.566	278.919	-0.257	0.456
-354.552	338.156	-0.020	-0.039
-353.537	132.880	0.098	-0.126
-352.523	-200.000	-0.006	-0.079
-351.508	269.363	-0.066	0.115
-350.493	760.509	0.062	0.167
-349.479	786.767	0.161	-0.441
-348.464	-41.896	0.227	-0.116
-347.450	145.759	-0.163	0.217
-346.435	800.000	-0.050	-0.153
-345.420	278.203	0.157	-0.278
-344.406	11.215	-0.246	0.187
-343.391	-170.226	0.167	-0.006
-342.377	-153.518	0.241	0.017
-341.362	-141.440	-0.124	-0.013
-340.348	30.752	-0.088	0.075
-339.333	-45.967	-0.181	0.089
-338.318	-39.368	0.130	0.068
-337.304	-200.000	0.037	0.187
-336.289	245.229	-0.082	0.137
-335.275	-200.000	-0.021	0.354
-334.260	-19.604	-0.139	-0.086
-333.245	25.012	0.186	0.154
-332.231	-156.264	-0.088	-0.005
-331.216	-65.720	0.104	0.041
-330.202	-82.981	-0.310	0.100
-329.187	-200.000	-0.022	-0.211
-328.172	-186.879	0.300	-0.004
-327.158	-5.948	-0.199	-0.135
-326.143	-61.721	0.143	-0.060
-325.129	-48.260	0.130	0.062
-324.114	-2.377	0.146	0.102
-323.099	-190.380	0.280	-0.003
-322.085	-200.000	0.023	-0.260
-321.070	510.399	-0.072	-0.167
-320.056	-200.000	-0.000	0.052
-319.041	253.898	-0.136	0.231
-318.026	104.640	0.032	0.038
-317.012	-200.000	0.005	-0.187
-315.997	-200.000	0.010	-0.099
-314.983	-200.000	-0.020	-0.266
-313.968	-114.389	0.161	0.031
-312.953	-200.000	-0.020	-0.199
-311.939	253.249	0.063	0.107
-310.924	323.266	0.068	0.129
-309.910	-195.996	0.232	0.002
-308.895	-100.235	0.079	-0.019
-307.880	329.040	0.123	0.235
-306.866	-171.623	0.219	0.007
-305.851	-115.194	0.030	-0.006
-304.837	12.245	0.341	-0.261
-303.822	-200.000	-0.002	-0.112
-302.807	-200.000	-0.030	0.237
-301.793	-5.820	0.167	0.113
-300.778	223.327	-0.073	-0.116
-299.764	-77.082	-0.174	0.060
-298.749	-80.025	0.090	-0.030
-297.735	32.548	-0.217	-0.186
-296.720	-131.579	-0.270	0.035
-295.705	-57.641	0.206	0.090
-294.691	51.008	0.032	0.030
-293.676	30.784	-0.109	0.092
-292.662	-85.112	0.181	0.056
-291.647	800.000	0.046	-0.139
-290.632	167.891	0.217	-0.306
-289.618	800.000	-0.113	-0.377
-288.603	-29.258	0.260	0.148
-287.589	-91.138	-0.301	0.086
-286.574	-10.670	0.125	0.082
-285.559	-69.642	0.302	0.115
-284.545	-73.629	0.167	0.060
-283.530	-200.000	-0.003	0.482
-282.516	555.300	-0.053	0.127
-281.501	-107.986	-0.194	-0.042
-280.486	-60.708	-0.335	-0.141
-279.472	-7.420	0.061	0.041
-278.457	-31.235	-0.098	0.055
-277.443	-162.612	-0.133	0.007
-276.428	-90.406	0.151	-0.044
-275.413	800.000	0.037	0.132
-274.399	-107.472	0.261	0.057
-273.384	-42.362	-0.130	-0.066
-272.370	-110.484	-0.223	0.046
-271.355	-83.793	-0.083	-0.026
-270.340	-102.640	0.460	0.109
-269.326	-42.550	-0.087	0.044
-268.311	61.983	0.294	-0.291
-267.297	-83.020	-0.199	-0.064
-266.282	-28.509	-0.024	0.014
-265.267	93.541	0.162	0.182
-264.253	800.000	0.054	0.175
-263.238	-121.875	0.340	0.056
-262.224	396.477	0.031	0.065
-261.209	-158.677	-0.333	-0.019
-260.195	-32.861	0.081	-0.044
-259.180	-104.292	-0.146	-0.034
-258.165	62.923	-0.165	0.164
-257.151	-32.318	0.117	-0.065
-256.136	116.085	0.172	-0.209
-255.122	42.757	0.066	-0.060
-254.107	125.984	-0.173	-0.217
-253.092	633.652	-0.117	0.295
-252.078	-200.000	-0.037	0.248
-251.063	-61.827	0.222	0.092
-250.049	-150.452	0.554	0.042
-249.034	800.000	0.127	-0.413
-248.019	-4.563	-0.191	0.131
-247.005	-119.744	-0.237	0.040
-245.990	370.129	-0.071	-0.142
-244.976	-8.505	-0.085	0.057
-243.961	-55.586	-0.256	0.114
-242.946	-200.000	-0.019	0.256
-241.932	-119.495	-0.472	-0.081
-240.917	-95.813	-0.417	-0.110
-239.903	-200.000	0.073	0.429
-238.888	7.052	-0.265	-0.196
-237.873	93.969	-0.065	-0.073
-236.859	-147.773	-0.343	-0.028
-235.844	-68.418	0.225	0.087
-234.830	-181.505	0.284	0.005
-233.815	181.991	0.118	-0.172
-232.800	-73.241	-0.096	0.035
-231.786	-98.132	0.259	0.066
-230.771	61.193	0.047	-0.046
-229.757	212.672	0.178	-0.278
-228.742	-31.873	-0.466	-0.259
-227.727	-143.550	-0.269	0.025
-226.713	56.899	0.047	-0.045
-225.698	800.000	-0.062	-0.266
-224.684	-200.000	-0.007	0.213
-223.669	38.258	0.160	0.141
-222.655	435.226	-0.111	-0.238
-221.640	800.000	0.061	0.241
-220.625	800.000	0.047	0.165
-219.611	-200.000	-0.013	-0.102
-218.596	-73.283	0.189	0.069
-217.582	-200.000	-0.038	0.281
-216.567	430.885	-0.096	-0.205
-215.552	177.942	0.193	0.279
-214.538	-90.204	0.098	-0.028
-213.523	452.744	0.113	-0.249
-212.509	6.304	0.056	-0.042
-211.494	234.356	-0.076	-0.124
-210.479	29.383	-0.054	0.045
-209.465	17.071	0.275	0.216
-208.450	-200.000	-0.005	0.136
-207.436	-45.793	0.376	-0.184
-206.421	-54.342	0.181	-0.081
-205.406	78.385	-0.043	0.045
-204.392	66.950	-0.287	-0.289
-203.377	-56.611	0.364	0.160
-202.363	-200.000	-0.047	0.300
-201.348	-40.206	-0.249	-0.128
-200.333	-200.000	0.053	0.238
-199.319	91.615	-0.226	0.252
-198.304	286.870	0.179	0.320
-197.290	-127.831	-0.255	0.036
-196.275	-200.000	-0.007	0.093
-195.260	-71.566	-0.508	0.188
-194.246	-33.886	0.332	0.181
-193.231	306.121	0.182	0.336
-192.217	-105.860	0.104	0.023
-191.202	-135.235	-0.273	-0.032
-190.187	136.146	0.180	-0.233
-189.173	91.335	-0.083	-0.092
-188.158	38.444	-0.149	-0.131
-187.144	-76.493	-0.159	-0.055
-186.129	47.196	-0.157	0.144
-185.114	108.014	-0.020	0.024
-184.100	-200.000	-0.044	0.467
-183.085	-200.000	-0.027	0.147
-182.071	677.053	0.071	-0.182
-181.056	-115.084	-0.130	-0.024
-180.042	-117.506	0.417	0.075
-179.027	745.767	0.067	0.178
-178.012	82.346	0.033	-0.035
-176.998	156.928	-0.081	-0.111
-175.983	-29.654	-0.197	-0.111
-174.969	1.971	-0.052	0.037
-173.954	-200.000	-0.001	0.138
-172.939	-150.532	-0.244	0.018
-171.925	-19.693	0.210	-0.128
-170.910	2.270	-0.188	-0.135
-169.896	-103.346	0.229	-0.053
-168.881	276.106	-0.139	0.243
-167.866	-69.974	-0.323	0.122
-166.852	90.968	-0.138	0.153
-165.837	17.792	-0.336	0.264
-164.823	363.241	-0.082	0.162
-163.808	-200.000	-0.007	0.277
-162.793	62.648	0.033	0.032
-161.779	43.186	0.132	-0.119
-160.764	-20.049	-0.083	-0.051
-159.750	138.436	0.047	0.062
-158.735	-88.996	0.405	-0.118
-157.720	56.286	0.127	-0.122
-156.706	-200.000	0.024	-0.142
-155.691	-94.980	0.411	-0.110
-154.677	127.040	0.075	0.094
-153.662	261.521	0.152	0.261
-152.647	-200.000	0.022	0.158
-151.633	545.930	-0.133	-0.314
-150.618	-93.052	0.358	-0.099
-149.604	-67.527	0.107	0.042
-148.589	79.369	0.183	0.194
-147.574	-114.507	-0.087	0.016
-146.560	77.446	-0.181	0.190
-145.545	-72.462	0.321	0.117
-144.531	-88.788	-0.219	-0.064
-143.516	-42.744	0.402	0.202
-142.502	-58.236	0.100	0.043
-141.487	800.000	0.022	0.062
-140.472	232.840	-0.165	0.267
-139.458	104.933	-0.134	0.156
-138.443	77.647	0.187	0.197
-137.429	451.995	-0.026	0.056
-136.414	-118.230	0.263	-0.046
-135.399	210.212	-0.019	0.029
-134.385	-116.213	0.143	-0.026
-133.370	-67.477	-0.209	0.081
-132.356	34.111	0.146	0.126
-131.341	172.744	-0.068	-0.096
-130.326	-12.944	-0.077	-0.049
-129.312	800.000	-0.061	0.174
-128.297	-145.494	0.198	0.018
-127.283	-42.630	0.173	-0.087
-126.268	-178.679	0.246	0.006
-125.253	-28.785	-0.184	0.104
-124.239	47.117	0.134	-0.123
-123.224	489.057	0.077	0.174
-122.210	-107.606	-0.046	-0.010
