DTS Sentinel unit serial number:	SN413079Multiplexer serial number:	ORYXHardware model number:	OX4-SRSoftware version number:	ORYX F/W v4.00 Oryx Data Collector v3.7.2.0data status	okinstallation	princeton_trtdifferential loss correction	single-endedforward channel	channel 3reverse channel	N/Adate	2019/09/15time	05:28:34forward acquisition time	60.00reverse acquisition time	0.00gamma	496.2192k internal	0.2324k external	0.2324temperature offset calibration	0.9980default loss term (dB/km)	0.3790temperature slope calibration	1.0000multiplexer offset coefficient	1.0000multiplexer slope coefficient	1.0000fibre end	0.00T internal ref (°C)	30.56T ext. ref 1 (°C)	4.76T ext. ref 2 (°C)	25.69length (m)	temperature (°C)	Stokes	anti-Stokes-747.200	-70.654	0.242	-0.092
-746.185	-200.000	-0.014	-0.146
-745.171	-200.000	-0.067	0.319
-744.156	-126.164	-0.210	0.032
-743.142	-200.000	-0.029	0.184
-742.127	800.000	-0.113	0.390
-741.112	37.256	-0.152	-0.136
-740.098	-132.893	-0.076	-0.010
-739.083	-61.125	-0.160	0.068
-738.069	56.155	-0.185	0.181
-737.054	-71.728	0.224	0.084
-736.039	228.218	0.036	-0.060
-735.025	77.595	0.165	0.177
-734.010	186.655	-0.062	-0.093
-732.996	55.533	0.189	-0.185
-731.981	-200.000	-0.011	0.207
-730.966	-80.284	-0.144	0.049
-729.952	-43.500	0.029	-0.015
-728.937	-69.668	-0.190	0.073
-727.923	-61.476	-0.195	0.083
-726.908	-200.000	-0.021	-0.279
-725.894	-63.523	-0.231	-0.096
-724.879	-48.524	-0.351	0.170
-723.864	-102.975	0.438	0.105
-722.850	-200.000	-0.017	0.203
-721.835	-15.702	0.228	-0.147
-720.821	-150.094	-0.293	0.023
-719.806	800.000	-0.166	0.482
-718.791	64.137	-0.115	-0.117
-717.777	19.850	-0.099	-0.080
-716.762	-200.000	-0.049	-0.409
-715.748	-113.151	-0.241	0.048
-714.733	-200.000	-0.034	0.417
-713.718	505.162	0.099	-0.230
-712.704	506.281	0.076	-0.178
-711.689	300.214	0.097	-0.180
-710.675	197.112	-0.161	-0.248
-709.660	96.321	-0.152	-0.175
-708.645	-125.168	-0.161	-0.025
-707.631	-78.107	-0.226	0.078
-706.616	19.129	-0.151	0.122
-705.602	-54.934	0.236	0.107
-704.587	-42.420	-0.279	-0.143
-703.572	126.746	-0.080	-0.103
-702.558	114.533	-0.182	-0.223
-701.543	-24.681	-0.215	-0.129
-700.529	30.536	-0.242	0.208
-699.514	132.836	0.171	0.223
-698.499	224.508	-0.093	-0.151
-697.485	459.633	0.103	-0.231
-696.470	381.573	-0.100	0.207
-695.456	99.853	0.029	0.034
-694.441	-25.301	0.158	-0.094
-693.426	162.971	0.064	0.091
-692.412	8.329	-0.302	0.229
-691.397	-41.333	0.355	-0.184
-690.383	132.653	-0.079	0.103
-689.368	23.025	0.320	-0.264
-688.354	-57.328	0.139	-0.061
-687.339	48.111	0.117	0.110
-686.324	315.845	0.137	-0.261
-685.310	800.000	-0.089	0.388
-684.295	-60.235	0.189	-0.081
-683.281	-142.531	-0.233	0.023
-682.266	800.000	0.119	0.438
-681.251	755.482	0.108	-0.294
-680.237	-200.000	-0.061	-0.391
-679.222	98.853	0.030	0.035
-678.208	-13.645	0.203	0.133
-677.193	7.346	-0.291	0.219
-676.178	-169.777	-0.276	0.010
-675.164	77.930	-0.127	0.137
-674.149	800.000	-0.117	-0.449
-673.135	-32.129	-0.196	0.111
-672.120	-30.963	-0.291	0.165
-671.105	53.778	-0.223	0.215
-670.091	-5.133	-0.174	0.121
-669.076	-163.198	-0.216	0.010
-668.062	144.318	0.199	0.267
-667.047	-31.267	0.064	0.036
-666.032	800.000	-0.024	-0.076
-665.018	296.517	-0.067	-0.123
-664.003	-75.560	0.100	-0.036
-662.989	82.538	0.031	-0.034
-661.974	-108.787	-0.290	-0.063
-660.959	2.546	0.068	0.050
-659.945	9.371	0.288	0.219
-658.930	-55.163	-0.332	-0.150
-657.916	108.853	-0.071	-0.086
-656.901	-24.989	0.213	-0.127
-655.886	400.981	0.069	-0.145
-654.872	-200.000	0.035	-0.256
-653.857	-131.026	-0.037	-0.005
-652.843	-154.599	0.417	-0.028
-651.828	34.290	-0.245	-0.215
-650.814	9.835	0.265	-0.202
-649.799	70.583	-0.186	0.194
-648.784	800.000	0.075	-0.231
-647.770	64.099	-0.094	-0.095
-646.755	800.000	-0.008	-0.030
-645.741	800.000	-0.082	-0.264
-644.726	-64.868	-0.164	0.067
-643.711	67.144	-0.223	-0.228
-642.697	74.977	-0.143	0.151
-641.682	-115.101	0.323	0.062
-640.668	-60.621	-0.149	0.064
-639.653	-200.000	0.036	-0.172
-638.638	-200.000	-0.045	0.409
-637.624	-157.236	-0.089	-0.005
-636.609	800.000	-0.077	-0.318
-635.595	-200.000	-0.055	-0.273
-634.580	0.769	0.083	0.060
-633.565	-143.368	-0.150	0.014
-632.551	159.108	-0.053	0.073
-631.536	-13.814	0.138	0.090
-630.522	-200.000	0.038	-0.347
-629.507	-200.000	-0.026	-0.120
-628.492	-13.534	-0.212	0.138
-627.478	158.266	0.082	-0.115
-626.463	253.205	-0.226	-0.387
-625.449	39.144	-0.258	0.232
-624.434	415.915	-0.185	0.395
-623.419	800.000	-0.051	-0.158
-622.405	-64.781	-0.010	-0.004
-621.390	157.405	-0.037	-0.051
-620.376	-82.694	-0.387	0.126
-619.361	87.461	-0.014	-0.015
-618.346	5.411	-0.151	0.112
-617.332	-166.957	-0.107	0.004
-616.317	-200.000	0.004	-0.213
-615.303	17.346	-0.180	0.144
-614.288	-77.363	-0.288	0.100
-613.273	-200.000	-0.006	-0.402
-612.259	-98.737	0.088	-0.023
-611.244	16.008	0.241	0.191
-610.230	-39.682	-0.266	0.139
-609.215	-200.000	0.012	-0.255
-608.201	-150.398	0.072	0.006
-607.186	6.898	0.193	-0.144
-606.171	800.000	-0.072	0.222
-605.157	-145.209	0.389	-0.035
-604.142	701.829	-0.104	-0.275
-603.128	-3.438	-0.099	-0.069
-602.113	-16.568	0.122	-0.078
-601.098	-147.589	-0.064	-0.005
-600.084	-15.157	0.240	-0.154
-599.069	52.579	0.026	0.025
-598.055	59.719	-0.109	-0.108
-597.040	-21.001	-0.174	0.107
-596.025	-60.002	0.383	0.164
-595.011	-163.222	0.390	0.019
-593.996	-37.464	0.152	-0.081
-592.982	99.421	0.151	-0.175
-591.967	-135.296	-0.280	0.034
-590.952	23.980	0.209	-0.173
-589.938	-200.000	-0.048	-0.305
-588.923	59.473	-0.141	-0.140
-587.909	-86.138	0.050	0.015
-586.894	800.000	0.026	-0.109
-585.879	-98.075	-0.190	0.049
-584.865	-200.000	-0.050	0.224
-583.850	-20.395	-0.318	-0.196
-582.836	8.958	-0.136	0.103
-581.821	323.108	-0.072	0.138
-580.806	1.874	-0.207	0.149
-579.792	-45.150	0.370	0.185
-578.777	-52.955	-0.194	0.090
-577.763	800.000	0.044	-0.179
-576.748	332.872	-0.136	0.264
-575.733	-83.308	-0.126	0.040
-574.719	-132.448	0.158	-0.020
-573.704	-133.754	0.098	-0.012
-572.690	20.021	0.241	0.195
-571.675	232.473	-0.078	0.128
-570.661	9.177	0.130	0.098
-569.646	317.063	0.043	0.081
-568.631	-35.460	0.124	0.067
-567.617	277.338	0.135	-0.240
-566.602	-200.000	-0.068	0.349
-565.588	14.426	0.176	0.137
-564.573	-32.050	-0.199	0.112
-563.558	150.719	-0.067	-0.091
-562.544	209.417	-0.234	0.367
-561.529	-127.227	0.366	-0.054
-560.515	1.570	-0.321	-0.231
-559.500	284.444	-0.153	0.276
-558.485	-200.000	-0.028	-0.325
-557.471	-148.042	-0.251	-0.021
-556.456	34.077	0.218	0.190
-555.442	-95.145	0.331	-0.089
-554.427	-57.174	-0.421	0.186
-553.412	86.520	-0.083	0.092
-552.398	43.978	-0.150	-0.137
-551.383	-200.000	0.047	0.258
-550.369	800.000	-0.062	0.252
-549.354	-72.487	0.199	-0.074
-548.339	-200.000	0.021	0.296
-547.325	369.548	-0.092	0.186
-546.310	-200.000	0.006	-0.041
-545.296	-200.000	-0.002	0.122
-544.281	58.226	0.109	-0.107
-543.266	57.140	0.229	-0.223
-542.252	-200.000	0.038	-0.250
-541.237	-0.103	-0.208	-0.148
-540.223	-115.758	-0.377	-0.071
-539.208	-106.157	-0.159	-0.036
-538.193	-200.000	-0.018	-0.208
-537.179	-111.072	-0.253	0.052
-536.164	79.292	0.094	0.101
-535.150	-112.296	0.485	0.097
-534.135	33.415	-0.119	-0.103
-533.121	798.551	-0.080	-0.221
-532.106	566.634	0.105	-0.254
-531.091	113.690	0.067	-0.082
-530.077	351.841	0.072	-0.143
-529.062	-25.829	-0.259	0.153
-528.048	192.377	0.050	-0.076
-527.033	102.989	-0.119	0.140
-526.018	-11.965	-0.214	0.140
-525.004	-136.022	0.091	0.011
-523.989	-140.410	0.032	-0.003
-522.975	-200.000	0.033	0.150
-521.960	800.000	0.035	0.101
-520.945	159.674	-0.117	0.162
-519.931	-94.207	-0.535	0.146
-518.916	98.456	0.026	-0.030
-517.902	210.908	0.151	0.238
-516.887	436.156	0.083	-0.180
-515.872	800.000	-0.075	0.312
-514.858	-135.484	-0.213	-0.025
-513.843	272.395	-0.140	-0.247
-512.829	42.298	0.127	-0.115
-511.814	800.000	0.012	0.037
-510.799	248.707	0.077	-0.131
-509.785	800.000	0.051	-0.161
-508.770	-150.389	-0.284	0.022
-507.756	-138.734	0.122	0.013
-506.741	-127.324	0.338	-0.049
-505.726	-97.375	-0.169	0.044
-504.712	-13.952	0.205	-0.133
-503.697	-111.372	0.235	-0.048
-502.683	13.941	0.323	-0.251
-501.668	77.129	0.110	-0.117
-500.653	-200.000	-0.024	-0.243
-499.639	-200.000	0.020	-0.313
-498.624	6.904	-0.448	-0.334
-497.610	8.009	0.186	0.139
-496.595	800.000	-0.081	0.274
-495.581	-125.681	0.340	-0.052
-494.566	-200.000	0.023	-0.555
-493.551	42.532	-0.194	-0.177
-492.537	-45.008	0.041	0.020
-491.522	59.521	-0.237	0.234
-490.508	333.002	0.020	-0.038
-489.493	-39.104	0.136	-0.072
-488.478	-29.424	0.102	0.058
-487.464	69.150	-0.024	-0.024
-486.449	-14.542	-0.269	-0.173
-485.435	224.327	-0.226	-0.365
-484.420	-12.594	-0.273	-0.178
-483.405	-200.000	-0.049	0.260
-482.391	48.064	0.072	0.067
-481.376	-200.000	-0.042	-0.200
-480.362	-200.000	-0.134	0.000
-479.347	-108.500	0.084	-0.018
-478.332	17.786	-0.056	0.044
-477.318	-59.773	-0.128	0.055
-476.303	-200.000	-0.048	0.213
-475.289	-28.470	0.357	0.205
-474.274	-200.000	0.009	0.384
-473.259	-200.000	0.026	-0.269
-472.245	800.000	0.013	0.041
-471.230	84.612	-0.139	0.152
-470.216	-200.000	-0.048	-0.274
-469.201	86.579	-0.080	0.088
-468.186	1.080	-0.198	-0.142
-467.172	279.129	0.154	-0.274
-466.157	-87.466	0.191	0.058
-465.143	-200.000	-0.073	0.352
-464.128	800.000	-0.055	0.156
-463.113	800.000	-0.094	0.281
-462.099	-200.000	0.010	0.094
-461.084	-81.861	0.198	0.065
-460.070	113.955	-0.111	0.135
-459.055	130.720	-0.028	-0.036
-458.040	800.000	-0.074	-0.271
-457.026	-73.751	0.038	0.014
-456.011	-200.000	-0.016	0.086
-454.997	276.155	-0.113	0.201
-453.982	-68.840	-0.098	0.038
-452.968	-108.036	-0.253	-0.055
-451.953	755.631	-0.034	0.091
-450.938	-106.001	0.257	-0.058
-449.924	-82.655	-0.350	0.113
-448.909	-200.000	-0.017	0.157
-447.895	377.274	0.046	-0.093
-446.880	207.673	-0.045	-0.070
-445.865	-83.916	-0.226	0.072
-444.851	393.294	0.099	-0.205
-443.836	17.852	-0.284	0.226
-442.822	29.066	-0.018	-0.015
-441.807	467.126	-0.065	0.145
-440.792	-119.149	-0.191	-0.033
-439.778	36.891	0.252	-0.222
-438.763	200.916	-0.104	0.160
-437.749	3.112	0.118	-0.085
-436.734	1.725	0.166	-0.119
-435.719	81.018	0.090	0.096
-434.705	-113.273	0.115	0.022
-433.690	-91.075	-0.152	0.043
-432.676	50.591	-0.206	0.194
-431.661	-200.000	-0.033	-0.178
-430.646	800.000	0.052	-0.184
-429.632	800.000	-0.045	-0.161
-428.617	800.000	0.037	-0.143
-427.603	-200.000	0.008	-0.310
-426.588	132.712	0.114	-0.146
-425.573	703.667	-0.091	0.238
-424.559	34.057	-0.116	-0.100
-423.544	-75.690	0.309	-0.109
-422.530	141.481	0.217	0.286
-421.515	-70.160	-0.080	0.030
-420.500	-87.732	-0.058	-0.018
-419.486	-47.533	0.034	-0.017
-418.471	313.059	-0.222	-0.417
-417.457	-92.368	0.306	0.086
-416.442	-154.757	-0.154	-0.010
-415.428	-151.467	0.296	-0.022
-414.413	40.276	0.065	0.058
-413.398	41.764	0.358	-0.323
-412.384	-31.171	0.280	-0.157
-411.369	100.689	-0.233	0.270
-410.355	800.000	-0.006	0.026
-409.340	-107.186	-0.162	-0.036
-408.325	-200.000	-0.000	0.002
-407.311	-89.375	0.145	-0.043
-406.296	-77.227	0.184	0.064
-405.282	562.410	0.043	-0.104
-404.267	368.051	0.157	-0.315
-403.252	-200.000	0.016	0.231
-402.238	713.792	0.127	0.335
-401.223	800.000	0.061	0.218
-400.209	-200.000	-0.038	-0.368
-399.194	-114.387	0.172	-0.033
-398.179	-87.762	0.140	-0.042
-397.165	-115.129	-0.209	-0.040
-396.150	-38.353	0.375	0.198
-395.136	-200.000	0.048	-0.243
-394.121	-200.000	0.013	-0.208
-393.106	110.807	0.021	-0.025
-392.092	-116.798	0.325	0.059
-391.077	-169.468	-0.275	0.010
-390.063	55.574	0.179	-0.173
-389.048	-130.958	0.162	0.022
-388.033	-200.000	0.003	0.312
-387.019	105.867	0.285	0.335
-386.004	-122.882	0.350	-0.056
-384.990	-8.252	0.044	-0.029
-383.975	-97.041	0.103	0.027
-382.960	378.602	-0.049	0.101
-381.946	3.013	0.170	0.123
-380.931	-12.004	-0.178	-0.116
-379.917	-124.632	-0.153	-0.024
-378.902	58.765	0.158	0.155
-377.888	622.485	-0.038	-0.095
-376.873	167.285	0.099	-0.140
-375.858	-166.932	0.202	-0.008
-374.844	800.000	0.062	0.184
-373.829	58.973	0.100	-0.098
-372.815	30.960	-0.204	-0.174
-371.800	-16.783	-0.185	-0.117
-370.785	400.357	-0.045	0.094
-369.771	-187.908	-0.143	-0.002
-368.756	-200.000	0.011	-0.381
-367.742	181.467	-0.069	-0.100
-366.727	379.919	-0.082	-0.167
-365.712	-79.527	0.160	-0.054
-364.698	286.707	-0.165	0.296
-363.683	-20.261	-0.270	-0.166
-362.669	88.538	0.089	0.099
-361.654	616.530	-0.079	0.196
-360.639	198.973	0.326	0.496
-359.625	393.217	-0.018	-0.037
-358.610	-200.000	-0.010	-0.049
-357.596	-85.185	-0.137	0.043
-356.581	-103.677	-0.255	0.060
-355.566	-149.403	0.179	0.014
-354.552	6.680	0.151	-0.112
-353.537	50.949	0.217	-0.204
-352.523	157.959	0.108	-0.149
-351.508	237.852	0.064	-0.105
-350.493	-55.438	-0.206	0.092
-349.479	800.000	0.086	-0.256
-348.464	395.258	0.104	-0.215
-347.450	-200.000	-0.017	0.472
-346.435	-157.226	0.146	0.009
-345.420	97.579	0.054	-0.061
-344.406	50.251	0.089	-0.084
-343.391	585.878	-0.075	0.183
-342.377	-53.800	-0.182	0.083
-341.362	-137.769	-0.356	-0.040
-340.348	-64.013	-0.472	0.192
-339.333	-200.000	0.004	-0.043
-338.318	800.000	0.085	-0.285
-337.304	12.720	0.107	0.082
-336.289	165.291	-0.041	0.057
-335.275	172.650	-0.150	0.215
-334.260	55.000	0.076	0.073
-333.245	-92.278	-0.064	-0.018
-332.231	-148.310	-0.255	0.021
-331.216	-200.000	0.014	-0.104
-330.202	-0.719	-0.212	-0.149
-329.187	-79.835	0.253	0.085
-328.172	-200.000	-0.057	0.287
-327.158	-200.000	-0.004	-0.184
-326.143	354.117	0.120	0.236
-325.129	57.030	0.215	0.208
-324.114	-200.000	0.026	0.215
-323.099	-200.000	0.031	0.258
-322.085	-200.000	0.027	0.242
-321.070	-200.000	-0.042	-0.375
-320.056	-0.822	0.435	-0.306
-319.041	-142.379	-0.375	-0.037
-318.026	0.821	0.293	0.209
-317.012	800.000	0.102	0.319
-315.997	-200.000	-0.049	-0.237
-314.983	800.000	0.022	0.075
-313.968	-7.335	0.051	-0.034
-312.953	-41.154	0.178	0.091
-311.939	-200.000	-0.026	-0.136
-310.924	54.766	-0.253	0.242
-309.910	800.000	-0.108	0.428
-308.895	38.244	-0.114	0.101
-307.880	-154.999	0.288	-0.019
-306.866	-200.000	-0.265	0.001
-305.851	14.837	-0.125	-0.097
-304.837	-200.000	-0.013	0.236
-303.822	-94.762	-0.113	-0.030
-302.807	800.000	0.044	0.135
-301.793	-200.000	0.055	-0.275
-300.778	-13.381	-0.316	0.204
-299.764	32.083	0.338	-0.289
-298.749	-58.972	-0.203	0.087
-297.735	-91.165	0.227	0.065
-296.720	800.000	-0.051	-0.208
-295.705	800.000	-0.069	0.205
-294.691	800.000	-0.056	0.233
-293.676	100.174	0.127	0.146
-292.662	-90.888	-0.107	0.030
-291.647	-125.029	-0.250	0.038
-290.632	655.457	0.035	-0.090
-289.618	94.448	-0.078	0.088
-288.603	-79.249	0.013	0.005
-287.589	462.175	0.047	0.105
-286.574	-126.921	0.090	0.013
-285.559	279.084	-0.072	0.128
-284.545	-32.491	-0.127	0.070
-283.530	-86.724	0.076	0.023
-282.516	800.000	0.011	0.038
-281.501	-9.027	0.227	0.151
-280.486	283.230	0.101	-0.180
-279.472	-122.196	0.219	-0.036
-278.457	-71.014	-0.140	-0.052
-277.443	174.028	0.098	0.140
-276.428	273.784	0.084	-0.147
-275.413	-200.000	-0.005	-0.102
-274.399	15.858	0.162	0.126
-273.384	800.000	0.053	-0.185
-272.370	-138.190	0.094	-0.010
-271.355	198.725	0.101	-0.154
-270.340	298.718	-0.086	0.157
-269.326	-162.634	-0.288	0.014
-268.311	-107.745	0.140	0.030
-267.297	-200.000	0.030	-0.244
-266.282	413.434	0.109	0.230
-265.267	-200.000	0.026	-0.164
-264.253	-200.000	-0.051	0.371
-263.238	-92.569	0.189	0.052
-262.224	25.239	-0.193	0.159
-261.209	-200.000	-0.013	0.177
-260.195	-200.000	-0.012	-0.171
-259.180	-200.000	0.009	0.133
-258.165	72.101	0.103	-0.106
-257.151	633.279	-0.089	-0.223
-256.136	-200.000	-0.009	0.253
-255.122	-200.000	-0.017	-0.149
-254.107	-13.188	-0.136	0.087
-253.092	79.489	-0.117	-0.124
-252.078	-34.262	0.227	-0.123
-251.063	-200.000	-0.002	0.149
-250.049	35.286	0.084	0.073
-249.034	-142.530	-0.277	-0.027
-248.019	-41.966	-0.198	-0.100
-247.005	121.295	0.079	0.098
-245.990	277.319	0.093	-0.163
-244.976	-110.869	0.228	-0.046
-243.961	-200.000	-0.061	-0.296
-242.946	800.000	0.072	-0.206
-241.932	-92.650	-0.093	-0.026
-240.917	-37.893	0.215	-0.113
-239.903	-200.000	0.028	0.499
-238.888	8.679	-0.121	-0.090
-237.873	-2.580	0.150	-0.104
-236.859	-148.751	-0.075	-0.006
-235.844	311.994	0.160	0.297
-234.830	800.000	0.103	0.284
-233.815	-42.750	-0.242	0.122
-232.800	145.282	-0.087	-0.115
-231.786	675.035	-0.057	-0.146
-230.771	364.209	0.150	0.298
-229.757	-54.564	0.446	-0.200
-228.742	-200.000	0.044	-0.486
-227.727	62.854	-0.079	0.078
-226.713	22.440	0.072	-0.058
-225.698	-8.614	-0.216	0.143
-224.684	-200.000	0.061	0.000
-223.669	-109.084	-0.138	-0.029
-222.655	-117.194	0.243	-0.044
-221.640	607.755	0.053	0.131
-220.625	-50.298	-0.191	-0.089
-219.611	1.187	0.135	0.096
-218.596	-86.453	0.241	-0.073
-217.582	70.860	0.108	-0.111
-216.567	284.757	0.078	0.139
-215.552	7.975	-0.063	-0.047
-214.538	7.970	0.165	0.122
-213.523	-80.069	0.128	-0.042
-212.509	-1.217	-0.196	-0.137
-211.494	20.415	-0.037	0.030
-210.479	-164.919	0.015	0.001
-209.465	766.105	-0.024	-0.066
-208.450	-84.571	-0.092	0.029
-207.436	-88.785	0.448	-0.131
-206.421	-111.704	0.200	0.040
-205.406	-91.803	-0.092	0.026
-204.392	-154.504	-0.145	0.010
-203.377	-200.000	-0.021	-0.173
-202.363	388.801	-0.088	-0.180
-201.348	-34.218	-0.141	-0.076
-200.333	247.842	0.108	-0.180
-199.319	-55.742	0.351	0.155
-198.304	-200.000	-0.016	0.132
-197.290	367.131	-0.118	0.236
-196.275	96.688	0.120	-0.135
-195.260	21.570	0.087	0.070
-194.246	-62.768	-0.260	0.107
-193.231	71.453	0.043	-0.045
-192.217	-0.498	0.132	0.093
-191.202	4.649	-0.161	-0.117
-190.187	-10.145	0.190	0.125
-189.173	-40.635	0.042	-0.022
-188.158	-200.000	0.001	-0.114
-187.144	-53.377	-0.092	0.042
-186.129	-69.632	0.415	-0.157
-185.114	23.620	-0.007	-0.006
-184.100	-200.000	0.008	-0.277
-183.085	77.985	-0.080	0.084
-182.071	729.564	-0.073	0.192
-181.056	-102.762	0.166	0.039
-180.042	188.597	-0.090	0.133
-179.027	-200.000	0.010	0.214
-178.012	800.000	-0.012	-0.036
-176.998	101.563	-0.123	0.141
-175.983	-200.000	-0.017	0.131
-174.969	-92.967	-0.210	-0.058
-173.954	378.353	-0.186	0.375
-172.939	-96.039	0.058	-0.015
-171.925	24.517	0.233	0.191
-170.910	-17.226	0.015	-0.009
-169.896	5.667	0.209	0.153
-168.881	-200.000	0.005	0.136
-167.866	-49.121	-0.454	-0.214
-166.852	-135.467	0.221	-0.026
-165.837	-35.141	0.414	0.223
-164.823	18.197	0.217	-0.170
-163.808	-81.022	-0.306	-0.100
-162.793	18.630	0.071	-0.056
-161.779	-64.151	-0.212	0.085
-160.764	457.900	0.078	-0.171
-159.750	178.480	0.161	-0.232
-158.735	-43.111	-0.178	-0.089
-157.720	718.969	0.068	-0.177
-156.706	800.000	-0.192	-0.589
-155.691	-50.841	-0.157	0.073
-154.677	13.422	-0.254	-0.194
-153.662	-200.000	0.071	0.518
-152.647	93.708	0.138	-0.155
-151.633	-200.000	-0.000	0.096
-150.618	-200.000	0.007	0.079
-149.604	-16.722	0.454	-0.283
-148.589	-79.451	0.228	-0.076
-147.574	509.384	-0.046	0.106
-146.560	10.319	0.247	0.185
-145.545	86.026	0.307	-0.333
-144.531	-200.000	0.035	-0.161
-143.516	727.930	0.124	-0.326
-142.502	115.735	0.134	-0.162
-141.487	614.353	-0.066	0.164
-140.472	800.000	-0.105	0.309
-139.458	800.000	0.060	-0.245
-138.443	35.920	-0.059	0.051
-137.429	800.000	0.102	0.362
-136.414	-200.000	0.062	-0.361
-135.399	71.289	0.047	0.048
-134.385	73.066	-0.239	-0.246
-133.370	800.000	-0.054	-0.171
-132.356	-28.392	0.028	0.016
-131.341	11.104	0.063	-0.048
-130.326	789.790	-0.073	0.197
-129.312	223.417	0.074	0.117
-128.297	327.827	-0.078	0.148
-127.283	156.168	-0.125	-0.170
-126.268	124.217	0.094	0.116
-125.253	-200.000	-0.004	-0.036
-124.239	-22.526	0.276	0.164
-123.224	-124.164	-0.185	0.029
-122.210	-20.741	0.230	0.139
-121.195	-10.065	-0.207	0.136
-120.180	13.044	-0.206	-0.157
-119.166	-38.021	-0.072	0.038
