DTS Sentinel unit serial number:	SN413079Multiplexer serial number:	ORYXHardware model number:	OX4-SRSoftware version number:	ORYX F/W v4.00 Oryx Data Collector v3.7.2.0data status	okinstallation	princeton_trtdifferential loss correction	single-endedforward channel	channel 3reverse channel	N/Adate	2019/09/19time	00:00:35forward acquisition time	60.00reverse acquisition time	0.00gamma	496.2192k internal	0.2346k external	0.2346temperature offset calibration	0.9990default loss term (dB/km)	0.3790temperature slope calibration	1.0000multiplexer offset coefficient	1.0000multiplexer slope coefficient	1.0000fibre end	0.00T internal ref (°C)	23.06T ext. ref 1 (°C)	0.75T ext. ref 2 (°C)	16.01length (m)	temperature (°C)	Stokes	anti-Stokes-747.200	243.060	0.105	-0.175
-746.185	156.467	-0.126	0.174
-745.171	-69.771	-0.135	-0.051
-744.156	-78.644	0.151	-0.052
-743.142	143.063	0.111	-0.148
-742.127	800.000	-0.114	0.315
-741.112	800.000	0.020	-0.077
-740.098	-200.000	-0.032	0.170
-739.083	-148.304	0.411	-0.034
-738.069	-40.519	-0.318	-0.165
-737.054	139.704	-0.262	-0.345
-736.039	-21.109	-0.257	-0.157
-735.025	-200.000	0.047	0.346
-734.010	-97.590	-0.330	0.085
-732.996	591.455	-0.095	0.234
-731.981	306.122	-0.227	0.421
-730.966	96.859	0.186	-0.213
-729.952	201.225	0.173	-0.266
-728.937	-83.550	-0.173	-0.055
-727.923	-200.000	-0.008	0.055
-726.908	-31.758	-0.221	0.124
-725.894	48.832	-0.223	0.209
-724.879	483.749	0.022	-0.051
-723.864	800.000	-0.108	0.364
-722.850	394.417	0.087	0.181
-721.835	-81.899	-0.181	-0.059
-720.821	-139.376	-0.280	0.030
-719.806	-169.681	0.027	0.001
-718.791	10.647	0.166	0.126
-717.777	201.612	0.166	0.255
-716.762	511.017	0.153	-0.356
-715.748	-200.000	-0.026	0.147
-714.733	91.006	-0.184	-0.206
-713.718	-180.459	0.160	-0.003
-712.704	-67.363	0.217	-0.085
-711.689	-16.242	-0.256	-0.162
-710.675	-200.000	0.006	0.033
-709.660	-156.734	-0.208	-0.013
-708.645	209.897	-0.141	0.222
-707.631	209.737	0.198	0.310
-706.616	-26.175	0.245	-0.144
-705.602	229.329	0.063	-0.102
-704.587	-185.731	0.096	-0.001
-703.572	-22.721	0.207	-0.125
-702.558	-200.000	-0.010	-0.143
-701.543	-101.764	0.363	-0.088
-700.529	-200.000	-0.007	-0.241
-699.514	-14.893	0.249	-0.160
-698.499	-57.401	-0.179	-0.079
-697.485	-150.296	0.201	-0.015
-696.470	33.330	-0.062	0.053
-695.456	291.908	0.102	0.185
-694.441	-146.239	-0.324	0.028
-693.426	-200.000	0.030	-0.332
-692.412	-200.000	-0.022	0.269
-691.397	35.447	0.217	0.190
-690.383	-113.586	-0.175	0.034
-689.368	82.482	0.316	0.343
-688.354	-200.000	-0.005	-0.313
-687.339	-46.786	0.295	-0.144
-686.324	-121.753	-0.320	0.053
-685.310	665.582	-0.132	-0.339
-684.295	-24.801	-0.020	0.012
-683.281	-65.896	-0.261	-0.104
-682.266	-115.608	0.354	0.066
-681.251	45.952	-0.191	-0.177
-680.237	497.145	0.047	0.108
-679.222	97.822	-0.111	0.128
-678.208	800.000	-0.023	0.073
-677.193	66.302	0.289	0.293
-676.178	-200.000	-0.009	0.233
-675.164	800.000	0.046	0.180
-674.149	-38.486	0.058	-0.030
-673.135	-95.359	0.086	-0.023
-672.120	-24.786	0.076	-0.045
-671.105	-27.321	-0.102	-0.059
-670.091	-183.659	-0.063	0.001
-669.076	-46.805	-0.044	0.021
-668.062	57.529	-0.276	-0.268
-667.047	139.092	-0.128	0.168
-666.032	163.240	-0.094	-0.132
-665.018	800.000	0.069	0.249
-664.003	222.721	0.099	-0.159
-662.989	421.750	-0.162	-0.347
-661.974	-167.201	0.245	-0.010
-660.959	-70.509	-0.159	-0.060
-659.945	579.057	0.092	-0.224
-658.930	-134.684	-0.304	-0.037
-657.916	-121.683	-0.137	-0.023
-656.901	-13.739	-0.280	-0.181
-655.886	-5.648	-0.194	0.132
-654.872	-34.070	0.517	-0.283
-653.857	800.000	-0.054	-0.200
-652.843	209.744	0.081	0.127
-651.828	-129.427	-0.361	-0.050
-650.814	96.384	-0.224	0.256
-649.799	-101.711	0.536	-0.129
-648.784	-21.462	0.204	-0.124
-647.770	15.691	-0.220	-0.172
-646.755	495.336	-0.042	0.096
-645.741	21.093	0.140	-0.113
-644.726	800.000	-0.082	0.306
-643.711	165.432	-0.023	0.033
-642.697	-200.000	-0.010	-0.205
-641.682	-106.344	-0.144	0.032
-640.668	-84.194	-0.162	0.051
-639.653	800.000	0.177	-0.522
-638.638	-47.722	0.083	0.040
-637.624	-13.696	-0.081	-0.052
-636.609	499.306	0.045	-0.103
-635.595	-12.301	-0.144	0.094
-634.580	-200.000	-0.009	-0.057
-633.565	-78.131	-0.335	0.115
-632.551	23.634	-0.109	0.090
-631.536	800.000	0.132	-0.433
-630.522	-50.710	-0.064	-0.030
-629.507	14.170	0.141	-0.110
-628.492	551.004	0.116	0.278
-627.478	-158.091	-0.213	-0.012
-626.463	-85.126	-0.094	0.029
-625.449	107.612	0.122	-0.144
-624.434	-59.147	-0.405	0.174
-623.419	-107.986	0.337	0.073
-622.405	-46.854	0.134	0.065
-621.390	-200.000	-0.055	-0.325
-620.376	-85.803	0.188	-0.058
-619.361	-121.522	-0.347	-0.057
-618.346	404.648	0.104	0.219
-617.332	177.151	-0.176	0.255
-616.317	-92.104	-0.269	0.076
-615.303	-98.079	-0.251	0.064
-614.288	800.000	0.096	0.268
-613.273	574.162	0.073	0.176
-612.259	126.426	-0.072	-0.090
-611.244	-29.035	-0.080	0.046
-610.230	670.170	0.109	0.282
-609.215	800.000	-0.072	0.229
-608.201	180.884	-0.168	-0.245
-607.186	-27.748	0.023	0.014
-606.171	800.000	-0.078	0.256
-605.157	-200.000	0.000	-0.013
-604.142	319.777	0.093	0.176
-603.128	-99.469	-0.295	-0.074
-602.113	-167.695	-0.119	0.005
-601.098	295.014	-0.089	-0.163
-600.084	-48.225	-0.205	-0.098
-599.069	-105.390	0.260	-0.059
-598.055	-200.000	0.025	-0.492
-597.040	137.089	0.164	0.213
-596.025	800.000	-0.138	0.563
-595.011	-38.790	-0.060	-0.032
-593.996	800.000	0.034	-0.119
-592.982	6.337	0.017	0.013
-591.967	-200.000	-0.068	-0.563
-590.952	82.353	0.090	-0.097
-589.938	-0.340	-0.111	0.078
-588.923	-46.151	-0.120	0.059
-587.909	-40.109	0.226	-0.117
-586.894	305.792	0.109	0.201
-585.879	110.449	0.162	0.194
-584.865	66.261	-0.106	0.107
-583.850	-137.112	0.303	-0.034
-582.836	92.646	0.152	-0.171
-581.821	587.880	-0.077	-0.188
-580.806	-67.657	-0.410	-0.160
-579.792	-200.000	-0.032	-0.162
-578.777	-76.087	-0.180	0.063
-577.763	-101.013	0.416	0.101
-576.748	85.811	-0.321	-0.351
-575.733	88.307	0.104	0.115
-574.719	-116.668	0.181	0.033
-573.704	800.000	-0.015	0.052
-572.690	-58.075	-0.095	-0.041
-571.675	-200.000	-0.017	0.160
-570.661	277.340	0.234	0.413
-569.646	347.558	-0.121	0.236
-568.631	82.225	-0.125	-0.135
-567.617	-62.343	0.362	-0.150
-566.602	324.764	-0.073	0.138
-565.588	-181.498	-0.105	0.002
-564.573	-200.000	-0.020	0.120
-563.558	-117.793	-0.081	-0.014
-562.544	94.004	0.092	0.104
-561.529	106.038	-0.159	0.187
-560.515	-126.398	-0.152	-0.023
-559.500	-200.000	-0.019	-0.167
-558.485	44.907	0.195	0.178
-557.471	-200.000	0.036	-0.278
-556.456	308.667	0.173	-0.321
-555.442	321.505	0.088	-0.166
-554.427	282.121	-0.134	-0.239
-553.412	-64.627	0.280	0.113
-552.398	-72.357	0.196	-0.072
-551.383	50.792	0.087	-0.081
-550.369	59.391	-0.041	-0.040
-549.354	-160.861	0.110	0.006
-548.339	45.253	0.070	0.064
-547.325	46.573	0.170	0.157
-546.310	258.173	0.085	-0.145
-545.296	-83.844	0.156	0.049
-544.281	-13.117	0.301	0.194
-543.266	251.392	0.158	0.268
-542.252	394.436	-0.184	-0.381
-541.237	106.226	0.181	0.212
-540.223	-119.226	0.195	-0.034
-539.208	-31.319	-0.063	0.035
-538.193	-40.542	0.066	-0.034
-537.179	-200.000	-0.040	-0.221
-536.164	-200.000	-0.013	-0.256
-535.150	-48.814	-0.068	0.032
-534.135	-144.607	-0.273	0.025
-533.121	534.189	0.039	-0.091
-532.106	-133.450	0.166	0.021
-531.091	439.890	-0.192	0.416
-530.077	-121.532	-0.236	0.039
-529.062	-30.368	0.267	-0.150
-528.048	47.453	-0.394	-0.364
-527.033	665.456	-0.045	-0.115
-526.018	800.000	0.041	0.151
-525.004	-93.018	0.260	-0.072
-523.989	155.434	0.125	0.170
-522.975	663.012	-0.111	-0.285
-521.960	800.000	0.067	-0.286
-520.945	-154.835	0.244	0.016
-519.931	45.720	0.117	0.107
-518.916	12.735	0.044	0.034
-517.902	165.067	-0.113	-0.158
-516.887	-77.645	0.109	-0.037
-515.872	-8.063	0.165	0.111
-514.858	183.116	0.074	-0.109
-513.843	228.948	0.087	0.141
-512.829	98.732	0.047	-0.053
-511.814	90.303	-0.163	-0.181
-510.799	23.992	-0.076	0.062
-509.785	-200.000	0.022	-0.172
-508.770	-98.590	-0.600	-0.152
-507.756	-66.857	0.232	0.091
-506.741	-200.000	-0.014	0.285
-505.726	800.000	0.059	0.210
-504.712	198.270	-0.268	-0.406
-503.697	-44.191	0.016	0.008
-502.683	364.261	-0.077	-0.153
-501.668	-161.734	-0.089	0.004
-500.653	-143.767	-0.047	0.004
-499.639	84.011	0.330	-0.357
-498.624	-200.000	-0.017	0.203
-497.610	214.688	0.134	0.210
-496.595	18.936	-0.231	0.183
-495.581	-106.726	-0.255	0.056
-494.566	-96.662	0.705	-0.184
-493.551	212.853	-0.083	-0.129
-492.537	-32.785	-0.196	-0.108
-491.522	-76.819	-0.182	-0.063
-490.508	72.938	0.032	0.033
-489.493	-200.000	0.003	-0.157
-488.478	-94.445	-0.079	-0.021
-487.464	797.212	-0.112	0.306
-486.449	185.599	-0.109	0.161
-485.435	103.520	0.167	0.194
-484.420	94.615	-0.041	-0.046
-483.405	-73.019	-0.113	-0.041
-482.391	-200.000	-0.016	0.088
-481.376	-25.885	0.254	0.148
-480.362	612.681	0.039	-0.097
-479.347	69.896	0.212	-0.216
-478.332	-122.138	0.135	-0.022
-477.318	118.920	0.181	0.222
-476.303	-200.000	-0.051	0.262
-475.289	-21.319	0.225	-0.136
-474.274	-147.056	-0.238	0.020
-473.259	-200.000	-0.015	0.065
-472.245	53.366	-0.228	-0.216
-471.230	-48.311	0.282	0.135
-470.216	16.571	0.163	-0.128
-469.201	321.638	0.208	0.391
-468.186	236.634	0.149	-0.244
-467.172	800.000	-0.050	-0.158
-466.157	-80.165	0.081	0.027
-465.143	-200.000	-0.022	-0.140
-464.128	-98.241	-0.142	0.036
-463.113	-181.694	-0.192	-0.004
-462.099	-98.199	0.175	0.044
-461.084	153.574	0.077	0.104
-460.070	-137.736	0.204	0.023
-459.055	-96.893	-0.323	0.084
-458.040	-18.757	-0.070	0.043
-457.026	800.000	-0.064	0.186
-456.011	144.167	-0.117	-0.154
-454.997	102.769	0.040	-0.046
-453.982	-138.666	-0.292	0.032
-452.968	800.000	-0.051	-0.142
-451.953	4.165	-0.123	-0.089
-450.938	-200.000	-0.035	-0.183
-449.924	-200.000	0.021	0.135
-448.909	342.483	0.184	0.355
-447.895	-7.750	0.156	-0.104
-446.880	-200.000	-0.072	0.348
-445.865	179.485	-0.195	0.282
-444.851	-200.000	0.010	0.319
-443.836	-29.154	0.302	0.171
-442.822	75.175	0.176	-0.183
-441.807	-53.852	-0.172	0.077
-440.792	-62.583	0.172	0.070
-439.778	800.000	0.052	-0.153
-438.763	800.000	0.052	-0.201
-437.749	-114.545	0.136	0.026
-436.734	-200.000	-0.013	-0.060
-435.719	739.055	-0.128	0.339
-434.705	430.942	-0.110	-0.235
-433.690	-97.329	-0.149	-0.038
-432.676	-200.000	0.040	0.214
-431.661	228.794	-0.053	0.085
-430.646	38.712	-0.345	0.304
-429.632	-121.170	0.116	0.019
-428.617	-71.074	0.170	0.063
-427.603	-11.444	-0.337	0.219
-426.588	-109.463	0.293	-0.061
-425.573	-52.643	-0.024	0.011
-424.559	527.236	-0.188	0.437
-423.544	147.474	-0.177	-0.235
-422.530	193.082	-0.038	-0.057
-421.515	56.500	-0.147	-0.141
-420.500	338.095	0.023	0.044
-419.486	-99.951	-0.328	0.081
-418.471	-30.888	0.334	0.186
-417.457	225.141	0.168	-0.268
-416.442	21.294	0.023	0.019
-415.428	-126.492	-0.115	0.017
-414.413	-200.000	0.032	-0.226
-413.398	-16.586	-0.416	0.260
-412.384	-133.978	-0.443	-0.054
-411.369	-124.606	0.177	-0.027
-410.355	79.118	-0.245	0.259
-409.340	800.000	0.051	0.207
-408.325	-200.000	0.003	-0.423
-407.311	-200.000	-0.040	-0.236
-406.296	92.219	-0.161	0.179
-405.282	-200.000	-0.029	-0.155
-404.267	-130.449	-0.423	-0.057
-403.252	291.094	0.159	-0.285
-402.238	-129.257	-0.113	0.015
-401.223	24.665	0.065	0.053
-400.209	-47.050	-0.323	-0.155
-399.194	546.549	0.080	-0.188
-398.179	-55.554	0.269	0.119
-397.165	-81.433	-0.056	0.018
-396.150	800.000	-0.040	0.144
-395.136	173.118	0.119	0.169
-394.121	237.315	-0.152	-0.249
-393.106	126.860	-0.161	0.201
-392.092	-200.000	0.008	-0.050
-391.077	230.811	-0.033	-0.053
-390.063	-156.348	0.216	-0.013
-389.048	-200.000	0.017	-0.081
-388.033	347.162	-0.095	0.184
-387.019	398.892	0.120	-0.249
-386.004	209.733	-0.107	-0.165
-384.990	110.927	-0.160	-0.190
-383.975	-200.000	-0.024	-0.347
-382.960	57.763	0.140	0.135
-381.946	418.813	0.134	0.282
-380.931	800.000	-0.095	0.262
-379.917	70.437	-0.074	0.076
-378.902	20.121	-0.045	0.036
-377.888	198.048	-0.058	0.088
-376.873	-130.650	0.098	0.013
-375.858	16.234	0.045	0.035
-374.844	57.712	-0.131	0.126
-373.829	366.891	-0.064	-0.128
-372.815	-28.119	-0.106	0.060
-371.800	-200.000	0.018	0.237
-370.785	-106.318	0.146	0.032
-369.771	-83.120	0.320	-0.102
-368.756	42.969	0.323	-0.290
-367.742	-200.000	-0.028	0.407
-366.727	220.955	-0.046	-0.073
-365.712	-9.812	-0.012	0.008
-364.698	-19.175	0.181	0.111
-363.683	-73.051	0.140	0.051
-362.669	-101.491	-0.389	0.093
-361.654	-21.886	-0.085	0.051
-360.639	-96.259	0.058	0.015
-359.625	173.621	-0.046	-0.066
-358.610	800.000	-0.067	0.209
-357.596	-200.000	0.003	-0.086
-356.581	-200.000	0.004	-0.226
-355.566	-45.921	-0.107	-0.052
-354.552	-93.263	0.196	-0.054
-353.537	13.991	0.397	-0.304
-352.523	-89.195	0.234	0.068
-351.508	-108.037	0.250	0.053
-350.493	-10.988	-0.021	-0.014
-349.479	-200.000	-0.026	-0.209
-348.464	53.672	-0.247	-0.233
-347.450	230.297	-0.070	0.112
-346.435	-76.405	-0.394	0.136
-345.420	-58.762	-0.200	-0.085
-344.406	-130.430	0.219	0.029
-343.391	537.406	-0.047	-0.109
-342.377	-200.000	0.012	-0.217
-341.362	-100.889	0.540	0.131
-340.348	477.416	-0.129	0.287
-339.333	-200.000	0.028	0.157
-338.318	145.933	-0.136	0.179
-337.304	363.908	-0.030	0.059
-336.289	264.680	-0.092	-0.158
-335.275	231.245	-0.201	0.325
-334.260	-200.000	-0.027	0.462
-333.245	-92.588	-0.253	-0.070
-332.231	-10.182	-0.281	-0.184
-331.216	-200.000	0.015	0.142
-330.202	221.409	-0.199	-0.314
-329.187	499.128	-0.146	-0.332
-328.172	800.000	-0.047	-0.200
-327.158	67.967	-0.269	0.271
-326.143	800.000	0.039	-0.110
-325.129	-161.034	0.143	-0.007
-324.114	709.399	0.127	0.332
-323.099	-96.712	-0.203	0.053
-322.085	-131.167	0.429	0.056
-321.070	546.405	0.054	-0.127
-320.056	-200.000	-0.034	-0.383
-319.041	-64.079	0.253	-0.102
-318.026	320.847	0.153	-0.286
-317.012	0.168	0.415	-0.291
-315.997	313.155	0.071	0.130
-314.983	109.896	-0.168	0.199
-313.968	-141.269	-0.222	-0.022
-312.953	-200.000	0.049	-0.323
-311.939	-200.000	0.018	-0.134
-310.924	-118.909	-0.411	-0.071
-309.910	-48.932	-0.236	-0.111
-308.895	84.890	0.041	-0.045
-307.880	-200.000	0.070	0.358
-306.866	3.823	0.248	-0.178
-305.851	-91.264	-0.039	-0.011
-304.837	-200.000	-0.058	-0.282
-303.822	275.140	0.040	-0.070
-302.807	-0.561	0.189	-0.132
-301.793	-187.602	0.129	-0.002
-300.778	-67.316	0.114	-0.044
-299.764	386.564	0.105	0.213
-298.749	-129.442	0.114	0.015
-297.735	60.395	-0.153	-0.149
-296.720	-200.000	-0.003	-0.082
-295.705	34.998	-0.189	-0.163
-294.691	22.979	0.131	0.105
-293.676	452.074	0.088	-0.191
-292.662	-200.000	-0.007	0.246
-291.647	122.306	-0.160	-0.196
-290.632	58.502	-0.064	0.062
-289.618	-84.296	-0.190	-0.059
-288.603	-200.000	-0.028	0.126
-287.589	-150.111	0.307	0.023
-286.574	274.913	-0.096	0.167
-285.559	364.569	-0.142	0.280
-284.545	9.873	0.245	-0.183
-283.530	-38.116	-0.253	0.132
-282.516	800.000	-0.165	0.551
-281.501	99.539	0.107	-0.121
-280.486	146.067	-0.073	-0.097
-279.472	56.813	0.121	0.116
-278.457	135.145	0.237	-0.303
-277.443	-82.430	0.287	-0.092
-276.428	316.317	0.139	0.258
-275.413	350.774	0.060	-0.117
-274.399	800.000	0.156	-0.424
-273.384	-1.436	0.172	0.119
-272.370	800.000	0.045	0.152
-271.355	112.141	0.192	-0.228
-270.340	800.000	0.099	-0.372
-269.326	52.801	-0.115	0.108
-268.311	568.186	0.080	-0.191
-267.297	21.087	0.160	-0.128
-266.282	800.000	-0.014	-0.057
-265.267	-22.230	0.186	-0.111
-264.253	160.947	0.189	-0.259
-263.238	-93.366	-0.199	-0.054
-262.224	196.231	0.216	0.323
-261.209	-36.136	0.080	-0.043
-260.195	20.862	-0.130	0.103
-259.180	180.724	0.277	-0.399
-258.165	171.388	0.060	0.084
-257.151	6.715	-0.242	-0.176
-256.136	-200.000	-0.030	-0.291
-255.122	800.000	0.015	0.041
-254.107	449.589	-0.105	-0.227
-253.092	669.221	-0.107	0.271
-252.078	126.006	0.323	0.400
-251.063	-1.480	0.093	-0.064
-250.049	56.512	-0.188	0.180
-249.034	85.150	0.094	-0.101
-248.019	800.000	-0.043	0.128
-247.005	29.297	-0.436	0.363
-245.990	-141.032	-0.241	-0.024
-244.976	19.191	-0.095	-0.075
-243.961	39.338	0.226	0.199
-242.946	-38.497	-0.141	-0.073
-241.932	93.658	-0.066	0.074
-240.917	238.512	-0.034	-0.055
-239.903	800.000	-0.085	0.273
-238.888	87.193	0.193	-0.209
-237.873	-200.000	0.044	0.220
-236.859	157.968	0.132	0.179
-235.844	800.000	-0.037	-0.136
-234.830	-91.204	0.075	0.021
-233.815	78.287	0.200	-0.209
-232.800	-200.000	-0.034	0.166
-231.786	105.952	0.139	0.162
-230.771	-20.644	0.139	0.083
-229.757	106.098	-0.137	0.160
-228.742	800.000	-0.050	-0.206
-227.727	681.962	0.161	0.410
-226.713	-62.437	0.102	0.042
-225.698	-200.000	0.041	-0.204
-224.684	-125.497	0.141	-0.021
-223.669	-28.719	-0.224	-0.126
-222.655	28.454	-0.178	-0.148
-221.640	16.716	0.122	-0.095
-220.625	11.323	-0.227	0.170
-219.611	76.202	0.236	0.245
-218.596	52.818	0.166	0.155
-217.582	155.471	-0.051	0.069
-216.567	-24.412	0.343	-0.200
-215.552	20.382	-0.047	-0.037
-214.538	-92.050	-0.590	-0.164
-213.523	-45.946	-0.266	-0.128
-212.509	-200.000	0.086	-0.499
-211.494	790.771	-0.078	-0.209
-210.479	226.929	-0.167	0.266
-209.465	-99.478	-0.161	0.040
-208.450	-38.178	-0.306	-0.159
-207.436	27.595	0.259	-0.213
-206.421	233.169	-0.086	-0.138
-205.406	-200.000	-0.039	-0.335
-204.392	374.424	0.143	0.285
-203.377	-12.837	-0.393	0.250
-202.363	509.979	0.071	0.161
-201.348	-157.084	0.179	-0.011
-200.333	-200.000	-0.027	0.137
-199.319	40.910	-0.335	-0.296
-198.304	5.500	-0.041	-0.030
-197.290	-27.400	0.132	0.075
-196.275	-128.048	0.206	0.029
-195.260	-77.058	-0.094	-0.032
-194.246	17.051	0.121	0.094
-193.231	770.793	-0.163	0.433
-192.217	140.270	0.190	0.246
-191.202	-75.580	-0.184	0.064
-190.187	68.048	0.142	0.142
-189.173	-74.506	-0.175	0.062
-188.158	-127.881	0.111	0.016
-187.144	-50.749	0.273	-0.126
-186.129	9.840	0.086	-0.064
-185.114	800.000	0.053	0.145
-184.100	152.410	0.117	0.156
-183.085	-58.901	-0.217	0.092
-182.071	447.281	0.213	0.459
-181.056	56.252	-0.075	-0.071
-180.042	-200.000	-0.011	0.141
-179.027	112.067	-0.089	0.105
-178.012	-57.567	0.099	0.043
-176.998	153.593	0.073	-0.098
-175.983	-34.315	-0.432	0.232
-174.969	-7.347	0.180	-0.119
-173.954	109.420	0.167	-0.196
-172.939	-200.000	0.001	0.133
-171.925	-21.969	-0.135	0.080
-170.910	24.407	-0.019	0.015
-169.896	800.000	0.018	0.060
-168.881	6.743	-0.139	0.101
-167.866	-200.000	0.004	-0.072
-166.852	173.976	0.121	0.172
-165.837	246.619	0.089	-0.146
-164.823	800.000	0.097	0.406
-163.808	-200.000	-0.016	-0.229
-162.793	-200.000	-0.028	-0.302
-161.779	-159.755	0.181	0.010
-160.764	70.967	-0.183	0.185
-159.750	-200.000	0.010	-0.083
-158.735	-107.196	-0.162	0.035
-157.720	-200.000	0.006	0.200
-156.706	-54.838	-0.289	-0.127
-155.691	212.911	-0.145	-0.223
-154.677	-200.000	0.435	0.001
-153.662	800.000	-0.049	-0.135
-152.647	302.737	-0.179	-0.324
-151.633	-81.741	0.074	0.024
-150.618	800.000	0.009	-0.026
-149.604	-200.000	-0.048	0.272
-148.589	800.000	0.015	-0.045
-147.574	296.933	-0.063	0.112
-146.560	-200.000	0.059	0.311
-145.545	49.367	0.307	-0.282
-144.531	-8.481	-0.248	-0.163
-143.516	-71.908	-0.109	0.040
-142.502	76.080	0.182	0.188
-141.487	292.920	-0.153	0.272
-140.472	169.803	0.205	-0.287
-139.458	-135.317	-0.158	-0.018
-138.443	92.959	0.067	-0.074
-137.429	-200.000	-0.026	-0.171
-136.414	-3.447	0.095	-0.064
-135.399	-200.000	-0.009	0.135
-134.385	54.630	0.184	-0.173
-133.370	-200.000	-0.014	0.336
-132.356	-152.621	0.356	0.025
-131.341	-11.440	0.024	0.015
-130.326	-83.545	0.352	0.110
-129.312	-200.000	0.071	0.340
-128.297	505.933	0.128	0.291
-127.283	627.380	0.069	0.171
-126.268	-200.000	0.074	0.441
-125.253	-132.391	0.453	-0.057
-124.239	-200.000	0.037	0.223
-123.224	-9.179	0.154	0.101
-122.210	640.360	-0.047	0.117
-121.195	66.892	0.041	0.041
-120.180	182.641	-0.077	-0.111
