DTS Sentinel unit serial number:	SN413079Multiplexer serial number:	ORYXHardware model number:	OX4-SRSoftware version number:	ORYX F/W v4.00 Oryx Data Collector v3.7.2.0data status	okinstallation	princeton_trtdifferential loss correction	single-endedforward channel	channel 3reverse channel	N/Adate	2019/09/14time	20:48:34forward acquisition time	60.00reverse acquisition time	0.00gamma	496.2192k internal	0.2316k external	0.2316temperature offset calibration	1.0006default loss term (dB/km)	0.3790temperature slope calibration	1.0000multiplexer offset coefficient	1.0000multiplexer slope coefficient	1.0000fibre end	0.00T internal ref (°C)	33.27T ext. ref 1 (°C)	4.82T ext. ref 2 (°C)	27.98length (m)	temperature (°C)	Stokes	anti-Stokes-747.200	-0.680	0.111	-0.080
-746.185	-76.416	0.278	0.099
-745.171	-200.000	-0.026	0.125
-744.156	-78.210	0.155	-0.054
-743.142	-200.000	-0.022	0.209
-742.127	-200.000	-0.012	0.163
-741.112	-38.675	0.476	0.255
-740.098	647.856	-0.082	0.212
-739.083	348.913	0.107	-0.213
-738.069	-190.742	-0.248	0.003
-737.054	48.474	-0.054	-0.051
-736.039	-200.000	-0.001	0.038
-735.025	-200.000	0.014	0.199
-734.010	800.000	0.059	-0.186
-732.996	-200.000	0.086	-0.381
-731.981	-126.690	-0.116	-0.017
-730.966	-96.848	-0.425	-0.113
-729.952	-200.000	0.016	-0.305
-728.937	180.206	-0.098	-0.145
-727.923	118.376	0.070	-0.088
-726.908	800.000	0.059	-0.190
-725.894	-200.000	-0.041	0.211
-724.879	-80.384	-0.143	-0.048
-723.864	-200.000	0.043	-0.222
-722.850	-30.492	0.301	-0.172
-721.835	-81.032	0.088	0.030
-720.821	-200.000	0.045	-0.287
-719.806	-200.000	0.017	-0.187
-718.791	-200.000	-0.015	0.301
-717.777	-200.000	0.012	-0.148
-716.762	-25.280	-0.051	-0.030
-715.748	-29.188	-0.136	-0.079
-714.733	-200.000	0.004	0.034
-713.718	334.708	0.183	0.358
-712.704	800.000	0.029	0.129
-711.689	83.018	0.083	-0.091
-710.675	588.674	0.037	0.093
-709.660	92.500	0.192	-0.219
-708.645	800.000	0.027	-0.077
-707.631	154.928	-0.134	0.187
-706.616	800.000	0.065	0.218
-705.602	-12.228	-0.092	0.061
-704.587	-144.602	-0.313	-0.029
-703.572	-200.000	-0.012	0.140
-702.558	446.940	0.235	0.523
-701.543	35.166	-0.129	0.114
-700.529	-200.000	-0.019	0.193
-699.514	-200.000	0.001	-0.100
-698.499	44.672	0.198	-0.184
-697.485	175.999	0.132	0.194
-696.470	-23.206	-0.155	0.094
-695.456	800.000	-0.045	0.164
-694.441	-3.753	0.278	0.195
-693.426	-200.000	-0.013	-0.062
-692.412	202.020	-0.235	0.366
-691.397	0.151	0.105	-0.075
-690.383	-18.526	0.207	-0.131
-689.368	-41.581	0.217	-0.113
-688.354	0.011	0.283	-0.204
-687.339	56.046	0.208	0.204
-686.324	103.711	0.129	-0.153
-685.310	-168.795	0.373	0.014
-684.295	-132.986	-0.211	0.027
-683.281	492.916	-0.121	-0.281
-682.266	-89.592	-0.178	-0.053
-681.251	379.873	-0.104	-0.216
-680.237	-14.212	0.230	-0.150
-679.222	800.000	-0.091	-0.296
-678.208	800.000	0.058	0.183
-677.193	-73.431	0.272	0.100
-676.178	457.939	0.117	0.263
-675.164	46.807	-0.119	-0.111
-674.149	169.818	0.105	0.152
-673.135	-200.000	0.027	0.221
-672.120	7.806	0.171	-0.130
-671.105	-200.000	-0.007	-0.298
-670.091	413.689	-0.179	-0.384
-669.076	65.463	-0.154	-0.157
-668.062	773.864	0.039	0.107
-667.047	-80.448	0.154	-0.052
-666.032	201.256	-0.035	-0.054
-665.018	-14.429	0.260	-0.169
-664.003	-200.000	-0.056	0.262
-662.989	51.817	0.204	0.196
-661.974	262.539	-0.104	-0.182
-660.959	9.299	0.309	-0.236
-659.945	-160.392	-0.175	0.009
-658.930	-200.000	-0.028	-0.246
-657.916	800.000	0.120	-0.373
-656.901	63.516	-0.067	-0.068
-655.886	475.521	-0.066	-0.150
-654.872	-179.999	0.338	-0.007
-653.857	-43.270	0.335	0.171
-652.843	98.185	-0.010	-0.012
-651.828	128.624	-0.196	-0.252
-650.814	-57.041	0.221	0.098
-649.799	1.341	0.159	-0.115
-648.784	-87.329	-0.278	-0.085
-647.770	-200.000	0.000	-0.258
-646.755	-112.138	0.347	0.070
-645.741	168.660	0.111	-0.160
-644.726	465.911	-0.126	-0.285
-643.711	-200.000	-0.043	-0.257
-642.697	27.511	-0.356	0.302
-641.682	223.982	0.116	0.189
-640.668	81.491	-0.189	-0.206
-639.653	-200.000	0.037	0.262
-638.638	-200.000	0.016	-0.129
-637.624	-58.638	-0.227	0.099
-636.609	211.347	0.192	0.305
-635.595	-66.609	-0.130	0.052
-634.580	214.431	-0.296	-0.474
-633.565	437.041	0.055	0.122
-632.551	-200.000	-0.048	-0.228
-631.536	-15.934	-0.284	-0.182
-630.522	12.642	-0.263	-0.205
-629.507	269.404	0.147	0.260
-628.492	50.482	0.150	0.143
-627.478	31.527	-0.250	-0.217
-626.463	-106.984	0.378	-0.084
-625.449	-21.299	0.274	0.169
-624.434	20.850	-0.177	-0.144
-623.419	-200.000	0.033	0.153
-622.405	121.549	-0.054	-0.068
-621.390	-53.802	-0.374	-0.172
-620.376	254.489	-0.128	0.221
-619.361	-106.930	0.195	-0.044
-618.346	-28.932	0.250	-0.145
-617.332	85.707	0.257	-0.285
-616.317	36.217	-0.134	-0.119
-615.303	-200.000	-0.023	0.133
-614.288	59.208	-0.268	-0.265
-613.273	37.399	0.166	-0.148
-612.259	-200.000	-0.011	0.307
-611.244	-169.685	0.312	0.011
-610.230	-46.563	-0.167	0.082
-609.215	-200.000	0.052	0.468
-608.201	-200.000	-0.017	0.407
-607.186	23.553	-0.103	0.086
-606.171	800.000	0.077	0.302
-605.157	-145.602	-0.237	0.021
-604.142	-67.960	0.047	0.019
-603.128	-67.208	-0.317	-0.126
-602.113	76.156	0.289	-0.308
-601.098	115.470	0.039	-0.048
-600.084	133.993	0.145	-0.189
-599.069	-200.000	0.008	-0.053
-598.055	-80.770	0.087	-0.029
-597.040	-3.443	0.341	-0.239
-596.025	165.435	0.057	0.081
-595.011	800.000	-0.116	-0.343
-593.996	70.869	0.191	0.199
-592.982	10.268	-0.429	0.329
-591.967	-113.592	-0.178	0.035
-590.952	-77.063	0.198	0.069
-589.938	85.346	0.116	-0.128
-588.923	72.919	-0.248	-0.261
-587.909	13.236	0.209	-0.163
-586.894	-152.803	-0.106	-0.008
-585.879	-82.742	-0.385	-0.125
-584.865	6.884	-0.194	0.146
-583.850	-200.000	0.054	0.263
-582.836	800.000	-0.085	-0.357
-581.821	-164.247	0.071	-0.003
-580.806	-78.277	-0.450	-0.155
-579.792	36.424	-0.148	0.132
-578.777	35.810	0.145	0.128
-577.763	800.000	0.026	0.103
-576.748	69.447	0.284	0.294
-575.733	-106.460	0.140	-0.031
-574.719	110.242	-0.149	-0.180
-573.704	-82.332	-0.100	0.033
-572.690	-124.768	0.252	0.039
-571.675	20.462	0.138	0.112
-570.661	-200.000	0.002	0.320
-569.646	-80.050	-0.297	0.100
-568.631	800.000	0.067	0.250
-567.617	800.000	-0.009	-0.036
-566.602	-200.000	-0.065	-0.325
-565.588	41.915	0.409	-0.373
-564.573	-72.646	0.048	-0.018
-563.558	-65.091	-0.247	0.100
-562.544	115.848	0.058	0.071
-561.529	-30.463	-0.053	0.030
-560.515	-67.545	-0.219	0.086
-559.500	-200.000	-0.026	0.388
-558.485	84.886	-0.037	-0.041
-557.471	61.775	-0.097	-0.097
-556.456	-86.623	0.152	-0.047
-555.442	-200.000	-0.019	0.132
-554.427	-200.000	0.030	0.288
-553.412	-200.000	-0.041	-0.229
-552.398	-40.221	0.121	-0.063
-551.383	-185.334	-0.086	0.001
-550.369	-40.163	0.045	-0.023
-549.354	155.298	-0.069	-0.095
-548.339	-200.000	0.011	0.350
-547.325	-150.858	0.165	0.013
-546.310	-70.026	0.390	0.149
-545.296	-181.247	0.320	0.006
-544.281	-104.948	0.075	0.017
-543.266	44.202	-0.169	-0.156
-542.252	800.000	-0.091	-0.399
-541.237	-153.663	-0.118	-0.008
-540.223	-42.366	0.125	0.064
-539.208	-52.917	-0.159	-0.073
-538.193	156.228	-0.350	-0.485
-537.179	800.000	0.023	0.075
-536.164	-193.597	-0.140	-0.001
-535.150	-61.151	0.354	-0.150
-534.135	-135.059	-0.377	0.046
-533.121	-157.048	0.235	0.014
-532.106	-53.278	-0.211	-0.097
-531.091	-200.000	-0.049	-0.216
-530.077	334.212	0.091	-0.176
-529.062	178.547	-0.154	-0.226
-528.048	282.607	-0.065	0.117
-527.033	-200.000	0.022	-0.232
-526.018	-200.000	0.004	-0.083
-525.004	-141.716	-0.287	-0.029
-523.989	126.197	-0.059	-0.076
-522.975	-35.740	-0.159	-0.087
-521.960	421.623	0.062	-0.135
-520.945	-105.943	-0.178	0.040
-519.931	-200.000	0.008	0.156
-518.916	-200.000	-0.016	0.303
-517.902	-68.452	0.281	0.109
-516.887	384.793	0.050	0.103
-515.872	-41.956	-0.303	-0.156
-514.858	-39.464	-0.147	0.077
-513.843	717.329	-0.051	-0.135
-512.829	800.000	0.082	-0.232
-511.814	5.439	-0.101	0.075
-510.799	-200.000	-0.010	-0.167
-509.785	-200.000	-0.003	0.067
-508.770	480.856	-0.069	-0.158
-507.756	9.273	0.131	-0.099
-506.741	527.223	0.067	0.160
-505.726	-200.000	-0.019	0.275
-504.712	77.733	-0.247	0.264
-503.697	-74.853	-0.251	-0.090
-502.683	33.173	0.189	-0.165
-501.668	-65.270	0.266	0.107
-500.653	-134.036	0.209	-0.026
-499.639	-8.154	0.185	-0.125
-498.624	800.000	-0.037	-0.112
-497.610	-91.366	0.114	-0.033
-496.595	-89.093	0.058	-0.017
-495.581	5.396	0.063	0.047
-494.566	800.000	0.113	-0.323
-493.551	173.967	-0.168	-0.243
-492.537	-79.365	-0.054	0.018
-491.522	460.476	0.106	-0.237
-490.508	-200.000	-0.000	-0.028
-489.493	-111.265	0.091	0.019
-488.478	370.485	0.079	-0.160
-487.464	30.420	0.282	-0.242
-486.449	-14.310	-0.051	0.033
-485.435	-200.000	-0.022	-0.223
-484.420	291.060	-0.047	-0.086
-483.405	-200.000	0.007	-0.425
-482.391	302.472	-0.196	-0.363
-481.376	-71.271	-0.237	-0.089
-480.362	800.000	-0.071	0.233
-479.347	-200.000	-0.042	0.185
-478.332	-32.675	0.138	0.077
-477.318	800.000	-0.048	-0.183
-476.303	48.530	-0.203	0.190
-475.289	14.875	-0.152	-0.119
-474.274	-56.116	-0.423	-0.189
-473.259	-82.162	0.215	0.070
-472.245	800.000	-0.078	0.265
-471.230	551.358	-0.217	0.522
-470.216	-169.029	-0.123	0.005
-469.201	256.308	-0.156	-0.268
-468.186	-18.601	-0.028	0.017
-467.172	800.000	0.053	0.154
-466.157	-200.000	-0.012	0.216
-465.143	-50.033	0.315	-0.150
-464.128	800.000	-0.008	0.026
-463.113	43.315	0.210	0.192
-462.099	82.490	0.115	0.125
-461.084	-200.000	0.023	0.173
-460.070	261.486	0.097	0.168
-459.055	6.059	-0.072	-0.053
-458.040	-200.000	0.041	-0.207
-457.026	-127.627	-0.149	0.022
-456.011	-200.000	-0.000	-0.010
-454.997	-200.000	-0.015	-0.133
-453.982	-45.157	-0.171	-0.085
-452.968	8.841	-0.129	-0.097
-451.953	567.867	-0.058	-0.140
-450.938	432.423	0.027	0.059
-449.924	236.483	-0.092	0.152
-448.909	143.790	-0.175	0.233
-447.895	-100.582	0.194	-0.048
-446.880	-20.017	0.318	-0.197
-445.865	800.000	0.060	-0.249
-444.851	-185.376	0.242	-0.004
-443.836	59.155	0.242	0.238
-442.822	-200.000	0.002	-0.243
-441.807	-118.293	-0.251	-0.045
-440.792	56.427	0.160	-0.156
-439.778	73.380	0.110	-0.115
-438.763	-77.895	-0.101	-0.035
-437.749	-200.000	-0.027	-0.127
-436.734	769.729	0.208	-0.566
-435.719	247.637	0.086	0.146
-434.705	365.590	0.169	0.341
-433.690	-63.032	-0.182	0.075
-432.676	275.152	-0.091	-0.162
-431.661	18.386	-0.191	0.153
-430.646	800.000	0.027	0.075
-429.632	800.000	0.040	-0.131
-428.617	800.000	-0.015	0.065
-427.603	128.972	0.181	-0.231
-426.588	127.833	0.205	0.261
-425.573	-131.230	0.260	0.035
-424.559	-163.648	0.198	-0.009
-423.544	95.856	0.284	-0.324
-422.530	-46.347	-0.422	0.207
-421.515	-177.323	-0.348	0.009
-420.500	800.000	0.035	-0.108
-419.486	-103.719	-0.253	0.059
-418.471	-82.835	0.254	-0.082
-417.457	58.627	-0.133	0.131
-416.442	395.833	0.029	-0.060
-415.428	-14.762	-0.240	0.154
-414.413	346.115	-0.090	-0.177
-413.398	800.000	0.050	-0.170
-412.384	631.524	0.056	-0.141
-411.369	-200.000	0.006	-0.056
-410.355	-30.160	-0.241	-0.137
-409.340	-40.757	0.088	0.045
-408.325	42.966	0.089	-0.081
-407.311	345.501	0.094	0.184
-406.296	-85.584	0.125	-0.039
-405.282	281.134	0.126	0.225
-404.267	800.000	0.048	0.159
-403.252	62.156	0.191	-0.190
-402.238	-53.103	0.330	0.152
-401.223	-151.099	-0.099	-0.007
-400.209	-66.860	0.325	0.129
-399.194	-200.000	-0.016	-0.085
-398.179	-80.899	0.251	-0.083
-397.165	-144.457	-0.122	0.011
-396.150	-89.080	0.297	0.088
-395.136	157.390	0.102	0.140
-394.121	-200.000	0.037	0.196
-393.106	800.000	-0.053	-0.161
-392.092	-137.673	0.256	-0.029
-391.077	-104.239	0.166	-0.038
-390.063	326.621	-0.187	-0.357
-389.048	-200.000	-0.054	-0.270
-388.033	658.899	0.050	0.128
-387.019	-153.976	-0.303	-0.021
-386.004	55.644	-0.113	-0.109
-384.990	800.000	-0.045	0.172
-383.975	-200.000	0.003	-0.101
-382.960	800.000	-0.054	-0.192
-381.946	115.973	-0.163	0.199
-380.931	-100.600	0.197	-0.048
-379.917	-200.000	0.054	0.266
-378.902	-53.933	-0.142	0.065
-377.888	-200.000	-0.006	-0.138
-376.873	26.119	0.143	0.119
-375.858	-200.000	-0.069	0.337
-374.844	-71.070	-0.107	0.040
-373.829	-98.264	-0.087	0.022
-372.815	103.394	-0.261	-0.305
-371.800	-154.290	-0.183	-0.012
-370.785	-200.000	0.020	0.270
-369.771	2.163	-0.115	0.083
-368.756	57.734	-0.250	0.244
-367.742	-7.329	-0.029	-0.020
-366.727	-9.627	-0.049	0.033
-365.712	41.863	-0.243	-0.220
-364.698	46.083	0.181	0.168
-363.683	-38.727	0.335	-0.177
-362.669	174.730	-0.108	0.156
-361.654	-87.488	-0.166	0.050
-360.639	173.939	-0.145	0.209
-359.625	-200.000	0.009	-0.083
-358.610	73.124	0.118	-0.123
-357.596	-115.846	-0.363	0.068
-356.581	-74.597	0.146	0.052
-355.566	-46.876	0.063	0.031
-354.552	123.584	0.096	0.120
-353.537	800.000	-0.033	0.100
-352.523	510.871	-0.136	-0.316
-351.508	-135.297	0.168	-0.020
-350.493	-200.000	-0.011	-0.120
-349.479	-126.376	-0.074	0.011
-348.464	-149.965	0.099	0.008
-347.450	-200.000	-0.034	-0.253
-346.435	361.331	0.103	0.207
-345.420	10.863	-0.145	-0.111
-344.406	-33.247	-0.131	-0.072
-343.391	15.744	0.107	0.084
-342.377	-200.000	-0.003	0.149
-341.362	75.384	0.278	0.293
-340.348	-200.000	-0.050	0.251
-339.333	220.210	0.086	-0.137
-338.318	-76.155	0.291	0.102
-337.304	-99.800	0.362	0.090
-336.289	-47.524	-0.232	-0.112
-335.275	-200.000	-0.002	0.211
-334.260	17.649	0.081	0.064
-333.245	45.127	0.046	-0.042
-332.231	-21.449	-0.228	-0.139
-331.216	-67.534	-0.236	-0.092
-330.202	14.683	0.117	0.091
-329.187	-17.609	0.058	0.037
-328.172	-178.303	0.121	0.003
-327.158	-200.000	0.000	0.169
-326.143	-178.927	-0.066	-0.001
-325.129	160.413	0.135	-0.188
-324.114	-200.000	0.001	-0.100
-323.099	-70.404	-0.460	-0.174
-322.085	118.968	0.117	0.144
-321.070	157.615	-0.190	0.261
-320.056	-7.282	0.123	0.083
-319.041	-28.575	-0.149	-0.085
-318.026	-200.000	0.009	0.066
-317.012	-149.398	-0.442	-0.035
-315.997	508.410	-0.051	0.119
-314.983	-142.901	0.230	0.022
-313.968	-75.075	0.120	0.043
-312.953	-38.234	-0.045	0.024
-311.939	800.000	0.089	-0.325
-310.924	-200.000	-0.011	0.181
-309.910	-106.153	-0.281	0.063
-308.895	-82.441	0.182	0.059
-307.880	-103.233	-0.161	0.038
-306.866	-200.000	0.045	-0.430
-305.851	23.042	0.139	0.114
-304.837	-200.000	0.007	-0.070
-303.822	438.487	0.092	0.201
-302.807	-200.000	-0.025	0.132
-301.793	-56.935	-0.205	-0.090
-300.778	62.819	-0.109	0.109
-299.764	-200.000	-0.021	-0.309
-298.749	-108.833	0.259	-0.055
-297.735	-47.481	0.123	0.060
-296.720	249.876	0.055	-0.093
-295.705	151.602	-0.093	0.126
-294.691	-74.323	0.250	0.090
-293.676	-200.000	0.048	-0.325
-292.662	-43.071	-0.227	0.115
-291.647	-97.219	-0.143	0.037
-290.632	-200.000	0.030	-0.252
-289.618	-200.000	-0.010	0.140
-288.603	-109.764	-0.034	0.007
-287.589	-63.375	0.057	0.023
-286.574	-18.437	0.208	-0.129
-285.559	-23.477	0.088	0.053
-284.545	-4.101	-0.249	0.171
-283.530	-133.250	-0.081	0.010
-282.516	-200.000	0.012	0.245
-281.501	47.526	0.106	-0.098
-280.486	21.700	0.170	0.138
-279.472	102.154	-0.138	-0.161
-278.457	-86.729	-0.214	-0.065
-277.443	800.000	-0.009	0.026
-276.428	800.000	0.060	0.236
-275.413	-1.511	0.096	-0.067
-274.399	-7.611	-0.316	0.212
-273.384	-200.000	-0.018	0.236
-272.370	-70.898	0.260	0.097
-271.355	-25.107	0.135	0.080
-270.340	-2.628	-0.060	-0.042
-269.326	400.587	-0.036	0.075
-268.311	-200.000	0.028	0.300
-267.297	-158.301	0.174	0.010
-266.282	-200.000	-0.032	0.196
-265.267	800.000	-0.041	-0.161
-264.253	-81.906	-0.192	-0.062
-263.238	-200.000	-0.076	0.407
-262.224	-16.513	0.170	0.107
-261.209	-9.766	0.071	0.047
-260.195	-133.357	-0.421	0.053
-259.180	-19.927	-0.339	-0.208
-258.165	-62.988	-0.223	0.092
-257.151	40.243	-0.137	0.123
-256.136	353.936	0.098	0.193
-255.122	-88.610	0.165	0.049
-254.107	25.531	-0.128	0.105
-253.092	-200.000	0.031	-0.144
-252.078	-200.000	-0.015	0.110
-251.063	195.578	0.118	0.178
-250.049	800.000	0.065	0.199
-249.034	-43.928	-0.422	0.211
-248.019	-96.006	-0.218	-0.058
-247.005	800.000	-0.061	0.210
-245.990	342.683	0.030	0.059
-244.976	-177.930	0.318	0.008
-243.961	800.000	-0.086	0.253
-242.946	573.157	-0.188	0.456
-241.932	-14.138	-0.219	-0.141
-240.917	136.199	0.124	0.160
-239.903	704.861	-0.096	-0.251
-238.888	698.256	0.077	-0.201
-237.873	-200.000	-0.016	-0.090
-236.859	-200.000	0.003	-0.238
-235.844	218.421	-0.244	-0.387
-234.830	-200.000	0.013	0.067
-233.815	480.028	0.010	0.022
-232.800	800.000	-0.030	0.091
-231.786	-140.898	0.214	-0.022
-230.771	-27.793	-0.361	-0.208
-229.757	-13.632	0.134	0.086
-228.742	-15.011	0.315	0.200
-227.727	-200.000	-0.008	-0.170
-226.713	-61.241	0.228	0.095
-225.698	-140.588	0.248	0.025
-224.684	-134.637	0.310	0.038
-223.669	145.957	-0.189	-0.251
-222.655	-200.000	0.017	-0.262
-221.640	59.152	0.300	-0.293
-220.625	44.252	0.131	0.119
-219.611	370.831	-0.127	-0.256
-218.596	282.598	0.077	0.137
-217.582	114.303	-0.168	0.203
-216.567	-33.220	-0.260	0.143
-215.552	-200.000	-0.008	-0.069
-214.538	-115.896	0.133	0.025
-213.523	273.085	0.200	0.350
-212.509	-137.500	0.204	0.023
-211.494	-200.000	-0.011	-0.058
-210.479	-51.229	-0.115	-0.054
-209.465	-200.000	0.023	-0.184
-208.450	-57.273	-0.372	0.162
-207.436	-113.981	0.166	0.032
-206.421	-129.534	0.138	-0.019
-205.406	-133.084	0.124	-0.016
-204.392	324.969	0.222	-0.422
-203.377	133.366	-0.131	-0.168
-202.363	-31.272	-0.223	0.124
-201.348	-48.022	-0.096	-0.046
-200.333	-67.296	0.353	0.138
-199.319	65.189	0.176	0.177
-198.304	-64.922	0.458	0.183
-197.290	188.269	-0.111	0.165
-196.275	737.682	-0.083	-0.220
-195.260	-74.423	-0.187	0.067
-194.246	-183.728	-0.105	0.002
-193.231	-4.191	0.243	-0.167
-192.217	93.575	0.181	-0.203
-191.202	-5.163	-0.189	0.129
-190.187	583.617	0.046	0.113
-189.173	-5.330	-0.270	0.184
-188.158	-77.131	0.176	0.061
-187.144	86.463	-0.197	0.215
-186.129	-200.000	-0.029	0.233
-185.114	-200.000	-0.003	0.306
-184.100	652.370	0.051	0.130
-183.085	-127.584	-0.034	0.005
-182.071	79.667	0.117	-0.124
-181.056	244.743	0.128	-0.213
-180.042	437.680	-0.052	0.112
-179.027	-10.717	-0.166	-0.109
-178.012	-148.826	0.211	-0.017
-176.998	113.363	-0.158	0.190
-175.983	681.291	-0.148	-0.382
-174.969	-90.275	0.158	-0.046
-173.954	-14.158	0.227	0.145
-172.939	-200.000	-0.001	-0.057
-171.925	-155.057	-0.084	0.005
-170.910	-89.090	0.237	0.070
-169.896	-84.452	0.101	-0.032
-168.881	-98.979	0.100	-0.025
-167.866	64.432	0.256	-0.256
-166.852	133.813	0.035	-0.045
-165.837	-79.261	0.175	-0.059
-164.823	-115.674	-0.113	0.021
-163.808	70.176	-0.138	-0.141
-162.793	196.992	0.115	0.174
-161.779	800.000	0.055	-0.190
-160.764	60.606	0.195	0.192
-159.750	-62.125	0.351	0.145
-158.735	-200.000	-0.009	-0.132
-157.720	-4.885	-0.365	-0.249
-156.706	310.969	-0.101	-0.187
-155.691	317.057	-0.168	0.315
-154.677	188.533	0.177	0.263
-153.662	28.958	0.172	0.145
-152.647	115.828	0.194	0.235
-151.633	379.377	0.133	-0.270
-150.618	505.337	0.022	0.051
-149.604	692.014	-0.069	0.178
-148.589	-76.168	0.147	-0.051
-147.574	138.815	0.213	0.277
-146.560	305.891	-0.126	-0.232
-145.545	349.119	0.148	0.288
-144.531	7.536	-0.097	0.072
-143.516	-26.497	-0.174	-0.101
-142.502	800.000	0.014	0.061
-141.487	800.000	0.110	0.405
-140.472	-40.195	-0.120	-0.062
-139.458	205.649	0.139	-0.214
-138.443	-75.323	0.181	-0.064
-137.429	-65.403	-0.117	-0.047
-136.414	800.000	0.081	-0.260
-135.399	-45.837	-0.373	0.182
-134.385	-126.038	-0.182	-0.027
-133.370	39.984	0.107	0.095
-132.356	81.910	-0.075	0.080
-131.341	-16.941	-0.203	-0.127
-130.326	51.527	0.167	-0.157
-129.312	-161.372	0.191	0.010
-128.297	14.139	0.316	0.243
-127.283	-22.185	-0.253	0.152
-126.268	-200.000	-0.009	0.056
-125.253	-29.693	-0.126	-0.071
-124.239	-42.028	0.269	-0.136
-123.224	-148.785	-0.129	0.010
-122.210	315.957	-0.079	-0.147
-121.195	17.273	-0.223	0.175
-120.180	221.140	0.098	-0.155
