DTS Sentinel unit serial number:	SN413079Multiplexer serial number:	ORYXHardware model number:	OX4-SRSoftware version number:	ORYX F/W v4.00 Oryx Data Collector v3.7.2.0data status	okinstallation	princeton_trtdifferential loss correction	single-endedforward channel	channel 3reverse channel	N/Adate	2019/09/13time	20:36:35forward acquisition time	60.00reverse acquisition time	0.00gamma	496.2192k internal	0.2332k external	0.2332temperature offset calibration	1.0057default loss term (dB/km)	0.3790temperature slope calibration	1.0000multiplexer offset coefficient	1.0000multiplexer slope coefficient	1.0000fibre end	0.00T internal ref (°C)	29.00T ext. ref 1 (°C)	3.16T ext. ref 2 (°C)	23.60length (m)	temperature (°C)	Stokes	anti-Stokes-747.200	327.978	0.139	0.268
-746.185	800.000	-0.066	0.238
-745.171	800.000	0.043	0.138
-744.156	185.303	0.114	-0.170
-743.142	-200.000	0.018	-0.140
-742.127	87.990	0.224	0.250
-741.112	50.867	0.131	-0.124
-740.098	273.216	-0.122	0.216
-739.083	-6.714	-0.128	0.088
-738.069	235.583	0.162	0.270
-737.054	-200.000	0.053	-0.283
-736.039	-20.059	-0.211	-0.131
-735.025	2.205	0.147	-0.107
-734.010	-133.419	-0.110	0.014
-732.996	800.000	-0.117	-0.406
-731.981	128.348	0.124	-0.159
-730.966	-200.000	-0.300	-0.000
-729.952	28.798	-0.070	0.060
-728.937	340.950	0.155	-0.305
-727.923	42.171	-0.089	-0.081
-726.908	-115.091	-0.334	0.064
-725.894	-20.767	0.114	-0.070
-724.879	515.770	0.014	-0.032
-723.864	800.000	0.094	0.332
-722.850	251.512	0.111	-0.190
-721.835	800.000	0.065	0.255
-720.821	800.000	0.080	0.252
-719.806	52.774	-0.246	0.236
-718.791	-184.110	0.091	-0.002
-717.777	260.870	0.058	0.101
-716.762	-23.072	-0.096	-0.058
-715.748	23.333	0.184	0.152
-714.733	-79.098	-0.252	-0.086
-713.718	434.059	-0.127	-0.277
-712.704	351.451	-0.096	-0.191
-711.689	-200.000	-0.035	0.228
-710.675	-200.000	0.083	-0.427
-709.660	-200.000	0.020	0.446
-708.645	-200.000	0.017	-0.402
-707.631	172.422	-0.168	-0.243
-706.616	-136.657	-0.230	-0.027
-705.602	-200.000	0.011	0.111
-704.587	112.464	-0.063	-0.077
-703.572	800.000	-0.048	0.161
-702.558	800.000	-0.069	-0.274
-701.543	30.657	0.200	0.172
-700.529	-200.000	0.052	0.254
-699.514	136.258	0.063	0.083
-698.499	-126.589	-0.260	-0.039
-697.485	-64.885	0.338	-0.137
-696.470	800.000	0.056	-0.164
-695.456	243.002	-0.217	-0.366
-694.441	-121.347	0.452	-0.076
-693.426	-200.000	-0.010	-0.142
-692.412	-57.092	0.353	-0.156
-691.397	-200.000	0.003	0.045
-690.383	588.746	-0.119	-0.294
-689.368	15.259	-0.164	-0.129
-688.354	136.894	0.210	-0.275
-687.339	-42.354	-0.295	-0.151
-686.324	-72.508	-0.265	-0.098
-685.310	562.615	-0.092	-0.223
-684.295	69.651	-0.170	0.176
-683.281	-19.062	0.131	0.082
-682.266	-170.714	0.249	-0.009
-681.251	-200.000	0.017	-0.092
-680.237	800.000	0.055	-0.241
-679.222	800.000	-0.057	-0.168
-678.208	4.178	-0.309	0.227
-677.193	800.000	-0.016	0.067
-676.178	38.957	-0.232	0.208
-675.164	-142.520	0.102	0.010
-674.149	-200.000	-0.079	0.390
-673.135	626.544	-0.076	-0.192
-672.120	-200.000	0.048	-0.270
-671.105	6.020	0.066	-0.049
-670.091	800.000	-0.038	0.158
-669.076	42.738	-0.225	-0.206
-668.062	-121.200	0.179	0.030
-667.047	313.360	0.085	-0.161
-666.032	-56.389	0.086	-0.038
-665.018	-200.000	0.031	0.243
-664.003	-200.000	-0.048	-0.248
-662.989	536.711	-0.052	-0.124
-661.974	-200.000	-0.019	-0.224
-660.959	-82.692	-0.218	-0.071
-659.945	210.871	0.039	0.061
-658.930	800.000	0.044	-0.159
-657.916	-200.000	-0.041	0.208
-656.901	-5.189	0.187	0.129
-655.886	-142.840	-0.159	0.016
-654.872	800.000	0.058	-0.242
-653.857	-76.866	0.049	-0.017
-652.843	100.457	-0.064	-0.075
-651.828	-200.000	-0.035	-0.429
-650.814	-72.506	-0.154	-0.057
-649.799	-0.192	-0.060	0.043
-648.784	-63.300	-0.262	0.108
-647.770	800.000	-0.063	0.235
-646.755	800.000	0.020	-0.079
-645.741	50.024	0.300	0.284
-644.726	63.478	0.075	-0.076
-643.711	261.264	0.099	-0.172
-642.697	266.675	-0.142	-0.249
-641.682	533.086	0.062	0.148
-640.668	-98.211	0.170	-0.044
-639.653	800.000	-0.058	0.172
-638.638	391.498	0.041	0.086
-637.624	8.495	-0.154	-0.116
-636.609	-85.693	0.243	-0.076
-635.595	-200.000	-0.014	0.067
-634.580	-200.000	-0.003	0.192
-633.565	800.000	0.045	0.171
-632.551	-47.195	0.185	0.090
-631.536	800.000	0.057	-0.190
-630.522	199.373	-0.068	0.105
-629.507	800.000	0.034	0.116
-628.492	-59.861	0.076	0.033
-627.478	-73.757	0.236	-0.086
-626.463	-118.306	0.071	-0.013
-625.449	89.434	-0.280	0.313
-624.434	103.312	0.137	0.161
-623.419	146.809	-0.068	-0.092
-622.405	-200.000	0.028	-0.319
-621.390	-200.000	-0.015	0.100
-620.376	41.198	0.336	-0.304
-619.361	-200.000	0.010	-0.342
-618.346	125.039	0.050	-0.064
-617.332	-36.264	0.259	0.140
-616.317	-4.859	-0.083	-0.057
-615.303	-123.144	-0.057	-0.009
-614.288	344.302	-0.080	-0.157
-613.273	800.000	-0.080	0.341
-612.259	113.736	0.140	0.170
-611.244	-165.557	0.225	-0.010
-610.230	-51.206	-0.067	0.032
-609.215	-40.310	0.079	-0.041
-608.201	-18.799	-0.250	-0.156
-607.186	-60.937	0.187	0.079
-606.171	800.000	-0.093	-0.350
-605.157	2.247	-0.247	-0.179
-604.142	2.896	-0.331	-0.241
-603.128	112.863	0.154	-0.187
-602.113	-8.667	-0.201	0.135
-601.098	800.000	0.053	-0.181
-600.084	-200.000	0.000	-0.229
-599.069	-200.000	0.022	-0.106
-598.055	77.627	0.143	0.153
-597.040	800.000	0.032	0.091
-596.025	52.146	-0.141	-0.134
-595.011	471.665	0.046	0.105
-593.996	-200.000	-0.094	-0.430
-592.982	26.172	0.122	-0.102
-591.967	-200.000	-0.009	0.086
-590.952	19.946	0.225	0.181
-589.938	8.878	-0.154	0.117
-588.923	38.454	0.308	0.275
-587.909	-9.335	-0.182	0.121
-586.894	162.830	-0.040	0.056
-585.879	-67.861	0.038	0.015
-584.865	-42.411	-0.228	-0.116
-583.850	345.777	-0.249	-0.490
-582.836	157.799	-0.293	-0.405
-581.821	-200.000	0.088	0.480
-580.806	-200.000	-0.023	-0.127
-579.792	-200.000	0.032	-0.233
-578.777	16.081	-0.299	0.235
-577.763	800.000	0.060	0.223
-576.748	-102.241	0.195	-0.047
-575.733	-200.000	-0.007	-0.183
-574.719	-46.785	-0.320	-0.157
-573.704	128.695	0.230	0.293
-572.690	-64.799	-0.052	-0.021
-571.675	-131.676	-0.328	-0.043
-570.661	23.196	0.154	0.126
-569.646	-60.428	0.305	0.130
-568.631	-172.996	0.196	0.006
-567.617	-43.450	-0.105	0.053
-566.602	127.805	-0.173	-0.220
-565.588	-92.089	0.150	0.043
-564.573	-200.000	-0.005	-0.056
-563.558	66.598	-0.287	0.292
-562.544	-4.724	-0.316	0.218
-561.529	-200.000	0.018	0.279
-560.515	48.233	0.312	0.292
-559.500	-41.025	-0.155	0.080
-558.485	-50.364	-0.316	0.149
-557.471	356.273	-0.079	-0.157
-556.456	342.464	-0.038	-0.075
-555.442	17.686	-0.135	0.107
-554.427	800.000	0.079	0.293
-553.412	-200.000	-0.024	-0.107
-552.398	-200.000	-0.022	0.131
-551.383	-50.526	-0.146	0.069
-550.369	90.848	-0.156	0.174
-549.354	-200.000	-0.008	0.092
-548.339	65.282	0.172	0.173
-547.325	-200.000	-0.026	-0.179
-546.310	-20.204	-0.182	-0.112
-545.296	-200.000	0.007	-0.135
-544.281	479.930	-0.068	-0.153
-543.266	253.539	0.097	-0.166
-542.252	189.799	-0.152	-0.227
-541.237	-200.000	-0.037	-0.188
-540.223	-101.269	0.200	0.049
-539.208	-200.000	0.002	0.026
-538.193	-200.000	0.044	-0.263
-537.179	278.966	0.049	0.087
-536.164	4.531	-0.229	-0.168
-535.150	-31.761	-0.142	0.080
-534.135	218.531	0.090	-0.144
-533.121	-200.000	-0.040	-0.228
-532.106	-129.916	-0.038	-0.005
-531.091	-200.000	-0.063	-0.275
-530.077	-200.000	0.018	-0.225
-529.062	23.413	-0.079	0.065
-528.048	54.239	-0.118	0.114
-527.033	-27.121	0.495	-0.288
-526.018	-180.385	-0.334	0.007
-525.004	-49.430	0.179	-0.085
-523.989	-126.743	-0.180	0.027
-522.975	104.801	-0.231	-0.272
-521.960	-30.883	-0.017	-0.010
-520.945	-112.860	-0.306	-0.061
-519.931	-200.000	-0.012	-0.144
-518.916	-173.478	-0.120	-0.004
-517.902	108.102	0.073	-0.086
-516.887	50.065	-0.157	-0.147
-515.872	52.771	0.123	0.117
-514.858	-200.000	0.017	-0.086
-513.843	194.834	-0.174	0.263
-512.829	-168.148	-0.204	-0.008
-511.814	-140.383	-0.085	0.009
-510.799	-199.112	0.176	-0.001
-509.785	-16.769	0.075	0.047
-508.770	-119.830	0.310	-0.053
-507.756	279.967	-0.101	-0.179
-506.741	146.527	-0.052	0.070
-505.726	-200.000	-0.013	0.239
-504.712	-4.667	0.083	0.057
-503.697	-200.000	0.038	-0.186
-502.683	-156.678	0.454	0.028
-501.668	277.877	0.091	-0.162
-500.653	800.000	0.064	0.244
-499.639	153.016	-0.115	-0.156
-498.624	-84.431	-0.163	0.051
-497.610	-200.000	0.010	0.132
-496.595	-200.000	0.011	0.242
-495.581	25.229	0.207	0.171
-494.566	800.000	0.057	0.168
-493.551	613.451	-0.041	-0.103
-492.537	145.430	0.134	-0.178
-491.522	-69.144	0.070	0.027
-490.508	-72.480	-0.170	-0.062
-489.493	-10.025	-0.282	0.187
-488.478	-89.879	0.365	0.106
-487.464	14.932	0.248	-0.194
-486.449	-200.000	-0.030	-0.437
-485.435	8.430	-0.026	-0.020
-484.420	118.182	-0.098	-0.120
-483.405	29.212	0.065	-0.055
-482.391	172.634	0.069	-0.099
-481.376	-86.922	0.109	0.033
-480.362	339.503	0.079	0.154
-479.347	55.811	-0.157	0.152
-478.332	-81.706	-0.262	-0.086
-477.318	-48.756	0.172	-0.082
-476.303	-55.976	-0.186	0.083
-475.289	132.544	0.202	0.259
-474.274	800.000	0.064	-0.222
-473.259	-110.627	-0.157	0.032
-472.245	-200.000	-0.001	-0.031
-471.230	379.718	0.113	-0.230
-470.216	262.114	-0.055	0.096
-469.201	-38.595	0.267	0.140
-468.186	28.356	-0.252	0.212
-467.172	-83.857	-0.171	0.054
-466.157	-200.000	-0.010	-0.130
-465.143	207.688	-0.156	-0.242
-464.128	49.826	-0.207	-0.194
-463.113	-200.000	-0.013	0.067
-462.099	-200.000	0.018	0.095
-461.084	-50.387	-0.173	0.081
-460.070	82.228	-0.022	-0.024
-459.055	42.684	0.146	-0.132
-458.040	-16.177	0.198	0.125
-457.026	-41.088	-0.150	-0.077
-456.011	-154.731	0.160	-0.011
-454.997	-200.000	-0.040	0.342
-453.982	-144.708	-0.270	0.025
-452.968	16.612	0.166	0.130
-451.953	648.815	0.164	0.418
-450.938	114.743	-0.112	0.136
-449.924	-9.346	0.324	0.215
-448.909	-111.656	0.309	0.062
-447.895	289.683	-0.165	-0.298
-446.880	164.570	-0.096	0.134
-445.865	-69.923	0.127	-0.048
-444.851	-200.000	-0.015	-0.349
-443.836	-90.893	-0.166	0.047
-442.822	466.809	0.089	-0.199
-441.807	744.591	-0.063	-0.168
-440.792	161.985	-0.043	-0.060
-439.778	-80.120	0.139	-0.046
-438.763	-123.278	0.198	0.031
-437.749	-23.575	-0.181	0.108
-436.734	19.259	-0.239	-0.191
-435.719	-23.626	0.162	-0.097
-434.705	105.927	0.206	-0.242
-433.690	-200.000	-0.018	-0.406
-432.676	-14.384	-0.231	0.148
-431.661	-200.000	0.061	0.272
-430.646	-82.515	-0.124	0.040
-429.632	-200.000	-0.003	0.307
-428.617	800.000	-0.073	0.267
-427.603	-200.000	0.025	0.195
-426.588	437.346	-0.082	-0.177
-425.573	-169.243	0.244	-0.009
-424.559	-200.000	-0.014	0.100
-423.544	-104.489	0.120	0.028
-422.530	800.000	-0.029	-0.090
-421.515	-67.885	0.247	-0.096
-420.500	800.000	0.070	0.289
-419.486	277.054	0.146	-0.258
-418.471	-123.066	-0.114	0.018
-417.457	800.000	-0.054	-0.183
-416.442	62.103	-0.044	0.043
-415.428	180.765	-0.174	0.254
-414.413	21.152	0.101	-0.082
-413.398	-68.100	-0.205	0.079
-412.384	138.586	0.068	0.089
-411.369	-64.639	-0.275	0.111
-410.355	-93.250	-0.188	-0.052
-409.340	459.306	0.051	0.113
-408.325	10.156	0.123	-0.093
-407.311	-116.731	-0.236	0.043
-406.296	-200.000	0.005	0.069
-405.282	-200.000	-0.002	-0.099
-404.267	-20.085	-0.177	0.108
-403.252	-88.760	0.163	0.048
-402.238	-120.086	0.094	-0.016
-401.223	2.991	-0.327	0.236
-400.209	-183.415	-0.191	-0.003
-399.194	147.929	-0.236	-0.317
-398.179	-129.424	0.141	0.019
-397.165	-200.000	-0.009	0.163
-396.150	-106.312	-0.362	0.080
-395.136	-61.335	0.207	0.086
-394.121	-50.594	0.152	0.071
-393.106	-17.304	0.122	0.076
-392.092	225.417	0.021	-0.034
-391.077	-27.338	-0.282	-0.163
-390.063	50.253	-0.266	-0.249
-389.048	25.562	-0.099	0.082
-388.033	82.266	0.201	0.216
-387.019	-200.000	0.018	-0.105
-386.004	160.930	0.118	0.163
-384.990	-1.252	-0.356	0.249
-383.975	-196.891	0.292	0.002
-382.960	-68.512	0.105	-0.040
-381.946	-78.006	-0.327	-0.112
-380.931	-137.816	-0.194	-0.022
-379.917	-99.168	-0.229	-0.058
-378.902	-200.000	-0.041	0.230
-377.888	12.968	-0.105	-0.080
-376.873	-29.485	0.193	0.110
-375.858	800.000	-0.024	-0.100
-374.844	-115.316	-0.390	0.073
-373.829	-50.252	-0.266	0.125
-372.815	-128.217	-0.425	0.060
-371.800	84.814	-0.063	-0.069
-370.785	-58.550	0.382	0.164
-369.771	800.000	0.098	0.319
-368.756	167.955	-0.262	-0.369
-367.742	95.290	-0.090	-0.102
-366.727	-75.410	0.316	0.112
-365.712	-188.289	0.133	-0.002
-364.698	-155.763	0.298	-0.019
-363.683	800.000	0.060	0.190
-362.669	-61.406	0.324	-0.135
-361.654	-125.558	0.370	-0.056
-360.639	-51.502	0.421	0.195
-359.625	-70.292	-0.208	0.078
-358.610	-137.113	-0.138	-0.016
-357.596	281.744	0.172	-0.306
-356.581	-93.330	-0.403	-0.111
-355.566	-89.096	0.232	-0.068
-354.552	-200.000	0.012	0.132
-353.537	198.913	0.135	-0.205
-352.523	-61.532	0.312	0.130
-351.508	-33.699	-0.041	0.023
-350.493	-95.817	-0.239	-0.063
-349.479	-138.755	0.322	0.035
-348.464	16.376	0.291	0.228
-347.450	113.411	0.215	0.258
-346.435	-200.000	-0.021	0.349
-345.420	-73.995	-0.259	0.093
-344.406	-200.000	-0.025	0.201
-343.391	-120.574	0.138	-0.023
-342.377	362.139	-0.042	-0.083
-341.362	68.655	-0.309	-0.314
-340.348	-200.000	-0.069	0.355
-339.333	73.517	-0.081	0.084
-338.318	-144.711	0.229	0.021
-337.304	-112.009	-0.043	0.009
-336.289	-200.000	-0.006	-0.275
-335.275	79.620	-0.167	-0.177
-334.260	174.189	-0.129	-0.185
-333.245	800.000	0.046	0.134
-332.231	-169.112	-0.429	-0.016
-331.216	235.338	-0.122	0.199
-330.202	-191.386	-0.316	-0.003
-329.187	-200.000	0.002	-0.073
-328.172	800.000	-0.077	-0.301
-327.158	35.826	-0.361	-0.314
-326.143	-94.891	-0.160	-0.043
-325.129	-118.529	-0.149	0.026
-324.114	800.000	-0.048	-0.166
-323.099	551.412	-0.030	-0.072
-322.085	417.807	0.118	0.250
-321.070	-196.673	0.265	0.002
-320.056	155.925	-0.002	-0.003
-319.041	-93.215	-0.180	0.049
-318.026	-17.876	0.319	0.198
-317.012	505.148	0.095	-0.217
-315.997	114.261	0.161	-0.194
-314.983	105.688	-0.120	-0.141
-313.968	347.216	-0.153	-0.298
-312.953	-200.000	-0.009	0.113
-311.939	348.092	0.180	0.351
-310.924	118.661	-0.173	0.211
-309.910	535.760	0.099	-0.233
-308.895	800.000	0.109	-0.318
-307.880	50.555	-0.099	-0.093
-306.866	189.962	-0.104	0.155
-305.851	9.718	0.408	0.306
-304.837	-72.396	0.307	-0.112
-303.822	-3.969	0.213	0.146
-302.807	800.000	0.076	0.248
-301.793	-200.000	-0.047	0.382
-300.778	-200.000	-0.021	-0.213
-299.764	-56.858	-0.086	0.038
-298.749	-200.000	0.001	0.356
-297.735	-200.000	0.023	0.167
-296.720	296.638	0.272	-0.494
-295.705	-200.000	-0.034	-0.330
-294.691	-45.131	-0.201	0.099
-293.676	-200.000	-0.026	0.261
-292.662	-200.000	-0.048	-0.222
-291.647	-130.605	0.066	-0.009
-290.632	243.318	0.073	0.121
-289.618	-42.930	-0.264	-0.133
-288.603	-185.902	0.184	-0.003
-287.589	800.000	-0.064	0.240
-286.574	-200.000	0.050	-0.350
-285.559	-200.000	0.027	-0.180
-284.545	-88.924	-0.076	-0.022
-283.530	3.241	-0.261	0.188
-282.516	145.925	0.192	-0.254
-281.501	-200.000	0.026	-0.299
-280.486	-120.037	-0.107	-0.018
-279.472	-139.083	0.285	0.030
-278.457	-18.443	-0.278	0.171
-277.443	-50.818	-0.202	0.094
-276.428	-111.208	0.173	0.035
-275.413	9.237	0.231	0.172
-274.399	800.000	-0.063	0.186
-273.384	121.697	0.067	0.083
-272.370	190.985	-0.142	-0.211
-271.355	-75.727	-0.290	-0.102
-270.340	138.676	-0.126	0.164
-269.326	-114.199	0.210	0.040
-268.311	13.375	-0.128	-0.098
-267.297	-11.580	-0.172	0.112
-266.282	6.665	0.123	0.091
-265.267	-36.159	0.286	0.152
-264.253	124.784	0.030	0.037
-263.238	40.769	0.106	0.094
-262.224	-200.000	-0.035	-0.280
-261.209	143.297	0.029	0.038
-260.195	-200.000	0.018	-0.212
-259.180	-115.785	-0.194	-0.036
-258.165	-200.000	-0.023	-0.286
-257.151	173.600	0.126	-0.180
-256.136	-200.000	0.034	-0.314
-255.122	577.327	0.105	0.252
-254.107	113.324	0.146	0.175
-253.092	-158.180	0.122	-0.007
-252.078	19.399	0.149	-0.118
-251.063	151.598	0.111	-0.149
-250.049	-96.810	-0.253	0.066
-249.034	145.230	0.062	-0.082
-248.019	-75.138	0.121	0.043
-247.005	246.177	0.127	-0.212
-245.990	83.933	0.165	-0.177
-244.976	-95.030	0.185	-0.049
-243.961	272.184	0.109	0.189
-242.946	-62.800	-0.277	0.113
-241.932	661.976	-0.071	0.180
-240.917	-73.153	-0.229	-0.083
-239.903	-156.818	-0.470	-0.029
-238.888	356.638	-0.076	-0.150
-237.873	-144.296	-0.070	-0.006
-236.859	-200.000	0.019	0.085
-235.844	-200.000	-0.027	-0.262
-234.830	75.898	0.020	-0.021
-233.815	-100.609	-0.303	-0.074
-232.800	-200.000	0.060	-0.313
-231.786	10.599	0.071	-0.053
-230.771	-200.000	0.112	0.000
-229.757	-125.121	-0.194	-0.029
-228.742	185.582	-0.234	0.343
-227.727	258.584	-0.099	-0.168
-226.713	-47.882	0.112	0.054
-225.698	-106.359	-0.192	-0.042
-224.684	-123.552	0.077	-0.012
-223.669	-200.000	-0.039	0.245
-222.655	198.165	-0.069	0.104
-221.640	800.000	-0.061	-0.221
-220.625	306.304	0.215	-0.394
-219.611	800.000	-0.073	-0.215
-218.596	-200.000	-0.047	0.247
-217.582	-98.358	0.149	-0.038
-216.567	102.588	-0.085	0.099
-215.552	-200.000	-0.018	0.156
-214.538	-200.000	-0.019	0.403
-213.523	-39.542	0.152	0.078
-212.509	39.719	0.060	-0.053
-211.494	-47.231	-0.149	0.072
-210.479	-87.392	-0.156	-0.046
-209.465	-101.863	-0.065	0.015
-208.450	583.497	0.102	-0.248
-207.436	-200.000	0.050	-0.264
-206.421	-152.890	0.184	-0.013
-205.406	461.875	-0.073	0.160
-204.392	20.034	0.070	0.056
-203.377	-132.276	0.335	-0.043
-202.363	-200.000	0.060	0.380
-201.348	588.940	0.184	0.447
-200.333	800.000	0.038	-0.105
-199.319	25.576	0.128	-0.105
-198.304	115.571	-0.133	-0.160
-197.290	-105.615	-0.052	-0.012
-196.275	626.273	0.055	-0.137
-195.260	123.603	0.128	-0.159
-194.246	497.067	-0.067	0.153
-193.231	-200.000	-0.006	0.064
-192.217	-55.802	0.042	0.019
-191.202	-200.000	0.039	0.206
-190.187	-70.596	-0.332	-0.123
-189.173	-87.131	0.278	0.083
-188.158	94.828	0.065	-0.073
-187.144	-200.000	-0.012	0.172
-186.129	800.000	0.034	0.116
-185.114	-99.167	0.123	0.031
-184.100	362.660	-0.071	0.140
-183.085	-104.206	0.159	0.036
-182.071	800.000	-0.033	-0.112
-181.056	-15.120	-0.009	0.006
-180.042	-116.170	0.323	0.059
-179.027	23.833	0.292	0.237
-178.012	-51.827	0.397	0.182
-176.998	-141.753	-0.177	0.017
-175.983	800.000	-0.016	0.045
-174.969	-54.259	0.282	-0.126
-173.954	800.000	-0.079	-0.294
-172.939	610.449	0.075	-0.185
-171.925	753.322	0.049	-0.130
-170.910	-108.001	0.293	-0.063
-169.896	800.000	0.053	0.176
-168.881	-15.663	-0.073	0.046
-167.866	-88.781	0.265	-0.077
-166.852	-70.586	0.556	0.207
-165.837	-80.802	-0.076	-0.025
-164.823	-155.417	-0.182	-0.012
-163.808	-58.443	0.203	0.087
-162.793	800.000	-0.088	0.260
-161.779	-200.000	-0.069	-0.391
-160.764	-114.150	0.217	-0.041
-159.750	-149.859	0.243	-0.019
-158.735	-140.356	-0.159	-0.016
-157.720	-200.000	-0.055	-0.317
-156.706	454.190	0.080	0.174
-155.691	-65.354	-0.173	0.068
-154.677	-125.638	-0.243	-0.036
-153.662	26.802	0.150	0.123
-152.647	-10.247	0.246	0.160
-151.633	-89.889	-0.304	0.087
-150.618	179.623	-0.068	0.097
-149.604	-136.788	-0.301	-0.034
-148.589	-200.000	0.005	-0.094
-147.574	-200.000	-0.009	-0.199
-146.560	144.230	-0.044	-0.058
-145.545	-200.000	0.006	0.071
-144.531	-91.589	-0.380	-0.106
-143.516	-116.524	0.116	0.021
-142.502	-200.000	0.003	0.476
-141.487	800.000	0.054	0.159
-140.472	800.000	-0.023	-0.073
-139.458	61.774	-0.054	0.053
-138.443	-104.677	0.103	0.023
-137.429	366.365	-0.035	0.069
-136.414	-200.000	0.038	0.198
-135.399	-58.734	0.034	-0.014
-134.385	206.470	-0.172	-0.263
-133.370	520.078	0.053	-0.121
-132.356	-95.514	0.181	0.048
-131.341	175.858	0.120	0.170
-130.326	643.157	-0.034	0.086
-129.312	-77.431	0.101	-0.034
-128.297	40.660	0.157	0.139
-127.283	800.000	0.103	-0.305
-126.268	111.963	-0.130	-0.155
-125.253	-4.854	-0.250	0.169
-124.239	212.544	0.147	-0.227
-123.224	800.000	0.086	-0.286
-122.210	117.396	-0.160	-0.193
