DTS Sentinel unit serial number:	SN413079Multiplexer serial number:	ORYXHardware model number:	OX4-SRSoftware version number:	ORYX F/W v4.00 Oryx Data Collector v3.7.2.0data status	okinstallation	princeton_trtdifferential loss correction	single-endedforward channel	channel 3reverse channel	N/Adate	2019/09/14time	14:24:34forward acquisition time	60.00reverse acquisition time	0.00gamma	496.2192k internal	0.2292k external	0.2292temperature offset calibration	1.0067default loss term (dB/km)	0.3790temperature slope calibration	1.0000multiplexer offset coefficient	1.0000multiplexer slope coefficient	1.0000fibre end	0.00T internal ref (°C)	38.98T ext. ref 1 (°C)	5.10T ext. ref 2 (°C)	35.77length (m)	temperature (°C)	Stokes	anti-Stokes-747.200	-200.000	-0.037	0.262
-746.185	-9.485	-0.162	0.111
-745.171	-68.406	0.275	0.109
-744.156	800.000	-0.056	-0.184
-743.142	774.100	-0.163	-0.456
-742.127	-87.029	0.225	-0.070
-741.112	-54.762	0.152	0.070
-740.098	-85.658	0.349	0.111
-739.083	-93.035	-0.167	-0.048
-738.069	-119.188	-0.033	0.006
-737.054	-200.000	-0.026	0.133
-736.039	-123.713	-0.430	0.070
-735.025	203.213	0.162	0.256
-734.010	734.661	-0.131	-0.360
-732.996	800.000	-0.147	-0.536
-731.981	50.961	-0.074	-0.072
-730.966	-63.127	-0.338	0.143
-729.952	800.000	-0.076	-0.226
-728.937	-169.866	-0.387	0.014
-727.923	-0.940	0.091	0.066
-726.908	-43.732	-0.397	-0.205
-725.894	114.009	-0.059	-0.073
-724.879	-200.000	-0.019	0.165
-723.864	-183.858	0.163	0.003
-722.850	-30.440	0.070	-0.040
-721.835	47.895	-0.213	0.203
-720.821	551.816	0.139	0.340
-719.806	-117.794	-0.310	0.057
-718.791	151.846	0.081	-0.112
-717.777	-96.648	0.073	-0.020
-716.762	-200.000	-0.050	-0.370
-715.748	392.927	-0.120	-0.256
-714.733	123.505	-0.098	0.125
-713.718	800.000	-0.035	-0.129
-712.704	-200.000	-0.043	0.323
-711.689	10.198	-0.061	0.047
-710.675	-37.242	0.087	0.047
-709.660	64.160	0.279	0.287
-708.645	-98.400	-0.310	0.081
-707.631	-200.000	-0.018	0.222
-706.616	-135.440	-0.208	0.025
-705.602	-120.635	0.191	0.033
-704.587	105.079	0.271	0.326
-703.572	111.534	-0.138	0.170
-702.558	-80.035	0.131	-0.045
-701.543	-87.328	0.260	-0.081
-700.529	-80.028	-0.112	-0.038
-699.514	367.694	-0.046	0.095
-698.499	29.124	0.177	-0.154
-697.485	-153.228	0.318	0.023
-696.470	-82.876	0.297	-0.098
-695.456	-109.920	-0.260	-0.056
-694.441	-45.956	0.124	0.062
-693.426	8.972	-0.349	-0.269
-692.412	-168.765	-0.185	-0.007
-691.397	87.307	0.154	-0.174
-690.383	-200.000	-0.020	-0.157
-689.368	-65.952	-0.109	-0.045
-688.354	800.000	-0.065	-0.196
-687.339	13.710	-0.153	-0.122
-686.324	-54.884	-0.116	0.053
-685.310	-110.181	-0.239	-0.051
-684.295	800.000	0.166	0.499
-683.281	-143.691	-0.195	-0.019
-682.266	-94.732	-0.217	0.060
-681.251	-99.700	0.240	-0.062
-680.237	37.898	-0.174	-0.158
-679.222	800.000	0.022	-0.068
-678.208	11.069	-0.196	0.153
-677.193	113.421	-0.184	0.228
-676.178	-111.091	0.303	0.063
-675.164	-176.102	0.209	-0.006
-674.149	-139.391	0.060	-0.007
-673.135	-117.998	0.229	-0.042
-672.120	-200.000	-0.022	-0.405
-671.105	800.000	0.058	-0.242
-670.091	77.079	-0.179	0.194
-669.076	-200.000	-0.006	0.077
-668.062	631.816	-0.090	-0.234
-667.047	250.548	-0.169	-0.294
-666.032	447.852	-0.130	-0.292
-665.018	26.991	-0.199	-0.170
-664.003	-67.176	0.200	0.080
-662.989	-200.000	-0.051	0.323
-661.974	743.290	-0.110	-0.301
-660.959	-200.000	0.001	-0.031
-659.945	104.658	-0.141	0.169
-658.930	-32.077	0.083	-0.047
-657.916	-26.227	-0.301	0.181
-656.901	-78.411	0.115	0.040
-655.886	37.385	0.167	-0.151
-654.872	-200.000	-0.006	0.074
-653.857	-99.103	-0.417	-0.108
-652.843	-200.000	0.064	-0.304
-651.828	-10.351	-0.392	0.265
-650.814	-24.165	0.128	-0.078
-649.799	-126.110	0.142	0.022
-648.784	-90.599	0.194	-0.057
-647.770	125.717	-0.072	0.092
-646.755	-30.139	0.287	-0.166
-645.741	678.545	-0.005	0.013
-644.726	-30.494	0.052	0.030
-643.711	-200.000	0.015	-0.123
-642.697	158.407	-0.049	-0.069
-641.682	800.000	-0.056	-0.227
-640.668	274.342	-0.217	-0.391
-639.653	-41.629	-0.244	-0.128
-638.638	-153.493	-0.164	-0.012
-637.624	200.780	-0.065	-0.103
-636.609	-185.012	0.482	0.008
-635.595	-12.226	-0.222	-0.148
-634.580	330.182	0.109	-0.215
-633.565	-200.000	0.035	-0.250
-632.551	-200.000	0.002	-0.038
-631.536	-66.114	0.310	0.126
-630.522	-92.544	-0.265	-0.076
-629.507	379.299	-0.167	0.349
-628.492	53.750	-0.228	0.224
-627.478	800.000	0.178	0.581
-626.463	146.988	-0.054	0.075
-625.449	44.471	0.046	-0.043
-624.434	-200.000	-0.001	0.141
-623.419	-5.180	0.339	-0.238
-622.405	800.000	-0.036	-0.110
-621.390	106.827	-0.150	0.181
-620.376	7.877	-0.123	0.094
-619.361	-10.989	0.365	0.245
-618.346	-30.405	-0.108	0.062
-617.332	156.784	-0.172	0.242
-616.317	-59.539	-0.428	-0.187
-615.303	800.000	0.110	-0.311
-614.288	800.000	-0.005	-0.022
-613.273	58.361	-0.256	0.255
-612.259	-129.783	0.174	0.024
-611.244	-69.247	0.078	-0.030
-610.230	-142.360	-0.313	-0.031
-609.215	-82.043	0.157	0.052
-608.201	-11.688	0.339	-0.226
-607.186	225.554	-0.134	0.221
-606.171	585.357	0.064	0.160
-605.157	183.856	-0.189	-0.285
-604.142	-40.975	0.142	0.074
-603.128	193.884	0.058	0.089
-602.113	24.012	0.162	-0.136
-601.098	242.819	0.093	0.159
-600.084	6.188	0.094	0.071
-599.069	20.584	-0.099	-0.081
-598.055	685.708	0.083	-0.220
-597.040	800.000	-0.085	-0.252
-596.025	461.693	0.064	-0.146
-595.011	-163.773	0.155	0.007
-593.996	-30.797	0.208	0.119
-592.982	-11.630	0.210	-0.140
-591.967	-19.289	0.181	-0.114
-590.952	-200.000	-0.018	0.395
-589.938	-200.000	-0.024	0.154
-588.923	130.846	0.153	0.200
-587.909	-157.154	0.372	0.023
-586.894	800.000	-0.049	0.161
-585.879	102.634	0.237	0.282
-584.865	195.595	-0.077	0.119
-583.850	-106.133	-0.189	0.043
-582.836	20.407	0.204	0.167
-581.821	-54.862	-0.412	0.189
-580.806	800.000	0.115	-0.479
-579.792	59.748	-0.077	0.078
-578.777	800.000	-0.015	-0.065
-577.763	-83.137	-0.202	-0.066
-576.748	-93.725	-0.180	-0.050
-575.733	40.849	0.030	0.028
-574.719	-29.935	-0.195	0.113
-573.704	-48.317	-0.318	0.156
-572.690	-15.810	0.120	-0.078
-571.675	-200.000	-0.043	-0.193
-570.661	57.214	0.185	-0.184
-569.646	11.663	-0.272	0.212
-568.631	-58.239	-0.255	-0.113
-567.617	14.457	0.245	0.194
-566.602	-4.230	-0.209	-0.147
-565.588	-34.935	-0.031	-0.017
-564.573	-144.298	-0.196	-0.019
-563.558	342.311	-0.159	-0.317
-562.544	-73.334	-0.156	0.058
-561.529	-176.751	-0.075	0.002
-560.515	-200.000	-0.040	-0.196
-559.500	86.442	0.189	-0.211
-558.485	-5.258	-0.318	0.222
-557.471	-200.000	0.004	0.188
-556.456	14.756	-0.122	-0.097
-555.442	150.153	0.074	0.103
-554.427	-20.025	-0.301	0.189
-553.412	409.577	0.067	-0.145
-552.398	374.879	0.220	-0.456
-551.383	-132.911	-0.311	0.040
-550.369	-80.084	0.410	0.140
-549.354	293.734	0.153	-0.284
-548.339	761.808	0.164	-0.452
-547.325	-25.495	0.218	-0.131
-546.310	-200.000	0.004	0.135
-545.296	708.613	0.059	0.159
-544.281	204.922	-0.122	0.192
-543.266	-9.983	-0.206	-0.139
-542.252	449.048	-0.149	-0.333
-541.237	-105.818	-0.109	0.025
-540.223	-1.240	0.187	0.134
-539.208	16.345	-0.139	0.111
-538.193	112.791	0.113	0.139
-537.179	-104.142	-0.139	-0.033
-536.164	-80.915	0.333	0.112
-535.150	64.313	0.120	0.122
-534.135	-200.000	0.013	0.153
-533.121	-200.000	-0.004	-0.104
-532.106	21.665	0.123	0.102
-531.091	125.666	-0.089	-0.115
-530.077	52.972	-0.021	0.020
-529.062	-67.645	0.421	0.167
-528.048	-163.774	-0.342	0.016
-527.033	-59.451	0.221	-0.096
-526.018	226.168	-0.140	0.230
-525.004	464.675	-0.104	-0.236
-523.989	-104.187	0.247	-0.058
-522.975	-100.428	-0.162	0.041
-521.960	87.538	0.118	0.132
-520.945	800.000	0.044	0.191
-519.931	-130.135	0.276	-0.038
-518.916	-6.496	0.042	0.029
-517.902	-69.475	0.218	-0.085
-516.887	-200.000	0.042	0.216
-515.872	-30.178	-0.111	-0.064
-514.858	378.479	-0.023	0.048
-513.843	82.675	-0.147	-0.162
-512.829	-112.021	0.340	-0.070
-511.814	295.771	0.061	-0.113
-510.799	490.986	-0.078	-0.182
-509.785	4.230	-0.412	-0.306
-508.770	199.537	0.087	-0.135
-507.756	-51.777	0.229	0.108
-506.741	-10.793	-0.223	-0.149
-505.726	-200.000	0.089	0.515
-504.712	82.743	-0.052	-0.058
-503.697	800.000	0.047	0.144
-502.683	104.172	-0.078	0.094
-501.668	-127.148	-0.235	-0.035
-500.653	-24.942	-0.411	0.247
-499.639	70.968	0.071	-0.074
-498.624	65.196	-0.053	0.055
-497.610	-49.802	0.165	-0.079
-496.595	651.546	-0.041	0.106
-495.581	-80.364	-0.091	0.031
-494.566	800.000	-0.012	0.046
-493.551	-1.363	-0.029	-0.021
-492.537	-137.422	-0.246	0.028
-491.522	-51.238	0.488	-0.232
-490.508	26.865	-0.111	0.095
-489.493	186.378	-0.113	-0.171
-488.478	-158.286	-0.425	0.025
-487.464	8.140	-0.304	0.231
-486.449	129.055	-0.333	-0.430
-485.435	12.689	-0.234	-0.183
-484.420	653.608	0.081	-0.211
-483.405	53.705	-0.044	0.043
-482.391	13.274	-0.234	-0.184
-481.376	172.972	0.125	-0.183
-480.362	83.815	0.150	-0.166
-479.347	-18.830	-0.486	0.307
-478.332	-115.208	0.188	-0.036
-477.318	-42.503	-0.216	-0.111
-476.303	-200.000	0.020	0.168
-475.289	213.164	-0.129	0.207
-474.274	-107.870	-0.171	-0.038
-473.259	3.543	-0.392	-0.289
-472.245	55.736	-0.169	-0.166
-471.230	290.892	-0.266	-0.489
-470.216	-200.000	0.017	-0.147
-469.201	-200.000	0.004	0.328
-468.186	169.707	0.068	-0.099
-467.172	64.351	-0.112	0.114
-466.157	-123.879	0.440	0.070
-465.143	-2.125	-0.166	0.118
-464.128	228.684	-0.135	0.222
-463.113	601.740	-0.100	0.251
-462.099	-31.341	-0.155	-0.088
-461.084	-57.155	-0.307	0.137
-460.070	-162.333	0.147	0.007
-459.055	-28.813	0.289	0.168
-458.040	104.544	-0.161	-0.192
-457.026	24.087	-0.347	-0.290
-456.011	239.420	0.104	-0.175
-454.997	-200.000	-0.011	0.095
-453.982	3.548	0.279	-0.206
-452.968	-200.000	-0.063	-0.473
-451.953	161.871	0.066	-0.094
-450.938	101.366	0.149	0.176
-449.924	800.000	-0.046	0.182
-448.909	-177.037	0.316	-0.008
-447.895	-76.226	-0.171	0.061
-446.880	470.959	-0.066	0.150
-445.865	-44.858	0.275	0.139
-444.851	250.114	-0.157	0.270
-443.836	-79.520	0.429	-0.147
-442.822	647.530	0.110	-0.285
-441.807	-61.268	0.200	-0.085
-440.792	767.801	-0.130	-0.358
-439.778	132.681	0.093	0.122
-438.763	-200.000	0.040	0.341
-437.749	-200.000	0.050	-0.280
-436.734	-46.553	0.176	0.087
-435.719	139.539	-0.032	0.043
-434.705	623.411	0.064	0.163
-433.690	-200.000	-0.032	-0.238
-432.676	800.000	0.033	0.126
-431.661	314.267	-0.123	0.235
-430.646	120.609	0.143	-0.180
-429.632	-150.551	0.169	-0.013
-428.617	-200.000	-0.029	0.167
-427.603	-185.661	-0.273	0.004
-426.588	800.000	0.033	0.133
-425.573	305.229	-0.068	0.128
-424.559	-200.000	0.025	-0.250
-423.544	-71.117	-0.053	0.020
-422.530	-103.438	0.375	0.089
-421.515	45.181	-0.194	-0.181
-420.500	-49.224	0.299	-0.145
-419.486	-56.968	0.316	-0.141
-418.471	-56.750	0.130	-0.058
-417.457	376.349	0.083	0.172
-416.442	-200.000	-0.015	-0.081
-415.428	-16.137	-0.102	-0.065
-414.413	-200.000	-0.020	-0.113
-413.398	11.623	0.208	-0.161
-412.384	-200.000	-0.046	0.246
-411.369	-200.000	0.010	0.147
-410.355	-3.857	-0.250	0.175
-409.340	26.198	0.097	0.082
-408.325	-141.489	-0.356	0.036
-407.311	87.999	-0.126	-0.141
-406.296	-200.000	0.000	-0.019
-405.282	-163.734	-0.219	-0.010
-404.267	-83.470	-0.173	-0.056
-403.252	-34.593	-0.393	0.217
-402.238	-187.719	-0.080	-0.001
-401.223	-200.000	0.002	0.199
-400.209	141.179	0.186	0.249
-399.194	-200.000	-0.047	0.228
-398.179	123.069	0.078	-0.099
-397.165	-64.591	-0.281	-0.115
-396.150	-16.231	-0.244	-0.157
-395.136	120.876	0.137	0.172
-394.121	-32.373	-0.133	-0.075
-393.106	109.405	0.248	0.299
-392.092	91.330	-0.236	0.268
-391.077	800.000	0.112	0.361
-390.063	-18.155	0.244	-0.154
-389.048	393.141	0.073	-0.152
-388.033	168.442	0.207	0.298
-387.019	-42.545	-0.468	0.241
-386.004	-11.768	0.248	0.164
-384.990	-200.000	-0.012	-0.237
-383.975	800.000	0.104	-0.365
-382.960	75.920	-0.282	0.301
-381.946	49.754	0.065	0.061
-380.931	15.671	0.240	-0.190
-379.917	-51.231	0.154	-0.073
-378.902	-65.381	-0.411	-0.167
-377.888	-115.910	0.149	-0.028
-376.873	74.548	-0.177	0.188
-375.858	-70.231	-0.232	-0.089
-374.844	800.000	-0.040	-0.117
-373.829	-83.041	-0.204	0.066
-372.815	-124.285	0.361	-0.057
-371.800	462.405	0.110	-0.247
-370.785	217.245	0.101	-0.162
-369.771	-5.812	0.130	0.090
-368.756	38.569	-0.033	-0.029
-367.742	103.550	-0.132	0.157
-366.727	15.876	-0.181	-0.143
-365.712	-200.000	0.018	0.190
-364.698	250.663	-0.162	-0.277
-363.683	800.000	0.108	-0.401
-362.669	109.201	0.041	0.049
-361.654	-96.425	0.356	0.095
-360.639	90.788	0.054	0.061
-359.625	63.834	-0.204	-0.207
-358.610	247.651	-0.045	-0.076
-357.596	800.000	0.096	-0.316
-356.581	121.655	0.124	0.155
-355.566	322.902	0.085	-0.164
-354.552	-116.621	-0.279	-0.052
-353.537	62.284	-0.215	0.217
-352.523	-53.842	0.191	-0.088
-351.508	447.837	-0.093	0.207
-350.493	-200.000	-0.003	-0.113
-349.479	-92.688	0.407	0.115
-348.464	-17.870	0.284	0.180
-347.450	800.000	0.063	0.218
-346.435	-37.667	-0.376	-0.202
-345.420	50.088	-0.079	0.075
-344.406	288.800	0.041	0.074
-343.391	-36.053	-0.204	-0.111
-342.377	-200.000	-0.004	0.043
-341.362	55.597	0.063	0.062
-340.348	-113.643	-0.470	0.092
-339.333	-72.227	0.255	-0.095
-338.318	-200.000	-0.010	0.051
-337.304	-200.000	0.010	-0.203
-336.289	-200.000	0.025	-0.118
-335.275	-40.221	-0.407	0.214
-334.260	149.330	-0.135	-0.184
-333.245	-195.352	-0.339	-0.003
-332.231	-200.000	-0.004	0.133
-331.216	-20.980	-0.167	0.103
-330.202	-163.378	-0.349	-0.017
-329.187	-90.182	0.240	0.070
-328.172	-38.810	-0.060	0.032
-327.158	-41.985	-0.371	0.192
-326.143	0.127	0.257	-0.184
-325.129	-136.468	-0.177	-0.021
-324.114	249.011	0.073	0.124
-323.099	-103.036	-0.230	-0.055
-322.085	-200.000	-0.006	-0.053
-321.070	73.894	-0.019	0.020
-320.056	-21.904	0.118	-0.072
-319.041	20.271	0.208	-0.169
-318.026	355.603	0.047	-0.094
-317.012	759.414	-0.029	0.078
-315.997	189.495	0.157	-0.238
-314.983	-171.779	0.310	0.010
-313.968	-111.177	0.304	-0.063
-312.953	31.986	-0.294	0.255
-311.939	800.000	0.086	-0.284
-310.924	-200.000	-0.030	-0.297
-309.910	-130.762	0.126	0.017
-308.895	-85.650	0.075	0.024
-307.880	12.433	-0.119	0.092
-306.866	642.203	-0.153	0.393
-305.851	-82.550	0.127	-0.042
-304.837	-72.973	0.081	0.030
-303.822	328.377	0.144	-0.278
-302.807	800.000	0.117	-0.332
-301.793	281.708	0.224	0.405
-300.778	-200.000	0.007	0.211
-299.764	800.000	-0.026	0.107
-298.749	60.471	0.110	-0.110
-297.735	-59.319	0.172	-0.075
-296.720	699.588	-0.098	0.259
-295.705	54.032	-0.222	-0.214
-294.691	800.000	0.026	-0.101
-293.676	-144.182	0.259	0.024
-292.662	123.259	-0.131	-0.165
-291.647	800.000	0.065	-0.219
-290.632	139.008	-0.177	0.235
-289.618	-200.000	0.002	-0.166
-288.603	343.548	0.111	-0.220
-287.589	267.002	-0.144	0.254
-286.574	37.846	-0.104	0.093
-285.559	-200.000	-0.026	0.199
-284.545	320.436	0.094	0.180
-283.530	-27.552	-0.150	-0.088
-282.516	334.694	0.119	0.232
-281.501	-18.348	0.150	0.095
-280.486	-200.000	-0.056	-0.384
-279.472	-51.146	0.360	-0.170
-278.457	-43.349	-0.130	-0.066
-277.443	800.000	-0.118	0.336
-276.428	-171.354	-0.273	0.009
-275.413	-28.133	0.328	-0.191
-274.399	109.122	0.172	-0.207
-273.384	800.000	0.142	0.404
-272.370	189.152	-0.151	-0.227
-271.355	379.566	0.056	-0.115
-270.340	227.227	0.115	0.189
-269.326	-22.448	0.180	0.110
-268.311	-1.592	0.253	-0.179
-267.297	-9.822	-0.185	0.124
-266.282	-77.669	0.039	-0.014
-265.267	-72.798	0.176	-0.065
-264.253	45.752	-0.330	-0.307
-263.238	-191.984	-0.167	-0.002
-262.224	-179.492	-0.100	0.002
-261.209	-200.000	0.037	-0.185
-260.195	-68.461	-0.332	0.130
-259.180	-73.719	0.272	0.099
-258.165	-96.344	0.532	0.141
-257.151	-39.128	0.135	0.072
-256.136	-81.672	0.513	0.169
-255.122	64.859	0.098	-0.099
-254.107	800.000	-0.026	0.113
-253.092	800.000	0.081	0.307
-252.078	215.544	-0.051	0.082
-251.063	27.810	0.257	-0.218
-250.049	72.752	-0.142	0.149
-249.034	-15.434	-0.286	0.184
-248.019	-200.000	-0.032	-0.185
-247.005	33.949	0.118	0.103
-245.990	-71.702	0.096	-0.036
-244.976	-132.589	-0.154	0.020
-243.961	800.000	-0.087	0.292
-242.946	44.373	0.131	-0.120
-241.932	-42.139	0.371	0.191
-240.917	-200.000	-0.009	0.098
-239.903	-200.000	-0.029	0.150
-238.888	-26.012	-0.230	0.136
-237.873	800.000	0.031	-0.097
-236.859	68.797	0.270	-0.278
-235.844	-172.300	0.287	-0.009
-234.830	-200.000	0.028	-0.172
-233.815	490.299	-0.049	-0.112
-232.800	-49.613	-0.056	0.027
-231.786	82.648	0.080	0.088
-230.771	-159.130	-0.212	-0.012
-229.757	-200.000	0.002	-0.261
-228.742	56.343	0.076	0.074
-227.727	-110.609	-0.184	-0.038
-226.713	173.979	0.061	0.088
-225.698	-11.235	0.162	0.107
-224.684	676.219	0.151	0.393
-223.669	70.270	-0.087	-0.091
-222.655	25.635	-0.137	0.114
-221.640	-137.665	-0.243	0.027
-220.625	-149.435	-0.237	-0.019
-219.611	213.044	0.061	0.096
-218.596	9.288	-0.048	-0.036
-217.582	-37.061	0.170	-0.092
-216.567	-200.000	-0.005	0.321
-215.552	-142.307	0.132	-0.013
-214.538	173.500	-0.104	0.150
-213.523	800.000	-0.088	0.303
-212.509	-200.000	0.008	0.190
-211.494	431.659	-0.071	0.153
-210.479	74.193	0.192	-0.202
-209.465	476.296	-0.074	-0.168
-208.450	-120.738	0.402	0.068
-207.436	45.998	-0.177	0.164
-206.421	-154.791	0.136	-0.009
-205.406	800.000	-0.038	-0.162
-204.392	-200.000	-0.051	0.538
-203.377	42.464	0.139	-0.127
-202.363	357.959	0.046	-0.091
-201.348	-117.279	0.321	-0.058
-200.333	-200.000	0.042	0.195
-199.319	-168.816	0.404	0.015
-198.304	-69.731	-0.087	0.033
-197.290	34.385	0.229	-0.200
-196.275	-116.855	-0.394	0.072
-195.260	-20.872	0.210	-0.129
-194.246	162.869	0.122	-0.172
-193.231	289.398	0.052	-0.094
-192.217	-111.529	0.272	-0.055
-191.202	-51.668	0.174	0.081
-190.187	65.475	-0.182	0.185
-189.173	-18.053	-0.272	0.171
-188.158	-77.179	0.242	-0.084
-187.144	-200.000	0.025	-0.153
-186.129	211.761	0.142	-0.225
-185.114	-80.422	0.233	0.078
-184.100	-163.645	-0.214	-0.010
-183.085	219.527	0.093	0.150
-182.071	-200.000	-0.006	0.030
-181.056	-137.653	-0.294	-0.033
-180.042	492.759	-0.165	0.379
-179.027	123.102	0.200	-0.251
-178.012	61.190	-0.135	0.135
-176.998	800.000	-0.087	-0.251
-175.983	-61.859	-0.150	0.063
-174.969	31.799	-0.013	-0.011
-173.954	800.000	-0.101	0.332
-172.939	197.177	0.079	-0.121
-171.925	166.929	-0.070	0.099
-170.910	-200.000	0.008	-0.154
-169.896	-95.204	0.057	0.015
-168.881	385.372	-0.036	-0.073
-167.866	-149.214	-0.154	-0.012
-166.852	195.222	0.114	-0.174
-165.837	304.470	0.190	-0.353
-164.823	50.795	-0.130	-0.123
-163.808	-24.997	-0.208	0.124
-162.793	-200.000	-0.005	0.164
-161.779	800.000	-0.053	0.147
-160.764	-18.841	-0.222	0.138
-159.750	-131.296	0.205	0.027
-158.735	58.143	0.037	-0.037
-157.720	-200.000	0.015	-0.112
-156.706	-26.674	0.098	0.057
-155.691	-108.290	0.146	0.032
-154.677	-91.676	0.138	-0.039
-153.662	-28.411	0.072	-0.042
-152.647	189.848	-0.196	-0.294
-151.633	224.084	-0.244	-0.394
-150.618	13.288	-0.120	-0.093
-149.604	-1.964	-0.209	-0.147
-148.589	31.542	-0.039	-0.033
-147.574	800.000	-0.046	-0.190
-146.560	-61.309	0.291	-0.123
-145.545	-200.000	-0.038	0.313
-144.531	-200.000	-0.045	-0.199
-143.516	134.330	0.056	0.072
-142.502	-114.843	0.379	-0.072
-141.487	164.417	0.121	-0.171
-140.472	11.011	0.166	0.127
-139.458	-53.326	0.357	0.164
-138.443	-130.040	-0.153	-0.021
-137.429	-63.847	0.405	0.166
-136.414	403.677	0.077	-0.162
-135.399	-54.027	-0.119	-0.054
-134.385	19.385	-0.061	-0.049
-133.370	-149.861	0.396	-0.031
-132.356	59.086	-0.340	0.334
-131.341	218.457	0.112	-0.179
-130.326	-28.097	0.079	-0.046
-129.312	82.042	-0.175	0.190
-128.297	-98.444	-0.120	0.031
-127.283	470.001	0.068	0.154
-126.268	-41.117	-0.107	0.055
-125.253	262.203	-0.170	0.294
-124.239	-81.764	0.439	-0.144
-123.224	197.454	-0.118	-0.179
-122.210	202.721	-0.088	0.136
-121.195	-16.299	0.266	0.168
-120.180	-113.905	0.203	0.039
