DTS Sentinel unit serial number:	SN413079Multiplexer serial number:	ORYXHardware model number:	OX4-SRSoftware version number:	ORYX F/W v4.00 Oryx Data Collector v3.7.2.0data status	okinstallation	princeton_trtdifferential loss correction	single-endedforward channel	channel 3reverse channel	N/Adate	2019/09/13time	18:24:35forward acquisition time	60.00reverse acquisition time	0.00gamma	496.2192k internal	0.2313k external	0.2313temperature offset calibration	1.0112default loss term (dB/km)	0.3790temperature slope calibration	1.0000multiplexer offset coefficient	1.0000multiplexer slope coefficient	1.0000fibre end	0.00T internal ref (°C)	33.70T ext. ref 1 (°C)	4.31T ext. ref 2 (°C)	26.63length (m)	temperature (°C)	Stokes	anti-Stokes-747.200	0.094	-0.186	0.135
-746.185	-34.475	-0.479	0.266
-745.171	-89.972	-0.108	-0.032
-744.156	593.410	-0.206	0.516
-743.142	529.689	0.055	0.131
-742.127	29.009	-0.244	0.210
-741.112	-37.755	0.130	0.070
-740.098	-44.808	-0.209	0.106
-739.083	800.000	-0.079	0.239
-738.069	800.000	-0.042	0.147
-737.054	361.029	0.033	-0.067
-736.039	69.889	-0.127	-0.133
-735.025	-15.824	0.407	0.263
-734.010	800.000	-0.137	-0.560
-732.996	62.570	0.138	0.139
-731.981	-200.000	0.020	-0.190
-730.966	23.567	-0.208	0.173
-729.952	337.341	0.095	0.187
-728.937	644.549	0.041	-0.106
-727.923	33.024	0.105	-0.093
-726.908	-123.736	-0.212	0.034
-725.894	323.244	-0.086	-0.166
-724.879	-200.000	-0.029	-0.193
-723.864	148.602	-0.206	0.282
-722.850	2.244	0.098	-0.071
-721.835	-200.000	-0.029	-0.413
-720.821	-84.700	-0.305	0.097
-719.806	-113.623	-0.195	0.039
-718.791	-109.340	-0.119	0.025
-717.777	800.000	0.111	-0.380
-716.762	-31.445	-0.151	0.086
-715.748	135.110	-0.061	-0.081
-714.733	49.781	0.193	-0.184
-713.718	-43.168	-0.482	0.247
-712.704	-2.694	0.066	-0.047
-711.689	-122.744	-0.178	-0.029
-710.675	400.739	0.166	-0.352
-709.660	-155.978	-0.131	0.008
-708.645	-200.000	-0.006	-0.412
-707.631	470.540	-0.054	-0.123
-706.616	-112.614	0.105	0.021
-705.602	76.268	-0.338	-0.363
-704.587	-149.574	0.253	-0.020
-703.572	-124.847	0.305	0.048
-702.558	-200.000	-0.012	-0.052
-701.543	-200.000	0.003	0.289
-700.529	-67.951	0.247	-0.097
-699.514	160.242	-0.151	-0.214
-698.499	28.483	-0.098	-0.084
-697.485	-200.000	-0.096	0.551
-696.470	800.000	0.025	-0.085
-695.456	37.064	-0.364	0.326
-694.441	-102.315	-0.104	0.025
-693.426	57.360	-0.070	0.069
-692.412	800.000	0.077	-0.232
-691.397	800.000	-0.107	-0.299
-690.383	-100.446	0.168	-0.042
-689.368	-141.050	0.107	0.011
-688.354	103.295	-0.203	-0.241
-687.339	-0.038	0.070	-0.050
-686.324	229.503	-0.096	-0.159
-685.310	547.264	-0.028	-0.067
-684.295	370.004	-0.143	0.294
-683.281	-136.488	-0.223	-0.026
-682.266	-89.381	0.380	-0.113
-681.251	800.000	0.098	0.328
-680.237	595.014	-0.080	0.200
-679.222	614.926	-0.096	-0.244
-678.208	-119.089	0.187	0.033
-677.193	-123.407	0.144	0.023
-676.178	-200.000	-0.010	-0.277
-675.164	-141.067	-0.400	0.041
-674.149	800.000	-0.027	0.090
-673.135	466.874	-0.071	-0.160
-672.120	361.368	-0.098	0.198
-671.105	-68.506	-0.212	-0.083
-670.091	-42.669	-0.199	-0.103
-669.076	-108.780	-0.204	0.044
-668.062	-200.000	0.042	0.378
-667.047	-200.000	-0.003	0.326
-666.032	-35.868	0.156	0.086
-665.018	-113.019	0.214	0.043
-664.003	800.000	0.030	0.125
-662.989	-184.987	-0.361	0.006
-661.974	210.807	-0.128	-0.204
-660.959	-120.265	-0.245	-0.042
-659.945	-200.000	-0.016	0.240
-658.930	800.000	0.078	-0.279
-657.916	-200.000	0.006	0.154
-656.901	149.925	0.099	0.136
-655.886	67.699	0.109	0.113
-654.872	800.000	0.032	0.123
-653.857	52.759	-0.311	-0.301
-652.843	-33.596	-0.256	-0.143
-651.828	-6.860	-0.042	-0.029
-650.814	432.678	-0.120	0.263
-649.799	-200.000	0.046	-0.362
-648.784	800.000	-0.037	-0.108
-647.770	-36.784	-0.409	-0.222
-646.755	73.259	-0.094	-0.100
-645.741	-200.000	0.009	0.154
-644.726	68.552	-0.387	-0.401
-643.711	-200.000	-0.032	0.214
-642.697	-140.312	0.267	-0.028
-641.682	455.883	-0.040	0.090
-640.668	-117.193	-0.105	-0.019
-639.653	12.611	0.054	-0.042
-638.638	-200.000	0.030	0.283
-637.624	284.335	0.090	-0.164
-636.609	542.121	0.079	-0.191
-635.595	-124.805	-0.264	-0.041
-634.580	-142.903	0.306	-0.030
-633.565	-126.302	0.084	-0.013
-632.551	-200.000	-0.064	0.311
-631.536	29.164	-0.192	-0.165
-630.522	-200.000	-0.012	-0.114
-629.507	-28.910	0.203	-0.118
-628.492	71.126	-0.232	-0.243
-627.478	88.076	-0.016	-0.018
-626.463	2.434	-0.216	0.158
-625.449	-167.609	0.227	0.009
-624.434	-94.739	0.247	0.068
-623.419	98.240	-0.096	0.111
-622.405	-198.928	0.304	-0.002
-621.390	233.397	-0.148	0.246
-620.376	-133.249	-0.293	0.037
-619.361	83.308	0.204	-0.224
-618.346	-200.000	0.005	-0.078
-617.332	321.883	-0.125	-0.241
-616.317	10.190	-0.111	0.085
-615.303	-137.211	-0.233	0.027
-614.288	-15.748	-0.251	0.162
-613.273	170.123	-0.181	0.262
-612.259	105.716	-0.025	-0.029
-611.244	-68.173	-0.168	-0.066
-610.230	159.229	-0.049	0.069
-609.215	-200.000	-0.001	0.056
-608.201	800.000	-0.021	0.082
-607.186	-200.000	0.050	0.233
-606.171	-52.331	-0.284	-0.133
-605.157	-58.540	0.324	0.142
-604.142	-40.279	0.047	-0.025
-603.128	-200.000	0.059	-0.263
-602.113	-105.254	0.100	0.023
-601.098	230.603	0.096	0.159
-600.084	341.724	-0.030	0.059
-599.069	-182.600	0.036	0.001
-598.055	129.332	0.179	-0.230
-597.040	209.059	0.101	-0.159
-596.025	800.000	0.055	-0.176
-595.011	-200.000	0.016	-0.348
-593.996	643.552	0.082	0.210
-592.982	-115.015	-0.170	-0.033
-591.967	-94.393	-0.198	0.055
-590.952	800.000	-0.094	-0.269
-589.938	-9.096	0.039	-0.027
-588.923	-110.033	-0.175	-0.037
-587.909	198.715	-0.129	0.198
-586.894	800.000	-0.105	-0.314
-585.879	3.675	0.111	-0.082
-584.865	-75.216	-0.185	0.067
-583.850	706.601	-0.134	0.357
-582.836	-162.966	0.257	-0.013
-581.821	-97.554	-0.088	0.023
-580.806	-59.345	-0.221	0.096
-579.792	-48.249	-0.073	-0.035
-578.777	526.240	-0.088	0.208
-577.763	-8.826	0.113	-0.076
-576.748	-194.812	0.274	0.002
-575.733	-200.000	0.007	0.037
-574.719	279.026	0.030	-0.054
-573.704	134.613	-0.190	-0.248
-572.690	-37.550	0.101	-0.054
-571.675	-200.000	0.014	0.068
-570.661	-200.000	-0.047	0.225
-569.646	4.599	0.159	-0.118
-568.631	453.326	-0.069	-0.153
-567.617	114.135	-0.239	0.292
-566.602	664.564	-0.216	0.563
-565.588	-200.000	-0.037	-0.178
-564.573	-58.626	-0.174	-0.076
-563.558	-97.973	-0.298	-0.077
-562.544	413.322	-0.155	-0.332
-561.529	800.000	-0.103	0.437
-560.515	4.536	0.110	0.081
-559.500	800.000	-0.049	-0.146
-558.485	402.190	0.046	-0.097
-557.471	7.605	-0.145	0.109
-556.456	-173.682	0.205	0.006
-555.442	-135.110	-0.197	0.024
-554.427	-49.489	-0.227	0.109
-553.412	-200.000	0.002	-0.139
-552.398	573.643	-0.172	-0.422
-551.383	645.329	-0.067	0.171
-550.369	-200.000	0.022	0.098
-549.354	319.206	0.012	-0.023
-548.339	36.289	-0.184	-0.164
-547.325	82.403	-0.154	0.168
-546.310	10.650	-0.197	-0.151
-545.296	-115.878	-0.044	-0.008
-544.281	-57.138	0.147	0.065
-543.266	800.000	-0.052	0.145
-542.252	-78.786	0.157	-0.054
-541.237	800.000	-0.098	-0.303
-540.223	-200.000	0.060	-0.412
-539.208	-107.868	0.439	-0.096
-538.193	-12.831	-0.256	-0.168
-537.179	108.629	0.046	0.056
-536.164	-33.155	-0.194	0.108
-535.150	-200.000	-0.038	0.332
-534.135	405.683	0.086	0.183
-533.121	-70.213	0.277	-0.106
-532.106	-200.000	0.007	-0.136
-531.091	55.950	0.064	-0.063
-530.077	800.000	-0.015	-0.056
-529.062	-60.119	0.063	0.027
-528.048	91.169	-0.059	-0.066
-527.033	-200.000	0.027	-0.237
-526.018	-122.138	-0.374	0.062
-525.004	-200.000	-0.039	0.196
-523.989	-200.000	0.022	-0.154
-522.975	800.000	-0.100	0.310
-521.960	31.515	0.060	-0.052
-520.945	-124.510	-0.234	-0.037
-519.931	224.785	0.081	0.131
-518.916	19.349	-0.144	0.116
-517.902	-35.828	0.165	-0.090
-516.887	-200.000	-0.006	-0.029
-515.872	190.014	-0.117	0.176
-514.858	-117.465	0.102	0.019
-513.843	66.744	0.105	0.107
-512.829	111.134	0.076	-0.093
-511.814	-200.000	-0.011	-0.056
-510.799	411.759	-0.063	-0.135
-509.785	-200.000	-0.016	0.281
-508.770	-114.683	-0.324	0.062
-507.756	323.438	0.162	0.311
-506.741	800.000	-0.079	0.253
-505.726	800.000	-0.058	0.254
-504.712	-28.962	0.368	0.212
-503.697	-43.089	-0.282	-0.144
-502.683	214.977	0.121	-0.192
-501.668	-35.711	-0.184	0.100
-500.653	-45.226	-0.045	-0.022
-499.639	107.293	0.076	0.091
-498.624	-85.938	0.234	0.073
-497.610	-10.930	-0.210	0.139
-496.595	-67.392	0.317	0.125
-495.581	323.287	-0.138	0.265
-494.566	221.357	-0.173	0.279
-493.551	115.065	-0.125	-0.153
-492.537	48.158	-0.110	-0.103
-491.522	-60.162	-0.119	0.051
-490.508	570.804	-0.144	0.352
-489.493	-20.781	0.146	0.090
-488.478	-100.774	-0.157	0.039
-487.464	-49.226	0.067	-0.032
-486.449	-200.000	-0.036	-0.494
-485.435	597.641	0.084	-0.209
-484.420	-121.442	-0.129	0.021
-483.405	6.189	-0.252	0.188
-482.391	-73.449	-0.413	0.151
-481.376	578.093	0.064	0.158
-480.362	181.262	-0.034	-0.050
-479.347	340.608	0.077	-0.151
-478.332	800.000	0.065	0.287
-477.318	-81.454	-0.255	-0.084
-476.303	18.091	-0.152	-0.122
-475.289	-200.000	-0.012	-0.166
-474.274	163.558	-0.212	-0.300
-473.259	-140.539	-0.365	-0.038
-472.245	-75.876	-0.109	-0.039
-471.230	333.327	0.030	0.058
-470.216	541.458	0.070	-0.167
-469.201	636.732	0.133	0.339
-468.186	195.805	-0.229	-0.349
-467.172	381.672	0.113	0.232
-466.157	-200.000	0.005	0.221
-465.143	-100.160	0.136	0.034
-464.128	-200.000	0.004	-0.152
-463.113	-200.000	0.022	-0.101
-462.099	-38.059	0.093	0.049
-461.084	36.449	-0.065	0.057
-460.070	-112.112	-0.075	-0.015
-459.055	-53.938	0.088	-0.040
-458.040	30.408	-0.217	0.186
-457.026	33.954	-0.016	0.014
-456.011	278.522	0.104	0.186
-454.997	-68.431	0.151	-0.059
-453.982	-7.946	0.093	0.063
-452.968	-200.000	0.000	0.088
-451.953	-53.061	-0.497	-0.229
-450.938	800.000	0.013	-0.037
-449.924	-88.825	-0.274	-0.082
-448.909	115.576	-0.129	0.159
-447.895	567.255	-0.167	0.406
-446.880	-180.981	-0.092	-0.002
-445.865	73.712	-0.221	-0.232
-444.851	-200.000	0.025	-0.143
-443.836	-154.683	0.230	-0.015
-442.822	800.000	0.037	0.139
-441.807	-110.969	0.266	-0.055
-440.792	171.514	-0.089	-0.127
-439.778	231.989	-0.035	-0.058
-438.763	83.944	0.078	0.085
-437.749	-172.967	-0.075	0.002
-436.734	430.083	0.020	0.044
-435.719	-129.919	0.378	-0.052
-434.705	-195.852	0.177	-0.001
-433.690	414.651	-0.038	0.081
-432.676	102.006	0.242	0.283
-431.661	70.100	0.099	0.103
-430.646	-200.000	0.022	0.210
-429.632	29.844	0.127	0.108
-428.617	6.303	0.106	-0.079
-427.603	-125.519	0.070	0.011
-426.588	-95.399	0.467	-0.126
-425.573	-87.913	0.321	0.097
-424.559	800.000	-0.062	-0.245
-423.544	800.000	-0.018	-0.071
-422.530	800.000	0.006	-0.026
-421.515	800.000	-0.074	-0.259
-420.500	-172.021	-0.167	-0.005
-419.486	800.000	0.073	-0.224
-418.471	-36.354	0.321	-0.173
-417.457	-200.000	0.021	-0.430
-416.442	146.175	0.128	-0.171
-415.428	-188.151	0.236	-0.003
-414.413	33.349	0.146	-0.127
-413.398	267.685	0.162	-0.284
-412.384	21.772	0.117	0.096
-411.369	8.850	0.190	0.143
-410.355	-200.000	0.007	0.042
-409.340	614.814	0.056	0.141
-408.325	-163.250	0.218	0.010
-407.311	67.142	-0.197	-0.201
-406.296	-93.077	0.163	0.045
-405.282	-71.481	-0.285	-0.107
-404.267	62.469	-0.163	0.163
-403.252	540.457	0.096	-0.229
-402.238	467.959	0.102	-0.230
-401.223	-61.226	-0.328	-0.138
-400.209	-77.167	0.205	0.071
-399.194	284.456	-0.122	-0.220
-398.179	-73.106	0.190	-0.070
-397.165	-200.000	-0.017	0.192
-396.150	-200.000	-0.002	-0.249
-395.136	23.984	0.025	-0.021
-394.121	-200.000	-0.006	-0.416
-393.106	426.361	-0.064	-0.139
-392.092	-200.000	0.014	0.081
-391.077	-34.798	-0.198	-0.108
-390.063	328.811	-0.036	-0.069
-389.048	-200.000	0.010	-0.057
-388.033	13.018	-0.059	0.045
-387.019	-147.278	-0.371	0.032
-386.004	-200.000	-0.015	0.138
-384.990	-55.533	-0.230	-0.103
-383.975	-22.319	-0.207	0.126
-382.960	-200.000	-0.007	-0.103
-381.946	-200.000	0.014	0.090
-380.931	258.342	0.061	-0.105
-379.917	-200.000	-0.006	-0.148
-378.902	2.768	0.056	-0.041
-377.888	-111.059	-0.353	-0.072
-376.873	114.104	-0.115	-0.140
-375.858	-81.284	0.282	0.093
-374.844	-33.160	-0.180	0.100
-373.829	12.881	0.207	0.160
-372.815	-118.339	0.084	-0.015
-371.800	125.537	0.152	0.192
-370.785	693.311	0.084	0.219
-369.771	-122.208	-0.076	-0.012
-368.756	-61.005	-0.274	0.116
-367.742	800.000	-0.007	0.029
-366.727	-89.309	0.449	-0.132
-365.712	-108.725	-0.048	-0.010
-364.698	29.275	-0.294	0.249
-363.683	-126.770	-0.235	0.035
-362.669	121.684	-0.025	-0.031
-361.654	-82.081	0.178	0.058
-360.639	-200.000	-0.006	0.465
-359.625	398.635	-0.102	0.214
-358.610	11.007	-0.136	-0.104
-357.596	-130.262	-0.089	0.012
-356.581	-10.230	0.334	0.221
-355.566	-30.733	-0.179	0.101
-354.552	183.750	0.246	0.364
-353.537	87.179	-0.058	0.064
-352.523	-200.000	-0.052	0.270
-351.508	114.244	-0.146	-0.178
-350.493	15.746	-0.060	0.047
-349.479	-41.110	0.122	0.063
-348.464	800.000	0.148	-0.429
-347.450	-170.566	-0.113	0.004
-346.435	-200.000	0.094	0.528
-345.420	-87.977	-0.381	0.114
-344.406	-200.000	-0.052	0.396
-343.391	326.640	-0.068	0.130
-342.377	-49.792	0.207	0.098
-341.362	608.439	-0.060	0.149
-340.348	102.541	-0.075	0.087
-339.333	257.908	-0.032	-0.054
-338.318	-62.278	-0.289	0.120
-337.304	284.559	0.059	-0.106
-336.289	-47.572	0.195	-0.095
-335.275	740.121	-0.157	0.420
-334.260	-32.488	-0.016	-0.009
-333.245	234.176	-0.038	0.063
-332.231	-44.496	0.134	0.067
-331.216	-200.000	0.027	-0.182
-330.202	-17.536	-0.061	-0.038
-329.187	61.292	-0.039	-0.039
-328.172	183.024	0.080	-0.118
-327.158	404.212	-0.057	-0.120
-326.143	-143.266	-0.257	0.025
-325.129	21.797	-0.249	-0.203
-324.114	-42.926	-0.162	0.082
-323.099	800.000	-0.064	-0.177
-322.085	24.005	0.162	0.133
-321.070	-161.141	-0.133	-0.007
-320.056	185.903	0.160	-0.237
-319.041	9.652	0.163	-0.123
-318.026	152.739	-0.163	-0.222
-317.012	186.489	-0.162	-0.240
-315.997	534.275	0.074	0.175
-314.983	-136.352	0.223	-0.026
-313.968	-66.195	-0.076	-0.030
-312.953	-200.000	-0.010	0.271
-311.939	-3.887	0.210	-0.145
-310.924	-48.252	0.025	0.012
-309.910	-135.226	0.254	0.030
-308.895	-37.576	0.194	0.103
-307.880	800.000	-0.060	0.248
-306.866	-177.265	0.111	-0.003
-305.851	800.000	0.060	-0.210
-304.837	219.422	0.120	-0.191
-303.822	-200.000	0.077	0.379
-302.807	55.133	0.113	-0.108
-301.793	27.003	0.230	0.192
-300.778	-200.000	0.008	0.110
-299.764	39.868	0.160	0.143
-298.749	-200.000	0.037	0.255
-297.735	144.806	-0.083	-0.110
-296.720	-200.000	-0.018	0.312
-295.705	-200.000	-0.005	-0.218
-294.691	-61.123	0.107	-0.045
-293.676	-97.226	0.332	-0.086
-292.662	71.161	-0.048	0.049
-291.647	20.259	0.111	-0.089
-290.632	54.068	0.159	-0.152
-289.618	-83.326	0.250	-0.080
-288.603	14.775	0.160	0.124
-287.589	482.193	-0.105	0.237
-286.574	-200.000	0.025	-0.139
-285.559	-127.876	-0.271	-0.039
-284.545	-200.000	-0.004	-0.089
-283.530	-200.000	-0.008	-0.238
-282.516	116.674	0.163	-0.199
-281.501	50.939	-0.084	-0.080
-280.486	-42.036	0.247	-0.126
-279.472	18.934	0.122	0.097
-278.457	277.962	0.056	-0.099
-277.443	245.331	0.174	-0.292
-276.428	-20.696	-0.109	0.067
-275.413	-75.475	0.274	0.097
-274.399	411.504	-0.080	0.168
-273.384	-9.274	-0.097	-0.065
-272.370	-96.102	-0.430	0.114
-271.355	800.000	-0.120	0.355
-270.340	-101.969	-0.424	-0.102
-269.326	-28.134	0.139	0.080
-268.311	800.000	-0.017	-0.073
-267.297	128.173	-0.111	-0.141
-266.282	93.899	0.084	0.095
-265.267	-100.393	-0.158	-0.039
-264.253	289.293	0.053	0.096
-263.238	-53.977	0.298	0.135
-262.224	-200.000	-0.011	0.258
-261.209	-200.000	-0.017	0.135
-260.195	3.157	-0.212	-0.154
-259.180	-200.000	0.006	-0.112
-258.165	-110.372	0.280	-0.058
-257.151	-200.000	0.058	-0.340
-256.136	800.000	0.061	-0.195
-255.122	373.890	0.078	0.158
-254.107	-97.136	0.059	-0.015
-253.092	523.544	-0.074	0.174
-252.078	184.976	0.137	0.203
-251.063	-109.202	0.149	0.031
-250.049	168.530	0.173	-0.245
-249.034	9.763	0.078	0.059
-248.019	-23.128	0.234	-0.140
-247.005	-67.621	0.493	-0.192
-245.990	-200.000	0.002	-0.119
-244.976	-140.547	-0.130	-0.013
-243.961	-23.311	0.305	0.182
-242.946	-127.596	-0.300	0.043
-241.932	395.141	-0.195	0.404
-240.917	630.658	0.066	-0.165
-239.903	-171.696	0.234	-0.008
-238.888	-134.244	0.251	0.031
-237.873	181.886	0.159	-0.232
-236.859	-200.000	-0.071	-0.375
-235.844	-200.000	-0.002	-0.141
-234.830	800.000	-0.081	0.237
-233.815	-162.650	0.081	-0.004
-232.800	-128.209	0.186	-0.026
-231.786	-104.202	0.142	-0.033
-230.771	123.468	-0.098	0.122
-229.757	144.513	-0.097	-0.129
-228.742	370.934	-0.069	0.139
-227.727	60.239	-0.152	0.149
-226.713	58.874	-0.336	-0.328
-225.698	800.000	-0.160	0.459
-224.684	188.325	0.209	0.311
-223.669	-101.589	-0.245	-0.059
-222.655	-161.886	-0.370	0.019
-221.640	-200.000	-0.048	-0.320
-220.625	65.711	-0.201	-0.202
-219.611	127.478	0.181	-0.228
-218.596	12.223	0.142	0.108
-217.582	-44.683	0.213	-0.106
-216.567	-82.137	0.084	0.027
-215.552	-200.000	0.042	0.197
-214.538	-200.000	-0.061	0.268
-213.523	24.913	0.152	0.125
-212.509	139.172	0.033	0.044
-211.494	-19.386	0.527	-0.325
-210.479	-51.770	0.145	-0.067
-209.465	800.000	-0.031	0.120
-208.450	-67.994	0.389	-0.151
-207.436	67.516	0.013	-0.014
-206.421	-17.106	0.276	-0.173
-205.406	-46.428	0.247	-0.121
-204.392	-200.000	-0.044	-0.209
-203.377	800.000	0.050	0.205
-202.363	-191.473	-0.272	-0.003
-201.348	-150.092	0.088	-0.007
-200.333	-200.000	0.000	0.009
-199.319	150.200	-0.070	-0.094
-198.304	91.663	-0.230	0.257
-197.290	-138.424	0.238	0.026
-196.275	-182.257	0.142	0.003
-195.260	25.231	-0.130	-0.108
-194.246	65.253	0.276	0.277
-193.231	-27.677	-0.230	-0.133
-192.217	-2.518	0.177	-0.123
-191.202	88.832	-0.354	0.391
-190.187	-200.000	0.014	-0.103
-189.173	800.000	-0.041	-0.133
-188.158	-178.340	0.143	-0.003
-187.144	-79.571	-0.263	-0.088
-186.129	69.687	0.154	-0.158
-185.114	-130.462	0.217	0.029
-184.100	-52.101	-0.126	0.058
-183.085	-200.000	0.030	0.242
-182.071	-200.000	0.021	0.095
-181.056	800.000	-0.058	0.190
-180.042	-200.000	0.001	-0.015
-179.027	11.867	0.098	-0.075
-178.012	168.819	0.171	-0.242
-176.998	-200.000	-0.048	0.367
-175.983	100.612	0.164	0.189
-174.969	800.000	-0.100	0.366
-173.954	501.191	0.079	0.181
-172.939	1.214	0.204	0.145
-171.925	111.964	0.141	-0.168
-170.910	25.448	0.160	0.132
-169.896	-5.360	0.073	0.050
-168.881	-25.839	0.219	-0.128
-167.866	108.311	0.150	-0.178
-166.852	-89.266	-0.025	0.007
-165.837	262.724	0.139	-0.239
-164.823	-119.773	0.052	-0.009
-163.808	-101.308	0.058	-0.014
-162.793	185.474	-0.094	-0.139
-161.779	-48.333	-0.066	0.032
-160.764	-18.750	0.119	-0.074
-159.750	-200.000	0.020	-0.144
-158.735	-143.361	0.134	0.013
-157.720	-89.142	-0.049	0.014
-156.706	171.515	-0.205	-0.292
-155.691	-22.452	0.245	-0.147
-154.677	16.068	-0.247	-0.193
-153.662	156.558	-0.186	-0.255
-152.647	-129.692	-0.080	0.011
-151.633	-200.000	0.009	-0.074
-150.618	18.244	0.254	0.201
-149.604	152.012	-0.173	0.234
-148.589	800.000	-0.021	0.089
-147.574	-165.624	-0.363	-0.016
-146.560	-100.096	-0.287	0.071
-145.545	-180.386	0.153	-0.003
-144.531	-104.463	0.171	-0.039
-143.516	-200.000	0.069	-0.317
-142.502	212.091	0.021	-0.033
-141.487	800.000	0.061	-0.174
-140.472	-14.881	0.240	0.152
-139.458	669.088	-0.115	-0.294
-138.443	-2.773	-0.128	-0.089
-137.429	-200.000	-0.040	0.235
-136.414	-115.847	0.500	-0.093
-135.399	136.696	-0.123	-0.159
-134.385	22.937	-0.098	-0.080
-133.370	-63.519	0.087	-0.035
-132.356	-121.943	0.124	0.020
-131.341	-200.000	0.044	0.387
-130.326	404.523	0.119	0.248
-129.312	519.324	-0.054	0.126
-128.297	-121.849	0.172	0.028
-127.283	-121.667	-0.220	-0.036
-126.268	295.008	0.105	0.191
-125.253	237.811	-0.196	-0.323
-124.239	-132.419	-0.297	0.038
-123.224	-200.000	0.057	0.354
-122.210	-200.000	0.041	-0.241
