DTS Sentinel unit serial number:	SN413079Multiplexer serial number:	ORYXHardware model number:	OX4-SRSoftware version number:	ORYX F/W v4.00 Oryx Data Collector v3.7.2.0data status	okinstallation	princeton_trtdifferential loss correction	single-endedforward channel	channel 3reverse channel	N/Adate	2019/09/17time	10:08:35forward acquisition time	60.00reverse acquisition time	0.00gamma	496.2192k internal	0.2323k external	0.2323temperature offset calibration	0.9941default loss term (dB/km)	0.3790temperature slope calibration	1.0000multiplexer offset coefficient	1.0000multiplexer slope coefficient	1.0000fibre end	0.00T internal ref (°C)	29.75T ext. ref 1 (°C)	0.16T ext. ref 2 (°C)	25.33length (m)	temperature (°C)	Stokes	anti-Stokes-747.200	-103.925	0.342	-0.081
-746.185	-82.283	-0.223	0.073
-745.171	200.363	-0.052	-0.081
-744.156	-186.754	0.265	0.004
-743.142	-200.000	-0.014	0.264
-742.127	250.337	-0.136	0.233
-741.112	-21.811	0.270	-0.166
-740.098	800.000	-0.065	0.223
-739.083	-137.705	0.097	0.011
-738.069	-106.699	-0.205	0.046
-737.054	-200.000	-0.007	-0.193
-736.039	118.493	0.062	0.077
-735.025	-51.065	0.437	0.207
-734.010	-12.118	0.175	0.116
-732.996	23.177	-0.290	-0.240
-731.981	-200.000	0.042	-0.318
-730.966	269.390	-0.064	-0.114
-729.952	234.047	-0.078	0.130
-728.937	-165.385	0.211	0.009
-727.923	800.000	-0.036	-0.138
-726.908	-120.859	0.199	-0.034
-725.894	-3.861	0.334	-0.234
-724.879	-96.800	-0.066	0.017
-723.864	250.380	-0.060	-0.102
-722.850	276.172	-0.109	0.195
-721.835	-143.409	-0.061	-0.006
-720.821	800.000	-0.032	0.140
-719.806	43.774	0.113	0.105
-718.791	-0.055	0.323	0.232
-717.777	242.363	-0.136	0.230
-716.762	-200.000	0.019	-0.143
-715.748	-35.735	-0.094	0.051
-714.733	-99.157	-0.092	-0.023
-713.718	190.248	0.234	-0.354
-712.704	18.708	-0.357	-0.288
-711.689	-68.345	-0.089	0.035
-710.675	-21.174	-0.287	0.177
-709.660	-84.960	0.054	-0.017
-708.645	9.562	0.282	-0.216
-707.631	-91.822	-0.185	0.053
-706.616	-200.000	0.015	-0.136
-705.602	22.684	0.037	-0.031
-704.587	-159.037	-0.098	0.006
-703.572	308.140	-0.099	-0.187
-702.558	-200.000	-0.034	0.302
-701.543	100.503	-0.146	-0.171
-700.529	-182.715	-0.096	0.002
-699.514	-11.432	-0.120	0.080
-698.499	71.825	0.174	-0.183
-697.485	635.301	0.094	-0.240
-696.470	-129.641	0.124	-0.017
-695.456	800.000	0.131	0.489
-694.441	-0.093	0.191	-0.137
-693.426	-96.456	0.110	0.029
-692.412	77.765	0.044	-0.047
-691.397	-200.000	-0.078	0.389
-690.383	37.268	0.243	-0.217
-689.368	-69.294	-0.225	0.087
-688.354	109.465	-0.059	0.071
-687.339	-168.196	-0.263	0.010
-686.324	-200.000	0.017	0.265
-685.310	116.745	-0.102	0.126
-684.295	800.000	0.058	0.215
-683.281	800.000	0.020	-0.061
-682.266	37.239	-0.178	-0.159
-681.251	-126.009	0.218	-0.033
-680.237	42.867	-0.190	0.174
-679.222	62.641	0.016	0.016
-678.208	-200.000	-0.037	0.234
-677.193	257.584	0.052	-0.090
-676.178	-114.847	0.377	-0.072
-675.164	-106.213	-0.365	-0.082
-674.149	-118.605	-0.192	0.034
-673.135	-60.473	-0.234	-0.100
-672.120	324.457	0.135	-0.260
-671.105	-170.028	-0.197	-0.007
-670.091	416.728	0.052	0.111
-669.076	-83.730	-0.286	-0.092
-668.062	-76.421	-0.371	0.131
-667.047	-143.158	0.191	-0.018
-666.032	-200.000	-0.017	0.102
-665.018	610.367	-0.142	-0.356
-664.003	-142.743	-0.257	-0.025
-662.989	-128.451	-0.490	-0.070
-661.974	158.206	-0.050	0.070
-660.959	143.094	0.147	-0.197
-659.945	-26.721	0.034	-0.020
-658.930	-200.000	-0.004	-0.159
-657.916	236.500	0.050	-0.084
-656.901	-200.000	0.005	-0.306
-655.886	-200.000	0.090	0.000
-654.872	36.371	-0.109	-0.097
-653.857	-200.000	-0.024	-0.284
-652.843	-39.200	-0.403	-0.213
-651.828	-36.539	-0.116	-0.063
-650.814	-200.000	-0.013	-0.133
-649.799	58.479	0.230	0.227
-648.784	26.450	-0.228	0.192
-647.770	-199.369	0.390	0.002
-646.755	82.265	-0.088	-0.096
-645.741	-180.007	0.153	-0.003
-644.726	164.711	0.076	0.108
-643.711	-117.251	0.342	0.063
-642.697	452.373	-0.047	0.105
-641.682	-23.175	0.153	-0.093
-640.668	71.934	-0.115	0.120
-639.653	-30.535	-0.212	0.121
-638.638	-132.490	-0.155	-0.020
-637.624	800.000	0.050	0.173
-636.609	-200.000	0.025	0.191
-635.595	-131.321	-0.561	-0.075
-634.580	-60.124	0.074	0.032
-633.565	79.456	0.037	0.040
-632.551	345.988	-0.059	-0.116
-631.536	-23.703	0.488	0.294
-630.522	-44.866	0.182	-0.091
-629.507	52.020	0.230	0.220
-628.492	-58.239	0.257	-0.113
-627.478	285.633	-0.117	-0.212
-626.463	111.507	0.079	0.095
-625.449	22.409	-0.222	0.182
-624.434	800.000	0.113	-0.365
-623.419	239.074	0.158	-0.264
-622.405	-42.144	-0.101	0.052
-621.390	630.318	-0.086	-0.217
-620.376	10.800	-0.122	-0.094
-619.361	-115.208	-0.046	0.009
-618.346	181.150	-0.136	-0.201
-617.332	773.354	0.041	-0.113
-616.317	-52.460	-0.320	0.149
-615.303	-169.138	0.147	-0.006
-614.288	-66.662	0.106	-0.042
-613.273	-200.000	-0.079	-0.472
-612.259	312.053	0.099	-0.187
-611.244	-38.451	-0.147	0.078
-610.230	444.367	-0.129	-0.284
-609.215	100.517	-0.084	-0.098
-608.201	-200.000	0.024	-0.211
-607.186	-72.768	-0.185	0.068
-606.171	800.000	0.081	0.302
-605.157	-200.000	-0.004	-0.025
-604.142	800.000	-0.053	-0.191
-603.128	-30.199	-0.069	0.040
-602.113	492.081	-0.011	0.025
-601.098	-55.301	0.204	0.092
-600.084	29.438	0.251	-0.214
-599.069	416.663	-0.149	-0.320
-598.055	-64.275	0.097	-0.040
-597.040	-33.953	-0.005	-0.003
-596.025	43.199	-0.114	0.105
-595.011	-168.327	-0.176	0.007
-593.996	177.252	-0.079	0.116
-592.982	41.549	-0.248	-0.226
-591.967	6.733	-0.235	-0.176
-590.952	52.988	0.066	0.063
-589.938	-72.966	0.179	-0.066
-588.923	-200.000	0.007	0.390
-587.909	-149.918	-0.081	-0.006
-586.894	776.498	0.039	0.107
-585.879	-72.467	-0.279	0.103
-584.865	434.034	-0.013	0.028
-583.850	0.698	0.055	-0.039
-582.836	-200.000	-0.030	-0.196
-581.821	-200.000	0.020	-0.214
-580.806	536.843	-0.033	-0.079
-579.792	-200.000	-0.031	0.154
-578.777	-6.550	0.201	0.138
-577.763	-200.000	0.085	-0.481
-576.748	-200.000	-0.036	-0.157
-575.733	-132.715	-0.406	-0.052
-574.719	-116.663	-0.050	0.009
-573.704	-131.921	0.206	-0.027
-572.690	197.459	-0.105	-0.161
-571.675	85.942	-0.108	-0.119
-570.661	-95.705	0.240	-0.064
-569.646	659.309	-0.085	0.220
-568.631	-148.017	0.203	-0.017
-567.617	-90.749	-0.198	0.057
-566.602	-200.000	0.037	-0.347
-565.588	800.000	0.113	-0.476
-564.573	252.829	-0.134	-0.230
-563.558	-125.210	0.243	-0.037
-562.544	102.323	0.120	-0.141
-561.529	667.137	-0.191	-0.495
-560.515	26.928	-0.147	-0.123
-559.500	293.372	-0.095	-0.174
-558.485	-200.000	-0.018	-0.084
-557.471	171.645	0.077	0.112
-556.456	-200.000	-0.060	-0.273
-555.442	-66.766	0.170	-0.068
-554.427	-200.000	-0.013	0.107
-553.412	185.456	0.020	0.030
-552.398	97.644	-0.212	-0.244
-551.383	-200.000	-0.004	-0.142
-550.369	-200.000	0.030	-0.361
-549.354	-200.000	0.033	0.242
-548.339	-200.000	0.011	0.067
-547.325	800.000	0.130	0.387
-546.310	800.000	0.087	0.261
-545.296	800.000	-0.146	0.444
-544.281	-200.000	0.019	-0.163
-543.266	609.531	0.054	0.136
-542.252	-200.000	-0.015	0.156
-541.237	-94.872	-0.252	0.068
-540.223	-100.890	0.180	-0.044
-539.208	-66.235	-0.155	0.062
-538.193	73.744	-0.126	0.132
-537.179	602.304	-0.081	0.203
-536.164	-27.191	0.113	0.066
-535.150	744.521	-0.061	-0.165
-534.135	-200.000	0.053	0.263
-533.121	-1.658	0.444	-0.313
-532.106	203.643	-0.122	-0.190
-531.091	-54.449	-0.297	0.135
-530.077	185.463	0.184	0.273
-529.062	-95.961	0.083	-0.022
-528.048	-200.000	-0.009	-0.292
-527.033	-200.000	0.006	-0.199
-526.018	2.734	0.242	-0.176
-525.004	-54.476	-0.170	-0.077
-523.989	-200.000	-0.038	0.207
-522.975	200.478	0.202	-0.311
-521.960	-97.832	-0.388	0.101
-520.945	-143.426	0.095	0.009
-519.931	-200.000	0.006	-0.301
-518.916	-77.748	-0.130	-0.045
-517.902	281.718	-0.167	-0.299
-516.887	-82.075	0.214	-0.070
-515.872	-133.819	-0.195	-0.024
-514.858	800.000	0.058	-0.166
-513.843	620.835	0.075	0.188
-512.829	-23.149	0.173	-0.105
-511.814	-200.000	0.011	0.235
-510.799	-132.846	0.209	0.027
-509.785	363.814	0.127	-0.255
-508.770	800.000	-0.077	0.217
-507.756	117.115	0.207	-0.255
-506.741	325.416	-0.172	-0.329
-505.726	203.997	0.175	0.272
-504.712	800.000	0.041	0.131
-503.697	67.879	-0.169	0.173
-502.683	47.016	-0.147	-0.137
-501.668	265.787	-0.087	0.152
-500.653	-19.714	0.103	-0.064
-499.639	-3.326	-0.105	-0.073
-498.624	-139.243	0.455	0.049
-497.610	364.018	0.039	0.078
-496.595	-200.000	0.048	-0.366
-495.581	-77.445	0.223	0.077
-494.566	40.667	-0.009	0.008
-493.551	-132.135	-0.422	-0.055
-492.537	207.386	-0.053	-0.083
-491.522	5.144	0.294	-0.217
-490.508	-200.000	0.077	-0.480
-489.493	103.670	0.125	-0.147
-488.478	128.647	-0.289	-0.368
-487.464	-59.194	0.115	-0.050
-486.449	-200.000	-0.025	-0.158
-485.435	84.478	0.139	-0.152
-484.420	152.528	0.119	-0.162
-483.405	206.038	-0.073	0.113
-482.391	-155.627	0.167	0.011
-481.376	86.406	0.100	-0.110
-480.362	-61.619	-0.202	0.085
-479.347	-167.050	0.109	0.004
-478.332	-174.010	0.049	-0.001
-477.318	225.671	0.286	0.464
-476.303	65.889	-0.248	-0.251
-475.289	-113.478	-0.112	0.022
-474.274	800.000	-0.029	0.103
-473.259	59.446	0.317	-0.312
-472.245	-17.237	-0.224	0.141
-471.230	206.652	-0.290	0.452
-470.216	67.476	0.146	0.149
-469.201	60.446	-0.159	0.157
-468.186	-32.142	0.071	0.040
-467.172	309.793	-0.110	0.205
-466.157	-89.585	0.028	-0.008
-465.143	534.204	0.013	0.030
-464.128	-20.536	0.190	-0.117
-463.113	434.768	-0.122	-0.265
-462.099	-43.964	0.208	0.104
-461.084	377.422	-0.136	0.278
-460.070	132.639	0.201	-0.259
-459.055	249.896	-0.150	0.254
-458.040	-84.677	0.225	0.071
-457.026	800.000	0.132	0.408
-456.011	800.000	0.152	-0.462
-454.997	24.830	-0.104	-0.086
-453.982	-30.492	-0.051	0.029
-452.968	800.000	-0.048	-0.192
-451.953	-121.079	0.216	-0.036
-450.938	-112.900	-0.253	-0.050
-449.924	148.048	0.143	-0.193
-448.909	438.911	0.100	-0.217
-447.895	138.545	0.018	0.024
-446.880	200.335	0.067	0.103
-445.865	29.476	0.229	0.194
-444.851	-18.005	-0.157	-0.098
-443.836	13.010	-0.238	0.184
-442.822	800.000	0.074	0.305
-441.807	-200.000	0.030	0.202
-440.792	151.127	0.140	-0.191
-439.778	-200.000	0.008	-0.038
-438.763	-200.000	0.016	-0.100
-437.749	4.532	0.325	-0.238
-436.734	-97.290	-0.225	-0.059
-435.719	-28.420	0.071	0.041
-434.705	188.297	-0.105	0.157
-433.690	-200.000	0.014	0.196
-432.676	-9.710	0.300	0.199
-431.661	24.307	-0.200	0.165
-430.646	-200.000	0.029	0.325
-429.632	-28.620	0.220	0.126
-428.617	-200.000	0.021	0.349
-427.603	41.259	-0.194	0.175
-426.588	-2.855	-0.139	-0.097
-425.573	440.458	0.138	0.302
-424.559	246.566	-0.160	0.269
-423.544	-163.467	-0.237	-0.011
-422.530	-73.207	0.297	-0.108
-421.515	554.536	-0.078	0.187
-420.500	166.043	0.059	0.084
-419.486	136.621	0.141	-0.183
-418.471	363.973	0.115	0.231
-417.457	800.000	0.069	0.235
-416.442	-165.786	-0.356	-0.015
-415.428	-47.676	0.219	-0.106
-414.413	48.884	-0.091	-0.085
-413.398	800.000	-0.088	0.275
-412.384	800.000	-0.041	0.155
-411.369	29.220	0.042	0.035
-410.355	800.000	0.127	0.410
-409.340	-186.956	-0.287	-0.004
-408.325	-69.935	-0.386	0.147
-407.311	582.190	-0.056	-0.138
-406.296	800.000	0.128	0.534
-405.282	-23.571	0.269	0.161
-404.267	551.617	-0.085	0.203
-403.252	755.507	0.020	0.053
-402.238	-138.821	0.061	0.007
-401.223	-90.555	-0.245	0.071
-400.209	-27.538	-0.150	-0.087
-399.194	-14.687	-0.378	0.242
-398.179	16.601	-0.336	-0.265
-397.165	-51.943	0.146	-0.067
-396.150	-173.147	-0.291	0.009
-395.136	31.621	0.156	0.133
-394.121	-25.495	-0.169	0.100
-393.106	-139.351	-0.184	-0.020
-392.092	-200.000	-0.029	-0.131
-391.077	-27.791	0.237	-0.137
-390.063	112.510	-0.072	0.087
-389.048	800.000	-0.052	0.217
-388.033	-137.830	0.026	0.003
-387.019	492.163	-0.103	0.235
-386.004	-109.953	0.438	0.091
-384.990	800.000	-0.140	-0.415
-383.975	-28.860	0.117	-0.067
-382.960	800.000	-0.062	0.181
-381.946	-133.018	0.253	0.032
-380.931	-158.453	-0.393	-0.023
-379.917	410.429	0.055	-0.116
-378.902	97.922	0.105	0.120
-377.888	800.000	0.128	0.433
-376.873	166.981	0.016	-0.022
-375.858	-40.294	-0.169	-0.088
-374.844	-80.440	-0.186	-0.062
-373.829	-200.000	0.000	0.099
-372.815	-122.787	-0.260	-0.042
-371.800	-157.006	-0.051	0.003
-370.785	800.000	-0.022	0.060
-369.771	-200.000	0.001	-0.217
-368.756	-162.228	-0.068	-0.003
-367.742	-200.000	-0.022	-0.266
-366.727	69.235	-0.340	0.348
-365.712	6.520	-0.121	-0.089
-364.698	11.096	-0.288	-0.219
-363.683	17.230	-0.084	0.066
-362.669	17.298	-0.113	-0.090
-361.654	-111.077	-0.197	-0.040
-360.639	58.189	0.195	-0.190
-359.625	800.000	0.068	-0.230
-358.610	-148.822	-0.181	0.015
-357.596	-61.527	0.289	0.121
-356.581	129.087	-0.192	0.243
-355.566	-200.000	0.026	0.127
-354.552	-200.000	-0.008	-0.111
-353.537	-2.046	0.296	-0.207
-352.523	-200.000	-0.004	-0.195
-351.508	-200.000	-0.015	-0.355
-350.493	-45.513	-0.120	0.059
-349.479	58.702	0.098	-0.096
-348.464	-96.313	-0.279	-0.073
-347.450	363.518	0.097	0.193
-346.435	-200.000	-0.004	0.034
-345.420	-200.000	-0.036	-0.479
-344.406	-200.000	-0.004	-0.392
-343.391	-139.994	0.060	-0.006
-342.377	57.434	0.206	0.200
-341.362	-176.105	0.118	0.003
-340.348	-148.351	0.426	-0.035
-339.333	-200.000	-0.044	-0.271
-338.318	-58.379	0.132	-0.057
-337.304	320.544	-0.096	0.181
-336.289	500.238	-0.066	-0.151
-335.275	274.325	0.025	-0.044
-334.260	-34.622	-0.122	0.066
-333.245	-60.234	-0.181	-0.077
-332.231	-200.000	-0.015	0.140
-331.216	-117.689	0.671	-0.120
-330.202	-78.321	0.145	-0.049
-329.187	-102.972	0.209	-0.049
-328.172	-200.000	0.001	0.317
-327.158	-200.000	0.009	0.152
-326.143	314.775	-0.167	-0.312
-325.129	-200.000	0.066	-0.356
-324.114	-109.265	0.170	0.036
-323.099	-91.725	-0.096	0.027
-322.085	-200.000	-0.048	0.220
-321.070	-21.448	-0.096	-0.058
-320.056	-200.000	0.056	0.349
-319.041	800.000	-0.125	-0.396
-318.026	116.564	0.146	-0.177
-317.012	17.601	-0.175	-0.138
-315.997	-142.700	0.062	0.006
-314.983	-200.000	-0.016	0.169
-313.968	69.585	-0.051	0.052
-312.953	-51.686	0.202	-0.094
-311.939	215.298	-0.124	0.196
-310.924	-73.535	0.208	0.075
-309.910	-200.000	0.007	-0.150
-308.895	57.883	0.138	-0.134
-307.880	35.564	0.109	0.095
-306.866	794.202	0.041	0.113
-305.851	38.732	0.172	0.153
-304.837	-112.376	-0.066	0.013
-303.822	121.167	0.248	0.307
-302.807	-33.564	0.388	0.213
-301.793	159.618	0.142	0.197
-300.778	360.264	-0.195	0.387
-299.764	800.000	-0.097	-0.332
-298.749	-200.000	0.027	-0.174
-297.735	39.207	-0.098	-0.087
-296.720	186.048	-0.057	-0.084
-295.705	-149.816	0.355	0.028
-294.691	-200.000	-0.015	0.233
-293.676	-72.411	0.388	0.142
-292.662	-3.817	-0.195	0.134
-291.647	52.002	-0.103	0.097
-290.632	-76.015	-0.029	0.010
-289.618	-20.689	-0.093	-0.057
-288.603	-38.328	-0.128	-0.067
-287.589	97.729	0.113	0.128
-286.574	-200.000	0.064	-0.494
-285.559	420.367	0.022	-0.047
-284.545	18.291	-0.278	0.220
-283.530	-36.343	0.197	0.105
-282.516	12.030	-0.142	0.108
-281.501	-200.000	0.059	-0.289
-280.486	-41.637	0.212	0.108
-279.472	-119.856	-0.453	-0.077
-278.457	-200.000	0.019	-0.240
-277.443	341.983	0.079	-0.154
-276.428	-35.389	-0.289	0.156
-275.413	-181.717	-0.277	-0.005
-274.399	-33.450	0.083	-0.045
-273.384	207.742	-0.167	0.258
-272.370	15.897	0.079	-0.062
-271.355	274.823	-0.134	0.235
-270.340	-106.144	-0.225	-0.050
-269.326	-154.121	0.279	0.019
-268.311	33.913	-0.048	-0.042
-267.297	-104.261	0.170	0.039
-266.282	-118.278	-0.140	0.025
-265.267	214.526	-0.100	0.157
-264.253	-23.287	-0.174	-0.104
-263.238	268.572	-0.111	-0.194
-262.224	184.684	-0.067	0.098
-261.209	146.719	0.112	0.149
-260.195	50.877	0.018	0.017
-259.180	-13.118	0.169	0.109
-258.165	-153.410	-0.267	0.018
-257.151	227.617	0.040	0.065
-256.136	25.852	-0.255	0.211
-255.122	33.597	0.184	-0.158
-254.107	107.520	-0.187	-0.220
-253.092	-171.268	0.172	-0.006
-252.078	-13.952	0.256	-0.164
-251.063	182.577	0.212	0.309
-250.049	-200.000	-0.063	0.302
-249.034	83.384	-0.092	-0.100
-248.019	154.899	-0.122	0.165
-247.005	-56.934	0.232	0.101
-245.990	458.595	-0.124	-0.272
-244.976	-200.000	0.015	-0.127
-243.961	-51.321	0.297	0.138
-242.946	-190.998	0.220	0.002
-241.932	9.470	0.218	-0.164
-240.917	386.125	0.051	0.104
-239.903	-13.175	0.085	0.055
-238.888	-94.774	0.379	0.102
-237.873	-170.843	-0.651	-0.022
-236.859	201.528	0.135	0.207
-235.844	48.502	-0.162	-0.151
-234.830	-200.000	-0.032	0.300
-233.815	29.080	-0.101	-0.085
-232.800	-185.232	-0.229	-0.004
-231.786	252.246	-0.083	0.141
-230.771	113.897	-0.276	0.332
-229.757	800.000	0.072	0.279
-228.742	-39.851	-0.106	0.055
-227.727	0.528	0.160	-0.113
-226.713	243.109	-0.115	-0.191
-225.698	190.077	0.042	-0.062
-224.684	155.578	0.077	-0.105
-223.669	-1.372	-0.096	0.067
-222.655	-163.316	0.261	0.012
-221.640	-157.330	0.280	0.017
-220.625	800.000	-0.031	-0.092
-219.611	152.837	-0.129	-0.175
-218.596	800.000	-0.046	-0.191
-217.582	-130.484	0.164	0.022
-216.567	80.332	0.007	-0.008
-215.552	224.937	0.243	0.389
-214.538	48.750	-0.275	-0.255
-213.523	-183.735	-0.096	0.002
-212.509	-200.000	-0.002	0.052
-211.494	187.333	-0.107	-0.157
-210.479	-164.937	-0.219	0.010
-209.465	-35.967	-0.419	0.224
-208.450	48.859	0.188	0.175
-207.436	800.000	0.050	0.166
-206.421	-153.008	0.171	0.012
-205.406	-200.000	0.074	0.401
-204.392	800.000	-0.051	-0.220
-203.377	-50.795	0.035	0.016
-202.363	-107.994	-0.167	0.036
-201.348	-71.454	0.386	-0.143
-200.333	-83.390	-0.059	0.019
-199.319	47.443	0.208	-0.192
-198.304	-200.000	-0.011	0.051
-197.290	191.008	-0.106	-0.158
-196.275	-97.570	-0.278	-0.071
-195.260	14.445	-0.250	0.192
-194.246	-77.602	-0.166	0.057
-193.231	106.319	-0.175	-0.205
-192.217	-95.092	0.078	-0.021
-191.202	-200.000	-0.046	-0.321
-190.187	134.482	-0.144	-0.184
-189.173	18.707	0.264	0.209
-188.158	685.963	-0.093	0.239
-187.144	-94.197	-0.095	-0.026
-186.129	-156.198	0.192	-0.012
-185.114	-200.000	-0.041	-0.322
-184.100	-80.510	0.081	-0.027
-183.085	800.000	0.045	-0.186
-182.071	-194.321	-0.310	-0.002
-181.056	30.321	-0.158	-0.133
-180.042	-200.000	-0.013	0.364
-179.027	-140.124	0.239	-0.025
-178.012	444.587	0.049	0.106
-176.998	-200.000	-0.029	0.508
-175.983	-158.078	-0.208	0.012
-174.969	-49.729	0.193	-0.091
-173.954	800.000	0.009	0.034
-172.939	-137.801	-0.091	0.010
-171.925	567.000	-0.177	-0.425
-170.910	-80.176	-0.242	0.080
-169.896	-200.000	0.075	0.406
-168.881	800.000	0.097	0.312
-167.866	170.552	0.216	-0.305
-166.852	-200.000	-0.008	-0.206
-165.837	-117.495	0.028	0.005
-164.823	-49.992	0.183	0.086
-163.808	-65.550	0.132	0.052
-162.793	-116.386	0.287	-0.052
-161.779	-200.000	0.015	0.135
-160.764	104.620	0.162	-0.188
-159.750	223.122	-0.185	0.294
-158.735	-109.130	0.009	0.002
-157.720	-200.000	-0.023	0.204
-156.706	73.016	-0.271	0.280
-155.691	-200.000	0.010	0.220
-154.677	-74.260	-0.177	-0.063
-153.662	-193.914	0.095	0.001
-152.647	-106.712	0.493	-0.108
-151.633	763.736	-0.100	-0.267
-150.618	195.914	-0.142	0.213
-149.604	-130.175	0.386	0.052
-148.589	301.019	0.047	-0.086
-147.574	-55.362	0.156	-0.069
-146.560	276.117	0.150	-0.262
-145.545	-27.427	0.261	0.150
-144.531	-32.731	0.099	0.055
-143.516	-79.563	0.250	-0.083
-142.502	-18.945	0.490	0.301
-141.487	-114.451	-0.173	0.033
-140.472	-99.628	0.320	0.079
-139.458	86.330	0.036	-0.039
-138.443	288.181	-0.098	0.175
-137.429	-90.906	0.082	-0.023
-136.414	-38.336	-0.392	0.204
-135.399	-38.090	0.296	0.155
-134.385	-200.000	-0.021	-0.103
-133.370	-200.000	-0.028	-0.240
-132.356	-200.000	-0.024	-0.441
-131.341	329.160	-0.058	0.109
-130.326	-135.296	-0.091	-0.011
-129.312	-56.801	-0.060	0.026
-128.297	-66.709	0.249	0.097
-127.283	104.754	-0.096	0.112
-126.268	241.158	0.163	0.269
-125.253	800.000	0.060	-0.171
-124.239	-200.000	0.043	-0.311
-123.224	411.127	0.105	-0.219
-122.210	-65.960	-0.459	0.181
