DTS Sentinel unit serial number:	SN413079Multiplexer serial number:	ORYXHardware model number:	OX4-SRSoftware version number:	ORYX F/W v4.00 Oryx Data Collector v3.7.2.0data status	okinstallation	princeton_trtdifferential loss correction	single-endedforward channel	channel 3reverse channel	N/Adate	2019/09/14time	16:16:34forward acquisition time	60.00reverse acquisition time	0.00gamma	496.2192k internal	0.2295k external	0.2295temperature offset calibration	1.0045default loss term (dB/km)	0.3790temperature slope calibration	1.0000multiplexer offset coefficient	1.0000multiplexer slope coefficient	1.0000fibre end	0.00T internal ref (°C)	38.23T ext. ref 1 (°C)	5.07T ext. ref 2 (°C)	32.83length (m)	temperature (°C)	Stokes	anti-Stokes-747.200	-200.000	0.005	0.040
-746.185	527.024	-0.053	0.127
-745.171	-132.341	-0.192	0.025
-744.156	-182.860	-0.046	0.001
-743.142	-120.530	-0.180	-0.031
-742.127	406.529	0.130	0.280
-741.112	-200.000	0.282	0.001
-740.098	-157.813	-0.114	0.007
-739.083	-97.521	-0.054	0.014
-738.069	-20.138	-0.193	0.121
-737.054	-200.000	0.027	-0.511
-736.039	355.873	-0.027	0.055
-735.025	-145.397	-0.105	-0.010
-734.010	-35.378	-0.165	0.092
-732.996	-200.000	-0.016	-0.253
-731.981	596.388	-0.121	-0.307
-730.966	46.258	0.034	0.032
-729.952	466.620	0.160	-0.367
-728.937	297.975	-0.184	-0.345
-727.923	-42.367	0.145	0.076
-726.908	-200.000	-0.043	-0.268
-725.894	184.241	-0.060	-0.091
-724.879	-89.702	-0.399	0.120
-723.864	-175.096	-0.153	-0.004
-722.850	98.298	-0.131	-0.154
-721.835	409.670	-0.182	-0.393
-720.821	-119.817	-0.113	-0.020
-719.806	-200.000	-0.055	0.316
-718.791	136.382	-0.115	-0.154
-717.777	-200.000	0.013	0.136
-716.762	-185.323	-0.340	0.005
-715.748	-92.318	-0.085	-0.024
-714.733	87.890	-0.204	0.231
-713.718	-151.494	0.279	-0.021
-712.704	33.212	-0.067	-0.059
-711.689	-200.000	0.058	-0.262
-710.675	-85.392	-0.225	-0.072
-709.660	-130.596	0.214	-0.029
-708.645	-121.675	-0.191	0.032
-707.631	800.000	0.021	0.077
-706.616	800.000	0.042	-0.173
-705.602	455.405	-0.186	-0.421
-704.587	346.601	0.061	-0.122
-703.572	22.918	-0.150	-0.125
-702.558	220.591	0.125	-0.204
-701.543	-197.138	0.265	0.002
-700.529	-11.747	-0.078	0.052
-699.514	33.902	-0.193	0.171
-698.499	131.069	-0.164	0.215
-697.485	28.140	-0.108	-0.093
-696.470	-18.681	0.009	0.006
-695.456	-200.000	-0.068	0.335
-694.441	240.390	-0.172	0.292
-693.426	-200.000	0.044	-0.260
-692.412	-200.000	-0.020	-0.204
-691.397	14.152	-0.057	0.045
-690.383	220.067	-0.070	-0.114
-689.368	-200.000	0.027	-0.286
-688.354	-92.622	-0.348	0.100
-687.339	288.306	0.020	0.037
-686.324	99.946	-0.032	-0.038
-685.310	-4.169	-0.266	-0.188
-684.295	99.826	-0.117	0.138
-683.281	515.324	0.037	-0.088
-682.266	255.519	0.117	-0.204
-681.251	399.353	-0.134	-0.286
-680.237	227.772	-0.152	-0.252
-679.222	-116.188	-0.305	-0.058
-678.208	11.420	0.104	0.081
-677.193	35.462	0.117	0.105
-676.178	-200.000	-0.009	-0.109
-675.164	286.436	0.169	-0.311
-674.149	532.944	0.112	0.271
-673.135	-200.000	-0.414	0.001
-672.120	800.000	-0.066	-0.264
-671.105	330.298	0.121	0.237
-670.091	97.744	0.059	-0.069
-669.076	325.517	0.106	-0.206
-668.062	538.511	-0.128	-0.309
-667.047	20.276	0.199	-0.164
-666.032	270.697	0.071	0.127
-665.018	280.984	0.146	0.266
-664.003	-77.730	-0.113	0.040
-662.989	-164.916	0.200	-0.009
-661.974	800.000	0.039	-0.135
-660.959	-34.831	0.417	0.232
-659.945	800.000	0.051	-0.182
-658.930	68.910	0.252	-0.264
-657.916	-200.000	-0.065	-0.331
-656.901	212.373	-0.058	-0.093
-655.886	-99.546	0.067	0.017
-654.872	800.000	-0.019	-0.074
-653.857	-113.032	-0.225	-0.045
-652.843	272.503	-0.070	0.126
-651.828	-87.009	-0.325	0.101
-650.814	-129.672	-0.342	-0.048
-649.799	-55.271	0.536	0.245
-648.784	109.208	-0.164	0.200
-647.770	-143.649	0.094	0.009
-646.755	-115.251	-0.210	-0.041
-645.741	800.000	-0.069	0.303
-644.726	26.629	-0.378	0.322
-643.711	-137.049	-0.224	-0.026
-642.697	-200.000	-0.029	0.140
-641.682	213.729	-0.052	-0.084
-640.668	-174.065	-0.300	-0.009
-639.653	-74.957	0.159	0.058
-638.638	-26.968	-0.256	0.152
-637.624	-113.199	-0.081	-0.016
-636.609	-104.901	-0.258	0.060
-635.595	800.000	0.012	0.036
-634.580	182.733	-0.099	-0.149
-633.565	-98.130	0.403	0.105
-632.551	800.000	0.020	0.076
-631.536	800.000	0.031	-0.102
-630.522	-200.000	-0.024	0.247
-629.507	-23.863	-0.167	-0.102
-628.492	166.386	-0.187	0.269
-627.478	573.632	-0.067	-0.165
-626.463	62.179	0.174	-0.177
-625.449	-51.860	0.174	-0.082
-624.434	800.000	0.013	0.050
-623.419	186.960	-0.039	0.059
-622.405	138.288	-0.167	0.222
-621.390	-104.850	-0.341	-0.080
-620.376	-200.000	0.013	0.124
-619.361	-51.089	0.188	-0.090
-618.346	-24.488	-0.014	0.009
-617.332	800.000	-0.088	-0.335
-616.317	557.535	-0.133	-0.327
-615.303	138.261	0.029	-0.039
-614.288	-200.000	0.053	-0.463
-613.273	158.545	-0.175	-0.247
-612.259	203.415	0.093	-0.146
-611.244	-19.911	0.133	0.084
-610.230	-120.013	0.147	-0.026
-609.215	309.276	-0.177	0.336
-608.201	359.224	-0.051	0.105
-607.186	-7.949	0.151	0.104
-606.171	-200.000	-0.004	-0.119
-605.157	-115.515	0.309	0.059
-604.142	-175.895	0.091	0.002
-603.128	-105.780	0.236	-0.054
-602.113	49.201	0.094	-0.090
-601.098	-160.754	-0.352	-0.019
-600.084	-62.317	-0.187	0.079
-599.069	-57.785	-0.314	-0.140
-598.055	-65.762	0.276	-0.112
-597.040	-25.382	-0.227	-0.136
-596.025	-132.301	0.078	0.010
-595.011	398.178	-0.127	-0.270
-593.996	-134.993	0.318	-0.039
-592.982	87.415	-0.156	-0.175
-591.967	294.219	0.099	0.184
-590.952	300.955	0.087	0.163
-589.938	-142.015	-0.259	0.026
-588.923	-33.022	0.185	-0.104
-587.909	-36.211	-0.225	-0.124
-586.894	89.731	-0.203	0.230
-585.879	-11.728	0.113	0.075
-584.865	12.222	0.112	-0.087
-583.850	574.508	0.070	0.173
-582.836	-102.158	-0.305	0.075
-581.821	800.000	-0.139	-0.397
-580.806	241.864	-0.124	-0.210
-579.792	57.760	0.186	-0.184
-578.777	-158.860	-0.254	0.015
-577.763	-54.036	-0.056	-0.026
-576.748	393.738	-0.144	-0.305
-575.733	141.529	0.249	0.335
-574.719	144.550	-0.021	-0.028
-573.704	-142.714	-0.591	0.059
-572.690	77.481	-0.113	-0.122
-571.675	-104.048	-0.513	0.121
-570.661	53.107	-0.029	0.028
-569.646	-98.385	0.209	-0.054
-568.631	427.027	-0.151	-0.330
-567.617	339.899	-0.107	0.212
-566.602	271.408	0.042	0.076
-565.588	-125.226	0.191	-0.030
-564.573	224.959	0.123	-0.202
-563.558	206.181	-0.109	-0.171
-562.544	-48.260	-0.125	-0.061
-561.529	-32.604	-0.149	-0.084
-560.515	-200.000	0.044	0.259
-559.500	609.858	0.042	-0.107
-558.485	111.667	-0.263	0.322
-557.471	-200.000	0.057	-0.380
-556.456	-44.587	0.323	0.164
-555.442	800.000	-0.056	-0.218
-554.427	-147.701	-0.172	-0.015
-553.412	-139.497	0.536	-0.058
-552.398	513.482	-0.090	0.212
-551.383	168.922	0.118	0.170
-550.369	-102.326	-0.278	-0.068
-549.354	17.381	0.122	0.098
-548.339	-115.281	-0.207	-0.040
-547.325	519.779	-0.059	-0.139
-546.310	-151.889	-0.148	0.011
-545.296	800.000	0.129	-0.521
-544.281	110.312	0.108	-0.132
-543.266	308.691	0.201	0.380
-542.252	17.558	-0.112	0.090
-541.237	662.396	0.115	0.302
-540.223	426.031	0.077	-0.169
-539.208	800.000	-0.039	-0.119
-538.193	800.000	0.150	-0.446
-537.179	82.062	-0.084	-0.093
-536.164	-185.314	0.361	0.006
-535.150	-10.215	-0.116	0.078
-534.135	170.208	0.215	0.312
-533.121	67.278	-0.322	0.332
-532.106	715.065	0.067	-0.179
-531.091	488.158	0.120	-0.278
-530.077	45.967	-0.107	-0.100
-529.062	38.620	-0.199	0.180
-528.048	-48.467	-0.101	0.049
-527.033	-96.767	0.126	0.034
-526.018	-95.596	0.152	0.041
-525.004	-5.040	0.135	-0.094
-523.989	185.813	0.024	0.036
-522.975	104.314	0.067	0.080
-521.960	-200.000	0.021	-0.206
-520.945	-180.468	-0.193	-0.004
-519.931	800.000	0.058	-0.221
-518.916	-128.078	0.223	0.032
-517.902	-155.655	-0.116	-0.008
-516.887	-120.281	-0.286	0.049
-515.872	-93.511	0.094	-0.026
-514.858	-200.000	0.020	-0.251
-513.843	163.176	-0.146	0.207
-512.829	42.792	-0.048	-0.044
-511.814	-96.491	0.122	-0.033
-510.799	178.898	0.042	0.062
-509.785	-200.000	-0.009	-0.183
-508.770	192.062	-0.120	-0.184
-507.756	-14.135	-0.129	0.084
-506.741	714.753	-0.093	0.250
-505.726	107.669	-0.012	-0.014
-504.712	276.427	-0.008	-0.015
-503.697	-119.422	0.267	-0.047
-502.683	-23.461	-0.225	0.137
-501.668	-148.132	0.085	0.007
-500.653	133.834	0.160	0.210
-499.639	-200.000	0.004	0.264
-498.624	523.890	-0.105	0.249
-497.610	-149.889	-0.258	-0.020
-496.595	-200.000	0.038	-0.261
-495.581	-200.000	0.013	-0.120
-494.566	-44.579	-0.272	-0.137
-493.551	-17.835	0.071	0.045
-492.537	-102.976	-0.317	0.076
-491.522	110.428	0.092	0.112
-490.508	98.474	0.051	0.059
-489.493	-200.000	0.005	0.126
-488.478	386.394	0.037	0.077
-487.464	800.000	0.040	0.131
-486.449	146.550	0.157	-0.214
-485.435	-200.000	0.017	0.285
-484.420	-141.099	0.144	-0.015
-483.405	33.572	-0.065	-0.057
-482.391	131.646	-0.186	-0.242
-481.376	148.477	-0.109	-0.149
-480.362	800.000	0.029	0.107
-479.347	55.850	0.111	0.109
-478.332	-200.000	0.040	-0.204
-477.318	-100.929	-0.153	0.038
-476.303	-110.536	0.065	-0.014
-475.289	150.470	0.056	-0.077
-474.274	-185.393	0.032	-0.000
-473.259	800.000	0.108	0.328
-472.245	-141.269	0.084	-0.009
-471.230	730.479	-0.118	-0.319
-470.216	800.000	0.066	-0.189
-469.201	-80.719	-0.150	0.051
-468.186	-56.127	0.051	-0.023
-467.172	-89.988	0.322	-0.095
-466.157	-123.491	-0.213	0.034
-465.143	364.427	0.075	0.153
-464.128	-136.055	0.353	0.042
-463.113	-200.000	0.059	0.287
-462.099	-150.232	0.113	-0.009
-461.084	551.707	-0.103	0.250
-460.070	-45.271	-0.166	0.083
-459.055	-75.697	0.386	0.139
-458.040	110.597	-0.190	-0.230
-457.026	800.000	0.082	-0.313
-456.011	800.000	-0.073	-0.245
-454.997	-167.281	0.215	0.009
-453.982	-157.327	-0.202	-0.012
-452.968	-25.637	0.152	0.091
-451.953	800.000	0.121	0.365
-450.938	122.919	0.041	0.051
-449.924	66.609	0.118	0.121
-448.909	126.444	-0.057	-0.072
-447.895	-37.159	-0.174	-0.094
-446.880	139.051	0.080	0.106
-445.865	-200.000	-0.127	-0.671
-444.851	37.271	0.204	-0.182
-443.836	800.000	-0.115	0.322
-442.822	617.210	0.107	-0.270
-441.807	-139.983	0.551	0.059
-440.792	226.094	-0.104	0.171
-439.778	-99.321	0.325	0.083
-438.763	800.000	-0.052	0.210
-437.749	-36.274	-0.163	-0.089
-436.734	369.071	-0.075	0.153
-435.719	-200.000	-0.035	-0.449
-434.705	-200.000	0.016	0.286
-433.690	-161.758	-0.086	0.004
-432.676	154.682	0.227	-0.314
-431.661	-83.157	0.045	-0.015
-430.646	-200.000	-0.013	-0.160
-429.632	17.931	-0.249	-0.200
-428.617	-104.383	-0.219	-0.051
-427.603	-43.926	0.183	-0.093
-426.588	-73.310	-0.142	-0.052
-425.573	-200.000	-0.019	-0.142
-424.559	227.404	-0.247	0.406
-423.544	-200.000	0.001	-0.080
-422.530	800.000	0.079	-0.299
-421.515	-76.387	-0.149	-0.053
-420.500	87.107	0.205	0.229
-419.486	-145.748	0.429	-0.039
-418.471	187.068	0.084	-0.126
-417.457	-150.186	-0.240	-0.019
-416.442	-200.000	-0.008	-0.041
-415.428	-200.000	0.035	-0.217
-414.413	-200.000	0.001	-0.282
-413.398	120.916	0.170	-0.214
-412.384	178.439	0.205	0.301
-411.369	-200.000	0.062	-0.362
-410.355	178.318	-0.199	0.294
-409.340	40.103	-0.126	0.115
-408.325	-24.202	0.354	0.213
-407.311	-200.000	0.028	0.142
-406.296	-115.442	0.142	-0.027
-405.282	800.000	-0.070	0.216
-404.267	-200.000	-0.030	-0.136
-403.252	-93.933	-0.219	0.061
-402.238	800.000	-0.054	0.205
-401.223	523.525	-0.093	0.222
-400.209	-62.911	-0.230	-0.096
-399.194	-145.222	0.180	0.016
-398.179	295.854	0.037	-0.068
-397.165	800.000	0.044	0.191
-396.150	-160.307	0.123	0.007
-395.136	-133.826	0.252	-0.032
-394.121	-27.634	-0.315	-0.184
-393.106	10.941	-0.177	0.136
-392.092	730.383	-0.078	-0.211
-391.077	126.503	0.153	-0.195
-390.063	-200.000	-0.040	-0.227
-389.048	348.938	-0.042	-0.084
-388.033	2.509	0.279	0.203
-387.019	-152.087	0.211	-0.015
-386.004	-91.369	-0.536	-0.154
-384.990	-127.892	-0.237	-0.034
-383.975	-106.928	-0.121	-0.027
-382.960	243.799	0.117	-0.198
-381.946	800.000	0.119	-0.361
-380.931	19.061	0.253	-0.204
-379.917	-86.781	0.071	0.022
-378.902	-110.254	-0.046	0.010
-377.888	144.876	0.245	-0.330
-376.873	70.608	-0.283	0.295
-375.858	-144.874	-0.122	0.011
-374.844	-33.982	-0.146	0.081
-373.829	800.000	-0.074	-0.319
-372.815	83.057	0.129	-0.142
-371.800	-13.155	-0.143	-0.094
-370.785	351.248	0.051	-0.101
-369.771	-200.000	-0.012	0.209
-368.756	800.000	0.056	-0.169
-367.742	241.941	-0.206	-0.347
-366.727	-22.283	0.247	0.151
-365.712	-11.893	0.141	-0.093
-364.698	155.865	0.162	-0.225
-363.683	64.832	0.160	-0.163
-362.669	255.892	-0.131	0.227
-361.654	-158.622	0.563	0.033
-360.639	-200.000	-0.061	-0.383
-359.625	-200.000	0.017	-0.222
-358.610	161.926	-0.053	0.075
-357.596	800.000	0.012	0.038
-356.581	-200.000	-0.029	-0.262
-355.566	90.451	-0.088	0.100
-354.552	59.761	0.160	0.159
-353.537	205.556	-0.100	0.156
-352.523	-200.000	-0.082	-0.488
-351.508	-89.765	-0.398	-0.117
-350.493	-200.000	0.003	0.162
-349.479	154.690	0.203	0.281
-348.464	-149.059	0.169	-0.014
-347.450	-69.743	-0.221	-0.085
-346.435	-51.324	-0.119	0.056
-345.420	-136.150	0.338	-0.040
-344.406	-200.000	0.028	0.212
-343.391	-200.000	-0.011	0.229
-342.377	-200.000	0.037	-0.180
-341.362	10.450	0.340	0.261
-340.348	53.756	-0.083	-0.080
-339.333	800.000	0.073	0.283
-338.318	242.411	-0.032	-0.054
-337.304	186.199	0.066	-0.100
-336.289	219.340	-0.192	-0.308
-335.275	-200.000	0.019	0.329
-334.260	319.745	0.084	0.160
-333.245	-101.852	0.133	0.032
-332.231	176.908	-0.181	-0.264
-331.216	-57.049	-0.095	-0.042
-330.202	232.167	-0.100	0.166
-329.187	511.217	-0.083	0.195
-328.172	55.558	0.310	0.302
-327.158	800.000	0.047	0.184
-326.143	109.529	0.108	0.130
-325.129	-169.069	0.198	0.007
-324.114	51.741	-0.012	0.012
-323.099	10.439	0.189	-0.145
-322.085	437.072	-0.116	0.253
-321.070	55.037	-0.095	0.092
-320.056	800.000	0.125	0.390
-319.041	-15.079	-0.216	-0.139
-318.026	645.910	-0.179	0.460
-317.012	48.378	-0.132	0.124
-315.997	-83.858	0.243	-0.078
-314.983	396.712	0.091	0.192
-313.968	800.000	0.068	-0.191
-312.953	800.000	-0.027	-0.086
-311.939	800.000	0.015	0.049
-310.924	-73.661	-0.035	-0.013
-309.910	135.939	-0.109	0.143
-308.895	-31.299	-0.180	0.102
-307.880	800.000	0.042	-0.164
-306.866	646.148	-0.116	-0.297
-305.851	-44.681	-0.188	0.094
-304.837	-131.706	-0.204	-0.027
-303.822	348.089	-0.046	-0.091
-302.807	800.000	0.104	-0.293
-301.793	-100.610	0.105	-0.026
-300.778	-27.214	0.277	-0.162
-299.764	-200.000	-0.016	0.341
-298.749	-146.456	-0.196	0.017
-297.735	740.277	-0.063	0.169
-296.720	117.596	-0.094	0.116
-295.705	-108.359	-0.234	0.051
-294.691	-84.904	0.252	0.079
-293.676	-35.732	0.223	0.121
-292.662	-87.287	-0.383	0.117
-291.647	647.599	-0.036	0.092
-290.632	-136.857	0.270	-0.031
-289.618	-93.006	0.060	-0.017
-288.603	102.067	0.200	-0.235
-287.589	22.620	0.182	0.150
-286.574	168.059	-0.088	-0.126
-285.559	217.150	0.128	-0.205
-284.545	-69.391	-0.266	0.102
-283.530	133.401	-0.060	0.077
-282.516	-200.000	0.027	0.196
-281.501	-87.409	0.114	0.035
-280.486	800.000	-0.040	0.159
-279.472	118.386	0.079	0.098
-278.457	-59.524	-0.250	0.108
-277.443	259.731	0.046	-0.079
-276.428	-18.280	-0.169	-0.106
-275.413	49.001	-0.031	-0.029
-274.399	234.083	-0.098	-0.161
-273.384	800.000	0.030	0.112
-272.370	-124.571	-0.192	0.030
-271.355	-57.382	0.160	0.070
-270.340	162.253	0.138	0.194
-269.326	-200.000	-0.015	-0.217
-268.311	-51.073	0.407	-0.191
-267.297	-20.632	0.227	-0.140
-266.282	11.871	0.210	0.162
-265.267	-35.109	-0.174	-0.095
-264.253	45.734	-0.233	0.216
-263.238	129.865	0.242	0.311
-262.224	-200.000	-0.015	0.162
-261.209	-200.000	0.011	0.240
-260.195	-28.517	-0.199	0.115
-259.180	-115.705	-0.202	0.038
-258.165	78.103	0.069	-0.074
-257.151	-99.985	0.338	0.085
-256.136	216.298	0.159	0.254
-255.122	747.079	0.162	0.437
-254.107	149.382	-0.220	0.299
-253.092	66.835	0.219	-0.224
-252.078	-76.999	-0.146	-0.051
-251.063	117.629	0.052	-0.064
-250.049	-200.000	-0.036	0.269
-249.034	417.217	0.117	0.251
-248.019	149.750	-0.015	-0.020
-247.005	319.360	-0.049	0.093
-245.990	800.000	0.087	-0.295
-244.976	170.061	-0.094	0.135
-243.961	-3.313	-0.270	0.188
-242.946	-64.645	-0.171	-0.069
-241.932	-200.000	0.080	0.375
-240.917	-200.000	-0.006	0.128
-239.903	-63.096	0.247	0.102
-238.888	-107.463	0.173	0.038
-237.873	800.000	-0.122	0.344
-236.859	485.333	-0.023	0.052
-235.844	-188.167	0.290	-0.004
-234.830	-200.000	0.009	0.362
-233.815	48.317	0.222	0.208
-232.800	508.951	0.168	0.391
-231.786	-200.000	0.008	0.194
-230.771	61.604	0.235	0.234
-229.757	-41.231	-0.207	-0.107
-228.742	-153.498	-0.170	-0.012
-227.727	-175.369	-0.221	-0.006
-226.713	-44.914	0.228	-0.114
-225.698	-200.000	0.013	-0.075
-224.684	-200.000	0.017	0.147
-223.669	800.000	-0.073	-0.232
-222.655	-60.664	-0.477	-0.202
-221.640	134.123	0.096	0.124
-220.625	43.845	0.167	-0.153
-219.611	-131.566	0.076	-0.010
-218.596	134.419	-0.182	-0.237
-217.582	14.624	-0.092	0.072
-216.567	-117.917	0.253	0.045
-215.552	-200.000	0.256	-0.001
-214.538	800.000	-0.063	0.199
-213.523	15.029	-0.146	0.114
-212.509	-2.934	-0.088	-0.061
-211.494	-200.000	0.015	-0.149
-210.479	-200.000	-0.039	0.330
-209.465	-56.175	0.214	0.095
-208.450	120.346	-0.212	0.263
-207.436	774.144	0.089	0.242
-206.421	135.538	-0.035	0.045
-205.406	117.981	-0.184	-0.226
-204.392	-106.317	-0.288	-0.064
-203.377	-146.254	0.231	-0.020
-202.363	800.000	0.101	-0.348
-201.348	-149.378	-0.151	0.012
-200.333	-200.000	-0.022	-0.170
-199.319	-64.255	-0.112	-0.046
-198.304	-93.379	-0.194	0.054
-197.290	-39.084	0.169	-0.089
-196.275	-200.000	0.037	0.239
-195.260	-200.000	0.018	-0.179
-194.246	-124.057	0.474	0.075
-193.231	108.013	-0.119	0.142
-192.217	800.000	0.090	-0.354
-191.202	266.285	0.072	0.127
-190.187	800.000	0.076	-0.256
-189.173	-94.940	0.172	0.047
-188.158	-200.000	0.014	-0.173
-187.144	-200.000	-0.007	-0.420
-186.129	800.000	-0.133	-0.480
-185.114	321.426	-0.088	-0.167
-184.100	800.000	0.073	-0.241
-183.085	-84.581	0.286	-0.090
-182.071	210.481	-0.146	0.228
-181.056	496.090	0.140	0.322
-180.042	279.108	-0.142	0.253
-179.027	95.265	-0.101	-0.115
-178.012	-169.928	0.177	0.006
-176.998	-118.520	-0.203	-0.036
-175.983	-35.353	-0.019	-0.011
-174.969	-29.421	0.044	0.025
-173.954	-60.186	0.145	-0.062
-172.939	-200.000	0.002	-0.172
-171.925	-68.739	-0.160	0.062
-170.910	-200.000	-0.004	0.038
-169.896	186.453	-0.047	-0.071
-168.881	195.857	0.129	-0.196
-167.866	800.000	-0.006	-0.020
-166.852	211.725	0.211	-0.332
-165.837	-65.820	0.286	-0.114
-164.823	-166.290	0.088	-0.004
-163.808	-63.289	-0.028	0.012
-162.793	-102.883	-0.096	0.023
-161.779	173.257	-0.107	-0.154
-160.764	35.943	-0.256	-0.225
-159.750	800.000	-0.033	-0.139
-158.735	-200.000	0.003	-0.047
-157.720	800.000	0.040	-0.120
-156.706	-166.247	-0.133	-0.006
-155.691	121.321	0.134	0.167
-154.677	-115.632	-0.201	-0.038
-153.662	-57.250	-0.089	-0.039
-152.647	37.338	-0.087	0.077
-151.633	471.154	-0.127	0.284
-150.618	368.928	-0.139	0.281
-149.604	-122.946	0.067	-0.011
-148.589	-62.689	-0.444	-0.184
-147.574	159.311	0.134	-0.187
-146.560	24.653	-0.201	0.166
-145.545	-200.000	-0.047	-0.261
-144.531	-53.359	-0.202	-0.092
-143.516	-158.005	0.042	0.002
-142.502	-103.356	0.059	0.014
-141.487	-158.088	-0.150	-0.009
-140.472	-200.000	-0.013	0.326
-139.458	-200.000	-0.066	0.312
-138.443	-200.000	-0.016	-0.154
-137.429	-100.592	0.151	0.037
-136.414	21.271	0.199	-0.161
-135.399	-26.077	0.288	0.169
-134.385	-200.000	0.013	-0.432
-133.370	800.000	-0.048	0.181
-132.356	-200.000	-0.005	0.175
-131.341	0.547	-0.244	-0.174
-130.326	-159.241	-0.280	-0.016
-129.312	-200.000	-0.000	0.181
-128.297	0.214	0.019	-0.013
-127.283	-136.765	-0.116	0.013
-126.268	-200.000	0.063	-0.415
-125.253	160.862	0.110	-0.153
-124.239	-200.000	-0.067	-0.408
-123.224	-9.518	-0.095	0.063
