DTS Sentinel unit serial number:	SN413079Multiplexer serial number:	ORYXHardware model number:	OX4-SRSoftware version number:	ORYX F/W v4.00 Oryx Data Collector v3.7.2.0data status	okinstallation	princeton_trtdifferential loss correction	single-endedforward channel	channel 3reverse channel	N/Adate	2019/09/15time	17:32:35forward acquisition time	60.00reverse acquisition time	0.00gamma	496.2192k internal	0.2286k external	0.2286temperature offset calibration	0.9931default loss term (dB/km)	0.3790temperature slope calibration	1.0000multiplexer offset coefficient	1.0000multiplexer slope coefficient	1.0000fibre end	0.00T internal ref (°C)	44.83T ext. ref 1 (°C)	6.18T ext. ref 2 (°C)	40.44length (m)	temperature (°C)	Stokes	anti-Stokes-747.200	41.490	-0.033	-0.031
-746.185	-200.000	0.052	0.327
-745.171	-149.922	-0.153	-0.012
-744.156	800.000	-0.127	0.487
-743.142	-200.000	0.018	0.200
-742.127	103.859	0.074	-0.089
-741.112	65.773	0.160	-0.166
-740.098	-4.191	0.323	0.229
-739.083	-169.537	-0.335	-0.013
-738.069	111.706	-0.164	0.204
-737.054	14.956	-0.251	-0.201
-736.039	240.504	-0.085	0.146
-735.025	-80.937	-0.171	0.058
-734.010	425.020	0.198	0.437
-732.996	-200.000	-0.004	0.188
-731.981	-85.601	-0.351	-0.112
-730.966	800.000	-0.063	-0.190
-729.952	-84.699	-0.111	-0.036
-728.937	4.756	0.163	-0.123
-727.923	-139.623	-0.151	0.016
-726.908	-105.347	0.223	-0.052
-725.894	-200.000	0.006	-0.080
-724.879	-68.917	-0.180	0.071
-723.864	52.621	-0.100	-0.098
-722.850	-68.781	-0.162	-0.064
-721.835	-200.000	0.027	0.337
-720.821	313.550	-0.046	-0.088
-719.806	467.854	0.137	-0.315
-718.791	800.000	-0.082	-0.290
-717.777	-200.000	-0.520	-0.001
-716.762	5.398	-0.159	-0.120
-715.748	239.561	0.143	-0.245
-714.733	63.329	-0.165	-0.170
-713.718	61.623	-0.051	0.052
-712.704	29.125	-0.191	-0.166
-711.689	98.541	0.066	0.078
-710.675	-38.281	-0.261	-0.142
-709.660	-200.000	-0.018	-0.166
-708.645	-200.000	-0.000	-0.184
-707.631	665.576	0.069	0.182
-706.616	-200.000	-0.015	0.248
-705.602	235.626	0.191	0.324
-704.587	-200.000	0.047	-0.370
-703.572	-127.489	-0.267	0.040
-702.558	35.455	-0.109	0.098
-701.543	208.162	-0.078	0.124
-700.529	-6.162	0.272	0.190
-699.514	-8.686	0.197	0.136
-698.499	-39.351	-0.203	0.109
-697.485	741.596	0.041	0.113
-696.470	800.000	0.079	0.344
-695.456	-37.621	-0.159	-0.087
-694.441	-159.295	0.097	0.006
-693.426	-200.000	0.001	-0.122
-692.412	-200.000	0.004	-0.309
-691.397	800.000	0.022	-0.077
-690.383	275.292	0.055	0.100
-689.368	-47.217	0.117	-0.059
-688.354	11.801	-0.081	-0.064
-687.339	154.558	-0.144	-0.202
-686.324	-75.531	-0.224	0.082
-685.310	409.356	0.164	0.356
-684.295	800.000	-0.055	0.184
-683.281	45.655	0.095	-0.090
-682.266	800.000	0.025	-0.091
-681.251	-52.208	0.160	-0.076
-680.237	-94.078	0.082	0.023
-679.222	800.000	0.047	-0.151
-678.208	-200.000	-0.092	-0.415
-677.193	-84.428	0.306	0.099
-676.178	800.000	0.028	0.109
-675.164	800.000	0.082	0.302
-674.149	-43.538	-0.200	0.103
-673.135	-200.000	-0.023	-0.276
-672.120	-200.000	0.020	-0.118
-671.105	3.331	0.132	-0.099
-670.091	358.032	0.173	0.353
-669.076	2.624	-0.009	-0.007
-668.062	647.792	-0.144	-0.377
-667.047	-119.405	-0.139	0.025
-666.032	543.100	-0.091	-0.223
-665.018	-200.000	-0.008	-0.348
-664.003	112.633	-0.150	-0.186
-662.989	800.000	0.042	-0.157
-661.974	207.881	-0.255	-0.407
-660.959	96.105	-0.186	0.218
-659.945	68.941	-0.193	-0.203
-658.930	-200.000	-0.005	-0.072
-657.916	-182.333	0.328	0.006
-656.901	-200.000	0.002	0.018
-655.886	-102.420	-0.209	0.051
-654.872	256.757	0.087	-0.154
-653.857	-9.816	-0.273	-0.186
-652.843	-97.078	0.201	-0.054
-651.828	-13.749	-0.144	-0.095
-650.814	-96.468	0.167	0.045
-649.799	603.577	0.038	0.096
-648.784	28.335	0.163	-0.141
-647.770	441.109	0.025	-0.055
-646.755	-133.337	-0.320	0.041
-645.741	-122.323	0.170	0.028
-644.726	122.927	-0.144	-0.184
-643.711	-200.000	0.002	0.141
-642.697	-81.763	-0.433	-0.145
-641.682	-133.520	-0.223	-0.029
-640.668	800.000	0.090	-0.389
-639.653	236.549	-0.247	-0.418
-638.638	-14.775	-0.059	-0.039
-637.624	-50.815	0.130	-0.063
-636.609	-82.657	0.127	-0.042
-635.595	-66.148	-0.437	-0.178
-634.580	-47.454	0.248	-0.123
-633.565	-65.369	-0.332	0.136
-632.551	584.667	0.096	-0.241
-631.536	542.507	-0.060	-0.147
-630.522	-158.723	0.208	-0.012
-629.507	-21.242	0.219	-0.137
-628.492	-15.033	-0.120	-0.079
-627.478	381.507	0.136	-0.284
-626.463	-43.241	-0.140	-0.072
-625.449	-122.665	0.095	0.016
-624.434	-127.692	-0.333	-0.049
-623.419	-92.376	-0.230	0.066
-622.405	-173.845	-0.125	-0.004
-621.390	-200.000	-0.006	-0.058
-620.376	221.359	-0.131	-0.214
-619.361	-39.740	0.179	-0.096
-618.346	-200.000	0.022	-0.203
-617.332	800.000	-0.053	-0.161
-616.317	-178.708	-0.149	0.003
-615.303	103.821	0.269	-0.322
-614.288	-200.000	0.015	-0.231
-613.273	-83.730	-0.241	-0.078
-612.259	800.000	0.091	-0.298
-611.244	72.898	0.086	0.091
-610.230	-200.000	-0.017	0.118
-609.215	-200.000	0.053	0.276
-608.201	378.638	-0.141	0.294
-607.186	-125.211	-0.118	-0.018
-606.171	800.000	0.042	-0.141
-605.157	117.112	0.074	0.093
-604.142	20.955	-0.216	0.179
-603.128	38.125	0.189	-0.172
-602.113	-16.027	0.125	0.081
-601.098	476.251	0.111	0.255
-600.084	-200.000	-0.022	0.157
-599.069	-56.162	-0.250	-0.114
-598.055	116.302	0.207	0.259
-597.040	126.151	-0.039	-0.050
-596.025	-200.000	-0.033	0.244
-595.011	60.032	-0.136	-0.137
-593.996	77.578	-0.179	-0.195
-592.982	474.216	0.087	0.201
-591.967	800.000	0.060	0.250
-590.952	800.000	-0.065	0.226
-589.938	-47.966	-0.167	0.082
-588.923	-149.408	0.051	-0.004
-587.909	-200.000	-0.071	-0.387
-586.894	-164.627	0.342	-0.016
-585.879	0.790	-0.087	-0.064
-584.865	-173.656	-0.253	-0.008
-583.850	146.586	0.229	0.314
-582.836	-101.936	-0.324	0.080
-581.821	244.712	-0.089	-0.152
-580.806	-200.000	-0.038	-0.298
-579.792	-38.254	-0.065	-0.035
-578.777	-130.953	-0.334	0.046
-577.763	800.000	0.116	0.398
-576.748	22.704	-0.034	-0.029
-575.733	157.766	0.087	-0.123
-574.719	92.700	0.122	0.140
-573.704	173.615	-0.046	0.068
-572.690	800.000	-0.032	-0.096
-571.675	180.965	-0.103	-0.154
-570.661	356.237	0.020	0.040
-569.646	-148.063	-0.160	-0.014
-568.631	379.480	-0.141	0.295
-567.617	5.740	0.247	0.187
-566.602	66.135	0.158	0.163
-565.588	-200.000	0.029	-0.159
-564.573	-115.994	0.181	-0.034
-563.558	-28.325	0.074	0.043
-562.544	-26.925	-0.273	0.162
-561.529	800.000	0.017	0.056
-560.515	205.961	0.012	0.019
-559.500	-157.618	0.537	0.033
-558.485	500.403	-0.102	-0.240
-557.471	800.000	-0.149	0.482
-556.456	333.387	-0.118	0.233
-555.442	82.973	0.241	-0.267
-554.427	69.423	0.019	0.020
-553.412	1.547	-0.246	0.180
-552.398	-200.000	0.067	0.439
-551.383	-54.175	-0.115	0.053
-550.369	-200.000	0.030	-0.254
-549.354	-200.000	-0.062	-0.278
-548.339	395.819	0.029	-0.061
-547.325	395.304	-0.033	-0.070
-546.310	-126.931	0.124	0.019
-545.296	800.000	0.050	-0.172
-544.281	-0.482	0.256	0.185
-543.266	-14.013	-0.177	0.116
-542.252	641.635	-0.058	0.151
-541.237	415.541	-0.043	0.093
-540.223	-159.417	-0.357	-0.020
-539.208	-200.000	0.002	-0.083
-538.193	-200.000	-0.004	-0.185
-537.179	-120.938	0.278	-0.048
-536.164	97.856	0.178	0.209
-535.150	-32.775	-0.080	0.045
-534.135	-27.461	0.197	0.117
-533.121	-113.384	0.199	0.040
-532.106	-200.000	0.025	-0.309
-531.091	-200.000	0.031	-0.290
-530.077	106.483	-0.224	-0.270
-529.062	699.266	0.093	0.248
-528.048	-16.144	0.036	-0.024
-527.033	107.441	0.131	0.158
-526.018	-200.000	-0.031	0.386
-525.004	46.036	-0.133	0.126
-523.989	42.664	-0.160	0.148
-522.975	77.485	-0.080	0.087
-521.960	68.489	-0.229	-0.239
-520.945	-32.349	-0.128	-0.073
-519.931	-200.000	0.010	-0.266
-518.916	-103.936	-0.174	-0.041
-517.902	655.137	0.064	-0.166
-516.887	-200.000	0.011	-0.307
-515.872	-200.000	-0.031	-0.260
-514.858	64.291	0.230	-0.235
-513.843	-95.933	0.177	0.048
-512.829	-143.685	-0.164	-0.016
-511.814	-141.778	-0.217	-0.022
-510.799	162.178	-0.008	0.011
-509.785	-185.171	0.193	0.003
-508.770	590.877	0.075	0.188
-507.756	-195.612	-0.302	0.002
-506.741	-200.000	-0.023	0.314
-505.726	389.843	0.034	0.071
-504.712	-161.386	0.126	0.007
-503.697	-88.260	0.056	-0.017
-502.683	413.132	0.030	-0.066
-501.668	-160.167	0.192	-0.011
-500.653	59.390	-0.281	-0.281
-499.639	-106.246	0.157	-0.036
-498.624	-35.464	0.130	0.072
-497.610	-42.109	-0.096	0.050
-496.595	-54.021	-0.220	-0.102
-495.581	52.914	-0.184	-0.179
-494.566	-90.586	0.156	-0.046
-493.551	-200.000	0.005	-0.121
-492.537	-130.365	0.060	-0.008
-491.522	-40.556	0.191	0.100
-490.508	-128.278	-0.172	0.025
-489.493	-101.985	-0.257	0.063
-488.478	702.920	0.029	0.078
-487.464	-76.467	-0.220	-0.079
-486.449	138.049	-0.185	-0.246
-485.435	530.704	0.061	0.146
-484.420	800.000	0.072	0.243
-483.405	-200.000	0.056	0.291
-482.391	-200.000	0.020	0.110
-481.376	-65.019	-0.115	0.047
-480.362	-37.073	-0.248	0.135
-479.347	54.162	0.270	-0.264
-478.332	-200.000	-0.008	-0.260
-477.318	690.223	-0.100	0.265
-476.303	-55.628	-0.047	-0.021
-475.289	800.000	0.045	-0.133
-474.274	-70.185	-0.052	-0.020
-473.259	-92.889	-0.255	-0.072
-472.245	109.050	-0.086	0.105
-471.230	-61.639	-0.197	-0.084
-470.216	-86.284	-0.297	0.093
-469.201	800.000	0.087	0.310
-468.186	-77.088	-0.061	-0.022
-467.172	5.669	0.082	0.061
-466.157	114.227	0.179	-0.221
-465.143	-48.128	0.176	-0.086
-464.128	255.485	0.146	-0.254
-463.113	-69.956	0.203	-0.079
-462.099	-175.710	0.315	0.009
-461.084	-81.948	-0.226	-0.075
-460.070	-200.000	0.002	0.314
-459.055	800.000	0.077	-0.262
-458.040	-200.000	0.021	0.239
-457.026	-97.212	0.379	-0.100
-456.011	574.425	0.149	0.369
-454.997	254.858	0.032	0.056
-453.982	-88.005	-0.352	0.107
-452.968	768.406	-0.132	-0.364
-451.953	-200.000	-0.005	-0.093
-450.938	446.188	0.134	-0.299
-449.924	800.000	-0.109	-0.335
-448.909	-174.339	-0.380	0.011
-447.895	-144.272	0.374	0.035
-446.880	-125.193	0.077	-0.012
-445.865	396.241	-0.050	0.106
-444.851	800.000	-0.062	-0.225
-443.836	116.440	-0.286	0.355
-442.822	0.530	0.207	0.150
-441.807	335.796	0.097	-0.191
-440.792	-102.448	0.176	-0.043
-439.778	-152.907	0.275	-0.020
-438.763	-200.000	0.003	0.033
-437.749	800.000	0.105	-0.419
-436.734	-200.000	0.007	-0.054
-435.719	-2.397	0.074	0.052
-434.705	-200.000	-0.017	0.186
-433.690	-200.000	0.027	0.295
-432.676	-200.000	-0.006	-0.179
-431.661	-130.498	-0.336	-0.046
-430.646	3.535	0.044	0.033
-429.632	-200.000	0.029	-0.153
-428.617	29.845	0.063	0.055
-427.603	-48.209	-0.286	0.140
-426.588	14.149	-0.209	-0.165
-425.573	-33.005	0.135	0.076
-424.559	268.349	0.217	-0.385
-423.544	-81.602	0.142	-0.047
-422.530	-200.000	-0.113	-0.513
-421.515	255.874	-0.087	-0.151
-420.500	200.557	-0.017	-0.026
-419.486	505.603	0.052	-0.121
-418.471	-68.178	-0.383	0.151
-417.457	738.878	0.046	-0.125
-416.442	-25.059	0.202	-0.122
-415.428	-200.000	-0.085	0.393
-414.413	306.280	0.066	-0.125
-413.398	-57.521	0.217	-0.097
-412.384	-101.375	0.455	0.112
-411.369	-94.058	0.087	0.024
-410.355	-195.373	-0.208	0.002
-409.340	-33.443	0.276	-0.155
-408.325	359.876	0.042	0.085
-407.311	-144.773	0.093	0.009
-406.296	270.672	-0.098	-0.175
-405.282	-41.315	0.157	-0.082
-404.267	41.627	-0.214	-0.197
-403.252	-65.170	0.250	0.102
-402.238	-6.892	0.035	-0.024
-401.223	-142.694	-0.350	-0.035
-400.209	372.842	-0.125	0.257
-399.194	398.866	-0.117	-0.247
-398.179	-200.000	-0.035	0.212
-397.165	528.845	-0.066	-0.158
-396.150	33.756	0.052	0.046
-395.136	-200.000	0.021	0.105
-394.121	-104.623	0.103	-0.024
-393.106	92.140	-0.075	-0.085
-392.092	446.750	-0.063	0.141
-391.077	-113.987	-0.297	-0.058
-390.063	800.000	-0.084	-0.250
-389.048	-48.642	-0.331	0.161
-388.033	6.940	-0.092	0.069
-387.019	-200.000	-0.058	0.000
-386.004	-200.000	0.057	0.351
-384.990	416.165	0.149	0.322
-383.975	86.479	-0.052	-0.058
-382.960	199.508	-0.131	-0.204
-381.946	-131.887	0.398	0.053
-380.931	-46.116	0.250	-0.124
-379.917	-39.515	0.293	-0.156
-378.902	-71.806	0.284	-0.107
-377.888	383.989	0.020	0.041
-376.873	18.753	0.148	-0.120
-375.858	366.693	0.092	0.188
-374.844	-200.000	0.030	0.184
-373.829	200.434	-0.053	-0.083
-372.815	-18.767	-0.350	0.221
-371.800	-150.620	0.416	0.032
-370.785	257.006	0.046	-0.081
-369.771	119.934	-0.111	-0.140
-368.756	-69.552	-0.227	0.088
-367.742	-3.793	-0.116	-0.082
-366.727	6.144	0.155	0.116
-365.712	377.896	0.054	-0.111
-364.698	120.900	-0.190	0.239
-363.683	-200.000	-0.061	-0.310
-362.669	-82.626	0.224	-0.073
-361.654	437.668	-0.041	0.090
-360.639	74.192	-0.072	0.076
-359.625	-155.426	-0.204	0.013
-358.610	-29.360	0.196	0.113
-357.596	-137.969	-0.097	-0.011
-356.581	800.000	-0.067	0.230
-355.566	800.000	0.059	0.185
-354.552	73.795	0.327	-0.346
-353.537	31.076	-0.108	0.093
-352.523	-101.682	-0.075	-0.018
-351.508	-33.153	-0.310	0.174
-350.493	-109.872	0.233	-0.049
-349.479	22.266	0.243	0.201
-348.464	120.122	-0.153	0.192
-347.450	-200.000	0.028	-0.234
-346.435	184.663	-0.035	-0.052
-345.420	-17.907	-0.274	0.174
-344.406	38.454	0.160	0.144
-343.391	210.177	0.042	0.067
-342.377	35.050	0.078	0.069
-341.362	-86.218	0.403	0.125
-340.348	-200.000	0.037	0.245
-339.333	120.759	-0.179	0.225
-338.318	22.552	-0.080	0.066
-337.304	-196.046	0.114	-0.001
-336.289	800.000	-0.086	-0.270
-335.275	-200.000	0.010	0.380
-334.260	-152.351	0.064	0.005
-333.245	-44.736	0.080	0.040
-332.231	-35.041	-0.036	-0.020
-331.216	-97.059	-0.124	0.033
-330.202	-200.000	0.008	-0.128
-329.187	-34.322	-0.163	0.090
-328.172	671.897	-0.064	-0.168
-327.158	-31.809	-0.290	-0.164
-326.143	-88.106	0.173	0.052
-325.129	-17.465	0.286	0.182
-324.114	-52.216	-0.209	-0.098
-323.099	677.758	0.072	0.190
-322.085	-67.200	0.228	-0.091
-321.070	-9.870	-0.332	-0.223
-320.056	-149.141	-0.193	-0.016
-319.041	-200.000	-0.056	0.273
-318.026	153.382	0.116	-0.160
-317.012	410.420	-0.103	0.221
-315.997	87.196	0.214	0.239
-314.983	289.173	0.098	0.180
-313.968	172.410	-0.092	0.134
-312.953	188.460	0.197	-0.297
-311.939	800.000	-0.054	-0.184
-310.924	147.940	0.186	-0.253
-309.910	-61.021	0.276	0.118
-308.895	233.992	0.145	-0.242
-307.880	314.360	0.060	0.113
-306.866	268.579	0.130	-0.231
-305.851	40.306	0.149	0.135
-304.837	-62.369	-0.277	-0.116
-303.822	-85.314	0.166	0.052
-302.807	-200.000	0.083	-0.394
-301.793	65.712	0.106	0.108
-300.778	587.664	0.016	0.040
-299.764	-40.035	0.125	0.066
-298.749	-109.339	0.244	0.052
-297.735	6.405	0.193	-0.145
-296.720	110.247	-0.195	0.236
-295.705	-137.193	-0.145	0.017
-294.691	-191.056	0.120	-0.001
-293.676	157.125	-0.064	-0.089
-292.662	-68.567	0.142	0.055
-291.647	-200.000	0.065	-0.378
-290.632	-108.892	-0.372	-0.080
-289.618	-113.319	-0.146	-0.029
-288.603	60.459	0.309	0.308
-287.589	-26.748	-0.364	0.215
-286.574	-102.607	-0.270	-0.065
-285.559	161.855	0.117	0.165
-284.545	-58.866	-0.137	-0.060
-283.530	73.216	0.047	-0.049
-282.516	30.566	-0.094	0.081
-281.501	55.421	-0.143	0.139
-280.486	232.982	-0.076	0.126
-279.472	-53.062	0.085	0.040
-278.457	63.621	0.184	-0.186
-277.443	-200.000	0.011	-0.051
-276.428	-88.181	0.187	0.056
-275.413	-136.921	0.305	0.035
-274.399	58.441	-0.081	0.080
-273.384	-200.000	-0.012	-0.349
-272.370	-36.745	-0.191	0.103
-271.355	-58.053	-0.301	0.132
-270.340	263.496	-0.173	0.304
-269.326	-200.000	-0.057	0.338
-268.311	314.732	0.085	-0.162
-267.297	142.204	-0.156	-0.208
-266.282	88.579	-0.144	0.161
-265.267	0.176	-0.078	-0.056
-264.253	-102.088	-0.046	0.011
-263.238	-122.016	-0.160	0.027
-262.224	-200.000	0.056	0.259
-261.209	186.096	-0.102	0.152
-260.195	105.891	-0.123	0.146
-259.180	-67.547	-0.121	0.048
-258.165	-55.877	-0.330	-0.148
-257.151	-166.190	0.542	-0.023
-256.136	-120.973	-0.052	-0.009
-255.122	289.154	0.031	0.056
-254.107	31.386	0.124	-0.108
-253.092	-200.000	-0.047	0.230
-252.078	459.819	-0.047	-0.106
-251.063	800.000	-0.039	0.125
-250.049	-80.480	-0.120	0.040
-249.034	-73.121	0.108	-0.040
-248.019	93.056	-0.371	0.422
-247.005	-61.093	0.173	-0.074
-245.990	124.110	0.156	-0.197
-244.976	61.919	0.132	0.133
-243.961	-139.645	0.244	-0.026
-242.946	248.722	0.110	0.188
-241.932	800.000	-0.103	0.290
-240.917	800.000	0.060	-0.255
-239.903	470.177	0.064	0.146
-238.888	10.965	-0.283	0.218
-237.873	-109.151	0.315	0.067
-236.859	-200.000	-0.002	-0.355
-235.844	59.921	-0.175	-0.174
-234.830	-31.554	0.221	-0.125
-233.815	327.981	-0.114	-0.220
-232.800	82.433	-0.171	0.187
-231.786	-81.818	0.162	-0.053
-230.771	-36.966	0.124	0.067
-229.757	-8.127	0.086	-0.059
-228.742	762.015	-0.078	-0.214
-227.727	-167.042	-0.311	-0.013
-226.713	101.821	0.194	0.228
-225.698	800.000	-0.030	-0.110
-224.684	-26.381	0.429	0.253
-223.669	94.608	0.112	-0.128
-222.655	-12.785	0.278	-0.182
-221.640	-200.000	-0.001	0.044
-220.625	204.896	0.115	0.180
-219.611	-4.716	-0.253	0.175
-218.596	-135.366	-0.143	-0.017
-217.582	-10.792	0.301	0.200
-216.567	364.811	0.154	0.312
-215.552	-43.987	0.270	0.136
-214.538	14.920	0.035	-0.028
-213.523	-2.612	-0.088	0.062
-212.509	-173.548	-0.152	-0.005
-211.494	-200.000	0.036	-0.322
-210.479	-133.251	0.169	-0.021
-209.465	381.273	0.110	0.228
-208.450	-200.000	-0.024	0.241
-207.436	-200.000	-0.008	-0.199
-206.421	800.000	-0.092	-0.297
-205.406	285.605	0.233	0.422
-204.392	-64.112	-0.198	-0.081
-203.377	73.639	-0.023	0.025
-202.363	25.349	0.086	0.072
-201.348	-33.958	0.178	0.098
-200.333	2.875	0.087	-0.063
-199.319	10.527	0.335	0.256
-198.304	-200.000	-0.016	0.136
-197.290	-181.364	-0.188	0.004
-196.275	49.489	0.230	0.217
-195.260	-65.564	0.227	-0.092
-194.246	800.000	-0.002	-0.005
-193.231	-79.250	-0.251	-0.085
-192.217	-200.000	-0.017	-0.500
-191.202	-200.000	-0.045	0.355
-190.187	-81.199	0.386	0.128
-189.173	-133.836	0.059	0.007
-188.158	308.352	-0.014	0.027
-187.144	194.173	-0.150	-0.229
-186.129	60.523	-0.043	0.043
-185.114	-200.000	0.061	-0.284
-184.100	-200.000	0.025	0.333
-183.085	47.159	0.096	0.089
-182.071	800.000	-0.048	-0.140
-181.056	-81.988	0.252	0.083
-180.042	255.780	-0.193	-0.332
-179.027	-113.471	0.298	0.059
-178.012	-74.488	-0.175	-0.063
-176.998	131.625	-0.126	0.162
-175.983	128.213	0.152	-0.195
-174.969	516.407	-0.130	-0.306
-173.954	-200.000	-0.006	0.098
-172.939	-200.000	0.054	0.278
-171.925	-157.086	-0.180	0.011
-170.910	-81.048	0.197	0.065
-169.896	-18.571	-0.056	-0.035
-168.881	-200.000	-0.038	-0.297
-167.866	-200.000	0.002	0.161
-166.852	-103.806	-0.199	0.047
-165.837	27.904	-0.095	0.080
-164.823	-138.936	0.326	-0.036
-163.808	490.919	-0.046	-0.105
-162.793	-73.176	0.153	0.056
-161.779	251.935	-0.230	0.394
-160.764	-200.000	0.005	0.027
-159.750	-38.743	-0.313	-0.165
-158.735	-200.000	-0.021	-0.104
-157.720	-17.384	-0.094	0.059
-156.706	720.487	-0.075	0.201
-155.691	800.000	-0.075	-0.281
-154.677	409.153	0.043	0.092
-153.662	-194.753	-0.275	0.002
-152.647	102.336	0.202	-0.237
-151.633	454.685	-0.147	-0.327
-150.618	629.856	-0.070	-0.179
-149.604	133.251	-0.043	-0.055
-148.589	-137.473	0.408	-0.046
-147.574	-46.718	0.267	-0.131
-146.560	-82.611	-0.045	0.014
-145.545	800.000	-0.031	0.113
-144.531	-142.591	0.102	-0.010
-143.516	152.626	-0.078	0.107
-142.502	6.421	0.200	-0.149
-141.487	-142.349	0.382	-0.038
-140.472	537.204	0.063	0.151
-139.458	-60.610	-0.174	0.074
-138.443	-4.477	-0.267	-0.185
-137.429	186.291	-0.052	-0.077
-136.414	-10.674	0.489	0.325
-135.399	-93.345	-0.265	0.074
-134.385	296.158	0.061	-0.113
-133.370	586.230	0.099	-0.244
-132.356	-200.000	0.005	-0.054
-131.341	-129.186	0.151	0.021
-130.326	598.750	0.119	-0.296
-129.312	-200.000	0.053	0.306
-128.297	23.941	-0.295	-0.244
-127.283	800.000	0.064	0.266
-126.268	800.000	0.038	0.123
-125.253	628.647	-0.085	-0.215
-124.239	-53.038	-0.085	0.039
-123.224	-31.725	0.270	0.152
-122.210	-200.000	0.005	-0.266
-121.195	800.000	0.064	-0.257
