DTS Sentinel unit serial number:	SN413079Multiplexer serial number:	ORYXHardware model number:	OX4-SRSoftware version number:	ORYX F/W v4.00 Oryx Data Collector v3.7.2.0data status	okinstallation	princeton_trtdifferential loss correction	single-endedforward channel	channel 3reverse channel	N/Adate	2019/09/12time	18:02:04forward acquisition time	15.00reverse acquisition time	0.00gamma	496.2192k internal	0.2317k external	0.2317temperature offset calibration	1.0093default loss term (dB/km)	0.3790temperature slope calibration	1.0000multiplexer offset coefficient	1.0000multiplexer slope coefficient	1.0000fibre end	0.00T internal ref (°C)	33.75T ext. ref 1 (°C)	2.82T ext. ref 2 (°C)	28.23length (m)	temperature (°C)	Stokes	anti-Stokes-747.200	-62.648	-0.292	0.123
-746.185	-22.951	0.367	-0.224
-745.171	14.450	-0.523	-0.413
-744.156	-154.095	-0.389	0.027
-743.142	-200.000	0.049	0.755
-742.127	-200.000	0.010	0.751
-741.112	230.127	0.271	-0.448
-740.098	-200.000	-0.040	-0.672
-739.083	-101.946	-0.455	0.111
-738.069	800.000	0.093	0.392
-737.054	-173.545	0.467	0.014
-736.039	103.410	0.576	-0.685
-735.025	40.047	-0.110	-0.100
-734.010	131.213	-0.018	0.024
-732.996	800.000	0.200	0.800
-731.981	800.000	-0.501	1.493
-730.966	32.403	-0.598	-0.522
-729.952	-32.304	-0.114	-0.064
-728.937	30.198	-0.333	-0.288
-727.923	7.369	0.297	-0.224
-726.908	243.841	0.038	0.065
-725.894	135.235	-0.471	0.620
-724.879	28.764	-0.256	-0.220
-723.864	735.729	-0.254	-0.689
-722.850	-107.907	0.500	0.110
-721.835	81.868	0.229	-0.250
-720.821	785.515	0.068	0.188
-719.806	-182.862	0.638	0.012
-718.791	-55.602	0.422	0.191
-717.777	42.977	0.284	0.262
-716.762	-161.953	0.868	-0.044
-715.748	-31.612	0.267	-0.152
-714.733	800.000	-0.251	-0.733
-713.718	247.448	0.126	0.216
-712.704	800.000	-0.064	0.223
-711.689	66.246	0.386	-0.397
-710.675	-25.509	-0.605	-0.362
-709.660	-52.093	0.894	-0.420
-708.645	-20.319	-0.428	-0.266
-707.631	415.353	-0.332	-0.715
-706.616	-200.000	-0.012	0.540
-705.602	-103.762	-0.754	0.178
-704.587	-34.796	0.316	0.174
-703.572	-11.040	-0.120	0.080
-702.558	-200.000	0.016	0.324
-701.543	279.164	-0.224	0.403
-700.529	749.331	-0.231	0.629
-699.514	-200.000	0.178	-0.846
-698.499	104.974	0.281	0.335
-697.485	2.392	0.697	0.510
-696.470	800.000	-0.169	0.558
-695.456	800.000	-0.084	-0.297
-694.441	36.501	0.255	-0.227
-693.426	-99.150	0.849	0.217
-692.412	-177.791	0.606	-0.015
-691.397	-133.978	-0.901	0.113
-690.383	800.000	-0.280	0.807
-689.368	800.000	-0.247	-0.961
-688.354	64.720	0.456	-0.465
-687.339	96.341	0.438	-0.506
-686.324	-150.822	0.643	-0.049
-685.310	-200.000	-0.018	0.521
-684.295	-169.806	0.738	-0.027
-683.281	-200.000	-0.015	-0.548
-682.266	-200.000	-0.003	0.138
-681.251	51.911	0.235	0.226
-680.237	800.000	0.239	-0.765
-679.222	42.367	0.934	-0.858
-678.208	38.641	0.405	0.365
-677.193	-200.000	-0.152	0.725
-676.178	800.000	0.100	-0.420
-675.164	-200.000	0.081	0.418
-674.149	68.434	-0.474	0.491
-673.135	-38.739	0.365	0.194
-672.120	127.565	0.216	0.277
-671.105	-174.671	0.151	-0.004
-670.091	103.303	-0.227	0.269
-669.076	134.362	-0.394	0.516
-668.062	800.000	0.155	0.441
-667.047	129.566	0.356	0.460
-666.032	173.277	-0.095	0.138
-665.018	-200.000	-0.212	-1.045
-664.003	-81.491	0.706	-0.235
-662.989	-200.000	-0.148	-0.685
-661.974	27.692	-0.715	0.607
-660.959	-9.528	-0.415	0.279
-659.945	-68.251	0.346	0.136
-658.930	-200.000	0.009	-0.181
-657.916	-200.000	-0.183	-0.843
-656.901	-200.000	0.009	0.206
-655.886	-47.837	0.236	-0.115
-654.872	-78.863	-0.353	-0.122
-653.857	-50.815	-0.473	0.225
-652.843	-141.217	-0.317	0.033
-651.828	-136.507	0.268	-0.031
-650.814	800.000	0.139	0.458
-649.799	-13.360	0.740	-0.484
-648.784	-82.125	0.294	0.097
-647.770	-143.078	-0.864	0.084
-646.755	-158.031	0.936	0.056
-645.741	-119.227	0.895	0.158
-644.726	-96.789	-1.109	-0.294
-643.711	81.967	-0.361	0.394
-642.697	225.031	-0.278	0.453
-641.682	578.832	0.148	0.365
-640.668	-53.377	0.612	-0.283
-639.653	-171.200	-0.404	0.014
-638.638	380.719	-0.388	0.802
-637.624	82.525	-0.583	-0.638
-636.609	-107.177	-0.326	-0.073
-635.595	152.626	0.481	0.663
-634.580	-28.785	0.295	0.171
-633.565	123.585	0.395	-0.499
-632.551	-200.000	-0.181	-1.485
-631.536	-73.686	0.184	0.067
-630.522	555.070	-0.164	-0.397
-629.507	166.991	0.433	-0.620
-628.492	-136.019	1.140	-0.135
-627.478	-200.000	0.067	-0.483
-626.463	26.281	-0.703	-0.592
-625.449	-200.000	0.132	0.610
-624.434	-158.297	-0.530	0.031
-623.419	-71.768	-0.332	-0.125
-622.405	-29.408	0.333	0.192
-621.390	-110.480	-0.499	-0.104
-620.376	-173.023	0.623	-0.019
-619.361	-123.005	0.807	0.131
-618.346	31.412	-0.618	0.535
-617.332	-200.000	-0.072	-0.643
-616.317	104.239	-0.569	-0.674
-615.303	-200.000	-0.113	0.528
-614.288	-67.317	0.719	-0.285
-613.273	-200.000	-0.047	-0.619
-612.259	-200.000	-0.004	-0.016
-611.244	83.843	-0.093	0.102
-610.230	24.174	-0.291	-0.242
-609.215	-161.189	0.903	0.047
-608.201	-200.000	-0.026	-0.398
-607.186	113.058	0.188	-0.230
-606.171	-164.033	-0.390	0.018
-605.157	160.320	-0.157	-0.220
-604.142	-191.192	-0.082	-0.001
-603.128	264.270	-0.369	0.647
-602.113	-4.777	-0.764	-0.531
-601.098	800.000	0.114	-0.344
-600.084	-200.000	0.106	0.649
-599.069	347.262	-0.121	0.239
-598.055	100.822	-0.282	0.330
-597.040	-13.750	-0.566	-0.368
-596.025	-39.904	0.694	-0.365
-595.011	-200.000	0.020	-0.361
-593.996	101.396	0.251	0.295
-592.982	-200.000	-0.033	-0.502
-591.967	181.331	0.101	-0.150
-590.952	249.711	-0.387	0.661
-589.938	-130.293	-0.796	-0.109
-588.923	-168.727	-1.000	-0.038
-587.909	800.000	0.016	-0.049
-586.894	162.433	-0.140	0.198
-585.879	-54.194	1.020	-0.466
-584.865	373.212	0.132	-0.270
-583.850	800.000	-0.048	-0.139
-582.836	270.936	-0.098	0.173
-581.821	8.259	0.760	0.575
-580.806	-89.979	-0.507	0.149
-579.792	-179.652	-0.378	-0.008
-578.777	800.000	-0.115	-0.430
-577.763	470.950	0.169	0.383
-576.748	-149.981	0.487	0.038
-575.733	800.000	0.123	0.347
-574.719	-115.674	0.648	-0.122
-573.704	-74.840	-0.508	-0.183
-572.690	-117.471	0.278	0.051
-571.675	800.000	-0.063	-0.189
-570.661	-200.000	0.113	0.584
-569.646	-91.518	0.313	-0.090
-568.631	118.358	-0.183	0.228
-567.617	-49.317	0.359	0.173
-566.602	-200.000	-0.152	0.719
-565.588	73.253	-0.353	0.371
-564.573	800.000	0.192	0.612
-563.558	156.999	0.144	0.201
-562.544	-101.340	1.140	0.280
-561.529	766.713	-0.056	0.153
-560.515	88.214	0.253	0.283
-559.500	-200.000	-0.600	0.002
-558.485	-89.206	0.236	-0.070
-557.471	51.806	0.375	-0.359
-556.456	-200.000	0.043	-0.235
-555.442	800.000	0.082	0.240
-554.427	172.329	0.226	0.327
-553.412	-200.000	0.064	0.741
-552.398	-105.612	0.196	0.045
-551.383	800.000	-0.135	-0.390
-550.369	-200.000	0.020	-0.925
-549.354	-200.000	-0.031	-0.424
-548.339	-61.718	0.383	-0.161
-547.325	381.400	0.086	0.177
-546.310	-24.353	-0.246	-0.148
-545.296	-200.000	-0.006	-0.866
-544.281	-16.812	-0.368	0.234
-543.266	-32.897	0.729	0.407
-542.252	-88.772	0.227	-0.068
-541.237	23.770	-0.753	0.623
-540.223	116.242	0.491	-0.604
-539.208	800.000	0.301	-1.069
-538.193	240.629	-0.345	0.579
-537.179	106.823	0.073	-0.087
-536.164	15.940	0.114	0.090
-535.150	450.222	-0.260	-0.577
-534.135	-200.000	-0.004	-0.498
-533.121	22.861	-0.091	0.075
-532.106	51.049	-0.370	-0.353
-531.091	773.754	0.087	-0.237
-530.077	-16.256	-0.233	-0.149
-529.062	800.000	-0.196	0.545
-528.048	-200.000	0.027	-0.303
-527.033	-137.415	0.134	-0.015
-526.018	-18.623	-0.463	-0.290
-525.004	-55.325	0.133	0.060
-523.989	-169.655	0.205	0.007
-522.975	102.201	0.267	-0.313
-521.960	-200.000	0.000	0.487
-520.945	-200.000	0.101	-0.842
-519.931	508.986	0.200	0.467
-518.916	73.340	0.515	-0.541
-517.902	-84.603	0.344	-0.109
-516.887	800.000	0.194	-0.542
-515.872	-200.000	0.136	-0.700
-514.858	200.387	-0.293	-0.453
-513.843	495.751	-0.217	-0.500
-512.829	137.442	-0.350	0.459
-511.814	16.721	0.132	0.105
-510.799	-200.000	0.004	-0.396
-509.785	-69.464	-0.987	0.380
-508.770	-200.000	-0.090	1.111
-507.756	800.000	-0.084	0.317
-506.741	-120.297	0.747	0.128
-505.726	-70.757	-0.528	-0.200
-504.712	-35.426	0.722	0.394
-503.697	-108.788	-1.092	-0.234
-502.683	140.084	-0.345	-0.457
-501.668	226.376	0.049	-0.080
-500.653	-40.772	0.511	-0.266
-499.639	-200.000	-0.138	-0.674
-498.624	-144.332	0.278	-0.026
-497.610	69.914	0.448	0.463
-496.595	-135.331	-0.177	0.021
-495.581	-200.000	0.046	-0.491
-494.566	146.007	-0.464	-0.624
-493.551	-200.000	-0.006	0.150
-492.537	-99.517	-0.834	-0.210
-491.522	-81.317	0.816	0.270
-490.508	-163.452	-0.298	-0.014
-489.493	37.333	-0.403	-0.358
-488.478	423.748	0.337	0.726
-487.464	800.000	-0.198	-0.562
-486.449	-81.955	0.664	-0.218
-485.435	-155.811	0.647	-0.041
-484.420	-136.034	-0.746	-0.088
-483.405	-108.455	-0.570	-0.123
-482.391	-126.500	0.462	-0.069
-481.376	-200.000	-0.001	1.008
-480.362	28.202	0.381	0.322
-479.347	138.230	0.020	0.026
-478.332	800.000	0.115	0.478
-477.318	97.537	-0.268	-0.308
-476.303	89.550	-0.384	-0.429
-475.289	274.881	0.233	0.414
-474.274	800.000	-0.078	0.293
-473.259	8.772	-0.835	-0.630
-472.245	346.117	0.332	0.654
-471.230	231.109	-0.398	0.654
-470.216	78.852	0.545	-0.584
-469.201	616.715	0.222	0.558
-468.186	428.197	-0.234	-0.506
-467.172	-200.000	0.159	0.906
-466.157	97.120	0.272	-0.312
-465.143	171.292	0.321	0.461
-464.128	163.958	0.110	-0.156
-463.113	-200.000	-0.011	-0.072
-462.099	-126.757	0.161	-0.024
-461.084	99.812	0.870	-1.009
-460.070	481.093	-0.047	-0.106
-459.055	-58.222	0.661	0.288
-458.040	-200.000	0.069	-0.521
-457.026	800.000	0.087	-0.286
-456.011	-200.000	-0.053	-0.461
-454.997	35.703	-0.084	0.074
-453.982	-115.043	-0.582	-0.111
-452.968	-35.150	-0.335	-0.183
-451.953	545.552	-0.045	0.108
-450.938	-116.624	0.318	-0.059
-449.924	217.604	0.083	0.133
-448.909	188.208	-0.208	-0.311
-447.895	-68.398	0.403	-0.157
-446.880	-200.000	0.016	-0.720
-445.865	-87.591	0.806	0.244
-444.851	238.900	0.211	-0.351
-443.836	-65.965	0.654	-0.262
-442.822	294.067	0.454	0.830
-441.807	24.805	0.221	0.183
-440.792	4.895	0.356	-0.262
-439.778	28.648	-0.747	0.633
-438.763	799.944	-0.114	-0.313
-437.749	29.603	-0.622	-0.529
-436.734	-47.733	0.309	-0.150
-435.719	-200.000	-0.037	-0.594
-434.705	-36.434	0.464	-0.250
-433.690	-200.000	-0.100	0.552
-432.676	-126.445	-0.783	0.117
-431.661	-200.000	-0.026	0.555
-430.646	151.339	0.338	0.460
-429.632	40.745	-0.788	0.711
-428.617	193.313	-0.674	-1.019
-427.603	-200.000	-0.019	0.400
-426.588	405.274	0.184	-0.388
-425.573	-200.000	-0.008	-0.362
-424.559	126.698	-0.129	-0.164
-423.544	-200.000	0.094	-0.522
-422.530	-64.329	-0.402	0.164
-421.515	276.637	0.281	0.500
-420.500	-200.000	0.143	-0.907
-419.486	-4.604	-0.411	0.284
-418.471	-102.749	-1.066	-0.254
-417.457	-82.485	-0.865	-0.281
-416.442	-107.444	-0.633	0.139
-415.428	-200.000	0.086	-0.415
-414.413	59.827	-0.212	-0.209
-413.398	14.574	0.152	0.119
-412.384	205.222	-0.455	-0.706
-411.369	11.584	0.202	0.155
-410.355	-66.860	0.502	-0.198
-409.340	-106.818	1.042	0.231
-408.325	21.291	0.546	-0.444
-407.311	546.098	0.243	-0.581
-406.296	-169.938	-0.647	-0.023
-405.282	-200.000	-0.108	-0.473
-404.267	-88.786	0.307	-0.091
-403.252	-150.850	-0.929	0.070
-402.238	-200.000	0.186	-0.879
-401.223	-165.793	0.280	0.012
-400.209	445.420	0.156	0.341
-399.194	-200.000	0.075	0.891
-398.179	177.971	0.101	-0.147
-397.165	112.725	-0.254	-0.307
-396.150	-49.041	-0.218	0.104
-395.136	313.627	0.457	0.859
-394.121	-200.000	0.091	-0.480
-393.106	-159.217	-0.318	0.018
-392.092	-157.638	-0.415	-0.025
-391.077	-200.000	0.100	-0.775
-390.063	-63.147	0.690	0.284
-389.048	76.892	-0.291	-0.308
-388.033	-133.272	0.111	0.014
-387.019	166.489	-0.453	-0.642
-386.004	350.873	-0.368	-0.727
-384.990	-8.131	0.096	-0.065
-383.975	800.000	0.284	0.903
-382.960	-165.088	-0.609	-0.027
-381.946	-98.572	-0.470	0.120
-380.931	8.421	0.381	-0.286
-379.917	800.000	-0.205	-0.639
-378.902	6.954	0.129	0.096
-377.888	-52.840	-0.304	-0.140
-376.873	-88.300	-1.044	-0.312
-375.858	-45.270	-0.221	-0.109
-374.844	-200.000	0.017	-0.262
-373.829	34.391	-0.699	-0.609
-372.815	-69.015	-0.899	-0.346
-371.800	-160.415	-0.669	0.036
-370.785	354.878	0.205	0.407
-369.771	-30.566	0.894	0.505
-368.756	380.237	-0.126	0.258
-367.742	-116.321	0.401	0.074
-366.727	800.000	-0.104	0.347
-365.712	184.871	0.283	-0.419
-364.698	123.982	0.273	-0.343
-363.683	-7.972	-0.385	-0.259
-362.669	118.395	-0.131	-0.162
-361.654	-22.464	0.240	-0.145
-360.639	188.079	-0.260	-0.387
-359.625	236.881	0.340	0.561
-358.610	-141.951	-0.180	-0.018
-357.596	468.968	-0.096	0.215
-356.581	112.845	-0.244	0.295
-355.566	533.885	0.400	0.944
-354.552	354.543	-0.190	-0.376
-353.537	81.185	0.343	0.369
-352.523	138.647	0.152	0.200
-351.508	-78.337	-0.353	-0.121
-350.493	-200.000	0.037	0.792
-349.479	-200.000	-0.013	0.114
-348.464	800.000	-0.114	-0.421
-347.450	800.000	0.057	-0.208
-346.435	5.435	-0.427	0.315
-345.420	-7.635	0.815	0.549
-344.406	-200.000	0.020	0.634
-343.391	233.016	0.168	-0.276
-342.377	-200.000	-0.242	1.421
-341.362	9.242	0.251	0.189
-340.348	209.096	0.232	-0.362
-339.333	-16.250	0.948	-0.600
-338.318	-41.548	0.997	0.511
-337.304	587.896	-0.399	0.978
-336.289	800.000	-0.108	0.320
-335.275	95.993	-0.377	-0.429
-334.260	243.282	-0.013	0.022
-333.245	76.703	-0.412	0.435
-332.231	-200.000	-0.010	-0.114
-331.216	-57.004	-0.127	-0.056
-330.202	-104.298	0.106	-0.024
-329.187	130.744	0.572	0.731
-328.172	143.412	0.142	0.188
-327.158	671.132	0.153	-0.395
-326.143	358.914	0.181	0.360
-325.129	-93.310	1.197	-0.331
-324.114	49.258	-0.791	-0.741
-323.099	186.468	-0.266	0.394
-322.085	29.699	0.469	0.398
-321.070	26.257	-0.095	0.079
-320.056	-200.000	0.040	0.747
-319.041	49.488	0.373	0.350
-318.026	-136.598	-0.476	0.055
-317.012	-200.000	0.049	0.285
-315.997	-25.793	0.590	-0.346
-314.983	230.754	-0.217	0.354
-313.968	-128.734	-0.190	0.027
-312.953	437.170	0.251	0.544
-311.939	-200.000	-0.027	0.363
-310.924	48.073	0.412	-0.384
-309.910	2.814	-0.453	-0.327
-308.895	-150.802	-0.505	-0.038
-307.880	-200.000	0.084	-0.717
-306.866	-200.000	0.019	-0.087
-305.851	-200.000	-0.047	-0.535
-304.837	-200.000	0.123	-0.636
-303.822	356.466	0.329	0.652
-302.807	-47.017	0.394	0.191
-301.793	-64.283	0.481	0.195
-300.778	-41.716	-0.661	0.338
-299.764	10.546	0.316	0.240
-298.749	-200.000	-0.112	0.838
-297.735	34.374	-0.307	-0.266
-296.720	405.972	-0.282	-0.591
-295.705	-200.000	0.136	0.759
-294.691	213.819	0.203	0.319
-293.676	-43.264	-0.560	-0.282
-292.662	324.079	-0.092	0.174
-291.647	-200.000	-0.020	0.710
-290.632	-30.988	-0.445	-0.250
-289.618	15.164	-0.291	-0.227
-288.603	-200.000	-0.015	1.052
-287.589	-168.259	0.693	0.027
-286.574	412.977	0.230	0.486
-285.559	11.285	-0.160	-0.122
-284.545	-66.399	0.047	-0.019
-283.530	-70.229	0.608	-0.230
-282.516	-200.000	0.044	-0.327
-281.501	66.842	-0.622	0.630
-280.486	-82.213	-0.458	0.148
-279.472	18.362	0.206	0.164
-278.457	-200.000	-0.012	0.166
-277.443	-48.575	0.122	-0.058
-276.428	800.000	-0.014	0.048
-275.413	56.950	0.638	-0.618
-274.399	-6.321	0.298	0.202
-273.384	333.170	-0.134	0.257
-272.370	246.215	0.469	0.786
-271.355	-188.646	0.561	0.007
-270.340	326.498	-0.279	0.530
-269.326	-56.247	-0.359	-0.159
-268.311	-93.513	-0.202	-0.056
-267.297	-200.000	0.044	-0.318
-266.282	75.558	-0.494	0.518
-265.267	25.172	-0.275	-0.227
-264.253	-200.000	0.002	0.152
-263.238	107.525	-0.333	-0.393
-262.224	-200.000	-0.094	-0.426
-261.209	-49.562	-1.361	0.644
-260.195	-154.769	0.260	-0.017
-259.180	-123.896	0.023	-0.004
-258.165	-200.000	-0.014	-0.140
-257.151	-71.615	-0.757	-0.281
-256.136	296.368	-0.424	0.771
-255.122	-98.852	-0.431	0.109
-254.107	79.368	0.366	-0.389
-253.092	-145.531	0.306	0.027
-252.078	295.591	-0.114	0.208
-251.063	-61.196	0.210	0.088
-250.049	-62.929	-0.397	0.163
-249.034	-137.004	-1.144	-0.130
-248.019	-50.935	0.818	0.382
-247.005	469.701	0.138	0.309
-245.990	800.000	-0.089	-0.293
-244.976	-200.000	0.011	0.581
-243.961	-200.000	0.140	0.804
-242.946	43.048	-0.180	-0.163
-241.932	-200.000	0.080	-0.867
-240.917	132.980	0.448	-0.575
-239.903	800.000	-0.077	0.234
-238.888	-200.000	0.052	-0.481
-237.873	217.127	-0.305	-0.482
-236.859	109.235	0.203	0.241
-235.844	408.488	-0.330	0.694
-234.830	800.000	0.178	0.522
-233.815	716.558	-0.158	0.417
-232.800	-3.401	0.530	0.366
-231.786	68.341	0.439	-0.447
-230.771	88.673	0.284	0.313
-229.757	189.087	-0.144	0.214
-228.742	-200.000	-0.185	-0.985
-227.727	-45.779	-0.638	0.313
-226.713	-117.816	0.316	0.056
-225.698	-54.927	0.099	0.044
-224.684	102.255	-0.318	0.369
-223.669	386.876	-0.075	-0.153
-222.655	131.361	0.165	0.211
-221.640	-200.000	-0.061	-0.288
-220.625	228.420	-0.048	0.078
-219.611	-11.766	-0.166	-0.108
-218.596	47.768	0.231	-0.214
-217.582	452.190	-0.105	-0.230
-216.567	800.000	0.190	-0.815
-215.552	111.036	0.555	0.663
-214.538	27.599	0.871	0.727
-213.523	106.642	0.332	-0.390
-212.509	271.448	0.309	-0.539
-211.494	518.735	-0.193	0.449
-210.479	800.000	0.285	-0.934
-209.465	-139.953	-0.194	-0.020
-208.450	370.843	-0.175	0.351
-207.436	-200.000	-0.039	-0.733
-206.421	800.000	0.143	0.613
-205.406	-26.966	0.234	-0.135
-204.392	-200.000	-0.106	0.699
-203.377	-200.000	-0.079	-0.378
-202.363	800.000	0.122	0.403
-201.348	-191.715	0.519	-0.005
-200.333	-157.876	-0.663	-0.039
-199.319	-107.621	0.334	0.072
-198.304	-66.055	0.269	-0.106
-197.290	75.671	-0.425	0.445
-196.275	199.056	0.374	0.568
-195.260	-50.731	0.760	-0.355
-194.246	-107.016	1.039	0.228
-193.231	388.604	0.389	-0.798
-192.217	486.768	0.140	0.316
-191.202	-55.455	-1.045	-0.464
-190.187	700.077	-0.283	-0.738
-189.173	800.000	0.254	0.892
-188.158	-200.000	0.059	-0.292
-187.144	309.097	0.369	0.684
-186.129	-38.819	0.777	0.406
-185.114	253.708	0.270	0.457
-184.100	-200.000	-0.012	0.209
-183.085	-23.235	0.133	-0.079
-182.071	332.149	0.179	-0.343
-181.056	-93.494	-0.664	-0.182
-180.042	800.000	-0.199	0.803
-179.027	-200.000	-0.055	0.291
-178.012	39.331	0.379	-0.336
-176.998	-151.374	-0.723	-0.053
-175.983	-30.093	-0.388	-0.219
-174.969	723.397	-0.079	0.208
-173.954	-1.660	-0.228	0.159
-172.939	569.049	-0.224	0.539
-171.925	-66.620	-0.726	-0.285
-170.910	-44.916	-0.695	0.343
-169.896	15.156	0.196	0.152
-168.881	-200.000	-0.018	-0.337
-167.866	800.000	-0.086	0.256
-166.852	208.680	0.098	-0.151
-165.837	-200.000	-0.031	0.243
-164.823	-62.363	-0.424	0.174
-163.808	-200.000	-0.152	0.896
-162.793	800.000	0.097	-0.308
-161.779	800.000	0.183	-0.619
-160.764	800.000	0.176	-0.665
-159.750	-200.000	-0.011	0.797
-158.735	508.391	0.192	0.442
-157.720	-200.000	-0.048	-0.226
-156.706	125.853	0.564	-0.705
-155.691	-11.162	-0.343	-0.224
-154.677	800.000	-0.145	0.475
-153.662	30.894	-0.428	0.363
-152.647	14.114	-0.751	-0.579
-151.633	332.925	0.081	-0.155
-150.618	-135.168	-0.680	-0.081
-149.604	-32.230	-0.237	-0.131
-148.589	-27.893	0.357	0.204
-147.574	-54.808	0.417	-0.186
-146.560	800.000	-0.306	1.069
-145.545	-39.085	-0.990	0.515
-144.531	-200.000	0.073	0.933
-143.516	455.387	0.375	-0.822
-142.502	-40.158	0.431	0.222
-141.487	-200.000	-0.122	-0.565
-140.472	-105.523	-0.567	-0.127
-139.458	-80.918	1.069	0.351
-138.443	-108.552	-0.242	-0.052
-137.429	-200.000	0.032	0.344
-136.414	-200.000	0.033	0.323
-135.399	53.176	-0.368	-0.348
-134.385	800.000	0.135	-0.563
-133.370	-200.000	-0.123	-1.116
-132.356	-200.000	-0.044	0.434
-131.341	654.917	-0.271	0.688
-130.326	-94.711	0.620	-0.166
-129.312	423.361	-0.369	0.785
-128.297	800.000	0.076	0.265
-127.283	61.772	0.330	-0.325
-126.268	168.286	-0.124	-0.174
-125.253	-102.437	-0.469	0.111
-124.239	-200.000	-0.105	-0.579
-123.224	26.039	-0.296	0.244
-122.210	-58.789	-0.376	-0.161
