DTS Sentinel unit serial number:	SN413079Multiplexer serial number:	ORYXHardware model number:	OX4-SRSoftware version number:	ORYX F/W v4.00 Oryx Data Collector v3.7.2.0data status	okinstallation	princeton_trtdifferential loss correction	single-endedforward channel	channel 3reverse channel	N/Adate	2019/09/16time	22:40:34forward acquisition time	60.00reverse acquisition time	0.00gamma	496.2192k internal	0.2325k external	0.2325temperature offset calibration	0.9939default loss term (dB/km)	0.3790temperature slope calibration	1.0000multiplexer offset coefficient	1.0000multiplexer slope coefficient	1.0000fibre end	0.00T internal ref (°C)	30.62T ext. ref 1 (°C)	0.08T ext. ref 2 (°C)	24.22length (m)	temperature (°C)	Stokes	anti-Stokes-747.200	-58.042	0.377	0.166
-746.185	-133.417	0.117	0.015
-745.171	277.847	0.056	-0.101
-744.156	139.353	0.138	0.183
-743.142	-145.218	0.261	0.024
-742.127	-129.087	0.149	0.021
-741.112	-198.598	0.252	0.001
-740.098	-31.414	-0.206	0.117
-739.083	-107.067	0.207	-0.046
-738.069	-155.733	-0.103	0.007
-737.054	284.436	-0.160	-0.290
-736.039	800.000	-0.127	-0.473
-735.025	10.238	0.337	-0.258
-734.010	-200.000	0.060	-0.479
-732.996	-68.329	-0.605	-0.237
-731.981	-200.000	0.027	0.170
-730.966	21.508	-0.157	-0.129
-729.952	-106.166	-0.300	0.068
-728.937	-162.964	-0.141	0.007
-727.923	74.339	0.142	-0.150
-726.908	-200.000	0.018	0.365
-725.894	-178.189	-0.263	-0.006
-724.879	-148.677	0.070	0.006
-723.864	800.000	-0.078	0.238
-722.850	0.303	0.223	0.161
-721.835	647.923	0.056	0.145
-720.821	182.535	0.196	0.291
-719.806	-103.128	0.370	-0.088
-718.791	800.000	0.045	-0.126
-717.777	-46.315	-0.102	0.050
-716.762	-200.000	0.018	-0.129
-715.748	0.543	0.100	-0.072
-714.733	-200.000	-0.009	-0.083
-713.718	-200.000	0.024	-0.381
-712.704	44.135	-0.409	-0.378
-711.689	-200.000	0.038	-0.209
-710.675	-135.254	0.165	0.020
-709.660	81.904	0.131	0.143
-708.645	380.846	0.112	0.231
-707.631	-168.466	0.026	0.001
-706.616	186.814	0.208	0.312
-705.602	95.397	0.089	-0.102
-704.587	-3.302	-0.193	-0.135
-703.572	-82.565	-0.233	0.076
-702.558	317.483	-0.226	-0.431
-701.543	14.799	0.164	-0.129
-700.529	-200.000	-0.010	0.218
-699.514	-200.000	-0.043	-0.264
-698.499	-200.000	-0.000	-0.205
-697.485	596.895	0.065	0.162
-696.470	357.793	-0.189	-0.379
-695.456	129.177	-0.177	0.228
-694.441	-200.000	-0.017	-0.248
-693.426	-94.113	-0.112	-0.031
-692.412	591.273	-0.139	0.346
-691.397	-200.000	-0.005	-0.175
-690.383	-200.000	-0.004	-0.048
-689.368	254.837	-0.148	0.255
-688.354	-168.034	0.496	-0.019
-687.339	-92.736	-0.066	-0.019
-686.324	455.716	0.114	-0.255
-685.310	20.758	-0.023	0.019
-684.295	368.541	-0.096	0.196
-683.281	156.929	-0.105	-0.147
-682.266	160.492	-0.110	0.154
-681.251	160.153	0.106	0.148
-680.237	-89.243	-0.339	0.101
-679.222	-200.000	0.002	0.042
-678.208	-200.000	0.035	0.290
-677.193	185.323	0.061	0.092
-676.178	42.911	0.172	0.158
-675.164	800.000	-0.030	-0.130
-674.149	800.000	0.114	-0.393
-673.135	72.253	-0.163	0.171
-672.120	119.444	0.010	-0.013
-671.105	303.482	-0.161	-0.300
-670.091	-95.944	-0.238	-0.064
-669.076	259.053	-0.064	-0.111
-668.062	414.425	-0.081	-0.174
-667.047	581.833	-0.090	0.221
-666.032	-24.605	0.243	0.146
-665.018	163.474	-0.056	-0.079
-664.003	-200.000	0.008	0.115
-662.989	-200.000	0.018	0.289
-661.974	143.974	-0.185	-0.248
-660.959	-16.890	0.113	-0.072
-659.945	35.610	0.035	0.031
-658.930	66.486	-0.020	0.021
-657.916	-200.000	-0.004	-0.077
-656.901	115.336	-0.013	-0.016
-655.886	800.000	0.084	0.302
-654.872	-153.178	-0.156	0.011
-653.857	-200.000	0.069	-0.483
-652.843	-200.000	-0.016	-0.087
-651.828	58.400	-0.077	0.076
-650.814	461.867	0.027	-0.060
-649.799	-200.000	0.017	-0.289
-648.784	165.234	-0.233	-0.331
-647.770	-200.000	0.004	-0.196
-646.755	60.314	-0.159	-0.158
-645.741	235.704	-0.158	0.263
-644.726	800.000	-0.083	-0.283
-643.711	-91.357	0.191	0.055
-642.697	-200.000	-0.047	0.255
-641.682	-97.884	-0.177	-0.046
-640.668	-83.666	0.128	-0.041
-639.653	193.924	-0.112	0.170
-638.638	-32.511	0.045	-0.025
-637.624	17.101	-0.183	-0.146
-636.609	98.679	0.087	0.101
-635.595	494.280	-0.116	-0.267
-634.580	162.992	0.140	-0.197
-633.565	800.000	-0.067	-0.276
-632.551	-24.490	0.192	-0.115
-631.536	-200.000	0.003	-0.291
-630.522	-200.000	-0.012	0.057
-629.507	-105.894	0.161	-0.037
-628.492	-54.730	-0.212	-0.096
-627.478	251.850	0.155	-0.265
-626.463	194.746	-0.027	-0.041
-625.449	-41.938	0.331	-0.170
-624.434	117.423	-0.245	-0.303
-623.419	170.275	-0.074	0.107
-622.405	-55.618	-0.180	0.081
-621.390	56.717	-0.047	0.046
-620.376	-14.589	-0.338	-0.218
-619.361	-73.808	-0.278	-0.101
-618.346	6.692	0.242	0.181
-617.332	-102.115	-0.213	0.051
-616.317	104.786	-0.081	0.096
-615.303	-111.926	0.303	0.061
-614.288	-200.000	-0.042	-0.254
-613.273	-134.274	0.129	-0.016
-612.259	-7.321	-0.273	0.186
-611.244	-82.799	-0.104	-0.034
-610.230	792.837	0.148	0.410
-609.215	-86.720	-0.347	-0.107
-608.201	-200.000	0.035	0.342
-607.186	-200.000	0.019	-0.482
-606.171	-109.337	-0.044	-0.009
-605.157	-200.000	0.025	-0.173
-604.142	-200.000	-0.043	0.304
-603.128	-163.829	0.027	0.001
-602.113	44.619	-0.218	-0.201
-601.098	29.695	-0.331	0.282
-600.084	35.857	0.051	0.045
-599.069	-200.000	-0.034	0.189
-598.055	242.790	-0.066	0.111
-597.040	800.000	0.061	0.234
-596.025	-171.250	-0.281	0.009
-595.011	314.833	0.107	-0.203
-593.996	699.063	0.088	-0.233
-592.982	800.000	-0.012	-0.048
-591.967	-5.283	0.235	-0.162
-590.952	69.193	-0.230	0.237
-589.938	129.013	-0.140	-0.179
-588.923	-120.146	0.199	0.034
-587.909	-200.000	0.012	-0.074
-586.894	112.588	-0.111	-0.134
-585.879	115.374	-0.300	0.367
-584.865	52.451	0.080	-0.076
-583.850	-114.794	-0.167	-0.032
-582.836	-200.000	0.005	-0.111
-581.821	-76.563	0.051	0.018
-580.806	-200.000	0.002	0.129
-579.792	-101.236	0.042	-0.010
-578.777	-19.580	-0.238	-0.148
-577.763	-131.879	0.351	-0.046
-576.748	45.859	0.035	-0.032
-575.733	-143.923	0.469	0.044
-574.719	205.041	0.070	0.110
-573.704	-114.225	-0.418	0.081
-572.690	165.438	0.115	-0.163
-571.675	-134.630	-0.090	-0.011
-570.661	82.501	-0.173	-0.188
-569.646	103.967	0.083	-0.098
-568.631	242.851	0.080	-0.134
-567.617	-55.285	0.255	-0.115
-566.602	200.252	0.204	0.314
-565.588	32.821	0.344	0.298
-564.573	248.232	-0.131	-0.222
-563.558	468.857	-0.082	0.185
-562.544	-200.000	0.000	0.296
-561.529	-51.093	0.231	-0.109
-560.515	-44.505	0.132	0.066
-559.500	-0.117	0.128	-0.091
-558.485	-55.768	0.043	-0.019
-557.471	-200.000	-0.005	-0.529
-556.456	-200.000	-0.019	0.111
-555.442	800.000	0.025	-0.099
-554.427	45.999	-0.147	-0.136
-553.412	800.000	0.110	-0.464
-552.398	800.000	0.015	-0.063
-551.383	800.000	0.019	0.071
-550.369	-122.276	-0.202	-0.033
-549.354	-148.625	0.460	-0.038
-548.339	-200.000	0.099	0.487
-547.325	-10.073	-0.316	0.210
-546.310	26.782	-0.285	-0.239
-545.296	800.000	0.018	-0.064
-544.281	-103.291	-0.090	0.021
-543.266	72.317	0.191	0.199
-542.252	-151.868	-0.090	-0.007
-541.237	-200.000	0.033	0.274
-540.223	-88.196	0.172	0.052
-539.208	214.443	0.179	-0.283
-538.193	-39.898	-0.261	0.136
-537.179	800.000	0.117	-0.428
-536.164	109.143	-0.201	-0.240
-535.150	-4.656	-0.199	-0.138
-534.135	-185.810	-0.225	0.003
-533.121	-48.699	0.294	0.141
-532.106	88.493	-0.098	-0.108
-531.091	144.128	0.100	-0.133
-530.077	69.977	0.169	-0.174
-529.062	800.000	-0.093	0.271
-528.048	-67.805	0.316	0.124
-527.033	69.589	0.236	-0.244
-526.018	-120.501	-0.164	0.028
-525.004	177.873	0.113	-0.164
-523.989	-175.842	0.080	-0.002
-522.975	-69.067	-0.189	-0.073
-521.960	-7.489	-0.027	-0.018
-520.945	-200.000	0.041	0.331
-519.931	91.412	0.181	0.204
-518.916	-46.566	-0.373	-0.183
-517.902	14.136	0.180	-0.140
-516.887	483.285	-0.086	0.195
-515.872	97.444	0.167	0.192
-514.858	800.000	0.104	-0.353
-513.843	223.524	-0.116	-0.187
-512.829	-200.000	0.002	0.058
-511.814	-93.735	0.151	-0.042
-510.799	-200.000	0.021	-0.367
-509.785	800.000	-0.098	0.313
-508.770	-200.000	-0.029	0.266
-507.756	-93.722	-0.446	0.123
-506.741	-200.000	-0.066	-0.351
-505.726	-100.803	0.267	-0.066
-504.712	384.179	-0.081	0.166
-503.697	204.537	-0.122	0.188
-502.683	80.874	-0.218	0.235
-501.668	423.627	-0.029	0.063
-500.653	-42.584	0.315	0.160
-499.639	-66.834	0.465	-0.184
-498.624	46.309	0.196	-0.181
-497.610	-1.112	-0.243	-0.172
-496.595	-155.699	-0.275	0.018
-495.581	-200.000	-0.016	-0.141
-494.566	-92.006	-0.051	-0.015
-493.551	-200.000	0.023	0.161
-492.537	457.473	0.180	-0.399
-491.522	662.603	-0.026	0.067
-490.508	-200.000	-0.095	-0.000
-489.493	140.468	-0.106	0.140
-488.478	-62.013	0.142	-0.059
-487.464	115.375	0.073	-0.089
-486.449	195.867	-0.212	0.323
-485.435	800.000	0.072	-0.262
-484.420	463.233	-0.171	0.382
-483.405	800.000	0.063	0.230
-482.391	96.882	0.070	0.081
-481.376	-104.662	-0.150	-0.035
-480.362	-200.000	0.006	0.067
-479.347	64.802	0.113	-0.114
-478.332	259.264	0.026	-0.045
-477.318	800.000	0.051	0.185
-476.303	-62.862	-0.042	-0.018
-475.289	-123.624	0.282	-0.045
-474.274	120.962	0.150	-0.186
-473.259	-200.000	0.025	0.197
-472.245	94.963	-0.117	0.133
-471.230	551.982	0.081	0.195
-470.216	79.419	-0.170	0.182
-469.201	4.460	-0.085	-0.062
-468.186	565.404	-0.125	-0.303
-467.172	509.107	0.112	-0.259
-466.157	254.604	-0.083	0.141
-465.143	-200.000	0.004	-0.052
-464.128	-79.365	-0.096	0.032
-463.113	-53.578	0.252	0.115
-462.099	1.322	-0.181	0.130
-461.084	-167.340	-0.186	-0.007
-460.070	-40.388	0.339	0.176
-459.055	800.000	-0.072	0.264
-458.040	19.133	0.092	-0.074
-457.026	-200.000	-0.060	-0.303
-456.011	-146.640	0.305	-0.026
-454.997	-60.150	0.052	-0.022
-453.982	-29.056	-0.286	0.164
-452.968	-55.989	-0.079	-0.035
-451.953	-59.246	0.239	0.103
-450.938	-200.000	-0.001	0.058
-449.924	21.480	-0.208	0.169
-448.909	-200.000	0.023	-0.204
-447.895	797.195	-0.145	-0.399
-446.880	-84.564	-0.412	-0.130
-445.865	-190.852	-0.171	-0.002
-444.851	11.633	0.237	-0.182
-443.836	-200.000	0.003	-0.123
-442.822	-200.000	-0.027	0.217
-441.807	600.266	-0.073	-0.182
-440.792	364.853	0.152	-0.304
-439.778	-200.000	0.008	0.212
-438.763	20.842	-0.183	-0.147
-437.749	7.379	-0.127	-0.095
-436.734	-75.789	0.303	-0.107
-435.719	75.596	0.092	0.096
-434.705	-200.000	0.005	-0.281
-433.690	-59.022	0.164	-0.071
-432.676	-144.372	0.375	-0.035
-431.661	176.174	0.217	0.314
-430.646	-26.531	0.066	0.039
-429.632	120.363	0.248	-0.307
-428.617	20.105	-0.119	-0.096
-427.603	6.311	-0.170	0.126
-426.588	-200.000	-0.056	0.268
-425.573	443.413	-0.127	-0.278
-424.559	-41.519	-0.123	-0.063
-423.544	13.898	0.127	-0.098
-422.530	-200.000	-0.008	0.272
-421.515	800.000	0.031	-0.096
-420.500	-200.000	0.036	0.160
-419.486	12.653	0.162	-0.125
-418.471	73.208	-0.108	-0.113
-417.457	25.191	0.098	0.081
-416.442	-200.000	-0.013	0.234
-415.428	800.000	0.060	-0.230
-414.413	167.573	0.139	-0.197
-413.398	67.609	-0.229	0.233
-412.384	-200.000	0.003	0.029
-411.369	-30.311	0.133	0.075
-410.355	82.719	0.121	-0.131
-409.340	800.000	-0.086	0.252
-408.325	260.706	0.085	0.146
-407.311	38.046	0.182	-0.161
-406.296	28.455	-0.081	-0.068
-405.282	226.831	-0.148	-0.240
-404.267	800.000	0.108	0.366
-403.252	551.117	0.084	0.200
-402.238	77.462	-0.173	-0.184
-401.223	-200.000	-0.019	-0.222
-400.209	800.000	0.062	0.258
-399.194	-37.975	0.234	-0.124
-398.179	439.702	-0.079	0.172
-397.165	221.082	0.031	-0.050
-396.150	97.741	-0.173	0.198
-395.136	-44.996	0.183	-0.091
-394.121	-159.736	-0.134	0.007
-393.106	-4.549	-0.128	0.088
-392.092	-172.508	-0.210	0.007
-391.077	44.618	-0.138	0.126
-390.063	724.017	0.060	0.158
-389.048	-185.473	0.360	0.005
-388.033	-170.485	0.131	0.005
-387.019	-200.000	0.004	0.105
-386.004	-200.000	0.038	0.324
-384.990	483.974	-0.141	0.320
-383.975	-94.899	0.077	0.021
-382.960	-200.000	-0.041	0.256
-381.946	131.152	0.245	0.313
-380.931	-149.182	-0.374	0.030
-379.917	28.798	-0.162	-0.136
-378.902	-79.891	0.238	-0.080
-377.888	53.867	0.349	-0.334
-376.873	-153.318	0.248	0.017
-375.858	636.846	0.065	-0.163
-374.844	-148.869	0.109	0.009
-373.829	-142.560	-0.216	-0.021
-372.815	26.447	-0.167	0.139
-371.800	-4.805	-0.136	-0.093
-370.785	-62.627	-0.332	0.137
-369.771	-76.338	0.143	0.050
-368.756	-118.496	-0.126	-0.022
-367.742	36.681	0.135	0.118
-366.727	307.804	0.059	0.109
-365.712	214.284	0.133	0.210
-364.698	2.918	0.324	-0.234
-363.683	-200.000	-0.011	-0.459
-362.669	-200.000	0.014	-0.161
-361.654	39.584	0.156	0.139
-360.639	47.622	0.221	0.205
-359.625	-20.088	0.261	-0.160
-358.610	66.786	0.109	0.111
-357.596	74.370	0.118	0.123
-356.581	-200.000	0.114	-0.509
-355.566	-72.237	0.133	-0.049
-354.552	-102.050	-0.297	-0.071
-353.537	-77.849	-0.117	0.040
-352.523	140.189	0.097	0.127
-351.508	12.273	0.127	0.097
-350.493	-172.598	-0.317	0.010
-349.479	-200.000	-0.047	0.235
-348.464	800.000	0.042	0.137
-347.450	-200.000	-0.073	0.342
-346.435	729.630	-0.071	0.190
-345.420	-178.332	0.194	-0.004
-344.406	-110.570	0.068	0.014
-343.391	-80.173	0.259	0.086
-342.377	727.337	-0.128	0.338
-341.362	-23.478	0.191	0.114
-340.348	297.508	-0.115	0.209
-339.333	800.000	-0.073	0.265
-338.318	800.000	-0.042	-0.116
-337.304	-200.000	0.005	-0.165
-336.289	800.000	-0.079	0.266
-335.275	-200.000	-0.018	0.131
-334.260	322.834	-0.068	-0.129
-333.245	617.864	-0.107	-0.266
-332.231	96.029	0.331	0.376
-331.216	800.000	0.080	0.239
-330.202	236.938	-0.071	0.117
-329.187	-89.295	0.321	-0.094
-328.172	800.000	0.053	0.227
-327.158	361.634	-0.205	0.408
-326.143	-200.000	0.023	0.238
-325.129	-56.986	-0.043	-0.019
-324.114	-118.266	0.356	-0.063
-323.099	78.393	0.217	-0.230
-322.085	-17.882	0.076	0.047
-321.070	-132.174	-0.139	-0.018
-320.056	-85.801	0.106	-0.032
-319.041	239.705	-0.107	-0.177
-318.026	-86.362	0.218	-0.066
-317.012	315.115	0.096	0.180
-315.997	-99.225	0.016	-0.004
-314.983	423.769	0.027	-0.059
-313.968	785.228	-0.133	-0.363
-312.953	-75.579	0.165	-0.058
-311.939	-25.701	0.213	-0.125
-310.924	-43.718	-0.028	-0.014
-309.910	800.000	-0.016	0.051
-308.895	-59.563	-0.142	0.061
-307.880	282.196	-0.073	0.130
-306.866	17.703	-0.199	-0.157
-305.851	-36.255	0.230	-0.123
-304.837	800.000	0.050	0.143
-303.822	251.076	-0.092	-0.155
-302.807	242.497	-0.027	0.045
-301.793	41.438	-0.085	-0.076
-300.778	-2.823	0.135	-0.093
-299.764	35.325	-0.128	-0.112
-298.749	-57.790	-0.218	0.095
-297.735	21.009	0.012	0.009
-296.720	800.000	0.076	0.233
-295.705	229.522	0.188	0.305
-294.691	-142.163	0.069	0.007
-293.676	671.568	0.129	-0.330
-292.662	270.030	-0.102	-0.178
-291.647	-124.814	0.130	0.020
-290.632	-200.000	-0.003	0.061
-289.618	-152.694	-0.448	-0.032
-288.603	238.002	-0.052	0.086
-287.589	-59.374	0.146	0.062
-286.574	384.915	0.081	-0.166
-285.559	-71.047	0.251	0.094
-284.545	258.382	-0.081	-0.138
-283.530	105.507	-0.165	0.193
-282.516	800.000	0.106	0.357
-281.501	-74.652	-0.089	-0.032
-280.486	-72.688	0.100	-0.037
-279.472	-101.971	-0.259	-0.062
-278.457	-154.652	0.152	0.010
-277.443	-175.606	0.122	-0.003
-276.428	-150.360	0.219	0.017
-275.413	-200.000	0.023	0.208
-274.399	-130.950	0.134	0.018
-273.384	121.908	-0.387	-0.478
-272.370	310.393	-0.041	-0.076
-271.355	-18.897	0.081	-0.050
-270.340	-200.000	-0.015	0.167
-269.326	-120.677	-0.152	0.025
-268.311	-158.278	-0.133	0.008
-267.297	800.000	0.063	-0.216
-266.282	-24.631	-0.177	0.104
-265.267	-90.563	0.252	0.072
-264.253	397.610	0.211	-0.436
-263.238	72.431	0.114	-0.118
-262.224	350.425	0.202	-0.396
-261.209	-22.291	-0.139	-0.084
-260.195	-166.888	-0.130	0.005
-259.180	89.661	0.374	0.413
-258.165	165.641	-0.313	-0.438
-257.151	-200.000	0.006	-0.118
-256.136	-148.903	0.254	0.020
-255.122	-68.269	0.203	0.078
-254.107	-147.372	0.121	-0.010
-253.092	-61.131	0.535	-0.223
-252.078	608.302	0.065	-0.159
-251.063	-6.208	-0.089	-0.060
-250.049	-107.865	-0.218	0.047
-249.034	-18.946	0.173	0.106
-248.019	-136.074	0.179	-0.021
-247.005	800.000	0.028	-0.095
-245.990	72.005	0.101	0.104
-244.976	115.452	-0.211	-0.256
-243.961	-37.513	-0.212	0.112
-242.946	24.706	-0.102	0.083
-241.932	-43.228	0.111	-0.055
-240.917	-200.000	-0.006	0.147
-239.903	-16.114	-0.088	0.056
-238.888	-43.206	-0.340	-0.170
-237.873	-168.645	0.195	-0.007
-236.859	57.507	0.250	0.241
-235.844	297.672	0.130	-0.236
-234.830	-200.000	-0.029	0.180
-233.815	-200.000	-0.027	0.138
-232.800	344.815	-0.129	0.251
-231.786	-200.000	-0.023	0.220
-230.771	-33.594	-0.096	0.053
-229.757	-61.210	0.132	-0.055
-228.742	-146.282	-0.253	-0.022
-227.727	40.436	-0.080	-0.072
-226.713	-200.000	0.001	-0.201
-225.698	-164.427	0.239	0.011
-224.684	30.923	-0.179	0.151
-223.669	-11.254	0.168	0.109
-222.655	-200.000	0.014	0.162
-221.640	-131.336	-0.342	0.045
-220.625	263.691	0.120	-0.207
-219.611	-200.000	-0.011	0.181
-218.596	-2.307	-0.279	0.194
-217.582	48.408	0.261	-0.242
-216.567	-200.000	0.032	0.195
-215.552	-47.578	-0.137	-0.066
-214.538	180.372	0.304	-0.441
-213.523	-100.656	-0.360	0.088
-212.509	390.002	-0.034	0.069
-211.494	-20.822	-0.114	0.069
-210.479	47.273	-0.274	0.252
-209.465	-7.160	0.125	0.084
-208.450	-61.598	0.237	-0.098
-207.436	-200.000	-0.004	0.048
-206.421	539.013	-0.183	-0.429
-205.406	3.816	-0.171	-0.124
-204.392	-101.496	0.239	0.057
-203.377	-46.103	-0.123	-0.060
-202.363	800.000	-0.092	0.261
-201.348	26.502	-0.362	0.299
-200.333	-97.285	-0.257	0.066
-199.319	311.763	-0.203	0.376
-198.304	-3.451	-0.156	-0.107
-197.290	800.000	0.016	0.048
-196.275	32.796	-0.206	-0.176
-195.260	-200.000	-0.033	-0.192
-194.246	800.000	-0.040	0.171
-193.231	-200.000	0.004	0.203
-192.217	-32.733	0.241	0.133
-191.202	5.983	0.119	-0.087
-190.187	-200.000	0.028	0.138
-189.173	317.549	0.223	-0.416
-188.158	-171.731	-0.351	0.011
-187.144	800.000	0.081	0.320
-186.129	0.796	0.053	-0.037
-185.114	-59.957	-0.174	0.074
-184.100	-36.380	-0.202	0.107
-183.085	43.891	-0.056	0.051
-182.071	204.240	-0.136	-0.209
-181.056	159.050	0.109	-0.150
-180.042	-171.251	0.161	-0.005
-179.027	-72.754	0.238	0.087
-178.012	-0.899	-0.081	0.057
-176.998	263.669	-0.174	-0.298
-175.983	239.691	-0.135	0.221
-174.969	34.728	0.095	0.082
-173.954	-94.761	0.140	0.038
-172.939	204.344	-0.092	-0.140
-171.925	-176.662	-0.148	-0.004
-170.910	139.530	-0.144	0.187
-169.896	800.000	-0.030	-0.100
-168.881	-123.627	-0.082	0.013
-167.866	-200.000	0.047	-0.383
-166.852	21.160	-0.261	0.209
-165.837	628.635	0.069	0.173
-164.823	-200.000	0.021	-0.462
-163.808	177.777	-0.103	0.148
-162.793	-10.980	-0.324	-0.211
-161.779	375.191	-0.059	0.120
-160.764	-88.597	-0.158	-0.046
-159.750	-100.572	0.282	-0.069
-158.735	139.856	-0.142	0.185
-157.720	97.594	-0.177	0.200
-156.706	-62.205	0.019	-0.008
-155.691	5.229	-0.414	-0.301
-154.677	569.171	-0.114	0.274
-153.662	-140.728	0.106	0.011
-152.647	556.142	0.076	0.179
-151.633	-44.109	0.111	0.055
-150.618	-120.547	0.290	0.048
-149.604	-67.979	0.186	0.072
-148.589	-200.000	-0.034	0.279
-147.574	0.575	0.058	0.041
-146.560	800.000	-0.057	-0.185
-145.545	552.719	-0.114	-0.271
-144.531	800.000	0.079	0.322
-143.516	385.317	0.098	-0.200
-142.502	-9.942	-0.247	0.162
-141.487	-39.524	-0.190	0.098
-140.472	308.894	0.189	0.347
-139.458	-200.000	0.101	0.530
-138.443	13.662	0.220	0.168
-137.429	270.574	0.187	0.324
-136.414	171.172	-0.041	0.058
-135.399	-161.866	0.175	-0.009
-134.385	-36.695	0.157	-0.083
-133.370	800.000	-0.175	0.580
-132.356	13.916	-0.199	0.153
-131.341	342.927	-0.062	0.120
-130.326	-78.005	-0.307	0.104
-129.312	24.223	0.295	-0.240
-128.297	350.543	-0.173	0.338
-127.283	-200.000	-0.006	-0.216
-126.268	800.000	-0.044	0.141
-125.253	-100.929	-0.034	-0.008
-124.239	-109.027	0.120	0.025
-123.224	-32.506	0.141	-0.077
-122.210	800.000	0.046	-0.189
-121.195	44.691	0.017	-0.016
-120.180	-121.063	0.158	0.026
