DTS Sentinel unit serial number:	SN413079Multiplexer serial number:	ORYXHardware model number:	OX4-SRSoftware version number:	ORYX F/W v4.00 Oryx Data Collector v3.7.2.0data status	okinstallation	princeton_trtdifferential loss correction	single-endedforward channel	channel 3reverse channel	N/Adate	2019/09/11time	07:38:11forward acquisition time	60.00reverse acquisition time	0.00gamma	496.2192k internal	0.2324k external	0.2324temperature offset calibration	0.9903default loss term (dB/km)	0.3790temperature slope calibration	1.0000multiplexer offset coefficient	1.0000multiplexer slope coefficient	1.0000fibre end	0.00T internal ref (°C)	31.36T ext. ref 1 (°C)	-0.03T ext. ref 2 (°C)	27.82length (m)	temperature (°C)	Stokes	anti-Stokes-747.200	-121.891	-0.121	0.020
-746.185	789.586	0.047	0.131
-745.171	60.424	0.244	0.244
-744.156	800.000	-0.075	0.274
-743.142	205.762	-0.154	0.241
-742.127	524.053	-0.046	0.110
-741.112	800.000	-0.048	0.212
-740.098	-184.701	0.243	-0.004
-739.083	382.536	0.149	0.309
-738.069	-23.421	-0.121	0.073
-737.054	165.415	0.086	0.123
-736.039	-29.212	0.027	0.016
-735.025	-200.000	-0.033	0.209
-734.010	-123.898	-0.227	-0.036
-732.996	-147.710	0.032	-0.003
-731.981	4.864	-0.155	0.115
-730.966	188.923	-0.167	-0.252
-729.952	800.000	-0.118	0.387
-728.937	-75.452	-0.591	0.212
-727.923	-2.836	-0.467	-0.329
-726.908	1.701	-0.365	-0.265
-725.894	-22.297	-0.234	-0.143
-724.879	-68.965	-0.326	0.127
-723.864	122.925	-0.090	0.113
-722.850	-38.746	-0.113	-0.060
-721.835	115.144	-0.037	0.046
-720.821	-200.000	-0.014	0.245
-719.806	-200.000	0.023	0.137
-718.791	-200.000	0.009	-0.130
-717.777	-154.025	0.449	0.031
-716.762	22.519	-0.122	-0.100
-715.748	76.415	0.120	-0.129
-714.733	-128.149	0.174	0.025
-713.718	-200.000	0.031	-0.268
-712.704	169.677	-0.064	-0.092
-711.689	725.224	0.051	0.138
-710.675	-200.000	-0.004	0.088
-709.660	-117.886	-0.203	0.037
-708.645	-200.000	0.078	-0.424
-707.631	-44.412	0.243	-0.123
-706.616	-200.000	-0.022	-0.110
-705.602	-78.001	-0.294	0.102
-704.587	-21.835	-0.135	-0.083
-703.572	-121.870	-0.217	-0.036
-702.558	41.660	0.127	0.116
-701.543	-105.250	0.217	0.050
-700.529	-1.942	-0.218	0.154
-699.514	800.000	0.086	0.338
-698.499	800.000	-0.079	-0.289
-697.485	-76.630	-0.189	-0.067
-696.470	9.573	0.097	0.074
-695.456	-71.286	-0.344	-0.130
-694.441	-84.834	0.267	-0.085
-693.426	-44.013	-0.220	0.111
-692.412	800.000	0.046	-0.202
-691.397	-21.866	0.125	-0.077
-690.383	800.000	-0.093	-0.303
-689.368	98.382	-0.067	0.078
-688.354	-176.275	0.008	-0.000
-687.339	-131.175	-0.157	0.021
-686.324	-127.172	-0.321	-0.047
-685.310	447.902	-0.109	0.243
-684.295	-66.460	-0.091	0.036
-683.281	99.357	-0.156	0.182
-682.266	8.003	0.122	0.092
-681.251	800.000	0.059	-0.203
-680.237	-164.254	0.207	-0.010
-679.222	-200.000	-0.026	-0.137
-678.208	-41.202	-0.015	-0.008
-677.193	98.413	0.218	-0.253
-676.178	-81.248	-0.264	-0.088
-675.164	-80.080	-0.448	0.151
-674.149	721.058	-0.034	-0.092
-673.135	35.048	-0.286	-0.252
-672.120	-19.605	0.095	-0.059
-671.105	528.490	-0.043	0.103
-670.091	-157.214	-0.695	-0.042
-669.076	-90.933	-0.077	-0.022
-668.062	-60.063	0.287	-0.123
-667.047	79.643	0.247	0.267
-666.032	471.408	-0.060	-0.137
-665.018	465.842	-0.241	0.543
-664.003	-66.383	0.236	0.094
-662.989	-155.368	-0.142	-0.009
-661.974	-114.833	-0.220	0.042
-660.959	800.000	0.023	-0.097
-659.945	-6.335	-0.218	-0.149
-658.930	84.627	0.174	-0.191
-657.916	-145.043	-0.596	0.055
-656.901	-117.053	0.343	0.063
-655.886	-200.000	0.048	-0.297
-654.872	163.640	-0.069	0.098
-653.857	320.058	0.046	0.089
-652.843	113.661	-0.104	-0.127
-651.828	-40.092	-0.169	-0.089
-650.814	3.577	-0.293	0.215
-649.799	191.457	0.146	0.222
-648.784	-200.000	-0.023	0.342
-647.770	186.492	-0.158	0.237
-646.755	800.000	-0.033	0.094
-645.741	800.000	0.052	-0.151
-644.726	-200.000	0.015	0.182
-643.711	7.363	-0.164	-0.123
-642.697	-5.901	-0.161	0.110
-641.682	-70.127	-0.210	-0.080
-640.668	112.308	0.067	-0.081
-639.653	65.471	-0.091	0.092
-638.638	50.996	-0.089	0.085
-637.624	-200.000	-0.061	-0.360
-636.609	-97.980	0.210	-0.054
-635.595	-117.169	-0.316	0.058
-634.580	214.536	-0.061	0.097
-633.565	17.789	-0.080	0.064
-632.551	-105.565	0.226	0.051
-631.536	-113.334	-0.138	0.027
-630.522	-69.531	0.139	-0.054
-629.507	785.535	-0.071	-0.196
-628.492	-93.514	0.038	-0.011
-627.478	65.957	0.254	-0.259
-626.463	-54.950	-0.315	0.143
-625.449	23.208	0.073	0.061
-624.434	-200.000	0.022	-0.314
-623.419	252.969	0.158	-0.270
-622.405	112.680	-0.259	-0.315
-621.390	-133.441	0.147	0.018
-620.376	321.995	-0.069	0.132
-619.361	-51.162	-0.145	-0.068
-618.346	189.840	0.103	-0.155
-617.332	81.457	-0.210	-0.228
-616.317	800.000	-0.048	-0.201
-615.303	-5.932	0.164	0.113
-614.288	-34.181	0.411	0.227
-613.273	-155.666	-0.216	0.014
-612.259	-119.599	-0.703	0.122
-611.244	-45.910	-0.048	0.024
-610.230	-173.717	0.280	0.008
-609.215	-174.144	-0.028	-0.001
-608.201	-124.114	0.252	0.040
-607.186	-43.738	0.179	-0.091
-606.171	-90.952	0.134	-0.039
-605.157	-166.761	0.371	-0.015
-604.142	-76.807	0.169	-0.059
-603.128	704.453	0.171	-0.452
-602.113	215.001	-0.178	0.283
-601.098	-95.210	-0.286	-0.077
-600.084	-155.641	0.308	-0.020
-599.069	-72.838	-0.357	-0.132
-598.055	390.249	0.064	0.134
-597.040	-3.824	0.138	-0.096
-596.025	-20.577	-0.239	-0.147
-595.011	800.000	-0.009	0.026
-593.996	-200.000	0.014	-0.065
-592.982	-67.583	0.099	0.039
-591.967	-114.476	0.170	-0.033
-590.952	272.503	0.109	0.193
-589.938	800.000	-0.076	-0.292
-588.923	376.819	-0.102	-0.210
-587.909	190.383	-0.071	-0.108
-586.894	39.844	0.154	-0.139
-585.879	223.852	-0.180	-0.291
-584.865	-200.000	0.046	0.408
-583.850	-200.000	-0.002	0.210
-582.836	-21.175	-0.219	0.134
-581.821	36.798	-0.115	-0.102
-580.806	264.699	-0.085	0.148
-579.792	-13.113	-0.290	0.189
-578.777	310.418	-0.060	-0.113
-577.763	-200.000	0.008	0.093
-576.748	800.000	-0.061	-0.225
-575.733	85.886	0.029	0.032
-574.719	182.539	-0.017	0.025
-573.704	785.145	0.006	0.016
-572.690	552.874	0.095	0.228
-571.675	-200.000	-0.020	-0.354
-570.661	242.045	0.223	-0.374
-569.646	28.849	-0.382	0.324
-568.631	-137.374	-0.276	-0.031
-567.617	633.427	-0.060	0.153
-566.602	7.518	0.101	-0.076
-565.588	-152.046	0.524	0.038
-564.573	-115.335	0.465	0.088
-563.558	800.000	0.064	0.227
-562.544	-200.000	-0.040	0.199
-561.529	-109.609	0.159	0.034
-560.515	587.188	-0.110	0.271
-559.500	186.946	-0.179	-0.267
-558.485	800.000	0.049	-0.166
-557.471	271.340	-0.145	0.255
-556.456	410.253	-0.227	0.483
-555.442	57.156	-0.100	0.098
-554.427	-24.634	-0.274	-0.163
-553.412	157.615	0.062	-0.086
-552.398	-200.000	-0.016	-0.135
-551.383	56.396	0.134	0.130
-550.369	-79.369	-0.127	0.043
-549.354	-200.000	-0.008	-0.169
-548.339	673.814	-0.048	0.123
-547.325	52.296	-0.290	0.277
-546.310	-166.847	-0.362	0.015
-545.296	-3.944	0.206	-0.143
-544.281	800.000	0.031	-0.116
-543.266	-200.000	0.013	-0.185
-542.252	224.758	-0.161	-0.261
-541.237	-51.763	-0.276	-0.129
-540.223	-155.911	0.363	-0.023
-539.208	800.000	-0.062	0.200
-538.193	-35.942	-0.173	-0.094
-537.179	94.695	0.109	-0.124
-536.164	-52.871	0.386	-0.178
-535.150	800.000	0.126	-0.367
-534.135	343.101	-0.104	-0.203
-533.121	-133.291	-0.108	-0.014
-532.106	-200.000	0.011	0.059
-531.091	353.797	0.022	0.045
-530.077	-49.219	0.269	0.129
-529.062	86.832	-0.244	-0.270
-528.048	372.256	-0.229	-0.466
-527.033	-200.000	0.001	-0.032
-526.018	-78.432	0.121	-0.041
-525.004	36.372	-0.237	0.209
-523.989	648.536	-0.098	-0.250
-522.975	768.538	-0.076	-0.207
-521.960	-18.551	0.017	0.010
-520.945	800.000	0.011	-0.043
-519.931	-122.404	-0.287	-0.047
-518.916	404.970	0.093	-0.196
-517.902	755.567	0.066	0.180
-516.887	359.372	0.061	-0.121
-515.872	800.000	-0.081	0.255
-514.858	-39.610	-0.183	0.096
-513.843	-94.763	-0.324	-0.088
-512.829	-24.002	-0.060	-0.036
-511.814	18.696	-0.107	-0.085
-510.799	282.536	0.063	0.113
-509.785	547.989	-0.047	-0.113
-508.770	286.340	-0.164	-0.296
-507.756	86.186	-0.238	0.263
-506.741	22.472	0.294	0.240
-505.726	-199.649	0.364	0.002
-504.712	173.863	0.093	-0.134
-503.697	98.157	0.096	0.110
-502.683	109.829	0.209	0.251
-501.668	-37.315	-0.213	0.114
-500.653	800.000	-0.088	0.274
-499.639	-142.443	-0.076	-0.007
-498.624	-52.330	-0.449	0.208
-497.610	-76.388	0.332	-0.117
-496.595	-9.678	-0.087	-0.058
-495.581	648.732	0.097	-0.248
-494.566	-200.000	0.002	0.169
-493.551	246.440	0.046	-0.078
-492.537	87.753	-0.062	-0.069
-491.522	105.182	0.214	-0.252
-490.508	-27.983	0.068	0.039
-489.493	34.847	-0.081	-0.071
-488.478	-110.563	0.216	0.045
-487.464	296.887	-0.143	-0.262
-486.449	-200.000	0.002	-0.052
-485.435	633.348	-0.108	-0.273
-484.420	172.235	-0.145	0.208
-483.405	-200.000	-0.016	-0.149
-482.391	587.162	-0.108	0.265
-481.376	45.510	0.129	-0.119
-480.362	-200.000	0.043	-0.188
-479.347	-200.000	-0.001	-0.281
-478.332	-9.043	-0.075	-0.050
-477.318	1.435	0.315	0.227
-476.303	362.865	0.029	-0.057
-475.289	12.146	0.261	-0.201
-474.274	49.733	0.299	-0.282
-473.259	-79.199	-0.067	-0.023
-472.245	-125.554	0.511	-0.077
-471.230	-200.000	0.054	0.301
-470.216	-200.000	-0.015	0.111
-469.201	-200.000	0.004	0.203
-468.186	-91.784	-0.051	0.014
-467.172	566.355	-0.065	0.157
-466.157	-4.610	-0.109	0.075
-465.143	-84.931	-0.192	-0.060
-464.128	-200.000	0.011	0.168
-463.113	264.614	-0.115	-0.200
-462.099	243.820	-0.093	0.156
-461.084	800.000	-0.065	0.268
-460.070	251.223	0.165	0.281
-459.055	402.740	0.112	-0.235
-458.040	-112.869	0.267	-0.053
-457.026	-144.099	0.223	-0.021
-456.011	54.010	0.028	-0.027
-454.997	195.139	0.153	-0.232
-453.982	-200.000	-0.011	-0.254
-452.968	-155.068	0.140	0.009
-451.953	-168.416	-0.087	0.003
-450.938	800.000	-0.007	0.025
-449.924	-200.000	-0.013	-0.132
-448.909	-104.040	0.123	-0.029
-447.895	-78.240	0.297	-0.102
-446.880	-103.232	0.014	-0.003
-445.865	245.019	-0.157	-0.263
-444.851	800.000	-0.046	0.142
-443.836	-125.945	0.294	0.044
-442.822	-60.515	-0.390	0.165
-441.807	393.265	-0.147	0.306
-440.792	212.083	0.070	0.109
-439.778	-13.263	-0.303	-0.196
-438.763	-200.000	-0.045	0.400
-437.749	96.772	0.144	-0.165
-436.734	-10.965	-0.235	0.154
-435.719	-100.708	0.324	0.080
-434.705	-196.279	-0.269	-0.002
-433.690	-19.749	-0.148	0.091
-432.676	-24.943	-0.228	-0.135
-431.661	-200.000	-0.005	-0.307
-430.646	73.512	-0.042	0.044
-429.632	-157.678	0.221	0.013
-428.617	33.344	0.354	0.307
-427.603	-200.000	-0.022	-0.290
-426.588	29.708	0.175	-0.149
-425.573	17.687	0.254	-0.202
-424.559	-200.000	0.066	-0.440
-423.544	-200.000	0.001	-0.143
-422.530	-25.723	-0.010	0.006
-421.515	563.484	0.118	0.285
-420.500	-110.444	-0.097	-0.020
-419.486	-116.408	-0.338	0.062
-418.471	-180.164	-0.180	-0.004
-417.457	737.827	-0.068	-0.182
-416.442	371.369	0.209	0.423
-415.428	800.000	0.094	-0.262
-414.413	-169.190	0.288	-0.011
-413.398	52.613	-0.075	-0.071
-412.384	0.980	-0.287	0.205
-411.369	131.400	-0.204	-0.261
-410.355	46.870	0.376	-0.348
-409.340	63.697	0.105	0.105
-408.325	-159.302	-0.198	-0.011
-407.311	81.740	-0.087	-0.094
-406.296	800.000	-0.116	-0.328
-405.282	61.723	0.225	0.223
-404.267	-200.000	-0.057	0.302
-403.252	-76.838	0.123	0.043
-402.238	-93.785	0.148	0.041
-401.223	103.510	0.109	-0.127
-400.209	-200.000	-0.009	0.240
-399.194	-123.611	-0.319	0.050
-398.179	160.393	-0.266	-0.369
-397.165	187.893	-0.231	-0.344
-396.150	-24.780	0.075	0.045
-395.136	583.499	-0.091	0.221
-394.121	-95.582	0.056	0.015
-393.106	7.194	-0.197	-0.147
-392.092	-200.000	0.044	-0.264
-391.077	-38.562	0.165	0.087
-390.063	4.317	0.201	0.147
-389.048	-52.925	0.135	0.062
-388.033	-88.188	-0.247	0.074
-387.019	-123.511	-0.395	0.062
-386.004	185.644	0.055	0.081
-384.990	-60.151	-0.127	0.054
-383.975	108.563	0.288	-0.342
-382.960	227.959	-0.143	0.232
-381.946	786.202	-0.163	0.445
-380.931	208.132	0.157	0.245
-379.917	74.138	0.152	0.159
-378.902	66.806	0.143	-0.145
-377.888	369.612	-0.006	0.012
-376.873	-114.968	0.168	0.032
-375.858	-72.505	-0.331	0.122
-374.844	-55.872	0.189	-0.084
-373.829	-200.000	0.004	-0.074
-372.815	267.098	0.101	0.175
-371.800	-200.000	0.029	-0.191
-370.785	433.087	-0.074	0.160
-369.771	-137.914	-0.052	0.006
-368.756	-200.000	-0.045	-0.248
-367.742	-6.308	-0.217	-0.147
-366.727	-73.436	0.168	0.061
-365.712	-200.000	0.039	-0.216
-364.698	-19.387	-0.121	0.074
-363.683	143.883	0.139	-0.185
-362.669	-200.000	0.006	-0.209
-361.654	-200.000	0.037	0.458
-360.639	118.086	-0.121	-0.148
-359.625	-98.976	-0.169	0.043
-358.610	800.000	-0.078	0.246
-357.596	-18.501	-0.178	-0.110
-356.581	97.472	-0.240	-0.273
-355.566	-27.542	-0.241	0.139
-354.552	-200.000	-0.043	0.246
-353.537	134.695	-0.048	0.062
-352.523	2.211	0.168	-0.120
-351.508	-120.657	-0.136	0.023
-350.493	684.106	-0.026	-0.066
-349.479	-156.672	0.081	-0.005
-348.464	701.658	0.094	-0.247
-347.450	135.651	0.069	-0.089
-346.435	-119.980	-0.299	0.051
-345.420	-76.636	-0.211	0.073
-344.406	314.154	-0.123	-0.229
-343.391	800.000	0.059	0.173
-342.377	-200.000	0.003	-0.039
-341.362	18.066	0.313	0.248
-340.348	-16.516	-0.378	0.238
-339.333	353.766	-0.051	0.100
-338.318	-28.150	0.153	-0.088
-337.304	-72.202	0.257	0.095
-336.289	20.422	0.195	0.156
-335.275	89.488	-0.043	-0.048
-334.260	-111.578	-0.062	0.013
-333.245	171.047	-0.204	0.291
-332.231	-200.000	0.018	0.285
-331.216	-200.000	-0.032	0.143
-330.202	-154.275	0.431	-0.029
-329.187	-200.000	-0.013	0.191
-328.172	-104.738	-0.183	0.042
-327.158	-60.116	0.253	0.107
-326.143	-200.000	0.012	-0.075
-325.129	239.784	-0.070	-0.115
-324.114	-200.000	0.007	0.200
-323.099	-80.877	-0.141	0.046
-322.085	39.650	-0.049	-0.044
-321.070	132.696	0.174	-0.223
-320.056	-90.189	-0.061	-0.018
-319.041	19.622	0.070	0.056
-318.026	472.610	0.156	0.349
-317.012	-58.669	-0.164	-0.070
-315.997	449.722	0.061	0.134
-314.983	-153.194	0.202	0.014
-313.968	-140.560	0.214	-0.022
-312.953	342.303	-0.136	-0.264
-311.939	104.723	-0.092	-0.107
-310.924	209.013	0.100	-0.155
-309.910	-72.305	0.180	0.066
-308.895	14.139	-0.253	-0.195
-307.880	361.960	0.060	0.119
-306.866	-200.000	0.014	0.177
-305.851	-178.476	-0.184	0.004
-304.837	51.732	0.276	-0.260
-303.822	-104.751	-0.355	-0.081
-302.807	-180.398	0.104	-0.002
-301.793	-41.559	0.176	-0.090
-300.778	45.522	0.202	0.185
-299.764	-96.445	0.125	0.033
-298.749	34.716	-0.126	-0.109
-297.735	2.411	-0.196	-0.141
-296.720	248.951	0.192	-0.323
-295.705	-80.862	0.136	0.045
-294.691	398.868	-0.092	0.192
-293.676	-169.176	-0.042	0.002
-292.662	-110.212	-0.054	-0.011
-291.647	-20.268	-0.079	-0.048
-290.632	-128.146	0.345	-0.049
-289.618	-54.886	0.203	-0.091
-288.603	-151.023	0.220	0.016
-287.589	759.819	-0.174	0.466
-286.574	-195.925	-0.073	-0.001
-285.559	13.913	0.268	0.207
-284.545	238.611	0.052	-0.086
-283.530	800.000	0.085	-0.259
-282.516	-200.000	0.021	-0.118
-281.501	-157.066	-0.333	-0.020
-280.486	-200.000	0.014	-0.112
-279.472	800.000	-0.048	-0.201
-278.457	-137.319	0.142	0.016
-277.443	800.000	0.031	0.103
-276.428	-53.471	-0.147	-0.067
-275.413	112.432	-0.192	-0.230
-274.399	-5.186	0.089	0.061
-273.384	474.205	0.121	-0.271
-272.370	-79.367	0.040	0.013
-271.355	-200.000	0.106	0.480
-270.340	-37.198	-0.023	0.012
-269.326	85.960	-0.069	-0.075
-268.311	-58.626	-0.181	-0.078
-267.297	800.000	-0.065	-0.192
-266.282	252.922	-0.106	0.178
-265.267	-200.000	-0.004	0.068
-264.253	221.619	0.250	-0.397
-263.238	229.620	0.285	-0.462
-262.224	-82.946	0.077	-0.025
-261.209	-5.806	0.263	0.178
-260.195	800.000	0.056	0.217
-259.180	116.800	0.179	-0.217
-258.165	59.876	0.157	0.154
-257.151	77.832	0.084	-0.089
-256.136	137.057	-0.203	0.262
-255.122	-200.000	0.057	-0.346
-254.107	-200.000	0.009	0.340
-253.092	-200.000	-0.007	-0.178
-252.078	640.812	0.010	-0.026
-251.063	800.000	-0.050	0.185
-250.049	800.000	0.080	0.268
-249.034	137.257	0.114	0.148
-248.019	-17.141	-0.097	-0.060
-247.005	225.281	-0.217	-0.347
-245.990	-142.839	0.109	0.010
-244.976	-200.000	-0.035	-0.154
-243.961	800.000	0.059	-0.229
-242.946	73.402	0.275	-0.285
-241.932	-57.295	0.136	0.059
-240.917	-152.526	-0.284	0.020
-239.903	-83.927	0.146	0.046
-238.888	800.000	0.019	-0.075
-237.873	26.593	-0.196	0.163
-236.859	-63.017	-0.102	0.042
-235.844	-24.479	-0.112	0.066
-234.830	-200.000	-0.004	0.125
-233.815	37.709	0.229	-0.201
-232.800	107.059	-0.182	0.214
-231.786	-67.862	0.049	0.019
-230.771	528.294	0.207	0.482
-229.757	-177.796	-0.153	0.004
-228.742	-200.000	-0.005	-0.120
-227.727	-200.000	0.017	-0.163
-226.713	-148.902	-0.235	-0.019
-225.698	800.000	-0.054	-0.205
-224.684	-67.901	-0.173	-0.067
-223.669	34.905	-0.053	0.046
-222.655	71.965	-0.189	0.195
-221.640	252.137	-0.142	0.240
-220.625	-31.348	-0.259	0.144
-219.611	-200.000	0.033	0.312
-218.596	-200.000	-0.033	0.191
-217.582	-191.406	0.318	-0.003
-216.567	315.437	0.181	-0.337
-215.552	-200.000	0.005	-0.115
-214.538	55.171	-0.135	0.129
-213.523	-10.092	0.338	-0.222
-212.509	-111.416	0.212	-0.043
-211.494	394.768	0.179	0.368
-210.479	191.744	-0.094	0.140
-209.465	217.830	-0.127	0.200
-208.450	-118.319	0.151	0.027
-207.436	248.591	0.029	0.048
-206.421	101.753	-0.233	-0.269
-205.406	-73.057	0.187	0.068
-204.392	800.000	0.070	0.257
-203.377	44.101	0.050	-0.045
-202.363	116.769	0.155	-0.188
-201.348	-200.000	-0.001	-0.134
-200.333	800.000	0.104	-0.291
-199.319	-36.919	-0.075	0.040
-198.304	-200.000	-0.082	0.411
-197.290	66.096	0.149	0.149
-196.275	21.539	-0.209	-0.168
-195.260	-93.753	-0.280	0.076
-194.246	-149.780	0.079	-0.006
-193.231	19.460	-0.067	-0.054
-192.217	241.101	-0.118	0.195
-191.202	-156.019	0.148	-0.009
-190.187	-141.519	0.145	0.014
-189.173	-76.640	-0.271	-0.094
-188.158	45.381	0.128	0.117
-187.144	-200.000	-0.194	-0.001
-186.129	342.426	-0.198	0.382
-185.114	-200.000	-0.012	0.352
-184.100	-141.436	0.299	0.030
-183.085	106.169	-0.353	0.413
-182.071	800.000	-0.025	0.070
-181.056	-200.000	-0.052	0.464
-180.042	192.364	-0.206	-0.307
-179.027	-53.660	0.524	0.237
-178.012	465.483	-0.091	0.202
-176.998	-200.000	-0.217	-0.001
-175.983	659.230	-0.070	0.179
-174.969	-42.522	0.427	0.215
-173.954	129.617	0.116	0.146
-172.939	-57.997	0.124	-0.053
-171.925	298.767	0.046	0.083
-170.910	-74.999	0.041	0.014
-169.896	-200.000	0.015	-0.111
-168.881	108.695	-0.183	-0.216
-167.866	-140.022	0.199	-0.021
-166.852	312.378	0.065	-0.121
-165.837	80.017	0.218	0.232
-164.823	-200.000	-0.017	0.082
-163.808	783.978	-0.045	-0.120
-162.793	-0.408	-0.044	-0.031
-161.779	-200.000	0.034	0.183
-160.764	-121.458	-0.271	-0.044
-159.750	-8.523	-0.178	-0.118
-158.735	758.980	-0.055	-0.147
-157.720	-124.750	0.278	0.042
-156.706	177.579	0.037	-0.053
-155.691	158.760	0.128	-0.176
-154.677	586.346	0.010	0.024
-153.662	-114.755	0.214	0.040
-152.647	84.912	-0.054	0.059
-151.633	-96.266	-0.207	-0.054
-150.618	217.135	0.121	-0.190
-149.604	-45.421	-0.059	0.029
-148.589	800.000	-0.109	0.320
-147.574	-90.111	0.207	0.059
-146.560	405.248	-0.065	-0.135
-145.545	62.946	-0.173	-0.171
-144.531	-200.000	-0.015	0.175
-143.516	58.017	-0.194	0.188
-142.502	-153.847	0.340	0.023
-141.487	-116.620	0.159	-0.029
-140.472	-31.062	0.082	0.046
-139.458	-112.432	-0.211	-0.042
-138.443	-96.318	-0.318	0.083
-137.429	67.856	-0.147	0.148
-136.414	-200.000	0.019	-0.316
-135.399	402.805	-0.113	-0.233
-134.385	23.287	-0.081	-0.065
-133.370	-18.369	0.203	0.125
-132.356	-79.168	0.258	0.086
-131.341	-67.752	-0.111	0.043
-130.326	-57.726	0.047	-0.020
-129.312	-11.669	0.307	-0.199
-128.297	-160.528	-0.396	0.021
-127.283	90.517	0.148	-0.163
-126.268	-148.542	-0.189	-0.015
-125.253	63.767	0.096	0.095
-124.239	66.472	0.164	-0.164
-123.224	-60.996	-0.418	0.174
-122.210	-200.000	0.055	-0.299
-121.195	-10.263	-0.140	-0.092
