DTS Sentinel unit serial number:	SN413079Multiplexer serial number:	ORYXHardware model number:	OX4-SRSoftware version number:	ORYX F/W v4.00 Oryx Data Collector v3.7.2.0data status	okinstallation	princeton_trtdifferential loss correction	single-endedforward channel	channel 3reverse channel	N/Adate	2019/09/13time	19:32:35forward acquisition time	60.00reverse acquisition time	0.00gamma	496.2192k internal	0.2326k external	0.2326temperature offset calibration	1.0079default loss term (dB/km)	0.3790temperature slope calibration	1.0000multiplexer offset coefficient	1.0000multiplexer slope coefficient	1.0000fibre end	0.00T internal ref (°C)	30.62T ext. ref 1 (°C)	3.46T ext. ref 2 (°C)	24.54length (m)	temperature (°C)	Stokes	anti-Stokes-747.200	69.001	-0.019	0.019
-746.185	800.000	-0.079	0.321
-745.171	-168.360	0.118	-0.005
-744.156	422.911	-0.029	-0.063
-743.142	800.000	0.065	-0.181
-742.127	-72.354	-0.178	0.066
-741.112	-30.532	0.154	0.088
-740.098	168.996	0.131	0.188
-739.083	-52.291	-0.203	-0.095
-738.069	-200.000	0.038	0.199
-737.054	-38.534	0.223	0.119
-736.039	28.834	-0.326	0.278
-735.025	-200.000	0.015	0.389
-734.010	22.062	-0.108	0.089
-732.996	122.264	0.038	0.048
-731.981	-200.000	-0.021	-0.253
-730.966	-200.000	0.025	0.147
-729.952	87.171	-0.279	-0.311
-728.937	-35.335	-0.338	-0.185
-727.923	193.076	-0.066	-0.101
-726.908	561.452	-0.053	-0.129
-725.894	-164.938	0.387	0.017
-724.879	57.630	0.184	-0.181
-723.864	800.000	0.041	-0.149
-722.850	-33.521	0.170	-0.095
-721.835	427.715	0.208	-0.452
-720.821	86.393	-0.093	0.104
-719.806	-79.047	0.044	0.015
-718.791	-141.353	-0.405	0.041
-717.777	800.000	0.017	0.061
-716.762	-200.000	-0.027	0.140
-715.748	-121.401	-0.308	0.052
-714.733	-200.000	0.012	-0.057
-713.718	533.624	-0.064	0.152
-712.704	-12.945	-0.276	-0.181
-711.689	396.437	0.142	0.300
-710.675	229.128	-0.142	0.233
-709.660	736.562	-0.061	-0.166
-708.645	-81.670	-0.127	0.042
-707.631	800.000	0.113	-0.360
-706.616	-130.711	0.058	0.008
-705.602	-10.525	0.140	-0.093
-704.587	69.174	-0.114	-0.118
-703.572	800.000	-0.051	0.181
-702.558	800.000	0.057	-0.207
-701.543	-37.262	-0.334	-0.180
-700.529	-107.440	-0.259	0.057
-699.514	124.517	-0.341	0.432
-698.499	-200.000	0.047	-0.328
-697.485	-200.000	0.006	-0.136
-696.470	-37.302	-0.337	0.182
-695.456	243.567	-0.059	-0.100
-694.441	-66.063	0.138	-0.055
-693.426	-99.781	0.220	0.056
-692.412	-4.080	-0.164	0.115
-691.397	208.060	-0.118	-0.185
-690.383	18.954	0.308	-0.248
-689.368	159.544	0.141	-0.198
-688.354	676.877	-0.040	-0.106
-687.339	-200.000	0.012	-0.060
-686.324	-2.178	0.088	-0.062
-685.310	57.934	-0.085	0.084
-684.295	-94.168	-0.265	0.073
-683.281	0.861	-0.191	-0.137
-682.266	800.000	0.062	-0.202
-681.251	619.820	-0.109	-0.276
-680.237	-200.000	0.050	-0.245
-679.222	-150.496	-0.290	0.022
-678.208	800.000	-0.048	0.165
-677.193	449.428	0.098	0.216
-676.178	-55.123	0.252	0.114
-675.164	57.531	0.080	-0.079
-674.149	-70.501	0.211	-0.080
-673.135	151.315	-0.073	0.100
-672.120	-200.000	-0.040	0.316
-671.105	256.145	-0.122	-0.210
-670.091	-88.443	-0.600	-0.180
-669.076	-94.305	0.167	-0.046
-668.062	800.000	-0.073	-0.239
-667.047	-200.000	-0.023	-0.293
-666.032	328.302	-0.271	-0.524
-665.018	402.214	-0.076	-0.161
-664.003	-135.470	0.034	-0.004
-662.989	-68.201	-0.055	0.022
-661.974	800.000	-0.065	0.214
-660.959	800.000	-0.064	-0.262
-659.945	-115.338	-0.034	0.007
-658.930	-200.000	0.002	-0.061
-657.916	519.477	0.145	-0.341
-656.901	-3.062	0.052	-0.037
-655.886	631.396	-0.147	-0.375
-654.872	-200.000	0.031	0.246
-653.857	-200.000	-0.003	-0.073
-652.843	-57.549	-0.206	0.091
-651.828	800.000	0.033	-0.110
-650.814	76.603	0.142	-0.151
-649.799	800.000	0.071	0.212
-648.784	-135.526	-0.229	-0.027
-647.770	30.541	-0.212	-0.182
-646.755	800.000	0.090	-0.297
-645.741	147.217	0.029	0.039
-644.726	158.683	-0.172	-0.239
-643.711	-200.000	0.023	-0.139
-642.697	56.298	-0.074	-0.072
-641.682	165.057	-0.140	-0.198
-640.668	-200.000	-0.007	0.033
-639.653	-124.978	-0.048	-0.007
-638.638	-88.357	-0.182	0.055
-637.624	-104.524	-0.206	0.048
-636.609	-200.000	0.028	-0.237
-635.595	-123.518	0.040	-0.006
-634.580	800.000	-0.018	-0.072
-633.565	-170.228	0.204	-0.007
-632.551	185.203	-0.084	-0.125
-631.536	-89.965	-0.314	-0.092
-630.522	-103.227	0.134	-0.032
-629.507	800.000	-0.029	0.085
-628.492	600.193	0.059	0.147
-627.478	5.733	-0.045	-0.033
-626.463	283.517	-0.206	0.372
-625.449	6.437	0.072	0.054
-624.434	-132.950	0.266	0.034
-623.419	-200.000	0.030	0.145
-622.405	199.987	-0.115	0.178
-621.390	178.311	0.316	0.463
-620.376	-94.276	0.184	0.050
-619.361	76.150	-0.182	0.194
-618.346	800.000	0.128	0.549
-617.332	-80.575	-0.216	-0.072
-616.317	-33.203	-0.215	0.119
-615.303	-43.509	0.291	0.147
-614.288	-78.012	0.349	-0.121
-613.273	-82.504	0.005	-0.002
-612.259	139.948	-0.155	-0.204
-611.244	-38.128	-0.348	-0.185
-610.230	36.633	0.084	-0.074
-609.215	-200.000	0.022	-0.217
-608.201	800.000	-0.061	-0.171
-607.186	-83.653	-0.463	-0.148
-606.171	152.747	0.277	-0.379
-605.157	-12.491	-0.422	-0.276
-604.142	296.249	0.025	0.045
-603.128	93.641	-0.220	-0.249
-602.113	104.457	-0.231	-0.273
-601.098	0.987	0.219	-0.157
-600.084	185.003	0.133	-0.198
-599.069	119.781	0.023	0.029
-598.055	-200.000	-0.009	0.306
-597.040	482.827	0.089	-0.204
-596.025	800.000	0.132	0.380
-595.011	-200.000	-0.001	-0.062
-593.996	-70.454	0.379	0.144
-592.982	800.000	-0.080	-0.274
-591.967	-200.000	-0.010	-0.418
-590.952	138.519	-0.206	0.271
-589.938	-75.500	0.243	0.087
-588.923	-200.000	-0.036	-0.218
-587.909	7.698	-0.062	0.047
-586.894	-124.649	0.229	0.036
-585.879	-200.000	-0.057	-0.428
-584.865	-200.000	-0.011	0.269
-583.850	-200.000	0.024	-0.167
-582.836	663.158	0.093	-0.239
-581.821	-200.000	0.002	0.041
-580.806	800.000	-0.052	-0.191
-579.792	-200.000	-0.039	-0.175
-578.777	-200.000	-0.003	-0.346
-577.763	172.518	0.135	0.195
-576.748	-159.459	-0.143	-0.008
-575.733	-200.000	0.012	0.054
-574.719	-200.000	0.004	-0.062
-573.704	35.467	-0.205	-0.180
-572.690	79.998	-0.103	-0.111
-571.675	-200.000	0.027	0.153
-570.661	-200.000	0.037	-0.195
-569.646	279.389	-0.193	-0.345
-568.631	-200.000	-0.009	-0.190
-567.617	203.796	-0.033	0.051
-566.602	800.000	-0.038	-0.155
-565.588	104.494	0.263	0.310
-564.573	-200.000	-0.021	0.340
-563.558	-111.786	0.305	-0.062
-562.544	230.785	0.032	0.052
-561.529	418.920	0.048	0.103
-560.515	10.538	-0.193	-0.147
-559.500	-53.081	-0.134	0.062
-558.485	117.496	-0.061	0.075
-557.471	-8.261	-0.058	0.039
-556.456	-35.148	0.245	0.134
-555.442	800.000	0.091	0.263
-554.427	-169.294	0.212	-0.008
-553.412	438.897	-0.065	-0.142
-552.398	231.438	0.097	-0.159
-551.383	-149.287	-0.259	0.021
-550.369	314.643	-0.165	0.312
-549.354	-200.000	0.043	0.201
-548.339	-12.350	-0.168	-0.110
-547.325	-200.000	0.063	0.322
-546.310	22.439	-0.178	0.146
-545.296	-97.663	-0.235	-0.061
-544.281	44.322	-0.325	0.298
-543.266	-62.124	0.307	-0.128
-542.252	11.171	0.087	-0.067
-541.237	-65.061	-0.141	-0.057
-540.223	38.453	-0.044	0.040
-539.208	-126.466	0.245	0.036
-538.193	800.000	0.032	-0.098
-537.179	144.863	-0.072	0.096
-536.164	130.232	0.047	0.061
-535.150	-200.000	0.029	0.262
-534.135	-63.722	-0.055	0.023
-533.121	-64.343	0.238	-0.097
-532.106	-145.374	-0.409	-0.037
-531.091	-200.000	-0.016	-0.072
-530.077	150.962	0.106	-0.144
-529.062	514.917	0.050	-0.116
-528.048	-159.111	0.305	0.017
-527.033	154.111	-0.202	-0.276
-526.018	-200.000	0.013	0.155
-525.004	-21.594	-0.102	0.062
-523.989	70.949	-0.014	-0.014
-522.975	800.000	-0.076	-0.257
-521.960	-200.000	-0.039	-0.247
-520.945	-32.473	0.167	-0.093
-519.931	-200.000	-0.048	0.346
-518.916	33.270	-0.281	0.244
-517.902	508.856	0.067	-0.156
-516.887	-200.000	0.005	-0.209
-515.872	-192.832	0.149	0.001
-514.858	157.672	-0.229	-0.316
-513.843	29.997	-0.216	0.184
-512.829	-16.584	0.161	-0.102
-511.814	800.000	0.055	0.204
-510.799	800.000	-0.100	0.322
-509.785	-21.777	0.048	-0.029
-508.770	-80.365	-0.187	0.062
-507.756	-62.121	-0.156	-0.065
-506.741	473.395	-0.120	-0.270
-505.726	-145.236	0.390	0.035
-504.712	-8.339	-0.169	-0.114
-503.697	-71.882	0.196	-0.073
-502.683	165.138	0.131	0.185
-501.668	109.633	0.142	-0.170
-500.653	800.000	-0.133	-0.409
-499.639	-110.493	-0.192	0.040
-498.624	241.956	0.164	-0.274
-497.610	-80.767	0.197	0.065
-496.595	4.046	0.199	-0.146
-495.581	-2.262	0.142	0.099
-494.566	305.543	-0.084	-0.156
-493.551	-60.767	-0.413	-0.175
-492.537	-200.000	0.010	0.190
-491.522	-170.558	0.333	-0.012
-490.508	-152.011	0.207	-0.015
-489.493	244.602	-0.122	0.205
-488.478	-34.377	0.391	0.214
-487.464	13.013	-0.122	0.094
-486.449	-13.909	0.168	0.109
-485.435	126.647	-0.115	-0.146
-484.420	-66.210	0.216	0.086
-483.405	-105.631	0.389	-0.088
-482.391	-87.469	0.155	-0.047
-481.376	-24.250	-0.137	0.082
-480.362	17.081	0.064	-0.051
-479.347	75.330	0.041	0.043
-478.332	-99.069	0.220	-0.056
-477.318	-200.000	-0.034	-0.387
-476.303	-200.000	-0.013	-0.178
-475.289	184.482	0.282	0.417
-474.274	102.256	0.035	0.041
-473.259	-73.317	-0.212	-0.078
-472.245	-200.000	0.031	-0.468
-471.230	-43.594	-0.149	0.075
-470.216	262.271	-0.084	-0.146
-469.201	-95.673	-0.190	-0.051
-468.186	580.165	-0.120	-0.292
-467.172	-118.468	0.097	0.017
-466.157	462.154	-0.060	0.133
-465.143	301.364	0.085	0.158
-464.128	-104.528	0.405	0.093
-463.113	800.000	-0.059	-0.169
-462.099	-200.000	-0.002	0.225
-461.084	197.721	-0.027	0.041
-460.070	394.207	0.086	-0.179
-459.055	289.041	-0.145	0.262
-458.040	-150.231	0.203	0.016
-457.026	-198.868	-0.321	-0.002
-456.011	42.454	0.316	-0.287
-454.997	309.478	-0.073	0.136
-453.982	-200.000	-0.010	0.161
-452.968	-90.446	-0.222	0.064
-451.953	97.318	-0.349	0.400
-450.938	800.000	0.019	-0.083
-449.924	-160.295	0.239	0.013
-448.909	-163.312	0.078	0.004
-447.895	63.937	0.132	0.132
-446.880	800.000	0.123	0.342
-445.865	-129.954	0.296	-0.040
-444.851	-200.000	0.012	0.179
-443.836	211.854	0.044	-0.069
-442.822	-78.133	0.343	-0.118
-441.807	143.344	0.108	-0.143
-440.792	-12.050	-0.092	0.060
-439.778	-98.753	-0.250	0.063
-438.763	-86.897	0.321	-0.098
-437.749	205.344	0.139	-0.215
-436.734	-2.975	-0.212	-0.147
-435.719	-193.612	-0.232	-0.002
-434.705	-120.753	0.431	0.073
-433.690	244.547	0.153	-0.256
-432.676	190.432	0.102	-0.152
-431.661	183.978	0.107	-0.158
-430.646	-200.000	-0.014	0.326
-429.632	-19.000	-0.226	-0.140
-428.617	290.401	0.176	-0.318
-427.603	-135.939	0.088	0.010
-426.588	167.180	-0.203	0.287
-425.573	-200.000	0.002	0.171
-424.559	-24.731	0.216	-0.128
-423.544	-35.233	-0.265	-0.144
-422.530	1.008	-0.234	-0.167
-421.515	-155.569	0.295	0.019
-420.500	-19.175	0.242	-0.150
-419.486	-164.693	-0.487	0.022
-418.471	589.976	0.156	-0.383
-417.457	-80.703	-0.158	-0.052
-416.442	-92.458	0.131	0.037
-415.428	-200.000	-0.067	0.349
-414.413	154.185	0.193	-0.264
-413.398	-200.000	-0.043	-0.316
-412.384	208.112	0.031	-0.049
-411.369	-200.000	0.027	0.176
-410.355	-200.000	-0.028	-0.256
-409.340	-26.668	0.227	-0.132
-408.325	291.499	-0.051	-0.093
-407.311	-139.380	0.262	-0.028
-406.296	155.372	-0.059	-0.080
-405.282	195.040	0.228	-0.345
-404.267	209.693	0.054	0.085
-403.252	2.791	0.157	-0.113
-402.238	-200.000	0.005	-0.216
-401.223	-144.598	0.291	-0.027
-400.209	800.000	-0.024	0.091
-399.194	-125.070	0.127	-0.019
-398.179	-200.000	0.033	0.241
-397.165	75.570	-0.085	-0.090
-396.150	-98.414	-0.165	0.042
-395.136	-162.106	0.111	-0.006
-394.121	552.233	-0.098	-0.234
-393.106	-200.000	-0.002	0.310
-392.092	-24.071	-0.050	-0.030
-391.077	-33.009	0.151	-0.084
-390.063	-120.263	-0.344	0.058
-389.048	65.334	-0.027	-0.027
-388.033	-128.447	0.267	0.038
-387.019	-195.264	0.186	-0.001
-386.004	721.131	-0.194	0.514
-384.990	-200.000	0.043	0.237
-383.975	-32.945	-0.069	0.038
-382.960	-118.328	0.282	-0.050
-381.946	-185.781	0.041	0.001
-380.931	66.173	-0.129	-0.130
-379.917	743.201	-0.007	-0.018
-378.902	-200.000	-0.036	-0.235
-377.888	181.509	-0.040	-0.058
-376.873	189.707	-0.214	-0.318
-375.858	5.462	-0.142	0.104
-374.844	-117.751	0.230	0.041
-373.829	-125.979	-0.348	0.052
-372.815	-85.253	-0.070	0.022
-371.800	-111.204	0.100	0.020
-370.785	194.337	-0.216	-0.325
-369.771	-89.119	0.199	-0.059
-368.756	-200.000	-0.035	0.420
-367.742	63.984	0.109	-0.109
-366.727	-62.769	-0.081	0.033
-365.712	-200.000	0.003	0.071
-364.698	22.818	0.042	-0.034
-363.683	-6.831	0.479	0.323
-362.669	140.182	0.194	0.255
-361.654	57.143	-0.152	-0.147
-360.639	-45.227	-0.177	-0.087
-359.625	186.931	0.154	0.228
-358.610	89.599	-0.176	0.195
-357.596	-200.000	0.004	0.072
-356.581	32.703	-0.222	-0.191
-355.566	-60.752	0.077	0.032
-354.552	-57.131	-0.420	0.184
-353.537	51.392	-0.245	-0.231
-352.523	-139.528	-0.266	0.028
-351.508	-72.938	0.632	-0.231
-350.493	102.083	-0.167	0.193
-349.479	152.535	-0.070	-0.094
-348.464	-200.000	-0.100	0.487
-347.450	-54.041	0.228	0.103
-346.435	159.010	-0.070	-0.096
-345.420	-111.705	0.129	0.026
-344.406	56.227	-0.210	0.203
-343.391	-173.243	-0.249	-0.008
-342.377	-20.742	0.272	0.165
-341.362	-103.749	-0.237	-0.055
-340.348	-7.538	-0.167	-0.112
-339.333	-200.000	-0.069	-0.338
-338.318	97.868	0.076	0.087
-337.304	800.000	0.052	-0.220
-336.289	-200.000	0.010	0.111
-335.275	189.876	0.041	0.060
-334.260	-108.688	-0.191	-0.041
-333.245	800.000	0.029	-0.097
-332.231	30.924	-0.177	0.150
-331.216	-94.242	-0.110	-0.030
-330.202	11.472	0.245	0.187
-329.187	-45.263	-0.252	-0.124
-328.172	-200.000	-0.034	0.338
-327.158	473.341	0.135	0.302
-326.143	1.592	-0.170	0.121
-325.129	-97.357	0.212	-0.055
-324.114	-200.000	-0.011	-0.093
-323.099	800.000	0.047	-0.168
-322.085	-109.900	-0.141	0.029
-321.070	31.570	0.077	0.066
-320.056	-200.000	-0.030	0.354
-319.041	727.608	-0.102	-0.271
-318.026	-200.000	-0.005	0.148
-317.012	800.000	0.030	0.112
-315.997	-37.246	0.326	-0.173
-314.983	40.217	-0.323	-0.288
-313.968	-89.783	0.142	-0.041
-312.953	21.751	-0.150	0.121
-311.939	336.860	0.060	0.115
-310.924	800.000	0.044	0.133
-309.910	297.786	-0.068	-0.123
-308.895	-129.544	0.310	-0.043
-307.880	130.254	-0.108	-0.137
-306.866	-200.000	0.087	0.481
-305.851	57.341	0.125	0.121
-304.837	800.000	0.046	0.186
-303.822	484.160	0.041	-0.092
-302.807	-200.000	-0.035	-0.264
-301.793	-29.299	-0.437	-0.248
-300.778	-17.165	-0.224	0.140
-299.764	800.000	0.031	-0.122
-298.749	800.000	-0.044	-0.178
-297.735	-92.857	0.290	-0.080
-296.720	415.738	-0.123	-0.260
-295.705	513.678	0.062	-0.142
-294.691	-200.000	-0.015	0.163
-293.676	94.373	0.155	-0.174
-292.662	-41.968	-0.195	0.099
-291.647	-52.419	-0.261	-0.120
-290.632	-200.000	-0.047	0.450
-289.618	-115.656	-0.121	-0.022
-288.603	693.452	-0.025	0.064
-287.589	52.815	0.189	-0.179
-286.574	100.879	-0.192	0.221
-285.559	-86.398	-0.264	0.080
-284.545	-126.084	0.420	0.062
-283.530	-200.000	0.001	-0.153
-282.516	47.408	0.142	-0.131
-281.501	-107.339	-0.368	-0.080
-280.486	-108.872	0.272	-0.058
-279.472	-200.000	-0.005	0.040
-278.457	-200.000	-0.019	0.118
-277.443	339.721	0.042	0.082
-276.428	126.561	-0.087	0.109
-275.413	48.894	0.115	0.107
-274.399	-140.764	0.054	0.006
-273.384	-200.000	0.030	-0.266
-272.370	-63.098	-0.090	-0.037
-271.355	-67.474	-0.115	0.045
-270.340	300.356	0.235	0.429
-269.326	106.321	0.189	0.222
-268.311	-70.226	-0.057	-0.021
-267.297	23.714	0.118	0.096
-266.282	-200.000	-0.011	-0.406
-265.267	-75.526	-0.310	-0.109
-264.253	153.764	-0.203	0.275
-263.238	14.922	-0.228	0.177
-262.224	3.744	0.179	-0.129
-261.209	509.996	-0.124	-0.284
-260.195	67.012	0.117	-0.118
-259.180	800.000	0.089	0.326
-258.165	-164.919	0.137	-0.006
-257.151	431.940	0.066	-0.140
-256.136	-94.157	0.085	0.023
-255.122	-200.000	-0.006	-0.032
-254.107	-163.730	0.198	0.009
-253.092	-98.981	-0.357	0.090
-252.078	237.002	0.075	0.124
-251.063	-137.119	-0.060	0.007
-250.049	-200.000	0.008	0.157
-249.034	-67.763	-0.403	-0.156
-248.019	25.723	0.400	-0.330
-247.005	-200.000	-0.063	-0.420
-245.990	-200.000	-0.017	-0.274
-244.976	-149.048	0.363	0.029
-243.961	-200.000	0.000	0.169
-242.946	75.179	0.167	0.174
-241.932	800.000	-0.034	-0.121
-240.917	471.342	-0.145	0.323
-239.903	-144.624	-0.322	-0.029
-238.888	-200.000	0.019	-0.123
-237.873	800.000	0.049	0.138
-236.859	-0.266	0.127	-0.090
-235.844	199.766	0.164	-0.249
-234.830	0.951	-0.011	0.008
-233.815	-200.000	-0.002	0.331
-232.800	-156.790	-0.184	0.011
-231.786	-187.320	0.154	-0.002
-230.771	-21.707	0.074	-0.045
-229.757	-75.875	-0.218	0.076
-228.742	-200.000	-0.032	0.274
-227.727	-91.252	0.278	0.079
-226.713	458.613	-0.157	-0.346
-225.698	-116.712	-0.121	-0.022
-224.684	-145.466	0.156	-0.014
-223.669	725.077	0.033	0.086
-222.655	-118.182	-0.141	-0.025
-221.640	-103.323	-0.212	-0.050
-220.625	800.000	0.025	0.097
-219.611	800.000	-0.042	0.121
-218.596	-146.795	-0.223	-0.019
-217.582	-43.221	0.183	-0.091
-216.567	-93.326	-0.217	-0.060
-215.552	194.871	-0.130	0.194
-214.538	-200.000	-0.002	-0.252
-213.523	436.679	0.096	-0.207
-212.509	-92.526	0.189	-0.052
-211.494	-39.095	-0.224	0.117
-210.479	-200.000	-0.057	0.405
-209.465	116.172	0.172	0.209
-208.450	24.499	-0.026	0.022
-207.436	-134.022	-0.333	-0.041
-206.421	-25.608	-0.115	0.067
-205.406	800.000	-0.109	-0.470
-204.392	-200.000	-0.014	0.240
-203.377	-24.486	-0.219	0.129
-202.363	-134.470	0.109	0.013
-201.348	-100.152	0.171	-0.042
-200.333	-99.082	-0.314	0.079
-199.319	-154.766	-0.415	-0.027
-198.304	357.816	0.079	-0.157
-197.290	-112.417	0.153	0.030
-196.275	-50.291	-0.232	-0.108
-195.260	-46.859	-0.102	-0.049
-194.246	111.779	-0.260	0.309
-193.231	-81.149	0.125	0.041
-192.217	91.447	0.118	-0.131
-191.202	58.744	0.271	-0.262
-190.187	160.026	0.178	0.245
-189.173	702.294	0.018	-0.048
-188.158	-44.308	-0.101	-0.050
-187.144	-79.189	0.309	0.104
-186.129	240.321	0.180	0.296
-185.114	525.707	-0.158	-0.368
-184.100	-200.000	-0.013	-0.112
-183.085	-49.363	0.275	-0.130
-182.071	103.084	0.129	-0.149
-181.056	274.364	-0.135	0.236
-180.042	-147.786	0.515	0.043
-179.027	800.000	0.081	-0.228
-178.012	9.022	-0.257	0.191
-176.998	45.452	0.236	0.214
-175.983	-200.000	0.006	0.402
-174.969	-119.592	0.273	0.047
-173.954	800.000	-0.131	0.385
-172.939	-130.220	-0.200	0.027
-171.925	800.000	0.119	0.343
-170.910	-200.000	-0.031	0.232
-169.896	-105.969	-0.292	0.065
-168.881	191.521	-0.126	0.187
-167.866	-38.356	-0.130	-0.068
-166.852	-136.898	-0.172	0.019
-165.837	-144.713	-0.144	-0.013
-164.823	4.748	0.092	0.067
-163.808	800.000	-0.070	0.226
-162.793	-146.601	-0.064	-0.005
-161.779	452.779	-0.063	0.138
-160.764	118.129	-0.120	0.146
-159.750	17.039	-0.141	0.110
-158.735	7.410	-0.072	0.053
-157.720	79.296	0.296	0.313
-156.706	82.253	-0.176	0.188
-155.691	46.304	0.083	-0.076
-154.677	6.879	0.261	0.192
-153.662	46.994	0.143	-0.131
-152.647	98.566	0.101	0.115
-151.633	41.789	0.144	-0.128
-150.618	-200.000	-0.046	-0.254
-149.604	-81.249	0.285	0.093
-148.589	-200.000	0.064	0.353
-147.574	-200.000	-0.016	0.182
-146.560	800.000	0.030	-0.089
-145.545	102.220	-0.123	-0.142
-144.531	402.785	-0.045	-0.093
-143.516	165.417	0.094	0.131
-142.502	371.850	-0.125	-0.251
-141.487	-29.018	-0.288	-0.163
-140.472	45.887	0.112	0.102
-139.458	-200.000	0.041	0.214
-138.443	4.229	0.278	-0.200
-137.429	16.974	0.047	0.037
-136.414	62.600	0.203	-0.200
-135.399	-28.332	0.356	0.202
-134.385	634.100	0.103	-0.258
-133.370	-26.081	-0.237	0.137
-132.356	-200.000	0.026	-0.197
-131.341	-200.000	-0.002	-0.284
-130.326	-24.784	-0.339	-0.199
-129.312	547.760	0.078	-0.184
-128.297	293.135	-0.082	0.147
-127.283	-176.737	0.103	-0.003
-126.268	-7.055	-0.238	-0.159
-125.253	-19.330	0.170	-0.104
-124.239	-79.423	-0.362	-0.120
-123.224	496.655	-0.180	-0.407
-122.210	785.031	0.102	-0.276
