DTS Sentinel unit serial number:	SN413079Multiplexer serial number:	ORYXHardware model number:	OX4-SRSoftware version number:	ORYX F/W v4.00 Oryx Data Collector v3.7.2.0data status	okinstallation	princeton_trtdifferential loss correction	single-endedforward channel	channel 3reverse channel	N/Adate	2019/09/13time	03:32:35forward acquisition time	60.00reverse acquisition time	0.00gamma	496.2192k internal	0.2335k external	0.2335temperature offset calibration	1.0138default loss term (dB/km)	0.3790temperature slope calibration	1.0000multiplexer offset coefficient	1.0000multiplexer slope coefficient	1.0000fibre end	0.00T internal ref (°C)	27.30T ext. ref 1 (°C)	4.07T ext. ref 2 (°C)	21.74length (m)	temperature (°C)	Stokes	anti-Stokes-747.200	21.285	-0.219	0.178
-746.185	44.451	-0.289	0.267
-745.171	-186.898	-0.214	0.003
-744.156	292.804	-0.235	0.431
-743.142	-147.976	0.197	-0.016
-742.127	-66.725	-0.215	-0.086
-741.112	-76.984	0.218	-0.077
-740.098	125.956	0.052	0.065
-739.083	-200.000	0.017	-0.144
-738.069	-45.580	0.309	0.153
-737.054	-90.459	-0.131	0.038
-736.039	800.000	0.050	-0.183
-735.025	-41.870	-0.105	-0.054
-734.010	145.433	-0.117	-0.157
-732.996	-108.540	0.075	0.016
-731.981	445.239	0.079	0.175
-730.966	-61.339	-0.168	0.071
-729.952	-72.434	0.194	0.072
-728.937	800.000	0.040	0.119
-727.923	-31.198	-0.176	0.100
-726.908	-24.869	-0.173	0.103
-725.894	-200.000	-0.079	0.369
-724.879	-104.076	0.308	0.072
-723.864	-187.604	0.276	-0.004
-722.850	-105.237	-0.122	-0.028
-721.835	46.394	-0.341	-0.317
-720.821	509.384	-0.037	0.085
-719.806	583.121	-0.057	-0.140
-718.791	-136.517	-0.395	-0.046
-717.777	-200.000	-0.041	-0.211
-716.762	432.716	0.106	-0.231
-715.748	97.108	0.108	-0.124
-714.733	27.717	0.035	-0.030
-713.718	58.132	-0.124	0.122
-712.704	-200.000	-0.033	-0.190
-711.689	-94.365	0.302	-0.083
-710.675	172.718	-0.142	-0.206
-709.660	-33.228	0.131	-0.073
-708.645	-142.972	0.254	0.025
-707.631	-60.175	-0.151	0.064
-706.616	-58.457	-0.180	-0.079
-705.602	-86.991	-0.307	-0.094
-704.587	-20.115	0.110	-0.068
-703.572	-65.225	-0.379	-0.153
-702.558	-42.358	0.365	0.187
-701.543	-44.391	-0.239	-0.120
-700.529	72.238	-0.171	0.179
-699.514	800.000	-0.056	-0.168
-698.499	62.393	0.228	-0.229
-697.485	400.554	-0.029	-0.061
-696.470	29.768	-0.259	-0.221
-695.456	-3.291	-0.192	0.134
-694.441	-15.191	-0.230	-0.148
-693.426	-87.503	0.310	-0.094
-692.412	-25.369	0.274	-0.162
-691.397	-82.580	0.518	-0.168
-690.383	-200.000	-0.032	0.162
-689.368	-200.000	0.040	-0.225
-688.354	-32.533	0.200	-0.112
-687.339	-200.000	-0.131	-0.609
-686.324	45.841	-0.205	-0.190
-685.310	120.911	-0.097	-0.121
-684.295	430.534	0.123	-0.267
-683.281	-148.901	-0.347	0.028
-682.266	138.908	-0.060	-0.079
-681.251	12.580	-0.132	-0.102
-680.237	-200.000	0.018	-0.100
-679.222	456.013	-0.136	0.303
-678.208	-153.812	-0.098	0.007
-677.193	-200.000	0.011	-0.181
-676.178	17.654	-0.210	-0.167
-675.164	120.581	0.038	-0.047
-674.149	-97.670	-0.112	0.029
-673.135	-200.000	-0.056	-0.442
-672.120	148.172	-0.120	-0.163
-671.105	-40.373	-0.115	-0.060
-670.091	-141.473	-0.351	-0.036
-669.076	-200.000	-0.037	0.351
-668.062	-90.575	0.236	0.068
-667.047	575.162	0.173	0.424
-666.032	800.000	0.036	-0.145
-665.018	318.271	-0.102	0.194
-664.003	-108.486	-0.369	0.079
-662.989	-155.517	0.250	-0.016
-661.974	-134.638	0.366	-0.045
-660.959	-193.641	0.231	0.002
-659.945	203.417	0.069	-0.106
-658.930	4.185	-0.019	0.014
-657.916	-65.131	0.293	-0.118
-656.901	14.395	-0.242	-0.189
-655.886	800.000	-0.073	-0.266
-654.872	-31.093	-0.149	-0.084
-653.857	-57.867	0.134	-0.059
-652.843	-200.000	0.018	-0.288
-651.828	-29.430	0.071	0.041
-650.814	-79.497	0.271	0.092
-649.799	-88.593	-0.176	0.052
-648.784	-84.138	0.103	-0.033
-647.770	98.269	-0.298	0.343
-646.755	0.971	0.090	0.064
-645.741	-200.000	-0.009	-0.055
-644.726	-115.649	0.177	0.033
-643.711	800.000	0.018	-0.056
-642.697	-32.709	-0.139	0.077
-641.682	-200.000	0.029	-0.142
-640.668	131.656	-0.081	0.105
-639.653	342.890	0.047	0.092
-638.638	437.044	-0.109	0.237
-637.624	-128.252	-0.318	0.045
-636.609	348.749	0.190	0.375
-635.595	338.177	0.041	0.081
-634.580	-180.781	-0.177	0.004
-633.565	338.811	0.043	0.083
-632.551	1.421	-0.307	-0.221
-631.536	-75.618	0.161	-0.057
-630.522	206.314	-0.203	0.316
-629.507	-187.791	0.092	0.001
-628.492	75.388	-0.194	-0.205
-627.478	199.302	0.054	-0.083
-626.463	1.648	0.233	-0.167
-625.449	-93.684	0.026	0.007
-624.434	-147.645	0.214	0.018
-623.419	-200.000	-0.001	-0.252
-622.405	-160.179	-0.045	0.002
-621.390	-124.336	-0.161	-0.025
-620.376	441.891	0.035	0.077
-619.361	220.939	-0.130	-0.209
-618.346	111.002	-0.156	-0.188
-617.332	-200.000	0.070	-0.308
-616.317	800.000	-0.091	0.332
-615.303	-70.370	0.445	-0.169
-614.288	-49.169	-0.318	-0.152
-613.273	26.397	-0.140	0.117
-612.259	800.000	0.171	-0.484
-611.244	65.874	0.096	0.097
-610.230	60.639	-0.146	-0.145
-609.215	-200.000	0.020	-0.156
-608.201	-61.173	0.206	-0.087
-607.186	763.032	-0.026	0.071
-606.171	-40.308	0.235	-0.122
-605.157	-113.581	-0.059	-0.012
-604.142	-200.000	0.022	0.162
-603.128	-80.269	-0.053	0.018
-602.113	11.185	-0.196	0.150
-601.098	-200.000	0.022	-0.171
-600.084	66.638	-0.232	-0.236
-599.069	-98.893	0.322	0.082
-598.055	-19.675	-0.321	-0.198
-597.040	800.000	0.059	-0.191
-596.025	-95.005	-0.318	-0.086
-595.011	800.000	-0.024	0.068
-593.996	-10.479	-0.310	0.205
-592.982	2.067	0.111	-0.080
-591.967	-122.580	-0.403	-0.065
-590.952	49.491	0.189	0.178
-589.938	800.000	-0.063	-0.206
-588.923	-200.000	0.061	-0.339
-587.909	-200.000	0.061	-0.380
-586.894	8.567	-0.189	-0.142
-585.879	800.000	0.054	0.198
-584.865	-40.515	-0.191	-0.099
-583.850	648.512	-0.064	-0.164
-582.836	462.913	0.127	-0.284
-581.821	175.402	-0.035	-0.051
-580.806	-200.000	-0.029	0.136
-579.792	76.805	0.148	0.157
-578.777	224.899	0.147	-0.237
-577.763	-111.637	0.353	0.071
-576.748	-132.753	0.311	0.040
-575.733	800.000	0.022	0.079
-574.719	76.445	0.220	-0.232
-573.704	108.773	0.090	-0.107
-572.690	-200.000	0.020	0.236
-571.675	800.000	-0.052	-0.145
-570.661	189.457	0.213	-0.318
-569.646	-200.000	-0.002	-0.061
-568.631	339.724	-0.232	0.452
-567.617	360.242	0.073	0.147
-566.602	359.254	0.263	-0.525
-565.588	-52.525	0.069	0.032
-564.573	-200.000	-0.014	-0.116
-563.558	608.122	0.129	-0.322
-562.544	-68.104	-0.211	0.082
-561.529	350.683	0.106	0.210
-560.515	365.091	0.015	-0.031
-559.500	800.000	0.022	-0.065
-558.485	-157.324	0.226	-0.014
-557.471	-56.619	0.105	-0.046
-556.456	-191.228	0.274	-0.003
-555.442	-171.103	-0.183	-0.006
-554.427	-200.000	0.068	0.559
-553.412	158.684	-0.148	0.205
-552.398	-96.848	-0.281	-0.074
-551.383	-65.009	0.151	-0.061
-550.369	-200.000	-0.017	0.106
-549.354	-54.731	0.253	0.114
-548.339	147.028	-0.116	-0.156
-547.325	115.479	0.094	0.115
-546.310	-200.000	0.039	0.182
-545.296	-0.861	0.199	-0.141
-544.281	185.051	-0.196	0.290
-543.266	-140.121	-0.365	0.038
-542.252	42.024	-0.230	0.208
-541.237	-200.000	-0.014	-0.066
-540.223	800.000	-0.029	-0.080
-539.208	-58.317	-0.221	-0.096
-538.193	92.397	-0.169	0.190
-537.179	-23.785	0.356	0.212
-536.164	48.565	-0.151	0.141
-535.150	-3.204	-0.190	-0.132
-534.135	114.018	-0.161	-0.195
-533.121	-200.000	0.007	0.317
-532.106	-200.000	-0.044	-0.220
-531.091	-200.000	0.036	0.218
-530.077	-75.768	-0.126	0.044
-529.062	800.000	0.091	0.315
-528.048	298.863	-0.157	0.288
-527.033	336.911	0.173	0.335
-526.018	800.000	-0.055	0.231
-525.004	122.566	0.135	-0.169
-523.989	452.438	-0.093	-0.205
-522.975	423.637	-0.096	0.205
-521.960	-66.448	-0.507	-0.200
-520.945	154.606	0.156	0.214
-519.931	800.000	0.048	-0.174
-518.916	-200.000	-0.030	0.423
-517.902	-117.465	-0.159	-0.029
-516.887	46.572	-0.180	0.167
-515.872	179.983	-0.254	0.371
-514.858	-63.693	-0.259	0.106
-513.843	22.862	0.333	0.272
-512.829	-108.718	-0.076	-0.016
-511.814	13.895	-0.094	-0.073
-510.799	-151.593	0.372	0.027
-509.785	-200.000	-0.049	0.289
-508.770	-200.000	-0.011	0.209
-507.756	103.203	-0.235	0.275
-506.741	-126.212	0.119	0.018
-505.726	64.709	-0.273	0.274
-504.712	-200.000	-0.044	-0.249
-503.697	27.394	-0.179	0.149
-502.683	188.830	0.064	0.095
-501.668	-95.733	-0.028	0.007
-500.653	614.323	0.080	-0.199
-499.639	120.766	0.198	0.244
-498.624	97.974	0.159	-0.182
-497.610	-2.501	-0.292	0.204
-496.595	-59.017	0.318	-0.137
-495.581	40.991	-0.233	0.209
-494.566	800.000	-0.079	0.290
-493.551	532.899	-0.055	-0.131
-492.537	701.916	-0.119	-0.312
-491.522	-200.000	0.005	0.138
-490.508	800.000	0.148	-0.453
-489.493	800.000	0.079	-0.255
-488.478	59.262	-0.244	-0.239
-487.464	-57.312	0.354	-0.155
-486.449	558.554	0.116	0.279
-485.435	67.507	-0.022	-0.023
-484.420	-84.521	0.227	0.071
-483.405	-200.000	-0.055	-0.293
-482.391	800.000	0.055	0.167
-481.376	9.074	-0.104	-0.078
-480.362	241.738	-0.131	-0.218
-479.347	59.086	0.115	-0.112
-478.332	-200.000	-0.031	-0.380
-477.318	-164.909	0.161	0.007
-476.303	-77.411	-0.079	-0.027
-475.289	-200.000	-0.022	-0.169
-474.274	-106.703	-0.255	0.056
-473.259	128.351	0.182	0.230
-472.245	235.276	0.195	-0.321
-471.230	-200.000	-0.007	-0.047
-470.216	-37.249	0.190	0.101
-469.201	-200.000	-0.024	-0.195
-468.186	-200.000	0.009	-0.427
-467.172	-81.233	-0.154	0.051
-466.157	-55.019	-0.139	-0.062
-465.143	27.984	-0.121	-0.101
-464.128	326.894	0.141	-0.269
-463.113	-87.084	-0.143	-0.043
-462.099	512.683	0.063	0.147
-461.084	261.843	0.128	0.220
-460.070	-118.142	-0.368	0.065
-459.055	-200.000	-0.021	-0.140
-458.040	800.000	0.048	0.197
-457.026	-200.000	-0.016	0.223
-456.011	24.112	0.159	0.130
-454.997	-139.996	0.133	0.014
-453.982	307.756	0.100	0.185
-452.968	365.285	-0.148	-0.297
-451.953	95.772	-0.088	0.099
-450.938	-119.454	-0.106	-0.018
-449.924	-200.000	0.055	-0.570
-448.909	-124.314	0.097	-0.015
-447.895	-68.965	-0.126	0.048
-446.880	137.339	-0.092	0.120
-445.865	800.000	-0.061	0.243
-444.851	-2.852	-0.190	-0.132
-443.836	-200.000	0.022	-0.105
-442.822	227.927	-0.220	-0.355
-441.807	-200.000	-0.036	-0.296
-440.792	59.728	0.194	0.190
-439.778	-136.744	-0.115	0.013
-438.763	-1.568	-0.199	0.139
-437.749	-91.890	-0.283	0.080
-436.734	-200.000	-0.046	-0.266
-435.719	-200.000	0.009	0.091
-434.705	-122.410	-0.343	-0.056
-433.690	-49.558	0.207	0.098
-432.676	61.343	0.107	-0.105
-431.661	-96.801	-0.095	-0.025
-430.646	136.215	0.066	0.085
-429.632	86.404	-0.078	0.085
-428.617	263.215	0.211	0.364
-427.603	-162.230	-0.399	0.020
-426.588	-146.528	-0.291	0.025
-425.573	3.006	-0.184	0.132
-424.559	-69.531	0.047	0.018
-423.544	29.327	0.198	0.167
-422.530	-1.644	0.181	-0.127
-421.515	555.072	-0.072	0.172
-420.500	26.472	0.036	-0.030
-419.486	-60.635	-0.131	0.055
-418.471	297.150	0.100	0.182
-417.457	800.000	-0.050	-0.147
-416.442	186.963	0.112	-0.165
-415.428	-46.484	-0.100	-0.049
-414.413	-200.000	-0.024	-0.330
-413.398	-74.726	0.306	0.109
-412.384	800.000	-0.109	0.344
-411.369	132.890	0.133	0.170
-410.355	-102.825	0.314	-0.074
-409.340	77.576	-0.214	-0.226
-408.325	-139.847	-0.041	0.004
-407.311	-200.000	-0.012	0.052
-406.296	800.000	-0.093	-0.346
-405.282	51.634	-0.043	-0.040
-404.267	-25.216	0.267	0.157
-403.252	800.000	-0.067	-0.241
-402.238	800.000	0.106	0.292
-401.223	800.000	-0.088	-0.259
-400.209	32.081	-0.080	-0.069
-399.194	568.655	-0.049	0.117
-398.179	796.528	0.057	0.154
-397.165	-137.425	-0.200	0.022
-396.150	-162.092	-0.333	-0.017
-395.136	80.844	0.057	0.061
-394.121	-133.332	-0.366	-0.046
-393.106	-111.019	-0.089	-0.018
-392.092	218.418	-0.078	-0.123
-391.077	141.653	0.103	-0.135
-390.063	800.000	0.017	0.051
-389.048	209.799	-0.110	0.171
-388.033	294.247	-0.131	0.237
-387.019	-74.554	0.040	0.014
-386.004	-131.107	0.030	-0.004
-384.990	355.233	-0.151	-0.298
-383.975	351.643	0.102	-0.199
-382.960	800.000	0.103	-0.391
-381.946	51.372	-0.313	-0.294
-380.931	-47.821	0.119	0.057
-379.917	800.000	0.029	0.107
-378.902	-200.000	-0.013	0.527
-377.888	-200.000	0.036	0.217
-376.873	-156.596	-0.330	-0.020
-375.858	-64.051	-0.180	0.073
-374.844	188.835	0.058	0.086
-373.829	-43.429	-0.155	0.078
-372.815	-48.356	0.141	-0.067
-371.800	800.000	-0.038	0.156
-370.785	136.322	-0.098	-0.126
-369.771	299.890	-0.094	-0.172
-368.756	-84.022	-0.343	0.108
-367.742	255.411	-0.059	-0.101
-366.727	-6.573	0.111	0.075
-365.712	302.740	-0.126	0.231
-364.698	84.782	0.141	-0.153
-363.683	800.000	-0.028	0.082
-362.669	28.265	-0.147	-0.123
-361.654	-91.836	-0.138	0.039
-360.639	709.061	-0.031	-0.082
-359.625	-180.536	-0.457	-0.009
-358.610	-183.667	0.143	0.002
-357.596	22.048	0.124	0.100
-356.581	-200.000	0.033	-0.216
-355.566	-200.000	0.087	0.417
-354.552	275.004	0.087	-0.152
-353.537	-107.241	0.190	0.041
-352.523	411.770	-0.061	-0.128
-351.508	-0.610	0.131	-0.092
-350.493	82.335	-0.045	0.048
-349.479	38.451	-0.280	-0.247
-348.464	-81.385	-0.325	0.106
-347.450	210.046	-0.220	0.341
-346.435	-155.165	-0.224	0.014
-345.420	-58.141	-0.276	0.119
-344.406	-146.013	0.313	0.027
-343.391	-72.248	-0.025	0.009
-342.377	369.268	0.060	0.119
-341.362	6.298	-0.093	-0.068
-340.348	154.836	-0.125	-0.169
-339.333	-27.729	0.239	-0.137
-338.318	23.110	0.395	0.320
-337.304	-196.789	0.133	-0.001
-336.289	-200.000	0.006	-0.050
-335.275	279.621	-0.025	-0.045
-334.260	-200.000	-0.000	0.325
-333.245	764.941	0.065	0.176
-332.231	-69.886	0.305	0.115
-331.216	-152.816	-0.600	0.042
-330.202	800.000	0.058	0.159
-329.187	425.684	0.024	-0.051
-328.172	-48.007	0.244	0.117
-327.158	81.053	0.127	-0.136
-326.143	161.436	-0.072	0.100
-325.129	64.723	0.224	0.223
-324.114	-55.048	-0.362	-0.161
-323.099	-21.153	-0.171	-0.104
-322.085	96.844	-0.132	-0.149
-321.070	43.726	0.093	-0.084
-320.056	800.000	-0.053	-0.153
-319.041	-7.059	0.211	-0.142
-318.026	7.434	-0.250	-0.184
-317.012	-19.201	0.060	0.037
-315.997	46.604	-0.093	0.085
-314.983	343.475	0.078	0.152
-313.968	800.000	-0.073	-0.274
-312.953	-18.525	0.068	-0.042
-311.939	-110.106	0.154	-0.032
-310.924	-200.000	-0.036	0.210
-309.910	-144.844	-0.211	-0.019
-308.895	-186.530	0.199	-0.003
-307.880	800.000	0.098	0.354
-306.866	800.000	0.114	-0.433
-305.851	-3.263	-0.134	0.092
-304.837	-200.000	0.016	0.112
-303.822	-30.993	-0.177	0.099
-302.807	-115.236	0.012	-0.002
-301.793	800.000	0.075	-0.235
-300.778	379.864	-0.093	-0.187
-299.764	18.539	-0.078	0.061
-298.749	-131.854	0.338	0.044
-297.735	-200.000	0.040	-0.398
-296.720	-107.561	0.114	-0.025
-295.705	694.166	-0.126	0.326
-294.691	-200.000	-0.003	0.138
-293.676	342.334	0.249	-0.481
-292.662	66.685	0.194	0.195
-291.647	-77.528	0.216	0.074
-290.632	-200.000	0.078	-0.413
-289.618	-45.413	0.108	-0.053
-288.603	-125.068	-0.218	0.033
-287.589	-158.059	0.172	0.010
-286.574	27.325	0.100	-0.083
-285.559	181.927	0.144	-0.210
-284.545	-29.452	0.192	0.109
-283.530	24.074	0.046	0.037
-282.516	156.925	0.077	-0.105
-281.501	40.269	-0.137	-0.121
-280.486	-80.148	0.389	-0.128
-279.472	-41.212	0.322	-0.164
-278.457	103.981	-0.088	-0.102
-277.443	-183.567	0.282	0.005
-276.428	-26.045	0.204	0.119
-275.413	214.345	0.136	-0.212
-274.399	-30.812	0.257	-0.144
-273.384	800.000	-0.080	0.331
-272.370	475.749	-0.122	-0.272
-271.355	17.274	0.152	-0.119
-270.340	-134.889	-0.348	0.042
-269.326	800.000	-0.060	0.176
-268.311	-152.510	-0.372	0.026
-267.297	40.588	-0.295	0.262
-266.282	176.910	-0.090	-0.129
-265.267	-178.631	-0.270	0.006
-264.253	275.340	0.132	0.231
-263.238	52.870	0.053	0.050
-262.224	669.625	-0.118	-0.301
-261.209	276.034	-0.108	0.188
-260.195	-200.000	0.035	0.307
-259.180	260.840	-0.104	-0.178
-258.165	-58.837	0.386	-0.165
-257.151	-200.000	0.018	0.218
-256.136	43.549	-0.173	-0.156
-255.122	-92.170	0.513	0.143
-254.107	121.653	-0.083	0.102
-253.092	-68.181	0.317	0.122
-252.078	800.000	-0.123	0.339
-251.063	258.619	0.054	0.092
-250.049	-78.283	-0.167	-0.057
-249.034	-114.316	0.125	0.024
-248.019	-200.000	0.018	-0.127
-247.005	-95.961	0.183	-0.048
-245.990	-200.000	0.003	-0.070
-244.976	-47.336	-0.123	-0.059
-243.961	57.974	0.136	0.131
-242.946	-32.946	0.243	0.133
-241.932	95.752	-0.085	-0.096
-240.917	800.000	0.042	0.166
-239.903	-21.034	0.272	-0.164
-238.888	800.000	-0.054	-0.190
-237.873	304.954	0.051	-0.094
-236.859	110.221	0.160	0.190
-235.844	-72.935	0.133	0.048
-234.830	-31.893	-0.025	0.014
-233.815	516.183	0.087	0.200
-232.800	550.571	0.120	-0.283
-231.786	249.968	0.055	0.093
-230.771	-165.424	0.128	0.006
-229.757	-200.000	0.015	0.206
-228.742	-140.975	0.256	0.026
-227.727	-200.000	-0.040	0.353
-226.713	44.519	-0.149	-0.135
-225.698	-11.137	-0.027	0.018
-224.684	-163.034	-0.242	-0.012
-223.669	-158.119	-0.272	-0.016
-222.655	-67.112	-0.204	0.079
-221.640	125.853	0.141	-0.175
-220.625	199.168	0.072	0.109
-219.611	-96.953	0.028	0.007
-218.596	76.915	-0.152	0.159
-217.582	220.214	-0.061	0.096
-216.567	-42.112	0.252	0.127
-215.552	90.988	-0.081	-0.089
-214.538	-140.955	0.313	0.032
-213.523	-81.468	0.047	0.015
-212.509	151.276	0.087	0.117
-211.494	-66.549	-0.069	0.027
-210.479	-46.998	0.279	0.134
-209.465	-23.849	0.225	0.132
-208.450	800.000	-0.075	-0.265
-207.436	-90.566	0.214	-0.061
-206.421	24.338	0.130	-0.106
-205.406	-53.507	0.321	0.144
-204.392	-5.757	-0.023	0.016
-203.377	-127.886	0.534	0.076
-202.363	-114.415	-0.328	-0.062
-201.348	114.057	-0.110	-0.131
-200.333	165.711	0.082	0.114
-199.319	85.810	-0.125	0.135
-198.304	247.277	0.214	0.355
-197.290	112.916	0.196	0.233
-196.275	-200.000	0.002	0.021
-195.260	-200.000	-0.007	-0.096
-194.246	-178.546	-0.100	0.002
-193.231	53.325	-0.156	0.147
-192.217	-200.000	0.034	0.149
-191.202	-20.252	0.269	0.163
-190.187	-119.534	0.166	0.028
-189.173	-200.000	-0.034	0.459
-188.158	-20.071	0.244	0.148
-187.144	242.050	0.035	0.057
-186.129	124.532	-0.119	0.147
-185.114	-200.000	0.014	-0.189
-184.100	800.000	0.069	-0.216
-183.085	800.000	0.034	-0.095
-182.071	612.806	-0.077	-0.189
-181.056	-108.363	0.328	-0.070
-180.042	118.220	0.135	-0.163
-179.027	97.068	0.107	-0.120
-178.012	800.000	-0.122	0.333
-176.998	-2.219	0.118	-0.081
-175.983	-45.674	0.305	-0.148
-174.969	800.000	0.057	-0.234
-173.954	467.469	-0.096	0.211
-172.939	-200.000	0.020	-0.267
-171.925	-200.000	0.013	-0.085
-170.910	91.875	-0.114	-0.127
-169.896	-200.000	-0.035	-0.334
-168.881	71.012	-0.162	0.165
-167.866	95.455	0.056	0.063
-166.852	-135.308	0.413	0.049
-165.837	30.081	-0.156	0.130
-164.823	77.726	0.194	-0.203
-163.808	-200.000	-0.018	0.277
-162.793	-200.000	-0.017	-0.076
-161.779	-200.000	-0.034	-0.176
-160.764	-53.910	0.031	-0.014
-159.750	65.813	-0.241	-0.240
-158.735	-200.000	-0.030	-0.148
-157.720	-75.977	-0.235	0.082
-156.706	287.036	0.117	-0.207
-155.691	120.765	0.012	0.015
-154.677	-161.861	0.129	0.006
-153.662	-120.435	-0.334	0.056
-152.647	800.000	0.016	-0.062
-151.633	-200.000	0.119	-0.556
-150.618	-200.000	-0.028	-0.217
-149.604	52.249	-0.057	-0.053
-148.589	-97.542	0.105	-0.027
-147.574	-79.360	0.376	0.125
-146.560	800.000	0.171	0.571
-145.545	-6.912	0.233	0.155
-144.531	72.907	-0.087	0.089
-143.516	-200.000	0.065	0.298
-142.502	800.000	0.049	-0.152
-141.487	-139.058	-0.030	0.003
-140.472	139.097	-0.224	-0.289
-139.458	191.081	-0.129	0.191
-138.443	-200.000	-0.024	-0.117
-137.429	-35.923	-0.355	0.188
-136.414	-42.295	-0.127	0.064
-135.399	375.253	-0.147	0.293
-134.385	-67.482	0.206	-0.079
-133.370	-82.620	-0.413	-0.131
-132.356	-143.166	0.186	0.018
-131.341	-178.927	-0.370	0.008
-130.326	800.000	0.078	0.290
-129.312	86.184	-0.150	0.162
-128.297	800.000	0.063	0.259
-127.283	120.612	0.077	0.094
-126.268	311.541	0.071	0.130
-125.253	607.824	-0.066	0.162
-124.239	33.203	0.219	-0.187
-123.224	-104.564	-0.258	-0.058
-122.210	308.844	0.134	-0.246
-121.195	-34.391	-0.101	-0.054
