DTS Sentinel unit serial number:	SN413079Multiplexer serial number:	ORYXHardware model number:	OX4-SRSoftware version number:	ORYX F/W v4.00 Oryx Data Collector v3.7.2.0data status	okinstallation	princeton_trtdifferential loss correction	single-endedforward channel	channel 3reverse channel	N/Adate	2019/09/13time	06:32:34forward acquisition time	60.00reverse acquisition time	0.00gamma	496.2192k internal	0.2338k external	0.2338temperature offset calibration	1.0133default loss term (dB/km)	0.3790temperature slope calibration	1.0000multiplexer offset coefficient	1.0000multiplexer slope coefficient	1.0000fibre end	0.00T internal ref (°C)	26.06T ext. ref 1 (°C)	4.10T ext. ref 2 (°C)	20.61length (m)	temperature (°C)	Stokes	anti-Stokes-747.200	-200.000	-0.039	-0.288
-746.185	66.137	-0.194	0.198
-745.171	-63.570	0.255	-0.105
-744.156	149.265	-0.063	-0.086
-743.142	-23.604	0.092	0.056
-742.127	469.051	-0.156	0.351
-741.112	47.722	0.269	-0.252
-740.098	800.000	-0.024	0.102
-739.083	-3.286	-0.137	-0.096
-738.069	-31.010	0.132	-0.075
-737.054	33.075	-0.033	-0.028
-736.039	23.247	-0.305	0.251
-735.025	275.660	-0.110	-0.195
-734.010	71.920	-0.213	0.223
-732.996	-103.556	-0.022	-0.005
-731.981	196.414	-0.210	0.321
-730.966	-183.407	-0.113	0.002
-729.952	-127.431	-0.397	-0.058
-728.937	-200.000	0.020	-0.320
-727.923	107.562	-0.042	0.050
-726.908	66.594	-0.150	0.153
-725.894	-200.000	0.174	-0.000
-724.879	-110.078	-0.284	0.060
-723.864	503.194	-0.086	-0.199
-722.850	-96.353	0.316	-0.084
-721.835	296.116	0.248	-0.456
-720.821	-200.000	0.044	0.254
-719.806	-118.985	0.269	-0.047
-718.791	800.000	0.021	0.078
-717.777	-34.993	-0.261	0.143
-716.762	800.000	-0.063	0.248
-715.748	251.040	0.134	-0.228
-714.733	146.498	0.218	0.294
-713.718	-200.000	-0.016	-0.116
-712.704	-117.718	0.074	-0.013
-711.689	-55.253	0.073	-0.033
-710.675	295.661	0.154	-0.283
-709.660	89.371	-0.119	-0.133
-708.645	73.414	0.028	-0.029
-707.631	202.058	0.093	0.143
-706.616	-15.245	-0.081	0.052
-705.602	168.352	0.109	-0.156
-704.587	-172.900	0.313	-0.010
-703.572	279.797	-0.205	0.366
-702.558	-103.356	0.338	-0.080
-701.543	22.786	0.254	0.208
-700.529	-105.069	0.081	-0.019
-699.514	-34.553	-0.358	-0.196
-698.499	-153.438	0.231	0.016
-697.485	296.665	-0.129	-0.237
-696.470	-200.000	-0.010	0.195
-695.456	107.104	0.054	-0.064
-694.441	316.430	0.194	-0.366
-693.426	800.000	-0.020	0.086
-692.412	-67.846	0.155	-0.061
-691.397	-22.050	0.081	0.049
-690.383	-89.611	-0.053	0.016
-689.368	-150.145	-0.273	-0.021
-688.354	-145.923	0.368	0.033
-687.339	213.319	0.118	-0.187
-686.324	181.933	0.069	0.102
-685.310	152.023	0.097	-0.133
-684.295	500.997	0.064	-0.149
-683.281	-153.366	0.100	-0.007
-682.266	800.000	-0.051	0.150
-681.251	91.207	-0.081	0.091
-680.237	-200.000	0.051	-0.373
-679.222	-51.921	-0.265	0.123
-678.208	-200.000	0.027	-0.147
-677.193	-19.464	-0.355	0.220
-676.178	-200.000	-0.011	0.236
-675.164	105.176	-0.176	-0.208
-674.149	-200.000	-0.001	0.018
-673.135	25.429	0.063	-0.052
-672.120	331.837	0.146	-0.281
-671.105	150.343	-0.192	0.261
-670.091	-187.117	0.176	0.002
-669.076	299.339	0.039	0.072
-668.062	71.018	-0.109	0.113
-667.047	-112.840	0.227	-0.045
-666.032	376.540	-0.088	-0.181
-665.018	-200.000	-0.015	-0.271
-664.003	677.387	0.172	-0.448
-662.989	-200.000	-0.035	-0.295
-661.974	-155.346	-0.155	-0.010
-660.959	772.197	0.090	-0.246
-659.945	-200.000	-0.017	0.155
-658.930	800.000	0.078	0.256
-657.916	-155.242	0.126	0.008
-656.901	151.788	-0.123	0.168
-655.886	89.691	-0.137	-0.153
-654.872	800.000	0.071	-0.283
-653.857	-77.280	-0.238	0.083
-652.843	-152.994	-0.349	-0.025
-651.828	-38.777	-0.393	-0.207
-650.814	-27.923	0.214	-0.124
-649.799	800.000	0.055	-0.207
-648.784	128.882	-0.332	0.423
-647.770	-7.983	-0.183	-0.123
-646.755	173.034	0.041	-0.059
-645.741	757.930	0.035	-0.096
-644.726	454.336	-0.147	-0.325
-643.711	-12.426	-0.046	0.030
-642.697	619.150	0.054	-0.136
-641.682	-200.000	-0.016	0.348
-640.668	-200.000	0.006	0.200
-639.653	133.976	0.134	0.173
-638.638	-136.625	-0.082	0.010
-637.624	-115.436	-0.159	-0.030
-636.609	-37.869	0.237	-0.126
-635.595	-91.130	0.264	0.076
-634.580	111.833	-0.204	0.246
-633.565	-200.000	-0.027	0.155
-632.551	-34.164	0.209	-0.115
-631.536	171.303	0.138	-0.197
-630.522	800.000	-0.136	-0.378
-629.507	23.629	-0.379	0.311
-628.492	-65.353	0.245	0.098
-627.478	-112.195	-0.114	0.023
-626.463	800.000	0.055	0.167
-625.449	-109.487	-0.203	-0.043
-624.434	-200.000	-0.005	-0.217
-623.419	-66.237	0.120	-0.048
-622.405	-200.000	0.021	-0.215
-621.390	-116.149	0.242	0.045
-620.376	34.315	-0.019	0.017
-619.361	11.224	0.273	-0.208
-618.346	-137.424	-0.131	0.015
-617.332	-34.718	0.344	-0.188
-616.317	800.000	0.060	0.217
-615.303	-49.672	0.160	-0.076
-614.288	-54.722	-0.256	-0.116
-613.273	-12.454	0.121	-0.079
-612.259	-48.347	0.061	0.030
-611.244	685.487	0.081	0.210
-610.230	-123.977	0.175	-0.027
-609.215	-200.000	0.021	0.205
-608.201	40.693	-0.165	0.149
-607.186	245.207	0.075	-0.125
-606.171	-200.000	-0.008	0.080
-605.157	-200.000	0.011	0.088
-604.142	606.921	0.103	-0.256
-603.128	-27.604	-0.065	0.037
-602.113	-152.397	0.254	-0.018
-601.098	239.526	-0.088	-0.146
-600.084	-54.370	-0.050	0.022
-599.069	-200.000	0.043	-0.289
-598.055	-124.749	0.479	-0.074
-597.040	800.000	0.049	-0.192
-596.025	778.483	0.082	0.224
-595.011	85.605	-0.239	0.262
-593.996	29.572	0.312	-0.265
-592.982	-0.275	-0.131	-0.093
-591.967	167.421	0.080	-0.114
-590.952	137.193	-0.196	-0.255
-589.938	-195.025	0.158	0.001
-588.923	45.455	0.051	0.047
-587.909	-200.000	0.027	-0.228
-586.894	307.358	0.071	-0.131
-585.879	-200.000	0.018	0.179
-584.865	-200.000	-0.000	0.061
-583.850	81.254	0.054	-0.058
-582.836	299.325	0.104	0.191
-581.821	19.240	0.081	0.065
-580.806	-43.216	0.077	-0.039
-579.792	22.436	-0.123	-0.100
-578.777	60.429	-0.197	-0.195
-577.763	-22.022	0.193	-0.117
-576.748	-68.774	-0.548	0.211
-575.733	60.532	0.230	-0.227
-574.719	478.934	-0.057	0.129
-573.704	800.000	-0.068	-0.264
-572.690	46.961	-0.265	0.246
-571.675	800.000	-0.031	0.097
-570.661	-26.362	-0.126	-0.074
-569.646	109.932	0.125	0.149
-568.631	800.000	-0.087	-0.295
-567.617	-108.613	0.063	0.014
-566.602	-200.000	0.030	-0.395
-565.588	-34.802	0.076	0.041
-564.573	410.751	-0.064	0.135
-563.558	-77.739	0.247	-0.085
-562.544	-101.321	-0.346	-0.084
-561.529	-56.449	0.192	-0.085
-560.515	-93.233	0.271	0.075
-559.500	474.166	-0.097	-0.219
-558.485	800.000	0.062	-0.254
-557.471	-123.824	0.197	-0.031
-556.456	349.412	0.170	-0.335
-555.442	800.000	-0.018	-0.073
-554.427	-123.969	-0.226	0.035
-553.412	-83.441	-0.198	-0.063
-552.398	-8.253	-0.198	-0.133
-551.383	-107.226	0.212	-0.046
-550.369	800.000	0.151	-0.497
-549.354	-50.853	-0.221	-0.103
-548.339	-8.925	-0.062	-0.041
-547.325	-98.236	-0.075	0.019
-546.310	-85.044	0.166	0.052
-545.296	800.000	0.131	0.369
-544.281	-43.279	-0.405	-0.204
-543.266	-103.172	0.260	-0.061
-542.252	-15.403	0.242	-0.154
-541.237	800.000	-0.050	-0.208
-540.223	549.621	-0.072	-0.171
-539.208	-44.954	0.353	0.175
-538.193	370.277	0.022	-0.045
-537.179	137.559	-0.144	-0.188
-536.164	-114.314	0.152	0.029
-535.150	70.015	-0.133	0.137
-534.135	800.000	0.031	0.111
-533.121	-170.951	0.202	0.007
-532.106	138.419	0.071	0.092
-531.091	368.237	-0.158	-0.318
-530.077	-175.277	-0.172	-0.005
-529.062	-88.941	-0.133	0.039
-528.048	-0.093	0.222	0.157
-527.033	-200.000	-0.012	-0.125
-526.018	-200.000	-0.005	0.160
-525.004	-48.732	0.230	0.110
-523.989	151.250	-0.191	-0.258
-522.975	45.394	-0.163	-0.149
-521.960	800.000	0.059	0.241
-520.945	-79.390	0.238	0.080
-519.931	33.555	-0.204	0.177
-518.916	800.000	0.049	-0.138
-517.902	800.000	0.107	0.432
-516.887	373.728	0.110	0.222
-515.872	-69.917	0.128	0.048
-514.858	-102.246	-0.055	-0.013
-513.843	-54.623	-0.314	0.141
-512.829	784.004	0.062	-0.170
-511.814	-61.396	-0.264	-0.110
-510.799	-78.055	-0.157	-0.054
-509.785	-136.856	-0.037	-0.004
-508.770	40.172	0.108	-0.096
-507.756	-200.000	0.016	0.092
-506.741	-112.664	-0.125	0.025
-505.726	81.925	-0.043	-0.047
-504.712	-114.396	-0.200	0.038
-503.697	-139.576	-0.130	0.014
-502.683	-27.971	-0.011	-0.006
-501.668	-200.000	-0.009	-0.332
-500.653	-45.320	-0.253	-0.125
-499.639	-200.000	-0.026	0.264
-498.624	17.940	0.244	-0.193
-497.610	14.666	0.178	-0.138
-496.595	32.196	0.233	-0.199
-495.581	-200.000	-0.021	0.171
-494.566	-65.034	-0.508	0.204
-493.551	259.288	0.138	-0.236
-492.537	-85.112	0.138	-0.043
-491.522	467.439	0.067	0.150
-490.508	-135.535	0.452	0.053
-489.493	543.806	-0.146	-0.347
-488.478	-78.549	0.058	-0.020
-487.464	-200.000	0.000	-0.215
-486.449	-109.928	-0.283	0.059
-485.435	-109.104	0.376	0.080
-484.420	35.738	-0.229	-0.200
-483.405	800.000	0.134	0.381
-482.391	-131.302	-0.254	-0.033
-481.376	261.223	-0.121	-0.208
-480.362	102.863	0.131	-0.153
-479.347	98.664	0.264	-0.303
-478.332	-33.529	0.247	0.135
-477.318	-86.245	0.123	-0.038
-476.303	-105.144	-0.166	-0.038
-475.289	-118.734	-0.088	0.015
-474.274	-173.097	-0.140	-0.004
-473.259	92.961	0.225	0.253
-472.245	-85.661	-0.102	0.031
-471.230	-26.217	-0.081	-0.047
-470.216	39.814	0.156	0.139
-469.201	-120.472	-0.093	0.016
-468.186	571.637	-0.146	-0.352
-467.172	-184.691	-0.314	-0.005
-466.157	-19.124	-0.044	0.027
-465.143	14.628	0.162	-0.125
-464.128	270.367	0.061	0.106
-463.113	18.077	0.037	0.029
-462.099	800.000	0.016	-0.056
-461.084	28.646	-0.164	0.138
-460.070	375.427	0.229	0.464
-459.055	346.875	0.111	-0.217
-458.040	6.909	0.056	0.041
-457.026	373.191	0.182	0.367
-456.011	-135.268	-0.182	0.022
-454.997	143.886	0.153	0.202
-453.982	-200.000	0.005	-0.063
-452.968	-131.629	0.125	0.016
-451.953	259.297	0.250	0.427
-450.938	202.607	0.035	0.053
-449.924	36.720	-0.191	0.168
-448.909	-189.359	-0.475	0.006
-447.895	-129.214	0.241	0.033
-446.880	-200.000	-0.032	0.167
-445.865	335.130	-0.186	0.357
-444.851	-20.495	-0.132	-0.080
-443.836	111.961	-0.123	0.147
-442.822	-104.868	0.370	-0.084
-441.807	-200.000	0.023	0.128
-440.792	7.728	-0.211	-0.157
-439.778	14.297	-0.319	-0.246
-438.763	-200.000	-0.018	-0.335
-437.749	186.962	-0.145	-0.214
-436.734	800.000	0.076	0.286
-435.719	-51.621	-0.247	-0.114
-434.705	-99.214	-0.129	0.032
-433.690	800.000	0.150	-0.534
-432.676	-24.633	-0.346	0.204
-431.661	-200.000	0.003	0.246
-430.646	140.732	-0.071	-0.092
-429.632	118.743	0.183	-0.224
-428.617	736.493	0.008	-0.021
-427.603	-200.000	-0.006	0.153
-426.588	-200.000	0.018	-0.341
-425.573	669.411	0.087	0.222
-424.559	102.939	0.100	0.117
-423.544	-169.276	-0.267	-0.010
-422.530	-200.000	-0.103	-0.000
-421.515	61.677	-0.052	0.052
-420.500	-200.000	-0.014	-0.126
-419.486	469.911	0.053	0.117
-418.471	352.288	0.165	0.323
-417.457	800.000	0.070	-0.225
-416.442	-200.000	0.017	0.076
-415.428	44.904	0.205	0.187
-414.413	23.990	-0.122	0.100
-413.398	800.000	0.024	-0.084
-412.384	-200.000	-0.325	0.001
-411.369	323.055	-0.064	-0.120
-410.355	30.376	-0.124	0.105
-409.340	-167.565	-0.369	0.015
-408.325	571.749	-0.148	-0.356
-407.311	800.000	0.060	-0.229
-406.296	50.348	-0.212	0.199
-405.282	-200.000	0.000	0.497
-404.267	-184.088	-0.105	-0.002
-403.252	-65.533	0.076	-0.030
-402.238	-10.154	-0.234	0.154
-401.223	428.126	-0.026	0.055
-400.209	217.299	0.075	0.118
-399.194	181.174	-0.176	0.256
-398.179	94.962	0.219	0.247
-397.165	112.378	0.079	-0.094
-396.150	-200.000	-0.010	-0.484
-395.136	800.000	0.042	-0.121
-394.121	-30.534	-0.229	-0.129
-393.106	-139.601	0.444	-0.047
-392.092	246.454	0.087	-0.145
-391.077	-71.175	-0.440	0.163
-390.063	-22.982	0.136	-0.081
-389.048	456.261	0.027	0.060
-388.033	800.000	-0.104	-0.397
-387.019	-56.309	0.175	0.077
-386.004	-200.000	-0.006	0.184
-384.990	800.000	-0.076	-0.253
-383.975	-18.071	0.177	-0.110
-382.960	300.217	-0.244	-0.445
-381.946	-105.112	0.152	-0.034
-380.931	-99.223	-0.291	-0.073
-379.917	256.349	0.183	0.311
-378.902	578.330	0.060	-0.145
-377.888	-81.341	-0.280	-0.091
-376.873	-122.364	-0.164	-0.027
-375.858	-96.578	-0.060	-0.016
-374.844	196.845	-0.032	0.048
-373.829	-104.989	0.164	0.037
-372.815	-200.000	0.034	0.482
-371.800	-102.885	-0.115	-0.027
-370.785	-45.247	-0.168	-0.082
-369.771	-200.000	-0.026	0.217
-368.756	426.709	0.070	-0.149
-367.742	800.000	0.013	-0.045
-366.727	-181.382	-0.243	-0.005
-365.712	-149.248	-0.311	-0.025
-364.698	-200.000	0.029	-0.167
-363.683	26.224	-0.315	-0.260
-362.669	-101.491	-0.354	-0.085
-361.654	800.000	-0.103	0.327
-360.639	9.509	0.099	0.074
-359.625	-200.000	-0.012	-0.156
-358.610	196.036	0.115	-0.173
-357.596	47.263	0.162	0.149
-356.581	-200.000	-0.002	-0.049
-355.566	-14.911	0.306	-0.194
-354.552	-200.000	0.030	-0.416
-353.537	-22.448	0.166	0.099
-352.523	-105.301	-0.327	0.074
-351.508	-38.738	0.223	-0.116
-350.493	317.974	-0.122	-0.228
-349.479	-109.860	-0.192	-0.040
-348.464	-70.902	-0.106	0.039
-347.450	-44.095	0.369	0.183
-346.435	-115.709	0.258	0.048
-345.420	800.000	-0.058	0.204
-344.406	76.842	0.080	0.084
-343.391	-87.777	0.195	0.058
-342.377	-97.723	-0.165	0.042
-341.362	-200.000	-0.032	0.291
-340.348	800.000	0.002	0.006
-339.333	-15.154	0.166	-0.105
-338.318	-200.000	-0.008	0.243
-337.304	-200.000	0.160	0.000
-336.289	-109.665	-0.077	0.016
-335.275	602.588	-0.075	-0.183
-334.260	584.439	0.078	0.190
-333.245	-59.636	-0.045	-0.019
-332.231	701.877	-0.103	-0.268
-331.216	800.000	-0.064	-0.250
-330.202	-27.853	0.065	0.037
-329.187	690.435	0.058	0.149
-328.172	-200.000	-0.046	-0.268
-327.158	2.085	0.200	-0.143
-326.143	-104.262	-0.065	-0.015
-325.129	190.250	0.122	-0.180
-324.114	69.204	0.041	0.042
-323.099	-102.189	-0.089	-0.021
-322.085	213.578	0.016	-0.025
-321.070	-70.635	-0.208	-0.078
-320.056	603.988	0.154	-0.377
-319.041	38.385	-0.154	0.135
-318.026	-200.000	0.004	-0.067
-317.012	345.505	0.143	-0.278
-315.997	185.978	0.034	-0.050
-314.983	554.228	0.137	0.325
-313.968	11.030	0.226	-0.170
-312.953	-35.913	-0.143	-0.076
-311.939	-68.563	0.082	0.031
-310.924	-107.285	-0.374	-0.081
-309.910	95.555	0.076	-0.085
-308.895	-117.220	0.205	-0.037
-307.880	-134.882	-0.053	-0.006
-306.866	145.417	-0.165	0.218
-305.851	381.399	-0.107	-0.217
-304.837	-85.970	-0.030	-0.009
-303.822	-200.000	0.024	0.287
-302.807	152.479	-0.106	0.142
-301.793	764.767	-0.055	0.147
-300.778	29.537	-0.121	0.102
-299.764	697.510	-0.027	-0.069
-298.749	570.698	-0.095	-0.229
-297.735	76.268	0.081	0.085
-296.720	424.282	-0.023	0.048
-295.705	173.159	-0.216	0.307
-294.691	248.573	0.212	-0.354
-293.676	25.372	-0.070	0.057
-292.662	156.535	-0.133	0.181
-291.647	330.346	-0.054	-0.102
-290.632	-54.106	0.179	0.080
-289.618	-126.779	-0.558	0.081
-288.603	20.515	-0.259	0.206
-287.589	107.937	-0.228	0.268
-286.574	-72.502	-0.244	-0.089
-285.559	439.898	-0.132	0.284
-284.545	-45.850	-0.137	0.067
-283.530	272.186	-0.039	-0.068
-282.516	-37.460	0.172	0.091
-281.501	-79.479	0.086	0.029
-280.486	800.000	0.115	-0.318
-279.472	-94.249	0.018	-0.005
-278.457	292.899	-0.051	0.092
-277.443	-200.000	0.020	0.241
-276.428	594.685	0.050	0.121
-275.413	-80.619	0.104	-0.034
-274.399	-181.009	0.260	-0.005
-273.384	105.773	-0.035	0.041
-272.370	-106.175	-0.085	0.019
-271.355	800.000	0.064	-0.179
-270.340	-89.533	0.254	-0.074
-269.326	133.786	-0.167	0.213
-268.311	237.899	-0.030	-0.049
-267.297	-200.000	-0.027	0.143
-266.282	-200.000	0.025	0.291
-265.267	101.354	-0.048	-0.055
-264.253	-160.008	-0.164	0.009
-263.238	-159.729	-0.366	0.020
-262.224	-171.397	0.331	0.011
-261.209	247.869	0.111	0.185
-260.195	-107.063	0.215	-0.047
-259.180	800.000	-0.097	0.346
-258.165	201.154	-0.066	0.100
-257.151	-112.814	-0.074	-0.014
-256.136	-200.000	-0.044	0.290
-255.122	200.727	0.190	0.287
-254.107	83.126	-0.092	-0.099
-253.092	91.948	-0.025	0.028
-252.078	-124.630	0.348	-0.053
-251.063	-200.000	-0.004	-0.122
-250.049	-76.992	0.542	0.186
-249.034	-35.253	0.047	0.025
-248.019	83.788	0.148	0.159
-247.005	-200.000	0.024	0.140
-245.990	-60.569	-0.253	0.106
-244.976	800.000	-0.073	0.210
-243.961	-142.111	-0.491	0.048
-242.946	-200.000	0.042	0.201
-241.932	40.216	0.056	-0.050
-240.917	-131.475	0.127	0.016
-239.903	-108.190	0.036	0.008
-238.888	-200.000	0.003	-0.050
-237.873	-72.694	-0.106	0.038
-236.859	257.068	0.041	-0.070
-235.844	-55.153	0.407	0.180
-234.830	187.214	0.208	-0.305
-233.815	519.702	-0.126	0.291
-232.800	-43.142	0.175	-0.087
-231.786	0.906	-0.075	-0.053
-230.771	61.753	-0.127	0.124
-229.757	119.699	0.162	0.198
-228.742	-68.017	0.180	0.069
-227.727	-200.000	-0.019	-0.252
-226.713	10.552	-0.129	0.097
-225.698	51.719	0.194	-0.181
-224.684	110.208	0.174	-0.206
-223.669	-200.000	-0.005	-0.025
-222.655	800.000	-0.071	0.197
-221.640	-39.492	-0.075	0.038
-220.625	-28.601	-0.204	-0.115
-219.611	-200.000	-0.083	0.387
-218.596	18.020	-0.037	-0.029
-217.582	-107.978	0.105	0.022
-216.567	-115.940	-0.109	0.020
-215.552	35.684	0.445	0.384
-214.538	143.369	0.232	-0.303
-213.523	-200.000	-0.001	-0.162
-212.509	-25.020	-0.101	0.059
-211.494	26.964	0.101	0.084
-210.479	-77.291	0.209	0.071
-209.465	-123.881	0.186	-0.029
-208.450	7.448	-0.187	-0.137
-207.436	-200.000	0.029	0.195
-206.421	772.064	-0.179	0.480
-205.406	-200.000	-0.028	0.225
-204.392	45.528	-0.077	-0.070
-203.377	800.000	0.070	0.196
-202.363	-200.000	0.019	-0.345
-201.348	-112.675	-0.193	0.038
-200.333	57.390	-0.086	0.083
-199.319	-41.727	0.300	-0.151
-198.304	-14.019	-0.197	0.125
-197.290	297.891	-0.086	-0.155
-196.275	-11.190	0.052	-0.033
-195.260	124.364	0.122	-0.151
-194.246	-200.000	0.035	0.174
-193.231	359.813	0.070	0.138
-192.217	-200.000	-0.002	0.186
-191.202	-169.440	-0.065	-0.002
-190.187	-186.470	0.181	0.003
-189.173	-200.000	-0.006	0.061
-188.158	-92.097	0.282	0.078
-187.144	236.192	-0.174	-0.283
-186.129	-114.552	-0.133	-0.025
-185.114	124.869	0.121	0.150
-184.100	16.591	0.041	-0.032
-183.085	443.107	0.042	-0.090
-182.071	121.146	0.096	0.117
-181.056	-200.000	-0.021	-0.323
-180.042	-76.703	0.306	0.105
-179.027	9.490	0.216	-0.160
-178.012	-70.168	-0.131	0.049
-176.998	143.989	0.098	-0.128
-175.983	109.839	-0.090	-0.106
-174.969	386.855	0.069	-0.139
-173.954	-114.018	0.287	0.055
-172.939	99.909	0.065	-0.074
-171.925	746.391	0.083	0.220
-170.910	-200.000	0.009	0.074
-169.896	-200.000	-0.001	0.017
-168.881	-200.000	-0.019	0.184
-167.866	-200.000	-0.031	-0.232
-166.852	-59.361	-0.213	0.090
-165.837	222.113	-0.162	0.256
-164.823	-129.297	0.268	-0.037
-163.808	800.000	0.062	-0.244
-162.793	134.010	-0.191	-0.242
-161.779	-122.175	0.280	-0.045
-160.764	-14.925	0.226	0.142
-159.750	210.847	0.136	0.209
-158.735	112.391	-0.100	-0.118
-157.720	2.299	-0.167	-0.119
-156.706	-128.436	-0.127	0.018
-155.691	-200.000	-0.029	0.400
-154.677	178.037	-0.120	0.171
-153.662	800.000	0.036	0.148
-152.647	-126.011	-0.352	-0.052
-151.633	-200.000	0.007	-0.255
-150.618	-82.436	0.059	0.019
-149.604	-135.925	-0.282	-0.033
-148.589	-61.350	-0.046	0.019
-147.574	-200.000	-0.011	-0.087
-146.560	518.514	0.032	0.074
-145.545	289.235	-0.091	-0.162
-144.531	131.521	0.067	-0.085
-143.516	800.000	-0.075	-0.247
-142.502	-200.000	0.026	0.216
-141.487	14.601	-0.281	-0.215
-140.472	-179.315	-0.159	0.003
-139.458	800.000	0.061	-0.197
-138.443	-200.000	0.026	0.260
-137.429	15.229	-0.203	0.156
-136.414	636.779	-0.072	0.178
-135.399	-6.827	-0.118	-0.078
-134.385	-139.478	0.152	-0.016
-133.370	-74.804	-0.138	0.049
-132.356	424.237	0.135	0.284
-131.341	85.219	0.129	-0.138
-130.326	-31.418	-0.205	-0.113
-129.312	100.370	0.120	0.136
-128.297	-40.142	0.358	0.182
-127.283	620.398	0.167	0.412
-126.268	-147.649	-0.359	0.030
-125.253	-34.016	0.178	-0.096
-124.239	355.855	0.122	-0.237
-123.224	-182.183	-0.250	-0.005
-122.210	20.819	0.296	-0.235
