DTS Sentinel unit serial number:	SN413079Multiplexer serial number:	ORYXHardware model number:	OX4-SRSoftware version number:	ORYX F/W v4.00 Oryx Data Collector v3.7.2.0data status	okinstallation	princeton_trtdifferential loss correction	single-endedforward channel	channel 3reverse channel	N/Adate	2019/09/14time	22:00:35forward acquisition time	60.00reverse acquisition time	0.00gamma	496.2192k internal	0.2318k external	0.2318temperature offset calibration	0.9987default loss term (dB/km)	0.3790temperature slope calibration	1.0000multiplexer offset coefficient	1.0000multiplexer slope coefficient	1.0000fibre end	0.00T internal ref (°C)	32.69T ext. ref 1 (°C)	4.72T ext. ref 2 (°C)	27.60length (m)	temperature (°C)	Stokes	anti-Stokes-747.200	-137.110	0.025	0.003
-746.185	514.739	0.035	0.082
-745.171	-200.000	0.011	-0.076
-744.156	-13.497	0.084	-0.055
-743.142	162.725	0.097	-0.138
-742.127	800.000	-0.035	0.118
-741.112	-10.296	-0.258	-0.173
-740.098	-106.061	0.213	-0.049
-739.083	-86.320	0.143	-0.045
-738.069	627.160	0.087	-0.221
-737.054	717.298	-0.147	-0.394
-736.039	-88.141	-0.073	-0.022
-735.025	-200.000	-0.009	-0.104
-734.010	442.386	-0.231	-0.511
-732.996	26.578	-0.239	-0.203
-731.981	297.874	0.120	0.222
-730.966	141.357	-0.125	-0.167
-729.952	-65.068	-0.345	-0.141
-728.937	-200.000	0.005	0.129
-727.923	-147.535	0.120	-0.010
-726.908	405.061	0.012	0.025
-725.894	-123.839	-0.309	0.049
-724.879	136.132	-0.216	-0.284
-723.864	-200.000	-0.021	-0.127
-722.850	56.882	-0.229	0.225
-721.835	800.000	-0.083	-0.273
-720.821	-49.683	-0.102	0.049
-719.806	-152.706	0.258	0.019
-718.791	297.297	-0.073	-0.135
-717.777	-70.864	0.077	-0.030
-716.762	-67.952	-0.320	0.126
-715.748	549.102	0.124	-0.301
-714.733	-81.629	0.057	-0.019
-713.718	-131.785	-0.290	0.038
-712.704	133.834	0.190	0.249
-711.689	-121.588	0.089	0.015
-710.675	-200.000	0.040	-0.205
-709.660	-198.983	0.429	-0.002
-708.645	800.000	-0.035	-0.132
-707.631	-19.060	-0.161	-0.101
-706.616	-200.000	0.032	0.145
-705.602	185.322	-0.082	0.122
-704.587	68.255	0.075	0.077
-703.572	-168.438	-0.145	-0.006
-702.558	-60.270	-0.088	0.038
-701.543	-55.737	-0.134	-0.061
-700.529	800.000	0.083	-0.339
-699.514	-151.213	0.540	0.041
-698.499	-200.000	0.011	0.091
-697.485	-142.223	0.427	-0.043
-696.470	331.087	0.105	0.205
-695.456	-86.780	-0.279	-0.086
-694.441	-11.774	0.108	0.071
-693.426	179.296	0.111	-0.164
-692.412	-88.508	-0.251	0.076
-691.397	-200.000	-0.010	-0.310
-690.383	-200.000	-0.047	-0.244
-689.368	800.000	0.185	-0.527
-688.354	-200.000	-0.024	-0.145
-687.339	-164.516	0.239	0.011
-686.324	128.246	0.058	-0.074
-685.310	800.000	-0.026	0.102
-684.295	-80.411	0.166	-0.056
-683.281	19.160	0.137	0.111
-682.266	-200.000	-0.012	0.067
-681.251	800.000	0.059	-0.205
-680.237	-23.524	0.192	-0.116
-679.222	119.161	0.064	0.080
-678.208	-63.514	-0.175	-0.073
-677.193	-135.736	0.143	0.017
-676.178	800.000	-0.061	0.173
-675.164	-102.880	-0.148	-0.035
-674.149	-53.019	-0.208	-0.096
-673.135	-155.646	-0.041	0.003
-672.120	623.954	0.081	0.207
-671.105	-125.312	0.165	-0.025
-670.091	98.019	-0.132	0.154
-669.076	-84.332	0.264	0.084
-668.062	-200.000	0.018	-0.194
-667.047	-159.266	-0.139	0.008
-666.032	417.516	0.094	-0.202
-665.018	35.811	0.168	-0.149
-664.003	-200.000	0.014	-0.083
-662.989	-86.382	0.117	0.036
-661.974	24.974	-0.263	-0.220
-660.959	-200.000	0.020	0.213
-659.945	-49.868	0.322	-0.154
-658.930	159.994	0.191	0.269
-657.916	157.650	0.114	-0.159
-656.901	-25.301	0.385	-0.230
-655.886	314.740	0.131	-0.249
-654.872	-110.027	-0.137	0.029
-653.857	-181.736	0.144	0.003
-652.843	103.974	-0.054	-0.063
-651.828	-154.347	0.291	0.020
-650.814	-129.878	-0.282	-0.039
-649.799	93.296	0.235	0.268
-648.784	-200.000	-0.039	-0.194
-647.770	514.128	0.079	0.185
-646.755	800.000	-0.072	0.219
-645.741	149.134	-0.104	-0.142
-644.726	-200.000	-0.050	-0.232
-643.711	236.901	-0.151	-0.253
-642.697	111.357	0.119	0.144
-641.682	-200.000	0.023	0.140
-640.668	14.256	0.117	0.092
-639.653	-59.033	-0.252	0.109
-638.638	35.637	-0.126	-0.111
-637.624	-45.782	0.060	0.030
-636.609	-148.032	-0.220	-0.018
-635.595	48.475	-0.168	-0.159
-634.580	-113.632	-0.243	-0.048
-633.565	347.641	-0.163	-0.324
-632.551	390.278	-0.028	-0.058
-631.536	-26.447	-0.294	-0.174
-630.522	80.279	0.178	-0.193
-629.507	293.329	0.106	-0.195
-628.492	66.143	-0.170	-0.174
-627.478	249.442	0.094	0.160
-626.463	-6.424	-0.134	-0.092
-625.449	52.144	0.214	0.205
-624.434	-200.000	0.001	-0.022
-623.419	344.091	0.070	0.138
-622.405	-117.024	0.269	-0.049
-621.390	-113.331	-0.395	0.078
-620.376	32.206	0.080	-0.070
-619.361	-36.156	0.489	-0.266
-618.346	-10.782	-0.095	0.063
-617.332	-142.767	-0.100	-0.010
-616.317	656.940	-0.036	-0.093
-615.303	215.604	-0.140	0.223
-614.288	800.000	-0.089	0.302
-613.273	-200.000	-0.002	0.248
-612.259	-200.000	-0.030	-0.175
-611.244	-200.000	0.015	-0.073
-610.230	604.376	0.062	-0.157
-609.215	21.275	0.330	-0.269
-608.201	237.841	-0.121	-0.201
-607.186	62.942	-0.118	0.119
-606.171	800.000	-0.020	-0.066
-605.157	222.912	0.182	-0.295
-604.142	-200.000	0.024	-0.174
-603.128	-169.904	0.042	-0.002
-602.113	-125.710	0.359	-0.055
-601.098	-82.307	-0.206	0.067
-600.084	-104.606	0.100	-0.023
-599.069	26.194	-0.087	-0.073
-598.055	-109.936	-0.184	0.039
-597.040	198.332	-0.114	-0.176
-596.025	-116.907	-0.370	-0.068
-595.011	-10.584	-0.098	0.065
-593.996	391.448	0.107	0.223
-592.982	-85.497	0.043	-0.014
-591.967	51.244	-0.279	-0.267
-590.952	-162.163	-0.235	0.012
-589.938	800.000	0.062	0.228
-588.923	-109.912	-0.208	0.044
-587.909	99.273	0.156	-0.181
-586.894	800.000	0.041	-0.122
-585.879	58.918	-0.082	-0.081
-584.865	783.541	-0.115	-0.316
-583.850	-3.881	-0.251	0.175
-582.836	230.864	-0.113	0.186
-581.821	-151.184	-0.095	0.007
-580.806	150.737	0.151	0.206
-579.792	-200.000	-0.012	0.065
-578.777	108.567	-0.266	-0.320
-577.763	249.568	-0.079	0.135
-576.748	-138.735	-0.126	-0.014
-575.733	-200.000	0.047	0.261
-574.719	34.924	-0.144	0.127
-573.704	698.257	0.043	0.113
-572.690	-170.481	0.321	0.011
-571.675	-200.000	-0.039	-0.179
-570.661	-123.912	0.342	-0.054
-569.646	-126.894	0.309	-0.046
-568.631	-167.496	-0.145	-0.006
-567.617	-70.787	-0.095	0.036
-566.602	72.073	-0.142	0.148
-565.588	350.926	-0.027	-0.053
-564.573	63.874	0.112	0.113
-563.558	199.562	0.135	0.209
-562.544	-55.554	0.313	0.141
-561.529	800.000	0.087	0.316
-560.515	-59.846	-0.177	-0.076
-559.500	581.084	0.099	-0.245
-558.485	800.000	0.142	-0.450
-557.471	82.172	0.213	-0.232
-556.456	676.349	0.032	0.083
-555.442	-135.379	0.114	0.014
-554.427	-111.090	-0.160	0.033
-553.412	162.572	0.179	-0.252
-552.398	-200.000	-0.023	0.151
-551.383	-200.000	-0.011	0.126
-550.369	10.189	-0.296	-0.226
-549.354	-61.480	-0.246	0.104
-548.339	448.336	0.072	0.160
-547.325	800.000	0.135	-0.454
-546.310	289.824	-0.075	-0.138
-545.296	439.768	0.139	-0.306
-544.281	-152.109	0.061	-0.004
-543.266	231.407	-0.067	0.111
-542.252	27.435	-0.100	0.084
-541.237	-73.993	-0.126	0.046
-540.223	-200.000	0.007	-0.385
-539.208	-200.000	-0.037	-0.240
-538.193	-24.330	-0.165	-0.099
-537.179	800.000	-0.047	0.169
-536.164	14.558	-0.031	-0.025
-535.150	-116.009	-0.419	-0.078
-534.135	-110.525	-0.301	-0.063
-533.121	-104.056	-0.038	0.009
-532.106	800.000	0.025	-0.104
-531.091	250.499	0.120	0.205
-530.077	-35.752	0.143	-0.078
-529.062	57.388	-0.067	-0.066
-528.048	-173.783	0.056	-0.002
-527.033	-53.136	0.070	0.032
-526.018	118.616	-0.087	-0.107
-525.004	-200.000	-0.134	-0.000
-523.989	57.893	-0.197	0.194
-522.975	-140.908	0.256	-0.026
-521.960	-200.000	0.010	0.208
-520.945	237.572	-0.080	0.134
-519.931	84.245	-0.262	-0.287
-518.916	-200.000	-0.001	0.082
-517.902	165.039	-0.137	0.194
-516.887	174.672	-0.030	0.044
-515.872	-200.000	-0.016	0.196
-514.858	-169.386	0.229	-0.008
-513.843	-178.055	0.304	0.007
-512.829	800.000	0.054	-0.172
-511.814	800.000	0.046	0.140
-510.799	25.471	0.267	0.223
-509.785	18.007	0.033	-0.026
-508.770	18.965	0.360	0.289
-507.756	800.000	0.073	0.230
-506.741	-200.000	-0.033	0.464
-505.726	79.289	0.229	0.247
-504.712	-88.122	-0.356	-0.107
-503.697	-57.353	-0.083	-0.037
-502.683	201.983	-0.268	0.414
-501.668	800.000	-0.046	-0.138
-500.653	407.064	-0.103	0.219
-499.639	-71.740	0.150	0.056
-498.624	-113.911	0.203	-0.039
-497.610	-57.694	0.497	0.218
-496.595	53.338	0.184	0.177
-495.581	77.627	0.081	0.086
-494.566	108.401	0.117	0.140
-493.551	800.000	0.039	-0.147
-492.537	207.284	-0.172	0.269
-491.522	227.328	-0.082	-0.133
-490.508	7.877	0.206	-0.154
-489.493	-85.945	0.190	-0.059
-488.478	-200.000	0.013	-0.231
-487.464	461.237	0.068	-0.153
-486.449	-200.000	-0.019	0.189
-485.435	-158.966	0.084	-0.005
-484.420	711.937	-0.106	-0.280
-483.405	-188.876	-0.332	-0.004
-482.391	657.688	-0.116	-0.298
-481.376	-22.549	0.128	-0.077
-480.362	800.000	0.076	-0.245
-479.347	-120.026	0.204	-0.035
-478.332	-131.191	0.573	0.076
-477.318	-200.000	0.026	-0.156
-476.303	117.572	0.258	-0.318
-475.289	-200.000	-0.008	-0.213
-474.274	-138.004	0.389	-0.043
-473.259	261.790	-0.142	-0.246
-472.245	-16.109	0.030	-0.019
-471.230	3.273	0.100	0.073
-470.216	67.345	-0.116	-0.119
-469.201	-38.837	0.247	-0.130
-468.186	228.828	-0.117	0.190
-467.172	-94.559	0.211	0.057
-466.157	-12.081	-0.454	0.298
-465.143	-200.000	-0.020	-0.232
-464.128	-200.000	0.042	-0.364
-463.113	3.859	0.348	0.254
-462.099	-65.749	0.125	0.050
-461.084	-200.000	0.027	-0.364
-460.070	-200.000	-0.056	-0.292
-459.055	399.942	-0.069	0.144
-458.040	-79.718	-0.196	0.066
-457.026	-200.000	0.025	-0.174
-456.011	800.000	0.103	0.329
-454.997	662.807	0.090	0.232
-453.982	-128.822	0.226	-0.032
-452.968	-53.393	-0.108	-0.049
-451.953	-34.151	0.237	-0.130
-450.938	527.728	0.007	0.017
-449.924	800.000	0.039	-0.115
-448.909	-80.679	0.247	0.082
-447.895	326.821	-0.150	-0.288
-446.880	-57.904	0.224	0.098
-445.865	127.695	-0.205	-0.260
-444.851	157.612	-0.123	-0.171
-443.836	800.000	0.032	0.108
-442.822	95.710	0.304	0.347
-441.807	142.126	0.225	0.298
-440.792	368.952	-0.107	-0.216
-439.778	20.576	0.341	0.276
-438.763	800.000	-0.024	-0.091
-437.749	216.312	-0.074	0.118
-436.734	298.444	-0.129	0.237
-435.719	-22.168	-0.243	0.147
-434.705	528.675	-0.118	-0.279
-433.690	39.717	0.189	-0.169
-432.676	800.000	0.101	-0.323
-431.661	-200.000	0.001	0.070
-430.646	-200.000	0.034	0.174
-429.632	-200.000	0.028	0.227
-428.617	800.000	-0.080	0.319
-427.603	-122.325	-0.222	-0.036
-426.588	-13.239	0.238	-0.154
-425.573	800.000	-0.119	-0.339
-424.559	-200.000	-0.013	-0.158
-423.544	-69.236	0.175	0.067
-422.530	106.246	0.156	0.185
-421.515	800.000	0.058	-0.180
-420.500	-68.746	0.215	0.083
-419.486	-200.000	0.001	0.113
-418.471	129.507	-0.095	-0.121
-417.457	-71.602	0.153	0.057
-416.442	218.150	-0.033	0.053
-415.428	800.000	-0.027	-0.108
-414.413	690.199	0.086	-0.224
-413.398	72.854	0.289	0.302
-412.384	75.191	0.096	0.101
-411.369	-200.000	0.020	-0.110
-410.355	-126.453	-0.146	-0.022
-409.340	302.864	0.065	0.120
-408.325	64.865	-0.253	0.255
-407.311	83.754	0.282	0.307
-406.296	-200.000	-0.003	0.344
-405.282	-181.905	-0.031	-0.001
-404.267	-8.591	-0.153	-0.102
-403.252	-79.927	0.029	0.010
-402.238	-200.000	-0.041	-0.273
-401.223	151.851	-0.040	-0.055
-400.209	-114.468	0.356	0.068
-399.194	81.257	0.206	-0.222
-398.179	-61.551	-0.318	0.133
-397.165	17.063	0.114	0.091
-396.150	800.000	-0.068	0.221
-395.136	154.185	-0.154	-0.211
-394.121	800.000	-0.107	0.391
-393.106	556.177	-0.111	-0.267
-392.092	-200.000	-0.008	-0.066
-391.077	137.940	-0.119	0.155
-390.063	800.000	-0.077	0.221
-389.048	97.949	0.115	-0.132
-388.033	-68.160	-0.219	-0.085
-387.019	634.496	-0.017	0.042
-386.004	800.000	0.164	-0.466
-384.990	-116.576	-0.219	-0.040
-383.975	152.919	0.062	-0.084
-382.960	-100.544	0.216	-0.053
-381.946	399.255	-0.132	0.276
-380.931	146.522	0.189	-0.253
-379.917	-185.898	-0.428	0.006
-378.902	26.150	0.129	-0.107
-377.888	-44.590	-0.369	0.184
-376.873	86.971	0.073	-0.080
-375.858	322.372	0.110	-0.209
-374.844	118.600	-0.214	0.264
-373.829	35.573	0.033	0.029
-372.815	-200.000	0.009	0.133
-371.800	-104.681	0.360	0.083
-370.785	800.000	-0.069	0.196
-369.771	381.661	0.239	0.489
-368.756	-145.604	-0.116	-0.010
-367.742	197.635	0.242	-0.369
-366.727	-32.563	-0.158	-0.088
-365.712	-102.928	-0.153	0.036
-364.698	272.827	-0.131	-0.231
-363.683	-141.574	0.024	-0.002
-362.669	139.511	-0.139	-0.182
-361.654	36.877	-0.178	0.157
-360.639	365.614	0.155	0.311
-359.625	-180.851	0.204	0.004
-358.610	370.473	0.116	-0.235
-357.596	-162.959	0.317	-0.015
-356.581	127.780	-0.221	0.280
-355.566	800.000	0.094	0.312
-354.552	-33.911	0.143	-0.078
-353.537	-87.524	-0.346	-0.104
-352.523	-75.717	-0.225	-0.080
-351.508	-8.817	-0.104	-0.070
-350.493	-102.993	0.222	-0.052
-349.479	800.000	0.126	-0.411
-348.464	-200.000	-0.025	-0.193
-347.450	800.000	-0.020	0.084
-346.435	204.495	-0.134	-0.207
-345.420	5.506	-0.187	-0.138
-344.406	-88.752	-0.492	-0.146
-343.391	-130.361	0.136	-0.018
-342.377	800.000	-0.119	0.395
-341.362	800.000	-0.024	-0.074
-340.348	-121.858	-0.180	-0.030
-339.333	800.000	-0.018	-0.065
-338.318	-137.491	-0.123	0.014
-337.304	-35.914	-0.101	0.054
-336.289	-43.219	0.056	0.028
-335.275	404.995	-0.113	-0.237
-334.260	-49.469	0.091	-0.043
-333.245	-41.844	-0.110	0.056
-332.231	-200.000	-0.061	-0.364
-331.216	-115.557	0.260	-0.049
-330.202	10.060	0.174	-0.131
-329.187	800.000	0.095	0.284
-328.172	62.325	-0.219	0.218
-327.158	800.000	-0.073	-0.303
-326.143	-200.000	-0.075	-0.351
-325.129	-65.351	0.036	-0.014
-324.114	-8.588	0.169	0.113
-323.099	-97.156	0.113	0.029
-322.085	-200.000	-0.008	0.037
-321.070	-152.210	0.381	-0.027
-320.056	18.974	0.261	-0.208
-319.041	94.088	-0.176	-0.199
-318.026	800.000	0.055	0.175
-317.012	-24.451	-0.398	0.236
-315.997	-112.041	0.472	0.095
-314.983	-12.761	-0.296	-0.192
-313.968	445.532	0.119	-0.260
-312.953	117.766	0.163	0.200
-311.939	800.000	0.071	0.206
-310.924	800.000	-0.057	0.163
-309.910	-200.000	-0.043	0.305
-308.895	441.011	-0.079	0.171
-307.880	-88.693	0.174	-0.052
-306.866	-200.000	0.008	0.405
-305.851	-200.000	0.034	0.152
-304.837	-200.000	-0.015	0.443
-303.822	-134.328	-0.428	0.052
-302.807	-143.675	0.180	0.017
-301.793	327.744	-0.196	0.374
-300.778	-69.945	0.104	-0.040
-299.764	48.873	0.071	-0.067
-298.749	-142.756	-0.140	0.014
-297.735	-200.000	-0.014	0.173
-296.720	-200.000	0.061	-0.269
-295.705	-200.000	-0.061	-0.333
-294.691	-135.896	-0.259	0.030
-293.676	-200.000	0.016	0.180
-292.662	-200.000	-0.057	-0.315
-291.647	-67.038	0.112	-0.044
-290.632	-200.000	-0.001	-0.063
-289.618	-21.895	0.136	0.082
-288.603	-200.000	-0.011	-0.339
-287.589	-200.000	-0.053	0.289
-286.574	357.745	0.075	-0.148
-285.559	800.000	-0.070	-0.283
-284.545	-125.081	0.407	0.062
-283.530	-124.132	0.235	0.037
-282.516	-190.181	-0.496	0.005
-281.501	-10.504	-0.138	-0.091
-280.486	-15.752	0.330	0.209
-279.472	-200.000	0.015	-0.261
-278.457	-159.399	0.238	-0.013
-277.443	-200.000	0.044	-0.279
-276.428	-24.226	-0.237	-0.141
-275.413	181.456	-0.243	0.355
-274.399	-200.000	-0.019	0.154
-273.384	800.000	0.050	-0.187
-272.370	-49.866	-0.066	0.031
-271.355	-28.724	0.060	-0.034
-270.340	16.976	0.070	-0.055
-269.326	-136.726	-0.470	0.054
-268.311	-100.449	0.194	0.048
-267.297	-138.644	0.164	0.018
-266.282	20.228	-0.075	0.060
-265.267	171.367	0.159	-0.226
-264.253	453.100	0.076	-0.168
-263.238	58.266	-0.428	-0.417
-262.224	800.000	0.051	-0.155
-261.209	115.928	0.090	0.109
-260.195	188.504	0.111	0.165
-259.180	-21.567	-0.182	-0.110
-258.165	473.320	-0.126	0.282
-257.151	-45.034	-0.036	0.018
-256.136	-200.000	-0.042	-0.350
-255.122	-83.069	0.362	0.116
-254.107	-18.383	0.161	0.100
-253.092	-18.922	-0.465	0.287
-252.078	-200.000	0.011	0.208
-251.063	493.888	0.076	-0.174
-250.049	-200.000	-0.288	-0.000
-249.034	-97.637	-0.168	0.043
-248.019	-14.921	-0.210	-0.134
-247.005	-200.000	0.050	0.341
-245.990	-200.000	-0.083	0.414
-244.976	336.939	0.074	0.142
-243.961	277.725	0.080	0.141
-242.946	-200.000	-0.037	0.186
-241.932	19.160	-0.064	0.051
-240.917	-200.000	-0.009	0.462
-239.903	-161.488	-0.628	-0.032
-238.888	-43.318	-0.046	0.023
-237.873	-49.293	0.211	-0.100
-236.859	2.398	-0.176	0.126
-235.844	-121.905	0.210	0.034
-234.830	140.602	0.168	0.219
-233.815	187.894	0.149	0.221
-232.800	-200.000	0.015	0.171
-231.786	160.453	-0.157	-0.217
-230.771	800.000	-0.045	0.157
-229.757	406.554	0.087	0.182
-228.742	-152.746	-0.288	-0.020
-227.727	127.620	-0.077	0.096
-226.713	164.429	0.096	-0.134
-225.698	-117.679	0.196	0.035
-224.684	800.000	-0.062	0.194
-223.669	144.817	0.167	0.221
-222.655	-146.012	-0.301	0.026
-221.640	800.000	0.025	0.071
-220.625	-167.744	-0.113	-0.004
-219.611	800.000	-0.061	0.176
-218.596	-43.098	0.086	-0.043
-217.582	87.558	0.191	0.210
-216.567	149.128	-0.107	0.143
-215.552	51.960	0.142	0.134
-214.538	-200.000	-0.002	0.185
-213.523	-67.376	0.408	-0.159
-212.509	319.111	0.078	-0.147
-211.494	-18.212	-0.141	0.088
-210.479	-200.000	0.003	0.139
-209.465	210.768	-0.226	-0.353
-208.450	19.369	0.266	0.211
-207.436	-137.321	0.140	-0.016
-206.421	23.764	0.174	0.142
-205.406	-13.769	-0.027	0.017
-204.392	-145.252	0.304	-0.027
-203.377	661.652	-0.097	0.248
-202.363	227.575	0.162	-0.262
-201.348	281.031	0.076	-0.135
-200.333	-144.736	0.096	-0.009
-199.319	-55.782	-0.355	-0.157
-198.304	-55.035	-0.211	-0.094
-197.290	-79.879	0.308	0.102
-196.275	-15.059	-0.132	-0.084
-195.260	-105.085	0.062	-0.014
-194.246	20.342	-0.202	0.162
-193.231	-32.954	0.276	-0.152
-192.217	-200.000	0.005	-0.122
-191.202	-200.000	0.030	-0.174
-190.187	31.484	0.100	-0.085
-189.173	193.493	-0.159	-0.238
-188.158	159.036	0.296	-0.408
-187.144	306.963	-0.044	-0.081
-186.129	-55.672	-0.302	0.134
-185.114	800.000	-0.059	-0.218
-184.100	571.444	0.021	0.052
-183.085	-110.857	-0.230	0.047
-182.071	132.266	-0.123	-0.157
-181.056	-67.614	0.057	-0.022
-180.042	-200.000	-0.040	-0.280
-179.027	-122.623	-0.266	0.043
-178.012	-169.810	0.167	0.006
-176.998	-200.000	0.033	0.445
-175.983	-99.443	-0.170	0.042
-174.969	-200.000	0.096	0.518
-173.954	370.497	0.125	-0.251
-172.939	337.747	-0.112	0.215
-171.925	137.771	-0.035	-0.045
-170.910	642.147	0.084	-0.213
-169.896	-118.430	0.176	-0.031
-168.881	-200.000	0.012	-0.251
-167.866	618.603	-0.057	-0.141
-166.852	-102.991	-0.300	-0.071
-165.837	800.000	0.033	-0.107
-164.823	-200.000	-0.072	-0.384
-163.808	800.000	0.110	0.322
-162.793	31.847	0.219	-0.187
-161.779	-141.865	0.228	0.023
-160.764	5.469	-0.012	0.008
-159.750	263.262	-0.247	0.424
-158.735	192.951	0.124	0.186
-157.720	-200.000	0.009	0.046
-156.706	-55.581	0.032	-0.014
-155.691	-117.245	-0.331	0.060
-154.677	-62.875	-0.250	-0.102
-153.662	271.663	-0.125	-0.217
-152.647	-200.000	0.015	0.095
-151.633	-200.000	0.003	0.127
-150.618	-88.353	0.180	-0.053
-149.604	138.112	0.096	0.124
-148.589	-21.245	0.114	0.069
-147.574	547.814	-0.084	0.199
-146.560	501.604	-0.115	0.262
-145.545	-92.274	0.023	-0.006
-144.531	-135.260	-0.039	0.005
-143.516	-200.000	0.005	-0.035
-142.502	-144.424	-0.115	0.011
-141.487	31.068	0.241	-0.204
-140.472	681.072	-0.018	0.045
-139.458	-34.596	-0.073	0.039
-138.443	-47.226	-0.347	0.167
-137.429	344.764	0.113	-0.220
-136.414	183.682	0.012	0.017
-135.399	-68.787	0.130	-0.050
-134.385	-66.522	-0.359	0.141
-133.370	215.564	0.087	0.136
-132.356	-200.000	-0.053	0.275
-131.341	-161.778	-0.115	-0.006
-130.326	47.390	0.173	0.159
-129.312	-133.786	0.110	-0.013
-128.297	-91.970	-0.141	-0.039
-127.283	209.680	0.030	-0.047
-126.268	-76.614	-0.316	0.109
-125.253	-200.000	-0.019	0.091
-124.239	316.470	-0.177	0.331
-123.224	202.827	0.138	-0.210
