DTS Sentinel unit serial number:	SN413079Multiplexer serial number:	ORYXHardware model number:	OX4-SRSoftware version number:	ORYX F/W v4.00 Oryx Data Collector v3.7.2.0data status	okinstallation	princeton_trtdifferential loss correction	single-endedforward channel	channel 3reverse channel	N/Adate	2019/09/12time	20:11:04forward acquisition time	15.00reverse acquisition time	0.00gamma	496.2192k internal	0.2324k external	0.2324temperature offset calibration	1.0118default loss term (dB/km)	0.3790temperature slope calibration	1.0000multiplexer offset coefficient	1.0000multiplexer slope coefficient	1.0000fibre end	0.00T internal ref (°C)	31.62T ext. ref 1 (°C)	3.45T ext. ref 2 (°C)	26.16length (m)	temperature (°C)	Stokes	anti-Stokes-747.200	30.354	0.194	-0.168
-746.185	-96.202	0.813	0.218
-745.171	-200.000	0.072	-0.783
-744.156	252.686	0.313	-0.538
-743.142	-90.928	0.722	-0.210
-742.127	-149.474	-1.060	0.085
-741.112	-137.345	-0.840	0.096
-740.098	-122.064	-0.645	0.107
-739.083	50.994	0.554	0.530
-738.069	-100.256	-0.713	0.179
-737.054	122.397	-0.276	-0.349
-736.039	348.611	-0.166	0.331
-735.025	-138.350	0.869	-0.097
-734.010	39.287	-0.308	-0.278
-732.996	-200.000	-0.092	-0.431
-731.981	-200.000	-0.001	-0.092
-730.966	-116.430	-0.564	-0.105
-729.952	800.000	0.117	0.494
-728.937	-137.631	0.290	0.033
-727.923	800.000	-0.118	-0.413
-726.908	99.126	0.336	-0.392
-725.894	231.492	0.291	0.481
-724.879	130.451	0.247	-0.319
-723.864	-200.000	0.022	-0.110
-722.850	44.990	0.688	0.639
-721.835	433.739	0.224	0.491
-720.821	8.033	0.531	-0.402
-719.806	-22.761	-0.502	0.306
-718.791	243.958	0.136	-0.230
-717.777	-104.607	0.681	0.158
-716.762	-23.127	0.289	-0.176
-715.748	-200.000	-0.560	-0.002
-714.733	247.160	-0.078	0.133
-713.718	800.000	0.209	-0.788
-712.704	-200.000	-0.085	-0.392
-711.689	-200.000	0.000	-0.572
-710.675	-111.991	-0.136	-0.028
-709.660	-130.411	0.421	0.058
-708.645	-200.000	-0.027	-0.413
-707.631	-113.801	0.250	-0.049
-706.616	418.883	-0.100	-0.216
-705.602	-200.000	0.067	0.759
-704.587	190.634	-0.168	0.254
-703.572	800.000	0.119	-0.337
-702.558	417.435	-0.269	-0.580
-701.543	250.520	0.489	-0.837
-700.529	-200.000	0.183	0.894
-699.514	-50.736	0.193	0.091
-698.499	-125.260	0.383	0.059
-697.485	-94.538	-0.833	-0.229
-696.470	-200.000	-0.089	0.515
-695.456	2.925	0.680	-0.498
-694.441	67.351	0.703	-0.722
-693.426	-51.168	-0.708	0.334
-692.412	-200.000	0.096	-0.595
-691.397	-80.603	0.497	0.167
-690.383	11.801	-0.563	-0.436
-689.368	20.586	0.280	0.228
-688.354	21.168	-0.588	0.481
-687.339	642.427	-0.224	-0.575
-686.324	-18.687	0.492	0.309
-685.310	259.377	-0.125	-0.218
-684.295	800.000	-0.130	0.545
-683.281	34.648	-0.589	-0.518
-682.266	102.566	0.354	-0.417
-681.251	-143.070	0.580	0.056
-680.237	-182.232	0.505	-0.010
-679.222	-142.016	1.006	-0.101
-678.208	-200.000	0.043	-0.275
-677.193	-200.000	0.026	0.147
-676.178	-106.976	-0.574	-0.128
-675.164	0.363	0.310	-0.223
-674.149	52.009	-0.355	-0.340
-673.135	-69.523	-1.047	0.404
-672.120	-197.398	1.066	-0.007
-671.105	-7.445	-0.273	0.186
-670.091	122.086	-0.229	0.288
-669.076	-77.644	0.591	-0.206
-668.062	20.706	0.624	-0.509
-667.047	-47.046	-0.533	-0.262
-666.032	180.940	-0.221	0.326
-665.018	144.716	0.127	-0.171
-664.003	-200.000	-0.055	0.974
-662.989	694.969	0.079	0.208
-661.974	60.113	0.480	0.478
-660.959	-200.000	-0.040	-0.678
-659.945	-59.107	0.571	-0.248
-658.930	216.730	0.396	0.633
-657.916	-180.382	0.418	0.009
-656.901	-200.000	0.048	-0.313
-655.886	1.209	-0.487	-0.352
-654.872	800.000	-0.088	0.373
-653.857	-200.000	0.038	1.054
-652.843	298.422	-0.213	-0.394
-651.828	-67.472	-0.048	-0.019
-650.814	56.028	-0.342	0.334
-649.799	-150.364	-0.172	0.013
-648.784	-111.657	-0.433	0.088
-647.770	700.194	-0.245	-0.649
-646.755	800.000	-0.216	-0.735
-645.741	-39.226	-0.250	-0.132
-644.726	25.698	-1.054	0.883
-643.711	-200.000	-0.092	-0.811
-642.697	800.000	-0.191	0.823
-641.682	-132.936	-0.168	-0.022
-640.668	-90.690	0.449	0.130
-639.653	799.332	-0.145	-0.403
-638.638	18.826	-0.601	-0.484
-637.624	-121.915	0.531	0.088
-636.609	-112.374	-0.352	0.071
-635.595	693.860	-0.114	0.300
-634.580	-200.000	-0.133	0.758
-633.565	147.288	0.478	0.647
-632.551	-172.810	-0.916	-0.029
-631.536	-47.372	0.690	-0.337
-630.522	39.183	0.313	0.281
-629.507	0.506	0.193	0.139
-628.492	-200.000	0.960	0.004
-627.478	800.000	-0.204	0.606
-626.463	-200.000	0.094	-0.578
-625.449	377.705	-0.069	0.143
-624.434	22.264	-0.415	-0.341
-623.419	380.746	0.126	0.260
-622.405	-14.028	-0.459	0.297
-621.390	-50.121	-0.684	-0.326
-620.376	6.795	-0.488	-0.365
-619.361	-39.531	-0.203	-0.107
-618.346	800.000	-0.055	0.228
-617.332	-67.652	-0.428	-0.169
-616.317	-53.831	0.260	0.119
-615.303	-111.624	0.630	0.129
-614.288	124.725	-0.300	-0.380
-613.273	-37.205	-0.344	0.185
-612.259	-168.275	0.631	-0.024
-611.244	-200.000	-0.007	0.093
-610.230	-200.000	0.173	-0.920
-609.215	800.000	-0.130	-0.366
-608.201	800.000	-0.080	-0.300
-607.186	63.074	-0.278	-0.279
-606.171	-200.000	-0.037	-0.236
-605.157	186.328	0.372	0.556
-604.142	-137.278	-0.123	0.014
-603.128	-99.114	-0.725	-0.184
-602.113	-154.032	0.270	0.018
-601.098	549.375	0.341	0.820
-600.084	-8.115	0.079	-0.054
-599.069	-23.608	0.334	-0.201
-598.055	-200.000	-0.031	0.744
-597.040	-0.252	0.860	0.614
-596.025	181.561	0.228	0.336
-595.011	-172.169	0.237	0.008
-593.996	-200.000	-0.159	0.827
-592.982	800.000	-0.179	-0.546
-591.967	-109.126	-1.272	0.272
-590.952	77.946	0.112	-0.120
-589.938	-200.000	-0.023	-0.306
-588.923	-200.000	-0.021	-0.586
-587.909	-59.577	0.360	0.155
-586.894	12.836	-0.232	-0.180
-585.879	-200.000	-0.037	-0.218
-584.865	43.856	0.556	-0.511
-583.850	-200.000	0.057	-0.362
-582.836	41.096	0.145	0.132
-581.821	-53.822	0.794	-0.364
-580.806	63.476	0.312	-0.314
-579.792	-13.989	0.768	-0.497
-578.777	-9.627	-0.813	-0.544
-577.763	451.682	0.193	-0.427
-576.748	-55.333	-0.692	0.312
-575.733	118.806	-0.536	0.664
-574.719	100.329	-0.323	-0.375
-573.704	201.375	-0.258	-0.399
-572.690	-200.000	-0.168	-1.018
-571.675	-200.000	-0.112	0.581
-570.661	-47.366	0.571	0.279
-569.646	-200.000	0.111	-0.514
-568.631	51.371	0.570	0.542
-567.617	549.301	-0.168	0.404
-566.602	90.749	0.039	0.044
-565.588	113.930	0.185	0.226
-564.573	514.037	0.595	-1.392
-563.558	80.057	0.350	0.377
-562.544	-66.383	0.815	-0.325
-561.529	-142.943	0.936	0.091
-560.515	-111.815	-1.300	-0.263
-559.500	30.568	0.549	0.471
-558.485	-76.489	0.527	0.186
-557.471	-10.925	0.255	0.169
-556.456	-126.681	0.784	-0.116
-555.442	423.136	-0.230	-0.496
-554.427	800.000	0.086	0.287
-553.412	-93.054	-0.970	-0.271
-552.398	83.997	0.534	0.584
-551.383	214.586	-0.233	-0.370
-550.369	257.092	0.208	-0.358
-549.354	-3.058	0.143	0.100
-548.339	-118.647	-0.656	-0.116
-547.325	-166.043	1.176	-0.050
-546.310	-200.000	0.099	0.461
-545.296	800.000	0.167	-0.671
-544.281	775.319	-0.214	0.585
-543.266	187.712	0.566	0.847
-542.252	-200.000	0.050	0.465
-541.237	-200.000	-0.062	-0.912
-540.223	434.610	0.184	-0.401
-539.208	-111.011	0.518	-0.106
-538.193	-160.474	-1.099	-0.059
-537.179	-41.562	0.407	-0.209
-536.164	109.367	-0.159	0.190
-535.150	85.342	0.346	0.380
-534.135	-200.000	0.086	-0.480
-533.121	800.000	0.120	-0.347
-532.106	-98.503	-0.527	-0.135
-531.091	-60.685	-0.645	0.274
-530.077	-94.930	1.058	-0.287
-529.062	-197.858	0.839	0.005
-528.048	-200.000	-0.117	0.540
-527.033	-200.000	0.005	-0.341
-526.018	101.438	0.669	0.781
-525.004	-13.487	-0.437	-0.284
-523.989	-113.846	0.326	-0.064
-522.975	181.050	-0.234	0.344
-521.960	22.637	-0.176	0.145
-520.945	-87.323	-0.875	-0.266
-519.931	800.000	0.084	0.273
-518.916	-200.000	0.007	-0.064
-517.902	-13.534	-0.270	-0.175
-516.887	-200.000	0.049	-0.701
-515.872	-111.920	0.196	0.040
-514.858	-90.646	0.570	0.165
-513.843	800.000	-0.327	-1.124
-512.829	110.589	0.329	-0.396
-511.814	800.000	0.399	-1.162
-510.799	112.555	-0.261	-0.316
-509.785	227.252	-0.329	0.535
-508.770	61.411	0.183	-0.182
-507.756	205.935	0.058	0.090
-506.741	-92.815	-0.222	-0.062
-505.726	-102.446	-0.481	-0.115
-504.712	309.001	0.025	0.047
-503.697	-200.000	-0.044	0.587
-502.683	-200.000	0.061	0.371
-501.668	-200.000	0.138	0.619
-500.653	258.365	0.140	0.242
-499.639	499.514	0.112	-0.258
-498.624	-20.117	-0.482	-0.297
-497.610	-95.982	-0.809	0.215
-496.595	-62.171	-0.401	0.167
-495.581	-200.000	0.074	0.430
-494.566	741.126	-0.268	-0.719
-493.551	24.836	-0.888	-0.736
-492.537	-50.451	0.409	0.193
-491.522	-8.555	0.495	-0.332
-490.508	800.000	0.229	-0.897
-489.493	-200.000	0.016	-0.383
-488.478	-37.045	-0.355	-0.190
-487.464	-200.000	0.114	-0.849
-486.449	592.772	0.174	0.430
-485.435	-200.000	-0.057	-0.725
-484.420	-32.554	0.145	0.080
-483.405	-129.475	-0.198	0.027
-482.391	-4.225	-0.529	-0.366
-481.376	-116.021	-1.109	0.206
-480.362	-116.438	-0.432	-0.080
-479.347	-200.000	-0.075	-1.132
-478.332	-33.928	-0.557	0.306
-477.318	322.784	-0.169	0.322
-476.303	-200.000	-0.028	0.255
-475.289	103.400	0.217	0.254
-474.274	655.147	-0.357	0.916
-473.259	800.000	0.296	1.116
-472.245	131.028	-0.183	0.235
-471.230	-200.000	0.026	0.620
-470.216	751.851	-0.349	0.941
-469.201	800.000	-0.272	0.800
-468.186	-200.000	-0.025	0.120
-467.172	-200.000	0.014	-0.382
-466.157	800.000	-0.187	-0.594
-465.143	142.416	-0.287	0.381
-464.128	-150.789	0.526	0.040
-463.113	-140.080	-0.523	0.055
-462.099	-200.000	-0.002	-0.984
-461.084	-5.388	-0.371	0.254
-460.070	-124.524	0.769	-0.119
-459.055	272.452	0.314	0.554
-458.040	101.170	0.108	0.125
-457.026	180.472	0.275	0.403
-456.011	-88.188	0.257	0.077
-454.997	93.373	-0.522	0.589
-453.982	-64.788	0.586	0.237
-452.968	99.493	-0.205	0.237
-451.953	800.000	-0.118	0.335
-450.938	-84.925	-0.462	-0.145
-449.924	-21.545	0.468	-0.285
-448.909	-200.000	-0.008	0.732
-447.895	-125.469	0.722	0.110
-446.880	353.780	0.468	-0.927
-445.865	127.372	-0.430	-0.545
-444.851	800.000	0.199	0.818
-443.836	374.281	-0.334	0.678
-442.822	-70.032	-0.678	-0.257
-441.807	-47.328	-0.265	-0.129
-440.792	299.927	0.129	-0.236
-439.778	-39.211	0.818	-0.429
-438.763	-71.157	-0.538	-0.201
-437.749	-47.468	0.215	-0.104
-436.734	-138.977	-0.797	-0.086
-435.719	-200.000	0.014	-0.342
-434.705	-200.000	-0.048	-0.223
-433.690	-200.000	0.028	0.126
-432.676	91.093	-0.536	0.600
-431.661	-53.813	-0.856	0.389
-430.646	-19.867	-0.403	-0.248
-429.632	78.301	-0.143	-0.152
-428.617	-6.845	0.306	0.208
-427.603	296.748	0.100	0.182
-426.588	106.553	0.213	-0.252
-425.573	-8.719	-0.290	-0.194
-424.559	-200.000	-0.019	0.387
-423.544	136.146	-0.218	0.283
-422.530	-57.261	0.407	-0.178
-421.515	-97.454	-0.735	-0.190
-420.500	289.885	0.349	-0.632
-419.486	159.699	-0.414	0.574
-418.471	319.790	-0.385	0.728
-417.457	159.541	-0.653	0.906
-416.442	450.584	-0.198	0.436
-415.428	169.171	0.185	0.264
-414.413	-164.676	-0.063	0.003
-413.398	800.000	-0.254	0.707
-412.384	248.747	0.262	0.443
-411.369	798.121	-0.250	-0.686
-410.355	-67.518	0.581	-0.227
-409.340	-200.000	0.000	-0.606
-408.325	-66.625	0.367	-0.145
-407.311	-200.000	0.044	-0.801
-406.296	70.562	-0.765	-0.788
-405.282	455.831	0.094	0.208
-404.267	34.205	0.444	0.386
-403.252	47.758	-0.140	0.130
-402.238	-76.890	0.112	-0.039
-401.223	-38.415	0.475	-0.250
-400.209	800.000	-0.012	0.045
-399.194	131.338	-0.156	-0.200
-398.179	-200.000	-0.025	1.019
-397.165	-47.270	-0.404	-0.196
-396.150	42.646	0.645	-0.585
-395.136	-139.183	0.311	-0.033
-394.121	-138.595	0.453	-0.049
-393.106	85.142	0.403	0.440
-392.092	-97.948	0.850	0.218
-391.077	-37.060	0.607	0.324
-390.063	-99.140	0.495	0.125
-389.048	-18.762	-0.644	0.399
-388.033	800.000	0.071	-0.245
-387.019	379.640	0.259	0.527
-386.004	-75.270	-0.583	-0.207
-384.990	-147.183	0.952	-0.081
-383.975	-100.114	-0.423	0.105
-382.960	-120.531	-0.311	-0.053
-381.946	800.000	0.154	0.560
-380.931	179.408	-0.100	-0.145
-379.917	-86.400	-0.214	0.065
-378.902	92.164	0.146	0.164
-377.888	42.584	0.374	0.339
-376.873	138.902	-0.196	0.256
-375.858	800.000	0.081	-0.298
-374.844	-110.783	-0.833	-0.171
-373.829	353.660	0.184	0.364
-372.815	-200.000	0.072	-1.409
-371.800	-200.000	-0.079	-0.501
-370.785	-32.586	-0.304	0.168
-369.771	-22.799	-0.734	-0.441
-368.756	52.834	0.672	-0.639
-367.742	-79.933	0.498	0.166
-366.727	-79.221	0.150	-0.051
-365.712	11.781	-0.215	0.164
-364.698	386.139	-0.051	-0.106
-363.683	126.203	-0.169	-0.213
-362.669	-37.327	-0.096	0.051
-361.654	-200.000	-0.033	0.208
-360.639	-20.702	0.523	-0.319
-359.625	535.177	-0.080	-0.189
-358.610	-92.942	0.210	-0.058
-357.596	-41.912	-0.513	-0.262
-356.581	-153.873	-0.551	0.037
-355.566	541.306	0.159	-0.378
-354.552	-78.887	-0.758	0.257
-353.537	-144.091	0.950	0.089
-352.523	20.178	0.556	-0.446
-351.508	84.436	-0.395	-0.430
-350.493	-63.130	-0.536	0.220
-349.479	450.824	0.209	-0.458
-348.464	16.401	-0.483	0.379
-347.450	-200.000	0.044	-0.356
-346.435	11.247	-0.147	-0.112
-345.420	-7.078	0.910	0.614
-344.406	90.504	-0.251	0.279
-343.391	177.724	-0.231	0.335
-342.377	-63.202	0.256	0.105
-341.362	800.000	0.196	-0.593
-340.348	-24.756	-0.318	0.188
-339.333	104.688	-0.599	0.702
-338.318	53.971	-0.611	-0.584
-337.304	14.488	-0.415	-0.322
-336.289	38.832	0.380	-0.337
-335.275	293.447	-0.327	0.592
-334.260	217.132	-0.167	0.264
-333.245	-126.978	0.826	-0.121
-332.231	435.116	0.190	0.410
-331.216	220.878	-0.740	1.179
-330.202	-48.880	-0.104	-0.049
-329.187	312.722	-0.455	-0.849
-328.172	-200.000	0.042	0.265
-327.158	430.232	-0.421	0.905
-326.143	-104.876	-0.516	0.118
-325.129	-95.142	0.682	-0.183
-324.114	30.398	0.027	-0.023
-323.099	800.000	-0.143	-0.457
-322.085	33.775	-0.114	-0.098
-321.070	-112.447	0.724	-0.144
-320.056	-200.000	0.027	0.223
-319.041	-200.000	-0.028	-0.494
-318.026	48.114	-0.384	-0.357
-317.012	-120.829	-0.156	0.026
-315.997	-200.000	0.018	0.391
-314.983	-8.559	-0.276	0.184
-313.968	-99.943	0.793	-0.197
-312.953	72.514	-0.229	-0.238
-311.939	-200.000	0.020	-0.153
-310.924	-200.000	0.088	-0.916
-309.910	800.000	0.139	0.473
-308.895	800.000	0.097	0.294
-307.880	-168.121	0.351	-0.014
-306.866	197.635	-0.694	-1.052
-305.851	-114.435	1.243	0.237
-304.837	-200.000	0.083	0.558
-303.822	119.586	0.310	-0.381
-302.807	107.023	0.411	-0.484
-301.793	6.800	0.347	0.257
-300.778	800.000	0.110	-0.382
-299.764	-44.369	0.067	0.033
-298.749	65.112	0.500	0.501
-297.735	-93.970	0.648	-0.177
-296.720	800.000	0.085	-0.274
-295.705	-200.000	0.094	0.527
-294.691	-200.000	0.060	-0.651
-293.676	143.113	0.403	-0.532
-292.662	144.229	-0.376	-0.497
-291.647	-50.269	-0.692	-0.325
-290.632	-38.634	-0.304	-0.159
-289.618	-200.000	0.060	0.312
-288.603	-15.184	0.301	0.191
-287.589	-33.218	-0.175	0.096
-286.574	73.911	-0.689	0.716
-285.559	35.552	0.672	0.585
-284.545	-124.785	0.479	0.073
-283.530	-200.000	-0.013	-0.255
-282.516	-30.085	-0.148	-0.083
-281.501	-200.000	0.010	-0.158
-280.486	96.884	-0.586	0.666
-279.472	-159.943	0.387	0.021
-278.457	132.643	0.106	0.135
-277.443	199.763	-0.376	0.571
-276.428	132.774	-0.248	0.317
-275.413	-200.000	-0.144	-0.666
-274.399	-200.000	-0.002	0.431
-273.384	30.312	0.659	-0.558
-272.370	-56.972	-0.539	0.236
-271.355	177.489	-0.219	0.316
-270.340	82.776	-0.658	-0.709
-269.326	-200.000	-0.008	0.076
-268.311	-110.172	0.418	0.086
-267.297	49.415	0.528	-0.493
-266.282	84.587	-0.517	0.561
-265.267	737.548	-0.160	0.426
-264.253	210.675	-0.203	-0.316
-263.238	-58.202	0.472	0.204
-262.224	221.809	0.360	0.573
-261.209	218.322	0.215	0.340
-260.195	-109.440	-0.177	0.037
-259.180	79.663	-0.090	-0.095
-258.165	8.384	-0.304	-0.226
-257.151	212.276	-0.329	0.513
-256.136	98.481	0.467	-0.534
-255.122	-200.000	-0.093	-0.456
-254.107	95.660	0.212	-0.239
-253.092	-200.000	0.023	0.332
-252.078	177.085	0.288	-0.416
-251.063	586.112	0.132	-0.321
-250.049	-200.000	0.023	-0.337
-249.034	800.000	0.105	0.338
-248.019	86.166	-0.068	-0.074
-247.005	276.839	0.277	-0.488
-245.990	-23.613	0.473	0.281
-244.976	-146.206	0.447	0.039
-243.961	-166.131	-0.407	0.017
-242.946	76.490	-0.355	-0.372
-241.932	-200.000	-0.021	0.133
-240.917	8.627	-0.203	-0.151
-239.903	-128.645	-0.679	0.095
-238.888	27.960	-0.682	0.570
-237.873	-129.705	0.420	0.057
-236.859	-154.936	0.898	-0.059
-235.844	112.955	0.135	0.162
-234.830	-137.595	0.404	-0.045
-233.815	43.892	-0.455	0.413
-232.800	800.000	0.116	0.413
-231.786	51.609	1.163	1.094
-230.771	-13.431	-0.288	-0.185
-229.757	-200.000	-0.015	-0.082
-228.742	800.000	-0.097	0.404
-227.727	-30.659	0.572	-0.320
-226.713	-129.782	0.522	0.071
-225.698	-200.000	-0.001	0.232
-224.684	800.000	-0.110	-0.303
-223.669	142.902	0.123	0.162
-222.655	-74.626	-0.467	0.166
-221.640	-200.000	0.007	0.979
-220.625	-78.209	0.515	0.175
-219.611	-57.754	0.566	-0.245
-218.596	-28.730	0.580	-0.330
-217.582	367.226	0.729	-1.457
-216.567	-143.212	-0.196	0.019
-215.552	-69.284	-0.555	0.211
-214.538	68.001	-0.425	0.430
-213.523	29.789	-0.266	-0.224
-212.509	-158.888	0.493	0.028
-211.494	14.051	0.508	-0.391
-210.479	85.605	0.491	-0.533
-209.465	8.248	0.586	-0.435
-208.450	137.660	-0.120	-0.155
-207.436	-176.625	0.533	-0.014
-206.421	82.838	0.413	-0.444
-205.406	-69.895	-0.107	0.040
-204.392	800.000	0.205	0.693
-203.377	800.000	-0.118	0.414
-202.363	-111.950	-0.486	-0.097
-201.348	-200.000	-0.031	-0.248
-200.333	-200.000	-0.012	0.246
-199.319	278.918	-0.412	0.726
-198.304	267.627	-0.545	-0.942
-197.290	800.000	0.176	-0.670
-196.275	-128.881	-0.265	0.037
-195.260	120.380	0.553	-0.678
-194.246	-12.764	-0.358	0.231
-193.231	-104.664	-0.419	0.095
-192.217	383.264	-0.328	-0.667
-191.202	800.000	-0.084	-0.268
-190.187	240.694	-0.364	0.600
-189.173	65.556	-0.217	-0.217
-188.158	6.066	-0.726	0.531
-187.144	39.974	-0.661	-0.586
-186.129	140.896	0.484	-0.632
-185.114	-142.659	1.157	0.112
-184.100	-52.575	-0.650	0.296
-183.085	203.566	-0.278	-0.425
-182.071	-144.510	-1.051	0.096
-181.056	-112.428	-0.572	0.113
-180.042	-200.000	-0.011	0.448
-179.027	1.146	0.370	-0.262
-178.012	340.145	0.474	0.913
-176.998	1.671	-0.225	0.160
-175.983	-97.456	0.486	-0.125
-174.969	585.093	0.248	0.601
-173.954	-200.000	-0.083	-0.731
-172.939	740.530	0.559	1.483
-171.925	219.628	-0.088	0.139
-170.910	-90.179	-0.470	0.135
-169.896	-152.532	-0.341	-0.024
-168.881	58.834	0.274	0.266
-167.866	800.000	0.172	-0.587
-166.852	400.349	0.490	1.015
-165.837	-12.223	0.255	-0.165
-164.823	-40.968	-0.623	0.318
-163.808	-178.004	-0.553	-0.013
-162.793	-199.419	0.640	0.003
-161.779	800.000	0.099	0.387
-160.764	19.548	-0.196	0.156
-159.750	347.104	-0.390	0.758
-158.735	-200.000	0.181	0.879
-157.720	-200.000	-0.004	0.121
-156.706	62.095	0.183	0.180
-155.691	-97.117	0.602	0.155
-154.677	194.455	-0.109	-0.164
-153.662	-29.707	-0.160	-0.090
-152.647	800.000	-0.332	-1.209
-151.633	-157.422	0.119	0.007
-150.618	89.398	-0.175	0.193
-149.604	-31.765	-0.503	0.278
-148.589	-135.505	0.706	0.083
-147.574	549.503	0.225	0.531
-146.560	748.296	0.337	-0.897
-145.545	47.490	0.558	-0.513
-144.531	207.318	0.104	-0.160
-143.516	-200.000	0.050	0.577
-142.502	800.000	-0.064	-0.249
-141.487	-31.435	-0.234	0.130
-140.472	-93.349	-0.620	-0.170
-139.458	800.000	0.182	-0.743
-138.443	-200.000	0.047	-1.008
-137.429	-65.225	0.415	0.165
-136.414	54.288	0.214	-0.203
-135.399	-200.000	-0.021	-0.262
-134.385	132.163	-0.275	0.349
-133.370	-98.616	-0.390	0.098
-132.356	800.000	-0.113	-0.318
-131.341	131.595	-0.243	-0.308
-130.326	-10.556	-0.336	0.219
-129.312	-77.501	-0.334	0.114
-128.297	-46.277	0.572	0.277
-127.283	-82.448	-0.916	0.293
-126.268	79.523	0.274	-0.290
-125.253	-123.198	0.392	0.062
-124.239	369.138	0.527	1.051
-123.224	-20.872	0.189	0.114
-122.210	152.178	-0.125	-0.168
-121.195	497.569	-0.421	-0.954
