DTS Sentinel unit serial number:	SN413079Multiplexer serial number:	ORYXHardware model number:	OX4-SRSoftware version number:	ORYX F/W v4.00 Oryx Data Collector v3.7.2.0data status	okinstallation	princeton_trtdifferential loss correction	single-endedforward channel	channel 3reverse channel	N/Adate	2019/09/17time	18:12:35forward acquisition time	60.00reverse acquisition time	0.00gamma	496.2192k internal	0.2289k external	0.2289temperature offset calibration	0.9946default loss term (dB/km)	0.3790temperature slope calibration	1.0000multiplexer offset coefficient	1.0000multiplexer slope coefficient	1.0000fibre end	0.00T internal ref (°C)	43.44T ext. ref 1 (°C)	0.32T ext. ref 2 (°C)	37.63length (m)	temperature (°C)	Stokes	anti-Stokes-747.200	-49.178	0.096	-0.047
-746.185	83.322	0.101	0.112
-745.171	-200.000	-0.045	0.242
-744.156	100.660	-0.135	-0.161
-743.142	321.717	0.084	0.163
-742.127	622.446	-0.183	0.473
-741.112	150.649	-0.171	0.238
-740.098	57.999	-0.114	0.114
-739.083	262.275	-0.076	-0.135
-738.069	800.000	-0.030	0.097
-737.054	-17.664	0.083	0.053
-736.039	-200.000	0.054	-0.399
-735.025	208.954	0.078	0.126
-734.010	-35.591	-0.304	-0.169
-732.996	-63.859	0.218	-0.091
-731.981	-3.008	-0.090	0.064
-730.966	298.985	-0.060	0.112
-729.952	72.501	-0.036	0.039
-728.937	-114.391	-0.180	-0.036
-727.923	576.523	0.054	-0.134
-726.908	-83.546	-0.059	-0.019
-725.894	-93.916	-0.150	-0.042
-724.879	134.999	-0.095	-0.127
-723.864	-200.000	0.006	-0.094
-722.850	-16.572	-0.096	0.063
-721.835	4.668	0.146	0.110
-720.821	-84.282	-0.431	0.140
-719.806	-92.136	-0.235	-0.068
-718.791	-62.679	0.192	-0.082
-717.777	-45.101	-0.125	-0.064
-716.762	-200.000	-0.003	0.322
-715.748	108.435	-0.108	-0.132
-714.733	50.029	-0.166	-0.160
-713.718	-52.405	0.242	0.115
-712.704	-92.377	-0.210	-0.061
-711.689	-109.822	0.429	-0.092
-710.675	-35.971	0.221	-0.122
-709.660	411.862	-0.012	0.025
-708.645	-200.000	-0.367	0.000
-707.631	800.000	0.046	-0.167
-706.616	-200.000	0.015	0.085
-705.602	254.437	0.022	0.038
-704.587	800.000	-0.073	-0.234
-703.572	38.924	-0.039	0.035
-702.558	-200.000	0.007	-0.262
-701.543	-37.195	0.161	-0.088
-700.529	-101.827	-0.363	-0.090
-699.514	-147.048	0.013	0.001
-698.499	59.742	-0.093	0.094
-697.485	31.645	-0.418	-0.368
-696.470	-60.113	-0.081	0.035
-695.456	136.373	0.060	-0.080
-694.441	800.000	-0.012	0.039
-693.426	-3.350	0.128	-0.091
-692.412	-151.066	-0.236	-0.018
-691.397	378.189	-0.094	0.198
-690.383	64.086	0.179	0.184
-689.368	-200.000	-0.049	0.427
-688.354	-200.000	-0.026	0.157
-687.339	364.706	0.034	-0.071
-686.324	373.215	0.136	-0.284
-685.310	-5.775	0.303	-0.212
-684.295	499.711	-0.048	-0.114
-683.281	-44.281	0.206	-0.106
-682.266	-82.442	-0.230	-0.076
-681.251	262.066	0.067	-0.119
-680.237	1.303	0.152	-0.111
-679.222	174.970	0.046	-0.067
-678.208	479.943	-0.131	-0.303
-677.193	800.000	-0.041	0.123
-676.178	800.000	-0.032	0.093
-675.164	-83.662	-0.216	0.071
-674.149	-84.584	-0.574	-0.185
-673.135	-76.218	0.241	-0.087
-672.120	-91.589	-0.169	-0.049
-671.105	-200.000	-0.040	-0.190
-670.091	33.669	-0.187	0.166
-669.076	-88.063	-0.155	-0.047
-668.062	-78.302	0.100	-0.035
-667.047	-200.000	0.048	0.251
-666.032	-200.000	0.057	-0.311
-665.018	800.000	0.063	-0.257
-664.003	117.494	0.067	0.084
-662.989	283.399	0.044	-0.080
-661.974	800.000	0.059	0.243
-660.959	-200.000	-0.025	0.211
-659.945	675.962	-0.044	0.116
-658.930	-49.814	-0.329	-0.160
-657.916	59.704	-0.171	-0.173
-656.901	-1.061	0.354	0.256
-655.886	-135.942	-0.219	-0.026
-654.872	732.430	-0.056	0.154
-653.857	180.646	0.017	-0.025
-652.843	-119.447	0.279	-0.050
-651.828	-200.000	0.022	-0.138
-650.814	-59.716	-0.342	-0.150
-649.799	273.899	0.168	-0.303
-648.784	263.604	-0.024	0.043
-647.770	800.000	-0.059	0.180
-646.755	-157.652	0.254	-0.015
-645.741	-200.000	0.007	0.130
-644.726	56.227	-0.227	-0.226
-643.711	-200.000	-0.031	0.233
-642.697	434.934	-0.085	-0.188
-641.682	-89.891	0.145	-0.043
-640.668	800.000	0.029	0.104
-639.653	-200.000	-0.043	-0.240
-638.638	69.352	0.173	0.182
-637.624	-68.872	-0.013	-0.005
-636.609	-87.520	0.525	-0.162
-635.595	-179.197	0.268	-0.006
-634.580	-200.000	-0.009	-0.144
-633.565	-135.263	0.012	-0.001
-632.551	800.000	0.111	0.320
-631.536	-94.536	0.097	-0.027
-630.522	-70.367	-0.163	-0.063
-629.507	134.957	0.180	-0.239
-628.492	96.271	0.217	-0.253
-627.478	-200.000	0.015	0.121
-626.463	-82.511	-0.064	0.021
-625.449	-89.541	-0.579	0.173
-624.434	225.126	0.156	-0.257
-623.419	700.884	-0.070	-0.189
-622.405	-200.000	0.020	-0.175
-621.390	-119.704	0.113	-0.020
-620.376	-200.000	0.084	0.420
-619.361	-200.000	0.026	0.128
-618.346	800.000	0.090	-0.336
-617.332	357.923	0.053	0.109
-616.317	-103.017	-0.178	0.043
-615.303	19.799	0.224	-0.184
-614.288	341.840	0.159	-0.317
-613.273	-200.000	-0.036	0.291
-612.259	-14.315	0.075	0.049
-611.244	139.688	0.173	0.232
-610.230	180.962	0.042	-0.062
-609.215	24.621	-0.235	-0.198
-608.201	-96.063	-0.122	-0.033
-607.186	-200.000	-0.002	0.043
-606.171	134.763	0.151	0.200
-605.157	-61.564	-0.151	0.064
-604.142	293.695	0.038	0.070
-603.128	-200.000	0.041	-0.186
-602.113	-200.000	-0.050	0.265
-601.098	-105.414	0.125	0.029
-600.084	-86.249	0.248	-0.078
-599.069	-80.351	0.215	-0.073
-598.055	-200.000	0.062	0.421
-597.040	-107.746	-0.181	0.040
-596.025	88.011	-0.170	-0.193
-595.011	-42.352	-0.396	0.206
-593.996	-114.517	-0.131	-0.026
-592.982	-200.000	-0.002	-0.117
-591.967	-200.000	0.053	-0.392
-590.952	-42.767	0.223	0.115
-589.938	800.000	0.037	0.153
-588.923	-55.376	-0.279	0.128
-587.909	379.040	-0.163	-0.340
-586.894	515.565	0.129	-0.307
-585.879	2.868	0.014	0.010
-584.865	22.470	0.077	-0.064
-583.850	-200.000	0.005	0.250
-582.836	-14.018	0.214	0.141
-581.821	-80.504	-0.215	0.073
-580.806	-153.217	-0.234	-0.017
-579.792	569.338	0.056	0.139
-578.777	-109.111	0.426	0.092
-577.763	-91.140	0.168	-0.049
-576.748	-89.183	-0.158	0.047
-575.733	9.061	-0.087	-0.067
-574.719	-55.235	-0.149	0.068
-573.704	-4.153	-0.533	-0.376
-572.690	-200.000	0.020	-0.109
-571.675	14.813	-0.147	-0.117
-570.661	-80.706	0.123	0.042
-569.646	-95.281	-0.374	0.102
-568.631	-125.469	0.197	0.030
-567.617	74.857	-0.193	-0.207
-566.602	115.158	-0.097	-0.121
-565.588	-17.262	0.060	0.039
-564.573	-200.000	-0.033	0.259
-563.558	385.455	0.041	-0.086
-562.544	800.000	-0.057	0.176
-561.529	65.933	0.203	0.210
-560.515	369.512	-0.065	0.133
-559.500	-200.000	0.001	-0.031
-558.485	1.311	-0.060	-0.044
-557.471	134.933	0.108	-0.142
-556.456	-38.313	-0.184	-0.099
-555.442	549.252	0.036	-0.088
-554.427	-200.000	-0.023	0.115
-553.412	447.909	0.070	-0.156
-552.398	66.501	-0.053	-0.055
-551.383	-200.000	-0.010	0.157
-550.369	-125.185	-0.179	-0.028
-549.354	170.582	0.029	-0.043
-548.339	306.542	0.115	0.217
-547.325	-19.912	0.182	-0.114
-546.310	402.358	0.089	-0.191
-545.296	800.000	-0.135	0.576
-544.281	13.946	0.171	0.135
-543.266	72.766	0.247	-0.262
-542.252	145.731	0.134	-0.183
-541.237	-150.080	-0.304	0.024
-540.223	138.522	-0.118	0.157
-539.208	791.760	0.023	-0.064
-538.193	-90.316	0.151	0.045
-537.179	31.076	0.093	0.081
-536.164	-176.324	-0.146	0.004
-535.150	27.334	-0.113	-0.096
-534.135	338.335	0.077	0.153
-533.121	175.729	0.123	-0.181
-532.106	161.786	-0.163	-0.232
-531.091	-200.000	-0.048	0.271
-530.077	-136.455	0.195	-0.023
-529.062	299.720	0.094	0.175
-528.048	307.711	-0.092	0.174
-527.033	284.743	-0.130	0.238
-526.018	-99.445	-0.209	0.053
-525.004	756.936	-0.088	0.243
-523.989	120.973	0.112	-0.142
-522.975	42.928	0.253	-0.235
-521.960	-29.636	-0.220	0.128
-520.945	-101.394	0.237	0.059
-519.931	224.850	0.074	0.121
-518.916	-200.000	0.058	0.380
-517.902	-65.506	0.131	-0.053
-516.887	-156.403	-0.280	0.018
-515.872	800.000	0.076	0.256
-514.858	-135.318	-0.177	0.021
-513.843	529.116	-0.063	-0.151
-512.829	197.411	-0.055	-0.085
-511.814	-96.441	0.118	0.032
-510.799	-76.672	0.268	-0.095
-509.785	800.000	-0.027	-0.105
-508.770	-94.660	0.072	-0.020
-507.756	197.364	-0.245	-0.379
-506.741	-76.886	-0.153	0.054
-505.726	-126.759	-0.142	0.021
-504.712	-116.951	0.486	0.090
-503.697	-200.000	0.004	-0.116
-502.683	61.897	0.056	-0.057
-501.668	-144.362	0.033	0.003
-500.653	138.895	-0.121	0.161
-499.639	-129.658	0.071	0.010
-498.624	-62.252	-0.330	-0.140
-497.610	-81.053	0.190	-0.064
-496.595	184.367	-0.133	0.199
-495.581	-200.000	0.043	0.301
-494.566	-25.585	0.238	0.143
-493.551	-193.120	-0.067	-0.001
-492.537	-54.851	-0.262	-0.120
-491.522	-141.524	-0.239	-0.025
-490.508	-200.000	-0.034	0.391
-489.493	-200.000	0.125	-0.000
-488.478	31.460	-0.081	-0.071
-487.464	800.000	0.023	-0.088
-486.449	224.593	0.111	0.182
-485.435	-28.765	0.145	-0.085
-484.420	800.000	0.088	0.254
-483.405	-83.229	-0.059	-0.019
-482.391	-27.618	-0.157	0.092
-481.376	800.000	0.083	-0.365
-480.362	202.417	0.063	0.099
-479.347	461.717	-0.026	0.058
-478.332	-200.000	-0.053	-0.290
-477.318	166.454	0.171	0.246
-476.303	-14.306	0.175	0.114
-475.289	800.000	-0.165	-0.564
-474.274	-76.584	-0.243	-0.086
-473.259	7.924	-0.151	0.115
-472.245	-200.000	-0.058	0.264
-471.230	800.000	0.050	-0.160
-470.216	-133.098	0.278	-0.036
-469.201	-63.306	0.088	-0.037
-468.186	-113.176	0.174	0.035
-467.172	74.187	-0.134	0.142
-466.157	-200.000	0.033	-0.193
-465.143	800.000	0.036	0.104
-464.128	800.000	0.070	0.292
-463.113	800.000	-0.048	0.149
-462.099	-151.985	-0.226	0.017
-461.084	-149.931	-0.049	-0.004
-460.070	10.808	0.202	0.157
-459.055	82.670	0.062	-0.068
-458.040	-91.133	-0.096	0.028
-457.026	-29.361	-0.245	-0.142
-456.011	-95.563	-0.089	0.024
-454.997	800.000	0.077	0.325
-453.982	-200.000	0.033	-0.170
-452.968	-50.387	0.340	0.163
-451.953	-1.509	0.206	0.147
-450.938	71.996	0.131	0.138
-449.924	-14.572	0.146	0.095
-448.909	50.987	0.150	-0.144
-447.895	-102.622	0.251	0.061
-446.880	-95.493	-0.236	-0.064
-445.865	427.172	0.087	-0.190
-444.851	-200.000	0.005	0.072
-443.836	-148.652	-0.078	-0.006
-442.822	-200.000	0.003	-0.130
-441.807	44.005	-0.175	0.162
-440.792	-200.000	0.063	0.325
-439.778	-188.173	-0.141	-0.002
-438.763	7.021	0.346	0.261
-437.749	-200.000	-0.001	-0.065
-436.734	-200.000	-0.033	-0.270
-435.719	-4.224	0.284	0.199
-434.705	-25.508	0.165	-0.099
-433.690	-172.348	-0.268	-0.009
-432.676	394.213	0.095	-0.201
-431.661	-147.279	0.322	0.028
-430.646	-200.000	-0.015	-0.211
-429.632	-43.690	-0.401	-0.205
-428.617	141.649	0.186	-0.250
-427.603	-62.349	-0.027	-0.011
-426.588	-200.000	-0.002	-0.113
-425.573	800.000	-0.074	-0.259
-424.559	800.000	-0.114	0.354
-423.544	579.201	-0.136	0.338
-422.530	651.456	-0.097	0.251
-421.515	340.752	0.144	0.284
-420.500	800.000	0.035	0.101
-419.486	62.589	-0.125	0.127
-418.471	-6.788	-0.136	-0.094
-417.457	-149.168	-0.271	0.022
-416.442	543.548	0.052	0.125
-415.428	-200.000	-0.027	-0.133
-414.413	800.000	0.005	0.019
-413.398	-200.000	-0.037	-0.369
-412.384	-200.000	-0.043	-0.244
-411.369	-175.214	0.216	0.006
-410.355	-69.110	0.097	0.038
-409.340	113.794	-0.254	0.312
-408.325	-111.179	0.387	-0.080
-407.311	161.855	-0.154	0.218
-406.296	800.000	0.019	-0.059
-405.282	231.624	0.155	0.257
-404.267	-152.128	0.273	0.020
-403.252	4.238	-0.133	0.099
-402.238	186.787	0.136	-0.205
-401.223	800.000	0.080	0.295
-400.209	254.781	0.215	0.373
-399.194	-100.901	0.093	-0.023
-398.179	-57.322	0.393	-0.175
-397.165	333.501	0.040	0.079
-396.150	-161.028	0.179	-0.010
-395.136	519.274	0.053	-0.126
-394.121	-200.000	0.047	-0.299
-393.106	233.024	-0.130	-0.217
-392.092	-98.294	0.104	-0.027
-391.077	95.991	0.115	-0.132
-390.063	112.443	-0.273	0.334
-389.048	-19.017	-0.064	-0.040
-388.033	-50.041	0.212	-0.102
-387.019	-114.547	0.360	0.070
-386.004	-136.473	-0.419	-0.049
-384.990	145.155	0.245	-0.331
-383.975	-200.000	0.031	0.234
-382.960	-200.000	0.018	-0.135
-381.946	-76.337	-0.221	-0.079
-380.931	-117.643	-0.165	0.030
-379.917	-200.000	-0.040	-0.266
-378.902	9.480	0.043	-0.033
-377.888	-200.000	0.010	0.209
-376.873	264.278	0.147	-0.258
-375.858	-130.023	0.146	0.020
-374.844	92.458	0.242	0.276
-373.829	-200.000	0.027	0.214
-372.815	-70.922	-0.332	0.126
-371.800	23.549	0.124	-0.103
-370.785	800.000	-0.068	-0.197
-369.771	209.210	0.071	-0.113
-368.756	202.579	0.106	0.165
-367.742	-44.669	0.134	0.068
-366.727	-63.748	-0.184	0.076
-365.712	-31.284	0.226	-0.128
-364.698	-95.384	0.165	-0.045
-363.683	800.000	-0.068	-0.237
-362.669	18.232	-0.077	-0.062
-361.654	-120.517	0.178	0.030
-360.639	800.000	0.046	0.155
-359.625	-133.271	-0.099	0.013
-358.610	-200.000	-0.013	0.174
-357.596	800.000	-0.019	0.071
-356.581	-91.085	-0.087	0.025
-355.566	800.000	-0.065	-0.210
-354.552	-55.239	0.223	-0.101
-353.537	321.183	0.055	0.106
-352.523	-66.502	0.115	0.046
-351.508	-96.863	-0.159	0.042
-350.493	43.573	-0.029	-0.026
-349.479	146.076	0.093	0.126
-348.464	-80.964	-0.327	0.109
-347.450	5.077	-0.401	0.298
-346.435	313.272	0.093	0.176
-345.420	583.437	0.047	-0.116
-344.406	53.543	0.286	-0.277
-343.391	-177.276	0.131	-0.003
-342.377	-113.724	0.102	0.020
-341.362	-162.186	-0.247	-0.012
-340.348	-85.984	0.095	-0.030
-339.333	-200.000	-0.005	0.247
-338.318	772.955	-0.148	-0.406
-337.304	-59.934	0.182	0.078
-336.289	-200.000	0.056	0.363
-335.275	30.285	-0.123	0.106
-334.260	-200.000	-0.003	-0.181
-333.245	31.301	-0.257	-0.223
-332.231	-113.423	-0.206	-0.041
-331.216	800.000	-0.121	0.355
-330.202	436.404	-0.072	0.158
-329.187	-11.358	-0.106	0.070
-328.172	-200.000	0.019	0.124
-327.158	-200.000	-0.012	-0.221
-326.143	7.922	-0.112	-0.085
-325.129	205.944	-0.103	-0.161
-324.114	26.980	0.058	0.049
-323.099	-92.941	0.100	0.028
-322.085	800.000	0.059	-0.213
-321.070	-10.867	-0.208	-0.138
-320.056	225.040	-0.127	-0.207
-319.041	-28.801	-0.077	-0.044
-318.026	-167.616	-0.153	-0.006
-317.012	194.902	-0.050	0.077
-315.997	30.102	0.178	0.153
-314.983	-72.521	-0.346	-0.129
-313.968	24.323	0.143	-0.119
-312.953	800.000	-0.082	0.244
-311.939	-100.243	0.180	0.045
-310.924	-57.943	-0.084	0.037
-309.910	26.664	0.241	-0.203
-308.895	-45.535	0.231	-0.115
-307.880	-200.000	0.015	-0.099
-306.866	-22.742	-0.146	0.089
-305.851	-140.576	0.375	-0.039
-304.837	-11.312	0.078	-0.052
-303.822	-35.702	0.320	-0.175
-302.807	-82.658	-0.235	-0.077
-301.793	234.231	-0.098	-0.163
-300.778	94.318	-0.116	-0.132
-299.764	779.121	0.043	0.118
-298.749	204.271	-0.104	-0.162
-297.735	87.424	-0.125	0.140
-296.720	-186.904	-0.213	-0.003
-295.705	140.092	-0.217	0.288
-294.691	509.000	0.119	0.279
-293.676	141.419	0.095	0.127
-292.662	800.000	-0.021	0.075
-291.647	385.706	-0.093	0.193
-290.632	66.592	-0.242	-0.248
-289.618	-17.781	-0.167	-0.106
-288.603	-150.487	0.371	-0.029
-287.589	-12.397	-0.203	-0.133
-286.574	322.295	0.093	-0.179
-285.559	70.693	-0.095	0.099
-284.545	800.000	0.043	0.158
-283.530	-11.824	0.103	-0.068
-282.516	-200.000	-0.043	-0.399
-281.501	800.000	0.025	0.082
-280.486	-200.000	-0.021	0.217
-279.472	670.877	-0.116	0.302
-278.457	-71.599	-0.073	0.027
-277.443	119.466	-0.149	-0.185
-276.428	-200.000	0.004	-0.215
-275.413	309.215	-0.060	-0.112
-274.399	-37.748	-0.109	-0.058
-273.384	88.714	-0.158	0.177
-272.370	-165.917	0.231	0.010
-271.355	-32.671	-0.072	-0.041
-270.340	-200.000	-0.039	-0.482
-269.326	298.624	-0.203	-0.376
-268.311	371.241	-0.099	-0.202
-267.297	182.318	0.091	-0.135
-266.282	-58.596	0.228	-0.100
-265.267	-199.380	-0.217	0.001
-264.253	-65.563	0.025	-0.010
-263.238	-13.519	-0.244	-0.159
-262.224	80.123	0.111	0.120
-261.209	522.868	0.126	-0.298
-260.195	-35.364	-0.215	-0.117
-259.180	115.783	0.056	0.069
-258.165	-200.000	-0.043	0.283
-257.151	-200.000	0.003	0.320
-256.136	-200.000	0.002	0.010
-255.122	-17.191	-0.137	-0.087
-254.107	-200.000	-0.030	-0.149
-253.092	39.216	0.218	-0.197
-252.078	2.418	-0.390	-0.284
-251.063	-200.000	-0.027	-0.317
-250.049	54.005	0.062	-0.060
-249.034	15.115	0.310	0.244
-248.019	78.406	0.081	-0.086
-247.005	378.393	0.015	0.032
-245.990	-200.000	-0.019	0.209
-244.976	-78.019	0.241	-0.083
-243.961	189.052	0.199	0.299
-242.946	111.709	0.101	-0.122
-241.932	-113.805	-0.115	0.023
-240.917	209.060	0.061	-0.097
-239.903	-200.000	0.091	0.526
-238.888	800.000	-0.070	-0.286
-237.873	-200.000	0.064	0.404
-236.859	-100.326	-0.123	0.031
-235.844	195.211	0.094	-0.143
-234.830	-177.895	-0.360	-0.009
-233.815	-125.633	0.140	0.021
-232.800	800.000	0.055	0.199
-231.786	89.900	-0.195	0.218
-230.771	-12.261	-0.155	-0.102
-229.757	43.846	0.273	-0.251
-228.742	-200.000	0.024	0.131
-227.727	94.222	0.194	-0.221
-226.713	-48.304	-0.224	-0.108
-225.698	195.163	0.144	-0.219
-224.684	1.747	-0.139	0.101
-223.669	-90.971	-0.298	0.086
-222.655	103.402	0.201	-0.237
-221.640	-200.000	-0.038	0.295
-220.625	800.000	-0.060	0.237
-219.611	-200.000	-0.016	0.297
-218.596	-200.000	-0.009	-0.174
-217.582	18.166	0.015	0.012
-216.567	-83.374	-0.262	-0.084
-215.552	-127.929	0.362	-0.052
-214.538	-58.471	-0.245	-0.107
-213.523	-200.000	-0.029	-0.131
-212.509	180.805	-0.291	0.428
-211.494	-200.000	0.052	-0.338
-210.479	-74.080	-0.202	0.074
-209.465	759.918	0.084	0.229
-208.450	489.831	-0.008	0.019
-207.436	-77.408	-0.107	0.037
-206.421	-87.771	0.104	0.031
-205.406	-62.020	-0.178	-0.075
-204.392	800.000	-0.106	-0.301
-203.377	-91.952	-0.184	0.052
-202.363	95.123	0.227	0.259
-201.348	-155.989	-0.161	-0.010
-200.333	55.677	0.248	-0.241
-199.319	350.629	-0.037	0.072
-198.304	-200.000	-0.020	0.175
-197.290	560.673	0.044	-0.108
-196.275	-200.000	-0.043	-0.227
-195.260	-200.000	-0.048	0.232
-194.246	-200.000	0.059	0.316
-193.231	-200.000	-0.027	-0.268
-192.217	800.000	0.070	-0.227
-191.202	-154.486	-0.213	-0.014
-190.187	44.186	-0.237	-0.218
-189.173	-58.281	-0.281	-0.123
-188.158	-5.851	0.200	-0.137
-187.144	41.859	0.231	-0.210
-186.129	-200.000	0.013	0.212
-185.114	-148.755	0.411	0.033
-184.100	117.900	0.187	0.231
-183.085	-102.188	-0.134	0.032
-182.071	66.076	-0.133	0.136
-181.056	-26.174	-0.179	-0.105
-180.042	312.263	0.079	-0.148
-179.027	105.115	-0.279	-0.330
-178.012	800.000	0.097	-0.406
-176.998	105.478	-0.085	-0.100
-175.983	362.037	0.170	-0.341
-174.969	-200.000	-0.015	-0.339
-173.954	-125.737	-0.257	-0.039
-172.939	-77.138	-0.105	0.037
-171.925	18.430	0.071	0.057
-170.910	800.000	-0.046	-0.194
-169.896	113.296	0.061	-0.075
-168.881	519.900	-0.135	-0.317
-167.866	-82.407	-0.136	-0.044
-166.852	96.847	-0.040	0.046
-165.837	-129.275	0.064	0.009
-164.823	-200.000	-0.078	0.366
-163.808	410.730	0.235	0.500
-162.793	-200.000	0.072	0.501
-161.779	-140.698	-0.136	0.014
-160.764	800.000	0.059	-0.210
-159.750	237.143	0.064	-0.105
-158.735	-200.000	0.054	0.264
-157.720	-146.432	-0.067	0.006
-156.706	-95.263	0.203	0.055
-155.691	-200.000	0.022	0.332
-154.677	-200.000	-0.013	0.358
-153.662	-171.880	0.129	-0.004
-152.647	370.623	-0.149	0.302
-151.633	79.469	-0.389	-0.417
-150.618	41.527	0.380	-0.344
-149.604	37.263	-0.138	-0.122
-148.589	-104.003	-0.137	0.032
-147.574	305.813	-0.248	0.462
-146.560	-200.000	0.032	0.209
-145.545	-59.685	0.081	0.035
-144.531	-83.915	0.051	0.016
-143.516	-151.365	0.135	0.010
-142.502	-0.887	0.261	0.185
-141.487	-200.000	-0.005	0.307
-140.472	-10.751	0.156	-0.103
-139.458	42.484	-0.195	-0.178
-138.443	-200.000	-0.007	0.253
-137.429	75.258	-0.092	-0.097
-136.414	-125.983	-0.125	-0.019
-135.399	-200.000	-0.081	0.441
-134.385	87.619	0.114	0.126
-133.370	-42.705	0.135	0.069
-132.356	-164.957	0.166	-0.007
-131.341	-75.797	0.055	-0.020
-130.326	92.297	0.082	0.093
-129.312	-200.000	-0.008	0.279
-128.297	800.000	0.101	0.363
-127.283	-200.000	0.043	0.292
-126.268	50.963	-0.028	-0.027
-125.253	-90.366	0.248	-0.072
-124.239	19.340	-0.246	0.197
-123.224	-77.960	-0.107	0.037
-122.210	528.160	0.177	-0.418
-121.195	-133.698	0.273	0.034
