DTS Sentinel unit serial number:	SN413079Multiplexer serial number:	ORYXHardware model number:	OX4-SRSoftware version number:	ORYX F/W v4.00 Oryx Data Collector v3.7.2.0data status	okinstallation	princeton_trtdifferential loss correction	single-endedforward channel	channel 3reverse channel	N/Adate	2019/09/12time	19:39:04forward acquisition time	15.00reverse acquisition time	0.00gamma	496.2192k internal	0.2322k external	0.2322temperature offset calibration	1.0114default loss term (dB/km)	0.3790temperature slope calibration	1.0000multiplexer offset coefficient	1.0000multiplexer slope coefficient	1.0000fibre end	0.00T internal ref (°C)	32.12T ext. ref 1 (°C)	3.38T ext. ref 2 (°C)	26.74length (m)	temperature (°C)	Stokes	anti-Stokes-747.200	82.169	0.260	0.285
-746.185	32.299	0.358	0.312
-745.171	356.518	0.149	-0.300
-744.156	-117.558	-1.367	-0.249
-743.142	98.127	-0.181	0.210
-742.127	77.437	0.659	0.709
-741.112	-130.104	0.444	-0.061
-740.098	132.270	-0.210	0.273
-739.083	8.670	-0.770	0.586
-738.069	81.388	-0.185	0.202
-737.054	-200.000	-0.178	0.833
-736.039	800.000	0.107	-0.331
-735.025	-200.000	-0.076	0.493
-734.010	54.092	0.378	0.367
-732.996	81.622	0.183	0.199
-731.981	-27.974	-0.671	0.392
-730.966	25.593	-0.212	0.178
-729.952	385.761	0.433	-0.903
-728.937	-200.000	0.103	-0.661
-727.923	-51.055	-0.795	-0.377
-726.908	106.498	-0.221	-0.265
-725.894	800.000	0.115	0.329
-724.879	74.727	-0.305	-0.324
-723.864	30.064	0.284	0.244
-722.850	-45.955	-0.364	0.181
-721.835	708.896	-0.251	0.670
-720.821	132.343	0.111	0.144
-719.806	-24.527	0.437	-0.263
-718.791	-200.000	-0.034	0.556
-717.777	253.990	0.093	0.161
-716.762	115.734	0.607	0.749
-715.748	800.000	0.084	0.301
-714.733	-16.447	-0.272	0.174
-713.718	-113.261	-0.192	0.038
-712.704	-200.000	-0.021	-0.475
-711.689	-117.084	-0.664	0.122
-710.675	576.102	-0.196	0.482
-709.660	-136.335	-0.789	0.093
-708.645	163.755	0.115	0.163
-707.631	128.164	0.201	0.258
-706.616	439.302	0.163	0.359
-705.602	-102.480	-0.269	0.065
-704.587	-165.423	0.415	0.018
-703.572	-200.000	0.033	-0.155
-702.558	-145.776	0.550	-0.049
-701.543	-200.000	-0.084	-0.531
-700.529	80.780	-0.445	0.483
-699.514	36.997	-0.702	-0.626
-698.499	-200.000	0.032	-0.148
-697.485	13.354	-0.469	0.367
-696.470	97.022	-0.221	-0.256
-695.456	41.177	-0.427	0.389
-694.441	800.000	0.144	0.540
-693.426	-57.413	0.253	0.112
-692.412	800.000	-0.198	-0.661
-691.397	215.870	0.290	0.465
-690.383	70.870	0.567	0.592
-689.368	-200.000	0.044	-0.680
-688.354	17.185	0.403	0.322
-687.339	86.075	0.350	-0.389
-686.324	-200.000	0.027	-0.223
-685.310	589.340	0.178	-0.443
-684.295	47.993	0.373	0.351
-683.281	-152.020	-0.562	-0.041
-682.266	475.390	0.228	-0.519
-681.251	479.416	-0.090	-0.205
-680.237	-13.543	-0.224	0.146
-679.222	-200.000	-0.055	-0.334
-678.208	180.770	-0.249	0.369
-677.193	800.000	0.218	-0.714
-676.178	-122.483	-0.708	0.116
-675.164	-200.000	-0.049	0.578
-674.149	-72.019	0.574	0.215
-673.135	-200.000	-0.085	-0.545
-672.120	-200.000	0.021	-0.633
-671.105	420.153	0.305	-0.658
-670.091	-31.723	0.476	0.269
-669.076	-52.400	0.370	0.172
-668.062	18.036	-0.358	0.287
-667.047	-191.715	0.559	0.006
-666.032	-200.000	0.055	-0.793
-665.018	-133.747	-1.386	-0.174
-664.003	800.000	-0.120	0.474
-662.989	73.490	-0.340	-0.358
-661.974	800.000	-0.286	-0.873
-660.959	129.725	0.345	-0.444
-659.945	-48.528	0.147	0.071
-658.930	800.000	0.173	0.487
-657.916	19.613	-1.048	-0.848
-656.901	51.673	0.374	0.358
-655.886	44.329	0.806	-0.745
-654.872	46.780	-0.273	0.256
-653.857	-8.786	0.207	-0.139
-652.843	266.827	0.321	0.566
-651.828	7.440	0.156	0.118
-650.814	-9.948	-1.128	0.755
-649.799	-29.115	0.952	-0.550
-648.784	-65.726	0.591	-0.238
-647.770	-115.292	-0.390	-0.074
-646.755	-135.922	-0.986	0.117
-645.741	-200.000	0.072	0.806
-644.726	-5.144	0.153	0.106
-643.711	31.455	0.708	-0.612
-642.697	77.898	0.264	-0.283
-641.682	800.000	0.082	-0.261
-640.668	800.000	0.236	-0.972
-639.653	-200.000	0.018	-0.146
-638.638	53.708	-0.707	0.683
-637.624	695.162	-0.377	0.995
-636.609	322.971	0.377	-0.723
-635.595	-200.000	-0.468	0.002
-634.580	-60.627	-0.256	-0.109
-633.565	-200.000	0.023	0.203
-632.551	-200.000	0.005	0.448
-631.536	-50.195	-0.861	0.410
-630.522	-200.000	0.027	-0.185
-629.507	115.815	0.459	-0.565
-628.492	-115.876	0.909	-0.171
-627.478	28.510	-0.586	0.498
-626.463	20.735	-0.624	0.508
-625.449	-39.919	0.133	0.070
-624.434	235.714	0.367	-0.609
-623.419	-37.276	-0.567	0.305
-622.405	-25.229	0.379	0.225
-621.390	-200.000	0.069	0.429
-620.376	-72.607	0.977	0.362
-619.361	-20.799	-0.464	-0.286
-618.346	282.849	0.157	0.284
-617.332	-200.000	0.017	-0.354
-616.317	-102.613	0.372	0.089
-615.303	-200.000	0.119	-1.000
-614.288	-124.990	-0.490	0.076
-613.273	-118.271	0.604	0.108
-612.259	-114.028	-0.939	-0.183
-611.244	15.456	0.384	-0.303
-610.230	-35.252	-0.684	-0.374
-609.215	-200.000	-0.083	-0.395
-608.201	268.223	-0.489	0.860
-607.186	752.972	-0.270	-0.734
-606.171	-77.437	-0.349	-0.122
-605.157	-109.215	-0.318	0.068
-604.142	-18.687	0.333	-0.209
-603.128	268.263	0.221	-0.389
-602.113	-63.184	0.482	0.200
-601.098	247.973	0.352	-0.599
-600.084	-131.942	0.359	-0.047
-599.069	-46.165	0.408	0.202
-598.055	-60.320	-0.701	0.300
-597.040	11.506	0.882	0.679
-596.025	800.000	-0.191	-0.565
-595.011	-200.000	0.037	-0.248
-593.996	292.142	-0.029	-0.054
-592.982	-12.248	-0.097	0.064
-591.967	461.115	-0.506	1.133
-590.952	395.223	0.118	-0.247
-589.938	-58.348	-0.642	0.280
-588.923	-93.630	-0.076	0.021
-587.909	116.229	-0.141	-0.174
-586.894	527.307	0.146	-0.346
-585.879	624.960	-0.200	-0.506
-584.865	-50.843	-0.746	0.352
-583.850	49.069	0.563	-0.531
-582.836	-36.660	-0.491	-0.265
-581.821	800.000	-0.037	-0.131
-580.806	-200.000	0.007	-0.269
-579.792	-200.000	0.066	0.784
-578.777	139.926	0.107	0.141
-577.763	127.259	1.022	1.302
-576.748	-200.000	0.047	-0.255
-575.733	70.485	-0.197	0.204
-574.719	40.765	-0.275	0.249
-573.704	138.644	0.446	0.588
-572.690	549.096	-0.246	0.591
-571.675	496.592	0.092	0.213
-570.661	-67.273	-0.153	0.060
-569.646	56.307	0.178	0.174
-568.631	54.309	0.607	0.587
-567.617	800.000	0.062	-0.223
-566.602	18.513	-0.348	0.279
-565.588	-67.045	0.487	-0.193
-564.573	-23.381	-0.277	0.167
-563.558	-154.804	0.523	0.035
-562.544	-200.000	-0.003	0.383
-561.529	800.000	-0.027	-0.095
-560.515	-118.761	-0.101	0.018
-559.500	155.501	-0.425	-0.587
-558.485	-15.369	0.322	-0.206
-557.471	-149.032	0.855	-0.069
-556.456	-133.067	-1.104	0.140
-555.442	10.334	0.783	-0.598
-554.427	178.045	0.146	-0.214
-553.412	223.225	-0.267	0.432
-552.398	-72.946	0.729	0.269
-551.383	-7.182	-0.661	0.449
-550.369	-35.403	-0.205	-0.111
-549.354	-200.000	0.061	-1.027
-548.339	-170.479	-0.406	-0.014
-547.325	161.247	0.082	0.114
-546.310	800.000	-0.176	-0.540
-545.296	132.327	0.075	-0.097
-544.281	13.127	-0.270	0.209
-543.266	175.119	-0.181	-0.263
-542.252	-174.268	0.477	-0.014
-541.237	-76.866	-0.802	-0.281
-540.223	295.288	0.214	0.393
-539.208	160.533	0.375	-0.524
-538.193	-174.818	-0.275	0.008
-537.179	-200.000	0.048	0.380
-536.164	224.359	-0.334	-0.541
-535.150	-95.054	-0.697	-0.189
-534.135	-143.492	-0.376	-0.036
-533.121	146.005	-0.464	0.624
-532.106	164.515	-0.392	0.554
-531.091	65.240	0.365	0.369
-530.077	-200.000	0.067	-0.576
-529.062	-200.000	0.056	-0.546
-528.048	17.010	0.078	0.062
-527.033	40.869	0.753	0.680
-526.018	-34.342	-0.562	-0.309
-525.004	-98.823	0.154	0.039
-523.989	730.096	-0.230	-0.614
-522.975	-54.751	-0.346	0.157
-521.960	285.816	0.306	0.553
-520.945	800.000	0.230	0.751
-519.931	-200.000	-0.010	-0.122
-518.916	42.320	-0.305	0.278
-517.902	13.559	0.278	0.216
-516.887	-57.368	-0.232	-0.102
-515.872	800.000	0.197	-0.553
-514.858	800.000	0.048	-0.134
-513.843	-200.000	0.005	0.143
-512.829	-18.599	-0.350	-0.218
-511.814	-55.209	0.340	-0.153
-510.799	-104.737	-0.726	-0.167
-509.785	80.589	-0.297	-0.320
-508.770	-200.000	-0.011	0.059
-507.756	218.180	-0.330	-0.527
-506.741	339.642	0.290	-0.566
-505.726	800.000	-0.236	0.678
-504.712	-0.080	-0.124	0.088
-503.697	57.290	0.228	0.223
-502.683	-60.905	0.061	-0.026
-501.668	142.018	-0.390	-0.518
-500.653	-200.000	0.008	0.148
-499.639	-200.000	0.103	-0.790
-498.624	55.698	0.585	-0.568
-497.610	110.596	0.516	0.621
-496.595	800.000	-0.275	0.981
-495.581	699.419	0.128	0.337
-494.566	119.841	-0.116	-0.144
-493.551	-45.352	0.792	0.393
-492.537	-44.892	-0.450	0.224
-491.522	285.575	0.108	-0.195
-490.508	-136.587	1.062	0.123
-489.493	-200.000	-0.008	0.144
-488.478	-200.000	-0.030	-0.454
-487.464	-29.502	0.322	-0.184
-486.449	-69.510	-0.650	-0.249
-485.435	71.064	0.398	0.412
-484.420	800.000	0.322	0.993
-483.405	393.457	-0.330	0.688
-482.391	-109.785	0.654	-0.137
-481.376	-180.782	0.235	-0.005
-480.362	-94.296	-0.401	-0.110
-479.347	-46.847	0.254	0.124
-478.332	-99.301	0.621	0.157
-477.318	-78.371	-0.309	0.106
-476.303	-49.168	-0.165	0.079
-475.289	-139.084	0.637	0.069
-474.274	-200.000	0.240	1.329
-473.259	135.939	-0.291	-0.378
-472.245	87.437	-0.369	0.408
-471.230	-117.679	-0.311	0.056
-470.216	800.000	-0.092	0.351
-469.201	15.631	0.472	-0.371
-468.186	46.418	-0.394	-0.365
-467.172	-8.786	0.134	-0.090
-466.157	800.000	-0.113	0.383
-465.143	324.747	0.288	-0.549
-464.128	-200.000	0.033	-0.214
-463.113	-200.000	0.012	0.590
-462.099	-64.711	0.430	0.174
-461.084	-200.000	0.100	0.758
-460.070	800.000	0.346	1.117
-459.055	315.030	-0.182	-0.342
-458.040	17.036	-0.111	-0.088
-457.026	-162.311	-0.695	-0.035
-456.011	-110.640	0.447	-0.092
-454.997	-175.611	0.342	0.009
-453.982	191.132	0.187	-0.281
-452.968	-12.829	-0.476	-0.310
-451.953	-101.413	-0.480	0.117
-450.938	413.517	-0.290	-0.616
-449.924	800.000	-0.096	0.327
-448.909	-119.420	-1.033	0.179
-447.895	-27.308	-0.335	-0.195
-446.880	800.000	-0.204	0.653
-445.865	36.039	0.206	-0.181
-444.851	-68.514	-0.648	0.251
-443.836	-82.025	0.273	-0.089
-442.822	-145.068	0.320	0.029
-441.807	-200.000	0.169	0.989
-440.792	-65.700	-0.355	0.142
-439.778	-200.000	-0.016	-0.376
-438.763	-200.000	-0.000	0.278
-437.749	201.178	-0.101	0.156
-436.734	184.312	0.153	0.226
-435.719	800.000	-0.306	1.121
-434.705	-109.547	-0.991	-0.209
-433.690	-165.431	0.826	0.036
-432.676	-200.000	-0.043	-0.803
-431.661	-200.000	0.089	0.441
-430.646	49.689	-0.890	0.836
-429.632	30.065	-1.080	0.919
-428.617	-25.664	0.697	0.410
-427.603	800.000	-0.039	-0.131
-426.588	82.997	0.809	0.878
-425.573	71.040	0.210	-0.217
-424.559	346.140	-0.173	-0.339
-423.544	-120.731	-0.683	0.115
-422.530	34.050	0.257	0.224
-421.515	800.000	0.063	0.206
-420.500	-115.117	-0.237	-0.045
-419.486	-54.668	0.540	0.244
-418.471	533.521	-0.188	0.445
-417.457	800.000	0.283	0.930
-416.442	-138.765	-0.938	0.102
-415.428	149.338	-0.273	0.369
-414.413	-94.399	0.481	-0.131
-413.398	336.719	0.244	-0.473
-412.384	-189.621	-0.396	-0.005
-411.369	-129.466	0.739	-0.102
-410.355	-35.303	-0.610	0.331
-409.340	255.897	-0.234	0.401
-408.325	54.097	-0.303	-0.290
-407.311	-79.955	-0.649	-0.217
-406.296	-200.000	-0.006	0.186
-405.282	800.000	-0.094	0.343
-404.267	-22.924	0.615	-0.370
-403.252	-28.762	-0.300	0.172
-402.238	-200.000	-0.014	-0.453
-401.223	800.000	0.152	-0.524
-400.209	-20.669	0.432	-0.264
-399.194	85.052	0.053	-0.058
-398.179	109.189	-0.405	0.484
-397.165	422.649	0.134	-0.286
-396.150	630.913	0.092	0.231
-395.136	357.540	-0.153	0.304
-394.121	623.653	-0.204	0.512
-393.106	734.470	0.306	-0.816
-392.092	-200.000	-0.004	0.043
-391.077	218.460	-0.225	-0.357
-390.063	501.124	0.140	-0.322
-389.048	85.282	-0.414	-0.452
-388.033	14.751	0.613	0.478
-387.019	-13.684	-0.191	0.123
-386.004	-200.000	-0.275	-1.412
-384.990	117.309	-0.595	-0.729
-383.975	273.025	0.198	-0.348
-382.960	315.741	-0.234	-0.441
-381.946	783.366	0.135	-0.368
-380.931	-124.790	0.656	-0.101
-379.917	-153.768	0.688	-0.047
-378.902	23.924	-0.062	-0.051
-377.888	157.191	-0.307	-0.422
-376.873	-2.372	-0.400	-0.279
-375.858	-137.304	0.340	-0.038
-374.844	-71.943	-0.885	-0.328
-373.829	-105.417	-0.474	0.107
-372.815	142.412	0.286	-0.377
-371.800	-200.000	0.071	0.733
-370.785	8.813	0.419	0.315
-369.771	76.426	0.744	0.785
-368.756	-30.015	0.233	0.132
-367.742	-25.907	0.631	-0.370
-366.727	-64.524	-0.475	-0.192
-365.712	71.920	0.183	0.189
-364.698	-132.005	0.671	0.087
-363.683	171.110	-0.079	0.112
-362.669	160.343	-0.132	-0.184
-361.654	36.102	0.241	0.212
-360.639	359.202	-0.152	0.303
-359.625	-56.632	-0.835	0.368
-358.610	46.341	0.581	0.536
-357.596	-47.599	-0.413	0.199
-356.581	-200.000	-0.071	0.344
-355.566	-69.368	0.576	0.220
-354.552	-35.996	0.487	0.262
-353.537	-200.000	-0.062	0.720
-352.523	800.000	-0.137	-0.465
-351.508	-68.556	0.760	-0.293
-350.493	-1.444	0.360	0.253
-349.479	-175.830	0.365	-0.010
-348.464	81.753	-0.230	-0.248
-347.450	-71.785	-0.513	-0.190
-346.435	800.000	-0.100	-0.307
-345.420	236.873	0.179	0.295
-344.406	101.665	0.501	-0.581
-343.391	69.537	0.268	-0.275
-342.377	-74.259	-1.268	-0.456
-341.362	-57.878	-0.432	0.188
-340.348	-34.404	-0.470	0.256
-339.333	287.719	-0.348	0.626
-338.318	10.033	-0.349	-0.264
-337.304	65.365	0.090	0.090
-336.289	-61.539	0.797	-0.333
-335.275	800.000	-0.181	-0.559
-334.260	-112.661	-0.466	0.092
-333.245	23.076	0.262	-0.213
-332.231	-200.000	0.079	-0.377
-331.216	-100.716	-0.565	0.138
-330.202	800.000	0.069	0.247
-329.187	732.301	-0.050	-0.132
-328.172	-9.221	-0.169	-0.112
-327.158	24.265	0.506	-0.415
-326.143	91.819	-0.534	-0.597
-325.129	639.698	-0.233	-0.590
-324.114	39.878	0.403	-0.359
-323.099	-200.000	-0.045	1.064
-322.085	451.520	0.156	-0.342
-321.070	-127.898	0.887	-0.127
-320.056	-200.000	-0.080	-0.497
-319.041	733.054	-0.178	0.474
-318.026	-59.956	0.227	-0.097
-317.012	-50.808	0.170	-0.080
-315.997	99.268	0.495	0.568
-314.983	-122.230	0.394	-0.064
-313.968	29.141	-0.509	-0.429
-312.953	-51.282	-0.629	-0.292
-311.939	-66.008	-0.221	0.087
-310.924	-85.707	1.424	0.439
-309.910	152.258	0.435	0.589
-308.895	198.402	-0.337	-0.512
-307.880	-200.000	-0.084	0.789
-306.866	-70.012	0.208	0.079
-305.851	800.000	0.186	0.596
-304.837	-125.485	-0.601	0.091
-303.822	113.169	0.491	0.591
-302.807	-100.793	0.472	-0.115
-301.793	308.683	0.174	0.323
-300.778	-109.188	0.646	-0.136
-299.764	158.388	-0.417	-0.574
-298.749	-38.541	0.327	0.171
-297.735	231.150	0.047	0.077
-296.720	-103.439	0.320	-0.075
-295.705	-200.000	0.139	-0.811
-294.691	35.353	0.336	0.292
-293.676	-91.286	0.261	-0.074
-292.662	120.672	0.231	0.284
-291.647	-140.658	-0.377	-0.039
-290.632	181.453	-0.206	-0.301
-289.618	-18.387	0.721	-0.447
-288.603	-44.437	-0.624	-0.310
-287.589	23.138	0.129	0.105
-286.574	230.616	0.255	-0.414
-285.559	-72.689	-0.388	0.142
-284.545	-100.880	0.408	-0.099
-283.530	-162.155	0.596	-0.030
-282.516	-87.885	-0.715	-0.214
-281.501	-200.000	0.018	0.115
-280.486	800.000	0.122	-0.512
-279.472	234.270	-0.122	0.200
-278.457	-42.895	0.682	-0.344
-277.443	-200.000	-0.169	-0.931
-276.428	-106.730	-0.413	0.091
-275.413	217.117	-0.635	1.003
-274.399	-200.000	0.074	0.685
-273.384	-200.000	0.031	0.473
-272.370	606.714	0.089	0.219
-271.355	-200.000	-0.011	0.239
-270.340	102.545	-0.241	-0.280
-269.326	-200.000	-0.496	0.001
-268.311	-174.712	-1.513	0.043
-267.297	800.000	0.323	-0.904
-266.282	-200.000	0.051	0.244
-265.267	71.589	-0.127	-0.131
-264.253	-101.607	-0.951	0.229
-263.238	-200.000	-0.145	0.869
-262.224	-182.124	0.862	0.016
-261.209	-57.081	-0.750	-0.328
-260.195	-87.489	-0.388	-0.116
-259.180	133.456	-0.209	0.268
-258.165	689.912	0.199	-0.517
-257.151	458.850	0.350	-0.771
-256.136	-200.000	0.069	0.753
-255.122	201.233	-0.168	-0.257
-254.107	171.219	0.404	-0.574
-253.092	150.967	-0.185	0.249
-252.078	31.160	0.350	0.297
-251.063	-84.242	0.497	0.156
-250.049	800.000	0.212	0.615
-249.034	62.297	-0.104	-0.103
-248.019	-98.709	1.173	0.296
-247.005	-23.919	-0.426	0.252
-245.990	51.686	-0.279	-0.263
-244.976	-31.768	0.768	-0.427
-243.961	580.711	-0.352	-0.853
-242.946	-200.000	0.028	-0.365
-241.932	-200.000	0.055	-0.703
-240.917	-69.867	0.654	0.247
-239.903	-78.253	0.431	0.147
-238.888	304.651	-0.539	-0.991
-237.873	72.865	-0.095	0.098
-236.859	-61.914	0.631	0.261
-235.844	90.807	-0.642	-0.713
-234.830	-200.000	0.392	-0.000
-233.815	71.721	0.138	-0.142
-232.800	411.782	0.324	-0.681
-231.786	-57.639	-0.138	0.060
-230.771	-200.000	0.040	0.879
-229.757	60.170	0.487	0.477
-228.742	-20.241	0.448	-0.273
-227.727	83.730	0.274	-0.296
-226.713	-200.000	0.189	-0.838
-225.698	-200.000	0.046	-0.284
-224.684	-200.000	0.050	-0.280
-223.669	259.285	-0.299	-0.511
-222.655	-0.205	0.448	-0.315
-221.640	-200.000	-0.007	0.326
-220.625	-200.000	0.027	-0.212
-219.611	-83.724	-0.208	-0.066
-218.596	404.590	-0.338	-0.706
-217.582	-200.000	0.145	1.095
-216.567	-200.000	-0.097	1.478
-215.552	-40.599	0.194	0.100
-214.538	-73.209	-0.559	0.203
-213.523	-77.704	0.393	0.135
-212.509	145.046	0.178	0.235
-211.494	800.000	0.313	1.090
-210.479	267.393	0.244	0.422
-209.465	38.774	-0.557	0.492
-208.450	510.716	0.251	-0.577
-207.436	800.000	-0.169	-0.462
-206.421	155.289	0.190	-0.259
-205.406	93.174	0.183	-0.204
-204.392	620.547	-0.120	0.300
-203.377	63.667	0.385	0.383
-202.363	-200.000	0.049	-0.491
-201.348	239.452	0.506	0.833
-200.333	-35.639	0.379	-0.203
-199.319	-123.521	1.160	-0.182
-198.304	-200.000	-0.030	-0.270
-197.290	-200.000	0.084	-0.420
-196.275	-200.000	0.073	0.657
-195.260	116.637	0.100	-0.121
-194.246	-200.000	0.007	-1.138
-193.231	380.408	-0.343	-0.695
-192.217	-139.994	-0.521	0.054
-191.202	-98.511	0.511	-0.129
-190.187	-101.474	0.327	-0.079
-189.173	-200.000	-0.260	-1.258
-188.158	-200.000	-0.119	-0.825
-187.144	-62.356	-0.584	-0.240
-186.129	188.957	-0.169	-0.251
-185.114	-19.561	0.415	-0.254
-184.100	-200.000	0.009	0.055
-183.085	-8.134	-0.411	0.274
-182.071	651.971	0.071	-0.179
-181.056	-78.383	-0.714	-0.242
-180.042	61.588	-0.959	-0.943
-179.027	-17.765	-0.600	-0.372
-178.012	-200.000	-0.105	0.501
-176.998	-200.000	-0.138	-1.075
-175.983	226.906	0.126	-0.202
-174.969	800.000	0.100	-0.357
-173.954	-101.147	-0.640	-0.155
-172.939	181.481	-0.131	-0.191
-171.925	800.000	0.192	0.774
-170.910	-108.907	0.303	0.064
-169.896	-65.021	0.213	-0.085
-168.881	-77.892	-0.747	0.255
-167.866	-79.646	0.560	-0.187
-166.852	-191.161	-0.788	-0.008
-165.837	52.690	0.420	0.396
-164.823	800.000	-0.209	0.718
-163.808	-126.355	-0.235	-0.035
-162.793	-200.000	0.051	0.268
-161.779	-130.372	-0.821	-0.110
-160.764	107.487	0.394	0.463
-159.750	-200.000	0.045	0.644
-158.735	-135.127	0.065	0.008
-157.720	369.972	0.346	0.691
-156.706	-45.688	-0.585	0.285
-155.691	269.668	-0.361	-0.626
-154.677	-200.000	0.084	-0.540
-153.662	-200.000	0.006	-0.798
-152.647	99.230	0.361	0.412
-151.633	-104.968	-0.798	-0.181
-150.618	27.741	0.336	-0.279
-149.604	-200.000	-0.062	0.388
-148.589	21.453	-0.461	-0.370
-147.574	800.000	-0.273	-0.761
-146.560	196.305	0.173	-0.260
-145.545	-55.956	-0.616	-0.271
-144.531	572.901	0.209	-0.504
-143.516	-200.000	0.093	0.659
-142.502	184.429	-0.188	-0.275
-141.487	69.340	0.438	-0.445
-140.472	285.049	-0.254	-0.451
-139.458	185.866	0.266	-0.390
-138.443	-128.905	-0.161	-0.022
-137.429	-178.768	0.053	0.001
-136.414	800.000	-0.062	0.226
-135.399	-158.816	-0.180	0.010
-134.385	-129.756	-0.624	-0.085
-133.370	387.560	-0.033	0.068
-132.356	549.759	0.080	-0.188
-131.341	-65.740	0.313	0.124
-130.326	-200.000	-0.036	-0.291
-129.312	10.868	-0.276	0.208
-128.297	61.903	-0.387	0.380
-127.283	599.934	0.057	0.140
-126.268	57.281	-0.453	0.436
-125.253	187.079	0.093	-0.137
-124.239	-200.000	0.024	-0.151
-123.224	800.000	-0.012	0.040
-122.210	-68.703	0.679	0.259
-121.195	-200.000	-0.060	0.355
