DTS Sentinel unit serial number:	SN413079Multiplexer serial number:	ORYXHardware model number:	OX4-SRSoftware version number:	ORYX F/W v4.00 Oryx Data Collector v3.7.2.0data status	okinstallation	princeton_trtdifferential loss correction	single-endedforward channel	channel 3reverse channel	N/Adate	2019/09/15time	23:48:35forward acquisition time	60.00reverse acquisition time	0.00gamma	496.2192k internal	0.2336k external	0.2336temperature offset calibration	0.9949default loss term (dB/km)	0.3790temperature slope calibration	1.0000multiplexer offset coefficient	1.0000multiplexer slope coefficient	1.0000fibre end	0.00T internal ref (°C)	27.98T ext. ref 1 (°C)	9.29T ext. ref 2 (°C)	21.62length (m)	temperature (°C)	Stokes	anti-Stokes-747.200	-107.940	-0.098	0.021
-746.185	427.863	-0.226	0.491
-745.171	-171.514	0.175	0.006
-744.156	471.779	-0.243	0.549
-743.142	97.960	-0.197	-0.228
-742.127	-8.291	0.126	-0.085
-741.112	-200.000	0.002	0.213
-740.098	3.683	0.217	-0.159
-739.083	-40.290	-0.220	0.115
-738.069	-96.110	-0.172	-0.046
-737.054	-137.915	-0.056	0.006
-736.039	-105.033	0.080	-0.018
-735.025	423.393	0.090	-0.195
-734.010	-59.643	-0.082	-0.035
-732.996	276.873	-0.108	-0.193
-731.981	-134.038	0.231	-0.029
-730.966	-117.603	-0.270	0.049
-729.952	4.350	-0.076	0.056
-728.937	-78.536	-0.198	0.068
-727.923	-0.570	0.171	-0.121
-726.908	383.299	0.132	-0.272
-725.894	-200.000	-0.007	-0.130
-724.879	281.024	0.107	-0.192
-723.864	-20.491	-0.381	-0.235
-722.850	513.951	-0.131	0.307
-721.835	-42.124	0.121	0.062
-720.821	-24.070	-0.151	0.091
-719.806	-62.766	0.133	-0.055
-718.791	227.154	-0.060	0.098
-717.777	72.653	-0.085	0.089
-716.762	-200.000	0.034	-0.295
-715.748	-118.113	-0.152	-0.027
-714.733	190.561	0.148	-0.223
-713.718	800.000	-0.064	-0.195
-712.704	-200.000	0.060	-0.464
-711.689	125.185	0.137	-0.174
-710.675	-200.000	-0.025	-0.184
-709.660	75.271	0.138	0.146
-708.645	-168.623	0.111	-0.004
-707.631	-16.719	0.183	-0.116
-706.616	-200.000	0.019	0.198
-705.602	-155.530	0.255	-0.016
-704.587	800.000	-0.066	0.274
-703.572	-148.395	-0.225	0.019
-702.558	683.032	0.073	0.190
-701.543	-200.000	0.045	-0.405
-700.529	800.000	0.074	-0.325
-699.514	310.290	0.210	0.394
-698.499	-200.000	-0.010	0.357
-697.485	14.737	0.303	0.237
-696.470	103.534	0.102	0.120
-695.456	263.943	0.157	-0.274
-694.441	-2.453	-0.268	-0.188
-693.426	497.587	-0.022	-0.051
-692.412	291.940	-0.076	0.139
-691.397	-21.303	-0.287	0.176
-690.383	125.575	0.163	0.206
-689.368	-23.566	-0.289	-0.174
-688.354	132.752	0.248	-0.321
-687.339	-80.380	-0.320	-0.107
-686.324	800.000	0.065	0.254
-685.310	-44.366	0.185	0.093
-684.295	185.218	-0.121	-0.179
-683.281	800.000	-0.028	-0.084
-682.266	-25.733	0.175	-0.104
-681.251	-40.553	-0.171	0.089
-680.237	161.703	-0.140	-0.196
-679.222	-191.349	-0.362	0.004
-678.208	-135.169	0.113	-0.014
-677.193	224.926	-0.091	-0.148
-676.178	17.349	-0.203	0.161
-675.164	100.697	0.182	0.211
-674.149	-78.125	0.177	-0.061
-673.135	502.292	-0.087	0.201
-672.120	378.571	-0.048	0.099
-671.105	67.707	0.057	-0.059
-670.091	800.000	-0.066	-0.196
-669.076	86.766	0.126	0.140
-668.062	-93.055	-0.365	-0.102
-667.047	-44.376	-0.301	0.151
-666.032	98.618	0.178	0.206
-665.018	-43.879	0.308	0.155
-664.003	43.139	-0.327	0.299
-662.989	-123.913	0.187	0.029
-661.974	-35.909	-0.349	0.189
-660.959	-200.000	0.032	-0.232
-659.945	-34.961	-0.156	0.085
-658.930	-83.764	0.234	-0.075
-657.916	36.831	0.062	0.054
-656.901	-200.000	-0.002	-0.094
-655.886	-170.311	0.310	-0.011
-654.872	22.790	0.077	0.063
-653.857	-51.698	-0.411	0.192
-652.843	-200.000	-0.031	0.260
-651.828	-116.834	-0.095	0.017
-650.814	-137.446	0.412	-0.047
-649.799	234.419	-0.123	0.203
-648.784	-171.227	0.263	0.009
-647.770	505.259	0.074	-0.172
-646.755	1.943	-0.236	-0.170
-645.741	262.772	0.101	0.176
-644.726	800.000	0.103	-0.415
-643.711	-8.031	0.208	0.140
-642.697	800.000	-0.063	0.185
-641.682	34.428	0.193	0.168
-640.668	-154.160	-0.110	-0.007
-639.653	-129.344	-0.200	-0.028
-638.638	800.000	-0.109	0.327
-637.624	526.329	0.020	-0.048
-636.609	800.000	0.114	-0.349
-635.595	604.022	0.137	0.341
-634.580	-200.000	0.103	0.456
-633.565	-200.000	-0.018	0.197
-632.551	-77.353	-0.278	0.097
-631.536	65.329	-0.233	-0.235
-630.522	736.045	0.095	0.255
-629.507	226.504	0.034	-0.055
-628.492	-200.000	0.045	-0.241
-627.478	-84.792	-0.151	-0.048
-626.463	-200.000	-0.002	-0.063
-625.449	-5.095	-0.222	-0.152
-624.434	800.000	-0.019	0.064
-623.419	786.236	-0.028	-0.078
-622.405	-88.935	0.151	-0.045
-621.390	487.736	0.064	0.145
-620.376	80.882	0.119	0.128
-619.361	-200.000	-0.020	-0.440
-618.346	-200.000	0.034	0.159
-617.332	-200.000	-0.403	0.000
-616.317	-135.399	0.256	-0.031
-615.303	-102.717	0.270	-0.064
-614.288	-71.036	0.104	-0.039
-613.273	133.372	-0.080	-0.103
-612.259	-97.424	0.240	-0.062
-611.244	201.009	0.350	-0.538
-610.230	201.061	-0.139	0.213
-609.215	182.147	-0.148	-0.218
-608.201	800.000	0.096	0.360
-607.186	339.984	-0.048	-0.094
-606.171	-200.000	0.006	-0.153
-605.157	-74.702	0.060	0.021
-604.142	6.205	-0.181	-0.134
-603.128	800.000	-0.039	-0.107
-602.113	-113.867	0.346	-0.067
-601.098	-104.992	0.223	0.051
-600.084	-49.943	0.154	0.073
-599.069	279.344	0.090	0.161
-598.055	-116.879	-0.192	-0.035
-597.040	2.868	0.069	0.050
-596.025	182.668	-0.067	-0.098
-595.011	-70.280	0.125	-0.047
-593.996	-90.209	-0.187	0.054
-592.982	241.666	0.103	-0.172
-591.967	-136.397	-0.244	0.028
-590.952	130.757	-0.050	-0.064
-589.938	-3.168	-0.322	-0.224
-588.923	-17.049	0.479	0.302
-587.909	-200.000	0.010	-0.382
-586.894	47.903	-0.119	0.111
-585.879	104.827	-0.231	0.272
-584.865	-95.618	0.251	0.067
-583.850	-98.276	0.130	-0.033
-582.836	47.112	-0.059	-0.054
-581.821	-20.446	-0.436	0.268
-580.806	31.866	-0.133	0.114
-579.792	91.552	-0.132	-0.148
-578.777	120.868	-0.252	-0.312
-577.763	96.925	-0.105	0.120
-576.748	800.000	-0.030	0.125
-575.733	12.094	0.163	-0.125
-574.719	26.278	-0.336	0.280
-573.704	-165.678	0.154	0.007
-572.690	49.246	0.176	-0.165
-571.675	-200.000	0.017	-0.127
-570.661	-13.904	0.077	0.049
-569.646	-87.401	-0.482	-0.146
-568.631	168.634	0.085	-0.121
-567.617	-187.088	0.338	-0.005
-566.602	226.239	-0.063	0.102
-565.588	453.574	-0.027	-0.061
-564.573	-155.982	-0.203	-0.013
-563.558	-200.000	0.011	0.075
-562.544	120.666	0.237	0.293
-561.529	-200.000	0.040	-0.193
-560.515	110.649	-0.199	-0.238
-559.500	800.000	0.022	0.090
-558.485	800.000	-0.061	-0.230
-557.471	30.832	-0.022	0.019
-556.456	-121.031	-0.269	-0.045
-555.442	-200.000	-0.007	-0.119
-554.427	-59.281	-0.183	0.079
-553.412	-200.000	-0.023	0.373
-552.398	21.772	-0.334	0.271
-551.383	8.543	-0.151	-0.113
-550.369	700.142	-0.069	0.181
-549.354	-80.815	0.177	0.059
-548.339	-112.987	-0.143	-0.028
-547.325	167.576	0.151	0.213
-546.310	21.737	0.259	-0.210
-545.296	-193.736	-0.143	-0.001
-544.281	-34.044	-0.141	0.077
-543.266	459.860	0.084	0.186
-542.252	377.093	0.054	0.109
-541.237	-70.823	-0.453	0.170
-540.223	43.246	0.092	-0.083
-539.208	120.868	0.142	-0.176
-538.193	-122.873	-0.202	0.032
-537.179	-93.542	0.082	0.023
-536.164	-135.773	-0.173	0.020
-535.150	-48.443	-0.208	0.100
-534.135	800.000	-0.039	-0.115
-533.121	-15.692	-0.234	0.149
-532.106	800.000	-0.022	0.063
-531.091	30.115	0.088	0.075
-530.077	800.000	-0.126	-0.388
-529.062	-132.690	-0.204	0.026
-528.048	-3.803	-0.282	0.195
-527.033	-200.000	-0.003	-0.144
-526.018	122.932	-0.165	-0.205
-525.004	-139.708	0.276	-0.029
-523.989	-78.301	-0.222	-0.076
-522.975	-26.097	0.049	0.029
-521.960	-123.259	-0.201	-0.032
-520.945	800.000	-0.111	-0.356
-519.931	800.000	0.033	0.134
-518.916	800.000	0.075	0.221
-517.902	-192.743	0.204	-0.002
-516.887	62.031	-0.093	-0.092
-515.872	-156.798	0.207	0.013
-514.858	184.810	-0.163	0.240
-513.843	570.270	-0.051	0.124
-512.829	-124.222	0.332	0.052
-511.814	39.112	0.071	-0.063
-510.799	-135.372	0.110	-0.013
-509.785	241.453	-0.056	-0.093
-508.770	554.718	0.076	0.181
-507.756	-72.165	-0.216	-0.080
-506.741	-200.000	-0.004	0.085
-505.726	439.251	-0.153	0.333
-504.712	32.920	-0.101	0.087
-503.697	-122.150	-0.413	0.067
-502.683	-200.000	0.049	-0.280
-501.668	800.000	0.048	0.133
-500.653	200.270	0.058	-0.088
-499.639	800.000	0.075	-0.284
-498.624	35.772	-0.291	0.254
-497.610	-109.377	0.312	-0.066
-496.595	228.547	-0.127	-0.206
-495.581	-90.124	-0.119	0.034
-494.566	-77.376	-0.007	-0.002
-493.551	-100.626	0.170	0.042
-492.537	-146.383	-0.445	-0.039
-491.522	800.000	0.124	0.399
-490.508	-121.081	-0.351	-0.058
-489.493	42.743	-0.087	-0.079
-488.478	-109.202	-0.154	0.033
-487.464	6.947	0.093	-0.069
-486.449	324.710	0.168	0.318
-485.435	350.131	0.043	-0.084
-484.420	121.330	-0.035	0.043
-483.405	-200.000	-0.021	0.168
-482.391	-200.000	-0.029	-0.230
-481.376	85.931	-0.098	0.107
-480.362	229.345	0.135	0.219
-479.347	-12.793	0.195	0.126
-478.332	-200.000	0.006	0.150
-477.318	800.000	-0.012	0.042
-476.303	-27.454	0.068	-0.039
-475.289	-102.382	0.313	0.075
-474.274	97.964	-0.373	-0.427
-473.259	-8.944	-0.085	-0.056
-472.245	20.926	0.056	-0.045
-471.230	-95.414	0.429	0.114
-470.216	800.000	-0.006	-0.022
-469.201	-7.506	-0.394	-0.265
-468.186	196.361	0.048	0.072
-467.172	-102.543	0.134	-0.032
-466.157	800.000	-0.066	-0.181
-465.143	-91.747	-0.220	0.062
-464.128	113.990	-0.135	0.164
-463.113	-111.410	0.303	0.061
-462.099	42.274	-0.037	0.033
-461.084	-200.000	0.032	0.147
-460.070	-51.106	-0.114	-0.053
-459.055	23.242	0.184	0.150
-458.040	-188.854	0.563	0.007
-457.026	800.000	0.031	0.117
-456.011	36.272	-0.146	-0.128
-454.997	800.000	-0.046	-0.200
-453.982	116.086	0.247	-0.301
-452.968	-119.829	0.239	-0.041
-451.953	-112.363	-0.048	-0.010
-450.938	800.000	0.098	0.291
-449.924	800.000	0.070	-0.228
-448.909	-58.096	-0.291	-0.126
-447.895	11.934	-0.046	-0.035
-446.880	800.000	-0.140	0.439
-445.865	800.000	-0.003	0.014
-444.851	254.227	0.077	-0.131
-443.836	-172.020	0.111	-0.004
-442.822	-200.000	-0.010	-0.225
-441.807	191.527	-0.120	-0.180
-440.792	-10.465	0.263	0.173
-439.778	-129.505	-0.226	0.031
-438.763	139.595	0.046	-0.060
-437.749	-200.000	0.023	-0.168
-436.734	452.372	-0.119	-0.262
-435.719	626.108	0.058	0.145
-434.705	-62.468	0.112	-0.046
-433.690	37.728	-0.251	0.221
-432.676	161.424	0.050	-0.070
-431.661	366.740	0.159	-0.318
-430.646	-35.437	-0.090	0.048
-429.632	591.330	-0.129	-0.317
-428.617	-96.060	0.220	0.058
-427.603	-200.000	-0.030	0.190
-426.588	-161.857	-0.087	0.004
-425.573	-100.094	-0.562	0.139
-424.559	286.562	0.160	-0.286
-423.544	-161.814	-0.062	-0.003
-422.530	-15.311	0.060	-0.038
-421.515	-200.000	-0.017	0.105
-420.500	437.732	0.029	0.063
-419.486	286.914	-0.133	-0.238
-418.471	-200.000	0.025	0.231
-417.457	-113.976	0.315	-0.061
-416.442	-19.649	0.109	-0.067
-415.428	-200.000	0.017	0.256
-414.413	-111.369	0.294	0.059
-413.398	145.365	0.204	-0.271
-412.384	800.000	-0.016	0.066
-411.369	-200.000	0.000	0.082
-410.355	-70.340	0.393	-0.148
-409.340	329.371	-0.120	0.229
-408.325	248.720	0.064	-0.107
-407.311	-200.000	0.030	-0.318
-406.296	-34.189	-0.271	0.147
-405.282	-38.378	0.382	0.200
-404.267	-68.946	0.097	-0.037
-403.252	-200.000	0.023	0.170
-402.238	-80.974	-0.259	0.085
-401.223	-59.141	-0.073	-0.031
-400.209	212.581	0.176	-0.275
-399.194	-4.139	-0.050	-0.034
-398.179	-200.000	0.042	-0.286
-397.165	-170.324	-0.067	0.002
-396.150	-200.000	-0.040	0.243
-395.136	-200.000	0.043	-0.216
-394.121	525.004	0.060	-0.141
-393.106	96.043	-0.154	0.174
-392.092	-61.334	0.040	0.017
-391.077	435.064	-0.067	0.143
-390.063	149.272	-0.120	-0.161
-389.048	-35.261	-0.279	0.151
-388.033	-200.000	-0.060	0.322
-387.019	800.000	0.067	0.192
-386.004	-200.000	-0.047	0.220
-384.990	-200.000	0.027	0.380
-383.975	123.308	0.073	-0.091
-382.960	800.000	0.046	0.127
-381.946	-200.000	0.014	-0.091
-380.931	-86.224	0.160	-0.049
-379.917	-92.584	-0.014	0.004
-378.902	-115.948	-0.362	-0.067
-377.888	800.000	0.051	0.152
-376.873	800.000	-0.030	0.111
-375.858	62.863	0.266	0.263
-374.844	-133.509	0.171	-0.021
-373.829	236.315	-0.018	-0.030
-372.815	75.877	0.159	-0.167
-371.800	-153.955	0.153	-0.010
-370.785	-13.389	0.172	-0.110
-369.771	-195.156	-0.228	-0.002
-368.756	-72.233	-0.209	-0.077
-367.742	-11.540	0.439	0.286
-366.727	365.469	-0.185	0.368
-365.712	45.825	-0.179	0.163
-364.698	-51.031	0.257	-0.120
-363.683	194.873	0.127	0.190
-362.669	-127.257	0.270	-0.039
-361.654	713.265	-0.038	0.100
-360.639	-63.814	0.269	0.109
-359.625	-133.442	-0.102	0.013
-358.610	800.000	0.070	-0.281
-357.596	218.533	-0.108	-0.170
-356.581	-97.377	0.124	0.032
-355.566	-39.607	0.316	-0.164
-354.552	800.000	-0.010	0.034
-353.537	80.488	-0.043	-0.046
-352.523	-69.814	0.397	0.150
-351.508	800.000	0.093	0.298
-350.493	94.875	0.089	-0.100
-349.479	151.655	-0.255	0.344
-348.464	152.002	-0.232	0.313
-347.450	188.131	0.183	-0.270
-346.435	-13.339	-0.014	-0.009
-345.420	-113.118	0.012	0.002
-344.406	71.481	-0.089	0.091
-343.391	753.015	-0.080	-0.214
-342.377	-59.502	-0.390	0.165
-341.362	-14.774	0.153	-0.097
-340.348	-166.543	-0.165	0.007
-339.333	106.177	0.252	-0.295
-338.318	-27.702	-0.172	-0.098
-337.304	-200.000	-0.012	-0.062
-336.289	-69.749	-0.202	-0.076
-335.275	82.358	-0.180	-0.193
-334.260	137.432	0.260	-0.336
-333.245	111.206	0.104	-0.124
-332.231	232.907	0.126	0.205
-331.216	-200.000	0.003	-0.014
-330.202	-64.799	-0.165	0.066
-329.187	82.824	-0.254	-0.273
-328.172	-32.290	0.095	-0.052
-327.158	-200.000	0.048	0.290
-326.143	11.975	0.255	0.194
-325.129	-61.607	-0.156	0.065
-324.114	800.000	0.065	-0.252
-323.099	-36.096	-0.261	-0.139
-322.085	176.618	0.028	-0.040
-321.070	-200.000	0.001	0.084
-320.056	0.799	0.140	0.099
-319.041	49.590	-0.287	0.267
-318.026	-73.446	0.279	-0.101
-317.012	137.190	-0.012	0.016
-315.997	233.265	0.235	0.382
-314.983	-51.612	0.140	0.065
-313.968	-121.912	-0.129	-0.021
-312.953	-200.000	-0.032	0.227
-311.939	-122.782	0.206	0.033
-310.924	-143.276	0.384	0.036
-309.910	0.613	-0.366	-0.258
-308.895	800.000	0.044	0.155
-307.880	-37.291	0.330	-0.174
-306.866	-20.703	0.038	-0.023
-305.851	-200.000	0.009	-0.086
-304.837	510.008	-0.056	-0.129
-303.822	-200.000	0.041	0.363
-302.807	-98.653	-0.198	-0.050
-301.793	-167.317	0.306	-0.012
-300.778	235.823	-0.039	-0.064
-299.764	-200.000	0.011	0.120
-298.749	-173.493	-0.277	0.008
-297.735	-58.583	0.207	0.089
-296.720	-85.689	0.165	-0.051
-295.705	-88.013	-0.136	-0.040
-294.691	329.730	0.056	0.106
-293.676	-70.918	0.208	0.077
-292.662	58.782	-0.308	-0.299
-291.647	601.790	-0.131	-0.322
-290.632	706.631	0.086	-0.225
-289.618	-103.713	0.283	0.065
-288.603	618.352	-0.068	0.168
-287.589	-47.735	0.051	-0.024
-286.574	-200.000	0.027	-0.271
-285.559	-125.568	-0.190	-0.028
-284.545	-200.000	0.062	-0.382
-283.530	-200.000	-0.012	-0.112
-282.516	646.701	0.072	0.181
-281.501	-47.918	0.191	0.091
-280.486	-200.000	-0.007	-0.195
-279.472	-200.000	0.018	-0.175
-278.457	-37.369	-0.372	0.196
-277.443	77.010	-0.078	0.082
-276.428	362.033	0.110	-0.218
-275.413	464.487	0.088	-0.193
-274.399	-169.291	0.214	0.008
-273.384	-138.133	0.190	-0.021
-272.370	199.052	0.107	-0.161
-271.355	229.662	0.094	0.151
-270.340	-23.616	-0.170	0.100
-269.326	287.053	0.118	0.210
-268.311	-144.495	-0.275	0.025
-267.297	-139.124	0.319	-0.034
-266.282	-52.181	-0.221	0.101
-265.267	126.669	-0.090	-0.112
-264.253	538.792	0.067	-0.157
-263.238	52.711	0.255	-0.240
-262.224	547.271	0.102	0.241
-261.209	437.151	-0.168	-0.362
-260.195	20.686	-0.278	-0.222
-259.180	-200.000	-0.038	0.336
-258.165	386.922	0.111	-0.226
-257.151	594.421	-0.155	0.377
-256.136	-117.424	0.096	0.017
-255.122	-36.437	0.229	0.121
-254.107	800.000	-0.038	0.104
-253.092	751.460	-0.061	-0.163
-252.078	142.406	0.093	-0.121
-251.063	-200.000	-0.011	-0.070
-250.049	56.732	-0.095	0.091
-249.034	-9.822	0.125	0.082
-248.019	-200.000	0.024	-0.318
-247.005	20.704	-0.124	-0.098
-245.990	-200.000	-0.001	-0.056
-244.976	525.101	-0.037	0.086
-243.961	800.000	0.095	-0.322
-242.946	-10.295	-0.264	-0.173
-241.932	43.450	0.105	0.095
-240.917	166.083	-0.250	0.349
-239.903	800.000	-0.072	-0.298
-238.888	-145.231	0.178	0.016
-237.873	-101.320	0.368	0.088
-236.859	-28.663	0.182	0.103
-235.844	3.254	-0.158	-0.113
-234.830	123.942	0.240	0.297
-233.815	-15.672	0.222	0.139
-232.800	-75.707	-0.165	-0.058
-231.786	46.026	0.063	0.058
-230.771	272.966	-0.047	-0.081
-229.757	800.000	-0.135	0.409
-228.742	800.000	0.028	0.105
-227.727	-77.867	0.117	-0.040
-226.713	-183.914	-0.231	0.004
-225.698	24.217	-0.171	0.139
-224.684	40.624	0.193	0.171
-223.669	-152.801	-0.167	-0.012
-222.655	-150.017	-0.408	0.031
-221.640	110.299	-0.156	-0.184
-220.625	-200.000	0.036	-0.232
-219.611	689.191	0.145	-0.374
-218.596	-63.280	-0.169	-0.069
-217.582	-170.950	-0.236	-0.008
-216.567	203.253	-0.154	0.234
-215.552	32.787	0.263	0.224
-214.538	-200.000	0.003	0.104
-213.523	149.815	0.033	0.044
-212.509	-42.085	-0.176	0.088
-211.494	-200.000	-0.039	0.216
-210.479	-200.000	-0.007	0.135
-209.465	138.029	0.161	0.208
-208.450	174.271	-0.087	0.124
-207.436	-200.000	0.051	-0.335
-206.421	800.000	0.117	-0.459
-205.406	133.331	0.199	-0.253
-204.392	182.915	0.080	-0.115
-203.377	336.371	-0.058	-0.111
-202.363	-106.585	0.256	0.056
-201.348	125.760	-0.102	0.126
-200.333	-12.084	0.049	0.032
-199.319	290.730	-0.107	0.191
-198.304	-200.000	0.025	-0.228
-197.290	51.958	0.299	0.280
-196.275	189.946	-0.091	-0.134
-195.260	-200.000	0.002	-0.045
-194.246	-200.000	0.056	-0.294
-193.231	-200.000	-0.038	-0.334
-192.217	-200.000	0.025	-0.112
-191.202	239.392	0.097	-0.158
-190.187	-200.000	-0.015	-0.076
-189.173	125.177	0.207	0.257
-188.158	-126.262	-0.318	-0.047
-187.144	-136.958	-0.422	-0.048
-186.129	626.881	0.043	-0.108
-185.114	729.180	-0.073	-0.192
-184.100	52.794	-0.087	-0.082
-183.085	-200.000	-0.069	0.313
-182.071	265.862	0.061	-0.104
-181.056	10.941	0.133	0.100
-180.042	618.307	0.122	-0.302
-179.027	467.446	0.032	0.071
-178.012	-71.945	0.110	0.040
-176.998	141.493	-0.203	0.264
-175.983	-132.982	0.171	0.021
-174.969	-104.840	-0.187	0.042
-173.954	137.937	0.097	-0.125
-172.939	-200.000	0.008	0.052
-171.925	-141.847	-0.108	0.011
-170.910	-61.976	-0.290	-0.119
-169.896	43.034	-0.143	-0.128
-168.881	344.430	0.039	0.075
-167.866	-200.000	0.055	-0.248
-166.852	15.582	0.162	0.125
-165.837	102.126	-0.083	0.095
-164.823	105.787	-0.338	0.393
-163.808	-200.000	-0.008	-0.189
-162.793	-50.671	-0.252	0.116
-161.779	6.744	0.146	-0.107
-160.764	-109.797	0.187	-0.039
-159.750	333.402	-0.177	0.336
-158.735	-85.951	0.283	-0.086
-157.720	800.000	0.109	-0.303
-156.706	-24.402	-0.203	-0.119
-155.691	-200.000	0.002	0.387
-154.677	208.841	0.118	-0.181
-153.662	-200.000	-0.009	0.103
-152.647	32.035	0.286	0.242
-151.633	-130.440	0.176	0.023
-150.618	-65.438	-0.162	-0.064
-149.604	-89.066	-0.311	0.090
-148.589	204.487	0.112	-0.170
-147.574	-78.100	0.152	-0.051
-146.560	800.000	-0.097	-0.383
-145.545	-200.000	0.008	-0.040
-144.531	39.583	0.072	0.064
-143.516	-200.000	0.023	0.167
-142.502	382.302	0.100	-0.203
-141.487	34.233	0.191	-0.163
-140.472	-116.583	-0.299	0.054
-139.458	-78.976	-0.336	0.112
-138.443	232.393	0.048	0.077
-137.429	-70.567	0.150	-0.056
-136.414	-200.000	0.004	0.038
-135.399	499.862	0.077	-0.173
-134.385	-127.536	-0.238	0.034
-133.370	-35.595	0.149	0.079
-132.356	139.717	-0.169	0.218
-131.341	-191.827	-0.105	0.001
-130.326	-33.559	0.353	-0.191
-129.312	800.000	0.052	0.199
-128.297	-200.000	0.080	-0.441
-127.283	37.754	0.244	-0.213
-126.268	224.324	0.141	-0.223
-125.253	50.939	0.372	-0.346
-124.239	-200.000	-0.049	0.274
-123.224	-121.804	0.102	0.017
-122.210	-119.665	0.226	-0.038
-121.195	-12.063	0.051	0.033
