DTS Sentinel unit serial number:	SN413079Multiplexer serial number:	ORYXHardware model number:	OX4-SRSoftware version number:	ORYX F/W v4.00 Oryx Data Collector v3.7.2.0data status	okinstallation	princeton_trtdifferential loss correction	single-endedforward channel	channel 3reverse channel	N/Adate	2019/09/19time	11:28:34forward acquisition time	60.00reverse acquisition time	0.00gamma	496.2192k internal	0.2342k external	0.2342temperature offset calibration	0.9984default loss term (dB/km)	0.3790temperature slope calibration	1.0000multiplexer offset coefficient	1.0000multiplexer slope coefficient	1.0000fibre end	0.00T internal ref (°C)	25.37T ext. ref 1 (°C)	0.79T ext. ref 2 (°C)	21.18length (m)	temperature (°C)	Stokes	anti-Stokes-747.200	68.706	-0.249	-0.256
-746.185	50.047	-0.291	0.275
-745.171	56.133	-0.215	-0.209
-744.156	800.000	0.051	0.180
-743.142	776.814	0.123	0.336
-742.127	51.282	-0.202	0.192
-741.112	218.537	-0.141	0.226
-740.098	32.274	-0.103	0.089
-739.083	-200.000	0.032	-0.147
-738.069	-68.835	-0.107	0.042
-737.054	3.502	-0.190	-0.139
-736.039	-11.884	-0.207	-0.136
-735.025	-22.009	0.349	-0.213
-734.010	800.000	0.025	0.087
-732.996	-19.389	-0.114	-0.071
-731.981	122.285	-0.180	-0.225
-730.966	698.444	-0.136	-0.358
-729.952	800.000	-0.032	0.140
-728.937	800.000	-0.091	0.353
-727.923	-122.110	-0.125	-0.020
-726.908	120.511	-0.228	0.283
-725.894	-12.612	-0.184	0.120
-724.879	-200.000	0.009	-0.133
-723.864	64.904	-0.130	-0.132
-722.850	-53.360	-0.334	0.153
-721.835	90.675	-0.087	0.098
-720.821	-85.756	0.490	-0.152
-719.806	87.597	-0.124	-0.137
-718.791	-200.000	-0.016	-0.265
-717.777	43.216	0.062	0.057
-716.762	231.724	-0.106	0.174
-715.748	337.302	-0.095	-0.185
-714.733	29.569	-0.037	0.032
-713.718	92.378	-0.132	-0.149
-712.704	-41.948	-0.079	0.040
-711.689	314.972	-0.133	-0.250
-710.675	-59.893	-0.354	-0.152
-709.660	-79.026	-0.212	-0.072
-708.645	30.899	0.251	0.215
-707.631	-126.049	0.200	-0.030
-706.616	760.971	-0.056	-0.151
-705.602	-87.661	0.412	0.124
-704.587	-97.011	0.159	0.042
-703.572	2.630	0.112	-0.081
-702.558	12.358	-0.381	0.293
-701.543	800.000	0.092	0.363
-700.529	-57.321	0.183	0.080
-699.514	-48.415	-0.318	-0.153
-698.499	-200.000	-0.005	-0.206
-697.485	-11.535	0.274	0.180
-696.470	800.000	0.079	-0.258
-695.456	-73.849	0.301	0.109
-694.441	-25.953	-0.159	-0.094
-693.426	-16.483	0.210	-0.133
-692.412	78.546	-0.150	0.160
-691.397	-200.000	0.042	0.192
-690.383	540.741	-0.063	-0.149
-689.368	-128.942	-0.524	0.074
-688.354	27.885	-0.225	0.189
-687.339	-200.000	0.026	0.133
-686.324	-114.794	-0.092	0.018
-685.310	39.625	-0.041	0.037
-684.295	-26.047	-0.173	-0.101
-683.281	-200.000	0.024	-0.365
-682.266	26.337	0.124	0.103
-681.251	-24.433	-0.094	0.056
-680.237	201.071	0.179	0.276
-679.222	-134.094	-0.235	-0.029
-678.208	-116.577	-0.135	-0.025
-677.193	-30.245	-0.217	-0.123
-676.178	-191.981	-0.368	-0.004
-675.164	-107.519	0.254	0.056
-674.149	-200.000	0.013	-0.309
-673.135	24.141	-0.099	-0.081
-672.120	-108.584	-0.399	-0.086
-671.105	-7.883	-0.339	-0.229
-670.091	800.000	0.137	-0.499
-669.076	358.354	0.133	-0.265
-668.062	146.889	-0.112	-0.150
-667.047	160.876	-0.203	-0.283
-666.032	800.000	0.090	-0.266
-665.018	2.251	0.104	0.075
-664.003	-127.616	0.152	-0.022
-662.989	201.241	0.214	-0.330
-661.974	404.605	0.103	-0.216
-660.959	-129.524	-0.274	0.038
-659.945	99.200	0.174	0.200
-658.930	-168.923	-0.166	-0.006
-657.916	7.637	0.355	-0.265
-656.901	-200.000	0.012	0.291
-655.886	-14.883	-0.176	0.113
-654.872	-107.428	0.302	-0.066
-653.857	800.000	0.117	-0.449
-652.843	396.438	0.158	0.330
-651.828	-200.000	-0.007	0.052
-650.814	-19.217	0.166	-0.103
-649.799	106.272	-0.120	-0.142
-648.784	-200.000	0.009	-0.179
-647.770	674.029	-0.003	0.009
-646.755	-32.231	-0.141	-0.079
-645.741	-200.000	0.002	0.055
-644.726	-43.742	0.151	0.076
-643.711	19.125	0.209	0.168
-642.697	800.000	-0.121	-0.400
-641.682	-200.000	-0.081	-0.476
-640.668	800.000	0.028	0.118
-639.653	-43.177	0.370	-0.187
-638.638	-200.000	-0.044	-0.325
-637.624	-48.417	0.431	-0.207
-636.609	25.530	0.185	0.154
-635.595	474.060	-0.087	0.195
-634.580	-200.000	0.056	-0.520
-633.565	5.824	0.087	-0.065
-632.551	800.000	-0.082	-0.228
-631.536	98.386	0.227	-0.261
-630.522	102.670	0.060	-0.070
-629.507	604.341	0.107	-0.266
-628.492	102.163	0.075	0.088
-627.478	161.172	0.042	0.058
-626.463	-200.000	0.011	-0.201
-625.449	800.000	0.030	0.087
-624.434	94.282	0.041	0.047
-623.419	-57.743	-0.329	0.143
-622.405	-55.320	0.141	0.063
-621.390	59.653	0.212	0.209
-620.376	-105.769	0.205	-0.046
-619.361	-200.000	-0.062	-0.385
-618.346	-89.310	0.173	0.051
-617.332	-92.853	-0.274	-0.076
-616.317	174.778	-0.040	-0.058
-615.303	-200.000	0.009	-0.335
-614.288	-67.213	0.070	0.027
-613.273	85.563	-0.074	-0.081
-612.259	544.755	0.100	-0.238
-611.244	300.371	-0.073	0.135
-610.230	29.044	-0.277	0.234
-609.215	308.765	-0.155	-0.289
-608.201	-79.178	0.211	0.071
-607.186	135.415	0.190	-0.246
-606.171	133.598	0.129	-0.166
-605.157	-64.203	0.241	0.098
-604.142	800.000	-0.035	-0.148
-603.128	2.850	0.298	0.215
-602.113	800.000	-0.111	-0.355
-601.098	19.009	-0.159	-0.127
-600.084	57.983	-0.245	-0.239
-599.069	27.363	-0.212	-0.177
-598.055	-200.000	-0.011	-0.180
-597.040	216.918	-0.110	-0.174
-596.025	-156.928	0.401	0.024
-595.011	113.647	-0.036	-0.043
-593.996	378.230	0.045	-0.092
-592.982	-130.527	0.193	0.026
-591.967	209.171	-0.104	0.163
-590.952	-200.000	-0.011	-0.168
-589.938	709.236	-0.044	-0.117
-588.923	18.812	-0.148	-0.118
-587.909	20.670	-0.100	0.081
-586.894	-200.000	0.009	0.070
-585.879	3.642	-0.229	-0.166
-584.865	-200.000	0.002	-0.143
-583.850	-135.172	-0.243	-0.029
-582.836	27.751	-0.266	-0.223
-581.821	-54.188	-0.129	-0.058
-580.806	-120.413	0.053	-0.009
-579.792	800.000	-0.022	-0.071
-578.777	-121.221	0.348	0.058
-577.763	-54.816	-0.316	-0.142
-576.748	-46.143	0.415	0.203
-575.733	-137.951	-0.379	0.042
-574.719	-190.449	-0.014	-0.000
-573.704	267.315	0.072	0.125
-572.690	-38.966	-0.122	0.064
-571.675	-71.044	0.124	-0.046
-570.661	-200.000	-0.005	0.200
-569.646	246.966	0.158	-0.265
-568.631	77.438	0.105	0.111
-567.617	173.796	0.050	0.072
-566.602	35.072	0.140	-0.122
-565.588	800.000	0.053	-0.226
-564.573	-19.643	-0.341	0.210
-563.558	383.443	0.086	-0.176
-562.544	-76.840	-0.338	0.118
-561.529	33.417	0.080	0.069
-560.515	21.248	0.145	0.117
-559.500	186.709	-0.100	0.148
-558.485	252.880	0.042	-0.072
-557.471	25.181	0.147	-0.121
-556.456	800.000	-0.031	0.093
-555.442	763.711	-0.113	-0.306
-554.427	-200.000	-0.007	0.362
-553.412	-11.724	0.064	0.042
-552.398	800.000	-0.025	0.092
-551.383	11.969	0.163	-0.124
-550.369	-112.583	-0.445	0.088
-549.354	81.038	-0.254	0.272
-548.339	800.000	-0.066	0.215
-547.325	115.596	0.154	-0.187
-546.310	800.000	-0.040	-0.160
-545.296	-35.982	0.108	-0.058
-544.281	-174.671	-0.021	0.001
-543.266	-109.129	0.352	0.074
-542.252	142.674	0.219	-0.289
-541.237	-29.836	-0.204	-0.116
-540.223	101.124	0.040	0.047
-539.208	800.000	0.046	-0.144
-538.193	800.000	0.096	-0.327
-537.179	149.774	-0.085	-0.114
-536.164	68.835	-0.157	-0.160
-535.150	-200.000	0.036	-0.208
-534.135	193.970	0.173	0.261
-533.121	14.625	-0.148	0.115
-532.106	-31.552	0.130	0.073
-531.091	159.206	-0.262	-0.362
-530.077	-142.254	-0.059	0.006
-529.062	800.000	0.093	-0.274
-528.048	113.680	-0.228	-0.276
-527.033	176.465	-0.171	0.247
-526.018	187.855	-0.137	0.204
-525.004	-200.000	0.028	0.448
-523.989	-200.000	-0.007	-0.069
-522.975	-138.763	-0.055	0.006
-521.960	-129.362	-0.403	-0.056
-520.945	339.434	-0.155	-0.301
-519.931	784.428	0.018	-0.050
-518.916	-45.112	0.243	-0.120
-517.902	121.075	0.071	-0.087
-516.887	97.274	-0.146	0.166
-515.872	-200.000	0.022	-0.288
-514.858	-61.534	0.198	-0.082
-513.843	245.140	0.126	0.211
-512.829	-7.105	0.256	-0.172
-511.814	-93.593	0.321	0.088
-510.799	563.822	0.061	0.147
-509.785	-24.761	-0.120	-0.071
-508.770	80.746	0.248	0.266
-507.756	133.825	0.067	0.087
-506.741	-68.867	-0.089	0.034
-505.726	-101.501	-0.250	-0.060
-504.712	-61.026	-0.355	-0.149
-503.697	-58.895	0.427	-0.183
-502.683	85.186	-0.059	0.064
-501.668	192.221	-0.064	-0.096
-500.653	800.000	-0.065	0.266
-499.639	149.075	0.071	0.096
-498.624	412.938	0.112	0.235
-497.610	-130.354	-0.368	-0.050
-496.595	123.706	-0.306	0.381
-495.581	65.481	-0.088	-0.089
-494.566	299.441	0.089	-0.163
-493.551	-185.865	-0.362	-0.005
-492.537	800.000	-0.062	-0.209
-491.522	370.146	-0.150	0.302
-490.508	96.816	-0.105	0.119
-489.493	-96.103	-0.222	0.059
-488.478	-200.000	0.000	-0.059
-487.464	-27.409	0.163	-0.094
-486.449	162.856	-0.141	0.197
-485.435	-151.722	-0.270	-0.020
-484.420	-148.261	0.138	0.011
-483.405	-57.126	-0.166	-0.073
-482.391	-82.933	-0.437	-0.140
-481.376	112.274	-0.220	-0.264
-480.362	-200.000	0.032	0.213
-479.347	-200.000	0.039	0.189
-478.332	141.389	0.100	0.131
-477.318	112.708	0.104	0.125
-476.303	-200.000	-0.033	0.159
-475.289	-79.662	0.291	0.097
-474.274	-83.811	-0.139	0.044
-473.259	522.241	0.113	0.264
-472.245	-200.000	-0.028	-0.135
-471.230	-142.809	-0.152	-0.015
-470.216	116.799	-0.215	0.261
-469.201	-198.099	-0.101	0.001
-468.186	194.408	0.114	0.171
-467.172	-138.248	-0.356	-0.039
-466.157	-9.511	-0.038	-0.025
-465.143	407.642	0.100	0.210
-464.128	-200.000	0.045	0.372
-463.113	800.000	0.040	-0.138
-462.099	-196.950	-0.231	-0.001
-461.084	50.055	0.198	0.185
-460.070	66.363	0.126	0.127
-459.055	-123.116	-0.225	-0.036
-458.040	543.936	0.081	0.191
-457.026	-71.899	-0.086	0.032
-456.011	-200.000	0.022	-0.131
-454.997	-165.132	0.274	0.012
-453.982	380.412	0.101	0.205
-452.968	-76.519	0.201	0.070
-451.953	-200.000	0.044	-0.259
-450.938	-74.208	0.078	0.028
-449.924	800.000	-0.110	-0.383
-448.909	-200.000	0.011	0.199
-447.895	254.253	-0.178	0.301
-446.880	53.972	-0.097	0.093
-445.865	-200.000	0.034	-0.330
-444.851	44.025	-0.116	0.106
-443.836	-200.000	-0.015	-0.326
-442.822	405.225	-0.225	0.470
-441.807	-19.749	-0.105	0.064
-440.792	800.000	0.051	0.139
-439.778	-28.087	0.096	0.055
-438.763	289.361	0.019	-0.034
-437.749	-200.000	-0.009	0.052
-436.734	-69.945	0.209	-0.079
-435.719	133.863	-0.177	0.227
-434.705	-49.588	0.262	0.123
-433.690	229.901	-0.221	0.358
-432.676	-9.857	-0.143	0.094
-431.661	460.583	0.125	0.275
-430.646	-200.000	-0.016	-0.241
-429.632	26.175	0.226	-0.186
-428.617	-71.310	-0.205	-0.076
-427.603	-200.000	0.047	0.372
-426.588	-200.000	0.001	0.182
-425.573	-85.581	-0.055	0.017
-424.559	-200.000	0.045	0.383
-423.544	79.167	-0.201	0.213
-422.530	-135.531	0.337	0.040
-421.515	-200.000	0.007	0.050
-420.500	192.090	-0.087	-0.130
-419.486	-200.000	-0.007	0.221
-418.471	-75.392	-0.254	0.089
-417.457	537.368	-0.101	-0.238
-416.442	13.031	-0.374	-0.287
-415.428	28.950	-0.117	0.098
-414.413	800.000	0.036	0.104
-413.398	-200.000	-0.004	-0.302
-412.384	96.530	0.204	-0.231
-411.369	-18.968	0.202	0.124
-410.355	384.251	0.137	-0.280
-409.340	202.423	0.059	0.091
-408.325	-45.703	0.277	-0.135
-407.311	202.001	0.337	-0.514
-406.296	-125.445	0.229	0.035
-405.282	-200.000	-0.051	-0.259
-404.267	75.625	0.230	-0.240
-403.252	-131.757	-0.469	-0.061
-402.238	316.356	0.116	0.216
-401.223	-78.485	-0.146	0.049
-400.209	-200.000	0.014	-0.244
-399.194	8.850	-0.127	-0.095
-398.179	382.850	-0.136	-0.277
-397.165	-102.927	0.028	0.007
-396.150	-6.817	0.196	-0.132
-395.136	-63.610	0.081	0.033
-394.121	26.745	-0.386	-0.320
-393.106	-134.626	-0.257	-0.031
-392.092	12.336	-0.178	-0.136
-391.077	42.743	0.161	0.145
-390.063	-200.000	-0.085	0.428
-389.048	-200.000	-0.002	0.139
-388.033	-200.000	-0.030	-0.163
-387.019	-6.126	-0.230	-0.155
-386.004	-74.856	-0.209	0.074
-384.990	-51.110	-0.183	0.085
-383.975	108.275	-0.300	-0.354
-382.960	-65.277	0.346	-0.138
-381.946	-67.181	0.080	-0.031
-380.931	514.274	0.186	-0.428
-379.917	111.619	-0.136	-0.162
-378.902	-200.000	0.024	-0.167
-377.888	223.497	-0.228	0.363
-376.873	-200.000	-0.005	0.087
-375.858	21.189	-0.134	0.107
-374.844	-36.375	-0.215	0.115
-373.829	567.301	0.127	-0.303
-372.815	670.571	-0.048	-0.122
-371.800	-50.064	0.273	-0.128
-370.785	267.724	0.312	-0.539
-369.771	-43.231	0.125	-0.063
-368.756	-28.965	0.441	-0.250
-367.742	473.473	0.118	0.262
-366.727	-102.362	0.101	-0.024
-365.712	-88.899	-0.393	-0.115
-364.698	-200.000	0.011	-0.058
-363.683	-200.000	0.012	0.097
-362.669	22.680	-0.132	0.107
-361.654	60.202	-0.059	-0.057
-360.639	-63.130	0.307	-0.125
-359.625	-129.322	0.396	0.054
-358.610	800.000	-0.034	0.136
-357.596	58.265	-0.394	0.381
-356.581	82.837	0.213	0.229
-355.566	-33.435	0.133	0.072
-354.552	-38.375	-0.087	0.046
-353.537	-75.352	0.365	0.129
-352.523	800.000	-0.032	-0.135
-351.508	-119.244	0.090	0.015
-350.493	243.197	-0.094	-0.156
-349.479	-21.344	-0.175	0.105
-348.464	-200.000	0.002	0.192
-347.450	-119.478	0.037	-0.006
-346.435	-7.479	-0.030	0.020
-345.420	472.501	-0.035	-0.077
-344.406	231.491	-0.098	-0.158
-343.391	111.689	-0.166	0.197
-342.377	366.209	0.073	-0.145
-341.362	360.331	-0.081	-0.160
-340.348	-119.736	-0.213	0.036
-339.333	800.000	-0.101	0.332
-338.318	800.000	0.061	0.247
-337.304	474.094	-0.052	-0.116
-336.289	-92.886	-0.111	-0.031
-335.275	-88.304	-0.313	-0.092
-334.260	-0.982	-0.054	-0.038
-333.245	-96.386	-0.077	0.020
-332.231	95.678	0.148	0.166
-331.216	-174.724	-0.095	0.003
-330.202	102.016	-0.113	-0.129
-329.187	480.097	-0.072	0.161
-328.172	-200.000	-0.010	-0.080
-327.158	-66.436	0.141	0.055
-326.143	-16.140	0.144	-0.090
-325.129	-93.926	0.099	-0.027
-324.114	-200.000	0.036	-0.166
-323.099	-179.226	0.108	0.002
-322.085	-34.855	-0.335	0.180
-321.070	-200.000	0.018	-0.087
-320.056	-105.342	-0.366	-0.082
-319.041	171.971	-0.127	-0.179
-318.026	-55.659	0.151	0.067
-317.012	209.674	-0.049	-0.075
-315.997	-200.000	0.038	0.251
-314.983	800.000	0.064	0.189
-313.968	493.283	0.121	0.273
-312.953	-200.000	-0.018	0.096
-311.939	800.000	-0.043	0.140
-310.924	-122.554	0.260	-0.042
-309.910	55.559	-0.262	0.250
-308.895	-96.173	0.310	0.081
-307.880	29.672	0.016	0.013
-306.866	-71.987	-0.145	0.053
-305.851	800.000	-0.011	0.041
-304.837	-69.952	0.452	-0.170
-303.822	-133.520	-0.174	-0.022
-302.807	-133.220	0.162	-0.020
-301.793	340.324	0.141	-0.271
-300.778	-84.981	0.134	-0.041
-299.764	-200.000	0.002	0.061
-298.749	-200.000	-0.005	0.226
-297.735	77.144	0.483	0.505
-296.720	-18.026	-0.207	0.128
-295.705	129.995	0.155	-0.195
-294.691	-104.556	-0.092	-0.021
-293.676	-200.000	-0.011	-0.096
-292.662	-93.249	-0.209	0.057
-291.647	-5.466	-0.065	-0.044
-290.632	-115.011	-0.066	0.012
-289.618	-42.950	-0.399	-0.199
-288.603	-152.269	0.165	-0.012
-287.589	-160.143	0.219	0.012
-286.574	-43.975	0.146	0.072
-285.559	-94.540	-0.128	0.034
-284.545	-151.597	0.114	-0.008
-283.530	-114.988	-0.079	-0.015
-282.516	800.000	0.055	0.152
-281.501	-200.000	0.000	0.147
-280.486	-200.000	0.029	0.398
-279.472	800.000	0.035	-0.118
-278.457	104.708	-0.087	0.101
-277.443	37.965	0.174	0.152
-276.428	289.908	0.124	-0.222
-275.413	69.183	0.357	0.361
-274.399	-54.468	-0.159	0.071
-273.384	82.945	-0.111	0.119
-272.370	-200.000	0.007	-0.179
-271.355	800.000	0.122	-0.425
-270.340	-104.556	0.095	0.021
-269.326	248.819	-0.127	0.212
-268.311	-72.964	0.190	-0.069
-267.297	-128.218	0.161	0.023
-266.282	-200.000	0.004	-0.161
-265.267	457.598	-0.049	0.108
-264.253	-156.008	-0.352	-0.022
-263.238	-72.682	-0.243	-0.088
-262.224	8.101	0.173	0.128
-261.209	-200.000	-0.012	0.095
-260.195	-50.629	0.341	0.158
-259.180	161.458	0.112	-0.154
-258.165	-200.000	0.015	0.416
-257.151	800.000	-0.062	-0.248
-256.136	-156.521	0.260	-0.016
-255.122	87.342	0.204	-0.221
-254.107	781.557	-0.159	-0.428
-253.092	800.000	-0.040	0.136
-252.078	-53.830	0.204	-0.091
-251.063	361.251	-0.089	-0.175
-250.049	800.000	0.089	-0.255
-249.034	126.168	0.013	-0.016
-248.019	-86.743	0.036	0.011
-247.005	-134.949	0.086	-0.010
-245.990	800.000	0.056	-0.178
-244.976	469.921	0.144	0.317
-243.961	-134.840	0.052	0.006
-242.946	36.261	-0.220	0.190
-241.932	-103.706	0.093	0.021
-240.917	-173.643	0.076	0.002
-239.903	390.486	-0.216	-0.441
-238.888	301.942	-0.111	0.201
-237.873	143.058	-0.073	-0.096
-236.859	800.000	0.046	0.174
-235.844	391.886	-0.077	-0.156
-234.830	-132.343	0.185	0.023
-233.815	-200.000	0.029	0.332
-232.800	84.617	0.381	0.410
-231.786	3.999	-0.023	0.016
-230.771	-132.838	-0.147	0.018
-229.757	-106.828	-0.079	0.017
-228.742	-135.176	0.435	-0.051
-227.727	-200.000	-0.027	0.209
-226.713	-200.000	0.002	0.335
-225.698	377.290	-0.098	0.196
-224.684	-200.000	0.024	-0.183
-223.669	-137.824	0.281	-0.031
-222.655	-200.000	0.063	0.387
-221.640	693.446	-0.058	0.150
-220.625	-75.306	0.105	-0.037
-219.611	800.000	-0.035	-0.146
-218.596	800.000	0.019	0.058
-217.582	800.000	-0.031	-0.124
-216.567	46.953	-0.189	0.173
-215.552	800.000	-0.016	-0.048
-214.538	63.517	0.256	0.252
-213.523	47.483	0.107	-0.098
-212.509	800.000	0.118	-0.365
-211.494	269.794	-0.038	-0.065
-210.479	102.201	-0.221	-0.253
-209.465	-76.821	0.280	0.096
-208.450	-200.000	0.056	0.258
-207.436	800.000	-0.037	0.126
-206.421	557.648	-0.038	-0.089
-205.406	-29.033	-0.306	-0.172
-204.392	200.256	0.076	0.115
-203.377	195.363	-0.172	-0.257
-202.363	-61.397	0.257	0.106
-201.348	51.829	0.231	0.215
-200.333	800.000	0.042	0.124
-199.319	-0.606	-0.065	-0.045
-198.304	-200.000	-0.005	-0.160
-197.290	-150.099	0.241	0.018
-196.275	92.491	-0.128	0.141
-195.260	-200.000	-0.001	-0.076
-194.246	51.359	0.093	0.087
-193.231	-98.290	-0.151	0.038
-192.217	25.500	0.079	0.065
-191.202	69.488	0.165	0.167
-190.187	575.590	0.064	0.153
-189.173	-143.354	-0.351	-0.033
-188.158	3.216	0.133	0.095
-187.144	-147.835	-0.266	0.022
-186.129	-38.968	0.187	0.097
-185.114	-200.000	0.023	0.251
-184.100	-131.892	0.587	-0.075
-183.085	-200.000	-0.021	-0.176
-182.071	-1.375	-0.339	0.234
-181.056	800.000	-0.080	-0.275
-180.042	152.855	-0.057	0.076
-179.027	-43.589	0.099	0.049
-178.012	158.790	-0.114	0.156
-176.998	800.000	0.068	0.219
-175.983	117.212	-0.161	-0.194
-174.969	124.571	0.116	0.143
-173.954	30.965	-0.174	-0.147
-172.939	-69.981	0.204	-0.076
-171.925	173.941	-0.113	-0.160
-170.910	-140.183	-0.169	-0.017
-169.896	-107.830	0.155	-0.033
-168.881	800.000	-0.091	0.258
-167.866	351.494	0.038	-0.074
-166.852	-0.086	-0.105	0.073
-165.837	-124.456	0.682	0.104
-164.823	800.000	-0.034	0.112
-163.808	189.313	-0.114	0.168
-162.793	-86.647	0.217	0.065
-161.779	-200.000	-0.010	0.093
-160.764	-61.219	0.212	0.087
-159.750	-1.921	-0.121	-0.083
-158.735	168.995	0.065	0.091
-157.720	-71.607	-0.557	-0.204
-156.706	-200.000	0.011	0.132
-155.691	-149.144	-0.193	-0.015
-154.677	800.000	-0.072	-0.196
-153.662	375.674	-0.140	0.280
-152.647	109.195	-0.199	0.233
-151.633	-2.545	-0.141	0.097
-150.618	-200.000	0.017	0.144
-149.604	181.790	-0.123	-0.177
-148.589	-200.000	0.040	-0.190
-147.574	800.000	0.107	0.396
-146.560	-76.414	0.147	0.051
-145.545	-77.167	0.383	-0.131
-144.531	800.000	-0.018	-0.060
-143.516	413.582	-0.137	0.286
-142.502	-40.570	-0.148	0.075
-141.487	-79.828	-0.150	-0.049
-140.472	98.302	-0.166	0.187
-139.458	-87.557	0.082	0.024
-138.443	-50.797	-0.109	-0.050
-137.429	18.471	0.251	0.196
-136.414	-64.756	0.300	-0.119
-135.399	-47.966	-0.093	-0.044
-134.385	248.435	-0.118	0.195
-133.370	-52.381	0.208	0.094
-132.356	154.938	0.161	0.217
-131.341	-23.754	-0.150	-0.088
-130.326	38.438	-0.048	-0.042
-129.312	-185.379	0.128	0.002
-128.297	-200.000	0.010	-0.359
-127.283	373.881	0.160	-0.319
-126.268	-167.570	0.163	0.006
-125.253	245.608	0.116	0.190
-124.239	-200.000	-0.023	0.141
-123.224	-159.683	0.349	-0.019
-122.210	154.766	-0.072	-0.097
-121.195	800.000	-0.087	0.328
-120.180	800.000	0.077	0.238
