DTS Sentinel unit serial number:	SN413079Multiplexer serial number:	ORYXHardware model number:	OX4-SRSoftware version number:	ORYX F/W v4.00 Oryx Data Collector v3.7.2.0data status	okinstallation	princeton_trtdifferential loss correction	single-endedforward channel	channel 3reverse channel	N/Adate	2019/09/14time	17:00:35forward acquisition time	60.00reverse acquisition time	0.00gamma	496.2192k internal	0.2295k external	0.2295temperature offset calibration	1.0030default loss term (dB/km)	0.3790temperature slope calibration	1.0000multiplexer offset coefficient	1.0000multiplexer slope coefficient	1.0000fibre end	0.00T internal ref (°C)	38.00T ext. ref 1 (°C)	4.99T ext. ref 2 (°C)	33.27length (m)	temperature (°C)	Stokes	anti-Stokes-747.200	-3.103	-0.081	0.058
-746.185	-41.415	0.124	0.065
-745.171	640.367	0.092	-0.241
-744.156	86.633	0.108	0.122
-743.142	-114.722	0.266	0.052
-742.127	-181.009	-0.252	-0.005
-741.112	-169.357	-0.087	0.003
-740.098	383.759	0.027	0.057
-739.083	-83.513	0.609	0.199
-738.069	-36.521	-0.147	0.081
-737.054	-36.092	0.150	-0.083
-736.039	57.172	-0.052	-0.052
-735.025	-200.000	-0.038	0.311
-734.010	-92.720	-0.186	0.053
-732.996	-39.115	0.100	0.054
-731.981	-168.444	0.083	-0.003
-730.966	96.544	-0.206	0.241
-729.952	-26.508	-0.198	-0.119
-728.937	-200.000	-0.049	-0.276
-727.923	-3.982	0.147	-0.104
-726.908	340.960	-0.056	-0.112
-725.894	-7.038	-0.479	-0.332
-724.879	370.186	-0.039	0.081
-723.864	73.612	0.256	-0.274
-722.850	-5.519	-0.150	0.105
-721.835	-200.000	0.016	-0.301
-720.821	-200.000	-0.017	-0.186
-719.806	366.523	-0.027	-0.056
-718.791	-200.000	-0.030	0.221
-717.777	-71.411	0.064	-0.024
-716.762	-41.073	-0.290	-0.153
-715.748	27.677	-0.102	-0.087
-714.733	-111.461	-0.151	0.031
-713.718	-52.951	0.041	0.019
-712.704	19.317	0.124	0.102
-711.689	-35.109	-0.168	-0.094
-710.675	357.710	-0.104	-0.212
-709.660	-157.892	-0.216	0.013
-708.645	-80.683	0.069	0.023
-707.631	800.000	0.096	-0.313
-706.616	144.208	0.075	-0.103
-705.602	-200.000	-0.016	-0.209
-704.587	-15.498	0.330	0.215
-703.572	524.630	0.090	-0.217
-702.558	-108.527	-0.494	-0.109
-701.543	40.307	-0.031	-0.028
-700.529	-54.132	-0.159	0.074
-699.514	-200.000	0.002	0.109
-698.499	-116.048	0.302	0.057
-697.485	208.688	0.080	-0.128
-696.470	337.935	-0.104	0.207
-695.456	-26.835	-0.153	0.092
-694.441	504.608	0.080	0.189
-693.426	-181.930	-0.078	0.002
-692.412	-135.271	0.126	-0.015
-691.397	-154.281	0.239	-0.016
-690.383	431.628	0.153	0.337
-689.368	-200.000	0.065	0.307
-688.354	-200.000	-0.033	-0.221
-687.339	-136.961	0.222	0.026
-686.324	170.195	0.093	-0.136
-685.310	800.000	-0.016	0.063
-684.295	94.304	0.067	-0.077
-683.281	-79.207	-0.292	0.101
-682.266	515.395	0.074	-0.175
-681.251	105.248	0.248	-0.299
-680.237	356.447	-0.133	0.271
-679.222	181.385	-0.110	0.165
-678.208	417.877	0.122	-0.266
-677.193	-102.358	-0.299	0.073
-676.178	-108.222	-0.130	-0.029
-675.164	340.885	0.055	-0.110
-674.149	-53.446	0.254	0.118
-673.135	-200.000	0.012	-0.281
-672.120	-132.151	-0.232	0.031
-671.105	-200.000	0.003	-0.223
-670.091	-200.000	-0.029	-0.201
-669.076	-102.497	0.124	0.030
-668.062	43.576	0.078	0.073
-667.047	84.761	-0.174	0.194
-666.032	-87.571	-0.247	0.076
-665.018	-200.000	0.009	0.067
-664.003	-125.618	-0.578	0.089
-662.989	185.660	0.116	0.176
-661.974	-83.482	0.346	0.113
-660.959	-83.622	0.029	-0.009
-659.945	-6.871	0.312	-0.216
-658.930	29.830	-0.115	-0.099
-657.916	800.000	-0.053	-0.179
-656.901	-112.380	-0.180	-0.037
-655.886	-84.198	0.277	-0.090
-654.872	224.866	-0.099	0.163
-653.857	-104.279	-0.195	0.046
-652.843	104.010	0.105	0.126
-651.828	114.043	-0.155	-0.193
-650.814	-200.000	-0.039	-0.421
-649.799	460.190	-0.119	-0.270
-648.784	-200.000	-0.007	0.042
-647.770	-200.000	-0.029	0.372
-646.755	43.930	-0.101	0.095
-645.741	-113.898	0.194	0.038
-644.726	-39.851	0.276	-0.147
-643.711	221.499	0.235	-0.385
-642.697	-41.191	0.236	-0.124
-641.682	98.257	-0.089	0.104
-640.668	-187.907	0.234	-0.003
-639.653	800.000	0.064	0.221
-638.638	18.971	0.015	-0.012
-637.624	427.163	-0.018	-0.039
-636.609	-200.000	0.007	-0.324
-635.595	132.604	-0.224	0.293
-634.580	-184.396	-0.447	0.007
-633.565	364.282	0.055	0.113
-632.551	17.725	-0.181	-0.147
-631.536	257.420	-0.289	0.506
-630.522	275.395	-0.089	0.161
-629.507	5.251	0.249	-0.187
-628.492	295.038	-0.022	0.041
-627.478	-15.797	-0.203	-0.132
-626.463	-200.000	0.027	0.327
-625.449	800.000	0.079	-0.321
-624.434	-105.898	0.330	-0.076
-623.419	-29.920	-0.194	0.113
-622.405	10.270	0.062	-0.048
-621.390	-5.338	-0.205	-0.143
-620.376	-200.000	0.007	0.077
-619.361	-4.309	-0.182	-0.128
-618.346	141.205	0.135	-0.182
-617.332	-200.000	0.019	0.109
-616.317	151.000	0.233	0.322
-615.303	-200.000	0.002	0.069
-614.288	-132.742	-0.059	0.008
-613.273	-92.786	-0.135	-0.039
-612.259	800.000	0.023	0.087
-611.244	22.848	0.192	0.160
-610.230	-139.351	-0.246	-0.027
-609.215	-2.869	0.284	-0.202
-608.201	-77.023	0.116	-0.041
-607.186	-200.000	0.028	0.585
-606.171	-127.537	-0.141	0.021
-605.157	219.596	0.047	0.076
-604.142	-158.056	-0.043	0.003
-603.128	154.030	-0.139	0.193
-602.113	773.325	-0.030	0.084
-601.098	-33.118	0.313	-0.176
-600.084	438.346	-0.049	-0.109
-599.069	-8.367	0.164	-0.112
-598.055	-96.017	-0.169	-0.046
-597.040	-200.000	0.010	0.172
-596.025	-53.446	0.138	-0.064
-595.011	38.266	0.329	0.298
-593.996	68.729	0.202	-0.211
-592.982	-22.548	0.123	-0.076
-591.967	-200.000	0.023	0.231
-590.952	-72.597	0.087	-0.032
-589.938	-76.704	-0.242	0.086
-588.923	52.681	0.033	0.032
-587.909	-89.028	-0.508	-0.153
-586.894	800.000	0.045	0.134
-585.879	-181.025	-0.130	-0.003
-584.865	-40.568	0.012	0.007
-583.850	46.545	0.187	-0.176
-582.836	332.708	0.080	0.156
-581.821	291.043	-0.082	-0.152
-580.806	47.131	-0.050	-0.047
-579.792	-200.000	0.008	0.249
-578.777	-156.773	-0.202	0.013
-577.763	449.435	0.104	-0.233
-576.748	-200.000	0.048	-0.375
-575.733	800.000	-0.081	-0.257
-574.719	-200.000	-0.007	-0.056
-573.704	-111.987	0.054	0.011
-572.690	99.192	-0.100	-0.117
-571.675	-78.788	0.180	0.062
-570.661	-45.575	-0.122	-0.061
-569.646	-135.675	0.323	0.039
-568.631	699.160	-0.034	0.090
-567.617	-83.715	-0.109	0.035
-566.602	136.593	0.207	0.274
-565.588	-118.004	-0.145	0.026
-564.573	-180.834	-0.057	-0.001
-563.558	-188.342	0.346	-0.004
-562.544	800.000	-0.087	0.331
-561.529	800.000	-0.037	0.116
-560.515	-105.898	-0.070	0.016
-559.500	-115.603	-0.194	0.037
-558.485	-91.293	-0.074	-0.022
-557.471	49.164	0.177	-0.169
-556.456	717.509	0.055	-0.149
-555.442	-200.000	0.010	0.093
-554.427	231.246	-0.180	0.299
-553.412	269.424	0.173	-0.308
-552.398	70.568	0.043	0.045
-551.383	-200.000	0.011	0.283
-550.369	22.636	0.173	0.144
-549.354	169.951	0.217	-0.315
-548.339	520.278	0.063	-0.149
-547.325	178.849	-0.013	-0.020
-546.310	-58.201	-0.332	-0.147
-545.296	47.336	-0.092	-0.087
-544.281	345.215	0.103	-0.205
-543.266	226.722	0.100	-0.165
-542.252	2.677	-0.363	-0.267
-541.237	66.022	0.147	-0.152
-540.223	800.000	0.101	-0.379
-539.208	-96.724	-0.362	-0.097
-538.193	33.917	-0.175	0.155
-537.179	7.638	-0.032	0.025
-536.164	381.406	0.101	-0.210
-535.150	-41.199	-0.403	0.211
-534.135	19.240	-0.298	0.242
-533.121	-158.349	-0.261	-0.015
-532.106	-200.000	0.047	-0.373
-531.091	800.000	0.057	-0.226
-530.077	-4.868	-0.109	-0.077
-529.062	-200.000	0.004	0.349
-528.048	191.167	0.043	-0.066
-527.033	-148.061	-0.194	0.016
-526.018	192.083	-0.032	0.048
-525.004	528.123	0.093	-0.222
-523.989	-129.508	-0.514	-0.072
-522.975	-138.902	0.249	0.027
-521.960	-52.064	0.134	-0.063
-520.945	-172.041	-0.213	0.007
-519.931	-200.000	0.049	-0.370
-518.916	49.777	0.390	-0.373
-517.902	800.000	-0.020	-0.060
-516.887	-30.818	0.024	-0.014
-515.872	-131.203	0.176	-0.024
-514.858	-64.016	0.219	0.091
-513.843	136.304	0.182	0.240
-512.829	800.000	-0.094	-0.388
-511.814	-56.276	-0.188	-0.085
-510.799	-35.102	0.143	-0.079
-509.785	678.370	0.013	-0.035
-508.770	157.768	-0.165	-0.232
-507.756	454.793	0.059	-0.133
-506.741	-116.505	-0.102	0.019
-505.726	-100.741	-0.330	-0.082
-504.712	39.241	-0.087	0.079
-503.697	-200.000	0.005	-0.146
-502.683	95.878	0.025	-0.029
-501.668	60.795	0.189	-0.190
-500.653	-18.070	-0.119	-0.076
-499.639	-43.521	-0.092	0.047
-498.624	178.497	-0.040	0.059
-497.610	668.298	-0.119	-0.312
-496.595	-200.000	-0.032	0.231
-495.581	-81.408	-0.330	0.110
-494.566	-148.330	-0.119	-0.010
-493.551	800.000	0.054	-0.181
-492.537	447.812	-0.178	-0.398
-491.522	3.784	-0.118	-0.087
-490.508	324.498	0.161	-0.311
-489.493	-136.066	-0.265	0.031
-488.478	-150.463	-0.164	0.013
-487.464	-6.312	0.153	0.105
-486.449	-66.169	-0.200	-0.081
-485.435	240.874	0.033	0.057
-484.420	800.000	0.053	-0.174
-483.405	21.519	0.082	-0.067
-482.391	22.796	-0.264	0.219
-481.376	522.345	-0.134	0.319
-480.362	30.784	-0.236	0.205
-479.347	-129.136	-0.128	-0.018
-478.332	82.738	-0.197	0.217
-477.318	-20.689	-0.071	-0.044
-476.303	-42.179	-0.504	-0.261
-475.289	-110.637	0.164	0.034
-474.274	312.791	0.070	0.133
-473.259	491.707	-0.110	0.254
-472.245	174.902	0.232	-0.339
-471.230	14.011	-0.067	0.053
-470.216	18.489	0.109	-0.088
-469.201	-105.085	0.167	-0.039
-468.186	87.677	-0.167	-0.187
-467.172	381.854	-0.095	0.197
-466.157	311.543	0.147	0.280
-465.143	800.000	0.025	0.091
-464.128	396.156	0.154	0.324
-463.113	-140.779	0.262	0.027
-462.099	-149.667	-0.180	-0.014
-461.084	-137.791	-0.251	-0.028
-460.070	-53.993	-0.200	-0.092
-459.055	-140.662	0.211	-0.022
-458.040	800.000	0.066	-0.208
-457.026	-64.961	0.039	-0.016
-456.011	207.246	-0.134	0.211
-454.997	-135.699	0.270	0.032
-453.982	1.469	-0.165	-0.120
-452.968	-105.046	-0.127	-0.029
-451.953	-200.000	0.003	0.148
-450.938	-200.000	0.080	-0.375
-449.924	-79.249	0.156	0.054
-448.909	45.876	-0.026	-0.024
-447.895	411.452	-0.128	-0.274
-446.880	-77.068	0.059	0.021
-445.865	-0.283	-0.172	0.123
-444.851	101.849	0.134	0.158
-443.836	800.000	-0.023	0.079
-442.822	-136.727	0.409	0.048
-441.807	-95.454	0.097	-0.026
-440.792	-200.000	-0.004	-0.105
-439.778	-129.434	-0.465	-0.065
-438.763	533.605	-0.192	0.459
-437.749	-33.111	0.144	-0.081
-436.734	800.000	-0.071	-0.212
-435.719	-30.183	-0.206	0.119
-434.705	-159.897	-0.246	-0.014
-433.690	-200.000	-0.022	-0.228
-432.676	64.215	0.129	0.131
-431.661	-200.000	0.059	-0.344
-430.646	-59.304	0.348	0.151
-429.632	-200.000	-0.000	0.008
-428.617	-61.356	0.291	-0.124
-427.603	251.100	-0.109	0.187
-426.588	639.321	-0.060	-0.154
-425.573	-200.000	0.013	-0.204
-424.559	298.712	-0.095	-0.176
-423.544	800.000	0.071	-0.220
-422.530	109.392	-0.117	-0.142
-421.515	-87.072	0.256	-0.079
-420.500	-132.119	-0.335	0.044
-419.486	-200.000	-0.028	-0.261
-418.471	713.760	-0.018	-0.048
-417.457	348.985	-0.142	0.282
-416.442	800.000	0.054	0.175
-415.428	327.776	-0.072	-0.140
-414.413	-200.000	0.013	-0.124
-413.398	252.660	0.161	-0.276
-412.384	195.512	0.235	-0.360
-411.369	510.687	0.066	-0.154
-410.355	181.410	-0.185	0.275
-409.340	-77.145	0.169	0.059
-408.325	5.834	0.038	0.029
-407.311	220.503	0.188	-0.305
-406.296	191.995	0.134	0.204
-405.282	-125.560	0.186	0.028
-404.267	35.747	-0.256	-0.227
-403.252	-200.000	0.049	-0.220
-402.238	800.000	-0.027	0.076
-401.223	158.553	-0.038	0.054
-400.209	93.363	-0.127	-0.144
-399.194	-118.121	0.080	-0.014
-398.179	38.204	-0.143	0.128
-397.165	-200.000	-0.029	-0.183
-396.150	-61.056	0.268	-0.114
-395.136	-133.156	0.270	0.034
-394.121	113.995	-0.080	0.099
-393.106	800.000	0.035	-0.109
-392.092	-46.084	0.171	0.085
-391.077	168.047	-0.113	0.162
-390.063	-104.979	-0.139	-0.032
-389.048	800.000	0.040	-0.115
-388.033	-17.714	0.221	-0.140
-387.019	349.496	0.038	-0.075
-386.004	-52.644	-0.162	-0.075
-384.990	507.929	-0.089	0.209
-383.975	77.927	-0.157	0.168
-382.960	-200.000	-0.015	0.132
-381.946	800.000	-0.070	0.242
-380.931	-47.439	0.170	0.084
-379.917	-32.615	-0.019	-0.011
-378.902	-200.000	0.038	0.449
-377.888	-101.347	0.206	0.051
-376.873	800.000	0.109	-0.370
-375.858	800.000	0.074	-0.268
-374.844	20.214	0.144	0.117
-373.829	-90.355	0.191	0.056
-372.815	-200.000	0.290	-0.001
-371.800	85.148	0.162	-0.180
-370.785	81.388	-0.095	0.104
-369.771	-109.664	-0.213	0.045
-368.756	18.670	-0.018	-0.014
-367.742	92.382	0.014	0.015
-366.727	55.277	-0.378	0.368
-365.712	80.747	0.183	-0.199
-364.698	107.697	0.236	0.283
-363.683	-200.000	0.011	-0.064
-362.669	-25.287	0.180	-0.107
-361.654	332.124	-0.107	0.209
-360.639	800.000	-0.010	-0.039
-359.625	800.000	-0.134	0.398
-358.610	800.000	0.033	-0.115
-357.596	681.310	-0.072	0.190
-356.581	160.753	0.110	0.155
-355.566	-108.236	-0.188	-0.041
-354.552	-79.172	0.144	0.049
-353.537	-20.319	0.333	-0.206
-352.523	107.845	-0.162	0.195
-351.508	-200.000	-0.076	0.341
-350.493	582.728	-0.079	-0.196
-349.479	85.119	-0.092	0.102
-348.464	3.567	0.062	0.045
-347.450	-153.649	-0.301	-0.021
-346.435	19.878	-0.082	-0.067
-345.420	-128.622	-0.128	-0.018
-344.406	146.156	-0.072	-0.097
-343.391	22.514	-0.383	-0.315
-342.377	16.674	0.154	0.123
-341.362	800.000	0.036	0.127
-340.348	-65.258	-0.413	-0.168
-339.333	-200.000	-0.020	-0.211
-338.318	203.777	0.163	-0.253
-337.304	44.082	-0.133	-0.123
-336.289	34.336	0.101	0.088
-335.275	622.859	0.006	0.016
-334.260	484.011	-0.146	-0.334
-333.245	-200.000	0.020	0.117
-332.231	299.697	0.031	-0.057
-331.216	101.946	0.224	-0.263
-330.202	800.000	-0.083	-0.234
-329.187	254.588	0.181	0.312
-328.172	-200.000	0.020	-0.121
-327.158	-5.374	-0.010	-0.007
-326.143	800.000	-0.086	0.260
-325.129	15.401	0.100	-0.079
-324.114	-200.000	-0.012	0.187
-323.099	294.640	-0.059	0.109
-322.085	-162.729	0.061	0.003
-321.070	543.818	0.068	-0.163
-320.056	-21.336	-0.158	0.097
-319.041	467.988	0.086	-0.195
-318.026	-36.908	0.354	0.191
-317.012	529.710	0.137	0.325
-315.997	678.022	-0.090	0.235
-314.983	458.663	0.027	-0.061
-313.968	52.646	-0.025	0.024
-312.953	-29.754	0.138	0.079
-311.939	425.259	0.043	0.094
-310.924	-131.483	0.251	0.033
-309.910	250.029	-0.140	0.239
-308.895	372.050	0.086	0.176
-307.880	-200.000	-0.025	0.311
-306.866	44.217	-0.048	-0.045
-305.851	-200.000	-0.025	-0.133
-304.837	523.060	0.089	-0.211
-303.822	-162.746	0.253	-0.012
-302.807	-91.620	-0.207	0.059
-301.793	800.000	0.063	0.214
-300.778	118.817	0.183	0.228
-299.764	-66.048	0.065	-0.026
-298.749	-200.000	0.000	0.187
-297.735	-200.000	0.015	0.127
-296.720	-200.000	-0.129	0.661
-295.705	12.747	0.203	-0.158
-294.691	243.019	-0.194	-0.327
-293.676	178.779	0.187	0.275
-292.662	-56.816	-0.311	0.138
-291.647	-148.892	0.179	-0.015
-290.632	231.820	-0.141	0.232
-289.618	800.000	0.063	0.195
-288.603	-15.270	-0.218	-0.140
-287.589	-104.279	-0.249	0.058
-286.574	64.970	0.183	0.186
-285.559	-89.686	-0.094	-0.028
-284.545	-200.000	0.024	0.143
-283.530	208.278	0.098	-0.153
-282.516	-200.000	-0.008	-0.076
-281.501	-13.428	0.100	-0.065
-280.486	-121.995	0.276	0.046
-279.472	-121.214	0.246	0.041
-278.457	-121.041	0.187	-0.032
-277.443	-14.470	-0.280	-0.181
-276.428	-71.145	-0.427	-0.161
-275.413	-200.000	0.028	-0.247
-274.399	-60.580	0.306	-0.130
-273.384	413.061	0.133	0.284
-272.370	43.856	0.234	-0.215
-271.355	25.944	-0.234	-0.196
-270.340	322.318	0.174	-0.333
-269.326	800.000	-0.142	-0.437
-268.311	47.905	0.252	0.236
-267.297	384.368	-0.169	0.349
-266.282	357.890	-0.025	0.050
-265.267	-200.000	-0.039	-0.205
-264.253	-116.762	0.058	0.011
-263.238	-32.354	-0.280	-0.157
-262.224	-200.000	0.035	0.231
-261.209	304.675	-0.127	0.236
-260.195	-27.000	0.091	0.053
-259.180	800.000	-0.092	0.395
-258.165	-60.129	-0.052	-0.022
-257.151	475.010	-0.066	0.150
-256.136	373.461	-0.124	0.252
-255.122	333.958	0.067	0.131
-254.107	8.982	-0.282	-0.213
-253.092	-177.327	-0.192	0.005
-252.078	800.000	-0.066	-0.243
-251.063	-118.725	0.375	0.066
-250.049	315.797	0.132	0.250
-249.034	50.097	-0.241	0.228
-248.019	156.873	0.120	-0.166
-247.005	-85.074	-0.060	0.019
-245.990	719.632	0.076	-0.202
-244.976	-200.000	0.014	-0.131
-243.961	-200.000	-0.002	-0.056
-242.946	49.322	-0.334	0.315
-241.932	-200.000	0.006	-0.123
-240.917	-200.000	-0.037	-0.335
-239.903	-138.471	0.312	-0.034
-238.888	-50.285	0.228	-0.108
-237.873	0.328	0.183	0.131
-236.859	344.026	0.179	0.353
-235.844	-200.000	0.056	-0.255
-234.830	145.129	-0.152	0.203
-233.815	10.463	-0.174	-0.133
-232.800	601.028	-0.069	0.172
-231.786	800.000	0.170	0.496
-230.771	-110.221	-0.244	0.051
-229.757	273.364	0.091	0.161
-228.742	-73.687	0.062	0.023
-227.727	200.829	-0.056	-0.086
-226.713	-168.124	0.652	0.025
-225.698	23.921	0.081	-0.067
-224.684	-60.278	-0.202	-0.086
-223.669	-39.209	0.067	0.035
-222.655	800.000	-0.020	-0.065
-221.640	-4.955	0.141	-0.097
-220.625	23.526	-0.214	0.176
-219.611	42.899	0.138	-0.126
-218.596	-132.400	-0.368	-0.048
-217.582	-200.000	-0.037	-0.539
-216.567	1.382	0.168	-0.121
-215.552	79.792	0.210	-0.226
-214.538	-127.913	-0.130	0.019
-213.523	420.768	0.044	0.095
-212.509	210.253	0.212	0.333
-211.494	-83.437	-0.083	0.027
-210.479	17.565	-0.144	0.115
-209.465	-149.322	0.140	0.011
-208.450	-145.546	0.105	-0.009
-207.436	556.891	-0.098	-0.237
-206.421	77.045	0.061	0.065
-205.406	800.000	-0.044	0.138
-204.392	-200.000	-0.004	0.220
-203.377	-19.762	-0.217	0.134
-202.363	-200.000	-0.034	0.151
-201.348	-63.652	-0.115	0.047
-200.333	800.000	-0.070	-0.248
-199.319	-187.992	-0.242	0.003
-198.304	-45.726	0.278	0.137
-197.290	103.502	0.116	-0.136
-196.275	800.000	0.014	0.045
-195.260	-128.686	-0.158	0.022
-194.246	59.620	0.169	0.167
-193.231	800.000	0.046	-0.177
-192.217	10.002	-0.006	-0.005
-191.202	-162.483	-0.408	0.020
-190.187	5.463	0.157	-0.116
-189.173	-177.232	-0.269	0.007
-188.158	235.291	0.135	0.223
-187.144	-94.190	0.222	-0.061
-186.129	577.979	0.101	0.248
-185.114	51.249	0.219	-0.208
-184.100	-189.235	-0.290	0.003
-183.085	-122.059	-0.057	0.009
-182.071	-200.000	-0.006	-0.094
-181.056	52.157	0.281	0.268
-180.042	31.862	0.144	-0.124
-179.027	113.342	-0.158	0.191
-178.012	-49.900	0.142	0.067
-176.998	-163.028	0.300	-0.015
-175.983	460.033	-0.075	0.168
-174.969	-127.115	-0.392	0.057
-173.954	-171.082	-0.189	0.006
-172.939	191.863	0.073	-0.110
-171.925	126.753	0.283	-0.359
-170.910	800.000	0.034	0.132
-169.896	-200.000	0.008	0.142
-168.881	-200.000	-0.030	0.198
-167.866	25.288	-0.308	0.256
-166.852	262.506	0.073	0.127
-165.837	-200.000	0.463	0.001
-164.823	76.480	0.066	-0.070
-163.808	37.816	0.159	-0.141
-162.793	-160.842	0.123	-0.007
-161.779	-89.554	0.180	0.053
-160.764	-144.994	-0.260	-0.024
-159.750	182.177	-0.059	-0.087
-158.735	-114.675	0.088	0.017
-157.720	-49.223	0.268	0.128
-156.706	539.610	0.033	0.079
-155.691	42.821	-0.105	0.096
-154.677	-65.774	-0.082	0.033
-153.662	148.766	-0.096	0.129
-152.647	449.197	-0.112	-0.246
-151.633	-22.513	0.128	-0.078
-150.618	194.455	0.122	-0.184
-149.604	208.232	0.181	0.282
-148.589	92.906	0.040	0.045
-147.574	146.152	0.310	-0.416
-146.560	-104.202	0.400	0.093
-145.545	348.308	0.077	0.152
-144.531	192.942	-0.193	0.291
-143.516	147.443	0.166	-0.223
-142.502	116.508	-0.106	0.130
-141.487	-77.968	0.061	-0.021
-140.472	222.875	-0.080	-0.129
-139.458	241.211	-0.102	-0.170
-138.443	-121.709	-0.032	-0.005
-137.429	-114.055	-0.025	-0.005
-136.414	-200.000	0.005	0.092
-135.399	382.811	-0.067	-0.138
-134.385	800.000	0.104	0.374
-133.370	-25.206	-0.219	-0.129
-132.356	26.062	0.053	-0.044
-131.341	-4.128	-0.323	-0.223
-130.326	308.312	0.070	-0.130
-129.312	-200.000	0.034	0.160
-128.297	77.051	-0.120	0.127
-127.283	332.138	0.131	0.252
-126.268	720.846	-0.017	0.045
-125.253	31.853	-0.114	0.098
-124.239	122.969	0.094	0.117
-123.224	-66.070	0.154	-0.061
-122.210	195.279	0.132	-0.200
-121.195	-200.000	0.014	0.139
-120.180	-52.919	0.275	-0.126
