DTS Sentinel unit serial number:	SN413079Multiplexer serial number:	ORYXHardware model number:	OX4-SRSoftware version number:	ORYX F/W v4.00 Oryx Data Collector v3.7.2.0data status	okinstallation	princeton_trtdifferential loss correction	single-endedforward channel	channel 3reverse channel	N/Adate	2019/09/14time	05:20:34forward acquisition time	60.00reverse acquisition time	0.00gamma	496.2192k internal	0.2337k external	0.2337temperature offset calibration	1.0055default loss term (dB/km)	0.3790temperature slope calibration	1.0000multiplexer offset coefficient	1.0000multiplexer slope coefficient	1.0000fibre end	0.00T internal ref (°C)	26.94T ext. ref 1 (°C)	3.39T ext. ref 2 (°C)	21.94length (m)	temperature (°C)	Stokes	anti-Stokes-747.200	270.419	-0.087	0.154
-746.185	140.465	-0.136	0.180
-745.171	-177.340	0.106	-0.003
-744.156	306.736	0.035	0.065
-743.142	18.849	0.208	0.167
-742.127	-100.762	0.173	0.043
-741.112	308.374	0.113	0.211
-740.098	-84.726	-0.153	0.048
-739.083	76.161	-0.297	0.316
-738.069	-53.500	-0.350	0.161
-737.054	249.009	-0.107	0.182
-736.039	122.032	-0.299	0.375
-735.025	-126.297	-0.153	0.023
-734.010	-63.971	-0.550	-0.226
-732.996	800.000	0.101	-0.385
-731.981	800.000	0.041	0.138
-730.966	134.831	0.133	-0.173
-729.952	-74.640	-0.305	-0.110
-728.937	195.797	0.069	0.105
-727.923	800.000	-0.062	0.212
-726.908	-200.000	0.000	-0.150
-725.894	-2.770	-0.212	-0.149
-724.879	-64.542	0.028	-0.011
-723.864	76.683	-0.184	0.196
-722.850	-4.665	0.176	-0.122
-721.835	-19.957	0.481	0.298
-720.821	47.871	0.071	-0.067
-719.806	-67.946	0.147	-0.057
-718.791	442.493	0.025	-0.056
-717.777	459.071	-0.120	-0.267
-716.762	130.885	-0.195	-0.251
-715.748	-200.000	-0.006	0.051
-714.733	129.453	-0.119	0.153
-713.718	276.192	0.068	-0.121
-712.704	-200.000	0.067	0.432
-711.689	138.279	0.092	-0.120
-710.675	502.902	0.041	0.095
-709.660	-148.591	-0.131	0.011
-708.645	800.000	0.039	0.144
-707.631	-170.895	-0.170	0.006
-706.616	-200.000	-0.045	-0.216
-705.602	3.165	0.187	-0.137
-704.587	55.223	-0.097	-0.094
-703.572	360.828	-0.047	0.095
-702.558	17.717	0.160	-0.128
-701.543	-66.570	0.225	0.090
-700.529	-200.000	0.075	-0.338
-699.514	-45.539	0.301	-0.150
-698.499	-168.986	-0.135	0.005
-697.485	122.390	-0.155	0.194
-696.470	-141.355	0.042	-0.004
-695.456	627.128	-0.026	-0.066
-694.441	800.000	-0.031	-0.102
-693.426	497.753	-0.030	-0.070
-692.412	-79.956	0.133	0.045
-691.397	800.000	-0.083	-0.255
-690.383	-200.000	-0.009	-0.183
-689.368	-200.000	-0.023	0.126
-688.354	-123.208	0.383	-0.061
-687.339	-72.397	-0.155	0.058
-686.324	-57.903	-0.124	0.054
-685.310	136.868	0.070	-0.092
-684.295	-200.000	-0.034	-0.254
-683.281	-200.000	-0.001	-0.230
-682.266	50.614	0.167	0.158
-681.251	-34.318	0.185	0.102
-680.237	-23.749	-0.138	0.083
-679.222	-188.073	-0.077	-0.001
-678.208	83.671	0.028	0.030
-677.193	-29.966	-0.090	0.051
-676.178	-84.324	0.230	0.073
-675.164	380.984	-0.067	0.137
-674.149	-200.000	-0.000	0.121
-673.135	-175.979	0.075	0.002
-672.120	-150.139	-0.236	-0.018
-671.105	-183.361	0.037	0.001
-670.091	-200.000	-0.006	-0.228
-669.076	800.000	-0.040	-0.158
-668.062	-105.508	0.156	-0.036
-667.047	800.000	0.113	0.344
-666.032	-167.834	-0.121	0.005
-665.018	190.928	-0.041	0.062
-664.003	-200.000	0.015	-0.105
-662.989	-144.217	-0.166	0.015
-661.974	7.196	0.107	-0.080
-660.959	1.598	-0.124	-0.090
-659.945	24.311	-0.307	-0.254
-658.930	-151.998	-0.188	0.014
-657.916	-39.101	0.197	0.103
-656.901	-38.442	-0.293	0.155
-655.886	136.913	0.179	-0.234
-654.872	360.314	0.167	0.335
-653.857	9.938	-0.094	-0.072
-652.843	-200.000	-0.005	-0.071
-651.828	-19.890	-0.080	0.050
-650.814	13.841	0.112	-0.087
-649.799	-87.759	-0.294	0.089
-648.784	-48.273	0.111	0.054
-647.770	554.820	0.071	-0.170
-646.755	91.615	0.106	-0.119
-645.741	-125.848	0.141	0.021
-644.726	-10.440	-0.214	-0.142
-643.711	-200.000	0.039	-0.198
-642.697	-103.760	0.230	-0.054
-641.682	10.074	-0.224	-0.170
-640.668	123.106	-0.137	-0.172
-639.653	12.761	-0.350	-0.270
-638.638	-90.196	-0.218	-0.063
-637.624	-160.450	0.063	-0.003
-636.609	-29.044	0.361	-0.207
-635.595	68.435	0.109	0.111
-634.580	78.656	-0.178	0.190
-633.565	161.647	-0.049	0.068
-632.551	79.469	0.085	0.091
-631.536	-62.033	0.164	0.069
-630.522	73.791	-0.023	0.024
-629.507	-142.357	0.238	0.023
-628.492	-200.000	-0.016	0.172
-627.478	-88.360	-0.021	-0.006
-626.463	147.700	0.079	-0.107
-625.449	256.491	0.184	-0.316
-624.434	800.000	-0.079	-0.252
-623.419	171.409	0.175	0.251
-622.405	382.065	-0.225	0.463
-621.390	16.052	-0.018	0.014
-620.376	-68.303	-0.216	-0.084
-619.361	-11.087	0.178	0.117
-618.346	-200.000	0.044	0.283
-617.332	-200.000	-0.017	-0.081
-616.317	156.025	-0.116	0.160
-615.303	-200.000	0.071	0.498
-614.288	-47.164	-0.101	-0.049
-613.273	2.905	-0.151	-0.109
-612.259	-70.907	0.139	-0.052
-611.244	564.969	-0.059	0.144
-610.230	66.271	-0.194	-0.197
-609.215	-111.883	-0.278	0.056
-608.201	-200.000	0.003	0.113
-607.186	40.207	-0.026	0.023
-606.171	31.942	-0.274	0.236
-605.157	790.481	-0.100	-0.275
-604.142	340.878	-0.078	-0.151
-603.128	565.379	0.029	0.070
-602.113	761.490	0.109	0.296
-601.098	800.000	-0.120	-0.469
-600.084	256.912	-0.073	0.125
-599.069	-200.000	0.017	0.256
-598.055	124.323	-0.100	0.126
-597.040	-21.272	0.182	-0.111
-596.025	-200.000	0.007	-0.048
-595.011	348.446	-0.130	0.256
-593.996	148.904	0.029	-0.039
-592.982	800.000	0.035	-0.139
-591.967	515.212	0.074	0.173
-590.952	147.685	-0.205	-0.275
-589.938	274.176	0.067	-0.118
-588.923	449.790	0.067	0.148
-587.909	-106.814	0.047	-0.010
-586.894	28.980	-0.130	-0.110
-585.879	-53.876	0.209	0.095
-584.865	-200.000	0.032	-0.155
-583.850	126.542	-0.098	-0.124
-582.836	-200.000	0.002	0.201
-581.821	-142.398	0.388	0.038
-580.806	-71.879	-0.230	-0.086
-579.792	-200.000	0.007	0.093
-578.777	-200.000	0.012	0.054
-577.763	95.997	0.008	-0.009
-576.748	-121.540	-0.191	-0.032
-575.733	800.000	-0.067	-0.225
-574.719	0.677	-0.069	-0.049
-573.704	251.147	-0.124	-0.209
-572.690	-13.492	0.196	0.127
-571.675	-14.149	-0.196	0.126
-570.661	-33.665	0.144	0.079
-569.646	26.835	-0.417	0.349
-568.631	-90.014	0.230	-0.067
-567.617	-134.471	0.248	-0.030
-566.602	-4.324	-0.117	-0.080
-565.588	32.802	0.291	-0.251
-564.573	73.863	-0.140	-0.146
-563.558	-200.000	-0.016	-0.169
-562.544	-200.000	-0.007	-0.411
-561.529	-200.000	0.025	-0.448
-560.515	-200.000	0.005	0.396
-559.500	-27.119	0.138	0.080
-558.485	73.287	-0.257	-0.268
-557.471	-200.000	0.026	-0.211
-556.456	51.083	-0.117	-0.110
-555.442	1.316	0.095	0.068
-554.427	-62.519	-0.094	0.039
-553.412	-41.588	0.147	-0.075
-552.398	200.143	-0.171	-0.261
-551.383	-85.432	-0.136	-0.042
-550.369	-173.285	0.289	0.009
-549.354	-105.392	-0.239	-0.054
-548.339	-81.180	-0.173	-0.057
-547.325	-65.660	0.192	-0.077
-546.310	352.051	0.045	0.088
-545.296	-58.666	0.075	-0.032
-544.281	-125.336	0.111	0.017
-543.266	137.388	-0.119	0.155
-542.252	-37.601	-0.198	0.105
-541.237	-86.741	0.223	-0.068
-540.223	45.842	0.047	0.043
-539.208	-174.118	-0.059	-0.002
-538.193	110.957	0.155	-0.186
-537.179	235.989	-0.164	-0.270
-536.164	530.359	-0.128	-0.300
-535.150	-0.699	-0.108	-0.076
-534.135	205.113	-0.214	-0.331
-533.121	162.925	0.109	-0.152
-532.106	8.166	-0.231	-0.173
-531.091	-76.932	-0.316	-0.110
-530.077	-31.743	0.306	0.171
-529.062	-200.000	-0.013	-0.164
-528.048	-200.000	0.000	-0.395
-527.033	-14.220	0.377	0.242
-526.018	91.270	-0.086	-0.096
-525.004	591.550	-0.061	-0.150
-523.989	509.282	-0.047	-0.108
-522.975	-200.000	-0.065	-0.304
-521.960	38.880	0.159	-0.142
-520.945	56.164	0.224	0.216
-519.931	-200.000	-0.063	0.318
-518.916	58.646	0.090	0.088
-517.902	346.627	0.178	-0.348
-516.887	392.710	-0.083	-0.172
-515.872	800.000	-0.090	-0.249
-514.858	-59.230	0.119	-0.051
-513.843	-18.077	0.105	0.065
-512.829	26.684	-0.261	-0.218
-511.814	-200.000	0.003	-0.483
-510.799	-116.451	-0.194	-0.036
-509.785	-94.835	-0.024	0.007
-508.770	-108.300	-0.279	-0.060
-507.756	800.000	-0.021	0.073
-506.741	-99.023	-0.146	0.037
-505.726	54.604	0.119	0.114
-504.712	-200.000	0.014	0.164
-503.697	25.951	-0.069	-0.057
-502.683	18.310	-0.293	-0.232
-501.668	244.959	0.163	0.272
-500.653	800.000	0.043	0.119
-499.639	12.374	-0.154	0.118
-498.624	9.167	-0.184	0.138
-497.610	29.001	-0.091	0.077
-496.595	271.805	-0.099	-0.174
-495.581	105.263	0.061	0.071
-494.566	-200.000	-0.016	0.159
-493.551	-150.323	-0.227	0.017
-492.537	-200.000	-0.028	0.233
-491.522	-200.000	-0.001	0.056
-490.508	195.817	-0.091	-0.137
-489.493	-100.454	-0.304	-0.075
-488.478	-200.000	0.024	0.214
-487.464	68.980	0.250	-0.255
-486.449	-200.000	0.062	-0.290
-485.435	-149.381	0.142	-0.011
-484.420	396.303	-0.152	-0.315
-483.405	130.255	0.130	0.166
-482.391	-200.000	-0.029	0.129
-481.376	-113.116	-0.074	0.014
-480.362	16.731	-0.056	-0.044
-479.347	800.000	0.068	-0.209
-478.332	-97.755	0.444	0.114
-477.318	-45.839	0.241	-0.118
-476.303	524.888	-0.064	-0.150
-475.289	83.063	0.089	-0.097
-474.274	-74.938	0.052	0.019
-473.259	-27.103	-0.064	-0.037
-472.245	800.000	-0.049	0.170
-471.230	-163.583	-0.309	-0.015
-470.216	-58.353	-0.207	0.089
-469.201	800.000	-0.044	-0.130
-468.186	-68.277	-0.296	0.114
-467.172	24.288	0.140	0.115
-466.157	33.908	0.219	-0.190
-465.143	56.451	0.030	0.029
-464.128	-200.000	0.021	-0.322
-463.113	126.589	-0.151	0.190
-462.099	-200.000	0.042	-0.188
-461.084	71.067	-0.147	-0.151
-460.070	-142.812	-0.359	-0.035
-459.055	-7.353	-0.113	-0.076
-458.040	5.635	0.403	0.296
-457.026	5.820	0.323	0.237
-456.011	-180.639	-0.296	-0.006
-454.997	-89.720	0.364	0.106
-453.982	800.000	0.099	-0.351
-452.968	121.247	-0.458	0.567
-451.953	218.027	0.228	0.360
-450.938	-98.240	0.182	0.046
-449.924	298.508	-0.020	-0.036
-448.909	-200.000	-0.034	0.172
-447.895	-200.000	0.062	-0.365
-446.880	530.686	-0.103	0.241
-445.865	502.387	0.078	-0.179
-444.851	-36.709	0.108	0.058
-443.836	-111.979	0.052	-0.010
-442.822	85.034	-0.082	-0.090
-441.807	52.458	0.203	-0.192
-440.792	402.678	-0.171	0.357
-439.778	-107.404	-0.263	-0.057
-438.763	-55.941	-0.131	-0.058
-437.749	-64.374	0.282	-0.114
-436.734	130.263	-0.206	0.261
-435.719	446.163	0.063	0.138
-434.705	800.000	-0.092	-0.259
-433.690	188.236	0.180	0.268
-432.676	-11.396	0.315	0.205
-431.661	-200.000	-0.037	-0.231
-430.646	-63.606	0.093	0.038
-429.632	110.824	-0.012	0.014
-428.617	-200.000	-0.016	-0.222
-427.603	-49.945	-0.370	-0.174
-426.588	234.758	-0.127	0.208
-425.573	800.000	0.065	-0.250
-424.559	-200.000	-0.010	0.130
-423.544	503.561	-0.056	0.128
-422.530	-183.672	-0.072	0.001
-421.515	-17.834	-0.085	0.053
-420.500	618.718	-0.153	0.381
-419.486	138.511	-0.030	-0.040
-418.471	-200.000	0.004	0.091
-417.457	-155.701	0.046	-0.003
-416.442	-9.662	-0.141	-0.093
-415.428	-142.749	0.169	0.016
-414.413	-192.311	-0.044	-0.000
-413.398	-162.971	0.297	0.014
-412.384	-1.631	0.338	-0.236
-411.369	16.669	0.142	0.112
-410.355	454.454	0.253	0.555
-409.340	800.000	0.121	0.373
-408.325	800.000	0.050	-0.186
-407.311	-200.000	-0.041	-0.341
-406.296	-12.722	0.291	-0.188
-405.282	226.972	-0.255	-0.410
-404.267	800.000	-0.057	0.194
-403.252	-200.000	-0.385	0.001
-402.238	622.577	0.128	-0.319
-401.223	624.874	-0.095	0.239
-400.209	-163.079	-0.153	0.007
-399.194	-172.746	-0.246	0.008
-398.179	108.221	-0.082	-0.097
-397.165	-34.123	0.285	-0.155
-396.150	-200.000	-0.030	0.361
-395.136	87.941	-0.138	0.152
-394.121	60.112	0.248	-0.243
-393.106	-197.174	-0.313	0.002
-392.092	43.135	-0.107	0.097
-391.077	12.764	0.281	0.215
-390.063	-200.000	-0.021	-0.351
-389.048	800.000	0.083	0.358
-388.033	44.793	-0.082	-0.075
-387.019	-77.974	0.223	0.076
-386.004	772.720	0.113	-0.304
-384.990	5.339	-0.348	-0.254
-383.975	-56.211	-0.214	-0.094
-382.960	582.425	-0.038	-0.091
-381.946	177.158	0.343	0.495
-380.931	22.171	0.185	0.150
-379.917	610.840	-0.066	-0.163
-378.902	15.937	0.334	-0.260
-377.888	30.227	0.091	-0.077
-376.873	219.624	0.109	-0.173
-375.858	270.928	-0.061	-0.106
-374.844	-136.477	-0.200	-0.023
-373.829	-70.999	0.182	0.068
-372.815	800.000	-0.134	0.373
-371.800	-142.154	-0.151	0.015
-370.785	133.075	0.188	0.241
-369.771	-46.816	-0.239	0.116
-368.756	-147.209	0.045	-0.004
-367.742	156.209	0.060	-0.082
-366.727	-77.969	0.229	-0.078
-365.712	-153.209	0.268	0.019
-364.698	651.086	0.146	0.371
-363.683	-80.594	0.197	-0.065
-362.669	800.000	0.058	-0.199
-361.654	800.000	-0.062	-0.231
-360.639	595.107	-0.071	0.174
-359.625	-65.651	-0.465	0.184
-358.610	178.079	0.075	-0.108
-357.596	3.242	0.085	0.061
-356.581	-31.763	0.118	-0.066
-355.566	-200.000	-0.010	-0.204
-354.552	-200.000	-0.057	-0.247
-353.537	-68.622	0.069	0.027
-352.523	-118.026	-0.150	0.026
-351.508	800.000	0.149	-0.466
-350.493	-200.000	0.161	0.001
-349.479	800.000	0.019	-0.080
-348.464	-80.710	0.106	0.035
-347.450	-87.701	0.293	0.088
-346.435	800.000	-0.127	0.352
-345.420	-106.530	0.153	-0.034
-344.406	-74.169	0.164	0.059
-343.391	31.942	-0.226	-0.192
-342.377	10.010	-0.204	-0.153
-341.362	-135.945	0.140	0.016
-340.348	229.267	-0.148	0.239
-339.333	-132.258	0.170	0.022
-338.318	-20.638	0.206	-0.125
-337.304	-60.926	-0.073	-0.031
-336.289	-43.098	0.153	0.077
-335.275	523.915	0.081	-0.188
-334.260	-99.446	-0.279	0.069
-333.245	-200.000	0.007	0.109
-332.231	-200.000	-0.010	0.128
-331.216	-41.063	-0.352	-0.179
-330.202	-90.372	-0.162	0.046
-329.187	-200.000	0.041	0.311
-328.172	-135.821	-0.060	0.007
-327.158	-200.000	0.003	0.033
-326.143	-146.121	0.304	0.026
-325.129	35.337	0.116	0.101
-324.114	-140.260	0.215	-0.022
-323.099	28.075	-0.137	0.114
-322.085	175.579	-0.102	-0.146
-321.070	0.371	-0.068	0.048
-320.056	-26.277	0.438	0.254
-319.041	-132.011	0.152	0.020
-318.026	53.893	0.228	0.216
-317.012	800.000	-0.011	0.038
-315.997	292.270	-0.074	0.133
-314.983	2.526	0.258	-0.184
-313.968	-200.000	-0.023	0.134
-312.953	-200.000	0.022	-0.122
-311.939	-200.000	-0.057	-0.294
-310.924	337.183	0.063	0.121
-309.910	108.821	-0.136	0.160
-308.895	-200.000	-0.035	0.190
-307.880	188.226	0.115	0.170
-306.866	19.326	0.102	0.081
-305.851	212.466	0.075	0.118
-304.837	-83.340	0.026	-0.008
-303.822	-168.349	0.280	-0.011
-302.807	263.977	0.112	0.193
-301.793	-143.080	-0.321	0.031
-300.778	-200.000	0.024	-0.228
-299.764	800.000	0.139	0.378
-298.749	-28.457	0.186	-0.106
-297.735	-200.000	0.029	-0.184
-296.720	-200.000	0.021	-0.295
-295.705	180.680	-0.165	0.239
-294.691	82.139	0.170	-0.182
-293.676	-10.513	-0.315	0.206
-292.662	800.000	-0.053	0.218
-291.647	-200.000	-0.075	0.353
-290.632	488.244	0.088	0.197
-289.618	-38.339	-0.033	0.017
-288.603	128.380	0.100	0.125
-287.589	230.436	0.100	0.161
-286.574	269.209	0.087	-0.151
-285.559	-200.000	0.015	0.151
-284.545	-3.765	0.151	-0.103
-283.530	-200.000	-0.062	-0.301
-282.516	-97.545	0.097	0.025
-281.501	166.549	0.169	0.236
-280.486	-200.000	0.037	-0.183
-279.472	-107.452	0.104	0.022
-278.457	194.193	0.191	0.286
-277.443	5.139	0.070	-0.051
-276.428	483.279	-0.020	0.045
-275.413	-20.332	-0.205	-0.125
-274.399	442.406	0.041	-0.088
-273.384	68.509	-0.177	-0.179
-272.370	-101.307	-0.330	-0.079
-271.355	146.864	0.182	-0.241
-270.340	800.000	0.044	0.177
-269.326	141.485	-0.114	0.148
-268.311	-156.763	0.456	-0.028
-267.297	-123.863	-0.340	0.053
-266.282	-200.000	0.054	0.250
-265.267	-31.224	0.181	0.100
-264.253	-96.943	-0.108	-0.028
-263.238	-200.000	-0.085	0.488
-262.224	498.264	0.121	-0.275
-261.209	141.759	-0.144	0.189
-260.195	84.254	-0.095	0.102
-259.180	178.504	0.160	0.231
-258.165	-200.000	-0.010	0.218
-257.151	-200.000	-0.003	0.055
-256.136	-200.000	-0.001	0.254
-255.122	-200.000	0.030	-0.348
-254.107	17.910	-0.176	0.138
-253.092	-84.717	0.246	0.076
-252.078	-47.611	0.029	0.014
-251.063	68.393	-0.156	-0.157
-250.049	-95.001	-0.107	0.029
-249.034	124.803	0.318	0.394
-248.019	-63.582	0.168	-0.068
-247.005	-200.000	0.032	-0.172
-245.990	172.772	-0.126	0.178
-244.976	-200.000	-0.004	0.377
-243.961	448.589	-0.073	0.159
-242.946	-152.855	0.225	-0.016
-241.932	-56.652	0.116	-0.051
-240.917	-47.732	-0.170	0.081
-239.903	-200.000	-0.024	0.165
-238.888	110.082	0.137	-0.162
-237.873	-13.747	0.109	-0.069
-236.859	231.518	-0.071	-0.115
-235.844	142.574	0.196	-0.257
-234.830	246.362	0.049	-0.082
-233.815	65.021	-0.118	0.118
-232.800	-159.252	-0.195	-0.011
-231.786	-168.396	-0.252	0.010
-230.771	152.774	-0.084	0.112
-229.757	-200.000	-0.008	-0.054
-228.742	800.000	0.049	0.136
-227.727	-100.787	-0.159	0.038
-226.713	-76.870	-0.221	-0.076
-225.698	-200.000	0.031	0.161
-224.684	-200.000	0.043	0.224
-223.669	-172.472	0.324	0.010
-222.655	-200.000	-0.048	-0.289
-221.640	-200.000	0.069	-0.310
-220.625	-79.269	-0.243	0.081
-219.611	396.141	0.098	0.200
-218.596	-24.254	0.014	-0.008
-217.582	25.543	-0.086	0.071
-216.567	180.819	0.101	-0.146
-215.552	-50.532	0.277	-0.129
-214.538	-73.935	-0.186	-0.067
-213.523	57.358	0.066	0.064
-212.509	800.000	0.049	-0.181
-211.494	-200.000	0.013	-0.153
-210.479	-79.027	-0.111	0.037
-209.465	-125.327	0.200	0.030
-208.450	-90.139	0.179	-0.051
-207.436	-200.000	-0.054	0.241
-206.421	800.000	0.030	-0.091
-205.406	257.868	-0.053	0.089
-204.392	-200.000	-0.021	0.150
-203.377	-24.403	-0.077	-0.045
-202.363	800.000	0.108	-0.437
-201.348	-1.953	0.149	0.103
-200.333	800.000	-0.027	0.077
-199.319	-17.817	0.062	0.038
-198.304	759.417	0.065	-0.173
-197.290	-57.264	-0.250	0.108
-196.275	-33.143	0.164	0.089
-195.260	-200.000	-0.010	0.189
-194.246	-2.928	-0.144	-0.099
-193.231	-200.000	0.041	0.185
-192.217	-76.500	0.020	-0.007
-191.202	-113.648	0.134	0.026
-190.187	800.000	-0.015	-0.062
-189.173	-200.000	0.024	-0.191
-188.158	-183.566	-0.260	-0.004
-187.144	143.971	-0.081	0.105
-186.129	258.562	-0.160	-0.271
-185.114	-141.860	-0.239	0.023
-184.100	-172.287	0.466	-0.015
-183.085	-173.286	-0.289	0.009
-182.071	138.332	-0.102	0.131
-181.056	-41.824	-0.233	-0.117
-180.042	381.785	0.114	0.231
-179.027	800.000	-0.081	0.224
-178.012	-65.974	-0.170	-0.067
-176.998	-127.516	0.245	0.035
-175.983	61.673	-0.048	-0.047
-174.969	-84.945	-0.280	0.086
-173.954	106.491	0.028	-0.032
-172.939	557.704	0.131	0.310
-171.925	-75.132	0.257	-0.090
-170.910	176.818	-0.025	-0.036
-169.896	-15.517	0.223	0.140
-168.881	-133.279	-0.439	-0.054
-167.866	-98.121	0.212	-0.053
-166.852	-200.000	-0.021	-0.176
-165.837	204.950	0.032	-0.049
-164.823	206.556	0.040	-0.061
-163.808	22.346	-0.240	-0.192
-162.793	-49.329	-0.386	0.181
-161.779	-116.506	-0.230	0.042
-160.764	222.981	-0.234	-0.369
-159.750	176.851	0.091	0.130
-158.735	41.492	-0.104	0.093
-157.720	-200.000	0.009	-0.143
-156.706	355.281	-0.085	0.166
-155.691	-200.000	-0.036	-0.191
-154.677	-76.148	0.146	-0.051
-153.662	-55.798	0.137	-0.060
-152.647	594.104	0.047	0.113
-151.633	800.000	0.057	0.242
-150.618	155.789	0.066	0.089
-149.604	268.760	0.253	0.435
-148.589	-200.000	-0.027	0.277
-147.574	-97.572	0.230	-0.059
-146.560	800.000	-0.016	-0.052
-145.545	800.000	-0.095	0.284
-144.531	405.034	-0.044	-0.091
-143.516	-200.000	-0.040	0.177
-142.502	265.964	0.142	-0.243
-141.487	-200.000	-0.075	-0.439
-140.472	-200.000	0.072	-0.425
-139.458	375.977	0.244	-0.489
-138.443	290.467	-0.180	-0.321
-137.429	800.000	-0.036	-0.139
-136.414	-200.000	0.022	0.110
-135.399	220.742	-0.162	0.255
-134.385	-200.000	0.031	-0.337
-133.370	-71.919	-0.132	-0.048
-132.356	-84.133	0.134	0.042
-131.341	285.947	-0.085	-0.149
-130.326	-200.000	0.003	0.306
-129.312	48.726	-0.062	0.057
-128.297	-186.028	0.255	-0.004
-127.283	-39.965	-0.133	-0.068
-126.268	441.751	-0.128	-0.274
-125.253	-200.000	0.003	0.064
-124.239	-200.000	-0.058	0.283
-123.224	-109.680	0.230	0.047
-122.210	-88.278	0.314	0.092
-121.195	116.968	-0.197	-0.237
