DTS Sentinel unit serial number:	SN413079Multiplexer serial number:	ORYXHardware model number:	OX4-SRSoftware version number:	ORYX F/W v4.00 Oryx Data Collector v3.7.2.0data status	okinstallation	princeton_trtdifferential loss correction	single-endedforward channel	channel 3reverse channel	N/Adate	2019/09/17time	12:36:35forward acquisition time	60.00reverse acquisition time	0.00gamma	496.2192k internal	0.2317k external	0.2317temperature offset calibration	0.9962default loss term (dB/km)	0.3790temperature slope calibration	1.0000multiplexer offset coefficient	1.0000multiplexer slope coefficient	1.0000fibre end	0.00T internal ref (°C)	32.19T ext. ref 1 (°C)	0.42T ext. ref 2 (°C)	29.78length (m)	temperature (°C)	Stokes	anti-Stokes-747.200	12.815	0.039	-0.031
-746.185	371.044	-0.199	0.409
-745.171	-6.604	0.266	0.183
-744.156	54.356	-0.415	0.405
-743.142	103.969	-0.154	-0.183
-742.127	-101.846	-0.336	-0.082
-741.112	-153.797	0.503	-0.035
-740.098	305.528	-0.139	0.261
-739.083	628.896	0.070	0.179
-738.069	800.000	0.138	0.434
-737.054	-200.000	0.019	0.103
-736.039	800.000	0.025	-0.089
-735.025	537.410	0.064	0.154
-734.010	-17.064	-0.200	-0.128
-732.996	96.616	0.262	-0.303
-731.981	37.071	-0.186	-0.167
-730.966	-153.821	0.098	0.007
-729.952	109.835	0.063	-0.077
-728.937	-15.796	0.287	-0.185
-727.923	800.000	0.028	-0.119
-726.908	469.926	-0.117	-0.266
-725.894	-145.111	-0.258	-0.024
-724.879	-136.040	0.130	-0.015
-723.864	-74.519	-0.169	-0.062
-722.850	144.958	-0.176	0.238
-721.835	-84.375	-0.237	-0.076
-720.821	-30.103	-0.159	0.091
-719.806	-200.000	0.082	-0.397
-718.791	62.137	-0.066	-0.066
-717.777	-68.531	0.190	-0.074
-716.762	-68.469	0.111	-0.044
-715.748	-147.236	-0.188	-0.016
-714.733	-100.351	-0.201	-0.050
-713.718	213.109	-0.060	-0.095
-712.704	-84.594	-0.128	-0.041
-711.689	60.688	0.134	0.135
-710.675	-31.107	0.124	0.071
-709.660	-200.000	-0.045	-0.217
-708.645	133.332	0.127	-0.166
-707.631	75.600	-0.122	-0.131
-706.616	44.828	-0.051	-0.048
-705.602	-119.658	0.320	-0.056
-704.587	-152.958	-0.063	-0.004
-703.572	134.657	0.153	0.200
-702.558	367.719	0.097	-0.199
-701.543	-89.221	0.169	0.050
-700.529	-5.510	-0.084	0.059
-699.514	-25.252	-0.042	0.025
-698.499	-117.249	-0.265	-0.049
-697.485	-200.000	0.035	0.205
-696.470	4.103	-0.095	-0.070
-695.456	198.273	-0.204	-0.315
-694.441	-2.479	0.273	0.193
-693.426	174.069	0.160	-0.233
-692.412	800.000	0.059	-0.195
-691.397	-200.000	0.017	0.218
-690.383	-112.801	-0.160	0.032
-689.368	26.677	-0.070	-0.059
-688.354	-51.122	-0.154	-0.073
-687.339	381.050	0.061	0.125
-686.324	-139.227	0.246	0.027
-685.310	-30.767	-0.160	-0.091
-684.295	31.648	-0.266	0.231
-683.281	-80.450	-0.312	0.105
-682.266	-200.000	-0.022	0.271
-681.251	-117.266	-0.201	-0.037
-680.237	800.000	-0.078	-0.313
-679.222	-200.000	0.021	0.135
-678.208	-48.486	-0.329	-0.160
-677.193	42.635	0.210	-0.193
-676.178	-200.000	-0.062	0.418
-675.164	187.148	-0.113	0.170
-674.149	52.931	-0.228	0.221
-673.135	-200.000	0.019	0.099
-672.120	-200.000	0.000	-0.217
-671.105	211.999	0.247	-0.393
-670.091	-200.000	-0.062	0.287
-669.076	-75.465	0.200	-0.072
-668.062	15.111	-0.042	0.033
-667.047	-200.000	0.013	-0.195
-666.032	-80.535	0.202	0.068
-665.018	-134.070	0.401	0.050
-664.003	-200.000	0.018	-0.085
-662.989	-83.951	-0.314	0.101
-661.974	-64.200	-0.170	0.070
-660.959	-167.280	-0.288	0.012
-659.945	-147.475	0.050	0.004
-658.930	-51.403	-0.242	-0.114
-657.916	69.162	-0.051	-0.053
-656.901	34.032	-0.125	0.110
-655.886	170.064	0.185	-0.267
-654.872	-35.290	0.204	-0.112
-653.857	-36.536	-0.082	0.044
-652.843	-7.618	-0.252	-0.172
-651.828	-32.595	0.139	-0.078
-650.814	800.000	0.067	-0.289
-649.799	180.858	-0.146	0.217
-648.784	14.048	-0.120	-0.094
-647.770	-15.248	0.272	0.175
-646.755	269.776	-0.219	0.388
-645.741	-105.282	-0.139	0.032
-644.726	-82.719	0.091	0.030
-643.711	122.161	0.148	-0.187
-642.697	-61.359	-0.333	-0.141
-641.682	-140.929	-0.360	0.037
-640.668	-69.444	-0.337	-0.130
-639.653	-200.000	0.028	-0.158
-638.638	62.798	-0.088	0.089
-637.624	800.000	0.059	-0.192
-636.609	-200.000	0.029	0.182
-635.595	-28.304	0.190	-0.111
-634.580	149.506	-0.123	-0.168
-633.565	188.165	0.215	0.323
-632.551	-71.377	-0.088	-0.033
-631.536	346.566	-0.135	-0.268
-630.522	800.000	-0.054	-0.150
-629.507	-25.356	-0.060	-0.036
-628.492	745.541	-0.165	-0.448
-627.478	98.854	0.103	-0.120
-626.463	-121.735	0.458	-0.076
-625.449	-200.000	-0.011	0.246
-624.434	-200.000	-0.003	-0.349
-623.419	-19.357	0.209	-0.130
-622.405	13.278	0.186	0.145
-621.390	-39.756	-0.126	0.066
-620.376	800.000	0.135	0.393
-619.361	32.216	0.227	-0.197
-618.346	-117.487	0.563	0.103
-617.332	-36.024	-0.300	-0.163
-616.317	-55.561	0.097	0.044
-615.303	-150.196	-0.108	0.008
-614.288	-200.000	-0.012	0.166
-613.273	800.000	-0.030	-0.100
-612.259	-167.444	0.110	-0.004
-611.244	-86.623	-0.288	0.089
-610.230	45.589	-0.249	0.232
-609.215	-200.000	-0.023	-0.110
-608.201	-120.457	0.283	0.049
-607.186	138.528	0.165	0.218
-606.171	380.294	0.132	0.273
-605.157	-181.327	-0.166	-0.003
-604.142	-48.419	0.256	0.124
-603.128	800.000	0.084	0.245
-602.113	-200.000	-0.048	0.289
-601.098	160.211	0.103	-0.145
-600.084	14.345	0.175	0.137
-599.069	176.135	-0.101	0.148
-598.055	-188.335	-0.223	0.003
-597.040	0.231	0.170	-0.122
-596.025	800.000	0.070	0.246
-595.011	4.157	-0.263	0.194
-593.996	140.024	-0.083	0.110
-592.982	-32.547	0.238	0.133
-591.967	-200.000	0.032	0.181
-590.952	-16.606	-0.108	0.069
-589.938	-200.000	0.041	-0.195
-588.923	117.946	-0.100	-0.124
-587.909	107.951	0.355	-0.426
-586.894	23.773	0.191	0.158
-585.879	-4.211	0.183	0.127
-584.865	-200.000	-0.039	-0.197
-583.850	147.697	0.051	-0.069
-582.836	787.384	0.035	0.097
-581.821	-50.554	-0.112	0.053
-580.806	-200.000	-0.004	0.062
-579.792	380.949	0.053	0.109
-578.777	23.328	0.142	0.117
-577.763	552.976	-0.147	0.355
-576.748	164.828	-0.293	0.416
-575.733	241.094	-0.130	-0.219
-574.719	-195.068	-0.372	-0.003
-573.704	-200.000	-0.011	0.072
-572.690	108.490	0.053	0.064
-571.675	462.868	-0.058	0.129
-570.661	-80.966	0.097	-0.032
-569.646	-32.697	0.249	0.139
-568.631	13.185	0.291	-0.227
-567.617	800.000	0.066	0.260
-566.602	-44.179	0.063	0.032
-565.588	-200.000	-0.040	0.246
-564.573	-33.224	-0.100	0.055
-563.558	111.874	-0.092	0.112
-562.544	-83.239	-0.276	0.089
-561.529	292.903	0.188	0.344
-560.515	-33.754	-0.024	0.013
-559.500	142.384	-0.026	0.035
-558.485	-128.670	0.277	0.039
-557.471	-143.220	0.288	-0.028
-556.456	274.084	0.099	-0.177
-555.442	-12.897	-0.240	-0.157
-554.427	175.700	-0.279	0.407
-553.412	-200.000	0.009	0.210
-552.398	120.932	0.163	0.204
-551.383	23.758	0.098	-0.081
-550.369	-147.284	-0.332	-0.028
-549.354	-86.868	0.119	0.036
-548.339	44.240	-0.223	0.206
-547.325	636.382	-0.044	0.113
-546.310	-122.460	-0.251	-0.041
-545.296	-58.036	0.245	-0.107
-544.281	-200.000	0.029	0.225
-543.266	246.039	0.203	-0.343
-542.252	-20.809	0.527	0.325
-541.237	-200.000	0.036	0.325
-540.223	-85.412	-0.248	-0.078
-539.208	-200.000	-0.024	-0.256
-538.193	-5.579	-0.247	0.170
-537.179	-59.429	-0.168	0.073
-536.164	152.543	-0.118	-0.162
-535.150	623.891	-0.018	0.046
-534.135	-200.000	-0.011	0.089
-533.121	-200.000	-0.006	0.165
-532.106	-19.203	-0.104	-0.065
-531.091	-110.331	-0.244	-0.051
-530.077	60.171	-0.132	0.132
-529.062	-66.818	0.504	0.200
-528.048	256.490	0.070	0.120
-527.033	-200.000	0.005	-0.065
-526.018	-70.227	-0.020	0.008
-525.004	407.611	0.019	-0.041
-523.989	-20.559	0.019	-0.012
-522.975	-8.913	-0.189	0.127
-521.960	-137.302	-0.060	-0.007
-520.945	-181.427	0.348	0.007
-519.931	106.661	0.054	0.064
-518.916	-81.457	-0.353	-0.117
-517.902	-17.288	0.227	-0.144
-516.887	100.475	-0.049	0.057
-515.872	-5.079	0.113	-0.078
-514.858	-200.000	-0.030	0.223
-513.843	427.446	0.132	-0.287
-512.829	-83.676	-0.119	-0.038
-511.814	-40.259	-0.249	-0.130
-510.799	800.000	-0.070	-0.202
-509.785	169.798	0.168	0.241
-508.770	-46.800	0.424	-0.208
-507.756	-92.885	0.396	-0.111
-506.741	-1.625	-0.077	-0.055
-505.726	-11.598	-0.087	0.057
-504.712	185.766	0.162	-0.242
-503.697	-139.662	0.424	-0.045
-502.683	-9.642	0.043	-0.028
-501.668	-200.000	0.010	0.070
-500.653	163.507	-0.142	-0.200
-499.639	30.091	-0.038	-0.033
-498.624	800.000	0.017	-0.069
-497.610	42.219	-0.189	0.172
-496.595	-46.424	0.129	-0.064
-495.581	-101.190	-0.362	-0.089
-494.566	-151.464	-0.215	0.016
-493.551	21.128	0.199	-0.162
-492.537	-200.000	-0.031	-0.212
-491.522	20.394	0.301	-0.244
-490.508	89.010	-0.141	-0.157
-489.493	439.526	0.100	-0.219
-488.478	239.930	-0.118	0.198
-487.464	-100.605	-0.352	0.087
-486.449	4.037	0.372	0.273
-485.435	124.350	0.144	0.182
-484.420	154.365	0.091	0.125
-483.405	80.536	0.183	-0.198
-482.391	-29.879	-0.158	-0.090
-481.376	33.084	-0.129	-0.112
-480.362	159.563	0.110	-0.153
-479.347	81.995	0.158	-0.172
-478.332	-123.659	-0.232	0.037
-477.318	-5.186	0.286	0.197
-476.303	-143.639	0.304	-0.029
-475.289	83.160	-0.229	0.249
-474.274	122.208	-0.142	-0.177
-473.259	-48.029	-0.027	0.013
-472.245	148.683	0.203	0.275
-471.230	-23.761	-0.062	0.037
-470.216	-200.000	-0.024	-0.226
-469.201	130.680	-0.226	0.290
-468.186	470.990	0.095	0.214
-467.172	157.289	0.190	-0.263
-466.157	108.956	0.024	-0.029
-465.143	-200.000	0.042	-0.429
-464.128	-19.121	0.278	0.173
-463.113	-88.681	0.120	0.036
-462.099	-147.608	0.144	0.012
-461.084	-200.000	-0.039	0.227
-460.070	-90.520	-0.029	0.008
-459.055	7.726	-0.156	-0.117
-458.040	-91.295	-0.069	-0.020
-457.026	27.813	0.106	0.090
-456.011	69.903	0.158	-0.163
-454.997	134.620	-0.207	0.269
-453.982	303.212	-0.074	-0.138
-452.968	800.000	-0.043	0.161
-451.953	-200.000	0.023	-0.134
-450.938	116.820	0.121	0.149
-449.924	167.594	-0.098	0.140
-448.909	800.000	-0.066	0.216
-447.895	123.323	0.099	0.124
-446.880	-109.947	0.157	-0.033
-445.865	-200.000	-0.031	0.207
-444.851	800.000	-0.062	-0.182
-443.836	800.000	-0.029	0.085
-442.822	-127.322	-0.201	-0.029
-441.807	403.027	-0.153	-0.322
-440.792	-200.000	0.013	0.253
-439.778	440.597	0.031	-0.069
-438.763	165.125	0.161	0.227
-437.749	-37.128	0.207	0.111
-436.734	-186.677	-0.208	0.003
-435.719	-106.868	0.270	0.060
-434.705	-142.958	0.134	0.013
-433.690	428.246	0.084	0.182
-432.676	214.131	-0.078	-0.124
-431.661	-200.000	-0.057	-0.286
-430.646	-67.985	-0.129	0.050
-429.632	118.691	-0.180	0.223
-428.617	800.000	0.048	-0.179
-427.603	3.451	-0.260	0.190
-426.588	88.369	-0.117	0.130
-425.573	-200.000	-0.031	-0.337
-424.559	224.515	0.251	-0.405
-423.544	-139.540	0.042	-0.004
-422.530	-118.284	-0.198	0.035
-421.515	-128.105	-0.486	0.070
-420.500	-26.293	-0.171	0.100
-419.486	-200.000	0.015	-0.110
-418.471	-70.146	-0.162	0.062
-417.457	317.818	-0.046	-0.088
-416.442	174.160	-0.130	-0.187
-415.428	39.756	-0.188	0.169
-414.413	102.788	-0.039	0.046
-413.398	-55.535	0.121	-0.054
-412.384	25.546	-0.191	0.159
-411.369	800.000	-0.016	0.049
-410.355	800.000	0.136	-0.495
-409.340	-94.995	0.060	-0.016
-408.325	533.903	-0.100	-0.236
-407.311	-200.000	0.011	-0.125
-406.296	-25.912	0.159	-0.094
-405.282	-200.000	-0.007	-0.422
-404.267	800.000	0.073	0.271
-403.252	-15.779	0.397	0.253
-402.238	-200.000	-0.082	0.368
-401.223	-200.000	-0.011	-0.099
-400.209	-107.488	-0.222	0.049
-399.194	-37.305	-0.385	-0.206
-398.179	159.602	0.070	-0.098
-397.165	562.843	-0.035	0.084
-396.150	-14.043	-0.117	0.076
-395.136	800.000	-0.032	0.133
-394.121	-156.452	0.334	-0.021
-393.106	96.743	0.117	0.134
-392.092	-9.730	-0.233	-0.155
-391.077	58.251	-0.076	0.075
-390.063	218.986	-0.022	0.036
-389.048	-65.927	-0.267	0.107
-388.033	172.061	0.084	-0.120
-387.019	-91.379	-0.373	0.106
-386.004	214.548	0.285	-0.450
-384.990	800.000	-0.086	0.354
-383.975	-46.154	-0.399	0.196
-382.960	-200.000	0.019	0.288
-381.946	363.787	-0.037	-0.075
-380.931	-200.000	0.044	-0.328
-379.917	79.346	0.040	0.043
-378.902	153.628	-0.164	0.224
-377.888	633.536	-0.087	-0.220
-376.873	-58.863	0.265	0.114
-375.858	-200.000	0.003	0.152
-374.844	-200.000	0.070	-0.382
-373.829	8.019	-0.080	-0.060
-372.815	47.775	-0.249	-0.232
-371.800	45.388	0.065	-0.060
-370.785	800.000	0.019	-0.081
-369.771	-124.842	-0.259	0.040
-368.756	-200.000	0.059	0.329
-367.742	-83.386	0.167	0.053
-366.727	236.497	0.129	-0.214
-365.712	148.124	0.169	-0.228
-364.698	253.410	-0.065	0.111
-363.683	-132.418	-0.022	0.003
-362.669	-89.768	0.317	-0.093
-361.654	668.120	-0.022	0.056
-360.639	-178.981	-0.034	0.001
-359.625	800.000	-0.020	0.067
-358.610	-200.000	-0.039	-0.278
-357.596	-165.666	-0.202	0.009
-356.581	-13.661	0.318	-0.205
-355.566	-125.886	-0.565	-0.085
-354.552	30.775	-0.228	-0.195
-353.537	-200.000	-0.030	0.143
-352.523	692.716	-0.066	0.171
-351.508	-42.567	0.307	-0.156
-350.493	-42.110	-0.120	0.061
-349.479	-200.000	0.037	0.232
-348.464	-64.032	0.142	-0.058
-347.450	-200.000	0.043	-0.290
-346.435	-20.580	0.068	-0.042
-345.420	125.815	0.100	-0.126
-344.406	-151.948	-0.161	-0.012
-343.391	-48.609	0.093	0.045
-342.377	-33.511	-0.296	0.163
-341.362	-184.828	0.157	0.002
-340.348	-200.000	-0.023	-0.101
-339.333	-114.702	0.141	-0.027
-338.318	117.228	-0.034	0.042
-337.304	-84.017	0.129	0.041
-336.289	144.349	0.154	-0.204
-335.275	800.000	-0.072	-0.213
-334.260	19.761	0.091	0.073
-333.245	-111.277	-0.089	-0.018
-332.231	800.000	-0.078	0.270
-331.216	103.769	-0.092	0.108
-330.202	174.635	-0.117	-0.169
-329.187	185.134	0.088	0.130
-328.172	-26.385	-0.156	0.091
-327.158	42.696	0.247	-0.224
-326.143	-200.000	0.014	0.076
-325.129	62.578	-0.066	-0.066
-324.114	22.067	0.085	-0.069
-323.099	165.450	-0.184	0.259
-322.085	-200.000	0.047	-0.323
-321.070	800.000	-0.044	-0.144
-320.056	14.759	0.172	-0.134
-319.041	800.000	0.188	-0.557
-318.026	43.782	-0.252	-0.230
-317.012	368.120	0.103	-0.207
-315.997	-31.760	0.129	-0.072
-314.983	762.629	0.035	-0.096
-313.968	-200.000	-0.034	-0.298
-312.953	-200.000	0.002	0.013
-311.939	-200.000	-0.180	-0.000
-310.924	240.923	0.106	-0.176
-309.910	-200.000	0.003	0.272
-308.895	387.897	-0.074	0.152
-307.880	-200.000	0.000	-0.132
-306.866	167.363	-0.168	-0.238
-305.851	-116.849	0.102	0.019
-304.837	56.706	-0.190	-0.185
-303.822	95.288	-0.125	0.142
-302.807	-137.196	-0.100	-0.011
-301.793	-110.508	-0.544	0.112
-300.778	370.879	-0.194	0.392
-299.764	97.352	0.056	0.064
-298.749	-126.385	-0.150	0.022
-297.735	-200.000	0.005	0.373
-296.720	26.823	0.181	0.151
-295.705	-200.000	0.029	-0.200
-294.691	-36.396	0.148	0.079
-293.676	-84.049	-0.388	0.123
-292.662	800.000	0.073	-0.303
-291.647	234.132	-0.009	-0.014
-290.632	800.000	0.070	-0.227
-289.618	-113.581	-0.199	-0.039
-288.603	800.000	0.028	0.112
-287.589	-200.000	0.046	-0.337
-286.574	-134.556	-0.154	-0.019
-285.559	93.195	-0.315	-0.355
-284.545	57.882	-0.105	-0.103
-283.530	-77.206	0.146	0.051
-282.516	-200.000	0.005	0.130
-281.501	-62.888	0.296	-0.122
-280.486	-200.000	0.037	0.176
-279.472	800.000	0.038	0.124
-278.457	172.761	-0.030	0.044
-277.443	-13.757	-0.242	-0.156
-276.428	3.040	-0.089	-0.064
-275.413	2.001	-0.174	-0.125
-274.399	190.784	0.152	-0.228
-273.384	-72.473	0.163	0.060
-272.370	644.496	0.067	0.170
-271.355	-21.170	0.263	0.160
-270.340	212.438	0.048	0.075
-269.326	800.000	0.077	-0.243
-268.311	152.470	-0.148	0.202
-267.297	-39.967	0.167	-0.087
-266.282	13.157	0.029	-0.023
-265.267	-200.000	-0.004	0.034
-264.253	271.411	-0.102	-0.179
-263.238	697.093	-0.054	-0.142
-262.224	437.239	-0.078	-0.169
-261.209	-123.967	0.493	0.077
-260.195	145.911	0.159	0.212
-259.180	529.559	-0.138	-0.323
-258.165	7.143	0.167	-0.123
-257.151	-74.890	0.089	0.032
-256.136	-200.000	-0.005	0.060
-255.122	-7.304	0.403	-0.271
-254.107	-103.850	0.214	-0.050
-253.092	-200.000	-0.014	0.263
-252.078	-146.308	0.420	-0.037
-251.063	46.229	0.173	-0.159
-250.049	449.376	-0.056	0.122
-249.034	-200.000	-0.010	0.061
-248.019	-167.917	-0.290	-0.011
-247.005	-200.000	-0.015	-0.482
-245.990	426.109	-0.092	-0.197
-244.976	-76.815	-0.137	0.048
-243.961	0.295	-0.172	-0.122
-242.946	36.943	0.018	0.016
-241.932	607.320	-0.011	-0.028
-240.917	-133.864	-0.352	-0.043
-239.903	-82.075	0.092	-0.030
-238.888	213.662	-0.085	0.133
-237.873	800.000	0.070	-0.274
-236.859	800.000	0.091	-0.355
-235.844	219.745	0.312	-0.495
-234.830	89.853	-0.074	-0.082
-233.815	225.829	0.156	0.250
-232.800	-200.000	0.005	-0.052
-231.786	25.723	-0.045	0.037
-230.771	329.251	0.020	-0.038
-229.757	261.130	0.138	0.237
-228.742	-67.539	-0.136	0.053
-227.727	800.000	-0.057	0.176
-226.713	-200.000	0.009	-0.550
-225.698	100.999	-0.357	-0.412
-224.684	15.631	-0.281	-0.219
-223.669	-16.527	-0.213	0.134
-222.655	800.000	-0.098	0.279
-221.640	364.839	-0.130	0.260
-220.625	367.874	-0.147	0.294
-219.611	194.252	0.138	0.208
-218.596	343.666	-0.135	0.262
-217.582	-200.000	0.040	0.313
-216.567	36.380	0.109	0.095
-215.552	711.201	0.063	0.165
-214.538	-154.406	-0.276	-0.018
-213.523	-40.771	-0.039	-0.020
-212.509	-60.291	0.419	-0.177
-211.494	-200.000	-0.002	-0.164
-210.479	156.691	-0.266	0.364
-209.465	800.000	0.033	-0.131
-208.450	-142.209	0.313	-0.031
-207.436	-200.000	0.028	-0.361
-206.421	62.822	0.241	-0.239
-205.406	-50.065	0.255	0.120
-204.392	-125.711	-0.146	0.022
-203.377	800.000	0.013	-0.047
-202.363	539.304	0.070	-0.165
-201.348	-10.474	-0.164	-0.108
-200.333	800.000	-0.047	0.182
-199.319	79.523	-0.097	0.103
-198.304	-200.000	-0.003	0.160
-197.290	-35.233	-0.068	0.037
-196.275	82.231	0.248	0.266
-195.260	88.251	0.104	-0.115
-194.246	800.000	0.122	-0.480
-193.231	739.832	-0.088	-0.233
-192.217	-82.187	-0.156	0.050
-191.202	-145.972	0.301	0.026
-190.187	-0.293	-0.097	-0.068
-189.173	-66.370	0.271	0.107
-188.158	-113.493	0.181	0.035
-187.144	59.465	0.168	-0.164
-186.129	-63.637	-0.281	-0.114
-185.114	126.104	0.072	-0.091
-184.100	-9.478	0.069	0.046
-183.085	-98.328	0.205	-0.052
-182.071	-200.000	-0.008	0.307
-181.056	518.403	-0.148	0.343
-180.042	3.764	0.338	-0.244
-179.027	30.498	-0.303	0.257
-178.012	-79.629	-0.158	0.053
-176.998	451.631	-0.033	0.073
-175.983	-11.365	-0.151	-0.098
-174.969	38.595	0.310	0.274
-173.954	-150.870	-0.211	-0.016
-172.939	-200.000	-0.000	-0.025
-171.925	-200.000	-0.015	0.107
-170.910	-51.961	0.241	-0.111
-169.896	-181.182	0.233	-0.005
-168.881	87.762	0.122	-0.133
-167.866	-53.144	-0.244	-0.111
-166.852	227.734	-0.093	0.150
-165.837	800.000	0.016	-0.046
-164.823	151.541	0.071	0.095
-163.808	-58.652	0.009	-0.004
-162.793	-200.000	0.006	-0.045
-161.779	11.234	0.115	0.087
-160.764	169.218	-0.213	0.301
-159.750	273.699	-0.102	0.179
-158.735	-13.857	-0.051	-0.033
-157.720	112.253	-0.153	0.183
-156.706	-63.694	0.081	-0.033
-155.691	-200.000	-0.039	0.244
-154.677	-49.850	0.121	0.057
-153.662	-159.306	-0.588	0.033
-152.647	690.562	0.032	-0.082
-151.633	-80.966	0.509	0.167
-150.618	-77.550	-0.337	-0.116
-149.604	800.000	0.098	0.403
-148.589	-12.850	0.165	-0.106
-147.574	-74.053	-0.049	-0.017
-146.560	-75.301	0.194	0.068
-145.545	734.154	-0.112	0.296
-144.531	-200.000	0.000	0.160
-143.516	-71.708	0.188	-0.069
-142.502	-29.525	-0.287	-0.162
-141.487	760.000	0.104	-0.279
-140.472	-97.068	0.660	-0.171
-139.458	800.000	0.018	0.060
-138.443	172.145	0.056	0.079
-137.429	-60.961	-0.092	-0.039
-136.414	-200.000	-0.007	-0.163
-135.399	800.000	-0.019	0.056
-134.385	183.421	-0.168	0.245
-133.370	-76.817	-0.146	0.051
-132.356	290.398	0.098	-0.175
-131.341	800.000	0.041	-0.170
-130.326	645.600	-0.148	0.374
-129.312	-98.057	-0.112	-0.028
-128.297	334.934	0.033	0.063
-127.283	137.690	-0.246	-0.319
-126.268	-78.405	-0.229	-0.078
-125.253	-200.000	0.032	0.141
-124.239	127.722	0.159	-0.200
-123.224	16.214	-0.170	0.132
-122.210	682.291	-0.094	0.243
-121.195	-200.000	-0.021	0.206
