DTS Sentinel unit serial number:	SN413079Multiplexer serial number:	ORYXHardware model number:	OX4-SRSoftware version number:	ORYX F/W v4.00 Oryx Data Collector v3.7.2.0data status	okinstallation	princeton_trtdifferential loss correction	single-endedforward channel	channel 3reverse channel	N/Adate	2019/09/14time	10:04:34forward acquisition time	60.00reverse acquisition time	0.00gamma	496.2192k internal	0.2312k external	0.2312temperature offset calibration	1.0055default loss term (dB/km)	0.3790temperature slope calibration	1.0000multiplexer offset coefficient	1.0000multiplexer slope coefficient	1.0000fibre end	0.00T internal ref (°C)	33.30T ext. ref 1 (°C)	4.03T ext. ref 2 (°C)	32.30length (m)	temperature (°C)	Stokes	anti-Stokes-747.200	-110.391	0.414	0.087
-746.185	-94.029	0.070	-0.019
-745.171	-133.005	0.245	0.032
-744.156	800.000	-0.036	-0.141
-743.142	-200.000	-0.053	-0.235
-742.127	800.000	0.103	0.347
-741.112	-107.815	0.101	-0.022
-740.098	356.628	-0.012	-0.023
-739.083	-122.874	0.352	-0.058
-738.069	374.890	-0.137	0.283
-737.054	-10.304	0.131	0.088
-736.039	48.253	-0.235	-0.224
-735.025	800.000	-0.172	0.483
-734.010	95.508	0.104	-0.120
-732.996	-83.652	-0.170	-0.055
-731.981	389.608	-0.121	-0.255
-730.966	5.031	-0.356	-0.266
-729.952	265.611	0.037	0.066
-728.937	-118.102	-0.329	0.060
-727.923	697.040	-0.087	-0.231
-726.908	-200.000	-0.055	-0.395
-725.894	-200.000	-0.007	0.054
-724.879	328.079	-0.094	0.184
-723.864	45.215	0.091	-0.085
-722.850	-200.000	-0.038	-0.183
-721.835	800.000	-0.060	-0.243
-720.821	127.949	-0.154	-0.198
-719.806	-200.000	0.018	0.118
-718.791	-53.522	0.577	0.268
-717.777	156.583	0.167	-0.234
-716.762	-113.633	0.146	-0.029
-715.748	99.939	0.067	0.078
-714.733	232.297	-0.075	0.125
-713.718	205.127	-0.146	-0.230
-712.704	267.215	-0.084	0.149
-711.689	-62.701	0.230	-0.097
-710.675	105.950	0.145	-0.174
-709.660	386.500	-0.103	-0.216
-708.645	273.491	-0.044	-0.079
-707.631	-200.000	0.065	-0.316
-706.616	-28.923	0.116	0.068
-705.602	800.000	-0.089	-0.323
-704.587	-200.000	0.007	0.256
-703.572	-200.000	0.008	-0.197
-702.558	454.208	-0.068	-0.153
-701.543	-87.976	0.280	-0.085
-700.529	-67.154	0.107	-0.043
-699.514	-200.000	0.018	-0.299
-698.499	236.219	-0.100	-0.167
-697.485	-200.000	0.076	-0.414
-696.470	-119.717	-0.081	0.014
-695.456	-124.895	-0.128	-0.020
-694.441	610.162	0.046	-0.115
-693.426	278.059	0.108	-0.195
-692.412	-200.000	-0.026	0.211
-691.397	-25.840	-0.027	-0.016
-690.383	118.392	0.087	-0.108
-689.368	77.181	-0.294	-0.317
-688.354	-108.965	0.216	0.047
-687.339	-60.733	0.255	-0.109
-686.324	57.172	-0.266	-0.263
-685.310	93.022	-0.087	-0.099
-684.295	-63.697	0.104	0.043
-683.281	212.771	-0.116	0.185
-682.266	-43.407	0.203	-0.104
-681.251	-12.877	-0.266	0.175
-680.237	-28.354	-0.109	-0.064
-679.222	-45.048	0.105	0.053
-678.208	-200.000	-0.037	-0.247
-677.193	-200.000	0.024	-0.258
-676.178	-12.755	0.105	-0.070
-675.164	-11.823	-0.244	-0.162
-674.149	-69.076	-0.279	0.109
-673.135	-200.000	0.012	0.093
-672.120	-200.000	0.022	0.183
-671.105	275.898	-0.107	0.192
-670.091	388.176	-0.079	0.166
-669.076	90.973	-0.112	-0.127
-668.062	-149.284	-0.061	-0.005
-667.047	266.236	-0.056	0.099
-666.032	-108.950	-0.104	0.023
-665.018	-200.000	0.048	-0.290
-664.003	703.935	-0.016	-0.042
-662.989	599.769	-0.088	-0.220
-661.974	-190.421	0.148	-0.002
-660.959	-51.111	-0.188	-0.089
-659.945	800.000	0.106	-0.305
-658.930	-200.000	-0.017	-0.147
-657.916	-4.870	0.325	-0.226
-656.901	-113.917	0.396	-0.078
-655.886	-41.276	-0.135	0.071
-654.872	-102.582	0.230	-0.056
-653.857	285.510	-0.141	0.258
-652.843	-33.379	0.088	-0.049
-651.828	-90.428	-0.160	0.047
-650.814	-77.320	-0.391	-0.137
-649.799	524.006	0.116	0.276
-648.784	-165.384	0.282	-0.012
-647.770	43.380	-0.052	0.048
-646.755	800.000	-0.075	-0.297
-645.741	465.093	-0.063	0.144
-644.726	-100.126	-0.378	0.095
-643.711	-163.602	-0.137	0.007
-642.697	259.470	0.228	0.397
-641.682	-90.596	0.148	-0.043
-640.668	37.394	0.110	-0.098
-639.653	56.869	0.049	0.048
-638.638	12.983	0.106	0.083
-637.624	-53.449	0.129	0.060
-636.609	-43.360	0.327	-0.167
-635.595	57.215	0.202	0.199
-634.580	6.343	0.069	0.052
-633.565	800.000	-0.071	-0.295
-632.551	-98.623	-0.323	-0.083
-631.536	280.915	-0.042	-0.077
-630.522	62.076	0.128	0.129
-629.507	-200.000	-0.015	-0.211
-628.492	-200.000	0.005	0.150
-627.478	-7.388	0.214	0.147
-626.463	-123.340	0.085	-0.014
-625.449	25.804	-0.115	0.097
-624.434	-130.070	-0.181	0.025
-623.419	-80.406	0.050	0.017
-622.405	-117.514	0.183	0.033
-621.390	350.174	0.084	0.168
-620.376	267.333	0.207	-0.366
-619.361	-96.956	0.048	0.013
-618.346	74.681	-0.032	-0.034
-617.332	648.383	-0.103	-0.265
-616.317	-114.762	0.203	-0.039
-615.303	-116.507	-0.377	0.070
-614.288	-115.863	-0.160	0.030
-613.273	-17.897	-0.102	0.065
-612.259	-94.911	-0.058	-0.016
-611.244	-63.064	0.301	-0.125
-610.230	-200.000	0.042	-0.375
-609.215	89.516	0.145	-0.163
-608.201	225.855	-0.047	0.077
-607.186	329.162	-0.125	-0.242
-606.171	-163.159	-0.350	0.017
-605.157	-154.019	-0.322	0.022
-604.142	-200.000	-0.018	-0.117
-603.128	-200.000	0.021	0.194
-602.113	800.000	-0.106	-0.357
-601.098	107.793	0.159	0.191
-600.084	-22.790	-0.323	0.197
-599.069	800.000	-0.026	-0.114
-598.055	-200.000	-0.031	0.208
-597.040	-150.867	0.089	-0.007
-596.025	-33.608	-0.040	-0.022
-595.011	117.012	-0.141	0.175
-593.996	-36.277	0.126	0.069
-592.982	-116.216	-0.146	0.027
-591.967	38.238	-0.057	0.051
-590.952	40.715	-0.093	0.085
-589.938	264.164	-0.136	0.238
-588.923	125.119	0.158	0.201
-587.909	161.567	-0.223	0.315
-586.894	33.264	0.105	0.091
-585.879	-200.000	0.014	0.366
-584.865	38.634	-0.266	-0.240
-583.850	-46.412	0.121	-0.060
-582.836	94.743	0.093	-0.106
-581.821	151.492	-0.132	-0.181
-580.806	-113.928	-0.274	-0.054
-579.792	184.617	-0.012	0.018
-578.777	95.988	0.034	0.039
-577.763	774.798	-0.036	-0.099
-576.748	-200.000	0.063	0.510
-575.733	36.355	-0.037	-0.033
-574.719	-101.464	-0.195	0.048
-573.704	-145.643	-0.087	0.008
-572.690	218.342	0.040	0.064
-571.675	403.061	-0.021	-0.044
-570.661	-191.153	0.143	0.001
-569.646	39.782	-0.322	0.291
-568.631	800.000	0.150	0.447
-567.617	-4.851	-0.157	-0.109
-566.602	-35.628	-0.222	0.122
-565.588	54.397	-0.076	0.074
-564.573	277.063	0.123	-0.220
-563.558	33.705	-0.228	-0.200
-562.544	-200.000	0.037	-0.270
-561.529	-200.000	-0.017	0.125
-560.515	38.318	-0.039	-0.035
-559.500	606.717	-0.016	0.040
-558.485	162.866	0.160	-0.226
-557.471	26.634	0.191	-0.161
-556.456	48.319	0.208	0.196
-555.442	-200.000	-0.026	-0.294
-554.427	-41.629	-0.190	-0.098
-553.412	-200.000	-0.064	-0.331
-552.398	-200.000	0.092	-0.415
-551.383	800.000	0.011	-0.042
-550.369	-42.879	0.090	0.046
-549.354	-185.711	-0.193	0.003
-548.339	340.970	-0.076	-0.150
-547.325	-127.890	-0.219	0.032
-546.310	347.392	0.063	0.125
-545.296	-200.000	-0.015	0.296
-544.281	176.419	0.059	-0.086
-543.266	-96.243	0.275	-0.073
-542.252	-47.341	-0.283	-0.139
-541.237	-165.346	0.355	0.016
-540.223	188.220	-0.125	-0.187
-539.208	-60.359	-0.350	-0.150
-538.193	-200.000	-0.005	0.026
-537.179	157.896	0.041	0.057
-536.164	-200.000	0.119	0.636
-535.150	-133.868	0.111	0.014
-534.135	49.402	-0.078	0.074
-533.121	-103.315	-0.120	-0.029
-532.106	241.876	0.095	-0.160
-531.091	-89.328	-0.259	-0.077
-530.077	80.307	-0.057	0.062
-529.062	-92.934	-0.223	0.063
-528.048	-148.249	-0.282	0.023
-527.033	-47.799	0.250	0.122
-526.018	-200.000	-0.019	0.140
-525.004	-141.452	0.281	0.029
-523.989	148.992	0.124	0.168
-522.975	-181.167	0.098	-0.002
-521.960	-91.515	-0.260	-0.075
-520.945	35.431	0.301	0.265
-519.931	800.000	0.071	0.220
-518.916	-117.107	0.060	-0.011
-517.902	-115.445	0.332	-0.063
-516.887	800.000	-0.135	0.423
-515.872	110.337	0.190	-0.230
-514.858	-145.149	-0.139	0.013
-513.843	111.747	0.078	0.094
-512.829	-70.247	0.212	-0.081
-511.814	51.041	0.083	0.079
-510.799	15.319	0.178	-0.140
-509.785	-128.706	0.092	-0.013
-508.770	-10.970	0.381	-0.253
-507.756	2.503	-0.170	-0.124
-506.741	-126.604	-0.113	0.017
-505.726	-31.970	0.140	0.079
-504.712	-106.968	-0.322	-0.072
-503.697	-200.000	-0.016	-0.174
-502.683	14.907	0.103	0.081
-501.668	99.016	-0.302	0.351
-500.653	800.000	0.016	-0.055
-499.639	-128.816	-0.156	-0.022
-498.624	-46.850	0.086	0.042
-497.610	33.939	0.178	0.156
-496.595	-48.489	-0.297	-0.144
-495.581	-50.349	-0.200	-0.095
-494.566	66.545	-0.281	-0.287
-493.551	-120.627	0.289	0.049
-492.537	800.000	-0.068	0.195
-491.522	-63.628	-0.118	0.049
-490.508	-130.401	0.263	0.036
-489.493	-200.000	0.034	0.152
-488.478	-4.466	0.255	-0.177
-487.464	-113.402	0.245	0.048
-486.449	250.392	0.055	-0.093
-485.435	-163.467	-0.233	0.011
-484.420	-200.000	0.007	-0.173
-483.405	328.764	-0.121	0.233
-482.391	-108.928	0.210	-0.045
-481.376	800.000	-0.038	0.123
-480.362	-83.791	0.125	0.040
-479.347	-5.495	-0.243	-0.167
-478.332	-105.028	-0.025	-0.006
-477.318	59.861	0.090	0.089
-476.303	167.192	-0.206	0.294
-475.289	-200.000	-0.032	-0.250
-474.274	409.212	-0.100	0.212
-473.259	195.083	0.096	0.146
-472.245	800.000	-0.144	-0.429
-471.230	800.000	0.076	-0.309
-470.216	-200.000	-0.005	0.290
-469.201	-123.959	-0.259	-0.041
-468.186	-200.000	0.027	-0.327
-467.172	-200.000	-0.028	0.136
-466.157	-200.000	-0.063	0.299
-465.143	-50.457	0.110	0.052
-464.128	104.485	-0.335	-0.396
-463.113	-184.861	0.167	0.003
-462.099	488.203	0.080	-0.183
-461.084	-200.000	-0.014	-0.245
-460.070	-123.722	-0.273	-0.043
-459.055	-200.000	-0.042	-0.288
-458.040	800.000	0.013	-0.048
-457.026	88.002	0.071	-0.079
-456.011	-200.000	0.002	0.302
-454.997	-184.952	-0.234	0.004
-453.982	-77.091	0.286	0.100
-452.968	-96.580	0.112	0.030
-451.953	800.000	0.044	-0.156
-450.938	-112.732	-0.424	-0.085
-449.924	52.176	-0.228	0.218
-448.909	-136.817	0.221	0.026
-447.895	-42.558	-0.220	-0.113
-446.880	439.551	0.119	0.260
-445.865	287.956	-0.020	-0.037
-444.851	-131.186	-0.374	0.050
-443.836	-22.295	0.264	-0.160
-442.822	800.000	0.045	-0.126
-441.807	800.000	-0.086	-0.318
-440.792	-98.702	-0.292	-0.075
-439.778	800.000	-0.090	0.345
-438.763	259.130	0.109	0.188
-437.749	-11.876	-0.153	-0.100
-436.734	800.000	-0.014	0.052
-435.719	-96.211	-0.119	0.032
-434.705	-70.899	0.297	0.112
-433.690	-28.030	-0.243	-0.141
-432.676	-200.000	-0.010	-0.291
-431.661	34.073	-0.021	0.018
-430.646	554.190	0.046	0.111
-429.632	-200.000	0.015	0.097
-428.617	-38.450	0.142	0.075
-427.603	109.485	-0.152	0.183
-426.588	18.238	0.201	0.161
-425.573	193.349	-0.048	-0.072
-424.559	-80.996	-0.106	-0.035
-423.544	129.571	-0.125	-0.161
-422.530	-51.841	0.148	-0.069
-421.515	-104.288	0.039	0.009
-420.500	317.995	-0.118	-0.223
-419.486	-64.437	-0.161	0.066
-418.471	-164.050	0.252	-0.012
-417.457	-103.997	-0.226	0.053
-416.442	130.961	-0.174	-0.223
-415.428	-123.103	-0.476	0.076
-414.413	195.312	0.215	0.327
-413.398	-200.000	-0.041	0.187
-412.384	800.000	0.042	-0.182
-411.369	-106.725	-0.274	0.061
-410.355	-92.027	0.220	-0.062
-409.340	-51.514	-0.070	-0.033
-408.325	543.481	-0.109	0.260
-407.311	-149.128	-0.171	0.014
-406.296	111.873	0.210	-0.253
-405.282	27.060	0.097	-0.082
-404.267	94.029	0.044	-0.050
-403.252	-106.052	-0.221	0.050
-402.238	-1.617	0.125	0.089
-401.223	-98.122	0.306	-0.079
-400.209	800.000	-0.094	0.385
-399.194	-1.935	-0.142	0.100
-398.179	662.345	0.130	0.335
-397.165	-70.146	0.232	0.088
-396.150	-200.000	0.047	-0.348
-395.136	157.773	-0.137	-0.191
-394.121	147.318	-0.052	-0.071
-393.106	-200.000	-0.029	0.182
-392.092	-200.000	-0.001	0.044
-391.077	7.891	0.293	-0.220
-390.063	28.019	-0.347	0.293
-389.048	239.492	0.077	-0.128
-388.033	278.501	-0.199	-0.355
-387.019	44.165	-0.275	0.252
-386.004	-9.182	0.096	0.064
-384.990	285.570	0.138	0.249
-383.975	90.050	-0.097	-0.108
-382.960	-144.312	-0.456	0.043
-381.946	17.082	-0.217	-0.172
-380.931	206.318	0.266	0.414
-379.917	450.188	-0.075	0.166
-378.902	268.716	0.114	-0.199
-377.888	122.322	0.142	-0.177
-376.873	-49.997	-0.105	0.050
-375.858	-136.297	-0.266	-0.031
-374.844	800.000	0.059	0.242
-373.829	-200.000	-0.017	0.112
-372.815	506.719	-0.030	0.069
-371.800	-55.410	-0.093	0.042
-370.785	464.367	0.070	0.156
-369.771	81.230	-0.052	-0.056
-368.756	-73.975	0.163	0.059
-367.742	64.473	0.133	0.134
-366.727	151.852	-0.122	-0.166
-365.712	-200.000	0.022	0.202
-364.698	60.583	-0.063	0.063
-363.683	109.337	0.065	-0.077
-362.669	47.604	0.108	-0.100
-361.654	-149.400	0.063	-0.005
-360.639	-200.000	-0.008	-0.072
-359.625	-167.531	-0.256	-0.010
-358.610	167.020	0.134	-0.190
-357.596	329.895	0.041	0.079
-356.581	-116.597	0.180	-0.033
-355.566	-76.939	-0.386	0.135
-354.552	259.416	0.007	-0.011
-353.537	-129.152	0.233	-0.032
-352.523	-81.844	0.443	-0.145
-351.508	774.318	-0.117	-0.319
-350.493	112.094	0.096	-0.116
-349.479	116.586	-0.139	-0.170
-348.464	236.906	0.264	0.437
-347.450	-13.065	0.140	0.091
-346.435	-120.793	0.160	-0.027
-345.420	129.209	-0.072	-0.091
-344.406	105.511	0.164	-0.194
-343.391	-200.000	-0.042	0.200
-342.377	21.856	-0.208	0.170
-341.362	159.871	-0.113	0.157
-340.348	-144.684	0.364	0.033
-339.333	-98.712	0.237	-0.060
-338.318	-200.000	-0.043	-0.358
-337.304	-200.000	0.050	0.308
-336.289	29.788	0.271	-0.230
-335.275	-200.000	0.051	0.274
-334.260	-69.240	0.409	-0.157
-333.245	-45.991	-0.010	0.005
-332.231	-6.488	-0.087	0.059
-331.216	-124.314	-0.028	-0.004
-330.202	558.306	0.119	-0.286
-329.187	478.507	-0.119	0.270
-328.172	-161.598	-0.387	0.020
-327.158	-200.000	-0.005	-0.403
-326.143	-144.009	0.456	0.043
-325.129	-200.000	-0.022	0.191
-324.114	-95.799	-0.368	0.098
-323.099	-20.813	-0.042	0.026
-322.085	709.489	0.094	-0.247
-321.070	289.137	0.254	-0.460
-320.056	49.269	-0.316	0.297
-319.041	-60.583	0.104	0.044
-318.026	-112.785	0.205	-0.041
-317.012	-75.404	0.459	-0.163
-315.997	689.690	-0.079	0.205
-314.983	335.720	0.044	-0.085
-313.968	-11.374	0.082	0.054
-312.953	-126.749	-0.281	-0.041
-311.939	143.141	0.212	-0.281
-310.924	151.257	-0.200	-0.272
-309.910	-182.578	0.177	0.003
-308.895	800.000	0.079	0.238
-307.880	285.989	0.044	0.080
-306.866	-200.000	-0.050	0.270
-305.851	-200.000	0.008	-0.096
-304.837	-33.630	-0.309	-0.170
-303.822	3.136	0.105	0.076
-302.807	-200.000	-0.019	0.200
-301.793	256.571	0.079	0.136
-300.778	315.518	-0.140	0.263
-299.764	-3.459	0.030	-0.021
-298.749	37.812	0.135	0.120
-297.735	-132.867	-0.200	0.025
-296.720	-21.254	-0.047	0.029
-295.705	-169.545	-0.080	0.003
-294.691	-117.738	-0.160	0.029
-293.676	800.000	0.132	-0.415
-292.662	-31.242	0.336	-0.189
-291.647	708.534	0.058	0.152
-290.632	163.546	0.124	-0.174
-289.618	-200.000	-0.023	0.147
-288.603	800.000	0.053	-0.159
-287.589	-55.837	0.195	0.087
-286.574	-96.591	-0.090	-0.024
-285.559	-200.000	0.064	0.288
-284.545	-200.000	-0.034	-0.341
-283.530	800.000	0.029	-0.097
-282.516	-200.000	0.006	-0.183
-281.501	-107.054	-0.072	0.016
-280.486	-0.751	0.132	0.093
-279.472	-52.555	-0.023	-0.011
-278.457	347.514	-0.024	-0.047
-277.443	-200.000	0.011	0.185
-276.428	-140.990	0.303	-0.031
-275.413	487.324	-0.091	-0.208
-274.399	-96.749	0.212	-0.056
-273.384	-47.674	0.279	-0.135
-272.370	-200.000	0.079	-0.382
-271.355	72.928	0.270	-0.281
-270.340	-91.640	0.192	0.054
-269.326	-7.799	-0.157	-0.106
-268.311	-200.000	0.041	0.227
-267.297	-200.000	0.002	0.197
-266.282	91.013	0.206	-0.230
-265.267	720.122	0.050	0.132
-264.253	-200.000	0.029	0.240
-263.238	109.466	-0.166	-0.198
-262.224	-19.389	0.151	0.093
-261.209	-140.884	-0.493	0.051
-260.195	-77.869	0.275	-0.094
-259.180	-113.421	0.204	0.040
-258.165	-142.710	0.227	-0.022
-257.151	-79.602	0.309	-0.104
-256.136	-49.298	0.265	-0.126
-255.122	-113.998	-0.134	-0.026
-254.107	800.000	0.116	0.334
-253.092	-143.877	0.270	0.025
-252.078	-200.000	0.008	-0.245
-251.063	-6.138	0.205	0.140
-250.049	739.986	0.113	0.302
-249.034	69.138	-0.016	-0.016
-248.019	800.000	0.045	0.144
-247.005	800.000	-0.081	0.246
-245.990	368.062	-0.092	-0.186
-244.976	130.625	0.128	-0.164
-243.961	721.162	-0.109	-0.289
-242.946	-68.141	0.208	-0.080
-241.932	-200.000	-0.015	-0.137
-240.917	-133.570	-0.189	0.024
-239.903	46.150	-0.076	0.070
-238.888	-42.564	0.317	0.161
-237.873	-119.727	-0.059	0.010
-236.859	-88.075	-0.052	0.016
-235.844	11.065	0.101	-0.077
-234.830	-200.000	0.015	0.159
-233.815	433.460	-0.045	0.096
-232.800	21.938	-0.197	0.160
-231.786	-76.265	0.086	0.030
-230.771	-120.079	-0.278	-0.047
-229.757	-69.600	0.195	-0.074
-228.742	-102.699	-0.232	-0.055
-227.727	756.924	-0.083	0.223
-226.713	56.026	0.102	-0.098
-225.698	307.081	0.031	-0.058
-224.684	-135.221	0.295	-0.035
-223.669	-200.000	0.061	-0.290
-222.655	27.100	-0.092	0.077
-221.640	18.686	-0.197	0.157
-220.625	25.929	-0.293	0.243
-219.611	-84.357	-0.363	0.114
-218.596	23.356	0.131	-0.107
-217.582	366.459	-0.086	0.173
-216.567	528.742	-0.111	0.262
-215.552	4.364	-0.142	-0.104
-214.538	120.140	0.179	0.221
-213.523	-173.063	0.179	-0.005
-212.509	-22.179	0.243	-0.146
-211.494	215.661	0.245	-0.387
-210.479	-83.772	-0.431	0.137
-209.465	605.805	-0.121	0.299
-208.450	-200.000	-0.002	-0.138
-207.436	-58.362	-0.223	-0.096
-206.421	223.482	-0.134	0.216
-205.406	800.000	-0.032	-0.135
-204.392	-200.000	0.029	-0.129
-203.377	-71.812	-0.113	-0.042
-202.363	75.794	0.145	-0.152
-201.348	90.924	0.088	-0.098
-200.333	282.314	-0.088	0.157
-199.319	-200.000	0.009	-0.049
-198.304	-74.483	-0.144	0.052
-197.290	-71.070	-0.390	0.146
-196.275	527.674	0.048	0.112
-195.260	-53.329	-0.203	-0.092
-194.246	147.970	-0.048	0.064
-193.231	-15.648	-0.325	0.206
-192.217	3.360	0.167	0.121
-191.202	760.986	0.035	0.094
-190.187	-25.454	-0.089	-0.052
-189.173	-149.117	0.311	-0.025
-188.158	800.000	-0.106	-0.332
-187.144	-200.000	-0.048	0.248
-186.129	768.182	-0.035	-0.094
-185.114	-95.183	-0.107	0.029
-184.100	20.935	0.162	0.131
-183.085	-153.590	0.476	0.033
-182.071	97.495	0.312	-0.355
-181.056	180.415	-0.160	-0.234
-180.042	609.135	0.040	0.100
-179.027	339.012	-0.152	0.294
-178.012	35.321	-0.032	0.028
-176.998	-200.000	-0.014	-0.261
-175.983	-200.000	-0.011	-0.367
-174.969	711.018	0.092	-0.241
-173.954	260.146	-0.138	-0.237
-172.939	-200.000	-0.002	-0.065
-171.925	-97.785	0.099	-0.025
-170.910	127.166	-0.231	-0.291
-169.896	-200.000	0.131	0.001
-168.881	800.000	0.030	-0.101
-167.866	369.110	0.158	0.317
-166.852	-96.762	-0.225	0.059
-165.837	-170.767	-0.285	0.010
-164.823	335.010	0.088	0.169
-163.808	160.872	0.170	-0.236
-162.793	-92.966	0.116	-0.032
-161.779	800.000	0.108	0.319
-160.764	-37.103	-0.112	-0.060
-159.750	456.913	0.106	0.233
-158.735	-24.116	0.080	-0.047
-157.720	-96.105	-0.118	0.031
-156.706	666.740	0.076	-0.195
-155.691	-27.671	-0.105	-0.060
-154.677	-154.943	-0.377	0.025
-153.662	329.357	0.160	-0.304
-152.647	77.493	0.104	-0.110
-151.633	-200.000	-0.016	0.116
-150.618	-12.093	0.382	-0.248
-149.604	476.505	-0.043	0.095
-148.589	-77.279	-0.312	0.108
-147.574	-200.000	-0.055	-0.275
-146.560	800.000	0.071	-0.276
-145.545	800.000	0.104	-0.315
-144.531	107.454	0.198	-0.234
-143.516	-200.000	-0.352	0.001
-142.502	-200.000	0.012	0.061
-141.487	800.000	-0.067	0.185
-140.472	-60.181	0.155	-0.066
-139.458	-89.470	0.169	-0.049
-138.443	-200.000	0.001	0.059
-137.429	218.532	0.198	-0.313
-136.414	-138.616	0.415	0.045
-135.399	-196.750	-0.152	0.001
-134.385	169.348	-0.065	-0.092
-133.370	-200.000	-0.002	0.065
-132.356	-9.460	0.322	0.213
-131.341	-73.773	-0.177	-0.064
-130.326	-31.128	0.109	0.061
-129.312	93.532	-0.293	-0.329
-128.297	-200.000	-0.007	-0.162
-127.283	-70.693	-0.027	-0.010
-126.268	-175.567	-0.127	0.003
-125.253	18.564	0.107	-0.085
-124.239	-51.177	0.048	-0.022
-123.224	-200.000	-0.061	0.374
-122.210	112.181	-0.108	-0.129
