DTS Sentinel unit serial number:	SN413079Multiplexer serial number:	ORYXHardware model number:	OX4-SRSoftware version number:	ORYX F/W v4.00 Oryx Data Collector v3.7.2.0data status	okinstallation	princeton_trtdifferential loss correction	single-endedforward channel	channel 3reverse channel	N/Adate	2019/09/17time	04:48:35forward acquisition time	60.00reverse acquisition time	0.00gamma	496.2192k internal	0.2323k external	0.2323temperature offset calibration	0.9945default loss term (dB/km)	0.3790temperature slope calibration	1.0000multiplexer offset coefficient	1.0000multiplexer slope coefficient	1.0000fibre end	0.00T internal ref (°C)	29.56T ext. ref 1 (°C)	0.12T ext. ref 2 (°C)	24.00length (m)	temperature (°C)	Stokes	anti-Stokes-747.200	-66.088	-0.412	0.166
-746.185	-21.531	-0.160	0.099
-745.171	422.040	-0.123	0.266
-744.156	-39.987	0.146	-0.077
-743.142	232.206	-0.148	-0.245
-742.127	-105.248	-0.233	0.054
-741.112	-200.000	-0.025	-0.316
-740.098	-134.027	0.233	-0.029
-739.083	15.553	-0.095	-0.075
-738.069	26.177	0.248	0.209
-737.054	-154.852	0.363	0.024
-736.039	-200.000	-0.033	0.229
-735.025	658.902	-0.045	-0.118
-734.010	-131.681	-0.184	-0.024
-732.996	-50.182	-0.076	0.036
-731.981	-19.037	0.134	-0.084
-730.966	-200.000	-0.007	-0.050
-729.952	42.418	-0.089	-0.082
-728.937	464.859	-0.066	0.148
-727.923	43.430	-0.167	-0.154
-726.908	-51.262	0.100	-0.047
-725.894	-12.241	0.381	-0.251
-724.879	800.000	-0.011	0.033
-723.864	-200.000	-0.002	-0.066
-722.850	800.000	-0.107	-0.334
-721.835	800.000	0.090	-0.349
-720.821	91.954	0.165	0.187
-719.806	-36.918	-0.114	-0.062
-718.791	501.501	-0.138	0.322
-717.777	587.855	0.101	-0.251
-716.762	117.475	0.155	-0.192
-715.748	-28.801	0.221	-0.128
-714.733	-200.000	-0.001	0.144
-713.718	4.167	0.131	0.097
-712.704	-46.680	0.356	0.176
-711.689	-40.427	-0.214	0.112
-710.675	-200.000	-0.003	-0.162
-709.660	800.000	-0.094	-0.285
-708.645	480.245	0.123	0.281
-707.631	-42.014	0.282	0.146
-706.616	16.479	-0.189	0.150
-705.602	214.601	0.045	-0.072
-704.587	-146.504	-0.249	-0.022
-703.572	85.199	-0.082	-0.091
-702.558	776.500	0.067	0.185
-701.543	279.660	0.145	-0.262
-700.529	100.912	0.224	-0.263
-699.514	-99.056	-0.160	0.041
-698.499	547.098	0.084	0.204
-697.485	-92.297	-0.076	0.022
-696.470	-112.507	-0.131	0.026
-695.456	800.000	0.060	-0.249
-694.441	375.606	0.188	-0.386
-693.426	-200.000	-0.023	-0.443
-692.412	-200.000	-0.018	-0.110
-691.397	329.023	0.127	-0.245
-690.383	-99.028	0.081	0.021
-689.368	385.176	-0.061	-0.126
-688.354	-200.000	0.016	-0.158
-687.339	-200.000	0.010	-0.209
-686.324	399.097	-0.055	-0.115
-685.310	-32.475	-0.154	0.087
-684.295	132.741	-0.128	-0.166
-683.281	418.916	-0.107	-0.231
-682.266	40.908	0.208	-0.189
-681.251	0.994	-0.179	-0.129
-680.237	-38.610	-0.248	0.132
-679.222	-100.635	-0.163	-0.040
-678.208	227.213	0.183	0.300
-677.193	-200.000	-0.007	0.149
-676.178	-101.713	-0.310	-0.076
-675.164	-149.868	-0.302	-0.024
-674.149	74.872	0.207	-0.220
-673.135	-200.000	0.003	-0.125
-672.120	132.211	0.172	-0.223
-671.105	-102.331	0.375	-0.091
-670.091	-118.020	-0.027	0.005
-669.076	67.794	-0.044	0.046
-668.062	0.338	-0.149	0.107
-667.047	-200.000	0.028	-0.325
-666.032	-52.792	-0.245	0.114
-665.018	120.534	-0.199	0.249
-664.003	129.645	0.080	0.103
-662.989	-77.605	-0.238	0.083
-661.974	-134.986	-0.274	-0.033
-660.959	-16.639	0.391	0.249
-659.945	79.284	-0.191	0.206
-658.930	-200.000	0.008	0.058
-657.916	406.907	-0.136	-0.290
-656.901	-100.802	0.261	0.065
-655.886	104.308	-0.156	-0.185
-654.872	800.000	0.063	0.244
-653.857	44.486	0.041	-0.038
-652.843	69.791	-0.277	-0.287
-651.828	49.016	0.258	-0.243
-650.814	-99.679	-0.483	0.122
-649.799	-37.039	-0.329	-0.177
-648.784	-74.883	-0.232	0.084
-647.770	-151.777	0.479	-0.035
-646.755	-97.817	0.157	-0.041
-645.741	-99.988	0.084	-0.021
-644.726	-121.793	0.300	0.050
-643.711	800.000	-0.115	0.343
-642.697	800.000	-0.055	0.154
-641.682	-37.178	-0.362	0.195
-640.668	-7.972	-0.161	0.110
-639.653	800.000	0.033	0.101
-638.638	-130.735	0.323	0.044
-637.624	-138.924	0.237	-0.026
-636.609	150.717	-0.188	-0.257
-635.595	-127.679	0.149	0.022
-634.580	800.000	-0.138	0.432
-633.565	87.195	-0.113	-0.126
-632.551	-70.648	-0.145	0.055
-631.536	800.000	0.069	-0.289
-630.522	455.790	0.086	-0.193
-629.507	-5.775	0.267	-0.184
-628.492	-200.000	-0.050	0.293
-627.478	-200.000	0.032	-0.236
-626.463	50.150	-0.094	-0.089
-625.449	-200.000	0.001	0.046
-624.434	800.000	-0.047	-0.158
-623.419	97.076	0.157	0.181
-622.405	-200.000	0.044	-0.647
-621.390	593.960	0.155	0.385
-620.376	-96.219	-0.434	0.116
-619.361	800.000	-0.042	-0.183
-618.346	139.095	0.067	-0.088
-617.332	-78.341	-0.201	0.069
-616.317	-108.075	-0.086	0.019
-615.303	-146.761	0.247	-0.021
-614.288	-115.696	-0.075	-0.014
-613.273	-200.000	-0.035	-0.443
-612.259	-118.180	-0.121	0.022
-611.244	800.000	0.059	0.198
-610.230	208.467	0.132	-0.208
-609.215	-200.000	-0.014	0.351
-608.201	626.855	-0.054	-0.136
-607.186	-97.807	0.065	0.017
-606.171	90.826	-0.052	0.058
-605.157	-200.000	-0.030	-0.348
-604.142	-200.000	-0.037	-0.201
-603.128	800.000	-0.050	-0.198
-602.113	-177.052	-0.127	0.003
-601.098	-77.039	-0.100	-0.035
-600.084	800.000	0.048	0.187
-599.069	-52.473	-0.293	0.136
-598.055	-67.166	0.216	0.085
-597.040	800.000	0.009	-0.027
-596.025	30.557	0.116	0.100
-595.011	-200.000	-0.041	0.395
-593.996	-111.828	-0.318	0.065
-592.982	-45.317	-0.079	0.039
-591.967	231.322	0.168	-0.276
-590.952	-18.140	-0.209	-0.131
-589.938	800.000	-0.140	0.389
-588.923	-194.301	-0.231	-0.002
-587.909	-152.287	0.318	-0.023
-586.894	-81.406	-0.351	-0.116
-585.879	800.000	0.081	0.232
-584.865	-107.395	-0.225	-0.049
-583.850	70.671	-0.246	0.256
-582.836	-200.000	-0.014	-0.075
-581.821	-92.359	0.231	0.065
-580.806	800.000	0.068	0.193
-579.792	-108.531	0.332	-0.072
-578.777	-200.000	-0.043	0.216
-577.763	586.067	-0.062	-0.152
-576.748	89.365	0.325	0.363
-575.733	-200.000	0.056	-0.271
-574.719	281.552	0.138	-0.248
-573.704	-149.147	-0.388	-0.031
-572.690	101.877	-0.330	0.386
-571.675	-191.797	-0.052	-0.001
-570.661	-90.552	0.235	-0.068
-569.646	800.000	-0.071	0.217
-568.631	800.000	-0.135	-0.426
-567.617	37.666	0.069	-0.061
-566.602	67.960	-0.288	-0.295
-565.588	-35.490	0.063	0.034
-564.573	-200.000	0.008	-0.267
-563.558	364.134	-0.132	-0.266
-562.544	-122.870	0.152	-0.025
-561.529	599.307	0.077	-0.191
-560.515	623.793	0.094	-0.238
-559.500	800.000	-0.052	0.170
-558.485	-200.000	0.007	-0.189
-557.471	312.957	0.019	-0.036
-556.456	-5.841	0.283	-0.195
-555.442	487.919	0.109	0.250
-554.427	61.918	0.130	0.129
-553.412	800.000	0.040	0.173
-552.398	-62.590	0.308	-0.128
-551.383	63.576	0.156	-0.157
-550.369	172.710	0.179	-0.258
-549.354	-85.405	-0.138	-0.043
-548.339	-121.855	0.233	0.038
-547.325	-101.912	0.221	0.053
-546.310	405.617	-0.080	-0.170
-545.296	-89.326	0.031	-0.009
-544.281	-141.589	-0.463	0.047
-543.266	-42.453	-0.070	0.036
-542.252	-71.398	0.100	-0.037
-541.237	543.483	0.108	-0.258
-540.223	-200.000	-0.020	0.211
-539.208	-104.171	-0.473	-0.110
-538.193	-129.714	0.075	0.010
-537.179	-51.363	0.064	-0.030
-536.164	-176.418	0.390	0.010
-535.150	-200.000	0.027	-0.130
-534.135	-158.827	0.115	0.007
-533.121	43.110	-0.037	0.033
-532.106	115.426	-0.133	0.163
-531.091	-130.599	0.166	0.022
-530.077	354.229	0.105	0.208
-529.062	-45.341	-0.232	-0.115
-528.048	-61.897	-0.136	0.057
-527.033	554.516	0.037	-0.090
-526.018	-200.000	0.045	0.375
-525.004	-94.725	-0.221	0.060
-523.989	-24.632	0.074	-0.044
-522.975	78.165	-0.167	-0.178
-521.960	-200.000	-0.042	-0.198
-520.945	71.453	0.149	0.155
-519.931	309.608	0.164	-0.308
-518.916	800.000	0.067	0.260
-517.902	291.157	0.163	0.296
-516.887	107.041	-0.286	-0.340
-515.872	800.000	0.123	-0.368
-514.858	-200.000	0.045	-0.352
-513.843	-84.048	-0.198	-0.063
-512.829	-61.844	-0.325	-0.136
-511.814	-98.583	0.123	-0.031
-510.799	-10.152	0.130	0.086
-509.785	-198.782	0.205	-0.001
-508.770	-77.372	-0.214	0.074
-507.756	-18.418	0.218	-0.136
-506.741	364.602	0.112	-0.226
-505.726	452.772	-0.085	-0.189
-504.712	90.880	0.037	-0.041
-503.697	136.818	-0.170	0.222
-502.683	453.014	0.086	0.190
-501.668	66.317	-0.183	0.186
-500.653	-36.156	0.161	0.087
-499.639	157.532	-0.056	-0.077
-498.624	-200.000	-0.039	-0.261
-497.610	-50.844	0.203	0.096
-496.595	-200.000	-0.006	0.067
-495.581	15.980	0.186	0.146
-494.566	-200.000	0.003	0.142
-493.551	-200.000	0.008	-0.196
-492.537	538.005	-0.095	0.227
-491.522	161.125	0.064	-0.089
-490.508	93.912	-0.137	-0.156
-489.493	-80.534	0.151	-0.050
-488.478	800.000	0.046	0.135
-487.464	-0.575	0.210	0.149
-486.449	-38.383	-0.085	0.045
-485.435	373.518	0.066	-0.134
-484.420	32.322	-0.191	0.165
-483.405	268.264	0.152	-0.267
-482.391	136.505	-0.091	0.119
-481.376	-6.795	0.251	0.171
-480.362	-200.000	0.058	-0.488
-479.347	35.023	-0.195	-0.170
-478.332	-88.008	0.276	0.083
-477.318	-103.575	-0.256	-0.060
-476.303	-93.982	-0.066	0.018
-475.289	-200.000	-0.003	-0.125
-474.274	60.354	-0.136	0.134
-473.259	-200.000	0.060	-0.405
-472.245	496.741	-0.120	0.276
-471.230	-48.491	-0.387	-0.186
-470.216	-103.333	-0.318	0.075
-469.201	-83.610	-0.280	-0.090
-468.186	55.179	-0.105	0.101
-467.172	-200.000	0.006	-0.112
-466.157	198.891	-0.069	0.106
-465.143	-22.806	-0.120	0.072
-464.128	622.851	-0.067	-0.169
-463.113	-105.983	-0.298	-0.067
-462.099	800.000	0.047	-0.135
-461.084	-114.155	0.379	-0.073
-460.070	-103.196	-0.252	0.059
-459.055	-200.000	0.002	-0.167
-458.040	104.006	0.193	0.227
-457.026	393.156	-0.100	0.207
-456.011	8.825	0.310	0.233
-454.997	-31.054	0.249	-0.140
-453.982	800.000	-0.046	-0.162
-452.968	-163.707	-0.116	-0.005
-451.953	85.180	0.063	-0.069
-450.938	-33.857	0.093	-0.051
-449.924	-85.630	-0.150	0.046
-448.909	-200.000	-0.010	-0.561
-447.895	-121.971	0.601	-0.099
-446.880	363.074	0.138	0.277
-445.865	779.605	-0.153	0.419
-444.851	-66.187	-0.162	-0.065
-443.836	231.788	0.204	-0.333
-442.822	28.833	-0.273	-0.230
-441.807	33.224	-0.060	0.052
-440.792	-143.034	0.472	0.046
-439.778	-139.650	-0.241	-0.026
-438.763	-40.519	-0.302	0.156
-437.749	-88.545	-0.151	0.045
-436.734	691.690	0.121	0.316
-435.719	84.024	0.155	0.168
-434.705	376.718	-0.082	-0.167
-433.690	800.000	0.032	-0.132
-432.676	-200.000	0.029	0.138
-431.661	-33.548	0.183	0.101
-430.646	-101.743	0.246	0.059
-429.632	19.182	-0.170	0.136
-428.617	-0.436	0.213	-0.151
-427.603	-200.000	-0.006	-0.145
-426.588	171.511	-0.167	-0.240
-425.573	-123.656	-0.219	-0.035
-424.559	800.000	0.053	0.194
-423.544	-188.668	-0.307	-0.004
-422.530	800.000	0.093	0.305
-421.515	-42.032	0.191	0.098
-420.500	-74.216	0.036	0.013
-419.486	-79.815	-0.312	-0.105
-418.471	-134.232	-0.282	-0.035
-417.457	800.000	0.043	-0.129
-416.442	-152.503	-0.265	-0.019
-415.428	547.632	-0.216	-0.517
-414.413	126.180	-0.027	-0.034
-413.398	384.197	-0.067	0.137
-412.384	-178.090	-0.249	-0.006
-411.369	-15.760	-0.200	0.127
-410.355	342.191	-0.132	0.258
-409.340	-149.533	-0.343	0.027
-408.325	-76.513	-0.387	0.136
-407.311	-48.362	-0.134	-0.065
-406.296	283.750	-0.127	0.228
-405.282	81.064	-0.127	-0.136
-404.267	-56.338	-0.202	0.089
-403.252	390.825	0.057	0.118
-402.238	78.562	-0.105	-0.112
-401.223	41.960	0.083	-0.075
-400.209	-125.955	-0.215	-0.032
-399.194	234.278	0.110	-0.181
-398.179	-35.679	-0.197	-0.107
-397.165	-200.000	0.003	-0.261
-396.150	79.411	-0.149	0.159
-395.136	31.440	-0.193	-0.165
-394.121	52.102	0.295	0.280
-393.106	-24.156	0.345	-0.205
-392.092	-136.197	-0.375	0.044
-391.077	-68.214	0.201	0.078
-390.063	54.624	0.349	-0.335
-389.048	13.844	0.307	0.238
-388.033	-32.652	-0.271	0.150
-387.019	-37.241	-0.153	-0.082
-386.004	-91.123	0.076	-0.022
-384.990	219.381	-0.161	-0.257
-383.975	43.929	-0.125	0.114
-382.960	-128.386	-0.313	-0.044
-381.946	-200.000	0.010	0.084
-380.931	133.253	-0.093	0.119
-379.917	-200.000	0.015	0.194
-378.902	-168.220	-0.175	0.007
-377.888	-154.850	-0.040	-0.003
-376.873	-200.000	-0.004	-0.224
-375.858	35.341	-0.176	-0.154
-374.844	-51.102	0.174	0.081
-373.829	-151.790	0.098	0.007
-372.815	97.423	0.202	0.231
-371.800	-91.741	0.041	0.011
-370.785	-200.000	-0.029	0.130
-369.771	800.000	-0.019	0.059
-368.756	-200.000	-0.008	-0.098
-367.742	-45.165	-0.094	0.046
-366.727	-129.226	-0.146	-0.020
-365.712	306.469	-0.318	0.590
-364.698	429.484	0.024	-0.051
-363.683	392.902	0.111	-0.229
-362.669	3.922	-0.101	-0.074
-361.654	800.000	0.015	0.058
-360.639	-101.394	0.059	0.014
-359.625	-200.000	-0.024	-0.187
-358.610	-200.000	-0.035	-0.192
-357.596	-200.000	0.008	0.237
-356.581	40.697	0.107	0.096
-355.566	140.697	0.254	0.334
-354.552	4.126	-0.240	-0.175
-353.537	-200.000	-0.070	0.380
-352.523	-200.000	0.008	0.049
-351.508	-99.130	-0.339	-0.085
-350.493	570.270	-0.065	0.157
-349.479	163.049	-0.097	-0.136
-348.464	740.958	0.059	-0.159
-347.450	-66.752	0.232	-0.091
-346.435	-127.831	0.296	0.042
-345.420	800.000	-0.066	-0.272
-344.406	557.864	-0.080	0.192
-343.391	-15.339	-0.196	-0.124
-342.377	-90.229	0.334	-0.097
-341.362	-36.095	-0.289	0.155
-340.348	-69.526	-0.104	-0.040
-339.333	-200.000	0.040	-0.361
-338.318	-59.191	0.282	0.121
-337.304	-104.625	0.090	-0.021
-336.289	379.336	-0.067	0.136
-335.275	222.307	-0.068	-0.108
-334.260	-111.422	0.186	0.038
-333.245	264.036	-0.119	-0.205
-332.231	76.704	-0.345	0.363
-331.216	4.029	-0.080	-0.058
-330.202	-83.537	-0.081	-0.026
-329.187	51.067	0.157	0.147
-328.172	47.749	0.059	-0.054
-327.158	50.375	-0.061	-0.057
-326.143	667.221	0.192	0.494
-325.129	-86.491	0.281	-0.086
-324.114	25.431	0.295	-0.244
-323.099	17.897	-0.288	-0.228
-322.085	-30.865	-0.063	-0.035
-321.070	800.000	0.018	0.054
-320.056	-9.622	0.117	-0.078
-319.041	800.000	0.084	-0.329
-318.026	-200.000	-0.019	0.229
-317.012	-119.296	-0.077	0.013
-315.997	-80.988	-0.173	-0.057
-314.983	-200.000	-0.154	0.001
-313.968	91.539	-0.152	-0.169
-312.953	-1.562	0.201	0.141
-311.939	-25.414	-0.037	-0.022
-310.924	-79.301	-0.253	0.085
-309.910	-111.451	-0.266	-0.054
-308.895	259.373	0.214	-0.367
-307.880	-41.188	0.128	0.065
-306.866	-4.995	0.223	0.152
-305.851	14.903	-0.091	0.071
-304.837	274.875	-0.248	0.436
-303.822	-113.901	-0.159	-0.031
-302.807	218.995	-0.138	-0.219
-301.793	-74.809	0.203	0.072
-300.778	52.150	0.142	-0.134
-299.764	-200.000	-0.086	0.417
-298.749	800.000	-0.058	0.182
-297.735	0.775	0.156	0.111
-296.720	40.026	-0.171	0.153
-295.705	800.000	0.119	0.346
-294.691	-157.832	0.072	-0.004
-293.676	-100.111	0.269	-0.066
-292.662	32.795	-0.189	-0.162
-291.647	-200.000	0.014	0.220
-290.632	110.413	-0.076	-0.090
-289.618	68.223	-0.155	-0.158
-288.603	-117.853	0.171	-0.030
-287.589	-57.248	0.156	0.068
-286.574	28.914	0.278	0.234
-285.559	514.828	0.065	-0.150
-284.545	-62.254	0.083	0.034
-283.530	-46.987	0.332	0.161
-282.516	29.381	-0.380	-0.320
-281.501	-57.107	0.205	-0.090
-280.486	-200.000	-0.030	0.165
-279.472	-200.000	0.053	-0.235
-278.457	365.094	0.108	0.216
-277.443	-95.598	0.176	0.047
-276.428	529.842	-0.046	-0.108
-275.413	328.721	-0.050	0.095
-274.399	-120.555	0.130	0.022
-273.384	-31.708	-0.296	0.164
-272.370	-140.698	-0.099	0.010
-271.355	-200.000	0.006	0.036
-270.340	-12.370	-0.181	-0.117
-269.326	32.050	0.234	-0.200
-268.311	-48.355	0.189	-0.090
-267.297	-12.355	0.274	0.177
-266.282	-200.000	0.106	0.555
-265.267	800.000	-0.027	-0.112
-264.253	-200.000	-0.030	0.340
-263.238	800.000	-0.083	-0.257
-262.224	800.000	0.090	0.323
-261.209	-109.986	-0.075	0.016
-260.195	-57.013	-0.209	-0.091
-259.180	263.626	0.168	0.290
-258.165	-200.000	-0.029	0.337
-257.151	15.285	0.047	-0.037
-256.136	-62.905	0.145	0.060
-255.122	-200.000	0.041	-0.298
-254.107	127.857	-0.203	-0.255
-253.092	-164.148	-0.248	0.011
-252.078	-118.871	0.317	0.055
-251.063	549.121	0.062	-0.146
-250.049	660.436	0.073	0.186
-249.034	800.000	-0.084	-0.234
-248.019	83.568	-0.327	0.353
-247.005	0.217	0.401	-0.284
-245.990	80.075	0.323	-0.344
-244.976	-90.096	-0.289	-0.083
-243.961	-87.139	0.133	-0.040
-242.946	475.456	0.078	0.174
-241.932	800.000	0.054	0.182
-240.917	-200.000	0.063	-0.304
-239.903	800.000	-0.121	-0.384
-238.888	800.000	0.141	-0.537
-237.873	283.777	0.185	0.330
-236.859	-98.351	0.116	-0.029
-235.844	-85.068	-0.069	-0.021
-234.830	-143.016	-0.448	-0.043
-233.815	-200.000	0.060	-0.302
-232.800	-200.000	-0.037	-0.192
-231.786	-200.000	-0.007	-0.104
-230.771	800.000	-0.078	-0.275
-229.757	800.000	0.068	0.194
-228.742	-155.075	-0.468	0.030
-227.727	343.723	-0.093	0.181
-226.713	2.845	-0.196	-0.141
-225.698	63.814	0.148	-0.148
-224.684	-187.906	0.433	0.006
-223.669	65.358	0.157	0.157
-222.655	-200.000	0.054	-0.344
-221.640	-176.399	-0.235	-0.006
-220.625	-200.000	0.214	-0.000
-219.611	-10.617	0.431	-0.282
-218.596	500.632	0.088	0.201
-217.582	-200.000	-0.031	0.187
-216.567	-150.017	0.374	0.029
-215.552	221.453	-0.050	-0.080
-214.538	-163.130	-0.341	0.016
-213.523	22.006	0.154	-0.124
-212.509	-102.951	0.321	0.075
-211.494	-118.137	0.586	-0.103
-210.479	28.973	0.103	0.086
-209.465	-20.789	-0.109	0.066
-208.450	28.711	-0.141	0.118
-207.436	28.175	0.230	0.192
-206.421	361.873	0.131	0.259
-205.406	28.898	-0.134	0.112
-204.392	232.632	-0.223	0.363
-203.377	-142.516	-0.276	-0.027
-202.363	-61.947	-0.175	-0.072
-201.348	-200.000	0.005	-0.127
-200.333	488.521	-0.052	0.117
-199.319	-59.689	0.201	-0.085
-198.304	-55.388	-0.266	0.118
-197.290	-200.000	0.034	0.202
-196.275	471.168	-0.009	0.019
-195.260	-200.000	-0.013	-0.150
-194.246	18.579	-0.234	0.185
-193.231	-158.746	0.116	0.007
-192.217	-115.858	0.140	0.026
-191.202	87.525	0.094	-0.102
-190.187	315.436	0.043	-0.081
-189.173	-67.271	0.224	0.087
-188.158	800.000	0.016	0.045
-187.144	70.331	0.241	0.246
-186.129	302.892	0.167	0.305
-185.114	-200.000	-0.005	-0.051
-184.100	19.970	-0.049	-0.039
-183.085	-24.651	-0.259	0.152
-182.071	-131.658	0.444	-0.058
-181.056	88.641	0.177	0.194
-180.042	14.748	0.278	-0.215
-179.027	-200.000	0.030	0.169
-178.012	-23.781	-0.176	0.104
-176.998	159.811	-0.197	-0.272
-175.983	-200.000	0.002	0.230
-174.969	-152.638	-0.173	0.012
-173.954	800.000	-0.052	-0.151
-172.939	-48.690	-0.208	-0.099
-171.925	-121.765	0.561	0.092
-170.910	-156.331	0.157	0.010
-169.896	-120.048	0.159	-0.027
-168.881	-49.152	0.270	0.127
-167.866	-115.361	0.094	0.018
-166.852	302.585	0.037	-0.068
-165.837	258.826	-0.020	0.035
-164.823	-200.000	-0.022	-0.193
-163.808	-200.000	-0.027	0.142
-162.793	800.000	-0.115	0.411
-161.779	-118.552	-0.079	0.014
-160.764	-200.000	0.028	-0.377
-159.750	246.046	-0.122	0.203
-158.735	87.954	0.080	0.088
-157.720	-200.000	0.004	0.076
-156.706	69.174	-0.212	-0.216
-155.691	-43.139	0.151	0.075
-154.677	-200.000	0.029	0.360
-153.662	-125.915	0.321	0.048
-152.647	348.376	0.072	0.141
-151.633	-136.722	0.175	0.020
-150.618	-118.977	0.285	0.049
-149.604	-21.202	0.154	0.093
-148.589	-16.616	0.208	0.130
-147.574	113.804	0.161	-0.193
-146.560	-33.789	-0.177	0.096
-145.545	-134.231	0.123	-0.015
-144.531	800.000	0.068	-0.267
-143.516	-37.349	-0.130	-0.068
-142.502	625.482	0.063	0.157
-141.487	67.828	0.113	0.114
-140.472	157.819	-0.074	0.102
-139.458	24.208	0.164	-0.133
-138.443	-200.000	-0.011	0.290
-137.429	-200.000	-0.048	-0.242
-136.414	800.000	-0.035	0.133
-135.399	-200.000	0.014	0.065
-134.385	-22.398	0.222	0.132
-133.370	-96.116	0.310	-0.081
-132.356	285.013	-0.247	0.439
-131.341	-105.595	0.333	-0.075
-130.326	800.000	-0.004	0.012
-129.312	800.000	0.011	-0.044
-128.297	-53.565	-0.103	-0.046
-127.283	203.178	-0.045	0.069
-126.268	67.052	0.110	-0.111
-125.253	84.090	0.078	0.084
-124.239	452.658	0.052	0.114
-123.224	52.286	-0.225	0.212
-122.210	-54.531	-0.343	0.153
-121.195	-200.000	0.046	-0.227
