DTS Sentinel unit serial number:	SN413079Multiplexer serial number:	ORYXHardware model number:	OX4-SRSoftware version number:	ORYX F/W v4.00 Oryx Data Collector v3.7.2.0data status	okinstallation	princeton_trtdifferential loss correction	single-endedforward channel	channel 3reverse channel	N/Adate	2019/09/19time	05:12:35forward acquisition time	60.00reverse acquisition time	0.00gamma	496.2192k internal	0.2349k external	0.2349temperature offset calibration	0.9989default loss term (dB/km)	0.3790temperature slope calibration	1.0000multiplexer offset coefficient	1.0000multiplexer slope coefficient	1.0000fibre end	0.00T internal ref (°C)	19.56T ext. ref 1 (°C)	0.61T ext. ref 2 (°C)	12.73length (m)	temperature (°C)	Stokes	anti-Stokes-747.200	-138.790	-0.126	0.014
-746.185	800.000	-0.037	0.111
-745.171	282.571	-0.116	0.209
-744.156	273.863	-0.170	0.300
-743.142	-17.445	0.234	0.147
-742.127	163.617	-0.117	-0.164
-741.112	-33.217	-0.157	-0.087
-740.098	-170.531	-0.188	-0.007
-739.083	800.000	0.047	-0.185
-738.069	204.590	-0.182	0.282
-737.054	-200.000	-0.009	-0.223
-736.039	38.141	-0.284	-0.253
-735.025	26.302	0.110	-0.092
-734.010	-175.785	-0.155	0.004
-732.996	-17.900	-0.198	0.124
-731.981	800.000	0.142	-0.398
-730.966	100.544	-0.118	0.137
-729.952	-60.375	-0.084	0.036
-728.937	107.125	0.381	-0.452
-727.923	249.185	-0.166	-0.281
-726.908	-200.000	-0.080	-0.470
-725.894	160.189	-0.227	-0.316
-724.879	-83.551	0.243	-0.078
-723.864	70.138	-0.144	0.148
-722.850	800.000	0.037	-0.110
-721.835	201.427	-0.232	-0.356
-720.821	209.857	0.143	0.223
-719.806	-17.842	-0.202	-0.126
-718.791	-92.986	-0.137	0.038
-717.777	-200.000	0.014	0.216
-716.762	591.900	0.221	0.544
-715.748	152.068	-0.147	0.200
-714.733	-200.000	-0.020	-0.348
-713.718	676.720	-0.105	0.271
-712.704	-64.577	0.256	-0.104
-711.689	-38.263	-0.295	-0.156
-710.675	-179.082	0.093	-0.002
-709.660	283.602	-0.141	0.252
-708.645	-25.006	-0.265	0.157
-707.631	800.000	0.083	0.281
-706.616	-89.779	0.199	0.058
-705.602	-78.583	0.289	-0.099
-704.587	-133.351	-0.354	-0.045
-703.572	77.401	0.329	-0.349
-702.558	-6.282	0.251	0.171
-701.543	-112.529	-0.066	-0.013
-700.529	-200.000	0.017	-0.352
-699.514	-51.590	-0.189	0.088
-698.499	-200.000	0.060	-0.306
-697.485	-200.000	0.045	-0.198
-696.470	-13.244	-0.059	-0.038
-695.456	-148.957	-0.173	0.014
-694.441	800.000	-0.048	-0.151
-693.426	658.900	0.057	-0.147
-692.412	144.700	-0.143	0.191
-691.397	102.915	-0.111	-0.130
-690.383	76.501	-0.216	-0.229
-689.368	22.125	0.271	-0.220
-688.354	800.000	0.040	0.122
-687.339	-89.505	0.215	0.063
-686.324	-68.793	-0.203	-0.078
-685.310	-4.358	-0.313	-0.216
-684.295	-163.312	-0.056	0.003
-683.281	-98.418	-0.091	-0.023
-682.266	-64.328	-0.203	-0.082
-681.251	-150.740	-0.166	0.013
-680.237	-12.554	0.297	-0.193
-679.222	465.596	0.081	0.181
-678.208	-11.862	-0.142	-0.093
-677.193	-177.174	0.096	-0.002
-676.178	33.019	-0.095	-0.082
-675.164	-119.156	0.443	-0.077
-674.149	-69.946	-0.194	-0.074
-673.135	27.346	0.111	0.093
-672.120	-164.109	-0.344	0.016
-671.105	-127.475	0.263	0.038
-670.091	128.985	0.049	-0.062
-669.076	15.895	0.032	-0.025
-668.062	-42.382	-0.124	-0.063
-667.047	-93.543	0.093	-0.026
-666.032	425.901	0.122	0.262
-665.018	-200.000	-0.044	-0.198
-664.003	-90.370	0.185	-0.053
-662.989	49.492	-0.199	-0.187
-661.974	-10.579	0.166	0.110
-660.959	-21.665	0.179	0.109
-659.945	-32.892	-0.136	0.075
-658.930	740.669	0.057	-0.153
-657.916	22.473	0.475	-0.387
-656.901	-200.000	0.040	0.194
-655.886	-39.948	0.131	0.068
-654.872	48.622	0.099	-0.092
-653.857	466.689	-0.160	-0.358
-652.843	-53.877	-0.185	0.084
-651.828	4.944	0.246	-0.180
-650.814	54.160	0.103	-0.099
-649.799	283.208	-0.196	-0.350
-648.784	96.720	-0.237	0.270
-647.770	189.668	0.176	-0.263
-646.755	-50.426	-0.252	0.118
-645.741	607.392	-0.116	-0.288
-644.726	340.763	0.042	-0.081
-643.711	364.477	-0.127	0.254
-642.697	82.282	-0.098	0.106
-641.682	-148.175	0.260	-0.021
-640.668	-27.490	-0.143	0.082
-639.653	-0.411	0.124	-0.088
-638.638	800.000	-0.030	-0.104
-637.624	-17.489	0.097	0.061
-636.609	-174.481	0.104	0.003
-635.595	71.810	-0.085	-0.088
-634.580	800.000	0.036	-0.126
-633.565	-78.450	0.259	-0.088
-632.551	132.764	0.065	-0.083
-631.536	278.191	0.174	-0.308
-630.522	40.499	-0.241	-0.216
-629.507	515.927	-0.067	-0.157
-628.492	800.000	-0.084	0.254
-627.478	204.417	-0.116	0.180
-626.463	-137.101	0.260	0.030
-625.449	-13.778	-0.149	-0.096
-624.434	-171.207	-0.257	0.009
-623.419	-34.959	0.288	-0.156
-622.405	-200.000	0.041	0.270
-621.390	-200.000	0.041	-0.231
-620.376	-200.000	-0.038	-0.315
-619.361	26.827	0.037	-0.031
-618.346	64.274	-0.112	-0.112
-617.332	-45.571	0.462	-0.227
-616.317	2.571	-0.157	0.113
-615.303	800.000	-0.014	0.053
-614.288	344.855	-0.120	-0.235
-613.273	-11.285	-0.211	0.138
-612.259	-61.320	0.418	0.175
-611.244	90.226	-0.174	-0.193
-610.230	-200.000	0.009	-0.157
-609.215	-154.226	-0.338	-0.023
-608.201	358.243	-0.183	-0.363
-607.186	800.000	0.101	0.322
-606.171	800.000	0.136	0.404
-605.157	-18.906	0.228	0.141
-604.142	-200.000	0.013	-0.087
-603.128	-11.231	-0.167	-0.109
-602.113	353.203	-0.019	-0.038
-601.098	261.450	0.140	0.242
-600.084	-49.917	-0.035	-0.016
-599.069	-177.052	-0.059	0.001
-598.055	-200.000	-0.019	0.110
-597.040	-200.000	-0.019	0.355
-596.025	187.229	-0.207	-0.307
-595.011	-57.451	-0.306	-0.134
-593.996	-129.160	-0.274	-0.038
-592.982	15.801	0.292	0.228
-591.967	-200.000	-0.004	-0.133
-590.952	513.395	-0.079	0.184
-589.938	37.203	0.137	-0.121
-588.923	-200.000	-0.016	-0.229
-587.909	800.000	-0.129	-0.367
-586.894	800.000	0.128	-0.379
-585.879	-113.543	-0.089	-0.017
-584.865	800.000	0.069	0.234
-583.850	-95.640	0.216	-0.057
-582.836	20.833	-0.107	0.086
-581.821	200.873	0.286	-0.437
-580.806	-80.250	0.197	-0.065
-579.792	-76.634	0.122	-0.042
-578.777	-22.477	-0.296	-0.178
-577.763	800.000	0.058	0.196
-576.748	132.920	-0.158	0.202
-575.733	9.514	-0.147	0.110
-574.719	-200.000	-0.002	-0.269
-573.704	-32.842	0.112	0.062
-572.690	800.000	0.043	-0.131
-571.675	654.062	-0.088	-0.223
-570.661	109.902	0.178	-0.212
-569.646	41.625	-0.428	-0.384
-568.631	-200.000	-0.006	-0.087
-567.617	800.000	-0.030	0.122
-566.602	-134.702	0.280	-0.034
-565.588	-33.194	0.330	-0.181
-564.573	140.838	-0.272	0.356
-563.558	-15.088	0.265	0.169
-562.544	17.723	0.319	-0.252
-561.529	-200.000	-0.006	-0.098
-560.515	-145.780	0.205	-0.018
-559.500	26.117	-0.151	-0.125
-558.485	34.424	0.107	-0.093
-557.471	-83.807	-0.540	-0.171
-556.456	12.364	0.221	0.169
-555.442	-200.000	0.001	-0.103
-554.427	-200.000	0.039	-0.332
-553.412	-104.735	0.217	0.050
-552.398	192.818	0.097	-0.146
-551.383	800.000	0.080	0.297
-550.369	-200.000	0.003	-0.147
-549.354	-200.000	0.003	-0.137
-548.339	-200.000	0.513	-0.001
-547.325	-109.979	0.049	0.010
-546.310	295.953	0.234	-0.426
-545.296	10.150	0.077	-0.058
-544.281	-96.059	-0.063	-0.016
-543.266	-125.895	-0.359	0.054
-542.252	444.819	0.020	-0.043
-541.237	-145.391	-0.086	-0.008
-540.223	19.266	0.273	0.217
-539.208	-200.000	-0.095	0.454
-538.193	26.775	-0.086	-0.071
-537.179	300.356	-0.186	-0.341
-536.164	-146.694	-0.097	0.008
-535.150	16.566	0.250	-0.196
-534.135	-8.443	-0.061	-0.041
-533.121	-35.915	-0.059	-0.032
-532.106	-87.077	0.272	0.082
-531.091	-98.127	-0.242	0.062
-530.077	800.000	0.047	0.201
-529.062	-200.000	-0.016	0.073
-528.048	-97.005	-0.161	0.042
-527.033	-146.371	-0.104	-0.009
-526.018	-74.916	-0.443	0.157
-525.004	800.000	0.069	0.205
-523.989	-200.000	-0.012	-0.217
-522.975	64.313	0.139	0.139
-521.960	40.124	-0.107	-0.096
-520.945	800.000	-0.127	-0.352
-519.931	-127.420	-0.494	-0.071
-518.916	47.356	0.204	0.188
-517.902	-88.374	-0.392	-0.116
-516.887	50.058	-0.238	-0.223
-515.872	-185.187	-0.211	0.003
-514.858	-29.000	-0.289	-0.164
-513.843	800.000	0.081	0.327
-512.829	-50.575	-0.103	0.048
-511.814	-115.638	-0.207	-0.038
-510.799	51.356	0.164	0.155
-509.785	-122.420	-0.272	-0.044
-508.770	206.756	0.092	0.142
-507.756	-17.654	0.169	0.105
-506.741	20.378	-0.271	-0.216
-505.726	-3.628	0.225	0.155
-504.712	800.000	-0.054	0.183
-503.697	-49.521	-0.368	0.173
-502.683	-200.000	0.027	-0.192
-501.668	800.000	-0.070	-0.212
-500.653	13.653	0.244	-0.187
-499.639	163.419	0.052	-0.072
-498.624	104.073	0.068	0.079
-497.610	-50.566	0.098	-0.046
-496.595	-200.000	-0.017	0.374
-495.581	299.954	-0.115	0.210
-494.566	-200.000	0.027	-0.474
-493.551	800.000	0.017	0.059
-492.537	-85.073	0.142	-0.044
-491.522	141.660	0.261	0.342
-490.508	800.000	0.033	-0.103
-489.493	-24.718	0.071	0.042
-488.478	-22.783	0.306	0.183
-487.464	197.160	0.091	0.137
-486.449	745.998	-0.030	0.079
-485.435	145.733	0.073	0.097
-484.420	-20.926	-0.148	-0.089
-483.405	-92.253	-0.077	0.021
-482.391	125.727	0.134	0.168
-481.376	-35.829	-0.173	-0.093
-480.362	307.834	-0.101	-0.187
-479.347	146.564	-0.108	0.143
-478.332	-200.000	-0.005	0.096
-477.318	-53.622	-0.053	-0.024
-476.303	-200.000	0.002	0.071
-475.289	9.394	-0.235	0.175
-474.274	483.069	0.064	-0.143
-473.259	214.362	0.251	0.392
-472.245	-200.000	-0.013	0.308
-471.230	417.626	-0.116	0.244
-470.216	-27.698	0.351	-0.201
-469.201	-66.480	-0.155	0.061
-468.186	180.129	0.251	-0.363
-467.172	-200.000	-0.036	-0.189
-466.157	676.241	-0.041	-0.105
-465.143	-179.184	-0.102	-0.002
-464.128	-200.000	0.038	-0.399
-463.113	279.976	-0.024	0.042
-462.099	-2.549	0.067	-0.046
-461.084	800.000	-0.039	0.118
-460.070	-47.432	-0.459	0.220
-459.055	-130.324	0.060	-0.008
-458.040	-200.000	0.013	0.112
-457.026	162.514	-0.208	-0.289
-456.011	-60.804	-0.087	0.036
-454.997	396.846	-0.112	0.230
-453.982	-60.436	-0.209	-0.088
-452.968	-175.062	0.372	0.010
-451.953	683.695	-0.038	0.098
-450.938	-81.369	-0.206	0.067
-449.924	-200.000	0.024	-0.236
-448.909	494.448	0.012	-0.028
-447.895	792.948	0.010	-0.028
-446.880	-200.000	0.037	0.327
-445.865	100.105	-0.237	0.272
-444.851	-102.745	0.235	-0.055
-443.836	-138.406	-0.045	-0.005
-442.822	-44.628	0.176	-0.087
-441.807	-200.000	-0.008	-0.191
-440.792	286.681	-0.228	0.406
-439.778	-129.881	-0.095	-0.013
-438.763	-200.000	-0.003	0.017
-437.749	-200.000	0.024	-0.343
-436.734	288.871	-0.115	0.206
-435.719	14.035	0.309	0.237
-434.705	120.575	0.247	-0.303
-433.690	-114.078	-0.210	-0.040
-432.676	-139.569	0.024	0.003
-431.661	101.051	0.059	0.067
-430.646	318.495	-0.029	0.053
-429.632	-170.327	0.192	0.007
-428.617	157.898	0.066	-0.091
-427.603	297.645	-0.165	-0.299
-426.588	-49.881	-0.105	0.049
-425.573	800.000	0.009	-0.025
-424.559	-65.708	0.395	0.156
-423.544	32.862	-0.202	0.172
-422.530	-200.000	0.037	0.551
-421.515	800.000	-0.096	0.283
-420.500	-200.000	-0.009	0.046
-419.486	80.815	-0.115	0.123
-418.471	-200.000	-0.008	0.095
-417.457	-200.000	-0.018	-0.173
-416.442	-43.287	0.114	0.057
-415.428	-35.751	0.323	0.172
-414.413	-42.636	0.295	-0.148
-413.398	321.189	-0.098	0.184
-412.384	800.000	-0.074	-0.312
-411.369	-46.300	0.343	-0.166
-410.355	800.000	0.035	0.130
-409.340	800.000	0.093	0.297
-408.325	-46.990	-0.249	-0.120
-407.311	800.000	-0.073	-0.302
-406.296	-200.000	0.022	-0.172
-405.282	192.692	0.044	-0.065
-404.267	-151.054	0.116	0.009
-403.252	-17.954	0.103	-0.064
-402.238	-65.715	0.296	-0.117
-401.223	-117.233	0.112	0.020
-400.209	-65.459	-0.345	-0.137
-399.194	-200.000	0.021	0.090
-398.179	200.226	0.204	0.308
-397.165	-200.000	0.011	0.156
-396.150	-103.994	0.206	0.047
-395.136	60.844	-0.250	-0.244
-394.121	-191.673	-0.457	-0.004
-393.106	-79.078	-0.087	0.029
-392.092	179.873	0.100	-0.145
-391.077	50.947	0.039	0.037
-390.063	800.000	0.064	-0.247
-389.048	-200.000	-0.033	-0.242
-388.033	19.921	0.147	0.117
-387.019	-16.973	-0.110	0.068
-386.004	800.000	0.104	-0.310
-384.990	-10.708	0.225	0.147
-383.975	-65.817	-0.472	0.186
-382.960	800.000	0.037	-0.106
-381.946	-95.215	0.063	-0.017
-380.931	543.922	0.065	-0.152
-379.917	-122.393	-0.168	-0.027
-378.902	154.250	0.021	-0.029
-377.888	800.000	0.026	-0.075
-376.873	-111.831	-0.492	-0.098
-375.858	-155.833	-0.179	0.011
-374.844	214.858	-0.151	0.236
-373.829	400.526	0.096	0.197
-372.815	572.634	-0.135	0.323
-371.800	-9.926	0.102	-0.067
-370.785	800.000	-0.112	-0.315
-369.771	-116.705	-0.124	-0.022
-368.756	-128.184	0.043	-0.006
-367.742	-200.000	0.023	-0.119
-366.727	-76.568	0.107	0.037
-365.712	-63.839	-0.369	-0.149
-364.698	-4.696	-0.179	-0.122
-363.683	190.871	-0.263	0.389
-362.669	800.000	-0.062	0.221
-361.654	48.609	-0.009	-0.008
-360.639	494.700	-0.088	0.199
-359.625	-200.000	-0.036	-0.194
-358.610	34.839	0.230	0.198
-357.596	-8.058	-0.126	-0.084
-356.581	-163.873	-0.016	0.001
-355.566	-147.037	0.239	0.020
-354.552	608.023	0.039	0.096
-353.537	21.654	0.031	-0.025
-352.523	-200.000	0.029	0.198
-351.508	800.000	0.014	-0.037
-350.493	-159.882	-0.107	-0.006
-349.479	66.278	-0.067	-0.067
-348.464	-200.000	-0.009	-0.105
-347.450	128.690	-0.059	-0.074
-346.435	182.273	0.157	-0.227
-345.420	800.000	0.153	0.433
-344.406	5.958	-0.204	-0.149
-343.391	59.935	0.348	-0.338
-342.377	14.626	0.390	-0.300
-341.362	-200.000	-0.011	-0.245
-340.348	-189.758	0.370	-0.004
-339.333	88.674	0.114	0.124
-338.318	800.000	-0.104	0.315
-337.304	-200.000	-0.006	-0.226
-336.289	-200.000	0.033	0.424
-335.275	252.577	0.064	-0.107
-334.260	377.993	0.143	0.288
-333.245	137.241	-0.149	0.192
-332.231	583.257	0.099	0.240
-331.216	162.087	-0.109	0.150
-330.202	-129.150	-0.270	-0.037
-329.187	-94.546	0.208	-0.056
-328.172	188.753	-0.256	-0.377
-327.158	-73.312	-0.212	0.076
-326.143	-200.000	-0.013	0.104
-325.129	-169.035	-0.041	-0.001
-324.114	-130.794	0.071	0.009
-323.099	800.000	-0.129	-0.361
-322.085	-198.287	-0.261	-0.001
-321.070	-200.000	0.027	0.236
-320.056	221.887	0.032	-0.050
-319.041	-200.000	0.006	-0.148
-318.026	107.374	-0.134	-0.156
-317.012	399.654	0.145	-0.298
-315.997	170.552	-0.139	-0.196
-314.983	124.217	0.093	-0.115
-313.968	-114.363	-0.123	-0.023
-312.953	-15.641	-0.144	-0.090
-311.939	-200.000	-0.019	0.354
-310.924	35.419	0.186	0.160
-309.910	-50.055	-0.269	0.125
-308.895	800.000	0.070	-0.191
-307.880	-112.138	0.232	-0.046
-306.866	-200.000	-0.042	-0.225
-305.851	59.857	0.222	0.215
-304.837	-145.988	-0.173	-0.015
-303.822	800.000	0.104	0.319
-302.807	-125.546	0.047	0.007
-301.793	800.000	0.056	-0.167
-300.778	-200.000	-0.042	0.322
-299.764	188.407	0.143	0.210
-298.749	396.871	-0.084	0.172
-297.735	206.046	-0.057	-0.087
-296.720	-111.565	-0.389	-0.078
-295.705	106.861	-0.306	0.356
-294.691	-188.706	0.134	0.002
-293.676	-200.000	-0.004	0.284
-292.662	657.967	0.115	0.289
-291.647	-200.000	0.009	-0.125
-290.632	72.959	0.050	0.051
-289.618	-200.000	0.032	-0.241
-288.603	-119.696	0.161	-0.027
-287.589	-166.913	0.298	0.012
-286.574	800.000	0.073	0.282
-285.559	-200.000	0.033	0.162
-284.545	-200.000	0.037	-0.329
-283.530	222.849	0.113	0.179
-282.516	117.316	0.295	0.355
-281.501	21.550	-0.494	-0.394
-280.486	313.429	0.116	0.215
-279.472	800.000	-0.063	0.204
-278.457	-200.000	-0.017	0.384
-277.443	371.110	-0.180	0.358
-276.428	12.893	-0.143	0.109
-275.413	488.811	-0.062	-0.138
-274.399	268.204	0.040	-0.069
-273.384	-92.515	0.129	-0.035
-272.370	800.000	-0.046	0.177
-271.355	-149.107	-0.202	-0.016
-270.340	208.055	-0.117	-0.179
-269.326	530.861	0.095	0.220
-268.311	256.837	0.054	0.092
-267.297	-60.017	-0.187	-0.078
-266.282	-200.000	-0.026	-0.201
-265.267	232.586	-0.042	0.068
-264.253	-80.470	-0.252	-0.082
-263.238	800.000	0.029	0.121
-262.224	-165.425	0.131	0.006
-261.209	6.001	0.289	0.210
-260.195	36.575	-0.125	0.108
-259.180	595.277	-0.136	0.330
-258.165	-103.598	-0.039	-0.009
-257.151	-144.899	0.475	-0.043
-256.136	-99.116	0.284	0.071
-255.122	800.000	-0.007	0.030
-254.107	-65.286	-0.225	0.089
-253.092	-42.791	0.252	-0.126
-252.078	126.874	-0.060	0.075
-251.063	-112.704	0.261	0.051
-250.049	-98.394	-0.345	-0.087
-249.034	5.709	0.251	0.182
-248.019	-200.000	-0.053	0.286
-247.005	38.990	-0.062	0.055
-245.990	-66.719	-0.117	0.045
-244.976	-172.392	0.323	-0.010
-243.961	-122.376	-0.384	-0.061
-242.946	-200.000	-0.065	0.293
-241.932	-122.438	0.083	0.013
-240.917	268.314	-0.363	-0.623
-239.903	-42.977	0.468	-0.232
-238.888	-117.544	0.515	0.091
-237.873	-200.000	-0.059	-0.325
-236.859	176.983	0.085	-0.121
-235.844	31.629	-0.105	-0.088
-234.830	-200.000	-0.026	-0.215
-233.815	800.000	0.038	0.124
-232.800	113.402	-0.040	0.047
-231.786	-115.840	0.360	-0.066
-230.771	-139.747	-0.248	-0.026
-229.757	800.000	0.068	-0.276
-228.742	800.000	0.016	0.051
-227.727	-125.714	-0.167	0.025
-226.713	-154.026	-0.225	-0.015
-225.698	800.000	0.033	-0.095
-224.684	37.793	0.236	0.205
-223.669	800.000	-0.053	-0.163
-222.655	-51.018	0.143	0.066
-221.640	-17.205	-0.197	-0.121
-220.625	132.797	0.094	0.119
-219.611	-166.027	-0.356	-0.015
-218.596	800.000	0.041	-0.111
-217.582	775.893	-0.057	-0.152
-216.567	65.055	-0.200	0.197
-215.552	-200.000	-0.010	0.096
-214.538	-1.976	-0.092	-0.063
-213.523	-200.000	0.028	0.206
-212.509	-90.922	-0.030	0.008
-211.494	-61.970	0.262	0.107
-210.479	234.872	0.048	-0.077
-209.465	-5.194	0.105	0.071
-208.450	94.507	0.152	-0.169
-207.436	89.341	0.188	0.205
-206.421	-200.000	0.002	-0.044
-205.406	-55.246	0.056	0.025
-204.392	76.194	-0.057	-0.059
-203.377	800.000	0.080	0.247
-202.363	-25.600	-0.189	0.109
-201.348	-111.164	0.135	0.027
-200.333	-200.000	-0.101	0.436
-199.319	-152.897	0.167	-0.012
-198.304	6.907	0.077	-0.056
-197.290	800.000	0.021	-0.081
-196.275	107.217	0.226	-0.263
-195.260	-35.048	0.059	0.032
-194.246	-27.153	-0.185	0.106
-193.231	274.096	-0.060	-0.104
-192.217	-108.966	0.102	-0.021
-191.202	-66.069	-0.079	-0.031
-190.187	50.380	-0.280	0.258
-189.173	-61.443	0.078	-0.032
-188.158	-88.515	0.356	0.104
-187.144	-110.493	-0.310	-0.063
-186.129	480.448	-0.063	-0.140
-185.114	800.000	-0.021	0.081
-184.100	-51.101	-0.242	0.111
-183.085	-113.735	-0.329	0.063
-182.071	-200.000	0.024	0.255
-181.056	166.309	-0.112	-0.155
-180.042	59.722	0.065	0.062
-179.027	800.000	-0.075	-0.230
-178.012	188.454	0.285	0.417
-176.998	133.846	0.114	-0.144
-175.983	-200.000	-0.008	0.227
-174.969	62.338	-0.279	-0.272
-173.954	18.641	-0.089	0.070
-172.939	377.547	0.157	-0.313
-171.925	-93.388	-0.076	-0.021
-170.910	-11.361	-0.101	0.065
-169.896	115.412	-0.105	-0.125
-168.881	98.377	-0.284	0.320
-167.866	-34.307	0.350	-0.188
-166.852	255.489	0.113	-0.189
-165.837	267.415	0.197	-0.336
-164.823	-92.685	0.236	0.064
-163.808	86.950	0.435	0.469
-162.793	127.915	-0.193	0.240
-161.779	-99.183	0.149	-0.037
-160.764	186.359	0.059	0.086
-159.750	-200.000	0.061	-0.632
-158.735	-52.086	0.275	-0.125
-157.720	-33.268	0.217	-0.117
-156.706	328.899	-0.043	-0.081
-155.691	-95.621	0.129	-0.034
-154.677	-200.000	0.032	0.212
-153.662	-56.164	0.408	-0.177
-152.647	156.054	0.308	0.414
-151.633	39.829	-0.358	-0.314
-150.618	29.667	0.160	-0.133
-149.604	173.353	-0.117	0.165
-148.589	603.460	-0.036	0.087
-147.574	77.634	0.161	-0.167
-146.560	59.010	-0.087	-0.083
-145.545	800.000	-0.100	-0.269
-144.531	116.328	-0.231	0.277
-143.516	-91.503	0.427	-0.119
-142.502	169.957	0.194	0.270
-141.487	33.867	0.422	-0.359
-140.472	-200.000	-0.041	-0.280
-139.458	196.571	0.025	-0.038
-138.443	-200.000	-0.030	-0.225
-137.429	32.432	0.085	0.072
-136.414	113.809	0.213	-0.253
-135.399	-52.062	0.129	0.058
-134.385	218.854	0.006	0.009
-133.370	-129.823	0.222	0.030
-132.356	-113.426	-0.456	-0.087
-131.341	-150.136	0.157	-0.012
-130.326	-79.232	0.181	0.060
-129.312	-65.992	0.191	-0.074
-128.297	-200.000	0.016	0.151
-127.283	218.126	0.098	0.153
-126.268	32.373	-0.113	0.095
-125.253	-33.060	0.044	-0.024
-124.239	731.258	0.072	-0.189
-123.224	-48.854	-0.184	0.086
-122.210	347.780	0.105	-0.201
