DTS Sentinel unit serial number:	SN413079Multiplexer serial number:	ORYXHardware model number:	OX4-SRSoftware version number:	ORYX F/W v4.00 Oryx Data Collector v3.7.2.0data status	okinstallation	princeton_trtdifferential loss correction	single-endedforward channel	channel 3reverse channel	N/Adate	2019/09/18time	05:56:35forward acquisition time	60.00reverse acquisition time	0.00gamma	496.2192k internal	0.2343k external	0.2343temperature offset calibration	0.9949default loss term (dB/km)	0.3790temperature slope calibration	1.0000multiplexer offset coefficient	1.0000multiplexer slope coefficient	1.0000fibre end	0.00T internal ref (°C)	23.22T ext. ref 1 (°C)	0.20T ext. ref 2 (°C)	17.53length (m)	temperature (°C)	Stokes	anti-Stokes-747.200	507.438	-0.054	-0.126
-746.185	-183.773	-0.266	-0.005
-745.171	239.289	0.072	-0.120
-744.156	-200.000	-0.012	0.108
-743.142	-200.000	-0.025	0.173
-742.127	-14.893	-0.119	0.077
-741.112	790.368	0.099	-0.273
-740.098	-135.271	-0.030	0.004
-739.083	46.273	-0.143	0.132
-738.069	-127.492	0.073	-0.011
-737.054	-200.000	0.046	-0.245
-736.039	-18.316	-0.207	0.129
-735.025	-23.988	-0.234	-0.140
-734.010	149.421	-0.123	-0.167
-732.996	-200.000	-0.019	-0.452
-731.981	-59.300	-0.386	-0.166
-730.966	-82.583	-0.096	0.031
-729.952	-122.392	-0.273	-0.044
-728.937	45.659	0.115	-0.106
-727.923	-200.000	-0.016	0.078
-726.908	248.814	-0.176	-0.298
-725.894	800.000	-0.043	-0.156
-724.879	-57.306	-0.300	-0.132
-723.864	308.158	0.143	-0.266
-722.850	-83.103	-0.250	0.080
-721.835	-7.755	0.126	0.085
-720.821	-130.767	-0.074	0.010
-719.806	-4.045	-0.033	-0.023
-718.791	-200.000	-0.002	-0.047
-717.777	226.363	-0.120	-0.194
-716.762	46.335	0.107	0.099
-715.748	-127.919	-0.313	-0.045
-714.733	3.466	-0.095	-0.069
-713.718	-150.779	-0.327	0.025
-712.704	-69.117	0.296	0.114
-711.689	-200.000	0.001	0.035
-710.675	589.309	-0.147	-0.363
-709.660	91.757	-0.216	0.243
-708.645	-21.443	0.175	0.107
-707.631	32.826	0.064	-0.056
-706.616	145.988	-0.111	0.149
-705.602	702.802	-0.046	0.120
-704.587	-200.000	-0.006	-0.044
-703.572	-20.174	-0.346	0.213
-702.558	-189.743	0.457	0.005
-701.543	68.734	-0.208	-0.213
-700.529	701.442	0.098	-0.257
-699.514	312.346	-0.011	-0.020
-698.499	-62.609	-0.155	0.064
-697.485	621.865	-0.076	-0.191
-696.470	141.162	-0.182	-0.240
-695.456	-107.878	-0.250	-0.054
-694.441	380.055	-0.097	-0.199
-693.426	40.951	-0.034	0.031
-692.412	-23.920	-0.088	0.052
-691.397	-127.141	-0.290	0.042
-690.383	630.107	0.134	0.339
-689.368	-123.033	-0.484	-0.078
-688.354	-8.546	0.089	-0.060
-687.339	89.604	-0.074	-0.083
-686.324	-153.593	-0.239	-0.016
-685.310	513.073	0.037	-0.085
-684.295	482.341	-0.082	0.186
-683.281	800.000	0.075	-0.268
-682.266	11.884	-0.216	0.166
-681.251	800.000	0.043	-0.127
-680.237	641.618	-0.053	-0.136
-679.222	-37.680	0.270	-0.144
-678.208	36.245	0.105	-0.092
-677.193	283.465	-0.147	-0.264
-676.178	58.802	0.121	0.119
-675.164	22.162	0.334	0.273
-674.149	-146.179	-0.419	0.037
-673.135	-0.400	-0.076	-0.054
-672.120	64.721	-0.046	-0.047
-671.105	-121.954	0.194	0.032
-670.091	310.216	-0.159	-0.296
-669.076	38.370	-0.164	-0.145
-668.062	-200.000	0.053	-0.243
-667.047	-19.852	-0.090	-0.056
-666.032	-78.164	0.146	-0.050
-665.018	-94.326	-0.294	-0.080
-664.003	-200.000	0.028	-0.201
-662.989	-84.643	-0.149	-0.047
-661.974	-187.478	-0.221	-0.003
-660.959	-200.000	0.038	-0.275
-659.945	-137.862	-0.077	0.009
-658.930	333.395	0.042	-0.081
-657.916	20.667	-0.166	-0.134
-656.901	800.000	0.096	-0.286
-655.886	17.325	-0.169	-0.134
-654.872	346.912	-0.164	-0.323
-653.857	287.709	-0.050	0.091
-652.843	-176.640	0.195	0.005
-651.828	-200.000	-0.011	-0.332
-650.814	-62.406	-0.183	-0.076
-649.799	-200.000	0.014	0.078
-648.784	514.819	-0.084	0.195
-647.770	22.198	-0.222	0.181
-646.755	800.000	-0.072	0.219
-645.741	-113.719	0.073	0.014
-644.726	-33.501	-0.203	-0.112
-643.711	34.681	0.134	-0.117
-642.697	800.000	0.092	0.349
-641.682	800.000	0.037	-0.131
-640.668	-55.290	0.117	0.052
-639.653	-200.000	-0.050	0.276
-638.638	-33.602	0.059	-0.033
-637.624	-86.163	0.404	0.124
-636.609	-51.219	0.177	0.083
-635.595	-145.368	0.271	0.024
-634.580	-200.000	0.016	-0.304
-633.565	-199.115	0.246	-0.001
-632.551	446.419	-0.173	-0.380
-631.536	-28.427	-0.183	-0.105
-630.522	-74.973	0.472	0.169
-629.507	2.748	0.135	-0.098
-628.492	-61.109	-0.128	0.054
-627.478	-112.111	0.278	-0.056
-626.463	357.399	0.073	-0.145
-625.449	800.000	-0.045	-0.127
-624.434	-61.010	-0.180	0.076
-623.419	-98.806	0.412	-0.105
-622.405	85.334	-0.168	-0.184
-621.390	-161.099	-0.248	-0.013
-620.376	-103.422	0.171	0.040
-619.361	-200.000	0.028	-0.149
-618.346	-37.420	-0.109	-0.058
-617.332	-94.504	-0.048	0.013
-616.317	-66.100	0.133	0.053
-615.303	126.805	-0.191	-0.242
-614.288	65.218	-0.089	0.089
-613.273	-6.141	-0.118	0.080
-612.259	-200.000	-0.002	-0.156
-611.244	-109.682	0.166	-0.035
-610.230	299.017	0.099	0.181
-609.215	-133.010	0.181	0.023
-608.201	-200.000	-0.005	0.030
-607.186	20.026	0.258	-0.207
-606.171	793.231	0.081	-0.222
-605.157	-7.370	-0.205	-0.138
-604.142	345.553	0.106	0.206
-603.128	-175.822	-0.168	0.004
-602.113	-200.000	-0.044	0.323
-601.098	65.070	-0.112	0.113
-600.084	-160.427	0.285	-0.015
-599.069	-85.447	0.047	0.015
-598.055	800.000	0.025	-0.085
-597.040	-165.907	-0.272	0.012
-596.025	29.891	-0.041	-0.035
-595.011	445.022	0.046	0.100
-593.996	-168.922	0.030	-0.001
-592.982	-200.000	0.003	-0.022
-591.967	88.742	-0.109	0.120
-590.952	275.963	0.185	-0.327
-589.938	800.000	-0.044	0.128
-588.923	-116.552	0.117	0.022
-587.909	800.000	0.109	-0.312
-586.894	456.552	-0.028	-0.062
-585.879	-54.251	0.195	-0.088
-584.865	-46.338	0.301	-0.147
-583.850	-82.778	0.141	0.045
-582.836	-200.000	-0.024	0.239
-581.821	-34.160	-0.175	0.096
-580.806	-200.000	0.025	-0.214
-579.792	532.384	0.036	-0.086
-578.777	-21.160	-0.074	0.045
-577.763	-200.000	0.014	-0.249
-576.748	-150.463	-0.436	0.033
-575.733	-93.242	-0.055	-0.015
-574.719	-200.000	-0.009	0.172
-573.704	-200.000	0.021	-0.258
-572.690	136.317	-0.235	0.304
-571.675	-35.121	-0.257	0.139
-570.661	800.000	0.059	-0.169
-569.646	-200.000	-0.030	-0.218
-568.631	78.254	0.129	-0.137
-567.617	79.946	0.203	-0.217
-566.602	-77.236	-0.241	-0.083
-565.588	60.473	0.097	0.096
-564.573	-200.000	0.092	0.508
-563.558	276.963	0.119	-0.210
-562.544	-11.965	0.218	0.142
-561.529	568.603	-0.023	0.056
-560.515	278.636	-0.024	0.042
-559.500	-200.000	-0.023	-0.160
-558.485	-200.000	0.008	0.241
-557.471	-57.633	-0.163	-0.071
-556.456	680.925	-0.013	-0.034
-555.442	-167.135	0.171	0.007
-554.427	34.336	-0.098	0.085
-553.412	-200.000	-0.028	0.128
-552.398	-85.761	-0.172	0.053
-551.383	533.126	0.264	-0.621
-550.369	45.874	-0.064	-0.059
-549.354	-88.567	-0.059	-0.018
-548.339	-79.031	0.133	0.045
-547.325	80.185	0.064	0.069
-546.310	-64.111	-0.023	-0.009
-545.296	54.333	-0.033	-0.032
-544.281	-112.113	-0.263	0.053
-543.266	202.392	0.143	0.219
-542.252	-70.607	-0.185	0.069
-541.237	-200.000	0.068	0.338
-540.223	-153.703	-0.352	-0.024
-539.208	-118.393	0.225	0.040
-538.193	-200.000	0.290	0.000
-537.179	-200.000	-0.026	0.204
-536.164	-4.688	0.187	0.128
-535.150	395.031	-0.013	-0.026
-534.135	-122.360	0.364	-0.059
-533.121	-200.000	-0.068	-0.482
-532.106	800.000	0.048	-0.136
-531.091	4.838	-0.324	-0.237
-530.077	77.289	-0.302	0.319
-529.062	6.911	0.076	-0.056
-528.048	-29.835	-0.258	-0.146
-527.033	257.233	0.112	0.192
-526.018	-194.146	-0.039	0.000
-525.004	402.416	-0.072	-0.150
-523.989	-26.456	0.295	-0.172
-522.975	498.882	-0.020	0.045
-521.960	-73.215	-0.129	0.047
-520.945	-93.211	-0.209	0.058
-519.931	-23.953	0.379	0.225
-518.916	-147.701	0.149	-0.012
-517.902	439.055	0.166	0.360
-516.887	307.826	0.117	0.217
-515.872	-83.775	0.231	-0.073
-514.858	98.283	0.278	0.318
-513.843	-200.000	-0.038	0.448
-512.829	-143.455	0.217	0.021
-511.814	-200.000	0.041	-0.227
-510.799	-200.000	-0.020	-0.165
-509.785	-200.000	0.033	-0.196
-508.770	136.764	-0.111	-0.143
-507.756	108.303	0.162	-0.192
-506.741	327.802	-0.144	0.275
-505.726	-200.000	0.026	-0.115
-504.712	-200.000	0.007	0.234
-503.697	31.132	0.185	-0.157
-502.683	-169.728	0.263	-0.009
-501.668	-177.217	-0.397	-0.010
-500.653	-101.337	0.368	-0.089
-499.639	-83.900	0.264	0.083
-498.624	-66.390	0.153	0.060
-497.610	324.861	0.070	0.133
-496.595	800.000	0.032	-0.134
-495.581	-64.975	-0.054	-0.022
-494.566	-200.000	-0.070	0.410
-493.551	-127.912	0.098	-0.014
-492.537	67.290	-0.069	0.070
-491.522	-5.636	0.141	-0.096
-490.508	-97.662	-0.116	0.030
-489.493	222.101	-0.044	-0.070
-488.478	-200.000	0.017	0.384
-487.464	-91.938	0.167	0.047
-486.449	-97.306	0.054	-0.014
-485.435	-200.000	0.030	0.278
-484.420	-200.000	-0.009	0.159
-483.405	800.000	-0.062	-0.260
-482.391	-112.081	-0.192	-0.038
-481.376	-200.000	0.043	0.266
-480.362	-137.019	-0.354	-0.040
-479.347	-18.162	-0.058	0.036
-478.332	-200.000	0.021	-0.154
-477.318	-2.235	-0.215	0.149
-476.303	-200.000	-0.001	-0.176
-475.289	-200.000	-0.015	0.290
-474.274	37.117	-0.186	-0.163
-473.259	457.240	-0.094	-0.206
-472.245	-119.735	-0.178	0.031
-471.230	-80.583	-0.247	-0.081
-470.216	1.369	-0.063	0.045
-469.201	-200.000	-0.026	-0.202
-468.186	280.139	0.096	-0.170
-467.172	-1.756	0.199	-0.139
-466.157	13.409	0.195	-0.150
-465.143	-131.681	0.120	0.016
-464.128	800.000	-0.081	-0.253
-463.113	-144.405	-0.499	-0.046
-462.099	-200.000	-0.015	-0.068
-461.084	516.187	-0.043	0.101
-460.070	800.000	-0.130	-0.505
-459.055	-172.106	0.293	0.009
-458.040	800.000	0.032	0.112
-457.026	-38.016	-0.266	-0.140
-456.011	-15.339	0.141	-0.089
-454.997	267.310	-0.045	0.078
-453.982	195.171	-0.048	-0.071
-452.968	-200.000	-0.031	-0.193
-451.953	79.268	0.087	-0.092
-450.938	800.000	-0.081	0.238
-449.924	-99.787	0.045	0.011
-448.909	38.736	0.036	-0.032
-447.895	-68.062	-0.071	0.027
-446.880	648.746	0.038	-0.096
-445.865	-124.161	0.046	0.007
-444.851	158.917	-0.159	-0.219
-443.836	800.000	0.077	0.266
-442.822	10.015	-0.175	0.132
-441.807	-200.000	0.060	0.280
-440.792	800.000	-0.020	0.078
-439.778	-0.046	0.039	0.028
-438.763	-125.944	0.270	0.040
-437.749	-86.673	0.251	0.076
-436.734	-19.137	-0.259	0.159
-435.719	130.108	-0.059	0.074
-434.705	-15.232	-0.138	0.087
-433.690	42.881	-0.043	-0.039
-432.676	129.991	0.125	0.158
-431.661	-151.263	0.226	-0.017
-430.646	338.428	0.162	-0.313
-429.632	-181.518	0.112	0.002
-428.617	75.646	-0.118	0.123
-427.603	453.580	-0.082	-0.180
-426.588	292.414	0.180	0.324
-425.573	-193.842	-0.152	0.001
-424.559	22.288	-0.180	0.145
-423.544	204.352	-0.176	-0.270
-422.530	-74.791	0.338	-0.120
-421.515	-200.000	-0.015	-0.096
-420.500	-152.951	0.217	0.015
-419.486	366.704	-0.029	-0.057
-418.471	-24.349	0.345	0.203
-417.457	-76.525	-0.072	-0.025
-416.442	61.053	0.057	0.056
-415.428	-39.960	-0.126	0.065
-414.413	157.384	0.072	0.098
-413.398	191.883	0.038	-0.056
-412.384	-65.005	0.294	0.117
-411.369	-4.325	-0.087	0.060
-410.355	30.178	-0.241	-0.204
-409.340	-200.000	0.005	-0.123
-408.325	-200.000	-0.027	0.137
-407.311	-200.000	0.004	-0.145
-406.296	292.293	0.098	0.176
-405.282	-79.849	0.301	-0.100
-404.267	-200.000	-0.008	-0.173
-403.252	23.818	0.203	-0.165
-402.238	159.181	-0.084	0.116
-401.223	53.824	0.036	-0.034
-400.209	17.577	0.064	0.051
-399.194	-200.000	0.002	0.024
-398.179	-19.983	0.196	0.120
-397.165	-50.530	0.195	0.091
-396.150	295.080	0.204	-0.368
-395.136	410.272	0.108	0.226
-394.121	800.000	-0.019	0.053
-393.106	800.000	0.100	-0.278
-392.092	267.310	-0.023	-0.040
-391.077	-49.404	0.217	-0.102
-390.063	-40.208	-0.093	0.048
-389.048	598.010	0.063	-0.155
-388.033	-108.491	-0.597	-0.127
-387.019	-1.870	0.139	0.096
-386.004	-200.000	0.018	0.086
-384.990	800.000	0.156	-0.441
-383.975	136.716	-0.138	-0.178
-382.960	400.152	-0.076	0.158
-381.946	800.000	-0.078	-0.241
-380.931	-118.402	0.234	-0.041
-379.917	154.294	-0.103	-0.139
-378.902	-55.357	-0.282	-0.125
-377.888	800.000	0.039	0.128
-376.873	-95.386	-0.128	-0.034
-375.858	-4.043	0.153	-0.105
-374.844	-81.367	-0.249	0.081
-373.829	1.047	0.206	0.146
-372.815	147.708	-0.009	-0.012
-371.800	50.678	-0.197	-0.184
-370.785	76.270	-0.077	-0.080
-369.771	-111.536	-0.086	-0.017
-368.756	607.138	-0.105	0.259
-367.742	-200.000	0.001	-0.195
-366.727	366.571	0.089	0.178
-365.712	134.315	-0.178	0.227
-364.698	800.000	-0.016	-0.051
-363.683	800.000	0.045	-0.189
-362.669	-61.231	-0.267	0.111
-361.654	800.000	0.041	0.138
-360.639	800.000	-0.042	-0.127
-359.625	25.031	-0.282	-0.231
-358.610	-78.536	-0.181	0.061
-357.596	130.497	0.253	-0.320
-356.581	86.035	-0.051	0.055
-355.566	-89.776	-0.237	0.068
-354.552	709.784	-0.049	0.127
-353.537	593.546	-0.144	0.351
-352.523	143.348	-0.163	0.213
-351.508	-113.446	-0.325	0.063
-350.493	131.793	0.095	-0.120
-349.479	800.000	-0.140	0.406
-348.464	-131.113	-0.327	0.043
-347.450	762.538	-0.101	0.270
-346.435	-46.848	0.289	0.139
-345.420	-200.000	-0.057	0.374
-344.406	-200.000	0.011	-0.050
-343.391	19.918	-0.343	-0.272
-342.377	28.726	0.130	0.109
-341.362	-200.000	-0.123	0.540
-340.348	-114.440	0.186	-0.035
-339.333	221.081	-0.141	-0.223
-338.318	136.459	0.126	0.162
-337.304	-157.006	-0.271	0.016
-336.289	-200.000	-0.056	0.313
-335.275	-5.914	0.177	-0.119
-334.260	-126.246	-0.140	0.021
-333.245	16.408	-0.082	0.064
-332.231	23.511	-0.106	0.086
-331.216	79.399	0.191	-0.201
-330.202	-200.000	0.002	0.420
-329.187	82.443	-0.170	-0.182
-328.172	800.000	-0.028	-0.101
-327.158	116.333	-0.077	-0.093
-326.143	-200.000	0.003	-0.026
-325.129	-99.988	-0.317	0.078
-324.114	41.336	0.191	0.170
-323.099	-163.743	-0.330	-0.015
-322.085	-73.974	0.266	0.095
-321.070	-45.159	-0.267	-0.131
-320.056	-118.928	-0.264	-0.046
-319.041	800.000	0.031	0.091
-318.026	-166.788	-0.309	0.013
-317.012	542.181	0.053	-0.125
-315.997	22.286	0.216	-0.173
-314.983	800.000	-0.038	-0.143
-313.968	357.481	-0.115	0.227
-312.953	-200.000	-0.002	0.037
-311.939	-57.637	-0.467	0.201
-310.924	-153.054	0.163	0.011
-309.910	-200.000	-0.023	-0.142
-308.895	107.982	0.174	0.204
-307.880	-132.692	0.242	0.031
-306.866	167.317	-0.138	0.193
-305.851	-200.000	0.015	0.191
-304.837	196.465	0.099	-0.148
-303.822	174.719	0.322	-0.459
-302.807	-26.143	0.097	-0.056
-301.793	796.780	0.066	0.178
-300.778	182.419	0.339	-0.492
-299.764	800.000	0.057	-0.209
-298.749	151.642	0.194	-0.260
-297.735	-200.000	0.018	-0.133
-296.720	-22.640	-0.249	-0.148
-295.705	38.092	-0.081	0.071
-294.691	-13.942	-0.141	-0.090
-293.676	148.283	-0.203	0.270
-292.662	108.947	0.113	-0.133
-291.647	143.433	-0.219	-0.286
-290.632	37.948	-0.218	0.191
-289.618	98.195	-0.135	0.152
-288.603	72.137	0.177	-0.181
-287.589	747.923	0.109	-0.289
-286.574	-32.232	-0.161	-0.088
-285.559	399.856	0.082	0.170
-284.545	800.000	-0.052	-0.213
-283.530	-65.881	-0.292	0.115
-282.516	-200.000	-0.032	-0.151
-281.501	-46.711	-0.093	0.045
-280.486	800.000	-0.109	0.307
-279.472	-200.000	-0.029	0.171
-278.457	110.961	-0.114	0.135
-277.443	800.000	0.047	0.167
-276.428	25.459	-0.045	-0.037
-275.413	103.346	0.141	0.162
-274.399	326.168	0.128	0.240
-273.384	-147.146	0.215	-0.018
-272.370	-40.746	-0.268	-0.137
-271.355	-170.171	0.152	0.005
-270.340	296.875	0.068	0.122
-269.326	-76.709	0.406	-0.140
-268.311	558.997	0.084	0.200
-267.297	39.231	0.042	0.037
-266.282	87.669	0.149	0.162
-265.267	-200.000	0.008	0.072
-264.253	-187.066	0.463	0.006
-263.238	432.119	-0.100	-0.214
-262.224	-180.381	0.204	0.004
-261.209	800.000	0.099	0.333
-260.195	800.000	-0.080	-0.245
-259.180	51.290	-0.147	0.137
-258.165	356.346	-0.084	-0.164
-257.151	-200.000	0.019	-0.147
-256.136	189.935	0.130	-0.191
-255.122	217.690	0.159	-0.250
-254.107	-129.758	0.216	-0.029
-253.092	-54.965	-0.231	0.102
-252.078	-14.160	0.069	-0.043
-251.063	365.538	-0.251	0.496
-250.049	-117.003	0.276	-0.049
-249.034	800.000	-0.074	0.238
-248.019	-200.000	0.010	0.288
-247.005	-109.689	0.168	0.035
-245.990	77.977	-0.121	-0.126
-244.976	-200.000	0.001	-0.111
-243.961	800.000	-0.023	0.071
-242.946	-145.761	0.096	-0.008
-241.932	-70.413	0.173	-0.064
-240.917	76.224	-0.174	-0.181
-239.903	432.657	0.142	0.301
-238.888	-6.086	0.177	-0.119
-237.873	-7.264	-0.248	-0.165
-236.859	256.808	-0.064	0.108
-235.844	17.522	-0.070	0.055
-234.830	236.558	-0.226	-0.367
-233.815	468.126	0.041	-0.089
-232.800	800.000	-0.094	-0.330
-231.786	47.498	-0.059	-0.054
-230.771	-200.000	-0.022	0.169
-229.757	-68.278	0.008	0.003
-228.742	-75.808	-0.332	-0.115
-227.727	-200.000	0.054	-0.285
-226.713	-53.907	-0.392	0.175
-225.698	36.474	-0.300	0.260
-224.684	473.214	-0.109	0.241
-223.669	800.000	0.058	-0.167
-222.655	208.921	0.016	-0.025
-221.640	45.100	-0.148	-0.134
-220.625	-95.253	-0.101	-0.027
-219.611	800.000	0.081	-0.250
-218.596	-118.208	-0.057	-0.010
-217.582	751.355	-0.017	-0.045
-216.567	-84.691	-0.034	-0.010
-215.552	-116.737	0.107	-0.019
-214.538	-25.388	-0.079	0.046
-213.523	21.160	-0.044	0.035
-212.509	-200.000	0.005	-0.226
-211.494	-200.000	-0.064	-0.354
-210.479	-104.895	0.065	0.015
-209.465	-67.847	0.098	-0.037
-208.450	-200.000	-0.034	-0.151
-207.436	90.436	-0.023	-0.026
-206.421	249.157	0.101	-0.168
-205.406	105.723	-0.119	-0.137
-204.392	-106.965	-0.210	0.046
-203.377	69.604	0.133	0.134
-202.363	-60.514	0.142	0.059
-201.348	-144.621	0.074	-0.007
-200.333	800.000	-0.072	0.290
-199.319	40.371	0.295	0.260
-198.304	-200.000	0.019	-0.420
-197.290	-200.000	0.005	-0.146
-196.275	-81.249	-0.165	0.053
-195.260	-200.000	-0.008	0.033
-194.246	-200.000	-0.021	-0.134
-193.231	-126.567	0.220	0.032
-192.217	-135.318	-0.046	0.005
-191.202	-200.000	-0.013	0.310
-190.187	-200.000	0.021	-0.163
-189.173	132.186	-0.134	-0.169
-188.158	-200.000	0.008	-0.461
-187.144	-181.174	0.420	0.008
-186.129	121.563	0.123	0.151
-185.114	191.889	0.194	-0.287
-184.100	496.443	-0.107	0.241
-183.085	-54.671	-0.107	0.047
-182.071	-146.220	0.156	0.013
-181.056	-74.048	0.286	0.101
-180.042	-200.000	0.001	0.046
-179.027	419.265	0.041	-0.085
-178.012	220.423	-0.117	0.183
-176.998	79.109	-0.208	0.218
-175.983	-4.214	-0.123	0.083
-174.969	-128.093	0.125	0.018
-173.954	800.000	0.024	0.097
-172.939	-45.024	-0.172	0.084
-171.925	24.185	0.189	0.152
-170.910	128.850	-0.129	-0.161
-169.896	800.000	-0.052	0.201
-168.881	-79.863	-0.310	-0.102
-167.866	-26.156	-0.035	-0.020
-166.852	-28.733	0.134	-0.076
-165.837	800.000	0.083	-0.268
-164.823	-135.464	0.090	0.011
-163.808	-117.868	-0.227	0.040
-162.793	158.868	-0.101	0.137
-161.779	-200.000	0.031	0.272
-160.764	-122.064	0.124	-0.020
-159.750	12.724	0.069	-0.052
-158.735	104.704	0.124	0.143
-157.720	123.502	0.201	0.246
-156.706	27.974	-0.438	0.361
-155.691	183.240	-0.127	-0.184
-154.677	143.550	0.096	-0.125
-153.662	140.066	-0.221	-0.285
-152.647	800.000	-0.049	0.172
-151.633	429.852	-0.024	0.051
-150.618	800.000	-0.023	0.071
-149.604	-102.291	-0.028	0.006
-148.589	800.000	0.035	-0.144
-147.574	-19.692	-0.294	-0.178
-146.560	800.000	0.033	-0.139
-145.545	800.000	-0.057	-0.214
-144.531	86.602	-0.144	-0.155
-143.516	80.795	0.288	-0.303
-142.502	-200.000	-0.004	-0.135
-141.487	800.000	0.052	-0.175
-140.472	54.533	0.284	0.268
-139.458	-45.636	-0.166	0.080
-138.443	-71.834	0.243	0.089
-137.429	26.362	-0.178	0.146
-136.414	-52.598	-0.307	0.139
-135.399	-64.201	-0.239	0.095
-134.385	-200.000	-0.026	0.183
-133.370	114.343	0.221	0.264
-132.356	24.744	-0.125	-0.101
-131.341	-40.481	0.315	0.160
-130.326	-200.000	-0.059	0.327
-129.312	-66.275	-0.276	0.108
-128.297	237.078	-0.135	0.218
-127.283	-82.730	0.552	0.175
-126.268	-67.317	-0.022	0.008
-125.253	-130.769	0.057	-0.007
-124.239	63.497	0.126	-0.124
-123.224	256.922	-0.089	0.149
-122.210	-35.929	0.058	-0.031
