DTS Sentinel unit serial number:	SN413079Multiplexer serial number:	ORYXHardware model number:	OX4-SRSoftware version number:	ORYX F/W v4.00 Oryx Data Collector v3.7.2.0data status	okinstallation	princeton_trtdifferential loss correction	single-endedforward channel	channel 3reverse channel	N/Adate	2019/09/15time	02:56:35forward acquisition time	60.00reverse acquisition time	0.00gamma	496.2192k internal	0.2323k external	0.2323temperature offset calibration	0.9968default loss term (dB/km)	0.3790temperature slope calibration	1.0000multiplexer offset coefficient	1.0000multiplexer slope coefficient	1.0000fibre end	0.00T internal ref (°C)	31.25T ext. ref 1 (°C)	4.58T ext. ref 2 (°C)	25.65length (m)	temperature (°C)	Stokes	anti-Stokes-747.200	565.815	0.079	-0.195
-746.185	486.408	-0.028	0.064
-745.171	-170.321	-0.145	0.005
-744.156	-15.464	-0.287	0.185
-743.142	402.863	0.063	0.134
-742.127	800.000	-0.087	0.269
-741.112	800.000	-0.048	-0.200
-740.098	-44.810	-0.184	0.093
-739.083	-183.528	-0.377	-0.007
-738.069	-14.702	-0.211	0.137
-737.054	302.323	-0.098	-0.184
-736.039	-200.000	-0.034	-0.267
-735.025	263.939	-0.095	-0.166
-734.010	800.000	-0.119	-0.339
-732.996	-112.466	-0.480	0.097
-731.981	7.609	-0.123	0.093
-730.966	-200.000	0.040	0.254
-729.952	-73.853	0.385	-0.141
-728.937	-9.995	-0.104	0.070
-727.923	-161.071	-0.300	0.016
-726.908	-19.600	0.082	-0.051
-725.894	122.024	0.182	-0.229
-724.879	-73.505	-0.474	-0.174
-723.864	-200.000	-0.001	-0.008
-722.850	-30.713	0.131	0.075
-721.835	-104.635	-0.633	-0.147
-720.821	-141.917	0.039	0.004
-719.806	-200.000	-0.005	-0.143
-718.791	50.565	0.282	0.269
-717.777	-61.385	-0.083	0.035
-716.762	-200.000	0.010	-0.066
-715.748	260.988	-0.172	0.301
-714.733	169.786	-0.098	-0.142
-713.718	1.489	0.023	-0.016
-712.704	-48.759	-0.091	0.044
-711.689	209.421	-0.097	-0.153
-710.675	55.133	0.234	-0.228
-709.660	-200.000	0.015	0.336
-708.645	-75.499	-0.197	-0.071
-707.631	-200.000	0.019	0.093
-706.616	175.203	0.058	-0.085
-705.602	21.660	0.074	0.061
-704.587	-127.095	-0.217	0.032
-703.572	-33.644	-0.070	-0.039
-702.558	-67.692	0.288	-0.114
-701.543	431.874	-0.078	-0.171
-700.529	137.776	0.179	0.237
-699.514	-59.595	-0.300	0.130
-698.499	-200.000	0.007	0.102
-697.485	-200.000	-0.005	0.071
-696.470	-52.735	0.173	0.080
-695.456	331.128	-0.086	0.167
-694.441	-114.407	0.250	-0.049
-693.426	-75.808	0.233	0.083
-692.412	-72.769	0.340	-0.126
-691.397	-69.529	0.307	0.119
-690.383	-122.200	-0.067	0.011
-689.368	800.000	0.084	-0.269
-688.354	525.157	-0.064	-0.151
-687.339	28.399	-0.076	0.065
-686.324	-148.669	-0.225	-0.018
-685.310	-159.816	0.519	0.029
-684.295	503.936	0.067	-0.156
-683.281	-97.273	-0.577	0.152
-682.266	-12.282	0.097	-0.064
-681.251	42.100	0.042	-0.038
-680.237	800.000	-0.130	-0.491
-679.222	-200.000	0.018	-0.244
-678.208	67.861	-0.043	0.045
-677.193	-82.310	0.213	-0.070
-676.178	-200.000	0.013	0.096
-675.164	479.730	0.074	0.169
-674.149	-200.000	0.003	0.017
-673.135	59.169	-0.121	-0.120
-672.120	-200.000	0.080	0.000
-671.105	130.675	-0.202	-0.260
-670.091	130.108	0.034	0.043
-669.076	-31.961	-0.213	-0.120
-668.062	-7.753	-0.248	-0.169
-667.047	800.000	-0.016	0.065
-666.032	60.724	-0.126	-0.126
-665.018	-200.000	-0.086	-0.448
-664.003	524.178	-0.012	0.029
-662.989	-49.199	0.122	0.059
-661.974	-48.557	0.134	0.065
-660.959	-137.830	-0.142	0.016
-659.945	-163.000	0.130	0.006
-658.930	-200.000	0.018	-0.248
-657.916	444.397	-0.079	0.174
-656.901	-200.000	0.029	0.149
-655.886	-166.646	-0.047	-0.002
-654.872	-200.000	0.131	0.599
-653.857	161.583	0.136	0.191
-652.843	244.645	-0.082	0.139
-651.828	37.269	0.092	0.082
-650.814	-200.000	-0.002	-0.243
-649.799	800.000	-0.078	-0.218
-648.784	133.092	0.084	-0.109
-647.770	69.693	0.139	0.144
-646.755	-189.365	-0.176	-0.002
-645.741	-168.436	-0.339	-0.013
-644.726	-200.000	0.021	-0.196
-643.711	-69.684	-0.169	0.065
-642.697	-83.806	-0.215	0.069
-641.682	-130.795	0.405	0.055
-640.668	645.188	0.053	-0.136
-639.653	-0.020	0.196	-0.141
-638.638	-36.652	0.033	-0.018
-637.624	800.000	0.032	-0.091
-636.609	-88.308	0.285	0.086
-635.595	-80.782	-0.216	0.072
-634.580	413.421	0.043	0.091
-633.565	25.556	0.124	-0.104
-632.551	-179.593	-0.311	0.007
-631.536	-50.541	-0.157	0.074
-630.522	-200.000	-0.014	0.078
-629.507	-154.968	0.243	-0.016
-628.492	-86.402	0.281	0.087
-627.478	800.000	0.113	-0.454
-626.463	33.706	-0.190	0.166
-625.449	-51.176	0.188	-0.089
-624.434	60.294	-0.137	0.136
-623.419	-33.614	-0.160	0.089
-622.405	800.000	-0.096	-0.416
-621.390	78.972	0.188	0.203
-620.376	484.734	0.044	0.100
-619.361	16.663	0.270	0.214
-618.346	-200.000	0.005	-0.033
-617.332	-29.803	-0.312	0.179
-616.317	-54.498	0.106	0.048
-615.303	110.717	-0.228	-0.276
-614.288	-186.562	-0.415	0.006
-613.273	452.067	-0.061	-0.135
-612.259	-26.101	-0.234	-0.138
-611.244	773.113	-0.037	-0.101
-610.230	-140.104	-0.380	-0.040
-609.215	-79.068	-0.332	0.113
-608.201	-154.110	0.263	0.018
-607.186	-57.814	-0.157	0.069
-606.171	-167.854	0.274	-0.011
-605.157	-117.527	-0.222	-0.040
-604.142	224.579	0.212	0.345
-603.128	800.000	0.068	-0.296
-602.113	-200.000	0.011	0.137
-601.098	800.000	0.015	-0.052
-600.084	-76.497	-0.242	0.086
-599.069	-37.117	0.095	0.051
-598.055	800.000	-0.078	-0.235
-597.040	-200.000	0.068	-0.310
-596.025	69.427	-0.031	0.032
-595.011	-7.252	-0.222	-0.151
-593.996	-28.657	0.327	-0.189
-592.982	-96.163	0.262	0.070
-591.967	-62.679	-0.125	0.052
-590.952	800.000	-0.047	-0.134
-589.938	227.038	0.240	-0.392
-588.923	-110.752	-0.130	-0.027
-587.909	647.201	-0.075	0.192
-586.894	390.228	-0.068	-0.141
-585.879	-62.061	0.358	-0.150
-584.865	-111.333	0.338	-0.069
-583.850	-130.538	-0.186	0.025
-582.836	-109.627	0.401	0.085
-581.821	-92.139	-0.244	-0.069
-580.806	-73.495	0.126	0.046
-579.792	296.076	-0.047	0.086
-578.777	-160.438	0.511	0.028
-577.763	800.000	0.037	-0.117
-576.748	558.076	0.086	0.209
-575.733	160.242	0.025	-0.035
-574.719	-9.054	-0.315	-0.212
-573.704	-87.826	-0.209	-0.063
-572.690	28.499	0.028	0.024
-571.675	-200.000	0.001	0.034
-570.661	-31.913	0.099	0.055
-569.646	-200.000	0.002	-0.048
-568.631	-128.460	0.241	-0.034
-567.617	-123.870	-0.563	-0.089
-566.602	266.003	0.080	-0.140
-565.588	-120.096	0.087	0.015
-564.573	-200.000	0.026	0.242
-563.558	-196.922	-0.340	0.002
-562.544	800.000	0.078	0.277
-561.529	-92.913	0.319	-0.089
-560.515	101.252	-0.101	-0.118
-559.500	-200.000	-0.014	-0.295
-558.485	526.040	-0.029	-0.068
-557.471	29.524	-0.238	0.203
-556.456	-200.000	-0.008	0.142
-555.442	276.705	-0.126	0.225
-554.427	-71.585	-0.259	-0.097
-553.412	800.000	0.019	0.056
-552.398	240.845	-0.198	-0.331
-551.383	237.163	0.113	-0.187
-550.369	-171.490	-0.353	-0.012
-549.354	249.310	0.086	-0.146
-548.339	-56.562	0.327	0.145
-547.325	800.000	-0.052	0.172
-546.310	-29.752	0.194	0.111
-545.296	-71.487	0.181	-0.068
-544.281	-23.109	-0.134	0.081
-543.266	244.914	-0.087	0.146
-542.252	-133.153	-0.187	-0.024
-541.237	-200.000	0.008	-0.309
-540.223	-35.099	0.212	-0.116
-539.208	-137.985	0.060	-0.007
-538.193	-167.370	-0.045	-0.002
-537.179	48.232	-0.215	0.202
-536.164	311.359	0.087	0.163
-535.150	-175.256	0.204	0.006
-534.135	369.334	0.019	0.039
-533.121	129.272	-0.073	0.093
-532.106	-55.698	-0.109	0.049
-531.091	171.628	-0.114	0.164
-530.077	800.000	0.050	0.194
-529.062	182.980	-0.111	0.164
-528.048	800.000	0.012	-0.041
-527.033	-200.000	-0.029	0.261
-526.018	160.467	-0.073	0.102
-525.004	197.454	0.221	-0.337
-523.989	698.413	0.069	-0.183
-522.975	-200.000	-0.008	-0.122
-521.960	-200.000	-0.008	0.046
-520.945	414.353	-0.098	-0.209
-519.931	-75.613	-0.293	0.104
-518.916	-200.000	-0.018	-0.197
-517.902	800.000	-0.073	-0.216
-516.887	-200.000	-0.139	-0.722
-515.872	37.638	0.129	-0.114
-514.858	196.240	-0.196	0.298
-513.843	357.368	-0.024	-0.048
-512.829	800.000	-0.034	0.119
-511.814	-142.897	0.205	-0.020
-510.799	290.770	-0.143	-0.261
-509.785	-200.000	0.005	-0.029
-508.770	-200.000	0.008	0.290
-507.756	312.076	-0.144	-0.271
-506.741	249.225	0.055	-0.093
-505.726	17.224	-0.204	-0.162
-504.712	-88.576	0.161	0.048
-503.697	-106.057	-0.166	-0.037
-502.683	800.000	-0.091	0.282
-501.668	-144.586	-0.210	0.019
-500.653	-132.411	-0.353	-0.046
-499.639	247.614	-0.109	-0.184
-498.624	-1.644	-0.140	-0.099
-497.610	-71.918	0.047	-0.017
-496.595	680.346	0.100	-0.261
-495.581	-56.245	0.184	0.082
-494.566	311.077	0.123	-0.230
-493.551	-200.000	0.030	0.161
-492.537	-32.120	-0.225	-0.126
-491.522	144.662	0.166	-0.222
-490.508	-118.417	-0.325	0.058
-489.493	34.441	0.181	0.158
-488.478	52.404	0.181	0.173
-487.464	-200.000	0.049	-0.398
-486.449	-114.403	0.213	0.041
-485.435	-37.641	-0.269	0.143
-484.420	40.720	0.190	-0.171
-483.405	-130.844	0.046	-0.006
-482.391	76.391	-0.083	0.087
-481.376	-200.000	-0.028	-0.209
-480.362	-63.014	0.220	-0.091
-479.347	100.653	0.074	0.086
-478.332	-200.000	-0.037	-0.220
-477.318	220.196	0.133	-0.213
-476.303	-83.542	0.156	-0.050
-475.289	89.461	-0.216	0.241
-474.274	94.577	-0.094	-0.107
-473.259	-200.000	-0.024	0.133
-472.245	-168.624	0.078	-0.003
-471.230	127.058	0.088	0.111
-470.216	-92.594	0.139	0.039
-469.201	241.288	0.094	0.157
-468.186	380.197	-0.138	-0.282
-467.172	800.000	-0.037	0.113
-466.157	627.364	0.081	0.204
-465.143	397.134	0.117	-0.244
-464.128	-87.979	0.517	-0.155
-463.113	302.302	-0.214	0.395
-462.099	753.934	-0.070	0.188
-461.084	71.968	0.165	0.172
-460.070	93.209	0.160	0.181
-459.055	117.333	-0.122	-0.150
-458.040	-60.327	-0.263	0.112
-457.026	-200.000	-0.024	0.221
-456.011	-60.568	-0.042	0.018
-454.997	-200.000	-0.017	-0.230
-453.982	-153.407	-0.295	-0.020
-452.968	29.115	-0.199	0.169
-451.953	680.312	-0.114	-0.297
-450.938	800.000	-0.064	0.188
-449.924	74.135	-0.111	-0.116
-448.909	148.163	0.078	0.105
-447.895	207.853	-0.126	0.197
-446.880	-113.146	0.136	-0.027
-445.865	27.082	0.233	-0.195
-444.851	-200.000	0.006	-0.350
-443.836	-80.571	0.241	0.080
-442.822	133.039	-0.117	-0.151
-441.807	117.500	-0.250	-0.307
-440.792	408.848	0.081	0.171
-439.778	294.275	0.025	-0.046
-438.763	800.000	0.028	-0.097
-437.749	-99.556	-0.282	-0.071
-436.734	-138.821	-0.136	0.015
-435.719	-200.000	-0.002	0.011
-434.705	800.000	0.069	-0.214
-433.690	435.573	-0.036	-0.077
-432.676	-89.632	-0.278	0.081
-431.661	-200.000	-0.029	-0.198
-430.646	2.252	0.241	0.174
-429.632	-167.554	-0.298	-0.012
-428.617	127.751	-0.185	-0.234
-427.603	136.480	-0.064	-0.083
-426.588	800.000	0.017	0.059
-425.573	800.000	-0.078	-0.279
-424.559	-39.662	-0.148	-0.077
-423.544	-161.604	0.058	0.003
-422.530	-106.888	0.309	0.068
-421.515	374.701	0.108	0.220
-420.500	800.000	0.052	0.195
-419.486	-122.553	0.089	-0.014
-418.471	-137.745	-0.135	0.015
-417.457	595.535	-0.058	0.143
-416.442	29.461	0.176	0.149
-415.428	-86.154	0.285	-0.088
-414.413	-15.348	-0.185	0.118
-413.398	275.608	-0.140	-0.247
-412.384	800.000	-0.093	0.290
-411.369	-135.003	-0.234	0.028
-410.355	161.902	-0.147	-0.205
-409.340	11.245	-0.252	0.192
-408.325	-200.000	-0.012	0.227
-407.311	60.496	0.102	-0.101
-406.296	-200.000	-0.102	0.540
-405.282	800.000	0.070	-0.234
-404.267	21.310	-0.101	0.082
-403.252	298.307	0.146	0.268
-402.238	-200.000	-0.009	-0.131
-401.223	-84.405	-0.219	0.069
-400.209	-94.271	0.306	0.083
-399.194	800.000	0.042	0.174
-398.179	800.000	0.051	0.193
-397.165	-79.057	0.233	0.079
-396.150	559.513	-0.128	-0.308
-395.136	-80.240	-0.127	-0.042
-394.121	428.511	-0.112	0.241
-393.106	-43.480	-0.215	-0.108
-392.092	-200.000	0.024	-0.183
-391.077	-136.926	0.178	-0.020
-390.063	800.000	0.110	0.339
-389.048	81.540	0.140	-0.151
-388.033	443.504	-0.061	0.134
-387.019	800.000	0.049	-0.150
-386.004	-116.575	-0.019	-0.003
-384.990	496.296	0.124	0.285
-383.975	102.404	0.056	-0.065
-382.960	-119.972	-0.275	0.047
-381.946	800.000	0.087	-0.337
-380.931	-200.000	0.021	-0.144
-379.917	-121.963	0.119	0.020
-378.902	-36.526	-0.284	0.152
-377.888	258.275	0.051	0.088
-376.873	-30.986	-0.297	0.167
-375.858	66.987	0.170	-0.172
-374.844	26.925	-0.183	0.153
-373.829	-98.660	-0.134	0.034
-372.815	800.000	0.056	-0.161
-371.800	-200.000	-0.037	-0.250
-370.785	-33.206	0.221	-0.122
-369.771	-8.974	0.396	0.264
-368.756	127.328	0.161	-0.204
-367.742	600.697	0.054	-0.133
-366.727	800.000	0.117	-0.451
-365.712	119.275	-0.215	-0.265
-364.698	48.828	-0.029	-0.027
-363.683	185.622	-0.066	0.098
-362.669	307.524	-0.198	-0.368
-361.654	-163.986	0.257	-0.012
-360.639	-200.000	0.063	0.474
-359.625	-113.297	-0.277	-0.054
-358.610	-5.558	0.141	-0.097
-357.596	130.868	-0.196	-0.250
-356.581	-82.282	-0.239	0.077
-355.566	-122.593	-0.055	0.009
-354.552	-200.000	-0.048	0.253
-353.537	-94.623	0.245	0.066
-352.523	167.229	-0.120	-0.170
-351.508	178.558	0.225	-0.327
-350.493	21.523	0.238	0.193
-349.479	800.000	0.061	-0.224
-348.464	24.659	-0.216	-0.178
-347.450	15.791	-0.208	0.163
-346.435	-20.754	0.422	0.258
-345.420	235.181	-0.117	-0.193
-344.406	-86.301	0.370	0.113
-343.391	118.659	-0.116	0.143
-342.377	271.969	0.050	0.087
-341.362	11.914	0.421	0.322
-340.348	-81.089	0.309	-0.102
-339.333	-117.393	-0.340	-0.061
-338.318	-104.406	-0.267	0.061
-337.304	99.211	0.047	-0.054
-336.289	-200.000	0.005	-0.176
-335.275	-200.000	-0.029	-0.276
-334.260	162.889	-0.067	-0.094
-333.245	800.000	-0.038	-0.131
-332.231	-61.121	0.293	-0.123
-331.216	82.944	-0.110	0.119
-330.202	800.000	0.083	0.339
-329.187	-69.111	-0.269	0.103
-328.172	141.358	0.089	-0.118
-327.158	9.393	0.153	0.115
-326.143	800.000	0.048	-0.132
-325.129	183.057	0.130	0.191
-324.114	582.676	0.014	0.035
-323.099	-35.184	-0.171	0.092
-322.085	746.663	-0.074	0.198
-321.070	-91.062	0.054	-0.015
-320.056	118.772	-0.266	0.326
-319.041	-24.631	0.081	0.048
-318.026	-11.585	-0.079	-0.051
-317.012	-126.772	0.192	-0.028
-315.997	-200.000	0.015	0.180
-314.983	-68.162	0.046	-0.018
-313.968	-200.000	-0.044	-0.288
-312.953	-200.000	0.023	-0.207
-311.939	-123.069	-0.209	-0.033
-310.924	78.772	0.279	-0.297
-309.910	-149.528	0.411	0.032
-308.895	-131.700	-0.132	0.017
-307.880	-81.009	-0.437	-0.144
-306.866	-97.778	-0.092	0.024
-305.851	-200.000	-0.003	0.150
-304.837	-200.000	0.005	-0.283
-303.822	476.292	0.079	0.176
-302.807	-50.635	0.157	0.074
-301.793	25.697	0.103	-0.085
-300.778	283.646	-0.125	0.223
-299.764	-122.656	0.080	-0.013
-298.749	800.000	-0.027	0.092
-297.735	-112.465	0.339	0.067
-296.720	-200.000	0.038	0.270
-295.705	-97.206	-0.061	-0.016
-294.691	-23.338	0.316	-0.189
-293.676	434.402	0.129	0.278
-292.662	-168.943	0.131	0.005
-291.647	-151.984	-0.477	-0.035
-290.632	-148.039	-0.312	-0.026
-289.618	-92.916	-0.351	-0.097
-288.603	574.268	0.095	-0.230
-287.589	-103.080	0.271	-0.064
-286.574	100.327	0.176	0.203
-285.559	-29.815	0.172	0.097
-284.545	241.195	-0.156	0.258
-283.530	258.438	-0.036	-0.062
-282.516	219.883	0.161	0.256
-281.501	-200.000	0.003	0.161
-280.486	-200.000	-0.022	0.293
-279.472	161.690	0.052	-0.073
-278.457	-6.606	-0.262	-0.177
-277.443	-125.838	-0.081	-0.012
-276.428	800.000	-0.062	0.253
-275.413	90.681	-0.143	-0.159
-274.399	-89.229	0.262	0.077
-273.384	-200.000	0.001	0.346
-272.370	-90.997	-0.143	-0.041
-271.355	140.356	0.109	0.143
-270.340	160.870	-0.048	0.067
-269.326	293.984	-0.092	0.166
-268.311	-157.845	0.400	-0.023
-267.297	-10.865	-0.199	0.130
-266.282	-23.485	0.128	-0.076
-265.267	490.864	0.092	0.209
-264.253	-57.397	-0.250	0.109
-263.238	171.871	0.078	-0.111
-262.224	39.846	0.367	0.327
-261.209	-25.946	0.297	0.173
-260.195	800.000	-0.055	0.179
-259.180	2.167	-0.376	0.269
-258.165	-17.126	0.160	-0.100
-257.151	277.447	0.074	0.130
-256.136	243.777	0.014	0.024
-255.122	-200.000	0.032	0.228
-254.107	253.803	0.083	-0.141
-253.092	-78.098	0.039	-0.013
-252.078	-35.156	0.160	-0.086
-251.063	800.000	-0.083	-0.340
-250.049	20.049	-0.273	-0.218
-249.034	142.569	0.148	-0.195
-248.019	-26.124	0.128	-0.075
-247.005	-130.523	0.197	0.026
-245.990	403.326	0.076	-0.159
-244.976	20.417	0.065	-0.052
-243.961	146.598	-0.207	0.276
-242.946	-105.059	0.275	0.062
-241.932	-125.186	-0.130	0.020
-240.917	14.733	-0.078	0.061
-239.903	498.077	-0.052	0.119
-238.888	39.780	0.037	-0.033
-237.873	385.788	0.095	0.194
-236.859	-105.628	0.219	-0.049
-235.844	44.586	-0.026	-0.023
-234.830	163.991	0.136	-0.189
-233.815	0.143	-0.115	0.081
-232.800	-95.147	-0.083	-0.022
-231.786	-82.556	0.141	-0.045
-230.771	-43.455	-0.021	-0.011
-229.757	79.975	0.134	0.142
-228.742	-200.000	0.009	0.276
-227.727	32.813	-0.075	0.064
-226.713	-200.000	0.027	0.368
-225.698	-200.000	0.034	0.246
-224.684	-130.892	0.344	-0.046
-223.669	65.270	0.045	-0.045
-222.655	39.152	-0.218	-0.193
-221.640	-32.218	0.078	-0.043
-220.625	110.815	-0.217	0.258
-219.611	36.381	0.278	-0.243
-218.596	5.898	0.238	0.174
-217.582	-31.239	-0.143	-0.080
-216.567	-52.823	0.321	-0.146
-215.552	-136.841	-0.054	-0.006
-214.538	-81.760	0.246	-0.080
-213.523	800.000	0.086	0.272
-212.509	-200.000	-0.016	0.201
-211.494	-29.160	-0.257	-0.146
-210.479	101.991	-0.103	0.118
-209.465	-21.995	-0.188	0.113
-208.450	61.691	-0.154	0.152
-207.436	-119.153	-0.328	-0.057
-206.421	-71.084	0.411	0.153
-205.406	324.813	-0.133	-0.251
-204.392	18.753	0.109	-0.086
-203.377	-200.000	-0.010	-0.153
-202.363	256.312	-0.136	-0.231
-201.348	-57.304	-0.214	-0.093
-200.333	-200.000	-0.077	0.401
-199.319	-8.377	0.149	-0.099
-198.304	254.360	-0.093	0.157
-197.290	231.948	-0.057	-0.093
-196.275	130.980	0.162	-0.206
-195.260	-200.000	0.064	0.367
-194.246	-28.922	-0.266	0.151
-193.231	81.369	0.151	0.161
-192.217	-200.000	0.033	-0.354
-191.202	800.000	0.079	-0.243
-190.187	800.000	-0.127	0.350
-189.173	-42.649	0.304	0.153
-188.158	-117.640	-0.030	0.005
-187.144	-90.466	0.355	-0.102
-186.129	-200.000	0.028	-0.160
-185.114	222.459	-0.071	0.113
-184.100	689.905	0.115	-0.298
-183.085	-200.000	0.021	0.130
-182.071	-160.912	-0.365	-0.019
-181.056	800.000	0.085	0.254
-180.042	304.717	0.064	0.118
-179.027	-148.398	-0.123	-0.010
-178.012	3.433	0.067	-0.048
-176.998	-156.309	0.042	0.003
-175.983	709.284	-0.117	0.306
-174.969	-200.000	-0.002	0.099
-173.954	800.000	-0.029	-0.083
-172.939	55.937	-0.122	-0.117
-171.925	172.735	0.042	0.059
-170.910	709.530	-0.139	-0.362
-169.896	411.993	0.134	0.281
-168.881	-200.000	-0.039	-0.176
-167.866	-200.000	0.038	0.455
-166.852	-75.791	-0.478	0.167
-165.837	-74.684	0.189	-0.067
-164.823	-111.383	-0.259	0.052
-163.808	-100.202	0.311	-0.076
-162.793	-200.000	-0.060	0.392
-161.779	-92.367	0.194	-0.054
-160.764	692.445	0.081	-0.209
-159.750	235.558	-0.037	0.061
-158.735	-155.073	-0.425	-0.027
-157.720	-70.991	0.312	-0.116
-156.706	177.919	0.061	-0.088
-155.691	-78.886	0.240	0.081
-154.677	800.000	-0.025	-0.105
-153.662	70.469	-0.153	-0.156
-152.647	800.000	0.149	-0.413
-151.633	800.000	0.048	-0.169
-150.618	183.842	-0.062	0.090
-149.604	136.789	0.143	0.184
-148.589	33.723	-0.071	-0.061
-147.574	-200.000	-0.006	-0.244
-146.560	27.940	0.228	-0.190
-145.545	120.012	0.122	-0.149
-144.531	-200.000	-0.058	0.316
-143.516	-149.908	0.381	-0.029
-142.502	-200.000	-0.000	-0.166
-141.487	-200.000	0.050	-0.344
-140.472	-61.302	-0.219	0.091
-139.458	177.906	0.330	0.475
-138.443	76.484	0.123	0.129
-137.429	-200.000	0.046	-0.413
-136.414	-113.625	0.091	-0.018
-135.399	209.256	-0.025	-0.038
-134.385	6.924	-0.381	-0.280
-133.370	234.506	-0.115	-0.187
-132.356	-76.591	-0.070	-0.024
-131.341	800.000	0.061	-0.244
-130.326	-102.796	0.400	0.094
-129.312	-200.000	0.039	0.258
-128.297	55.961	0.339	0.324
-127.283	-200.000	0.034	0.165
-126.268	131.536	-0.153	0.195
-125.253	800.000	0.033	0.097
-124.239	-200.000	-0.005	0.362
-123.224	155.961	-0.141	0.191
-122.210	57.654	-0.145	-0.140
