DTS Sentinel unit serial number:	SN413079Multiplexer serial number:	ORYXHardware model number:	OX4-SRSoftware version number:	ORYX F/W v4.00 Oryx Data Collector v3.7.2.0data status	okinstallation	princeton_trtdifferential loss correction	single-endedforward channel	channel 3reverse channel	N/Adate	2019/09/17time	09:08:35forward acquisition time	60.00reverse acquisition time	0.00gamma	496.2192k internal	0.2328k external	0.2328temperature offset calibration	0.9941default loss term (dB/km)	0.3790temperature slope calibration	1.0000multiplexer offset coefficient	1.0000multiplexer slope coefficient	1.0000fibre end	0.00T internal ref (°C)	28.25T ext. ref 1 (°C)	0.14T ext. ref 2 (°C)	25.11length (m)	temperature (°C)	Stokes	anti-Stokes-747.200	-109.789	-0.093	-0.020
-746.185	-50.803	0.127	0.060
-745.171	-28.662	0.134	0.078
-744.156	-43.402	-0.217	0.111
-743.142	800.000	0.048	0.166
-742.127	260.458	-0.142	0.247
-741.112	-84.260	0.199	-0.064
-740.098	-200.000	-0.110	0.000
-739.083	-70.902	-0.061	0.023
-738.069	59.032	0.022	-0.022
-737.054	-43.457	-0.252	-0.128
-736.039	575.287	0.048	0.119
-735.025	268.081	0.244	0.430
-734.010	373.053	0.106	0.217
-732.996	-113.914	-0.182	-0.036
-731.981	289.620	0.040	0.074
-730.966	377.056	0.112	0.231
-729.952	538.319	0.131	-0.315
-728.937	-37.738	-0.127	0.068
-727.923	424.670	0.097	0.210
-726.908	309.571	-0.209	-0.394
-725.894	800.000	0.062	-0.193
-724.879	-200.000	0.009	0.354
-723.864	800.000	0.055	-0.192
-722.850	-200.000	0.017	-0.219
-721.835	341.451	-0.145	0.285
-720.821	-43.597	0.251	-0.127
-719.806	-200.000	0.034	0.178
-718.791	-176.918	-0.411	-0.010
-717.777	-124.902	-0.122	-0.019
-716.762	303.109	-0.048	0.089
-715.748	-68.428	0.224	0.087
-714.733	326.066	0.157	0.303
-713.718	-200.000	0.044	0.312
-712.704	-200.000	-0.019	-0.169
-711.689	-32.409	0.262	-0.147
-710.675	-200.000	0.004	-0.118
-709.660	420.726	0.055	0.119
-708.645	-143.543	0.299	-0.029
-707.631	81.093	0.253	0.274
-706.616	-200.000	-0.032	-0.221
-705.602	-38.023	0.096	0.051
-704.587	-200.000	0.003	0.037
-703.572	78.629	-0.234	-0.252
-702.558	372.419	-0.058	0.119
-701.543	-36.652	0.236	0.128
-700.529	800.000	-0.074	0.295
-699.514	-2.292	0.329	0.232
-698.499	38.356	0.199	0.178
-697.485	791.894	0.078	0.217
-696.470	-146.624	-0.315	-0.028
-695.456	67.524	0.065	0.067
-694.441	800.000	-0.041	-0.161
-693.426	262.830	-0.114	0.199
-692.412	73.625	-0.069	0.073
-691.397	-59.621	-0.104	-0.045
-690.383	81.936	0.057	0.062
-689.368	-21.936	-0.180	0.110
-688.354	540.994	0.159	-0.381
-687.339	-132.650	0.110	0.014
-686.324	-60.373	-0.459	0.196
-685.310	-11.899	-0.239	-0.158
-684.295	719.866	0.028	-0.074
-683.281	-150.441	0.395	0.031
-682.266	51.734	-0.073	-0.069
-681.251	227.613	0.141	-0.231
-680.237	-200.000	-0.002	-0.260
-679.222	-94.451	-0.375	-0.103
-678.208	800.000	-0.047	0.167
-677.193	-103.324	-0.197	0.047
-676.178	-9.535	-0.281	-0.188
-675.164	-63.475	0.184	-0.076
-674.149	-151.880	0.231	-0.017
-673.135	-60.585	-0.347	-0.148
-672.120	31.581	0.135	0.116
-671.105	-200.000	-0.035	0.194
-670.091	-21.192	0.242	-0.149
-669.076	279.985	0.069	-0.124
-668.062	629.327	-0.063	-0.160
-667.047	-75.689	0.327	0.117
-666.032	-89.733	-0.335	-0.098
-665.018	0.376	0.086	0.062
-664.003	470.158	-0.054	0.121
-662.989	174.896	-0.109	0.158
-661.974	-116.008	-0.337	-0.063
-660.959	636.765	0.074	0.188
-659.945	800.000	-0.087	0.367
-658.930	637.077	0.060	0.153
-657.916	-91.658	-0.255	-0.073
-656.901	-130.793	-0.171	-0.023
-655.886	-200.000	-0.016	-0.095
-654.872	-32.706	-0.233	0.130
-653.857	-61.454	-0.097	0.041
-652.843	-200.000	-0.021	-0.242
-651.828	22.487	-0.278	-0.228
-650.814	-56.990	-0.111	-0.049
-649.799	107.306	0.196	0.234
-648.784	445.320	0.053	0.117
-647.770	800.000	-0.166	-0.492
-646.755	117.953	-0.176	-0.217
-645.741	-16.583	0.201	0.128
-644.726	-71.379	0.121	0.045
-643.711	-58.538	0.310	0.135
-642.697	-85.123	-0.056	-0.018
-641.682	241.082	0.102	-0.172
-640.668	-200.000	-0.004	-0.057
-639.653	-55.256	-0.346	-0.156
-638.638	1.996	-0.130	0.094
-637.624	-144.217	-0.374	-0.035
-636.609	142.120	-0.162	0.215
-635.595	-40.107	-0.071	-0.037
-634.580	-25.052	-0.263	-0.157
-633.565	-77.841	0.052	-0.018
-632.551	200.336	-0.166	-0.256
-631.536	722.116	0.132	-0.352
-630.522	142.895	-0.120	-0.160
-629.507	-28.817	0.180	0.104
-628.492	-200.000	-0.062	-0.416
-627.478	800.000	0.036	0.104
-626.463	-124.413	0.309	-0.048
-625.449	42.188	-0.160	0.146
-624.434	-87.555	-0.336	0.102
-623.419	-63.334	-0.188	-0.078
-622.405	-173.145	0.114	0.003
-621.390	94.607	0.043	0.049
-620.376	94.929	-0.201	-0.229
-619.361	800.000	-0.083	-0.281
-618.346	128.270	-0.189	0.241
-617.332	-99.678	0.165	0.042
-616.317	800.000	-0.026	-0.083
-615.303	44.352	-0.122	-0.112
-614.288	3.344	0.129	-0.094
-613.273	-26.665	0.099	0.058
-612.259	-200.000	0.015	-0.255
-611.244	-176.686	0.236	0.006
-610.230	-200.000	0.031	-0.418
-609.215	-11.156	-0.055	-0.036
-608.201	109.150	0.103	0.124
-607.186	-125.097	-0.059	-0.009
-606.171	189.783	0.079	-0.118
-605.157	535.903	0.060	-0.144
-604.142	171.514	0.048	-0.068
-603.128	136.458	-0.200	0.261
-602.113	-200.000	0.015	-0.202
-601.098	-200.000	-0.034	-0.304
-600.084	287.571	0.107	0.194
-599.069	-12.407	-0.120	-0.079
-598.055	28.880	0.233	0.198
-597.040	25.822	-0.204	-0.171
-596.025	-96.158	-0.207	0.055
-595.011	-88.379	-0.355	-0.106
-593.996	800.000	-0.055	-0.182
-592.982	-200.000	0.006	0.247
-591.967	-73.608	0.160	-0.058
-590.952	211.775	0.131	-0.206
-589.938	-75.931	-0.233	0.083
-588.923	800.000	-0.069	-0.220
-587.909	-137.537	0.138	-0.016
-586.894	-182.938	0.213	0.004
-585.879	800.000	-0.043	-0.151
-584.865	355.360	0.135	-0.268
-583.850	-155.202	-0.264	-0.017
-582.836	577.587	0.038	0.094
-581.821	-92.782	-0.301	0.084
-580.806	99.243	-0.245	0.284
-579.792	-34.498	0.155	-0.085
-578.777	-200.000	-0.005	0.021
-577.763	800.000	0.098	-0.360
-576.748	800.000	0.053	-0.179
-575.733	97.014	0.098	0.113
-574.719	-200.000	0.042	-0.236
-573.704	-7.044	-0.320	-0.218
-572.690	-200.000	-0.006	-0.452
-571.675	-44.142	0.198	-0.099
-570.661	661.659	0.070	0.180
-569.646	800.000	0.051	-0.187
-568.631	-128.740	-0.459	-0.065
-567.617	-200.000	-0.025	-0.169
-566.602	85.591	-0.411	-0.452
-565.588	-134.251	-0.404	-0.050
-564.573	800.000	0.095	-0.263
-563.558	-27.856	-0.215	-0.125
-562.544	78.997	0.228	0.245
-561.529	-151.152	0.068	0.005
-560.515	282.446	-0.090	-0.162
-559.500	149.623	0.165	-0.223
-558.485	-200.000	0.035	-0.181
-557.471	-81.739	0.403	-0.132
-556.456	800.000	-0.046	0.177
-555.442	-200.000	-0.079	-0.365
-554.427	800.000	-0.053	0.226
-553.412	5.057	0.126	-0.093
-552.398	583.446	-0.076	-0.187
-551.383	-200.000	-0.023	0.215
-550.369	-132.137	0.331	0.043
-549.354	-85.806	0.256	0.079
-548.339	4.677	-0.250	0.184
-547.325	18.195	0.120	-0.096
-546.310	735.952	-0.159	-0.426
-545.296	800.000	-0.104	0.330
-544.281	97.591	0.132	0.152
-543.266	-128.693	0.170	0.024
-542.252	-51.732	-0.172	-0.080
-541.237	-102.314	-0.036	0.009
-540.223	800.000	-0.006	-0.019
-539.208	-70.495	0.179	0.068
-538.193	464.421	-0.197	0.441
-537.179	-73.595	0.025	0.009
-536.164	-200.000	0.012	-0.231
-535.150	72.515	-0.142	-0.148
-534.135	33.038	0.087	0.075
-533.121	-200.000	0.022	-0.157
-532.106	-152.907	-0.324	-0.023
-531.091	-200.000	-0.009	0.283
-530.077	-43.757	-0.330	0.166
-529.062	61.628	0.188	0.187
-528.048	59.732	-0.047	-0.046
-527.033	-100.205	-0.549	0.136
-526.018	800.000	0.086	0.288
-525.004	259.376	0.270	0.465
-523.989	-42.825	-0.097	-0.049
-522.975	-19.911	0.273	-0.169
-521.960	-82.775	-0.289	0.093
-520.945	124.677	-0.114	0.144
-519.931	-200.000	-0.005	0.108
-518.916	-160.276	-0.191	-0.010
-517.902	150.892	-0.048	-0.066
-516.887	-110.530	0.314	-0.065
-515.872	-98.943	-0.169	0.043
-514.858	-18.190	0.242	0.151
-513.843	224.109	0.121	0.195
-512.829	98.551	0.227	-0.262
-511.814	-200.000	0.037	-0.263
-510.799	-200.000	-0.025	0.116
-509.785	-161.651	-0.536	-0.027
-508.770	116.299	-0.168	-0.205
-507.756	-82.690	-0.120	0.039
-506.741	800.000	0.020	0.077
-505.726	219.123	-0.037	0.059
-504.712	165.470	0.094	-0.132
-503.697	-200.000	0.009	-0.095
-502.683	29.323	-0.234	-0.198
-501.668	190.418	0.156	0.235
-500.653	-200.000	-0.032	0.170
-499.639	231.295	0.069	-0.113
-498.624	-145.274	0.111	0.010
-497.610	-75.577	0.147	0.052
-496.595	-33.878	-0.066	0.036
-495.581	-122.412	0.260	-0.042
-494.566	-108.779	0.038	-0.008
-493.551	-124.735	-0.130	0.020
-492.537	87.203	0.167	0.184
-491.522	-145.811	-0.028	0.002
-490.508	-27.031	0.183	0.106
-489.493	565.870	-0.108	0.262
-488.478	160.262	0.220	0.306
-487.464	-52.664	-0.113	-0.052
-486.449	800.000	0.045	0.174
-485.435	-44.238	0.059	0.029
-484.420	-194.047	0.388	0.003
-483.405	-111.211	-0.174	0.035
-482.391	8.024	0.198	-0.148
-481.376	736.585	0.093	-0.249
-480.362	140.257	0.181	-0.239
-479.347	-83.234	0.100	-0.032
-478.332	-149.505	-0.259	0.020
-477.318	-45.201	0.187	-0.093
-476.303	-200.000	-0.077	0.433
-475.289	-200.000	0.014	0.167
-474.274	800.000	0.035	0.151
-473.259	800.000	0.039	-0.120
-472.245	21.001	-0.338	0.273
-471.230	-200.000	-0.048	-0.252
-470.216	81.587	0.161	0.173
-469.201	114.498	-0.150	0.182
-468.186	-121.531	0.244	0.040
-467.172	738.491	-0.126	0.337
-466.157	-134.829	-0.177	-0.021
-465.143	67.168	0.250	-0.254
-464.128	564.420	-0.123	-0.296
-463.113	-200.000	-0.035	0.196
-462.099	55.269	0.149	-0.143
-461.084	-88.070	0.305	0.091
-460.070	-117.336	-0.229	-0.041
-459.055	239.145	0.122	-0.202
-458.040	174.834	-0.136	0.197
-457.026	-50.365	0.103	-0.048
-456.011	-47.967	-0.132	0.063
-454.997	62.815	-0.063	-0.063
-453.982	164.516	0.080	-0.112
-452.968	28.335	0.130	0.109
-451.953	-35.713	0.207	0.112
-450.938	-200.000	-0.020	-0.587
-449.924	-52.467	-0.279	0.129
-448.909	-105.402	-0.211	0.048
-447.895	800.000	-0.051	0.212
-446.880	695.074	-0.100	-0.262
-445.865	-186.595	-0.025	-0.000
-444.851	22.086	0.115	-0.093
-443.836	-200.000	0.004	-0.276
-442.822	280.960	-0.170	-0.303
-441.807	297.671	0.169	-0.310
-440.792	5.032	0.088	-0.064
-439.778	374.835	0.083	-0.168
-438.763	37.954	-0.101	-0.090
-437.749	342.083	0.119	-0.231
-436.734	-200.000	-0.048	-0.261
-435.719	-122.981	0.256	-0.041
-434.705	211.269	0.109	-0.171
-433.690	-28.466	-0.051	-0.029
-432.676	-133.453	0.173	0.022
-431.661	-200.000	-0.001	-0.269
-430.646	-23.109	0.050	-0.030
-429.632	-22.041	0.601	-0.363
-428.617	-80.583	0.138	-0.046
-427.603	-69.196	-0.233	0.089
-426.588	800.000	0.136	0.415
-425.573	-144.836	-0.394	-0.036
-424.559	141.703	0.121	-0.160
-423.544	-200.000	-0.005	0.186
-422.530	800.000	-0.054	-0.179
-421.515	-200.000	0.029	-0.198
-420.500	139.537	0.063	0.082
-419.486	57.340	0.084	0.081
-418.471	-180.064	-0.586	-0.012
-417.457	-200.000	-0.006	-0.146
-416.442	-200.000	-0.040	0.343
-415.428	60.667	-0.017	0.017
-414.413	-60.764	0.332	-0.140
-413.398	-38.003	-0.008	0.004
-412.384	-188.893	0.348	-0.004
-411.369	-45.162	-0.118	0.058
-410.355	193.720	-0.070	0.105
-409.340	800.000	-0.185	0.546
-408.325	49.223	-0.119	-0.112
-407.311	-200.000	0.196	-0.001
-406.296	316.830	0.033	0.062
-405.282	76.605	0.065	-0.068
-404.267	800.000	0.065	-0.242
-403.252	675.656	0.128	0.332
-402.238	800.000	-0.185	0.522
-401.223	0.145	-0.221	0.157
-400.209	159.343	-0.182	0.251
-399.194	800.000	-0.060	0.241
-398.179	181.572	0.139	-0.203
-397.165	-108.677	-0.272	0.058
-396.150	-66.711	-0.041	-0.016
-395.136	-60.207	-0.241	-0.102
-394.121	218.959	0.084	-0.134
-393.106	156.808	-0.201	-0.275
-392.092	364.866	0.052	0.105
-391.077	-200.000	0.004	0.226
-390.063	141.606	-0.132	0.174
-389.048	390.714	-0.065	0.134
-388.033	-57.846	0.067	-0.029
-387.019	-154.347	-0.274	-0.018
-386.004	-200.000	-0.022	0.270
-384.990	-17.603	0.019	-0.012
-383.975	490.869	-0.019	0.042
-382.960	-0.896	-0.299	-0.210
-381.946	-200.000	-0.005	0.142
-380.931	800.000	-0.038	0.138
-379.917	27.355	0.133	0.111
-378.902	3.204	-0.064	-0.046
-377.888	-121.935	0.096	-0.016
-376.873	-65.835	-0.296	0.117
-375.858	373.831	-0.162	-0.327
-374.844	-200.000	-0.047	0.257
-373.829	-63.491	0.288	-0.117
-372.815	322.376	-0.104	-0.196
-371.800	-200.000	0.016	-0.179
-370.785	602.338	-0.110	0.272
-369.771	-61.116	-0.173	0.073
-368.756	-5.177	-0.267	0.182
-367.742	-83.949	0.250	-0.079
-366.727	-101.430	-0.438	-0.106
-365.712	51.621	0.349	-0.329
-364.698	62.253	0.229	-0.227
-363.683	-31.287	0.028	0.016
-362.669	-109.259	-0.192	0.040
-361.654	310.224	0.208	-0.386
-360.639	-200.000	-0.008	-0.118
-359.625	-21.394	0.206	0.125
-358.610	-95.279	0.123	-0.033
-357.596	315.143	-0.065	-0.121
-356.581	232.666	0.081	-0.132
-355.566	-158.377	0.150	-0.009
-354.552	-128.109	-0.322	0.046
-353.537	-48.214	0.396	0.190
-352.523	129.930	-0.153	0.195
-351.508	706.530	-0.172	0.451
-350.493	800.000	0.044	-0.148
-349.479	698.301	-0.020	-0.053
-348.464	-200.000	-0.041	0.352
-347.450	-16.353	0.092	0.058
-346.435	800.000	-0.064	0.252
-345.420	-200.000	-0.032	-0.144
-344.406	409.453	0.129	-0.271
-343.391	-147.945	0.135	-0.011
-342.377	263.182	0.061	0.104
-341.362	-200.000	-0.035	0.253
-340.348	135.427	-0.085	0.109
-339.333	294.211	0.063	-0.113
-338.318	-200.000	0.001	-0.031
-337.304	494.062	0.060	-0.136
-336.289	71.565	-0.240	0.247
-335.275	151.838	0.208	0.281
-334.260	172.381	0.143	0.204
-333.245	-77.050	0.105	-0.036
-332.231	176.423	0.116	0.168
-331.216	-39.527	0.162	0.084
-330.202	-90.614	0.304	0.087
-329.187	677.578	0.132	-0.340
-328.172	560.778	0.070	-0.167
-327.158	323.883	-0.104	-0.198
-326.143	-65.148	-0.327	-0.131
-325.129	-173.438	-0.140	-0.004
-324.114	800.000	0.110	0.308
-323.099	-106.909	0.214	-0.047
-322.085	800.000	0.085	0.369
-321.070	39.849	-0.157	0.140
-320.056	136.584	0.091	0.118
-319.041	800.000	0.171	-0.557
-318.026	-6.547	0.007	0.005
-317.012	-200.000	0.015	-0.203
-315.997	-178.257	0.245	-0.006
-314.983	-147.892	0.302	-0.025
-313.968	-46.164	0.270	0.132
-312.953	-102.007	0.269	-0.064
-311.939	-82.587	-0.267	-0.086
-310.924	278.687	0.150	0.264
-309.910	44.111	-0.251	-0.228
-308.895	159.246	-0.159	0.219
-307.880	478.188	-0.034	-0.077
-306.866	-173.504	0.196	-0.006
-305.851	800.000	-0.083	-0.233
-304.837	-200.000	0.074	0.393
-303.822	-34.756	-0.081	0.044
-302.807	419.398	0.123	0.261
-301.793	-46.370	0.143	-0.070
-300.778	225.911	-0.014	-0.023
-299.764	-13.521	0.114	0.073
-298.749	-188.668	-0.227	0.003
-297.735	526.311	-0.074	0.172
-296.720	-200.000	-0.002	-0.040
-295.705	-200.000	-0.009	0.144
-294.691	545.060	-0.061	0.145
-293.676	508.505	0.075	-0.173
-292.662	-45.810	-0.043	0.021
-291.647	-50.560	-0.188	-0.088
-290.632	67.509	0.188	0.190
-289.618	-200.000	0.027	-0.138
-288.603	319.749	-0.281	0.527
-287.589	186.197	-0.167	0.246
-286.574	-200.000	-0.029	-0.144
-285.559	-200.000	0.018	-0.189
-284.545	-200.000	0.065	0.315
-283.530	-200.000	-0.029	-0.213
-282.516	-200.000	0.047	-0.539
-281.501	165.942	-0.186	0.260
-280.486	-69.774	-0.174	-0.066
-279.472	8.247	0.264	-0.197
-278.457	35.138	-0.299	0.259
-277.443	-87.011	-0.242	-0.073
-276.428	-115.497	-0.076	0.014
-275.413	-200.000	0.082	0.536
-274.399	277.242	0.039	0.069
-273.384	146.353	0.271	0.360
-272.370	-5.104	0.080	-0.054
-271.355	-130.346	-0.305	-0.041
-270.340	417.642	-0.095	0.200
-269.326	616.596	-0.054	0.135
-268.311	463.058	-0.095	-0.210
-267.297	-23.726	0.086	-0.051
-266.282	-200.000	-0.047	-0.269
-265.267	-65.917	0.185	0.073
-264.253	-200.000	-0.028	0.261
-263.238	119.068	-0.197	-0.241
-262.224	432.480	-0.071	0.152
-261.209	-46.961	0.312	0.151
-260.195	700.913	0.131	0.340
-259.180	265.504	-0.155	-0.267
-258.165	483.503	-0.155	-0.348
-257.151	800.000	0.047	-0.131
-256.136	796.675	-0.219	0.597
-255.122	79.861	0.174	-0.185
-254.107	388.157	-0.060	0.122
-253.092	-80.711	-0.268	0.088
-252.078	-65.779	0.272	-0.108
-251.063	-200.000	0.015	0.130
-250.049	126.594	-0.153	0.192
-249.034	800.000	0.067	-0.265
-248.019	-104.104	-0.317	0.073
-247.005	120.267	-0.091	0.112
-245.990	-200.000	-0.028	-0.459
-244.976	-32.027	0.312	0.172
-243.961	139.226	-0.123	0.160
-242.946	-114.168	0.058	-0.011
-241.932	-111.986	-0.109	-0.022
-240.917	-78.634	0.155	-0.052
-239.903	-160.390	-0.157	-0.008
-238.888	800.000	0.089	0.347
-237.873	195.136	-0.082	0.123
-236.859	385.875	0.128	0.260
-235.844	-74.917	0.104	0.037
-234.830	-15.294	-0.207	0.131
-233.815	-200.000	-0.056	-0.536
-232.800	43.985	0.068	-0.061
-231.786	-118.626	-0.161	0.028
-230.771	-0.718	0.070	0.049
-229.757	-59.912	0.200	0.085
-228.742	137.298	-0.143	-0.184
-227.727	800.000	0.055	0.167
-226.713	-27.227	0.202	-0.116
-225.698	-35.070	-0.192	-0.103
-224.684	-200.000	0.040	0.189
-223.669	-17.926	0.367	0.227
-222.655	-59.400	-0.354	-0.150
-221.640	8.321	-0.222	-0.164
-220.625	-200.000	0.039	-0.384
-219.611	-200.000	-0.035	-0.212
-218.596	56.372	-0.163	0.156
-217.582	347.163	-0.049	0.096
-216.567	179.386	0.124	-0.179
-215.552	-149.444	-0.204	0.016
-214.538	265.171	-0.037	-0.064
-213.523	264.733	0.130	0.223
-212.509	186.792	-0.019	-0.028
-211.494	-16.072	0.240	-0.151
-210.479	116.649	0.046	0.055
-209.465	32.156	-0.140	-0.119
-208.450	-22.816	-0.131	-0.078
-207.436	419.782	0.095	-0.200
-206.421	-122.242	0.386	-0.062
-205.406	194.317	0.134	0.200
-204.392	63.643	0.178	-0.176
-203.377	-80.466	-0.159	-0.052
-202.363	144.221	-0.188	-0.247
-201.348	-137.759	-0.242	0.027
-200.333	-128.767	0.258	0.036
-199.319	-91.099	-0.239	0.068
-198.304	88.226	-0.096	0.105
-197.290	-200.000	0.001	0.390
-196.275	40.802	0.149	0.133
-195.260	-200.000	0.036	0.247
-194.246	252.905	0.106	-0.178
-193.231	547.436	-0.081	0.191
-192.217	-49.997	-0.218	-0.102
-191.202	170.654	-0.217	0.307
-190.187	254.402	-0.109	0.184
-189.173	-49.155	0.261	-0.123
-188.158	-28.478	0.487	-0.277
-187.144	267.241	-0.020	0.034
-186.129	-200.000	0.054	-0.245
-185.114	-44.631	0.192	-0.095
-184.100	129.183	0.160	0.202
-183.085	-110.331	0.196	0.040
-182.071	98.755	0.105	0.119
-181.056	-67.265	0.210	0.081
-180.042	605.427	0.049	0.120
-179.027	-200.000	-0.056	0.259
-178.012	297.921	-0.095	-0.172
-176.998	800.000	0.061	-0.215
-175.983	284.106	-0.093	0.165
-174.969	-200.000	0.041	0.318
-173.954	-200.000	0.062	-0.309
-172.939	55.448	-0.062	-0.059
-171.925	-170.951	-0.130	-0.004
-170.910	25.445	0.150	0.123
-169.896	274.201	-0.087	0.151
-168.881	125.738	0.075	-0.093
-167.866	600.673	0.085	0.208
-166.852	6.603	-0.122	-0.090
-165.837	201.229	0.107	-0.162
-164.823	-104.085	0.169	0.039
-163.808	196.461	-0.082	-0.122
-162.793	68.805	0.206	0.208
-161.779	86.373	0.166	0.181
-160.764	800.000	-0.065	0.180
-159.750	-71.466	0.328	0.121
-158.735	103.431	-0.094	-0.109
-157.720	-72.943	0.200	-0.072
-156.706	-200.000	0.001	0.232
-155.691	-200.000	0.062	0.326
-154.677	-84.038	0.230	0.072
-153.662	-200.000	0.055	0.260
-152.647	-5.350	0.064	0.044
-151.633	-200.000	-0.060	-0.264
-150.618	-181.395	0.044	0.001
-149.604	-200.000	-0.016	-0.115
-148.589	800.000	0.077	-0.231
-147.574	176.278	-0.286	-0.409
-146.560	111.726	-0.109	-0.129
-145.545	463.726	0.108	0.238
-144.531	35.884	-0.101	-0.087
-143.516	393.997	0.108	0.221
-142.502	678.709	-0.104	0.267
-141.487	-55.185	-0.208	-0.092
-140.472	115.146	-0.048	-0.058
-139.458	-200.000	0.041	-0.421
-138.443	-171.640	-0.120	-0.004
-137.429	184.387	0.151	-0.220
-136.414	603.469	-0.111	-0.271
-135.399	-37.089	-0.293	0.155
-134.385	50.064	0.066	-0.061
-133.370	-200.000	0.011	-0.258
-132.356	-200.000	0.008	-0.560
-131.341	86.991	-0.086	-0.093
-130.326	23.568	0.223	-0.180
-129.312	800.000	-0.073	0.261
-128.297	-200.000	-0.008	0.129
-127.283	-97.941	-0.149	0.038
-126.268	586.410	0.085	0.207
-125.253	-183.295	0.409	-0.007
-124.239	41.422	0.451	0.401
-123.224	45.143	0.325	0.295
-122.210	335.674	-0.112	0.213
-121.195	152.383	0.172	0.231
