DTS Sentinel unit serial number:	SN413079Multiplexer serial number:	ORYXHardware model number:	OX4-SRSoftware version number:	ORYX F/W v4.00 Oryx Data Collector v3.7.2.0data status	okinstallation	princeton_trtdifferential loss correction	single-endedforward channel	channel 3reverse channel	N/Adate	2019/09/13time	22:44:35forward acquisition time	60.00reverse acquisition time	0.00gamma	496.2192k internal	0.2337k external	0.2337temperature offset calibration	1.0063default loss term (dB/km)	0.3790temperature slope calibration	1.0000multiplexer offset coefficient	1.0000multiplexer slope coefficient	1.0000fibre end	0.00T internal ref (°C)	27.56T ext. ref 1 (°C)	3.23T ext. ref 2 (°C)	21.64length (m)	temperature (°C)	Stokes	anti-Stokes-747.200	-120.001	-0.078	0.014
-746.185	-112.701	-0.093	-0.019
-745.171	-87.900	0.355	0.107
-744.156	92.605	0.131	-0.149
-743.142	472.755	0.137	-0.309
-742.127	-200.000	0.053	0.466
-741.112	322.708	-0.075	-0.144
-740.098	-108.002	-0.409	-0.089
-739.083	499.383	0.154	0.357
-738.069	170.215	0.052	0.075
-737.054	41.117	-0.161	0.146
-736.039	-200.000	-0.004	0.066
-735.025	498.100	0.159	0.367
-734.010	-134.976	-0.273	0.033
-732.996	-125.864	-0.107	-0.016
-731.981	-65.875	0.234	0.094
-730.966	-150.851	0.256	0.019
-729.952	207.493	-0.164	-0.257
-728.937	65.660	0.090	-0.091
-727.923	-141.123	-0.458	-0.047
-726.908	800.000	0.065	0.205
-725.894	-23.652	-0.347	-0.209
-724.879	-38.313	0.143	0.076
-723.864	800.000	-0.026	-0.095
-722.850	-28.499	-0.107	0.062
-721.835	800.000	-0.047	0.153
-720.821	-57.175	0.237	-0.105
-719.806	78.406	0.201	-0.215
-718.791	186.750	0.186	-0.278
-717.777	53.014	0.034	-0.033
-716.762	51.296	0.225	0.214
-715.748	-24.465	-0.448	0.268
-714.733	800.000	-0.022	0.096
-713.718	-49.154	0.180	-0.086
-712.704	86.948	0.077	-0.085
-711.689	13.727	0.146	-0.114
-710.675	-92.469	-0.300	-0.085
-709.660	-200.000	-0.054	0.272
-708.645	124.734	0.006	0.008
-707.631	800.000	-0.076	-0.226
-706.616	-65.397	0.195	-0.078
-705.602	35.932	0.203	0.179
-704.587	-7.260	0.211	-0.143
-703.572	132.959	0.116	-0.150
-702.558	-126.372	0.330	0.049
-701.543	67.880	-0.133	-0.137
-700.529	-125.272	0.123	0.019
-699.514	-132.219	-0.274	-0.036
-698.499	206.701	-0.218	-0.341
-697.485	-33.241	0.127	-0.071
-696.470	-35.334	0.262	-0.143
-695.456	227.120	-0.036	-0.058
-694.441	-200.000	0.031	-0.242
-693.426	800.000	-0.059	-0.201
-692.412	111.022	0.097	0.117
-691.397	-50.648	0.068	-0.032
-690.383	61.386	0.140	0.139
-689.368	-186.158	-0.075	0.001
-688.354	70.759	0.137	0.142
-687.339	-123.286	0.299	-0.048
-686.324	800.000	-0.052	0.190
-685.310	-15.943	0.081	0.052
-684.295	-31.096	-0.044	0.025
-683.281	800.000	-0.121	0.463
-682.266	354.985	0.102	0.203
-681.251	-200.000	0.001	-0.144
-680.237	-88.442	-0.218	-0.065
-679.222	-74.626	0.243	-0.088
-678.208	-33.430	-0.140	-0.078
-677.193	104.838	0.036	-0.042
-676.178	-17.291	-0.156	-0.098
-675.164	-121.362	-0.149	0.025
-674.149	-73.367	0.117	-0.043
-673.135	-200.000	0.052	-0.244
-672.120	800.000	-0.058	-0.226
-671.105	492.498	0.087	-0.200
-670.091	800.000	-0.042	-0.132
-669.076	-107.936	0.173	-0.038
-668.062	173.543	0.245	-0.353
-667.047	-200.000	0.020	-0.117
-666.032	235.705	-0.066	-0.109
-665.018	-68.985	-0.232	-0.090
-664.003	575.135	0.005	-0.012
-662.989	89.764	-0.129	0.145
-661.974	-200.000	0.001	-0.470
-660.959	56.933	-0.272	-0.265
-659.945	-200.000	0.047	-0.233
-658.930	-42.652	0.087	0.044
-657.916	80.377	-0.088	-0.095
-656.901	-129.894	-0.334	0.046
-655.886	294.003	0.021	-0.039
-654.872	9.356	-0.147	0.112
-653.857	800.000	-0.035	0.138
-652.843	-85.299	-0.048	-0.015
-651.828	800.000	-0.083	-0.326
-650.814	-200.000	0.012	0.097
-649.799	-200.000	-0.023	-0.276
-648.784	-64.222	0.238	0.097
-647.770	-200.000	-0.087	0.495
-646.755	-200.000	-0.028	0.208
-645.741	-200.000	-0.037	0.258
-644.726	547.103	-0.107	0.257
-643.711	-49.186	-0.069	-0.033
-642.697	365.208	0.059	0.119
-641.682	-171.536	-0.135	0.004
-640.668	-62.232	-0.122	-0.051
-639.653	215.555	-0.027	-0.042
-638.638	-200.000	0.076	0.381
-637.624	32.843	0.211	-0.182
-636.609	-128.902	-0.029	0.004
-635.595	-200.000	0.052	-0.432
-634.580	-99.164	-0.626	-0.158
-633.565	800.000	0.016	-0.053
-632.551	50.411	0.026	0.024
-631.536	-200.000	-0.059	-0.460
-630.522	-74.432	-0.314	0.113
-629.507	162.763	0.134	0.188
-628.492	-73.220	-0.476	-0.174
-627.478	553.162	-0.038	0.091
-626.463	-107.117	0.100	-0.022
-625.449	75.069	-0.161	-0.170
-624.434	44.264	-0.099	-0.091
-623.419	-8.954	-0.100	-0.067
-622.405	-34.146	-0.127	0.069
-621.390	37.809	0.025	0.022
-620.376	391.622	-0.059	0.123
-619.361	220.868	-0.214	0.343
-618.346	800.000	0.047	-0.183
-617.332	-79.905	0.257	-0.086
-616.317	-53.803	-0.125	-0.057
-615.303	22.887	-0.105	-0.086
-614.288	442.016	0.100	-0.218
-613.273	-200.000	-0.000	0.130
-612.259	-200.000	-0.055	-0.462
-611.244	-100.958	-0.146	-0.036
-610.230	759.232	-0.054	0.147
-609.215	-51.510	-0.301	-0.140
-608.201	-97.029	0.261	0.068
-607.186	800.000	-0.076	0.225
-606.171	-174.410	-0.148	-0.004
-605.157	-122.396	-0.190	0.031
-604.142	-200.000	0.006	-0.036
-603.128	-128.413	-0.185	-0.026
-602.113	-81.128	-0.029	0.010
-601.098	22.963	-0.043	0.035
-600.084	17.701	0.180	0.143
-599.069	-22.367	0.153	-0.092
-598.055	52.154	0.179	0.170
-597.040	-200.000	0.034	0.183
-596.025	-84.663	-0.125	0.039
-595.011	-28.879	-0.360	0.206
-593.996	99.405	0.069	0.079
-592.982	6.819	-0.113	-0.084
-591.967	431.395	0.115	0.248
-590.952	-159.017	-0.234	0.013
-589.938	-17.444	0.198	-0.125
-588.923	170.434	0.040	0.057
-587.909	475.232	0.102	-0.230
-586.894	120.542	-0.053	0.066
-585.879	800.000	0.108	-0.455
-584.865	286.976	-0.004	-0.007
-583.850	-200.000	-0.031	-0.287
-582.836	-200.000	0.042	0.222
-581.821	-65.081	-0.135	-0.054
-580.806	-200.000	0.028	-0.131
-579.792	-177.548	0.417	0.010
-578.777	-200.000	-0.048	0.326
-577.763	-113.139	0.017	0.003
-576.748	1.395	-0.224	0.160
-575.733	345.332	-0.180	-0.353
-574.719	-84.838	0.373	0.117
-573.704	-14.812	-0.231	0.148
-572.690	800.000	0.054	0.173
-571.675	-200.000	-0.040	0.251
-570.661	182.733	0.308	-0.453
-569.646	-9.965	-0.152	0.101
-568.631	-21.881	-0.275	-0.167
-567.617	-200.000	-0.040	-0.184
-566.602	71.070	0.072	0.074
-565.588	37.366	-0.202	-0.179
-564.573	382.139	0.153	-0.313
-563.558	789.195	-0.098	-0.269
-562.544	-94.213	0.219	0.060
-561.529	-200.000	-0.021	0.112
-560.515	-150.367	-0.143	-0.011
-559.500	-146.782	-0.306	0.026
-558.485	-124.188	0.354	-0.055
-557.471	402.623	0.030	0.064
-556.456	-43.987	0.141	-0.071
-555.442	-43.859	0.111	-0.056
-554.427	746.703	0.096	0.257
-553.412	-157.713	0.171	0.010
-552.398	-148.558	-0.125	-0.010
-551.383	800.000	-0.024	0.095
-550.369	-57.103	-0.102	-0.045
-549.354	-169.073	-0.145	0.005
-548.339	800.000	0.079	-0.254
-547.325	800.000	-0.067	0.186
-546.310	72.903	-0.050	-0.052
-545.296	800.000	0.076	0.328
-544.281	-10.933	0.187	0.123
-543.266	120.277	-0.052	-0.065
-542.252	800.000	-0.029	-0.103
-541.237	-180.491	0.219	0.005
-540.223	-111.106	0.251	-0.051
-539.208	-111.516	-0.217	-0.044
-538.193	-78.872	-0.177	-0.060
-537.179	230.987	-0.159	0.259
-536.164	40.836	-0.144	0.130
-535.150	-26.545	-0.280	-0.164
-534.135	-194.992	0.463	-0.004
-533.121	-49.818	0.039	0.018
-532.106	-94.098	-0.189	-0.052
-531.091	800.000	-0.031	0.131
-530.077	9.103	-0.136	0.102
-529.062	-141.919	0.102	0.010
-528.048	616.790	0.072	0.180
-527.033	168.769	-0.056	0.080
-526.018	235.206	0.106	0.175
-525.004	570.620	-0.148	-0.359
-523.989	-51.937	0.074	-0.034
-522.975	-200.000	-0.066	-0.411
-521.960	372.057	-0.154	0.312
-520.945	-93.998	-0.236	-0.064
-519.931	-200.000	-0.059	0.376
-518.916	13.458	-0.253	-0.195
-517.902	800.000	-0.083	-0.296
-516.887	-38.165	0.235	0.124
-515.872	698.807	0.073	-0.191
-514.858	-141.571	0.122	0.012
-513.843	-200.000	0.016	0.089
-512.829	271.694	-0.029	-0.051
-511.814	-85.048	0.490	0.153
-510.799	59.151	-0.275	-0.269
-509.785	-200.000	-0.066	-0.348
-508.770	31.068	0.241	-0.205
-507.756	636.572	-0.091	-0.230
-506.741	306.039	-0.053	-0.098
-505.726	261.451	-0.209	0.360
-504.712	523.053	0.095	0.222
-503.697	21.646	0.336	-0.272
-502.683	-139.137	0.168	0.018
-501.668	25.190	-0.097	-0.080
-500.653	286.829	-0.055	0.099
-499.639	-200.000	0.058	-0.311
-498.624	231.294	-0.175	0.285
-497.610	-70.827	-0.093	0.035
-496.595	431.003	-0.126	0.271
-495.581	56.627	0.178	-0.173
-494.566	9.092	0.191	-0.144
-493.551	407.032	-0.031	0.065
-492.537	-72.717	0.253	-0.093
-491.522	10.946	-0.133	-0.101
-490.508	550.921	0.024	-0.058
-489.493	-200.000	0.059	-0.273
-488.478	-170.622	0.299	0.010
-487.464	271.268	0.021	0.036
-486.449	164.414	0.223	-0.313
-485.435	-149.375	-0.312	0.025
-484.420	54.119	-0.079	-0.076
-483.405	126.454	0.099	0.125
-482.391	204.754	0.018	0.028
-481.376	-200.000	0.006	0.135
-480.362	-126.344	0.082	0.012
-479.347	-200.000	0.023	-0.125
-478.332	-50.032	0.262	-0.123
-477.318	-54.566	0.024	0.011
-476.303	-65.473	-0.145	-0.058
-475.289	66.988	0.138	0.140
-474.274	290.531	0.082	0.149
-473.259	-200.000	0.055	0.275
-472.245	-200.000	-0.016	0.112
-471.230	495.345	0.025	0.057
-470.216	-131.276	-0.187	0.025
-469.201	-96.034	-0.137	0.036
-468.186	45.019	0.118	0.108
-467.172	-97.315	-0.316	0.082
-466.157	-200.000	0.027	-0.150
-465.143	120.405	0.141	0.174
-464.128	-200.000	-0.024	0.134
-463.113	-200.000	0.044	0.573
-462.099	-140.879	-0.198	0.020
-461.084	-16.811	-0.174	0.109
-460.070	-109.387	0.187	-0.039
-459.055	-40.471	-0.025	0.013
-458.040	-37.037	-0.058	-0.031
-457.026	35.472	0.132	-0.115
-456.011	331.378	-0.122	0.234
-454.997	-192.679	0.095	-0.001
-453.982	-43.793	-0.136	0.068
-452.968	451.140	0.056	-0.124
-451.953	-200.000	-0.012	-0.357
-450.938	646.333	0.126	0.319
-449.924	-200.000	0.012	0.295
-448.909	-51.560	-0.050	0.023
-447.895	-200.000	0.012	-0.263
-446.880	-200.000	-0.006	-0.364
-445.865	-32.737	0.253	-0.140
-444.851	601.257	0.087	0.216
-443.836	-85.054	0.248	0.077
-442.822	488.685	-0.136	0.308
-441.807	-178.418	0.073	0.002
-440.792	-200.000	0.003	-0.022
-439.778	-21.556	-0.096	-0.058
-438.763	-121.767	-0.377	-0.062
-437.749	-100.983	0.382	0.093
-436.734	-153.014	-0.261	-0.018
-435.719	-50.872	-0.448	-0.209
-434.705	292.905	-0.033	0.060
-433.690	-156.179	0.179	0.011
-432.676	341.210	0.083	-0.161
-431.661	48.141	0.134	-0.124
-430.646	-45.521	-0.227	0.112
-429.632	166.640	-0.080	-0.112
-428.617	191.596	-0.048	0.071
-427.603	-82.417	-0.363	0.117
-426.588	-200.000	0.027	-0.230
-425.573	-200.000	0.040	-0.226
-424.559	800.000	0.017	-0.051
-423.544	-109.933	0.218	-0.045
-422.530	-61.541	-0.025	0.010
-421.515	-88.808	-0.218	0.064
-420.500	-48.686	0.292	0.139
-419.486	79.934	0.296	0.315
-418.471	234.350	-0.039	-0.064
-417.457	20.824	0.285	0.229
-416.442	46.125	0.095	0.088
-415.428	-200.000	0.050	-0.240
-414.413	-200.000	-0.046	-0.201
-413.398	-139.019	0.318	0.034
-412.384	-42.723	0.269	-0.136
-411.369	11.257	-0.088	0.067
-410.355	134.305	-0.035	0.046
-409.340	800.000	0.068	0.244
-408.325	59.184	-0.261	-0.255
-407.311	207.256	-0.060	-0.093
-406.296	182.791	-0.090	0.131
-405.282	1.127	-0.184	-0.131
-404.267	221.186	-0.132	-0.211
-403.252	-200.000	-0.045	0.381
-402.238	-14.598	0.103	-0.066
-401.223	-54.576	0.322	-0.145
-400.209	800.000	0.005	0.022
-399.194	-21.528	0.246	0.149
-398.179	-200.000	-0.054	0.505
-397.165	-137.615	-0.279	-0.031
-396.150	-161.152	0.301	-0.016
-395.136	800.000	-0.146	0.449
-394.121	-162.695	0.226	0.011
-393.106	800.000	0.085	0.273
-392.092	-200.000	-0.064	-0.384
-391.077	-132.529	0.533	0.068
-390.063	-200.000	-0.024	-0.221
-389.048	29.639	0.268	-0.226
-388.033	-93.910	-0.251	0.068
-387.019	-154.185	-0.300	-0.020
-386.004	-200.000	0.006	0.104
-384.990	800.000	-0.062	0.178
-383.975	-200.000	-0.078	-0.418
-382.960	-8.000	-0.290	0.193
-381.946	141.663	-0.087	-0.114
-380.931	25.286	0.314	-0.258
-379.917	82.159	-0.164	-0.176
-378.902	-76.207	0.267	-0.093
-377.888	266.097	0.047	-0.081
-376.873	-106.008	0.180	-0.040
-375.858	-200.000	0.028	-0.123
-374.844	-200.000	-0.005	-0.178
-373.829	-129.437	0.430	0.059
-372.815	-200.000	0.001	0.211
-371.800	-111.950	0.351	-0.070
-370.785	-89.041	-0.234	0.068
-369.771	-53.038	0.114	0.052
-368.756	-108.666	-0.344	-0.073
-367.742	235.950	0.103	-0.169
-366.727	-190.329	-0.200	-0.002
-365.712	544.920	0.065	0.153
-364.698	-200.000	-0.040	-0.210
-363.683	43.796	0.174	0.158
-362.669	24.753	0.206	0.169
-361.654	23.567	0.261	-0.213
-360.639	-72.748	-0.258	-0.094
-359.625	-18.502	-0.184	-0.114
-358.610	285.320	0.053	0.095
-357.596	23.219	0.184	-0.149
-356.581	-200.000	0.015	-0.127
-355.566	-63.084	-0.466	-0.190
-354.552	645.762	0.099	0.251
-353.537	-141.391	-0.256	0.026
-352.523	-200.000	-0.005	0.148
-351.508	92.783	0.122	-0.137
-350.493	362.953	0.074	-0.148
-349.479	800.000	-0.039	-0.138
-348.464	47.511	-0.179	0.165
-347.450	470.446	0.033	0.073
-346.435	-35.626	0.249	-0.133
-345.420	-179.100	-0.122	0.003
-344.406	-82.609	0.460	-0.147
-343.391	56.601	0.111	0.107
-342.377	-200.000	0.067	-0.370
-341.362	628.516	0.099	0.247
-340.348	-85.517	-0.170	-0.052
-339.333	800.000	0.033	-0.130
-338.318	-147.908	0.394	-0.032
-337.304	-89.369	0.207	0.060
-336.289	-143.678	-0.112	-0.010
-335.275	-124.334	-0.264	0.041
-334.260	-114.355	0.261	-0.050
-333.245	-200.000	-0.000	-0.166
-332.231	165.680	0.178	0.249
-331.216	-65.588	-0.187	-0.074
-330.202	-42.035	0.082	-0.041
-329.187	736.954	-0.063	-0.166
-328.172	-123.201	-0.147	-0.023
-327.158	16.773	-0.300	-0.234
-326.143	-49.878	0.272	0.127
-325.129	-43.238	0.256	-0.128
-324.114	2.334	0.040	0.028
-323.099	74.422	0.218	-0.227
-322.085	786.334	-0.063	0.170
-321.070	800.000	0.045	0.155
-320.056	513.591	0.038	-0.088
-319.041	40.572	0.134	0.119
-318.026	-38.712	0.102	0.053
-317.012	81.079	0.194	0.207
-315.997	-11.332	-0.124	-0.080
-314.983	627.017	0.060	-0.149
-313.968	-200.000	0.004	0.021
-312.953	103.158	0.114	-0.132
-311.939	800.000	0.077	0.258
-310.924	-150.344	-0.067	0.005
-309.910	404.242	0.062	-0.128
-308.895	-13.707	-0.054	-0.035
-307.880	-200.000	0.004	0.082
-306.866	-62.962	-0.245	-0.100
-305.851	-104.444	-0.074	0.017
-304.837	-200.000	0.023	-0.234
-303.822	35.500	0.269	0.233
-302.807	80.000	-0.181	0.192
-301.793	68.720	-0.214	0.216
-300.778	-200.000	-0.032	0.218
-299.764	-200.000	-0.048	-0.232
-298.749	42.889	-0.091	0.082
-297.735	634.496	0.020	-0.050
-296.720	-125.593	-0.197	-0.029
-295.705	35.232	-0.162	-0.140
-294.691	63.237	-0.175	-0.173
-293.676	-200.000	-0.006	-0.469
-292.662	-200.000	0.048	-0.327
-291.647	-56.733	0.280	-0.122
-290.632	249.182	-0.115	-0.193
-289.618	136.453	0.050	0.065
-288.603	469.641	0.125	0.276
-287.589	-200.000	0.024	0.145
-286.574	183.554	0.210	0.307
-285.559	-159.783	-0.286	-0.016
-284.545	451.887	0.096	-0.209
-283.530	-186.939	-0.276	0.004
-282.516	800.000	-0.093	0.284
-281.501	-95.302	-0.488	0.129
-280.486	-200.000	0.029	-0.199
-279.472	-200.000	-0.016	-0.182
-278.457	-97.245	0.234	0.060
-277.443	19.382	0.114	-0.091
-276.428	-104.102	-0.095	-0.022
-275.413	800.000	-0.087	0.237
-274.399	800.000	0.143	-0.406
-273.384	79.461	-0.141	-0.149
-272.370	136.244	-0.036	-0.046
-271.355	110.324	0.151	0.179
-270.340	-113.013	-0.144	0.028
-269.326	59.291	-0.043	-0.042
-268.311	246.710	0.128	-0.213
-267.297	34.720	0.181	-0.156
-266.282	651.735	-0.141	-0.355
-265.267	-8.930	0.271	-0.179
-264.253	534.796	0.111	0.259
-263.238	-200.000	0.071	-0.313
-262.224	137.185	-0.188	0.243
-261.209	460.559	0.186	-0.409
-260.195	-97.232	0.091	-0.023
-259.180	75.400	-0.170	0.177
-258.165	-1.843	-0.294	0.204
-257.151	38.425	-0.120	0.105
-256.136	-165.948	-0.358	-0.015
-255.122	-149.325	0.177	-0.014
-254.107	403.627	0.102	0.212
-253.092	-60.391	0.112	0.047
-252.078	-120.584	0.212	0.035
-251.063	-32.949	-0.195	-0.107
-250.049	634.172	-0.191	0.477
-249.034	-29.758	-0.163	0.092
-248.019	156.426	0.183	0.249
-247.005	-200.000	-0.010	0.097
-245.990	-200.000	-0.008	-0.123
-244.976	272.855	-0.127	-0.221
-243.961	374.957	0.178	0.357
-242.946	186.605	0.218	0.319
-241.932	101.602	0.088	-0.101
-240.917	-25.060	0.243	0.142
-239.903	93.303	0.190	0.211
-238.888	800.000	0.061	0.233
-237.873	-139.154	-0.289	0.031
-236.859	-200.000	0.043	0.221
-235.844	-67.287	0.302	-0.117
-234.830	-78.085	-0.092	0.031
-233.815	-200.000	-0.011	0.252
-232.800	42.216	0.336	-0.301
-231.786	480.555	0.085	0.189
-230.771	169.286	-0.156	-0.220
-229.757	800.000	0.092	-0.332
-228.742	-200.000	-0.012	0.269
-227.727	800.000	-0.023	0.069
-226.713	-56.389	-0.322	0.141
-225.698	43.248	0.094	0.085
-224.684	581.039	-0.105	-0.252
-223.669	800.000	-0.027	0.073
-222.655	-136.338	-0.166	0.019
-221.640	95.460	-0.256	0.287
-220.625	36.389	-0.119	0.104
-219.611	-166.273	-0.086	0.004
-218.596	-112.644	-0.113	0.022
-217.582	38.047	-0.245	0.214
-216.567	0.714	0.140	0.099
-215.552	215.696	-0.139	-0.217
-214.538	191.993	-0.099	-0.147
-213.523	-200.000	0.025	0.215
-212.509	-162.103	-0.185	-0.009
-211.494	-157.372	-0.238	0.014
-210.479	-193.449	-0.097	-0.001
-209.465	-41.977	-0.137	-0.069
-208.450	-59.658	0.054	0.023
-207.436	-200.000	0.073	-0.333
-206.421	-68.107	0.152	0.058
-205.406	-104.729	-0.054	-0.012
-204.392	800.000	-0.103	0.361
-203.377	-8.870	0.253	0.167
-202.363	85.266	-0.205	-0.221
-201.348	-69.664	0.327	-0.123
-200.333	166.924	-0.334	0.466
-199.319	-200.000	-0.035	0.182
-198.304	47.910	-0.231	0.212
-197.290	-141.251	0.157	-0.016
-196.275	-88.542	-0.244	0.072
-195.260	-200.000	0.368	-0.001
-194.246	-170.386	0.217	0.007
-193.231	800.000	0.051	0.146
-192.217	116.276	-0.139	-0.168
-191.202	-127.195	0.156	0.022
-190.187	-118.161	0.054	0.009
-189.173	113.764	0.201	0.240
-188.158	-41.645	-0.295	0.149
-187.144	87.097	-0.211	0.229
-186.129	-128.736	-0.233	0.032
-185.114	-200.000	-0.023	0.291
-184.100	331.863	0.149	0.283
-183.085	60.560	0.206	0.201
-182.071	6.892	0.262	0.192
-181.056	-54.283	-0.289	-0.129
-180.042	-136.261	0.091	0.010
-179.027	-113.452	0.350	0.067
-178.012	-76.137	0.142	0.049
-176.998	-34.475	0.091	-0.049
-175.983	-68.904	0.438	0.166
-174.969	252.619	-0.223	-0.373
-173.954	-28.279	-0.237	-0.134
-172.939	-200.000	0.009	-0.217
-171.925	-43.826	0.112	-0.055
-170.910	380.915	0.045	0.090
-169.896	701.026	-0.120	-0.310
-168.881	-200.000	0.024	-0.117
-167.866	-33.265	-0.306	0.166
-166.852	-24.426	-0.170	0.100
-165.837	800.000	0.076	0.229
-164.823	43.057	-0.068	-0.061
-163.808	98.723	0.068	0.077
-162.793	-200.000	0.005	-0.236
-161.779	173.937	0.075	-0.106
-160.764	-200.000	-0.024	-0.254
-159.750	800.000	0.160	-0.478
-158.735	-93.429	0.281	-0.076
-157.720	-162.774	-0.252	0.012
-156.706	-39.219	-0.176	-0.091
-155.691	174.534	0.113	-0.161
-154.677	-48.614	-0.475	0.224
-153.662	442.224	0.104	-0.223
-152.647	-99.541	0.180	-0.044
-151.633	-18.896	0.313	-0.191
-150.618	-200.000	0.010	0.429
-149.604	64.266	0.221	0.218
-148.589	-200.000	-0.256	0.000
-147.574	800.000	-0.088	0.267
-146.560	-90.681	0.111	-0.031
-145.545	-108.951	-0.099	0.021
-144.531	-65.191	0.192	-0.076
-143.516	-200.000	0.004	0.084
-142.502	-16.889	-0.090	-0.056
-141.487	-200.000	0.012	-0.320
-140.472	-109.685	0.235	0.049
-139.458	800.000	-0.093	0.342
-138.443	272.611	0.030	0.052
-137.429	-84.165	-0.310	-0.096
-136.414	-200.000	0.013	-0.108
-135.399	36.359	0.102	0.088
-134.385	237.475	0.171	-0.279
-133.370	-200.000	0.036	-0.253
-132.356	-91.707	0.243	0.068
-131.341	-59.315	0.182	0.077
-130.326	-200.000	0.004	0.282
-129.312	29.889	-0.096	-0.080
-128.297	-64.507	0.215	-0.086
-127.283	-51.493	-0.331	0.151
-126.268	64.125	-0.184	-0.181
-125.253	350.286	0.233	0.450
-124.239	162.656	0.048	0.066
-123.224	-69.286	-0.088	0.033
-122.210	144.425	0.174	0.228
-121.195	-124.896	-0.242	0.037
