DTS Sentinel unit serial number:	SN413079Multiplexer serial number:	ORYXHardware model number:	OX4-SRSoftware version number:	ORYX F/W v4.00 Oryx Data Collector v3.7.2.0data status	okinstallation	princeton_trtdifferential loss correction	single-endedforward channel	channel 3reverse channel	N/Adate	2019/09/15time	12:16:35forward acquisition time	60.00reverse acquisition time	0.00gamma	496.2192k internal	0.2302k external	0.2302temperature offset calibration	0.9973default loss term (dB/km)	0.3790temperature slope calibration	1.0000multiplexer offset coefficient	1.0000multiplexer slope coefficient	1.0000fibre end	0.00T internal ref (°C)	34.69T ext. ref 1 (°C)	5.04T ext. ref 2 (°C)	31.75length (m)	temperature (°C)	Stokes	anti-Stokes-747.200	-100.723	0.183	-0.046
-746.185	196.874	0.056	0.087
-745.171	737.345	-0.090	0.245
-744.156	14.691	0.156	-0.124
-743.142	33.005	-0.254	0.224
-742.127	515.619	-0.078	0.186
-741.112	800.000	0.055	-0.163
-740.098	34.958	-0.220	0.197
-739.083	18.550	0.213	0.174
-738.069	262.462	0.137	-0.241
-737.054	166.592	-0.031	0.045
-736.039	-200.000	-0.005	-0.073
-735.025	-161.789	0.439	0.023
-734.010	-45.443	-0.431	0.218
-732.996	324.974	-0.112	-0.218
-731.981	-109.480	-0.130	-0.028
-730.966	-78.235	0.096	-0.034
-729.952	291.058	-0.123	-0.228
-728.937	-200.000	0.030	0.137
-727.923	-115.270	-0.323	0.062
-726.908	237.720	-0.050	0.085
-725.894	-200.000	-0.017	-0.204
-724.879	-39.029	-0.264	-0.141
-723.864	-200.000	0.003	-0.080
-722.850	-113.540	-0.175	0.035
-721.835	122.250	-0.138	-0.175
-720.821	-25.321	0.143	0.086
-719.806	800.000	0.048	-0.194
-718.791	-200.000	0.056	-0.337
-717.777	474.143	-0.122	-0.279
-716.762	23.157	-0.181	0.151
-715.748	-5.005	0.113	0.079
-714.733	69.220	0.039	-0.041
-713.718	108.716	-0.145	0.177
-712.704	-164.639	0.174	-0.008
-711.689	155.291	0.190	0.266
-710.675	-40.991	-0.386	-0.203
-709.660	-200.000	0.042	0.585
-708.645	-200.000	-0.074	0.351
-707.631	52.187	-0.193	-0.187
-706.616	800.000	0.050	-0.140
-705.602	36.737	0.263	0.237
-704.587	-21.919	-0.128	-0.079
-703.572	-81.372	0.286	0.096
-702.558	26.520	-0.182	-0.155
-701.543	-200.000	0.011	0.050
-700.529	296.537	0.145	-0.270
-699.514	-77.527	-0.314	-0.111
-698.499	-22.027	-0.191	-0.118
-697.485	91.206	-0.065	0.075
-696.470	-64.988	0.149	0.061
-695.456	35.191	0.061	-0.054
-694.441	-175.713	0.157	-0.004
-693.426	-200.000	0.043	-0.201
-692.412	-62.377	-0.237	-0.100
-691.397	-57.569	-0.140	-0.062
-690.383	-47.966	-0.108	-0.053
-689.368	-131.599	-0.131	-0.017
-688.354	-91.469	-0.321	0.093
-687.339	105.588	0.203	-0.244
-686.324	19.477	-0.249	-0.204
-685.310	26.833	0.188	-0.160
-684.295	-76.810	0.097	0.034
-683.281	-129.924	-0.260	-0.036
-682.266	-131.848	-0.176	-0.023
-681.251	800.000	0.105	-0.326
-680.237	-104.284	0.324	-0.076
-679.222	-24.695	0.150	-0.091
-678.208	-29.124	0.204	0.119
-677.193	-147.202	0.199	-0.017
-676.178	117.983	0.053	0.066
-675.164	45.796	0.048	-0.045
-674.149	-2.135	0.256	0.183
-673.135	-160.408	0.182	-0.010
-672.120	136.627	-0.197	-0.262
-671.105	458.124	0.092	-0.208
-670.091	-18.731	0.176	-0.112
-669.076	272.541	0.207	0.371
-668.062	13.692	-0.270	-0.213
-667.047	143.772	0.133	-0.180
-666.032	596.037	0.026	-0.066
-665.018	-200.000	-0.045	-0.286
-664.003	-200.000	0.041	-0.222
-662.989	252.244	0.143	-0.247
-661.974	38.251	-0.265	0.239
-660.959	356.103	-0.212	-0.429
-659.945	-33.270	0.320	-0.180
-658.930	-128.824	-0.252	-0.036
-657.916	88.869	-0.214	-0.242
-656.901	380.557	-0.108	-0.225
-655.886	237.578	-0.051	0.085
-654.872	-61.727	-0.166	-0.071
-653.857	-9.668	0.067	0.045
-652.843	83.610	0.151	0.167
-651.828	172.208	0.047	0.068
-650.814	-13.686	-0.098	-0.065
-649.799	76.698	0.215	-0.231
-648.784	-200.000	0.013	0.226
-647.770	-26.316	-0.044	-0.026
-646.755	-200.000	-0.006	0.249
-645.741	-86.981	0.580	-0.179
-644.726	-200.000	-0.017	-0.114
-643.711	800.000	-0.100	-0.320
-642.697	28.231	-0.229	-0.196
-641.682	-171.717	0.085	0.003
-640.668	-200.000	-0.037	0.201
-639.653	75.755	0.050	-0.054
-638.638	-200.000	-0.003	0.032
-637.624	191.275	-0.137	0.209
-636.609	-11.841	-0.047	0.032
-635.595	-179.553	-0.046	-0.001
-634.580	38.516	-0.166	0.150
-633.565	-200.000	-0.040	0.205
-632.551	324.381	0.101	0.195
-631.536	-31.415	-0.061	0.035
-630.522	43.025	0.084	-0.078
-629.507	510.548	-0.078	0.184
-628.492	800.000	-0.072	-0.257
-627.478	-200.000	0.100	0.464
-626.463	-200.000	0.019	0.129
-625.449	-128.637	-0.176	-0.025
-624.434	-24.393	-0.415	-0.251
-623.419	-200.000	-0.030	0.236
-622.405	20.171	0.250	-0.205
-621.390	25.397	-0.148	-0.125
-620.376	-200.000	0.049	0.260
-619.361	192.314	0.027	0.041
-618.346	5.056	0.270	0.202
-617.332	-160.541	-0.170	-0.009
-616.317	43.806	0.282	0.262
-615.303	-19.614	0.123	0.077
-614.288	-5.521	-0.053	-0.037
-613.273	-149.597	-0.295	-0.024
-612.259	-114.156	-0.151	-0.030
-611.244	75.474	0.192	-0.205
-610.230	186.726	-0.125	-0.189
-609.215	160.017	-0.098	-0.139
-608.201	572.488	-0.120	-0.297
-607.186	-200.000	-0.022	-0.207
-606.171	-43.266	0.110	0.056
-605.157	-49.402	-0.397	-0.192
-604.142	-200.000	-0.051	0.268
-603.128	-117.372	-0.297	-0.054
-602.113	52.431	-0.013	-0.013
-601.098	-101.460	0.170	-0.042
-600.084	336.178	-0.112	0.220
-599.069	-39.040	0.121	0.064
-598.055	-200.000	0.031	0.139
-597.040	-47.446	-0.163	0.080
-596.025	-200.000	-0.025	-0.227
-595.011	156.030	-0.032	-0.044
-593.996	122.943	-0.051	0.065
-592.982	800.000	0.056	-0.212
-591.967	-134.223	0.190	-0.024
-590.952	53.957	0.071	-0.069
-589.938	11.543	0.065	0.051
-588.923	202.574	0.123	-0.192
-587.909	383.408	0.029	0.061
-586.894	-86.460	-0.295	-0.092
-585.879	772.247	-0.087	-0.240
-584.865	86.239	-0.034	0.038
-583.850	758.946	-0.020	-0.054
-582.836	-27.947	0.214	-0.126
-581.821	-200.000	0.009	-0.079
-580.806	646.478	0.027	0.071
-579.792	163.990	0.220	0.314
-578.777	-200.000	-0.050	-0.311
-577.763	83.484	-0.052	0.058
-576.748	185.881	-0.156	-0.234
-575.733	168.394	-0.187	-0.269
-574.719	-200.000	-0.037	-0.389
-573.704	-78.937	0.340	-0.117
-572.690	16.046	-0.185	-0.148
-571.675	-200.000	-0.017	-0.157
-570.661	-115.460	-0.163	-0.031
-569.646	-126.486	-0.148	-0.022
-568.631	-76.009	0.241	-0.086
-567.617	-128.638	-0.211	-0.030
-566.602	-200.000	0.049	-0.558
-565.588	-63.053	-0.282	-0.118
-564.573	246.494	-0.080	-0.136
-563.558	-9.782	-0.141	0.095
-562.544	-200.000	-0.063	0.289
-561.529	-200.000	0.003	-0.235
-560.515	-92.955	-0.169	-0.048
-559.500	800.000	0.108	0.413
-558.485	-98.840	-0.205	-0.053
-557.471	-142.267	0.273	0.027
-556.456	-200.000	-0.008	-0.195
-555.442	-182.759	0.218	-0.004
-554.427	148.839	-0.131	0.179
-553.412	-38.664	0.112	0.060
-552.398	-84.187	-0.106	0.034
-551.383	-142.315	0.382	0.038
-550.369	224.399	0.226	0.370
-549.354	800.000	-0.095	0.332
-548.339	402.208	0.089	-0.189
-547.325	72.768	0.218	-0.230
-546.310	90.056	0.207	0.234
-545.296	73.717	0.231	0.245
-544.281	-200.000	0.068	-0.367
-543.266	-111.302	-0.299	0.062
-542.252	89.272	-0.171	0.192
-541.237	-187.616	0.109	-0.001
-540.223	-115.561	0.159	-0.030
-539.208	7.196	-0.278	-0.210
-538.193	-8.677	0.082	0.056
-537.179	-200.000	-0.041	-0.222
-536.164	48.684	0.100	0.095
-535.150	-125.733	-0.127	-0.019
-534.135	-57.273	-0.174	-0.077
-533.121	563.277	-0.064	0.158
-532.106	-50.588	0.245	0.117
-531.091	36.779	0.145	-0.129
-530.077	-166.526	0.258	0.011
-529.062	5.210	-0.256	-0.191
-528.048	59.942	-0.204	-0.204
-527.033	-200.000	0.013	0.166
-526.018	606.926	0.117	0.293
-525.004	-92.777	0.363	-0.103
-523.989	33.603	0.190	-0.166
-522.975	107.523	0.285	0.343
-521.960	88.500	0.072	0.081
-520.945	-8.183	0.062	-0.042
-519.931	800.000	0.037	0.154
-518.916	-142.881	0.146	0.014
-517.902	127.129	0.126	0.161
-516.887	-131.321	-0.126	-0.017
-515.872	333.045	0.055	0.107
-514.858	-200.000	-0.038	-0.211
-513.843	614.330	0.141	-0.356
-512.829	111.741	-0.052	-0.063
-511.814	794.378	-0.020	0.055
-510.799	324.190	-0.084	-0.161
-509.785	233.126	0.046	0.076
-508.770	291.841	-0.031	0.058
-507.756	-200.000	-0.063	-0.449
-506.741	691.397	-0.039	-0.102
-505.726	63.129	-0.044	-0.044
-504.712	50.927	-0.274	-0.262
-503.697	-31.348	-0.124	-0.071
-502.683	-200.000	0.004	0.100
-501.668	278.408	0.072	-0.130
-500.653	140.324	0.194	-0.258
-499.639	800.000	-0.126	0.413
-498.624	-200.000	0.009	0.129
-497.610	170.991	0.060	-0.086
-496.595	449.165	0.054	0.120
-495.581	78.651	0.108	-0.116
-494.566	131.757	0.077	-0.100
-493.551	-96.689	-0.427	-0.113
-492.537	-79.596	-0.357	0.122
-491.522	454.574	0.180	-0.402
-490.508	235.653	-0.117	-0.195
-489.493	-19.716	-0.201	0.126
-488.478	36.465	0.156	-0.139
-487.464	-97.246	-0.323	-0.085
-486.449	-200.000	-0.022	0.185
-485.435	8.362	0.168	-0.128
-484.420	77.422	0.135	-0.145
-483.405	-4.045	-0.124	0.087
-482.391	29.459	0.146	-0.125
-481.376	-29.467	-0.048	-0.027
-480.362	425.377	0.132	0.286
-479.347	35.199	0.118	0.104
-478.332	47.741	-0.130	0.123
-477.318	-200.000	-0.098	0.453
-476.303	-61.978	0.136	0.057
-475.289	1.106	0.182	-0.132
-474.274	-108.152	-0.148	-0.032
-473.259	-200.000	0.015	0.199
-472.245	110.537	-0.083	-0.101
-471.230	-55.029	-0.163	-0.074
-470.216	-110.268	0.211	0.044
-469.201	-200.000	-0.006	-0.342
-468.186	-200.000	-0.028	-0.134
-467.172	-10.408	0.146	0.098
-466.157	-198.332	0.106	0.001
-465.143	800.000	0.070	0.265
-464.128	-123.968	-0.058	-0.009
-463.113	361.770	0.097	-0.196
-462.099	-7.015	-0.104	-0.071
-461.084	-117.933	0.238	0.043
-460.070	274.846	-0.157	-0.280
-459.055	800.000	-0.059	0.247
-458.040	-40.107	-0.434	0.228
-457.026	320.784	-0.082	0.156
-456.011	-54.939	-0.219	-0.100
-454.997	166.495	0.064	-0.091
-453.982	-61.494	-0.123	-0.052
-452.968	-193.002	-0.129	-0.001
-451.953	800.000	-0.048	-0.187
-450.938	-161.232	-0.125	0.007
-449.924	-200.000	0.007	0.072
-448.909	800.000	-0.063	0.249
-447.895	-200.000	0.027	-0.157
-446.880	-84.016	0.349	0.112
-445.865	112.615	0.032	-0.038
-444.851	-29.215	-0.301	0.174
-443.836	-25.257	0.230	-0.137
-442.822	-88.027	0.198	0.060
-441.807	-63.715	0.090	-0.037
-440.792	800.000	-0.058	0.175
-439.778	106.912	0.079	-0.095
-438.763	-200.000	0.001	0.129
-437.749	-200.000	-0.148	-0.000
-436.734	106.744	-0.285	0.340
-435.719	63.758	-0.293	0.296
-434.705	756.593	-0.228	-0.622
-433.690	107.291	-0.060	-0.071
-432.676	-200.000	0.043	-0.246
-431.661	-200.000	-0.022	0.257
-430.646	-152.824	0.241	-0.017
-429.632	-116.878	-0.380	-0.070
-428.617	153.263	-0.034	0.047
-427.603	65.169	-0.310	-0.316
-426.588	-159.753	0.078	0.004
-425.573	20.619	-0.301	-0.245
-424.559	147.129	-0.195	0.264
-423.544	113.178	0.054	0.066
-422.530	186.172	0.017	-0.025
-421.515	-47.586	-0.249	0.122
-420.500	-109.439	-0.089	0.019
-419.486	187.438	0.124	-0.186
-418.471	-76.075	0.145	0.052
-417.457	-189.497	-0.040	0.000
-416.442	269.732	0.096	0.169
-415.428	-200.000	-0.006	0.365
-414.413	-154.263	-0.078	-0.005
-413.398	53.537	0.155	-0.149
-412.384	79.199	0.144	-0.155
-411.369	-77.819	-0.164	0.057
-410.355	-141.856	0.303	0.030
-409.340	-200.000	-0.003	-0.082
-408.325	800.000	-0.090	0.252
-407.311	-16.601	-0.346	0.220
-406.296	-83.081	-0.285	0.092
-405.282	800.000	-0.073	-0.229
-404.267	126.531	-0.138	0.176
-403.252	109.059	0.173	0.209
-402.238	-52.238	0.113	-0.053
-401.223	219.849	0.076	-0.122
-400.209	-139.427	-0.278	-0.030
-399.194	-45.521	0.219	0.109
-398.179	-200.000	0.002	0.077
-397.165	-94.475	0.087	-0.024
-396.150	800.000	-0.042	-0.164
-395.136	-172.869	0.158	0.005
-394.121	27.160	0.091	0.077
-393.106	50.282	-0.264	0.251
-392.092	85.510	0.231	0.255
-391.077	44.095	0.165	0.152
-390.063	800.000	-0.038	-0.164
-389.048	-200.000	-0.033	0.259
-388.033	85.062	-0.099	0.109
-387.019	800.000	0.038	-0.147
-386.004	-200.000	0.030	0.136
-384.990	-69.876	0.040	-0.015
-383.975	-200.000	0.013	-0.187
-382.960	-86.253	-0.562	-0.174
-381.946	-113.905	0.185	-0.036
-380.931	-35.406	0.079	0.043
-379.917	-90.772	-0.280	-0.081
-378.902	-18.007	0.162	0.102
-377.888	-200.000	0.071	0.387
-376.873	-200.000	0.097	0.000
-375.858	-76.641	-0.099	-0.035
-374.844	40.850	0.040	-0.037
-373.829	-200.000	-0.051	0.262
-372.815	-19.091	0.147	0.092
-371.800	-200.000	-0.018	0.080
-370.785	132.744	-0.090	0.117
-369.771	312.857	-0.117	0.220
-368.756	49.888	0.110	-0.105
-367.742	800.000	-0.036	0.121
-366.727	97.115	0.113	-0.130
-365.712	-13.851	0.063	-0.041
-364.698	246.728	0.024	0.041
-363.683	-200.000	0.006	0.247
-362.669	-200.000	-0.031	-0.223
-361.654	248.648	0.070	-0.118
-360.639	122.115	-0.067	0.084
-359.625	-200.000	0.042	0.365
-358.610	-110.606	0.335	-0.070
-357.596	19.424	-0.043	0.035
-356.581	108.375	-0.046	0.055
-355.566	-70.397	-0.046	0.018
-354.552	-137.177	0.148	0.017
-353.537	52.627	0.182	-0.174
-352.523	76.745	0.144	0.154
-351.508	800.000	0.035	0.132
-350.493	484.781	0.030	-0.068
-349.479	32.374	-0.396	0.343
-348.464	-31.710	0.089	-0.050
-347.450	5.116	-0.219	-0.162
-346.435	15.820	-0.150	-0.118
-345.420	-126.581	-0.215	0.032
-344.406	-88.728	0.491	0.146
-343.391	-81.288	0.126	0.042
-342.377	-200.000	-0.018	0.112
-341.362	219.475	-0.030	-0.048
-340.348	-200.000	0.011	-0.111
-339.333	244.502	0.062	-0.105
-338.318	-0.046	-0.364	0.260
-337.304	474.865	-0.207	0.469
-336.289	-200.000	0.016	0.120
-335.275	777.365	-0.070	0.191
-334.260	800.000	0.051	0.173
-333.245	-173.027	-0.337	0.010
-332.231	-200.000	0.027	0.159
-331.216	-137.392	-0.260	-0.030
-330.202	124.909	0.117	-0.148
-329.187	800.000	0.062	-0.267
-328.172	37.766	-0.281	0.251
-327.158	379.168	0.138	0.284
-326.143	96.405	0.187	-0.215
-325.129	-118.352	-0.227	0.040
-324.114	523.158	0.096	-0.226
-323.099	800.000	-0.091	-0.309
-322.085	-200.000	-0.054	0.258
-321.070	-160.830	-0.137	-0.007
-320.056	-56.782	0.193	0.086
-319.041	84.190	0.074	-0.081
-318.026	-123.255	0.210	-0.034
-317.012	800.000	0.010	-0.033
-315.997	-200.000	-0.037	-0.237
-314.983	425.236	0.200	0.432
-313.968	-200.000	0.065	0.351
-312.953	-111.763	0.212	0.043
-311.939	-151.278	0.078	0.006
-310.924	-135.180	-0.546	0.066
-309.910	34.061	0.107	-0.093
-308.895	235.242	-0.257	0.426
-307.880	-152.870	-0.410	-0.029
-306.866	-96.025	0.286	0.076
-305.851	69.436	-0.182	-0.188
-304.837	47.257	-0.103	-0.096
-303.822	-18.031	0.104	0.065
-302.807	-68.329	0.289	0.112
-301.793	17.386	-0.170	-0.135
-300.778	800.000	-0.069	0.195
-299.764	-73.317	-0.147	0.054
-298.749	-95.309	0.082	-0.022
-297.735	145.631	0.104	0.139
-296.720	-200.000	0.035	-0.194
-295.705	484.632	-0.074	0.168
-294.691	-1.291	-0.164	-0.116
-293.676	-133.448	0.156	-0.020
-292.662	-17.108	0.148	0.093
-291.647	-134.727	0.284	-0.035
-290.632	-166.807	-0.404	0.017
-289.618	-135.230	0.136	0.016
-288.603	223.458	-0.034	-0.056
-287.589	800.000	-0.084	-0.300
-286.574	-86.912	0.206	0.063
-285.559	331.838	0.066	0.127
-284.545	-126.113	0.034	0.005
-283.530	133.909	0.059	-0.076
-282.516	-104.347	0.408	0.095
-281.501	-200.000	-0.019	0.201
-280.486	-200.000	0.039	-0.220
-279.472	-153.393	-0.344	0.024
-278.457	-200.000	-0.059	-0.397
-277.443	7.717	-0.299	0.224
-276.428	-2.371	0.382	-0.268
-275.413	-200.000	-0.002	-0.171
-274.399	-8.667	-0.056	0.037
-273.384	392.577	0.083	0.172
-272.370	316.043	0.162	-0.306
-271.355	278.433	-0.041	0.072
-270.340	-88.773	0.236	-0.070
-269.326	-26.163	0.106	-0.062
-268.311	-200.000	0.054	-0.259
-267.297	-176.318	0.206	0.005
-266.282	156.813	-0.195	0.270
-265.267	800.000	-0.037	0.112
-264.253	589.991	0.144	0.355
-263.238	572.868	-0.128	-0.312
-262.224	-115.765	0.167	0.031
-261.209	377.540	-0.108	0.221
-260.195	139.713	0.190	-0.250
-259.180	-76.673	0.300	0.105
-258.165	-57.904	0.324	0.141
-257.151	-45.428	-0.343	-0.170
-256.136	-134.875	-0.140	-0.017
-255.122	-104.665	0.221	0.051
-254.107	18.852	0.122	0.098
-253.092	-13.078	0.207	0.134
-252.078	-169.767	-0.149	0.005
-251.063	-82.866	-0.352	-0.114
-250.049	176.501	0.028	0.041
-249.034	800.000	0.148	0.427
-248.019	-200.000	0.021	0.176
-247.005	35.742	0.286	0.251
-245.990	99.279	0.021	0.024
-244.976	-19.203	-0.152	0.094
-243.961	173.914	-0.081	-0.116
-242.946	146.795	0.083	0.111
-241.932	-140.763	0.076	-0.008
-240.917	-200.000	0.012	-0.138
-239.903	-92.124	-0.321	0.091
-238.888	434.499	-0.054	0.116
-237.873	63.041	0.129	-0.129
-236.859	-69.915	0.411	-0.157
-235.844	14.156	-0.186	0.145
-234.830	661.854	-0.125	0.321
-233.815	120.743	0.143	-0.178
-232.800	547.632	-0.132	-0.316
-231.786	172.561	0.184	0.265
-230.771	760.458	-0.031	-0.084
-229.757	800.000	-0.158	0.532
-228.742	-156.059	0.170	0.011
-227.727	-200.000	0.021	-0.171
-226.713	800.000	0.032	-0.106
-225.698	-200.000	-0.006	-0.122
-224.684	800.000	-0.114	-0.338
-223.669	-55.163	0.337	0.151
-222.655	558.080	-0.106	0.256
-221.640	-124.787	0.379	-0.058
-220.625	54.518	0.076	-0.073
-219.611	212.738	-0.056	0.088
-218.596	37.572	0.205	-0.181
-217.582	-200.000	-0.014	0.453
-216.567	46.942	0.218	-0.202
-215.552	-105.251	-0.126	-0.029
-214.538	-120.943	0.368	0.062
-213.523	800.000	0.068	-0.193
-212.509	-173.514	-0.414	-0.012
-211.494	-200.000	-0.008	-0.174
-210.479	-49.151	-0.287	0.137
-209.465	-200.000	0.046	-0.203
-208.450	130.192	0.096	0.122
-207.436	-3.366	0.207	-0.144
-206.421	176.069	0.083	0.120
-205.406	-200.000	0.014	-0.135
-204.392	-200.000	0.016	-0.125
-203.377	76.253	0.202	0.213
-202.363	-7.181	0.189	0.128
-201.348	183.168	-0.167	-0.246
-200.333	137.145	0.150	0.196
-199.319	800.000	0.151	-0.630
-198.304	789.267	0.102	0.279
-197.290	800.000	0.062	-0.189
-196.275	-200.000	-0.004	-0.157
-195.260	-21.511	0.230	-0.140
-194.246	257.589	0.118	-0.203
-193.231	60.425	0.274	-0.270
-192.217	418.006	-0.157	-0.334
-191.202	-153.073	-0.394	-0.028
-190.187	36.178	-0.196	0.172
-189.173	-200.000	-0.003	-0.029
-188.158	9.653	-0.121	0.092
-187.144	-200.000	0.011	0.138
-186.129	-200.000	0.047	-0.264
-185.114	-110.799	0.390	-0.080
-184.100	338.898	-0.098	0.189
-183.085	61.325	0.070	0.069
-182.071	-200.000	-0.014	-0.302
-181.056	25.105	0.118	0.098
-180.042	-4.085	0.222	0.154
-179.027	800.000	0.022	-0.066
-178.012	235.088	0.103	0.169
-176.998	-200.000	-0.006	0.067
-175.983	-200.000	-0.043	-0.211
-174.969	-149.723	0.074	0.006
-173.954	296.803	0.034	0.062
-172.939	-200.000	0.144	-0.000
-171.925	-200.000	0.004	-0.381
-170.910	800.000	0.014	0.049
-169.896	-26.150	0.262	-0.154
-168.881	800.000	-0.074	-0.291
-167.866	-108.826	0.119	0.025
-166.852	-141.666	-0.267	-0.027
-165.837	114.423	-0.116	-0.141
-164.823	-81.481	-0.071	-0.023
-163.808	-95.330	0.379	-0.102
-162.793	800.000	0.023	0.070
-161.779	-88.668	-0.244	0.072
-160.764	-110.927	-0.066	-0.013
-159.750	-88.557	-0.275	-0.082
-158.735	-105.748	-0.189	-0.042
-157.720	301.236	-0.129	-0.237
-156.706	67.143	-0.121	-0.123
-155.691	219.488	-0.110	0.175
-154.677	18.361	-0.040	0.032
-153.662	18.973	-0.063	0.050
-152.647	-188.298	-0.143	0.002
-151.633	-18.974	-0.191	-0.118
-150.618	-119.663	0.231	0.040
-149.604	-119.291	0.153	0.027
-148.589	-2.156	-0.143	-0.100
-147.574	14.696	-0.237	-0.185
-146.560	556.473	-0.067	-0.161
-145.545	372.498	-0.155	-0.314
-144.531	25.130	-0.178	0.147
-143.516	800.000	-0.167	0.507
-142.502	-88.581	0.164	0.049
-141.487	154.407	0.044	0.060
-140.472	216.126	-0.115	0.182
-139.458	507.398	0.062	0.144
-138.443	212.554	0.090	0.142
-137.429	-200.000	-0.009	0.100
-136.414	800.000	0.012	0.051
-135.399	125.162	0.121	0.152
-134.385	-200.000	-0.072	0.411
-133.370	144.057	-0.105	-0.140
-132.356	-116.498	0.138	0.025
-131.341	-107.486	0.245	-0.053
-130.326	800.000	0.044	0.174
-129.312	-45.118	0.429	0.212
-128.297	11.059	-0.120	-0.091
-127.283	3.203	-0.110	0.080
-126.268	-200.000	0.021	-0.105
-125.253	-22.871	0.080	-0.048
-124.239	47.982	0.075	-0.070
-123.224	205.996	-0.192	-0.297
-122.210	108.993	-0.186	-0.221
-121.195	800.000	0.043	-0.183
