DTS Sentinel unit serial number:	SN413079Multiplexer serial number:	ORYXHardware model number:	OX4-SRSoftware version number:	ORYX F/W v4.00 Oryx Data Collector v3.7.2.0data status	okinstallation	princeton_trtdifferential loss correction	single-endedforward channel	channel 3reverse channel	N/Adate	2019/09/17time	07:04:34forward acquisition time	60.00reverse acquisition time	0.00gamma	496.2192k internal	0.2334k external	0.2334temperature offset calibration	0.9949default loss term (dB/km)	0.3790temperature slope calibration	1.0000multiplexer offset coefficient	1.0000multiplexer slope coefficient	1.0000fibre end	0.00T internal ref (°C)	27.44T ext. ref 1 (°C)	0.12T ext. ref 2 (°C)	21.10length (m)	temperature (°C)	Stokes	anti-Stokes-747.200	-200.000	0.195	-0.000
-746.185	-200.000	-0.025	0.178
-745.171	-126.802	-0.257	0.038
-744.156	800.000	0.083	0.244
-743.142	74.908	0.038	-0.040
-742.127	230.234	-0.046	-0.075
-741.112	81.804	0.187	-0.203
-740.098	9.460	0.066	0.050
-739.083	-133.706	-0.170	0.021
-738.069	-124.425	-0.244	0.038
-737.054	800.000	-0.020	0.057
-736.039	-56.624	-0.409	0.182
-735.025	-67.132	-0.325	-0.129
-734.010	349.574	0.075	-0.150
-732.996	62.271	-0.179	-0.179
-731.981	-76.723	-0.182	0.064
-730.966	-200.000	-0.052	-0.257
-729.952	-107.614	-0.141	-0.031
-728.937	320.964	0.031	0.060
-727.923	63.682	-0.068	0.069
-726.908	-50.431	0.141	-0.067
-725.894	249.634	0.109	-0.186
-724.879	91.374	0.131	-0.148
-723.864	800.000	-0.101	0.326
-722.850	800.000	-0.048	0.149
-721.835	-200.000	0.016	0.336
-720.821	350.468	0.094	-0.186
-719.806	-83.334	0.087	-0.028
-718.791	-86.237	-0.213	0.066
-717.777	-70.546	-0.144	0.055
-716.762	483.586	0.097	-0.221
-715.748	53.562	0.351	0.338
-714.733	800.000	0.060	0.250
-713.718	783.065	0.079	0.217
-712.704	800.000	0.045	-0.142
-711.689	-200.000	0.044	-0.233
-710.675	-73.669	-0.094	-0.034
-709.660	-59.525	0.034	-0.015
-708.645	800.000	0.057	0.225
-707.631	46.669	0.181	0.169
-706.616	-13.219	-0.273	0.178
-705.602	231.837	0.155	0.255
-704.587	-1.407	-0.043	-0.031
-703.572	55.207	0.155	0.150
-702.558	-200.000	-0.011	-0.155
-701.543	-200.000	-0.026	-0.163
-700.529	-200.000	0.015	0.190
-699.514	-200.000	0.043	0.225
-698.499	-143.200	-0.232	0.022
-697.485	-200.000	0.062	-0.396
-696.470	-108.636	0.178	-0.038
-695.456	-76.312	0.358	0.126
-694.441	-78.159	0.098	0.034
-693.426	129.065	0.057	-0.073
-692.412	-53.917	-0.578	-0.264
-691.397	-183.548	-0.070	-0.001
-690.383	-112.605	-0.148	-0.030
-689.368	-68.511	-0.166	0.065
-688.354	800.000	0.101	0.280
-687.339	-200.000	-0.006	0.135
-686.324	95.978	0.239	-0.274
-685.310	800.000	-0.076	0.251
-684.295	-116.449	-0.368	-0.068
-683.281	-189.516	0.240	0.003
-682.266	242.317	-0.148	-0.249
-681.251	800.000	0.067	-0.189
-680.237	215.787	-0.190	-0.302
-679.222	-124.271	0.209	-0.033
-678.208	-155.141	-0.561	0.037
-677.193	-91.328	0.284	-0.081
-676.178	95.745	-0.274	0.314
-675.164	-200.000	0.000	-0.003
-674.149	-200.000	0.022	0.244
-673.135	30.258	0.130	0.111
-672.120	50.285	0.118	-0.111
-671.105	-200.000	0.008	0.105
-670.091	649.435	-0.110	-0.283
-669.076	-13.186	0.213	-0.139
-668.062	271.652	-0.035	-0.061
-667.047	4.055	-0.332	-0.243
-666.032	-105.469	-0.267	-0.061
-665.018	53.030	0.259	-0.249
-664.003	800.000	0.105	-0.397
-662.989	-200.000	-0.035	0.158
-661.974	-200.000	0.052	-0.251
-660.959	-57.983	0.171	-0.075
-659.945	235.520	-0.145	-0.241
-658.930	-2.481	0.199	-0.140
-657.916	-200.000	0.069	-0.384
-656.901	800.000	0.016	-0.062
-655.886	-62.526	0.250	0.104
-654.872	112.951	0.202	0.245
-653.857	-200.000	0.095	-0.000
-652.843	-200.000	0.047	0.221
-651.828	16.430	0.081	0.064
-650.814	55.983	-0.134	-0.130
-649.799	-42.865	0.222	-0.113
-648.784	-92.160	0.356	-0.101
-647.770	-127.178	-0.430	-0.063
-646.755	-154.655	-0.207	0.014
-645.741	-49.117	-0.151	-0.072
-644.726	523.717	-0.121	0.284
-643.711	-200.000	0.026	-0.361
-642.697	-102.872	0.150	0.036
-641.682	-39.151	0.216	0.113
-640.668	-144.350	0.117	-0.011
-639.653	800.000	-0.096	-0.291
-638.638	800.000	-0.177	-0.543
-637.624	73.756	0.221	0.232
-636.609	163.106	0.279	0.392
-635.595	2.125	-0.241	0.174
-634.580	1.433	-0.214	0.154
-633.565	-45.923	-0.225	-0.111
-632.551	-25.304	-0.350	0.207
-631.536	93.869	-0.055	0.063
-630.522	12.961	0.023	0.018
-629.507	-61.698	-0.068	0.028
-628.492	29.071	0.142	-0.121
-627.478	58.648	0.120	-0.118
-626.463	-155.982	0.421	-0.027
-625.449	800.000	-0.047	-0.148
-624.434	351.186	-0.040	-0.080
-623.419	-69.433	0.160	-0.061
-622.405	134.555	-0.284	0.368
-621.390	-92.677	0.347	0.097
-620.376	155.329	-0.176	-0.242
-619.361	800.000	0.101	-0.288
-618.346	94.667	0.073	0.083
-617.332	-200.000	0.026	-0.249
-616.317	41.050	-0.202	-0.182
-615.303	42.325	0.155	-0.141
-614.288	-200.000	-0.002	0.363
-613.273	-200.000	0.011	0.133
-612.259	-200.000	0.036	-0.203
-611.244	-200.000	0.067	0.381
-610.230	-83.908	-0.178	0.057
-609.215	-35.380	0.208	-0.113
-608.201	800.000	0.066	0.222
-607.186	-100.074	0.197	0.049
-606.171	-200.000	0.009	-0.249
-605.157	-86.634	0.290	0.089
-604.142	-42.852	-0.263	-0.134
-603.128	160.799	-0.132	-0.184
-602.113	-14.867	0.005	-0.003
-601.098	-58.245	-0.273	0.119
-600.084	97.169	-0.277	-0.317
-599.069	800.000	0.023	0.099
-598.055	800.000	-0.027	-0.089
-597.040	-159.597	-0.241	-0.013
-596.025	265.207	0.101	0.176
-595.011	-26.813	0.086	0.050
-593.996	-119.062	-0.261	-0.046
-592.982	-77.909	-0.231	-0.079
-591.967	800.000	0.049	0.191
-590.952	211.125	0.042	-0.066
-589.938	-132.608	-0.116	0.015
-588.923	-200.000	-0.026	0.155
-587.909	301.866	0.089	-0.164
-586.894	-128.703	-0.142	0.020
-585.879	-138.638	0.341	-0.037
-584.865	283.992	-0.058	-0.104
-583.850	-72.626	0.260	-0.096
-582.836	522.483	0.066	-0.155
-581.821	-145.481	0.140	0.013
-580.806	477.438	-0.050	-0.113
-579.792	41.244	-0.448	-0.404
-578.777	800.000	0.056	0.213
-577.763	-145.448	-0.196	0.018
-576.748	800.000	0.085	-0.254
-575.733	-127.174	-0.393	0.057
-574.719	-200.000	-0.088	0.410
-573.704	-200.000	-0.036	0.222
-572.690	59.043	-0.231	-0.227
-571.675	-87.894	-0.313	0.094
-570.661	-74.874	0.217	-0.078
-569.646	-82.113	0.081	0.027
-568.631	-194.505	0.206	0.002
-567.617	-88.634	0.354	0.105
-566.602	70.985	-0.118	0.122
-565.588	-115.923	0.227	-0.042
-564.573	-200.000	0.011	0.155
-563.558	295.587	-0.071	-0.129
-562.544	234.377	0.024	-0.040
-561.529	24.403	0.055	0.046
-560.515	727.464	0.095	0.253
-559.500	-139.125	-0.152	0.016
-558.485	16.534	0.326	0.257
-557.471	-154.800	0.366	0.024
-556.456	-34.841	0.282	-0.154
-555.442	58.456	-0.271	-0.265
-554.427	-1.423	0.373	-0.263
-553.412	-110.117	-0.326	0.068
-552.398	-78.558	0.192	-0.066
-551.383	-200.000	0.016	0.174
-550.369	37.649	0.164	-0.146
-549.354	-200.000	-0.034	-0.418
-548.339	87.890	-0.315	-0.348
-547.325	-31.493	-0.187	-0.105
-546.310	485.516	-0.119	-0.270
-545.296	152.775	0.121	-0.164
-544.281	-79.775	-0.104	-0.035
-543.266	59.947	0.069	-0.068
-542.252	-200.000	0.027	-0.190
-541.237	-50.305	-0.115	-0.054
-540.223	-200.000	-0.057	-0.316
-539.208	-52.045	0.026	-0.012
-538.193	-0.974	0.279	0.196
-537.179	-14.125	-0.196	-0.126
-536.164	-73.708	0.152	0.055
-535.150	417.137	-0.099	-0.210
-534.135	800.000	-0.052	0.154
-533.121	-18.435	0.165	-0.103
-532.106	-105.397	0.326	-0.074
-531.091	-68.305	-0.157	-0.061
-530.077	-200.000	-0.003	0.185
-529.062	746.892	-0.104	0.280
-528.048	-99.089	0.152	-0.038
-527.033	389.185	0.096	0.198
-526.018	220.009	-0.064	-0.102
-525.004	-200.000	0.012	0.062
-523.989	-70.114	-0.339	-0.128
-522.975	68.583	0.149	-0.152
-521.960	79.627	0.215	-0.230
-520.945	-174.576	-0.119	0.003
-519.931	800.000	-0.130	0.371
-518.916	-66.140	0.107	-0.043
-517.902	187.072	-0.087	-0.129
-516.887	-200.000	0.020	0.111
-515.872	60.648	-0.157	0.155
-514.858	165.576	-0.146	-0.206
-513.843	65.112	-0.281	0.283
-512.829	174.664	-0.109	0.157
-511.814	195.210	0.192	-0.290
-510.799	-200.000	0.012	-0.251
-509.785	800.000	0.028	-0.113
-508.770	217.370	-0.150	-0.238
-507.756	-83.697	0.217	0.069
-506.741	173.878	0.067	-0.096
-505.726	38.021	0.114	0.101
-504.712	-31.249	-0.335	-0.188
-503.697	-24.239	-0.144	0.086
-502.683	282.983	0.119	0.212
-501.668	29.059	-0.274	-0.232
-500.653	800.000	0.077	-0.245
-499.639	647.701	0.076	0.192
-498.624	-27.447	0.163	-0.094
-497.610	94.813	0.186	-0.211
-496.595	-122.509	0.117	-0.019
-495.581	2.167	-0.377	-0.271
-494.566	425.522	-0.078	0.167
-493.551	-143.289	-0.166	-0.016
-492.537	89.619	0.469	-0.521
-491.522	-179.476	-0.305	-0.007
-490.508	-200.000	-0.041	-0.228
-489.493	4.816	0.128	0.094
-488.478	-77.708	0.289	-0.099
-487.464	146.013	0.163	0.217
-486.449	201.112	0.093	0.143
-485.435	-120.644	-0.372	-0.063
-484.420	-42.070	-0.045	-0.023
-483.405	800.000	0.039	-0.133
-482.391	-200.000	-0.006	-0.072
-481.376	357.024	-0.024	0.047
-480.362	800.000	0.024	-0.070
-479.347	-182.903	-0.083	-0.001
-478.332	684.786	0.080	0.206
-477.318	111.213	-0.141	0.169
-476.303	800.000	0.042	0.164
-475.289	202.767	0.094	0.144
-474.274	104.085	-0.188	-0.220
-473.259	-151.593	-0.232	-0.017
-472.245	522.079	-0.117	0.272
-471.230	-34.644	-0.236	-0.128
-470.216	-63.236	-0.141	0.058
-469.201	387.551	0.172	-0.355
-468.186	198.118	0.258	0.392
-467.172	49.700	-0.192	-0.180
-466.157	637.218	-0.128	-0.324
-465.143	106.079	-0.179	-0.210
-464.128	-23.795	-0.265	0.158
-463.113	193.233	-0.089	0.133
-462.099	281.434	-0.151	-0.268
-461.084	97.023	-0.113	0.128
-460.070	99.119	0.274	0.314
-459.055	800.000	0.046	-0.183
-458.040	-107.120	0.171	0.037
-457.026	-103.947	-0.111	-0.026
-456.011	-115.783	0.408	0.076
-454.997	800.000	0.049	0.179
-453.982	-168.378	-0.323	-0.012
-452.968	-26.850	-0.282	-0.164
-451.953	-131.734	0.334	0.044
-450.938	-200.000	0.010	-0.149
-449.924	800.000	-0.061	0.239
-448.909	101.307	-0.165	0.191
-447.895	136.496	-0.162	-0.210
-446.880	18.194	-0.023	-0.018
-445.865	104.973	-0.105	0.122
-444.851	-125.719	0.456	0.069
-443.836	-102.840	0.286	-0.068
-442.822	-101.856	0.314	0.075
-441.807	622.321	-0.016	-0.039
-440.792	-45.071	0.100	0.049
-439.778	44.206	0.236	0.215
-438.763	-51.993	-0.169	-0.078
-437.749	40.678	0.125	0.112
-436.734	70.230	-0.146	0.150
-435.719	-200.000	0.006	-0.160
-434.705	-84.580	-0.227	-0.071
-433.690	-200.000	-0.009	-0.189
-432.676	505.470	-0.117	-0.270
-431.661	201.878	0.080	-0.123
-430.646	-39.452	-0.274	0.143
-429.632	800.000	-0.067	0.234
-428.617	-70.642	0.218	-0.082
-427.603	-104.972	0.288	-0.065
-426.588	-88.006	-0.397	0.118
-425.573	646.189	-0.132	-0.334
-424.559	-14.808	0.208	-0.132
-423.544	5.227	0.260	0.190
-422.530	-52.051	-0.144	-0.066
-421.515	-108.560	-0.074	0.016
-420.500	128.457	-0.169	0.213
-419.486	800.000	0.058	0.251
-418.471	-11.148	0.435	-0.284
-417.457	-115.270	-0.199	-0.037
-416.442	66.758	0.318	0.322
-415.428	-104.426	-0.210	0.048
-414.413	35.546	0.063	-0.055
-413.398	414.309	-0.098	0.207
-412.384	8.288	0.173	0.129
-411.369	43.858	-0.216	0.196
-410.355	432.169	0.080	0.171
-409.340	-46.069	0.155	0.076
-408.325	-200.000	-0.004	0.242
-407.311	-125.529	0.051	-0.008
-406.296	-84.800	0.170	0.053
-405.282	105.914	-0.193	-0.227
-404.267	285.697	0.229	0.409
-403.252	-39.483	-0.097	0.051
-402.238	-91.806	-0.052	-0.015
-401.223	-45.787	0.106	0.052
-400.209	-151.625	-0.115	-0.008
-399.194	-2.876	0.372	-0.258
-398.179	193.660	-0.066	0.098
-397.165	-200.000	0.011	-0.143
-396.150	-19.283	-0.079	-0.048
-395.136	-61.978	0.573	-0.237
-394.121	246.324	-0.175	-0.293
-393.106	-124.840	0.229	0.035
-392.092	202.918	-0.048	-0.073
-391.077	545.750	0.034	-0.080
-390.063	-22.926	-0.071	0.042
-389.048	786.599	0.169	0.459
-388.033	-132.060	0.332	0.043
-387.019	-54.972	-0.045	0.020
-386.004	-200.000	0.007	-0.080
-384.990	57.457	-0.156	-0.151
-383.975	248.907	0.167	-0.280
-382.960	800.000	-0.041	0.114
-381.946	-195.710	-0.165	-0.001
-380.931	702.649	-0.105	0.273
-379.917	-52.976	0.239	-0.109
-378.902	148.413	-0.045	0.060
-377.888	-200.000	0.027	-0.160
-376.873	-200.000	0.042	0.383
-375.858	613.535	0.028	0.070
-374.844	-54.279	-0.139	-0.063
-373.829	123.927	0.190	0.236
-372.815	2.568	0.432	0.310
-371.800	295.772	0.240	0.435
-370.785	65.399	-0.287	0.288
-369.771	-49.935	-0.140	-0.066
-368.756	-143.298	-0.381	-0.036
-367.742	25.408	0.132	0.109
-366.727	-200.000	-0.009	-0.135
-365.712	505.103	0.100	-0.229
-364.698	800.000	0.043	0.136
-363.683	-200.000	0.260	-0.001
-362.669	-139.874	0.181	-0.019
-361.654	-200.000	-0.021	0.189
-360.639	-109.071	0.527	-0.111
-359.625	78.954	0.176	-0.186
-358.610	-111.281	0.158	0.032
-357.596	-200.000	-0.033	0.260
-356.581	607.052	-0.106	0.262
-355.566	360.999	-0.024	-0.048
-354.552	283.907	0.050	-0.089
-353.537	-36.200	-0.213	-0.114
-352.523	76.515	0.299	-0.314
-351.508	189.589	-0.247	-0.367
-350.493	-200.000	0.015	-0.405
-349.479	-200.000	0.013	0.208
-348.464	-200.000	-0.055	0.246
-347.450	-200.000	0.028	0.374
-346.435	206.751	-0.124	-0.192
-345.420	800.000	0.011	-0.030
-344.406	800.000	0.145	-0.431
-343.391	-200.000	-0.019	-0.224
-342.377	319.077	-0.106	0.198
-341.362	-52.888	0.184	-0.084
-340.348	-200.000	-0.015	-0.146
-339.333	800.000	0.088	-0.279
-338.318	800.000	-0.060	0.199
-337.304	-200.000	-0.009	-0.213
-336.289	-82.162	-0.093	-0.030
-335.275	-200.000	0.040	0.347
-334.260	-200.000	-0.009	0.110
-333.245	-11.042	-0.192	-0.125
-332.231	-22.605	0.019	0.011
-331.216	-100.274	-0.252	-0.062
-330.202	800.000	-0.108	-0.325
-329.187	800.000	0.029	0.094
-328.172	800.000	0.030	0.110
-327.158	45.477	-0.129	0.118
-326.143	-122.017	-0.058	0.009
-325.129	-190.944	-0.130	0.001
-324.114	-62.815	-0.090	-0.037
-323.099	-118.627	0.296	-0.052
-322.085	272.291	0.089	0.155
-321.070	800.000	0.080	-0.262
-320.056	326.430	-0.144	-0.272
-319.041	39.612	-0.075	-0.067
-318.026	800.000	-0.031	-0.121
-317.012	-200.000	-0.017	-0.110
-315.997	145.526	0.016	-0.021
-314.983	-101.862	0.171	0.041
-313.968	-117.250	-0.306	-0.055
-312.953	800.000	0.129	-0.352
-311.939	-200.000	-0.046	-0.217
-310.924	145.633	-0.132	0.174
-309.910	608.215	-0.099	-0.243
-308.895	-67.445	0.120	0.047
-307.880	-200.000	-0.007	-0.121
-306.866	37.255	0.170	0.149
-305.851	-200.000	0.018	0.104
-304.837	-200.000	-0.005	0.317
-303.822	-200.000	-0.031	0.235
-302.807	-111.180	-0.330	0.067
-301.793	118.499	-0.125	0.152
-300.778	-110.021	0.215	0.044
-299.764	428.375	0.021	0.044
-298.749	135.201	-0.280	-0.359
-297.735	-200.000	-0.007	-0.224
-296.720	37.788	-0.130	-0.114
-295.705	384.027	-0.138	0.280
-294.691	-120.630	0.363	-0.061
-293.676	-133.921	0.217	-0.027
-292.662	275.892	-0.158	-0.277
-291.647	-200.000	0.004	0.080
-290.632	-101.734	0.166	0.040
-289.618	800.000	-0.014	0.048
-288.603	-106.904	-0.250	0.055
-287.589	194.914	-0.055	-0.082
-286.574	-133.769	0.180	-0.022
-285.559	264.265	-0.068	0.116
-284.545	-117.267	-0.392	-0.070
-283.530	-180.862	-0.365	-0.007
-282.516	-64.138	0.159	0.064
-281.501	-79.741	-0.449	-0.149
-280.486	800.000	-0.197	-0.546
-279.472	44.454	0.250	-0.227
-278.457	29.157	-0.135	0.113
-277.443	-200.000	-0.026	0.309
-276.428	498.278	0.114	-0.258
-275.413	720.002	-0.097	0.255
-274.399	73.692	-0.105	-0.109
-273.384	-117.833	0.142	-0.025
-272.370	-66.632	-0.080	-0.031
-271.355	-121.501	-0.125	-0.020
-270.340	-20.341	0.107	0.065
-269.326	-130.160	-0.199	0.027
-268.311	192.969	0.059	-0.088
-267.297	486.685	0.059	0.133
-266.282	800.000	-0.029	-0.096
-265.267	-200.000	0.005	-0.075
-264.253	270.562	-0.071	0.123
-263.238	97.277	0.147	0.166
-262.224	326.375	-0.121	-0.228
-261.209	-97.217	-0.184	-0.047
-260.195	-11.542	-0.142	-0.092
-259.180	-35.947	0.094	0.050
-258.165	0.787	0.119	0.084
-257.151	800.000	0.041	0.172
-256.136	-94.387	-0.132	-0.035
-255.122	-200.000	0.002	0.026
-254.107	-55.234	-0.212	0.094
-253.092	247.287	-0.230	-0.383
-252.078	-200.000	-0.007	0.110
-251.063	-200.000	-0.032	-0.195
-250.049	132.136	0.082	0.105
-249.034	126.973	0.195	-0.244
-248.019	-188.901	-0.162	0.002
-247.005	800.000	0.064	0.248
-245.990	800.000	-0.142	0.438
-244.976	223.808	0.139	-0.220
-243.961	-170.968	-0.106	0.004
-242.946	2.454	0.142	0.101
-241.932	8.745	0.199	-0.148
-240.917	-188.297	-0.359	-0.004
-239.903	60.061	0.323	0.315
-238.888	47.572	-0.254	-0.233
-237.873	606.301	-0.087	0.214
-236.859	-108.161	0.064	-0.014
-235.844	106.015	0.182	-0.212
-234.830	-118.059	0.226	0.040
-233.815	-38.553	0.356	0.186
-232.800	800.000	0.083	0.329
-231.786	-16.739	-0.119	-0.074
-230.771	746.398	-0.008	-0.022
-229.757	317.114	-0.078	-0.145
-228.742	-14.404	0.224	0.142
-227.727	153.077	-0.393	-0.529
-226.713	176.931	-0.194	-0.279
-225.698	-28.486	0.088	0.050
-224.684	-200.000	-0.009	0.062
-223.669	345.696	-0.148	0.286
-222.655	-138.135	-0.114	-0.012
-221.640	800.000	-0.113	0.350
-220.625	169.391	-0.052	0.073
-219.611	-200.000	0.101	0.490
-218.596	800.000	0.071	0.265
-217.582	-96.055	-0.133	0.035
-216.567	223.531	0.162	0.258
-215.552	83.087	-0.173	0.186
-214.538	-8.855	0.464	-0.306
-213.523	14.560	-0.165	-0.127
-212.509	-151.281	-0.332	0.024
-211.494	8.777	0.238	0.177
-210.479	38.276	-0.200	0.176
-209.465	-200.000	-0.026	-0.167
-208.450	-131.447	-0.163	0.021
-207.436	-152.380	0.015	-0.001
-206.421	-88.541	-0.192	-0.056
-205.406	195.657	0.103	-0.154
-204.392	-200.000	0.008	0.087
-203.377	-6.476	-0.168	0.113
-202.363	-12.442	0.137	-0.088
-201.348	740.879	-0.123	0.325
-200.333	-42.829	-0.140	0.070
-199.319	-200.000	-0.011	0.054
-198.304	-67.796	0.004	0.002
-197.290	-14.670	-0.258	-0.163
-196.275	-42.172	0.263	-0.132
-195.260	-200.000	-0.004	0.217
-194.246	-55.115	-0.273	0.121
-193.231	-107.293	0.111	0.024
-192.217	-5.758	0.206	0.138
-191.202	711.973	-0.064	-0.166
-190.187	-125.891	0.497	-0.074
-189.173	339.603	0.240	0.461
-188.158	279.198	0.107	0.188
-187.144	-115.538	0.473	-0.087
-186.129	183.018	-0.185	-0.268
-185.114	393.629	-0.175	0.358
-184.100	800.000	0.045	0.186
-183.085	58.262	-0.220	0.213
-182.071	-10.546	-0.244	-0.159
-181.056	-110.035	0.461	0.095
-180.042	102.291	0.250	0.287
-179.027	80.243	0.151	-0.160
-178.012	71.808	0.061	-0.062
-176.998	-96.903	-0.355	0.092
-175.983	-24.980	-0.108	-0.063
-174.969	466.405	0.055	0.121
-173.954	-127.005	0.287	0.041
-172.939	-27.233	0.167	-0.095
-171.925	-34.829	0.342	0.183
-170.910	270.395	-0.066	-0.115
-169.896	800.000	0.018	0.050
-168.881	-200.000	-0.034	0.230
-167.866	153.285	0.022	-0.029
-166.852	130.141	-0.185	0.232
-165.837	-200.000	-0.054	0.264
-164.823	-21.215	0.156	0.094
-163.808	-62.292	0.060	-0.025
-162.793	81.185	0.252	-0.268
-161.779	-111.526	-0.218	0.044
-160.764	800.000	-0.084	0.300
-159.750	-54.111	0.133	-0.059
-158.735	-84.423	-0.109	0.034
-157.720	-200.000	0.007	0.156
-156.706	458.103	0.061	0.132
-155.691	-106.664	-0.084	-0.018
-154.677	-200.000	0.013	0.117
-153.662	-83.513	0.160	-0.050
-152.647	465.995	0.041	-0.090
-151.633	59.501	-0.088	0.085
-150.618	289.855	0.112	0.200
-149.604	800.000	-0.071	0.227
-148.589	56.724	-0.154	0.147
-147.574	-119.021	0.326	0.056
-146.560	-200.000	-0.046	0.344
-145.545	1.027	-0.131	-0.092
-144.531	-200.000	0.087	0.396
-143.516	230.081	0.205	0.328
-142.502	800.000	-0.055	-0.173
-141.487	390.512	0.010	0.021
-140.472	-148.221	0.062	-0.005
-139.458	700.306	-0.070	0.181
-138.443	800.000	0.043	-0.179
-137.429	800.000	-0.088	-0.250
-136.414	211.003	-0.139	0.215
-135.399	83.101	-0.162	0.173
-134.385	223.502	-0.218	-0.345
-133.370	21.278	0.175	-0.140
-132.356	25.553	0.091	-0.074
-131.341	-161.778	-0.039	-0.002
-130.326	217.955	-0.066	-0.104
-129.312	88.360	0.183	0.200
-128.297	424.451	-0.121	0.256
-127.283	401.769	-0.092	-0.189
-126.268	-200.000	-0.072	0.327
-125.253	-200.000	-0.009	0.088
-124.239	437.663	0.054	0.116
-123.224	-6.989	0.257	0.171
-122.210	-54.773	-0.155	-0.069
-121.195	-200.000	0.027	-0.233
