DTS Sentinel unit serial number:	SN413079Multiplexer serial number:	ORYXHardware model number:	OX4-SRSoftware version number:	ORYX F/W v4.00 Oryx Data Collector v3.7.2.0data status	okinstallation	princeton_trtdifferential loss correction	single-endedforward channel	channel 3reverse channel	N/Adate	2019/09/11time	21:22:10forward acquisition time	60.00reverse acquisition time	0.00gamma	496.2192k internal	0.2309k external	0.2309temperature offset calibration	1.0033default loss term (dB/km)	0.3790temperature slope calibration	1.0000multiplexer offset coefficient	1.0000multiplexer slope coefficient	1.0000fibre end	0.00T internal ref (°C)	36.17T ext. ref 1 (°C)	1.56T ext. ref 2 (°C)	30.02length (m)	temperature (°C)	Stokes	anti-Stokes-747.200	76.197	-0.168	-0.180
-746.185	-3.755	0.300	0.212
-745.171	76.635	0.105	-0.113
-744.156	-44.268	0.137	-0.070
-743.142	-107.400	-0.062	-0.014
-742.127	-200.000	0.075	0.334
-741.112	18.338	-0.169	-0.137
-740.098	800.000	0.043	0.122
-739.083	-103.002	0.199	-0.048
-738.069	295.188	-0.066	0.123
-737.054	-126.561	-0.199	-0.030
-736.039	-85.681	-0.184	0.058
-735.025	-106.137	0.546	0.125
-734.010	135.296	-0.166	0.219
-732.996	800.000	0.034	-0.133
-731.981	86.521	-0.309	0.346
-730.966	-55.097	0.395	0.181
-729.952	-178.573	0.136	-0.003
-728.937	-200.000	0.003	-0.152
-727.923	217.872	-0.079	-0.128
-726.908	-24.812	-0.245	-0.148
-725.894	800.000	-0.088	-0.320
-724.879	-111.679	-0.257	-0.053
-723.864	-75.580	-0.128	0.046
-722.850	-103.856	-0.134	-0.032
-721.835	222.998	-0.086	-0.141
-720.821	135.247	0.022	0.029
-719.806	-107.764	-0.210	0.046
-718.791	58.675	-0.064	-0.063
-717.777	-200.000	-0.030	0.135
-716.762	165.383	0.084	0.121
-715.748	308.186	0.095	0.180
-714.733	1.949	-0.119	0.087
-713.718	-152.838	0.366	-0.026
-712.704	-52.469	-0.355	0.167
-711.689	-141.432	-0.131	-0.013
-710.675	-200.000	-0.024	-0.108
-709.660	94.841	-0.057	-0.066
-708.645	-200.000	-0.028	-0.141
-707.631	-48.440	-0.417	-0.204
-706.616	-165.218	0.037	0.002
-705.602	-200.000	0.025	-0.225
-704.587	-114.182	0.177	-0.035
-703.572	800.000	-0.100	-0.296
-702.558	-144.693	0.313	0.029
-701.543	610.759	-0.049	-0.125
-700.529	271.889	-0.073	-0.131
-699.514	-200.000	-0.017	-0.209
-698.499	-114.861	0.196	0.038
-697.485	593.376	-0.085	-0.212
-696.470	57.423	-0.123	0.122
-695.456	-90.549	-0.177	-0.052
-694.441	-6.528	0.284	-0.196
-693.426	800.000	0.044	-0.186
-692.412	800.000	-0.058	0.227
-691.397	177.297	-0.113	0.167
-690.383	341.942	0.017	-0.034
-689.368	-200.000	-0.031	-0.414
-688.354	-138.244	-0.473	0.053
-687.339	-67.238	-0.185	0.074
-686.324	147.085	-0.257	-0.351
-685.310	-10.541	-0.116	0.078
-684.295	-80.783	0.272	0.092
-683.281	800.000	0.062	-0.246
-682.266	-145.673	-0.197	0.018
-681.251	386.853	-0.039	0.082
-680.237	10.683	-0.129	0.100
-679.222	-200.000	-0.033	-0.165
-678.208	-14.039	-0.242	-0.158
-677.193	-71.668	0.172	-0.065
-676.178	-40.587	-0.117	-0.061
-675.164	17.538	-0.100	0.081
-674.149	225.076	-0.057	0.094
-673.135	45.485	-0.346	0.324
-672.120	74.654	-0.130	-0.138
-671.105	146.512	0.193	0.263
-670.091	8.671	-0.103	0.078
-669.076	7.667	0.088	0.067
-668.062	101.489	-0.178	0.211
-667.047	71.934	-0.127	-0.134
-666.032	-200.000	-0.027	-0.153
-665.018	157.055	0.091	0.127
-664.003	-28.059	-0.132	-0.078
-662.989	-77.705	0.141	-0.049
-661.974	-36.438	0.577	-0.315
-660.959	-200.000	-0.021	0.125
-659.945	419.923	-0.168	0.364
-658.930	35.485	0.305	0.271
-657.916	174.951	-0.177	0.260
-656.901	-200.000	-0.007	-0.281
-655.886	-43.035	-0.249	-0.128
-654.872	-99.107	0.095	-0.024
-653.857	-121.043	-0.203	-0.035
-652.843	86.234	0.260	-0.290
-651.828	-200.000	0.007	-0.404
-650.814	-107.712	0.214	-0.047
-649.799	-38.136	0.400	-0.215
-648.784	-200.000	0.067	-0.477
-647.770	319.027	0.029	-0.056
-646.755	-10.571	-0.265	-0.177
-645.741	-44.324	-0.016	-0.008
-644.726	-120.481	-0.210	-0.036
-643.711	-200.000	0.011	-0.151
-642.697	70.787	0.108	-0.113
-641.682	2.260	0.288	0.211
-640.668	-200.000	0.012	-0.068
-639.653	-95.672	-0.237	0.064
-638.638	-29.308	-0.412	0.239
-637.624	447.608	-0.091	0.203
-636.609	-200.000	0.005	0.133
-635.595	-200.000	-0.039	-0.264
-634.580	-62.439	0.273	0.115
-633.565	-134.436	-0.232	-0.029
-632.551	255.197	-0.288	-0.499
-631.536	60.326	0.137	-0.138
-630.522	-200.000	0.011	-0.251
-629.507	21.482	-0.269	-0.221
-628.492	-106.862	0.136	0.030
-627.478	-200.000	-0.010	0.092
-626.463	11.952	0.069	0.053
-625.449	-104.140	0.400	-0.094
-624.434	-71.239	0.106	-0.040
-623.419	241.847	0.094	-0.160
-622.405	349.722	0.249	-0.497
-621.390	-77.974	0.102	-0.036
-620.376	-133.894	0.417	-0.052
-619.361	20.140	-0.217	0.177
-618.346	-200.000	-0.026	0.228
-617.332	24.343	-0.040	0.033
-616.317	-107.502	-0.185	0.041
-615.303	-121.832	0.355	-0.059
-614.288	219.453	0.036	-0.059
-613.273	84.442	-0.170	0.188
-612.259	-200.000	0.021	-0.166
-611.244	438.813	0.137	-0.302
-610.230	145.511	0.057	0.078
-609.215	-105.837	0.180	0.041
-608.201	-67.573	0.093	0.037
-607.186	-10.667	-0.128	-0.085
-606.171	-118.848	0.286	-0.051
-605.157	87.988	-0.155	0.174
-604.142	201.366	-0.111	0.173
-603.128	33.079	-0.125	0.110
-602.113	-124.982	0.123	-0.019
-601.098	-128.220	0.146	-0.021
-600.084	800.000	0.016	0.060
-599.069	-101.377	0.082	0.020
-598.055	-111.030	0.204	0.042
-597.040	67.342	-0.193	0.199
-596.025	377.264	0.019	-0.038
-595.011	800.000	0.038	-0.168
-593.996	-111.903	-0.243	0.049
-592.982	-181.889	0.314	-0.006
-591.967	18.796	-0.119	-0.096
-590.952	120.593	-0.158	0.198
-589.938	309.331	-0.142	-0.267
-588.923	-74.996	-0.100	0.036
-587.909	71.449	0.073	0.076
-586.894	-147.338	-0.445	0.038
-585.879	6.932	0.216	0.162
-584.865	40.269	-0.248	0.225
-583.850	-62.351	-0.182	0.076
-582.836	-45.462	-0.089	-0.045
-581.821	-100.432	0.171	0.043
-580.806	6.804	-0.111	-0.084
-579.792	-200.000	0.049	0.230
-578.777	32.621	-0.038	-0.033
-577.763	-123.902	-0.163	-0.026
-576.748	-114.059	-0.178	0.035
-575.733	-71.580	-0.411	-0.155
-574.719	-14.078	-0.197	0.128
-573.704	-200.000	0.030	-0.333
-572.690	-108.335	0.283	-0.062
-571.675	99.387	-0.290	-0.339
-570.661	133.761	-0.241	-0.314
-569.646	-200.000	0.000	0.332
-568.631	-112.335	-0.628	0.127
-567.617	52.953	0.271	-0.262
-566.602	593.140	-0.043	-0.108
-565.588	92.675	-0.175	0.200
-564.573	-117.190	-0.251	0.046
-563.558	11.065	-0.214	0.165
-562.544	8.411	-0.189	0.143
-561.529	-147.621	0.053	0.005
-560.515	-80.763	0.120	-0.040
-559.500	201.221	0.076	0.117
-558.485	59.872	0.307	-0.306
-557.471	-152.978	-0.059	-0.004
-556.456	-46.812	0.151	-0.074
-555.442	-147.872	0.216	0.018
-554.427	-127.733	-0.094	-0.014
-553.412	-69.007	-0.148	-0.058
-552.398	559.377	0.048	0.117
-551.383	800.000	-0.076	0.256
-550.369	47.119	-0.098	0.092
-549.354	198.832	-0.226	0.349
-548.339	-200.000	0.005	-0.172
-547.325	-40.881	0.052	0.027
-546.310	-49.449	-0.017	-0.008
-545.296	411.600	0.127	-0.272
-544.281	-200.000	0.057	0.289
-543.266	800.000	0.044	0.137
-542.252	-200.000	0.066	0.306
-541.237	-194.593	-0.140	0.001
-540.223	182.921	-0.030	0.045
-539.208	166.616	0.159	0.227
-538.193	-200.000	-0.049	-0.395
-537.179	676.566	0.071	0.185
-536.164	70.603	-0.080	0.084
-535.150	-200.000	-0.019	0.215
-534.135	523.206	-0.086	-0.205
-533.121	13.694	-0.043	-0.034
-532.106	-200.000	-0.036	0.218
-531.091	800.000	0.101	0.326
-530.077	-52.993	0.139	-0.064
-529.062	-57.720	-0.308	-0.136
-528.048	-9.196	-0.178	-0.120
-527.033	725.674	-0.005	-0.014
-526.018	-200.000	0.031	-0.208
-525.004	800.000	-0.085	0.344
-523.989	-161.584	0.255	-0.013
-522.975	-115.027	0.055	0.011
-521.960	-200.000	-0.002	-0.195
-520.945	-91.144	-0.261	0.075
-519.931	-200.000	0.043	0.292
-518.916	-200.000	0.003	0.161
-517.902	-200.000	-0.033	-0.176
-516.887	-43.917	-0.235	-0.119
-515.872	254.366	0.068	0.117
-514.858	-200.000	0.008	0.045
-513.843	800.000	0.074	0.209
-512.829	-200.000	0.005	-0.120
-511.814	-103.556	-0.226	-0.053
-510.799	26.300	0.088	-0.074
-509.785	800.000	-0.037	-0.119
-508.770	121.939	-0.126	0.159
-507.756	-110.754	0.200	-0.041
-506.741	-79.958	-0.261	-0.088
-505.726	-61.301	0.160	0.068
-504.712	287.989	-0.146	0.265
-503.697	-131.913	-0.140	-0.018
-502.683	-200.000	-0.013	-0.272
-501.668	-200.000	0.009	-0.130
-500.653	172.822	0.198	0.287
-499.639	-106.279	0.232	0.052
-498.624	-200.000	0.019	-0.358
-497.610	-116.432	0.172	-0.032
-496.595	-200.000	-0.005	-0.049
-495.581	-119.966	-0.303	0.052
-494.566	14.879	-0.076	0.060
-493.551	800.000	0.061	-0.179
-492.537	-105.681	-0.071	-0.016
-491.522	15.980	-0.266	0.210
-490.508	800.000	-0.054	-0.225
-489.493	789.580	0.042	-0.116
-488.478	-89.090	0.175	-0.052
-487.464	-187.014	-0.365	0.005
-486.449	41.462	0.157	0.143
-485.435	751.140	-0.094	0.255
-484.420	377.785	0.153	0.315
-483.405	473.243	0.090	0.203
-482.391	106.027	-0.225	0.268
-481.376	652.520	-0.110	0.284
-480.362	-161.561	0.246	-0.013
-479.347	800.000	-0.066	0.208
-478.332	-200.000	-0.010	-0.052
-477.318	-42.484	0.187	-0.096
-476.303	-46.207	-0.104	-0.052
-475.289	38.831	-0.164	0.147
-474.274	-200.000	-0.111	0.000
-473.259	190.571	0.127	0.192
-472.245	24.952	0.080	-0.066
-471.230	-139.118	-0.238	0.026
-470.216	460.150	-0.179	-0.402
-469.201	800.000	0.023	-0.066
-468.186	60.438	0.098	-0.097
-467.172	25.672	0.025	0.021
-466.157	-63.393	0.139	-0.057
-465.143	-200.000	0.023	0.545
-464.128	49.493	-0.225	-0.212
-463.113	-68.055	0.100	0.039
-462.099	477.630	0.040	0.091
-461.084	-200.000	0.015	0.366
-460.070	192.748	0.054	0.082
-459.055	-85.145	-0.495	-0.156
-458.040	171.917	0.350	-0.505
-457.026	-200.000	-0.015	0.147
-456.011	-200.000	-0.068	0.455
-454.997	-200.000	0.030	0.337
-453.982	-200.000	-0.036	-0.211
-452.968	-116.280	-0.315	0.059
-451.953	-42.424	-0.292	0.150
-450.938	170.992	-0.265	-0.382
-449.924	-115.071	-0.136	0.026
-448.909	60.289	-0.124	-0.123
-447.895	-40.112	-0.165	0.086
-446.880	-131.017	-0.064	0.009
-445.865	204.290	0.261	0.407
-444.851	-200.000	0.004	0.183
-443.836	-200.000	-0.100	-0.000
-442.822	7.707	-0.118	-0.089
-441.807	581.348	0.102	-0.251
-440.792	111.252	-0.117	0.141
-439.778	228.850	0.101	-0.165
-438.763	-96.816	0.273	-0.072
-437.749	-200.000	-0.007	-0.229
-436.734	-200.000	-0.019	-0.162
-435.719	189.307	-0.071	-0.106
-434.705	-196.995	0.574	0.004
-433.690	54.653	0.233	-0.225
-432.676	800.000	-0.074	-0.265
-431.661	-114.492	0.263	-0.051
-430.646	49.605	-0.279	0.263
-429.632	-181.513	-0.315	0.006
-428.617	-200.000	-0.014	0.147
-427.603	-76.363	0.305	0.108
-426.588	-11.710	0.254	-0.167
-425.573	-154.893	0.185	0.012
-424.559	-200.000	0.012	0.162
-423.544	-4.571	-0.174	-0.121
-422.530	-200.000	-0.025	-0.174
-421.515	-200.000	0.029	0.200
-420.500	-50.145	0.197	0.094
-419.486	-66.153	0.246	0.098
-418.471	151.467	-0.071	-0.097
-417.457	-58.117	0.214	0.094
-416.442	336.129	0.211	-0.412
-415.428	800.000	0.021	-0.063
-414.413	-200.000	0.009	0.162
-413.398	-157.040	-0.159	0.010
-412.384	620.669	0.053	-0.134
-411.369	32.807	0.049	-0.042
-410.355	-200.000	0.031	0.298
-409.340	-122.531	-0.090	-0.015
-408.325	216.663	0.106	-0.170
-407.311	254.230	-0.157	-0.269
-406.296	800.000	-0.072	0.283
-405.282	18.574	-0.105	0.084
-404.267	102.251	-0.085	0.099
-403.252	-46.171	-0.268	-0.132
-402.238	-200.000	0.046	-0.246
-401.223	-200.000	0.035	-0.154
-400.209	57.200	-0.114	0.112
-399.194	-200.000	-0.013	-0.180
-398.179	800.000	-0.048	0.193
-397.165	29.383	-0.171	0.146
-396.150	-50.137	0.150	0.071
-395.136	-102.211	0.241	-0.058
-394.121	-200.000	-0.034	-0.218
-393.106	-100.240	-0.208	-0.052
-392.092	800.000	0.071	-0.199
-391.077	-191.524	-0.140	-0.001
-390.063	110.467	0.071	0.085
-389.048	378.654	-0.067	0.138
-388.033	-200.000	0.053	0.338
-387.019	-200.000	-0.008	-0.063
-386.004	-200.000	0.011	-0.088
-384.990	102.533	0.122	0.143
-383.975	170.334	-0.142	-0.204
-382.960	103.702	0.234	-0.276
-381.946	175.647	-0.036	0.052
-380.931	-200.000	0.018	0.190
-379.917	700.546	0.042	0.111
-378.902	29.441	-0.120	0.102
-377.888	-118.114	0.026	-0.005
-376.873	316.617	-0.113	-0.213
-375.858	-200.000	-0.004	-0.075
-374.844	111.720	-0.107	-0.129
-373.829	-200.000	-0.009	0.163
-372.815	47.881	-0.089	-0.083
-371.800	800.000	0.076	0.283
-370.785	-106.524	0.136	-0.030
-369.771	-47.032	-0.176	-0.086
-368.756	85.703	-0.260	-0.286
-367.742	-136.560	0.059	-0.007
-366.727	800.000	-0.056	0.189
-365.712	598.503	-0.080	-0.200
-364.698	10.130	-0.196	-0.149
-363.683	-65.280	0.127	0.051
-362.669	-76.074	-0.125	0.044
-361.654	-120.949	-0.180	0.030
-360.639	-110.840	0.090	0.019
-359.625	207.401	0.258	-0.404
-358.610	-67.260	-0.202	0.080
-357.596	800.000	-0.100	0.396
-356.581	-200.000	0.001	-0.199
-355.566	750.861	0.071	0.192
-354.552	-2.826	-0.226	0.158
-353.537	70.785	0.070	-0.072
-352.523	-183.907	-0.233	0.004
-351.508	109.118	0.046	0.055
-350.493	93.111	-0.349	-0.394
-349.479	-125.400	-0.091	0.014
-348.464	88.815	-0.093	-0.104
-347.450	-38.884	0.045	0.024
-346.435	-173.376	0.262	0.008
-345.420	-200.000	0.065	0.297
-344.406	45.617	-0.086	-0.079
-343.391	-76.121	0.270	-0.095
-342.377	21.164	-0.135	0.110
-341.362	302.255	0.092	0.170
-340.348	-87.774	-0.181	0.055
-339.333	-139.618	-0.087	-0.009
-338.318	-34.122	-0.056	-0.031
-337.304	-155.661	0.211	0.014
-336.289	-200.000	-0.026	-0.295
-335.275	596.833	0.096	-0.238
-334.260	-123.238	0.288	-0.046
-333.245	800.000	-0.032	-0.103
-332.231	-200.000	-0.000	0.057
-331.216	800.000	-0.091	0.278
-330.202	223.812	0.150	-0.242
-329.187	-200.000	-0.035	0.160
-328.172	470.822	0.109	0.246
-327.158	-89.905	0.268	-0.078
-326.143	-200.000	-0.015	-0.121
-325.129	-200.000	-0.017	0.330
-324.114	116.459	-0.124	0.153
-323.099	-55.802	-0.153	-0.068
-322.085	-129.330	0.336	-0.047
-321.070	93.410	-0.054	0.062
-320.056	-200.000	-0.019	0.133
-319.041	800.000	-0.102	-0.321
-318.026	-90.336	-0.297	0.086
-317.012	43.035	-0.079	-0.072
-315.997	-14.730	0.220	0.141
-314.983	176.630	0.133	0.194
-313.968	-97.134	0.127	0.033
-312.953	-63.444	0.127	-0.052
-311.939	39.909	0.234	-0.210
-310.924	-96.343	-0.038	0.010
-309.910	-51.936	-0.437	0.203
-308.895	-18.781	-0.141	0.088
-307.880	176.360	0.053	-0.078
-306.866	661.958	-0.084	-0.216
-305.851	15.918	-0.123	0.096
-304.837	296.260	0.075	0.137
-303.822	26.512	-0.039	-0.033
-302.807	800.000	0.032	-0.102
-301.793	-64.283	0.293	0.119
-300.778	-101.229	0.289	0.070
-299.764	-112.931	-0.391	0.077
-298.749	800.000	-0.038	-0.133
-297.735	-29.280	0.167	-0.096
-296.720	69.084	0.304	-0.312
-295.705	-166.138	0.303	-0.013
-294.691	236.511	-0.079	0.130
-293.676	-39.946	0.054	0.028
-292.662	25.024	-0.258	0.214
-291.647	-131.068	0.100	0.013
-290.632	62.833	-0.105	0.105
-289.618	-200.000	0.066	-0.375
-288.603	-177.634	0.246	0.006
-287.589	-46.987	0.205	0.100
-286.574	-51.522	-0.324	-0.151
-285.559	-25.283	-0.198	-0.117
-284.545	145.842	0.163	0.217
-283.530	800.000	0.099	0.322
-282.516	-122.878	-0.163	0.026
-281.501	164.954	0.071	0.100
-280.486	-151.875	-0.483	0.035
-279.472	323.449	-0.081	0.154
-278.457	800.000	0.039	0.155
-277.443	126.114	-0.183	0.231
-276.428	80.258	0.181	-0.195
-275.413	-41.657	0.150	-0.077
-274.399	800.000	-0.042	-0.123
-273.384	-200.000	0.037	-0.282
-272.370	-32.630	0.133	0.074
-271.355	-153.465	0.108	-0.007
-270.340	35.906	0.230	0.201
-269.326	-200.000	0.003	0.200
-268.311	800.000	0.082	0.292
-267.297	196.472	-0.179	-0.272
-266.282	800.000	0.049	-0.141
-265.267	52.926	0.120	0.114
-264.253	128.235	-0.164	-0.208
-263.238	-200.000	-0.035	0.415
-262.224	-20.753	0.145	0.089
-261.209	644.105	-0.042	0.107
-260.195	-103.158	0.108	0.025
-259.180	-97.011	0.121	-0.032
-258.165	-20.851	0.357	0.218
-257.151	-200.000	0.001	0.166
-256.136	188.320	-0.036	-0.054
-255.122	-200.000	0.004	-0.060
-254.107	17.717	0.201	-0.159
-253.092	12.753	0.258	-0.199
-252.078	800.000	0.059	-0.179
-251.063	45.280	-0.141	0.130
-250.049	-23.410	0.066	0.039
-249.034	-11.490	-0.291	0.191
-248.019	-132.242	-0.291	0.038
-247.005	-200.000	0.016	0.477
-245.990	53.413	-0.240	-0.230
-244.976	41.161	-0.268	0.241
-243.961	-50.029	0.172	-0.081
-242.946	550.585	-0.075	0.180
-241.932	113.149	0.196	-0.237
-240.917	-200.000	0.024	-0.107
-239.903	29.721	-0.320	0.272
-238.888	663.949	-0.034	0.088
-237.873	-113.254	-0.206	-0.040
-236.859	43.547	-0.133	0.121
-235.844	116.793	0.061	-0.075
-234.830	766.450	0.032	0.087
-233.815	-200.000	0.009	-0.248
-232.800	-200.000	0.042	-0.369
-231.786	331.409	0.177	-0.340
-230.771	-200.000	-0.027	0.169
-229.757	231.822	0.129	-0.211
-228.742	-77.884	-0.173	0.060
-227.727	-97.967	0.331	0.085
-226.713	-133.474	-0.251	0.031
-225.698	148.297	0.184	-0.247
-224.684	-63.676	0.395	0.161
-223.669	51.777	0.206	-0.195
-222.655	-70.486	-0.092	-0.035
-221.640	-157.648	-0.255	0.015
-220.625	362.213	0.057	-0.113
-219.611	-115.244	0.149	-0.028
-218.596	5.305	-0.211	0.155
-217.582	800.000	-0.096	0.279
-216.567	15.883	0.056	-0.044
-215.552	257.980	-0.078	-0.134
-214.538	800.000	0.093	-0.322
-213.523	800.000	-0.055	-0.159
-212.509	6.143	0.225	-0.166
-211.494	464.267	0.143	0.318
-210.479	216.178	0.150	0.237
-209.465	4.554	-0.220	0.161
-208.450	-131.511	-0.309	-0.041
-207.436	89.378	0.181	0.201
-206.421	-200.000	0.029	-0.184
-205.406	72.866	0.099	-0.102
-204.392	89.173	0.436	0.483
-203.377	-200.000	-0.035	-0.231
-202.363	-107.558	0.120	0.026
-201.348	-200.000	0.006	-0.191
-200.333	58.660	-0.172	0.168
-199.319	20.115	0.320	0.257
-198.304	-39.355	-0.043	0.023
-197.290	406.059	-0.162	0.340
-196.275	29.656	0.264	-0.223
-195.260	-26.070	0.093	-0.055
-194.246	29.287	0.119	0.101
-193.231	38.993	-0.187	0.166
-192.217	-60.352	0.204	0.086
-191.202	-31.313	0.097	0.054
-190.187	-127.753	0.143	-0.021
-189.173	-200.000	0.041	-0.495
-188.158	-103.740	0.367	-0.085
-187.144	20.237	0.157	-0.126
-186.129	-4.492	0.198	0.136
-185.114	25.282	0.071	0.059
-184.100	-122.242	0.094	0.015
-183.085	-162.719	-0.194	-0.009
-182.071	-77.959	0.136	0.047
-181.056	25.919	0.256	-0.212
-180.042	34.304	-0.185	-0.160
-179.027	289.208	0.013	-0.024
-178.012	-174.771	0.156	-0.004
-176.998	-43.305	0.374	-0.188
-175.983	-15.333	-0.126	0.080
-174.969	230.612	-0.120	-0.196
-173.954	282.519	0.085	-0.152
-172.939	800.000	0.042	0.116
-171.925	-76.291	-0.385	0.135
-170.910	82.253	-0.136	0.146
-169.896	-5.215	-0.084	0.057
-168.881	-198.254	0.133	0.001
-167.866	84.154	0.008	-0.009
-166.852	123.040	-0.041	0.051
-165.837	-79.119	-0.115	0.039
-164.823	14.643	0.234	-0.181
-163.808	-151.642	0.339	-0.025
-162.793	800.000	0.094	-0.333
-161.779	-132.588	0.290	-0.037
-160.764	-200.000	-0.023	0.147
-159.750	-90.415	0.107	0.031
-158.735	-166.735	-0.573	-0.024
-157.720	5.557	0.350	-0.257
-156.706	800.000	-0.049	-0.196
-155.691	61.147	-0.179	-0.177
-154.677	-200.000	-0.010	-0.073
-153.662	-149.750	0.121	-0.009
-152.647	175.585	-0.180	-0.260
-151.633	-109.780	0.143	-0.030
-150.618	-200.000	0.009	0.359
-149.604	-78.973	0.188	0.063
-148.589	800.000	0.129	-0.525
-147.574	723.852	0.051	0.134
-146.560	749.722	-0.049	-0.130
-145.545	-200.000	0.010	0.283
-144.531	-200.000	0.007	-0.376
-143.516	-200.000	0.000	0.095
-142.502	309.618	-0.011	-0.020
-141.487	80.288	0.233	0.249
-140.472	-200.000	0.054	0.301
-139.458	599.237	-0.053	0.131
-138.443	143.187	-0.275	0.363
-137.429	-63.460	-0.117	0.048
-136.414	-81.112	-0.234	-0.077
-135.399	89.743	0.118	0.131
-134.385	-77.234	-0.315	-0.109
-133.370	-45.123	0.130	-0.064
-132.356	222.601	0.188	-0.301
-131.341	-43.735	0.272	-0.136
-130.326	186.202	0.080	0.118
-129.312	-75.331	-0.192	0.068
-128.297	-70.166	0.133	0.050
-127.283	-32.143	-0.261	0.145
-126.268	34.308	-0.078	-0.068
-125.253	150.441	0.043	0.058
-124.239	-39.485	-0.027	0.014
-123.224	-200.000	-0.037	-0.184
-122.210	-61.104	-0.195	0.082
