DTS Sentinel unit serial number:	SN413079Multiplexer serial number:	ORYXHardware model number:	OX4-SRSoftware version number:	ORYX F/W v4.00 Oryx Data Collector v3.7.2.0data status	okinstallation	princeton_trtdifferential loss correction	single-endedforward channel	channel 3reverse channel	N/Adate	2019/09/16time	04:16:35forward acquisition time	60.00reverse acquisition time	0.00gamma	496.2192k internal	0.2336k external	0.2336temperature offset calibration	0.9956default loss term (dB/km)	0.3790temperature slope calibration	1.0000multiplexer offset coefficient	1.0000multiplexer slope coefficient	1.0000fibre end	0.00T internal ref (°C)	27.37T ext. ref 1 (°C)	10.78T ext. ref 2 (°C)	21.41length (m)	temperature (°C)	Stokes	anti-Stokes-747.200	-200.000	-0.035	0.238
-746.185	382.172	0.095	0.196
-745.171	-114.036	-0.090	0.017
-744.156	800.000	-0.090	0.334
-743.142	240.715	0.156	-0.262
-742.127	126.129	-0.118	0.149
-741.112	61.416	-0.328	0.327
-740.098	284.902	0.249	0.450
-739.083	130.450	-0.231	0.298
-738.069	260.862	-0.051	0.088
-737.054	640.095	0.065	-0.167
-736.039	-62.205	-0.421	-0.176
-735.025	-5.151	-0.079	-0.054
-734.010	46.145	-0.312	-0.290
-732.996	-61.118	-0.222	-0.094
-731.981	-60.908	-0.202	0.086
-730.966	-28.617	-0.002	-0.001
-729.952	177.344	-0.198	-0.289
-728.937	354.640	0.031	-0.063
-727.923	-60.761	-0.347	-0.148
-726.908	540.232	-0.080	-0.191
-725.894	293.022	0.072	0.132
-724.879	531.863	0.135	-0.321
-723.864	800.000	0.010	-0.031
-722.850	101.159	-0.362	0.423
-721.835	800.000	0.017	0.061
-720.821	164.918	0.069	-0.098
-719.806	-200.000	0.016	-0.282
-718.791	-200.000	-0.607	-0.002
-717.777	190.311	-0.039	-0.059
-716.762	-200.000	0.007	0.073
-715.748	-86.414	0.079	-0.024
-714.733	-102.399	0.330	0.079
-713.718	-21.157	-0.294	0.181
-712.704	-200.000	-0.040	-0.421
-711.689	145.083	-0.100	-0.134
-710.675	800.000	0.041	-0.127
-709.660	-28.109	0.272	-0.158
-708.645	800.000	-0.017	0.049
-707.631	-200.000	-0.075	0.356
-706.616	-85.824	-0.070	-0.022
-705.602	-88.856	0.168	-0.050
-704.587	-10.788	-0.422	0.280
-703.572	52.022	-0.273	-0.261
-702.558	88.606	-0.200	-0.223
-701.543	-200.000	-0.043	0.246
-700.529	-200.000	-0.041	0.477
-699.514	-200.000	0.010	0.133
-698.499	51.975	-0.259	-0.247
-697.485	31.393	0.165	-0.142
-696.470	415.643	0.081	-0.173
-695.456	-200.000	-0.038	-0.377
-694.441	598.162	0.162	-0.404
-693.426	-16.988	0.046	-0.029
-692.412	-143.043	-0.316	-0.031
-691.397	-82.404	0.220	-0.072
-690.383	-82.934	0.363	0.117
-689.368	96.202	-0.188	-0.215
-688.354	-87.723	-0.145	-0.044
-687.339	240.112	-0.084	-0.140
-686.324	-7.997	-0.239	-0.161
-685.310	-200.000	-0.023	-0.203
-684.295	67.329	-0.302	-0.308
-683.281	76.909	0.117	-0.124
-682.266	800.000	0.048	0.143
-681.251	55.857	-0.153	-0.149
-680.237	-9.895	0.074	0.049
-679.222	-114.789	0.121	-0.023
-678.208	-200.000	0.018	0.205
-677.193	119.338	0.175	0.217
-676.178	247.806	-0.070	0.119
-675.164	-103.723	0.090	-0.021
-674.149	-24.006	-0.114	0.069
-673.135	-200.000	-0.004	0.270
-672.120	-52.288	0.173	0.080
-671.105	-56.994	-0.264	-0.117
-670.091	16.287	-0.285	0.225
-669.076	7.866	-0.105	-0.079
-668.062	226.644	-0.117	0.190
-667.047	314.349	-0.189	-0.357
-666.032	309.963	-0.136	-0.254
-665.018	-86.106	-0.104	0.032
-664.003	397.056	0.087	0.183
-662.989	-80.115	0.294	0.099
-661.974	-98.999	-0.381	-0.097
-660.959	-24.918	-0.284	-0.169
-659.945	-30.589	0.155	0.088
-658.930	799.217	-0.092	-0.254
-657.916	-200.000	-0.068	-0.350
-656.901	216.806	0.066	-0.106
-655.886	-30.568	-0.126	-0.071
-654.872	43.937	-0.324	0.298
-653.857	-200.000	-0.003	-0.050
-652.843	-27.699	-0.278	0.161
-651.828	-114.031	-0.422	0.082
-650.814	-169.452	-0.201	0.007
-649.799	800.000	-0.079	-0.311
-648.784	-71.292	0.228	-0.086
-647.770	-133.493	0.322	0.040
-646.755	280.130	0.130	-0.232
-645.741	800.000	0.059	-0.164
-644.726	800.000	0.066	0.212
-643.711	-117.336	-0.255	0.046
-642.697	-46.126	-0.170	0.084
-641.682	-200.000	0.025	0.210
-640.668	42.712	0.155	0.141
-639.653	-2.781	0.096	-0.067
-638.638	225.193	-0.045	-0.073
-637.624	82.239	0.163	-0.177
-636.609	-84.409	-0.177	-0.056
-635.595	-81.461	-0.189	0.062
-634.580	248.106	0.110	-0.186
-633.565	68.046	-0.104	-0.106
-632.551	50.018	0.358	0.337
-631.536	-200.000	-0.035	0.260
-630.522	-87.900	0.057	-0.017
-629.507	-71.098	0.320	-0.120
-628.492	535.914	0.092	0.217
-627.478	-88.457	-0.277	0.083
-626.463	-108.531	-0.190	0.041
-625.449	-200.000	-0.008	-0.216
-624.434	-5.510	-0.187	0.128
-623.419	1.716	-0.131	0.094
-622.405	800.000	0.138	0.532
-621.390	-154.866	0.080	0.005
-620.376	56.202	0.034	-0.033
-619.361	25.314	0.121	0.101
-618.346	800.000	-0.100	0.304
-617.332	743.838	-0.050	-0.134
-616.317	-200.000	-0.028	-0.275
-615.303	-200.000	-0.011	-0.070
-614.288	-99.690	0.364	0.091
-613.273	278.570	-0.172	0.306
-612.259	-115.397	-0.189	-0.036
-611.244	4.696	0.254	0.186
-610.230	-63.820	0.305	-0.125
-609.215	-16.086	-0.156	-0.099
-608.201	108.666	-0.261	0.312
-607.186	-200.000	-0.250	0.001
-606.171	800.000	0.056	-0.176
-605.157	252.300	0.110	0.187
-604.142	-30.514	-0.415	0.235
-603.128	-92.925	-0.322	-0.090
-602.113	-24.868	0.235	0.139
-601.098	-87.175	-0.050	-0.015
-600.084	-116.968	-0.569	0.104
-599.069	12.700	-0.299	0.231
-598.055	-51.184	0.332	-0.155
-597.040	-7.349	0.100	0.068
-596.025	514.909	-0.043	-0.099
-595.011	166.137	0.268	-0.379
-593.996	-31.666	0.147	-0.082
-592.982	-26.185	0.155	0.091
-591.967	-18.698	-0.315	-0.196
-590.952	90.892	-0.209	0.234
-589.938	150.468	-0.102	0.138
-588.923	-200.000	0.054	-0.287
-587.909	114.271	-0.092	-0.111
-586.894	-138.819	-0.187	-0.020
-585.879	-4.797	0.265	-0.182
-584.865	-200.000	-0.014	0.355
-583.850	352.884	0.139	0.275
-582.836	-134.977	0.303	-0.037
-581.821	340.953	0.067	0.131
-580.806	190.202	0.051	0.077
-579.792	5.024	-0.157	0.116
-578.777	-104.967	0.203	-0.046
-577.763	153.778	0.197	-0.270
-576.748	8.263	0.345	-0.258
-575.733	67.526	-0.116	-0.118
-574.719	34.674	0.135	-0.117
-573.704	131.923	0.053	0.068
-572.690	-2.647	-0.255	-0.178
-571.675	21.912	-0.159	-0.130
-570.661	-51.434	-0.238	-0.111
-569.646	-83.855	0.095	0.030
-568.631	-105.674	0.042	0.009
-567.617	-200.000	0.019	0.215
-566.602	194.374	-0.116	-0.175
-565.588	-18.431	0.121	0.075
-564.573	-200.000	0.011	-0.416
-563.558	50.881	-0.036	0.034
-562.544	58.807	-0.263	0.257
-561.529	-200.000	-0.026	0.215
-560.515	-200.000	0.064	-0.358
-559.500	-32.527	-0.119	0.066
-558.485	800.000	-0.059	0.252
-557.471	800.000	0.075	0.326
-556.456	75.611	0.304	0.320
-555.442	-200.000	0.027	0.291
-554.427	-138.639	-0.236	0.026
-553.412	61.159	0.177	-0.175
-552.398	-144.422	0.200	0.019
-551.383	245.740	0.207	-0.347
-550.369	-17.361	0.340	-0.213
-549.354	-200.000	-0.041	0.345
-548.339	-149.018	-0.195	-0.016
-547.325	-200.000	0.030	0.507
-546.310	-200.000	-0.008	0.239
-545.296	-200.000	-0.033	0.190
-544.281	-95.605	-0.377	0.101
-543.266	314.369	-0.032	-0.061
-542.252	-200.000	-0.017	-0.197
-541.237	327.256	0.030	0.057
-540.223	-105.420	0.366	-0.083
-539.208	-4.007	-0.297	-0.205
-538.193	271.136	-0.057	0.101
-537.179	110.206	0.234	-0.280
-536.164	-20.590	0.481	0.294
-535.150	800.000	-0.053	-0.192
-534.135	81.987	-0.240	-0.259
-533.121	-77.208	0.239	0.083
-532.106	-167.931	-0.316	-0.012
-531.091	-15.536	-0.051	0.033
-530.077	30.174	-0.123	-0.105
-529.062	1.287	-0.127	-0.091
-528.048	-84.229	0.296	0.093
-527.033	146.709	0.015	-0.020
-526.018	-200.000	0.035	0.193
-525.004	-19.555	0.321	-0.198
-523.989	1.758	-0.308	-0.221
-522.975	-79.157	-0.273	0.092
-521.960	256.992	-0.036	0.062
-520.945	-15.711	0.389	0.247
-519.931	-148.214	-0.046	0.004
-518.916	26.807	0.076	-0.063
-517.902	-82.905	0.355	-0.114
-516.887	45.162	0.320	0.294
-515.872	-200.000	-0.006	-0.288
-514.858	-200.000	-0.006	0.179
-513.843	-200.000	-0.071	0.369
-512.829	347.266	0.022	-0.044
-511.814	497.315	-0.123	0.282
-510.799	463.295	-0.132	0.294
-509.785	-200.000	-0.026	0.299
-508.770	-136.479	0.340	0.039
-507.756	-112.121	-0.169	-0.034
-506.741	115.981	0.148	-0.181
-505.726	800.000	-0.130	-0.375
-504.712	-79.425	0.264	-0.089
-503.697	-200.000	-0.036	-0.295
-502.683	133.761	-0.078	-0.100
-501.668	-57.522	0.119	0.052
-500.653	-200.000	-0.027	0.172
-499.639	-120.359	0.235	0.040
-498.624	376.372	-0.161	-0.326
-497.610	-200.000	0.003	0.062
-496.595	-27.968	0.100	-0.058
-495.581	80.773	-0.173	-0.185
-494.566	209.372	0.215	-0.335
-493.551	54.543	-0.062	0.059
-492.537	800.000	0.092	-0.299
-491.522	-94.985	-0.200	0.054
-490.508	799.237	-0.115	-0.316
-489.493	-200.000	-0.000	-0.106
-488.478	-27.961	-0.070	-0.040
-487.464	82.106	0.110	0.118
-486.449	-200.000	0.002	0.322
-485.435	359.949	0.071	-0.142
-484.420	-133.108	-0.082	0.010
-483.405	-22.021	-0.128	0.077
-482.391	-60.528	-0.143	0.060
-481.376	-80.598	-0.276	0.091
-480.362	677.892	0.045	0.117
-479.347	40.877	0.409	-0.367
-478.332	-97.691	0.374	-0.096
-477.318	-84.292	-0.342	0.108
-476.303	-116.552	0.430	-0.079
-475.289	-200.000	0.018	-0.192
-474.274	-89.512	-0.446	0.130
-473.259	25.973	-0.140	0.116
-472.245	447.424	0.102	0.222
-471.230	-71.044	0.148	0.055
-470.216	-114.833	-0.058	-0.011
-469.201	-18.401	-0.333	0.207
-468.186	-90.187	0.334	-0.097
-467.172	-125.640	0.259	0.039
-466.157	69.887	-0.214	-0.220
-465.143	120.629	-0.225	-0.278
-464.128	105.449	-0.183	0.215
-463.113	-110.330	0.118	0.024
-462.099	62.498	0.192	0.190
-461.084	-76.587	-0.288	-0.100
-460.070	89.634	-0.093	-0.103
-459.055	-84.379	0.063	-0.020
-458.040	-137.186	0.140	0.016
-457.026	15.981	-0.169	-0.132
-456.011	-72.527	0.616	0.226
-454.997	-94.775	-0.114	0.031
-453.982	11.673	0.372	-0.284
-452.968	86.261	0.336	0.367
-451.953	251.241	0.211	0.356
-450.938	87.306	-0.107	0.118
-449.924	95.489	0.017	-0.019
-448.909	347.500	0.126	0.247
-447.895	-143.497	-0.248	0.024
-446.880	-16.050	0.119	0.075
-445.865	-53.743	0.016	0.007
-444.851	-200.000	0.034	-0.206
-443.836	-118.416	-0.172	0.030
-442.822	449.190	-0.026	-0.056
-441.807	143.363	0.101	-0.134
-440.792	-158.188	-0.318	-0.018
-439.778	14.153	-0.190	0.147
-438.763	-103.659	-0.064	-0.015
-437.749	-200.000	-0.031	-0.223
-436.734	160.849	-0.140	0.193
-435.719	531.831	0.111	0.261
-434.705	800.000	-0.023	-0.081
-433.690	-132.009	-0.176	0.023
-432.676	-200.000	0.019	-0.090
-431.661	-98.077	0.046	0.012
-430.646	-145.575	0.258	-0.023
-429.632	0.828	0.167	-0.118
-428.617	322.829	0.146	0.276
-427.603	1.221	-0.038	-0.027
-426.588	165.586	-0.047	-0.066
-425.573	-170.142	0.205	-0.007
-424.559	800.000	0.115	-0.351
-423.544	145.318	-0.183	-0.243
-422.530	-61.958	-0.231	0.096
-421.515	274.750	-0.154	-0.270
-420.500	-178.195	0.231	-0.005
-419.486	174.176	0.052	0.074
-418.471	217.299	-0.111	-0.176
-417.457	13.174	-0.394	-0.302
-416.442	267.868	-0.202	-0.352
-415.428	206.349	0.152	-0.234
-414.413	-144.283	0.172	-0.016
-413.398	-127.541	-0.271	-0.039
-412.384	-106.596	0.160	-0.035
-411.369	83.695	-0.056	0.061
-410.355	-122.276	-0.141	0.023
-409.340	-83.108	-0.410	0.131
-408.325	339.491	-0.082	-0.159
-407.311	-200.000	-0.007	0.097
-406.296	-200.000	0.051	-0.286
-405.282	-200.000	0.056	0.243
-404.267	21.865	-0.019	0.016
-403.252	-200.000	0.005	-0.183
-402.238	-93.869	0.208	-0.057
-401.223	124.737	-0.174	0.217
-400.209	-31.253	0.226	0.126
-399.194	-63.886	-0.204	0.083
-398.179	-61.224	0.038	0.016
-397.165	-153.058	-0.284	0.020
-396.150	-200.000	0.017	-0.101
-395.136	191.208	0.116	0.173
-394.121	-146.821	0.038	0.003
-393.106	578.917	0.094	-0.228
-392.092	-74.225	-0.294	0.105
-391.077	-146.745	-0.029	0.002
-390.063	-127.292	0.111	0.016
-389.048	596.688	-0.110	-0.269
-388.033	-163.945	0.422	-0.019
-387.019	-75.751	-0.257	-0.090
-386.004	-33.436	0.216	-0.118
-384.990	-28.095	0.171	-0.098
-383.975	-120.001	-0.185	0.031
-382.960	-166.150	0.143	0.006
-381.946	7.075	-0.099	0.073
-380.931	-109.698	0.308	0.064
-379.917	-3.007	0.154	-0.107
-378.902	800.000	0.028	0.101
-377.888	-200.000	-0.005	-0.028
-376.873	29.646	0.144	-0.121
-375.858	-69.276	0.197	0.075
-374.844	800.000	0.048	0.136
-373.829	164.962	-0.153	0.214
-372.815	484.369	0.182	-0.410
-371.800	-43.509	-0.158	0.079
-370.785	-124.576	-0.169	0.026
-369.771	100.621	0.094	-0.108
-368.756	-109.723	-0.140	0.029
-367.742	-46.738	0.325	0.158
-366.727	-200.000	-0.032	-0.245
-365.712	11.818	-0.072	-0.054
-364.698	384.552	-0.034	0.070
-363.683	800.000	-0.067	0.196
-362.669	469.770	0.084	-0.186
-361.654	-200.000	0.042	-0.242
-360.639	-200.000	0.024	-0.487
-359.625	-61.494	-0.378	0.157
-358.610	-124.953	0.244	-0.037
-357.596	-5.095	-0.161	-0.110
-356.581	19.162	-0.205	0.162
-355.566	320.030	0.101	-0.189
-354.552	50.118	-0.315	-0.294
-353.537	-83.572	0.166	0.053
-352.523	-48.538	-0.180	-0.086
-351.508	-93.501	-0.266	-0.073
-350.493	148.470	-0.130	-0.174
-349.479	71.725	-0.114	-0.117
-348.464	165.867	0.229	-0.321
-347.450	283.538	0.035	-0.061
-346.435	-118.303	-0.187	-0.033
-345.420	-154.133	-0.115	0.008
-344.406	-47.087	-0.130	-0.063
-343.391	61.741	0.081	0.080
-342.377	2.660	-0.313	-0.224
-341.362	-200.000	0.018	0.178
-340.348	-61.246	0.174	0.072
-339.333	-200.000	-0.010	-0.118
-338.318	-147.547	-0.263	0.022
-337.304	71.648	-0.051	-0.053
-336.289	-98.492	0.024	0.006
-335.275	40.758	-0.178	0.159
-334.260	420.641	-0.035	0.074
-333.245	-47.299	0.268	0.129
-332.231	35.540	-0.143	0.124
-331.216	-38.573	0.161	0.084
-330.202	-200.000	-0.013	-0.212
-329.187	-200.000	-0.033	0.295
-328.172	34.979	0.220	0.190
-327.158	473.326	0.084	0.187
-326.143	10.365	0.105	-0.079
-325.129	-86.902	0.545	0.164
-324.114	12.739	0.201	0.153
-323.099	-159.850	0.220	-0.012
-322.085	-21.920	-0.058	-0.035
-321.070	148.557	0.093	-0.124
-320.056	118.027	-0.031	-0.037
-319.041	-200.000	-0.001	-0.094
-318.026	377.906	0.053	0.106
-317.012	724.210	0.102	-0.268
-315.997	116.621	-0.280	-0.339
-314.983	146.716	-0.097	-0.128
-313.968	378.270	0.015	0.030
-312.953	-26.866	0.070	-0.040
-311.939	-200.000	0.068	0.342
-310.924	-139.186	0.233	-0.025
-309.910	93.034	0.071	-0.079
-308.895	190.026	-0.063	0.093
-307.880	185.094	-0.177	-0.259
-306.866	-131.884	-0.108	-0.014
-305.851	-200.000	0.047	-0.300
-304.837	-116.777	-0.304	0.055
-303.822	-52.292	0.081	-0.037
-302.807	13.270	0.172	0.132
-301.793	-200.000	0.016	-0.292
-300.778	253.489	-0.241	-0.407
-299.764	-5.343	0.134	0.091
-298.749	-200.000	0.087	0.420
-297.735	182.500	0.235	0.342
-296.720	150.158	0.047	0.063
-295.705	-200.000	-0.043	-0.308
-294.691	144.184	-0.160	0.211
-293.676	582.142	-0.068	0.165
-292.662	-30.534	0.198	0.111
-291.647	-136.941	-0.232	0.026
-290.632	162.363	0.200	0.277
-289.618	-110.638	-0.079	0.016
-288.603	128.124	-0.253	0.317
-287.589	-103.336	-0.261	0.061
-286.574	14.279	-0.227	0.175
-285.559	-37.548	0.113	-0.059
-284.545	-78.143	-0.115	-0.039
-283.530	-176.821	-0.412	-0.010
-282.516	-83.980	0.132	-0.041
-281.501	-38.090	-0.137	0.072
-280.486	-162.665	0.260	0.013
-279.472	-200.000	-0.044	-0.247
-278.457	-200.000	-0.023	-0.149
-277.443	-200.000	0.024	0.229
-276.428	-147.326	-0.148	0.012
-275.413	230.992	0.015	-0.024
-274.399	366.048	-0.062	0.124
-273.384	-155.551	-0.218	0.014
-272.370	-81.953	-0.126	0.040
-271.355	-73.014	0.356	-0.129
-270.340	-54.679	0.063	0.028
-269.326	-126.308	0.143	-0.021
-268.311	800.000	-0.115	-0.337
-267.297	42.029	0.094	-0.084
-266.282	228.487	0.138	-0.221
-265.267	184.346	0.185	0.271
-264.253	-200.000	0.031	-0.147
-263.238	800.000	-0.053	-0.155
-262.224	49.201	-0.213	-0.197
-261.209	27.041	-0.041	0.034
-260.195	260.965	-0.146	0.249
-259.180	-73.111	-0.319	0.115
-258.165	172.704	0.185	-0.262
-257.151	84.119	-0.191	-0.206
-256.136	66.824	-0.206	-0.206
-255.122	-66.141	-0.021	0.008
-254.107	65.265	-0.106	-0.106
-253.092	123.670	-0.342	0.422
-252.078	112.763	-0.074	0.089
-251.063	-96.647	0.174	0.045
-250.049	-151.776	0.232	-0.017
-249.034	27.130	-0.084	-0.070
-248.019	-70.822	0.491	0.182
-247.005	800.000	0.045	0.166
-245.990	800.000	0.074	0.268
-244.976	294.523	-0.107	-0.193
-243.961	-95.836	0.121	0.032
-242.946	5.325	0.188	0.137
-241.932	800.000	0.079	0.237
-240.917	108.873	0.224	0.263
-239.903	-200.000	-0.013	-0.267
-238.888	-100.038	-0.395	0.097
-237.873	-77.862	-0.045	-0.015
-236.859	800.000	-0.092	0.325
-235.844	-82.693	0.200	0.064
-234.830	67.283	-0.163	-0.163
-233.815	-16.321	-0.153	-0.095
-232.800	-200.000	-0.019	0.144
-231.786	14.719	-0.095	0.073
-230.771	-60.378	-0.299	-0.125
-229.757	-62.764	0.360	-0.147
-228.742	24.037	0.204	0.165
-227.727	-47.527	-0.189	0.090
-226.713	159.387	-0.087	0.119
-225.698	-200.000	-0.007	-0.174
-224.684	-104.208	0.433	-0.099
-223.669	423.858	0.027	-0.057
-222.655	82.503	-0.047	0.050
-221.640	184.775	0.083	0.122
-220.625	-103.681	-0.242	-0.056
-219.611	-44.419	0.355	-0.175
-218.596	218.951	0.155	-0.244
-217.582	-144.215	-0.462	0.042
-216.567	800.000	-0.101	0.415
-215.552	126.178	0.141	0.175
-214.538	-133.616	0.097	0.012
-213.523	4.949	-0.284	0.206
-212.509	-200.000	-0.057	0.472
-211.494	217.939	-0.091	-0.143
-210.479	-81.220	-0.100	0.033
-209.465	800.000	-0.059	0.167
-208.450	-131.655	-0.189	-0.024
-207.436	-200.000	0.021	-0.135
-206.421	800.000	0.028	-0.103
-205.406	-114.558	-0.277	0.052
-204.392	-24.052	-0.429	-0.252
-203.377	250.907	0.081	-0.136
-202.363	-156.727	0.219	0.013
-201.348	279.208	-0.111	0.194
-200.333	330.291	0.086	0.163
-199.319	612.514	0.060	0.148
-198.304	136.817	-0.183	-0.235
-197.290	118.405	0.106	0.129
-196.275	60.410	-0.167	-0.163
-195.260	208.996	0.049	0.076
-194.246	-48.955	-0.158	0.074
-193.231	-93.168	0.204	0.056
-192.217	-103.677	0.327	-0.075
-191.202	-80.515	-0.269	0.088
-190.187	-200.000	0.003	-0.117
-189.173	-19.760	0.160	-0.097
-188.158	-48.535	-0.231	-0.109
-187.144	293.730	0.084	-0.152
-186.129	800.000	0.089	-0.278
-185.114	-200.000	-0.004	-0.077
-184.100	-200.000	-0.062	-0.328
-183.085	-104.874	-0.291	0.066
-182.071	-200.000	0.040	0.197
-181.056	-60.293	-0.248	-0.104
-180.042	24.909	-0.050	0.041
-179.027	-30.138	-0.059	0.033
-178.012	-133.575	0.328	0.040
-176.998	-58.180	-0.095	-0.041
-175.983	-57.241	0.256	0.111
-174.969	503.727	0.094	-0.214
-173.954	-128.368	-0.111	0.016
-172.939	-91.779	0.029	-0.008
-171.925	224.616	-0.112	-0.177
-170.910	-67.875	0.214	0.082
-169.896	-200.000	0.029	-0.160
-168.881	-22.867	-0.061	-0.036
-167.866	-116.666	-0.457	0.082
-166.852	410.237	0.063	0.130
-165.837	-200.000	0.004	0.172
-164.823	-128.124	0.428	0.060
-163.808	30.376	0.259	0.217
-162.793	-200.000	-0.020	0.109
-161.779	-166.350	0.099	0.004
-160.764	246.503	0.064	0.107
-159.750	118.946	0.208	-0.253
-158.735	-166.348	-0.240	0.010
-157.720	800.000	0.027	0.114
-156.706	612.182	-0.030	0.074
-155.691	445.781	0.053	-0.114
-154.677	7.853	0.083	-0.061
-153.662	127.560	0.089	0.111
-152.647	-146.435	-0.221	-0.019
-151.633	23.189	0.160	0.129
-150.618	-104.408	0.381	0.087
-149.604	487.866	-0.078	-0.176
-148.589	-153.108	0.218	-0.015
-147.574	272.061	-0.154	-0.267
-146.560	-61.079	-0.054	0.022
-145.545	664.244	-0.028	-0.071
-144.531	-170.594	-0.164	0.006
-143.516	250.777	0.094	0.157
-142.502	-200.000	-0.006	-0.045
-141.487	208.519	0.094	0.144
-140.472	174.943	0.164	0.233
-139.458	-200.000	-0.016	-0.232
-138.443	109.426	0.186	0.219
-137.429	800.000	0.030	0.114
-136.414	0.077	0.275	-0.192
-135.399	800.000	-0.087	0.257
-134.385	-166.742	0.292	0.012
-133.370	800.000	-0.036	-0.103
-132.356	47.002	-0.132	0.120
-131.341	800.000	0.085	0.270
-130.326	800.000	-0.027	-0.085
-129.312	661.043	-0.146	0.370
-128.297	177.425	-0.048	-0.068
-127.283	31.426	-0.358	0.302
-126.268	-58.446	-0.173	0.074
-125.253	-200.000	-0.027	0.121
-124.239	-63.515	-0.193	0.078
-123.224	133.302	0.200	0.253
-122.210	-146.776	0.365	-0.031
-121.195	-114.825	0.066	0.012
