DTS Sentinel unit serial number:	SN413079Multiplexer serial number:	ORYXHardware model number:	OX4-SRSoftware version number:	ORYX F/W v4.00 Oryx Data Collector v3.7.2.0data status	okinstallation	princeton_trtdifferential loss correction	single-endedforward channel	channel 3reverse channel	N/Adate	2019/09/17time	23:20:34forward acquisition time	60.00reverse acquisition time	0.00gamma	496.2192k internal	0.2345k external	0.2345temperature offset calibration	0.9951default loss term (dB/km)	0.3790temperature slope calibration	1.0000multiplexer offset coefficient	1.0000multiplexer slope coefficient	1.0000fibre end	0.00T internal ref (°C)	24.44T ext. ref 1 (°C)	0.17T ext. ref 2 (°C)	17.66length (m)	temperature (°C)	Stokes	anti-Stokes-747.200	-40.738	-0.408	0.212
-746.185	-119.703	0.089	-0.015
-745.171	12.978	-0.218	0.169
-744.156	800.000	0.060	0.234
-743.142	-27.417	-0.364	-0.212
-742.127	-200.000	-0.005	0.135
-741.112	356.682	-0.074	0.147
-740.098	-125.281	-0.058	0.009
-739.083	800.000	-0.021	-0.068
-738.069	-88.701	-0.350	0.104
-737.054	800.000	0.078	0.222
-736.039	131.444	-0.199	-0.255
-735.025	47.496	0.164	-0.153
-734.010	-197.733	-0.447	0.003
-732.996	-152.357	-0.460	-0.033
-731.981	-110.623	0.247	-0.051
-730.966	479.844	-0.110	-0.250
-729.952	50.384	-0.108	0.102
-728.937	-89.596	0.081	-0.024
-727.923	-13.079	0.140	0.091
-726.908	208.844	0.182	-0.284
-725.894	800.000	0.079	-0.321
-724.879	14.136	0.042	-0.033
-723.864	-75.104	-0.120	0.043
-722.850	-200.000	-0.007	-0.283
-721.835	205.917	-0.109	-0.170
-720.821	-200.000	-0.043	-0.344
-719.806	-73.764	-0.290	-0.106
-718.791	71.962	0.149	-0.155
-717.777	703.020	-0.104	0.275
-716.762	-144.910	-0.331	-0.030
-715.748	483.267	0.060	0.135
-714.733	34.380	0.339	0.296
-713.718	800.000	0.062	-0.246
-712.704	-37.848	-0.213	0.113
-711.689	718.865	0.071	-0.187
-710.675	-95.444	0.093	0.025
-709.660	81.059	0.246	-0.266
-708.645	-200.000	0.045	-0.219
-707.631	-200.000	-0.003	0.318
-706.616	339.580	0.031	-0.061
-705.602	-57.732	-0.244	-0.107
-704.587	-107.212	0.363	-0.080
-703.572	-152.760	-0.387	0.027
-702.558	800.000	-0.080	0.250
-701.543	-10.215	-0.142	-0.094
-700.529	58.197	0.253	-0.248
-699.514	260.173	-0.027	0.047
-698.499	-200.000	-0.106	-0.615
-697.485	-200.000	0.042	-0.346
-696.470	175.885	0.020	-0.029
-695.456	141.662	-0.059	0.079
-694.441	800.000	0.064	-0.191
-693.426	-105.028	0.169	0.039
-692.412	30.229	-0.097	-0.083
-691.397	207.525	-0.159	-0.247
-690.383	75.128	0.128	-0.134
-689.368	77.412	-0.101	-0.108
-688.354	114.107	0.122	-0.149
-687.339	-54.282	0.078	0.035
-686.324	800.000	-0.088	-0.329
-685.310	-64.483	-0.353	-0.143
-684.295	800.000	0.061	0.172
-683.281	121.465	-0.312	-0.388
-682.266	-200.000	0.008	-0.043
-681.251	-178.002	-0.198	-0.005
-680.237	131.266	-0.138	-0.177
-679.222	-179.643	-0.358	0.008
-678.208	54.592	-0.093	-0.089
-677.193	-112.504	-0.384	0.077
-676.178	800.000	0.058	-0.240
-675.164	154.721	0.114	0.157
-674.149	-200.000	0.002	-0.213
-673.135	-58.161	0.220	-0.096
-672.120	114.673	0.227	0.276
-671.105	-18.195	0.100	0.062
-670.091	321.460	-0.128	-0.243
-669.076	276.569	-0.136	0.240
-668.062	90.204	0.114	-0.128
-667.047	7.124	-0.211	0.157
-666.032	3.601	-0.082	-0.060
-665.018	-200.000	-0.072	-0.511
-664.003	185.651	-0.058	0.087
-662.989	51.919	-0.190	-0.180
-661.974	9.059	-0.041	-0.031
-660.959	-200.000	0.001	0.055
-659.945	15.530	0.114	-0.089
-658.930	-103.628	-0.361	0.084
-657.916	-2.207	-0.103	-0.072
-656.901	-126.628	-0.122	0.018
-655.886	800.000	0.049	-0.181
-654.872	-32.584	0.291	-0.162
-653.857	800.000	0.041	-0.169
-652.843	-200.000	0.002	-0.329
-651.828	58.382	0.086	-0.084
-650.814	563.107	0.089	0.214
-649.799	55.115	-0.262	-0.252
-648.784	-183.697	0.119	-0.002
-647.770	-77.950	0.335	-0.115
-646.755	-21.034	-0.058	-0.035
-645.741	800.000	-0.062	-0.239
-644.726	-62.303	-0.130	-0.054
-643.711	800.000	-0.093	0.349
-642.697	-200.000	-0.043	0.212
-641.682	6.684	0.242	-0.180
-640.668	-200.000	0.028	0.151
-639.653	-200.000	0.043	-0.251
-638.638	289.371	0.134	0.243
-637.624	-200.000	-0.012	-0.238
-636.609	-39.047	-0.363	0.190
-635.595	343.738	0.093	0.182
-634.580	-6.251	-0.168	-0.114
-633.565	-200.000	-0.003	-0.372
-632.551	-200.000	0.004	-0.227
-631.536	9.795	-0.146	-0.110
-630.522	-154.407	0.376	-0.025
-629.507	41.010	-0.106	0.096
-628.492	361.165	0.122	-0.243
-627.478	800.000	-0.083	-0.255
-626.463	66.317	0.081	0.082
-625.449	-200.000	0.049	-0.273
-624.434	32.955	-0.126	-0.109
-623.419	370.663	0.133	-0.269
-622.405	71.619	0.012	-0.012
-621.390	800.000	0.076	-0.224
-620.376	-100.774	0.072	-0.018
-619.361	83.597	-0.079	0.086
-618.346	384.588	-0.162	-0.332
-617.332	789.879	0.049	-0.134
-616.317	684.591	0.066	-0.172
-615.303	-200.000	0.001	-0.316
-614.288	387.078	0.087	0.179
-613.273	-19.029	0.105	-0.065
-612.259	800.000	0.100	0.338
-611.244	800.000	-0.064	-0.198
-610.230	-83.803	-0.102	0.032
-609.215	60.149	-0.309	0.304
-608.201	14.276	0.173	-0.134
-607.186	47.937	-0.094	-0.088
-606.171	-60.188	-0.382	-0.162
-605.157	-62.607	-0.380	0.157
-604.142	2.999	-0.136	0.098
-603.128	-1.478	-0.028	-0.020
-602.113	-8.252	-0.090	-0.060
-601.098	-85.972	0.084	-0.026
-600.084	-1.699	-0.191	0.134
-599.069	-155.247	0.218	-0.014
-598.055	57.149	0.197	-0.191
-597.040	18.002	0.017	-0.014
-596.025	-200.000	0.001	-0.366
-595.011	302.894	-0.066	-0.122
-593.996	-5.211	0.078	-0.053
-592.982	800.000	0.074	0.264
-591.967	800.000	-0.071	-0.203
-590.952	96.444	-0.051	-0.058
-589.938	20.217	-0.113	0.091
-588.923	800.000	0.027	-0.100
-587.909	-14.499	0.175	-0.112
-586.894	800.000	-0.063	-0.242
-585.879	-200.000	0.007	0.172
-584.865	210.849	0.220	0.344
-583.850	-200.000	-0.007	0.082
-582.836	-77.891	-0.030	-0.010
-581.821	-12.621	0.213	-0.138
-580.806	-57.000	0.432	-0.190
-579.792	35.912	-0.028	-0.024
-578.777	-53.820	0.082	0.037
-577.763	-81.356	0.131	-0.043
-576.748	-91.391	-0.265	0.075
-575.733	-116.613	0.325	-0.059
-574.719	-81.568	-0.262	-0.085
-573.704	88.638	0.086	-0.095
-572.690	443.875	0.149	0.324
-571.675	453.713	-0.087	-0.191
-570.661	-162.603	-0.140	-0.007
-569.646	-43.228	0.331	0.166
-568.631	-82.551	0.230	-0.074
-567.617	89.985	0.064	-0.071
-566.602	800.000	-0.048	-0.141
-565.588	234.327	0.178	0.291
-564.573	-200.000	-0.211	-0.000
-563.558	-173.880	0.185	-0.005
-562.544	93.236	-0.218	-0.244
-561.529	-181.848	0.232	-0.004
-560.515	-133.879	-0.331	0.041
-559.500	161.683	-0.051	-0.072
-558.485	205.439	-0.090	0.139
-557.471	449.945	0.168	0.368
-556.456	-52.980	0.515	0.235
-555.442	61.651	0.328	-0.325
-554.427	-200.000	0.041	0.229
-553.412	-167.076	-0.197	-0.008
-552.398	-82.209	0.274	0.089
-551.383	1.383	0.230	0.165
-550.369	129.802	0.038	0.048
-549.354	-40.349	-0.219	-0.113
-548.339	-119.095	0.256	-0.045
-547.325	424.093	0.211	0.450
-546.310	-96.437	0.101	-0.027
-545.296	-107.962	0.361	-0.078
-544.281	-74.465	-0.211	0.076
-543.266	-38.192	0.098	0.052
-542.252	-200.000	0.024	0.223
-541.237	258.034	0.127	0.216
-540.223	-118.388	0.180	0.032
-539.208	800.000	0.069	0.207
-538.193	-9.870	-0.189	0.125
-537.179	83.554	-0.163	0.177
-536.164	45.412	0.070	-0.064
-535.150	800.000	-0.097	0.369
-534.135	38.359	-0.103	-0.091
-533.121	10.604	-0.091	0.069
-532.106	661.367	0.076	-0.193
-531.091	-200.000	0.034	-0.367
-530.077	-200.000	-0.016	-0.161
-529.062	800.000	-0.105	0.297
-528.048	717.452	0.016	0.043
-527.033	800.000	-0.066	-0.212
-526.018	184.790	0.173	-0.255
-525.004	-200.000	-0.023	-0.225
-523.989	-45.969	0.150	0.073
-522.975	-57.276	-0.077	-0.033
-521.960	90.864	-0.102	-0.114
-520.945	570.346	-0.073	-0.176
-519.931	800.000	0.037	0.130
-518.916	-166.048	0.285	0.012
-517.902	91.535	0.175	-0.195
-516.887	18.770	0.303	-0.240
-515.872	-67.306	-0.280	0.109
-514.858	-179.847	-0.197	0.004
-513.843	-82.111	0.057	-0.018
-512.829	74.974	0.189	-0.197
-511.814	452.562	-0.100	0.219
-510.799	800.000	-0.012	-0.033
-509.785	-51.320	-0.054	-0.025
-508.770	-200.000	-0.060	-0.297
-507.756	-8.666	-0.153	-0.102
-506.741	800.000	0.035	-0.097
-505.726	-37.628	0.127	0.067
-504.712	201.064	-0.211	0.322
-503.697	290.669	-0.231	0.417
-502.683	-200.000	0.008	0.103
-501.668	-115.441	-0.259	-0.048
-500.653	580.840	0.068	0.164
-499.639	800.000	0.057	0.206
-498.624	-96.755	-0.148	-0.039
-497.610	167.606	-0.123	0.173
-496.595	-41.470	0.073	0.037
-495.581	392.976	-0.014	0.030
-494.566	-75.256	0.226	0.080
-493.551	-200.000	-0.012	-0.222
-492.537	-167.201	-0.095	-0.004
-491.522	-127.692	-0.290	0.041
-490.508	-200.000	-0.021	0.259
-489.493	394.805	0.132	-0.273
-488.478	136.666	0.174	0.225
-487.464	800.000	0.046	0.155
-486.449	-91.218	-0.185	0.052
-485.435	66.462	-0.030	-0.030
-484.420	19.094	-0.262	0.208
-483.405	18.785	0.161	0.127
-482.391	-200.000	0.045	-0.415
-481.376	-199.477	0.165	0.001
-480.362	0.543	-0.267	0.189
-479.347	-63.445	0.059	-0.024
-478.332	178.214	-0.298	-0.431
-477.318	-200.000	0.014	-0.083
-476.303	17.723	-0.228	-0.180
-475.289	27.007	0.242	0.201
-474.274	800.000	0.054	0.191
-473.259	-200.000	0.003	-0.159
-472.245	-47.006	-0.261	0.126
-471.230	-76.458	-0.191	-0.067
-470.216	32.606	-0.211	0.180
-469.201	430.191	0.076	-0.163
-468.186	-20.128	-0.258	-0.157
-467.172	112.730	0.120	0.144
-466.157	263.532	-0.166	0.286
-465.143	79.735	-0.118	0.125
-464.128	-2.323	-0.264	-0.184
-463.113	218.641	-0.098	-0.155
-462.099	323.347	-0.122	-0.230
-461.084	-83.281	-0.079	-0.025
-460.070	320.772	0.033	0.062
-459.055	31.425	-0.196	-0.166
-458.040	156.400	0.085	-0.116
-457.026	-40.316	-0.151	-0.078
-456.011	-200.000	0.014	0.221
-454.997	25.020	-0.284	-0.233
-453.982	-13.573	0.270	-0.173
-452.968	-200.000	-0.044	-0.220
-451.953	-200.000	0.011	-0.375
-450.938	24.819	0.137	0.112
-449.924	-200.000	0.017	0.087
-448.909	800.000	-0.036	0.117
-447.895	-66.311	0.101	0.040
-446.880	337.611	0.092	0.176
-445.865	-142.058	0.067	-0.007
-444.851	113.304	0.168	0.202
-443.836	-141.640	-0.087	-0.009
-442.822	-105.126	0.152	-0.034
-441.807	-76.996	0.125	0.043
-440.792	712.743	-0.052	-0.137
-439.778	3.117	0.239	-0.172
-438.763	9.474	0.081	-0.061
-437.749	800.000	-0.011	0.035
-436.734	800.000	-0.032	0.117
-435.719	-200.000	0.001	0.053
-434.705	-67.790	-0.076	-0.029
-433.690	46.131	-0.237	0.217
-432.676	-89.790	0.111	-0.032
-431.661	93.425	-0.167	-0.187
-430.646	405.995	-0.140	0.292
-429.632	51.760	0.225	0.212
-428.617	-130.522	0.046	-0.006
-427.603	-79.613	0.033	-0.011
-426.588	530.874	-0.018	0.041
-425.573	2.504	0.173	-0.124
-424.559	-200.000	-0.018	-0.126
-423.544	-65.693	-0.269	0.107
-422.530	800.000	0.106	0.457
-421.515	512.615	-0.038	0.087
-420.500	50.568	0.212	0.198
-419.486	-90.913	-0.087	-0.025
-418.471	-9.261	-0.183	0.121
-417.457	-81.873	0.173	-0.056
-416.442	57.839	0.046	0.045
-415.428	551.347	0.133	0.316
-414.413	116.562	-0.031	-0.038
-413.398	64.884	-0.233	-0.232
-412.384	732.258	-0.047	-0.123
-411.369	31.434	-0.140	0.119
-410.355	386.071	-0.215	0.438
-409.340	223.328	-0.060	-0.095
-408.325	-61.711	0.304	-0.126
-407.311	189.499	-0.167	-0.247
-406.296	-120.637	0.211	0.035
-405.282	26.599	-0.156	-0.129
-404.267	-200.000	-0.002	-0.106
-403.252	800.000	0.068	0.278
-402.238	-49.759	0.151	-0.071
-401.223	-189.801	-0.216	0.002
-400.209	-200.000	-0.024	-0.337
-399.194	-115.612	-0.320	-0.059
-398.179	438.279	-0.145	0.312
-397.165	566.487	-0.047	0.113
-396.150	303.147	-0.128	-0.234
-395.136	278.051	-0.316	-0.556
-394.121	-155.617	-0.095	0.006
-393.106	-51.866	0.099	-0.046
-392.092	-200.000	0.027	-0.139
-391.077	-200.000	-0.032	-0.266
-390.063	-76.409	-0.179	-0.062
-389.048	800.000	-0.051	0.217
-388.033	387.966	0.070	0.143
-387.019	-124.629	-0.483	-0.074
-386.004	-200.000	-0.005	0.146
-384.990	-93.402	0.066	-0.018
-383.975	23.180	0.112	0.091
-382.960	-89.621	0.250	-0.072
-381.946	174.409	-0.096	0.137
-380.931	-200.000	-0.002	-0.053
-379.917	800.000	0.039	-0.163
-378.902	262.021	0.036	-0.061
-377.888	-200.000	-0.038	-0.268
-376.873	605.784	0.080	-0.197
-375.858	236.860	0.056	0.091
-374.844	-200.000	-0.047	0.255
-373.829	-77.571	-0.328	-0.112
-372.815	-136.875	0.130	0.015
-371.800	-109.935	-0.182	0.038
-370.785	109.597	0.115	0.135
-369.771	800.000	0.065	0.199
-368.756	-82.796	0.131	0.042
-367.742	-189.975	-0.411	0.005
-366.727	-200.000	-0.448	-0.001
-365.712	-33.233	-0.310	0.169
-364.698	180.377	-0.089	-0.128
-363.683	-200.000	-0.010	0.286
-362.669	-200.000	0.003	-0.144
-361.654	336.771	-0.072	-0.138
-360.639	-30.246	0.347	0.194
-359.625	366.036	-0.173	0.344
-358.610	138.513	0.172	0.222
-357.596	-19.219	-0.067	0.041
-356.581	-31.726	-0.131	-0.072
-355.566	-13.819	0.219	-0.140
-354.552	33.505	0.183	0.157
-353.537	3.964	0.353	0.254
-352.523	-200.000	0.049	-0.221
-351.508	-94.950	-0.359	0.096
-350.493	365.772	-0.144	0.287
-349.479	-160.031	-0.331	0.018
-348.464	-36.203	-0.071	0.038
-347.450	-162.908	0.143	-0.007
-346.435	-12.600	0.016	0.010
-345.420	-92.780	-0.094	0.026
-344.406	5.056	-0.185	-0.134
-343.391	-200.000	-0.011	0.293
-342.377	125.322	0.087	-0.108
-341.362	-200.000	0.032	0.152
-340.348	212.834	0.076	-0.118
-339.333	800.000	-0.035	-0.109
-338.318	71.734	0.172	0.176
-337.304	800.000	-0.024	0.071
-336.289	-170.942	-0.235	0.008
-335.275	-164.017	0.067	0.003
-334.260	-12.793	-0.089	0.057
-333.245	-12.649	0.112	-0.072
-332.231	45.347	-0.241	0.219
-331.216	-59.569	-0.273	0.115
-330.202	-6.121	0.288	0.194
-329.187	-29.000	0.341	-0.193
-328.172	800.000	0.067	0.237
-327.158	303.544	0.077	-0.140
-326.143	-200.000	0.023	-0.122
-325.129	800.000	-0.054	0.156
-324.114	-48.479	-0.039	-0.018
-323.099	-36.091	-0.451	-0.240
-322.085	256.014	0.115	0.194
-321.070	43.892	-0.205	0.185
-320.056	-121.233	-0.127	-0.021
-319.041	-119.801	0.158	-0.027
-318.026	-67.419	-0.138	-0.053
-317.012	701.217	0.019	0.050
-315.997	-151.933	0.153	0.011
-314.983	-200.000	0.020	0.244
-313.968	-80.758	0.216	-0.071
-312.953	347.422	0.341	-0.661
-311.939	-14.863	0.170	0.107
-310.924	323.240	0.098	-0.184
-309.910	11.816	-0.201	-0.152
-308.895	-116.032	0.204	0.037
-307.880	-200.000	0.047	0.312
-306.866	-39.942	-0.526	0.270
-305.851	-105.722	-0.289	-0.064
-304.837	-200.000	-0.022	0.103
-303.822	800.000	0.096	-0.400
-302.807	215.111	-0.164	-0.256
-301.793	-86.929	-0.181	0.054
-300.778	800.000	0.063	-0.207
-299.764	-200.000	-0.018	-0.095
-298.749	160.362	0.122	0.168
-297.735	25.201	0.168	-0.137
-296.720	110.069	-0.087	-0.102
-295.705	-124.143	-0.079	0.012
-294.691	201.367	0.128	0.194
-293.676	310.705	0.129	-0.238
-292.662	-200.000	-0.017	0.285
-291.647	-200.000	-0.074	0.372
-290.632	187.823	-0.155	-0.228
-289.618	187.495	-0.056	-0.082
-288.603	-16.105	0.096	0.060
-287.589	185.457	-0.134	-0.196
-286.574	-100.228	-0.355	-0.087
-285.559	-74.712	0.119	0.042
-284.545	-117.136	0.342	0.061
-283.530	-200.000	0.042	-0.219
-282.516	800.000	-0.073	0.245
-281.501	-73.449	0.239	0.086
-280.486	-200.000	-0.027	-0.416
-279.472	800.000	0.118	-0.393
-278.457	72.629	-0.340	-0.348
-277.443	99.833	0.017	0.019
-276.428	-64.015	0.070	-0.028
-275.413	0.949	0.089	0.062
-274.399	-200.000	-0.031	-0.269
-273.384	194.272	0.062	-0.093
-272.370	-200.000	-0.249	0.000
-271.355	-96.721	-0.138	-0.036
-270.340	-97.259	0.260	0.067
-269.326	-159.451	0.296	0.016
-268.311	-200.000	-0.031	0.143
-267.297	165.160	0.251	0.348
-266.282	0.338	0.196	-0.137
-265.267	-0.964	-0.318	-0.221
-264.253	-200.000	-0.017	0.242
-263.238	83.904	0.133	0.142
-262.224	-55.438	-0.078	0.034
-261.209	-141.275	0.191	-0.019
-260.195	96.385	0.098	-0.110
-259.180	19.107	-0.291	-0.230
-258.165	212.965	0.062	0.097
-257.151	-200.000	-0.035	-0.200
-256.136	153.674	-0.231	-0.310
-255.122	-112.791	0.234	-0.046
-254.107	-99.959	0.240	-0.059
-253.092	-200.000	-0.026	-0.177
-252.078	-27.404	0.384	-0.219
-251.063	724.617	0.056	0.147
-250.049	-46.716	0.155	-0.074
-249.034	-200.000	0.052	0.244
-248.019	66.624	0.069	-0.069
-247.005	134.159	0.103	-0.131
-245.990	-128.525	-0.050	0.007
-244.976	112.756	0.005	-0.006
-243.961	-64.163	-0.171	0.068
-242.946	800.000	-0.058	-0.206
-241.932	-156.433	0.048	0.003
-240.917	-32.000	-0.269	0.148
-239.903	186.478	0.088	0.128
-238.888	-200.000	0.130	-0.000
-237.873	61.026	0.199	0.194
-236.859	-28.948	0.090	0.051
-235.844	51.153	0.192	-0.179
-234.830	94.600	0.207	-0.231
-233.815	185.002	-0.027	-0.039
-232.800	541.863	-0.181	-0.422
-231.786	-137.765	0.114	-0.012
-230.771	97.424	-0.362	0.408
-229.757	27.530	-0.379	0.313
-228.742	181.048	-0.118	0.170
-227.727	-200.000	-0.006	-0.167
-226.713	-200.000	0.012	-0.191
-225.698	69.492	-0.253	-0.256
-224.684	67.422	0.160	-0.160
-223.669	11.208	0.086	0.064
-222.655	-170.043	-0.239	0.008
-221.640	180.622	0.050	0.072
-220.625	-189.148	0.453	-0.005
-219.611	246.055	-0.080	0.132
-218.596	4.254	-0.269	0.193
-217.582	-104.019	0.308	0.070
-216.567	95.125	0.438	0.489
-215.552	8.564	-0.115	0.085
-214.538	117.472	0.181	0.219
-213.523	183.928	0.125	-0.181
-212.509	151.945	0.056	-0.075
-211.494	-41.266	-0.123	-0.062
-210.479	239.736	-0.089	0.144
-209.465	49.131	0.228	-0.210
-208.450	128.223	-0.128	0.160
-207.436	-29.151	0.122	0.068
-206.421	19.724	0.139	0.110
-205.406	-200.000	0.006	-0.207
-204.392	171.896	0.168	0.236
-203.377	427.999	0.057	0.121
-202.363	630.763	-0.054	-0.134
-201.348	-16.233	0.182	-0.113
-200.333	660.679	0.036	0.092
-199.319	-71.292	0.288	-0.106
-198.304	35.148	0.251	-0.216
-197.290	-151.879	-0.228	-0.016
-196.275	3.612	-0.007	-0.005
-195.260	-200.000	-0.004	0.063
-194.246	-115.169	0.219	-0.041
-193.231	-102.784	0.145	0.034
-192.217	-200.000	-0.000	0.049
-191.202	800.000	-0.065	0.254
-190.187	-70.123	0.197	-0.074
-189.173	-200.000	-0.018	0.259
-188.158	-86.040	-0.103	-0.031
-187.144	116.436	-0.142	0.171
-186.129	-200.000	0.053	-0.331
-185.114	154.773	0.190	0.255
-184.100	-55.917	0.214	0.093
-183.085	-200.000	-0.000	0.054
-182.071	-44.451	-0.268	-0.131
-181.056	-141.515	0.329	-0.033
-180.042	364.701	0.075	-0.147
-179.027	411.319	0.102	-0.212
-178.012	-47.228	-0.269	-0.128
-176.998	23.312	0.108	0.087
-175.983	302.591	0.255	0.463
-174.969	231.749	-0.058	-0.093
-173.954	-60.381	-0.290	-0.121
-172.939	-98.152	0.202	0.051
-171.925	-37.874	-0.258	0.134
-170.910	356.434	0.060	0.117
-169.896	-157.396	-0.306	-0.018
-168.881	17.057	0.107	0.083
-167.866	-200.000	-0.019	0.124
-166.852	-68.395	0.144	0.055
-165.837	-59.231	0.130	-0.055
-164.823	179.017	0.092	0.131
-163.808	33.838	0.078	-0.066
-162.793	-41.363	0.240	0.121
-161.779	118.496	-0.129	0.156
-160.764	-200.000	0.013	0.324
-159.750	402.974	-0.073	0.150
-158.735	-134.053	0.153	0.018
-157.720	-72.866	-0.255	-0.092
-156.706	-50.212	-0.112	0.052
-155.691	230.117	-0.041	0.065
-154.677	-1.191	-0.142	-0.098
-153.662	401.262	-0.116	0.237
-152.647	-165.475	-0.525	-0.022
-151.633	649.197	0.063	0.159
-150.618	-99.531	-0.298	-0.073
-149.604	-200.000	0.019	0.150
-148.589	82.219	0.174	0.185
-147.574	-200.000	0.040	0.212
-146.560	13.020	0.187	-0.142
-145.545	-71.682	-0.154	0.056
-144.531	183.125	0.084	-0.121
-143.516	800.000	-0.098	0.301
-142.502	-92.617	-0.080	-0.022
-141.487	407.257	0.090	0.186
-140.472	17.344	0.384	-0.298
-139.458	344.254	0.107	-0.205
-138.443	-119.891	0.276	-0.046
-137.429	-200.000	-0.017	0.109
-136.414	10.898	0.044	0.033
-135.399	181.401	0.112	0.161
-134.385	77.931	-0.324	0.337
-133.370	-134.199	0.087	-0.010
-132.356	800.000	-0.073	0.210
-131.341	-200.000	0.023	0.371
-130.326	-190.324	0.495	0.005
-129.312	-5.758	-0.197	0.132
-128.297	-79.615	0.091	0.030
-127.283	606.435	-0.006	0.013
-126.268	-10.704	-0.229	0.148
-125.253	-1.938	-0.241	-0.165
-124.239	-109.083	0.216	0.045
-123.224	97.830	-0.079	-0.089
-122.210	800.000	-0.054	-0.178
-121.195	-154.550	-0.042	-0.003
-120.180	-77.961	0.217	-0.073
