DTS Sentinel unit serial number:	SN413079Multiplexer serial number:	ORYXHardware model number:	OX4-SRSoftware version number:	ORYX F/W v4.00 Oryx Data Collector v3.7.2.0data status	okinstallation	princeton_trtdifferential loss correction	single-endedforward channel	channel 3reverse channel	N/Adate	2019/09/19time	08:24:34forward acquisition time	60.00reverse acquisition time	0.00gamma	496.2192k internal	0.2347k external	0.2347temperature offset calibration	0.9975default loss term (dB/km)	0.3790temperature slope calibration	1.0000multiplexer offset coefficient	1.0000multiplexer slope coefficient	1.0000fibre end	0.00T internal ref (°C)	20.50T ext. ref 1 (°C)	0.56T ext. ref 2 (°C)	16.14length (m)	temperature (°C)	Stokes	anti-Stokes-747.200	-119.113	0.179	-0.031
-746.185	-53.247	-0.068	0.031
-745.171	210.417	-0.136	-0.213
-744.156	366.899	-0.075	0.151
-743.142	800.000	0.053	0.179
-742.127	-57.732	0.199	-0.087
-741.112	92.293	0.198	-0.223
-740.098	800.000	-0.121	0.363
-739.083	-111.403	-0.101	-0.021
-738.069	-200.000	-0.037	0.186
-737.054	201.632	-0.188	0.289
-736.039	192.510	-0.138	0.209
-735.025	-99.662	0.200	-0.050
-734.010	27.202	-0.457	-0.383
-732.996	-40.531	0.206	-0.107
-731.981	-200.000	0.006	-0.181
-730.966	-99.866	0.239	-0.060
-729.952	230.291	-0.086	-0.140
-728.937	-200.000	0.025	-0.377
-727.923	-200.000	-0.026	-0.116
-726.908	650.554	-0.075	-0.192
-725.894	389.146	-0.106	-0.219
-724.879	-121.215	0.124	-0.021
-723.864	38.261	0.139	-0.124
-722.850	52.247	0.135	-0.129
-721.835	-84.660	-0.509	-0.160
-720.821	-200.000	-0.102	-0.463
-719.806	-167.110	-0.180	0.007
-718.791	-200.000	-0.019	0.155
-717.777	-25.574	0.334	-0.197
-716.762	18.996	-0.292	-0.234
-715.748	126.643	0.098	-0.124
-714.733	-3.353	0.069	0.048
-713.718	222.759	0.032	0.051
-712.704	800.000	0.045	0.165
-711.689	-146.867	0.551	0.047
-710.675	-29.618	0.100	0.057
-709.660	309.670	0.219	0.410
-708.645	-90.748	0.077	-0.022
-707.631	-45.807	0.035	-0.017
-706.616	251.817	-0.055	-0.094
-705.602	-196.054	-0.227	-0.002
-704.587	10.826	-0.133	-0.101
-703.572	-153.120	0.317	-0.022
-702.558	-200.000	0.008	0.079
-701.543	-84.820	-0.081	-0.025
-700.529	144.138	-0.117	-0.156
-699.514	-38.702	-0.095	-0.050
-698.499	-200.000	-0.004	-0.202
-697.485	322.265	0.105	0.200
-696.470	-146.063	-0.219	0.019
-695.456	-168.017	-0.292	-0.011
-694.441	-63.432	-0.151	-0.062
-693.426	-20.090	0.113	-0.069
-692.412	64.084	-0.106	-0.107
-691.397	-200.000	0.013	-0.102
-690.383	800.000	-0.044	-0.130
-689.368	120.398	-0.090	-0.111
-688.354	426.676	0.075	0.161
-687.339	27.879	0.204	-0.171
-686.324	800.000	-0.063	0.215
-685.310	-200.000	-0.049	0.327
-684.295	800.000	-0.024	-0.093
-683.281	-200.000	-0.005	0.216
-682.266	-77.801	0.364	0.125
-681.251	-8.078	0.313	-0.210
-680.237	401.776	0.155	0.326
-679.222	89.707	0.254	-0.282
-678.208	-107.105	-0.408	-0.090
-677.193	-0.085	-0.250	-0.177
-676.178	284.223	-0.095	0.171
-675.164	800.000	0.083	0.252
-674.149	310.316	0.163	-0.303
-673.135	57.334	0.094	-0.091
-672.120	360.298	-0.158	-0.314
-671.105	707.214	0.054	-0.143
-670.091	51.521	-0.167	-0.158
-669.076	-113.855	-0.132	-0.026
-668.062	-23.835	-0.159	0.095
-667.047	-160.968	0.183	-0.010
-666.032	800.000	-0.035	0.106
-665.018	800.000	0.090	0.258
-664.003	7.651	-0.287	0.214
-662.989	800.000	-0.052	-0.225
-661.974	127.288	-0.125	-0.159
-660.959	-92.683	0.303	-0.084
-659.945	110.724	-0.131	-0.157
-658.930	-200.000	0.038	0.174
-657.916	193.526	-0.076	0.114
-656.901	-200.000	0.043	0.523
-655.886	277.647	-0.146	0.259
-654.872	-49.242	0.038	-0.018
-653.857	-200.000	0.017	-0.322
-652.843	-12.395	0.160	0.104
-651.828	-200.000	0.018	-0.308
-650.814	-12.416	-0.196	-0.127
-649.799	-100.685	0.065	0.016
-648.784	-98.094	-0.263	0.068
-647.770	800.000	0.072	0.219
-646.755	800.000	0.061	0.172
-645.741	172.227	0.018	0.026
-644.726	288.828	-0.112	-0.202
-643.711	-15.145	0.301	-0.192
-642.697	81.594	-0.318	-0.343
-641.682	-118.229	0.109	-0.019
-640.668	-111.438	-0.194	-0.039
-639.653	544.364	0.066	-0.157
-638.638	22.355	-0.255	-0.207
-637.624	-200.000	0.001	0.093
-636.609	590.189	0.119	0.293
-635.595	-152.980	-0.298	0.021
-634.580	-113.609	-0.122	0.024
-633.565	550.160	0.059	0.140
-632.551	613.546	-0.216	0.538
-631.536	-200.000	0.021	-0.496
-630.522	-66.305	-0.037	-0.015
-629.507	119.747	-0.135	-0.166
-628.492	-87.740	-0.112	-0.033
-627.478	-165.901	0.150	-0.006
-626.463	-48.068	0.163	0.078
-625.449	-38.559	-0.119	0.063
-624.434	-51.086	-0.064	-0.030
-623.419	-87.737	0.192	-0.058
-622.405	616.549	-0.018	-0.046
-621.390	644.859	-0.114	0.289
-620.376	-181.998	0.187	-0.004
-619.361	-144.536	-0.240	0.022
-618.346	788.306	-0.065	-0.176
-617.332	331.851	0.082	-0.158
-616.317	800.000	-0.032	-0.099
-615.303	-75.045	-0.119	-0.042
-614.288	11.084	0.160	-0.121
-613.273	-56.287	-0.126	0.056
-612.259	188.026	-0.151	0.225
-611.244	27.490	-0.114	-0.095
-610.230	83.343	0.072	0.078
-609.215	-200.000	-0.029	0.187
-608.201	-200.000	0.008	-0.220
-607.186	44.638	-0.115	-0.105
-606.171	-46.667	0.150	-0.073
-605.157	7.341	0.275	0.204
-604.142	424.535	-0.062	0.132
-603.128	800.000	0.055	0.238
-602.113	-43.071	0.108	-0.055
-601.098	-178.646	-0.253	0.006
-600.084	-200.000	-0.012	-0.202
-599.069	275.045	-0.060	0.105
-598.055	197.812	0.176	0.267
-597.040	-200.000	0.047	-0.300
-596.025	-49.712	-0.326	-0.154
-595.011	800.000	0.027	0.090
-593.996	-109.348	0.361	0.076
-592.982	-61.773	0.150	-0.062
-591.967	-86.266	-0.178	0.054
-590.952	107.973	0.181	-0.214
-589.938	800.000	-0.042	-0.150
-588.923	-7.193	0.299	0.201
-587.909	578.325	-0.052	0.127
-586.894	583.393	0.028	-0.069
-585.879	-127.634	0.274	0.039
-584.865	-129.450	-0.084	-0.012
-583.850	191.283	0.225	0.336
-582.836	-200.000	-0.007	0.046
-581.821	-56.645	-0.139	-0.061
-580.806	-80.334	-0.117	-0.039
-579.792	-92.569	-0.069	-0.019
-578.777	74.662	0.081	-0.085
-577.763	-200.000	-0.013	0.297
-576.748	262.034	0.026	0.044
-575.733	-117.150	0.145	0.026
-574.719	132.417	0.230	-0.294
-573.704	800.000	0.086	-0.238
-572.690	-92.809	-0.171	-0.047
-571.675	800.000	-0.031	0.117
-570.661	-89.706	0.300	-0.087
-569.646	-42.977	0.077	0.039
-568.631	604.708	0.022	-0.054
-567.617	69.787	0.095	-0.098
-566.602	-200.000	-0.044	-0.301
-565.588	-161.837	-0.320	-0.016
-564.573	112.728	0.232	0.279
-563.558	-38.237	0.059	-0.031
-562.544	81.877	0.059	-0.063
-561.529	-131.360	-0.095	-0.012
-560.515	227.477	-0.088	-0.143
-559.500	239.504	0.038	0.063
-558.485	-35.493	0.291	-0.157
-557.471	800.000	-0.099	-0.294
-556.456	14.299	-0.097	-0.075
-555.442	28.324	0.208	-0.175
-554.427	93.876	-0.168	-0.189
-553.412	55.744	-0.064	-0.062
-552.398	-200.000	-0.036	0.327
-551.383	-200.000	0.037	0.289
-550.369	-200.000	0.002	-0.060
-549.354	-94.483	-0.062	0.017
-548.339	-175.616	-0.371	-0.010
-547.325	-200.000	-0.091	-0.399
-546.310	-200.000	-0.016	-0.127
-545.296	-200.000	-0.066	-0.359
-544.281	-185.074	-0.458	0.007
-543.266	-80.642	-0.243	-0.080
-542.252	-10.891	0.320	0.210
-541.237	284.260	-0.248	0.442
-540.223	-101.289	-0.233	0.056
-539.208	-40.007	0.341	0.176
-538.193	394.040	-0.050	0.103
-537.179	-200.000	-0.006	0.069
-536.164	-95.040	0.077	0.021
-535.150	233.680	0.149	0.243
-534.135	3.361	-0.089	0.065
-533.121	-20.587	0.120	0.073
-532.106	-122.749	-0.458	0.073
-531.091	-51.029	-0.138	0.064
-530.077	-119.112	-0.230	-0.040
-529.062	27.379	-0.140	-0.117
-528.048	208.984	-0.144	0.224
-527.033	30.774	0.212	-0.180
-526.018	111.931	0.231	0.276
-525.004	19.778	-0.390	-0.311
-523.989	170.967	0.206	-0.292
-522.975	-29.683	-0.257	0.145
-521.960	159.764	-0.158	0.218
-520.945	-200.000	0.079	0.356
-519.931	-159.368	0.230	-0.013
-518.916	224.608	0.205	0.328
-517.902	-28.617	0.069	-0.039
-516.887	166.527	0.179	0.252
-515.872	55.520	0.162	0.155
-514.858	13.742	-0.193	0.149
-513.843	-13.777	0.128	0.082
-512.829	108.487	0.141	-0.166
-511.814	382.567	0.184	-0.375
-510.799	-30.361	-0.060	0.034
-509.785	71.220	0.280	0.288
-508.770	371.091	0.133	0.268
-507.756	-168.295	-0.388	0.015
-506.741	800.000	0.071	0.239
-505.726	-200.000	0.013	-0.233
-504.712	473.552	-0.083	0.186
-503.697	-151.116	0.169	0.013
-502.683	800.000	-0.099	0.314
-501.668	800.000	0.017	0.063
-500.653	-200.000	-0.022	0.191
-499.639	219.943	0.082	0.129
-498.624	-149.283	-0.045	-0.004
-497.610	175.797	-0.126	0.181
-496.595	5.267	0.114	-0.083
-495.581	-62.730	-0.352	0.145
-494.566	33.258	0.350	0.301
-493.551	-83.290	-0.195	-0.062
-492.537	558.369	0.065	0.156
-491.522	30.045	-0.130	0.110
-490.508	800.000	0.049	-0.190
-489.493	156.205	0.042	-0.057
-488.478	-144.617	0.436	0.040
-487.464	-64.274	0.458	0.184
-486.449	120.357	-0.080	0.099
-485.435	80.917	-0.082	-0.088
-484.420	-200.000	-0.006	0.035
-483.405	-61.986	0.178	0.074
-482.391	43.046	-0.139	-0.126
-481.376	-27.821	-0.093	-0.054
-480.362	-200.000	-0.046	-0.273
-479.347	-196.769	0.295	-0.002
-478.332	249.563	0.067	-0.113
-477.318	800.000	0.120	-0.345
-476.303	129.771	0.181	-0.229
-475.289	-39.466	-0.204	-0.106
-474.274	-176.097	0.260	-0.007
-473.259	51.806	-0.165	-0.155
-472.245	-103.954	-0.243	-0.056
-471.230	5.371	0.102	-0.075
-470.216	457.168	0.090	-0.198
-469.201	591.067	-0.103	0.252
-468.186	114.217	-0.136	-0.164
-467.172	16.265	-0.089	0.070
-466.157	64.610	-0.050	0.050
-465.143	-56.660	-0.169	0.074
-464.128	278.091	-0.111	-0.195
-463.113	800.000	0.071	0.255
-462.099	-76.608	0.216	0.075
-461.084	-166.492	-0.172	-0.007
-460.070	87.265	0.047	0.052
-459.055	145.768	0.134	-0.177
-458.040	-200.000	0.024	0.189
-457.026	672.459	-0.081	0.208
-456.011	-144.584	-0.208	-0.019
-454.997	119.346	-0.023	0.028
-453.982	-42.646	-0.056	0.028
-452.968	-200.000	-0.007	0.342
-451.953	-65.586	0.050	0.020
-450.938	-50.097	0.291	0.136
-449.924	-133.232	0.275	-0.034
-448.909	-133.085	-0.446	0.056
-447.895	-128.263	-0.212	-0.030
-446.880	-161.371	-0.087	0.004
-445.865	-99.886	-0.187	-0.046
-444.851	-73.194	0.184	-0.067
-443.836	-200.000	-0.020	0.255
-442.822	66.886	0.189	-0.191
-441.807	227.954	-0.053	0.085
-440.792	-200.000	-0.055	-0.255
-439.778	-57.965	0.294	-0.127
-438.763	-179.770	0.230	-0.005
-437.749	226.343	-0.278	-0.445
-436.734	81.742	0.171	-0.183
-435.719	800.000	-0.062	0.245
-434.705	-200.000	-0.063	0.290
-433.690	31.118	-0.117	-0.099
-432.676	-6.249	0.294	-0.198
-431.661	-80.387	0.295	-0.097
-430.646	79.215	-0.065	-0.069
-429.632	800.000	-0.053	-0.213
-428.617	-27.317	0.380	0.218
-427.603	-134.911	-0.232	-0.028
-426.588	-66.071	-0.165	0.065
-425.573	-82.479	-0.109	0.035
-424.559	34.804	-0.239	0.207
-423.544	-60.303	0.079	0.033
-422.530	-92.425	0.155	-0.043
-421.515	-45.065	-0.048	0.023
-420.500	83.988	-0.104	0.112
-419.486	-46.886	0.162	-0.078
-418.471	-128.185	-0.112	0.016
-417.457	239.897	0.024	-0.040
-416.442	-66.928	-0.134	-0.052
-415.428	19.016	-0.226	-0.179
-414.413	-141.536	0.403	0.040
-413.398	-47.795	0.133	0.063
-412.384	387.690	-0.051	0.105
-411.369	-200.000	0.050	0.215
-410.355	305.361	-0.140	0.256
-409.340	591.164	0.090	-0.218
-408.325	443.998	0.065	-0.141
-407.311	-200.000	-0.001	0.083
-406.296	-200.000	0.017	0.221
-405.282	644.778	-0.022	0.055
-404.267	50.722	0.252	0.235
-403.252	46.692	-0.183	-0.167
-402.238	371.935	0.123	-0.246
-401.223	800.000	-0.035	-0.115
-400.209	-200.000	-0.009	0.137
-399.194	94.928	-0.179	0.201
-398.179	62.754	0.146	-0.144
-397.165	135.034	0.116	-0.149
-396.150	800.000	0.077	-0.225
-395.136	19.334	0.057	0.045
-394.121	-121.588	-0.155	0.025
-393.106	-6.444	-0.032	-0.021
-392.092	800.000	-0.107	0.348
-391.077	-3.980	0.127	0.087
-390.063	160.956	0.065	-0.090
-389.048	-92.023	-0.125	0.035
-388.033	-200.000	0.005	0.461
-387.019	63.193	-0.230	0.227
-386.004	4.359	0.085	-0.062
-384.990	157.492	-0.204	-0.278
-383.975	800.000	0.033	-0.125
-382.960	87.708	0.252	0.275
-381.946	72.353	-0.195	0.200
-380.931	-136.259	-0.283	-0.033
-379.917	250.939	-0.200	0.336
-378.902	66.109	0.118	-0.118
-377.888	-200.000	0.059	-0.258
-376.873	618.900	-0.030	-0.075
-375.858	83.748	-0.019	0.020
-374.844	47.969	0.217	0.200
-373.829	62.545	0.167	0.164
-372.815	-8.462	0.137	0.091
-371.800	-200.000	-0.046	-0.220
-370.785	-200.000	0.008	0.157
-369.771	85.370	-0.076	0.082
-368.756	-59.422	0.230	-0.097
-367.742	-200.000	0.002	0.114
-366.727	-113.739	0.302	-0.058
-365.712	-200.000	0.063	0.315
-364.698	117.651	0.265	0.321
-363.683	-62.413	-0.458	-0.188
-362.669	325.645	-0.089	0.167
-361.654	360.079	0.208	0.409
-360.639	-62.344	-0.210	-0.086
-359.625	-140.420	-0.052	0.005
-358.610	-166.084	0.126	-0.005
-357.596	-200.000	0.004	-0.140
-356.581	100.214	0.158	-0.180
-355.566	499.978	0.079	0.179
-354.552	18.833	0.151	-0.119
-353.537	-41.596	-0.118	0.059
-352.523	-56.980	-0.088	0.038
-351.508	193.874	0.106	0.157
-350.493	207.086	0.294	-0.451
-349.479	-6.226	-0.306	-0.206
-348.464	43.446	-0.318	-0.286
-347.450	24.691	-0.228	-0.186
-346.435	-200.000	-0.046	0.292
-345.420	-68.665	0.204	-0.078
-344.406	800.000	-0.075	-0.289
-343.391	-200.000	-0.005	-0.521
-342.377	-6.224	0.263	0.177
-341.362	267.897	0.167	0.288
-340.348	-105.950	-0.321	0.071
-339.333	800.000	0.061	-0.259
-338.318	2.371	-0.082	0.059
-337.304	384.685	0.136	-0.275
-336.289	-200.000	0.037	-0.336
-335.275	-36.242	-0.178	-0.094
-334.260	486.933	-0.093	-0.208
-333.245	47.224	-0.166	0.152
-332.231	102.528	-0.142	-0.163
-331.216	-2.889	-0.314	-0.216
-330.202	335.829	0.066	0.126
-329.187	-200.000	0.048	0.270
-328.172	-200.000	-0.036	-0.263
-327.158	-30.546	0.205	0.114
-326.143	24.498	-0.277	-0.225
-325.129	197.721	0.132	0.199
-324.114	-111.901	0.248	0.049
-323.099	302.079	0.237	0.430
-322.085	-200.000	-0.531	-0.001
-321.070	-87.507	0.326	-0.097
-320.056	-92.883	-0.275	-0.075
-319.041	-42.164	0.186	-0.093
-318.026	-59.421	0.078	-0.033
-317.012	-39.958	-0.232	0.119
-315.997	-73.035	0.184	-0.067
-314.983	800.000	0.085	-0.323
-313.968	-30.117	-0.317	0.177
-312.953	-200.000	-0.013	-0.312
-311.939	442.479	0.108	-0.233
-310.924	-125.963	0.277	-0.041
-309.910	423.232	-0.173	-0.365
-308.895	-107.357	0.141	0.030
-307.880	800.000	-0.141	0.504
-306.866	89.972	-0.172	-0.189
-305.851	-35.782	0.133	-0.071
-304.837	38.420	-0.102	0.089
-303.822	-153.378	-0.142	0.010
-302.807	-94.600	0.138	0.037
-301.793	-172.082	0.190	-0.006
-300.778	93.094	-0.234	-0.260
-299.764	800.000	0.043	0.131
-298.749	-83.753	-0.545	-0.171
-297.735	-126.589	0.181	0.026
-296.720	-129.925	-0.118	0.016
-295.705	-95.918	-0.248	-0.065
-294.691	11.223	-0.102	0.077
-293.676	-62.064	-0.474	0.194
-292.662	16.797	0.222	-0.172
-291.647	800.000	-0.009	0.036
-290.632	-32.301	-0.298	-0.163
-289.618	-200.000	0.012	-0.149
-288.603	-86.858	0.206	-0.062
-287.589	800.000	-0.132	-0.463
-286.574	472.879	-0.129	-0.286
-285.559	108.740	0.266	-0.313
-284.545	-83.477	-0.074	-0.023
-283.530	-71.402	0.243	-0.089
-282.516	-1.976	0.315	-0.217
-281.501	-200.000	0.019	0.215
-280.486	42.610	-0.120	-0.108
-279.472	75.796	-0.037	-0.039
-278.457	-200.000	0.049	-0.517
-277.443	50.776	-0.244	0.227
-276.428	-55.381	-0.170	0.075
-275.413	-200.000	0.011	0.082
-274.399	-163.254	-0.038	0.002
-273.384	438.292	0.161	0.345
-272.370	800.000	0.023	0.090
-271.355	-32.895	-0.160	-0.087
-270.340	-200.000	0.036	0.236
-269.326	257.848	-0.053	0.089
-268.311	-200.000	0.062	-0.344
-267.297	800.000	-0.024	-0.087
-266.282	-127.691	0.180	0.026
-265.267	-51.943	0.303	-0.138
-264.253	-84.999	-0.179	0.055
-263.238	-200.000	0.031	0.181
-262.224	-58.754	0.177	-0.075
-261.209	-200.000	-0.064	-0.434
-260.195	-110.688	0.116	0.024
-259.180	800.000	0.072	-0.228
-258.165	-22.590	-0.142	-0.084
-257.151	633.646	-0.122	0.304
-256.136	-108.025	-0.116	0.025
-255.122	-114.131	-0.119	-0.023
-254.107	-28.456	-0.244	-0.138
-253.092	-200.000	-0.008	-0.183
-252.078	-200.000	-0.004	0.244
-251.063	-46.444	-0.150	0.072
-250.049	381.927	-0.031	0.063
-249.034	16.649	0.235	-0.183
-248.019	22.030	-0.014	0.012
-247.005	-50.436	-0.227	-0.105
-245.990	-0.701	-0.182	-0.126
-244.976	-200.000	0.032	0.310
-243.961	208.900	-0.146	-0.225
-242.946	-103.000	0.225	0.052
-241.932	-162.058	0.274	0.013
-240.917	-50.544	-0.237	0.109
-239.903	-153.097	-0.302	0.021
-238.888	-85.987	0.277	0.084
-237.873	59.121	0.060	-0.058
-236.859	-98.444	0.211	0.053
-235.844	-200.000	-0.002	0.200
-234.830	800.000	0.088	-0.323
-233.815	86.413	0.348	-0.375
-232.800	-200.000	0.020	0.103
-231.786	2.962	-0.092	0.066
-230.771	78.476	-0.206	0.216
-229.757	-200.000	0.010	0.524
-228.742	800.000	-0.094	-0.300
-227.727	-76.307	0.172	-0.059
-226.713	-200.000	0.026	0.193
-225.698	-3.545	0.217	-0.148
-224.684	-5.470	-0.117	0.079
-223.669	-9.138	-0.085	-0.056
-222.655	-66.729	-0.236	0.091
-221.640	800.000	-0.069	0.271
-220.625	-200.000	0.002	-0.283
-219.611	-31.038	0.125	-0.069
-218.596	45.384	-0.305	-0.276
-217.582	-149.720	0.399	-0.031
-216.567	-175.590	0.080	0.002
-215.552	38.401	-0.115	0.100
-214.538	-110.961	-0.174	-0.035
-213.523	33.517	0.153	-0.130
-212.509	655.743	0.073	-0.183
-211.494	-200.000	-0.007	-0.366
-210.479	-129.093	0.305	0.042
-209.465	188.154	0.194	-0.284
-208.450	684.316	-0.094	0.241
-207.436	-29.456	0.378	0.211
-206.421	389.517	-0.077	0.157
-205.406	-200.000	-0.052	-0.296
-204.392	-127.393	0.262	0.037
-203.377	83.650	0.255	0.272
-202.363	-23.200	0.379	0.223
-201.348	39.848	-0.077	0.068
-200.333	-11.886	0.300	0.193
-199.319	181.276	-0.205	-0.295
-198.304	452.272	-0.094	0.204
-197.290	84.770	0.057	0.061
-196.275	66.514	0.288	0.287
-195.260	-68.352	-0.267	-0.102
-194.246	800.000	0.074	0.217
-193.231	54.455	0.079	0.074
-192.217	-64.941	0.405	0.160
-191.202	79.290	-0.096	0.101
-190.187	255.031	0.133	0.222
-189.173	56.515	-0.099	0.094
-188.158	-111.097	0.099	0.020
-187.144	-98.565	-0.300	0.075
-186.129	-200.000	0.046	-0.285
-185.114	331.162	0.094	0.178
-184.100	-32.154	0.125	0.069
-183.085	-39.636	0.269	0.137
-182.071	-8.368	-0.151	-0.099
-181.056	-73.415	-0.310	-0.111
-180.042	137.356	-0.123	-0.157
-179.027	171.582	0.132	0.185
-178.012	-200.000	-0.019	0.123
-176.998	-16.291	-0.091	0.057
-175.983	-70.165	-0.212	0.079
-174.969	-64.649	-0.184	0.073
-173.954	-164.543	-0.368	0.016
-172.939	105.469	-0.255	-0.295
-171.925	-39.752	0.323	-0.165
-170.910	-200.000	-0.026	0.220
-169.896	152.470	-0.102	0.136
-168.881	277.326	-0.028	0.048
-167.866	-47.166	0.057	-0.027
-166.852	799.392	-0.035	0.095
-165.837	88.176	-0.121	0.131
-164.823	-172.944	0.201	-0.006
-163.808	-75.738	0.220	-0.076
-162.793	-62.757	-0.265	-0.107
-161.779	142.836	0.067	0.087
-160.764	341.250	-0.103	0.196
-159.750	-53.418	0.250	-0.112
-158.735	257.478	-0.079	-0.132
-157.720	-149.884	0.054	-0.004
-156.706	-200.000	0.033	0.329
-155.691	800.000	0.155	-0.450
-154.677	4.790	-0.207	0.149
-153.662	-63.019	-0.356	-0.144
-152.647	737.632	0.144	-0.377
-151.633	-173.455	0.300	-0.009
-150.618	367.709	0.054	-0.107
-149.604	-200.000	-0.050	-0.332
-148.589	-200.000	0.063	-0.281
-147.574	-28.208	-0.078	0.044
-146.560	23.387	-0.057	-0.046
-145.545	-200.000	-0.010	0.063
-144.531	54.476	-0.114	-0.107
-143.516	697.976	-0.133	-0.341
-142.502	635.396	-0.034	-0.085
-141.487	602.641	-0.074	-0.179
-140.472	-200.000	0.057	0.362
-139.458	-22.983	0.377	0.222
-138.443	-145.791	-0.205	0.018
-137.429	218.862	0.214	-0.334
-136.414	-162.498	0.458	-0.022
-135.399	64.424	0.084	0.082
-134.385	-50.861	-0.073	-0.033
-133.370	267.749	-0.144	-0.247
-132.356	153.012	0.080	-0.107
-131.341	48.771	-0.047	0.043
-130.326	8.860	0.107	0.079
-129.312	-121.834	0.271	-0.044
-128.297	-116.693	-0.244	-0.044
-127.283	800.000	0.089	0.248
-126.268	-77.771	-0.147	-0.050
-125.253	800.000	-0.064	0.246
-124.239	-200.000	-0.037	0.204
-123.224	247.879	0.152	0.250
-122.210	-200.000	0.025	0.140
-121.195	102.085	0.158	-0.180
