DTS Sentinel unit serial number:	SN413079Multiplexer serial number:	ORYXHardware model number:	OX4-SRSoftware version number:	ORYX F/W v4.00 Oryx Data Collector v3.7.2.0data status	okinstallation	princeton_trtdifferential loss correction	single-endedforward channel	channel 3reverse channel	N/Adate	2019/09/16time	06:24:35forward acquisition time	60.00reverse acquisition time	0.00gamma	496.2192k internal	0.2334k external	0.2334temperature offset calibration	0.9961default loss term (dB/km)	0.3790temperature slope calibration	1.0000multiplexer offset coefficient	1.0000multiplexer slope coefficient	1.0000fibre end	0.00T internal ref (°C)	27.39T ext. ref 1 (°C)	11.35T ext. ref 2 (°C)	21.66length (m)	temperature (°C)	Stokes	anti-Stokes-747.200	-155.396	-0.088	0.006
-746.185	-200.000	-0.080	0.463
-745.171	-200.000	0.007	-0.309
-744.156	-175.573	0.255	-0.007
-743.142	689.558	-0.026	0.069
-742.127	340.827	0.103	0.202
-741.112	-143.338	0.240	-0.023
-740.098	800.000	-0.008	0.025
-739.083	4.640	0.240	-0.177
-738.069	-20.292	-0.191	-0.118
-737.054	85.616	-0.184	0.203
-736.039	192.316	-0.033	-0.050
-735.025	-87.427	0.145	-0.044
-734.010	800.000	0.025	0.079
-732.996	-152.931	-0.231	0.016
-731.981	-50.834	-0.089	-0.042
-730.966	-74.526	0.225	0.081
-729.952	800.000	-0.053	-0.183
-728.937	-157.265	-0.380	-0.023
-727.923	-98.307	-0.179	0.046
-726.908	9.605	-0.078	0.059
-725.894	800.000	-0.100	-0.287
-724.879	5.441	-0.102	-0.076
-723.864	57.003	-0.118	0.115
-722.850	-82.294	0.054	-0.018
-721.835	-163.495	0.321	0.015
-720.821	-18.007	-0.179	0.112
-719.806	-8.505	-0.215	0.145
-718.791	-200.000	-0.017	-0.176
-717.777	-10.586	0.144	0.095
-716.762	-200.000	0.040	0.465
-715.748	62.476	0.157	0.158
-714.733	131.264	0.167	0.216
-713.718	-96.817	0.177	-0.047
-712.704	-99.388	-0.271	-0.069
-711.689	491.352	-0.137	-0.315
-710.675	305.978	0.086	-0.160
-709.660	-200.000	0.004	0.093
-708.645	-71.976	-0.063	0.024
-707.631	15.898	-0.199	-0.158
-706.616	-66.592	0.274	0.109
-705.602	-46.286	0.219	-0.108
-704.587	-74.734	-0.249	-0.090
-703.572	-63.287	-0.152	0.063
-702.558	-16.612	-0.143	0.091
-701.543	168.494	0.134	0.191
-700.529	289.431	-0.060	0.110
-699.514	-168.306	-0.120	0.005
-698.499	800.000	-0.077	0.289
-697.485	-72.627	-0.086	-0.032
-696.470	-200.000	0.020	0.123
-695.456	800.000	0.068	-0.269
-694.441	29.587	0.101	-0.087
-693.426	-161.083	-0.312	0.016
-692.412	-200.000	0.015	-0.258
-691.397	89.069	-0.168	0.188
-690.383	303.584	-0.183	-0.341
-689.368	-200.000	0.004	-0.471
-688.354	179.819	0.084	0.124
-687.339	43.993	0.173	-0.159
-686.324	-200.000	-0.031	-0.273
-685.310	172.433	-0.116	-0.168
-684.295	454.423	-0.156	0.346
-683.281	-43.572	0.146	-0.074
-682.266	-99.667	-0.215	0.054
-681.251	-165.427	-0.430	0.019
-680.237	0.701	-0.199	-0.143
-679.222	-35.185	0.119	-0.065
-678.208	-157.332	0.139	0.008
-677.193	189.950	0.050	0.076
-676.178	32.729	0.222	0.192
-675.164	-69.651	0.055	0.021
-674.149	539.110	-0.106	-0.253
-673.135	800.000	0.109	-0.315
-672.120	61.115	0.155	0.155
-671.105	-0.343	0.151	0.108
-670.091	68.843	0.184	-0.189
-669.076	142.064	0.113	-0.150
-668.062	-102.771	-0.323	0.077
-667.047	116.798	-0.138	0.169
-666.032	800.000	0.056	-0.207
-665.018	453.242	0.011	0.024
-664.003	717.580	-0.043	0.115
-662.989	-23.591	0.446	0.268
-661.974	-112.012	-0.035	0.007
-660.959	-40.488	0.317	0.165
-659.945	-30.759	0.282	0.160
-658.930	-59.961	-0.229	-0.098
-657.916	-99.849	-0.189	-0.047
-656.901	-200.000	-0.035	-0.249
-655.886	403.380	-0.087	-0.183
-654.872	158.799	0.170	-0.237
-653.857	357.559	-0.166	0.332
-652.843	-75.040	0.259	-0.093
-651.828	-171.501	-0.243	-0.008
-650.814	-200.000	-0.029	-0.308
-649.799	-126.058	0.178	0.027
-648.784	800.000	-0.058	0.225
-647.770	-17.316	0.368	-0.232
-646.755	50.148	0.022	0.021
-645.741	-68.302	-0.080	0.031
-644.726	800.000	-0.042	0.157
-643.711	86.303	0.105	-0.116
-642.697	19.345	0.165	-0.133
-641.682	526.677	-0.096	-0.226
-640.668	536.318	0.094	-0.223
-639.653	412.963	0.042	-0.090
-638.638	101.211	-0.124	-0.145
-637.624	49.528	0.059	0.056
-636.609	37.316	-0.071	0.063
-635.595	800.000	-0.112	0.414
-634.580	-77.991	0.113	-0.039
-633.565	-55.267	-0.172	-0.077
-632.551	41.729	-0.207	-0.188
-631.536	32.035	-0.250	-0.216
-630.522	-200.000	-0.006	0.136
-629.507	405.062	0.077	0.162
-628.492	287.904	-0.037	0.067
-627.478	717.852	-0.104	0.276
-626.463	7.972	-0.389	0.292
-625.449	-41.753	0.412	-0.211
-624.434	-93.964	-0.267	-0.073
-623.419	-63.873	0.187	0.077
-622.405	-200.000	0.006	-0.038
-621.390	-95.053	0.061	-0.017
-620.376	-53.524	0.084	0.038
-619.361	4.359	-0.116	0.085
-618.346	195.628	0.142	0.215
-617.332	-200.000	-0.027	-0.163
-616.317	-94.469	-0.131	0.036
-615.303	371.441	-0.249	0.506
-614.288	-150.729	-0.352	0.027
-613.273	800.000	0.098	-0.281
-612.259	31.912	-0.333	-0.287
-611.244	-54.879	-0.207	-0.093
-610.230	-200.000	0.003	0.038
-609.215	62.806	-0.162	0.162
-608.201	317.889	-0.062	-0.117
-607.186	94.816	0.154	0.175
-606.171	-173.365	0.099	0.003
-605.157	270.095	-0.125	-0.219
-604.142	800.000	-0.058	0.234
-603.128	-133.974	-0.433	0.054
-602.113	-200.000	-0.030	0.285
-601.098	584.325	0.030	0.073
-600.084	42.949	-0.064	-0.058
-599.069	11.456	-0.278	-0.213
-598.055	-91.586	0.320	0.091
-597.040	-200.000	0.028	0.185
-596.025	-19.963	0.117	-0.072
-595.011	136.926	-0.314	-0.410
-593.996	108.739	0.155	0.185
-592.982	129.633	0.088	0.112
-591.967	252.775	0.129	-0.219
-590.952	-200.000	-0.002	0.019
-589.938	117.429	-0.109	0.134
-588.923	800.000	0.100	0.403
-587.909	713.434	0.051	0.136
-586.894	-46.093	-0.097	-0.048
-585.879	-66.741	0.192	0.076
-584.865	-200.000	0.013	0.211
-583.850	-145.371	0.170	-0.015
-582.836	-46.638	-0.087	-0.043
-581.821	-200.000	0.017	-0.385
-580.806	-37.250	-0.102	-0.054
-579.792	-72.038	-0.333	0.123
-578.777	-200.000	-0.009	0.081
-577.763	-200.000	0.012	-0.226
-576.748	-23.523	-0.206	-0.124
-575.733	-94.368	-0.239	0.065
-574.719	-8.907	-0.346	0.231
-573.704	-200.000	-0.028	0.162
-572.690	-44.546	0.049	0.025
-571.675	-24.657	-0.131	-0.078
-570.661	10.681	0.144	0.110
-569.646	182.384	-0.094	-0.138
-568.631	-41.736	-0.442	-0.227
-567.617	800.000	0.046	0.198
-566.602	199.921	-0.237	-0.362
-565.588	408.295	-0.126	0.266
-564.573	-40.923	0.126	-0.065
-563.558	157.043	-0.089	0.122
-562.544	-160.134	-0.413	-0.022
-561.529	-173.267	0.406	0.012
-560.515	7.179	-0.021	0.016
-559.500	-36.511	0.242	-0.130
-558.485	-20.124	-0.111	-0.068
-557.471	-35.388	0.229	-0.124
-556.456	-200.000	0.004	0.211
-555.442	-13.575	-0.149	0.096
-554.427	4.976	-0.241	-0.177
-553.412	800.000	0.049	-0.149
-552.398	-27.754	-0.074	0.043
-551.383	18.314	-0.085	-0.067
-550.369	-2.817	0.294	0.205
-549.354	-108.080	0.209	-0.045
-548.339	-89.675	-0.140	0.041
-547.325	-200.000	0.011	0.304
-546.310	800.000	0.043	0.130
-545.296	671.050	0.115	0.296
-544.281	198.647	-0.254	0.387
-543.266	800.000	-0.023	-0.068
-542.252	109.193	-0.189	-0.226
-541.237	-110.954	-0.152	-0.031
-540.223	-50.217	0.487	0.230
-539.208	-75.496	-0.107	0.038
-538.193	251.335	0.121	-0.204
-537.179	-143.706	0.167	0.016
-536.164	10.130	-0.057	0.043
-535.150	-36.166	0.449	-0.242
-534.135	-28.184	-0.399	0.230
-533.121	18.087	0.024	-0.019
-532.106	-151.372	0.131	0.010
-531.091	281.964	-0.117	-0.209
-530.077	283.854	-0.154	0.276
-529.062	281.764	-0.160	0.285
-528.048	286.924	0.167	0.301
-527.033	-128.678	0.092	-0.013
-526.018	174.245	0.103	-0.148
-525.004	800.000	0.088	-0.305
-523.989	693.736	0.057	-0.149
-522.975	-92.980	-0.062	0.017
-521.960	-200.000	0.026	0.130
-520.945	-23.195	-0.091	-0.054
-519.931	254.891	0.208	-0.354
-518.916	-200.000	0.023	0.431
-517.902	32.432	-0.237	0.204
-516.887	-42.217	0.289	0.147
-515.872	30.898	0.114	0.097
-514.858	12.532	0.033	0.025
-513.843	800.000	0.023	-0.090
-512.829	800.000	-0.065	0.186
-511.814	-200.000	-0.042	-0.259
-510.799	-1.295	-0.093	-0.065
-509.785	-124.558	0.068	-0.010
-508.770	-174.316	-0.231	-0.007
-507.756	-29.413	0.254	-0.145
-506.741	-200.000	-0.011	-0.200
-505.726	-78.580	-0.021	-0.007
-504.712	800.000	-0.123	-0.465
-503.697	800.000	0.108	0.349
-502.683	-120.731	-0.275	0.046
-501.668	-68.847	0.214	-0.082
-500.653	155.668	-0.191	0.261
-499.639	-200.000	-0.009	0.222
-498.624	-33.150	0.017	-0.009
-497.610	800.000	-0.061	-0.231
-496.595	-143.543	-0.224	-0.021
-495.581	57.549	0.271	-0.264
-494.566	48.112	-0.228	0.213
-493.551	302.624	0.159	-0.294
-492.537	79.075	-0.095	0.102
-491.522	-123.360	-0.243	0.039
-490.508	22.463	0.261	-0.212
-489.493	800.000	-0.065	0.234
-488.478	800.000	-0.049	-0.177
-487.464	800.000	0.155	-0.573
-486.449	-122.383	0.127	-0.021
-485.435	8.039	-0.012	0.009
-484.420	128.312	-0.127	0.160
-483.405	800.000	-0.127	-0.382
-482.391	800.000	0.028	-0.104
-481.376	78.676	-0.115	0.122
-480.362	-85.055	0.325	0.101
-479.347	-51.820	-0.340	-0.158
-478.332	85.897	-0.241	-0.264
-477.318	-76.649	0.163	-0.057
-476.303	-200.000	0.010	-0.138
-475.289	-42.429	-0.223	0.113
-474.274	-200.000	-0.012	-0.062
-473.259	800.000	-0.009	-0.033
-472.245	-88.779	-0.309	-0.091
-471.230	207.756	-0.193	-0.300
-470.216	38.672	-0.097	0.086
-469.201	7.516	0.062	0.046
-468.186	-108.259	-0.155	-0.033
-467.172	70.322	-0.230	-0.236
-466.157	800.000	0.089	-0.273
-465.143	800.000	0.058	0.220
-464.128	-101.778	0.227	-0.055
-463.113	100.208	0.169	0.195
-462.099	-127.559	-0.332	-0.048
-461.084	-162.806	0.274	0.013
-460.070	-124.271	0.198	-0.031
-459.055	-200.000	0.026	-0.208
-458.040	-59.975	-0.176	0.075
-457.026	-189.126	-0.219	-0.003
-456.011	-2.974	-0.451	0.313
-454.997	-200.000	0.003	-0.068
-453.982	-200.000	-0.053	-0.352
-452.968	19.345	0.431	0.344
-451.953	69.094	-0.051	0.052
-450.938	-71.986	0.270	-0.100
-449.924	38.417	0.100	-0.089
-448.909	123.674	-0.151	0.188
-447.895	232.740	-0.043	0.070
-446.880	-99.417	-0.111	0.028
-445.865	-111.850	-0.404	-0.081
-444.851	16.105	-0.120	0.094
-443.836	70.059	-0.195	-0.200
-442.822	427.432	-0.175	-0.375
-441.807	47.629	0.148	-0.137
-440.792	-94.672	0.163	0.044
-439.778	73.305	0.187	0.194
-438.763	800.000	0.056	0.187
-437.749	-37.442	-0.144	0.077
-436.734	-200.000	-0.056	-0.261
-435.719	-200.000	0.030	0.216
-434.705	556.290	-0.095	-0.228
-433.690	10.564	0.314	-0.238
-432.676	-161.490	0.138	0.007
-431.661	-40.700	0.218	-0.112
-430.646	800.000	0.069	-0.259
-429.632	-200.000	-0.017	-0.287
-428.617	800.000	0.086	-0.356
-427.603	-44.813	0.237	0.117
-426.588	355.105	0.108	0.213
-425.573	-49.955	0.217	-0.102
-424.559	45.206	0.089	0.082
-423.544	-131.939	-0.170	-0.022
-422.530	55.781	-0.082	0.079
-421.515	-95.096	0.131	0.035
-420.500	-141.746	-0.095	-0.009
-419.486	-200.000	-0.003	0.046
-418.471	-200.000	-0.019	0.112
-417.457	48.702	0.088	-0.082
-416.442	-15.475	0.127	-0.081
-415.428	-200.000	0.006	-0.103
-414.413	-93.560	-0.285	-0.078
-413.398	-17.790	0.246	-0.153
-412.384	-39.816	0.212	-0.110
-411.369	53.318	0.124	-0.118
-410.355	263.611	0.210	0.361
-409.340	369.975	0.010	-0.019
-408.325	-149.627	-0.115	0.009
-407.311	-200.000	-0.048	-0.332
-406.296	-133.073	-0.252	-0.032
-405.282	407.390	0.052	-0.109
-404.267	568.639	-0.100	-0.241
-403.252	-114.678	-0.128	0.024
-402.238	675.915	0.083	0.214
-401.223	-165.618	-0.349	0.015
-400.209	77.760	0.184	-0.194
-399.194	579.208	0.067	-0.163
-398.179	311.646	-0.151	-0.280
-397.165	228.620	-0.019	-0.031
-396.150	-200.000	0.055	-0.421
-395.136	-33.059	0.160	-0.088
-394.121	428.178	0.071	-0.152
-393.106	90.797	0.008	0.009
-392.092	1.093	-0.377	0.268
-391.077	-89.971	0.218	0.063
-390.063	203.397	-0.181	0.278
-389.048	-200.000	0.043	0.247
-388.033	-36.225	0.157	0.084
-387.019	132.553	0.217	0.277
-386.004	-106.177	0.364	-0.081
-384.990	-109.376	0.013	-0.003
-383.975	-46.699	-0.037	-0.018
-382.960	-170.790	-0.158	0.005
-381.946	20.395	-0.073	-0.058
-380.931	-93.799	-0.259	0.071
-379.917	156.331	-0.172	0.236
-378.902	-46.064	0.119	0.058
-377.888	-152.148	0.195	-0.014
-376.873	-130.331	0.162	-0.022
-375.858	142.796	0.260	-0.342
-374.844	800.000	-0.041	-0.115
-373.829	-200.000	-0.061	-0.318
-372.815	-73.065	-0.274	-0.100
-371.800	800.000	-0.068	0.279
-370.785	-37.035	-0.302	0.160
-369.771	-200.000	0.011	0.062
-368.756	-24.662	0.318	-0.187
-367.742	-47.104	0.135	0.065
-366.727	179.370	0.126	-0.182
-365.712	-60.142	-0.135	-0.057
-364.698	-77.695	0.515	0.176
-363.683	-200.000	0.023	0.437
-362.669	-128.287	-0.247	0.035
-361.654	800.000	0.037	-0.133
-360.639	37.479	-0.115	0.101
-359.625	58.355	-0.081	0.079
-358.610	380.082	0.070	0.143
-357.596	-57.697	0.243	-0.105
-356.581	-30.347	-0.406	0.228
-355.566	96.835	0.192	0.218
-354.552	409.839	-0.147	0.309
-353.537	265.600	-0.012	0.021
-352.523	-76.155	-0.172	0.060
-351.508	-20.622	0.193	-0.117
-350.493	-62.204	0.298	-0.123
-349.479	50.858	0.262	-0.245
-348.464	124.287	0.114	-0.142
-347.450	-200.000	-0.048	0.485
-346.435	-142.183	0.498	-0.049
-345.420	451.471	-0.057	-0.124
-344.406	-160.588	0.484	-0.026
-343.391	-42.077	-0.186	0.094
-342.377	-133.457	-0.215	0.027
-341.362	18.285	-0.468	0.369
-340.348	-150.346	0.201	0.015
-339.333	199.084	-0.195	0.295
-338.318	99.102	0.148	-0.170
-337.304	-200.000	0.056	0.315
-336.289	-150.975	0.287	0.021
-335.275	-67.400	0.111	-0.043
-334.260	-187.882	-0.056	-0.001
-333.245	654.286	0.082	0.209
-332.231	800.000	0.054	-0.149
-331.216	-200.000	0.041	-0.346
-330.202	-15.390	-0.211	-0.134
-329.187	-77.871	-0.242	0.083
-328.172	-200.000	0.065	-0.314
-327.158	73.756	0.167	-0.173
-326.143	-108.663	-0.129	-0.027
-325.129	-74.585	-0.386	0.137
-324.114	627.038	0.123	0.308
-323.099	800.000	-0.034	0.094
-322.085	-118.457	0.316	0.055
-321.070	-200.000	-0.061	-0.392
-320.056	129.630	0.113	-0.142
-319.041	-200.000	-0.068	0.320
-318.026	77.253	-0.111	-0.117
-317.012	-103.604	0.554	-0.129
-315.997	-57.998	-0.130	-0.056
-314.983	6.500	0.118	0.087
-313.968	-67.231	-0.182	-0.071
-312.953	-91.098	-0.204	0.058
-311.939	51.708	-0.120	0.113
-310.924	79.719	-0.090	0.096
-309.910	663.008	0.173	-0.440
-308.895	800.000	-0.030	-0.110
-307.880	-54.017	-0.412	0.185
-306.866	-19.813	0.239	0.146
-305.851	-121.528	0.127	0.021
-304.837	-200.000	-0.014	0.163
-303.822	800.000	-0.012	0.038
-302.807	800.000	-0.019	-0.060
-301.793	720.896	-0.047	-0.123
-300.778	-200.000	0.001	0.026
-299.764	41.271	-0.354	0.316
-298.749	-14.262	0.111	0.071
-297.735	-55.993	-0.029	0.013
-296.720	-103.491	-0.080	0.019
-295.705	-177.551	-0.321	0.008
-294.691	-1.489	-0.237	-0.165
-293.676	-78.972	-0.274	-0.092
-292.662	209.307	-0.084	-0.129
-291.647	-125.673	0.338	0.051
-290.632	-181.861	-0.114	-0.002
-289.618	-122.200	-0.335	-0.054
-288.603	64.821	0.334	-0.332
-287.589	800.000	-0.080	-0.344
-286.574	-69.600	-0.085	0.032
-285.559	-36.905	0.289	-0.153
-284.545	-75.170	-0.342	-0.121
-283.530	-200.000	0.004	0.216
-282.516	-169.452	0.027	-0.001
-281.501	-200.000	0.021	-0.196
-280.486	334.020	0.117	-0.223
-279.472	800.000	0.040	0.149
-278.457	156.742	0.327	-0.446
-277.443	716.506	-0.041	-0.107
-276.428	-80.294	-0.289	0.095
-275.413	-200.000	-0.009	0.239
-274.399	55.902	0.152	-0.146
-273.384	274.793	-0.029	-0.050
-272.370	576.986	0.106	0.255
-271.355	-135.629	0.355	-0.042
-270.340	-82.543	0.338	-0.108
-269.326	-103.019	0.320	-0.075
-268.311	-139.355	0.494	-0.052
-267.297	307.045	-0.191	-0.351
-266.282	800.000	-0.048	0.198
-265.267	-1.015	0.078	-0.055
-264.253	-200.000	0.155	-0.001
-263.238	800.000	-0.030	0.128
-262.224	-200.000	0.053	-0.254
-261.209	800.000	0.077	-0.224
-260.195	-128.142	-0.128	0.018
-259.180	-35.522	-0.295	0.158
-258.165	359.327	-0.059	-0.116
-257.151	264.014	-0.196	0.337
-256.136	-200.000	0.053	0.248
-255.122	126.104	-0.118	0.147
-254.107	307.871	0.185	-0.341
-253.092	-144.141	0.264	-0.024
-252.078	-88.510	-0.522	-0.153
-251.063	211.812	0.078	-0.121
-250.049	800.000	-0.168	0.620
-249.034	-40.254	0.095	-0.049
-248.019	-35.869	-0.119	-0.063
-247.005	-200.000	0.055	0.260
-245.990	-39.286	-0.058	0.030
-244.976	-89.050	-0.363	0.106
-243.961	-136.057	0.241	0.028
-242.946	-17.229	0.207	0.128
-241.932	603.721	-0.154	0.379
-240.917	93.162	-0.138	0.154
-239.903	5.438	0.117	0.085
-238.888	-148.460	-0.090	0.007
-237.873	331.138	0.113	-0.215
-236.859	130.423	-0.126	0.160
-235.844	22.809	0.147	-0.119
-234.830	189.279	-0.135	0.199
-233.815	800.000	0.087	0.254
-232.800	165.591	-0.065	0.090
-231.786	-89.605	0.122	-0.035
-230.771	-42.629	0.315	0.158
-229.757	-84.215	0.059	0.018
-228.742	392.180	0.110	0.225
-227.727	-122.299	-0.133	0.021
-226.713	-200.000	-0.004	-0.048
-225.698	-1.222	0.160	0.111
-224.684	54.135	0.187	-0.177
-223.669	-164.690	-0.048	0.002
-222.655	-200.000	0.045	0.225
-221.640	2.888	-0.208	0.149
-220.625	-110.197	0.445	0.091
-219.611	66.789	0.128	-0.128
-218.596	-52.950	0.189	-0.086
-217.582	-45.195	0.203	0.099
-216.567	263.199	-0.137	-0.234
-215.552	-200.000	0.008	-0.213
-214.538	-200.000	-0.007	0.124
-213.523	-51.580	0.244	-0.112
-212.509	-48.977	-0.074	0.035
-211.494	-10.972	-0.174	0.113
-210.479	290.850	-0.131	0.235
-209.465	-131.136	-0.036	-0.005
-208.450	52.867	0.101	0.095
-207.436	-200.000	0.021	0.328
-206.421	800.000	-0.094	-0.255
-205.406	260.682	0.055	-0.094
-204.392	492.472	-0.137	0.309
-203.377	-200.000	0.006	0.428
-202.363	211.178	0.175	-0.272
-201.348	65.209	-0.192	-0.191
-200.333	-87.010	-0.209	-0.063
-199.319	147.617	0.208	-0.276
-198.304	800.000	-0.116	-0.361
-197.290	401.582	0.061	0.127
-196.275	800.000	-0.012	0.043
-195.260	-63.026	-0.276	0.112
-194.246	800.000	-0.083	0.262
-193.231	90.844	0.166	0.184
-192.217	420.925	0.055	0.115
-191.202	676.494	-0.171	0.438
-190.187	-74.278	0.035	-0.012
-189.173	-86.728	-0.017	0.005
-188.158	-5.006	-0.131	0.089
-187.144	25.208	0.442	0.361
-186.129	-95.478	-0.168	0.044
-185.114	76.899	-0.214	0.223
-184.100	20.043	0.215	0.171
-183.085	-17.523	0.268	-0.166
-182.071	133.032	0.130	0.165
-181.056	-122.196	-0.053	0.009
-180.042	15.876	0.111	-0.086
-179.027	138.583	0.225	-0.290
-178.012	70.164	0.106	-0.108
-176.998	243.837	-0.024	-0.040
-175.983	411.096	0.078	0.163
-174.969	-82.133	0.319	-0.102
-173.954	-200.000	0.023	0.225
-172.939	800.000	-0.012	0.038
-171.925	103.686	-0.088	-0.101
-170.910	26.173	0.350	-0.287
-169.896	-200.000	-0.021	-0.344
-168.881	351.381	0.072	0.141
-167.866	800.000	0.114	-0.309
-166.852	-200.000	0.005	0.077
-165.837	-19.091	0.181	0.110
-164.823	57.690	0.242	-0.233
-163.808	97.673	0.122	0.138
-162.793	-152.312	-0.146	-0.010
-161.779	323.259	0.112	-0.209
-160.764	-90.170	-0.251	-0.072
-159.750	128.304	-0.338	-0.423
-158.735	756.711	-0.033	0.087
-157.720	-200.000	0.006	0.407
-156.706	76.461	-0.040	-0.042
-155.691	-93.566	0.375	0.102
-154.677	-8.268	0.024	-0.016
-153.662	-200.000	-0.017	0.289
-152.647	84.380	-0.354	-0.380
-151.633	525.847	-0.069	-0.160
-150.618	288.397	0.137	-0.244
-149.604	-146.160	-0.221	-0.019
-148.589	-156.440	0.088	-0.005
-147.574	-200.000	-0.009	0.103
-146.560	193.737	-0.114	0.169
-145.545	70.391	-0.152	-0.154
-144.531	-161.230	0.368	0.019
-143.516	800.000	-0.130	0.560
-142.502	-200.000	0.014	0.355
-141.487	-200.000	0.006	-0.105
-140.472	1.136	0.258	-0.182
-139.458	-200.000	-0.006	-0.190
-138.443	490.894	0.064	0.144
-137.429	-34.953	-0.228	-0.122
-136.414	-200.000	0.031	-0.201
-135.399	-122.981	0.306	0.048
-134.385	706.571	-0.048	0.125
-133.370	-200.000	0.041	0.315
-132.356	125.918	-0.081	0.100
-131.341	800.000	-0.047	0.197
-130.326	-200.000	-0.047	-0.270
-129.312	194.239	-0.093	0.138
-128.297	276.384	-0.088	-0.154
-127.283	359.670	0.061	-0.119
-126.268	437.042	0.255	-0.544
-125.253	800.000	-0.063	-0.255
-124.239	-18.185	0.315	0.194
-123.224	-115.685	-0.190	-0.035
-122.210	-8.477	-0.154	0.101
-121.195	394.798	0.126	-0.257
-120.180	536.344	-0.142	-0.330
