DTS Sentinel unit serial number:	SN413079Multiplexer serial number:	ORYXHardware model number:	OX4-SRSoftware version number:	ORYX F/W v4.00 Oryx Data Collector v3.7.2.0data status	okinstallation	princeton_trtdifferential loss correction	single-endedforward channel	channel 3reverse channel	N/Adate	2019/09/17time	08:24:35forward acquisition time	60.00reverse acquisition time	0.00gamma	496.2192k internal	0.2332k external	0.2332temperature offset calibration	0.9939default loss term (dB/km)	0.3790temperature slope calibration	1.0000multiplexer offset coefficient	1.0000multiplexer slope coefficient	1.0000fibre end	0.00T internal ref (°C)	27.50T ext. ref 1 (°C)	0.12T ext. ref 2 (°C)	22.89length (m)	temperature (°C)	Stokes	anti-Stokes-747.200	-76.385	0.417	0.148
-746.185	800.000	-0.099	0.386
-745.171	800.000	-0.123	-0.361
-744.156	-178.690	-0.253	-0.006
-743.142	-200.000	-0.030	0.257
-742.127	379.357	-0.135	0.279
-741.112	-26.112	0.159	-0.094
-740.098	50.373	0.273	0.260
-739.083	-119.754	0.108	0.019
-738.069	587.298	0.120	0.298
-737.054	-200.000	0.029	0.286
-736.039	281.697	0.163	-0.294
-735.025	393.627	0.017	0.036
-734.010	-67.066	0.311	0.123
-732.996	-200.000	0.006	0.291
-731.981	305.418	-0.132	0.247
-730.966	-200.000	0.005	-0.071
-729.952	-168.093	-0.297	-0.012
-728.937	-200.000	-0.024	0.366
-727.923	-200.000	0.069	0.340
-726.908	800.000	-0.059	-0.232
-725.894	800.000	0.145	-0.463
-724.879	74.421	-0.200	0.212
-723.864	168.087	-0.196	0.280
-722.850	800.000	-0.009	-0.035
-721.835	-200.000	0.036	-0.270
-720.821	-83.972	0.293	-0.094
-719.806	-200.000	0.034	0.153
-718.791	52.910	0.196	-0.189
-717.777	-123.890	-0.100	-0.016
-716.762	-123.283	-0.219	-0.035
-715.748	-4.016	0.386	-0.269
-714.733	2.732	-0.178	0.129
-713.718	-130.288	-0.100	-0.014
-712.704	-66.699	-0.282	-0.112
-711.689	-67.027	-0.174	-0.069
-710.675	269.051	-0.094	0.166
-709.660	-167.477	-0.294	0.012
-708.645	-111.010	-0.151	0.031
-707.631	-141.323	-0.297	0.030
-706.616	-83.464	-0.159	-0.051
-705.602	-20.259	0.134	-0.083
-704.587	-98.249	-0.161	-0.041
-703.572	-200.000	-0.004	-0.184
-702.558	-31.627	-0.336	0.189
-701.543	-13.040	0.179	-0.117
-700.529	-200.000	-0.045	-0.226
-699.514	-19.315	0.207	0.129
-698.499	-130.898	-0.129	-0.017
-697.485	-200.000	-0.036	0.184
-696.470	-98.299	-0.051	0.013
-695.456	800.000	-0.038	-0.107
-694.441	435.267	0.047	-0.102
-693.426	-16.474	0.074	-0.047
-692.412	-99.933	-0.281	0.071
-691.397	800.000	0.027	0.104
-690.383	587.557	-0.158	0.390
-689.368	362.958	0.207	0.418
-688.354	29.915	-0.211	0.181
-687.339	800.000	0.027	0.108
-686.324	-27.302	0.241	-0.141
-685.310	-200.000	0.049	0.266
-684.295	120.233	0.262	0.327
-683.281	800.000	-0.111	0.338
-682.266	-200.000	0.053	-0.278
-681.251	-200.000	0.005	-0.179
-680.237	-200.000	0.029	-0.129
-679.222	351.903	-0.172	-0.343
-678.208	351.437	0.100	0.198
-677.193	-73.946	-0.203	-0.074
-676.178	354.816	-0.023	-0.046
-675.164	-107.011	0.587	-0.130
-674.149	6.663	0.153	0.114
-673.135	-171.582	-0.122	-0.004
-672.120	-162.004	-0.382	0.019
-671.105	-80.861	-0.141	0.047
-670.091	-96.972	0.395	0.104
-669.076	-172.037	0.254	0.008
-668.062	522.194	0.058	-0.136
-667.047	800.000	0.041	-0.166
-666.032	800.000	0.033	-0.097
-665.018	121.041	-0.108	0.135
-664.003	77.591	-0.148	-0.158
-662.989	-200.000	0.022	0.218
-661.974	-94.723	0.261	0.071
-660.959	-77.364	-0.166	-0.058
-659.945	-83.267	-0.220	-0.071
-658.930	-71.428	0.340	0.128
-657.916	76.345	-0.103	0.110
-656.901	-71.306	-0.076	-0.029
-655.886	-163.147	-0.216	0.010
-654.872	55.395	-0.162	0.157
-653.857	-35.898	-0.047	0.025
-652.843	-200.000	-0.034	0.325
-651.828	800.000	0.010	-0.040
-650.814	-9.130	0.529	0.355
-649.799	66.075	0.251	-0.255
-648.784	195.276	-0.300	-0.456
-647.770	170.160	-0.171	0.245
-646.755	409.559	0.150	0.319
-645.741	-143.300	-0.359	-0.034
-644.726	800.000	0.039	-0.109
-643.711	-200.000	-0.034	0.214
-642.697	800.000	0.044	0.139
-641.682	-200.000	0.003	0.277
-640.668	-200.000	0.011	0.105
-639.653	138.860	-0.057	0.075
-638.638	-95.565	0.130	-0.035
-637.624	-200.000	-0.019	0.126
-636.609	-200.000	0.048	0.270
-635.595	-200.000	-0.006	-0.261
-634.580	800.000	0.115	-0.456
-633.565	-200.000	-0.005	-0.180
-632.551	-116.876	0.189	-0.035
-631.536	-200.000	-0.047	-0.333
-630.522	-136.528	0.189	0.022
-629.507	-200.000	-0.047	-0.367
-628.492	190.504	0.155	-0.233
-627.478	15.763	0.135	-0.106
-626.463	-29.674	-0.259	0.148
-625.449	197.639	0.096	-0.147
-624.434	-200.000	0.005	0.157
-623.419	-10.394	-0.321	0.213
-622.405	-62.635	0.373	-0.155
-621.390	229.093	-0.029	0.048
-620.376	69.891	0.131	-0.135
-619.361	800.000	0.121	0.421
-618.346	-200.000	-0.054	0.259
-617.332	584.068	-0.050	0.123
-616.317	255.659	-0.064	0.110
-615.303	1.534	-0.275	0.198
-614.288	800.000	-0.028	-0.102
-613.273	-74.818	0.301	-0.108
-612.259	-31.369	-0.070	-0.039
-611.244	-75.397	0.080	0.028
-610.230	-156.125	0.182	-0.011
-609.215	-143.375	0.275	-0.026
-608.201	-87.333	-0.125	-0.038
-607.186	-92.079	0.618	-0.175
-606.171	793.327	-0.108	0.297
-605.157	4.153	-0.144	0.106
-604.142	538.363	0.069	0.164
-603.128	70.667	-0.174	0.180
-602.113	-120.384	0.202	0.034
-601.098	206.641	0.136	0.211
-600.084	-96.684	-0.187	0.049
-599.069	-80.447	0.177	0.059
-598.055	512.916	0.031	-0.072
-597.040	-45.573	-0.216	-0.107
-596.025	330.009	-0.097	0.187
-595.011	-16.421	-0.220	0.139
-593.996	-82.567	0.357	-0.116
-592.982	-200.000	0.011	0.073
-591.967	-72.670	0.114	0.042
-590.952	-197.298	0.104	0.001
-589.938	-126.492	-0.224	0.033
-588.923	-66.217	0.046	-0.018
-587.909	-200.000	-0.165	0.000
-586.894	16.487	-0.149	0.118
-585.879	85.125	0.091	0.099
-584.865	-200.000	-0.011	-0.127
-583.850	800.000	-0.048	0.203
-582.836	-200.000	0.024	-0.230
-581.821	-117.160	0.229	0.042
-580.806	800.000	-0.048	0.171
-579.792	-103.773	-0.352	0.082
-578.777	-200.000	0.038	-0.195
-577.763	687.250	-0.102	-0.267
-576.748	-200.000	-0.050	0.310
-575.733	-200.000	-0.036	0.239
-574.719	-200.000	0.053	-0.250
-573.704	-200.000	-0.009	-0.117
-572.690	800.000	-0.104	-0.307
-571.675	-16.737	0.328	-0.208
-570.661	52.470	0.155	-0.147
-569.646	179.965	0.231	-0.338
-568.631	-141.002	0.222	0.023
-567.617	-72.181	0.131	-0.048
-566.602	-200.000	0.018	0.145
-565.588	-148.341	0.416	-0.034
-564.573	8.672	0.241	-0.181
-563.558	-200.000	0.005	0.341
-562.544	213.526	0.133	-0.211
-561.529	142.863	-0.222	0.295
-560.515	15.920	-0.146	0.115
-559.500	-146.142	-0.135	-0.012
-558.485	-120.059	-0.106	-0.018
-557.471	-56.086	-0.380	-0.169
-556.456	-153.467	0.251	0.017
-555.442	-200.000	-0.026	0.221
-554.427	-26.869	0.336	-0.196
-553.412	-101.603	-0.147	0.036
-552.398	11.232	0.097	-0.074
-551.383	103.480	0.253	0.297
-550.369	800.000	-0.056	0.176
-549.354	-119.208	-0.180	-0.031
-548.339	-200.000	-0.046	-0.318
-547.325	-79.177	0.259	0.088
-546.310	-188.194	0.355	0.005
-545.296	-188.305	-0.227	-0.003
-544.281	-39.294	-0.310	-0.162
-543.266	123.832	-0.047	0.059
-542.252	-200.000	-0.015	0.198
-541.237	-4.180	-0.094	-0.065
-540.223	-61.092	0.087	0.037
-539.208	19.641	0.269	0.216
-538.193	-88.399	-0.089	-0.026
-537.179	-129.061	-0.118	0.016
-536.164	343.252	-0.241	-0.471
-535.150	-52.669	-0.227	0.105
-534.135	-200.000	0.002	0.064
-533.121	73.950	-0.081	0.084
-532.106	428.739	0.058	0.125
-531.091	-89.185	-0.369	-0.109
-530.077	46.578	-0.307	-0.285
-529.062	164.969	0.177	0.249
-528.048	446.187	-0.041	-0.090
-527.033	12.553	0.084	-0.065
-526.018	-122.349	0.240	-0.039
-525.004	93.470	0.026	0.030
-523.989	66.763	-0.083	-0.084
-522.975	-52.772	-0.096	0.044
-521.960	-181.245	-0.185	-0.004
-520.945	5.291	0.270	0.199
-519.931	-54.942	0.163	0.073
-518.916	-19.042	-0.167	-0.103
-517.902	445.909	-0.148	-0.323
-516.887	123.471	0.184	-0.230
-515.872	-158.693	-0.097	0.006
-514.858	198.245	0.111	-0.169
-513.843	122.218	0.212	-0.264
-512.829	-200.000	-0.003	0.057
-511.814	193.017	0.099	-0.150
-510.799	-101.957	-0.416	0.100
-509.785	-42.899	-0.370	0.187
-508.770	-29.162	-0.142	-0.081
-507.756	-66.103	-0.205	0.081
-506.741	267.628	0.119	0.208
-505.726	-200.000	-0.022	-0.381
-504.712	570.957	0.030	0.072
-503.697	-200.000	0.037	-0.360
-502.683	151.275	-0.225	-0.305
-501.668	800.000	0.086	0.275
-500.653	423.329	0.035	0.075
-499.639	800.000	0.110	-0.383
-498.624	134.140	-0.085	-0.109
-497.610	677.656	0.112	0.291
-496.595	-51.391	0.293	0.137
-495.581	-200.000	0.044	0.360
-494.566	-200.000	0.029	-0.606
-493.551	-22.160	-0.299	0.181
-492.537	800.000	-0.032	-0.092
-491.522	161.418	-0.132	0.184
-490.508	-53.116	-0.262	0.120
-489.493	-79.539	-0.443	0.149
-488.478	19.124	-0.080	-0.064
-487.464	-77.096	0.014	-0.005
-486.449	-118.409	-0.048	0.009
-485.435	-48.605	-0.081	0.039
-484.420	-6.814	-0.243	0.164
-483.405	137.384	-0.271	-0.353
-482.391	34.189	-0.111	0.096
-481.376	800.000	0.066	-0.218
-480.362	-200.000	0.022	-0.143
-479.347	374.087	0.095	-0.192
-478.332	774.741	-0.109	-0.295
-477.318	-200.000	0.083	0.379
-476.303	-200.000	0.007	-0.186
-475.289	-200.000	0.040	0.308
-474.274	-90.143	-0.239	-0.069
-473.259	-200.000	-0.022	-0.215
-472.245	-9.983	-0.178	-0.118
-471.230	61.651	0.019	-0.019
-470.216	-3.654	0.286	0.198
-469.201	214.875	-0.123	0.194
-468.186	-200.000	-0.033	0.176
-467.172	-200.000	0.107	-0.631
-466.157	-200.000	0.033	-0.236
-465.143	275.835	-0.191	-0.337
-464.128	282.797	0.068	-0.122
-463.113	-9.102	0.045	-0.030
-462.099	246.823	0.065	-0.110
-461.084	-90.499	0.218	-0.063
-460.070	800.000	0.114	-0.322
-459.055	96.461	0.222	0.253
-458.040	605.204	-0.079	-0.197
-457.026	-64.479	-0.168	0.068
-456.011	-92.606	-0.100	-0.028
-454.997	800.000	-0.039	0.157
-453.982	-79.802	-0.307	0.103
-452.968	200.152	0.028	0.043
-451.953	-144.479	-0.286	0.026
-450.938	-39.332	0.144	-0.075
-449.924	90.126	0.051	-0.057
-448.909	701.786	-0.052	0.137
-447.895	-79.140	-0.252	-0.085
-446.880	-11.826	-0.241	-0.157
-445.865	-200.000	-0.019	-0.167
-444.851	-116.298	0.131	-0.024
-443.836	76.925	-0.120	-0.127
-442.822	-200.000	0.021	0.104
-441.807	-105.495	-0.400	0.090
-440.792	75.434	-0.300	-0.315
-439.778	800.000	0.035	-0.097
-438.763	-82.152	0.285	-0.092
-437.749	193.525	0.130	-0.195
-436.734	53.973	-0.248	-0.237
-435.719	6.359	-0.224	0.165
-434.705	181.166	-0.150	-0.220
-433.690	-86.822	-0.112	0.034
-432.676	-192.759	0.138	0.001
-431.661	53.293	-0.210	0.200
-430.646	-106.158	-0.056	-0.013
-429.632	-111.889	0.180	-0.036
-428.617	-28.971	0.123	0.070
-427.603	74.407	-0.149	0.155
-426.588	-56.850	0.040	-0.017
-425.573	99.744	0.077	0.088
-424.559	800.000	0.124	0.356
-423.544	-59.199	-0.225	0.096
-422.530	-55.107	-0.221	-0.099
-421.515	133.492	0.227	0.291
-420.500	146.042	-0.075	0.099
-419.486	-55.709	-0.188	0.083
-418.471	265.309	-0.089	-0.154
-417.457	146.316	-0.190	-0.253
-416.442	800.000	-0.040	-0.123
-415.428	-88.107	0.327	0.097
-414.413	436.535	-0.117	0.253
-413.398	-200.000	0.001	0.106
-412.384	-16.923	0.171	-0.107
-411.369	83.214	-0.158	0.171
-410.355	456.679	-0.061	-0.135
-409.340	10.012	0.069	0.052
-408.325	-200.000	-0.041	-0.281
-407.311	8.218	0.157	0.117
-406.296	327.834	0.109	-0.208
-405.282	26.631	-0.247	-0.206
-404.267	-17.095	0.033	0.021
-403.252	800.000	0.028	-0.089
-402.238	25.074	-0.076	0.062
-401.223	486.655	-0.059	0.134
-400.209	800.000	-0.095	0.345
-399.194	-126.759	0.028	0.004
-398.179	222.051	-0.097	-0.154
-397.165	-200.000	-0.037	-0.249
-396.150	-71.477	0.224	-0.083
-395.136	160.439	-0.151	0.208
-394.121	-200.000	-0.022	0.134
-393.106	168.448	-0.107	-0.152
-392.092	-2.309	-0.264	0.184
-391.077	-71.656	0.331	-0.123
-390.063	616.632	-0.052	-0.129
-389.048	139.771	-0.078	0.102
-388.033	800.000	0.044	0.191
-387.019	127.712	-0.112	0.142
-386.004	162.181	0.126	0.175
-384.990	-200.000	0.025	0.204
-383.975	-200.000	-0.008	0.098
-382.960	43.921	0.123	0.112
-381.946	-200.000	-0.048	-0.267
-380.931	-42.328	0.048	-0.024
-379.917	-112.301	0.413	-0.082
-378.902	800.000	-0.044	0.176
-377.888	-19.406	-0.089	-0.055
-376.873	15.800	-0.166	0.129
-375.858	-108.230	0.235	0.050
-374.844	275.542	-0.026	0.045
-373.829	-50.571	-0.080	0.038
-372.815	144.237	-0.151	-0.200
-371.800	221.119	-0.110	-0.176
-370.785	528.720	-0.036	-0.083
-369.771	-200.000	0.001	-0.135
-368.756	-93.062	0.205	0.057
-367.742	-120.380	0.383	0.065
-366.727	800.000	0.076	0.326
-365.712	-200.000	0.037	-0.250
-364.698	-154.535	0.292	-0.019
-363.683	-200.000	0.003	-0.234
-362.669	-11.124	-0.059	0.039
-361.654	638.166	-0.077	0.195
-360.639	-122.712	0.061	-0.010
-359.625	112.553	0.121	0.145
-358.610	10.197	0.153	-0.115
-357.596	515.352	0.021	0.049
-356.581	-200.000	0.057	0.275
-355.566	800.000	0.054	0.195
-354.552	580.719	0.001	0.002
-353.537	-26.953	0.549	0.317
-352.523	-200.000	-0.001	0.164
-351.508	-200.000	0.021	-0.391
-350.493	800.000	-0.069	-0.279
-349.479	-45.474	0.070	-0.034
-348.464	-48.193	0.136	0.065
-347.450	145.486	0.157	0.209
-346.435	-200.000	-0.004	0.050
-345.420	156.580	-0.171	0.234
-344.406	-179.749	0.185	0.004
-343.391	800.000	0.076	-0.297
-342.377	2.581	0.262	0.188
-341.362	-144.880	-0.267	0.024
-340.348	39.037	-0.120	-0.106
-339.333	-57.345	0.088	-0.038
-338.318	-78.347	0.300	-0.102
-337.304	-78.873	0.180	0.061
-336.289	-29.214	0.273	0.155
-335.275	-108.595	0.221	0.047
-334.260	800.000	-0.109	-0.314
-333.245	4.561	-0.191	-0.139
-332.231	528.629	-0.070	-0.163
-331.216	-137.490	0.046	0.005
-330.202	-200.000	0.039	0.308
-329.187	-160.201	-0.408	-0.022
-328.172	-17.981	-0.253	0.157
-327.158	-96.946	0.182	-0.047
-326.143	-34.922	0.125	0.068
-325.129	-41.718	0.068	-0.034
-324.114	301.974	0.113	0.206
-323.099	800.000	-0.029	0.116
-322.085	-87.664	0.151	-0.045
-321.070	-200.000	0.470	-0.001
-320.056	1.940	-0.264	-0.189
-319.041	198.570	-0.056	-0.084
-318.026	714.596	0.035	0.092
-317.012	-200.000	-0.103	0.450
-315.997	-200.000	-0.001	-0.120
-314.983	20.903	-0.328	0.263
-313.968	-158.267	0.029	-0.002
-312.953	-200.000	0.017	-0.154
-311.939	40.899	-0.094	-0.084
-310.924	11.183	0.293	-0.222
-309.910	418.062	0.150	0.318
-308.895	-200.000	-0.029	0.141
-307.880	-200.000	-0.080	-0.387
-306.866	37.927	0.247	0.217
-305.851	74.572	0.266	-0.277
-304.837	-9.819	-0.042	0.027
-303.822	63.001	-0.312	-0.309
-302.807	178.659	-0.248	0.359
-301.793	6.238	-0.233	0.171
-300.778	-200.000	0.013	0.396
-299.764	-81.174	-0.314	0.103
-298.749	-11.413	-0.178	0.116
-297.735	-105.248	0.246	0.056
-296.720	2.088	-0.264	0.188
-295.705	-200.000	0.016	-0.094
-294.691	81.230	0.083	-0.088
-293.676	-52.367	0.127	-0.058
-292.662	800.000	-0.105	0.319
-291.647	261.464	-0.047	0.081
-290.632	-200.000	-0.029	0.169
-289.618	232.634	-0.106	0.172
-288.603	-127.810	0.096	-0.014
-287.589	-151.938	-0.272	0.020
-286.574	-119.387	0.398	0.068
-285.559	-132.153	0.380	-0.049
-284.545	-20.657	-0.079	0.048
-283.530	-200.000	-0.039	0.185
-282.516	503.478	0.052	0.120
-281.501	800.000	-0.054	0.159
-280.486	-89.682	0.307	0.089
-279.472	-37.872	-0.247	0.130
-278.457	-149.178	0.063	0.005
-277.443	75.497	0.049	0.051
-276.428	-200.000	-0.038	0.203
-275.413	800.000	0.072	-0.227
-274.399	-29.433	-0.338	0.191
-273.384	-110.953	0.236	-0.048
-272.370	-200.000	-0.009	0.220
-271.355	421.585	-0.120	-0.254
-270.340	800.000	0.097	-0.301
-269.326	140.469	-0.235	0.306
-268.311	-92.859	-0.074	-0.021
-267.297	43.358	0.064	-0.058
-266.282	-200.000	0.023	-0.285
-265.267	800.000	0.027	-0.109
-264.253	800.000	-0.035	0.125
-263.238	0.587	0.045	-0.032
-262.224	-92.380	0.099	-0.028
-261.209	37.743	0.004	-0.003
-260.195	35.716	-0.182	0.158
-259.180	-51.528	0.106	-0.049
-258.165	-171.969	0.350	-0.011
-257.151	108.151	0.184	0.217
-256.136	-179.980	0.089	-0.002
-255.122	-142.371	0.241	-0.023
-254.107	-0.462	0.154	-0.108
-253.092	-124.318	-0.391	-0.060
-252.078	-200.000	0.024	0.132
-251.063	-24.680	-0.172	-0.101
-250.049	132.912	-0.097	-0.124
-249.034	117.910	-0.224	-0.273
-248.019	-118.310	0.110	-0.019
-247.005	-82.318	0.326	0.105
-245.990	-128.753	-0.136	-0.019
-244.976	-47.876	0.140	0.067
-243.961	-200.000	-0.017	-0.131
-242.946	41.314	-0.083	0.074
-241.932	25.119	0.174	0.142
-240.917	-200.000	-0.018	-0.449
-239.903	-108.137	-0.074	0.016
-238.888	-42.863	-0.148	0.074
-237.873	31.640	-0.221	-0.187
-236.859	-11.623	-0.092	-0.060
-235.844	262.595	-0.108	0.185
-234.830	185.477	0.082	-0.120
-233.815	-200.000	0.015	-0.136
-232.800	800.000	-0.024	0.085
-231.786	-70.205	0.146	-0.055
-230.771	-41.427	0.331	0.168
-229.757	-32.421	-0.239	-0.132
-228.742	219.679	0.090	0.141
-227.727	56.137	-0.345	-0.330
-226.713	182.636	-0.145	0.211
-225.698	-136.874	-0.446	0.050
-224.684	-200.000	-0.025	-0.206
-223.669	-50.526	0.210	-0.098
-222.655	-68.006	-0.168	-0.065
-221.640	147.963	0.101	-0.134
-220.625	70.989	0.091	0.093
-219.611	-200.000	-0.017	-0.247
-218.596	17.108	0.204	-0.160
-217.582	666.640	0.189	0.482
-216.567	-200.000	-0.007	0.043
-215.552	-142.741	-0.104	-0.010
-214.538	-100.083	0.239	-0.059
-213.523	599.909	-0.060	0.147
-212.509	-200.000	0.165	-0.001
-211.494	-130.213	-0.320	-0.043
-210.479	110.383	-0.124	0.146
-209.465	-106.010	-0.205	0.045
-208.450	-155.171	0.287	-0.018
-207.436	800.000	0.058	0.194
-206.421	-36.239	0.191	0.101
-205.406	112.263	-0.188	-0.224
-204.392	-162.915	0.212	-0.010
-203.377	313.821	-0.120	0.222
-202.363	-50.493	-0.023	0.011
-201.348	-144.336	-0.313	0.029
-200.333	128.176	-0.057	0.071
-199.319	48.729	0.249	-0.230
-198.304	-200.000	0.069	-0.529
-197.290	-137.881	0.301	-0.033
-196.275	142.653	-0.286	-0.374
-195.260	-200.000	0.013	-0.139
-194.246	-46.796	0.038	0.018
-193.231	85.718	-0.132	0.143
-192.217	-9.940	0.130	0.085
-191.202	-49.475	-0.166	-0.078
-190.187	199.398	0.157	0.236
-189.173	-34.750	-0.319	0.172
-188.158	-112.615	-0.083	0.016
-187.144	157.717	-0.044	0.060
-186.129	-200.000	-0.003	0.145
-185.114	800.000	0.041	0.139
-184.100	-22.934	-0.182	0.108
-183.085	180.246	-0.171	0.247
-182.071	117.549	0.092	0.112
-181.056	-125.395	0.048	-0.007
-180.042	-88.696	0.209	-0.061
-179.027	-192.631	0.254	-0.002
-178.012	800.000	-0.071	0.212
-176.998	-33.508	-0.131	-0.071
-175.983	800.000	0.032	0.104
-174.969	-84.289	-0.119	-0.037
-173.954	-73.077	0.270	-0.097
-172.939	-200.000	0.015	-0.235
-171.925	31.322	0.172	-0.145
-170.910	-81.252	0.132	-0.043
-169.896	-84.644	-0.351	-0.109
-168.881	10.101	0.120	-0.090
-167.866	-28.899	-0.090	-0.051
-166.852	-200.000	0.014	0.067
-165.837	-200.000	-0.135	-0.000
-164.823	-113.437	0.147	-0.028
-163.808	59.824	-0.120	0.117
-162.793	89.599	-0.116	0.128
-161.779	319.106	0.252	-0.469
-160.764	-122.688	0.409	0.065
-159.750	239.104	-0.107	-0.174
-158.735	-97.162	0.407	-0.105
-157.720	-148.457	0.215	0.017
-156.706	-23.419	-0.206	0.122
-155.691	50.326	0.074	-0.068
-154.677	6.423	-0.228	0.167
-153.662	192.295	0.141	-0.209
-152.647	220.950	0.199	0.314
-151.633	316.746	-0.038	0.071
-150.618	800.000	0.070	0.208
-149.604	-200.000	0.002	-0.124
-148.589	-112.159	-0.316	0.062
-147.574	-184.769	0.290	0.005
-146.560	55.668	0.109	-0.104
-145.545	129.607	-0.230	0.289
-144.531	121.437	-0.164	-0.200
-143.516	-68.126	-0.081	-0.031
-142.502	209.977	-0.126	0.194
-141.487	800.000	0.030	-0.087
-140.472	144.001	0.285	-0.374
-139.458	-200.000	0.034	0.189
-138.443	45.168	-0.086	-0.078
-137.429	132.587	0.193	-0.245
-136.414	-100.661	0.239	0.058
-135.399	-200.000	0.049	-0.328
-134.385	31.095	-0.151	-0.127
-133.370	-52.136	0.121	0.055
-132.356	800.000	0.096	-0.303
-131.341	209.660	0.145	-0.224
-130.326	-78.849	0.163	0.054
-129.312	-118.052	-0.192	-0.034
-128.297	800.000	0.099	0.268
-127.283	-200.000	0.024	-0.180
-126.268	1.753	0.111	0.078
-125.253	-200.000	0.081	-0.356
-124.239	-200.000	0.009	-0.053
-123.224	-200.000	-0.055	0.514
-122.210	-57.960	0.084	-0.036
