DTS Sentinel unit serial number:	SN413079Multiplexer serial number:	ORYXHardware model number:	OX4-SRSoftware version number:	ORYX F/W v4.00 Oryx Data Collector v3.7.2.0data status	okinstallation	princeton_trtdifferential loss correction	single-endedforward channel	channel 3reverse channel	N/Adate	2019/09/16time	09:52:35forward acquisition time	60.00reverse acquisition time	0.00gamma	496.2192k internal	0.2316k external	0.2316temperature offset calibration	0.9954default loss term (dB/km)	0.3790temperature slope calibration	1.0000multiplexer offset coefficient	1.0000multiplexer slope coefficient	1.0000fibre end	0.00T internal ref (°C)	32.98T ext. ref 1 (°C)	12.34T ext. ref 2 (°C)	31.00length (m)	temperature (°C)	Stokes	anti-Stokes-747.200	69.322	0.181	0.189
-746.185	800.000	0.057	-0.176
-745.171	18.998	-0.174	0.141
-744.156	-200.000	-0.045	0.233
-743.142	96.707	0.156	0.181
-742.127	643.811	-0.182	0.469
-741.112	300.588	0.024	0.044
-740.098	-200.000	0.060	0.409
-739.083	-63.891	0.322	-0.133
-738.069	-88.244	0.421	-0.128
-737.054	-45.349	-0.178	-0.089
-736.039	197.624	-0.116	-0.179
-735.025	-71.222	0.347	0.132
-734.010	176.079	0.069	-0.102
-732.996	-31.933	-0.259	-0.147
-731.981	-175.674	0.240	-0.007
-730.966	164.689	0.336	-0.479
-729.952	-163.559	0.118	-0.006
-728.937	-137.161	-0.546	-0.063
-727.923	-84.427	0.179	0.057
-726.908	-175.109	0.217	-0.006
-725.894	-146.920	-0.099	-0.009
-724.879	-200.000	0.004	0.098
-723.864	442.506	-0.205	-0.455
-722.850	-38.255	-0.076	0.041
-721.835	-170.984	0.275	0.009
-720.821	206.974	-0.095	-0.149
-719.806	-43.080	-0.562	-0.288
-718.791	75.080	0.134	-0.143
-717.777	290.545	0.097	-0.179
-716.762	93.339	-0.217	-0.249
-715.748	-103.046	-0.111	0.027
-714.733	56.630	-0.359	0.353
-713.718	595.145	-0.042	0.104
-712.704	591.588	0.048	0.119
-711.689	-133.354	-0.226	-0.029
-710.675	234.059	0.114	-0.190
-709.660	26.736	0.078	-0.066
-708.645	210.097	0.056	0.089
-707.631	214.236	-0.121	-0.194
-706.616	338.682	0.081	0.159
-705.602	-200.000	0.028	0.182
-704.587	800.000	0.037	-0.118
-703.572	310.734	0.070	-0.133
-702.558	-118.036	-0.381	-0.069
-701.543	63.142	0.183	-0.186
-700.529	703.596	0.020	-0.052
-699.514	-180.721	-0.200	0.004
-698.499	78.097	0.185	-0.199
-697.485	492.222	-0.061	-0.141
-696.470	-59.171	0.339	0.148
-695.456	145.547	-0.186	-0.251
-694.441	67.188	0.169	-0.174
-693.426	106.917	-0.158	-0.190
-692.412	-113.979	-0.233	-0.046
-691.397	65.378	0.044	0.045
-690.383	654.039	-0.134	-0.348
-689.368	481.309	-0.072	-0.164
-688.354	-148.813	0.437	-0.036
-687.339	-107.798	-0.213	-0.047
-686.324	-80.683	0.108	-0.036
-685.310	-200.000	-0.050	-0.568
-684.295	-200.000	-0.040	-0.276
-683.281	-122.606	-0.269	0.044
-682.266	-97.953	-0.384	0.100
-681.251	-20.999	0.100	-0.062
-680.237	-155.670	0.179	-0.012
-679.222	-99.456	-0.416	-0.106
-678.208	-200.000	0.015	0.300
-677.193	-172.656	0.149	0.005
-676.178	800.000	-0.098	0.301
-675.164	-93.473	0.284	0.080
-674.149	181.003	0.138	-0.205
-673.135	800.000	-0.053	0.224
-672.120	-45.889	0.298	-0.148
-671.105	-200.000	0.038	-0.429
-670.091	-57.858	0.346	0.153
-669.076	-200.000	0.010	-0.178
-668.062	69.502	0.253	-0.263
-667.047	-200.000	-0.005	0.129
-666.032	13.369	-0.080	0.062
-665.018	40.272	0.337	-0.306
-664.003	-200.000	-0.053	-0.264
-662.989	-115.310	0.257	-0.049
-661.974	-66.078	-0.406	-0.163
-660.959	632.310	-0.015	-0.038
-659.945	371.579	-0.125	-0.256
-658.930	204.249	-0.135	-0.212
-657.916	-200.000	-0.068	-0.334
-656.901	563.261	0.059	-0.143
-655.886	-142.111	-0.218	-0.022
-654.872	75.894	-0.114	-0.121
-653.857	20.772	0.125	-0.102
-652.843	52.208	-0.140	-0.134
-651.828	215.131	-0.187	0.299
-650.814	-39.710	-0.259	-0.137
-649.799	-48.493	-0.221	0.107
-648.784	-39.757	-0.237	-0.125
-647.770	800.000	0.100	-0.365
-646.755	105.086	0.060	0.071
-645.741	-61.829	-0.116	-0.049
-644.726	800.000	0.039	0.149
-643.711	-200.000	-0.005	0.509
-642.697	29.719	-0.270	-0.232
-641.682	-111.143	0.274	0.057
-640.668	52.753	0.320	0.309
-639.653	800.000	-0.014	0.048
-638.638	-132.179	-0.159	0.021
-637.624	800.000	0.007	0.026
-636.609	213.887	-0.047	-0.075
-635.595	800.000	-0.085	0.279
-634.580	404.491	-0.041	-0.088
-633.565	545.741	-0.042	0.101
-632.551	-200.000	-0.014	0.070
-631.536	-200.000	0.011	0.237
-630.522	212.108	0.026	-0.041
-629.507	-68.326	-0.176	-0.069
-628.492	533.408	-0.142	-0.339
-627.478	-200.000	0.032	0.233
-626.463	-200.000	-0.049	-0.506
-625.449	215.323	0.102	-0.163
-624.434	394.056	0.088	-0.184
-623.419	133.777	0.240	0.312
-622.405	-26.965	0.078	0.046
-621.390	-33.252	0.111	-0.062
-620.376	28.218	-0.116	-0.099
-619.361	-97.657	0.126	0.033
-618.346	-54.828	-0.191	0.087
-617.332	56.270	0.122	-0.119
-616.317	293.023	-0.075	0.138
-615.303	-30.945	-0.134	-0.076
-614.288	249.471	0.168	-0.287
-613.273	-163.550	0.168	-0.008
-612.259	-45.827	-0.161	0.080
-611.244	800.000	-0.009	-0.031
-610.230	77.659	0.046	0.049
-609.215	800.000	-0.048	0.160
-608.201	-200.000	0.102	-0.484
-607.186	188.117	0.137	0.206
-606.171	-200.000	0.045	0.319
-605.157	119.563	-0.155	0.193
-604.142	-81.107	-0.271	-0.090
-603.128	-22.489	0.225	0.137
-602.113	171.577	-0.086	0.125
-601.098	180.265	-0.096	-0.142
-600.084	800.000	0.032	-0.097
-599.069	-200.000	-0.015	-0.139
-598.055	-63.204	0.211	0.088
-597.040	-165.709	0.095	0.004
-596.025	138.933	0.273	0.361
-595.011	-92.687	-0.490	0.138
-593.996	800.000	-0.131	-0.402
-592.982	-69.737	0.214	0.082
-591.967	-50.301	-0.281	-0.134
-590.952	62.067	0.020	0.020
-589.938	800.000	-0.048	-0.195
-588.923	-200.000	0.036	0.397
-587.909	120.302	-0.151	0.188
-586.894	100.535	-0.211	0.247
-585.879	-81.424	0.179	0.059
-584.865	-200.000	-0.023	-0.218
-583.850	43.860	-0.087	0.080
-582.836	800.000	0.043	-0.148
-581.821	800.000	-0.112	-0.317
-580.806	-55.386	-0.186	-0.084
-579.792	196.278	0.079	0.121
-578.777	-117.603	-0.164	-0.030
-577.763	281.341	0.265	0.477
-576.748	92.865	0.152	0.173
-575.733	224.914	0.081	-0.131
-574.719	317.760	0.080	0.152
-573.704	-54.710	-0.105	0.048
-572.690	-43.677	0.495	0.251
-571.675	-109.539	-0.061	0.013
-570.661	-92.691	0.423	0.119
-569.646	-50.677	-0.082	0.039
-568.631	35.225	-0.179	-0.158
-567.617	-97.897	0.207	0.054
-566.602	-200.000	-0.007	0.317
-565.588	89.064	0.161	-0.180
-564.573	129.240	0.163	0.209
-563.558	179.369	-0.042	0.061
-562.544	446.766	0.121	0.269
-561.529	-200.000	0.002	0.220
-560.515	30.128	0.048	-0.041
-559.500	495.466	-0.079	0.183
-558.485	25.379	0.075	0.063
-557.471	55.608	-0.424	0.413
-556.456	556.205	-0.115	0.278
-555.442	-15.677	-0.242	0.155
-554.427	-149.326	0.018	0.001
-553.412	51.964	0.224	0.214
-552.398	-161.858	0.143	-0.007
-551.383	18.176	-0.090	-0.072
-550.369	-28.539	-0.186	-0.108
-549.354	-200.000	-0.042	0.250
-548.339	-165.263	-0.446	-0.020
-547.325	-200.000	-0.021	-0.232
-546.310	800.000	0.162	0.453
-545.296	-65.331	-0.214	0.086
-544.281	-51.140	0.085	-0.040
-543.266	800.000	0.025	-0.082
-542.252	-59.603	-0.400	-0.172
-541.237	-79.649	-0.231	0.078
-540.223	-53.254	-0.271	-0.125
-539.208	-200.000	0.112	-0.604
-538.193	-200.000	-0.054	-0.408
-537.179	-194.074	-0.218	-0.002
-536.164	-122.555	0.148	0.024
-535.150	227.345	-0.117	0.191
-534.135	114.181	0.352	-0.430
-533.121	-64.704	-0.148	-0.060
-532.106	800.000	0.023	-0.093
-531.091	180.256	-0.157	-0.231
-530.077	-5.372	-0.272	-0.188
-529.062	-21.026	-0.134	0.082
-528.048	-200.000	0.010	-0.404
-527.033	284.910	-0.177	-0.320
-526.018	74.466	0.204	0.216
-525.004	-200.000	0.004	0.259
-523.989	800.000	0.042	-0.151
-522.975	-19.642	0.197	0.123
-521.960	-24.379	-0.132	0.079
-520.945	401.026	0.012	-0.026
-519.931	-72.082	0.354	0.132
-518.916	19.850	-0.078	0.063
-517.902	122.128	-0.231	-0.290
-516.887	288.647	0.099	-0.180
-515.872	26.841	0.350	-0.294
-514.858	189.761	0.174	0.262
-513.843	-174.526	-0.254	-0.007
-512.829	-110.155	-0.312	-0.065
-511.814	47.111	-0.262	0.245
-510.799	-200.000	-0.023	-0.125
-509.785	-200.000	0.015	-0.103
-508.770	373.847	0.116	-0.237
-507.756	-52.870	-0.192	0.089
-506.741	-200.000	0.056	-0.258
-505.726	-109.055	0.400	-0.085
-504.712	-12.192	-0.186	0.122
-503.697	-57.442	0.163	0.072
-502.683	557.032	0.074	-0.178
-501.668	-200.000	-0.005	-0.050
-500.653	93.162	0.157	0.178
-499.639	138.835	-0.257	0.339
-498.624	-47.321	-0.229	0.112
-497.610	29.015	-0.123	0.105
-496.595	-200.000	0.033	-0.235
-495.581	800.000	-0.082	-0.283
-494.566	-178.003	0.198	0.005
-493.551	10.151	-0.100	0.077
-492.537	225.917	-0.079	-0.129
-491.522	-32.860	0.307	0.171
-490.508	37.901	0.375	0.334
-489.493	24.605	0.069	0.058
-488.478	23.805	-0.079	-0.065
-487.464	800.000	0.075	-0.232
-486.449	-127.288	0.334	0.049
-485.435	-147.372	-0.267	-0.023
-484.420	49.994	0.223	0.211
-483.405	-100.460	-0.126	0.031
-482.391	-200.000	-0.016	0.172
-481.376	-52.261	-0.459	0.213
-480.362	2.479	-0.147	0.107
-479.347	38.973	-0.059	0.053
-478.332	-156.083	-0.265	-0.017
-477.318	800.000	0.079	0.342
-476.303	-7.661	0.222	-0.150
-475.289	-200.000	-0.028	0.335
-474.274	44.649	0.280	0.258
-473.259	51.131	0.215	0.204
-472.245	369.479	0.117	0.237
-471.230	-113.867	0.113	0.022
-470.216	41.178	0.350	-0.317
-469.201	543.397	-0.020	-0.047
-468.186	46.356	0.239	0.222
-467.172	-200.000	-0.019	-0.268
-466.157	800.000	-0.048	-0.159
-465.143	74.817	0.099	0.105
-464.128	800.000	0.058	0.163
-463.113	-200.000	-0.016	-0.170
-462.099	1.278	-0.305	0.219
-461.084	11.403	-0.318	0.244
-460.070	-84.617	0.420	0.133
-459.055	800.000	-0.042	0.169
-458.040	-31.669	-0.581	0.327
-457.026	34.909	0.219	0.192
-456.011	532.382	-0.031	-0.074
-454.997	99.183	-0.144	-0.167
-453.982	286.649	-0.145	0.261
-452.968	114.679	0.047	0.057
-451.953	448.875	0.261	0.575
-450.938	-182.735	-0.189	-0.003
-449.924	-107.186	0.283	-0.063
-448.909	-200.000	0.009	-0.272
-447.895	10.050	-0.121	-0.092
-446.880	-200.000	-0.008	0.090
-445.865	703.764	0.059	-0.157
-444.851	-200.000	0.062	-0.444
-443.836	14.413	-0.212	0.166
-442.822	115.523	-0.160	-0.196
-441.807	800.000	0.028	-0.116
-440.792	800.000	-0.055	-0.177
-439.778	248.944	-0.163	-0.276
-438.763	95.541	-0.033	-0.038
-437.749	800.000	0.092	0.384
-436.734	-200.000	-0.002	0.261
-435.719	800.000	-0.058	-0.194
-434.705	-115.430	0.377	0.071
-433.690	-200.000	0.043	-0.265
-432.676	800.000	-0.075	0.284
-431.661	-194.916	0.350	-0.003
-430.646	113.963	-0.093	0.113
-429.632	800.000	0.049	-0.190
-428.617	-35.126	0.195	-0.106
-427.603	31.825	-0.216	0.186
-426.588	-166.285	0.140	0.006
-425.573	-100.541	0.137	0.034
-424.559	-16.065	0.207	0.131
-423.544	-164.264	0.430	-0.020
-422.530	51.979	-0.261	-0.248
-421.515	118.420	-0.204	-0.252
-420.500	182.783	-0.233	-0.344
-419.486	-200.000	-0.031	0.163
-418.471	58.693	0.119	-0.116
-417.457	-15.058	-0.243	-0.156
-416.442	267.933	-0.112	-0.195
-415.428	-164.513	0.127	0.006
-414.413	800.000	-0.036	0.142
-413.398	-200.000	-0.036	-0.232
-412.384	-11.825	-0.101	-0.066
-411.369	151.071	-0.107	0.145
-410.355	35.941	0.072	-0.063
-409.340	24.765	-0.156	0.129
-408.325	-161.681	0.078	0.004
-407.311	-158.392	-0.130	0.008
-406.296	-200.000	-0.005	0.041
-405.282	96.590	-0.260	0.298
-404.267	-67.088	0.156	0.061
-403.252	-88.273	0.099	-0.030
-402.238	-77.918	-0.272	-0.094
-401.223	-200.000	-0.004	-0.080
-400.209	-200.000	0.007	-0.294
-399.194	-119.830	-0.316	0.054
-398.179	-38.643	-0.080	-0.042
-397.165	-126.147	-0.166	-0.025
-396.150	-54.394	-0.146	-0.066
-395.136	-101.759	0.148	0.036
-394.121	-77.474	0.209	-0.072
-393.106	199.610	-0.069	-0.106
-392.092	-127.562	-0.109	-0.016
-391.077	9.314	0.086	0.065
-390.063	32.967	-0.124	0.107
-389.048	-122.840	0.371	-0.060
-388.033	-99.658	-0.122	0.031
-387.019	-122.133	-0.225	0.037
-386.004	-200.000	-0.034	-0.217
-384.990	-99.417	-0.107	0.027
-383.975	155.020	0.107	-0.147
-382.960	187.160	0.158	0.236
-381.946	-72.710	0.138	0.051
-380.931	-200.000	-0.024	-0.348
-379.917	-200.000	-0.041	-0.269
-378.902	-200.000	-0.011	0.202
-377.888	-3.620	-0.263	-0.182
-376.873	-115.686	0.290	-0.054
-375.858	246.889	0.096	-0.161
-374.844	293.945	0.086	-0.156
-373.829	-32.043	-0.474	-0.265
-372.815	800.000	-0.054	-0.174
-371.800	510.701	-0.133	-0.308
-370.785	221.080	0.133	0.214
-369.771	262.435	0.120	0.208
-368.756	-100.427	0.085	-0.021
-367.742	-58.521	0.318	0.138
-366.727	-141.995	0.114	-0.011
-365.712	800.000	-0.032	-0.128
-364.698	800.000	0.007	0.029
-363.683	21.451	-0.301	-0.244
-362.669	515.043	0.185	-0.430
-361.654	-88.663	0.029	0.009
-360.639	49.802	-0.164	0.155
-359.625	-129.498	0.174	-0.024
-358.610	80.782	-0.273	0.293
-357.596	-80.338	-0.150	0.050
-356.581	-200.000	-0.083	0.398
-355.566	-200.000	-0.006	-0.133
-354.552	-106.315	0.214	-0.048
-353.537	-139.086	-0.271	0.029
-352.523	-130.101	0.055	0.008
-351.508	800.000	0.088	-0.275
-350.493	199.354	-0.196	0.300
-349.479	-91.273	-0.199	-0.057
-348.464	76.986	0.077	0.081
-347.450	57.418	-0.281	-0.273
-346.435	-4.865	-0.072	0.049
-345.420	49.221	-0.105	-0.099
-344.406	-127.829	-0.306	0.044
-343.391	800.000	-0.074	0.204
-342.377	-115.125	0.643	0.122
-341.362	6.581	-0.127	0.094
-340.348	-148.814	0.055	0.004
-339.333	-200.000	0.012	-0.159
-338.318	-146.493	-0.185	-0.016
-337.304	710.166	-0.194	0.512
-336.289	-84.588	0.313	-0.098
-335.275	-14.246	0.094	0.060
-334.260	13.100	-0.053	0.041
-333.245	62.749	0.147	-0.146
-332.231	153.205	0.165	-0.225
-331.216	-200.000	-0.027	0.168
-330.202	-167.619	-0.334	-0.013
-329.187	366.813	0.047	-0.095
-328.172	800.000	0.049	-0.156
-327.158	-200.000	0.004	0.369
-326.143	-191.588	0.167	-0.002
-325.129	332.854	0.132	-0.253
-324.114	-200.000	-0.045	-0.246
-323.099	-175.098	-0.246	0.007
-322.085	-80.741	-0.359	0.119
-321.070	37.651	-0.057	0.051
-320.056	53.502	0.168	0.160
-319.041	-47.461	0.048	-0.023
-318.026	550.099	-0.064	-0.152
-317.012	99.632	0.081	0.094
-315.997	41.478	0.056	-0.050
-314.983	-200.000	0.017	-0.191
-313.968	-87.906	-0.144	0.043
-312.953	34.494	-0.163	0.141
-311.939	178.454	0.099	0.143
-310.924	176.902	0.106	-0.154
-309.910	136.021	0.185	0.240
-308.895	-200.000	-0.017	-0.280
-307.880	-200.000	-0.001	0.018
-306.866	-125.673	-0.116	0.017
-305.851	-164.091	-0.216	-0.010
-304.837	-83.514	0.076	0.024
-303.822	303.512	0.134	-0.247
-302.807	-85.066	-0.171	-0.053
-301.793	-119.149	0.055	-0.010
-300.778	-126.268	-0.196	-0.029
-299.764	-85.239	0.093	0.029
-298.749	-76.122	0.192	-0.067
-297.735	-105.911	0.276	0.062
-296.720	-200.000	0.027	0.130
-295.705	59.142	0.270	0.264
-294.691	-64.656	0.301	0.121
-293.676	8.721	0.133	-0.100
-292.662	-162.878	-0.275	0.013
-291.647	-119.022	0.139	0.024
-290.632	800.000	0.051	-0.203
-289.618	-188.361	-0.216	-0.003
-288.603	779.488	-0.166	-0.452
-287.589	377.275	0.038	0.078
-286.574	789.219	0.084	-0.230
-285.559	-200.000	-0.023	0.111
-284.545	49.911	-0.172	-0.161
-283.530	373.890	-0.047	-0.094
-282.516	-41.955	-0.106	-0.054
-281.501	800.000	0.061	0.169
-280.486	-34.333	0.235	0.128
-279.472	-127.748	0.063	-0.009
-278.457	-43.234	0.031	0.015
-277.443	402.451	0.110	-0.229
-276.428	113.523	0.118	-0.142
-275.413	60.532	0.121	0.119
-274.399	-200.000	0.100	0.465
-273.384	-138.207	0.186	-0.021
-272.370	603.404	0.072	0.179
-271.355	-158.111	0.204	-0.012
-270.340	800.000	0.115	-0.451
-269.326	460.568	-0.154	-0.341
-268.311	-200.000	-0.007	-0.307
-267.297	-69.229	-0.086	0.033
-266.282	-200.000	-0.005	-0.250
-265.267	65.754	-0.111	-0.112
-264.253	-156.254	0.185	0.012
-263.238	-18.283	0.237	-0.147
-262.224	800.000	0.143	0.453
-261.209	-101.299	0.288	-0.070
-260.195	203.359	-0.183	0.281
-259.180	-39.651	-0.065	-0.034
-258.165	-36.420	0.010	-0.006
-257.151	-17.443	0.030	0.019
-256.136	58.957	-0.225	0.220
-255.122	-99.012	-0.250	-0.063
-254.107	127.163	-0.153	-0.192
-253.092	755.641	0.026	0.070
-252.078	-200.000	-0.005	0.144
-251.063	-134.856	0.226	-0.027
-250.049	-200.000	0.028	-0.180
-249.034	150.469	-0.242	-0.326
-248.019	-123.318	-0.198	0.031
-247.005	-110.699	0.108	-0.022
-245.990	-37.792	0.254	0.134
-244.976	800.000	0.066	0.285
-243.961	648.281	0.082	-0.207
-242.946	-101.357	-0.219	-0.053
-241.932	91.864	0.057	-0.063
-240.917	-200.000	-0.007	0.248
-239.903	53.601	-0.261	0.248
-238.888	-200.000	-0.013	-0.181
-237.873	296.278	-0.114	-0.207
-236.859	-102.719	0.125	0.030
-235.844	75.122	0.069	0.072
-234.830	276.492	-0.093	-0.164
-233.815	352.249	0.116	-0.229
-232.800	83.914	0.101	-0.110
-231.786	560.893	0.158	0.379
-230.771	256.625	0.224	-0.381
-229.757	-200.000	-0.017	0.210
-228.742	-200.000	0.004	0.027
-227.727	-200.000	0.006	0.025
-226.713	241.672	-0.065	0.108
-225.698	338.264	0.144	0.279
-224.684	-53.509	0.062	0.028
-223.669	3.542	-0.195	-0.141
-222.655	-121.655	-0.071	-0.012
-221.640	-200.000	0.032	-0.144
-220.625	-65.622	0.163	0.065
-219.611	-200.000	-0.028	0.194
-218.596	616.825	0.057	0.143
-217.582	-7.451	0.170	0.114
-216.567	-200.000	0.010	-0.060
-215.552	287.954	0.052	-0.093
-214.538	40.268	-0.082	-0.073
-213.523	-101.440	0.074	0.018
-212.509	23.404	0.139	0.113
-211.494	-37.595	0.125	0.066
-210.479	112.805	-0.045	-0.053
-209.465	-200.000	0.015	0.174
-208.450	44.107	-0.034	0.031
-207.436	-147.429	0.088	0.007
-206.421	-200.000	0.004	-0.043
-205.406	-89.844	-0.348	-0.101
-204.392	-106.874	-0.307	0.068
-203.377	-200.000	-0.016	0.175
-202.363	432.827	0.144	-0.310
-201.348	-200.000	-0.035	-0.176
-200.333	800.000	0.065	0.202
-199.319	217.948	0.180	-0.284
-198.304	-133.277	-0.207	-0.026
-197.290	800.000	-0.037	-0.151
-196.275	-170.560	-0.479	-0.017
-195.260	-112.114	0.131	0.026
-194.246	-112.905	-0.136	-0.027
-193.231	152.596	0.106	-0.143
-192.217	-200.000	0.024	-0.462
-191.202	800.000	0.103	-0.285
-190.187	800.000	-0.075	0.315
-189.173	-138.244	-0.327	0.036
-188.158	-13.632	0.276	-0.177
-187.144	402.843	-0.100	0.209
-186.129	122.400	-0.071	-0.087
-185.114	211.241	0.141	-0.219
-184.100	724.227	-0.110	-0.290
-183.085	97.403	0.159	0.181
-182.071	-73.257	-0.219	-0.079
-181.056	-14.403	0.170	0.108
-180.042	402.489	0.033	0.069
-179.027	-198.201	0.234	-0.001
-178.012	-162.346	0.358	0.018
-176.998	-160.582	0.177	-0.009
-175.983	-200.000	0.054	0.464
-174.969	252.546	-0.143	0.242
-173.954	-120.719	0.177	-0.030
-172.939	-200.000	0.014	-0.124
-171.925	11.719	-0.275	-0.209
-170.910	111.744	-0.130	0.156
-169.896	384.478	-0.108	0.220
-168.881	80.044	0.204	-0.217
-167.866	-200.000	-0.016	-0.159
-166.852	-108.918	0.117	0.025
-165.837	-3.755	0.222	-0.153
-164.823	-200.000	-0.008	0.169
-163.808	-19.117	-0.190	-0.117
-162.793	151.316	-0.027	-0.037
-161.779	-200.000	-0.011	-0.092
-160.764	-33.515	0.391	-0.214
-159.750	800.000	0.060	0.183
-158.735	7.317	0.134	0.099
-157.720	-119.160	-0.501	-0.087
-156.706	-125.152	0.257	-0.039
-155.691	-200.000	0.021	0.177
-154.677	-200.000	0.002	0.110
-153.662	-200.000	0.008	-0.044
-152.647	-200.000	0.002	0.268
-151.633	-121.030	0.090	-0.015
-150.618	-200.000	-0.001	0.090
-149.604	442.635	-0.110	-0.239
-148.589	-200.000	-0.043	0.254
-147.574	-140.351	-0.171	0.018
-146.560	49.620	0.020	-0.019
-145.545	-200.000	-0.028	-0.243
-144.531	-200.000	-0.024	0.112
-143.516	-64.004	0.328	0.133
-142.502	26.219	-0.299	0.247
-141.487	452.755	-0.151	0.331
-140.472	339.491	-0.052	-0.100
-139.458	42.539	0.165	0.149
-138.443	245.686	0.111	0.185
-137.429	71.591	0.163	-0.167
-136.414	404.587	-0.120	-0.251
-135.399	214.852	-0.040	-0.062
-134.385	179.522	0.067	-0.096
-133.370	258.524	-0.195	-0.333
-132.356	-200.000	-0.296	0.000
-131.341	142.921	0.032	-0.042
-130.326	-189.856	0.012	0.000
-129.312	-79.850	0.097	-0.032
-128.297	73.564	0.066	-0.068
-127.283	41.085	0.232	0.207
-126.268	-159.590	0.062	0.003
-125.253	-143.179	-0.169	-0.016
-124.239	-5.890	-0.118	0.080
-123.224	-200.000	-0.035	-0.454
-122.210	651.009	-0.039	0.099
