DTS Sentinel unit serial number:	SN413079Multiplexer serial number:	ORYXHardware model number:	OX4-SRSoftware version number:	ORYX F/W v4.00 Oryx Data Collector v3.7.2.0data status	okinstallation	princeton_trtdifferential loss correction	single-endedforward channel	channel 3reverse channel	N/Adate	2019/09/16time	17:32:35forward acquisition time	60.00reverse acquisition time	0.00gamma	496.2192k internal	0.2297k external	0.2297temperature offset calibration	0.9949default loss term (dB/km)	0.3790temperature slope calibration	1.0000multiplexer offset coefficient	1.0000multiplexer slope coefficient	1.0000fibre end	0.00T internal ref (°C)	38.42T ext. ref 1 (°C)	15.48T ext. ref 2 (°C)	32.43length (m)	temperature (°C)	Stokes	anti-Stokes-747.200	-73.844	-0.222	0.083
-746.185	-120.227	-0.272	0.047
-745.171	93.030	-0.056	-0.064
-744.156	-33.214	-0.263	0.149
-743.142	424.305	-0.091	0.200
-742.127	-38.712	-0.369	0.199
-741.112	-27.558	0.224	0.133
-740.098	293.338	-0.029	0.054
-739.083	353.824	0.061	-0.124
-738.069	158.947	0.113	0.160
-737.054	235.966	0.255	-0.431
-736.039	-101.132	-0.340	-0.085
-735.025	23.409	-0.126	-0.106
-734.010	102.586	-0.093	0.111
-732.996	-200.000	-0.051	-0.230
-731.981	-189.496	0.271	-0.003
-730.966	-51.896	0.087	0.041
-729.952	-19.593	-0.264	0.167
-728.937	148.162	-0.145	-0.199
-727.923	-200.000	-0.011	0.114
-726.908	-200.000	-0.009	-0.568
-725.894	-6.809	0.073	0.050
-724.879	12.334	-0.106	-0.084
-723.864	-80.790	-0.354	0.120
-722.850	551.557	0.012	0.029
-721.835	-46.667	-0.212	0.106
-720.821	154.675	0.044	0.062
-719.806	509.846	0.079	-0.187
-718.791	13.172	-0.226	-0.178
-717.777	114.693	0.125	-0.156
-716.762	179.679	0.040	-0.059
-715.748	-94.163	-0.137	0.038
-714.733	24.325	0.087	-0.074
-713.718	68.578	-0.123	0.129
-712.704	529.396	-0.007	-0.017
-711.689	117.776	-0.084	0.105
-710.675	-200.000	-0.046	0.289
-709.660	-200.000	-0.017	0.195
-708.645	-182.569	0.384	0.007
-707.631	185.539	0.047	-0.071
-706.616	-200.000	-0.000	0.138
-705.602	-7.970	-0.084	0.058
-704.587	-82.824	-0.576	-0.190
-703.572	60.332	0.044	-0.044
-702.558	-21.427	-0.282	0.175
-701.543	492.148	-0.054	-0.126
-700.529	-200.000	-0.025	0.213
-699.514	800.000	-0.087	0.299
-698.499	136.793	-0.248	-0.330
-697.485	180.626	-0.037	-0.055
-696.470	-199.001	-0.179	-0.001
-695.456	800.000	0.075	-0.326
-694.441	349.494	-0.057	-0.114
-693.426	-59.563	-0.287	-0.126
-692.412	-33.432	-0.229	0.129
-691.397	589.348	-0.075	-0.189
-690.383	800.000	0.043	0.183
-689.368	10.936	-0.280	-0.218
-688.354	-60.853	0.176	-0.076
-687.339	-163.487	-0.237	0.011
-686.324	-113.946	0.273	0.054
-685.310	200.036	0.163	-0.255
-684.295	-41.131	0.015	-0.008
-683.281	86.369	-0.054	0.060
-682.266	-200.000	0.021	0.293
-681.251	161.614	-0.214	0.305
-680.237	327.724	-0.178	0.348
-679.222	-200.000	0.017	0.124
-678.208	-96.677	-0.048	0.013
-677.193	-200.000	0.041	0.413
-676.178	-200.000	-0.036	-0.234
-675.164	127.275	-0.120	-0.155
-674.149	-94.547	-0.170	0.047
-673.135	-87.086	-0.229	-0.071
-672.120	-142.412	-0.153	-0.015
-671.105	-200.000	0.009	0.164
-670.091	-119.282	0.237	0.042
-669.076	800.000	0.071	0.225
-668.062	91.110	0.103	-0.117
-667.047	-93.951	-0.103	-0.029
-666.032	-21.984	-0.055	-0.034
-665.018	-182.060	0.196	0.004
-664.003	-43.792	-0.274	0.141
-662.989	48.927	-0.216	0.207
-661.974	-200.000	-0.002	0.118
-660.959	-41.952	0.185	0.097
-659.945	-22.953	-0.094	-0.058
-658.930	800.000	-0.111	-0.337
-657.916	-73.987	-0.116	-0.043
-656.901	-58.201	-0.366	0.162
-655.886	131.014	0.168	-0.220
-654.872	-38.790	-0.134	-0.072
-653.857	321.544	0.085	-0.164
-652.843	-15.477	-0.054	-0.035
-651.828	391.032	-0.160	-0.338
-650.814	-7.843	-0.114	-0.079
-649.799	62.421	-0.087	0.088
-648.784	-87.878	0.169	0.052
-647.770	34.472	-0.030	0.027
-646.755	-200.000	-0.026	-0.164
-645.741	-124.743	-0.163	0.026
-644.726	-150.922	0.198	0.015
-643.711	800.000	-0.042	0.119
-642.697	-159.036	0.146	-0.008
-641.682	800.000	-0.054	-0.154
-640.668	266.645	0.067	-0.119
-639.653	797.195	0.023	0.066
-638.638	645.238	0.081	0.210
-637.624	-200.000	-0.035	-0.312
-636.609	28.135	0.369	0.316
-635.595	-146.212	0.342	-0.031
-634.580	42.636	-0.147	-0.136
-633.565	60.661	-0.144	0.145
-632.551	-155.178	0.346	-0.023
-631.536	-46.228	-0.139	-0.070
-630.522	56.878	0.021	-0.021
-629.507	-200.000	-0.004	0.181
-628.492	-34.275	0.118	-0.066
-627.478	40.042	-0.206	-0.188
-626.463	-139.228	0.288	-0.032
-625.449	-37.959	-0.120	0.065
-624.434	-200.000	0.013	-0.085
-623.419	255.381	0.094	0.163
-622.405	-121.517	-0.361	-0.061
-621.390	-200.000	-0.067	0.341
-620.376	800.000	-0.087	-0.277
-619.361	-200.000	-0.016	-0.169
-618.346	-200.000	-0.236	-0.000
-617.332	24.025	0.293	-0.246
-616.317	5.386	-0.082	0.061
-615.303	-141.388	0.217	-0.022
-614.288	-29.617	-0.089	0.052
-613.273	800.000	-0.070	-0.216
-612.259	-144.297	-0.384	-0.036
-611.244	-141.757	-0.144	-0.015
-610.230	800.000	0.073	0.286
-609.215	-86.574	-0.267	0.083
-608.201	-43.341	0.123	0.063
-607.186	-200.000	0.072	-0.396
-606.171	188.047	0.053	0.081
-605.157	77.523	0.028	0.030
-604.142	52.457	-0.260	-0.252
-603.128	-32.313	0.234	-0.133
-602.113	98.990	0.098	-0.114
-601.098	-71.370	-0.195	-0.074
-600.084	-11.800	0.019	-0.013
-599.069	88.698	-0.040	0.045
-598.055	-200.000	0.042	-0.202
-597.040	-200.000	-0.001	-0.552
-596.025	800.000	-0.085	0.348
-595.011	-108.293	0.267	0.059
-593.996	8.776	-0.227	-0.173
-592.982	246.835	-0.028	-0.049
-591.967	126.238	-0.157	0.201
-590.952	58.815	0.118	0.118
-589.938	-91.336	-0.140	-0.041
-588.923	-76.419	-0.217	-0.078
-587.909	42.269	-0.060	-0.055
-586.894	-200.000	-0.016	-0.082
-585.879	-104.895	0.160	0.037
-584.865	-121.919	0.148	0.025
-583.850	-49.232	-0.208	0.101
-582.836	-23.107	0.223	0.136
-581.821	181.642	0.065	-0.096
-580.806	-137.075	-0.119	0.014
-579.792	123.645	0.121	-0.154
-578.777	-107.373	0.123	0.027
-577.763	484.922	-0.045	0.104
-576.748	215.450	-0.165	0.266
-575.733	316.045	-0.162	0.310
-574.719	133.271	-0.108	-0.142
-573.704	-200.000	-0.027	0.139
-572.690	120.531	-0.126	0.159
-571.675	123.866	0.087	0.111
-570.661	692.064	0.053	-0.141
-569.646	65.544	-0.178	0.183
-568.631	71.170	0.139	-0.146
-567.617	-200.000	-0.074	-0.363
-566.602	550.155	0.101	0.246
-565.588	248.644	0.068	-0.116
-564.573	-45.894	0.203	0.102
-563.558	800.000	-0.049	0.149
-562.544	800.000	0.062	0.207
-561.529	38.924	-0.105	0.095
-560.515	234.742	-0.134	-0.224
-559.500	51.330	-0.098	0.094
-558.485	-111.659	0.085	-0.017
-557.471	800.000	0.048	0.168
-556.456	42.785	0.163	0.150
-555.442	-156.969	-0.238	-0.015
-554.427	-200.000	-0.040	0.408
-553.412	109.564	-0.281	0.341
-552.398	346.926	-0.043	0.086
-551.383	90.921	-0.183	-0.208
-550.369	-200.000	-0.034	-0.257
-549.354	398.133	-0.117	0.249
-548.339	800.000	-0.099	-0.402
-547.325	340.027	-0.062	0.123
-546.310	534.095	-0.070	0.167
-545.296	-200.000	-0.027	-0.171
-544.281	-35.112	0.265	0.147
-543.266	-200.000	-0.046	0.000
-542.252	-147.526	-0.093	0.008
-541.237	160.204	-0.092	-0.129
-540.223	257.129	-0.159	-0.277
-539.208	253.949	-0.080	0.139
-538.193	-100.180	0.085	-0.021
-537.179	239.944	0.081	0.136
-536.164	143.183	0.213	-0.287
-535.150	-120.066	-0.293	-0.051
-534.135	166.148	0.158	-0.227
-533.121	185.936	-0.136	0.204
-532.106	-200.000	-0.066	-0.492
-531.091	800.000	0.086	-0.343
-530.077	-96.155	-0.247	-0.066
-529.062	221.196	0.198	0.323
-528.048	137.813	0.107	-0.141
-527.033	655.969	0.058	-0.151
-526.018	699.789	-0.082	-0.218
-525.004	-80.205	0.150	0.051
-523.989	-200.000	0.045	0.336
-522.975	-200.000	-0.010	0.239
-521.960	316.113	-0.114	0.218
-520.945	800.000	-0.022	-0.064
-519.931	89.717	0.160	0.181
-518.916	-200.000	0.046	-0.241
-517.902	-140.564	0.178	0.019
-516.887	187.574	-0.192	0.290
-515.872	-149.377	-0.060	-0.005
-514.858	23.527	-0.251	-0.209
-513.843	-100.060	0.273	-0.069
-512.829	-50.339	0.190	-0.091
-511.814	166.500	0.005	-0.007
-510.799	2.681	-0.090	-0.066
-509.785	-200.000	0.091	-0.432
-508.770	-134.621	-0.190	-0.023
-507.756	312.098	-0.093	-0.176
-506.741	800.000	-0.089	0.255
-505.726	57.763	-0.161	-0.159
-504.712	188.277	0.323	-0.489
-503.697	-74.799	-0.285	0.103
-502.683	129.803	-0.056	0.073
-501.668	800.000	-0.108	0.309
-500.653	-75.690	-0.180	0.065
-499.639	-168.666	-0.291	0.011
-498.624	-58.520	0.207	-0.091
-497.610	156.797	-0.141	-0.198
-496.595	275.304	0.061	-0.110
-495.581	-97.542	0.122	-0.032
-494.566	-144.207	-0.186	-0.018
-493.551	107.642	0.135	0.162
-492.537	800.000	-0.162	-0.544
-491.522	179.690	0.099	-0.146
-490.508	181.000	0.278	0.414
-489.493	-160.992	-0.083	-0.004
-488.478	2.600	-0.194	-0.142
-487.464	-175.918	0.327	0.009
-486.449	129.417	-0.090	-0.116
-485.435	131.237	-0.069	-0.090
-484.420	75.654	-0.106	0.113
-483.405	163.614	0.118	-0.168
-482.391	-20.323	0.094	-0.058
-481.376	165.923	0.105	0.150
-480.362	-32.661	0.450	0.253
-479.347	-62.788	-0.280	-0.117
-478.332	-200.000	0.044	-0.421
-477.318	297.996	-0.081	-0.151
-476.303	5.196	-0.237	0.177
-475.289	-200.000	0.006	-0.107
-474.274	-87.578	-0.128	0.039
-473.259	-24.373	0.180	-0.108
-472.245	-64.364	0.319	0.131
-471.230	800.000	-0.163	-0.455
-470.216	304.361	-0.162	-0.303
-469.201	-74.214	-0.157	0.057
-468.186	-66.918	-0.169	-0.067
-467.172	-200.000	-0.007	-0.299
-466.157	154.371	0.246	-0.340
-465.143	-121.076	-0.163	0.028
-464.128	-149.776	-0.213	-0.017
-463.113	800.000	-0.037	0.106
-462.099	-69.039	-0.143	-0.055
-461.084	330.050	-0.025	0.048
-460.070	-106.542	0.255	0.057
-459.055	-25.763	0.044	0.026
-458.040	-47.265	-0.094	0.046
-457.026	29.393	-0.167	-0.143
-456.011	-200.000	-0.056	-0.427
-454.997	-200.000	0.007	0.211
-453.982	-149.865	0.204	0.016
-452.968	800.000	0.022	-0.087
-451.953	800.000	-0.038	0.119
-450.938	-64.890	0.121	-0.050
-449.924	800.000	0.034	0.127
-448.909	-160.089	0.144	0.008
-447.895	800.000	0.066	-0.204
-446.880	465.020	-0.122	0.276
-445.865	442.470	0.159	0.352
-444.851	280.958	0.062	-0.112
-443.836	-80.335	0.136	-0.046
-442.822	-200.000	-0.011	-0.136
-441.807	528.550	0.086	-0.205
-440.792	-6.452	-0.061	-0.042
-439.778	2.642	-0.166	0.121
-438.763	128.900	0.119	-0.153
-437.749	800.000	0.067	0.188
-436.734	138.028	-0.253	0.334
-435.719	88.530	0.178	-0.200
-434.705	-161.920	0.121	-0.006
-433.690	138.251	-0.254	-0.336
-432.676	-95.858	-0.199	-0.054
-431.661	-200.000	0.043	0.328
-430.646	237.182	-0.190	0.318
-429.632	-113.054	0.108	-0.021
-428.617	-152.003	0.242	-0.018
-427.603	800.000	0.100	0.426
-426.588	-200.000	-0.031	-0.147
-425.573	160.103	-0.146	-0.205
-424.559	-181.116	-0.342	0.007
-423.544	800.000	0.078	-0.313
-422.530	378.047	-0.039	0.081
-421.515	22.865	0.183	0.151
-420.500	-122.993	-0.344	-0.056
-419.486	-119.531	-0.067	-0.012
-418.471	-200.000	0.011	-0.236
-417.457	284.043	0.139	-0.251
-416.442	20.459	0.227	-0.185
-415.428	-200.000	0.011	0.135
-414.413	64.647	0.108	0.110
-413.398	800.000	0.050	0.203
-412.384	800.000	-0.019	-0.083
-411.369	275.697	-0.015	-0.027
-410.355	135.922	0.129	-0.169
-409.340	88.491	0.202	0.226
-408.325	131.966	0.135	-0.175
-407.311	-140.896	-0.137	0.014
-406.296	321.319	0.058	-0.111
-405.282	304.245	-0.018	-0.033
-404.267	-200.000	0.006	0.072
-403.252	149.849	-0.098	0.134
-402.238	699.349	-0.087	-0.231
-401.223	48.399	0.149	0.140
-400.209	-200.000	-0.038	0.424
-399.194	35.671	0.198	0.175
-398.179	154.133	-0.107	0.148
-397.165	45.174	-0.115	-0.107
-396.150	-137.449	0.230	0.026
-395.136	-200.000	-0.013	0.103
-394.121	-103.710	-0.035	-0.008
-393.106	-132.465	-0.138	-0.018
-392.092	-94.861	0.201	0.055
-391.077	-95.031	0.104	0.028
-390.063	289.896	0.128	-0.235
-389.048	31.748	0.390	-0.338
-388.033	116.175	0.178	-0.219
-387.019	202.912	-0.168	-0.262
-386.004	-200.000	-0.029	-0.149
-384.990	-37.958	-0.175	0.094
-383.975	579.394	-0.119	0.295
-382.960	-84.510	0.150	0.048
-381.946	72.758	-0.136	-0.143
-380.931	494.884	0.040	0.092
-379.917	-63.751	0.065	0.027
-378.902	-200.000	0.002	0.241
-377.888	530.329	0.042	-0.101
-376.873	800.000	0.045	-0.144
-375.858	73.557	-0.256	0.269
-374.844	800.000	-0.132	0.388
-373.829	-94.039	0.539	-0.149
-372.815	-109.395	0.333	-0.071
-371.800	-197.548	-0.270	0.002
-370.785	800.000	-0.021	-0.083
-369.771	-200.000	-0.017	0.173
-368.756	719.222	-0.081	-0.216
-367.742	-118.999	-0.087	-0.015
-366.727	-73.360	-0.057	-0.021
-365.712	551.362	-0.078	0.188
-364.698	-200.000	0.014	-0.180
-363.683	-53.364	-0.360	-0.166
-362.669	595.278	-0.049	-0.121
-361.654	103.514	-0.084	-0.100
-360.639	267.047	0.118	0.207
-359.625	13.653	0.317	0.248
-358.610	-200.000	0.001	0.164
-357.596	283.941	-0.101	0.183
-356.581	-200.000	0.001	-0.097
-355.566	-200.000	-0.027	-0.354
-354.552	650.410	0.063	0.162
-353.537	-26.515	-0.093	-0.055
-352.523	-69.097	-0.105	-0.040
-351.508	800.000	-0.067	-0.195
-350.493	-200.000	-0.026	-0.151
-349.479	-183.703	-0.213	-0.004
-348.464	-30.553	0.166	-0.095
-347.450	48.197	0.079	-0.074
-346.435	190.283	0.057	0.085
-345.420	-200.000	-0.020	0.403
-344.406	-200.000	-0.006	-0.036
-343.391	-200.000	-0.015	0.107
-342.377	800.000	-0.101	-0.282
-341.362	-179.431	-0.029	0.001
-340.348	84.335	-0.308	-0.338
-339.333	-160.614	-0.057	-0.003
-338.318	70.029	-0.081	0.084
-337.304	101.399	0.342	0.400
-336.289	535.123	0.073	0.174
-335.275	350.127	0.095	-0.188
-334.260	196.594	0.071	0.108
-333.245	-109.877	-0.523	-0.110
-332.231	-120.925	-0.022	0.004
-331.216	-68.758	0.090	0.035
-330.202	203.252	-0.035	0.055
-329.187	-54.696	0.119	0.054
-328.172	800.000	-0.052	0.151
-327.158	-200.000	-0.026	0.280
-326.143	406.707	0.076	0.161
-325.129	-200.000	-0.051	0.288
-324.114	-63.642	-0.164	-0.068
-323.099	-200.000	0.001	-0.116
-322.085	-117.691	-0.285	-0.052
-321.070	-88.087	-0.450	0.136
-320.056	-200.000	-0.352	-0.000
-319.041	42.046	-0.026	0.024
-318.026	446.420	0.110	0.243
-317.012	-200.000	0.002	0.315
-315.997	22.027	-0.062	-0.051
-314.983	-142.897	-0.501	0.049
-313.968	-200.000	-0.004	-0.033
-312.953	-96.928	-0.115	0.030
-311.939	252.300	0.109	-0.186
-310.924	33.290	-0.178	0.155
-309.910	-73.378	-0.213	-0.078
-308.895	-200.000	-0.017	0.134
-307.880	669.560	0.046	-0.120
-306.866	90.163	0.252	0.283
-305.851	800.000	0.102	0.326
-304.837	92.710	-0.205	0.232
-303.822	402.731	0.183	0.385
-302.807	679.428	0.130	0.339
-301.793	259.513	0.099	-0.172
-300.778	-90.760	-0.205	-0.059
-299.764	43.974	0.210	-0.193
-298.749	-48.030	-0.137	0.066
-297.735	104.515	-0.151	0.179
-296.720	-133.335	-0.293	-0.037
-295.705	-80.309	0.444	0.149
-294.691	-38.832	0.426	-0.225
-293.676	743.451	0.050	0.134
-292.662	-63.180	0.268	-0.111
-291.647	-131.127	0.444	-0.059
-290.632	617.049	-0.080	-0.201
-289.618	-107.724	0.225	0.049
-288.603	-6.583	0.175	0.119
-287.589	-200.000	-0.032	-0.176
-286.574	231.220	0.042	-0.069
-285.559	-200.000	-0.029	0.173
-284.545	-200.000	0.003	-0.066
-283.530	-43.480	-0.127	-0.065
-282.516	-13.156	-0.161	0.105
-281.501	800.000	-0.051	0.161
-280.486	-159.081	0.027	0.002
-279.472	800.000	0.040	-0.151
-278.457	160.022	-0.094	-0.131
-277.443	209.392	0.086	-0.135
-276.428	265.424	-0.130	0.227
-275.413	-200.000	0.265	0.001
-274.399	138.592	-0.078	0.102
-273.384	-42.658	-0.063	0.032
-272.370	-200.000	0.003	-0.097
-271.355	168.791	0.071	-0.102
-270.340	213.689	-0.005	-0.008
-269.326	555.385	0.087	-0.210
-268.311	-102.360	0.069	0.017
-267.297	44.180	0.231	-0.213
-266.282	800.000	-0.082	0.233
-265.267	35.782	-0.060	0.052
-264.253	-85.988	0.175	0.054
-263.238	-200.000	0.021	-0.147
-262.224	-62.962	0.275	0.114
-261.209	128.409	0.164	0.209
-260.195	326.930	-0.092	-0.176
-259.180	213.901	-0.144	-0.228
-258.165	-200.000	0.031	0.377
-257.151	475.728	-0.088	0.198
-256.136	800.000	0.060	-0.215
-255.122	-113.088	-0.134	0.026
-254.107	-200.000	-0.013	0.067
-253.092	29.570	0.300	-0.255
-252.078	205.484	0.062	0.096
-251.063	236.479	0.079	-0.131
-250.049	-200.000	0.011	0.253
-249.034	-4.052	0.206	0.143
-248.019	128.962	0.232	-0.296
-247.005	-18.942	0.122	0.076
-245.990	-42.315	-0.077	0.039
-244.976	-81.293	-0.390	-0.129
-243.961	37.007	0.217	-0.192
-242.946	-200.000	-0.046	0.327
-241.932	199.334	-0.347	0.532
-240.917	259.199	-0.220	0.381
-239.903	376.890	0.050	0.101
-238.888	-19.560	0.092	-0.057
-237.873	-200.000	-0.046	-0.272
-236.859	745.190	-0.075	-0.202
-235.844	24.355	0.148	0.122
-234.830	140.489	-0.252	-0.333
-233.815	17.377	-0.052	0.041
-232.800	35.975	0.068	0.060
-231.786	751.704	-0.167	0.453
-230.771	63.045	0.100	-0.100
-229.757	-95.167	0.071	0.019
-228.742	-72.186	0.292	-0.108
-227.727	15.926	-0.158	-0.125
-226.713	181.869	-0.193	-0.285
-225.698	113.295	-0.122	0.148
-224.684	800.000	-0.081	0.268
-223.669	27.966	0.133	-0.112
-222.655	-32.990	-0.305	-0.169
-221.640	-53.806	0.182	0.083
-220.625	-93.421	0.474	-0.131
-219.611	-147.672	0.088	-0.007
-218.596	-30.779	0.265	0.150
-217.582	-42.898	-0.285	0.145
-216.567	-200.000	-0.037	0.190
-215.552	-49.102	-0.171	-0.082
-214.538	95.392	0.174	0.198
-213.523	-92.096	0.212	0.060
-212.509	-72.555	-0.196	-0.073
-211.494	132.452	0.092	-0.119
-210.479	495.327	-0.036	-0.083
-209.465	99.607	-0.178	-0.206
-208.450	204.672	0.250	0.388
-207.436	-200.000	-0.008	0.046
-206.421	20.366	-0.136	0.110
-205.406	-184.592	-0.089	-0.001
-204.392	-20.226	-0.321	0.198
-203.377	-90.049	-0.219	0.064
-202.363	-34.814	-0.225	-0.123
-201.348	-8.502	-0.194	0.131
-200.333	95.191	0.077	0.088
-199.319	-65.396	0.209	-0.084
-198.304	-200.000	-0.040	-0.227
-197.290	510.862	0.061	0.143
-196.275	160.291	-0.164	-0.229
-195.260	256.010	0.026	0.045
-194.246	111.213	0.150	-0.181
-193.231	-31.057	0.095	0.053
-192.217	-200.000	0.007	0.050
-191.202	-1.096	0.202	-0.143
-190.187	-157.028	-0.182	-0.011
-189.173	-145.169	0.158	-0.014
-188.158	800.000	-0.065	0.198
-187.144	-40.947	-0.239	0.124
-186.129	111.798	-0.141	-0.170
-185.114	-15.874	0.106	-0.068
-184.100	-59.133	-0.135	-0.058
-183.085	-200.000	0.012	-0.076
-182.071	105.956	-0.105	0.124
-181.056	79.649	-0.204	0.219
-180.042	-95.770	0.182	0.048
-179.027	-71.114	0.347	-0.130
-178.012	-200.000	0.059	-0.334
-176.998	647.027	0.107	0.274
-175.983	6.192	-0.423	0.313
-174.969	-24.521	0.301	-0.179
-173.954	254.306	0.095	-0.163
-172.939	445.230	0.106	0.233
-171.925	-149.388	0.147	0.012
-170.910	316.219	0.161	-0.304
-169.896	253.430	-0.081	-0.138
-168.881	-90.735	0.183	0.053
-167.866	168.200	0.090	0.128
-166.852	400.467	0.078	-0.163
-165.837	530.573	0.027	0.063
-164.823	-129.904	0.164	0.022
-163.808	295.523	0.073	0.134
-162.793	9.900	0.383	-0.290
-161.779	174.105	0.175	0.253
-160.764	800.000	0.133	0.428
-159.750	21.978	0.085	-0.069
-158.735	-52.952	0.447	-0.205
-157.720	31.279	-0.212	0.182
-156.706	59.173	-0.154	-0.152
-155.691	19.363	0.180	0.144
-154.677	800.000	-0.021	0.062
-153.662	-200.000	-0.032	-0.404
-152.647	219.829	-0.064	0.103
-151.633	-53.015	0.034	-0.016
-150.618	5.898	0.175	-0.129
-149.604	-117.718	-0.006	0.001
-148.589	800.000	0.087	-0.296
-147.574	800.000	-0.075	-0.279
-146.560	-174.976	0.310	0.009
-145.545	-117.332	-0.031	-0.006
-144.531	38.230	-0.233	-0.207
-143.516	-50.840	0.128	0.060
-142.502	-200.000	0.037	0.284
-141.487	427.819	-0.151	-0.324
-140.472	-186.298	-0.240	0.003
-139.458	-200.000	-0.055	0.243
-138.443	800.000	-0.079	-0.217
-137.429	447.074	0.146	-0.320
-136.414	-200.000	-0.023	-0.222
-135.399	468.850	0.077	-0.173
-134.385	-139.535	-0.195	-0.021
-133.370	-200.000	0.002	0.098
-132.356	-125.392	-0.309	0.047
-131.341	800.000	-0.044	-0.155
-130.326	-98.090	0.439	-0.113
-129.312	-200.000	0.025	0.172
-128.297	-97.149	0.240	0.063
-127.283	712.705	-0.053	-0.141
-126.268	72.789	-0.028	-0.030
-125.253	-200.000	0.014	0.217
-124.239	-54.706	-0.200	0.090
-123.224	324.479	-0.060	0.114
-122.210	800.000	0.068	0.199
