DTS Sentinel unit serial number:	SN413079Multiplexer serial number:	ORYXHardware model number:	OX4-SRSoftware version number:	ORYX F/W v4.00 Oryx Data Collector v3.7.2.0data status	okinstallation	princeton_trtdifferential loss correction	single-endedforward channel	channel 3reverse channel	N/Adate	2019/09/12time	19:02:03forward acquisition time	15.00reverse acquisition time	0.00gamma	496.2192k internal	0.2319k external	0.2319temperature offset calibration	1.0091default loss term (dB/km)	0.3790temperature slope calibration	1.0000multiplexer offset coefficient	1.0000multiplexer slope coefficient	1.0000fibre end	0.00T internal ref (°C)	32.75T ext. ref 1 (°C)	3.01T ext. ref 2 (°C)	27.28length (m)	temperature (°C)	Stokes	anti-Stokes-747.200	-76.313	0.855	0.305
-746.185	-107.159	0.217	-0.048
-745.171	-113.165	-0.749	0.149
-744.156	-21.357	0.658	0.406
-743.142	-50.215	-0.463	-0.222
-742.127	-100.445	0.783	-0.196
-741.112	179.337	0.409	-0.606
-740.098	37.787	0.260	-0.233
-739.083	-133.841	0.332	0.042
-738.069	-132.898	-0.556	0.072
-737.054	-200.000	-0.061	-0.711
-736.039	-33.224	-0.390	0.218
-735.025	-108.452	-0.363	-0.079
-734.010	-144.631	0.484	-0.045
-732.996	-200.000	0.120	-0.677
-731.981	-200.000	-0.073	0.327
-730.966	800.000	0.074	0.303
-729.952	101.253	-0.781	-0.919
-728.937	-20.373	-0.259	-0.161
-727.923	132.935	0.346	-0.451
-726.908	240.078	-0.131	0.221
-725.894	-157.508	0.131	-0.008
-724.879	59.835	-0.454	-0.453
-723.864	-33.243	0.334	-0.187
-722.850	-114.694	-0.115	0.022
-721.835	-200.000	-0.053	0.322
-720.821	270.144	-0.345	-0.613
-719.806	-1.253	0.847	0.605
-718.791	19.866	-0.356	-0.290
-717.777	30.822	-0.303	0.262
-716.762	-36.617	-0.644	-0.350
-715.748	-6.769	0.382	0.262
-714.733	800.000	0.137	0.597
-713.718	-99.214	-0.452	0.115
-712.704	-109.630	-0.456	0.097
-711.689	-142.195	0.048	-0.005
-710.675	-44.262	0.648	-0.328
-709.660	-200.000	-0.030	-0.411
-708.645	-32.340	0.576	0.325
-707.631	25.965	0.573	0.483
-706.616	120.471	0.423	0.530
-705.602	-198.286	-0.582	-0.003
-704.587	184.573	0.184	0.275
-703.572	460.757	-0.149	-0.335
-702.558	-72.994	-0.574	0.213
-701.543	800.000	0.155	-0.539
-700.529	-200.000	0.013	-0.335
-699.514	-200.000	-0.005	0.101
-698.499	-23.249	-0.123	0.074
-697.485	39.734	-0.781	0.708
-696.470	-58.434	0.466	-0.205
-695.456	-84.366	-0.428	0.137
-694.441	800.000	0.191	0.614
-693.426	-125.927	-1.125	0.171
-692.412	-179.136	-0.572	-0.013
-691.397	-151.655	-1.285	0.096
-690.383	118.742	0.237	0.295
-689.368	-147.820	-0.208	0.018
-688.354	-200.000	-0.032	-0.354
-687.339	111.740	-0.323	0.394
-686.324	58.650	-0.457	-0.453
-685.310	8.776	-0.717	-0.546
-684.295	658.003	0.140	-0.364
-683.281	163.342	-0.431	-0.612
-682.266	75.052	-0.619	0.659
-681.251	26.349	0.124	0.105
-680.237	47.855	-0.062	-0.058
-679.222	-52.944	0.245	0.114
-678.208	-34.725	1.010	0.557
-677.193	-52.585	-0.849	-0.396
-676.178	-129.671	-0.406	-0.057
-675.164	-200.000	0.050	0.309
-674.149	-134.307	-0.294	0.037
-673.135	174.315	-0.188	0.274
-672.120	-106.415	0.200	-0.045
-671.105	-84.845	-0.150	0.048
-670.091	-76.418	0.396	0.140
-669.076	69.832	-0.562	-0.584
-668.062	33.061	-0.173	-0.152
-667.047	-134.561	0.717	-0.088
-666.032	-200.000	0.015	1.086
-665.018	-35.776	0.418	0.228
-664.003	205.864	0.361	0.566
-662.989	163.990	0.628	-0.892
-661.974	-6.459	-0.318	0.219
-660.959	54.450	0.417	0.405
-659.945	562.040	-0.057	0.140
-658.930	45.786	-0.118	0.110
-657.916	77.878	0.433	0.465
-656.901	133.366	-0.423	0.551
-655.886	413.252	-0.223	0.477
-654.872	19.998	0.463	0.376
-653.857	762.463	-0.126	-0.344
-652.843	75.806	-0.260	-0.277
-651.828	-78.048	-0.654	0.227
-650.814	-6.420	0.496	0.341
-649.799	-167.451	-0.438	-0.018
-648.784	46.768	0.288	0.270
-647.770	-200.000	-0.074	0.349
-646.755	-200.000	-0.021	0.583
-645.741	108.835	0.254	-0.306
-644.726	-70.515	0.750	-0.286
-643.711	-182.969	0.780	-0.014
-642.697	-163.923	0.330	0.016
-641.682	-125.547	0.568	-0.087
-640.668	68.528	-0.396	-0.409
-639.653	476.976	0.161	0.368
-638.638	-36.106	0.100	0.054
-637.624	-106.876	-0.542	-0.121
-636.609	800.000	-0.163	-0.685
-635.595	-166.327	0.625	0.026
-634.580	8.397	-0.200	-0.151
-633.565	-90.628	-0.527	-0.154
-632.551	-44.438	0.374	0.188
-631.536	-142.252	0.856	0.085
-630.522	-48.743	-0.436	-0.211
-629.507	300.626	-0.084	-0.157
-628.492	800.000	-0.046	0.184
-627.478	800.000	0.241	0.770
-626.463	270.622	0.092	0.163
-625.449	96.402	0.370	0.427
-624.434	74.115	-0.181	0.192
-623.419	-115.867	0.343	0.065
-622.405	-42.247	-0.235	-0.121
-621.390	-34.137	0.845	-0.467
-620.376	-23.196	-0.780	0.473
-619.361	67.345	-0.364	0.374
-618.346	487.308	-0.200	-0.459
-617.332	292.148	-0.193	0.355
-616.317	-200.000	-0.000	-0.149
-615.303	256.521	0.197	-0.341
-614.288	-19.261	-0.260	0.163
-613.273	-200.000	-0.054	-0.469
-612.259	-56.009	0.397	0.178
-611.244	-177.430	-0.189	0.005
-610.230	-97.905	-0.309	-0.080
-609.215	-200.000	0.030	-0.592
-608.201	-7.664	-0.832	-0.566
-607.186	85.212	-0.544	-0.600
-606.171	-115.208	0.104	0.020
-605.157	800.000	-0.038	-0.158
-604.142	-12.135	-0.797	0.525
-603.128	-200.000	0.422	0.002
-602.113	-65.493	0.402	0.162
-601.098	-37.276	-1.008	-0.542
-600.084	124.398	0.276	-0.349
-599.069	-76.875	0.440	0.155
-598.055	340.897	-0.145	-0.286
-597.040	800.000	-0.030	-0.108
-596.025	-91.064	-0.622	0.180
-595.011	-74.856	-0.946	0.341
-593.996	170.689	-0.372	-0.536
-592.982	-200.000	0.248	-1.518
-591.967	-96.305	0.293	0.078
-590.952	267.110	-0.231	-0.406
-589.938	602.624	0.089	-0.224
-588.923	-46.342	-0.808	-0.399
-587.909	-119.827	-0.652	-0.113
-586.894	457.251	-0.229	-0.512
-585.879	-102.195	0.715	-0.173
-584.865	585.925	0.205	0.507
-583.850	-200.000	0.050	-0.760
-582.836	-12.868	0.464	-0.303
-581.821	-50.722	0.486	-0.230
-580.806	17.016	0.342	-0.272
-579.792	-200.000	-0.076	0.534
-578.777	-200.000	-0.051	-0.295
-577.763	2.081	0.291	-0.211
-576.748	-61.728	0.684	-0.288
-575.733	-117.679	-1.276	-0.231
-574.719	-52.243	-0.535	0.249
-573.704	800.000	0.079	-0.314
-572.690	-150.212	0.165	-0.013
-571.675	82.868	-0.331	0.361
-570.661	-200.000	-0.121	0.763
-569.646	-7.817	-0.426	-0.289
-568.631	800.000	0.177	0.615
-567.617	-26.287	0.933	0.550
-566.602	800.000	0.043	0.174
-565.588	437.842	0.114	0.249
-564.573	800.000	0.111	-0.331
-563.558	800.000	0.098	0.346
-562.544	-200.000	-0.110	0.549
-561.529	-82.662	0.464	0.151
-560.515	-110.103	-1.100	-0.231
-559.500	-10.275	0.819	0.546
-558.485	-26.208	-0.283	-0.167
-557.471	-28.162	0.317	-0.184
-556.456	92.339	0.627	-0.710
-555.442	-87.804	-0.193	0.058
-554.427	800.000	0.135	-0.510
-553.412	138.030	0.211	-0.278
-552.398	800.000	0.170	-0.731
-551.383	16.601	1.023	-0.811
-550.369	-35.310	0.351	0.192
-549.354	800.000	-0.049	0.184
-548.339	-25.292	0.595	0.354
-547.325	609.632	0.238	0.598
-546.310	-11.369	0.703	-0.465
-545.296	274.031	0.048	-0.085
-544.281	-200.000	-0.105	0.500
-543.266	89.693	-0.075	-0.084
-542.252	-72.045	0.313	-0.117
-541.237	-200.000	0.002	-0.188
-540.223	11.957	-0.119	0.092
-539.208	126.442	0.375	-0.476
-538.193	412.122	0.101	-0.216
-537.179	240.282	-0.393	0.657
-536.164	-200.000	0.097	-0.464
-535.150	-9.850	0.353	0.236
-534.135	85.380	-0.432	0.475
-533.121	-80.774	0.745	-0.248
-532.106	30.603	-0.484	-0.416
-531.091	-173.290	-0.399	-0.012
-530.077	-86.177	0.077	0.024
-529.062	-148.113	0.622	-0.052
-528.048	-44.274	0.675	0.339
-527.033	800.000	0.268	-0.849
-526.018	293.093	-0.117	0.214
-525.004	800.000	0.173	0.711
-523.989	248.926	-0.216	-0.366
-522.975	-200.000	0.045	0.443
-521.960	-5.207	-0.269	-0.185
-520.945	170.711	0.571	-0.820
-519.931	7.754	-1.109	0.833
-518.916	-15.638	-0.697	-0.446
-517.902	123.751	0.590	-0.742
-516.887	-32.527	-0.410	-0.229
-515.872	-120.369	-1.152	0.197
-514.858	-62.832	0.675	0.280
-513.843	219.757	-0.056	0.090
-512.829	-51.535	-0.299	-0.140
-511.814	-130.420	-1.210	0.164
-510.799	209.704	-0.196	-0.308
-509.785	800.000	0.157	-0.526
-508.770	800.000	0.093	-0.306
-507.756	-200.000	0.065	0.412
-506.741	-200.000	0.137	0.986
-505.726	591.050	0.144	-0.357
-504.712	12.420	0.405	-0.313
-503.697	56.539	0.604	0.589
-502.683	-51.432	0.898	0.420
-501.668	94.645	-0.273	-0.311
-500.653	198.581	-0.210	-0.322
-499.639	304.024	0.176	0.327
-498.624	-94.138	0.313	0.086
-497.610	87.130	0.326	0.361
-496.595	-131.069	0.945	0.126
-495.581	800.000	0.098	-0.342
-494.566	240.611	-0.156	-0.261
-493.551	-103.395	-0.270	-0.064
-492.537	-167.120	-0.630	0.026
-491.522	193.120	0.133	-0.201
-490.508	-50.756	-0.688	-0.324
-489.493	445.459	-0.224	0.493
-488.478	202.667	-0.171	-0.265
-487.464	-84.028	0.553	-0.176
-486.449	-11.397	0.337	0.222
-485.435	-72.419	-0.788	0.292
-484.420	-200.000	-0.002	-0.059
-483.405	-200.000	-0.151	-0.730
-482.391	504.713	0.150	-0.348
-481.376	-33.696	-1.252	-0.691
-480.362	171.031	0.387	0.555
-479.347	144.297	0.281	0.375
-478.332	-120.377	0.718	0.122
-477.318	-200.000	-0.204	-1.170
-476.303	-200.000	0.002	-0.520
-475.289	75.013	-0.491	-0.517
-474.274	218.964	0.585	0.935
-473.259	-200.000	0.000	0.148
-472.245	83.718	0.406	0.443
-471.230	262.632	0.186	0.322
-470.216	-200.000	0.033	-0.187
-469.201	-137.135	-0.647	0.074
-468.186	-200.000	-0.007	0.183
-467.172	313.708	0.438	0.825
-466.157	531.800	-0.080	-0.189
-465.143	-200.000	-0.084	-0.523
-464.128	67.350	-0.590	0.602
-463.113	800.000	0.176	0.735
-462.099	-69.961	0.630	-0.240
-461.084	93.645	0.370	-0.420
-460.070	37.237	0.235	-0.209
-459.055	24.574	-0.369	-0.305
-458.040	699.561	-0.115	0.303
-457.026	708.978	-0.168	-0.444
-456.011	81.728	0.304	0.330
-454.997	-122.018	0.236	0.039
-453.982	-98.452	-0.856	-0.219
-452.968	214.528	-0.201	-0.319
-451.953	90.039	0.433	-0.484
-450.938	199.012	0.154	-0.237
-449.924	-142.803	0.884	-0.086
-448.909	-200.000	0.005	-0.365
-447.895	-83.865	-0.142	-0.045
-446.880	-45.049	1.075	-0.535
-445.865	-49.444	0.123	0.059
-444.851	-97.465	0.802	0.208
-443.836	-57.303	-0.553	-0.243
-442.822	-99.947	-0.293	-0.073
-441.807	-200.000	-0.126	-0.655
-440.792	11.718	0.672	-0.516
-439.778	-200.000	-0.488	0.000
-438.763	-200.000	-0.263	1.210
-437.749	49.257	0.048	0.045
-436.734	-63.863	0.052	0.021
-435.719	-200.000	0.021	0.172
-434.705	28.558	-0.338	-0.286
-433.690	-63.908	-0.468	-0.191
-432.676	-200.000	-0.010	0.954
-431.661	-200.000	0.030	0.347
-430.646	271.190	-0.387	-0.681
-429.632	-5.800	0.653	-0.447
-428.617	-106.145	0.971	-0.218
-427.603	-200.000	-0.024	-0.378
-426.588	-128.739	-0.577	-0.081
-425.573	-79.179	-1.029	0.349
-424.559	-36.477	0.304	0.164
-423.544	-200.000	0.018	-0.115
-422.530	196.450	0.304	0.462
-421.515	148.474	-0.365	0.492
-420.500	-16.114	0.912	-0.579
-419.486	-13.624	0.428	0.277
-418.471	-82.008	-0.363	0.118
-417.457	800.000	0.148	0.447
-416.442	-158.763	0.411	-0.023
-415.428	-96.122	-0.270	0.072
-414.413	-90.865	-0.463	-0.133
-413.398	-200.000	-0.132	-0.786
-412.384	-200.000	-0.108	0.737
-411.369	-14.886	0.595	0.381
-410.355	206.862	-0.194	0.302
-409.340	-6.178	-1.050	0.716
-408.325	323.460	0.078	0.148
-407.311	200.243	-0.458	0.703
-406.296	-93.132	-0.651	-0.181
-405.282	-56.890	0.365	-0.161
-404.267	-88.140	0.999	-0.299
-403.252	-33.756	-0.408	0.225
-402.238	-200.000	-0.115	0.590
-401.223	360.129	-0.373	0.744
-400.209	-61.450	0.427	-0.179
-399.194	19.666	0.233	-0.187
-398.179	-96.288	0.675	-0.178
-397.165	19.049	0.556	-0.445
-396.150	201.084	-0.221	-0.339
-395.136	-200.000	0.111	0.653
-394.121	559.632	0.330	-0.794
-393.106	800.000	0.122	0.342
-392.092	-110.538	0.538	-0.111
-391.077	110.715	0.198	-0.237
-390.063	800.000	-0.074	-0.220
-389.048	-141.458	0.548	0.055
-388.033	197.261	-0.649	0.988
-387.019	-200.000	0.117	-0.512
-386.004	140.206	0.409	0.538
-384.990	-200.000	0.022	0.113
-383.975	800.000	-0.114	-0.333
-382.960	-41.637	-0.756	0.387
-381.946	74.240	-0.054	-0.056
-380.931	-200.000	-0.193	-0.859
-379.917	-200.000	0.002	-0.688
-378.902	800.000	-0.059	0.250
-377.888	-114.861	-0.788	0.150
-376.873	-64.216	0.678	-0.276
-375.858	84.543	-0.461	-0.503
-374.844	440.960	0.324	0.707
-373.829	770.541	-0.497	-1.348
-372.815	800.000	-0.369	-1.430
-371.800	-147.530	-0.421	-0.035
-370.785	29.148	-0.171	0.145
-369.771	-155.785	0.227	0.014
-368.756	-135.558	0.886	-0.105
-367.742	-11.208	0.622	0.409
-366.727	-144.660	0.524	0.048
-365.712	66.727	-0.279	0.283
-364.698	115.622	0.158	0.193
-363.683	-200.000	0.051	0.773
-362.669	442.469	-0.440	-0.960
-361.654	337.870	-0.281	-0.544
-360.639	-200.000	-0.054	0.353
-359.625	360.181	-0.190	-0.379
-358.610	-81.998	0.452	0.147
-357.596	11.210	-1.015	-0.774
-356.581	416.569	0.201	-0.427
-355.566	-55.787	0.218	0.097
-354.552	17.267	0.337	0.266
-353.537	411.671	-0.018	0.038
-352.523	746.670	-0.171	-0.459
-351.508	-116.829	-0.345	0.063
-350.493	29.203	0.811	-0.686
-349.479	-133.209	0.198	0.025
-348.464	-200.000	0.020	0.534
-347.450	190.034	0.329	0.493
-346.435	44.436	0.264	-0.241
-345.420	53.331	-0.667	0.636
-344.406	-62.629	-0.899	0.371
-343.391	-100.099	0.228	0.057
-342.377	800.000	0.242	0.802
-341.362	-33.795	0.503	0.276
-340.348	28.858	-0.296	-0.250
-339.333	800.000	-0.027	-0.095
-338.318	-200.000	0.013	0.779
-337.304	-80.995	-0.563	-0.186
-336.289	-200.000	0.051	0.235
-335.275	214.030	-0.251	-0.396
-334.260	-148.111	0.423	0.035
-333.245	-76.031	-0.524	-0.184
-332.231	27.854	-0.246	-0.206
-331.216	201.334	0.098	0.150
-330.202	104.300	-0.366	0.428
-329.187	409.955	0.364	-0.768
-328.172	-49.441	-0.453	-0.215
-327.158	47.388	-0.062	0.057
-326.143	-94.999	-0.039	0.011
-325.129	76.697	0.390	-0.412
-324.114	652.702	-0.364	0.928
-323.099	26.705	-0.217	-0.181
-322.085	480.046	-0.205	-0.462
-321.070	-149.905	-0.498	0.039
-320.056	224.896	0.521	0.838
-319.041	-16.653	0.973	-0.613
-318.026	170.921	0.258	-0.368
-317.012	-80.237	-0.439	0.146
-315.997	-200.000	0.039	-0.229
-314.983	-200.000	-0.032	0.780
-313.968	-178.848	-0.027	0.001
-312.953	21.877	-0.671	0.544
-311.939	417.970	0.301	0.640
-310.924	-63.227	0.859	0.352
-309.910	-106.230	-0.538	0.120
-308.895	28.230	0.595	-0.499
-307.880	-100.374	0.170	-0.042
-306.866	-21.068	-0.077	-0.047
-305.851	-200.000	0.076	0.972
-304.837	-134.501	-1.027	-0.125
-303.822	6.710	-0.498	-0.369
-302.807	92.598	-0.279	0.313
-301.793	-108.190	0.701	0.151
-300.778	-200.000	-0.070	1.182
-299.764	204.056	0.428	-0.659
-298.749	800.000	0.242	-0.767
-297.735	85.434	0.262	0.286
-296.720	520.687	-0.406	0.945
-295.705	265.195	0.648	1.123
-294.691	-16.794	-0.405	0.255
-293.676	-2.552	-0.164	-0.114
-292.662	-91.299	0.278	0.079
-291.647	149.486	-0.276	-0.371
-290.632	11.868	0.331	0.253
-289.618	96.950	0.283	0.322
-288.603	-51.472	0.590	-0.274
-287.589	-87.621	-0.433	0.130
-286.574	-126.001	-0.776	0.116
-285.559	-41.806	0.314	-0.160
-284.545	800.000	0.229	-0.833
-283.530	224.048	-0.249	-0.399
-282.516	22.599	-0.570	0.463
-281.501	-200.000	0.010	-0.218
-280.486	-74.989	0.693	0.246
-279.472	69.875	-0.577	-0.591
-278.457	800.000	0.088	0.311
-277.443	-117.041	-0.410	0.074
-276.428	-121.668	-1.023	0.168
-275.413	-111.627	0.621	-0.125
-274.399	-83.421	-0.676	0.215
-273.384	349.612	0.238	-0.467
-272.370	-68.475	0.513	-0.198
-271.355	-135.522	-0.474	0.056
-270.340	-88.871	0.513	-0.151
-269.326	-200.000	-0.050	0.367
-268.311	-200.000	0.002	0.827
-267.297	-16.086	-0.196	0.124
-266.282	-8.980	-0.358	-0.238
-265.267	-35.894	-1.046	0.562
-264.253	345.666	0.154	0.300
-263.238	-118.117	-0.407	0.072
-262.224	800.000	0.082	-0.225
-261.209	-161.214	0.257	0.013
-260.195	41.816	0.425	-0.382
-259.180	180.985	0.209	-0.304
-258.165	-92.032	-0.569	-0.160
-257.151	-200.000	-0.110	0.835
-256.136	100.236	0.589	-0.678
-255.122	800.000	-0.208	-0.647
-254.107	-200.000	0.178	0.853
-253.092	-106.992	0.828	0.182
-252.078	-200.000	-0.080	0.605
-251.063	143.971	-0.301	0.398
-250.049	-139.841	-0.633	0.067
-249.034	-8.395	-0.732	-0.488
-248.019	-47.768	-0.711	0.342
-247.005	-200.000	0.016	-0.455
-245.990	-200.000	-0.037	0.205
-244.976	99.355	0.530	0.608
-243.961	800.000	-0.159	0.514
-242.946	664.536	-0.199	0.509
-241.932	-62.022	-0.144	0.060
-240.917	620.160	-0.320	-0.798
-239.903	15.220	-0.708	-0.551
-238.888	111.652	0.205	-0.246
-237.873	-80.081	0.352	-0.117
-236.859	-200.000	-0.035	0.702
-235.844	13.823	0.358	0.276
-234.830	-11.280	-0.612	0.400
-233.815	-60.300	-0.486	0.205
-232.800	93.395	0.591	-0.663
-231.786	-200.000	-0.040	-0.543
-230.771	-200.000	-0.097	-0.834
-229.757	-8.387	0.818	-0.545
-228.742	800.000	-0.094	-0.382
-227.727	-9.528	-0.384	0.254
-226.713	-100.388	0.343	0.084
-225.698	-105.883	0.359	0.080
-224.684	-163.144	0.157	0.008
-223.669	800.000	-0.088	0.374
-222.655	-200.000	0.023	-0.305
-221.640	-90.878	0.353	-0.101
-220.625	-135.992	-0.235	-0.027
-219.611	164.193	-0.094	0.132
-218.596	-200.000	-0.024	-0.333
-217.582	-120.057	0.994	0.169
-216.567	-163.356	-0.248	0.012
-215.552	78.747	0.266	0.282
-214.538	58.274	-0.257	-0.250
-213.523	-200.000	-0.054	-0.304
-212.509	-81.625	-0.301	0.098
-211.494	-200.000	0.056	0.493
-210.479	50.460	0.639	0.599
-209.465	1.931	0.379	-0.271
-208.450	51.543	-0.257	0.242
-207.436	-37.157	0.644	0.341
-206.421	-76.465	0.279	0.097
-205.406	15.973	0.158	-0.123
-204.392	-68.308	0.059	0.023
-203.377	212.035	0.293	-0.457
-202.363	35.801	-0.357	-0.311
-201.348	193.882	0.207	-0.311
-200.333	356.846	-0.106	0.209
-199.319	-200.000	-0.107	1.116
-198.304	-117.385	-0.680	-0.122
-197.290	800.000	-0.180	-0.620
-196.275	125.148	0.773	-0.965
-195.260	339.892	0.504	-0.974
-194.246	-200.000	-0.042	-0.226
-193.231	-200.000	0.103	0.973
-192.217	98.431	-0.184	0.210
-191.202	496.683	-0.038	-0.087
-190.187	-31.244	-0.069	0.038
-189.173	-149.921	0.826	-0.064
-188.158	98.504	-0.580	-0.662
-187.144	180.510	0.424	-0.616
-186.129	-154.651	-0.932	-0.061
-185.114	-68.430	0.694	-0.267
-184.100	117.676	-0.479	-0.584
-183.085	189.497	0.436	0.646
-182.071	303.405	-0.108	-0.198
-181.056	154.307	0.224	0.304
-180.042	-200.000	0.027	-0.483
-179.027	109.270	-0.579	0.686
-178.012	-103.005	-0.559	-0.131
-176.998	103.640	0.475	0.551
-175.983	446.854	0.206	0.449
-174.969	12.876	-0.380	-0.291
-173.954	-93.075	-0.854	0.235
-172.939	567.213	-0.463	1.113
-171.925	-72.061	-0.463	-0.170
-170.910	-62.623	-0.727	0.298
-169.896	481.837	-0.064	0.144
-168.881	-200.000	0.008	0.958
-167.866	178.762	0.231	0.333
-166.852	54.778	-0.594	-0.567
-165.837	81.227	-0.388	-0.414
-164.823	-12.801	0.554	0.357
-163.808	-104.960	0.788	0.179
-162.793	75.940	-0.228	-0.239
-161.779	800.000	-0.223	0.637
-160.764	-140.405	-1.124	-0.116
-159.750	35.241	0.095	-0.082
-158.735	-200.000	0.185	0.812
-157.720	230.596	0.187	0.302
-156.706	396.421	0.185	0.382
-155.691	422.461	-0.265	0.562
-154.677	-20.474	0.158	0.096
-153.662	235.863	-0.416	0.680
-152.647	136.767	-0.360	0.464
-151.633	-200.000	-0.054	-0.501
-150.618	-200.000	0.137	-0.650
-149.604	-87.939	-0.214	0.063
-148.589	228.966	-0.255	0.411
-147.574	-51.081	0.747	0.346
-146.560	-200.000	0.156	-0.702
-145.545	321.755	-0.183	-0.344
-144.531	-119.629	0.522	0.089
-143.516	-51.959	-0.478	-0.220
-142.502	-200.000	0.018	0.265
-141.487	-105.225	-0.446	0.100
-140.472	336.153	0.343	-0.657
-139.458	-23.071	0.318	-0.189
-138.443	38.204	-0.094	0.083
-137.429	-123.837	-0.661	-0.103
-136.414	38.005	-0.422	0.370
-135.399	-172.780	0.453	-0.014
-134.385	232.090	0.179	0.291
-133.370	222.691	-0.337	0.537
-132.356	-200.000	-0.061	0.848
-131.341	-151.743	0.359	-0.026
-130.326	-176.307	-1.042	-0.027
-129.312	9.502	0.421	-0.315
-128.297	45.201	0.410	0.373
-127.283	-137.239	-0.404	0.045
-126.268	94.711	-0.149	-0.167
-125.253	503.993	0.412	-0.941
-124.239	55.270	-0.218	0.208
-123.224	215.839	0.229	0.359
-122.210	161.054	-0.146	-0.202
-121.195	-69.453	0.412	-0.156
