DTS Sentinel unit serial number:	SN413079Multiplexer serial number:	ORYXHardware model number:	OX4-SRSoftware version number:	ORYX F/W v4.00 Oryx Data Collector v3.7.2.0data status	okinstallation	princeton_trtdifferential loss correction	single-endedforward channel	channel 3reverse channel	N/Adate	2019/09/19time	05:04:34forward acquisition time	60.00reverse acquisition time	0.00gamma	496.2192k internal	0.2348k external	0.2348temperature offset calibration	0.9991default loss term (dB/km)	0.3790temperature slope calibration	1.0000multiplexer offset coefficient	1.0000multiplexer slope coefficient	1.0000fibre end	0.00T internal ref (°C)	19.62T ext. ref 1 (°C)	0.61T ext. ref 2 (°C)	12.83length (m)	temperature (°C)	Stokes	anti-Stokes-747.200	-83.877	-0.173	-0.055
-746.185	-200.000	0.014	-0.086
-745.171	-86.083	0.243	-0.075
-744.156	-76.873	-0.249	0.087
-743.142	478.224	0.052	0.118
-742.127	484.706	-0.077	0.175
-741.112	461.950	-0.016	-0.036
-740.098	329.721	-0.150	0.288
-739.083	-79.484	-0.211	-0.071
-738.069	509.202	-0.184	0.427
-737.054	256.569	-0.117	0.200
-736.039	12.660	-0.275	-0.212
-735.025	-90.179	0.474	0.138
-734.010	9.874	0.126	-0.096
-732.996	82.387	-0.232	-0.252
-731.981	200.887	0.077	-0.119
-730.966	-29.816	-0.110	-0.063
-729.952	755.022	-0.045	-0.120
-728.937	28.235	-0.244	-0.206
-727.923	18.287	-0.232	-0.185
-726.908	800.000	-0.030	-0.111
-725.894	-77.886	0.352	-0.121
-724.879	-44.955	-0.138	0.068
-723.864	335.267	-0.232	-0.449
-722.850	183.596	-0.252	-0.372
-721.835	-200.000	-0.004	-0.045
-720.821	171.155	0.128	0.183
-719.806	-154.569	-0.027	-0.002
-718.791	103.754	0.239	-0.280
-717.777	-52.904	-0.181	-0.083
-716.762	-3.942	0.152	-0.106
-715.748	27.791	0.041	-0.035
-714.733	438.813	-0.209	0.455
-713.718	-67.609	-0.159	0.062
-712.704	-64.353	0.210	-0.085
-711.689	272.978	-0.094	0.165
-710.675	800.000	0.086	-0.299
-709.660	-200.000	-0.045	-0.358
-708.645	531.477	0.063	-0.148
-707.631	-53.853	-0.245	0.111
-706.616	746.470	0.140	-0.376
-705.602	-7.700	0.202	-0.136
-704.587	800.000	0.099	-0.344
-703.572	-36.965	0.183	-0.098
-702.558	-62.981	0.432	0.178
-701.543	-200.000	0.001	0.035
-700.529	-146.678	-0.171	-0.015
-699.514	43.017	0.165	0.150
-698.499	77.026	0.147	-0.155
-697.485	-200.000	0.008	-0.093
-696.470	-138.111	-0.243	0.027
-695.456	18.956	0.202	0.162
-694.441	246.910	0.033	-0.055
-693.426	-166.081	-0.438	-0.019
-692.412	509.021	0.106	-0.245
-691.397	-8.517	-0.377	0.252
-690.383	-81.761	-0.120	-0.039
-689.368	116.405	0.049	0.060
-688.354	-115.323	0.189	-0.036
-687.339	-28.077	-0.274	-0.158
-686.324	-200.000	0.029	0.311
-685.310	579.340	-0.046	-0.111
-684.295	800.000	0.114	-0.320
-683.281	800.000	0.037	-0.144
-682.266	25.299	0.180	0.149
-681.251	67.899	-0.060	-0.061
-680.237	177.938	0.037	-0.054
-679.222	746.671	-0.050	0.136
-678.208	22.153	0.109	0.089
-677.193	71.517	0.109	-0.113
-676.178	-94.704	0.042	0.011
-675.164	73.878	0.136	0.142
-674.149	-34.040	0.300	-0.164
-673.135	131.518	0.099	0.127
-672.120	800.000	0.051	0.146
-671.105	800.000	-0.104	-0.305
-670.091	800.000	0.115	-0.408
-669.076	800.000	-0.097	0.306
-668.062	-200.000	-0.003	0.275
-667.047	-26.641	-0.195	-0.113
-666.032	-200.000	-0.006	0.107
-665.018	394.831	0.051	-0.105
-664.003	95.313	-0.166	0.189
-662.989	-200.000	-0.013	-0.178
-661.974	205.274	-0.097	-0.150
-660.959	84.002	-0.074	-0.081
-659.945	-200.000	0.019	-0.226
-658.930	800.000	0.056	-0.223
-657.916	-47.849	-0.080	0.039
-656.901	126.705	-0.029	-0.036
-655.886	-88.273	-0.216	0.064
-654.872	77.325	0.047	-0.050
-653.857	-83.073	-0.131	-0.042
-652.843	800.000	0.041	-0.124
-651.828	800.000	0.144	0.431
-650.814	98.381	-0.154	-0.177
-649.799	379.958	0.169	-0.346
-648.784	-80.166	-0.275	-0.092
-647.770	-0.479	-0.415	0.293
-646.755	-90.478	0.379	-0.109
-645.741	-7.294	-0.197	0.133
-644.726	-200.000	0.040	-0.197
-643.711	-178.111	-0.205	0.005
-642.697	-148.923	0.523	-0.042
-641.682	800.000	0.090	-0.326
-640.668	351.316	-0.030	0.058
-639.653	-44.019	-0.461	0.230
-638.638	-38.677	0.194	0.102
-637.624	197.815	0.150	-0.229
-636.609	139.411	0.070	0.092
-635.595	-95.395	-0.288	-0.077
-634.580	226.857	-0.097	0.157
-633.565	71.391	-0.097	-0.100
-632.551	-200.000	-0.017	0.128
-631.536	-104.355	0.052	0.012
-630.522	64.109	-0.072	0.072
-629.507	56.984	0.185	0.180
-628.492	135.783	-0.262	-0.340
-627.478	123.077	0.049	-0.061
-626.463	-200.000	-0.011	-0.213
-625.449	0.436	0.157	-0.111
-624.434	198.210	0.133	0.202
-623.419	73.887	-0.150	-0.156
-622.405	208.479	0.155	-0.240
-621.390	-115.087	-0.139	-0.026
-620.376	-200.000	0.000	-0.096
-619.361	15.925	-0.198	0.155
-618.346	106.540	-0.059	-0.069
-617.332	800.000	-0.074	-0.253
-616.317	-8.627	0.304	-0.203
-615.303	-200.000	-0.016	0.270
-614.288	703.642	-0.173	-0.453
-613.273	-200.000	-0.031	-0.289
-612.259	-100.802	-0.204	0.050
-611.244	794.008	0.173	-0.474
-610.230	411.308	0.086	0.182
-609.215	54.837	-0.181	0.173
-608.201	38.967	0.211	-0.188
-607.186	-20.983	-0.231	-0.140
-606.171	-42.949	-0.240	0.121
-605.157	800.000	0.040	0.131
-604.142	32.497	-0.436	0.374
-603.128	-131.410	-0.088	0.011
-602.113	-200.000	0.029	-0.199
-601.098	-6.006	-0.136	0.093
-600.084	337.132	-0.074	-0.143
-599.069	800.000	0.073	0.231
-598.055	-71.068	-0.152	0.057
-597.040	-200.000	-0.033	0.177
-596.025	-200.000	0.014	0.073
-595.011	-21.760	0.343	-0.208
-593.996	800.000	0.057	0.245
-592.982	800.000	-0.115	0.319
-591.967	186.170	-0.163	-0.241
-590.952	-53.334	0.096	0.044
-589.938	-200.000	-0.046	0.253
-588.923	-65.715	-0.235	-0.094
-587.909	-200.000	-0.037	-0.344
-586.894	215.746	-0.093	-0.146
-585.879	22.797	-0.108	-0.088
-584.865	436.462	0.157	-0.340
-583.850	4.733	-0.137	0.100
-582.836	249.161	-0.086	0.145
-581.821	68.244	0.111	-0.113
-580.806	800.000	-0.056	-0.207
-579.792	204.428	0.186	-0.287
-578.777	-0.718	0.181	-0.128
-577.763	-119.128	-0.334	-0.058
-576.748	-28.535	-0.206	0.118
-575.733	50.857	0.065	-0.062
-574.719	-85.382	-0.261	-0.081
-573.704	100.651	-0.109	0.126
-572.690	-33.333	-0.280	0.154
-571.675	-3.410	-0.199	0.138
-570.661	-200.000	-0.020	-0.141
-569.646	425.856	-0.063	-0.134
-568.631	-103.502	0.177	0.041
-567.617	258.251	-0.123	0.211
-566.602	-200.000	0.045	-0.270
-565.588	-135.017	-0.076	-0.009
-564.573	-97.190	0.067	0.017
-563.558	-90.654	0.196	-0.056
-562.544	-200.000	0.018	0.105
-561.529	92.512	-0.061	-0.068
-560.515	800.000	0.063	-0.254
-559.500	-200.000	-0.076	-0.495
-558.485	44.019	-0.096	0.087
-557.471	80.960	-0.167	0.179
-556.456	800.000	-0.027	-0.076
-555.442	-200.000	0.002	0.058
-554.427	800.000	-0.047	0.133
-553.412	-28.511	-0.099	0.056
-552.398	-200.000	0.035	0.180
-551.383	-200.000	0.042	0.340
-550.369	41.259	-0.108	0.097
-549.354	-86.449	0.352	0.107
-548.339	74.462	-0.257	0.268
-547.325	-200.000	-0.041	-0.368
-546.310	183.782	-0.205	0.300
-545.296	-6.524	0.312	-0.211
-544.281	376.028	-0.112	0.227
-543.266	-107.957	0.303	0.065
-542.252	-68.358	-0.232	0.089
-541.237	12.741	0.217	-0.166
-540.223	89.861	-0.153	0.169
-539.208	-172.640	-0.070	0.002
-538.193	-27.248	0.387	-0.223
-537.179	273.310	0.106	-0.186
-536.164	-200.000	-0.021	-0.141
-535.150	-118.838	0.173	0.030
-534.135	-200.000	0.013	-0.089
-533.121	200.799	-0.072	-0.109
-532.106	133.876	0.097	0.125
-531.091	800.000	-0.129	-0.400
-530.077	-200.000	-0.019	0.114
-529.062	800.000	0.099	-0.319
-528.048	77.254	-0.126	-0.132
-527.033	152.223	0.187	0.253
-526.018	-37.097	-0.322	0.171
-525.004	704.953	0.095	-0.247
-523.989	237.887	0.069	0.114
-522.975	-200.000	0.015	0.100
-521.960	-200.000	0.021	0.164
-520.945	800.000	0.064	0.189
-519.931	5.737	0.051	-0.037
-518.916	348.750	0.127	0.247
-517.902	193.162	0.162	-0.243
-516.887	800.000	-0.079	-0.304
-515.872	-200.000	-0.056	-0.445
-514.858	221.897	-0.125	-0.198
-513.843	81.403	-0.146	0.156
-512.829	-173.918	-0.179	-0.005
-511.814	14.858	0.163	-0.126
-510.799	800.000	-0.102	-0.356
-509.785	-69.701	-0.220	-0.083
-508.770	-200.000	0.028	-0.174
-507.756	-36.269	-0.002	-0.001
-506.741	-200.000	-0.001	-0.194
-505.726	-200.000	0.027	-0.269
-504.712	322.894	-0.046	0.086
-503.697	55.215	0.176	-0.169
-502.683	800.000	-0.096	-0.395
-501.668	-187.779	-0.268	-0.003
-500.653	800.000	-0.109	-0.381
-499.639	129.419	0.077	-0.097
-498.624	-52.706	0.266	-0.122
-497.610	-200.000	0.015	-0.520
-496.595	-149.050	-0.230	-0.018
-495.581	75.334	0.141	0.148
-494.566	-66.805	-0.158	-0.062
-493.551	10.480	-0.173	-0.131
-492.537	-200.000	0.033	-0.173
-491.522	9.496	-0.062	0.047
-490.508	67.499	-0.258	0.261
-489.493	190.679	-0.135	0.200
-488.478	-103.154	0.260	0.061
-487.464	-200.000	0.058	-0.283
-486.449	-200.000	-0.010	-0.116
-485.435	62.674	0.070	-0.069
-484.420	93.253	0.210	-0.234
-483.405	-136.499	-0.149	-0.017
-482.391	219.969	-0.077	-0.122
-481.376	-115.264	0.124	-0.023
-480.362	-159.603	0.367	0.020
-479.347	-95.792	-0.060	0.016
-478.332	-30.589	0.177	-0.099
-477.318	-200.000	-0.002	-0.032
-476.303	3.296	0.151	-0.109
-475.289	-54.450	0.214	-0.096
-474.274	800.000	-0.077	0.237
-473.259	-9.814	-0.139	-0.091
-472.245	548.059	0.057	-0.134
-471.230	-9.480	0.174	0.115
-470.216	-20.921	-0.142	-0.086
-469.201	-57.825	0.081	-0.035
-468.186	340.363	-0.149	-0.288
-467.172	15.579	0.137	0.106
-466.157	-121.437	-0.191	-0.031
-465.143	-200.000	0.039	0.270
-464.128	53.859	0.152	0.144
-463.113	86.417	0.091	0.099
-462.099	800.000	-0.084	0.319
-461.084	22.448	-0.065	-0.052
-460.070	-113.979	-0.343	0.066
-459.055	116.245	0.122	0.147
-458.040	49.345	0.232	0.216
-457.026	-200.000	0.039	0.171
-456.011	397.560	0.181	-0.374
-454.997	-35.192	-0.017	0.009
-453.982	-115.143	-0.324	-0.061
-452.968	-135.333	0.247	0.029
-451.953	800.000	-0.025	0.101
-450.938	0.504	0.232	-0.163
-449.924	800.000	-0.072	-0.206
-448.909	239.166	-0.051	0.084
-447.895	518.764	0.108	0.251
-446.880	704.613	0.070	-0.183
-445.865	478.044	0.153	-0.341
-444.851	-163.039	0.113	-0.005
-443.836	114.393	0.005	0.006
-442.822	-56.533	0.233	0.102
-441.807	-64.918	-0.181	0.072
-440.792	-149.171	0.329	0.026
-439.778	45.853	-0.028	0.026
-438.763	19.682	0.205	-0.163
-437.749	-99.709	-0.223	0.055
-436.734	-70.528	0.149	0.056
-435.719	169.517	-0.157	-0.221
-434.705	233.323	0.204	-0.331
-433.690	-19.267	-0.123	-0.075
-432.676	18.283	-0.170	0.134
-431.661	-179.314	-0.232	-0.005
-430.646	201.335	0.082	0.125
-429.632	27.137	-0.313	0.259
-428.617	-200.000	-0.007	-0.142
-427.603	-66.726	0.081	0.032
-426.588	521.345	-0.061	-0.142
-425.573	99.430	-0.210	-0.239
-424.559	-96.406	-0.329	0.086
-423.544	-22.264	0.173	-0.103
-422.530	-200.000	0.019	-0.120
-421.515	800.000	-0.062	-0.226
-420.500	175.732	0.036	0.051
-419.486	-102.671	0.233	0.055
-418.471	-85.855	-0.241	0.074
-417.457	-130.350	-0.206	-0.028
-416.442	-144.956	0.353	0.032
-415.428	79.188	-0.335	0.354
-414.413	-200.000	-0.019	0.159
-413.398	16.738	0.310	0.242
-412.384	412.907	0.148	-0.309
-411.369	-200.000	0.033	0.208
-410.355	74.062	0.037	-0.038
-409.340	22.875	-0.209	0.169
-408.325	-34.953	-0.236	0.127
-407.311	319.428	0.069	0.129
-406.296	-200.000	-0.036	0.169
-405.282	-200.000	0.067	0.292
-404.267	-169.729	-0.173	-0.006
-403.252	-48.198	0.337	0.161
-402.238	98.962	-0.216	0.246
-401.223	-83.698	0.112	0.035
-400.209	-67.684	0.222	0.085
-399.194	-78.650	0.295	0.099
-398.179	800.000	-0.058	0.243
-397.165	210.470	-0.146	0.226
-396.150	79.601	0.176	-0.186
-395.136	800.000	0.019	-0.068
-394.121	-104.524	0.170	0.039
-393.106	-23.229	-0.122	-0.072
-392.092	80.789	-0.145	-0.154
-391.077	-66.008	-0.333	-0.131
-390.063	-0.269	0.329	0.231
-389.048	22.794	-0.083	-0.067
-388.033	-88.036	-0.117	-0.035
-387.019	-47.383	-0.244	-0.117
-386.004	-60.088	-0.353	-0.148
-384.990	214.728	0.137	0.214
-383.975	319.709	0.111	-0.208
-382.960	-136.153	0.029	-0.003
-381.946	55.096	0.216	0.206
-380.931	-174.494	0.148	-0.004
-379.917	686.258	0.065	-0.168
-378.902	-57.757	-0.397	-0.171
-377.888	-20.459	0.219	0.133
-376.873	23.000	-0.165	-0.133
-375.858	20.795	-0.189	-0.151
-374.844	79.070	0.059	-0.062
-373.829	56.632	0.360	-0.345
-372.815	674.806	0.110	-0.281
-371.800	800.000	-0.057	-0.211
-370.785	-102.495	-0.157	0.037
-369.771	-123.897	0.227	-0.035
-368.756	-119.019	0.244	0.042
-367.742	20.924	0.096	0.077
-366.727	115.808	-0.071	-0.085
-365.712	582.423	0.205	-0.495
-364.698	-160.224	0.127	0.007
-363.683	-200.000	-0.242	0.000
-362.669	-200.000	-0.096	-0.448
-361.654	0.715	0.152	-0.107
-360.639	-184.310	0.323	-0.005
-359.625	-200.000	0.022	0.197
-358.610	-200.000	-0.049	-0.302
-357.596	-58.282	-0.101	-0.043
-356.581	-200.000	-0.047	-0.226
-355.566	800.000	0.061	0.190
-354.552	265.020	0.079	0.135
-353.537	208.792	0.184	0.284
-352.523	-65.007	0.276	0.110
-351.508	-7.626	-0.334	0.222
-350.493	-128.002	0.103	-0.015
-349.479	-200.000	0.000	0.180
-348.464	-200.000	0.000	0.238
-347.450	494.292	-0.023	0.052
-346.435	-100.718	-0.253	0.061
-345.420	-26.814	0.389	0.224
-344.406	-43.302	0.031	0.015
-343.391	-84.207	-0.165	-0.051
-342.377	191.464	0.201	0.297
-341.362	100.398	0.059	-0.068
-340.348	484.505	0.082	-0.182
-339.333	-37.591	-0.164	-0.086
-338.318	159.954	-0.185	0.253
-337.304	441.341	-0.065	0.139
-336.289	406.143	-0.150	0.311
-335.275	-107.212	-0.222	-0.048
-334.260	-108.131	0.387	-0.082
-333.245	339.613	0.041	-0.079
-332.231	94.978	0.230	0.257
-331.216	-72.457	0.190	-0.069
-330.202	-40.495	-0.199	-0.102
-329.187	800.000	0.044	0.134
-328.172	-43.872	-0.272	0.135
-327.158	172.666	0.115	-0.162
-326.143	-200.000	-0.064	0.444
-325.129	326.481	-0.071	0.133
-324.114	31.516	-0.326	0.276
-323.099	-52.540	0.171	-0.078
-322.085	-200.000	0.036	-0.225
-321.070	8.450	-0.288	-0.213
-320.056	37.984	0.246	-0.215
-319.041	-135.629	0.120	-0.014
-318.026	11.724	-0.043	0.032
-317.012	670.156	0.012	0.031
-315.997	496.527	0.155	0.350
-314.983	-200.000	0.047	-0.386
-313.968	604.201	0.120	-0.292
-312.953	334.388	0.181	0.345
-311.939	237.042	-0.121	0.196
-310.924	-145.874	0.319	0.028
-309.910	109.553	-0.110	0.130
-308.895	81.504	-0.203	0.216
-307.880	-131.153	0.176	0.023
-306.866	-132.425	-0.227	-0.029
-305.851	-200.000	0.013	-0.101
-304.837	112.334	0.112	-0.133
-303.822	-64.926	0.181	0.072
-302.807	-64.995	-0.055	-0.022
-301.793	-37.907	-0.176	-0.092
-300.778	52.108	-0.085	0.079
-299.764	101.246	0.237	-0.271
-298.749	-123.302	0.183	0.029
-297.735	-200.000	-0.003	-0.082
-296.720	-200.000	0.072	0.312
-295.705	800.000	-0.044	-0.154
-294.691	229.927	-0.219	-0.351
-293.676	-200.000	-0.061	-0.286
-292.662	-200.000	-0.003	0.305
-291.647	-200.000	-0.007	-0.183
-290.632	79.795	-0.091	-0.096
-289.618	-16.140	-0.140	-0.087
-288.603	-123.627	0.054	-0.008
-287.589	394.813	0.106	0.216
-286.574	351.274	0.036	-0.070
-285.559	-51.135	0.065	-0.030
-284.545	473.174	0.135	0.299
-283.530	800.000	0.015	-0.058
-282.516	181.085	-0.314	0.453
-281.501	-93.219	0.147	-0.040
-280.486	-200.000	-0.010	0.059
-279.472	800.000	-0.103	0.343
-278.457	-200.000	-0.038	-0.359
-277.443	32.773	0.108	-0.092
-276.428	-49.603	0.266	0.124
-275.413	-51.539	-0.226	-0.103
-274.399	-39.822	-0.159	-0.081
-273.384	-200.000	-0.008	0.351
-272.370	-38.252	-0.243	-0.126
-271.355	-200.000	0.015	0.210
-270.340	78.805	-0.079	-0.083
-269.326	-200.000	0.029	-0.131
-268.311	-143.759	0.439	0.041
-267.297	134.712	0.220	0.280
-266.282	19.328	-0.094	0.074
-265.267	11.112	0.254	-0.190
-264.253	593.027	0.070	-0.169
-263.238	-73.867	0.341	0.122
-262.224	-105.434	0.079	0.018
-261.209	-200.000	0.001	-0.211
-260.195	-200.000	-0.016	0.168
-259.180	-78.034	0.046	-0.016
-258.165	10.365	-0.242	0.180
-257.151	48.513	-0.111	-0.102
-256.136	284.969	-0.105	0.185
-255.122	800.000	0.055	0.231
-254.107	37.199	-0.086	0.075
-253.092	240.382	-0.240	-0.392
-252.078	800.000	0.067	-0.280
-251.063	70.822	-0.079	-0.080
-250.049	-93.399	-0.156	0.042
-249.034	-94.341	-0.314	0.084
-248.019	-19.314	-0.210	0.128
-247.005	-178.217	0.269	0.006
-245.990	604.823	-0.086	-0.211
-244.976	-97.706	-0.103	-0.026
-243.961	-200.000	0.054	-0.328
-242.946	-21.717	0.474	-0.283
-241.932	-200.000	0.014	-0.093
-240.917	800.000	-0.053	0.179
-239.903	72.484	-0.154	-0.158
-238.888	-200.000	-0.335	0.001
-237.873	-36.551	0.240	0.126
-236.859	800.000	0.064	-0.194
-235.844	-63.746	0.185	0.074
-234.830	18.793	-0.060	0.047
-233.815	-55.382	0.241	0.106
-232.800	-47.450	0.165	0.078
-231.786	-38.324	-0.071	0.037
-230.771	140.033	0.250	0.323
-229.757	76.027	-0.183	-0.189
-228.742	-43.053	0.106	0.052
-227.727	-48.118	-0.527	-0.249
-226.713	-200.000	0.040	-0.256
-225.698	-138.000	-0.194	0.021
-224.684	197.919	-0.181	0.270
-223.669	800.000	-0.073	0.224
-222.655	18.903	0.192	0.150
-221.640	281.371	-0.190	0.332
-220.625	124.380	-0.220	0.271
-219.611	-200.000	0.028	-0.194
-218.596	-170.740	-0.140	0.005
-217.582	36.863	-0.214	0.185
-216.567	-105.536	-0.108	0.024
-215.552	-123.049	-0.033	-0.005
-214.538	-185.672	-0.384	-0.006
-213.523	-200.000	0.034	-0.203
-212.509	39.363	-0.131	-0.115
-211.494	-86.903	0.208	-0.062
-210.479	127.902	0.135	0.168
-209.465	29.248	0.252	0.209
-208.450	42.451	0.289	0.257
-207.436	-79.578	-0.042	0.014
-206.421	-200.000	-0.019	0.165
-205.406	800.000	-0.050	0.178
-204.392	-84.571	0.190	0.059
-203.377	15.922	0.368	0.284
-202.363	8.663	0.112	-0.082
-201.348	800.000	-0.083	0.331
-200.333	478.520	0.058	0.128
-199.319	-58.321	0.180	0.076
-198.304	387.877	0.147	0.297
-197.290	-17.426	-0.287	0.177
-196.275	-200.000	-0.036	0.167
-195.260	-5.039	0.350	0.236
-194.246	100.314	0.230	-0.261
-193.231	-49.774	0.119	0.055
-192.217	800.000	-0.044	0.147
-191.202	174.678	0.062	0.087
-190.187	-200.000	-0.016	0.158
-189.173	-108.877	0.169	-0.035
-188.158	228.905	0.204	0.326
-187.144	-35.238	0.155	-0.083
-186.129	-200.000	0.007	-0.158
-185.114	-3.612	0.223	0.152
-184.100	-29.825	-0.115	0.064
-183.085	800.000	0.054	0.188
-182.071	-64.986	0.289	0.114
-181.056	165.264	-0.090	-0.124
-180.042	800.000	-0.010	0.029
-179.027	-200.000	-0.027	-0.255
-178.012	638.094	-0.035	0.086
-176.998	-92.777	0.146	0.040
-175.983	800.000	0.028	0.084
-174.969	-200.000	0.024	0.213
-173.954	800.000	-0.106	0.361
-172.939	190.908	0.163	-0.240
-171.925	534.150	0.141	0.325
-170.910	800.000	0.082	-0.230
-169.896	-11.813	-0.176	0.113
-168.881	-67.985	-0.207	0.079
-167.866	-72.967	-0.254	0.091
-166.852	-145.522	0.244	-0.021
-165.837	800.000	-0.024	-0.090
-164.823	-131.046	-0.037	-0.005
-163.808	-200.000	0.041	0.363
-162.793	-200.000	-0.072	0.417
-161.779	270.141	-0.085	-0.145
-160.764	-23.549	-0.094	0.055
-159.750	-106.681	-0.236	0.051
-158.735	-81.027	-0.216	-0.070
-157.720	-200.000	0.019	0.267
-156.706	-86.171	0.169	-0.051
-155.691	1.200	-0.143	0.100
-154.677	800.000	0.052	-0.204
-153.662	-3.141	-0.252	0.172
-152.647	-200.000	0.045	-0.215
-151.633	-48.773	0.240	0.113
-150.618	38.503	-0.369	0.321
-149.604	-200.000	-0.044	0.271
-148.589	-30.009	0.313	-0.174
-147.574	37.879	0.303	0.263
-146.560	52.490	-0.154	0.143
-145.545	181.843	0.406	-0.583
-144.531	800.000	-0.022	0.061
-143.516	-65.850	0.259	0.101
-142.502	106.913	-0.121	0.140
-141.487	-98.371	0.359	-0.090
-140.472	323.115	0.158	0.294
-139.458	99.611	0.214	-0.242
-138.443	-137.523	0.095	-0.010
-137.429	317.503	-0.083	0.152
-136.414	-200.000	0.051	0.241
-135.399	-49.677	-0.202	-0.094
-134.385	700.804	-0.078	-0.200
-133.370	800.000	0.013	-0.039
-132.356	10.125	-0.151	-0.112
-131.341	91.694	-0.155	0.170
-130.326	12.958	-0.096	0.073
-129.312	677.534	-0.015	0.039
-128.297	-100.984	0.382	0.091
-127.283	-7.737	0.098	-0.065
-126.268	-145.074	0.180	0.016
-125.253	-101.155	0.135	0.032
-124.239	515.735	-0.088	0.199
-123.224	59.128	0.246	0.236
-122.210	-200.000	-0.004	-0.306
-121.195	-200.000	-0.002	-0.159
-120.180	135.484	-0.187	0.237
