DTS Sentinel unit serial number:	SN413079Multiplexer serial number:	ORYXHardware model number:	OX4-SRSoftware version number:	ORYX F/W v4.00 Oryx Data Collector v3.7.2.0data status	okinstallation	princeton_trtdifferential loss correction	single-endedforward channel	channel 3reverse channel	N/Adate	2019/09/16time	13:12:34forward acquisition time	60.00reverse acquisition time	0.00gamma	496.2192k internal	0.2294k external	0.2294temperature offset calibration	0.9940default loss term (dB/km)	0.3790temperature slope calibration	1.0000multiplexer offset coefficient	1.0000multiplexer slope coefficient	1.0000fibre end	0.00T internal ref (°C)	41.02T ext. ref 1 (°C)	13.67T ext. ref 2 (°C)	38.87length (m)	temperature (°C)	Stokes	anti-Stokes-747.200	-168.023	0.155	-0.006
-746.185	-200.000	-0.055	0.302
-745.171	768.699	0.054	0.151
-744.156	16.432	-0.179	-0.145
-743.142	-151.143	-0.285	0.022
-742.127	186.473	-0.077	0.117
-741.112	673.934	0.111	0.293
-740.098	28.151	-0.297	-0.256
-739.083	13.842	0.233	-0.186
-738.069	-110.735	-0.240	0.051
-737.054	-30.653	-0.313	0.181
-736.039	65.220	0.037	-0.038
-735.025	-72.203	0.218	0.082
-734.010	39.095	-0.081	-0.074
-732.996	16.099	-0.053	0.043
-731.981	517.439	0.088	0.212
-730.966	-102.583	-0.476	0.116
-729.952	258.849	0.175	-0.309
-728.937	-74.251	-0.123	0.045
-727.923	-21.863	-0.197	-0.122
-726.908	672.747	-0.023	0.060
-725.894	-90.901	-0.059	0.017
-724.879	689.031	0.091	-0.244
-723.864	280.456	-0.241	-0.441
-722.850	-134.296	0.332	0.042
-721.835	300.767	-0.250	0.472
-720.821	-200.000	0.068	0.315
-719.806	-129.516	-0.166	-0.024
-718.791	-200.000	0.047	-0.238
-717.777	591.552	-0.055	-0.137
-716.762	-37.867	-0.138	0.075
-715.748	-80.138	-0.222	0.076
-714.733	-200.000	0.050	-0.306
-713.718	-200.000	-0.054	0.266
-712.704	11.524	-0.228	0.179
-711.689	-88.096	-0.184	-0.056
-710.675	-200.000	-0.231	0.001
-709.660	568.328	-0.175	0.435
-708.645	48.733	0.021	0.020
-707.631	-200.000	0.006	-0.171
-706.616	63.115	0.104	0.106
-705.602	-200.000	-0.012	0.275
-704.587	-95.045	0.185	0.051
-703.572	-8.952	-0.234	0.160
-702.558	-200.000	-0.020	-0.274
-701.543	-141.793	0.268	-0.027
-700.529	-33.257	-0.236	-0.133
-699.514	-114.449	-0.410	-0.081
-698.499	-200.000	-0.008	-0.088
-697.485	425.324	-0.070	0.153
-696.470	223.336	0.008	0.013
-695.456	-79.185	-0.110	-0.038
-694.441	95.241	-0.191	0.222
-693.426	-46.564	0.138	0.069
-692.412	-6.108	0.172	-0.120
-691.397	800.000	0.056	-0.174
-690.383	551.116	-0.084	0.205
-689.368	-18.991	-0.173	0.110
-688.354	2.514	0.124	0.092
-687.339	174.625	0.106	0.156
-686.324	-35.880	0.198	0.109
-685.310	800.000	0.058	0.172
-684.295	19.295	-0.280	0.229
-683.281	-200.000	0.021	-0.151
-682.266	292.147	0.019	0.035
-681.251	208.432	-0.049	0.078
-680.237	-92.055	0.061	0.018
-679.222	-158.197	-0.292	0.017
-678.208	800.000	-0.061	0.192
-677.193	47.398	-0.107	-0.102
-676.178	800.000	-0.029	0.119
-675.164	-121.957	0.389	-0.065
-674.149	-200.000	0.004	-0.063
-673.135	-68.954	0.084	0.033
-672.120	52.423	0.105	0.102
-671.105	-71.131	-0.201	0.077
-670.091	800.000	0.138	0.525
-669.076	8.943	-0.192	0.148
-668.062	-200.000	0.010	-0.053
-667.047	106.076	-0.294	-0.355
-666.032	-60.022	0.233	0.101
-665.018	-200.000	0.040	-0.212
-664.003	-200.000	0.002	-0.225
-662.989	-46.022	-0.261	0.131
-661.974	52.226	-0.143	-0.139
-660.959	12.332	0.083	-0.066
-659.945	-70.967	-0.268	-0.103
-658.930	-63.216	0.156	-0.066
-657.916	36.185	-0.433	-0.389
-656.901	308.607	0.103	-0.196
-655.886	-200.000	-0.038	0.288
-654.872	-0.906	0.131	-0.094
-653.857	124.018	0.302	0.386
-652.843	167.101	-0.035	-0.050
-651.828	418.316	-0.129	0.280
-650.814	-78.731	0.054	-0.019
-649.799	31.282	0.257	0.225
-648.784	800.000	0.051	-0.159
-647.770	-46.113	0.217	-0.109
-646.755	-200.000	-0.025	0.200
-645.741	73.855	0.154	0.165
-644.726	206.387	0.156	-0.248
-643.711	671.675	0.033	0.087
-642.697	800.000	-0.066	0.291
-641.682	267.008	0.106	0.188
-640.668	208.821	-0.064	0.102
-639.653	167.128	0.023	-0.034
-638.638	260.544	-0.125	0.220
-637.624	-200.000	-0.005	0.171
-636.609	-90.397	0.203	-0.060
-635.595	-45.184	0.371	-0.188
-634.580	800.000	-0.065	0.241
-633.565	-200.000	-0.020	0.207
-632.551	-200.000	-0.035	0.177
-631.536	68.338	-0.103	-0.107
-630.522	-113.134	-0.131	-0.026
-629.507	-200.000	0.032	-0.326
-628.492	-12.579	-0.161	-0.107
-627.478	800.000	0.091	0.323
-626.463	285.982	-0.066	-0.122
-625.449	-2.464	-0.181	0.129
-624.434	800.000	-0.065	0.267
-623.419	800.000	-0.129	0.389
-622.405	316.376	0.152	0.291
-621.390	195.786	0.130	0.201
-620.376	529.755	-0.049	0.119
-619.361	1.867	0.184	-0.135
-618.346	-54.946	-0.137	-0.063
-617.332	186.867	-0.115	-0.175
-616.317	-5.374	-0.212	-0.148
-615.303	800.000	-0.018	0.064
-614.288	507.133	0.142	-0.336
-613.273	16.070	-0.199	-0.160
-612.259	-135.576	0.192	0.023
-611.244	-114.198	0.261	0.051
-610.230	698.798	0.036	-0.097
-609.215	-74.091	-0.167	0.062
-608.201	-49.690	0.160	0.078
-607.186	-200.000	-0.037	0.310
-606.171	-200.000	0.018	0.177
-605.157	-200.000	0.016	-0.084
-604.142	-24.641	0.102	-0.062
-603.128	-104.027	-0.199	-0.047
-602.113	121.476	-0.231	0.292
-601.098	332.181	-0.184	-0.361
-600.084	-68.905	-0.040	-0.016
-599.069	-108.052	-0.287	0.063
-598.055	136.282	-0.171	0.227
-597.040	-164.509	-0.406	-0.019
-596.025	261.986	0.031	-0.055
-595.011	259.326	0.191	-0.335
-593.996	800.000	-0.062	-0.261
-592.982	-200.000	-0.003	0.200
-591.967	-144.885	0.419	-0.039
-590.952	-136.813	-0.101	-0.012
-589.938	104.112	0.137	-0.164
-588.923	197.025	-0.275	-0.426
-587.909	80.053	-0.179	-0.196
-586.894	-80.147	-0.072	-0.025
-585.879	-127.264	0.294	0.044
-584.865	800.000	0.055	-0.214
-583.850	9.930	0.451	0.348
-582.836	14.428	0.492	0.390
-581.821	-94.524	0.146	0.040
-580.806	-116.172	0.274	-0.052
-579.792	-54.480	0.103	0.047
-578.777	18.173	0.202	0.164
-577.763	224.630	0.077	-0.127
-576.748	-13.227	0.171	0.113
-575.733	243.090	-0.130	-0.221
-574.719	-79.632	-0.209	-0.072
-573.704	-200.000	0.038	-0.439
-572.690	-82.285	0.082	0.027
-571.675	-87.583	-0.322	0.099
-570.661	-199.144	0.279	0.002
-569.646	-180.572	0.339	-0.007
-568.631	-93.986	0.211	-0.059
-567.617	7.222	0.125	0.095
-566.602	-92.267	0.058	-0.017
-565.588	800.000	-0.106	0.441
-564.573	-123.183	0.227	0.037
-563.558	-95.408	0.186	0.051
-562.544	-80.991	-0.188	-0.063
-561.529	-65.547	0.176	-0.072
-560.515	36.226	-0.234	-0.209
-559.500	-2.629	0.108	0.077
-558.485	70.203	-0.272	-0.285
-557.471	324.717	-0.084	-0.164
-556.456	-149.921	0.072	0.006
-555.442	-83.265	-0.107	0.035
-554.427	-28.869	-0.138	-0.081
-553.412	-83.226	0.084	-0.027
-552.398	800.000	-0.070	-0.240
-551.383	70.645	0.052	0.055
-550.369	-56.461	0.173	-0.078
-549.354	15.795	0.317	0.253
-548.339	-31.117	0.091	0.052
-547.325	-74.434	0.053	0.019
-546.310	-200.000	-0.035	0.159
-545.296	38.890	-0.169	-0.153
-544.281	-110.698	-0.253	-0.053
-543.266	800.000	0.051	-0.143
-542.252	-200.000	-0.064	0.384
-541.237	800.000	0.127	0.406
-540.223	-200.000	-0.025	-0.265
-539.208	380.477	-0.088	-0.183
-538.193	-18.344	-0.257	-0.163
-537.179	-200.000	0.002	-0.138
-536.164	342.606	0.144	0.287
-535.150	-16.169	0.056	0.036
-534.135	-176.991	0.129	0.003
-533.121	800.000	-0.021	0.085
-532.106	146.157	-0.203	-0.276
-531.091	-50.265	-0.112	-0.054
-530.077	-67.086	0.153	-0.061
-529.062	-70.542	-0.141	-0.054
-528.048	-55.811	-0.195	-0.088
-527.033	-200.000	-0.073	-0.340
-526.018	-200.000	0.026	-0.398
-525.004	-94.989	0.185	-0.051
-523.989	76.551	-0.099	-0.106
-522.975	44.161	0.249	-0.232
-521.960	57.978	-0.091	0.091
-520.945	800.000	-0.052	-0.194
-519.931	48.418	0.199	0.189
-518.916	-98.855	-0.118	0.030
-517.902	-17.497	0.019	-0.012
-516.887	-46.948	0.061	-0.030
-515.872	416.017	-0.088	-0.191
-514.858	66.189	-0.142	0.146
-513.843	-200.000	-0.026	0.311
-512.829	546.907	0.032	-0.079
-511.814	-32.028	0.298	-0.169
-510.799	800.000	-0.088	0.325
-509.785	-138.819	0.108	-0.012
-508.770	94.089	0.015	0.017
-507.756	6.554	0.028	-0.021
-506.741	-139.073	0.142	-0.016
-505.726	-200.000	0.007	0.227
-504.712	-114.546	-0.086	0.017
-503.697	360.276	-0.131	0.265
-502.683	-21.779	-0.298	-0.184
-501.668	800.000	-0.017	-0.061
-500.653	-65.455	-0.333	0.136
-499.639	553.032	-0.040	-0.097
-498.624	800.000	0.077	0.236
-497.610	57.459	0.062	-0.061
-496.595	-95.504	0.283	0.077
-495.581	211.993	0.068	-0.109
-494.566	537.303	0.064	0.155
-493.551	58.906	0.307	0.306
-492.537	-131.780	0.164	-0.022
-491.522	113.163	-0.091	0.112
-490.508	377.086	0.097	-0.201
-489.493	-73.555	-0.063	-0.023
-488.478	800.000	0.068	0.258
-487.464	-51.449	0.438	0.207
-486.449	-200.000	-0.010	0.141
-485.435	-128.998	0.243	-0.035
-484.420	-172.197	-0.168	-0.005
-483.405	-57.399	-0.157	-0.070
-482.391	-200.000	-0.013	0.190
-481.376	-1.659	-0.316	0.225
-480.362	-61.609	0.133	0.057
-479.347	-66.005	0.240	-0.097
-478.332	88.540	-0.142	-0.160
-477.318	180.045	-0.036	-0.053
-476.303	-200.000	-0.026	0.359
-475.289	-6.729	0.115	-0.079
-474.274	-200.000	0.020	-0.140
-473.259	264.867	0.091	0.160
-472.245	-99.766	0.200	0.051
-471.230	372.539	0.059	-0.122
-470.216	-200.000	0.096	0.518
-469.201	800.000	-0.095	0.375
-468.186	-104.292	-0.579	0.136
-467.172	21.098	0.325	0.266
-466.157	-200.000	0.012	0.053
-465.143	-73.413	-0.083	0.031
-464.128	155.958	-0.125	0.174
-463.113	-106.252	0.158	-0.036
-462.099	249.346	-0.056	0.096
-461.084	-64.383	0.120	-0.050
-460.070	413.009	-0.110	0.236
-459.055	184.181	0.113	-0.170
-458.040	-154.376	-0.336	-0.023
-457.026	-77.742	-0.098	-0.034
-456.011	-129.779	0.146	0.020
-454.997	800.000	-0.064	-0.264
-453.982	-200.000	-0.041	-0.250
-452.968	123.889	0.083	-0.106
-451.953	-200.000	0.014	-0.129
-450.938	49.754	-0.104	-0.099
-449.924	-200.000	-0.011	-0.194
-448.909	-23.927	0.166	-0.100
-447.895	-20.185	-0.199	-0.124
-446.880	-85.043	-0.055	-0.017
-445.865	343.515	-0.168	0.333
-444.851	800.000	0.102	-0.399
-443.836	-54.393	-0.007	-0.003
-442.822	-110.236	0.172	-0.036
-441.807	800.000	-0.123	-0.503
-440.792	59.252	0.060	0.060
-439.778	-200.000	-0.178	0.000
-438.763	-118.001	0.153	0.028
-437.749	-37.757	0.137	-0.074
-436.734	56.797	-0.140	-0.137
-435.719	62.431	-0.077	0.077
-434.705	-73.210	-0.568	0.210
-433.690	-200.000	-0.016	-0.268
-432.676	800.000	-0.083	0.327
-431.661	-200.000	-0.026	0.223
-430.646	88.710	-0.089	-0.100
-429.632	-8.588	-0.180	0.122
-428.617	-200.000	0.003	0.329
-427.603	-49.514	-0.210	0.101
-426.588	-44.859	0.261	0.132
-425.573	-93.388	0.316	-0.089
-424.559	800.000	-0.017	0.057
-423.544	-200.000	0.052	0.278
-422.530	-200.000	-0.017	0.089
-421.515	374.442	0.128	-0.264
-420.500	-50.380	0.179	-0.086
-419.486	-69.206	-0.261	0.101
-418.471	-123.327	-0.097	0.016
-417.457	-67.361	0.095	-0.038
-416.442	-48.431	-0.055	0.027
-415.428	31.608	-0.134	0.117
-414.413	56.227	0.267	0.262
-413.398	-200.000	0.012	0.152
-412.384	-200.000	0.059	0.296
-411.369	-93.284	0.181	0.051
-410.355	-95.256	0.132	0.036
-409.340	-71.100	0.353	-0.134
-408.325	209.402	-0.082	0.130
-407.311	-68.333	-0.140	0.055
-406.296	-200.000	-0.040	0.354
-405.282	-52.541	-0.254	-0.118
-404.267	15.756	-0.106	-0.084
-403.252	-88.208	0.086	0.026
-402.238	-60.684	0.307	0.131
-401.223	-102.858	-0.417	0.100
-400.209	-8.156	-0.079	-0.054
-399.194	267.892	-0.113	-0.200
-398.179	-138.284	0.248	0.028
-397.165	-100.818	-0.052	-0.013
-396.150	110.701	0.159	-0.194
-395.136	126.324	-0.243	-0.310
-394.121	7.185	-0.088	-0.066
-393.106	-71.109	-0.182	0.069
-392.092	-200.000	0.000	0.296
-391.077	800.000	0.010	-0.031
-390.063	-200.000	-0.005	-0.149
-389.048	199.550	0.011	-0.017
-388.033	800.000	-0.130	-0.411
-387.019	-125.199	0.159	-0.025
-386.004	-122.756	-0.125	-0.020
-384.990	-60.142	0.294	-0.126
-383.975	165.096	0.146	0.207
-382.960	-64.838	-0.184	-0.075
-381.946	273.565	0.036	-0.064
-380.931	-200.000	0.011	0.272
-379.917	-200.000	0.011	-0.163
-378.902	266.819	0.108	-0.190
-377.888	800.000	-0.130	0.407
-376.873	200.392	-0.045	-0.070
-375.858	-28.556	-0.190	-0.110
-374.844	585.064	-0.213	-0.528
-373.829	22.928	0.253	-0.209
-372.815	-106.451	0.105	-0.024
-371.800	800.000	-0.067	-0.195
-370.785	16.863	0.311	-0.248
-369.771	800.000	-0.056	0.206
-368.756	-200.000	0.065	0.415
-367.742	-27.056	0.091	0.054
-366.727	-125.780	-0.398	-0.061
-365.712	800.000	-0.039	0.163
-364.698	-117.590	-0.278	0.050
-363.683	114.035	-0.091	-0.111
-362.669	44.399	-0.336	0.311
-361.654	163.539	-0.089	-0.126
-360.639	113.158	0.096	-0.118
-359.625	-25.465	0.359	0.214
-358.610	-200.000	0.043	-0.203
-357.596	-92.396	-0.113	0.032
-356.581	-7.032	-0.338	0.231
-355.566	-3.736	-0.200	-0.140
-354.552	800.000	0.098	-0.315
-353.537	800.000	0.014	-0.042
-352.523	-139.016	0.165	-0.018
-351.508	-200.000	0.040	0.204
-350.493	-127.142	-0.023	0.003
-349.479	-165.671	-0.074	-0.003
-348.464	128.891	0.028	-0.036
-347.450	-101.636	-0.311	-0.076
-346.435	-13.997	-0.032	-0.021
-345.420	92.396	0.139	-0.158
-344.406	-76.987	-0.394	0.139
-343.391	331.438	-0.120	0.233
-342.377	-44.679	0.082	0.041
-341.362	-25.164	0.240	0.143
-340.348	-90.999	0.162	0.047
-339.333	750.863	-0.107	-0.290
-338.318	-125.460	0.090	-0.014
-337.304	138.912	0.119	-0.158
-336.289	-57.510	0.294	0.130
-335.275	-20.966	-0.216	-0.133
-334.260	-139.718	0.501	0.054
-333.245	-138.657	0.157	0.017
-332.231	66.643	-0.161	0.165
-331.216	-200.000	-0.037	-0.247
-330.202	-200.000	-0.072	-0.358
-329.187	617.601	0.033	0.083
-328.172	37.968	-0.109	-0.098
-327.158	800.000	-0.129	0.443
-326.143	323.509	-0.076	-0.145
-325.129	543.654	0.058	-0.140
-324.114	800.000	-0.105	-0.338
-323.099	197.936	-0.088	-0.135
-322.085	188.739	-0.042	-0.063
-321.070	-200.000	-0.080	0.392
-320.056	416.896	0.080	0.171
-319.041	199.419	0.095	-0.146
-318.026	-21.227	0.534	0.329
-317.012	83.956	-0.204	-0.224
-315.997	-22.608	0.168	0.102
-314.983	-200.000	0.003	0.162
-313.968	-53.792	-0.376	0.173
-312.953	-200.000	0.019	0.165
-311.939	-122.006	0.104	-0.017
-310.924	-104.484	0.281	-0.065
-309.910	800.000	0.123	-0.351
-308.895	800.000	-0.062	-0.194
-307.880	83.611	0.148	-0.163
-306.866	-6.584	0.074	-0.050
-305.851	143.179	-0.098	-0.131
-304.837	-186.473	-0.653	0.009
-303.822	-26.832	-0.068	-0.040
-302.807	-38.740	-0.310	-0.164
-301.793	305.563	0.186	-0.348
-300.778	800.000	0.066	0.195
-299.764	42.758	0.111	0.102
-298.749	-37.340	0.414	-0.222
-297.735	55.577	0.168	0.163
-296.720	800.000	0.035	-0.137
-295.705	-102.556	-0.356	-0.085
-294.691	108.872	-0.329	0.395
-293.676	-200.000	0.009	0.138
-292.662	-4.074	0.168	-0.117
-291.647	389.843	-0.095	-0.197
-290.632	80.890	0.248	0.268
-289.618	-62.043	0.389	-0.163
-288.603	170.658	0.045	-0.065
-287.589	-200.000	0.037	0.347
-286.574	800.000	0.109	0.349
-285.559	-200.000	-0.034	-0.212
-284.545	590.435	-0.041	-0.102
-283.530	99.281	-0.112	-0.131
-282.516	299.356	0.156	-0.288
-281.501	-200.000	0.002	0.216
-280.486	91.192	-0.142	0.160
-279.472	-200.000	0.026	0.126
-278.457	217.346	0.190	0.304
-277.443	-58.127	0.363	-0.159
-276.428	-100.116	-0.344	0.086
-275.413	127.609	0.072	0.092
-274.399	-119.154	-0.201	0.035
-273.384	334.644	-0.213	0.415
-272.370	-54.362	-0.193	0.088
-271.355	-25.978	0.031	-0.018
-270.340	50.305	-0.278	0.264
-269.326	-154.207	-0.269	0.018
-268.311	-172.238	0.271	-0.009
-267.297	800.000	0.003	0.011
-266.282	101.131	-0.262	0.307
-265.267	-158.725	0.166	0.010
-264.253	800.000	0.073	-0.236
-263.238	10.957	-0.098	0.075
-262.224	172.583	0.152	-0.220
-261.209	227.875	0.048	0.079
-260.195	-3.459	-0.296	-0.207
-259.180	-23.184	0.336	0.203
-258.165	716.118	0.098	-0.261
-257.151	84.426	0.172	-0.189
-256.136	-40.683	-0.110	0.057
-255.122	-129.670	0.289	-0.040
-254.107	40.035	0.170	0.153
-253.092	301.475	-0.128	0.238
-252.078	-85.881	-0.366	0.114
-251.063	-15.980	0.283	0.180
-250.049	130.974	-0.190	-0.245
-249.034	-88.241	0.187	-0.056
-248.019	-67.400	-0.186	0.073
-247.005	-183.492	-0.087	0.002
-245.990	800.000	0.063	0.245
-244.976	313.461	0.168	-0.317
-243.961	149.252	-0.200	-0.272
-242.946	258.333	-0.150	0.259
-241.932	800.000	-0.063	-0.238
-240.917	72.185	-0.014	-0.015
-239.903	-63.503	-0.139	-0.057
-238.888	151.762	0.076	0.103
-237.873	170.975	-0.203	-0.292
-236.859	-78.893	-0.254	-0.087
-235.844	15.456	-0.268	-0.211
-234.830	96.331	-0.091	0.104
-233.815	-99.257	0.196	0.050
-232.800	570.240	-0.104	0.254
-231.786	-110.954	-0.242	0.050
-230.771	-19.509	0.262	-0.163
-229.757	87.770	0.199	0.221
-228.742	383.200	0.027	0.056
-227.727	-38.996	-0.115	0.061
-226.713	-200.000	0.003	0.210
-225.698	-139.029	-0.160	0.017
-224.684	177.305	0.102	0.149
-223.669	41.184	-0.049	-0.044
-222.655	800.000	0.097	-0.282
-221.640	-63.858	-0.082	0.034
-220.625	111.929	-0.091	0.110
-219.611	-129.869	0.278	-0.038
-218.596	8.534	-0.134	-0.101
-217.582	-94.141	0.205	0.056
-216.567	-142.491	-0.235	0.023
-215.552	-200.000	0.031	-0.528
-214.538	-200.000	0.091	-0.477
-213.523	33.123	0.125	0.109
-212.509	-138.789	0.111	-0.012
-211.494	-102.450	-0.145	-0.035
-210.479	124.316	-0.127	-0.159
-209.465	278.342	0.016	-0.028
-208.450	-126.436	-0.120	0.018
-207.436	198.883	-0.062	0.095
-206.421	-117.102	0.316	0.058
-205.406	51.379	0.077	-0.073
-204.392	-200.000	0.048	-0.302
-203.377	713.010	0.085	-0.226
-202.363	-30.905	0.233	0.132
-201.348	-42.818	0.273	0.139
-200.333	737.341	-0.095	-0.255
-199.319	-70.886	0.199	-0.075
-198.304	-19.977	-0.194	0.120
-197.290	87.092	0.088	0.097
-196.275	-200.000	-0.034	-0.225
-195.260	-7.975	-0.251	-0.169
-194.246	-88.277	-0.117	0.035
-193.231	-23.494	0.037	-0.022
-192.217	-116.652	-0.123	0.023
-191.202	-200.000	-0.033	-0.337
-190.187	-200.000	0.059	-0.377
-189.173	-33.637	0.083	-0.046
-188.158	-2.195	0.176	-0.124
-187.144	244.244	0.082	0.138
-186.129	-200.000	-0.010	-0.199
-185.114	-76.027	-0.152	-0.054
-184.100	-49.770	0.248	-0.118
-183.085	-56.201	0.388	0.173
-182.071	-23.995	0.196	-0.117
-181.056	27.426	-0.184	-0.155
-180.042	-131.322	-0.213	-0.028
-179.027	207.260	-0.161	-0.252
-178.012	-76.833	-0.181	-0.063
-176.998	-200.000	-0.013	0.245
-175.983	800.000	0.057	0.231
-174.969	-45.897	-0.190	-0.094
-173.954	-200.000	-0.033	-0.192
-172.939	-127.561	-0.376	-0.055
-171.925	19.314	-0.348	-0.279
-170.910	-13.263	-0.238	0.154
-169.896	-130.011	-0.325	-0.044
-168.881	-200.000	0.009	0.127
-167.866	-200.000	0.049	-0.244
-166.852	-57.854	0.467	0.204
-165.837	-200.000	-0.001	0.146
-164.823	800.000	0.052	-0.200
-163.808	-200.000	-0.012	0.078
-162.793	800.000	-0.081	-0.273
-161.779	73.950	0.199	-0.209
-160.764	18.183	0.120	-0.096
-159.750	599.088	-0.029	-0.072
-158.735	-200.000	-0.028	0.327
-157.720	71.144	-0.232	0.240
-156.706	800.000	-0.029	-0.109
-155.691	-76.355	-0.247	0.087
-154.677	-29.363	0.035	0.020
-153.662	-200.000	0.063	0.423
-152.647	-197.959	0.056	0.000
-151.633	-200.000	-0.043	0.236
-150.618	99.545	0.085	0.099
-149.604	151.432	-0.152	-0.206
-148.589	-85.375	-0.071	0.022
-147.574	53.315	-0.107	-0.103
-146.560	448.653	-0.090	0.197
-145.545	-200.000	-0.001	0.103
-144.531	-32.068	0.404	0.226
-143.516	84.028	0.135	0.147
-142.502	551.553	0.033	0.079
-141.487	-99.617	0.263	0.066
-140.472	244.465	0.040	-0.068
-139.458	13.130	-0.133	0.103
-138.443	655.719	-0.049	-0.125
-137.429	-125.082	-0.067	0.010
-136.414	-77.117	0.194	-0.068
-135.399	-62.401	0.114	0.047
-134.385	-200.000	-0.025	-0.158
-133.370	-77.124	-0.401	0.139
-132.356	60.651	0.293	0.290
-131.341	418.749	0.226	0.482
-130.326	-63.947	-0.163	0.066
-129.312	-67.838	-0.193	0.075
-128.297	465.815	-0.144	0.321
-127.283	62.905	0.211	0.211
-126.268	675.149	-0.077	0.200
-125.253	-9.150	0.236	0.157
-124.239	-73.811	-0.112	0.041
-123.224	-200.000	-0.011	0.291
-122.210	209.906	-0.232	0.363
-121.195	800.000	-0.037	-0.143
