DTS Sentinel unit serial number:	SN413079Multiplexer serial number:	ORYXHardware model number:	OX4-SRSoftware version number:	ORYX F/W v4.00 Oryx Data Collector v3.7.2.0data status	okinstallation	princeton_trtdifferential loss correction	single-endedforward channel	channel 3reverse channel	N/Adate	2019/09/10time	15:54:11forward acquisition time	60.00reverse acquisition time	0.00gamma	496.2192k internal	0.2298k external	0.2298temperature offset calibration	0.9901default loss term (dB/km)	0.3790temperature slope calibration	1.0000multiplexer offset coefficient	1.0000multiplexer slope coefficient	1.0000fibre end	0.00T internal ref (°C)	38.16T ext. ref 1 (°C)	-0.28T ext. ref 2 (°C)	31.77length (m)	temperature (°C)	Stokes	anti-Stokes-747.200	-117.758	0.291	0.053
-746.185	-200.000	-0.036	0.163
-745.171	16.171	-0.391	-0.315
-744.156	57.641	-0.299	0.299
-743.142	85.644	0.148	0.167
-742.127	-200.000	-0.038	0.341
-741.112	79.363	0.295	-0.323
-740.098	-200.000	0.017	0.098
-739.083	-86.897	-0.175	0.055
-738.069	41.681	-0.262	0.242
-737.054	175.364	-0.319	-0.472
-736.039	800.000	0.037	-0.123
-735.025	-200.000	0.050	0.261
-734.010	-48.320	-0.466	-0.230
-732.996	207.109	-0.253	0.402
-731.981	43.668	0.167	-0.156
-730.966	800.000	-0.077	-0.251
-729.952	-200.000	-0.006	-0.152
-728.937	351.592	0.075	-0.151
-727.923	-200.000	-0.009	0.056
-726.908	-200.000	0.022	-0.219
-725.894	69.865	0.064	-0.068
-724.879	307.801	-0.150	-0.286
-723.864	353.151	0.162	-0.329
-722.850	-74.290	0.089	0.033
-721.835	-200.000	0.003	-0.081
-720.821	503.765	0.077	0.181
-719.806	206.159	-0.253	-0.402
-718.791	214.246	-0.129	-0.209
-717.777	141.816	-0.226	-0.305
-716.762	222.988	-0.165	-0.271
-715.748	800.000	-0.074	-0.217
-714.733	106.914	0.464	-0.562
-713.718	265.478	-0.063	0.113
-712.704	35.820	0.156	-0.140
-711.689	800.000	-0.105	0.298
-710.675	105.754	0.148	0.179
-709.660	58.859	-0.256	-0.257
-708.645	306.813	-0.160	-0.305
-707.631	-13.789	-0.158	-0.104
-706.616	-200.000	-0.075	-0.400
-705.602	793.332	0.079	-0.221
-704.587	-42.627	0.184	-0.095
-703.572	-200.000	0.009	-0.155
-702.558	-87.844	-0.139	0.043
-701.543	-200.000	-0.049	0.345
-700.529	293.331	-0.098	-0.182
-699.514	266.406	-0.034	-0.060
-698.499	642.702	0.104	-0.270
-697.485	103.866	0.058	-0.069
-696.470	-59.198	-0.075	-0.033
-695.456	169.789	0.040	0.058
-694.441	-97.193	-0.338	0.090
-693.426	174.752	0.052	-0.077
-692.412	104.628	0.076	0.092
-691.397	-73.920	-0.099	0.037
-690.383	372.413	0.162	0.335
-689.368	-64.652	0.253	0.104
-688.354	-17.854	-0.234	-0.150
-687.339	-200.000	-0.068	0.411
-686.324	86.054	0.170	0.191
-685.310	542.352	0.055	0.133
-684.295	108.000	-0.067	0.081
-683.281	-137.569	-0.070	-0.008
-682.266	45.417	-0.334	0.314
-681.251	-45.634	-0.139	0.070
-680.237	-87.942	0.238	0.073
-679.222	-11.436	-0.056	-0.037
-678.208	242.382	-0.210	0.358
-677.193	-74.679	0.208	-0.076
-676.178	-113.691	-0.333	-0.066
-675.164	-121.615	-0.488	0.082
-674.149	-33.531	0.026	0.015
-673.135	25.096	0.150	-0.126
-672.120	-200.000	-0.176	-0.000
-671.105	-148.039	0.174	0.015
-670.091	219.803	0.093	-0.151
-669.076	316.854	-0.136	-0.261
-668.062	-72.834	0.059	0.022
-667.047	43.657	0.175	0.163
-666.032	14.836	0.238	0.189
-665.018	25.530	0.206	0.175
-664.003	-9.168	-0.027	0.018
-662.989	136.508	-0.132	-0.175
-661.974	170.085	-0.267	-0.389
-660.959	2.624	0.183	-0.135
-659.945	-200.000	0.046	-0.235
-658.930	800.000	-0.024	-0.074
-657.916	24.943	-0.345	0.291
-656.901	31.809	0.139	0.122
-655.886	-129.022	0.133	-0.019
-654.872	-55.538	0.246	-0.112
-653.857	580.429	-0.062	-0.153
-652.843	91.385	0.081	0.093
-651.828	792.880	0.077	0.215
-650.814	-200.000	0.008	-0.048
-649.799	-176.673	0.154	-0.004
-648.784	109.761	-0.164	0.199
-647.770	-200.000	0.028	-0.146
-646.755	-200.000	-0.030	0.138
-645.741	-200.000	0.034	0.261
-644.726	800.000	-0.068	-0.239
-643.711	160.209	-0.022	-0.032
-642.697	-94.298	0.267	0.074
-641.682	-42.778	-0.030	-0.015
-640.668	800.000	-0.078	-0.226
-639.653	27.402	0.110	-0.094
-638.638	-200.000	0.009	-0.177
-637.624	-200.000	-0.008	-0.280
-636.609	-119.464	-0.397	0.070
-635.595	-21.608	0.037	0.023
-634.580	-200.000	-0.066	0.383
-633.565	-195.148	0.212	0.002
-632.551	-15.620	0.060	-0.039
-631.536	-144.773	0.172	-0.016
-630.522	-52.538	0.392	0.184
-629.507	456.041	0.075	-0.168
-628.492	592.907	0.045	-0.113
-627.478	189.714	0.135	0.206
-626.463	-200.000	-0.022	0.327
-625.449	-200.000	0.036	0.222
-624.434	-126.408	-0.067	-0.010
-623.419	535.802	-0.052	-0.125
-622.405	800.000	-0.023	-0.088
-621.390	-128.494	0.099	-0.014
-620.376	110.379	-0.145	-0.177
-619.361	-200.000	0.019	-0.177
-618.346	-200.000	-0.020	-0.091
-617.332	-35.566	-0.166	0.091
-616.317	8.388	-0.197	0.151
-615.303	-200.000	-0.029	-0.181
-614.288	-123.810	0.312	-0.050
-613.273	-151.224	-0.431	0.033
-612.259	105.607	0.158	-0.189
-611.244	291.720	0.092	-0.170
-610.230	261.228	-0.030	0.052
-609.215	154.367	-0.073	-0.102
-608.201	-50.840	-0.266	0.127
-607.186	800.000	0.037	0.150
-606.171	100.077	-0.035	-0.041
-605.157	-200.000	-0.054	-0.305
-604.142	141.696	-0.166	-0.223
-603.128	139.290	0.283	0.378
-602.113	-124.073	-0.459	-0.073
-601.098	-72.334	-0.184	-0.069
-600.084	212.066	0.239	0.382
-599.069	-147.735	0.066	0.006
-598.055	222.505	-0.080	0.130
-597.040	73.938	-0.059	0.063
-596.025	-200.000	-0.019	-0.103
-595.011	309.207	-0.184	0.348
-593.996	-121.707	-0.103	-0.017
-592.982	-45.416	0.118	0.059
-591.967	-104.174	-0.101	-0.024
-590.952	-24.575	-0.040	0.024
-589.938	417.682	0.116	0.252
-588.923	259.680	-0.094	0.165
-587.909	-90.135	-0.229	0.068
-586.894	-120.391	-0.064	-0.011
-585.879	43.049	0.128	0.118
-584.865	-34.535	0.140	0.078
-583.850	-147.946	0.260	-0.022
-582.836	19.126	-0.183	-0.149
-581.821	-62.929	0.142	-0.060
-580.806	29.502	-0.216	-0.187
-579.792	-200.000	0.014	-0.428
-578.777	73.168	-0.073	0.077
-577.763	-28.566	0.139	0.081
-576.748	-200.000	-0.013	-0.064
-575.733	-94.393	0.206	0.057
-574.719	-200.000	-0.055	0.269
-573.704	47.364	-0.072	0.068
-572.690	-18.136	0.063	-0.040
-571.675	-200.000	0.027	0.132
-570.661	-200.000	-0.010	-0.042
-569.646	121.581	-0.188	0.238
-568.631	445.271	0.115	0.257
-567.617	23.690	-0.220	-0.184
-566.602	110.759	0.148	0.180
-565.588	260.095	0.119	-0.209
-564.573	-150.286	-0.182	-0.014
-563.558	195.639	-0.141	0.218
-562.544	-105.162	-0.693	0.161
-561.529	-152.513	-0.341	-0.025
-560.515	800.000	-0.084	0.271
-559.500	-6.293	0.124	-0.086
-558.485	-95.578	-0.116	-0.032
-557.471	131.720	0.158	0.206
-556.456	198.529	0.197	-0.306
-555.442	45.467	-0.297	-0.278
-554.427	800.000	-0.154	0.488
-553.412	71.086	-0.092	0.097
-552.398	1.248	-0.028	-0.020
-551.383	-70.623	-0.184	0.071
-550.369	800.000	0.167	0.517
-549.354	-200.000	0.075	-0.416
-548.339	631.848	-0.101	-0.260
-547.325	-117.027	-0.151	-0.028
-546.310	800.000	0.064	0.198
-545.296	-146.285	-0.218	-0.019
-544.281	-95.656	-0.119	0.032
-543.266	-163.937	-0.252	0.012
-542.252	32.827	0.080	-0.071
-541.237	22.852	0.055	0.046
-540.223	-59.546	-0.197	-0.086
-539.208	-21.937	-0.096	-0.059
-538.193	-126.178	0.067	-0.010
-537.179	244.106	0.106	0.181
-536.164	-16.677	0.269	0.173
-535.150	-37.162	-0.020	0.011
-534.135	-6.716	-0.414	-0.285
-533.121	-136.927	0.200	-0.023
-532.106	-9.428	-0.057	0.038
-531.091	-200.000	0.021	0.189
-530.077	-200.000	-0.004	0.231
-529.062	177.550	0.151	0.222
-528.048	60.857	-0.277	-0.278
-527.033	138.726	-0.026	0.034
-526.018	25.250	-0.101	0.085
-525.004	92.052	-0.084	-0.095
-523.989	800.000	-0.234	-0.711
-522.975	129.268	0.238	0.308
-521.960	800.000	-0.069	0.219
-520.945	156.852	-0.195	-0.273
-519.931	-170.625	0.182	0.006
-518.916	-139.618	-0.253	0.027
-517.902	-160.434	-0.696	0.038
-516.887	-151.407	-0.540	0.041
-515.872	-200.000	-0.003	-0.074
-514.858	-200.000	-0.009	-0.141
-513.843	-83.444	0.107	0.035
-512.829	-51.330	0.429	0.203
-511.814	-200.000	0.011	-0.114
-510.799	383.300	-0.220	-0.457
-509.785	-200.000	-0.010	-0.077
-508.770	16.606	0.265	-0.212
-507.756	-90.845	0.257	0.075
-506.741	540.279	0.034	0.083
-505.726	-152.209	0.093	-0.007
-504.712	310.968	0.037	0.070
-503.697	206.138	0.130	-0.205
-502.683	2.132	0.025	0.018
-501.668	800.000	-0.049	0.182
-500.653	-62.529	-0.139	0.058
-499.639	149.285	0.144	-0.197
-498.624	-200.000	0.057	-0.298
-497.610	800.000	0.077	0.224
-496.595	146.231	0.149	-0.203
-495.581	-74.842	-0.105	-0.038
-494.566	309.767	-0.158	-0.299
-493.551	-23.033	0.293	-0.178
-492.537	191.641	0.162	0.247
-491.522	-200.000	-0.050	-0.319
-490.508	-46.507	-0.096	-0.048
-489.493	57.175	0.030	-0.030
-488.478	800.000	-0.088	0.337
-487.464	-15.868	0.150	-0.097
-486.449	456.442	-0.063	-0.142
-485.435	-58.717	0.088	-0.039
-484.420	-200.000	0.008	0.104
-483.405	290.827	0.144	0.265
-482.391	-118.086	0.132	-0.024
-481.376	-46.738	0.266	0.131
-480.362	-193.889	0.295	-0.002
-479.347	-121.412	0.017	-0.003
-478.332	81.186	0.150	-0.164
-477.318	-45.031	0.056	-0.028
-476.303	452.450	-0.042	0.094
-475.289	800.000	0.056	-0.165
-474.274	156.930	0.162	0.226
-473.259	-200.000	0.046	0.314
-472.245	-120.086	0.112	0.019
-471.230	-57.334	0.168	-0.075
-470.216	99.232	-0.128	0.149
-469.201	-114.075	-0.409	-0.080
-468.186	0.311	0.114	-0.082
-467.172	115.816	-0.153	0.190
-466.157	491.730	-0.155	-0.359
-465.143	754.471	-0.074	0.202
-464.128	12.573	0.146	0.114
-463.113	-200.000	-0.023	-0.154
-462.099	564.777	0.147	0.361
-461.084	-200.000	0.010	0.145
-460.070	279.807	-0.032	-0.057
-459.055	-30.104	0.109	0.063
-458.040	372.940	-0.190	-0.390
-457.026	-88.108	0.207	-0.063
-456.011	-11.113	0.233	0.155
-454.997	575.027	-0.083	0.204
-453.982	35.685	0.200	0.177
-452.968	-121.051	-0.298	-0.050
-451.953	228.433	0.153	-0.252
-450.938	-141.756	0.230	-0.023
-449.924	-171.755	0.192	-0.006
-448.909	-26.196	0.314	-0.186
-447.895	-131.900	-0.286	-0.038
-446.880	-24.589	0.166	0.100
-445.865	-200.000	-0.029	0.291
-444.851	135.133	0.087	-0.114
-443.836	-70.447	-0.518	0.198
-442.822	112.688	0.133	0.163
-441.807	800.000	-0.084	-0.353
-440.792	-114.667	-0.130	-0.025
-439.778	800.000	-0.115	-0.372
-438.763	-200.000	-0.006	0.140
-437.749	800.000	0.058	0.179
-436.734	-22.488	0.209	-0.128
-435.719	-54.264	-0.136	-0.062
-434.705	153.931	0.099	-0.137
-433.690	800.000	0.079	-0.233
-432.676	-75.838	0.046	0.016
-431.661	-142.198	0.144	0.014
-430.646	-200.000	-0.002	-0.319
-429.632	-11.471	-0.185	-0.123
-428.617	800.000	-0.027	0.102
-427.603	43.816	-0.094	0.087
-426.588	-103.763	-0.192	-0.045
-425.573	-116.712	-0.273	0.051
-424.559	9.341	-0.196	-0.149
-423.544	248.176	0.090	-0.153
-422.530	-124.620	-0.037	-0.006
-421.515	-15.897	0.314	0.201
-420.500	127.322	-0.144	-0.184
-419.486	-200.000	0.036	0.328
-418.471	-76.653	0.187	0.066
-417.457	-60.680	0.137	0.058
-416.442	4.328	-0.055	-0.040
-415.428	58.206	0.074	0.073
-414.413	698.605	-0.056	0.149
-413.398	179.531	-0.129	0.190
-412.384	358.803	0.058	0.116
-411.369	-186.439	-0.156	0.002
-410.355	82.965	0.119	-0.130
-409.340	-159.871	-0.363	0.020
-408.325	92.597	0.151	-0.171
-407.311	358.466	0.068	0.137
-406.296	-40.184	0.103	-0.054
-405.282	-200.000	-0.003	-0.353
-404.267	-104.047	0.111	-0.026
-403.252	-200.000	-0.074	-0.330
-402.238	-97.845	-0.232	0.061
-401.223	473.804	0.155	-0.353
-400.209	162.246	-0.228	-0.323
-399.194	-64.724	-0.111	-0.045
-398.179	-84.907	-0.205	0.065
-397.165	-177.005	-0.263	-0.007
-396.150	-36.864	-0.216	0.117
-395.136	75.254	0.172	0.182
-394.121	-25.319	0.185	-0.110
-393.106	-47.441	0.244	0.119
-392.092	-51.989	0.373	0.175
-391.077	-13.247	-0.183	0.120
-390.063	-21.452	0.139	-0.085
-389.048	-200.000	0.002	-0.079
-388.033	247.473	-0.174	-0.296
-387.019	235.169	0.102	0.170
-386.004	419.842	-0.086	-0.186
-384.990	145.221	0.091	-0.123
-383.975	-4.547	-0.017	0.012
-382.960	223.912	0.127	-0.206
-381.946	-126.058	0.180	0.027
-380.931	-80.082	0.275	0.093
-379.917	530.874	0.099	-0.236
-378.902	52.140	0.077	0.074
-377.888	-42.335	-0.219	-0.113
-376.873	-161.665	0.234	0.012
-375.858	57.272	0.090	-0.089
-374.844	5.886	-0.073	-0.055
-373.829	-200.000	0.009	0.199
-372.815	-193.669	-0.210	0.002
-371.800	90.437	-0.148	-0.166
-370.785	351.276	0.151	-0.301
-369.771	-73.757	-0.183	0.067
-368.756	73.947	-0.099	-0.105
-367.742	135.963	0.209	0.273
-366.727	34.575	-0.089	-0.079
-365.712	114.533	-0.100	0.123
-364.698	-200.000	0.022	-0.225
-363.683	58.447	-0.128	0.126
-362.669	-127.320	-0.172	-0.025
-361.654	-200.000	0.011	-0.235
-360.639	-15.701	-0.157	0.100
-359.625	-120.335	-0.324	-0.056
-358.610	800.000	0.054	-0.208
-357.596	278.047	-0.036	0.064
-356.581	426.569	-0.156	0.337
-355.566	62.669	0.088	0.088
-354.552	4.340	-0.145	0.107
-353.537	-101.427	0.064	0.016
-352.523	63.533	0.048	0.049
-351.508	37.737	0.209	-0.187
-350.493	-18.775	-0.140	0.088
-349.479	-200.000	0.016	0.515
-348.464	-200.000	0.026	-0.297
-347.450	-200.000	0.013	-0.536
-346.435	517.671	-0.108	-0.255
-345.420	-200.000	0.030	-0.157
-344.406	-96.260	0.062	0.016
-343.391	-200.000	-0.017	-0.315
-342.377	-120.738	0.150	-0.025
-341.362	800.000	-0.037	-0.134
-340.348	-16.721	0.059	-0.038
-339.333	-105.672	-0.272	0.062
-338.318	-4.333	-0.242	0.168
-337.304	167.047	0.123	-0.176
-336.289	20.760	0.348	0.283
-335.275	559.787	0.085	0.206
-334.260	800.000	0.051	-0.187
-333.245	-200.000	-0.253	0.000
-332.231	-200.000	0.041	0.256
-331.216	4.330	0.260	0.191
-330.202	-72.805	-0.269	0.100
-329.187	800.000	0.104	-0.345
-328.172	-200.000	0.028	-0.325
-327.158	412.569	0.014	-0.029
-326.143	-21.680	0.131	0.080
-325.129	-68.142	-0.246	0.096
-324.114	-148.877	-0.172	0.014
-323.099	404.420	0.093	-0.196
-322.085	-200.000	0.012	-0.119
-321.070	-79.724	-0.295	0.100
-320.056	-19.114	0.101	0.063
-319.041	112.664	0.086	-0.105
-318.026	-8.690	-0.171	-0.115
-317.012	246.748	0.067	-0.113
-315.997	-200.000	0.034	0.208
-314.983	463.234	0.017	-0.038
-313.968	-91.437	-0.074	0.021
-312.953	86.017	0.171	0.189
-311.939	-116.205	0.326	0.061
-310.924	558.761	-0.075	0.181
-309.910	-39.130	-0.021	-0.011
-308.895	548.146	0.144	0.346
-307.880	800.000	0.105	0.343
-306.866	49.947	0.248	-0.234
-305.851	-63.163	-0.082	-0.034
-304.837	-200.000	-0.028	-0.299
-303.822	132.117	-0.098	0.127
-302.807	183.959	-0.008	0.011
-301.793	-183.283	0.221	0.004
-300.778	107.165	0.133	-0.158
-299.764	-200.000	-0.005	-0.041
-298.749	-155.389	-0.265	0.017
-297.735	-135.964	0.222	0.026
-296.720	-107.930	0.169	-0.037
-295.705	800.000	-0.062	0.183
-294.691	800.000	0.098	0.359
-293.676	312.963	0.069	0.129
-292.662	-96.205	-0.119	0.032
-291.647	630.687	-0.115	-0.292
-290.632	-106.368	0.065	-0.015
-289.618	93.169	-0.113	0.128
-288.603	-200.000	-0.047	-0.208
-287.589	28.732	0.251	-0.213
-286.574	800.000	0.079	0.335
-285.559	64.691	0.230	0.233
-284.545	175.397	-0.065	0.094
-283.530	435.175	-0.086	-0.188
-282.516	800.000	-0.087	0.312
-281.501	711.052	0.114	-0.303
-280.486	800.000	-0.093	-0.346
-279.472	-192.111	0.136	-0.001
-278.457	-41.910	-0.240	0.124
-277.443	-29.026	-0.184	-0.106
-276.428	58.788	-0.102	-0.101
-275.413	153.179	-0.147	0.202
-274.399	-73.320	-0.384	-0.141
-273.384	800.000	0.067	0.232
-272.370	-105.939	-0.194	0.044
-271.355	-200.000	-0.020	0.208
-270.340	-105.731	-0.279	-0.063
-269.326	-58.050	0.211	-0.092
-268.311	-55.676	-0.042	-0.019
-267.297	-57.688	-0.095	0.042
-266.282	800.000	0.021	-0.061
-265.267	-27.154	0.284	-0.166
-264.253	-84.453	-0.116	-0.037
-263.238	140.312	-0.164	0.216
-262.224	221.232	0.203	-0.326
-261.209	23.147	0.157	-0.129
-260.195	79.716	0.298	0.320
-259.180	137.134	0.139	0.182
-258.165	-200.000	-0.027	-0.243
-257.151	15.933	0.186	-0.146
-256.136	489.175	-0.060	0.137
-255.122	184.065	-0.219	0.324
-254.107	-92.654	0.325	0.091
-253.092	-153.737	0.162	0.011
-252.078	-61.990	0.178	0.075
-251.063	-200.000	-0.009	0.300
-250.049	9.858	-0.180	0.137
-249.034	-22.391	-0.171	-0.104
-248.019	-164.880	-0.423	-0.019
-247.005	-200.000	0.035	-0.156
-245.990	-26.167	-0.185	0.109
-244.976	346.403	0.090	-0.177
-243.961	154.165	0.201	-0.276
-242.946	-200.000	-0.042	-0.227
-241.932	2.506	0.149	-0.108
-240.917	327.809	0.136	0.260
-239.903	800.000	0.057	-0.173
-238.888	225.851	0.043	-0.070
-237.873	-143.160	0.194	0.019
-236.859	132.874	-0.094	-0.122
-235.844	800.000	0.085	0.305
-234.830	442.937	-0.072	0.157
-233.815	205.963	-0.049	0.076
-232.800	31.532	0.065	-0.056
-231.786	-1.987	0.195	0.137
-230.771	-200.000	-0.014	0.077
-229.757	289.657	-0.123	-0.224
-228.742	-55.219	-0.162	0.073
-227.727	546.082	0.043	-0.102
-226.713	34.158	0.160	0.140
-225.698	1.452	0.088	0.063
-224.684	-200.000	-0.001	0.303
-223.669	-48.795	0.523	0.251
-222.655	-200.000	0.042	-0.272
-221.640	133.297	0.139	-0.179
-220.625	-11.760	0.212	0.139
-219.611	51.271	0.284	0.270
-218.596	-159.555	-0.078	0.004
-217.582	-31.514	0.058	0.032
-216.567	-24.504	0.173	-0.103
-215.552	-96.511	0.217	-0.057
-214.538	-65.030	0.092	-0.037
-213.523	49.232	-0.065	0.061
-212.509	-54.413	0.376	-0.170
-211.494	-34.511	-0.213	0.116
-210.479	-100.484	0.114	-0.028
-209.465	61.330	0.091	0.090
-208.450	800.000	-0.100	-0.290
-207.436	-88.971	0.133	-0.039
-206.421	-89.868	0.099	-0.029
-205.406	190.970	0.049	-0.074
-204.392	157.930	-0.067	0.093
-203.377	103.620	-0.134	-0.157
-202.363	-83.347	-0.243	-0.078
-201.348	800.000	-0.045	0.156
-200.333	-147.747	-0.241	0.020
-199.319	131.401	-0.061	0.079
-198.304	-57.512	-0.084	0.037
-197.290	127.993	-0.194	-0.246
-196.275	49.503	0.063	-0.060
-195.260	276.330	0.212	0.377
-194.246	-200.000	0.001	0.016
-193.231	-200.000	0.014	0.097
-192.217	11.042	0.238	-0.182
-191.202	125.246	-0.093	-0.117
-190.187	-67.277	0.101	0.040
-189.173	256.946	-0.123	-0.212
-188.158	445.353	0.116	0.254
-187.144	163.417	0.039	-0.055
-186.129	-34.597	-0.125	-0.068
-185.114	143.573	-0.139	0.185
-184.100	-69.250	-0.136	0.052
-183.085	-114.191	-0.203	-0.039
-182.071	-200.000	0.011	0.055
-181.056	-200.000	0.014	0.085
-180.042	639.012	0.089	-0.225
-179.027	-118.180	-0.119	-0.021
-178.012	530.696	0.065	0.152
-176.998	800.000	0.124	0.354
-175.983	800.000	-0.088	-0.247
-174.969	346.738	0.236	-0.463
-173.954	-131.462	0.287	-0.038
-172.939	-190.476	-0.247	0.003
-171.925	-120.522	-0.197	0.033
-170.910	-138.321	0.237	0.026
-169.896	403.618	-0.090	-0.188
-168.881	-27.665	-0.151	0.087
-167.866	-28.354	-0.155	0.089
-166.852	-175.519	-0.262	-0.007
-165.837	-78.348	-0.128	0.044
-164.823	27.764	0.113	-0.095
-163.808	796.891	-0.030	0.082
-162.793	85.465	0.161	0.176
-161.779	-28.043	0.102	-0.059
-160.764	-94.803	0.135	-0.036
-159.750	800.000	0.073	0.205
-158.735	52.172	-0.028	0.027
-157.720	-198.450	-0.282	-0.002
-156.706	800.000	-0.051	0.209
-155.691	-13.562	0.100	-0.064
-154.677	79.757	0.270	0.289
-153.662	-40.055	0.115	0.060
-152.647	-200.000	-0.018	0.108
-151.633	-69.431	0.114	0.043
-150.618	-111.487	0.169	0.034
-149.604	-200.000	-0.055	-0.440
-148.589	-200.000	-0.099	-0.529
-147.574	11.691	0.243	-0.186
-146.560	800.000	-0.107	-0.344
-145.545	800.000	0.106	-0.391
-144.531	-200.000	0.033	0.165
-143.516	73.629	0.232	0.242
-142.502	299.827	0.271	0.497
-141.487	95.038	0.111	-0.126
-140.472	708.864	-0.059	-0.156
-139.458	-161.152	0.468	0.024
-138.443	-200.000	0.001	0.394
-137.429	-200.000	0.007	-0.083
-136.414	306.000	0.249	-0.461
-135.399	-78.324	-0.116	0.040
-134.385	-24.054	-0.090	0.054
-133.370	68.119	0.267	0.273
-132.356	-200.000	-0.022	0.101
-131.341	311.393	0.170	0.318
-130.326	-177.330	0.054	-0.001
-129.312	-200.000	-0.011	-0.161
-128.297	165.423	0.230	-0.325
-127.283	20.978	0.315	0.255
-126.268	218.033	0.079	0.126
-125.253	280.393	0.073	0.130
-124.239	210.539	0.077	-0.120
-123.224	-117.666	0.203	0.037
-122.210	35.675	-0.144	-0.126
-121.195	678.023	0.050	0.129
