DTS Sentinel unit serial number:	SN413079Multiplexer serial number:	ORYXHardware model number:	OX4-SRSoftware version number:	ORYX F/W v4.00 Oryx Data Collector v3.7.2.0data status	okinstallation	princeton_trtdifferential loss correction	single-endedforward channel	channel 3reverse channel	N/Adate	2019/09/17time	03:44:35forward acquisition time	60.00reverse acquisition time	0.00gamma	496.2192k internal	0.2323k external	0.2323temperature offset calibration	0.9939default loss term (dB/km)	0.3790temperature slope calibration	1.0000multiplexer offset coefficient	1.0000multiplexer slope coefficient	1.0000fibre end	0.00T internal ref (°C)	29.98T ext. ref 1 (°C)	0.13T ext. ref 2 (°C)	24.46length (m)	temperature (°C)	Stokes	anti-Stokes-747.200	-92.626	-0.194	0.055
-746.185	637.858	-0.089	0.228
-745.171	107.943	0.054	-0.065
-744.156	800.000	0.085	0.324
-743.142	23.972	0.155	-0.129
-742.127	-74.358	-0.274	0.100
-741.112	-33.209	0.228	-0.128
-740.098	295.920	0.099	0.182
-739.083	580.949	0.100	0.248
-738.069	15.870	-0.160	0.127
-737.054	-200.000	-0.034	-0.211
-736.039	251.775	-0.049	-0.084
-735.025	51.061	0.248	0.237
-734.010	12.457	-0.109	-0.085
-732.996	-126.299	-0.196	-0.030
-731.981	-200.000	-0.022	-0.141
-730.966	800.000	-0.142	-0.439
-729.952	-200.000	-0.004	0.059
-728.937	-48.331	-0.318	0.155
-727.923	800.000	0.073	0.315
-726.908	-107.828	0.284	0.062
-725.894	-200.000	0.048	-0.407
-724.879	-27.002	0.242	-0.143
-723.864	428.177	0.129	0.282
-722.850	-74.871	0.332	-0.120
-721.835	141.213	-0.278	-0.372
-720.821	371.998	0.044	-0.090
-719.806	-82.570	-0.092	0.030
-718.791	-74.270	-0.325	-0.119
-717.777	63.653	0.075	0.076
-716.762	-1.966	-0.279	-0.198
-715.748	-200.000	-0.030	-0.140
-714.733	-78.963	0.183	0.063
-713.718	20.157	0.249	-0.203
-712.704	49.981	0.182	-0.173
-711.689	51.146	-0.143	-0.137
-710.675	10.590	0.254	0.196
-709.660	-90.869	0.260	-0.076
-708.645	-62.096	-0.145	0.061
-707.631	-200.000	0.014	0.193
-706.616	800.000	0.058	0.233
-705.602	-66.957	0.143	0.057
-704.587	691.880	0.116	0.307
-703.572	-48.030	0.241	-0.118
-702.558	-200.000	-0.027	-0.148
-701.543	-105.562	-0.136	-0.031
-700.529	-53.208	-0.209	0.097
-699.514	-46.557	-0.540	-0.267
-698.499	-165.674	0.432	0.019
-697.485	10.380	-0.298	-0.229
-696.470	-35.608	0.049	-0.027
-695.456	800.000	0.036	-0.137
-694.441	-154.554	-0.214	-0.014
-693.426	-32.944	-0.334	-0.187
-692.412	528.323	-0.003	0.007
-691.397	11.685	0.059	0.046
-690.383	165.089	0.185	-0.264
-689.368	-200.000	-0.002	0.226
-688.354	-200.000	0.020	0.115
-687.339	800.000	0.048	-0.193
-686.324	75.629	0.154	-0.164
-685.310	87.682	0.132	0.148
-684.295	-31.382	-0.032	0.018
-683.281	521.922	0.042	0.099
-682.266	-200.000	-0.002	0.100
-681.251	47.498	0.054	-0.050
-680.237	-77.182	-0.238	0.083
-679.222	41.451	-0.032	0.029
-678.208	475.360	0.182	-0.414
-677.193	208.840	-0.036	-0.057
-676.178	-23.000	0.366	-0.222
-675.164	241.398	0.033	0.055
-674.149	-26.856	-0.086	0.050
-673.135	18.091	0.118	-0.095
-672.120	78.581	-0.099	0.107
-671.105	-40.666	0.045	0.023
-670.091	-200.000	0.040	-0.261
-669.076	161.712	-0.072	-0.102
-668.062	800.000	-0.040	-0.130
-667.047	-109.266	0.083	-0.018
-666.032	194.039	0.192	-0.292
-665.018	-200.000	0.039	0.185
-664.003	-17.211	-0.114	0.072
-662.989	-67.223	-0.360	-0.142
-661.974	800.000	-0.033	-0.122
-660.959	-164.062	-0.133	0.006
-659.945	-131.113	-0.328	-0.044
-658.930	-96.949	-0.142	-0.037
-657.916	-134.400	-0.178	0.022
-656.901	-145.696	-0.305	0.027
-655.886	388.942	-0.178	-0.372
-654.872	6.330	0.206	0.154
-653.857	144.479	0.357	-0.480
-652.843	180.393	-0.117	-0.173
-651.828	-139.233	0.532	-0.058
-650.814	-39.385	-0.253	-0.133
-649.799	712.861	-0.050	0.133
-648.784	115.626	-0.106	0.130
-647.770	63.257	0.221	-0.223
-646.755	-200.000	0.002	0.018
-645.741	800.000	-0.052	0.218
-644.726	484.165	-0.072	0.166
-643.711	-75.565	0.024	-0.008
-642.697	373.971	-0.049	-0.100
-641.682	-30.605	0.104	-0.059
-640.668	-65.044	0.221	0.090
-639.653	-200.000	0.030	-0.198
-638.638	41.209	-0.220	-0.200
-637.624	127.225	0.211	0.269
-636.609	-22.023	0.164	0.100
-635.595	-200.000	0.019	-0.133
-634.580	146.237	0.105	0.141
-633.565	25.871	-0.264	0.221
-632.551	-175.189	-0.257	-0.007
-631.536	563.096	-0.071	-0.173
-630.522	454.848	-0.076	-0.170
-629.507	-10.986	0.210	-0.139
-628.492	800.000	-0.070	-0.218
-627.478	55.735	-0.213	-0.207
-626.463	319.485	0.151	0.287
-625.449	130.440	0.112	-0.144
-624.434	-177.951	-0.246	0.006
-623.419	224.405	0.129	-0.209
-622.405	196.953	0.134	-0.205
-621.390	800.000	-0.065	-0.186
-620.376	-3.143	0.263	-0.184
-619.361	-110.490	-0.213	0.044
-618.346	-31.687	-0.034	0.019
-617.332	212.402	-0.075	-0.119
-616.317	33.628	-0.037	-0.032
-615.303	-31.316	0.288	-0.163
-614.288	-48.191	-0.245	-0.119
-613.273	-161.343	0.040	-0.002
-612.259	-160.117	-0.099	-0.005
-611.244	64.083	0.177	0.179
-610.230	245.741	0.088	-0.149
-609.215	-73.189	-0.202	-0.074
-608.201	98.830	-0.053	0.061
-607.186	-200.000	-0.025	-0.217
-606.171	-44.430	0.142	0.072
-605.157	138.222	-0.274	-0.361
-604.142	-200.000	-0.022	-0.097
-603.128	134.778	0.089	-0.116
-602.113	-200.000	-0.023	0.130
-601.098	-197.411	-0.566	-0.004
-600.084	-139.783	0.222	0.024
-599.069	-200.000	0.103	-0.588
-598.055	800.000	-0.058	-0.225
-597.040	222.837	-0.109	0.177
-596.025	-200.000	0.008	0.078
-595.011	-98.591	0.397	0.102
-593.996	79.355	-0.245	-0.264
-592.982	12.369	0.314	-0.243
-591.967	-90.837	0.077	0.022
-590.952	-3.472	0.096	0.067
-589.938	22.251	0.326	-0.268
-588.923	-200.000	-0.029	-0.365
-587.909	-200.000	-0.002	0.078
-586.894	-83.138	-0.103	0.033
-585.879	285.961	-0.124	0.225
-584.865	114.537	0.135	0.165
-583.850	114.285	0.138	-0.168
-582.836	-67.742	-0.204	0.080
-581.821	50.842	-0.115	0.109
-580.806	-156.824	-0.067	-0.004
-579.792	130.448	-0.124	0.159
-578.777	-57.649	-0.278	-0.122
-577.763	-88.763	0.336	-0.100
-576.748	611.470	0.174	0.437
-575.733	19.857	-0.137	0.111
-574.719	-200.000	0.080	-0.412
-573.704	136.309	-0.051	-0.066
-572.690	-200.000	-0.030	0.153
-571.675	-200.000	0.012	-0.141
-570.661	-9.588	-0.125	0.084
-569.646	178.473	-0.025	-0.037
-568.631	-200.000	0.037	0.222
-567.617	91.729	-0.173	-0.195
-566.602	-47.787	0.245	0.119
-565.588	755.314	-0.113	0.306
-564.573	189.526	0.156	0.234
-563.558	188.731	0.099	-0.149
-562.544	28.250	-0.100	-0.084
-561.529	81.461	0.049	-0.054
-560.515	-80.210	0.250	-0.084
-559.500	214.346	0.025	0.040
-558.485	-98.862	0.295	-0.075
-557.471	-7.136	-0.241	-0.164
-556.456	747.592	0.095	-0.256
-555.442	509.176	0.078	0.182
-554.427	-200.000	-0.058	0.308
-553.412	-170.122	0.226	-0.008
-552.398	634.690	0.033	0.084
-551.383	228.013	0.226	0.369
-550.369	19.702	-0.345	0.278
-549.354	157.971	0.308	-0.428
-548.339	409.904	-0.027	-0.057
-547.325	-4.465	-0.361	-0.250
-546.310	800.000	0.031	-0.096
-545.296	383.001	0.057	0.117
-544.281	-191.770	0.346	0.003
-543.266	6.313	-0.191	-0.142
-542.252	800.000	-0.078	0.335
-541.237	-62.627	0.172	0.072
-540.223	73.048	0.151	0.158
-539.208	-128.767	-0.221	-0.031
-538.193	130.523	-0.061	0.079
-537.179	374.219	-0.111	-0.226
-536.164	800.000	-0.039	0.129
-535.150	-130.867	-0.099	0.013
-534.135	-35.110	0.268	-0.146
-533.121	146.595	0.084	-0.113
-532.106	20.981	-0.213	-0.173
-531.091	27.982	0.198	0.167
-530.077	800.000	-0.052	0.215
-529.062	-200.000	0.004	0.050
-528.048	400.930	-0.122	-0.256
-527.033	800.000	0.053	-0.193
-526.018	800.000	-0.122	-0.367
-525.004	65.401	0.068	-0.069
-523.989	-12.467	-0.180	0.118
-522.975	-200.000	-0.068	-0.334
-521.960	-86.779	0.224	-0.069
-520.945	487.298	0.164	0.374
-519.931	-106.198	-0.600	0.135
-518.916	-200.000	-0.017	-0.162
-517.902	-168.968	0.598	0.022
-516.887	720.725	0.148	0.394
-515.872	-200.000	-0.016	0.081
-514.858	-71.830	-0.268	0.100
-513.843	38.125	0.072	0.064
-512.829	147.422	0.072	-0.097
-511.814	-86.504	-0.038	-0.012
-510.799	312.948	0.155	0.291
-509.785	800.000	-0.046	-0.169
-508.770	-200.000	-0.021	-0.116
-507.756	-29.783	0.153	-0.087
-506.741	398.420	-0.056	-0.117
-505.726	-200.000	0.020	-0.153
-504.712	697.556	-0.082	0.215
-503.697	-200.000	-0.024	-0.402
-502.683	197.576	-0.164	0.250
-501.668	46.588	-0.305	0.283
-500.653	329.140	-0.131	0.252
-499.639	-123.294	-0.238	0.038
-498.624	-200.000	0.030	0.158
-497.610	10.699	0.220	-0.168
-496.595	-200.000	0.015	0.183
-495.581	-113.200	-0.127	-0.025
-494.566	-107.963	0.298	0.065
-493.551	-80.322	-0.058	-0.019
-492.537	-18.730	0.194	0.121
-491.522	52.464	0.082	0.079
-490.508	794.487	-0.090	0.247
-489.493	142.066	0.102	0.135
-488.478	-150.945	-0.112	-0.008
-487.464	800.000	0.060	0.171
-486.449	-44.563	-0.129	-0.064
-485.435	-200.000	0.017	0.120
-484.420	-200.000	-0.023	0.342
-483.405	54.639	0.198	0.191
-482.391	-165.687	0.200	-0.009
-481.376	-200.000	-0.049	0.376
-480.362	800.000	0.096	-0.313
-479.347	-26.610	-0.182	-0.107
-478.332	65.126	-0.168	-0.169
-477.318	-11.785	-0.113	0.074
-476.303	-61.631	-0.199	-0.083
-475.289	-200.000	0.006	0.163
-474.274	527.350	0.051	0.119
-473.259	316.037	0.164	-0.308
-472.245	-200.000	-0.023	-0.242
-471.230	-200.000	0.031	-0.511
-470.216	-97.355	0.101	0.026
-469.201	-50.932	0.185	-0.087
-468.186	-144.108	0.293	0.027
-467.172	-200.000	0.010	0.127
-466.157	-37.479	-0.078	-0.041
-465.143	82.661	0.120	-0.130
-464.128	-200.000	0.028	0.277
-463.113	612.291	-0.085	-0.211
-462.099	-200.000	0.035	-0.304
-461.084	392.309	0.102	-0.212
-460.070	-200.000	0.026	-0.250
-459.055	78.833	0.034	-0.036
-458.040	-98.988	-0.079	-0.020
-457.026	-27.403	0.078	-0.045
-456.011	14.440	-0.077	0.060
-454.997	-200.000	-0.040	0.380
-453.982	-97.433	-0.213	-0.055
-452.968	-9.545	0.168	0.112
-451.953	-112.197	0.292	0.059
-450.938	-171.317	-0.195	0.007
-449.924	127.977	0.098	0.125
-448.909	54.819	-0.101	-0.097
-447.895	-83.795	-0.199	0.063
-446.880	-6.456	0.084	-0.057
-445.865	279.620	-0.130	0.231
-444.851	-200.000	0.028	-0.211
-443.836	-19.414	0.101	-0.062
-442.822	-153.164	-0.407	0.028
-441.807	198.761	0.069	-0.105
-440.792	0.939	0.090	-0.064
-439.778	-162.195	-0.085	0.004
-438.763	-63.705	0.246	-0.101
-437.749	-200.000	0.036	-0.182
-436.734	134.107	0.188	-0.243
-435.719	-200.000	0.071	-0.419
-434.705	-150.057	0.235	-0.018
-433.690	800.000	0.059	-0.187
-432.676	-123.371	0.275	-0.044
-431.661	527.993	-0.049	0.115
-430.646	-93.199	0.320	0.089
-429.632	-44.843	0.188	0.093
-428.617	-200.000	-0.007	0.361
-427.603	141.932	-0.094	-0.124
-426.588	-129.000	0.282	-0.039
-425.573	-91.662	-0.319	-0.091
-424.559	800.000	-0.036	-0.124
-423.544	241.674	-0.147	-0.245
-422.530	75.146	0.031	-0.033
-421.515	800.000	-0.054	-0.149
-420.500	-12.967	0.112	0.073
-419.486	-151.479	0.430	-0.032
-418.471	18.968	-0.075	0.060
-417.457	-65.156	0.244	-0.098
-416.442	92.278	0.150	0.168
-415.428	-200.000	-0.074	-0.329
-414.413	-88.231	-0.156	-0.047
-413.398	-9.854	0.126	0.084
-412.384	-200.000	0.046	0.414
-411.369	211.396	-0.037	0.058
-410.355	-55.383	-0.042	-0.019
-409.340	-120.708	0.168	0.028
-408.325	800.000	-0.108	-0.418
-407.311	-10.191	0.181	0.120
-406.296	164.360	-0.120	0.169
-405.282	-176.002	-0.322	-0.008
-404.267	-108.017	0.319	-0.069
-403.252	-48.566	0.285	-0.137
-402.238	-200.000	0.019	0.235
-401.223	-200.000	-0.053	-0.275
-400.209	800.000	0.115	-0.470
-399.194	586.576	-0.082	0.201
-398.179	-165.270	-0.112	0.005
-397.165	800.000	0.093	-0.266
-396.150	192.195	-0.271	-0.408
-395.136	-36.222	-0.088	0.047
-394.121	39.524	0.276	-0.246
-393.106	23.943	0.224	-0.184
-392.092	-159.476	-0.222	0.012
-391.077	800.000	-0.111	-0.331
-390.063	-54.766	0.222	0.100
-389.048	132.796	-0.122	-0.157
-388.033	-60.774	0.306	-0.129
-387.019	-60.901	0.046	-0.019
-386.004	-200.000	0.077	-0.389
-384.990	508.537	0.132	-0.305
-383.975	718.200	-0.074	0.195
-382.960	-62.491	0.242	0.100
-381.946	-200.000	0.012	0.122
-380.931	-122.906	0.291	-0.047
-379.917	-8.410	-0.164	-0.110
-378.902	-200.000	-0.012	0.070
-377.888	-200.000	0.021	0.136
-376.873	505.986	-0.191	0.441
-375.858	7.364	-0.233	0.173
-374.844	16.122	0.083	0.065
-373.829	108.297	-0.114	0.135
-372.815	-162.993	0.125	0.006
-371.800	31.829	0.115	-0.099
-370.785	800.000	-0.038	-0.128
-369.771	-16.591	-0.101	0.064
-368.756	140.072	-0.066	0.087
-367.742	-3.555	0.211	0.146
-366.727	370.433	0.083	0.167
-365.712	64.901	0.150	-0.151
-364.698	800.000	0.036	0.126
-363.683	-57.229	-0.060	-0.026
-362.669	51.492	-0.332	0.314
-361.654	800.000	0.074	-0.249
-360.639	-82.481	-0.089	0.029
-359.625	228.843	-0.173	0.281
-358.610	39.807	0.181	-0.162
-357.596	800.000	-0.034	-0.103
-356.581	123.958	-0.229	-0.286
-355.566	30.191	-0.181	0.153
-354.552	27.138	0.130	-0.109
-353.537	24.621	0.247	0.203
-352.523	-124.771	-0.294	0.045
-351.508	42.670	-0.271	0.246
-350.493	-50.214	-0.109	0.051
-349.479	800.000	0.048	-0.136
-348.464	-18.116	0.045	0.028
-347.450	262.799	0.075	-0.129
-346.435	-163.674	0.093	-0.004
-345.420	193.810	-0.119	0.179
-344.406	7.740	-0.327	-0.244
-343.391	604.885	0.117	-0.288
-342.377	70.849	-0.120	0.124
-341.362	-118.236	-0.205	0.036
-340.348	800.000	-0.076	-0.219
-339.333	616.839	0.129	-0.322
-338.318	-77.151	-0.349	-0.121
-337.304	-56.809	-0.176	-0.077
-336.289	17.534	-0.128	-0.101
-335.275	87.419	0.065	-0.072
-334.260	17.590	0.164	0.129
-333.245	298.628	0.105	0.192
-332.231	1.075	-0.202	-0.144
-331.216	463.869	-0.129	0.286
-330.202	-75.558	0.133	0.047
-329.187	-99.426	0.228	-0.057
-328.172	488.541	-0.079	0.179
-327.158	51.639	0.130	-0.123
-326.143	-142.416	-0.064	-0.006
-325.129	-29.313	-0.123	0.070
-324.114	-160.462	-0.144	0.008
-323.099	-200.000	-0.001	0.054
-322.085	-87.130	0.121	-0.037
-321.070	-127.812	-0.537	-0.077
-320.056	-62.747	0.416	-0.171
-319.041	-200.000	-0.045	0.285
-318.026	-200.000	-0.002	-0.183
-317.012	14.677	-0.174	-0.135
-315.997	-44.760	-0.272	0.135
-314.983	-176.313	-0.097	-0.003
-313.968	40.056	0.120	-0.107
-312.953	-200.000	0.008	0.218
-311.939	244.182	-0.151	0.252
-310.924	8.587	-0.157	0.118
-309.910	-138.212	-0.213	0.023
-308.895	-53.358	-0.123	0.056
-307.880	-200.000	-0.018	-0.215
-306.866	-65.941	0.165	0.065
-305.851	-34.074	0.075	0.041
-304.837	24.747	0.218	0.179
-303.822	-185.993	0.114	-0.002
-302.807	-200.000	0.053	-0.252
-301.793	60.556	-0.221	0.218
-300.778	-200.000	-0.034	0.252
-299.764	-200.000	0.008	0.316
-298.749	287.751	-0.093	-0.166
-297.735	-20.976	0.476	0.289
-296.720	-98.908	0.136	-0.034
-295.705	800.000	-0.137	0.393
-294.691	-8.254	0.167	-0.111
-293.676	26.255	-0.104	0.086
-292.662	25.972	-0.451	0.373
-291.647	9.408	-0.192	-0.144
-290.632	-78.021	-0.286	-0.098
-289.618	12.340	-0.291	-0.222
-288.603	-92.047	0.079	-0.022
-287.589	800.000	0.021	0.075
-286.574	-200.000	-0.100	-0.446
-285.559	428.057	0.082	0.176
-284.545	-125.040	-0.464	-0.071
-283.530	-70.943	-0.197	0.074
-282.516	41.471	-0.198	0.178
-281.501	-101.974	0.294	0.070
-280.486	208.943	-0.196	0.304
-279.472	-3.942	0.140	0.096
-278.457	-200.000	0.025	0.129
-277.443	50.503	-0.099	-0.093
-276.428	-77.390	-0.085	-0.029
-275.413	-200.000	0.033	0.187
-274.399	-100.242	0.178	-0.044
-273.384	-200.000	-0.001	0.060
-272.370	-49.872	0.277	-0.130
-271.355	57.078	0.223	-0.215
-270.340	-118.166	-0.115	-0.020
-269.326	708.047	-0.078	-0.204
-268.311	224.958	-0.125	0.200
-267.297	800.000	0.072	0.224
-266.282	-122.458	0.174	-0.028
-265.267	-49.372	0.183	0.086
-264.253	800.000	-0.056	0.180
-263.238	800.000	0.039	0.131
-262.224	-132.475	-0.128	-0.016
-261.209	14.129	-0.219	-0.169
-260.195	76.742	0.167	0.175
-259.180	-200.000	0.041	-0.312
-258.165	72.181	0.125	0.129
-257.151	573.859	-0.087	-0.210
-256.136	538.873	-0.083	0.195
-255.122	-39.115	0.408	0.213
-254.107	800.000	-0.116	0.354
-253.092	-17.458	0.079	0.049
-252.078	-200.000	0.019	0.153
-251.063	-79.852	-0.035	-0.012
-250.049	185.369	-0.097	0.143
-249.034	-59.398	-0.191	-0.081
-248.019	243.036	0.077	0.128
-247.005	-86.221	-0.057	-0.017
-245.990	-100.113	-0.172	0.042
-244.976	-145.079	-0.104	-0.009
-243.961	39.602	-0.099	-0.088
-242.946	-66.645	0.085	0.034
-241.932	79.073	-0.130	-0.138
-240.917	107.169	0.008	0.009
-239.903	54.500	-0.155	0.148
-238.888	-125.525	-0.334	0.050
-237.873	14.180	0.175	-0.135
-236.859	-111.268	-0.089	0.018
-235.844	-102.442	0.188	-0.045
-234.830	-79.704	0.188	0.063
-233.815	-20.618	0.156	-0.095
-232.800	800.000	0.023	0.091
-231.786	-170.858	-0.201	-0.007
-230.771	142.876	0.100	0.132
-229.757	-65.797	-0.278	-0.110
-228.742	521.232	0.222	0.516
-227.727	-108.304	-0.241	0.051
-226.713	-52.352	-0.084	0.039
-225.698	800.000	0.034	0.108
-224.684	187.182	0.137	0.202
-223.669	282.536	-0.142	-0.253
-222.655	-200.000	-0.033	0.442
-221.640	-28.631	0.216	0.123
-220.625	-200.000	-0.039	-0.171
-219.611	-200.000	-0.044	0.317
-218.596	177.072	0.210	-0.303
-217.582	-57.788	0.174	-0.075
-216.567	9.490	-0.211	0.158
-215.552	62.838	0.090	0.089
-214.538	-127.295	-0.234	0.034
-213.523	-200.000	-0.011	0.153
-212.509	800.000	0.117	0.347
-211.494	-133.301	-0.092	0.011
-210.479	-200.000	0.095	-0.536
-209.465	107.395	0.182	0.215
-208.450	-37.107	-0.195	-0.103
-207.436	280.939	-0.089	-0.158
-206.421	-165.535	0.156	-0.007
-205.406	-112.295	-0.179	-0.035
-204.392	-200.000	0.025	-0.121
-203.377	438.468	-0.184	-0.398
-202.363	-147.386	-0.255	0.021
-201.348	800.000	0.065	0.222
-200.333	-99.728	-0.064	-0.016
-199.319	-92.324	0.317	0.088
-198.304	-58.419	0.229	-0.099
-197.290	-158.389	-0.176	0.010
-196.275	154.167	0.237	0.322
-195.260	-69.688	-0.052	-0.020
-194.246	-49.900	0.050	-0.023
-193.231	-200.000	0.000	0.191
-192.217	236.400	-0.091	-0.149
-191.202	-200.000	0.048	0.281
-190.187	7.350	-0.147	0.109
-189.173	109.478	-0.042	-0.050
-188.158	800.000	-0.081	0.286
-187.144	84.155	0.165	0.178
-186.129	-15.378	0.271	0.171
-185.114	800.000	0.086	-0.305
-184.100	800.000	-0.070	0.202
-183.085	-30.683	-0.097	-0.054
-182.071	305.902	0.175	-0.322
-181.056	27.212	-0.326	0.271
-180.042	713.070	-0.123	-0.322
-179.027	19.650	0.068	0.054
-178.012	94.057	-0.128	0.143
-176.998	-188.728	0.097	-0.001
-175.983	-88.394	-0.152	0.045
-174.969	-99.883	0.326	-0.081
-173.954	-85.869	0.073	-0.022
-172.939	124.884	-0.122	0.152
-171.925	-200.000	0.001	-0.025
-170.910	59.061	0.143	-0.139
-169.896	800.000	-0.080	-0.251
-168.881	159.025	-0.112	-0.154
-167.866	-101.880	-0.410	-0.098
-166.852	-136.936	0.304	-0.034
-165.837	-200.000	-0.023	0.124
-164.823	-128.396	0.343	0.048
-163.808	-1.505	0.187	0.130
-162.793	26.999	-0.081	-0.067
-161.779	98.416	0.061	-0.070
-160.764	76.930	-0.130	0.136
-159.750	-200.000	-0.043	0.434
-158.735	800.000	-0.030	0.126
-157.720	-107.264	0.250	-0.054
-156.706	70.408	-0.207	-0.211
-155.691	-105.343	0.375	0.084
-154.677	-200.000	-0.005	0.154
-153.662	-121.920	-0.127	0.021
-152.647	137.441	-0.196	-0.253
-151.633	-86.686	-0.115	0.035
-150.618	-15.136	0.245	-0.155
-149.604	-44.218	0.111	-0.055
-148.589	-45.700	-0.318	-0.155
-147.574	148.632	-0.135	-0.180
-146.560	-200.000	0.027	0.195
-145.545	-170.206	0.173	0.006
-144.531	-152.386	-0.182	-0.013
-143.516	-142.420	0.127	-0.012
-142.502	-55.650	0.295	0.130
-141.487	-84.241	0.242	0.076
-140.472	800.000	-0.056	-0.179
-139.458	-13.739	0.227	0.145
-138.443	-200.000	0.107	-0.519
-137.429	92.705	-0.190	0.211
-136.414	-131.901	-0.092	-0.012
-135.399	-59.080	0.160	0.068
-134.385	-200.000	-0.008	-0.258
-133.370	81.652	-0.067	-0.072
-132.356	-90.456	-0.161	-0.046
-131.341	151.953	0.057	-0.077
-130.326	-6.976	0.126	0.084
-129.312	24.143	0.151	0.123
-128.297	14.998	-0.319	0.246
-127.283	-102.853	-0.312	-0.073
-126.268	26.801	-0.358	-0.296
-125.253	45.654	0.236	-0.215
-124.239	-7.527	0.124	0.083
-123.224	-200.000	-0.001	0.415
-122.210	-35.036	0.166	0.089
-121.195	308.594	0.145	-0.267
