DTS Sentinel unit serial number:	SN413079Multiplexer serial number:	ORYXHardware model number:	OX4-SRSoftware version number:	ORYX F/W v4.00 Oryx Data Collector v3.7.2.0data status	okinstallation	princeton_trtdifferential loss correction	single-endedforward channel	channel 3reverse channel	N/Adate	2019/09/18time	19:24:35forward acquisition time	60.00reverse acquisition time	0.00gamma	496.2192k internal	0.2321k external	0.2321temperature offset calibration	1.0010default loss term (dB/km)	0.3790temperature slope calibration	1.0000multiplexer offset coefficient	1.0000multiplexer slope coefficient	1.0000fibre end	0.00T internal ref (°C)	33.47T ext. ref 1 (°C)	1.12T ext. ref 2 (°C)	22.97length (m)	temperature (°C)	Stokes	anti-Stokes-747.200	-85.021	-0.302	-0.096
-746.185	-200.000	-0.038	0.195
-745.171	33.419	-0.099	0.087
-744.156	-133.779	-0.385	-0.049
-743.142	-79.909	0.130	0.044
-742.127	62.545	-0.201	0.203
-741.112	-16.982	0.158	-0.101
-740.098	800.000	-0.119	0.362
-739.083	-69.545	-0.271	0.105
-738.069	-98.708	-0.326	0.084
-737.054	-133.156	-0.158	0.020
-736.039	-64.206	-0.391	0.161
-735.025	-200.000	-0.010	0.324
-734.010	102.547	0.056	-0.066
-732.996	334.662	-0.145	-0.285
-731.981	-133.920	0.116	-0.015
-730.966	-83.786	-0.170	0.055
-729.952	367.221	0.088	0.180
-728.937	61.471	-0.075	-0.075
-727.923	-49.090	-0.331	0.160
-726.908	800.000	0.032	-0.121
-725.894	230.880	-0.058	-0.095
-724.879	800.000	-0.068	-0.246
-723.864	5.042	-0.158	0.118
-722.850	399.159	0.079	-0.166
-721.835	266.232	0.046	-0.081
-720.821	800.000	0.103	-0.302
-719.806	19.394	-0.212	-0.172
-718.791	1.813	-0.399	0.290
-717.777	307.904	-0.046	0.086
-716.762	-117.013	0.086	-0.016
-715.748	-43.152	-0.051	-0.026
-714.733	21.368	0.158	-0.130
-713.718	231.415	-0.192	0.318
-712.704	370.603	-0.108	0.220
-711.689	58.147	0.185	-0.183
-710.675	-79.614	-0.357	0.122
-709.660	-32.487	0.159	-0.090
-708.645	-145.034	-0.169	-0.016
-707.631	800.000	0.044	0.191
-706.616	-200.000	-0.005	0.419
-705.602	-155.167	-0.288	0.019
-704.587	-146.583	-0.364	-0.032
-703.572	-200.000	-0.008	0.297
-702.558	-200.000	-0.006	0.139
-701.543	0.925	0.382	-0.276
-700.529	605.463	-0.054	0.136
-699.514	128.928	0.163	0.210
-698.499	596.017	-0.042	0.104
-697.485	-139.224	-0.070	-0.008
-696.470	-142.831	-0.030	-0.003
-695.456	800.000	-0.053	0.174
-694.441	800.000	-0.019	-0.068
-693.426	-0.401	0.305	-0.219
-692.412	29.703	0.160	0.137
-691.397	322.617	-0.024	0.047
-690.383	800.000	-0.067	0.218
-689.368	255.098	0.150	-0.260
-688.354	-200.000	-0.051	-0.280
-687.339	-153.366	-0.190	0.013
-686.324	150.101	0.239	0.327
-685.310	-200.000	-0.014	-0.085
-684.295	198.335	-0.061	0.095
-683.281	122.100	-0.106	-0.134
-682.266	532.073	0.162	-0.385
-681.251	125.951	-0.035	-0.045
-680.237	-21.086	-0.303	0.187
-679.222	60.184	-0.122	0.122
-678.208	800.000	-0.043	0.150
-677.193	-200.000	-0.004	0.198
-676.178	-200.000	0.048	-0.260
-675.164	45.628	-0.126	-0.117
-674.149	117.632	0.055	-0.069
-673.135	1.339	-0.114	-0.082
-672.120	-59.803	-0.284	0.123
-671.105	-200.000	0.012	-0.301
-670.091	800.000	-0.088	0.273
-669.076	23.310	-0.246	0.203
-668.062	-200.000	-0.019	-0.101
-667.047	95.705	0.179	-0.206
-666.032	11.748	0.344	-0.266
-665.018	-200.000	0.025	0.338
-664.003	564.893	-0.067	0.164
-662.989	305.712	0.181	-0.339
-661.974	-95.141	-0.159	0.043
-660.959	-58.420	0.456	-0.200
-659.945	-90.614	-0.164	0.048
-658.930	338.579	0.059	-0.115
-657.916	741.751	-0.115	0.311
-656.901	-68.560	-0.191	-0.074
-655.886	1.418	-0.156	-0.113
-654.872	178.380	0.318	-0.468
-653.857	-50.472	0.368	-0.175
-652.843	21.118	0.092	-0.075
-651.828	-78.743	-0.097	0.033
-650.814	-200.000	-0.014	0.245
-649.799	-168.637	0.054	0.002
-648.784	-63.238	-0.378	-0.157
-647.770	-200.000	0.013	-0.184
-646.755	-73.441	-0.524	-0.193
-645.741	-93.439	0.217	-0.061
-644.726	223.827	0.154	-0.250
-643.711	658.361	0.084	-0.216
-642.697	-38.365	-0.268	0.143
-641.682	-91.307	0.356	-0.103
-640.668	-200.000	0.004	-0.020
-639.653	-119.355	0.327	-0.057
-638.638	-155.653	-0.170	-0.011
-637.624	-200.000	0.057	-0.492
-636.609	-200.000	0.009	-0.191
-635.595	-148.479	-0.268	0.022
-634.580	-122.061	-0.146	-0.024
-633.565	48.574	-0.252	-0.238
-632.551	-15.840	-0.093	0.059
-631.536	-182.871	0.312	-0.006
-630.522	607.302	-0.093	0.233
-629.507	800.000	-0.052	-0.215
-628.492	665.245	0.027	0.071
-627.478	87.593	0.220	0.246
-626.463	375.499	-0.185	0.379
-625.449	-200.000	0.011	0.053
-624.434	-200.000	0.004	0.115
-623.419	-102.634	0.166	0.040
-622.405	49.889	-0.235	-0.223
-621.390	-34.877	-0.168	0.092
-620.376	-111.575	-0.172	-0.035
-619.361	-71.073	0.269	-0.102
-618.346	-200.000	0.016	0.229
-617.332	-84.431	-0.264	0.084
-616.317	-117.695	-0.056	-0.010
-615.303	-200.000	-0.021	0.329
-614.288	375.199	-0.126	0.258
-613.273	800.000	-0.073	0.271
-612.259	-116.045	-0.479	-0.090
-611.244	-54.756	-0.216	0.098
-610.230	-150.731	0.201	0.015
-609.215	65.962	-0.175	-0.178
-608.201	-200.000	0.051	0.000
-607.186	394.019	0.138	-0.288
-606.171	-139.318	-0.206	-0.022
-605.157	-52.239	-0.261	-0.122
-604.142	68.574	0.079	-0.081
-603.128	-27.207	0.048	-0.028
-602.113	800.000	-0.071	-0.261
-601.098	-200.000	0.011	-0.147
-600.084	800.000	-0.032	-0.124
-599.069	-111.570	0.363	0.074
-598.055	549.942	0.102	0.245
-597.040	265.532	0.238	0.416
-596.025	800.000	-0.119	0.340
-595.011	53.303	0.162	0.156
-593.996	-99.223	-0.182	-0.046
-592.982	125.358	0.053	-0.067
-591.967	274.198	-0.037	-0.066
-590.952	8.355	-0.360	0.272
-589.938	-145.695	0.306	-0.027
-588.923	-148.389	-0.257	-0.021
-587.909	778.678	-0.041	-0.114
-586.894	120.922	-0.209	-0.261
-585.879	800.000	-0.039	0.147
-584.865	-52.134	-0.122	0.057
-583.850	696.879	-0.053	0.141
-582.836	7.750	-0.215	0.162
-581.821	-200.000	0.020	0.173
-580.806	-37.129	0.429	0.231
-579.792	162.557	0.208	-0.292
-578.777	332.866	-0.080	-0.156
-577.763	320.638	-0.127	0.242
-576.748	-14.191	-0.078	0.051
-575.733	-72.767	0.336	-0.124
-574.719	800.000	-0.087	-0.251
-573.704	140.928	0.223	0.295
-572.690	119.029	-0.164	-0.203
-571.675	10.849	0.193	-0.148
-570.661	96.448	-0.252	0.290
-569.646	-118.339	-0.165	0.029
-568.631	-108.984	-0.281	-0.060
-567.617	0.782	-0.115	0.082
-566.602	116.200	0.044	-0.054
-565.588	109.737	-0.109	-0.131
-564.573	-111.362	0.253	-0.052
-563.558	500.018	-0.122	-0.283
-562.544	411.983	-0.109	-0.233
-561.529	68.259	-0.163	-0.168
-560.515	-75.145	-0.242	0.087
-559.500	1.065	0.247	0.178
-558.485	-157.269	-0.112	0.007
-557.471	248.520	-0.090	0.153
-556.456	57.059	-0.114	-0.112
-555.442	-148.799	0.060	-0.005
-554.427	-136.970	0.284	-0.033
-553.412	-81.579	-0.203	-0.067
-552.398	407.265	0.167	-0.354
-551.383	-116.207	-0.272	0.051
-550.369	-200.000	0.017	-0.155
-549.354	29.507	-0.215	0.184
-548.339	80.937	-0.075	0.081
-547.325	423.217	0.113	-0.243
-546.310	347.822	0.030	0.059
-545.296	-58.450	-0.188	0.082
-544.281	-170.013	-0.319	0.011
-543.266	800.000	-0.131	-0.415
-542.252	44.745	-0.106	0.098
-541.237	744.908	0.049	0.133
-540.223	-23.882	-0.152	-0.091
-539.208	169.784	0.024	-0.035
-538.193	-132.518	0.110	-0.014
-537.179	49.780	0.067	0.063
-536.164	-76.052	-0.168	0.060
-535.150	111.430	0.135	-0.163
-534.135	-200.000	-0.033	-0.152
-533.121	-200.000	-0.064	-0.479
-532.106	-18.047	0.088	-0.055
-531.091	-8.435	0.344	0.232
-530.077	292.679	-0.033	-0.060
-529.062	-43.382	-0.244	-0.124
-528.048	123.839	0.076	-0.096
-527.033	196.573	0.161	0.246
-526.018	-85.587	0.408	0.127
-525.004	-43.577	-0.254	0.128
-523.989	-9.927	-0.187	-0.125
-522.975	-77.786	-0.165	0.057
-521.960	218.254	-0.058	0.093
-520.945	-200.000	0.025	0.126
-519.931	85.951	0.153	-0.168
-518.916	800.000	0.062	0.176
-517.902	735.719	0.106	0.284
-516.887	-90.342	0.294	-0.086
-515.872	64.464	0.213	0.215
-514.858	-200.000	-0.032	0.183
-513.843	-109.378	0.134	0.028
-512.829	275.808	0.095	-0.170
-511.814	-24.466	0.100	0.060
-510.799	265.145	0.163	0.284
-509.785	-28.519	-0.172	0.099
-508.770	-44.989	-0.111	-0.055
-507.756	662.123	0.087	-0.223
-506.741	-96.896	-0.221	-0.058
-505.726	0.730	0.019	0.014
-504.712	-2.201	0.288	-0.203
-503.697	373.130	0.071	-0.145
-502.683	-13.719	0.203	0.131
-501.668	-52.848	0.045	0.021
-500.653	800.000	-0.037	-0.149
-499.639	32.600	-0.194	0.168
-498.624	-0.968	-0.146	0.104
-497.610	73.033	0.085	-0.089
-496.595	-108.275	0.365	0.079
-495.581	-150.596	-0.225	0.017
-494.566	-10.403	-0.194	-0.128
-493.551	-30.661	0.153	0.087
-492.537	-200.000	-0.010	-0.096
-491.522	-24.383	0.205	0.122
-490.508	-16.817	-0.056	-0.035
-489.493	-109.180	0.489	0.104
-488.478	-200.000	0.063	-0.290
-487.464	-200.000	-0.032	-0.238
-486.449	652.221	-0.111	-0.284
-485.435	-170.443	-0.072	0.003
-484.420	-200.000	-0.017	-0.255
-483.405	-128.957	-0.383	-0.054
-482.391	-66.717	0.083	-0.033
-481.376	59.491	-0.007	0.007
-480.362	-89.111	0.061	-0.018
-479.347	280.456	-0.183	0.327
-478.332	-200.000	-0.041	0.395
-477.318	-200.000	-0.035	0.421
-476.303	-132.080	0.215	-0.028
-475.289	-147.254	-0.275	0.023
-474.274	-119.665	-0.162	-0.028
-473.259	-200.000	0.237	-0.000
-472.245	-200.000	-0.019	-0.145
-471.230	800.000	-0.128	0.392
-470.216	533.255	-0.071	0.169
-469.201	-106.417	-0.122	0.027
-468.186	-47.970	0.259	0.125
-467.172	21.098	-0.137	0.111
-466.157	-113.377	0.259	-0.051
-465.143	265.334	0.041	0.072
-464.128	-13.815	0.029	0.019
-463.113	-89.451	-0.193	0.057
-462.099	62.080	0.267	-0.266
-461.084	-58.249	-0.204	-0.089
-460.070	206.617	0.248	0.386
-459.055	316.644	-0.193	0.364
-458.040	-200.000	-0.000	-0.040
-457.026	-125.912	0.142	0.021
-456.011	-200.000	0.033	0.193
-454.997	-200.000	-0.023	-0.195
-453.982	31.296	-0.254	-0.218
-452.968	-136.565	0.325	0.038
-451.953	159.561	-0.202	-0.281
-450.938	800.000	-0.123	-0.378
-449.924	-26.086	0.169	0.099
-448.909	-56.493	-0.112	0.050
-447.895	135.646	0.173	0.225
-446.880	-200.000	-0.024	-0.230
-445.865	-200.000	0.010	0.181
-444.851	708.051	0.068	-0.181
-443.836	447.985	-0.087	-0.192
-442.822	693.314	0.113	-0.296
-441.807	-200.000	-0.053	0.270
-440.792	-200.000	0.030	0.359
-439.778	-3.071	0.133	0.092
-438.763	-51.725	-0.033	0.016
-437.749	-98.337	0.312	-0.080
-436.734	-65.910	0.258	-0.103
-435.719	-139.593	0.235	-0.025
-434.705	38.843	-0.366	-0.326
-433.690	672.124	0.073	-0.188
-432.676	2.436	-0.263	0.190
-431.661	800.000	0.069	0.248
-430.646	208.649	0.131	-0.205
-429.632	778.662	-0.018	-0.049
-428.617	125.462	-0.068	0.085
-427.603	238.970	-0.112	0.187
-426.588	55.277	-0.140	-0.135
-425.573	-6.420	0.293	0.200
-424.559	206.779	0.037	-0.058
-423.544	-79.369	-0.175	-0.059
-422.530	-159.382	0.409	0.023
-421.515	-58.893	0.337	-0.146
-420.500	-100.344	0.112	0.028
-419.486	-200.000	0.031	-0.244
-418.471	-124.902	0.173	-0.027
-417.457	-135.574	0.215	-0.026
-416.442	-134.861	-0.193	-0.023
-415.428	800.000	-0.101	0.339
-414.413	9.067	-0.118	0.089
-413.398	227.129	0.094	-0.153
-412.384	-54.465	-0.385	-0.174
-411.369	-12.780	0.214	0.139
-410.355	499.683	-0.122	0.280
-409.340	143.803	0.169	-0.225
-408.325	26.569	-0.131	-0.109
-407.311	-66.199	0.393	0.156
-406.296	26.728	0.154	0.128
-405.282	-76.764	0.296	-0.104
-404.267	62.641	0.122	0.121
-403.252	-62.145	0.326	0.136
-402.238	800.000	0.170	-0.476
-401.223	-94.448	0.081	-0.022
-400.209	444.776	0.195	0.428
-399.194	-42.565	-0.143	0.073
-398.179	45.328	0.117	0.108
-397.165	800.000	-0.162	0.472
-396.150	129.239	-0.046	-0.059
-395.136	640.700	-0.083	0.211
-394.121	760.460	0.044	0.118
-393.106	-18.723	0.198	-0.123
-392.092	-21.373	-0.103	-0.062
-391.077	280.587	-0.110	-0.195
-390.063	58.280	0.173	0.169
-389.048	-50.721	0.235	-0.110
-388.033	800.000	0.104	0.296
-387.019	-131.578	-0.256	-0.034
-386.004	800.000	-0.029	-0.095
-384.990	-81.593	-0.168	-0.055
-383.975	800.000	0.029	0.112
-382.960	-35.486	0.173	0.093
-381.946	-84.315	-0.214	0.068
-380.931	53.140	0.200	0.191
-379.917	-72.775	-0.233	-0.085
-378.902	228.761	-0.044	-0.071
-377.888	590.272	-0.026	-0.065
-376.873	-36.738	0.232	0.124
-375.858	272.506	0.162	0.285
-374.844	-11.499	0.233	0.152
-373.829	800.000	0.102	0.333
-372.815	142.313	-0.092	-0.122
-371.800	-134.842	-0.328	0.040
-370.785	-200.000	-0.014	-0.137
-369.771	40.307	-0.090	0.080
-368.756	-142.320	-0.329	-0.032
-367.742	-125.581	0.245	-0.037
-366.727	-79.820	-0.280	-0.094
-365.712	-111.887	-0.059	-0.012
-364.698	-16.470	0.267	-0.169
-363.683	-56.167	0.130	0.058
-362.669	1.844	-0.199	-0.143
-361.654	-200.000	0.068	-0.411
-360.639	800.000	0.039	-0.146
-359.625	63.270	0.108	0.108
-358.610	431.777	0.080	-0.172
-357.596	800.000	-0.099	-0.289
-356.581	-158.990	-0.310	-0.018
-355.566	-2.440	0.047	0.033
-354.552	-141.767	-0.318	-0.032
-353.537	219.788	0.049	0.078
-352.523	265.468	0.038	0.066
-351.508	-38.160	-0.083	0.044
-350.493	-10.238	-0.180	0.119
-349.479	36.066	-0.315	-0.276
-348.464	348.442	-0.114	-0.223
-347.450	-200.000	0.017	0.220
-346.435	-175.709	0.182	0.005
-345.420	-73.083	0.271	0.099
-344.406	-200.000	-0.055	0.252
-343.391	-152.488	0.189	0.013
-342.377	172.558	0.103	-0.148
-341.362	-23.012	-0.168	0.101
-340.348	-80.793	0.122	0.040
-339.333	99.849	0.150	-0.173
-338.318	800.000	-0.022	-0.077
-337.304	-200.000	0.084	0.435
-336.289	-12.311	-0.031	-0.020
-335.275	18.852	-0.217	-0.173
-334.260	65.735	-0.160	0.161
-333.245	-105.810	0.157	-0.035
-332.231	-28.571	-0.259	0.149
-331.216	233.500	-0.086	-0.140
-330.202	219.215	-0.189	0.300
-329.187	9.738	-0.100	0.075
-328.172	800.000	0.076	-0.236
-327.158	48.485	-0.422	-0.393
-326.143	-97.871	0.296	0.076
-325.129	-200.000	-0.016	0.272
-324.114	-104.707	-0.164	0.038
-323.099	-65.593	0.346	-0.138
-322.085	22.190	-0.234	0.190
-321.070	2.304	-0.187	0.134
-320.056	800.000	0.047	-0.188
-319.041	-1.984	-0.044	-0.031
-318.026	-184.089	-0.330	0.005
-317.012	56.290	-0.098	-0.095
-315.997	-69.881	-0.281	-0.106
-314.983	94.728	0.147	-0.167
-313.968	80.056	0.079	-0.084
-312.953	81.224	0.150	-0.161
-311.939	-200.000	0.071	0.446
-310.924	116.761	-0.039	-0.048
-309.910	68.444	-0.179	0.182
-308.895	-27.204	-0.049	0.028
-307.880	176.818	-0.153	-0.221
-306.866	-25.242	-0.081	-0.048
-305.851	149.146	0.141	-0.190
-304.837	553.488	0.048	0.114
-303.822	271.793	-0.093	-0.163
-302.807	-48.052	0.204	-0.098
-301.793	198.138	0.109	0.165
-300.778	-200.000	-0.012	-0.380
-299.764	420.286	0.142	0.302
-298.749	-97.578	0.250	-0.064
-297.735	21.978	-0.192	0.155
-296.720	-101.462	-0.093	0.023
-295.705	-60.886	0.103	-0.043
-294.691	-108.220	-0.235	0.051
-293.676	-11.678	-0.362	0.236
-292.662	281.524	0.038	0.068
-291.647	-38.251	-0.054	-0.028
-290.632	480.741	0.096	-0.217
-289.618	210.125	-0.028	-0.044
-288.603	231.233	-0.109	0.177
-287.589	-49.444	-0.031	-0.015
-286.574	-200.000	-0.040	0.285
-285.559	122.450	-0.132	-0.163
-284.545	-118.443	-0.207	-0.036
-283.530	314.777	-0.108	0.203
-282.516	523.004	0.030	-0.071
-281.501	171.223	0.099	-0.141
-280.486	-2.681	0.256	-0.178
-279.472	234.419	0.049	-0.080
-278.457	-200.000	-0.026	-0.278
-277.443	-41.396	-0.103	0.053
-276.428	98.045	0.034	0.039
-275.413	800.000	-0.055	0.217
-274.399	-200.000	0.099	-0.479
-273.384	603.787	-0.039	-0.097
-272.370	-85.820	0.120	-0.037
-271.355	238.230	-0.130	-0.215
-270.340	-200.000	0.010	-0.244
-269.326	800.000	0.079	-0.290
-268.311	-200.000	-0.048	-0.495
-267.297	39.209	-0.154	0.137
-266.282	190.205	0.058	0.086
-265.267	-133.616	-0.165	-0.020
-264.253	-41.850	0.245	0.125
-263.238	241.408	-0.225	0.373
-262.224	-76.739	-0.113	-0.039
-261.209	-38.849	0.038	-0.020
-260.195	-200.000	-0.296	0.001
-259.180	56.618	0.131	0.126
-258.165	214.437	0.103	0.162
-257.151	-83.954	0.416	-0.131
-256.136	-200.000	0.028	0.249
-255.122	477.489	-0.097	-0.218
-254.107	-96.573	0.111	-0.029
-253.092	-59.072	0.416	0.178
-252.078	72.114	-0.236	-0.244
-251.063	-200.000	0.009	0.294
-250.049	-59.616	-0.089	0.038
-249.034	-152.589	0.272	0.019
-248.019	268.323	0.242	0.420
-247.005	-122.189	-0.189	-0.031
-245.990	-200.000	-0.021	-0.149
-244.976	-197.522	0.286	0.002
-243.961	-47.782	-0.146	-0.070
-242.946	800.000	-0.065	-0.182
-241.932	-200.000	-0.038	-0.225
-240.917	-165.848	0.251	-0.011
-239.903	-20.418	-0.099	-0.060
-238.888	-112.979	0.151	0.030
-237.873	800.000	-0.027	-0.113
-236.859	609.485	-0.135	0.333
-235.844	104.351	-0.082	0.096
-234.830	-200.000	0.087	-0.386
-233.815	-41.591	-0.083	0.042
-232.800	38.430	0.082	-0.072
-231.786	9.745	0.027	0.020
-230.771	21.496	0.159	0.128
-229.757	-200.000	0.001	0.308
-228.742	105.825	-0.144	-0.169
-227.727	-126.924	0.126	-0.018
-226.713	-6.078	-0.266	-0.180
-225.698	-10.792	0.182	-0.119
-224.684	-112.485	-0.221	-0.044
-223.669	385.830	0.146	-0.299
-222.655	-200.000	0.036	-0.195
-221.640	-200.000	0.042	-0.306
-220.625	235.282	-0.145	-0.236
-219.611	-0.414	-0.012	0.008
-218.596	-144.558	0.264	-0.024
-217.582	-46.790	-0.271	0.131
-216.567	5.847	-0.097	-0.071
-215.552	-71.493	0.278	-0.103
-214.538	316.051	-0.124	-0.231
-213.523	405.012	-0.090	0.188
-212.509	20.536	0.106	0.085
-211.494	311.744	0.092	0.171
-210.479	-130.332	0.082	0.011
-209.465	-25.068	0.258	0.151
-208.450	121.939	0.115	-0.142
-207.436	376.139	0.077	0.156
-206.421	-3.141	0.203	0.140
-205.406	-147.150	-0.098	-0.008
-204.392	-146.434	0.391	0.034
-203.377	113.603	0.102	0.122
-202.363	-200.000	0.038	0.177
-201.348	-200.000	-0.034	0.203
-200.333	-122.756	-0.353	0.056
-199.319	392.109	-0.086	0.177
-198.304	257.126	-0.040	-0.069
-197.290	8.004	0.375	0.279
-196.275	126.304	-0.149	0.186
-195.260	252.214	-0.272	0.459
-194.246	-72.284	-0.166	-0.061
-193.231	-56.291	-0.169	0.074
-192.217	111.907	-0.225	-0.269
-191.202	58.921	0.089	-0.086
-190.187	-129.148	-0.019	-0.003
-189.173	800.000	0.073	0.297
-188.158	-51.480	-0.327	0.151
-187.144	497.589	-0.064	-0.145
-186.129	-124.950	-0.172	0.026
-185.114	-81.872	-0.188	0.061
-184.100	-47.051	-0.324	0.156
-183.085	731.633	-0.062	0.163
-182.071	284.162	-0.033	0.058
-181.056	800.000	-0.105	0.327
-180.042	-82.904	0.553	0.177
-179.027	-200.000	0.009	0.340
-178.012	-200.000	-0.018	-0.158
-176.998	800.000	-0.076	0.273
-175.983	-27.751	-0.178	-0.102
-174.969	-200.000	0.018	0.373
-173.954	270.984	0.075	-0.131
-172.939	-121.891	0.165	0.027
-171.925	-200.000	0.018	-0.085
-170.910	-200.000	-0.006	-0.219
-169.896	33.239	0.247	0.212
-168.881	800.000	-0.082	-0.307
-167.866	31.840	0.169	-0.144
-166.852	248.699	0.101	0.168
-165.837	-4.659	0.257	0.176
-164.823	68.217	0.094	-0.096
-163.808	778.705	-0.114	-0.308
-162.793	-200.000	0.111	-0.524
-161.779	800.000	-0.063	-0.204
-160.764	-103.175	-0.167	-0.039
-159.750	800.000	0.085	-0.295
-158.735	54.510	0.097	-0.092
-157.720	-89.588	0.318	-0.092
-156.706	-48.552	0.234	-0.111
-155.691	320.274	0.187	0.350
-154.677	800.000	0.031	-0.126
-153.662	-59.613	0.300	0.127
-152.647	800.000	-0.035	-0.139
-151.633	-127.878	0.051	-0.007
-150.618	-200.000	-0.031	0.374
-149.604	-200.000	-0.013	0.309
-148.589	800.000	-0.016	-0.067
-147.574	215.899	-0.124	-0.194
-146.560	-130.112	-0.143	-0.019
-145.545	69.065	0.164	-0.167
-144.531	-113.284	0.143	0.028
-143.516	-200.000	-0.002	0.124
-142.502	80.987	0.060	-0.064
-141.487	-200.000	-0.002	0.123
-140.472	187.080	0.186	0.273
-139.458	530.569	-0.081	0.188
-138.443	-49.924	-0.025	-0.012
-137.429	564.949	0.119	0.285
-136.414	-82.380	0.065	0.021
-135.399	67.426	-0.071	0.071
-134.385	800.000	0.064	0.246
-133.370	-15.572	0.376	0.237
-132.356	234.258	0.077	0.125
-131.341	-7.044	-0.237	-0.159
-130.326	800.000	0.050	0.158
-129.312	75.693	0.110	-0.114
-128.297	800.000	0.127	0.372
-127.283	266.672	-0.184	0.318
-126.268	-105.217	-0.259	-0.058
-125.253	-139.839	0.124	-0.013
-124.239	-95.945	-0.221	0.058
-123.224	-70.526	-0.164	0.061
-122.210	-95.250	0.032	0.009
-121.195	566.702	-0.131	0.315
