DTS Sentinel unit serial number:	SN413079Multiplexer serial number:	ORYXHardware model number:	OX4-SRSoftware version number:	ORYX F/W v4.00 Oryx Data Collector v3.7.2.0data status	okinstallation	princeton_trtdifferential loss correction	single-endedforward channel	channel 3reverse channel	N/Adate	2019/09/19time	00:52:35forward acquisition time	60.00reverse acquisition time	0.00gamma	496.2192k internal	0.2347k external	0.2347temperature offset calibration	0.9990default loss term (dB/km)	0.3790temperature slope calibration	1.0000multiplexer offset coefficient	1.0000multiplexer slope coefficient	1.0000fibre end	0.00T internal ref (°C)	22.06T ext. ref 1 (°C)	0.72T ext. ref 2 (°C)	15.36length (m)	temperature (°C)	Stokes	anti-Stokes-747.200	-200.000	0.001	-0.127
-746.185	297.903	-0.219	0.403
-745.171	654.790	0.087	0.224
-744.156	79.878	-0.102	0.110
-743.142	85.394	0.096	0.106
-742.127	56.433	-0.178	-0.173
-741.112	-154.956	-0.074	0.005
-740.098	800.000	-0.047	-0.148
-739.083	89.592	-0.120	0.134
-738.069	800.000	0.079	0.232
-737.054	402.343	0.157	-0.330
-736.039	-32.507	-0.157	-0.087
-735.025	389.797	0.050	0.103
-734.010	-86.928	-0.332	-0.101
-732.996	-101.104	-0.504	-0.123
-731.981	-200.000	-0.057	0.341
-730.966	-13.004	-0.402	-0.261
-729.952	131.144	0.166	-0.213
-728.937	1.191	-0.104	-0.075
-727.923	52.569	-0.125	-0.120
-726.908	764.844	0.140	-0.381
-725.894	-200.000	-0.002	0.046
-724.879	334.278	-0.223	-0.431
-723.864	-129.269	-0.319	0.044
-722.850	800.000	-0.074	-0.205
-721.835	76.272	0.121	0.128
-720.821	-200.000	-0.022	-0.232
-719.806	-47.896	0.220	0.106
-718.791	-182.382	0.114	-0.002
-717.777	-74.243	-0.312	0.113
-716.762	-83.363	-0.521	-0.167
-715.748	176.424	-0.280	-0.407
-714.733	-200.000	-0.025	0.164
-713.718	18.905	0.235	-0.188
-712.704	-200.000	0.009	-0.364
-711.689	491.130	0.172	0.393
-710.675	133.038	0.101	0.130
-709.660	55.757	0.060	0.058
-708.645	256.685	0.077	-0.132
-707.631	529.490	-0.024	-0.056
-706.616	-192.585	0.420	-0.004
-705.602	120.962	0.171	-0.213
-704.587	56.071	-0.080	0.077
-703.572	-136.748	-0.265	0.031
-702.558	-163.546	0.093	0.004
-701.543	54.424	-0.157	0.151
-700.529	-68.393	-0.163	-0.063
-699.514	-137.155	0.166	-0.019
-698.499	800.000	0.040	-0.137
-697.485	131.213	-0.128	0.164
-696.470	-82.524	0.251	0.081
-695.456	-84.749	-0.051	0.016
-694.441	-95.743	0.415	0.111
-693.426	-130.803	-0.305	-0.041
-692.412	-31.707	0.047	0.027
-691.397	800.000	-0.032	0.105
-690.383	146.334	0.144	0.193
-689.368	206.482	0.122	0.190
-688.354	-200.000	0.014	-0.139
-687.339	-200.000	0.040	-0.187
-686.324	-199.269	0.174	-0.001
-685.310	-200.000	0.044	0.219
-684.295	-105.035	-0.215	-0.049
-683.281	11.940	-0.169	-0.130
-682.266	-21.952	-0.232	0.141
-681.251	-146.855	-0.111	-0.010
-680.237	169.238	0.249	0.355
-679.222	12.383	0.174	0.134
-678.208	-200.000	-0.037	-0.192
-677.193	389.841	-0.113	0.234
-676.178	-8.302	-0.207	-0.139
-675.164	77.882	-0.149	-0.159
-674.149	39.801	0.165	-0.148
-673.135	280.998	-0.190	-0.339
-672.120	341.920	0.104	-0.203
-671.105	800.000	-0.090	0.358
-670.091	48.789	0.140	-0.131
-669.076	-200.000	-0.068	-0.351
-668.062	800.000	0.018	0.053
-667.047	-134.182	0.150	-0.018
-666.032	152.046	-0.208	0.283
-665.018	-200.000	-0.026	0.183
-664.003	122.035	0.194	-0.242
-662.989	275.735	0.171	-0.301
-661.974	365.680	0.114	0.228
-660.959	-200.000	-0.027	0.228
-659.945	378.402	-0.049	0.100
-658.930	-200.000	0.032	0.175
-657.916	70.843	0.196	-0.202
-656.901	239.066	0.282	-0.466
-655.886	800.000	-0.151	0.471
-654.872	-6.934	-0.082	0.056
-653.857	-18.281	0.295	-0.183
-652.843	-200.000	-0.042	0.199
-651.828	800.000	-0.066	0.189
-650.814	-19.499	0.223	0.138
-649.799	-200.000	-0.007	0.057
-648.784	175.766	-0.181	-0.261
-647.770	143.389	0.188	-0.250
-646.755	11.780	-0.322	-0.247
-645.741	800.000	0.092	0.270
-644.726	2.842	-0.204	-0.148
-643.711	-88.147	-0.045	-0.014
-642.697	-148.222	-0.095	0.008
-641.682	-151.621	0.134	-0.010
-640.668	80.491	0.195	0.209
-639.653	628.933	0.070	0.176
-638.638	488.902	0.046	-0.105
-637.624	278.677	-0.082	-0.146
-636.609	-108.468	0.159	-0.034
-635.595	-200.000	0.020	-0.254
-634.580	16.741	-0.024	0.019
-633.565	800.000	-0.023	-0.068
-632.551	60.531	-0.247	-0.243
-631.536	-200.000	-0.040	-0.441
-630.522	-160.740	-0.315	-0.017
-629.507	-190.504	-0.080	0.001
-628.492	800.000	-0.058	-0.165
-627.478	-112.308	0.202	0.040
-626.463	-77.865	-0.047	0.016
-625.449	44.404	0.129	-0.118
-624.434	-87.763	0.430	-0.129
-623.419	-5.384	-0.234	-0.160
-622.405	-169.458	0.338	0.012
-621.390	800.000	0.025	-0.088
-620.376	329.348	0.138	-0.263
-619.361	-29.225	-0.173	-0.098
-618.346	-130.480	0.080	0.011
-617.332	-200.000	-0.020	-0.311
-616.317	-80.103	0.219	-0.073
-615.303	216.139	0.065	0.102
-614.288	141.196	-0.082	0.107
-613.273	134.650	-0.206	-0.266
-612.259	79.629	0.301	-0.322
-611.244	-200.000	-0.013	-0.294
-610.230	-66.357	0.140	-0.055
-609.215	41.560	-0.131	0.118
-608.201	406.420	-0.075	0.157
-607.186	151.587	-0.085	0.115
-606.171	-167.356	0.245	-0.010
-605.157	-29.289	0.327	-0.186
-604.142	138.318	-0.161	0.210
-603.128	-200.000	0.001	0.432
-602.113	428.075	0.073	0.156
-601.098	-200.000	-0.013	-0.382
-600.084	-200.000	-0.015	-0.145
-599.069	292.043	0.051	0.092
-598.055	-200.000	0.011	0.113
-597.040	-62.043	-0.128	-0.053
-596.025	64.845	-0.148	-0.149
-595.011	719.899	0.034	0.089
-593.996	-172.016	0.069	0.002
-592.982	-68.170	-0.181	0.070
-591.967	-200.000	0.031	-0.362
-590.952	-140.786	0.157	0.016
-589.938	86.375	0.075	-0.082
-588.923	-31.220	-0.105	0.059
-587.909	-200.000	0.060	0.282
-586.894	-11.499	0.236	0.154
-585.879	800.000	0.067	0.221
-584.865	509.259	0.047	0.108
-583.850	-50.991	-0.205	0.096
-582.836	61.105	0.272	-0.268
-581.821	3.646	-0.446	0.324
-580.806	-200.000	-0.015	-0.066
-579.792	83.339	-0.167	-0.181
-578.777	41.528	-0.134	-0.121
-577.763	-118.014	-0.058	0.010
-576.748	800.000	0.079	-0.290
-575.733	57.258	0.159	0.154
-574.719	385.032	0.102	-0.208
-573.704	564.453	0.072	-0.174
-572.690	-83.234	0.355	0.113
-571.675	-7.089	0.040	0.027
-570.661	-14.057	-0.376	0.241
-569.646	-21.542	0.170	-0.103
-568.631	-24.704	-0.152	0.090
-567.617	52.473	-0.277	-0.263
-566.602	-39.214	-0.459	-0.239
-565.588	-170.930	0.206	-0.007
-564.573	50.026	0.064	-0.060
-563.558	-83.794	0.210	-0.066
-562.544	335.609	-0.089	0.172
-561.529	-200.000	0.017	-0.181
-560.515	-21.638	0.011	-0.007
-559.500	100.037	-0.112	-0.128
-558.485	-60.025	0.268	-0.114
-557.471	-160.275	0.036	0.002
-556.456	-151.540	0.317	-0.023
-555.442	-54.214	0.244	0.110
-554.427	505.347	-0.066	-0.151
-553.412	-110.539	0.472	0.097
-552.398	10.536	0.182	-0.137
-551.383	188.994	0.183	-0.272
-550.369	-200.000	0.017	-0.228
-549.354	-136.959	0.109	0.012
-548.339	-200.000	-0.002	0.252
-547.325	151.014	0.106	0.143
-546.310	53.653	-0.234	0.223
-545.296	-200.000	0.028	-0.284
-544.281	93.845	0.095	-0.107
-543.266	-72.214	-0.132	0.048
-542.252	87.592	0.174	-0.191
-541.237	-200.000	-0.018	0.221
-540.223	197.526	-0.216	0.327
-539.208	150.375	-0.179	0.240
-538.193	-193.719	-0.444	-0.004
-537.179	-200.000	-0.002	-0.186
-536.164	-200.000	0.047	-0.277
-535.150	-126.400	0.164	0.024
-534.135	800.000	0.080	-0.232
-533.121	-156.501	-0.442	0.027
-532.106	123.025	0.117	-0.145
-531.091	288.392	0.057	-0.102
-530.077	8.079	-0.438	-0.326
-529.062	384.924	-0.075	0.154
-528.048	-108.110	0.103	0.022
-527.033	104.912	0.213	0.249
-526.018	388.572	-0.082	0.169
-525.004	800.000	0.085	-0.263
-523.989	-200.000	0.014	-0.279
-522.975	-200.000	-0.060	-0.282
-521.960	800.000	0.051	0.178
-520.945	543.215	0.094	0.222
-519.931	-200.000	0.055	0.348
-518.916	-200.000	0.182	0.001
-517.902	44.148	-0.212	0.193
-516.887	800.000	0.066	0.218
-515.872	40.554	-0.034	0.031
-514.858	-200.000	0.060	0.333
-513.843	393.916	0.071	0.146
-512.829	421.688	0.138	-0.292
-511.814	34.278	-0.136	-0.117
-510.799	27.063	-0.105	0.087
-509.785	580.404	0.016	0.038
-508.770	289.187	0.210	-0.376
-507.756	-174.871	-0.143	0.004
-506.741	298.950	-0.139	0.253
-505.726	-46.463	0.063	0.031
-504.712	146.581	0.266	0.353
-503.697	776.596	0.009	0.025
-502.683	-53.447	0.104	0.047
-501.668	-39.221	-0.298	-0.155
-500.653	365.577	0.148	0.296
-499.639	413.517	-0.071	0.149
-498.624	133.126	-0.135	-0.173
-497.610	159.836	-0.061	0.084
-496.595	167.290	0.133	0.187
-495.581	-67.862	0.049	0.019
-494.566	77.160	-0.045	0.048
-493.551	-111.515	0.103	-0.021
-492.537	23.628	0.272	0.222
-491.522	-200.000	-0.013	-0.311
-490.508	-105.679	-0.152	-0.034
-489.493	460.422	0.166	-0.366
-488.478	-94.635	0.241	-0.065
-487.464	17.360	-0.175	-0.138
-486.449	71.631	0.280	-0.288
-485.435	-65.815	-0.266	0.105
-484.420	112.481	0.126	0.151
-483.405	-94.155	-0.101	-0.027
-482.391	107.235	-0.093	-0.109
-481.376	-200.000	-0.022	-0.401
-480.362	140.668	-0.062	0.081
-479.347	-137.527	0.139	0.016
-478.332	122.993	-0.113	-0.139
-477.318	-57.673	-0.107	0.046
-476.303	-4.986	-0.076	-0.052
-475.289	800.000	0.141	0.403
-474.274	383.566	-0.071	-0.145
-473.259	-17.859	-0.176	-0.109
-472.245	-119.634	0.349	0.060
-471.230	-187.079	-0.183	0.002
-470.216	97.349	-0.154	0.175
-469.201	185.271	0.015	0.023
-468.186	65.151	0.232	-0.232
-467.172	757.124	0.156	-0.418
-466.157	502.104	-0.109	-0.248
-465.143	26.481	-0.217	0.180
-464.128	-121.966	0.163	0.027
-463.113	800.000	-0.096	0.297
-462.099	-200.000	0.053	0.408
-461.084	93.303	0.115	0.128
-460.070	-67.784	-0.386	0.149
-459.055	773.056	-0.025	0.068
-458.040	-38.005	0.112	0.059
-457.026	130.379	0.070	-0.089
-456.011	-200.000	-0.047	0.245
-454.997	297.281	-0.192	0.349
-453.982	211.490	0.129	0.201
-452.968	-133.802	-0.077	0.009
-451.953	-94.310	0.162	0.044
-450.938	-89.984	0.271	0.078
-449.924	-50.715	0.170	-0.079
-448.909	228.634	-0.117	0.188
-447.895	-200.000	-0.023	0.128
-446.880	-156.676	-0.133	0.008
-445.865	110.788	-0.201	0.239
-444.851	800.000	0.067	0.255
-443.836	91.289	0.077	0.086
-442.822	-132.950	0.425	-0.053
-441.807	243.470	-0.182	-0.302
-440.792	102.917	-0.313	0.362
-439.778	-72.796	0.235	-0.086
-438.763	13.701	0.216	0.166
-437.749	800.000	0.091	0.296
-436.734	-119.231	0.166	0.029
-435.719	-200.000	-0.041	-0.245
-434.705	-71.568	-0.399	0.147
-433.690	-125.087	-0.183	0.028
-432.676	-150.937	0.211	-0.016
-431.661	-151.142	-0.064	-0.005
-430.646	52.617	0.286	0.270
-429.632	-73.806	-0.216	0.077
-428.617	-121.506	0.185	0.030
-427.603	319.682	-0.083	0.156
-426.588	4.786	0.136	-0.098
-425.573	546.488	-0.122	-0.287
-424.559	-40.649	-0.337	-0.173
-423.544	-200.000	0.002	0.316
-422.530	-114.497	0.044	0.008
-421.515	-142.746	-0.114	0.011
-420.500	393.764	-0.115	0.236
-419.486	800.000	0.018	0.051
-418.471	-94.605	-0.227	-0.061
-417.457	-200.000	-0.052	-0.356
-416.442	-200.000	-0.014	0.194
-415.428	623.863	0.118	0.294
-414.413	106.538	-0.154	-0.180
-413.398	146.747	-0.157	-0.208
-412.384	-52.065	0.174	-0.080
-411.369	-200.000	-0.020	0.267
-410.355	-48.538	0.146	-0.069
-409.340	-200.000	0.004	0.206
-408.325	-9.269	-0.245	-0.161
-407.311	103.117	0.015	-0.018
-406.296	-31.849	-0.074	-0.041
-405.282	-200.000	0.014	-0.210
-404.267	-107.540	-0.053	0.011
-403.252	228.264	-0.209	-0.336
-402.238	800.000	-0.121	-0.409
-401.223	309.995	0.193	-0.355
-400.209	-200.000	0.010	0.044
-399.194	800.000	0.051	0.196
-398.179	98.980	0.147	-0.168
-397.165	176.436	0.125	-0.179
-396.150	-200.000	-0.018	0.114
-395.136	-22.982	-0.098	-0.058
-394.121	-6.252	-0.048	0.032
-393.106	-200.000	-0.029	-0.322
-392.092	-122.074	0.159	-0.026
-391.077	800.000	-0.037	0.157
-390.063	289.765	0.171	-0.306
-389.048	-200.000	-0.017	-0.144
-388.033	67.160	0.024	-0.024
-387.019	549.792	-0.070	-0.165
-386.004	-74.718	-0.257	0.091
-384.990	109.948	0.181	-0.214
-383.975	-132.319	-0.170	0.022
-382.960	147.526	0.138	0.183
-381.946	800.000	0.104	0.360
-380.931	135.513	0.104	-0.133
-379.917	-200.000	-0.043	-0.299
-378.902	142.735	0.115	-0.151
-377.888	7.342	-0.132	0.097
-376.873	308.611	-0.017	-0.032
-375.858	133.044	-0.158	-0.201
-374.844	-8.621	0.173	0.115
-373.829	800.000	-0.031	0.122
-372.815	204.604	0.106	0.162
-371.800	-5.665	0.182	0.123
-370.785	165.737	-0.083	0.115
-369.771	-34.676	-0.264	0.142
-368.756	-21.261	-0.041	0.024
-367.742	-140.882	0.330	-0.033
-366.727	489.305	0.076	-0.172
-365.712	800.000	0.054	0.151
-364.698	-200.000	-0.021	0.298
-363.683	-22.990	0.215	-0.128
-362.669	-91.911	-0.300	-0.084
-361.654	-200.000	0.017	-0.364
-360.639	-19.489	-0.111	-0.067
-359.625	-89.451	0.217	-0.063
-358.610	-112.741	0.132	0.026
-357.596	-105.750	0.322	0.072
-356.581	-175.123	0.108	0.003
-355.566	88.995	-0.056	0.061
-354.552	-57.414	-0.224	-0.097
-353.537	-46.563	-0.095	0.046
-352.523	-200.000	-0.056	0.293
-351.508	-96.979	-0.409	0.106
-350.493	800.000	-0.099	0.371
-349.479	-147.123	0.296	0.025
-348.464	-10.169	-0.072	0.047
-347.450	358.628	0.066	0.129
-346.435	-98.802	0.123	-0.031
-345.420	7.734	0.165	0.122
-344.406	-43.213	0.216	0.108
-343.391	783.223	-0.072	-0.194
-342.377	800.000	-0.027	-0.111
-341.362	-128.913	-0.087	-0.012
-340.348	25.551	-0.345	-0.282
-339.333	-137.487	0.322	-0.036
-338.318	-57.666	0.161	0.070
-337.304	-53.274	0.073	-0.033
-336.289	-55.966	-0.113	0.050
-335.275	-165.756	0.154	-0.007
-334.260	-172.446	-0.423	-0.013
-333.245	332.181	0.138	0.261
-332.231	266.386	0.058	0.100
-331.216	135.079	-0.170	0.217
-330.202	-48.402	0.070	-0.033
-329.187	-97.865	-0.233	0.059
-328.172	-200.000	0.001	0.194
-327.158	-200.000	-0.023	0.229
-326.143	-17.972	-0.073	-0.045
-325.129	590.017	-0.146	0.354
-324.114	800.000	0.133	0.371
-323.099	523.553	-0.075	0.173
-322.085	-164.882	0.138	-0.006
-321.070	352.740	0.040	-0.078
-320.056	-157.621	-0.339	-0.020
-319.041	364.485	0.027	0.054
-318.026	-200.000	-0.083	-0.390
-317.012	-200.000	0.007	0.289
-315.997	-65.710	-0.233	-0.092
-314.983	-108.757	-0.346	0.073
-313.968	-156.839	0.208	0.013
-312.953	335.812	-0.178	-0.339
-311.939	-200.000	0.020	-0.376
-310.924	178.344	0.084	0.120
-309.910	-116.030	-0.305	-0.056
-308.895	-102.176	-0.122	-0.029
-307.880	800.000	-0.095	0.337
-306.866	800.000	0.127	-0.369
-305.851	-16.384	-0.408	-0.254
-304.837	-8.326	0.153	0.101
-303.822	-200.000	-0.018	0.230
-302.807	-89.660	0.278	0.080
-301.793	800.000	0.147	0.417
-300.778	139.617	0.069	0.089
-299.764	-129.337	0.157	0.021
-298.749	800.000	-0.046	-0.157
-297.735	-76.980	-0.172	0.059
-296.720	-49.531	0.180	0.084
-295.705	340.402	-0.135	-0.259
-294.691	-103.864	0.204	-0.047
-293.676	-200.000	0.026	-0.144
-292.662	-200.000	0.002	0.048
-291.647	-96.108	-0.494	0.129
-290.632	129.474	-0.132	0.165
-289.618	-18.850	0.226	-0.138
-288.603	-121.576	-0.314	0.051
-287.589	-200.000	-0.034	-0.210
-286.574	433.116	-0.101	-0.215
-285.559	5.240	-0.387	-0.280
-284.545	800.000	-0.043	-0.155
-283.530	-141.935	-0.291	-0.028
-282.516	95.298	-0.020	-0.022
-281.501	156.935	-0.239	-0.324
-280.486	409.980	-0.100	-0.208
-279.472	375.067	-0.047	-0.093
-278.457	-200.000	-0.013	0.145
-277.443	121.946	0.042	-0.052
-276.428	-63.320	-0.064	0.026
-275.413	546.125	0.121	0.285
-274.399	412.274	-0.136	0.283
-273.384	-145.861	0.173	0.015
-272.370	800.000	-0.026	-0.106
-271.355	35.779	0.286	0.247
-270.340	-200.000	0.017	0.186
-269.326	57.185	0.055	-0.053
-268.311	-200.000	0.018	-0.110
-267.297	78.524	-0.070	0.074
-266.282	76.514	-0.270	-0.280
-265.267	-173.545	-0.060	0.002
-264.253	538.125	0.044	0.103
-263.238	-60.412	-0.027	0.011
-262.224	-123.066	-0.035	0.005
-261.209	-126.413	0.398	-0.058
-260.195	-200.000	0.009	-0.132
-259.180	-30.588	0.282	-0.156
-258.165	-89.079	0.250	0.072
-257.151	-98.775	-0.136	0.034
-256.136	-200.000	-0.034	0.246
-255.122	-20.449	-0.290	0.175
-254.107	-54.634	0.168	0.074
-253.092	-164.468	-0.096	0.004
-252.078	-200.000	-0.022	-0.176
-251.063	11.514	0.296	-0.223
-250.049	800.000	-0.067	-0.232
-249.034	-200.000	-0.022	0.172
-248.019	-90.709	0.409	0.116
-247.005	-200.000	0.026	0.113
-245.990	-13.458	-0.063	-0.040
-244.976	473.491	0.166	0.367
-243.961	-55.505	-0.443	-0.194
-242.946	34.496	0.186	0.160
-241.932	800.000	-0.015	0.047
-240.917	-200.000	0.029	0.192
-239.903	463.696	0.107	0.234
-238.888	45.332	-0.134	-0.121
-237.873	-43.276	-0.290	-0.144
-236.859	551.960	-0.113	-0.266
-235.844	24.229	-0.107	-0.086
-234.830	-159.334	0.138	-0.008
-233.815	-200.000	0.056	0.263
-232.800	-33.836	-0.077	-0.041
-231.786	-77.642	0.279	-0.095
-230.771	10.441	0.176	0.131
-229.757	680.855	-0.024	-0.060
-228.742	-15.579	0.027	0.017
-227.727	503.750	-0.130	-0.294
-226.713	800.000	-0.090	0.358
-225.698	-200.000	-0.044	0.205
-224.684	-25.977	-0.349	0.201
-223.669	431.213	0.004	0.008
-222.655	310.100	-0.018	0.033
-221.640	-95.320	0.311	0.082
-220.625	-200.000	-0.020	-0.392
-219.611	-200.000	-0.077	-0.459
-218.596	46.760	0.115	-0.104
-217.582	-71.439	-0.021	0.008
-216.567	259.258	-0.033	-0.056
-215.552	440.388	-0.073	0.155
-214.538	-112.168	0.370	0.073
-213.523	625.491	0.175	-0.432
-212.509	-24.057	-0.117	-0.068
-211.494	800.000	0.065	0.238
-210.479	800.000	-0.068	0.191
-209.465	800.000	0.037	-0.112
-208.450	547.160	-0.076	0.179
-207.436	265.439	0.204	0.349
-206.421	37.756	0.121	-0.105
-205.406	-27.782	-0.196	-0.111
-204.392	-25.864	-0.123	0.071
-203.377	-200.000	0.005	0.135
-202.363	284.400	-0.159	0.281
-201.348	-40.574	0.347	0.176
-200.333	-200.000	-0.009	-0.132
-199.319	-67.322	0.190	0.073
-198.304	-86.062	0.350	-0.106
-197.290	-200.000	0.015	-0.068
-196.275	-112.893	-0.314	-0.061
-195.260	-18.841	-0.046	0.028
-194.246	-82.939	0.226	0.071
-193.231	149.000	-0.110	-0.145
-192.217	-97.479	-0.280	-0.071
-191.202	87.124	0.107	-0.116
-190.187	155.740	-0.025	-0.034
-189.173	-200.000	0.015	0.118
-188.158	-20.077	-0.339	-0.205
-187.144	160.066	0.169	0.230
-186.129	68.458	0.120	-0.120
-185.114	-200.000	-0.016	-0.141
-184.100	38.971	0.206	0.180
-183.085	-56.187	-0.189	-0.082
-182.071	14.134	0.053	0.040
-181.056	-33.102	0.436	0.237
-180.042	-8.628	-0.309	0.203
-179.027	-43.364	0.102	0.050
-178.012	-141.945	0.164	0.016
-176.998	17.238	0.022	0.017
-175.983	219.586	-0.086	-0.135
-174.969	-1.592	-0.183	-0.126
-173.954	377.853	-0.096	-0.192
-172.939	-98.298	0.235	0.059
-171.925	210.828	0.088	0.135
-170.910	-200.000	0.042	0.200
-169.896	574.783	-0.120	0.285
-168.881	-1.752	0.170	0.117
-167.866	-88.835	-0.218	0.063
-166.852	800.000	-0.062	0.257
-165.837	247.243	-0.083	-0.136
-164.823	42.568	0.115	-0.103
-163.808	70.247	0.129	-0.130
-162.793	482.545	-0.146	0.324
-161.779	304.904	-0.050	-0.091
-160.764	170.236	0.027	-0.038
-159.750	-181.618	0.165	-0.003
-158.735	-200.000	-0.013	0.099
-157.720	278.032	-0.070	0.122
-156.706	135.554	-0.124	-0.158
-155.691	-135.651	0.073	0.008
-154.677	133.326	-0.039	0.049
-153.662	-110.507	-0.162	0.033
-152.647	2.762	0.032	-0.022
-151.633	-200.000	-0.007	-0.047
-150.618	-131.897	0.181	0.023
-149.604	800.000	0.083	0.258
-148.589	35.051	0.145	0.124
-147.574	-95.055	0.152	0.040
-146.560	-77.906	-0.235	-0.079
-145.545	800.000	0.079	-0.218
-144.531	43.381	-0.153	-0.137
-143.516	331.055	0.122	-0.229
-142.502	-200.000	-0.002	0.067
-141.487	800.000	-0.055	-0.179
-140.472	-200.000	-0.031	-0.131
-139.458	-200.000	-0.039	-0.300
-138.443	177.934	-0.197	-0.280
-137.429	800.000	0.121	-0.361
-136.414	-120.496	0.084	-0.014
-135.399	-99.236	-0.094	-0.023
-134.385	424.536	0.174	0.364
-133.370	-200.000	-0.014	0.289
-132.356	-45.425	-0.166	-0.080
-131.341	-58.060	0.308	0.131
-130.326	397.524	0.147	0.300
-129.312	-108.755	0.104	0.022
-128.297	-150.791	0.289	-0.021
-127.283	572.833	-0.106	-0.253
-126.268	56.426	-0.167	0.158
-125.253	376.358	-0.172	0.342
-124.239	7.561	-0.085	0.062
-123.224	523.082	0.093	0.213
-122.210	-56.150	-0.195	-0.085
-121.195	-19.424	0.195	0.118
