DTS Sentinel unit serial number:	SN413079Multiplexer serial number:	ORYXHardware model number:	OX4-SRSoftware version number:	ORYX F/W v4.00 Oryx Data Collector v3.7.2.0data status	okinstallation	princeton_trtdifferential loss correction	single-endedforward channel	channel 3reverse channel	N/Adate	2019/09/15time	10:56:35forward acquisition time	60.00reverse acquisition time	0.00gamma	496.2192k internal	0.2307k external	0.2307temperature offset calibration	0.9974default loss term (dB/km)	0.3790temperature slope calibration	1.0000multiplexer offset coefficient	1.0000multiplexer slope coefficient	1.0000fibre end	0.00T internal ref (°C)	34.25T ext. ref 1 (°C)	5.03T ext. ref 2 (°C)	29.84length (m)	temperature (°C)	Stokes	anti-Stokes-747.200	29.282	0.166	-0.144
-746.185	-89.675	-0.139	0.041
-745.171	400.017	0.132	0.282
-744.156	-200.000	0.002	0.207
-743.142	-102.045	0.211	-0.052
-742.127	-32.216	0.374	0.213
-741.112	-81.654	-0.111	-0.037
-740.098	301.750	-0.176	0.331
-739.083	47.805	0.250	0.237
-738.069	219.889	0.258	0.420
-737.054	92.444	-0.389	0.446
-736.039	29.081	0.143	-0.123
-735.025	268.832	-0.075	0.134
-734.010	422.681	-0.040	0.088
-732.996	-113.269	-0.396	-0.079
-731.981	17.643	-0.187	0.151
-730.966	108.418	-0.101	0.122
-729.952	-71.716	0.189	-0.071
-728.937	-200.000	0.007	0.071
-727.923	800.000	-0.053	-0.189
-726.908	525.322	0.077	0.185
-725.894	19.993	0.137	-0.112
-724.879	-94.234	0.318	0.089
-723.864	391.115	0.050	-0.106
-722.850	-200.000	0.010	0.056
-721.835	-200.000	-0.011	-0.101
-720.821	-200.000	-0.037	0.262
-719.806	-110.515	0.300	-0.063
-718.791	-111.472	-0.448	-0.093
-717.777	-36.271	0.134	0.073
-716.762	8.165	0.164	0.125
-715.748	10.179	0.087	0.067
-714.733	-180.386	-0.199	-0.004
-713.718	-200.000	-0.058	-0.384
-712.704	215.602	0.130	0.209
-711.689	-200.000	0.001	0.085
-710.675	-72.959	0.232	-0.087
-709.660	-7.672	0.212	0.145
-708.645	-63.549	-0.225	-0.094
-707.631	800.000	0.108	-0.320
-706.616	31.070	0.206	0.179
-705.602	21.277	-0.198	-0.163
-704.587	39.260	0.367	-0.333
-703.572	800.000	-0.024	-0.070
-702.558	-88.865	-0.211	-0.063
-701.543	-48.740	-0.124	0.060
-700.529	800.000	0.105	-0.366
-699.514	-67.901	0.258	0.102
-698.499	110.250	0.084	0.102
-697.485	127.096	-0.089	-0.115
-696.470	70.989	-0.174	0.183
-695.456	24.065	-0.208	0.174
-694.441	59.622	-0.097	0.097
-693.426	-64.736	0.117	0.048
-692.412	-46.390	0.268	-0.134
-691.397	-37.930	0.221	-0.119
-690.383	800.000	-0.134	-0.392
-689.368	710.494	-0.085	-0.228
-688.354	-42.369	-0.295	-0.153
-687.339	-44.966	0.310	-0.157
-686.324	60.886	-0.101	-0.102
-685.310	146.484	-0.144	0.196
-684.295	-200.000	0.033	0.237
-683.281	-200.000	-0.052	0.265
-682.266	-200.000	-0.031	-0.175
-681.251	-200.000	-0.020	-0.323
-680.237	-196.691	0.425	-0.003
-679.222	-75.947	0.152	0.055
-678.208	800.000	-0.016	-0.065
-677.193	800.000	-0.082	-0.242
-676.178	-34.288	0.089	0.050
-675.164	-200.000	0.013	0.062
-674.149	123.703	-0.129	0.165
-673.135	-200.000	0.001	-0.018
-672.120	41.995	-0.125	0.115
-671.105	-200.000	0.014	0.173
-670.091	-24.609	-0.127	0.077
-669.076	-95.130	0.161	0.044
-668.062	-200.000	-0.063	-0.383
-667.047	-124.419	0.075	0.012
-666.032	-27.287	-0.208	-0.123
-665.018	165.532	-0.105	0.151
-664.003	-73.939	0.060	0.022
-662.989	-24.096	0.297	0.180
-661.974	-114.190	-0.393	0.077
-660.959	-82.276	0.120	0.040
-659.945	-200.000	-0.060	0.270
-658.930	-25.971	0.213	0.127
-657.916	-200.000	0.040	-0.184
-656.901	-118.469	0.207	0.037
-655.886	312.608	0.113	-0.216
-654.872	-23.661	0.201	-0.122
-653.857	87.115	0.157	-0.176
-652.843	-140.726	-0.334	0.035
-651.828	141.151	0.249	-0.333
-650.814	-78.664	-0.295	0.102
-649.799	-121.019	-0.216	-0.037
-648.784	33.394	0.118	-0.104
-647.770	-200.000	-0.024	-0.369
-646.755	-24.356	-0.254	0.153
-645.741	-200.000	0.004	0.284
-644.726	413.494	0.030	0.064
-643.711	-93.853	-0.305	-0.085
-642.697	-154.465	0.139	-0.009
-641.682	-38.675	0.042	-0.022
-640.668	-24.903	-0.071	-0.043
-639.653	-79.267	0.149	-0.051
-638.638	-55.923	0.212	0.096
-637.624	-153.797	-0.273	0.019
-636.609	-103.796	0.303	0.072
-635.595	-130.894	-0.208	-0.028
-634.580	-1.264	-0.273	-0.195
-633.565	-20.996	-0.222	-0.138
-632.551	-200.000	0.034	-0.244
-631.536	111.073	-0.111	0.136
-630.522	-110.480	-0.262	0.055
-629.507	654.473	-0.141	0.367
-628.492	-78.093	0.212	0.074
-627.478	-121.728	-0.344	-0.058
-626.463	-200.000	-0.032	-0.189
-625.449	40.799	0.130	0.119
-624.434	57.450	-0.096	0.095
-623.419	466.538	0.141	0.320
-622.405	-153.454	-0.459	0.032
-621.390	222.627	-0.161	-0.262
-620.376	-200.000	0.003	0.189
-619.361	-200.000	0.008	0.055
-618.346	49.354	-0.425	-0.405
-617.332	-200.000	0.066	-0.481
-616.317	-200.000	-0.032	-0.190
-615.303	-200.000	0.017	-0.117
-614.288	-3.837	-0.262	-0.184
-613.273	46.698	0.170	0.160
-612.259	-200.000	0.020	0.107
-611.244	158.417	0.093	0.131
-610.230	534.961	0.111	-0.267
-609.215	32.011	0.220	-0.191
-608.201	39.034	-0.177	0.160
-607.186	-50.676	-0.294	0.140
-606.171	-118.276	-0.373	-0.067
-605.157	179.124	0.308	0.456
-604.142	-200.000	0.060	-0.323
-603.128	-28.093	-0.041	0.024
-602.113	-200.000	0.016	0.211
-601.098	-200.000	0.028	0.201
-600.084	24.329	-0.090	0.075
-599.069	800.000	-0.085	0.278
-598.055	146.524	0.142	0.193
-597.040	-100.551	0.426	-0.107
-596.025	-91.238	-0.061	-0.018
-595.011	-45.718	0.170	-0.085
-593.996	-116.182	-0.364	0.068
-592.982	-200.000	-0.020	0.161
-591.967	0.670	-0.117	-0.085
-590.952	-80.699	0.316	-0.106
-589.938	-200.000	-0.001	0.121
-588.923	-96.932	-0.311	-0.083
-587.909	-147.846	0.223	-0.019
-586.894	-18.877	0.192	-0.121
-585.879	104.205	0.178	0.212
-584.865	39.465	0.172	-0.156
-583.850	248.367	-0.088	-0.151
-582.836	289.796	-0.072	0.131
-581.821	-105.568	0.167	0.038
-580.806	-54.797	-0.207	-0.095
-579.792	-114.891	0.156	0.030
-578.777	-17.086	-0.069	-0.044
-577.763	12.895	0.176	0.138
-576.748	-168.444	-0.243	-0.009
-575.733	-113.677	-0.241	-0.048
-574.719	-47.101	0.314	-0.155
-573.704	-125.965	-0.162	-0.025
-572.690	-188.489	0.267	0.003
-571.675	43.199	0.245	0.226
-570.661	349.827	0.058	-0.115
-569.646	800.000	0.037	0.108
-568.631	800.000	-0.089	0.262
-567.617	80.031	-0.123	-0.133
-566.602	-158.456	0.268	0.016
-565.588	-11.278	-0.152	-0.101
-564.573	-61.686	0.332	-0.140
-563.558	-153.125	0.336	-0.024
-562.544	-52.160	0.053	0.025
-561.529	-63.677	-0.154	-0.064
-560.515	57.349	-0.110	-0.109
-559.500	-150.926	0.086	0.007
-558.485	75.789	0.063	0.068
-557.471	-200.000	0.015	-0.135
-556.456	364.528	-0.173	-0.351
-555.442	800.000	-0.018	0.078
-554.427	211.277	-0.056	-0.090
-553.412	35.552	-0.172	-0.153
-552.398	51.692	0.072	0.069
-551.383	-42.782	0.125	-0.064
-550.369	-72.924	-0.277	0.103
-549.354	-167.710	0.265	0.011
-548.339	800.000	-0.100	0.366
-547.325	300.952	0.077	-0.143
-546.310	264.780	0.053	-0.093
-545.296	800.000	-0.030	0.094
-544.281	-101.512	0.128	-0.031
-543.266	800.000	0.116	-0.357
-542.252	136.683	0.041	0.053
-541.237	337.095	0.071	-0.139
-540.223	-106.276	0.097	-0.022
-539.208	-178.273	0.598	0.014
-538.193	54.224	0.170	0.165
-537.179	-91.976	0.077	-0.022
-536.164	-169.567	-0.294	0.011
-535.150	765.971	0.085	0.232
-534.135	800.000	-0.167	-0.466
-533.121	22.579	0.248	-0.204
-532.106	20.650	-0.167	0.137
-531.091	72.447	0.316	0.332
-530.077	10.143	0.074	-0.057
-529.062	-200.000	-0.042	-0.208
-528.048	-182.330	0.177	-0.003
-527.033	631.712	0.077	-0.196
-526.018	95.799	0.093	-0.107
-525.004	-59.587	-0.347	-0.150
-523.989	95.770	0.132	-0.152
-522.975	294.154	-0.028	-0.052
-521.960	-22.993	0.219	-0.133
-520.945	386.175	-0.154	0.320
-519.931	-78.638	-0.284	0.098
-518.916	216.517	-0.120	0.192
-517.902	-80.728	0.372	0.125
-516.887	200.324	0.127	0.197
-515.872	-35.973	0.207	-0.113
-514.858	-200.000	-0.004	0.084
-513.843	-12.205	-0.292	-0.192
-512.829	-200.000	-0.029	-0.449
-511.814	-59.453	-0.164	-0.071
-510.799	-123.494	0.309	-0.050
-509.785	-200.000	-0.027	0.284
-508.770	-64.129	-0.345	0.142
-507.756	72.082	0.248	0.261
-506.741	75.495	-0.103	-0.109
-505.726	29.001	0.202	0.173
-504.712	-147.138	-0.071	0.006
-503.697	800.000	-0.121	-0.468
-502.683	-105.843	-0.223	0.051
-501.668	-35.763	0.146	0.080
-500.653	24.174	-0.053	0.044
-499.639	142.560	-0.138	-0.184
-498.624	422.451	0.085	-0.184
-497.610	800.000	0.107	-0.327
-496.595	800.000	0.089	0.266
-495.581	-164.235	-0.094	-0.004
-494.566	34.026	-0.167	-0.146
-493.551	-200.000	-0.007	-0.346
-492.537	-77.061	0.226	0.079
-491.522	800.000	-0.054	-0.182
-490.508	30.683	0.132	-0.113
-489.493	58.466	-0.303	-0.299
-488.478	2.810	0.214	-0.156
-487.464	298.918	0.114	0.212
-486.449	383.830	-0.051	-0.107
-485.435	-200.000	0.104	0.638
-484.420	466.848	0.059	0.132
-483.405	331.253	-0.091	0.176
-482.391	-51.380	-0.302	-0.142
-481.376	-100.402	-0.039	-0.010
-480.362	-157.651	0.118	-0.007
-479.347	-200.000	-0.001	-0.054
-478.332	322.214	-0.161	0.309
-477.318	-164.195	-0.421	0.020
-476.303	-200.000	0.024	0.343
-475.289	-200.000	-0.004	-0.585
-474.274	-104.518	0.251	-0.058
-473.259	226.816	-0.214	0.349
-472.245	800.000	-0.173	0.493
-471.230	-200.000	0.033	0.260
-470.216	99.096	-0.139	-0.161
-469.201	117.366	-0.110	-0.137
-468.186	-197.410	0.180	-0.001
-467.172	-200.000	0.051	0.264
-466.157	109.711	-0.109	-0.132
-465.143	129.945	-0.123	0.159
-464.128	325.557	0.115	-0.221
-463.113	-200.000	-0.032	0.237
-462.099	-51.509	0.214	0.101
-461.084	262.874	-0.060	-0.105
-460.070	800.000	-0.037	0.146
-459.055	-200.000	-0.002	0.244
-458.040	-29.950	0.139	0.080
-457.026	63.260	0.192	-0.194
-456.011	274.463	-0.049	0.088
-454.997	199.315	0.042	-0.065
-453.982	-200.000	-0.003	0.064
-452.968	119.518	0.210	0.261
-451.953	-82.452	0.269	0.088
-450.938	-127.361	0.419	-0.061
-449.924	-106.315	0.149	-0.034
-448.909	-200.000	0.005	-0.177
-447.895	-125.874	-0.291	-0.044
-446.880	800.000	0.088	-0.312
-445.865	112.707	0.087	0.106
-444.851	164.186	-0.118	0.167
-443.836	-26.006	-0.053	0.031
-442.822	-70.720	0.089	-0.034
-441.807	173.498	0.245	0.355
-440.792	-78.295	-0.349	-0.120
-439.778	280.668	0.106	0.191
-438.763	-26.084	-0.083	0.049
-437.749	-59.349	0.355	-0.153
-436.734	-200.000	-0.009	-0.160
-435.719	9.452	-0.164	-0.124
-434.705	36.694	0.095	0.085
-433.690	203.813	-0.206	0.320
-432.676	71.084	0.114	0.118
-431.661	-200.000	-0.013	0.062
-430.646	-62.480	-0.141	-0.059
-429.632	800.000	0.074	-0.225
-428.617	-106.053	-0.213	-0.048
-427.603	-200.000	-0.025	0.315
-426.588	-79.030	0.358	-0.122
-425.573	50.232	0.039	-0.037
-424.559	-109.994	-0.053	0.011
-423.544	291.658	-0.232	-0.423
-422.530	-109.401	-0.357	0.076
-421.515	-54.410	-0.147	-0.067
-420.500	-69.639	-0.123	0.047
-419.486	800.000	-0.117	-0.353
-418.471	8.824	0.075	-0.057
-417.457	-87.989	-0.409	-0.123
-416.442	506.895	0.024	0.056
-415.428	65.126	-0.111	-0.113
-414.413	-47.445	0.221	-0.108
-413.398	-126.497	0.151	-0.023
-412.384	50.609	-0.200	-0.190
-411.369	-113.425	-0.209	-0.041
-410.355	-149.524	-0.016	-0.001
-409.340	-92.206	-0.209	-0.059
-408.325	800.000	-0.019	-0.081
-407.311	-60.041	-0.217	0.093
-406.296	800.000	-0.117	-0.368
-405.282	322.224	0.135	0.258
-404.267	-170.350	0.348	0.012
-403.252	-176.968	0.215	-0.005
-402.238	83.334	0.197	-0.215
-401.223	-200.000	0.000	0.154
-400.209	-78.638	-0.207	-0.071
-399.194	800.000	-0.019	0.072
-398.179	800.000	-0.137	0.570
-397.165	-7.027	0.296	0.202
-396.150	194.489	0.076	-0.115
-395.136	-47.646	-0.132	-0.064
-394.121	-18.890	-0.240	-0.150
-393.106	-96.516	-0.092	0.024
-392.092	-94.903	-0.244	0.066
-391.077	-134.487	0.225	-0.028
-390.063	-75.462	-0.200	-0.071
-389.048	-200.000	-0.028	-0.149
-388.033	-115.280	-0.266	-0.050
-387.019	247.765	-0.064	0.108
-386.004	-81.445	0.139	-0.046
-384.990	-96.843	-0.306	-0.081
-383.975	800.000	0.025	0.070
-382.960	-200.000	-0.002	-0.282
-381.946	-39.643	-0.158	0.083
-380.931	127.790	0.218	-0.277
-379.917	275.071	-0.152	0.271
-378.902	405.260	-0.052	0.110
-377.888	455.753	-0.076	0.168
-376.873	800.000	-0.098	-0.347
-375.858	37.197	-0.297	-0.263
-374.844	558.413	0.102	0.247
-373.829	-200.000	-0.006	0.201
-372.815	-133.089	0.280	-0.036
-371.800	210.599	0.102	0.161
-370.785	7.921	-0.197	0.148
-369.771	152.480	0.169	0.231
-368.756	800.000	0.028	0.098
-367.742	800.000	0.050	-0.213
-366.727	139.426	0.085	-0.113
-365.712	2.634	-0.233	0.169
-364.698	800.000	-0.103	0.291
-363.683	38.585	-0.040	-0.036
-362.669	502.230	0.135	0.313
-361.654	-171.538	-0.052	0.002
-360.639	9.749	0.333	-0.253
-359.625	73.080	0.105	-0.110
-358.610	-21.747	-0.040	-0.024
-357.596	39.419	-0.334	-0.300
-356.581	-31.628	0.288	0.162
-355.566	50.175	0.291	0.275
-354.552	123.814	0.124	0.155
-353.537	-153.304	0.162	-0.011
-352.523	-200.000	0.017	-0.130
-351.508	172.624	0.160	0.230
-350.493	800.000	0.058	0.184
-349.479	-200.000	-0.012	0.244
-348.464	-33.140	-0.163	0.091
-347.450	800.000	-0.076	-0.264
-346.435	622.802	0.053	0.135
-345.420	-200.000	0.007	0.139
-344.406	148.549	-0.216	0.293
-343.391	-57.836	0.227	-0.099
-342.377	123.494	-0.124	-0.155
-341.362	228.517	-0.036	0.059
-340.348	52.961	-0.120	-0.115
-339.333	-142.831	0.143	0.014
-338.318	-200.000	-0.026	-0.289
-337.304	725.884	-0.035	-0.093
-336.289	25.977	-0.288	-0.241
-335.275	-122.464	-0.142	-0.023
-334.260	-200.000	0.000	0.110
-333.245	0.139	-0.114	-0.082
-332.231	25.931	-0.123	-0.102
-331.216	-10.178	-0.320	-0.213
-330.202	-96.096	0.318	0.084
-329.187	-200.000	-0.021	0.130
-328.172	-100.355	-0.244	0.061
-327.158	8.208	0.057	-0.043
-326.143	800.000	-0.134	0.414
-325.129	64.792	0.103	0.104
-324.114	-200.000	0.076	0.367
-323.099	-200.000	0.006	0.141
-322.085	-32.128	0.086	-0.048
-321.070	-124.190	-0.136	0.021
-320.056	800.000	0.113	-0.450
-319.041	-200.000	0.061	-0.304
-318.026	5.975	0.037	0.028
-317.012	5.885	-0.209	0.154
-315.997	-139.175	0.336	0.036
-314.983	455.746	0.063	-0.139
-313.968	-14.681	-0.066	0.042
-312.953	-32.920	0.078	0.043
-311.939	800.000	-0.030	0.130
-310.924	-200.000	-0.040	-0.389
-309.910	100.548	0.101	0.117
-308.895	-36.753	-0.059	0.032
-307.880	299.790	-0.054	-0.100
-306.866	445.476	0.071	-0.155
-305.851	283.667	0.126	0.227
-304.837	-100.930	-0.105	-0.026
-303.822	265.704	0.057	0.099
-302.807	669.748	0.083	0.215
-301.793	-124.682	-0.106	0.016
-300.778	-145.640	-0.086	0.008
-299.764	97.624	-0.369	0.424
-298.749	-146.178	0.215	0.019
-297.735	-60.427	-0.222	-0.094
-296.720	661.039	-0.122	0.313
-295.705	-96.748	-0.098	-0.026
-294.691	-133.859	-0.409	0.051
-293.676	-59.450	-0.332	-0.143
-292.662	468.451	0.079	0.177
-291.647	-5.997	0.202	0.138
-290.632	-147.325	0.066	0.006
-289.618	800.000	0.043	0.135
-288.603	-200.000	0.028	-0.213
-287.589	52.515	0.195	0.186
-286.574	240.288	0.186	0.310
-285.559	800.000	-0.084	0.357
-284.545	-168.998	-0.061	-0.002
-283.530	249.338	0.071	0.120
-282.516	237.457	0.221	0.365
-281.501	293.080	-0.067	0.123
-280.486	-200.000	-0.055	-0.261
-279.472	754.808	0.047	0.128
-278.457	-56.516	0.213	-0.094
-277.443	-197.667	-0.210	-0.001
-276.428	-112.500	-0.112	0.022
-275.413	-86.219	-0.209	0.064
-274.399	446.062	0.121	0.266
-273.384	-92.581	-0.092	0.026
-272.370	-200.000	-0.009	0.152
-271.355	-6.821	0.137	-0.093
-270.340	-30.508	-0.130	0.074
-269.326	800.000	0.052	-0.173
-268.311	800.000	0.053	0.151
-267.297	-53.252	0.354	0.162
-266.282	-94.832	0.254	0.069
-265.267	234.209	-0.126	-0.208
-264.253	-200.000	-0.011	-0.208
-263.238	86.482	-0.177	0.195
-262.224	-11.631	0.104	-0.068
-261.209	-200.000	0.032	-0.207
-260.195	-137.916	-0.235	0.026
-259.180	133.647	0.133	-0.172
-258.165	-200.000	0.005	0.153
-257.151	56.940	0.110	-0.107
-256.136	137.183	0.043	0.056
-255.122	-25.021	0.145	-0.086
-254.107	49.787	-0.143	-0.135
-253.092	-84.765	-0.063	-0.020
-252.078	-53.008	-0.289	-0.132
-251.063	-7.900	0.364	-0.245
-250.049	800.000	0.054	0.210
-249.034	66.822	-0.105	-0.107
-248.019	-70.705	-0.307	-0.116
-247.005	-11.648	0.464	-0.304
-245.990	234.184	0.133	-0.218
-244.976	470.448	-0.074	-0.165
-243.961	133.524	0.353	-0.455
-242.946	112.732	0.227	0.274
-241.932	-133.257	0.395	0.050
-240.917	93.259	-0.179	-0.202
-239.903	-106.203	-0.369	0.082
-238.888	-200.000	0.008	-0.297
-237.873	800.000	0.037	0.140
-236.859	-200.000	-0.048	-0.251
-235.844	-114.476	-0.192	-0.037
-234.830	800.000	-0.039	0.170
-233.815	168.721	0.155	0.221
-232.800	54.893	-0.104	0.100
-231.786	-36.230	-0.101	0.054
-230.771	71.744	-0.094	-0.098
-229.757	-5.750	-0.164	-0.112
-228.742	6.524	-0.205	0.152
-227.727	8.399	-0.200	0.150
-226.713	14.653	0.296	0.231
-225.698	89.638	-0.107	0.119
-224.684	567.792	-0.169	-0.410
-223.669	-200.000	0.023	-0.209
-222.655	-104.961	-0.148	0.034
-221.640	-83.499	-0.079	0.025
-220.625	-49.023	-0.300	0.143
-219.611	-44.563	0.102	0.051
-218.596	-36.984	-0.251	-0.134
-217.582	-20.834	0.127	0.078
-216.567	-136.799	-0.139	-0.016
-215.552	-54.895	0.230	-0.103
-214.538	-108.799	0.119	0.025
-213.523	-82.137	-0.093	0.030
-212.509	-110.014	-0.223	0.047
-211.494	496.406	0.083	-0.189
-210.479	-93.389	0.393	-0.109
-209.465	-95.057	-0.225	-0.061
-208.450	-43.054	0.037	0.019
-207.436	-200.000	0.054	0.343
-206.421	50.494	-0.054	-0.051
-205.406	-145.255	0.274	-0.025
-204.392	47.672	0.207	0.192
-203.377	148.175	0.262	-0.352
-202.363	-200.000	0.030	0.220
-201.348	311.976	0.089	0.167
-200.333	800.000	0.039	-0.145
-199.319	222.985	-0.131	-0.210
-198.304	-79.599	-0.237	0.080
-197.290	-165.935	0.182	-0.008
-196.275	-200.000	0.008	0.144
-195.260	-200.000	0.012	0.158
-194.246	4.652	-0.061	-0.045
-193.231	-200.000	-0.000	0.118
-192.217	-96.610	-0.301	-0.079
-191.202	62.395	-0.133	-0.132
-190.187	117.963	-0.237	-0.291
-189.173	-94.214	0.439	-0.120
-188.158	800.000	-0.063	-0.257
-187.144	-68.180	-0.206	-0.080
-186.129	-35.823	-0.208	-0.112
-185.114	-100.227	0.064	-0.016
-184.100	-124.909	0.275	-0.042
-183.085	-200.000	0.024	-0.177
-182.071	225.391	0.173	-0.278
-181.056	-109.848	0.334	-0.070
-180.042	-200.000	0.001	0.255
-179.027	11.538	-0.222	0.169
-178.012	-16.109	0.249	0.158
-176.998	-200.000	-0.005	-0.110
-175.983	-32.629	0.502	-0.278
-174.969	-200.000	0.010	-0.358
-173.954	96.255	0.176	-0.200
-172.939	160.648	0.227	0.316
-171.925	-89.402	-0.189	0.055
-170.910	-101.745	0.167	-0.040
-169.896	-11.913	0.143	0.093
-168.881	-200.000	0.052	0.250
-167.866	45.162	0.195	0.179
-166.852	490.449	-0.083	-0.189
-165.837	-127.499	0.226	0.033
-164.823	-7.494	0.381	0.256
-163.808	800.000	-0.074	0.262
-162.793	376.343	0.027	-0.055
-161.779	-200.000	-0.041	0.270
-160.764	-10.981	-0.136	-0.089
-159.750	800.000	-0.025	0.097
-158.735	800.000	-0.066	0.271
-157.720	248.680	-0.116	-0.195
-156.706	-104.067	0.075	-0.017
-155.691	-35.964	-0.366	-0.197
-154.677	130.179	0.092	-0.117
-153.662	713.359	-0.051	-0.135
-152.647	-200.000	0.038	0.175
-151.633	34.643	0.255	-0.222
-150.618	51.383	0.135	0.128
-149.604	-200.000	0.008	-0.166
-148.589	-39.255	0.059	0.031
-147.574	-158.797	-0.106	-0.006
-146.560	462.607	0.143	-0.317
-145.545	-28.147	-0.151	-0.087
-144.531	-70.840	-0.252	-0.094
-143.516	-9.660	-0.163	-0.108
-142.502	-200.000	0.093	0.429
-141.487	-106.503	0.158	0.035
-140.472	251.061	0.107	-0.181
-139.458	-101.828	-0.154	-0.037
-138.443	-13.381	0.128	-0.082
-137.429	-52.874	0.266	-0.122
-136.414	-200.000	-0.009	-0.364
-135.399	-200.000	0.068	0.485
-134.385	607.796	0.055	0.135
-133.370	-2.962	0.105	0.073
-132.356	90.827	0.128	-0.142
-131.341	-200.000	-0.021	-0.113
-130.326	-79.474	0.420	0.141
-129.312	-166.153	-0.150	-0.006
-128.297	-200.000	0.011	-0.143
-127.283	-25.461	0.151	0.089
-126.268	-46.639	-0.149	-0.072
-125.253	634.295	-0.005	0.011
-124.239	284.663	0.034	0.060
-123.224	-123.127	0.109	0.017
-122.210	-89.118	0.179	-0.053
-121.195	-152.131	0.359	0.026
