DTS Sentinel unit serial number:	SN413079Multiplexer serial number:	ORYXHardware model number:	OX4-SRSoftware version number:	ORYX F/W v4.00 Oryx Data Collector v3.7.2.0data status	okinstallation	princeton_trtdifferential loss correction	single-endedforward channel	channel 3reverse channel	N/Adate	2019/09/14time	23:44:35forward acquisition time	60.00reverse acquisition time	0.00gamma	496.2192k internal	0.2319k external	0.2319temperature offset calibration	0.9980default loss term (dB/km)	0.3790temperature slope calibration	1.0000multiplexer offset coefficient	1.0000multiplexer slope coefficient	1.0000fibre end	0.00T internal ref (°C)	32.31T ext. ref 1 (°C)	4.64T ext. ref 2 (°C)	27.29length (m)	temperature (°C)	Stokes	anti-Stokes-747.200	7.863	0.110	-0.083
-746.185	-62.776	-0.258	0.108
-745.171	11.018	0.340	-0.263
-744.156	-152.096	-0.049	-0.004
-743.142	-22.838	0.179	0.109
-742.127	58.091	-0.320	0.317
-741.112	-80.848	-0.167	-0.056
-740.098	-107.556	0.219	-0.049
-739.083	100.892	0.190	0.224
-738.069	-92.171	-0.168	-0.048
-737.054	-92.332	0.098	-0.028
-736.039	-17.494	-0.136	-0.087
-735.025	-200.000	0.036	0.190
-734.010	87.357	-0.183	0.205
-732.996	71.535	0.040	0.042
-731.981	-84.002	-0.198	-0.064
-730.966	16.521	0.211	0.169
-729.952	44.512	-0.016	0.015
-728.937	319.675	-0.161	0.309
-727.923	-121.218	0.230	0.039
-726.908	-163.389	-0.276	-0.013
-725.894	-200.000	-0.000	0.030
-724.879	54.859	0.153	-0.149
-723.864	-200.000	0.020	0.393
-722.850	800.000	0.101	-0.333
-721.835	32.384	-0.111	0.097
-720.821	-65.500	-0.167	-0.068
-719.806	800.000	-0.063	-0.239
-718.791	-200.000	0.044	-0.274
-717.777	129.427	0.101	-0.130
-716.762	632.556	0.040	-0.103
-715.748	156.188	0.079	-0.110
-714.733	241.664	0.090	0.152
-713.718	141.750	-0.082	0.109
-712.704	-200.000	-0.034	-0.225
-711.689	62.398	-0.103	0.104
-710.675	191.744	0.063	-0.096
-709.660	112.682	-0.273	-0.334
-708.645	609.033	0.055	-0.139
-707.631	325.447	0.056	-0.108
-706.616	800.000	0.105	-0.341
-705.602	-109.568	0.234	0.050
-704.587	-101.360	-0.296	-0.073
-703.572	88.860	0.182	0.204
-702.558	-23.881	0.066	-0.040
-701.543	-172.169	0.497	0.016
-700.529	40.996	0.190	-0.174
-699.514	62.129	-0.148	0.149
-698.499	-6.960	0.063	0.043
-697.485	-157.439	-0.067	-0.004
-696.470	-200.000	-0.019	-0.085
-695.456	75.243	0.257	-0.273
-694.441	144.203	0.182	-0.245
-693.426	7.132	0.089	0.067
-692.412	336.196	-0.013	-0.026
-691.397	-200.000	-0.184	-0.000
-690.383	-200.000	0.033	-0.161
-689.368	-31.707	0.222	-0.125
-688.354	151.858	0.088	0.121
-687.339	428.779	0.162	-0.353
-686.324	160.745	0.190	-0.268
-685.310	-5.174	0.121	-0.084
-684.295	215.227	0.117	0.187
-683.281	-200.000	0.062	0.363
-682.266	-6.295	-0.195	-0.134
-681.251	-145.265	0.081	0.007
-680.237	160.346	-0.179	0.252
-679.222	26.772	0.159	-0.135
-678.208	62.112	-0.146	0.147
-677.193	-60.562	-0.288	-0.123
-676.178	-95.009	-0.088	0.024
-675.164	134.518	0.168	0.219
-674.149	65.433	-0.211	-0.215
-673.135	300.714	0.069	-0.129
-672.120	115.616	-0.109	-0.135
-671.105	-108.133	-0.304	0.066
-670.091	-141.018	0.163	-0.017
-669.076	71.706	-0.201	0.210
-668.062	800.000	-0.134	0.402
-667.047	-12.546	0.122	0.080
-666.032	29.235	-0.284	0.243
-665.018	40.711	-0.121	-0.110
-664.003	-200.000	-0.004	0.069
-662.989	108.934	-0.096	-0.116
-661.974	-200.000	-0.012	-0.142
-660.959	-20.515	-0.089	-0.055
-659.945	376.981	-0.154	-0.316
-658.930	-55.925	0.164	-0.074
-657.916	-67.877	-0.187	-0.074
-656.901	112.875	-0.133	-0.163
-655.886	-200.000	-0.013	-0.138
-654.872	758.752	-0.063	-0.172
-653.857	-200.000	0.021	-0.221
-652.843	800.000	0.075	0.264
-651.828	52.236	0.225	-0.217
-650.814	94.146	0.063	0.072
-649.799	-6.809	-0.033	0.023
-648.784	245.734	-0.125	0.212
-647.770	-200.000	0.027	0.242
-646.755	406.786	0.076	0.162
-645.741	192.773	0.099	0.150
-644.726	-200.000	-0.002	0.041
-643.711	-10.401	-0.267	-0.178
-642.697	800.000	-0.063	-0.219
-641.682	-15.069	-0.185	0.119
-640.668	150.822	-0.097	-0.132
-639.653	217.976	-0.129	-0.208
-638.638	6.649	0.053	-0.040
-637.624	-172.290	0.126	0.004
-636.609	62.593	0.226	0.228
-635.595	-200.000	0.043	-0.253
-634.580	-43.146	-0.013	0.007
-633.565	-200.000	-0.027	0.354
-632.551	-160.998	0.128	0.007
-631.536	231.885	0.145	0.239
-630.522	46.275	-0.089	0.083
-629.507	-47.629	0.095	-0.047
-628.492	-7.823	0.221	-0.150
-627.478	-8.862	-0.245	0.165
-626.463	-200.000	-0.048	-0.265
-625.449	800.000	-0.046	-0.179
-624.434	-2.383	0.036	0.025
-623.419	224.912	0.038	-0.062
-622.405	550.200	-0.101	-0.243
-621.390	-85.724	0.111	-0.035
-620.376	-141.641	-0.148	-0.015
-619.361	332.288	0.039	-0.076
-618.346	-200.000	0.030	0.466
-617.332	-146.706	-0.173	-0.015
-616.317	-115.063	-0.144	0.027
-615.303	134.073	-0.151	0.196
-614.288	800.000	0.046	-0.176
-613.273	-200.000	0.042	-0.279
-612.259	-200.000	-0.052	-0.279
-611.244	-58.982	0.183	-0.080
-610.230	-200.000	0.020	-0.240
-609.215	649.436	-0.032	0.081
-608.201	62.247	0.141	-0.141
-607.186	-74.114	-0.180	0.066
-606.171	-80.383	0.046	-0.015
-605.157	383.965	0.062	0.128
-604.142	-28.650	-0.303	-0.175
-603.128	329.335	-0.025	0.048
-602.113	-172.385	0.161	0.005
-601.098	-67.390	-0.161	-0.063
-600.084	800.000	-0.041	0.165
-599.069	396.919	-0.072	0.150
-598.055	800.000	0.060	-0.221
-597.040	11.425	0.164	-0.127
-596.025	253.223	0.222	-0.382
-595.011	-43.368	0.278	-0.142
-593.996	-200.000	-0.006	0.131
-592.982	-200.000	0.060	-0.288
-591.967	-200.000	0.001	0.047
-590.952	25.393	-0.222	0.185
-589.938	133.307	0.152	-0.198
-588.923	349.061	0.104	-0.206
-587.909	28.353	0.074	-0.063
-586.894	25.625	0.317	-0.265
-585.879	119.604	-0.173	-0.215
-584.865	370.064	0.125	0.255
-583.850	800.000	0.075	0.287
-582.836	-128.010	-0.108	0.016
-581.821	186.733	-0.186	0.278
-580.806	-200.000	0.024	0.128
-579.792	-200.000	-0.044	-0.409
-578.777	1.779	0.212	-0.154
-577.763	-51.635	0.040	0.019
-576.748	-114.835	0.332	0.064
-575.733	800.000	0.042	-0.143
-574.719	800.000	-0.055	0.215
-573.704	800.000	-0.092	-0.297
-572.690	-34.111	-0.270	-0.149
-571.675	77.533	-0.216	0.231
-570.661	22.218	-0.244	-0.200
-569.646	-107.698	-0.394	0.087
-568.631	117.054	0.220	-0.271
-567.617	-137.761	0.271	0.031
-566.602	339.976	0.109	-0.214
-565.588	-103.655	-0.307	-0.072
-564.573	-91.748	-0.189	0.054
-563.558	-61.297	0.191	0.081
-562.544	800.000	0.081	-0.251
-561.529	-184.139	-0.282	0.005
-560.515	115.441	-0.086	0.105
-559.500	-200.000	0.023	0.107
-558.485	-168.070	-0.195	0.008
-557.471	-200.000	0.036	-0.210
-556.456	9.605	-0.147	0.112
-555.442	-40.603	0.396	0.206
-554.427	51.450	-0.164	0.156
-553.412	653.620	-0.032	-0.083
-552.398	-85.402	-0.331	-0.104
-551.383	320.214	-0.052	-0.099
-550.369	-124.805	-0.236	0.037
-549.354	59.030	-0.189	0.186
-548.339	800.000	-0.055	0.235
-547.325	22.989	-0.218	0.180
-546.310	518.985	-0.096	-0.226
-545.296	2.413	0.191	-0.138
-544.281	-67.554	0.255	-0.100
-543.266	-98.092	-0.117	0.030
-542.252	44.209	0.076	0.070
-541.237	264.947	-0.094	-0.164
-540.223	7.621	-0.127	-0.095
-539.208	-38.606	0.237	0.126
-538.193	-124.174	-0.171	0.027
-537.179	4.737	0.312	0.230
-536.164	-122.657	-0.196	0.032
-535.150	197.846	-0.144	0.220
-534.135	800.000	-0.029	-0.116
-533.121	42.611	0.050	-0.045
-532.106	206.603	0.152	-0.237
-531.091	-42.746	-0.175	0.089
-530.077	120.891	0.120	0.149
-529.062	800.000	-0.088	-0.245
-528.048	-200.000	0.007	0.380
-527.033	-24.378	0.098	0.058
-526.018	161.921	-0.097	0.137
-525.004	36.735	-0.181	0.160
-523.989	-94.214	-0.393	0.108
-522.975	58.173	-0.325	0.319
-521.960	-29.158	0.152	0.088
-520.945	51.682	-0.241	-0.230
-519.931	97.558	-0.055	0.063
-518.916	-25.884	-0.239	-0.141
-517.902	-86.323	0.207	0.064
-516.887	31.189	-0.113	-0.097
-515.872	-200.000	0.023	-0.161
-514.858	-137.120	-0.281	-0.032
-513.843	-26.636	0.114	0.067
-512.829	39.963	0.248	-0.223
-511.814	578.193	-0.160	0.392
-510.799	170.739	-0.118	-0.170
-509.785	-114.613	0.191	-0.037
-508.770	61.408	0.200	0.199
-507.756	-11.036	0.237	-0.157
-506.741	-25.661	-0.124	-0.073
-505.726	638.966	-0.050	-0.126
-504.712	87.961	-0.152	-0.169
-503.697	-107.216	0.189	-0.042
-502.683	-56.435	-0.177	0.079
-501.668	248.433	-0.135	-0.230
-500.653	204.367	-0.014	-0.022
-499.639	357.364	-0.004	0.009
-498.624	-186.043	-0.628	-0.009
-497.610	-37.767	0.084	-0.045
-496.595	-46.736	0.031	0.015
-495.581	800.000	0.122	-0.384
-494.566	-200.000	0.004	-0.474
-493.551	736.894	-0.097	-0.261
-492.537	-200.000	-0.002	-0.090
-491.522	118.628	-0.144	0.178
-490.508	-86.208	-0.146	-0.045
-489.493	324.564	0.146	0.279
-488.478	-47.454	-0.210	0.102
-487.464	-200.000	0.004	0.150
-486.449	1.054	0.284	0.204
-485.435	160.863	-0.059	-0.082
-484.420	37.718	-0.015	-0.013
-483.405	4.882	0.130	-0.095
-482.391	800.000	-0.038	0.160
-481.376	-99.069	-0.405	-0.103
-480.362	26.382	-0.084	-0.070
-479.347	-51.734	0.211	-0.099
-478.332	800.000	-0.023	-0.084
-477.318	598.346	-0.101	-0.251
-476.303	-117.976	-0.014	-0.003
-475.289	-172.547	-0.351	-0.011
-474.274	302.954	0.144	0.267
-473.259	55.535	-0.081	0.078
-472.245	800.000	-0.054	-0.168
-471.230	-45.610	0.355	-0.176
-470.216	166.440	0.102	-0.145
-469.201	-200.000	-0.031	0.361
-468.186	-200.000	-0.035	0.185
-467.172	-34.919	0.347	0.190
-466.157	-151.036	-0.360	0.027
-465.143	118.720	-0.146	-0.181
-464.128	45.721	0.143	0.133
-463.113	-118.177	-0.158	0.028
-462.099	-200.000	0.059	-0.278
-461.084	8.132	0.156	-0.117
-460.070	12.688	-0.254	0.196
-459.055	800.000	-0.118	-0.346
-458.040	-178.651	-0.118	-0.003
-457.026	-200.000	0.044	0.239
-456.011	-133.747	-0.289	0.036
-454.997	6.385	0.172	0.127
-453.982	800.000	0.155	-0.438
-452.968	800.000	-0.023	-0.095
-451.953	95.608	0.047	-0.054
-450.938	-79.149	-0.370	0.125
-449.924	-200.000	-0.031	0.149
-448.909	800.000	0.096	0.368
-447.895	-200.000	-0.001	-0.076
-446.880	337.042	-0.129	0.252
-445.865	-100.863	-0.240	0.059
-444.851	8.567	-0.275	-0.207
-443.836	638.457	-0.053	0.134
-442.822	-16.270	0.292	-0.185
-441.807	-200.000	-0.014	0.081
-440.792	-41.434	-0.329	0.169
-439.778	-114.007	0.300	-0.058
-438.763	126.414	-0.177	0.224
-437.749	800.000	0.030	-0.097
-436.734	-100.296	0.198	-0.049
-435.719	-140.364	0.338	-0.035
-434.705	-30.397	-0.173	-0.098
-433.690	628.273	0.078	0.196
-432.676	800.000	-0.057	0.196
-431.661	800.000	-0.022	0.093
-430.646	723.933	0.045	0.120
-429.632	53.808	-0.064	-0.061
-428.617	-200.000	0.019	0.118
-427.603	152.395	0.102	-0.139
-426.588	-200.000	0.008	-0.380
-425.573	16.509	0.221	-0.175
-424.559	-107.328	-0.283	0.062
-423.544	-200.000	0.026	-0.159
-422.530	83.639	-0.187	-0.204
-421.515	-80.466	0.187	-0.062
-420.500	-200.000	-0.135	-0.607
-419.486	412.176	-0.207	-0.439
-418.471	273.050	-0.134	0.237
-417.457	265.616	0.071	0.125
-416.442	76.096	-0.213	-0.225
-415.428	39.441	0.172	-0.154
-414.413	14.676	-0.109	-0.085
-413.398	-59.690	0.218	-0.093
-412.384	-27.073	0.234	0.136
-411.369	-14.799	0.198	0.127
-410.355	-200.000	-0.014	-0.214
-409.340	800.000	0.047	0.195
-408.325	800.000	-0.073	0.232
-407.311	800.000	-0.053	0.230
-406.296	-158.248	-0.269	-0.016
-405.282	108.162	0.102	0.122
-404.267	37.151	-0.204	-0.180
-403.252	800.000	0.081	-0.254
-402.238	-200.000	0.007	0.163
-401.223	-13.146	-0.047	-0.030
-400.209	800.000	0.113	-0.349
-399.194	-174.387	0.187	-0.005
-398.179	132.336	0.212	-0.272
-397.165	101.415	0.087	0.101
-396.150	2.574	-0.103	-0.074
-395.136	16.245	0.228	0.179
-394.121	517.566	-0.233	0.544
-393.106	-200.000	0.018	0.146
-392.092	262.639	0.029	0.050
-391.077	-16.136	0.173	-0.110
-390.063	44.236	0.078	0.071
-389.048	-44.244	0.069	-0.034
-388.033	-155.545	-0.301	0.019
-387.019	-200.000	0.036	0.164
-386.004	800.000	-0.072	0.202
-384.990	70.205	0.263	0.271
-383.975	15.141	0.050	-0.039
-382.960	-200.000	-0.070	-0.327
-381.946	508.091	-0.050	-0.116
-380.931	-41.722	0.155	0.079
-379.917	273.010	0.169	0.297
-378.902	-200.000	-0.014	0.268
-377.888	639.876	0.128	-0.325
-376.873	232.015	-0.026	-0.042
-375.858	-113.611	0.156	-0.030
-374.844	-32.915	0.070	0.039
-373.829	-176.250	0.412	0.011
-372.815	38.850	-0.057	-0.051
-371.800	168.454	0.240	-0.341
-370.785	-5.037	-0.159	-0.109
-369.771	800.000	-0.101	0.385
-368.756	204.158	-0.179	-0.277
-367.742	-100.404	0.278	0.069
-366.727	-73.569	0.341	-0.124
-365.712	-16.922	0.069	-0.043
-364.698	-93.677	-0.157	0.043
-363.683	-118.121	-0.176	0.031
-362.669	279.298	-0.132	0.234
-361.654	-200.000	-0.019	0.215
-360.639	-105.146	-0.073	0.017
-359.625	-144.679	0.059	0.005
-358.610	-123.899	-0.126	-0.020
-357.596	-170.564	0.387	0.013
-356.581	-200.000	-0.005	-0.068
-355.566	375.587	0.193	-0.393
-354.552	131.496	0.141	0.181
-353.537	712.333	-0.223	0.588
-352.523	-64.212	-0.185	0.075
-351.508	108.284	0.090	0.107
-350.493	19.417	-0.225	0.180
-349.479	102.100	0.033	0.039
-348.464	-200.000	0.057	-0.271
-347.450	-0.476	0.153	-0.108
-346.435	-11.771	0.144	0.094
-345.420	1.995	-0.098	-0.071
-344.406	-89.841	-0.146	0.043
-343.391	134.234	-0.097	0.125
-342.377	-67.050	0.228	0.089
-341.362	-156.054	-0.402	-0.025
-340.348	-2.597	-0.255	0.178
-339.333	-200.000	-0.004	-0.099
-338.318	369.361	0.116	0.233
-337.304	155.653	-0.083	-0.113
-336.289	-43.711	0.141	-0.071
-335.275	57.234	-0.303	-0.295
-334.260	-35.205	-0.043	-0.023
-333.245	308.710	0.223	0.415
-332.231	-200.000	-0.015	-0.104
-331.216	-130.024	0.145	-0.020
-330.202	96.472	0.163	-0.186
-329.187	800.000	-0.086	-0.262
-328.172	-172.050	-0.266	0.009
-327.158	-120.736	0.242	0.041
-326.143	143.429	0.146	-0.194
-325.129	-200.000	-0.014	0.174
-324.114	-200.000	0.015	-0.156
-323.099	-14.479	-0.057	-0.036
-322.085	800.000	-0.051	0.210
-321.070	187.214	-0.271	0.401
-320.056	-6.663	-0.113	0.076
-319.041	-200.000	0.022	-0.263
-318.026	14.240	0.285	0.221
-317.012	-87.612	-0.049	0.015
-315.997	411.975	-0.037	-0.079
-314.983	41.876	0.049	0.044
-313.968	326.051	-0.107	0.204
-312.953	37.588	0.190	0.168
-311.939	-200.000	0.048	0.221
-310.924	532.912	0.034	-0.079
-309.910	-62.612	-0.139	0.057
-308.895	191.590	0.260	-0.390
-307.880	103.010	-0.086	-0.100
-306.866	-200.000	-0.063	0.304
-305.851	61.695	-0.173	0.172
-304.837	-43.541	-0.299	0.150
-303.822	-144.528	0.202	-0.019
-302.807	-107.647	0.175	-0.038
-301.793	-27.188	0.153	0.089
-300.778	103.586	-0.150	0.174
-299.764	-27.291	-0.094	0.054
-298.749	-162.110	0.195	-0.010
-297.735	175.526	-0.104	-0.149
-296.720	-14.241	-0.334	-0.214
-295.705	75.097	0.103	-0.108
-294.691	287.273	0.161	0.289
-293.676	-200.000	0.008	-0.063
-292.662	-200.000	0.412	0.002
-291.647	-200.000	-0.066	-0.313
-290.632	-16.830	0.219	-0.137
-289.618	55.729	-0.084	0.081
-288.603	293.715	-0.056	-0.101
-287.589	-41.670	-0.236	0.120
-286.574	483.661	0.141	-0.318
-285.559	-185.014	-0.377	0.006
-284.545	-200.000	-0.017	-0.179
-283.530	562.634	-0.020	0.049
-282.516	800.000	-0.050	0.164
-281.501	463.023	0.092	-0.204
-280.486	154.924	0.101	0.138
-279.472	0.391	-0.389	0.276
-278.457	-68.166	0.192	0.074
-277.443	-94.393	-0.271	0.074
-276.428	172.575	-0.201	0.287
-275.413	493.658	-0.043	0.098
-274.399	-91.554	-0.334	-0.095
-273.384	-62.907	0.131	0.054
-272.370	-200.000	0.010	-0.197
-271.355	113.859	0.071	-0.086
-270.340	800.000	-0.055	-0.155
-269.326	-153.146	0.144	0.010
-268.311	127.115	-0.079	-0.100
-267.297	800.000	-0.120	0.333
-266.282	-200.000	-0.058	-0.381
-265.267	-195.150	0.283	-0.002
-264.253	-200.000	0.013	0.066
-263.238	91.046	0.137	-0.153
-262.224	-200.000	-0.018	-0.437
-261.209	-68.041	0.305	0.118
-260.195	-93.249	-0.085	0.024
-259.180	149.291	-0.063	0.084
-258.165	92.137	-0.081	-0.091
-257.151	-37.998	0.019	0.010
-256.136	-200.000	0.014	0.294
-255.122	-98.065	0.204	0.052
-254.107	21.091	0.325	0.262
-253.092	-200.000	0.157	0.001
-252.078	-200.000	0.045	-0.344
-251.063	-200.000	0.047	0.261
-250.049	-139.646	0.175	-0.019
-249.034	-19.567	0.109	-0.067
-248.019	24.896	0.183	0.150
-247.005	-10.684	0.204	0.134
-245.990	595.886	0.017	0.043
-244.976	713.390	-0.042	-0.111
-243.961	123.818	0.080	-0.099
-242.946	43.950	0.210	-0.191
-241.932	-75.144	0.068	-0.024
-240.917	-13.827	0.277	-0.177
-239.903	191.337	0.183	-0.273
-238.888	-200.000	0.002	-0.135
-237.873	122.497	0.252	0.312
-236.859	-67.680	-0.199	-0.077
-235.844	760.875	0.028	0.075
-234.830	-143.197	0.254	-0.024
-233.815	-131.290	-0.202	-0.027
-232.800	-89.685	0.352	0.102
-231.786	-136.180	0.156	-0.018
-230.771	82.847	-0.109	0.118
-229.757	-200.000	-0.033	0.222
-228.742	-80.561	0.264	0.087
-227.727	310.913	-0.127	-0.235
-226.713	-57.505	-0.140	-0.061
-225.698	-200.000	0.033	-0.205
-224.684	137.919	0.093	0.120
-223.669	-200.000	0.015	-0.177
-222.655	-57.542	-0.080	0.035
-221.640	177.450	-0.033	0.047
-220.625	-140.948	0.114	-0.012
-219.611	-200.000	-0.029	-0.202
-218.596	-200.000	0.033	-0.194
-217.582	800.000	0.015	-0.058
-216.567	271.195	-0.098	-0.171
-215.552	43.084	0.268	0.242
-214.538	71.766	-0.229	0.236
-213.523	-200.000	-0.002	0.090
-212.509	-68.132	-0.323	-0.124
-211.494	-73.333	0.157	0.057
-210.479	433.762	-0.112	0.242
-209.465	-200.000	0.020	0.310
-208.450	-40.675	-0.203	0.104
-207.436	-200.000	-0.027	-0.230
-206.421	-28.947	-0.224	0.127
-205.406	800.000	0.049	0.151
-204.392	89.638	0.177	0.195
-203.377	-136.420	0.180	0.021
-202.363	56.754	-0.113	-0.109
-201.348	162.621	0.116	0.161
-200.333	25.420	-0.185	0.152
-199.319	-200.000	0.011	0.151
-198.304	16.895	-0.141	0.110
-197.290	-133.680	0.073	-0.009
-196.275	149.535	0.117	0.157
-195.260	-11.778	0.251	0.163
-194.246	68.999	0.370	-0.376
-193.231	-200.000	0.022	0.183
-192.217	-25.084	-0.345	-0.202
-191.202	300.464	0.017	0.032
-190.187	-148.545	0.339	0.027
-189.173	500.910	0.118	-0.270
-188.158	144.364	-0.055	-0.072
-187.144	-200.000	0.007	0.110
-186.129	62.014	0.135	-0.133
-185.114	800.000	-0.085	-0.316
-184.100	-42.741	-0.202	0.102
-183.085	-200.000	-0.038	0.174
-182.071	-200.000	0.003	0.097
-181.056	-118.442	0.108	0.019
-180.042	-74.661	0.159	-0.057
-179.027	-48.320	0.078	0.037
-178.012	-106.145	0.501	-0.111
-176.998	26.627	0.413	0.342
-175.983	-200.000	0.014	0.181
-174.969	-200.000	-0.021	0.150
-173.954	28.934	0.081	0.068
-172.939	800.000	-0.059	0.218
-171.925	24.708	0.079	0.064
-170.910	389.838	-0.068	0.139
-169.896	223.990	0.075	0.120
-168.881	-49.813	-0.317	-0.149
-167.866	-200.000	0.026	-0.165
-166.852	-128.775	-0.227	-0.032
-165.837	105.809	0.167	0.196
-164.823	800.000	-0.018	-0.076
-163.808	-38.258	-0.164	-0.086
-162.793	-200.000	0.033	0.161
-161.779	-200.000	-0.168	-0.000
-160.764	77.806	-0.168	-0.177
-159.750	-123.408	0.190	-0.030
-158.735	465.030	-0.029	-0.064
-157.720	-200.000	0.002	-0.087
-156.706	-125.645	-0.181	-0.027
-155.691	-200.000	0.015	0.120
-154.677	658.556	0.119	0.303
-153.662	-96.984	-0.234	-0.061
-152.647	-200.000	-0.022	-0.179
-151.633	-64.924	0.298	0.119
-150.618	-200.000	0.044	0.297
-149.604	-106.792	0.157	0.034
-148.589	367.394	0.142	0.284
-147.574	-51.457	-0.277	-0.128
-146.560	-200.000	0.006	-0.040
-145.545	-187.482	-0.176	0.002
-144.531	96.898	-0.042	0.047
-143.516	-20.705	0.136	-0.083
-142.502	-200.000	-0.016	-0.377
-141.487	-118.882	0.154	0.027
-140.472	278.347	-0.153	-0.269
-139.458	-200.000	-0.021	-0.332
-138.443	-67.764	-0.128	0.050
-137.429	153.371	0.082	-0.111
-136.414	-200.000	0.025	0.265
-135.399	-52.002	-0.152	0.070
-134.385	-76.644	0.118	0.041
-133.370	62.656	-0.156	-0.154
-132.356	461.410	0.091	-0.201
-131.341	-30.971	-0.183	-0.102
-130.326	800.000	-0.036	0.115
-129.312	-186.606	-0.268	-0.004
-128.297	79.220	0.167	0.177
-127.283	769.454	-0.140	-0.377
-126.268	-37.419	0.056	-0.030
-125.253	-19.004	0.283	0.174
-124.239	580.883	0.040	-0.098
-123.224	180.716	0.169	0.245
-122.210	68.577	0.224	-0.226
-121.195	92.973	0.101	0.112
-120.180	-176.117	-0.430	0.011
