DTS Sentinel unit serial number:	SN413079Multiplexer serial number:	ORYXHardware model number:	OX4-SRSoftware version number:	ORYX F/W v4.00 Oryx Data Collector v3.7.2.0data status	okinstallation	princeton_trtdifferential loss correction	single-endedforward channel	channel 3reverse channel	N/Adate	2019/09/11time	00:10:11forward acquisition time	60.00reverse acquisition time	0.00gamma	496.2192k internal	0.2331k external	0.2331temperature offset calibration	0.9918default loss term (dB/km)	0.3790temperature slope calibration	1.0000multiplexer offset coefficient	1.0000multiplexer slope coefficient	1.0000fibre end	0.00T internal ref (°C)	29.36T ext. ref 1 (°C)	-0.31T ext. ref 2 (°C)	22.83length (m)	temperature (°C)	Stokes	anti-Stokes-747.200	-200.000	0.014	0.163
-746.185	314.638	-0.110	0.208
-745.171	111.249	0.234	0.284
-744.156	-110.408	-0.296	0.062
-743.142	-58.089	-0.097	-0.042
-742.127	-200.000	-0.039	0.307
-741.112	-41.659	0.342	-0.177
-740.098	-27.611	0.240	0.140
-739.083	46.274	0.280	0.261
-738.069	215.664	0.083	0.132
-737.054	-121.496	0.171	-0.029
-736.039	-73.011	-0.422	0.156
-735.025	-76.259	0.139	0.049
-734.010	311.580	-0.055	0.104
-732.996	-200.000	-0.033	-0.223
-731.981	143.290	-0.076	0.101
-730.966	-50.397	-0.085	0.040
-729.952	-108.632	-0.577	0.125
-728.937	8.976	-0.201	0.153
-727.923	-37.703	-0.285	-0.153
-726.908	104.334	0.286	-0.339
-725.894	-81.197	0.225	0.075
-724.879	800.000	0.029	0.092
-723.864	-200.000	0.078	0.563
-722.850	-134.928	-0.413	-0.050
-721.835	800.000	0.005	-0.017
-720.821	-147.989	0.166	0.014
-719.806	-200.000	0.053	-0.331
-718.791	-89.148	0.049	-0.014
-717.777	701.572	-0.022	-0.058
-716.762	800.000	-0.066	-0.236
-715.748	-112.708	0.140	0.028
-714.733	259.387	0.116	-0.200
-713.718	-163.525	-0.317	-0.015
-712.704	-70.304	-0.225	0.086
-711.689	-174.506	0.127	-0.004
-710.675	-31.201	0.245	0.139
-709.660	-200.000	-0.068	0.381
-708.645	-147.328	-0.312	0.027
-707.631	-153.185	0.279	0.020
-706.616	-79.552	-0.254	-0.086
-705.602	-66.260	0.158	0.063
-704.587	61.854	-0.122	0.122
-703.572	-49.242	0.332	-0.159
-702.558	-18.005	0.250	-0.157
-701.543	720.763	-0.052	-0.139
-700.529	-200.000	0.011	-0.229
-699.514	800.000	-0.072	0.247
-698.499	94.038	-0.154	-0.175
-697.485	-200.000	-0.017	-0.107
-696.470	-200.000	0.009	0.142
-695.456	-24.473	-0.028	-0.017
-694.441	-200.000	-0.035	0.178
-693.426	-200.000	0.007	0.159
-692.412	-10.577	-0.279	-0.185
-691.397	-56.248	-0.182	-0.081
-690.383	800.000	-0.091	-0.251
-689.368	30.216	-0.197	-0.169
-688.354	-200.000	0.013	-0.114
-687.339	-31.805	-0.017	-0.010
-686.324	-157.919	-0.221	0.013
-685.310	-51.923	0.165	-0.077
-684.295	76.962	-0.316	-0.336
-683.281	461.177	0.062	0.139
-682.266	605.070	-0.075	-0.187
-681.251	-155.525	-0.170	0.011
-680.237	-106.676	-0.206	-0.046
-679.222	214.623	-0.106	0.168
-678.208	-26.444	-0.159	-0.094
-677.193	-30.800	0.282	0.160
-676.178	6.676	-0.349	-0.260
-675.164	800.000	-0.074	-0.217
-674.149	-164.638	0.178	-0.008
-673.135	-200.000	-0.002	-0.088
-672.120	90.901	0.176	-0.198
-671.105	-158.636	0.236	-0.014
-670.091	-22.653	-0.031	-0.019
-669.076	286.984	0.138	-0.250
-668.062	-54.937	0.249	-0.113
-667.047	-200.000	-0.008	0.112
-666.032	555.841	0.090	0.216
-665.018	-32.920	-0.282	0.157
-664.003	6.939	-0.239	-0.179
-662.989	664.776	0.081	0.211
-661.974	-36.455	0.355	-0.192
-660.959	76.820	0.210	-0.224
-659.945	-98.030	0.247	0.064
-658.930	414.042	-0.073	0.155
-657.916	800.000	0.060	-0.172
-656.901	-117.496	-0.279	0.051
-655.886	-58.277	0.196	-0.086
-654.872	411.280	-0.059	-0.126
-653.857	549.354	-0.040	-0.096
-652.843	-156.062	-0.382	0.024
-651.828	800.000	-0.109	0.402
-650.814	231.605	-0.090	0.147
-649.799	-144.010	0.213	0.020
-648.784	-44.161	0.203	0.102
-647.770	800.000	0.020	0.080
-646.755	688.320	-0.050	-0.131
-645.741	-200.000	-0.099	0.489
-644.726	800.000	-0.076	0.259
-643.711	800.000	-0.091	-0.295
-642.697	443.566	-0.029	0.064
-641.682	-106.219	0.262	0.059
-640.668	-70.056	0.268	0.102
-639.653	185.719	0.139	0.207
-638.638	-15.282	-0.204	-0.131
-637.624	-200.000	0.015	0.223
-636.609	153.113	0.218	-0.299
-635.595	-200.000	0.419	-0.001
-634.580	-108.605	-0.072	0.015
-633.565	-163.603	-0.387	-0.018
-632.551	54.562	0.072	-0.069
-631.536	-98.953	-0.220	0.056
-630.522	-80.674	0.221	0.074
-629.507	174.512	0.183	-0.265
-628.492	118.184	-0.111	-0.137
-627.478	-142.102	-0.133	0.013
-626.463	-164.274	0.288	0.013
-625.449	-200.000	0.077	0.427
-624.434	-66.120	-0.467	0.187
-623.419	-200.000	-0.004	0.126
-622.405	-40.801	0.213	-0.110
-621.390	35.989	0.252	0.222
-620.376	-52.477	-0.071	0.033
-619.361	-65.127	0.084	-0.034
-618.346	-36.480	-0.098	-0.053
-617.332	157.860	-0.063	0.088
-616.317	-59.129	-0.133	0.057
-615.303	104.041	-0.088	-0.103
-614.288	-133.340	-0.167	-0.021
-613.273	90.723	0.222	-0.249
-612.259	-20.739	-0.057	0.035
-611.244	94.324	-0.162	-0.185
-610.230	-141.914	0.284	-0.028
-609.215	-168.402	-0.364	-0.014
-608.201	-72.034	-0.090	0.033
-607.186	343.838	-0.153	0.301
-606.171	-68.894	-0.166	-0.064
-605.157	94.818	0.227	-0.259
-604.142	194.415	-0.097	0.146
-603.128	411.580	-0.018	0.038
-602.113	-200.000	0.054	-0.330
-601.098	-88.537	0.111	0.033
-600.084	-113.358	0.065	-0.013
-599.069	-123.486	0.321	0.051
-598.055	-115.881	0.174	-0.032
-597.040	756.548	-0.045	-0.121
-596.025	263.695	-0.060	-0.105
-595.011	152.527	0.037	0.051
-593.996	551.938	0.167	-0.402
-592.982	29.234	-0.067	-0.057
-591.967	-78.154	0.336	0.116
-590.952	61.596	0.180	-0.179
-589.938	234.056	-0.161	-0.266
-588.923	-85.480	-0.166	-0.052
-587.909	80.497	-0.115	-0.124
-586.894	164.428	-0.215	-0.303
-585.879	-98.373	-0.304	-0.078
-584.865	176.106	-0.093	-0.136
-583.850	-200.000	-0.004	0.091
-582.836	229.797	0.057	0.093
-581.821	-200.000	0.005	-0.232
-580.806	-134.415	-0.288	0.035
-579.792	-32.239	-0.060	-0.034
-578.777	140.559	0.075	0.099
-577.763	-149.931	-0.090	0.007
-576.748	31.306	-0.075	-0.064
-575.733	-33.696	-0.233	-0.129
-574.719	79.878	-0.025	0.027
-573.704	-200.000	-0.004	0.049
-572.690	-200.000	0.027	-0.175
-571.675	69.290	-0.126	-0.130
-570.661	-152.792	-0.225	-0.016
-569.646	2.402	-0.096	0.069
-568.631	-103.038	0.089	-0.021
-567.617	-200.000	0.023	0.175
-566.602	-71.347	0.138	-0.052
-565.588	608.945	0.052	0.130
-564.573	-200.000	-0.017	0.211
-563.558	7.394	-0.197	0.147
-562.544	-112.632	-0.224	0.045
-561.529	-200.000	0.008	0.180
-560.515	-73.686	0.281	-0.102
-559.500	90.045	0.194	0.216
-558.485	-62.413	-0.375	-0.156
-557.471	-162.536	0.174	-0.009
-556.456	-200.000	-0.001	-0.105
-555.442	44.428	-0.169	0.155
-554.427	183.407	-0.051	0.075
-553.412	-200.000	0.016	0.349
-552.398	-21.789	0.213	-0.130
-551.383	41.970	0.329	0.298
-550.369	-59.774	-0.322	-0.138
-549.354	-200.000	0.012	0.207
-548.339	375.394	0.125	-0.254
-547.325	183.300	-0.172	0.254
-546.310	800.000	-0.053	0.191
-545.296	-200.000	-0.041	-0.392
-544.281	800.000	-0.029	-0.094
-543.266	53.972	-0.156	0.150
-542.252	370.229	0.066	0.134
-541.237	-97.802	-0.129	0.033
-540.223	800.000	0.083	0.296
-539.208	-93.445	0.290	0.080
-538.193	800.000	-0.072	-0.291
-537.179	-53.481	0.160	-0.073
-536.164	-46.609	-0.088	0.043
-535.150	217.272	-0.083	-0.131
-534.135	154.596	-0.090	0.124
-533.121	800.000	0.039	0.136
-532.106	-12.660	0.351	0.228
-531.091	150.278	0.135	0.183
-530.077	-81.817	-0.185	0.060
-529.062	-99.388	-0.284	-0.071
-528.048	-161.281	0.293	-0.015
-527.033	-90.419	0.146	0.042
-526.018	-200.000	0.007	0.071
-525.004	-17.562	-0.091	-0.057
-523.989	4.698	0.104	0.076
-522.975	-23.936	-0.193	0.115
-521.960	-200.000	-0.036	0.188
-520.945	-35.241	0.353	-0.192
-519.931	-94.425	0.360	-0.098
-518.916	-200.000	-0.017	-0.229
-517.902	-96.026	-0.048	-0.013
-516.887	800.000	-0.078	0.216
-515.872	158.472	-0.153	0.212
-514.858	-111.346	-0.117	0.024
-513.843	94.492	0.106	-0.120
-512.829	431.932	0.173	0.374
-511.814	39.070	0.285	0.254
-510.799	-200.000	-0.033	-0.175
-509.785	-157.587	-0.240	0.014
-508.770	800.000	0.150	0.439
-507.756	158.132	0.089	0.122
-506.741	192.497	-0.080	-0.120
-505.726	-75.425	-0.258	0.092
-504.712	-126.257	0.251	0.037
-503.697	328.529	-0.111	0.213
-502.683	-179.551	-0.305	-0.007
-501.668	-100.988	0.284	-0.069
-500.653	33.122	-0.215	-0.186
-499.639	800.000	0.041	-0.152
-498.624	-108.292	0.142	-0.031
-497.610	800.000	0.059	0.178
-496.595	154.127	0.191	-0.261
-495.581	264.393	0.093	-0.161
-494.566	686.734	0.144	-0.374
-493.551	800.000	0.069	-0.218
-492.537	186.598	-0.153	-0.227
-491.522	342.433	0.070	0.137
-490.508	-71.941	-0.276	-0.102
-489.493	-149.863	-0.183	-0.014
-488.478	285.972	0.111	-0.199
-487.464	-74.508	0.060	-0.022
-486.449	312.891	0.137	-0.257
-485.435	410.979	0.077	-0.164
-484.420	139.790	-0.110	-0.145
-483.405	140.109	-0.110	-0.144
-482.391	-200.000	0.015	-0.258
-481.376	338.547	0.189	-0.367
-480.362	-9.690	-0.260	-0.172
-479.347	-123.570	-0.112	0.018
-478.332	-97.214	0.233	-0.060
-477.318	-6.004	-0.304	-0.207
-476.303	299.547	-0.101	-0.185
-475.289	83.796	0.122	0.133
-474.274	361.009	-0.121	0.242
-473.259	108.780	0.109	0.130
-472.245	4.238	-0.350	0.255
-471.230	158.035	0.144	0.198
-470.216	548.176	0.050	0.119
-469.201	603.461	0.066	-0.163
-468.186	-200.000	0.007	-0.053
-467.172	-200.000	-0.006	-0.314
-466.157	-62.887	0.261	0.108
-465.143	-124.847	0.175	-0.027
-464.128	368.840	-0.066	0.132
-463.113	340.330	0.018	-0.034
-462.099	271.931	-0.258	0.452
-461.084	54.138	-0.157	0.151
-460.070	-73.461	-0.254	0.092
-459.055	-86.394	-0.116	-0.036
-458.040	-159.057	-0.169	0.010
-457.026	-200.000	0.005	-0.113
-456.011	-120.027	-0.041	-0.007
-454.997	800.000	-0.077	-0.322
-453.982	-200.000	0.010	0.255
-452.968	-143.569	-0.375	0.036
-451.953	800.000	-0.052	0.208
-450.938	-165.037	0.142	-0.006
-449.924	-145.848	-0.309	0.027
-448.909	-200.000	-0.049	-0.244
-447.895	22.302	0.308	-0.251
-446.880	-71.091	-0.102	0.038
-445.865	652.034	0.066	0.167
-444.851	34.716	-0.290	0.252
-443.836	-200.000	-0.020	0.178
-442.822	522.210	0.099	-0.232
-441.807	800.000	0.042	0.124
-440.792	332.943	-0.079	0.153
-439.778	83.646	0.072	0.078
-438.763	-53.694	-0.370	-0.168
-437.749	78.441	-0.055	-0.058
-436.734	-149.176	-0.057	0.005
-435.719	800.000	-0.090	0.258
-434.705	779.782	-0.099	0.270
-433.690	-96.885	0.078	0.020
-432.676	651.395	-0.035	0.089
-431.661	800.000	-0.060	0.173
-430.646	-200.000	0.009	-0.150
-429.632	-151.911	0.201	0.015
-428.617	87.277	0.044	0.048
-427.603	-15.253	0.232	-0.147
-426.588	-57.077	0.116	0.051
-425.573	194.588	0.200	-0.301
-424.559	-130.729	-0.297	0.040
-423.544	-14.858	0.146	0.093
-422.530	-91.423	-0.358	-0.102
-421.515	156.947	-0.064	0.088
-420.500	800.000	-0.042	0.139
-419.486	-200.000	0.026	0.179
-418.471	-200.000	0.018	0.247
-417.457	-70.935	0.122	0.046
-416.442	-8.482	-0.051	0.034
-415.428	270.511	0.192	-0.335
-414.413	-74.812	0.141	0.050
-413.398	-192.394	0.408	-0.004
-412.384	-200.000	0.034	-0.269
-411.369	-139.783	-0.136	0.014
-410.355	38.045	-0.339	0.299
-409.340	623.398	0.076	-0.190
-408.325	-81.491	0.329	-0.107
-407.311	11.260	-0.310	-0.235
-406.296	71.697	-0.300	0.310
-405.282	800.000	0.048	0.155
-404.267	44.643	0.282	-0.258
-403.252	-82.007	0.267	-0.087
-402.238	115.067	0.186	0.225
-401.223	204.941	-0.142	0.220
-400.209	-200.000	0.044	-0.231
-399.194	-15.364	0.078	-0.049
-398.179	-115.881	-0.166	-0.031
-397.165	-57.202	0.204	-0.089
-396.150	-200.000	0.029	0.198
-395.136	-84.968	0.068	0.021
-394.121	-200.000	-0.000	0.076
-393.106	-13.219	0.117	-0.076
-392.092	-139.013	-0.201	0.022
-391.077	112.956	0.178	0.215
-390.063	76.152	0.130	-0.137
-389.048	57.843	0.327	0.318
-388.033	467.103	0.131	0.292
-387.019	800.000	-0.099	0.358
-386.004	-156.605	0.163	-0.010
-384.990	-200.000	-0.022	0.335
-383.975	800.000	0.041	-0.133
-382.960	-182.715	-0.220	-0.004
-381.946	-181.183	-0.155	0.003
-380.931	800.000	0.089	-0.347
-379.917	78.619	0.109	0.115
-378.902	216.363	-0.004	0.007
-377.888	121.917	0.099	0.122
-376.873	-67.389	0.358	-0.139
-375.858	184.404	0.062	-0.091
-374.844	-19.003	0.316	-0.195
-373.829	-110.059	0.209	0.043
-372.815	157.668	-0.101	0.139
-371.800	29.429	0.169	0.142
-370.785	179.365	-0.171	0.249
-369.771	11.742	-0.149	-0.114
-368.756	-122.898	-0.440	-0.070
-367.742	-200.000	-0.014	0.258
-366.727	727.302	-0.061	0.160
-365.712	583.076	-0.113	0.274
-364.698	-200.000	-0.001	0.037
-363.683	-25.387	0.240	-0.141
-362.669	-146.667	-0.114	0.010
-361.654	84.481	-0.201	0.218
-360.639	98.755	0.302	0.346
-359.625	65.423	0.113	-0.114
-358.610	-200.000	0.003	-0.063
-357.596	-138.282	0.400	0.044
-356.581	148.197	0.128	0.172
-355.566	800.000	-0.052	-0.184
-354.552	20.120	0.205	-0.164
-353.537	-200.000	0.035	-0.156
-352.523	-20.049	-0.259	-0.158
-351.508	-67.119	0.252	-0.098
-350.493	-200.000	-0.010	-0.103
-349.479	80.161	0.064	0.068
-348.464	-147.244	0.126	-0.011
-347.450	55.181	0.069	0.066
-346.435	390.106	0.163	0.335
-345.420	-200.000	-0.031	0.296
-344.406	-125.699	-0.275	-0.041
-343.391	-42.937	-0.191	0.096
-342.377	-200.000	0.041	-0.187
-341.362	800.000	-0.046	-0.140
-340.348	800.000	0.088	-0.271
-339.333	-60.955	-0.176	-0.074
-338.318	31.198	0.043	-0.037
-337.304	6.123	-0.111	-0.082
-336.289	-188.336	-0.234	-0.003
-335.275	58.447	0.050	0.049
-334.260	800.000	0.136	-0.381
-333.245	-154.756	-0.306	-0.020
-332.231	-62.629	-0.132	-0.054
-331.216	25.351	0.084	-0.069
-330.202	-200.000	-0.020	-0.177
-329.187	228.683	-0.163	-0.262
-328.172	-200.000	0.021	0.174
-327.158	-200.000	0.044	-0.225
-326.143	-200.000	0.042	-0.280
-325.129	392.930	-0.090	-0.185
-324.114	178.293	0.113	0.164
-323.099	228.171	0.116	0.188
-322.085	423.782	-0.193	0.412
-321.070	-94.557	0.240	0.065
-320.056	-61.718	-0.048	-0.020
-319.041	491.935	-0.062	-0.141
-318.026	-118.802	-0.277	-0.048
-317.012	100.831	0.124	-0.142
-315.997	90.536	-0.071	-0.079
-314.983	-200.000	0.022	0.180
-313.968	800.000	0.102	0.320
-312.953	425.146	0.039	-0.083
-311.939	-19.661	-0.510	-0.312
-310.924	115.321	0.224	0.270
-309.910	-28.421	0.083	0.047
-308.895	-132.606	-0.293	0.037
-307.880	35.350	0.057	-0.049
-306.866	3.496	0.181	0.130
-305.851	408.739	0.056	-0.117
-304.837	-200.000	-0.058	0.254
-303.822	39.598	-0.186	-0.165
-302.807	-17.635	0.024	0.015
-301.793	-112.000	0.421	0.084
-300.778	-120.331	-0.316	0.053
-299.764	-66.839	-0.089	0.035
-298.749	-200.000	0.055	0.415
-297.735	-131.181	-0.137	0.018
-296.720	-38.441	0.356	-0.186
-295.705	-115.665	0.159	-0.029
-294.691	-59.771	0.170	0.072
-293.676	-58.518	-0.178	0.076
-292.662	800.000	0.128	-0.541
-291.647	-3.242	0.201	-0.138
-290.632	451.725	-0.141	0.309
-289.618	800.000	0.109	-0.402
-288.603	-110.229	0.095	-0.019
-287.589	-79.937	0.354	-0.117
-286.574	130.810	0.079	0.101
-285.559	-44.882	-0.201	0.099
-284.545	-25.404	0.077	0.045
-283.530	-159.729	-0.111	-0.006
-282.516	-137.828	-0.249	0.028
-281.501	800.000	0.110	-0.386
-280.486	-94.736	-0.098	0.026
-279.472	189.965	0.196	0.291
-278.457	-105.432	-0.206	0.046
-277.443	332.036	-0.053	0.101
-276.428	98.625	0.131	0.149
-275.413	-143.224	0.312	-0.030
-274.399	236.322	-0.075	-0.122
-273.384	-84.417	0.183	-0.057
-272.370	81.274	0.113	-0.121
-271.355	-133.688	0.231	0.029
-270.340	-113.175	0.126	-0.025
-269.326	-166.032	-0.061	0.003
-268.311	17.205	0.247	-0.194
-267.297	-46.419	0.276	-0.134
-266.282	566.972	0.104	-0.249
-265.267	-109.348	-0.203	-0.042
-264.253	450.152	-0.124	0.271
-263.238	604.932	-0.125	-0.307
-262.224	-47.612	0.130	-0.062
-261.209	-200.000	-0.039	0.187
-260.195	-9.754	0.282	-0.186
-259.180	16.516	-0.067	-0.053
-258.165	-59.894	-0.066	0.028
-257.151	221.568	-0.038	0.060
-256.136	53.604	-0.131	-0.124
-255.122	-200.000	0.001	-0.095
-254.107	1.624	-0.062	0.044
-253.092	-46.513	-0.247	-0.120
-252.078	-88.731	0.282	-0.083
-251.063	-64.517	-0.303	0.122
-250.049	-200.000	-0.026	0.142
-249.034	-200.000	-0.015	0.196
-248.019	277.993	0.062	-0.110
-247.005	3.682	0.093	0.067
-245.990	-54.315	0.212	0.095
-244.976	42.789	0.137	-0.123
-243.961	800.000	0.181	0.599
-242.946	-133.467	-0.172	0.021
-241.932	-98.413	-0.141	-0.036
-240.917	800.000	-0.052	0.156
-239.903	225.134	0.169	0.270
-238.888	5.274	0.100	-0.073
-237.873	0.884	-0.351	0.248
-236.859	-46.440	-0.275	0.133
-235.844	334.364	0.115	-0.219
-234.830	14.546	0.073	-0.056
-233.815	587.145	0.078	-0.189
-232.800	-200.000	-0.069	-0.418
-231.786	68.141	-0.147	-0.149
-230.771	-111.131	0.060	0.012
-229.757	-159.243	-0.221	-0.012
-228.742	189.022	0.049	0.072
-227.727	-106.356	0.191	-0.042
-226.713	-200.000	0.004	-0.210
-225.698	-34.221	0.395	-0.214
-224.684	800.000	0.078	-0.328
-223.669	678.109	-0.063	-0.162
-222.655	-180.279	0.139	0.003
-221.640	-161.026	0.179	-0.009
-220.625	-17.483	-0.119	-0.074
-219.611	-141.198	-0.134	0.013
-218.596	800.000	0.014	0.062
-217.582	-193.537	0.270	-0.002
-216.567	189.106	-0.067	0.100
-215.552	-141.170	0.113	-0.011
-214.538	8.590	0.140	-0.104
-213.523	213.865	0.062	-0.097
-212.509	149.884	0.103	-0.137
-211.494	199.216	-0.104	-0.157
-210.479	-200.000	-0.020	-0.149
-209.465	90.865	0.135	0.149
-208.450	-126.505	-0.054	-0.008
-207.436	-200.000	-0.003	0.114
-206.421	265.119	0.012	0.021
-205.406	3.385	-0.139	0.100
-204.392	553.899	0.073	0.173
-203.377	800.000	-0.089	-0.249
-202.363	-38.265	-0.158	-0.082
-201.348	-55.641	0.152	0.067
-200.333	-168.167	-0.131	-0.005
-199.319	29.444	0.074	-0.062
-198.304	-200.000	0.011	0.170
-197.290	64.881	-0.163	0.162
-196.275	216.455	0.206	0.322
-195.260	355.305	-0.085	-0.166
-194.246	-200.000	-0.032	0.391
-193.231	-4.620	0.198	-0.135
-192.217	-34.243	-0.100	-0.054
-191.202	139.849	-0.254	0.330
-190.187	-65.933	-0.164	0.064
-189.173	-101.120	-0.090	0.022
-188.158	-64.179	-0.145	-0.058
-187.144	407.481	-0.112	0.232
-186.129	-69.929	-0.298	0.112
-185.114	129.045	-0.273	-0.342
-184.100	183.726	0.088	0.128
-183.085	85.303	0.109	0.118
-182.071	67.988	0.197	-0.199
-181.056	361.208	-0.066	-0.130
-180.042	-15.084	-0.435	0.274
-179.027	18.196	-0.237	-0.186
-178.012	-7.201	0.169	-0.113
-176.998	234.121	-0.076	-0.123
-175.983	81.693	0.018	0.019
-174.969	-53.820	-0.133	0.060
-173.954	-61.845	0.220	-0.090
-172.939	-121.095	-0.102	-0.017
-171.925	9.679	-0.107	0.080
-170.910	-12.526	-0.270	-0.173
-169.896	-200.000	-0.011	-0.054
-168.881	-200.000	0.034	-0.214
-167.866	180.292	0.082	0.119
-166.852	-165.529	-0.223	0.010
-165.837	-29.551	0.082	-0.046
-164.823	-10.507	-0.489	-0.319
-163.808	-76.515	-0.272	0.094
-162.793	84.443	-0.044	-0.048
-161.779	133.376	0.075	0.096
-160.764	-135.324	-0.342	0.040
-159.750	355.378	0.099	-0.194
-158.735	-200.000	0.029	0.137
-157.720	-200.000	0.007	0.056
-156.706	125.497	0.237	0.294
-155.691	800.000	-0.041	-0.130
-154.677	-200.000	0.030	-0.319
-153.662	-177.095	-0.294	-0.007
-152.647	-80.523	0.263	-0.086
-151.633	800.000	0.047	-0.143
-150.618	-76.849	0.082	0.028
-149.604	153.163	-0.064	-0.087
-148.589	800.000	0.026	0.081
-147.574	56.515	0.034	0.032
-146.560	56.138	0.116	0.111
-145.545	66.575	0.201	-0.201
-144.531	398.755	0.075	-0.154
-143.516	70.219	0.181	-0.184
-142.502	-95.989	-0.201	-0.053
-141.487	-147.919	-0.113	0.009
-140.472	-119.076	-0.117	-0.020
-139.458	-49.014	-0.305	0.143
-138.443	-69.855	-0.397	-0.149
-137.429	-31.838	-0.048	0.026
-136.414	-200.000	0.009	0.045
-135.399	12.203	-0.202	0.153
-134.385	518.892	-0.097	-0.222
-133.370	264.903	-0.038	0.064
-132.356	-111.591	0.188	-0.037
-131.341	-48.704	-0.088	-0.041
-130.326	-200.000	-0.058	0.298
-129.312	-91.913	-0.136	0.038
-128.297	-105.965	0.221	-0.049
-127.283	-119.775	-0.485	-0.082
-126.268	0.766	-0.313	-0.220
-125.253	14.028	-0.433	-0.331
-124.239	79.138	0.066	0.070
-123.224	-45.398	-0.109	0.053
-122.210	184.845	0.074	0.107
-121.195	79.549	-0.093	0.098
