DTS Sentinel unit serial number:	SN413079Multiplexer serial number:	ORYXHardware model number:	OX4-SRSoftware version number:	ORYX F/W v4.00 Oryx Data Collector v3.7.2.0data status	okinstallation	princeton_trtdifferential loss correction	single-endedforward channel	channel 3reverse channel	N/Adate	2019/09/14time	23:08:34forward acquisition time	60.00reverse acquisition time	0.00gamma	496.2192k internal	0.2319k external	0.2319temperature offset calibration	0.9989default loss term (dB/km)	0.3790temperature slope calibration	1.0000multiplexer offset coefficient	1.0000multiplexer slope coefficient	1.0000fibre end	0.00T internal ref (°C)	32.42T ext. ref 1 (°C)	4.69T ext. ref 2 (°C)	27.40length (m)	temperature (°C)	Stokes	anti-Stokes-747.200	-83.338	-0.257	0.083
-746.185	-200.000	0.031	0.241
-745.171	-200.000	-0.026	0.118
-744.156	800.000	-0.046	-0.143
-743.142	220.005	-0.181	-0.294
-742.127	-200.000	0.018	-0.287
-741.112	-15.180	-0.122	-0.079
-740.098	586.599	-0.169	0.419
-739.083	-2.735	-0.201	0.142
-738.069	-134.942	0.105	-0.013
-737.054	-70.001	-0.022	-0.008
-736.039	-40.761	-0.463	0.243
-735.025	-77.511	-0.167	0.059
-734.010	-4.736	-0.152	0.106
-732.996	-7.102	0.120	0.082
-731.981	800.000	-0.106	0.384
-730.966	40.319	-0.338	0.308
-729.952	643.840	-0.041	0.107
-728.937	-92.419	-0.333	0.095
-727.923	-186.349	0.333	0.005
-726.908	-68.728	-0.335	-0.131
-725.894	119.180	0.209	-0.261
-724.879	-134.191	-0.387	-0.048
-723.864	-200.000	0.053	0.355
-722.850	58.314	0.270	0.268
-721.835	-130.601	-0.233	-0.032
-720.821	800.000	0.057	0.199
-719.806	242.605	-0.219	0.371
-718.791	687.047	0.054	0.144
-717.777	-200.000	-0.015	-0.144
-716.762	-200.000	0.058	-0.473
-715.748	-125.121	-0.153	0.024
-714.733	800.000	-0.073	-0.239
-713.718	800.000	-0.103	-0.345
-712.704	164.144	-0.139	-0.198
-711.689	51.839	0.135	-0.130
-710.675	-200.000	-0.031	-0.500
-709.660	-200.000	-0.043	-0.208
-708.645	-200.000	-0.029	0.188
-707.631	281.776	-0.095	0.172
-706.616	579.117	-0.083	-0.205
-705.602	3.554	0.079	0.058
-704.587	114.061	-0.184	-0.226
-703.572	-40.142	-0.172	-0.091
-702.558	-200.000	0.033	0.185
-701.543	-48.941	0.427	0.207
-700.529	81.882	0.126	-0.138
-699.514	-200.000	0.076	-0.628
-698.499	-128.451	-0.121	-0.017
-697.485	-200.000	-0.008	-0.229
-696.470	-53.855	-0.241	0.111
-695.456	-200.000	0.268	0.001
-694.441	-52.652	0.243	-0.113
-693.426	-200.000	-0.005	-0.232
-692.412	-200.000	0.009	-0.213
-691.397	237.395	-0.170	-0.285
-690.383	-200.000	-0.011	0.115
-689.368	-119.634	0.186	0.032
-688.354	800.000	-0.028	-0.097
-687.339	95.187	-0.088	-0.101
-686.324	-32.825	-0.308	-0.173
-685.310	800.000	0.032	-0.140
-684.295	800.000	0.108	0.421
-683.281	-176.129	-0.319	-0.008
-682.266	800.000	0.075	0.248
-681.251	491.052	0.130	-0.299
-680.237	32.416	0.136	0.119
-679.222	-52.224	-0.229	-0.107
-678.208	-27.921	0.160	0.094
-677.193	88.378	-0.177	0.199
-676.178	-200.000	-0.005	0.194
-675.164	202.276	0.086	0.134
-674.149	-105.852	0.143	0.033
-673.135	-3.960	-0.334	0.234
-672.120	83.567	-0.248	-0.273
-671.105	-57.207	0.454	0.202
-670.091	87.247	-0.257	-0.287
-669.076	-200.000	-0.041	-0.221
-668.062	-200.000	-0.006	-0.064
-667.047	425.454	0.118	0.257
-666.032	800.000	0.077	0.334
-665.018	-43.733	-0.144	-0.073
-664.003	800.000	0.124	-0.375
-662.989	-200.000	0.017	-0.318
-661.974	-1.282	-0.097	0.069
-660.959	-29.904	-0.244	0.140
-659.945	-200.000	0.016	0.112
-658.930	184.550	-0.134	0.200
-657.916	-79.467	-0.282	-0.096
-656.901	13.984	0.227	-0.178
-655.886	-162.532	-0.068	0.003
-654.872	146.970	-0.099	-0.134
-653.857	33.420	-0.027	0.024
-652.843	-200.000	0.015	-0.189
-651.828	-9.273	0.160	-0.108
-650.814	72.131	-0.096	0.101
-649.799	-51.088	-0.239	0.113
-648.784	-20.192	-0.189	0.117
-647.770	37.743	0.163	0.146
-646.755	800.000	-0.058	-0.168
-645.741	576.394	0.075	-0.184
-644.726	-101.010	0.204	-0.050
-643.711	-116.191	0.305	-0.057
-642.697	114.937	-0.072	0.089
-641.682	-92.029	0.149	0.042
-640.668	-88.120	-0.059	0.018
-639.653	130.651	-0.077	0.100
-638.638	-200.000	-0.012	0.241
-637.624	-23.137	-0.260	0.157
-636.609	140.723	-0.227	-0.302
-635.595	-172.337	0.094	-0.003
-634.580	113.564	0.091	-0.111
-633.565	-86.594	-0.133	-0.041
-632.551	-139.928	-0.349	-0.037
-631.536	304.496	-0.105	-0.196
-630.522	-96.540	0.251	-0.067
-629.507	-200.000	-0.009	-0.047
-628.492	-50.114	-0.075	0.036
-627.478	-118.877	-0.214	-0.038
-626.463	-188.539	0.169	-0.002
-625.449	119.710	-0.058	0.072
-624.434	-200.000	-0.052	-0.430
-623.419	95.429	-0.167	-0.192
-622.405	-200.000	0.004	0.087
-621.390	-115.844	-0.183	0.035
-620.376	15.802	0.296	0.234
-619.361	253.735	0.105	-0.181
-618.346	38.770	-0.174	0.157
-617.332	800.000	-0.024	-0.077
-616.317	-110.415	-0.069	0.014
-615.303	800.000	0.073	0.272
-614.288	-17.267	0.175	-0.111
-613.273	-101.492	0.141	-0.035
-612.259	236.812	0.090	0.150
-611.244	-94.646	-0.436	0.119
-610.230	800.000	-0.019	-0.064
-609.215	201.217	0.052	-0.081
-608.201	-138.158	-0.214	0.024
-607.186	497.355	0.042	0.098
-606.171	-200.000	-0.039	0.171
-605.157	800.000	0.055	-0.193
-604.142	146.276	0.033	-0.045
-603.128	139.894	-0.208	0.275
-602.113	387.370	-0.173	-0.359
-601.098	-200.000	-0.033	0.151
-600.084	-121.240	-0.080	-0.013
-599.069	212.877	0.159	-0.253
-598.055	-146.347	0.243	-0.021
-597.040	88.810	-0.169	-0.189
-596.025	-200.000	0.072	-0.326
-595.011	-193.053	-0.242	0.002
-593.996	-165.265	-0.212	-0.009
-592.982	-135.432	-0.171	0.021
-591.967	228.988	0.293	-0.481
-590.952	-92.360	-0.134	-0.038
-589.938	6.864	-0.178	-0.133
-588.923	-142.916	-0.107	0.010
-587.909	-200.000	-0.011	-0.072
-586.894	70.493	-0.273	-0.284
-585.879	-125.894	0.293	0.044
-584.865	139.163	-0.093	-0.123
-583.850	-200.000	0.000	0.068
-582.836	180.384	-0.125	0.185
-581.821	215.138	0.037	-0.058
-580.806	-187.790	0.410	-0.005
-579.792	357.855	-0.154	0.309
-578.777	748.915	0.056	0.151
-577.763	4.664	0.137	-0.101
-576.748	800.000	-0.028	-0.090
-575.733	-118.030	0.096	0.017
-574.719	-29.404	0.171	0.098
-573.704	-200.000	0.003	0.256
-572.690	-62.575	-0.066	-0.027
-571.675	-87.641	-0.106	0.032
-570.661	-200.000	0.009	0.079
-569.646	25.258	0.078	0.065
-568.631	-0.415	0.116	0.083
-567.617	-144.765	0.327	0.030
-566.602	-200.000	0.033	-0.236
-565.588	1.196	-0.244	0.176
-564.573	-200.000	0.038	-0.190
-563.558	-42.129	-0.155	-0.080
-562.544	182.054	-0.252	-0.372
-561.529	278.715	0.018	0.033
-560.515	800.000	-0.047	0.163
-559.500	-86.933	-0.268	-0.082
-558.485	18.699	-0.309	-0.248
-557.471	412.182	0.065	-0.139
-556.456	110.185	0.011	-0.014
-555.442	-200.000	-0.009	0.106
-554.427	15.656	-0.169	0.133
-553.412	-156.129	-0.297	0.019
-552.398	789.099	-0.062	0.172
-551.383	211.366	-0.185	0.293
-550.369	-81.091	-0.339	0.113
-549.354	-113.511	-0.127	0.025
-548.339	-47.425	0.198	0.097
-547.325	-200.000	-0.023	0.424
-546.310	-115.402	-0.029	-0.006
-545.296	-116.930	-0.039	-0.007
-544.281	-119.114	-0.145	0.025
-543.266	-200.000	-0.039	-0.199
-542.252	-63.659	-0.156	-0.064
-541.237	-200.000	-0.019	0.132
-540.223	6.153	0.112	-0.083
-539.208	-143.467	0.424	-0.041
-538.193	42.037	-0.146	0.133
-537.179	-168.695	0.377	0.014
-536.164	-200.000	-0.003	-0.118
-535.150	705.781	-0.143	-0.380
-534.135	-200.000	-0.078	-0.356
-533.121	449.399	0.014	0.031
-532.106	800.000	0.084	0.264
-531.091	-40.433	-0.489	-0.255
-530.077	-200.000	0.046	0.276
-529.062	-126.410	-0.503	-0.075
-528.048	-92.296	0.106	0.030
-527.033	107.755	0.168	0.201
-526.018	-200.000	0.041	0.183
-525.004	-35.406	-0.113	0.062
-523.989	45.408	-0.165	0.152
-522.975	154.635	0.182	0.251
-521.960	-143.571	0.223	-0.021
-520.945	-26.597	0.179	0.105
-519.931	10.139	-0.186	0.142
-518.916	-124.280	0.244	-0.038
-517.902	59.630	-0.284	-0.281
-516.887	402.732	0.136	-0.287
-515.872	-86.168	0.200	0.062
-514.858	-61.591	0.171	0.072
-513.843	-200.000	0.033	-0.234
-512.829	511.597	-0.102	-0.238
-511.814	-22.711	-0.179	-0.108
-510.799	-56.299	0.115	0.051
-509.785	-107.958	-0.200	-0.044
-508.770	34.757	0.270	0.236
-507.756	-147.482	-0.281	0.024
-506.741	-94.561	0.295	0.080
-505.726	-200.000	0.003	0.339
-504.712	375.775	0.098	0.201
-503.697	125.420	0.053	-0.067
-502.683	552.552	-0.096	-0.232
-501.668	-20.519	0.282	0.174
-500.653	-120.485	0.050	-0.008
-499.639	-32.922	0.281	-0.156
-498.624	-52.960	-0.206	0.095
-497.610	69.804	0.254	-0.263
-496.595	-113.302	0.225	0.044
-495.581	-200.000	0.008	0.182
-494.566	-17.907	0.123	-0.077
-493.551	208.825	-0.152	0.238
-492.537	-98.431	-0.174	-0.045
-491.522	-200.000	0.030	0.297
-490.508	-136.356	0.373	-0.043
-489.493	-48.353	-0.218	0.105
-488.478	7.228	-0.115	-0.086
-487.464	-200.000	0.021	-0.098
-486.449	135.709	0.118	0.154
-485.435	-85.703	0.195	0.061
-484.420	19.699	-0.182	-0.147
-483.405	166.713	0.122	-0.173
-482.391	800.000	0.128	-0.448
-481.376	-162.292	0.222	0.011
-480.362	-89.125	-0.146	0.043
-479.347	139.794	-0.195	0.258
-478.332	251.300	-0.019	-0.033
-477.318	174.333	-0.093	-0.134
-476.303	-40.542	-0.181	0.094
-475.289	7.621	0.249	-0.187
-474.274	37.442	-0.114	-0.101
-473.259	302.108	-0.165	0.306
-472.245	-200.000	-0.016	-0.121
-471.230	-200.000	-0.041	-0.421
-470.216	265.624	-0.129	-0.224
-469.201	108.980	-0.125	0.149
-468.186	38.546	-0.154	-0.137
-467.172	-142.674	-0.192	0.019
-466.157	231.129	-0.037	-0.061
-465.143	237.604	-0.197	-0.326
-464.128	-200.000	-0.056	-0.305
-463.113	-50.901	0.056	0.026
-462.099	-63.824	0.180	0.074
-461.084	-55.785	0.421	-0.188
-460.070	-48.491	-0.221	0.106
-459.055	-198.502	0.218	-0.001
-458.040	-200.000	-0.006	0.134
-457.026	340.964	0.100	-0.195
-456.011	800.000	-0.079	0.234
-454.997	721.702	0.039	0.103
-453.982	800.000	-0.097	0.353
-452.968	-180.013	-0.493	0.010
-451.953	-200.000	0.045	-0.200
-450.938	518.200	0.084	0.198
-449.924	-167.552	0.406	-0.016
-448.909	576.030	-0.033	-0.081
-447.895	373.778	-0.048	0.098
-446.880	82.722	0.332	-0.360
-445.865	800.000	0.124	-0.446
-444.851	18.026	-0.057	0.045
-443.836	-18.751	0.300	0.187
-442.822	-77.638	-0.299	0.104
-441.807	-78.595	0.116	0.040
-440.792	800.000	-0.090	-0.269
-439.778	260.856	-0.063	0.110
-438.763	-38.227	-0.115	-0.061
-437.749	107.880	0.087	0.104
-436.734	-80.164	0.283	-0.095
-435.719	-200.000	0.003	-0.018
-434.705	-200.000	0.002	0.440
-433.690	-200.000	0.033	-0.222
-432.676	-200.000	0.006	-0.263
-431.661	306.597	-0.045	-0.084
-430.646	83.576	-0.088	-0.096
-429.632	800.000	-0.040	-0.165
-428.617	-20.879	0.382	0.234
-427.603	183.009	0.061	0.090
-426.588	-85.916	0.100	-0.031
-425.573	36.600	0.139	0.123
-424.559	-200.000	-0.011	0.453
-423.544	345.193	-0.182	0.358
-422.530	-200.000	0.022	0.116
-421.515	-119.502	-0.113	0.020
-420.500	457.518	0.120	-0.267
-419.486	156.273	0.170	0.234
-418.471	800.000	0.011	0.041
-417.457	14.730	-0.197	0.154
-416.442	280.185	0.174	-0.310
-415.428	161.404	0.086	0.121
-414.413	-127.143	-0.240	0.035
-413.398	-188.145	0.032	0.000
-412.384	-10.067	-0.120	0.079
-411.369	800.000	0.053	-0.228
-410.355	18.810	0.121	0.097
-409.340	56.665	-0.197	-0.191
-408.325	800.000	-0.093	-0.341
-407.311	-200.000	-0.055	0.291
-406.296	313.439	-0.063	-0.118
-405.282	217.523	-0.166	-0.264
-404.267	534.965	-0.082	-0.195
-403.252	110.134	-0.099	-0.119
-402.238	-63.373	-0.059	-0.024
-401.223	-115.837	0.411	0.077
-400.209	-50.503	-0.024	-0.011
-399.194	-200.000	-0.013	-0.124
-398.179	800.000	-0.052	-0.189
-397.165	-30.154	0.230	-0.131
-396.150	114.972	0.090	-0.109
-395.136	-76.025	0.028	0.010
-394.121	-63.779	-0.105	0.043
-393.106	55.156	0.090	0.087
-392.092	800.000	-0.072	0.254
-391.077	-152.821	-0.242	-0.017
-390.063	325.335	-0.268	-0.511
-389.048	-48.754	-0.300	-0.144
-388.033	33.360	-0.112	0.097
-387.019	-200.000	-0.019	-0.162
-386.004	-139.924	-0.315	0.033
-384.990	633.977	-0.068	0.172
-383.975	-77.634	-0.069	0.024
-382.960	-43.289	0.291	0.147
-381.946	-84.529	-0.152	0.048
-380.931	112.994	0.015	-0.018
-379.917	309.060	0.109	-0.203
-378.902	800.000	0.053	0.185
-377.888	800.000	0.040	0.168
-376.873	-200.000	-0.025	0.125
-375.858	139.067	0.071	0.093
-374.844	-200.000	-0.012	0.253
-373.829	-200.000	-0.001	0.149
-372.815	-23.799	0.300	-0.179
-371.800	800.000	-0.039	0.127
-370.785	535.066	0.105	-0.249
-369.771	102.035	0.367	0.427
-368.756	143.817	-0.111	-0.147
-367.742	-200.000	-0.024	0.260
-366.727	433.635	-0.064	0.139
-365.712	-167.126	0.170	-0.007
-364.698	-200.000	0.036	0.383
-363.683	169.146	-0.174	-0.247
-362.669	-200.000	0.003	0.119
-361.654	800.000	0.041	-0.119
-360.639	-37.929	0.148	0.079
-359.625	-200.000	0.031	-0.146
-358.610	112.287	0.044	-0.053
-357.596	265.416	0.119	0.206
-356.581	-87.884	0.376	-0.113
-355.566	-67.362	-0.250	-0.098
-354.552	-200.000	0.039	0.176
-353.537	84.038	0.195	0.212
-352.523	206.662	-0.105	-0.162
-351.508	603.685	0.099	0.245
-350.493	32.594	0.082	-0.071
-349.479	-40.077	-0.102	-0.053
-348.464	-200.000	0.009	0.041
-347.450	-200.000	-0.035	-0.180
-346.435	-113.621	0.312	0.061
-345.420	-136.950	0.129	0.015
-344.406	-124.447	0.113	0.017
-343.391	800.000	-0.122	-0.372
-342.377	179.992	0.144	-0.210
-341.362	-200.000	0.017	-0.104
-340.348	-200.000	-0.011	0.133
-339.333	-116.536	0.399	-0.073
-338.318	-40.957	-0.375	0.193
-337.304	-200.000	-0.029	0.280
-336.289	-29.037	-0.230	0.132
-335.275	345.545	-0.087	0.171
-334.260	113.884	-0.068	0.082
-333.245	417.205	-0.104	-0.220
-332.231	552.474	0.046	0.111
-331.216	-70.801	0.143	0.054
-330.202	-6.825	-0.063	0.043
-329.187	606.250	-0.095	0.237
-328.172	-119.679	-0.276	0.047
-327.158	105.993	-0.234	-0.276
-326.143	67.527	-0.233	-0.237
-325.129	-200.000	-0.023	-0.131
-324.114	435.265	0.002	-0.005
-323.099	-200.000	-0.013	0.371
-322.085	-75.795	0.110	-0.039
-321.070	-16.412	-0.102	-0.064
-320.056	-82.621	-0.370	-0.119
-319.041	449.041	-0.265	0.582
-318.026	-9.230	0.151	-0.101
-317.012	-143.971	0.266	0.025
-315.997	-200.000	0.003	0.350
-314.983	351.995	0.152	0.299
-313.968	775.039	-0.154	-0.419
-312.953	800.000	0.043	0.147
-311.939	-85.191	0.116	-0.036
-310.924	800.000	0.067	-0.241
-309.910	-93.166	-0.187	-0.052
-308.895	582.937	0.062	0.151
-307.880	-200.000	-0.012	0.079
-306.866	141.614	0.098	-0.129
-305.851	-91.884	0.128	0.036
-304.837	-150.437	0.092	-0.007
-303.822	-47.465	0.227	-0.110
-302.807	-24.990	0.327	-0.193
-301.793	-51.719	-0.142	-0.066
-300.778	-54.149	-0.195	-0.088
-299.764	-66.418	-0.423	-0.167
-298.749	-200.000	0.056	-0.284
-297.735	800.000	-0.116	-0.332
-296.720	105.922	0.113	0.133
-295.705	396.074	-0.173	0.358
-294.691	-3.207	0.123	0.085
-293.676	-116.220	-0.241	-0.044
-292.662	544.957	0.138	-0.327
-291.647	7.359	0.134	-0.099
-290.632	-125.967	-0.188	0.028
-289.618	303.760	-0.099	0.183
-288.603	147.950	-0.238	0.319
-287.589	-200.000	0.041	0.338
-286.574	-200.000	-0.027	0.138
-285.559	54.950	-0.178	-0.170
-284.545	-48.908	-0.050	0.024
-283.530	621.959	0.104	0.261
-282.516	-84.942	-0.422	0.131
-281.501	-82.861	0.074	-0.024
-280.486	-200.000	-0.035	0.481
-279.472	-19.345	0.225	-0.139
-278.457	800.000	0.047	0.153
-277.443	-138.305	0.092	0.010
-276.428	800.000	0.034	0.121
-275.413	30.459	-0.272	0.231
-274.399	208.797	-0.229	0.356
-273.384	-118.581	0.026	0.005
-272.370	800.000	0.029	0.100
-271.355	-1.224	0.052	0.036
-270.340	145.678	0.168	0.224
-269.326	31.338	0.021	0.018
-268.311	-74.478	0.235	0.084
-267.297	-10.896	0.031	-0.021
-266.282	-200.000	0.033	0.293
-265.267	53.091	0.145	0.138
-264.253	203.150	0.111	0.170
-263.238	347.421	-0.155	0.303
-262.224	137.003	0.069	-0.089
-261.209	57.586	0.057	0.056
-260.195	-200.000	-0.025	0.116
-259.180	162.313	-0.061	0.085
-258.165	4.022	0.360	0.261
-257.151	240.645	0.124	-0.205
-256.136	-83.135	0.292	-0.093
-255.122	800.000	-0.010	-0.031
-254.107	45.425	0.228	-0.209
-253.092	-200.000	-0.029	-0.136
-252.078	-200.000	0.026	-0.136
-251.063	81.641	-0.138	-0.148
-250.049	-177.511	-0.377	0.009
-249.034	716.541	0.033	-0.088
-248.019	-200.000	0.104	-0.454
-247.005	-89.868	0.296	-0.086
-245.990	319.461	-0.131	0.247
-244.976	-96.943	-0.078	-0.020
-243.961	-89.948	0.118	-0.034
-242.946	-200.000	-0.008	0.200
-241.932	259.715	0.062	0.107
-240.917	-200.000	0.046	-0.205
-239.903	-29.342	0.108	-0.061
-238.888	-100.784	-0.153	-0.037
-237.873	-200.000	0.000	-0.023
-236.859	63.505	0.077	0.077
-235.844	-99.795	0.384	0.095
-234.830	9.261	0.271	0.203
-233.815	-1.116	0.160	-0.112
-232.800	-9.450	-0.141	-0.093
-231.786	333.022	-0.025	0.047
-230.771	800.000	-0.121	-0.342
-229.757	-183.527	0.292	0.005
-228.742	800.000	0.015	0.062
-227.727	-200.000	-0.058	-0.269
-226.713	800.000	-0.022	-0.086
-225.698	-62.783	-0.050	0.020
-224.684	-200.000	0.031	0.197
-223.669	18.404	0.111	-0.088
-222.655	214.456	0.174	-0.273
-221.640	794.927	0.083	-0.227
-220.625	800.000	-0.053	0.152
-219.611	511.006	0.061	-0.140
-218.596	288.949	-0.057	-0.102
-217.582	-28.011	0.338	0.194
-216.567	138.030	-0.114	-0.148
-215.552	-6.544	0.097	0.065
-214.538	-200.000	0.035	0.216
-213.523	5.997	-0.128	-0.094
-212.509	-73.215	-0.167	0.060
-211.494	-73.132	0.295	0.107
-210.479	-86.932	0.196	-0.059
-209.465	125.987	0.236	-0.295
-208.450	-61.788	0.097	-0.040
-207.436	-118.864	-0.272	0.047
-206.421	107.824	-0.071	-0.084
-205.406	-200.000	0.025	0.265
-204.392	-73.430	0.092	0.033
-203.377	76.993	0.322	0.339
-202.363	729.198	-0.130	0.344
-201.348	90.636	-0.115	0.127
-200.333	800.000	0.020	-0.059
-199.319	117.121	-0.120	-0.147
-198.304	698.060	-0.108	0.281
-197.290	286.420	-0.156	-0.278
-196.275	223.968	0.040	0.064
-195.260	-30.099	-0.210	0.118
-194.246	11.462	0.115	0.087
-193.231	-200.000	0.035	-0.274
-192.217	-70.612	0.140	-0.053
-191.202	621.480	-0.116	0.288
-190.187	-200.000	-0.442	0.002
-189.173	632.263	0.070	-0.175
-188.158	-200.000	-0.029	-0.138
-187.144	65.356	0.294	-0.295
-186.129	-168.947	-0.213	-0.008
-185.114	333.465	0.081	0.154
-184.100	-200.000	0.009	0.185
-183.085	800.000	-0.030	-0.082
-182.071	73.531	0.196	-0.203
-181.056	592.203	-0.086	-0.211
-180.042	-35.452	0.064	0.034
-179.027	-200.000	-0.040	-0.258
-178.012	98.082	0.175	-0.199
-176.998	97.001	0.116	0.131
-175.983	800.000	0.022	-0.086
-174.969	-66.638	-0.218	-0.086
-173.954	12.797	-0.074	-0.057
-172.939	-200.000	-0.001	-0.222
-171.925	421.402	0.036	0.076
-170.910	-153.697	0.260	-0.018
-169.896	-110.262	-0.303	-0.062
-168.881	-88.586	0.150	0.044
-167.866	800.000	0.051	0.181
-166.852	737.130	-0.080	0.212
-165.837	-200.000	0.023	0.207
-164.823	-171.069	0.273	0.009
-163.808	11.913	0.197	0.150
-162.793	-200.000	-0.009	0.115
-161.779	-200.000	0.028	-0.417
-160.764	-20.389	-0.398	-0.242
-159.750	800.000	-0.047	0.165
-158.735	47.873	0.291	-0.269
-157.720	-200.000	-0.054	0.267
-156.706	692.771	-0.055	-0.143
-155.691	63.650	-0.121	0.120
-154.677	-28.921	-0.219	-0.124
-153.662	187.573	0.109	-0.161
-152.647	-89.878	-0.066	-0.019
-151.633	125.413	0.158	-0.198
-150.618	-66.569	-0.319	0.125
-149.604	-200.000	0.019	0.309
-148.589	-200.000	-0.034	-0.460
-147.574	-80.494	-0.188	0.062
-146.560	-21.438	0.325	-0.196
-145.545	-39.327	0.339	-0.176
-144.531	796.653	-0.080	-0.218
-143.516	40.507	-0.166	0.148
-142.502	12.072	0.343	0.260
-141.487	59.978	0.056	-0.055
-140.472	-200.000	0.021	-0.159
-139.458	199.551	-0.084	0.128
-138.443	-200.000	-0.002	0.023
-137.429	-82.662	0.429	-0.137
-136.414	135.579	-0.195	0.251
-135.399	792.427	-0.021	0.058
-134.385	11.044	0.265	0.200
-133.370	-102.448	-0.103	0.024
-132.356	31.858	-0.126	0.107
-131.341	800.000	-0.019	-0.065
-130.326	294.420	-0.079	0.143
-129.312	-167.297	-0.187	-0.007
-128.297	666.006	-0.041	0.104
-127.283	-113.065	0.091	0.018
-126.268	54.066	0.137	-0.130
-125.253	204.905	0.047	0.073
-124.239	-56.427	0.264	-0.116
-123.224	-19.086	-0.049	0.030
-122.210	198.271	0.127	0.192
