DTS Sentinel unit serial number:	SN413079Multiplexer serial number:	ORYXHardware model number:	OX4-SRSoftware version number:	ORYX F/W v4.00 Oryx Data Collector v3.7.2.0data status	okinstallation	princeton_trtdifferential loss correction	single-endedforward channel	channel 3reverse channel	N/Adate	2019/09/12time	16:38:11forward acquisition time	60.00reverse acquisition time	0.00gamma	496.2192k internal	0.2307k external	0.2307temperature offset calibration	1.0083default loss term (dB/km)	0.3790temperature slope calibration	1.0000multiplexer offset coefficient	1.0000multiplexer slope coefficient	1.0000fibre end	0.00T internal ref (°C)	36.86T ext. ref 1 (°C)	2.70T ext. ref 2 (°C)	29.64length (m)	temperature (°C)	Stokes	anti-Stokes-747.200	-156.735	0.180	0.011
-746.185	374.237	-0.152	0.315
-745.171	800.000	0.049	0.161
-744.156	-106.857	-0.162	-0.037
-743.142	-112.005	-0.314	0.064
-742.127	98.090	-0.117	0.137
-741.112	-200.000	0.017	-0.155
-740.098	501.831	-0.125	0.293
-739.083	800.000	-0.026	0.086
-738.069	45.886	0.159	0.150
-737.054	-57.094	-0.149	0.067
-736.039	-155.239	-0.344	-0.023
-735.025	-109.631	0.201	-0.043
-734.010	330.424	0.121	-0.238
-732.996	-200.000	-0.010	-0.096
-731.981	142.465	-0.142	-0.192
-730.966	800.000	0.146	-0.494
-729.952	-61.462	-0.261	0.112
-728.937	150.582	0.226	0.312
-727.923	129.363	-0.037	0.048
-726.908	459.171	0.024	-0.054
-725.894	100.213	-0.045	-0.053
-724.879	800.000	0.084	-0.283
-723.864	-200.000	0.048	-0.290
-722.850	-99.519	-0.477	0.122
-721.835	-31.839	-0.275	-0.157
-720.821	717.156	-0.101	0.272
-719.806	800.000	0.043	-0.165
-718.791	-49.710	-0.115	0.056
-717.777	133.717	-0.173	-0.227
-716.762	-106.104	0.054	0.012
-715.748	444.910	-0.141	-0.314
-714.733	534.976	-0.091	-0.220
-713.718	-172.764	0.207	0.007
-712.704	326.975	0.073	-0.142
-711.689	-20.399	0.089	-0.056
-710.675	-200.000	0.020	-0.146
-709.660	60.552	-0.191	-0.192
-708.645	-200.000	0.010	-0.210
-707.631	-4.724	-0.236	0.165
-706.616	736.526	-0.024	-0.065
-705.602	-123.177	0.490	0.080
-704.587	30.987	-0.010	-0.009
-703.572	-122.910	-0.217	0.036
-702.558	105.510	-0.113	-0.136
-701.543	244.300	-0.044	0.076
-700.529	197.231	0.091	0.140
-699.514	115.250	-0.120	0.149
-698.499	360.431	-0.107	-0.218
-697.485	-45.209	-0.202	0.102
-696.470	-116.607	-0.417	-0.078
-695.456	-93.331	0.195	0.055
-694.441	49.585	0.150	-0.143
-693.426	-200.000	-0.042	-0.260
-692.412	-45.852	0.077	-0.038
-691.397	299.945	0.065	0.122
-690.383	-200.000	-0.028	-0.211
-689.368	308.911	-0.164	-0.311
-688.354	-60.880	-0.127	0.055
-687.339	-121.041	-0.132	0.022
-686.324	-26.865	0.189	-0.112
-685.310	-3.569	-0.145	-0.102
-684.295	-21.991	-0.083	-0.051
-683.281	92.097	-0.323	-0.369
-682.266	-115.297	-0.156	-0.030
-681.251	-164.037	0.354	0.017
-680.237	800.000	0.106	0.298
-679.222	800.000	0.065	-0.248
-678.208	-105.787	-0.148	0.034
-677.193	50.065	-0.130	-0.124
-676.178	-156.938	0.140	-0.009
-675.164	-140.814	-0.247	0.026
-674.149	-89.399	0.162	-0.048
-673.135	-120.037	-0.153	-0.027
-672.120	107.171	-0.081	-0.098
-671.105	175.968	-0.184	-0.270
-670.091	-76.738	-0.151	0.054
-669.076	666.345	-0.091	-0.237
-668.062	-200.000	0.070	-0.358
-667.047	-86.765	0.177	-0.055
-666.032	800.000	-0.032	0.115
-665.018	144.171	0.116	0.157
-664.003	-108.398	-0.282	-0.062
-662.989	303.476	0.072	0.135
-661.974	-176.558	0.234	0.006
-660.959	-1.921	0.103	0.073
-659.945	-45.006	-0.146	-0.074
-658.930	436.363	-0.116	-0.256
-657.916	-200.000	0.018	-0.155
-656.901	390.708	-0.049	-0.102
-655.886	347.571	0.029	0.059
-654.872	-200.000	-0.024	0.162
-653.857	140.162	-0.150	0.201
-652.843	215.727	-0.212	0.341
-651.828	800.000	0.042	-0.134
-650.814	250.842	-0.094	-0.161
-649.799	385.718	-0.145	-0.303
-648.784	553.455	-0.121	0.295
-647.770	-200.000	0.037	-0.198
-646.755	-140.982	-0.219	-0.023
-645.741	-116.243	-0.160	-0.030
-644.726	55.372	-0.227	-0.222
-643.711	-200.000	-0.016	-0.253
-642.697	-35.832	0.194	0.106
-641.682	-79.995	-0.338	-0.115
-640.668	-200.000	-0.013	0.174
-639.653	-28.259	0.092	-0.054
-638.638	330.642	0.118	0.230
-637.624	276.700	0.146	-0.263
-636.609	-200.000	0.022	0.112
-635.595	-80.279	-0.230	-0.078
-634.580	14.236	-0.159	-0.126
-633.565	-200.000	-0.026	-0.223
-632.551	-75.623	0.080	-0.029
-631.536	-56.102	-0.262	-0.118
-630.522	-13.919	-0.316	0.207
-629.507	800.000	-0.095	0.287
-628.492	86.966	0.178	0.199
-627.478	-51.184	-0.214	-0.101
-626.463	683.853	0.095	-0.251
-625.449	-121.006	-0.120	-0.020
-624.434	-104.811	0.273	0.064
-623.419	-107.566	0.252	-0.056
-622.405	-94.917	0.311	0.085
-621.390	434.079	0.090	0.197
-620.376	-128.514	0.213	0.031
-619.361	256.603	0.128	0.222
-618.346	222.147	0.059	-0.096
-617.332	26.121	-0.111	-0.093
-616.317	22.241	0.258	0.213
-615.303	-200.000	-0.193	-0.000
-614.288	-113.006	-0.051	0.010
-613.273	-200.000	-0.015	0.159
-612.259	-200.000	0.024	0.110
-611.244	206.764	0.121	0.191
-610.230	-200.000	-0.020	0.129
-609.215	800.000	0.029	0.098
-608.201	16.218	0.173	0.138
-607.186	181.415	-0.106	0.158
-606.171	-172.395	0.223	0.007
-605.157	-200.000	-0.006	0.168
-604.142	800.000	0.099	0.411
-603.128	526.799	-0.048	0.114
-602.113	-1.574	0.264	-0.188
-601.098	-93.848	-0.258	-0.072
-600.084	40.532	0.108	0.098
-599.069	117.812	-0.065	0.081
-598.055	85.668	-0.071	-0.079
-597.040	800.000	0.048	0.139
-596.025	-54.254	0.027	-0.012
-595.011	-27.125	-0.220	0.130
-593.996	-200.000	0.002	-0.215
-592.982	-80.630	0.248	-0.083
-591.967	191.843	-0.132	-0.202
-590.952	127.427	0.186	0.238
-589.938	27.886	-0.310	-0.264
-588.923	196.588	-0.114	0.175
-587.909	-200.000	0.020	0.112
-586.894	588.373	0.025	-0.063
-585.879	118.311	0.103	-0.129
-584.865	-78.677	0.129	-0.044
-583.850	488.590	-0.054	0.125
-582.836	25.818	0.162	0.136
-581.821	800.000	-0.078	-0.323
-580.806	491.791	0.054	-0.125
-579.792	94.197	-0.055	0.063
-578.777	498.777	-0.061	-0.143
-577.763	363.600	0.044	0.089
-576.748	-129.219	0.319	-0.045
-575.733	-17.976	0.035	-0.022
-574.719	223.878	-0.027	-0.044
-573.704	-108.063	0.296	0.065
-572.690	214.867	-0.053	0.085
-571.675	-27.699	0.183	-0.107
-570.661	547.382	-0.130	-0.314
-569.646	-200.000	-0.007	0.151
-568.631	800.000	0.185	0.556
-567.617	800.000	0.038	0.136
-566.602	800.000	-0.006	-0.027
-565.588	-200.000	0.054	0.283
-564.573	-151.647	-0.442	0.033
-563.558	-1.737	0.250	-0.178
-562.544	30.562	0.059	-0.051
-561.529	-200.000	0.027	0.277
-560.515	317.995	0.045	-0.086
-559.500	422.164	0.087	0.189
-558.485	-200.000	-0.004	-0.143
-557.471	55.447	-0.086	-0.084
-556.456	-74.007	-0.080	0.029
-555.442	-200.000	-0.000	0.142
-554.427	95.164	0.109	0.125
-553.412	9.123	-0.106	0.081
-552.398	99.036	0.076	-0.089
-551.383	-52.323	-0.346	-0.162
-550.369	702.882	-0.038	-0.102
-549.354	-200.000	-0.003	-0.133
-548.339	1.182	0.348	0.252
-547.325	241.357	0.116	0.196
-546.310	70.815	0.316	0.330
-545.296	180.042	-0.210	-0.311
-544.281	-200.000	0.018	-0.210
-543.266	479.955	0.027	-0.062
-542.252	800.000	0.087	0.346
-541.237	-140.599	-0.403	-0.042
-540.223	800.000	0.075	-0.228
-539.208	125.562	0.058	-0.074
-538.193	43.359	0.189	-0.174
-537.179	63.152	-0.079	-0.080
-536.164	95.633	-0.129	0.149
-535.150	-94.807	0.226	0.062
-534.135	-46.766	-0.070	-0.035
-533.121	800.000	-0.082	-0.245
-532.106	-45.764	-0.154	0.077
-531.091	-0.358	-0.465	-0.333
-530.077	-69.223	-0.444	0.172
-529.062	390.475	0.155	0.324
-528.048	638.037	-0.137	-0.351
-527.033	-63.857	-0.319	0.131
-526.018	-69.403	-0.115	-0.045
-525.004	192.013	0.092	0.141
-523.989	-200.000	-0.017	0.232
-522.975	238.564	0.067	0.112
-521.960	-99.790	0.606	0.153
-520.945	42.265	-0.287	0.263
-519.931	14.931	0.159	-0.125
-518.916	175.271	-0.056	-0.081
-517.902	530.824	0.184	-0.439
-516.887	-9.576	-0.215	-0.145
-515.872	41.788	0.095	0.087
-514.858	42.469	0.188	-0.172
-513.843	-119.760	0.143	-0.025
-512.829	462.386	-0.029	0.065
-511.814	-200.000	-0.021	0.122
-510.799	-0.386	0.111	0.080
-509.785	227.978	-0.155	0.254
-508.770	-36.178	0.225	-0.122
-507.756	109.287	-0.223	0.269
-506.741	129.708	-0.097	0.125
-505.726	-123.858	-0.160	-0.025
-504.712	147.515	-0.119	-0.162
-503.697	64.758	0.129	-0.131
-502.683	-69.020	0.543	0.211
-501.668	-152.952	-0.067	0.005
-500.653	35.351	0.140	0.124
-499.639	800.000	0.037	-0.104
-498.624	28.282	-0.165	0.140
-497.610	122.093	0.164	0.206
-496.595	579.988	0.085	0.209
-495.581	-46.533	-0.303	0.150
-494.566	4.705	0.101	0.075
-493.551	-47.399	0.402	-0.197
-492.537	-200.000	-0.015	-0.295
-491.522	52.282	0.295	-0.283
-490.508	-4.932	-0.278	-0.193
-489.493	-200.000	0.010	-0.529
-488.478	-200.000	0.020	-0.115
-487.464	283.421	-0.166	-0.301
-486.449	-92.901	0.262	-0.074
-485.435	-102.282	-0.318	0.077
-484.420	-200.000	0.014	-0.164
-483.405	235.024	-0.134	0.223
-482.391	-67.955	0.473	-0.186
-481.376	-73.786	-0.121	0.044
-480.362	-74.342	-0.185	-0.067
-479.347	-102.359	0.095	-0.023
-478.332	-110.766	0.174	0.036
-477.318	-122.490	0.370	-0.061
-476.303	-200.000	0.023	-0.192
-475.289	199.782	-0.137	-0.212
-474.274	-200.000	-0.095	0.476
-473.259	800.000	0.079	-0.258
-472.245	-119.987	-0.277	-0.048
-471.230	404.634	0.092	-0.196
-470.216	520.175	-0.182	-0.430
-469.201	403.513	-0.107	-0.226
-468.186	466.844	0.224	0.505
-467.172	-39.954	-0.088	0.046
-466.157	-61.091	0.239	0.102
-465.143	-200.000	0.015	-0.171
-464.128	163.228	0.013	0.019
-463.113	254.319	-0.067	0.115
-462.099	-200.000	0.011	-0.050
-461.084	4.929	-0.173	0.128
-460.070	-138.002	-0.145	0.016
-459.055	-60.051	-0.303	0.130
-458.040	-143.421	-0.164	-0.016
-457.026	-160.712	-0.339	0.018
-456.011	-113.933	-0.087	0.017
-454.997	-123.612	-0.050	0.008
-453.982	106.637	-0.077	-0.091
-452.968	-46.975	-0.476	-0.234
-451.953	-200.000	0.041	-0.337
-450.938	800.000	-0.048	0.136
-449.924	536.814	-0.207	-0.495
-448.909	-142.658	0.054	-0.005
-447.895	-54.444	-0.216	0.098
-446.880	-49.040	-0.048	0.023
-445.865	302.813	0.104	-0.194
-444.851	800.000	0.028	-0.103
-443.836	-81.796	-0.220	0.073
-442.822	10.158	-0.169	-0.129
-441.807	-46.329	-0.144	-0.071
-440.792	800.000	0.104	-0.331
-439.778	107.366	-0.158	-0.189
-438.763	800.000	0.079	-0.338
-437.749	91.838	0.096	0.108
-436.734	37.686	-0.517	-0.461
-435.719	-154.689	0.323	-0.022
-434.705	800.000	0.060	0.179
-433.690	408.237	-0.048	0.102
-432.676	800.000	-0.058	-0.174
-431.661	-109.129	-0.284	-0.061
-430.646	-10.086	0.286	0.191
-429.632	-56.406	-0.146	0.065
-428.617	-42.792	0.239	-0.122
-427.603	255.911	0.139	0.239
-426.588	-191.133	0.112	-0.001
-425.573	52.640	-0.237	0.227
-424.559	419.128	0.037	0.080
-423.544	182.283	-0.097	0.144
-422.530	-35.388	0.131	0.071
-421.515	-126.591	0.217	0.032
-420.500	-123.558	0.296	0.047
-419.486	-82.594	-0.143	0.047
-418.471	-200.000	0.043	0.389
-417.457	-1.344	-0.157	-0.111
-416.442	-117.928	-0.346	-0.062
-415.428	800.000	0.150	-0.576
-414.413	354.295	-0.096	-0.191
-413.398	-145.147	0.119	0.011
-412.384	-70.910	0.185	0.070
-411.369	-197.010	-0.219	-0.001
-410.355	-130.025	-0.350	0.048
-409.340	-200.000	0.032	0.327
-408.325	203.425	-0.180	-0.280
-407.311	-200.000	-0.003	0.111
-406.296	-3.983	0.173	-0.120
-405.282	-68.992	0.479	-0.185
-404.267	800.000	-0.013	-0.048
-403.252	-43.745	-0.145	0.073
-402.238	588.112	-0.081	-0.200
-401.223	46.413	-0.189	0.176
-400.209	-200.000	-0.253	0.000
-399.194	-119.808	-0.097	0.017
-398.179	-5.459	-0.081	-0.056
-397.165	9.162	-0.141	0.107
-396.150	-15.837	0.210	0.134
-395.136	-74.517	0.061	-0.022
-394.121	171.117	-0.040	-0.058
-393.106	107.099	0.106	0.126
-392.092	-200.000	-0.018	-0.112
-391.077	800.000	0.052	-0.178
-390.063	800.000	-0.103	-0.341
-389.048	44.966	-0.228	-0.210
-388.033	100.384	-0.175	-0.203
-387.019	506.186	0.137	0.318
-386.004	800.000	-0.078	0.333
-384.990	-151.460	-0.333	0.025
-383.975	800.000	-0.046	-0.163
-382.960	800.000	-0.069	-0.223
-381.946	380.850	0.041	-0.085
-380.931	-39.950	0.195	-0.102
-379.917	231.989	0.068	-0.111
-378.902	-133.557	-0.283	-0.036
-377.888	-141.823	0.173	-0.017
-376.873	-1.554	-0.314	0.222
-375.858	244.022	-0.107	0.179
-374.844	-135.667	0.092	-0.011
-373.829	800.000	-0.078	-0.245
-372.815	-200.000	-0.024	0.175
-371.800	800.000	-0.047	0.200
-370.785	-133.608	-0.238	-0.030
-369.771	139.140	-0.202	0.267
-368.756	288.614	-0.025	-0.045
-367.742	-200.000	-0.002	0.362
-366.727	-182.407	-0.245	-0.005
-365.712	8.599	-0.194	-0.146
-364.698	800.000	-0.047	0.143
-363.683	-24.083	0.174	-0.104
-362.669	-70.230	-0.286	0.109
-361.654	-147.581	0.127	0.011
-360.639	21.089	-0.012	0.010
-359.625	109.098	0.051	-0.061
-358.610	-200.000	0.012	0.071
-357.596	5.102	0.244	0.180
-356.581	176.410	-0.169	-0.246
-355.566	-73.708	0.460	0.168
-354.552	-47.957	0.096	-0.046
-353.537	-84.397	-0.576	-0.182
-352.523	307.547	0.095	0.177
-351.508	23.734	0.038	0.032
-350.493	-41.322	0.382	0.197
-349.479	11.193	-0.413	0.317
-348.464	800.000	0.051	0.201
-347.450	47.488	0.094	0.088
-346.435	94.098	-0.234	-0.266
-345.420	76.641	-0.163	-0.174
-344.406	-28.060	0.187	0.108
-343.391	-200.000	-0.414	-0.002
-342.377	-200.000	0.022	-0.232
-341.362	165.753	0.092	-0.130
-340.348	-56.583	0.221	0.098
-339.333	72.189	0.045	0.046
-338.318	-200.000	-0.086	-0.488
-337.304	186.442	-0.089	-0.132
-336.289	55.225	-0.030	0.029
-335.275	-3.243	0.188	-0.131
-334.260	-50.875	-0.028	0.013
-333.245	-21.997	0.194	0.118
-332.231	246.546	-0.042	0.070
-331.216	-85.979	0.213	0.066
-330.202	60.534	0.162	0.160
-329.187	-32.835	-0.199	0.111
-328.172	5.052	0.083	-0.061
-327.158	-77.336	-0.222	-0.077
-326.143	-138.113	0.399	0.044
-325.129	219.269	0.147	-0.236
-324.114	800.000	-0.046	-0.194
-323.099	53.059	0.121	-0.116
-322.085	800.000	-0.073	0.296
-321.070	130.018	-0.175	0.223
-320.056	-134.735	0.136	-0.017
-319.041	-73.492	0.125	0.046
-318.026	-58.649	-0.270	-0.117
-317.012	-137.590	0.308	-0.035
-315.997	56.803	-0.099	-0.096
-314.983	-181.419	-0.296	0.006
-313.968	-51.242	0.318	-0.149
-312.953	-200.000	-0.002	-0.027
-311.939	-200.000	-0.025	0.146
-310.924	684.301	-0.144	0.376
-309.910	110.431	-0.121	-0.146
-308.895	-138.855	0.088	-0.010
-307.880	550.195	-0.149	0.356
-306.866	-200.000	-0.014	-0.275
-305.851	-200.000	0.055	-0.521
-304.837	31.451	-0.088	0.075
-303.822	15.093	-0.093	0.073
-302.807	-56.593	0.131	0.058
-301.793	-6.764	-0.132	0.090
-300.778	-112.746	0.153	-0.030
-299.764	-200.000	-0.015	0.076
-298.749	800.000	0.068	0.190
-297.735	66.621	-0.132	-0.134
-296.720	-200.000	0.038	-0.216
-295.705	-181.680	-0.057	0.001
-294.691	-35.096	0.333	0.181
-293.676	37.333	0.206	0.182
-292.662	-104.667	0.020	0.005
-291.647	166.405	0.196	-0.277
-290.632	-200.000	0.006	0.079
-289.618	69.654	-0.154	0.158
-288.603	-146.904	-0.053	-0.005
-287.589	-70.817	-0.290	-0.109
-286.574	149.670	0.204	0.276
-285.559	754.952	0.173	0.468
-284.545	288.550	-0.179	-0.324
-283.530	142.669	0.143	0.190
-282.516	-37.219	-0.047	0.025
-281.501	170.574	-0.278	-0.398
-280.486	424.259	0.056	-0.120
-279.472	-152.145	-0.396	-0.029
-278.457	-5.126	-0.166	0.114
-277.443	4.819	-0.208	-0.153
-276.428	-95.371	0.189	-0.051
-275.413	800.000	-0.155	-0.501
-274.399	-200.000	0.003	-0.053
-273.384	225.667	-0.056	0.091
-272.370	-76.011	0.412	0.146
-271.355	-48.108	-0.053	-0.026
-270.340	250.241	-0.053	0.091
-269.326	-200.000	-0.040	-0.216
-268.311	77.405	0.205	0.218
-267.297	99.781	0.047	-0.054
-266.282	-153.198	0.135	-0.009
-265.267	-200.000	0.017	-0.176
-264.253	105.968	0.017	-0.020
-263.238	800.000	-0.012	-0.039
-262.224	-183.882	-0.139	-0.002
-261.209	-200.000	-0.039	-0.241
-260.195	31.773	0.302	0.260
-259.180	388.662	-0.076	0.156
-258.165	800.000	-0.045	-0.144
-257.151	353.623	-0.089	0.176
-256.136	-200.000	0.049	0.279
-255.122	800.000	0.198	0.611
-254.107	-123.995	-0.086	-0.013
-253.092	-145.957	0.082	-0.007
-252.078	-138.669	-0.214	-0.023
-251.063	-120.184	-0.314	-0.053
-250.049	311.940	0.166	0.311
-249.034	-164.530	0.099	0.005
-248.019	-92.563	0.196	0.055
-247.005	-50.870	0.184	0.086
-245.990	116.185	-0.072	-0.088
-244.976	467.710	-0.169	-0.378
-243.961	-68.959	-0.153	0.059
-242.946	217.161	-0.038	-0.061
-241.932	-72.664	-0.141	-0.052
-240.917	190.196	0.043	0.064
-239.903	800.000	-0.077	-0.230
-238.888	198.792	0.085	0.129
-237.873	64.575	-0.017	0.017
-236.859	291.130	-0.096	0.175
-235.844	-120.656	-0.115	0.019
-234.830	15.302	0.170	-0.133
-233.815	74.909	-0.222	0.233
-232.800	-200.000	-0.005	-0.036
-231.786	287.235	0.117	0.211
-230.771	-200.000	0.059	-0.272
-229.757	351.572	0.015	0.030
-228.742	-20.021	0.188	-0.115
-227.727	-188.407	-0.211	-0.003
-226.713	73.543	-0.175	0.182
-225.698	-118.735	-0.057	0.010
-224.684	181.043	-0.075	0.110
-223.669	800.000	-0.024	0.092
-222.655	800.000	0.051	-0.158
-221.640	569.064	0.084	0.203
-220.625	12.718	0.280	0.215
-219.611	784.795	-0.053	-0.146
-218.596	254.779	0.090	0.154
-217.582	-150.331	0.544	-0.042
-216.567	-110.972	0.213	-0.044
-215.552	-128.826	-0.416	-0.058
-214.538	-43.041	-0.277	-0.140
-213.523	-54.521	0.137	0.062
-212.509	-200.000	-0.012	-0.220
-211.494	-90.990	0.118	0.034
-210.479	62.645	0.129	0.128
-209.465	44.761	-0.091	0.083
-208.450	800.000	-0.026	-0.085
-207.436	60.171	-0.247	0.243
-206.421	245.561	0.110	0.184
-205.406	-56.677	0.116	-0.051
-204.392	-200.000	0.013	-0.137
-203.377	-50.999	-0.095	-0.045
-202.363	-109.428	0.201	-0.042
-201.348	-66.909	-0.230	-0.090
-200.333	-164.011	-0.216	0.010
-199.319	-85.774	-0.044	0.014
-198.304	16.643	-0.250	0.197
-197.290	341.491	0.115	-0.223
-196.275	-27.558	-0.128	-0.074
-195.260	662.779	0.137	-0.352
-194.246	-34.413	0.296	-0.161
-193.231	-73.575	0.142	-0.052
-192.217	28.722	0.276	-0.233
-191.202	144.038	0.078	-0.103
-190.187	-200.000	-0.012	0.160
-189.173	-200.000	-0.021	0.302
-188.158	68.187	0.082	-0.084
-187.144	-132.578	-0.107	-0.014
-186.129	216.797	0.117	-0.185
-185.114	625.840	0.037	0.093
-184.100	-200.000	0.014	0.080
-183.085	-16.216	-0.199	0.126
-182.071	-56.203	0.036	-0.016
-181.056	-127.586	0.109	0.016
-180.042	-35.094	0.381	0.207
-179.027	800.000	0.006	0.019
-178.012	22.417	0.070	0.057
-176.998	-105.230	0.596	-0.135
-175.983	405.735	-0.224	-0.471
-174.969	129.580	-0.043	-0.054
-173.954	10.152	0.334	-0.252
-172.939	68.252	0.205	0.208
-171.925	-80.159	-0.166	0.055
-170.910	400.075	0.137	0.285
-169.896	-162.630	0.181	-0.009
-168.881	-200.000	-0.009	0.100
-167.866	116.097	-0.023	-0.028
-166.852	-78.390	0.203	0.069
-165.837	-99.826	-0.253	-0.063
-164.823	166.827	0.178	0.251
-163.808	-128.118	0.242	0.034
-162.793	130.929	-0.111	0.141
-161.779	-200.000	0.007	0.271
-160.764	10.323	0.255	-0.193
-159.750	800.000	-0.079	-0.274
-158.735	-7.132	-0.105	0.071
-157.720	-128.189	-0.107	0.015
-156.706	-42.777	0.252	0.127
-155.691	119.904	0.455	0.561
-154.677	-200.000	-0.013	-0.208
-153.662	60.789	-0.054	-0.053
-152.647	-154.085	0.303	-0.020
-151.633	79.174	0.234	0.250
-150.618	206.921	0.048	-0.074
-149.604	-136.256	0.178	-0.021
-148.589	-183.482	-0.249	-0.004
-147.574	-155.729	-0.083	-0.005
-146.560	-70.243	-0.181	-0.068
-145.545	-200.000	-0.169	0.001
-144.531	239.731	0.054	-0.090
-143.516	418.028	0.147	-0.313
-142.502	800.000	0.062	-0.234
-141.487	194.400	0.155	0.234
-140.472	142.866	-0.010	0.014
-139.458	354.971	-0.019	-0.037
-138.443	227.742	0.212	0.343
-137.429	164.313	-0.249	0.349
-136.414	24.570	-0.267	-0.219
-135.399	242.615	0.339	-0.564
-134.385	28.759	0.376	-0.316
-133.370	800.000	-0.074	0.261
-132.356	-113.120	-0.168	-0.033
-131.341	800.000	0.056	0.184
-130.326	87.289	-0.232	0.255
-129.312	-200.000	0.045	0.353
-128.297	-33.478	-0.147	0.081
-127.283	-17.883	-0.282	0.175
-126.268	800.000	-0.103	-0.359
-125.253	256.291	-0.027	-0.046
-124.239	-60.688	-0.188	0.079
-123.224	-96.612	-0.165	0.043
-122.210	396.620	-0.046	-0.095
