DTS Sentinel unit serial number:	SN413079Multiplexer serial number:	ORYXHardware model number:	OX4-SRSoftware version number:	ORYX F/W v4.00 Oryx Data Collector v3.7.2.0data status	okinstallation	princeton_trtdifferential loss correction	single-endedforward channel	channel 3reverse channel	N/Adate	2019/09/17time	05:16:35forward acquisition time	60.00reverse acquisition time	0.00gamma	496.2192k internal	0.2325k external	0.2325temperature offset calibration	0.9942default loss term (dB/km)	0.3790temperature slope calibration	1.0000multiplexer offset coefficient	1.0000multiplexer slope coefficient	1.0000fibre end	0.00T internal ref (°C)	29.37T ext. ref 1 (°C)	0.14T ext. ref 2 (°C)	23.75length (m)	temperature (°C)	Stokes	anti-Stokes-747.200	-200.000	-0.033	0.241
-746.185	-20.994	-0.141	0.087
-745.171	800.000	0.008	0.032
-744.156	-112.536	-0.258	0.052
-743.142	-20.427	0.274	-0.170
-742.127	178.055	-0.263	0.387
-741.112	199.436	-0.048	0.075
-740.098	800.000	0.022	-0.069
-739.083	800.000	0.062	-0.199
-738.069	-99.026	-0.211	0.054
-737.054	-150.136	0.237	-0.019
-736.039	93.493	-0.255	0.291
-735.025	-200.000	0.009	0.215
-734.010	3.911	-0.258	0.190
-732.996	-65.979	0.157	-0.063
-731.981	-200.000	0.009	0.213
-730.966	800.000	0.033	0.138
-729.952	-200.000	0.011	0.140
-728.937	4.300	-0.151	-0.112
-727.923	136.880	-0.052	-0.069
-726.908	-169.732	0.248	0.009
-725.894	55.696	-0.083	0.081
-724.879	26.414	-0.137	-0.115
-723.864	-141.362	-0.228	0.023
-722.850	162.360	0.179	-0.253
-721.835	800.000	0.097	-0.290
-720.821	141.490	-0.089	0.119
-719.806	-200.000	-0.025	0.406
-718.791	-200.000	-0.017	0.128
-717.777	26.741	-0.223	0.188
-716.762	79.626	0.066	0.071
-715.748	-200.000	-0.048	0.224
-714.733	162.156	-0.177	-0.250
-713.718	-49.977	-0.139	-0.067
-712.704	67.760	-0.106	-0.109
-711.689	-111.789	0.301	0.061
-710.675	11.831	-0.182	0.141
-709.660	257.160	-0.080	-0.139
-708.645	-23.472	-0.024	0.015
-707.631	146.797	0.118	0.160
-706.616	371.581	-0.031	0.064
-705.602	-26.356	0.039	0.023
-704.587	-58.460	-0.098	0.043
-703.572	-102.301	0.113	-0.027
-702.558	787.131	0.076	-0.209
-701.543	-101.012	0.191	-0.047
-700.529	599.581	0.115	0.287
-699.514	436.167	-0.063	-0.138
-698.499	403.620	0.061	-0.129
-697.485	115.505	0.172	0.212
-696.470	-132.421	-0.294	-0.038
-695.456	-61.792	-0.202	0.085
-694.441	78.337	-0.252	-0.271
-693.426	46.508	-0.135	0.126
-692.412	800.000	-0.045	0.151
-691.397	-78.212	-0.210	0.073
-690.383	36.290	-0.104	0.092
-689.368	-30.286	-0.290	0.166
-688.354	-54.381	0.286	-0.130
-687.339	29.719	0.088	-0.076
-686.324	-30.098	-0.279	0.160
-685.310	576.460	-0.118	0.290
-684.295	162.087	0.167	-0.236
-683.281	139.414	0.114	-0.151
-682.266	-200.000	0.042	0.209
-681.251	-158.701	-0.353	0.020
-680.237	-90.226	-0.275	0.080
-679.222	-85.190	0.224	0.070
-678.208	800.000	0.110	-0.306
-677.193	498.322	0.127	-0.294
-676.178	74.509	-0.131	-0.139
-675.164	577.722	0.071	0.176
-674.149	-200.000	-0.006	0.029
-673.135	73.646	-0.350	0.369
-672.120	-92.309	0.233	-0.066
-671.105	-66.660	0.089	0.036
-670.091	437.538	0.120	-0.263
-669.076	800.000	0.032	0.092
-668.062	-49.532	-0.344	-0.165
-667.047	-121.315	0.232	-0.039
-666.032	427.140	0.177	-0.384
-665.018	267.148	0.059	-0.104
-664.003	-200.000	-0.047	0.329
-662.989	-118.545	-0.205	0.037
-661.974	122.913	-0.103	-0.130
-660.959	-15.581	0.068	0.043
-659.945	-91.996	-0.232	-0.066
-658.930	-31.326	-0.173	0.098
-657.916	106.347	-0.187	0.223
-656.901	-60.837	0.020	-0.008
-655.886	130.148	-0.120	0.154
-654.872	-85.564	0.226	0.071
-653.857	-78.347	-0.237	-0.082
-652.843	-108.360	0.208	-0.045
-651.828	575.783	-0.008	0.019
-650.814	-200.000	0.028	0.353
-649.799	139.770	-0.176	-0.233
-648.784	91.559	0.115	0.130
-647.770	76.335	-0.157	-0.167
-646.755	68.366	0.166	-0.171
-645.741	-111.406	0.312	-0.064
-644.726	-65.790	-0.385	-0.155
-643.711	800.000	-0.061	-0.174
-642.697	19.860	0.057	0.046
-641.682	-55.816	-0.267	-0.120
-640.668	-150.547	0.190	0.015
-639.653	255.293	-0.134	0.230
-638.638	-200.000	-0.030	-0.163
-637.624	-164.894	-0.197	0.009
-636.609	-200.000	-0.079	0.397
-635.595	29.350	-0.141	-0.121
-634.580	-70.536	0.302	0.115
-633.565	-3.195	-0.212	-0.149
-632.551	22.373	-0.101	0.083
-631.536	-116.281	-0.421	0.078
-630.522	59.585	-0.077	0.077
-629.507	82.795	-0.353	0.386
-628.492	-111.758	0.279	0.057
-627.478	-68.577	-0.245	0.095
-626.463	180.706	0.210	0.309
-625.449	-33.944	0.144	-0.080
-624.434	38.062	-0.246	-0.220
-623.419	52.715	0.183	0.176
-622.405	52.750	-0.222	-0.213
-621.390	-200.000	-0.020	-0.239
-620.376	101.304	0.189	-0.221
-619.361	800.000	0.062	-0.192
-618.346	43.358	-0.109	0.100
-617.332	416.774	0.067	0.144
-616.317	-102.807	0.361	0.086
-615.303	-3.691	0.071	0.050
-614.288	-200.000	-0.005	-0.159
-613.273	-143.634	0.313	-0.030
-612.259	-128.228	0.168	-0.024
-611.244	-13.209	-0.232	-0.152
-610.230	-89.553	-0.174	-0.051
-609.215	-7.115	0.143	-0.097
-608.201	359.189	-0.042	0.084
-607.186	800.000	-0.024	0.087
-606.171	-200.000	-0.008	0.320
-605.157	34.467	0.180	-0.158
-604.142	800.000	0.102	-0.330
-603.128	-200.000	-0.011	-0.108
-602.113	94.517	-0.075	0.086
-601.098	611.305	0.013	-0.033
-600.084	399.957	0.110	-0.232
-599.069	-94.162	-0.089	0.024
-598.055	241.651	-0.072	-0.121
-597.040	76.107	0.097	0.103
-596.025	-13.433	-0.044	-0.028
-595.011	134.402	0.105	-0.137
-593.996	-124.687	-0.330	0.051
-592.982	-138.080	0.229	-0.026
-591.967	-200.000	-0.044	-0.233
-590.952	-200.000	0.000	-0.104
-589.938	800.000	-0.037	-0.133
-588.923	157.759	0.080	-0.112
-587.909	-114.894	0.207	-0.040
-586.894	-77.041	-0.318	-0.111
-585.879	800.000	-0.059	-0.203
-584.865	-46.994	0.280	0.137
-583.850	21.813	0.191	-0.156
-582.836	52.205	-0.278	-0.266
-581.821	65.074	0.133	-0.135
-580.806	-200.000	0.002	-0.194
-579.792	74.810	-0.073	-0.077
-578.777	87.774	-0.077	-0.085
-577.763	-200.000	0.004	0.341
-576.748	-96.664	-0.056	-0.015
-575.733	412.673	-0.054	-0.116
-574.719	-37.534	0.416	0.222
-573.704	-91.382	-0.380	-0.109
-572.690	-200.000	-0.038	-0.309
-571.675	-139.379	0.206	-0.022
-570.661	-76.190	-0.083	0.029
-569.646	-5.467	-0.192	-0.132
-568.631	-27.073	0.135	-0.079
-567.617	61.272	-0.101	-0.100
-566.602	48.060	-0.216	0.202
-565.588	-51.537	0.239	0.112
-564.573	35.844	0.083	0.073
-563.558	92.865	0.168	-0.190
-562.544	-23.730	0.055	-0.033
-561.529	-80.443	-0.356	0.119
-560.515	-200.000	0.005	-0.129
-559.500	800.000	-0.099	0.411
-558.485	253.384	0.035	-0.059
-557.471	-24.107	-0.250	0.149
-556.456	-26.024	-0.330	0.195
-555.442	-19.623	-0.054	-0.034
-554.427	124.810	-0.184	-0.232
-553.412	27.272	-0.252	0.212
-552.398	25.949	-0.355	0.297
-551.383	-200.000	0.050	-0.224
-550.369	800.000	0.040	-0.164
-549.354	214.824	-0.242	0.384
-548.339	-49.507	-0.448	0.214
-547.325	800.000	0.020	0.063
-546.310	99.818	-0.251	0.291
-545.296	-75.051	0.335	-0.120
-544.281	441.385	0.058	-0.127
-543.266	-58.656	-0.058	0.025
-542.252	95.475	-0.177	-0.203
-541.237	72.450	-0.068	-0.071
-540.223	-19.578	-0.220	-0.136
-539.208	286.934	0.060	0.109
-538.193	800.000	0.022	-0.067
-537.179	-200.000	0.010	-0.132
-536.164	-29.665	-0.236	0.135
-535.150	-200.000	-0.010	0.251
-534.135	-200.000	0.018	0.169
-533.121	120.201	-0.157	-0.195
-532.106	13.924	-0.164	0.128
-531.091	-200.000	-0.034	0.206
-530.077	287.715	0.017	0.031
-529.062	302.738	-0.077	0.143
-528.048	316.635	0.027	0.051
-527.033	800.000	0.044	-0.124
-526.018	-200.000	0.009	-0.043
-525.004	-4.112	0.209	-0.145
-523.989	-200.000	0.011	-0.066
-522.975	163.255	0.096	0.135
-521.960	-60.472	-0.066	-0.028
-520.945	-30.266	0.142	-0.080
-519.931	-127.052	0.306	-0.045
-518.916	-14.258	-0.095	0.061
-517.902	423.537	-0.111	0.239
-516.887	252.401	-0.215	0.367
-515.872	343.723	-0.133	0.261
-514.858	-126.053	-0.327	0.049
-513.843	-200.000	0.004	-0.039
-512.829	-200.000	-0.018	0.096
-511.814	800.000	-0.080	-0.307
-510.799	-10.499	-0.397	-0.263
-509.785	800.000	0.068	0.196
-508.770	-8.543	-0.177	0.119
-507.756	-200.000	0.003	-0.272
-506.741	-53.020	-0.152	0.070
-505.726	-108.654	-0.313	-0.067
-504.712	-200.000	-0.036	0.214
-503.697	235.550	0.040	-0.066
-502.683	-183.021	0.346	0.006
-501.668	-200.000	0.028	0.411
-500.653	73.727	0.015	0.016
-499.639	-16.190	-0.162	0.103
-498.624	454.968	-0.141	0.313
-497.610	639.542	0.105	-0.268
-496.595	20.698	-0.105	0.085
-495.581	-56.979	-0.196	-0.087
-494.566	-105.614	-0.163	0.037
-493.551	693.512	-0.025	-0.066
-492.537	-10.866	-0.116	-0.077
-491.522	72.747	-0.278	-0.290
-490.508	416.240	-0.077	0.163
-489.493	-103.059	0.154	0.036
-488.478	800.000	-0.024	-0.084
-487.464	79.753	0.235	0.252
-486.449	116.019	0.092	-0.112
-485.435	-55.627	-0.095	0.043
-484.420	-28.001	0.223	-0.129
-483.405	-145.653	-0.544	0.049
-482.391	-200.000	-0.057	-0.253
-481.376	800.000	-0.088	-0.252
-480.362	-200.000	0.015	0.396
-479.347	800.000	0.037	-0.133
-478.332	-200.000	0.007	-0.072
-477.318	800.000	-0.044	0.137
-476.303	-152.396	-0.127	0.009
-475.289	-89.282	0.303	-0.089
-474.274	800.000	-0.054	0.159
-473.259	-158.246	-0.361	0.021
-472.245	134.475	0.270	-0.350
-471.230	45.101	-0.155	-0.142
-470.216	-200.000	0.005	-0.190
-469.201	451.763	-0.047	-0.105
-468.186	105.254	-0.057	0.068
-467.172	48.544	-0.128	0.120
-466.157	-180.103	0.396	-0.008
-465.143	20.824	0.111	-0.090
-464.128	-139.747	0.314	0.033
-463.113	279.632	-0.060	0.106
-462.099	-49.891	0.129	0.061
-461.084	-39.024	-0.062	0.032
-460.070	-100.476	0.221	-0.054
-459.055	-107.206	0.175	0.038
-458.040	-200.000	0.027	0.170
-457.026	-20.376	-0.095	-0.059
-456.011	497.867	-0.117	-0.269
-454.997	-69.711	0.085	0.033
-453.982	-2.590	0.345	0.241
-452.968	-176.453	0.137	0.004
-451.953	800.000	0.037	0.113
-450.938	-30.348	-0.160	0.091
-449.924	48.988	-0.089	0.083
-448.909	198.898	-0.055	-0.084
-447.895	580.471	-0.060	-0.148
-446.880	117.378	0.111	-0.136
-445.865	133.640	-0.091	-0.117
-444.851	-152.960	0.262	-0.018
-443.836	-11.491	-0.167	-0.110
-442.822	66.254	0.346	-0.350
-441.807	-200.000	-0.080	0.454
-440.792	800.000	0.046	-0.146
-439.778	-200.000	0.002	-0.133
-438.763	-2.930	0.114	0.079
-437.749	-8.914	-0.212	0.142
-436.734	-146.906	-0.206	-0.018
-435.719	280.928	-0.129	-0.231
-434.705	203.927	-0.085	-0.132
-433.690	26.643	0.049	-0.041
-432.676	90.217	0.078	0.087
-431.661	437.621	-0.253	0.549
-430.646	4.106	-0.049	-0.036
-429.632	607.003	-0.140	-0.349
-428.617	50.781	0.215	-0.203
-427.603	-127.553	-0.091	0.013
-426.588	-144.468	0.118	-0.011
-425.573	-9.955	0.329	0.218
-424.559	-69.981	0.412	0.156
-423.544	800.000	-0.078	-0.235
-422.530	-43.375	0.084	0.042
-421.515	800.000	0.058	0.240
-420.500	-2.948	0.281	0.195
-419.486	170.396	-0.147	-0.209
-418.471	12.733	-0.106	-0.081
-417.457	61.571	0.020	0.020
-416.442	270.110	0.209	0.365
-415.428	43.789	-0.172	0.157
-414.413	-200.000	-0.023	-0.314
-413.398	-132.849	-0.222	-0.028
-412.384	121.955	-0.086	0.107
-411.369	-133.386	0.319	0.040
-410.355	-200.000	-0.008	0.136
-409.340	175.736	-0.197	0.285
-408.325	513.433	0.031	-0.072
-407.311	-171.232	0.308	0.010
-406.296	800.000	-0.068	-0.201
-405.282	70.381	0.085	-0.088
-404.267	-200.000	0.076	-0.381
-403.252	45.067	-0.045	0.041
-402.238	-81.175	-0.242	0.080
-401.223	149.683	0.031	0.041
-400.209	432.827	0.040	-0.087
-399.194	-155.442	-0.363	-0.023
-398.179	-59.181	0.260	-0.112
-397.165	592.127	-0.097	0.239
-396.150	-78.892	0.233	0.079
-395.136	-0.851	-0.269	0.190
-394.121	-200.000	0.019	0.187
-393.106	603.421	-0.086	-0.213
-392.092	-117.977	-0.274	0.049
-391.077	-116.232	0.191	0.035
-390.063	-175.573	0.092	0.002
-389.048	44.332	0.029	0.027
-388.033	-166.494	0.060	0.002
-387.019	18.452	-0.159	0.127
-386.004	-171.725	-0.137	-0.004
-384.990	2.947	-0.237	0.172
-383.975	-147.148	-0.234	-0.020
-382.960	94.059	0.115	0.130
-381.946	-137.483	-0.296	-0.033
-380.931	54.242	0.091	0.088
-379.917	800.000	-0.117	0.483
-378.902	561.615	0.181	-0.435
-377.888	-15.987	-0.171	-0.108
-376.873	-63.445	0.097	0.040
-375.858	-200.000	-0.009	-0.223
-374.844	320.314	0.057	-0.108
-373.829	-163.298	0.308	0.015
-372.815	-174.533	0.164	-0.005
-371.800	-99.625	-0.312	-0.078
-370.785	553.049	0.112	0.268
-369.771	291.818	0.155	-0.281
-368.756	458.861	0.069	0.152
-367.742	-41.010	0.173	0.089
-366.727	15.110	0.122	-0.095
-365.712	-200.000	0.055	0.445
-364.698	800.000	-0.068	0.259
-363.683	6.120	0.142	0.105
-362.669	161.699	-0.172	0.240
-361.654	-200.000	0.034	0.202
-360.639	-27.265	-0.189	-0.110
-359.625	-78.227	0.055	0.019
-358.610	252.189	0.041	0.069
-357.596	-109.630	-0.243	0.051
-356.581	59.763	0.267	-0.262
-355.566	800.000	0.098	-0.304
-354.552	-56.137	0.046	-0.020
-353.537	51.190	-0.213	0.201
-352.523	114.179	0.394	-0.477
-351.508	-73.140	-0.257	-0.094
-350.493	-46.012	0.233	-0.114
-349.479	-200.000	-0.010	0.296
-348.464	-200.000	0.056	0.276
-347.450	-26.903	-0.213	-0.124
-346.435	-51.463	0.335	0.155
-345.420	800.000	0.089	0.288
-344.406	45.092	0.288	-0.264
-343.391	-200.000	0.223	-0.000
-342.377	-70.970	-0.203	-0.076
-341.362	33.191	0.204	-0.175
-340.348	289.053	0.129	0.233
-339.333	-40.749	-0.065	-0.033
-338.318	66.421	0.218	-0.220
-337.304	244.691	0.130	-0.217
-336.289	-93.513	0.074	-0.020
-335.275	-200.000	0.003	0.203
-334.260	-56.982	0.058	0.026
-333.245	-200.000	-0.028	0.145
-332.231	-162.039	-0.218	-0.011
-331.216	-109.188	0.197	0.041
-330.202	-200.000	-0.021	-0.101
-329.187	67.252	0.080	-0.081
-328.172	-79.146	-0.136	0.046
-327.158	-53.898	0.057	0.026
-326.143	-200.000	-0.021	-0.107
-325.129	135.609	0.166	-0.214
-324.114	-63.702	0.112	0.046
-323.099	-200.000	-0.036	0.157
-322.085	-174.093	0.130	-0.004
-321.070	-153.984	0.210	0.014
-320.056	28.724	0.221	-0.186
-319.041	-101.249	0.502	-0.122
-318.026	-116.429	0.233	0.043
-317.012	-71.857	0.046	0.017
-315.997	400.312	-0.137	-0.284
-314.983	97.123	0.279	0.318
-313.968	496.191	0.069	-0.157
-312.953	395.680	-0.114	-0.235
-311.939	-17.156	-0.175	-0.110
-310.924	-143.623	0.370	-0.035
-309.910	-35.530	-0.184	0.099
-308.895	-67.694	0.294	-0.114
-307.880	34.975	-0.366	-0.318
-306.866	471.758	0.055	-0.123
-305.851	-96.774	0.173	0.045
-304.837	-38.747	-0.315	0.165
-303.822	224.823	0.073	0.117
-302.807	-200.000	0.026	0.121
-301.793	-22.771	-0.260	-0.156
-300.778	200.428	0.020	0.031
-299.764	-81.795	0.385	-0.125
-298.749	-75.496	-0.060	0.021
-297.735	-114.540	-0.273	-0.052
-296.720	489.716	0.037	0.083
-295.705	-153.355	-0.267	-0.018
-294.691	-92.692	-0.133	0.037
-293.676	430.842	-0.088	0.188
-292.662	779.462	0.095	0.257
-291.647	-13.565	-0.092	-0.059
-290.632	90.334	-0.162	0.180
-289.618	-144.789	-0.596	0.054
-288.603	-200.000	0.028	0.187
-287.589	106.398	0.363	0.426
-286.574	-28.282	0.153	0.087
-285.559	-200.000	-0.043	-0.223
-284.545	-53.091	0.174	0.079
-283.530	800.000	-0.063	0.272
-282.516	270.255	0.090	0.156
-281.501	218.341	-0.095	0.150
-280.486	-188.273	0.191	-0.002
-279.472	-41.407	0.299	-0.153
-278.457	800.000	0.030	-0.126
-277.443	-47.603	-0.166	-0.080
-276.428	37.999	-0.236	-0.208
-275.413	-84.839	-0.110	-0.034
-274.399	576.222	-0.085	-0.205
-273.384	-200.000	-0.038	0.233
-272.370	-169.722	-0.248	0.009
-271.355	-160.785	0.276	0.014
-270.340	-200.000	-0.006	0.269
-269.326	800.000	0.059	0.164
-268.311	10.116	-0.134	0.101
-267.297	359.627	-0.135	0.267
-266.282	66.350	0.058	0.059
-265.267	566.114	0.097	0.233
-264.253	-200.000	-0.033	0.155
-263.238	592.161	-0.051	-0.125
-262.224	70.914	-0.130	-0.133
-261.209	22.976	-0.155	0.126
-260.195	-19.833	0.145	0.089
-259.180	-200.000	-0.014	0.134
-258.165	658.709	0.090	-0.230
-257.151	11.800	0.096	-0.073
-256.136	15.225	-0.137	-0.106
-255.122	-13.629	-0.091	0.058
-254.107	646.953	0.149	-0.378
-253.092	800.000	-0.090	-0.299
-252.078	118.436	-0.152	0.186
-251.063	-124.298	-0.180	0.028
-250.049	594.502	0.103	0.252
-249.034	-93.320	0.116	0.032
-248.019	-139.478	-0.086	-0.009
-247.005	3.393	-0.218	-0.157
-245.990	6.994	-0.261	0.192
-244.976	120.280	0.228	-0.280
-243.961	458.620	-0.103	0.227
-242.946	-34.261	-0.219	-0.119
-241.932	593.309	-0.115	0.281
-240.917	-107.412	-0.153	0.033
-239.903	-200.000	0.005	0.042
-238.888	56.476	0.228	-0.219
-237.873	-108.170	-0.041	0.009
-236.859	-72.126	-0.282	-0.103
-235.844	-200.000	-0.099	-0.458
-234.830	-9.583	0.203	-0.134
-233.815	105.054	-0.080	0.093
-232.800	-200.000	0.050	0.273
-231.786	397.202	0.126	0.260
-230.771	370.961	-0.099	0.199
-229.757	-89.354	-0.047	0.014
-228.742	-66.688	0.493	0.193
-227.727	277.346	-0.059	0.103
-226.713	-135.337	-0.211	0.025
-225.698	-41.908	0.221	0.112
-224.684	109.204	-0.081	0.096
-223.669	-127.517	-0.127	0.018
-222.655	135.723	0.076	0.098
-221.640	-198.169	0.440	-0.003
-220.625	-200.000	-0.007	-0.056
-219.611	0.222	-0.223	-0.157
-218.596	261.483	0.114	-0.195
-217.582	27.218	0.021	-0.018
-216.567	-94.525	-0.319	0.086
-215.552	317.835	0.131	-0.245
-214.538	-200.000	0.003	-0.070
-213.523	-26.741	0.112	0.065
-212.509	89.760	0.211	-0.232
-211.494	77.625	0.113	-0.119
-210.479	800.000	0.014	-0.048
-209.465	-1.565	0.146	0.102
-208.450	800.000	0.117	-0.354
-207.436	138.059	0.140	-0.182
-206.421	26.281	0.391	0.323
-205.406	-200.000	-0.042	0.309
-204.392	148.589	-0.170	-0.227
-203.377	46.579	-0.215	-0.197
-202.363	9.300	-0.115	0.086
-201.348	-56.511	-0.109	-0.048
-200.333	-200.000	0.002	0.023
-199.319	18.414	0.337	-0.266
-198.304	28.719	0.159	0.133
-197.290	-186.391	0.065	-0.001
-196.275	-200.000	0.013	-0.527
-195.260	-21.417	0.252	-0.152
-194.246	164.320	-0.172	0.240
-193.231	-96.329	0.319	0.083
-192.217	-69.522	-0.245	0.093
-191.202	-38.822	-0.374	0.195
-190.187	168.577	0.061	-0.087
-189.173	153.453	0.013	0.018
-188.158	-200.000	0.039	0.181
-187.144	-67.981	-0.328	0.126
-186.129	800.000	-0.047	-0.195
-185.114	131.138	0.106	-0.135
-184.100	-81.233	0.262	0.085
-183.085	130.664	-0.084	0.107
-182.071	87.999	0.026	0.029
-181.056	562.634	0.080	-0.192
-180.042	536.167	0.087	-0.205
-179.027	205.887	-0.035	-0.053
-178.012	-29.043	0.182	0.103
-176.998	4.678	0.277	0.201
-175.983	2.021	-0.175	0.124
-174.969	125.008	-0.055	-0.068
-173.954	20.798	0.115	-0.092
-172.939	-125.409	0.334	-0.050
-171.925	10.553	0.267	-0.201
-170.910	247.192	-0.054	-0.090
-169.896	800.000	-0.052	0.211
-168.881	-79.562	0.187	-0.062
-167.866	-200.000	0.031	-0.241
-166.852	-18.395	0.384	-0.236
-165.837	76.403	0.153	-0.160
-164.823	-26.232	0.099	0.058
-163.808	-0.865	0.105	0.074
-162.793	-111.413	0.279	0.056
-161.779	-200.000	-0.020	-0.280
-160.764	800.000	0.065	0.235
-159.750	-26.663	-0.175	-0.101
-158.735	617.393	0.088	0.218
-157.720	-50.127	0.375	-0.175
-156.706	-200.000	0.011	-0.072
-155.691	-70.864	-0.211	-0.079
-154.677	746.002	0.098	0.260
-153.662	-92.290	-0.246	0.068
-152.647	-107.869	-0.461	0.099
-151.633	-132.572	0.268	0.034
-150.618	800.000	0.057	-0.168
-149.604	285.400	0.060	0.106
-148.589	342.817	-0.046	0.088
-147.574	-200.000	-0.072	0.340
-146.560	171.419	-0.138	0.195
-145.545	-105.340	-0.080	0.018
-144.531	-134.915	-0.129	0.015
-143.516	123.054	0.239	-0.295
-142.502	315.143	0.139	-0.259
-141.487	194.887	-0.018	-0.027
-140.472	800.000	0.072	-0.279
-139.458	-200.000	-0.001	0.118
-138.443	-43.434	0.169	0.084
-137.429	-45.394	0.182	0.089
-136.414	586.026	-0.048	-0.117
-135.399	800.000	0.014	0.045
-134.385	-48.974	0.071	-0.034
-133.370	-200.000	0.008	-0.153
-132.356	-167.694	-0.421	0.016
-131.341	-200.000	0.020	-0.295
-130.326	-153.943	0.390	0.026
-129.312	134.065	-0.132	0.169
-128.297	-42.482	-0.059	-0.029
-127.283	-200.000	0.009	-0.103
-126.268	635.138	-0.066	0.164
-125.253	-73.454	0.184	0.066
-124.239	-82.512	0.097	0.031
-123.224	-31.696	0.353	0.195
-122.210	41.184	-0.100	0.089
-121.195	-18.364	-0.057	0.035
-120.180	-76.832	-0.330	0.114
-119.166	-74.105	0.322	0.115
