DTS Sentinel unit serial number:	SN413079Multiplexer serial number:	ORYXHardware model number:	OX4-SRSoftware version number:	ORYX F/W v4.00 Oryx Data Collector v3.7.2.0data status	okinstallation	princeton_trtdifferential loss correction	single-endedforward channel	channel 3reverse channel	N/Adate	2019/09/12time	00:46:11forward acquisition time	60.00reverse acquisition time	0.00gamma	496.2192k internal	0.2318k external	0.2318temperature offset calibration	1.0069default loss term (dB/km)	0.3790temperature slope calibration	1.0000multiplexer offset coefficient	1.0000multiplexer slope coefficient	1.0000fibre end	0.00T internal ref (°C)	33.27T ext. ref 1 (°C)	2.08T ext. ref 2 (°C)	28.17length (m)	temperature (°C)	Stokes	anti-Stokes-747.200	81.991	-0.086	-0.094
-746.185	-63.507	-0.309	-0.129
-745.171	-200.000	0.004	0.160
-744.156	277.454	0.046	0.082
-743.142	-133.972	-0.183	0.023
-742.127	134.804	-0.099	0.130
-741.112	-76.466	-0.370	-0.132
-740.098	243.454	-0.145	0.246
-739.083	-116.849	0.106	0.020
-738.069	353.613	0.149	0.299
-737.054	-200.000	0.008	0.279
-736.039	127.323	-0.295	-0.378
-735.025	-27.080	-0.373	-0.220
-734.010	53.014	-0.246	0.238
-732.996	292.080	-0.041	-0.075
-731.981	330.704	0.135	-0.262
-730.966	3.270	-0.106	0.078
-729.952	-200.000	-0.065	0.396
-728.937	36.456	0.287	0.256
-727.923	-146.049	0.463	-0.041
-726.908	800.000	0.093	-0.379
-725.894	2.783	-0.409	-0.300
-724.879	-35.365	-0.271	0.149
-723.864	40.608	-0.229	-0.209
-722.850	-106.501	0.161	0.036
-721.835	-75.673	-0.150	-0.054
-720.821	88.749	-0.169	-0.190
-719.806	-51.391	0.168	-0.079
-718.791	-200.000	0.060	-0.349
-717.777	-103.403	-0.305	0.073
-716.762	-92.739	0.422	-0.119
-715.748	-125.310	-0.157	0.024
-714.733	119.506	-0.131	-0.165
-713.718	49.642	0.074	-0.070
-712.704	-53.056	0.348	0.162
-711.689	-159.085	-0.176	-0.010
-710.675	-200.000	-0.050	-0.321
-709.660	-143.242	-0.179	-0.017
-708.645	781.069	-0.086	0.237
-707.631	-25.445	0.379	0.226
-706.616	-50.009	-0.159	-0.076
-705.602	64.274	0.208	0.211
-704.587	64.245	-0.285	-0.290
-703.572	62.780	-0.305	-0.309
-702.558	-104.746	0.352	-0.082
-701.543	-71.122	-0.093	-0.035
-700.529	-200.000	0.035	0.228
-699.514	157.674	0.119	-0.167
-698.499	65.965	-0.083	0.085
-697.485	-10.119	0.141	-0.095
-696.470	-88.529	-0.117	0.035
-695.456	328.569	0.058	0.113
-694.441	140.950	-0.126	-0.168
-693.426	800.000	-0.024	0.081
-692.412	64.843	-0.113	0.115
-691.397	-158.147	0.349	0.021
-690.383	225.256	-0.030	0.049
-689.368	-124.291	-0.423	-0.067
-688.354	282.231	-0.070	-0.127
-687.339	800.000	0.113	-0.342
-686.324	-200.000	-0.010	-0.109
-685.310	800.000	-0.046	-0.150
-684.295	6.154	-0.275	-0.206
-683.281	-159.886	0.150	-0.008
-682.266	-71.589	0.237	0.089
-681.251	203.250	-0.076	-0.119
-680.237	210.785	0.086	0.137
-679.222	-88.074	0.154	-0.047
-678.208	466.784	-0.085	-0.193
-677.193	121.776	-0.156	-0.196
-676.178	-200.000	-0.055	0.381
-675.164	526.896	-0.190	-0.453
-674.149	181.346	-0.115	0.170
-673.135	-74.853	0.043	-0.016
-672.120	4.456	-0.238	0.176
-671.105	-95.419	-0.199	-0.054
-670.091	-98.082	-0.275	-0.071
-669.076	-3.607	0.245	0.172
-668.062	-24.328	0.245	0.147
-667.047	-101.967	0.396	-0.096
-666.032	27.977	-0.210	-0.178
-665.018	-200.000	-0.007	-0.245
-664.003	-33.791	-0.196	0.109
-662.989	494.331	0.033	-0.077
-661.974	370.077	-0.102	-0.208
-660.959	-100.845	0.130	0.032
-659.945	-137.941	0.324	-0.037
-658.930	2.385	-0.242	-0.176
-657.916	383.185	-0.096	0.200
-656.901	15.366	0.115	-0.091
-655.886	-200.000	0.013	-0.133
-654.872	-42.788	-0.418	0.214
-653.857	-200.000	-0.032	0.208
-652.843	-200.000	-0.026	0.247
-651.828	-102.808	-0.150	-0.036
-650.814	-200.000	0.034	-0.258
-649.799	-152.218	-0.272	0.020
-648.784	519.958	-0.164	0.388
-647.770	160.637	0.210	-0.296
-646.755	-58.930	0.168	-0.073
-645.741	-200.000	0.031	-0.210
-644.726	23.941	-0.179	0.149
-643.711	-200.000	0.003	0.195
-642.697	293.758	0.113	-0.208
-641.682	-153.334	-0.082	0.006
-640.668	-111.615	-0.181	0.037
-639.653	262.307	-0.127	-0.222
-638.638	159.309	-0.055	0.077
-637.624	800.000	0.046	-0.187
-636.609	80.316	0.063	-0.069
-635.595	-72.332	0.165	0.062
-634.580	9.371	-0.094	-0.072
-633.565	-42.669	0.247	-0.127
-632.551	-101.698	-0.178	-0.044
-631.536	227.929	0.215	-0.352
-630.522	294.579	0.213	-0.392
-629.507	-21.107	-0.045	-0.028
-628.492	22.353	-0.037	-0.031
-627.478	72.291	-0.182	0.191
-626.463	-115.515	-0.345	0.065
-625.449	-48.946	0.081	0.039
-624.434	-81.961	0.390	-0.128
-623.419	-48.398	-0.075	-0.036
-622.405	-65.703	-0.222	-0.090
-621.390	104.612	0.096	0.114
-620.376	-200.000	-0.067	0.642
-619.361	282.310	-0.171	0.310
-618.346	70.061	-0.203	-0.211
-617.332	117.653	-0.348	0.431
-616.317	493.077	0.067	0.156
-615.303	300.708	-0.029	-0.053
-614.288	95.876	-0.125	-0.143
-613.273	-54.074	0.337	-0.154
-612.259	585.578	-0.130	-0.323
-611.244	-200.000	-0.013	0.194
-610.230	-200.000	0.023	-0.214
-609.215	-57.880	0.071	-0.031
-608.201	0.679	-0.157	-0.113
-607.186	491.711	0.065	0.149
-606.171	5.071	0.235	-0.174
-605.157	179.151	-0.044	-0.064
-604.142	-9.455	-0.292	-0.196
-603.128	139.599	-0.066	0.088
-602.113	-78.307	-0.294	-0.101
-601.098	-66.395	0.075	0.030
-600.084	-58.683	-0.268	0.117
-599.069	-64.974	-0.200	0.081
-598.055	-200.000	-0.004	0.277
-597.040	19.537	0.132	0.107
-596.025	-51.053	-0.331	0.156
-595.011	688.904	-0.019	-0.049
-593.996	-1.866	0.300	-0.213
-592.982	-7.315	0.402	-0.274
-591.967	-140.634	-0.420	0.044
-590.952	-117.609	0.251	0.046
-589.938	-200.000	0.042	0.281
-588.923	237.231	0.053	-0.088
-587.909	-80.893	-0.134	-0.045
-586.894	-117.206	-0.122	0.022
-585.879	-0.018	-0.169	-0.121
-584.865	-18.274	0.247	0.155
-583.850	800.000	0.156	0.464
-582.836	-96.227	-0.333	0.089
-581.821	800.000	-0.037	-0.160
-580.806	-85.158	0.213	0.067
-579.792	52.144	-0.153	0.147
-578.777	800.000	-0.068	0.230
-577.763	47.436	-0.061	0.058
-576.748	-46.986	-0.225	0.110
-575.733	8.831	-0.294	-0.223
-574.719	-43.672	-0.264	-0.134
-573.704	639.764	0.051	0.132
-572.690	111.472	0.050	0.061
-571.675	661.036	0.139	0.359
-570.661	49.499	0.175	-0.166
-569.646	-138.034	-0.215	0.024
-568.631	-85.363	0.062	0.020
-567.617	81.294	0.092	0.100
-566.602	-145.520	0.054	-0.005
-565.588	-15.183	0.069	0.044
-564.573	85.772	-0.165	0.182
-563.558	-97.719	-0.383	0.100
-562.544	-41.239	-0.143	-0.074
-561.529	55.939	0.128	-0.125
-560.515	-67.744	0.125	-0.049
-559.500	-31.131	-0.236	-0.134
-558.485	-181.612	-0.205	0.004
-557.471	-173.704	0.193	-0.006
-556.456	434.935	0.016	-0.034
-555.442	144.719	-0.328	0.441
-554.427	-121.721	-0.163	-0.027
-553.412	636.999	-0.085	-0.218
-552.398	800.000	-0.064	-0.232
-551.383	67.351	0.127	0.131
-550.369	125.636	0.018	0.023
-549.354	44.175	-0.192	0.177
-548.339	593.447	-0.077	-0.190
-547.325	-40.130	0.113	0.059
-546.310	-146.625	-0.175	-0.015
-545.296	-102.521	0.375	-0.090
-544.281	474.189	0.139	0.315
-543.266	-5.465	-0.276	-0.190
-542.252	201.278	-0.139	0.214
-541.237	-200.000	0.072	-0.322
-540.223	-113.406	0.270	0.053
-539.208	76.755	0.239	-0.255
-538.193	-63.074	-0.340	-0.141
-537.179	-200.000	0.008	0.231
-536.164	-112.270	0.186	0.037
-535.150	79.520	-0.091	0.097
-534.135	208.530	-0.225	0.353
-533.121	800.000	-0.080	-0.238
-532.106	0.227	0.149	-0.107
-531.091	124.933	0.185	-0.234
-530.077	-44.305	0.287	0.144
-529.062	800.000	-0.109	-0.353
-528.048	32.419	-0.106	-0.092
-527.033	-190.214	0.041	0.000
-526.018	-200.000	0.015	-0.171
-525.004	-200.000	0.003	-0.301
-523.989	-200.000	0.006	-0.258
-522.975	800.000	-0.089	0.263
-521.960	752.541	0.129	-0.349
-520.945	800.000	-0.046	0.136
-519.931	13.413	-0.058	-0.045
-518.916	196.640	0.090	-0.137
-517.902	-200.000	-0.002	-0.258
-516.887	800.000	-0.050	-0.171
-515.872	553.853	0.063	-0.152
-514.858	-81.151	0.107	-0.035
-513.843	800.000	-0.032	-0.094
-512.829	28.407	-0.224	0.190
-511.814	98.532	0.111	0.129
-510.799	212.284	-0.181	0.285
-509.785	488.863	0.132	-0.302
-508.770	-198.969	-0.164	0.001
-507.756	252.816	0.154	-0.263
-506.741	-192.662	-0.015	-0.000
-505.726	28.092	-0.154	-0.130
-504.712	584.982	0.053	0.131
-503.697	109.947	0.084	0.101
-502.683	240.366	-0.089	-0.149
-501.668	-24.824	-0.292	0.174
-500.653	-17.716	0.414	0.260
-499.639	800.000	-0.063	-0.182
-498.624	800.000	-0.070	0.248
-497.610	183.344	-0.165	0.245
-496.595	682.877	-0.073	0.191
-495.581	-144.365	-0.414	-0.039
-494.566	-98.325	-0.315	0.081
-493.551	-74.493	0.045	-0.016
-492.537	403.070	0.090	-0.189
-491.522	265.380	0.280	0.489
-490.508	116.689	0.084	0.104
-489.493	487.942	0.136	0.311
-488.478	460.231	-0.054	0.121
-487.464	-165.050	-0.426	0.019
-486.449	-67.476	0.083	-0.032
-485.435	144.023	0.075	-0.100
-484.420	132.749	0.122	-0.157
-483.405	73.873	0.098	-0.103
-482.391	-141.728	0.120	0.012
-481.376	48.937	0.175	-0.165
-480.362	229.855	0.149	-0.243
-479.347	-152.053	-0.334	-0.024
-478.332	38.829	-0.162	0.144
-477.318	-23.185	-0.263	0.159
-476.303	800.000	-0.013	-0.051
-475.289	-57.653	-0.125	0.055
-474.274	-200.000	-0.002	0.264
-473.259	267.348	0.021	0.036
-472.245	-110.925	-0.168	-0.035
-471.230	-200.000	0.021	0.141
-470.216	55.515	-0.367	0.356
-469.201	800.000	-0.124	-0.344
-468.186	-59.071	-0.365	-0.158
-467.172	180.242	0.031	-0.045
-466.157	84.732	0.218	-0.238
-465.143	-72.444	0.361	-0.134
-464.128	198.454	-0.115	0.177
-463.113	86.374	0.186	-0.205
-462.099	-1.942	-0.103	0.072
-461.084	-17.183	-0.167	0.106
-460.070	-132.937	-0.344	-0.044
-459.055	-139.962	0.174	0.018
-458.040	-200.000	-0.075	-0.347
-457.026	99.254	-0.121	0.140
-456.011	-92.737	0.237	0.066
-454.997	57.015	-0.085	-0.083
-453.982	-54.016	0.099	0.045
-452.968	-142.936	-0.165	-0.016
-451.953	137.046	0.181	-0.237
-450.938	80.422	0.168	-0.181
-449.924	10.373	-0.178	-0.136
-448.909	800.000	0.038	0.144
-447.895	-66.807	0.308	-0.122
-446.880	-28.883	0.180	0.103
-445.865	18.816	0.126	0.101
-444.851	-132.321	0.187	-0.024
-443.836	-119.879	0.519	-0.089
-442.822	-137.700	-0.092	0.010
-441.807	-154.947	0.104	-0.007
-440.792	-7.807	-0.173	-0.117
-439.778	90.554	0.180	-0.201
-438.763	800.000	-0.068	0.209
-437.749	-2.200	-0.202	-0.142
-436.734	10.817	-0.082	0.062
-435.719	-51.648	0.303	0.141
-434.705	146.337	-0.121	-0.163
-433.690	-163.385	-0.106	-0.005
-432.676	-200.000	0.013	0.175
-431.661	-149.146	-0.281	-0.023
-430.646	-139.892	-0.704	-0.074
-429.632	-75.660	-0.098	0.035
-428.617	-38.765	-0.174	0.092
-427.603	-56.101	0.235	-0.105
-426.588	-134.097	0.262	0.032
-425.573	-115.033	0.199	-0.038
-424.559	-85.432	0.029	0.009
-423.544	-42.269	0.080	0.041
-422.530	263.122	0.093	0.161
-421.515	-10.907	-0.173	-0.114
-420.500	614.941	0.071	0.179
-419.486	80.189	-0.273	0.294
-418.471	99.572	0.193	0.223
-417.457	-200.000	-0.000	0.254
-416.442	-48.240	-0.146	0.070
-415.428	-200.000	0.011	0.311
-414.413	-200.000	0.011	0.137
-413.398	97.415	0.259	-0.297
-412.384	-33.302	-0.272	-0.150
-411.369	168.288	0.075	-0.106
-410.355	63.798	-0.157	0.157
-409.340	669.983	0.099	0.257
-408.325	76.446	-0.053	-0.056
-407.311	800.000	0.071	0.252
-406.296	11.866	0.187	-0.144
-405.282	32.527	0.183	-0.158
-404.267	-110.377	-0.187	-0.039
-403.252	-41.324	0.215	-0.111
-402.238	-200.000	0.015	0.099
-401.223	-50.809	-0.020	0.009
-400.209	-200.000	-0.034	0.158
-399.194	-167.749	-0.188	0.007
-398.179	318.181	-0.030	0.057
-397.165	-90.856	0.148	0.042
-396.150	21.022	-0.286	0.232
-395.136	-25.164	-0.391	0.231
-394.121	-98.272	0.346	-0.089
-393.106	167.131	0.052	-0.074
-392.092	-200.000	-0.026	-0.150
-391.077	10.726	0.181	0.138
-390.063	800.000	0.033	-0.141
-389.048	20.729	0.131	-0.105
-388.033	183.526	-0.104	0.153
-387.019	-129.513	-0.313	-0.043
-386.004	-200.000	0.104	-0.458
-384.990	800.000	0.046	-0.201
-383.975	-200.000	-0.036	-0.176
-382.960	-200.000	0.054	-0.306
-381.946	-200.000	-0.004	-0.280
-380.931	307.113	-0.139	0.258
-379.917	800.000	0.031	0.115
-378.902	2.983	0.098	0.071
-377.888	56.508	-0.135	0.131
-376.873	-200.000	-0.003	0.111
-375.858	-199.200	-0.086	-0.000
-374.844	233.631	-0.053	-0.087
-373.829	800.000	0.040	0.144
-372.815	86.857	0.129	-0.142
-371.800	49.641	0.320	0.301
-370.785	-68.443	0.336	0.130
-369.771	-15.387	-0.066	-0.042
-368.756	-14.032	0.164	-0.105
-367.742	-54.009	0.236	-0.107
-366.727	-74.903	0.055	-0.020
-365.712	-177.126	0.042	-0.001
-364.698	680.164	0.037	-0.096
-363.683	45.594	-0.073	-0.068
-362.669	-133.887	-0.122	0.015
-361.654	-200.000	0.015	0.082
-360.639	-101.639	0.143	-0.035
-359.625	-200.000	0.005	0.030
-358.610	69.840	0.235	-0.242
-357.596	473.747	0.094	0.212
-356.581	30.896	0.257	-0.219
-355.566	-111.289	-0.126	-0.026
-354.552	-10.862	-0.121	0.080
-353.537	100.269	-0.259	0.299
-352.523	65.419	0.091	-0.092
-351.508	115.389	-0.189	0.231
-350.493	388.618	0.051	0.104
-349.479	-94.104	-0.284	0.078
-348.464	-200.000	0.047	-0.208
-347.450	33.810	-0.159	-0.138
-346.435	-10.900	-0.099	0.065
-345.420	396.636	0.006	-0.013
-344.406	-101.901	-0.188	0.045
-343.391	-181.948	0.172	0.003
-342.377	50.924	-0.120	-0.113
-341.362	108.328	0.107	-0.127
-340.348	235.419	-0.168	0.276
-339.333	-200.000	-0.016	-0.128
-338.318	342.525	-0.117	0.229
-337.304	-200.000	0.003	0.140
-336.289	394.273	0.064	-0.133
-335.275	800.000	0.128	-0.497
-334.260	800.000	0.031	0.112
-333.245	-200.000	0.079	0.351
-332.231	-127.089	0.173	0.025
-331.216	-60.981	0.301	0.127
-330.202	-15.854	-0.081	0.051
-329.187	56.515	-0.114	0.110
-328.172	-21.327	-0.224	0.136
-327.158	-200.000	-0.004	0.036
-326.143	-94.520	0.252	-0.068
-325.129	29.194	-0.299	0.253
-324.114	41.472	0.248	0.224
-323.099	-91.922	0.436	0.123
-322.085	-200.000	-0.008	-0.156
-321.070	-200.000	-0.004	-0.100
-320.056	800.000	0.061	-0.194
-319.041	800.000	0.034	0.113
-318.026	-42.245	0.141	-0.072
-317.012	17.599	-0.099	0.078
-315.997	800.000	0.156	0.536
-314.983	192.783	-0.188	-0.282
-313.968	-200.000	-0.001	-0.349
-312.953	-96.404	0.290	-0.076
-311.939	-121.729	-0.170	0.028
-310.924	-139.570	0.168	-0.018
-309.910	-163.783	-0.404	0.019
-308.895	-39.731	-0.155	-0.080
-307.880	-129.394	0.248	0.034
-306.866	-96.186	-0.206	0.054
-305.851	-157.825	-0.221	0.013
-304.837	21.069	-0.148	0.120
-303.822	-200.000	-0.019	0.294
-302.807	-20.769	0.309	0.189
-301.793	-108.093	0.067	0.015
-300.778	483.801	0.115	-0.260
-299.764	-3.214	-0.161	-0.112
-298.749	800.000	0.133	-0.370
-297.735	-104.185	-0.272	0.063
-296.720	-169.715	0.375	0.013
-295.705	-157.173	-0.305	0.018
-294.691	-77.102	0.288	-0.100
-293.676	-200.000	-0.008	-0.221
-292.662	-64.508	0.199	-0.081
-291.647	160.677	0.171	-0.237
-290.632	33.839	0.280	0.242
-289.618	92.506	-0.122	0.137
-288.603	-145.955	-0.279	0.025
-287.589	29.732	0.052	0.044
-286.574	265.193	-0.136	-0.236
-285.559	48.064	0.016	0.015
-284.545	177.041	-0.151	-0.219
-283.530	3.251	0.366	0.265
-282.516	75.780	-0.118	-0.124
-281.501	31.153	0.242	-0.207
-280.486	-116.506	0.187	0.034
-279.472	-21.887	-0.156	-0.094
-278.457	-200.000	0.005	-0.034
-277.443	410.268	0.158	-0.333
-276.428	-13.317	-0.196	0.126
-275.413	385.494	0.211	0.433
-274.399	783.104	0.088	0.240
-273.384	53.466	-0.167	0.159
-272.370	582.877	0.047	0.114
-271.355	-95.533	-0.074	-0.020
-270.340	800.000	-0.047	-0.138
-269.326	428.982	-0.089	-0.190
-268.311	-141.245	0.122	0.012
-267.297	800.000	0.014	0.051
-266.282	-200.000	0.038	0.180
-265.267	-29.387	-0.155	-0.088
-264.253	170.121	-0.156	-0.222
-263.238	39.512	0.465	-0.414
-262.224	-200.000	0.002	-0.220
-261.209	800.000	0.059	-0.196
-260.195	-84.282	0.243	0.077
-259.180	50.166	-0.162	-0.152
-258.165	-200.000	0.102	-0.534
-257.151	295.686	-0.122	0.221
-256.136	-2.918	-0.052	0.036
-255.122	278.741	0.055	-0.098
-254.107	-72.629	-0.484	-0.177
-253.092	54.474	0.190	-0.182
-252.078	-200.000	0.000	0.015
-251.063	7.960	-0.093	0.070
-250.049	-41.278	-0.178	-0.091
-249.034	30.084	0.234	-0.198
-248.019	-200.000	-0.130	-0.645
-247.005	-98.633	-0.175	0.044
-245.990	-145.053	0.653	0.059
-244.976	-21.910	0.268	0.162
-243.961	1.674	-0.139	-0.099
-242.946	38.226	-0.206	0.182
-241.932	800.000	-0.039	0.115
-240.917	-25.642	0.330	0.193
-239.903	-200.000	0.058	-0.375
-238.888	800.000	0.058	0.160
-237.873	800.000	-0.064	0.177
-236.859	-63.425	0.148	0.060
-235.844	-24.558	0.166	0.098
-234.830	56.635	-0.044	-0.042
-233.815	127.579	-0.112	0.141
-232.800	-2.845	-0.259	-0.179
-231.786	-200.000	0.046	-0.662
-230.771	314.939	0.170	-0.317
-229.757	-103.267	-0.085	0.020
-228.742	-144.896	-0.111	0.010
-227.727	-200.000	0.021	0.113
-226.713	-200.000	-0.010	0.243
-225.698	8.025	-0.367	-0.273
-224.684	480.623	-0.035	-0.078
-223.669	-49.173	0.080	0.038
-222.655	-139.007	0.302	0.032
-221.640	-42.350	-0.082	0.041
-220.625	-200.000	0.028	0.306
-219.611	506.818	0.215	0.495
-218.596	-3.090	-0.019	-0.013
-217.582	-27.577	0.185	0.106
-216.567	800.000	-0.074	-0.224
-215.552	570.883	0.049	0.119
-214.538	88.851	0.225	-0.249
-213.523	-75.531	-0.230	0.081
-212.509	-94.475	-0.157	0.042
-211.494	-200.000	0.016	0.210
-210.479	-200.000	-0.041	0.190
-209.465	-107.653	-0.112	-0.024
-208.450	244.003	-0.072	-0.120
-207.436	-71.664	-0.026	0.010
-206.421	-169.373	0.199	-0.007
-205.406	299.898	0.043	-0.079
-204.392	-191.236	-0.087	-0.001
-203.377	-87.637	0.113	0.034
-202.363	16.414	-0.042	0.033
-201.348	800.000	-0.074	0.265
-200.333	-5.094	-0.105	0.072
-199.319	52.430	0.198	0.187
-198.304	65.998	-0.214	0.215
-197.290	-41.613	-0.236	0.120
-196.275	-85.765	-0.031	-0.009
-195.260	-110.102	0.167	0.035
-194.246	-74.736	0.408	-0.145
-193.231	97.441	0.255	0.290
-192.217	-48.380	-0.058	0.028
-191.202	-115.616	-0.198	-0.037
-190.187	-199.557	0.404	-0.002
-189.173	800.000	0.072	-0.226
-188.158	-200.000	0.024	0.108
-187.144	1.105	-0.339	0.241
-186.129	800.000	-0.061	-0.177
-185.114	20.567	-0.161	-0.129
-184.100	98.654	-0.152	-0.174
-183.085	35.829	-0.140	0.122
-182.071	392.648	0.138	0.284
-181.056	-159.910	0.199	0.011
-180.042	-3.549	-0.320	0.221
-179.027	-43.494	0.229	-0.114
-178.012	-82.615	0.302	-0.097
-176.998	308.850	-0.070	0.129
-175.983	691.439	-0.050	0.130
-174.969	-200.000	-0.006	-0.401
-173.954	-83.966	0.128	-0.040
-172.939	800.000	0.096	-0.274
-171.925	-59.808	-0.199	0.084
-170.910	318.859	-0.189	0.355
-169.896	-1.434	0.254	0.178
-168.881	800.000	0.055	-0.160
-167.866	-138.018	-0.194	0.021
-166.852	29.903	0.118	0.100
-165.837	10.058	0.402	0.302
-164.823	-58.863	0.223	0.095
-163.808	233.655	0.039	-0.063
-162.793	189.668	0.271	0.402
-161.779	-12.627	0.126	-0.081
-160.764	252.282	-0.160	0.270
-159.750	-98.081	0.454	0.116
-158.735	-138.170	-0.082	0.009
-157.720	710.517	-0.068	-0.177
-156.706	56.199	-0.285	-0.274
-155.691	800.000	0.075	-0.294
-154.677	-83.410	0.128	-0.041
-153.662	317.370	-0.086	0.160
-152.647	-87.340	0.563	-0.169
-151.633	147.746	-0.119	-0.158
-150.618	-200.000	0.049	-0.291
-149.604	-200.000	-0.004	-0.089
-148.589	-200.000	0.040	-0.287
-147.574	-60.954	-0.364	-0.152
-146.560	800.000	0.067	-0.239
-145.545	-200.000	0.007	0.082
-144.531	-200.000	-0.016	-0.085
-143.516	-63.492	0.386	-0.157
-142.502	38.155	0.183	0.161
-141.487	-83.946	-0.299	-0.094
-140.472	90.021	-0.183	0.202
-139.458	447.051	0.182	0.395
-138.443	-200.000	-0.045	-0.214
-137.429	-200.000	0.037	0.531
-136.414	-94.893	-0.228	-0.061
-135.399	34.590	0.032	0.028
-134.385	800.000	0.068	-0.244
-133.370	98.179	0.199	0.227
-132.356	432.035	-0.029	0.062
-131.341	-200.000	-0.022	-0.210
-130.326	42.575	-0.088	-0.079
-129.312	12.934	-0.098	0.075
-128.297	-198.232	-0.080	-0.000
-127.283	-200.000	-0.006	0.365
-126.268	-40.019	-0.151	0.078
-125.253	664.417	-0.104	-0.265
-124.239	364.363	-0.072	-0.143
-123.224	8.201	-0.143	-0.106
-122.210	234.326	-0.077	0.126
-121.195	6.467	-0.316	-0.232
-120.180	-200.000	-0.076	-0.433
