DTS Sentinel unit serial number:	SN413079Multiplexer serial number:	ORYXHardware model number:	OX4-SRSoftware version number:	ORYX F/W v4.00 Oryx Data Collector v3.7.2.0data status	okinstallation	princeton_trtdifferential loss correction	single-endedforward channel	channel 3reverse channel	N/Adate	2019/09/10time	18:10:11forward acquisition time	60.00reverse acquisition time	0.00gamma	496.2192k internal	0.2303k external	0.2303temperature offset calibration	0.9912default loss term (dB/km)	0.3790temperature slope calibration	1.0000multiplexer offset coefficient	1.0000multiplexer slope coefficient	1.0000fibre end	0.00T internal ref (°C)	36.77T ext. ref 1 (°C)	-0.34T ext. ref 2 (°C)	28.95length (m)	temperature (°C)	Stokes	anti-Stokes-747.200	-23.124	-0.198	0.121
-746.185	-177.354	-0.153	0.004
-745.171	-20.124	-0.121	0.076
-744.156	134.012	0.166	0.220
-743.142	49.046	-0.225	0.215
-742.127	-43.761	-0.212	0.109
-741.112	-99.967	0.369	-0.094
-740.098	190.638	0.176	0.269
-739.083	34.295	0.237	0.211
-738.069	-32.933	0.117	-0.066
-737.054	32.187	-0.128	-0.112
-736.039	-39.133	-0.183	0.098
-735.025	-106.616	0.189	-0.043
-734.010	-96.447	0.264	0.071
-732.996	9.075	-0.256	-0.197
-731.981	89.517	0.078	-0.089
-730.966	25.217	0.104	0.088
-729.952	800.000	-0.047	0.180
-728.937	-128.481	0.331	0.048
-727.923	313.696	-0.033	0.063
-726.908	354.708	-0.111	0.225
-725.894	-21.334	0.350	-0.217
-724.879	-200.000	-0.163	0.000
-723.864	200.759	0.252	0.395
-722.850	-137.014	-0.296	0.035
-721.835	800.000	-0.027	-0.095
-720.821	-28.455	0.201	0.118
-719.806	-157.573	-0.322	-0.020
-718.791	-79.203	-0.102	-0.035
-717.777	-75.089	0.241	0.088
-716.762	-200.000	0.006	-0.063
-715.748	-200.000	0.009	-0.179
-714.733	800.000	-0.143	-0.483
-713.718	654.324	0.132	-0.344
-712.704	39.201	0.112	0.102
-711.689	4.572	-0.414	0.309
-710.675	26.663	-0.109	0.092
-709.660	-143.337	-0.325	-0.032
-708.645	98.450	0.218	0.255
-707.631	-19.437	-0.147	-0.093
-706.616	-199.732	-0.302	0.002
-705.602	-200.000	0.020	-0.449
-704.587	-157.455	0.259	0.016
-703.572	303.224	0.214	-0.402
-702.558	689.244	-0.035	-0.094
-701.543	-64.809	0.160	0.066
-700.529	-161.519	0.291	-0.015
-699.514	-125.960	-0.229	0.035
-698.499	-13.032	0.112	0.074
-697.485	-51.682	-0.136	0.065
-696.470	-132.007	-0.142	-0.019
-695.456	-128.014	-0.162	-0.024
-694.441	628.368	0.028	0.071
-693.426	-200.000	0.009	0.062
-692.412	-135.596	0.136	-0.016
-691.397	511.382	-0.096	-0.228
-690.383	329.034	-0.214	-0.418
-689.368	181.056	0.238	0.355
-688.354	556.349	0.190	-0.465
-687.339	210.004	-0.077	0.122
-686.324	-200.000	0.003	-0.129
-685.310	-58.320	-0.048	-0.021
-684.295	-200.000	0.019	0.095
-683.281	-103.801	-0.282	-0.067
-682.266	96.789	-0.200	0.233
-681.251	-107.801	-0.355	-0.079
-680.237	148.460	0.028	-0.039
-679.222	-7.585	-0.198	-0.136
-678.208	800.000	0.049	-0.140
-677.193	-154.383	-0.244	-0.017
-676.178	185.277	0.163	-0.245
-675.164	312.432	-0.043	0.082
-674.149	-67.736	-0.134	0.053
-673.135	-103.443	-0.071	0.017
-672.120	7.208	-0.087	-0.066
-671.105	35.883	-0.182	-0.163
-670.091	-111.858	-0.246	0.051
-669.076	202.245	0.236	-0.370
-668.062	-59.336	0.302	0.132
-667.047	-200.000	0.018	0.088
-666.032	62.047	-0.218	-0.221
-665.018	-36.840	0.206	0.112
-664.003	537.027	-0.099	-0.238
-662.989	2.905	-0.111	-0.082
-661.974	27.495	0.097	0.083
-660.959	33.457	0.210	-0.185
-659.945	800.000	-0.063	0.218
-658.930	-200.000	0.023	-0.160
-657.916	-167.797	0.239	-0.010
-656.901	-16.219	-0.155	0.100
-655.886	191.662	-0.144	-0.220
-654.872	26.938	-0.049	0.042
-653.857	800.000	0.023	0.090
-652.843	118.260	-0.148	0.185
-651.828	124.502	0.048	0.061
-650.814	-20.361	0.039	-0.024
-649.799	-124.205	0.247	0.039
-648.784	172.173	0.132	-0.192
-647.770	-65.388	-0.261	-0.107
-646.755	-35.257	0.190	0.105
-645.741	174.664	0.300	-0.441
-644.726	420.130	-0.095	-0.207
-643.711	-117.820	0.246	-0.045
-642.697	91.847	0.244	0.279
-641.682	-129.993	0.410	-0.057
-640.668	124.938	-0.153	-0.196
-639.653	-200.000	0.023	-0.166
-638.638	800.000	-0.074	0.225
-637.624	15.290	0.096	-0.076
-636.609	396.132	0.175	-0.370
-635.595	-105.791	0.231	-0.053
-634.580	-199.247	0.163	0.001
-633.565	800.000	-0.031	-0.098
-632.551	-63.081	0.281	0.117
-631.536	-53.737	0.131	0.061
-630.522	800.000	0.034	-0.100
-629.507	-178.664	-0.048	-0.001
-628.492	319.838	-0.092	-0.177
-627.478	-92.641	0.209	-0.059
-626.463	43.182	-0.155	0.143
-625.449	-88.635	0.086	0.026
-624.434	-0.875	-0.099	-0.071
-623.419	-165.970	0.101	0.004
-622.405	299.341	0.088	0.164
-621.390	422.440	0.081	-0.177
-620.376	800.000	-0.072	0.207
-619.361	-200.000	0.047	0.252
-618.346	-115.087	0.251	-0.048
-617.332	-200.000	0.001	0.216
-616.317	-146.118	0.171	-0.015
-615.303	632.879	-0.065	-0.167
-614.288	-48.596	0.222	0.108
-613.273	800.000	-0.090	-0.281
-612.259	800.000	0.026	-0.090
-611.244	-137.270	-0.113	0.013
-610.230	-100.267	0.086	0.022
-609.215	17.007	-0.315	-0.253
-608.201	-77.085	-0.176	0.062
-607.186	633.283	0.003	0.008
-606.171	800.000	-0.093	-0.375
-605.157	-102.594	-0.251	-0.061
-604.142	76.255	-0.091	-0.098
-603.128	-200.000	0.005	-0.088
-602.113	-111.912	-0.348	-0.071
-601.098	-200.000	-0.002	-0.085
-600.084	800.000	0.022	-0.078
-599.069	-4.126	0.096	0.067
-598.055	36.072	-0.185	-0.165
-597.040	-81.196	0.160	-0.054
-596.025	-79.064	-0.165	0.057
-595.011	-150.935	0.243	-0.019
-593.996	-28.076	-0.189	0.111
-592.982	409.424	0.100	-0.215
-591.967	-162.739	-0.266	0.013
-590.952	-104.920	0.103	0.024
-589.938	-75.040	0.045	-0.016
-588.923	27.394	0.211	0.180
-587.909	17.803	0.168	-0.136
-586.894	-104.123	0.266	-0.063
-585.879	-128.886	0.320	0.046
-584.865	72.207	0.151	0.159
-583.850	800.000	0.065	0.242
-582.836	4.962	-0.221	0.165
-581.821	253.912	-0.054	0.093
-580.806	-74.323	-0.146	-0.054
-579.792	155.659	0.065	-0.091
-578.777	-12.693	-0.215	-0.142
-577.763	-200.000	0.045	-0.244
-576.748	-81.766	0.187	-0.062
-575.733	344.886	-0.077	0.153
-574.719	395.275	-0.096	-0.203
-573.704	378.472	-0.020	-0.041
-572.690	-124.758	0.259	0.040
-571.675	97.082	-0.062	-0.072
-570.661	416.952	-0.140	0.302
-569.646	355.889	0.026	0.053
-568.631	-111.977	-0.404	-0.082
-567.617	125.472	-0.161	0.205
-566.602	-48.595	-0.201	0.098
-565.588	615.129	-0.066	-0.166
-564.573	800.000	-0.011	0.038
-563.558	28.705	0.023	0.019
-562.544	290.785	0.081	0.149
-561.529	131.632	-0.227	0.295
-560.515	724.937	0.031	-0.085
-559.500	27.263	-0.373	-0.317
-558.485	-101.502	-0.065	-0.016
-557.471	-200.000	-0.038	0.237
-556.456	-154.936	0.039	-0.003
-555.442	800.000	0.049	-0.144
-554.427	53.478	0.023	0.023
-553.412	-67.152	-0.175	-0.070
-552.398	-200.000	-0.018	0.369
-551.383	-200.000	-0.009	0.166
-550.369	-28.021	0.338	-0.198
-549.354	-200.000	-0.009	0.183
-548.339	-54.863	0.138	-0.063
-547.325	-200.000	-0.007	-0.191
-546.310	800.000	0.085	-0.256
-545.296	-102.009	0.206	0.050
-544.281	-143.740	-0.252	0.024
-543.266	-200.000	-0.000	0.267
-542.252	800.000	-0.038	0.135
-541.237	-22.247	0.172	0.105
-540.223	-134.097	-0.300	-0.037
-539.208	31.067	-0.241	-0.209
-538.193	-62.368	-0.297	-0.125
-537.179	800.000	0.041	0.126
-536.164	800.000	-0.103	0.318
-535.150	-200.000	0.024	0.305
-534.135	-2.008	0.191	-0.136
-533.121	-81.211	-0.247	-0.082
-532.106	-200.000	0.007	-0.077
-531.091	179.216	-0.112	-0.165
-530.077	800.000	-0.114	0.366
-529.062	-37.133	-0.600	0.325
-528.048	790.947	-0.078	0.218
-527.033	64.143	0.138	-0.141
-526.018	-10.574	0.137	-0.091
-525.004	-121.720	0.112	0.019
-523.989	340.990	0.054	0.107
-522.975	800.000	-0.032	-0.137
-521.960	167.270	-0.195	0.279
-520.945	800.000	-0.053	-0.149
-519.931	-74.851	-0.121	0.044
-518.916	766.052	0.140	0.384
-517.902	76.207	0.116	-0.125
-516.887	800.000	-0.029	-0.127
-515.872	-200.000	-0.021	0.180
-514.858	-200.000	-0.050	-0.458
-513.843	250.680	-0.109	-0.186
-512.829	564.114	0.047	-0.115
-511.814	-53.292	-0.126	0.058
-510.799	-104.527	-0.239	-0.056
-509.785	-9.859	0.097	0.065
-508.770	-200.000	-0.006	0.237
-507.756	-39.983	0.236	-0.125
-506.741	-77.142	0.239	0.084
-505.726	-156.549	0.252	-0.016
-504.712	95.492	0.171	0.197
-503.697	-144.130	0.314	-0.030
-502.683	197.184	0.112	-0.173
-501.668	-200.000	0.021	-0.281
-500.653	-123.238	0.376	-0.061
-499.639	112.604	0.172	-0.210
-498.624	-63.258	0.153	-0.064
-497.610	170.544	0.006	-0.009
-496.595	800.000	-0.048	0.179
-495.581	-113.616	0.180	0.035
-494.566	-148.077	0.325	0.027
-493.551	-23.538	-0.323	-0.196
-492.537	14.126	0.113	-0.089
-491.522	-200.000	0.002	-0.135
-490.508	116.617	0.086	-0.106
-489.493	1.660	-0.158	0.115
-488.478	800.000	-0.048	0.177
-487.464	-200.000	-0.013	-0.101
-486.449	-0.006	0.138	0.099
-485.435	114.381	0.034	0.042
-484.420	-174.334	-0.469	-0.014
-483.405	26.301	0.077	0.065
-482.391	-200.000	-0.061	0.377
-481.376	-0.285	0.517	-0.370
-480.362	428.445	0.068	0.148
-479.347	-200.000	0.010	0.116
-478.332	10.613	0.266	-0.205
-477.318	50.891	-0.140	0.134
-476.303	-101.692	-0.358	-0.088
-475.289	-71.713	-0.509	0.191
-474.274	-200.000	-0.003	0.431
-473.259	24.294	-0.134	-0.111
-472.245	-42.525	0.209	-0.107
-471.230	176.158	0.168	-0.245
-470.216	172.081	-0.144	-0.208
-469.201	560.143	0.080	-0.195
-468.186	-176.603	-0.161	-0.004
-467.172	-112.035	-0.504	-0.102
-466.157	473.883	-0.102	-0.232
-465.143	-200.000	-0.036	-0.194
-464.128	335.738	-0.150	0.292
-463.113	-42.851	-0.195	0.100
-462.099	474.300	0.061	-0.139
-461.084	269.658	0.138	0.244
-460.070	57.928	-0.059	0.058
-459.055	-200.000	0.001	-0.271
-458.040	-200.000	-0.047	-0.320
-457.026	-200.000	-0.011	-0.222
-456.011	-101.265	0.221	-0.054
-454.997	122.184	-0.092	-0.116
-453.982	-49.652	-0.112	-0.053
-452.968	-18.611	-0.133	0.083
-451.953	-128.880	0.352	-0.050
-450.938	800.000	0.181	0.554
-449.924	-86.871	-0.259	-0.080
-448.909	-136.492	-0.076	-0.009
-447.895	227.285	0.141	-0.231
-446.880	-44.840	-0.330	0.166
-445.865	-110.630	-0.198	-0.041
-444.851	99.764	-0.131	-0.153
-443.836	-90.648	-0.174	0.050
-442.822	262.618	0.121	0.212
-441.807	322.225	-0.129	0.246
-440.792	-131.148	-0.181	0.024
-439.778	-137.031	0.077	-0.009
-438.763	-200.000	-0.002	-0.230
-437.749	79.961	-0.191	0.207
-436.734	-119.343	0.136	-0.024
-435.719	-200.000	-0.024	0.268
-434.705	-200.000	0.012	-0.099
-433.690	800.000	-0.083	0.362
-432.676	800.000	-0.076	0.229
-431.661	366.566	-0.061	-0.124
-430.646	-40.390	0.286	0.150
-429.632	22.614	-0.108	0.089
-428.617	596.851	0.114	0.283
-427.603	-109.320	0.230	-0.049
-426.588	-24.348	-0.288	0.173
-425.573	508.938	0.029	-0.068
-424.559	38.402	0.142	-0.127
-423.544	-200.000	0.016	-0.243
-422.530	-141.088	-0.356	0.037
-421.515	-63.531	-0.067	-0.028
-420.500	-31.675	0.121	-0.069
-419.486	172.277	0.056	-0.081
-418.471	175.049	-0.054	-0.078
-417.457	-200.000	0.040	-0.344
-416.442	-94.015	0.262	-0.072
-415.428	-200.000	0.002	-0.203
-414.413	33.032	-0.087	0.076
-413.398	-2.704	-0.194	0.136
-412.384	-139.170	-0.161	0.017
-411.369	138.408	-0.337	-0.444
-410.355	-58.342	0.134	-0.059
-409.340	800.000	0.059	0.254
-408.325	114.851	-0.055	-0.067
-407.311	-200.000	0.043	0.425
-406.296	162.826	0.154	0.218
-405.282	-73.810	0.110	-0.040
-404.267	116.933	-0.180	-0.223
-403.252	-179.183	0.231	0.005
-402.238	-188.150	0.214	-0.003
-401.223	-91.968	0.485	-0.138
-400.209	-169.634	0.137	0.005
-399.194	67.680	0.112	-0.115
-398.179	800.000	-0.104	-0.389
-397.165	-200.000	-0.065	-0.339
-396.150	46.964	0.140	-0.131
-395.136	800.000	-0.086	0.278
-394.121	-200.000	-0.017	0.106
-393.106	-135.736	0.165	0.020
-392.092	500.557	0.085	-0.197
-391.077	445.064	-0.069	0.153
-390.063	-200.000	-0.056	-0.323
-389.048	-74.669	-0.293	-0.106
-388.033	458.255	0.004	0.010
-387.019	59.591	-0.280	-0.278
-386.004	800.000	0.054	-0.205
-384.990	190.783	-0.213	-0.322
-383.975	-52.448	0.154	-0.072
-382.960	-127.313	0.091	0.013
-381.946	109.030	-0.096	-0.116
-380.931	-200.000	0.023	-0.113
-379.917	-16.320	-0.253	-0.161
-378.902	59.150	-0.201	0.198
-377.888	134.682	0.065	0.085
-376.873	-64.815	-0.118	0.048
-375.858	-47.226	-0.186	0.091
-374.844	800.000	-0.092	0.268
-373.829	330.989	0.073	0.142
-372.815	800.000	0.057	0.160
-371.800	52.741	0.346	-0.332
-370.785	52.393	0.127	0.121
-369.771	-33.090	-0.142	-0.079
-368.756	-40.950	0.355	-0.184
-367.742	-10.641	0.040	0.027
-366.727	348.184	0.080	-0.159
-365.712	7.886	0.126	0.095
-364.698	-53.611	0.422	0.194
-363.683	2.552	0.108	0.079
-362.669	-124.804	0.165	-0.026
-361.654	-200.000	0.021	0.240
-360.639	600.448	0.067	-0.166
-359.625	-200.000	0.070	0.307
-358.610	-200.000	-0.013	0.165
-357.596	-200.000	-0.038	0.260
-356.581	83.570	-0.086	-0.095
-355.566	-200.000	0.001	-0.133
-354.552	-157.046	-0.073	-0.004
-353.537	-200.000	0.042	0.327
-352.523	28.913	-0.113	0.096
-351.508	-116.981	-0.125	-0.023
-350.493	146.522	-0.174	-0.234
-349.479	-200.000	0.052	-0.322
-348.464	60.460	0.166	-0.165
-347.450	26.187	-0.460	0.386
-346.435	-0.346	0.244	0.174
-345.420	323.171	-0.259	0.496
-344.406	122.382	0.111	0.139
-343.391	-79.811	-0.128	0.043
-342.377	800.000	-0.052	-0.146
-341.362	701.927	-0.103	-0.271
-340.348	478.389	0.131	-0.296
-339.333	-14.735	0.138	-0.089
-338.318	-200.000	0.020	0.228
-337.304	-200.000	0.080	0.371
-336.289	243.443	0.120	0.201
-335.275	-198.675	-0.279	0.002
-334.260	-36.181	0.184	0.100
-333.245	265.202	-0.068	0.118
-332.231	-39.603	0.318	0.167
-331.216	-62.410	-0.306	-0.128
-330.202	-55.514	-0.188	0.084
-329.187	432.718	-0.060	0.129
-328.172	319.296	-0.094	-0.178
-327.158	371.563	0.096	-0.194
-326.143	-124.828	0.294	-0.045
-325.129	563.882	-0.067	0.164
-324.114	-38.808	-0.156	-0.083
-323.099	48.398	0.105	0.099
-322.085	-200.000	0.017	-0.125
-321.070	-24.775	-0.190	0.113
-320.056	-144.315	0.377	0.035
-319.041	-125.373	-0.365	-0.056
-318.026	180.941	-0.116	-0.171
-317.012	427.085	-0.209	0.452
-315.997	-116.090	0.264	0.049
-314.983	800.000	0.041	0.174
-313.968	-53.733	0.042	0.019
-312.953	-196.667	0.212	0.001
-311.939	-27.464	0.298	0.174
-310.924	800.000	0.030	0.124
-309.910	-112.077	0.187	0.038
-308.895	-67.835	-0.153	0.060
-307.880	-30.342	-0.094	-0.053
-306.866	-200.000	0.019	-0.220
-305.851	-66.960	0.249	-0.098
-304.837	24.679	-0.171	-0.142
-303.822	5.908	-0.078	0.058
-302.807	-29.415	-0.271	0.155
-301.793	56.445	0.082	-0.080
-300.778	-200.000	0.001	-0.183
-299.764	800.000	-0.061	-0.209
-298.749	56.370	-0.195	-0.190
-297.735	-200.000	0.003	-0.300
-296.720	143.731	-0.146	-0.194
-295.705	-78.087	0.145	0.050
-294.691	-115.480	-0.104	-0.020
-293.676	-200.000	0.107	-0.630
-292.662	-162.477	-0.379	0.019
-291.647	-22.717	-0.213	0.129
-290.632	800.000	0.058	0.211
-289.618	-200.000	-0.062	0.280
-288.603	-128.320	0.070	-0.010
-287.589	-200.000	0.008	0.198
-286.574	-50.799	0.211	-0.099
-285.559	161.008	0.072	-0.101
-284.545	-74.307	-0.038	-0.014
-283.530	-55.469	-0.178	-0.080
-282.516	-63.773	0.085	0.035
-281.501	800.000	0.014	0.052
-280.486	31.853	-0.103	-0.089
-279.472	-73.694	0.008	0.003
-278.457	102.995	0.195	0.229
-277.443	336.721	0.081	-0.158
-276.428	-200.000	-0.021	0.398
-275.413	-91.416	0.071	0.020
-274.399	174.355	0.143	-0.207
-273.384	-48.425	0.024	0.011
-272.370	-26.809	-0.217	-0.127
-271.355	-200.000	-0.002	-0.167
-270.340	435.725	-0.087	0.189
-269.326	258.417	0.210	0.362
-268.311	18.705	-0.243	0.195
-267.297	560.224	0.075	0.180
-266.282	358.414	0.150	0.301
-265.267	46.571	0.313	-0.290
-264.253	143.592	0.157	-0.209
-263.238	261.046	0.095	0.164
-262.224	163.259	0.078	-0.110
-261.209	47.226	0.098	0.091
-260.195	-28.441	0.191	-0.110
-259.180	549.412	-0.095	0.228
-258.165	-73.697	0.044	0.016
-257.151	-200.000	-0.048	0.344
-256.136	368.628	-0.159	-0.321
-255.122	-140.953	-0.146	0.015
-254.107	-200.000	0.019	-0.342
-253.092	800.000	0.095	0.329
-252.078	514.623	-0.046	0.108
-251.063	20.192	-0.205	-0.165
-250.049	-62.098	-0.240	0.100
-249.034	153.214	-0.073	-0.099
-248.019	800.000	0.083	-0.305
-247.005	-131.321	0.136	-0.018
-245.990	25.203	0.135	-0.112
-244.976	-143.544	-0.088	-0.008
-243.961	457.094	0.056	-0.125
-242.946	-200.000	-0.004	0.284
-241.932	-200.000	0.041	0.198
-240.917	-200.000	-0.013	0.135
-239.903	-58.552	-0.271	0.117
-238.888	-31.792	0.193	-0.108
-237.873	800.000	-0.087	0.310
-236.859	-157.728	-0.247	0.015
-235.844	-13.872	0.119	0.077
-234.830	-78.534	-0.067	0.023
-233.815	-200.000	-0.009	-0.134
-232.800	-73.745	0.080	-0.029
-231.786	-193.841	0.150	-0.001
-230.771	-44.721	-0.353	0.176
-229.757	-64.999	0.105	-0.043
-228.742	-24.608	-0.217	-0.129
-227.727	-200.000	-0.035	0.167
-226.713	-19.984	-0.104	0.064
-225.698	-144.133	0.196	-0.018
-224.684	-17.837	-0.292	0.183
-223.669	2.629	0.122	-0.088
-222.655	355.106	-0.036	-0.072
-221.640	527.852	-0.010	0.024
-220.625	-136.440	-0.241	-0.028
-219.611	-200.000	-0.048	0.220
-218.596	-72.767	0.278	-0.102
-217.582	-11.978	0.193	0.126
-216.567	-154.747	0.189	-0.012
-215.552	-159.242	0.084	0.005
-214.538	255.882	-0.190	0.325
-213.523	67.144	-0.135	-0.137
-212.509	-133.749	0.030	-0.004
-211.494	-17.715	0.370	-0.232
-210.479	-66.496	-0.394	-0.156
-209.465	-115.943	0.239	0.044
-208.450	-41.750	-0.097	-0.050
-207.436	-38.418	-0.187	0.099
-206.421	90.977	-0.134	0.150
-205.406	597.702	-0.046	-0.113
-204.392	-103.739	0.317	0.074
-203.377	-122.876	-0.084	0.013
-202.363	-200.000	-0.043	-0.233
-201.348	8.266	0.168	0.126
-200.333	-200.000	0.030	-0.227
-199.319	-36.143	-0.118	-0.063
-198.304	-106.316	0.130	0.029
-197.290	75.201	-0.250	0.263
-196.275	9.949	-0.252	0.191
-195.260	800.000	-0.050	0.212
-194.246	-86.744	-0.197	0.060
-193.231	89.171	0.239	-0.266
-192.217	51.096	0.198	-0.188
-191.202	-200.000	0.011	0.220
-190.187	-165.676	-0.192	0.008
-189.173	-106.799	0.219	-0.048
-188.158	533.987	0.127	0.301
-187.144	185.258	0.094	0.139
-186.129	19.419	-0.315	0.252
-185.114	-65.983	-0.113	-0.045
-184.100	215.651	-0.196	-0.309
-183.085	111.813	-0.053	0.064
-182.071	-44.153	0.070	0.035
-181.056	-153.422	-0.059	0.004
-180.042	800.000	0.065	-0.195
-179.027	-200.000	-0.013	0.216
-178.012	246.560	0.136	0.229
-176.998	-127.810	0.224	0.032
-175.983	-65.117	0.232	0.093
-174.969	290.934	0.198	0.360
-173.954	-71.813	-0.187	0.069
-172.939	92.671	-0.207	-0.233
-171.925	36.523	0.218	-0.192
-170.910	-180.782	0.070	0.001
-169.896	-26.990	0.044	-0.026
-168.881	432.564	-0.092	-0.200
-167.866	-11.566	-0.294	-0.192
-166.852	6.470	0.140	-0.104
-165.837	69.045	0.109	-0.112
-164.823	-37.736	0.115	-0.061
-163.808	-104.043	0.275	0.064
-162.793	-66.728	0.085	-0.033
-161.779	-200.000	0.034	0.165
-160.764	800.000	0.093	0.299
-159.750	800.000	-0.094	-0.269
-158.735	-200.000	0.037	-0.311
-157.720	37.631	-0.016	-0.014
-156.706	-1.806	0.096	0.067
-155.691	-63.022	-0.405	0.166
-154.677	-117.825	0.184	0.033
-153.662	800.000	0.016	-0.051
-152.647	-107.307	-0.300	-0.066
-151.633	-155.980	-0.146	0.009
-150.618	-200.000	-0.002	0.023
-149.604	-139.752	0.281	-0.030
-148.589	-70.888	-0.361	0.136
-147.574	-66.850	0.078	-0.031
-146.560	800.000	-0.022	-0.063
-145.545	258.242	0.250	0.429
-144.531	226.092	0.127	0.205
-143.516	-63.992	-0.219	-0.089
-142.502	318.502	0.082	0.155
-141.487	-74.505	0.381	-0.137
-140.472	225.847	-0.051	-0.082
-139.458	113.319	0.095	0.114
-138.443	-155.676	-0.103	-0.007
-137.429	-115.093	0.149	0.028
-136.414	-92.626	-0.163	-0.045
-135.399	-94.880	0.238	-0.064
-134.385	-77.229	0.188	-0.065
-133.370	47.725	0.072	0.067
-132.356	-92.444	0.310	-0.087
-131.341	156.040	0.232	0.318
-130.326	-200.000	0.051	-0.293
-129.312	-190.106	0.267	0.003
-128.297	332.563	-0.073	0.141
-127.283	22.751	0.107	-0.087
-126.268	70.262	0.159	-0.163
-125.253	-200.000	0.007	0.311
-124.239	-5.250	-0.097	0.066
-123.224	800.000	0.110	-0.348
-122.210	656.921	0.090	0.229
-121.195	18.631	-0.268	0.213
