DTS Sentinel unit serial number:	SN413079Multiplexer serial number:	ORYXHardware model number:	OX4-SRSoftware version number:	ORYX F/W v4.00 Oryx Data Collector v3.7.2.0data status	okinstallation	princeton_trtdifferential loss correction	single-endedforward channel	channel 3reverse channel	N/Adate	2019/09/17time	14:48:35forward acquisition time	60.00reverse acquisition time	0.00gamma	496.2192k internal	0.2297k external	0.2297temperature offset calibration	0.9955default loss term (dB/km)	0.3790temperature slope calibration	1.0000multiplexer offset coefficient	1.0000multiplexer slope coefficient	1.0000fibre end	0.00T internal ref (°C)	37.03T ext. ref 1 (°C)	0.39T ext. ref 2 (°C)	34.10length (m)	temperature (°C)	Stokes	anti-Stokes-747.200	-24.947	0.205	0.124
-746.185	-64.368	0.306	-0.127
-745.171	800.000	-0.058	-0.202
-744.156	98.897	0.061	-0.071
-743.142	204.922	0.070	-0.111
-742.127	-131.965	0.234	-0.031
-741.112	-111.223	-0.235	-0.049
-740.098	3.485	-0.268	0.200
-739.083	800.000	0.101	-0.304
-738.069	18.164	-0.399	0.325
-737.054	159.363	-0.094	-0.133
-736.039	92.230	0.052	-0.060
-735.025	228.658	0.115	0.191
-734.010	98.696	-0.193	-0.228
-732.996	-122.144	0.269	0.045
-731.981	104.864	-0.266	0.320
-730.966	-200.000	-0.012	0.097
-729.952	-158.437	-0.276	0.016
-728.937	1.673	-0.336	-0.247
-727.923	-93.385	-0.143	-0.040
-726.908	-32.275	0.033	0.019
-725.894	800.000	-0.034	-0.139
-724.879	-3.482	-0.347	0.247
-723.864	-200.000	-0.009	-0.342
-722.850	79.354	-0.209	0.228
-721.835	-200.000	-0.015	-0.336
-720.821	-200.000	-0.044	-0.300
-719.806	-122.585	-0.271	0.045
-718.791	-200.000	0.003	0.152
-717.777	-82.329	0.029	-0.010
-716.762	480.182	-0.171	-0.396
-715.748	-200.000	-0.017	-0.176
-714.733	233.372	0.144	-0.242
-713.718	78.557	-0.165	-0.180
-712.704	209.481	0.081	-0.129
-711.689	-40.089	-0.273	-0.145
-710.675	10.399	-0.086	-0.067
-709.660	-200.000	0.025	0.192
-708.645	37.046	0.065	0.058
-707.631	428.779	-0.065	0.144
-706.616	-163.197	0.253	0.012
-705.602	-99.209	-0.085	-0.022
-704.587	23.059	0.101	-0.084
-703.572	81.319	0.074	-0.082
-702.558	538.282	0.119	-0.289
-701.543	4.329	0.230	-0.172
-700.529	-200.000	-0.008	0.206
-699.514	800.000	0.203	0.610
-698.499	-136.786	-0.119	-0.014
-697.485	12.445	0.155	-0.122
-696.470	-106.060	0.146	-0.034
-695.456	438.281	0.009	-0.021
-694.441	-200.000	-0.039	-0.328
-693.426	-140.508	-0.242	-0.026
-692.412	159.144	-0.112	-0.158
-691.397	65.325	-0.147	-0.152
-690.383	441.650	0.109	-0.244
-689.368	-182.525	-0.230	-0.004
-688.354	-200.000	0.013	-0.196
-687.339	510.967	-0.178	0.423
-686.324	800.000	-0.027	-0.083
-685.310	-200.000	-0.043	-0.219
-684.295	-200.000	-0.053	-0.378
-683.281	-77.664	0.191	0.068
-682.266	-125.621	-0.101	0.016
-681.251	-200.000	0.001	0.145
-680.237	499.809	0.123	-0.289
-679.222	800.000	-0.021	0.063
-678.208	-13.196	-0.114	-0.075
-677.193	80.168	0.016	-0.017
-676.178	150.179	-0.113	-0.156
-675.164	-200.000	0.001	-0.192
-674.149	-200.000	0.070	0.335
-673.135	-200.000	0.020	0.232
-672.120	-80.001	-0.184	-0.063
-671.105	171.575	0.084	0.123
-670.091	178.725	-0.099	0.148
-669.076	95.397	0.093	-0.108
-668.062	95.999	-0.037	0.043
-667.047	-62.196	-0.099	-0.042
-666.032	47.042	0.040	0.038
-665.018	-164.054	-0.188	0.009
-664.003	-103.107	0.063	0.015
-662.989	30.015	-0.318	-0.276
-661.974	-17.192	-0.173	-0.111
-660.959	3.724	0.124	-0.092
-659.945	524.333	-0.012	0.028
-658.930	-4.863	-0.255	-0.179
-657.916	333.767	0.067	-0.132
-656.901	541.719	0.145	-0.352
-655.886	57.677	-0.072	0.072
-654.872	-70.777	0.155	0.059
-653.857	41.590	-0.054	-0.050
-652.843	-188.637	0.142	-0.002
-651.828	541.053	0.083	-0.202
-650.814	-39.670	0.064	-0.034
-649.799	-117.076	-0.406	0.075
-648.784	52.231	-0.272	0.264
-647.770	63.263	0.245	-0.250
-646.755	-200.000	0.014	-0.118
-645.741	-200.000	0.001	-0.103
-644.726	-100.521	-0.261	0.066
-643.711	-40.858	0.347	0.183
-642.697	-200.000	-0.025	-0.260
-641.682	126.502	-0.287	-0.370
-640.668	-104.043	-0.146	-0.035
-639.653	-200.000	0.009	-0.184
-638.638	414.401	0.086	0.186
-637.624	-200.000	-0.054	0.293
-636.609	-56.040	0.175	-0.079
-635.595	-118.760	-0.095	-0.017
-634.580	19.211	0.221	0.181
-633.565	152.085	-0.278	0.386
-632.551	484.981	-0.097	-0.225
-631.536	-6.287	-0.287	0.199
-630.522	203.295	-0.158	-0.248
-629.507	73.090	0.091	0.097
-628.492	-200.000	-0.019	0.156
-627.478	-129.460	-0.269	0.038
-626.463	-41.437	0.102	0.053
-625.449	-107.657	0.137	-0.030
-624.434	118.010	-0.271	-0.339
-623.419	24.290	-0.169	-0.142
-622.405	800.000	-0.124	-0.420
-621.390	-76.388	0.125	-0.045
-620.376	214.064	0.202	-0.326
-619.361	-170.124	-0.232	-0.008
-618.346	-168.040	-0.191	0.008
-617.332	120.416	-0.271	0.342
-616.317	151.400	0.070	-0.097
-615.303	-162.040	0.268	-0.014
-614.288	-11.121	0.349	-0.234
-613.273	495.257	-0.041	-0.096
-612.259	-7.535	-0.099	-0.068
-611.244	236.016	0.119	-0.199
-610.230	-111.027	0.197	-0.041
-609.215	-130.011	0.077	-0.011
-608.201	152.616	-0.010	0.014
-607.186	800.000	-0.145	0.476
-606.171	-200.000	-0.041	0.182
-605.157	98.429	0.094	-0.110
-604.142	180.032	-0.155	-0.231
-603.128	-20.421	-0.213	-0.133
-602.113	-41.314	-0.148	-0.077
-601.098	0.494	0.168	-0.122
-600.084	174.358	-0.069	-0.102
-599.069	102.429	-0.165	-0.196
-598.055	-21.475	-0.131	0.081
-597.040	-200.000	0.015	0.453
-596.025	-200.000	0.021	0.145
-595.011	-129.438	-0.202	0.028
-593.996	-200.000	0.001	0.147
-592.982	800.000	-0.036	0.105
-591.967	-26.228	-0.342	-0.204
-590.952	-200.000	0.027	-0.136
-589.938	8.086	-0.303	0.231
-588.923	248.476	0.128	-0.220
-587.909	-122.324	0.237	0.039
-586.894	551.631	-0.058	-0.142
-585.879	-117.617	0.210	-0.038
-584.865	38.152	0.136	0.123
-583.850	666.887	0.041	-0.108
-582.836	-35.857	0.092	0.051
-581.821	-200.000	0.083	-0.375
-580.806	-200.000	0.029	-0.191
-579.792	-28.403	-0.291	0.170
-578.777	-105.350	0.146	0.034
-577.763	-200.000	0.037	0.173
-576.748	-181.758	0.329	-0.006
-575.733	652.156	0.123	-0.321
-574.719	22.765	0.083	0.069
-573.704	-93.283	0.174	-0.049
-572.690	50.653	0.201	-0.193
-571.675	-85.542	0.280	0.088
-570.661	-142.120	-0.157	-0.016
-569.646	-167.038	0.104	-0.004
-568.631	706.976	0.011	0.030
-567.617	240.181	0.022	0.037
-566.602	229.479	-0.123	-0.204
-565.588	4.685	0.246	0.183
-564.573	-106.227	0.128	0.029
-563.558	315.070	-0.115	0.220
-562.544	-79.922	-0.032	-0.011
-561.529	506.640	0.093	0.218
-560.515	-0.680	-0.152	0.109
-559.500	-62.128	-0.237	-0.100
-558.485	1.683	-0.316	0.231
-557.471	424.208	-0.114	-0.250
-556.456	-10.614	0.132	0.089
-555.442	171.393	0.113	0.165
-554.427	-200.000	0.009	-0.080
-553.412	199.184	0.083	-0.130
-552.398	-152.383	-0.178	0.013
-551.383	-48.838	-0.228	-0.111
-550.369	-39.147	-0.243	-0.129
-549.354	233.609	0.048	-0.080
-548.339	36.731	0.221	0.198
-547.325	-200.000	-0.021	-0.195
-546.310	-120.253	0.444	-0.077
-545.296	-200.000	-0.010	-0.297
-544.281	456.435	-0.067	-0.152
-543.266	-200.000	0.068	0.462
-542.252	92.143	-0.013	0.015
-541.237	-200.000	-0.018	-0.259
-540.223	-88.545	-0.023	0.007
-539.208	52.692	0.116	-0.113
-538.193	61.240	-0.314	-0.317
-537.179	503.490	-0.081	0.190
-536.164	252.449	0.142	0.246
-535.150	772.103	0.167	0.462
-534.135	-136.518	-0.238	0.028
-533.121	22.372	-0.155	0.128
-532.106	-116.130	-0.323	0.061
-531.091	535.977	0.081	-0.194
-530.077	-64.273	0.175	-0.072
-529.062	49.265	-0.113	0.107
-528.048	227.634	-0.088	0.145
-527.033	390.099	0.107	-0.225
-526.018	-174.002	-0.368	0.011
-525.004	454.024	-0.153	-0.343
-523.989	-59.694	0.239	-0.104
-522.975	-200.000	-0.073	-0.329
-521.960	-200.000	0.046	-0.221
-520.945	14.392	-0.198	0.156
-519.931	-49.631	0.219	0.106
-518.916	-200.000	-0.003	0.079
-517.902	-9.242	-0.118	0.080
-516.887	-80.154	0.070	-0.024
-515.872	48.703	-0.194	0.184
-514.858	184.610	0.069	0.104
-513.843	-93.726	0.068	0.019
-512.829	-77.314	0.136	-0.048
-511.814	-200.000	0.007	0.179
-510.799	53.717	-0.112	-0.108
-509.785	-200.000	0.006	0.266
-508.770	800.000	0.014	0.039
-507.756	-8.501	-0.099	-0.067
-506.741	-8.473	-0.116	0.079
-505.726	-78.111	-0.199	0.069
-504.712	-56.834	-0.130	0.058
-503.697	184.983	0.224	0.336
-502.683	-200.000	-0.042	-0.353
-501.668	800.000	-0.060	-0.170
-500.653	390.520	0.030	-0.064
-499.639	396.894	0.072	0.153
-498.624	107.432	-0.050	0.060
-497.610	-58.860	0.068	-0.030
-496.595	800.000	-0.027	-0.092
-495.581	-109.982	0.328	0.070
-494.566	-73.905	-0.324	-0.119
-493.551	-47.219	0.099	-0.049
-492.537	-91.230	-0.178	-0.052
-491.522	11.926	0.212	0.165
-490.508	-200.000	-0.030	0.222
-489.493	-37.403	0.116	0.062
-488.478	-200.000	0.004	0.124
-487.464	-169.370	0.085	-0.003
-486.449	589.199	0.061	0.153
-485.435	-59.646	-0.239	0.104
-484.420	233.556	-0.128	-0.213
-483.405	-15.396	-0.130	0.084
-482.391	20.671	-0.076	0.062
-481.376	-199.864	0.184	-0.001
-480.362	410.728	-0.039	0.083
-479.347	-200.000	-0.042	-0.357
-478.332	-94.532	-0.133	-0.037
-477.318	-103.400	-0.222	0.053
-476.303	-86.127	0.177	-0.055
-475.289	151.414	-0.108	0.149
-474.274	800.000	-0.062	0.202
-473.259	107.520	0.263	-0.316
-472.245	-200.000	0.002	0.263
-471.230	-200.000	0.005	0.081
-470.216	-90.271	-0.207	0.061
-469.201	-13.822	0.143	-0.093
-468.186	-200.000	-0.031	0.208
-467.172	755.511	-0.064	0.175
-466.157	291.751	0.161	-0.297
-465.143	800.000	0.097	-0.364
-464.128	-200.000	-0.001	-0.132
-463.113	30.968	0.093	0.081
-462.099	255.363	0.175	-0.304
-461.084	-71.214	0.225	-0.085
-460.070	800.000	-0.110	-0.348
-459.055	800.000	-0.082	-0.300
-458.040	-92.034	0.344	-0.098
-457.026	-53.851	0.204	0.094
-456.011	800.000	0.031	0.128
-454.997	-74.614	0.236	0.086
-453.982	71.584	-0.117	-0.123
-452.968	573.402	0.045	-0.110
-451.953	-146.067	-0.280	0.025
-450.938	-36.251	-0.332	-0.181
-449.924	-200.000	0.027	0.138
-448.909	-164.652	0.239	0.011
-447.895	-151.092	-0.268	-0.020
-446.880	64.546	0.164	0.167
-445.865	-125.905	0.073	0.011
-444.851	-200.000	-0.013	0.140
-443.836	-34.507	-0.267	0.148
-442.822	-200.000	-0.023	0.140
-441.807	-40.853	-0.069	-0.036
-440.792	82.434	0.104	-0.114
-439.778	-58.684	0.111	0.049
-438.763	-95.769	0.131	-0.035
-437.749	-41.932	0.203	0.105
-436.734	800.000	-0.096	-0.336
-435.719	34.548	-0.163	-0.144
-434.705	229.826	0.020	-0.033
-433.690	72.030	0.071	-0.075
-432.676	781.101	0.031	-0.086
-431.661	-61.868	-0.342	0.144
-430.646	-106.534	0.123	-0.028
-429.632	800.000	-0.038	0.150
-428.617	-63.573	0.070	-0.029
-427.603	-126.447	-0.110	0.016
-426.588	-4.078	0.236	-0.165
-425.573	-19.249	-0.174	0.109
-424.559	-123.590	-0.286	-0.046
-423.544	-35.635	-0.145	-0.079
-422.530	-200.000	-0.042	0.320
-421.515	28.288	-0.293	-0.250
-420.500	-180.163	0.330	-0.007
-419.486	126.387	0.120	0.154
-418.471	165.645	-0.084	0.120
-417.457	-143.049	-0.376	-0.037
-416.442	103.188	0.065	-0.076
-415.428	-111.298	0.120	-0.025
-414.413	-200.000	-0.018	-0.145
-413.398	4.064	0.113	-0.083
-412.384	-200.000	0.040	-0.263
-411.369	356.957	0.267	0.537
-410.355	-174.414	-0.395	-0.011
-409.340	230.200	-0.105	-0.173
-408.325	192.148	0.170	-0.259
-407.311	-200.000	0.019	0.257
-406.296	298.022	0.157	0.290
-405.282	340.514	-0.052	0.102
-404.267	443.417	0.109	0.240
-403.252	34.249	-0.257	0.226
-402.238	396.011	-0.161	0.339
-401.223	52.174	0.045	0.043
-400.209	-200.000	0.019	0.343
-399.194	-140.386	-0.322	0.034
-398.179	27.084	-0.104	-0.088
-397.165	-71.719	0.123	0.046
-396.150	-81.558	-0.449	0.149
-395.136	-200.000	0.030	-0.146
-394.121	398.039	-0.036	-0.076
-393.106	392.989	-0.095	-0.200
-392.092	-109.864	-0.121	-0.026
-391.077	-95.196	-0.333	0.091
-390.063	-5.647	-0.117	-0.081
-389.048	42.632	-0.192	-0.176
-388.033	800.000	-0.095	-0.296
-387.019	-135.145	0.267	-0.032
-386.004	-20.511	0.190	-0.117
-384.990	274.583	0.058	0.104
-383.975	19.405	0.106	-0.086
-382.960	-73.046	0.123	-0.045
-381.946	2.862	0.114	-0.083
-380.931	-24.495	0.125	0.075
-379.917	-28.638	-0.166	-0.096
-378.902	7.200	-0.197	0.148
-377.888	-200.000	-0.015	0.256
-376.873	-11.044	0.125	-0.083
-375.858	701.705	-0.144	0.381
-374.844	-168.973	0.354	0.013
-373.829	-124.903	-0.292	-0.045
-372.815	-200.000	-0.011	0.181
-371.800	-146.637	0.110	0.010
-370.785	89.310	-0.093	-0.105
-369.771	29.114	0.146	0.125
-368.756	74.234	0.195	0.206
-367.742	-70.207	0.287	0.110
-366.727	-90.901	-0.203	0.059
-365.712	208.571	-0.133	-0.210
-364.698	303.263	-0.137	0.256
-363.683	39.044	-0.260	-0.234
-362.669	-71.466	0.177	0.067
-361.654	-15.949	-0.138	0.088
-360.639	-107.292	-0.409	-0.091
-359.625	31.446	0.025	-0.022
-358.610	-1.492	0.304	0.216
-357.596	720.592	0.032	0.085
-356.581	-200.000	-0.042	0.199
-355.566	-98.942	0.184	0.047
-354.552	-200.000	0.051	0.263
-353.537	800.000	0.087	-0.353
-352.523	27.582	-0.130	0.110
-351.508	-7.698	0.274	-0.186
-350.493	-200.000	-0.014	-0.317
-349.479	-71.479	-0.239	-0.090
-348.464	-31.871	0.116	0.065
-347.450	-113.777	0.327	-0.064
-346.435	-200.000	0.009	0.107
-345.420	-200.000	0.024	-0.255
-344.406	-94.285	-0.093	0.026
-343.391	-200.000	0.006	0.252
-342.377	-52.775	-0.276	-0.128
-341.362	-22.450	-0.266	-0.162
-340.348	283.724	-0.156	0.282
-339.333	-172.421	-0.189	0.006
-338.318	6.874	-0.049	0.037
-337.304	-200.000	0.004	0.264
-336.289	-23.770	0.202	-0.122
-335.275	344.411	-0.197	-0.388
-334.260	115.035	0.171	0.210
-333.245	800.000	-0.019	0.055
-332.231	120.159	0.100	0.125
-331.216	-31.244	0.074	0.042
-330.202	-174.636	0.270	0.008
-329.187	-50.318	-0.115	0.054
-328.172	60.704	0.224	-0.223
-327.158	-166.459	-0.093	-0.004
-326.143	195.428	0.138	-0.211
-325.129	94.116	0.203	-0.232
-324.114	373.346	0.134	-0.273
-323.099	-200.000	0.017	0.415
-322.085	-200.000	0.027	-0.138
-321.070	749.443	0.027	-0.073
-320.056	69.990	-0.218	-0.226
-319.041	-24.366	-0.105	-0.063
-318.026	4.017	0.276	-0.203
-317.012	37.131	-0.095	-0.084
-315.997	-124.750	0.085	-0.013
-314.983	-106.446	0.129	0.029
-313.968	113.233	0.099	-0.121
-312.953	-76.186	-0.212	0.075
-311.939	-200.000	-0.027	0.208
-310.924	800.000	0.041	0.129
-309.910	416.994	-0.143	0.306
-308.895	-87.955	-0.079	-0.024
-307.880	-200.000	0.001	-0.366
-306.866	240.276	-0.151	-0.253
-305.851	-200.000	0.017	0.128
-304.837	800.000	-0.078	-0.292
-303.822	-162.490	0.218	0.011
-302.807	692.860	0.043	-0.114
-301.793	744.274	0.129	0.348
-300.778	-71.936	0.213	-0.079
-299.764	-200.000	-0.010	0.232
-298.749	-200.000	-0.021	0.254
-297.735	800.000	0.013	-0.038
-296.720	-200.000	0.010	0.269
-295.705	-129.266	0.178	-0.025
-294.691	-15.686	0.149	-0.095
-293.676	-200.000	0.046	-0.308
-292.662	-102.749	-0.023	-0.006
-291.647	-200.000	0.017	-0.273
-290.632	-117.569	0.218	-0.040
-289.618	489.364	0.144	-0.329
-288.603	-115.086	-0.166	0.032
-287.589	-200.000	-0.002	0.100
-286.574	-84.346	-0.268	-0.085
-285.559	-200.000	0.024	0.368
-284.545	481.513	-0.066	-0.150
-283.530	-134.925	-0.295	0.036
-282.516	19.170	-0.245	0.197
-281.501	-82.245	0.245	-0.080
-280.486	47.285	-0.259	-0.242
-279.472	800.000	0.061	-0.217
-278.457	213.629	0.127	0.202
-277.443	-200.000	0.022	0.494
-276.428	54.121	0.174	0.168
-275.413	800.000	-0.079	0.219
-274.399	-25.358	0.007	0.004
-273.384	29.319	0.123	0.105
-272.370	800.000	-0.056	-0.242
-271.355	24.567	0.336	0.279
-270.340	231.860	0.233	0.383
-269.326	-141.122	-0.145	-0.015
-268.311	-64.194	-0.287	0.117
-267.297	324.451	-0.049	0.095
-266.282	-41.896	0.265	-0.136
-265.267	800.000	-0.043	0.137
-264.253	800.000	0.020	-0.064
-263.238	-74.502	0.366	0.132
-262.224	415.364	-0.079	-0.168
-261.209	282.402	-0.061	-0.110
-260.195	-81.325	-0.267	-0.088
-259.180	-150.542	-0.201	0.015
-258.165	64.607	0.233	0.236
-257.151	-14.052	-0.101	-0.065
-256.136	61.284	-0.097	-0.097
-255.122	-3.009	-0.076	0.053
-254.107	-67.668	-0.116	0.045
-253.092	800.000	0.019	0.058
-252.078	-200.000	0.070	-0.326
-251.063	15.380	0.296	0.233
-250.049	-107.112	-0.122	-0.027
-249.034	800.000	0.022	0.070
-248.019	66.404	0.153	0.156
-247.005	-81.066	0.161	0.053
-245.990	-0.278	0.225	-0.160
-244.976	-200.000	0.008	-0.198
-243.961	-200.000	0.012	-0.146
-242.946	4.432	0.201	0.147
-241.932	800.000	0.032	0.092
-240.917	435.271	-0.139	-0.304
-239.903	-61.926	0.201	0.084
-238.888	800.000	-0.041	-0.135
-237.873	560.844	-0.014	0.035
-236.859	284.465	-0.035	0.064
-235.844	61.397	0.227	-0.226
-234.830	800.000	0.018	-0.079
-233.815	-200.000	0.042	-0.216
-232.800	-200.000	0.033	-0.230
-231.786	49.327	-0.214	0.202
-230.771	112.906	-0.195	-0.237
-229.757	29.773	-0.060	0.051
-228.742	800.000	0.034	0.116
-227.727	-147.426	-0.307	-0.026
-226.713	10.636	0.110	0.084
-225.698	-30.456	-0.266	-0.151
-224.684	396.377	0.209	0.438
-223.669	-89.187	-0.106	-0.031
-222.655	135.586	0.134	0.174
-221.640	5.553	-0.154	-0.114
-220.625	55.917	-0.051	-0.050
-219.611	7.036	0.241	-0.180
-218.596	-106.744	-0.234	-0.052
-217.582	405.143	0.074	0.156
-216.567	-57.094	0.201	0.089
-215.552	-200.000	-0.030	-0.407
-214.538	-21.512	0.277	-0.169
-213.523	-35.054	-0.107	0.058
-212.509	217.608	-0.146	-0.233
-211.494	-134.601	-0.178	-0.022
-210.479	-64.584	0.282	-0.115
-209.465	78.345	0.260	0.278
-208.450	-200.000	-0.010	-0.082
-207.436	696.706	0.140	0.367
-206.421	-126.412	-0.298	-0.044
-205.406	-200.000	-0.019	0.126
-204.392	-121.101	0.184	-0.031
-203.377	-70.374	-0.294	-0.111
-202.363	-177.568	0.182	0.004
-201.348	117.978	-0.041	-0.051
-200.333	-83.185	0.104	-0.033
-199.319	-200.000	-0.019	-0.293
-198.304	145.846	0.278	0.373
-197.290	677.334	-0.051	0.133
-196.275	66.453	-0.127	-0.129
-195.260	33.182	0.162	-0.140
-194.246	253.443	0.043	0.074
-193.231	66.384	0.040	-0.041
-192.217	-200.000	-0.018	0.203
-191.202	-102.116	-0.450	-0.108
-190.187	-200.000	0.076	-0.381
-189.173	-200.000	0.018	0.245
-188.158	-194.253	-0.073	-0.001
-187.144	-19.843	0.366	0.226
-186.129	60.633	-0.186	0.184
-185.114	-48.699	0.307	0.147
-184.100	42.905	0.210	-0.191
-183.085	194.869	0.108	0.164
-182.071	-50.202	-0.263	-0.124
-181.056	-22.587	0.142	0.086
-180.042	800.000	0.055	-0.192
-179.027	-36.240	-0.227	-0.122
-178.012	-65.027	-0.084	-0.034
-176.998	-73.665	-0.131	-0.048
-175.983	-111.689	-0.371	0.075
-174.969	-200.000	-0.008	-0.068
-173.954	213.604	-0.020	-0.032
-172.939	150.502	0.154	0.209
-171.925	47.197	-0.195	0.181
-170.910	127.511	0.160	0.203
-169.896	91.796	0.201	0.225
-168.881	135.597	0.124	-0.162
-167.866	582.292	-0.123	-0.301
-166.852	-77.323	-0.015	0.005
-165.837	-113.097	-0.123	0.024
-164.823	73.601	0.088	-0.092
-163.808	-118.548	0.211	0.037
-162.793	-200.000	-0.031	0.485
-161.779	-200.000	-0.025	-0.142
-160.764	-138.318	0.113	-0.013
-159.750	8.203	0.228	0.171
-158.735	48.156	0.214	-0.200
-157.720	-61.832	0.154	-0.065
-156.706	-83.170	0.450	0.144
-155.691	16.150	0.357	0.281
-154.677	-22.944	-0.101	0.061
-153.662	32.935	-0.026	-0.023
-152.647	-200.000	0.007	0.072
-151.633	-39.002	0.176	0.092
-150.618	118.850	-0.075	-0.092
-149.604	-200.000	-0.018	0.205
-148.589	800.000	0.063	-0.271
-147.574	197.813	0.059	-0.089
-146.560	472.399	0.035	0.078
-145.545	-8.876	-0.495	-0.331
-144.531	-196.954	0.359	0.002
-143.516	-22.122	0.229	0.139
-142.502	800.000	0.038	0.104
-141.487	-200.000	-0.008	0.122
-140.472	96.923	0.071	0.081
-139.458	-200.000	0.088	0.421
-138.443	-32.665	-0.429	0.238
-137.429	-65.620	-0.218	0.087
-136.414	144.553	-0.094	0.125
-135.399	-125.423	-0.027	0.004
-134.385	-200.000	-0.022	0.128
-133.370	-78.546	0.467	0.159
-132.356	-62.551	0.068	0.028
-131.341	325.563	-0.062	-0.118
-130.326	-200.000	0.010	-0.070
-129.312	-200.000	0.033	-0.159
-128.297	-136.482	0.126	-0.015
-127.283	280.547	0.116	0.207
-126.268	-124.989	0.179	0.027
-125.253	-15.439	-0.169	-0.108
-124.239	800.000	0.111	-0.350
-123.224	-21.345	-0.260	0.158
-122.210	344.536	0.110	0.215
-121.195	156.129	-0.235	-0.323
