DTS Sentinel unit serial number:	SN413079Multiplexer serial number:	ORYXHardware model number:	OX4-SRSoftware version number:	ORYX F/W v4.00 Oryx Data Collector v3.7.2.0data status	okinstallation	princeton_trtdifferential loss correction	single-endedforward channel	channel 3reverse channel	N/Adate	2019/09/11time	23:10:11forward acquisition time	60.00reverse acquisition time	0.00gamma	496.2192k internal	0.2317k external	0.2317temperature offset calibration	1.0049default loss term (dB/km)	0.3790temperature slope calibration	1.0000multiplexer offset coefficient	1.0000multiplexer slope coefficient	1.0000fibre end	0.00T internal ref (°C)	34.50T ext. ref 1 (°C)	1.84T ext. ref 2 (°C)	28.45length (m)	temperature (°C)	Stokes	anti-Stokes-747.200	800.000	0.066	-0.200
-746.185	-170.234	-0.064	0.002
-745.171	-114.140	-0.395	-0.077
-744.156	-200.000	-0.062	0.287
-743.142	120.970	-0.060	-0.075
-742.127	186.516	0.183	-0.277
-741.112	-39.760	0.208	-0.110
-740.098	-73.830	-0.370	-0.136
-739.083	49.461	-0.103	-0.098
-738.069	-200.000	0.002	-0.021
-737.054	65.949	0.077	0.079
-736.039	29.574	-0.360	-0.310
-735.025	-200.000	0.015	0.128
-734.010	-24.855	-0.300	-0.180
-732.996	46.292	-0.172	-0.161
-731.981	26.347	0.068	0.058
-730.966	330.671	-0.092	-0.179
-729.952	331.328	0.220	-0.428
-728.937	-12.043	-0.288	-0.191
-727.923	119.384	0.097	0.121
-726.908	800.000	0.049	0.213
-725.894	-200.000	0.004	-0.070
-724.879	-200.000	0.007	-0.079
-723.864	78.740	-0.223	-0.242
-722.850	-58.411	0.182	0.080
-721.835	119.638	-0.232	0.291
-720.821	800.000	0.072	-0.219
-719.806	-200.000	0.029	-0.184
-718.791	-149.803	0.041	-0.003
-717.777	7.106	-0.146	-0.110
-716.762	274.579	0.188	0.337
-715.748	-200.000	0.042	0.188
-714.733	42.158	-0.134	-0.123
-713.718	-194.950	-0.086	0.001
-712.704	-200.000	-0.071	0.344
-711.689	-83.098	0.246	-0.080
-710.675	543.385	-0.066	-0.158
-709.660	64.503	0.040	-0.041
-708.645	-131.969	0.122	-0.016
-707.631	-83.280	0.130	-0.042
-706.616	800.000	-0.049	-0.142
-705.602	-151.638	-0.200	-0.015
-704.587	527.848	-0.147	0.351
-703.572	165.664	-0.142	-0.203
-702.558	-96.840	-0.392	0.104
-701.543	196.256	0.135	-0.208
-700.529	652.093	-0.148	-0.384
-699.514	-112.309	-0.198	0.040
-698.499	-200.000	-0.056	0.273
-697.485	-86.961	-0.150	-0.046
-696.470	-125.504	0.222	-0.034
-695.456	-200.000	0.086	0.425
-694.441	-105.293	0.226	-0.052
-693.426	-61.203	0.202	-0.086
-692.412	518.705	-0.101	-0.239
-691.397	-55.204	0.059	-0.027
-690.383	-200.000	0.009	0.188
-689.368	43.080	-0.272	0.251
-688.354	-200.000	-0.336	0.001
-687.339	800.000	-0.072	-0.272
-686.324	530.822	0.008	-0.018
-685.310	407.145	-0.089	-0.191
-684.295	-200.000	-0.029	0.176
-683.281	-89.290	0.195	0.058
-682.266	374.527	0.078	0.161
-681.251	88.269	-0.189	-0.212
-680.237	-200.000	0.004	-0.112
-679.222	-200.000	0.012	-0.127
-678.208	800.000	-0.033	-0.139
-677.193	-183.475	-0.199	-0.003
-676.178	463.028	-0.034	-0.076
-675.164	800.000	-0.062	-0.229
-674.149	800.000	0.022	-0.065
-673.135	93.975	0.151	-0.172
-672.120	-99.769	0.211	-0.053
-671.105	-200.000	0.016	0.097
-670.091	-190.162	-0.235	-0.003
-669.076	-33.551	0.072	-0.040
-668.062	800.000	0.037	0.111
-667.047	-59.993	-0.270	-0.116
-666.032	89.376	0.087	-0.097
-665.018	61.955	-0.214	-0.216
-664.003	-200.000	-0.099	-0.446
-662.989	70.853	0.174	-0.182
-661.974	312.400	-0.097	-0.183
-660.959	187.108	-0.077	-0.116
-659.945	-200.000	0.004	0.018
-658.930	50.079	-0.179	0.171
-657.916	491.698	-0.162	-0.373
-656.901	531.767	-0.053	0.126
-655.886	-42.524	-0.418	-0.215
-654.872	-149.381	0.149	-0.012
-653.857	800.000	-0.069	0.272
-652.843	-200.000	0.066	-0.397
-651.828	72.183	0.041	-0.044
-650.814	430.016	0.108	0.236
-649.799	-200.000	0.047	0.408
-648.784	15.833	-0.079	0.062
-647.770	-117.867	-0.211	-0.038
-646.755	511.340	0.059	-0.138
-645.741	278.363	-0.099	0.179
-644.726	-200.000	0.020	0.180
-643.711	-2.509	0.051	-0.036
-642.697	-119.153	-0.256	0.045
-641.682	-121.278	0.067	-0.011
-640.668	-77.763	0.043	0.015
-639.653	797.233	0.103	-0.286
-638.638	-90.053	-0.113	-0.033
-637.624	111.849	-0.173	0.211
-636.609	-107.289	0.307	-0.068
-635.595	28.942	0.020	0.017
-634.580	-200.000	-0.076	0.367
-633.565	-200.000	-0.037	0.213
-632.551	-162.213	0.119	0.006
-631.536	157.741	0.328	0.458
-630.522	-88.794	-0.302	0.090
-629.507	250.856	0.137	-0.235
-628.492	800.000	0.029	-0.113
-627.478	-78.065	-0.132	-0.046
-626.463	-158.895	-0.118	-0.007
-625.449	-67.115	0.301	-0.119
-624.434	489.220	-0.064	-0.147
-623.419	-156.405	-0.147	0.009
-622.405	-72.428	0.160	0.060
-621.390	-45.822	0.195	0.097
-620.376	-200.000	-0.077	-0.521
-619.361	800.000	-0.106	-0.305
-618.346	-71.751	-0.394	0.148
-617.332	-138.373	0.044	0.005
-616.317	-62.451	-0.393	-0.165
-615.303	800.000	0.066	-0.258
-614.288	-200.000	0.029	-0.347
-613.273	406.644	0.025	0.053
-612.259	-96.686	0.133	-0.035
-611.244	-8.938	0.317	-0.214
-610.230	-200.000	-0.003	-0.235
-609.215	47.104	-0.043	0.040
-608.201	800.000	0.055	0.234
-607.186	7.387	0.094	0.071
-606.171	30.814	-0.056	-0.049
-605.157	236.216	-0.081	0.135
-604.142	-121.080	-0.217	-0.037
-603.128	56.261	0.138	0.135
-602.113	-200.000	0.011	0.084
-601.098	-200.000	0.007	0.234
-600.084	608.844	-0.051	-0.129
-599.069	-61.296	0.133	0.056
-598.055	608.336	-0.138	-0.348
-597.040	36.041	-0.244	-0.216
-596.025	56.559	0.049	0.048
-595.011	-142.995	0.044	-0.004
-593.996	-74.496	0.177	0.064
-592.982	-200.000	-0.031	0.160
-591.967	-91.880	-0.204	-0.058
-590.952	25.872	-0.128	0.108
-589.938	153.010	-0.166	0.228
-588.923	85.680	0.118	0.131
-587.909	616.129	0.073	0.184
-586.894	800.000	-0.055	0.238
-585.879	-200.000	-0.001	0.167
-584.865	-94.358	-0.311	0.085
-583.850	270.639	0.117	-0.207
-582.836	-46.494	-0.153	0.076
-581.821	-84.519	-0.145	-0.046
-580.806	-200.000	-0.025	0.189
-579.792	696.658	0.124	-0.328
-578.777	-18.330	-0.126	0.079
-577.763	41.335	0.166	0.151
-576.748	-157.695	-0.241	0.014
-575.733	-119.497	0.377	-0.066
-574.719	50.512	0.343	0.326
-573.704	-40.734	-0.064	-0.033
-572.690	15.798	-0.226	-0.179
-571.675	-11.669	0.140	0.093
-570.661	318.192	-0.016	-0.030
-569.646	532.315	0.090	0.214
-568.631	121.149	0.124	-0.156
-567.617	-59.971	0.144	0.062
-566.602	118.609	0.087	-0.108
-565.588	196.775	0.014	-0.021
-564.573	1.953	0.161	-0.116
-563.558	44.030	0.087	0.080
-562.544	261.348	-0.099	0.172
-561.529	-200.000	-0.052	-0.250
-560.515	-167.184	0.241	0.010
-559.500	-154.088	0.103	-0.007
-558.485	743.011	0.051	-0.139
-557.471	-62.532	-0.147	-0.062
-556.456	-163.535	-0.217	-0.010
-555.442	-132.022	0.246	0.032
-554.427	-23.828	0.191	-0.115
-553.412	-70.829	0.227	0.086
-552.398	-68.321	-0.420	-0.164
-551.383	-18.940	-0.253	0.158
-550.369	800.000	0.082	-0.298
-549.354	254.900	0.079	-0.136
-548.339	309.379	-0.153	0.288
-547.325	139.634	-0.007	-0.009
-546.310	-71.303	0.181	-0.068
-545.296	-200.000	0.013	0.340
-544.281	-200.000	0.007	0.220
-543.266	-113.256	-0.317	-0.063
-542.252	-32.251	0.132	-0.074
-541.237	-88.230	-0.230	0.069
-540.223	-200.000	-0.016	-0.116
-539.208	-33.782	-0.126	-0.070
-538.193	545.831	-0.049	-0.117
-537.179	-73.888	0.298	-0.109
-536.164	-81.672	-0.327	-0.108
-535.150	800.000	0.119	0.349
-534.135	-200.000	-0.024	-0.313
-533.121	0.745	0.046	-0.033
-532.106	25.905	0.222	0.186
-531.091	149.381	0.178	-0.241
-530.077	109.438	0.267	-0.322
-529.062	57.600	0.126	0.124
-528.048	-29.218	0.221	0.127
-527.033	233.558	-0.011	-0.018
-526.018	-62.550	0.171	0.071
-525.004	800.000	0.099	0.349
-523.989	-137.111	-0.132	-0.015
-522.975	-101.396	0.253	0.062
-521.960	162.686	-0.174	-0.245
-520.945	-200.000	0.002	-0.018
-519.931	128.052	0.125	0.160
-518.916	-17.515	-0.166	0.105
-517.902	-104.770	-0.177	0.041
-516.887	-43.787	-0.293	0.148
-515.872	-170.041	-0.277	-0.010
-514.858	-4.944	0.080	0.055
-513.843	656.774	-0.048	-0.124
-512.829	-31.012	0.404	-0.229
-511.814	125.275	-0.167	-0.212
-510.799	-200.000	0.025	-0.204
-509.785	392.625	-0.145	0.302
-508.770	-87.641	-0.401	-0.121
-507.756	296.426	-0.087	0.161
-506.741	204.137	0.144	0.224
-505.726	-200.000	-0.045	0.319
-504.712	127.290	-0.344	0.438
-503.697	56.519	-0.084	-0.082
-502.683	-91.958	-0.151	-0.043
-501.668	-85.013	0.088	0.028
-500.653	530.546	0.068	-0.161
-499.639	-139.530	-0.051	-0.005
-498.624	-200.000	0.002	-0.165
-497.610	-30.681	0.148	-0.084
-496.595	-200.000	-0.064	-0.350
-495.581	800.000	-0.133	-0.418
-494.566	580.604	-0.146	-0.359
-493.551	-182.647	-0.266	-0.005
-492.537	28.763	-0.255	-0.217
-491.522	690.549	-0.109	-0.287
-490.508	48.202	-0.130	-0.121
-489.493	800.000	-0.077	-0.229
-488.478	800.000	0.031	0.111
-487.464	420.586	0.103	0.222
-486.449	-52.403	0.182	-0.084
-485.435	-200.000	0.040	0.342
-484.420	44.296	0.107	-0.099
-483.405	-27.359	0.043	0.025
-482.391	-200.000	0.015	-0.272
-481.376	-200.000	0.009	-0.365
-480.362	142.632	-0.180	-0.240
-479.347	271.793	0.218	-0.386
-478.332	-200.000	0.023	0.122
-477.318	107.442	-0.083	0.099
-476.303	-136.371	0.107	0.013
-475.289	452.902	0.065	0.145
-474.274	-39.246	-0.247	-0.130
-473.259	800.000	-0.052	0.217
-472.245	109.538	-0.247	-0.297
-471.230	800.000	-0.044	-0.164
-470.216	93.024	0.228	0.258
-469.201	800.000	-0.039	0.150
-468.186	800.000	-0.071	-0.261
-467.172	-64.764	0.148	0.060
-466.157	-200.000	0.009	-0.266
-465.143	-154.737	-0.292	-0.019
-464.128	-200.000	0.003	0.062
-463.113	-200.000	-0.072	-0.369
-462.099	-101.668	0.060	0.014
-461.084	800.000	-0.031	-0.100
-460.070	-200.000	-0.019	0.230
-459.055	-200.000	0.043	-0.405
-458.040	-200.000	0.008	0.178
-457.026	-50.268	-0.174	-0.082
-456.011	-176.343	-0.151	0.004
-454.997	-40.873	0.111	0.058
-453.982	64.116	0.045	0.045
-452.968	-200.000	-0.029	-0.198
-451.953	100.522	-0.107	0.124
-450.938	-87.506	0.241	-0.073
-449.924	-2.634	0.112	-0.079
-448.909	128.525	0.218	-0.277
-447.895	103.102	0.198	0.232
-446.880	7.237	-0.344	0.257
-445.865	59.680	-0.062	-0.061
-444.851	257.432	-0.205	-0.353
-443.836	800.000	-0.076	0.211
-442.822	288.425	0.016	-0.029
-441.807	-124.377	0.366	0.057
-440.792	297.520	-0.122	0.225
-439.778	344.466	-0.048	0.095
-438.763	800.000	-0.018	0.063
-437.749	-171.862	0.198	-0.006
-436.734	78.079	-0.102	-0.109
-435.719	611.952	0.112	0.281
-434.705	93.788	-0.192	0.217
-433.690	-27.525	-0.136	0.079
-432.676	-95.309	-0.210	-0.057
-431.661	-156.567	0.252	0.016
-430.646	249.066	0.128	0.216
-429.632	477.939	-0.108	0.243
-428.617	55.802	-0.196	0.190
-427.603	232.950	0.045	0.075
-426.588	-60.008	0.221	-0.094
-425.573	-80.397	-0.241	-0.080
-424.559	200.355	-0.188	0.289
-423.544	-200.000	0.002	-0.071
-422.530	201.727	0.119	-0.184
-421.515	-53.005	0.078	-0.036
-420.500	-6.682	0.336	-0.229
-419.486	-35.452	-0.239	-0.130
-418.471	-67.195	0.342	-0.135
-417.457	444.941	0.126	0.276
-416.442	573.738	-0.070	0.171
-415.428	-200.000	-0.001	-0.007
-414.413	-68.527	-0.267	-0.104
-413.398	-88.873	0.100	-0.030
-412.384	-27.975	-0.199	0.115
-411.369	-200.000	0.005	-0.099
-410.355	32.934	0.272	-0.235
-409.340	-200.000	0.084	-0.376
-408.325	-99.913	0.314	-0.078
-407.311	-84.370	-0.173	0.055
-406.296	115.226	0.194	0.237
-405.282	-67.853	-0.442	-0.173
-404.267	800.000	-0.070	-0.272
-403.252	-200.000	-0.032	-0.269
-402.238	-200.000	-0.007	-0.049
-401.223	-82.572	0.272	0.088
-400.209	111.118	-0.051	-0.061
-399.194	-200.000	-0.007	-0.233
-398.179	-200.000	0.015	-0.246
-397.165	800.000	0.026	-0.106
-396.150	648.971	0.111	-0.283
-395.136	19.885	-0.206	-0.165
-394.121	-114.131	0.152	-0.029
-393.106	272.924	-0.104	0.184
-392.092	57.985	0.243	0.238
-391.077	85.481	-0.124	-0.136
-390.063	-110.771	-0.173	0.036
-389.048	293.868	0.238	0.435
-388.033	26.055	0.117	-0.098
-387.019	-200.000	0.050	0.320
-386.004	212.265	-0.088	0.139
-384.990	-200.000	-0.023	-0.218
-383.975	-190.702	-0.116	0.001
-382.960	800.000	-0.064	-0.279
-381.946	65.450	0.218	-0.220
-380.931	800.000	0.078	0.219
-379.917	-20.952	-0.130	-0.079
-378.902	-50.067	-0.131	-0.062
-377.888	4.344	-0.234	-0.171
-376.873	-200.000	0.007	0.200
-375.858	-200.000	0.032	-0.178
-374.844	24.595	-0.206	-0.170
-373.829	-200.000	0.012	-0.071
-372.815	18.760	0.183	0.146
-371.800	73.875	-0.065	-0.068
-370.785	800.000	0.077	0.272
-369.771	-0.605	-0.061	-0.043
-368.756	-132.383	-0.145	-0.019
-367.742	-107.431	0.297	-0.065
-366.727	-46.278	0.082	0.040
-365.712	0.766	0.164	-0.117
-364.698	-74.836	0.207	0.074
-363.683	221.166	0.110	0.176
-362.669	365.376	-0.017	0.033
-361.654	-162.556	0.171	-0.008
-360.639	-86.235	-0.291	0.090
-359.625	-5.745	0.145	0.099
-358.610	69.790	-0.099	0.101
-357.596	41.700	0.072	-0.065
-356.581	775.804	-0.110	-0.299
-355.566	-132.470	0.240	-0.031
-354.552	-5.944	-0.051	0.035
-353.537	192.004	-0.083	-0.125
-352.523	158.081	-0.128	0.177
-351.508	-46.700	0.114	0.056
-350.493	-89.063	0.163	0.048
-349.479	-100.675	-0.187	0.046
-348.464	324.592	-0.020	-0.038
-347.450	-125.452	0.188	-0.029
-346.435	-200.000	0.051	0.284
-345.420	-23.411	0.253	-0.152
-344.406	232.419	0.141	0.231
-343.391	7.850	0.031	0.023
-342.377	-130.862	-0.089	0.012
-341.362	-95.031	0.064	-0.017
-340.348	163.679	0.106	-0.148
-339.333	-200.000	-0.006	-0.086
-338.318	231.717	0.145	-0.237
-337.304	26.493	-0.184	-0.154
-336.289	-33.710	0.092	-0.051
-335.275	363.901	-0.111	-0.222
-334.260	-174.903	0.082	-0.002
-333.245	6.579	0.191	0.141
-332.231	77.504	-0.292	0.309
-331.216	-131.122	-0.180	-0.024
-330.202	-79.263	0.308	-0.104
-329.187	93.458	0.026	-0.029
-328.172	-93.895	-0.098	-0.027
-327.158	-20.737	-0.376	-0.230
-326.143	-193.799	-0.044	0.000
-325.129	-40.319	0.123	-0.064
-324.114	246.481	0.172	0.289
-323.099	-95.476	-0.293	0.078
-322.085	187.692	-0.131	-0.194
-321.070	-102.309	0.292	0.070
-320.056	-38.528	-0.085	0.045
-319.041	48.402	-0.236	0.220
-318.026	-142.912	-0.259	-0.025
-317.012	-174.109	-0.272	0.008
-315.997	196.406	0.068	-0.103
-314.983	-53.967	0.183	0.083
-313.968	441.078	0.107	-0.232
-312.953	-69.383	-0.077	-0.029
-311.939	-87.000	0.114	-0.035
-310.924	-4.690	-0.110	-0.075
-309.910	-200.000	-0.004	0.089
-308.895	-106.074	0.130	-0.029
-307.880	177.697	0.128	0.186
-306.866	190.408	0.257	0.385
-305.851	567.040	-0.150	-0.363
-304.837	800.000	-0.055	-0.221
-303.822	-102.624	-0.280	0.067
-302.807	146.337	-0.144	0.193
-301.793	115.689	0.076	0.093
-300.778	-35.113	-0.162	0.088
-299.764	-81.253	-0.033	-0.011
-298.749	41.786	0.205	0.185
-297.735	142.243	-0.131	-0.173
-296.720	-99.248	0.326	0.082
-295.705	81.053	-0.222	0.238
-294.691	-121.875	-0.312	0.051
-293.676	-21.271	0.100	-0.061
-292.662	-200.000	0.032	-0.184
-291.647	102.747	0.158	0.184
-290.632	245.034	-0.178	0.298
-289.618	-200.000	-0.057	0.291
-288.603	-200.000	0.002	0.214
-287.589	-83.654	0.253	-0.080
-286.574	-59.586	0.056	-0.024
-285.559	-133.533	0.235	0.029
-284.545	117.461	0.200	0.244
-283.530	800.000	0.116	0.345
-282.516	-96.161	0.248	0.065
-281.501	263.100	-0.024	0.042
-280.486	417.195	-0.083	0.177
-279.472	77.176	0.168	-0.177
-278.457	188.421	0.182	-0.270
-277.443	-173.697	-0.298	0.009
-276.428	611.652	0.062	-0.153
-275.413	130.142	-0.262	-0.333
-274.399	104.969	0.348	-0.407
-273.384	-142.179	0.492	0.048
-272.370	300.598	-0.120	-0.220
-271.355	-200.000	-0.009	0.244
-270.340	-44.791	0.247	0.122
-269.326	172.092	-0.250	0.358
-268.311	800.000	0.087	0.360
-267.297	60.578	0.180	0.177
-266.282	-108.422	-0.258	-0.055
-265.267	35.769	-0.108	-0.095
-264.253	-148.473	-0.225	0.018
-263.238	354.334	-0.029	-0.057
-262.224	-200.000	-0.024	-0.191
-261.209	-103.400	-0.123	-0.029
-260.195	800.000	-0.039	0.162
-259.180	355.479	0.162	0.320
-258.165	800.000	0.029	-0.083
-257.151	-70.720	0.263	0.099
-256.136	-200.000	-0.036	-0.226
-255.122	46.421	-0.227	0.209
-254.107	617.154	-0.007	0.018
-253.092	121.534	0.152	0.189
-252.078	69.030	0.180	-0.184
-251.063	-88.957	0.079	-0.023
-250.049	4.465	-0.190	0.138
-249.034	-200.000	0.037	-0.170
-248.019	24.774	-0.168	0.138
-247.005	-200.000	0.005	-0.143
-245.990	-200.000	0.074	-0.328
-244.976	-108.269	0.159	0.034
-243.961	86.391	0.184	0.201
-242.946	-46.387	0.232	0.113
-241.932	-200.000	0.027	0.188
-240.917	44.474	-0.237	0.216
-239.903	-200.000	-0.021	0.270
-238.888	-200.000	-0.026	-0.243
-237.873	-143.516	0.151	0.014
-236.859	-126.826	-0.117	-0.017
-235.844	-3.560	-0.253	-0.175
-234.830	800.000	0.092	-0.327
-233.815	6.850	-0.240	0.178
-232.800	-82.255	0.209	0.067
-231.786	-131.804	0.057	-0.007
-230.771	-200.000	0.006	0.137
-229.757	-200.000	-0.103	-0.515
-228.742	683.224	-0.069	-0.180
-227.727	236.674	0.137	0.224
-226.713	-78.293	0.110	-0.037
-225.698	511.619	0.160	0.370
-224.684	37.115	0.345	0.303
-223.669	73.156	-0.223	-0.232
-222.655	-55.907	0.107	-0.047
-221.640	31.969	-0.229	0.196
-220.625	-200.000	-0.004	0.108
-219.611	46.830	-0.109	0.100
-218.596	-15.964	0.313	-0.198
-217.582	-41.328	-0.048	0.024
-216.567	-94.045	0.160	0.044
-215.552	1.744	0.215	0.154
-214.538	-43.169	-0.197	0.099
-213.523	35.385	0.081	0.071
-212.509	-114.014	-0.325	-0.063
-211.494	206.219	-0.140	-0.217
-210.479	-200.000	-0.012	0.075
-209.465	-78.167	0.300	0.102
-208.450	-49.122	0.136	-0.065
-207.436	719.297	-0.157	0.413
-206.421	-112.196	-0.295	0.059
-205.406	65.758	0.100	-0.100
-204.392	-0.321	-0.321	-0.226
-203.377	800.000	-0.074	0.306
-202.363	11.706	0.259	0.197
-201.348	147.828	-0.033	0.045
-200.333	13.805	0.325	-0.250
-199.319	800.000	0.071	0.283
-198.304	800.000	-0.061	0.214
-197.290	-81.547	-0.116	0.038
-196.275	-147.959	-0.213	-0.018
-195.260	800.000	-0.077	0.244
-194.246	-25.938	0.278	-0.162
-193.231	-200.000	-0.014	-0.126
-192.217	177.070	0.251	0.363
-191.202	-190.867	-0.075	0.001
-190.187	459.849	0.154	-0.340
-189.173	737.619	0.066	0.174
-188.158	-200.000	0.001	-0.098
-187.144	-15.528	-0.261	0.165
-186.129	4.566	0.144	-0.105
-185.114	-51.707	-0.328	-0.151
-184.100	800.000	-0.057	-0.207
-183.085	-14.814	0.175	-0.111
-182.071	23.595	-0.248	-0.203
-181.056	-61.659	0.053	0.022
-180.042	-29.397	-0.142	-0.080
-179.027	800.000	-0.069	-0.194
-178.012	-140.538	-0.299	0.031
-176.998	476.859	-0.115	-0.257
-175.983	-200.000	0.001	-0.136
-174.969	-200.000	0.011	-0.068
-173.954	125.448	0.098	0.122
-172.939	90.260	0.368	0.408
-171.925	-200.000	-0.010	0.108
-170.910	-3.761	-0.090	-0.062
-169.896	-200.000	-0.045	-0.198
-168.881	-92.976	-0.122	-0.034
-167.866	-172.138	-0.137	-0.004
-166.852	516.599	-0.031	-0.072
-165.837	-200.000	-0.019	0.256
-164.823	223.866	0.211	-0.338
-163.808	800.000	0.114	-0.334
-162.793	-35.994	-0.285	0.153
-161.779	184.427	0.110	0.161
-160.764	94.788	0.138	-0.156
-159.750	-200.000	0.036	-0.484
-158.735	262.223	-0.281	0.482
-157.720	-200.000	0.036	0.202
-156.706	-200.000	0.036	0.324
-155.691	-200.000	0.015	0.170
-154.677	-160.990	0.199	-0.010
-153.662	40.692	-0.125	0.112
-152.647	25.020	0.174	0.143
-151.633	127.435	-0.112	-0.140
-150.618	-156.954	0.315	-0.019
-149.604	132.046	-0.054	-0.068
-148.589	-52.238	-0.243	0.112
-147.574	20.100	0.118	-0.094
-146.560	194.480	0.258	-0.387
-145.545	-200.000	-0.043	-0.236
-144.531	65.799	-0.134	-0.134
-143.516	-15.287	0.368	0.232
-142.502	30.753	-0.217	-0.183
-141.487	-8.168	-0.173	-0.116
-140.472	-6.419	0.123	-0.083
-139.458	-200.000	0.024	-0.107
-138.443	495.645	-0.097	0.220
-137.429	-32.704	-0.144	-0.079
-136.414	-55.077	0.517	0.230
-135.399	-200.000	0.034	-0.155
-134.385	-164.793	-0.301	0.013
-133.370	800.000	-0.092	0.266
-132.356	-131.506	0.220	0.029
-131.341	-128.275	-0.396	0.056
-130.326	800.000	-0.127	0.525
-129.312	-200.000	0.049	0.384
-128.297	-200.000	0.010	-0.261
-127.283	-106.411	0.231	-0.051
-126.268	353.366	-0.043	-0.085
-125.253	-25.359	-0.296	-0.173
-124.239	800.000	-0.027	0.090
-123.224	253.558	-0.206	-0.348
-122.210	-105.850	-0.253	-0.056
