DTS Sentinel unit serial number:	SN413079Multiplexer serial number:	ORYXHardware model number:	OX4-SRSoftware version number:	ORYX F/W v4.00 Oryx Data Collector v3.7.2.0data status	okinstallation	princeton_trtdifferential loss correction	single-endedforward channel	channel 3reverse channel	N/Adate	2019/09/14time	04:44:35forward acquisition time	60.00reverse acquisition time	0.00gamma	496.2192k internal	0.2337k external	0.2337temperature offset calibration	1.0054default loss term (dB/km)	0.3790temperature slope calibration	1.0000multiplexer offset coefficient	1.0000multiplexer slope coefficient	1.0000fibre end	0.00T internal ref (°C)	26.81T ext. ref 1 (°C)	3.35T ext. ref 2 (°C)	21.98length (m)	temperature (°C)	Stokes	anti-Stokes-747.200	800.000	-0.096	-0.419
-746.185	157.737	-0.253	0.352
-745.171	199.591	0.104	0.160
-744.156	-101.123	-0.239	0.059
-743.142	44.033	-0.049	0.045
-742.127	349.821	-0.150	0.298
-741.112	800.000	-0.061	-0.172
-740.098	-149.076	0.081	0.007
-739.083	-2.967	-0.025	0.017
-738.069	800.000	0.073	0.287
-737.054	-200.000	0.013	-0.295
-736.039	-116.215	-0.494	-0.092
-735.025	-60.795	0.304	-0.129
-734.010	-50.948	0.259	-0.122
-732.996	70.015	-0.248	-0.257
-731.981	800.000	-0.014	-0.055
-730.966	47.894	-0.165	-0.154
-729.952	-200.000	-0.068	-0.352
-728.937	312.305	0.072	-0.136
-727.923	-140.429	0.208	-0.022
-726.908	-200.000	-0.000	0.230
-725.894	-163.302	-0.194	-0.009
-724.879	331.207	-0.213	-0.413
-723.864	-18.528	0.246	-0.154
-722.850	-200.000	0.007	0.087
-721.835	-200.000	-0.013	-0.132
-720.821	218.414	0.039	0.063
-719.806	800.000	0.071	-0.291
-718.791	88.548	-0.310	0.346
-717.777	216.215	0.186	0.296
-716.762	-200.000	0.070	-0.325
-715.748	-200.000	-0.052	-0.293
-714.733	-72.862	-0.189	-0.070
-713.718	-200.000	0.005	0.158
-712.704	-200.000	-0.009	-0.137
-711.689	-144.564	-0.231	0.021
-710.675	800.000	-0.048	-0.190
-709.660	-119.650	0.056	-0.010
-708.645	-88.314	-0.265	0.080
-707.631	-200.000	0.039	-0.000
-706.616	-39.011	-0.028	0.015
-705.602	20.738	-0.186	-0.151
-704.587	-62.076	0.656	0.275
-703.572	800.000	0.073	0.300
-702.558	-45.315	0.140	0.070
-701.543	1.070	-0.225	-0.161
-700.529	-39.548	0.251	0.132
-699.514	800.000	-0.072	0.270
-698.499	800.000	0.064	-0.252
-697.485	-65.939	-0.093	0.037
-696.470	9.040	0.113	-0.086
-695.456	-200.000	0.014	0.195
-694.441	-71.487	0.140	0.052
-693.426	231.114	-0.139	-0.228
-692.412	-122.097	0.352	0.058
-691.397	-154.380	-0.205	-0.014
-690.383	-5.720	0.217	-0.149
-689.368	123.748	-0.068	-0.086
-688.354	638.870	-0.051	0.131
-687.339	-200.000	-0.041	-0.427
-686.324	279.364	-0.136	-0.243
-685.310	72.737	0.058	-0.060
-684.295	800.000	-0.082	-0.248
-683.281	-37.347	0.112	0.060
-682.266	-61.083	-0.091	0.038
-681.251	-200.000	0.017	0.332
-680.237	-4.548	-0.111	0.077
-679.222	-200.000	-0.060	0.330
-678.208	-200.000	-0.010	0.102
-677.193	-42.040	0.178	0.091
-676.178	512.867	-0.141	-0.330
-675.164	613.367	-0.020	0.050
-674.149	800.000	0.035	-0.144
-673.135	15.419	-0.144	-0.113
-672.120	-25.620	0.302	0.179
-671.105	-68.716	-0.339	-0.131
-670.091	347.585	-0.092	-0.182
-669.076	511.733	0.028	0.064
-668.062	-38.383	0.068	0.036
-667.047	-137.872	-0.270	0.030
-666.032	72.605	-0.072	0.076
-665.018	-87.102	0.185	0.056
-664.003	-63.529	0.240	-0.098
-662.989	421.056	0.070	0.150
-661.974	-71.337	-0.226	0.085
-660.959	122.628	0.240	0.300
-659.945	800.000	0.121	0.356
-658.930	231.709	0.152	-0.249
-657.916	200.237	0.030	-0.047
-656.901	-32.072	-0.116	0.065
-655.886	-138.367	-0.090	-0.010
-654.872	260.197	0.193	-0.333
-653.857	195.180	0.058	-0.088
-652.843	27.718	-0.152	-0.128
-651.828	-112.470	-0.174	-0.035
-650.814	-142.185	-0.483	0.048
-649.799	-100.495	0.070	-0.017
-648.784	274.162	-0.161	-0.285
-647.770	371.058	-0.107	-0.218
-646.755	800.000	-0.054	-0.227
-645.741	-183.893	-0.069	-0.001
-644.726	-125.361	0.202	0.031
-643.711	159.375	0.097	-0.134
-642.697	6.385	-0.240	0.178
-641.682	-200.000	0.015	-0.289
-640.668	99.908	-0.129	-0.150
-639.653	-200.000	0.002	-0.383
-638.638	-200.000	-0.079	-0.348
-637.624	111.623	-0.177	0.214
-636.609	23.916	0.268	-0.221
-635.595	35.317	0.083	-0.073
-634.580	-200.000	0.035	-0.296
-633.565	30.191	-0.048	-0.041
-632.551	800.000	-0.065	-0.239
-631.536	-200.000	0.012	0.277
-630.522	402.177	-0.059	0.124
-629.507	-87.468	0.100	-0.030
-628.492	356.244	0.086	-0.171
-627.478	-30.390	0.133	0.075
-626.463	-113.533	-0.383	-0.075
-625.449	24.531	-0.168	-0.138
-624.434	21.379	-0.217	0.176
-623.419	-154.327	0.099	-0.007
-622.405	102.841	0.122	-0.143
-621.390	179.375	0.080	-0.117
-620.376	351.757	-0.153	0.302
-619.361	73.674	0.114	0.120
-618.346	19.360	-0.208	0.167
-617.332	2.615	-0.138	-0.100
-616.317	800.000	0.051	-0.202
-615.303	38.084	-0.069	0.061
-614.288	-18.074	0.307	0.192
-613.273	800.000	0.108	0.349
-612.259	334.232	-0.079	-0.152
-611.244	70.085	-0.271	-0.279
-610.230	-173.129	0.107	0.003
-609.215	37.609	-0.031	-0.028
-608.201	-6.977	-0.221	-0.150
-607.186	800.000	0.123	-0.390
-606.171	-121.940	-0.223	0.037
-605.157	-146.129	0.159	0.014
-604.142	11.958	0.108	0.083
-603.128	367.388	0.032	-0.064
-602.113	-65.118	0.280	0.113
-601.098	25.573	0.114	0.095
-600.084	34.550	0.152	-0.133
-599.069	7.272	-0.021	0.015
-598.055	-104.977	-0.093	-0.021
-597.040	-2.172	-0.151	0.106
-596.025	91.162	-0.130	-0.146
-595.011	-86.173	-0.083	-0.026
-593.996	-200.000	-0.004	0.087
-592.982	-53.499	0.434	0.198
-591.967	-200.000	-0.018	-0.225
-590.952	-200.000	-0.010	0.155
-589.938	-200.000	0.002	-0.251
-588.923	-145.576	0.320	0.029
-587.909	-106.132	0.087	-0.019
-586.894	-116.032	-0.048	0.009
-585.879	70.119	-0.155	-0.160
-584.865	-200.000	0.076	-0.387
-583.850	74.327	-0.109	-0.114
-582.836	800.000	0.035	0.126
-581.821	800.000	0.045	0.171
-580.806	-65.764	0.144	-0.058
-579.792	328.463	0.047	-0.090
-578.777	-87.539	0.496	0.150
-577.763	18.128	0.107	0.085
-576.748	-55.623	-0.379	-0.169
-575.733	64.174	-0.142	0.143
-574.719	-200.000	-0.010	0.368
-573.704	800.000	0.035	0.115
-572.690	-200.000	-0.017	-0.357
-571.675	232.022	0.081	-0.133
-570.661	-126.278	-0.057	-0.008
-569.646	-114.399	-0.239	-0.046
-568.631	800.000	0.077	0.305
-567.617	-132.563	0.303	-0.039
-566.602	293.357	-0.041	-0.075
-565.588	-22.662	0.169	0.102
-564.573	-18.231	0.323	-0.201
-563.558	-200.000	0.032	0.280
-562.544	-27.557	0.056	-0.032
-561.529	174.923	-0.131	-0.190
-560.515	-55.182	-0.229	-0.103
-559.500	-90.598	0.132	0.038
-558.485	-20.436	0.389	-0.239
-557.471	-168.466	-0.136	-0.005
-556.456	-43.151	0.272	-0.137
-555.442	-110.211	0.382	-0.079
-554.427	-200.000	0.024	-0.428
-553.412	764.546	-0.125	-0.339
-552.398	-63.727	-0.305	0.125
-551.383	75.887	-0.201	-0.211
-550.369	469.492	-0.057	0.128
-549.354	26.677	-0.107	0.089
-548.339	-200.000	-0.005	-0.133
-547.325	800.000	-0.050	-0.154
-546.310	800.000	0.070	0.293
-545.296	-75.620	-0.249	0.088
-544.281	-33.491	0.027	-0.015
-543.266	85.114	0.098	0.107
-542.252	-152.209	0.249	-0.018
-541.237	-200.000	-0.012	-0.153
-540.223	118.478	0.166	0.205
-539.208	54.885	0.150	0.144
-538.193	-73.996	-0.120	0.043
-537.179	-158.942	-0.192	0.011
-536.164	206.850	-0.140	0.217
-535.150	162.713	0.125	-0.175
-534.135	35.448	-0.199	0.174
-533.121	116.580	-0.133	-0.162
-532.106	-4.280	-0.116	0.080
-531.091	153.090	-0.109	0.149
-530.077	43.600	-0.187	-0.170
-529.062	-200.000	-0.057	-0.260
-528.048	-200.000	-0.006	0.054
-527.033	169.533	0.279	-0.396
-526.018	-200.000	0.003	0.116
-525.004	-48.659	-0.136	-0.065
-523.989	173.148	-0.061	0.087
-522.975	-71.765	-0.536	0.199
-521.960	103.616	0.134	0.156
-520.945	-6.556	-0.053	0.036
-519.931	-22.335	-0.124	-0.075
-518.916	-30.750	-0.141	0.079
-517.902	553.494	0.030	0.072
-516.887	-88.312	-0.084	-0.025
-515.872	2.493	-0.286	-0.206
-514.858	200.996	-0.039	0.060
-513.843	-200.000	-0.009	0.148
-512.829	-140.803	-0.210	-0.021
-511.814	-96.510	-0.391	0.103
-510.799	-71.388	0.045	0.017
-509.785	800.000	0.051	-0.203
-508.770	-90.039	-0.402	-0.117
-507.756	-128.678	0.454	-0.064
-506.741	-189.054	-0.225	0.003
-505.726	-47.580	-0.309	0.149
-504.712	-131.756	-0.161	-0.021
-503.697	79.205	-0.266	0.283
-502.683	-23.441	-0.145	0.087
-501.668	166.248	0.089	0.126
-500.653	205.403	0.103	-0.159
-499.639	800.000	-0.018	0.066
-498.624	-74.237	0.240	0.086
-497.610	-112.873	-0.149	0.029
-496.595	33.263	-0.093	0.081
-495.581	-18.798	-0.156	0.097
-494.566	-200.000	-0.026	-0.247
-493.551	-60.749	0.099	0.042
-492.537	-200.000	-0.020	-0.173
-491.522	-107.979	-0.328	0.071
-490.508	23.753	0.099	0.081
-489.493	39.349	-0.151	-0.134
-488.478	-200.000	0.028	0.147
-487.464	-67.211	0.223	0.087
-486.449	-64.969	0.076	-0.031
-485.435	-119.315	-0.221	-0.038
-484.420	-106.919	0.590	-0.130
-483.405	-200.000	0.015	-0.299
-482.391	-125.904	-0.209	-0.031
-481.376	59.954	0.115	-0.113
-480.362	-100.286	0.310	0.076
-479.347	172.859	-0.148	-0.212
-478.332	33.576	0.106	-0.091
-477.318	101.357	0.072	-0.084
-476.303	800.000	0.132	-0.468
-475.289	-10.107	0.504	-0.333
-474.274	506.605	-0.052	0.119
-473.259	-59.934	0.220	-0.093
-472.245	208.930	0.200	-0.310
-471.230	-137.969	-0.168	0.019
-470.216	227.041	0.218	0.353
-469.201	484.071	-0.106	0.240
-468.186	-140.129	-0.294	0.031
-467.172	-200.000	-0.006	-0.134
-466.157	-200.000	0.013	0.196
-465.143	690.376	-0.041	0.108
-464.128	-46.306	-0.111	-0.054
-463.113	179.842	0.084	0.122
-462.099	-25.196	0.151	0.089
-461.084	-200.000	0.030	-0.179
-460.070	800.000	0.028	-0.120
-459.055	-200.000	0.021	-0.303
-458.040	79.056	-0.086	0.091
-457.026	-200.000	0.045	0.358
-456.011	-171.883	-0.179	0.006
-454.997	800.000	0.068	-0.277
-453.982	-200.000	-0.013	0.220
-452.968	-138.613	-0.127	-0.014
-451.953	-200.000	0.072	-0.451
-450.938	-200.000	0.003	-0.147
-449.924	-97.714	0.342	0.088
-448.909	400.070	0.141	-0.293
-447.895	270.390	-0.039	-0.067
-446.880	85.639	0.133	0.145
-445.865	-75.199	-0.183	-0.065
-444.851	800.000	0.056	-0.207
-443.836	-116.836	-0.127	-0.023
-442.822	-200.000	0.008	0.205
-441.807	334.763	0.074	0.143
-440.792	57.111	-0.009	-0.008
-439.778	-17.645	0.232	-0.145
-438.763	-164.228	-0.266	-0.012
-437.749	228.792	0.208	-0.336
-436.734	243.464	-0.165	0.275
-435.719	70.177	0.146	-0.149
-434.705	158.965	-0.185	0.255
-433.690	601.731	-0.077	0.190
-432.676	-93.862	0.242	-0.066
-431.661	596.204	0.136	-0.335
-430.646	-164.927	-0.302	0.013
-429.632	-111.531	-0.162	-0.033
-428.617	-53.672	0.055	0.025
-427.603	-200.000	-0.018	-0.446
-426.588	800.000	-0.067	0.241
-425.573	-121.259	-0.071	0.012
-424.559	800.000	-0.034	-0.124
-423.544	-200.000	0.000	-0.083
-422.530	-200.000	0.011	0.089
-421.515	623.442	0.080	0.199
-420.500	-109.438	0.307	0.064
-419.486	194.677	-0.035	-0.053
-418.471	518.418	0.134	0.311
-417.457	-113.597	-0.155	-0.030
-416.442	-200.000	0.023	-0.294
-415.428	-200.000	0.013	0.116
-414.413	150.648	0.211	-0.285
-413.398	-98.646	-0.228	-0.058
-412.384	204.744	0.196	-0.302
-411.369	-104.786	0.313	0.071
-410.355	-165.459	-0.158	0.007
-409.340	800.000	-0.099	-0.339
-408.325	800.000	-0.090	0.304
-407.311	325.502	-0.073	-0.138
-406.296	10.707	-0.192	-0.145
-405.282	218.136	0.207	0.327
-404.267	52.223	-0.178	0.168
-403.252	800.000	-0.080	0.229
-402.238	497.782	0.109	0.250
-401.223	268.446	-0.080	0.140
-400.209	0.766	0.271	-0.192
-399.194	513.827	0.068	-0.156
-398.179	67.041	-0.084	-0.085
-397.165	539.049	-0.044	-0.105
-396.150	800.000	-0.098	0.296
-395.136	410.759	0.057	0.120
-394.121	-61.983	-0.287	0.119
-393.106	38.439	0.100	0.088
-392.092	-183.990	-0.126	0.002
-391.077	-200.000	-0.005	0.192
-390.063	218.343	0.047	0.075
-389.048	-200.000	0.001	-0.031
-388.033	78.674	0.121	-0.128
-387.019	100.673	0.189	-0.218
-386.004	-161.402	0.174	0.009
-384.990	800.000	0.102	0.292
-383.975	-200.000	0.057	0.375
-382.960	240.927	0.174	-0.287
-381.946	800.000	0.066	0.206
-380.931	-200.000	0.023	0.168
-379.917	-111.400	-0.320	-0.065
-378.902	-9.936	-0.236	-0.155
-377.888	-45.325	-0.120	0.059
-376.873	-36.440	0.196	0.105
-375.858	800.000	-0.032	0.088
-374.844	279.750	0.117	-0.208
-373.829	-45.303	-0.120	0.059
-372.815	800.000	0.088	0.374
-371.800	-124.685	0.316	0.048
-370.785	-1.601	0.339	-0.237
-369.771	-200.000	-0.052	0.326
-368.756	75.235	-0.156	0.163
-367.742	5.583	0.209	-0.153
-366.727	616.255	-0.047	0.117
-365.712	-156.321	0.239	-0.015
-364.698	-73.206	-0.029	-0.011
-363.683	304.213	0.099	0.182
-362.669	189.774	0.023	-0.033
-361.654	78.941	0.139	0.147
-360.639	800.000	-0.004	0.010
-359.625	-142.947	-0.272	-0.026
-358.610	54.867	0.050	-0.048
-357.596	-20.218	-0.224	0.136
-356.581	-61.236	0.252	0.105
-355.566	-54.441	-0.116	0.052
-354.552	-140.318	0.181	-0.019
-353.537	127.301	0.125	-0.157
-352.523	556.191	0.136	-0.323
-351.508	213.233	-0.083	-0.129
-350.493	800.000	-0.070	0.237
-349.479	754.601	-0.049	0.131
-348.464	-200.000	0.037	0.210
-347.450	-94.510	-0.325	-0.087
-346.435	800.000	-0.030	0.104
-345.420	-200.000	-0.012	0.376
-344.406	800.000	-0.039	0.160
-343.391	-109.578	-0.122	-0.025
-342.377	-200.000	0.013	-0.129
-341.362	268.483	-0.160	0.276
-340.348	29.518	0.223	-0.187
-339.333	546.236	-0.119	-0.282
-338.318	43.635	0.232	0.209
-337.304	-200.000	-0.002	0.161
-336.289	22.201	0.207	-0.167
-335.275	-200.000	0.008	0.116
-334.260	111.873	0.054	0.065
-333.245	-92.087	-0.216	-0.060
-332.231	-153.084	0.051	-0.004
-331.216	-86.132	-0.258	-0.079
-330.202	-37.308	0.176	0.093
-329.187	800.000	0.069	0.280
-328.172	-200.000	0.052	-0.231
-327.158	240.393	-0.279	0.459
-326.143	-200.000	0.083	-0.393
-325.129	-200.000	0.006	-0.034
-324.114	189.291	-0.092	-0.136
-323.099	-32.469	-0.162	0.089
-322.085	75.386	0.138	0.144
-321.070	-118.194	0.164	0.029
-320.056	3.177	0.263	-0.189
-319.041	96.218	0.158	0.178
-318.026	52.791	0.088	-0.083
-317.012	-75.715	-0.157	-0.055
-315.997	81.079	-0.238	0.254
-314.983	69.109	0.424	0.430
-313.968	-34.026	-0.101	0.055
-312.953	-200.000	0.022	0.096
-311.939	800.000	-0.062	-0.266
-310.924	-124.834	-0.272	-0.042
-309.910	326.962	0.021	-0.040
-308.895	-108.621	0.204	0.043
-307.880	800.000	0.082	-0.297
-306.866	98.196	-0.084	-0.095
-305.851	800.000	-0.052	0.207
-304.837	-0.733	-0.181	-0.127
-303.822	-157.433	0.230	-0.014
-302.807	-68.306	-0.226	0.086
-301.793	-93.220	0.046	-0.013
-300.778	800.000	-0.155	-0.612
-299.764	-104.382	-0.327	0.075
-298.749	-196.162	0.349	0.002
-297.735	-136.283	0.106	0.012
-296.720	-200.000	0.006	-0.164
-295.705	-151.740	0.276	0.020
-294.691	474.853	-0.099	0.220
-293.676	-200.000	0.339	-0.002
-292.662	-45.219	0.173	-0.085
-291.647	-142.804	-0.073	0.007
-290.632	66.855	-0.089	0.090
-289.618	78.920	-0.228	-0.241
-288.603	61.308	0.386	-0.379
-287.589	-164.719	0.263	-0.012
-286.574	800.000	-0.016	0.062
-285.559	249.929	-0.104	-0.173
-284.545	315.124	-0.115	0.215
-283.530	-28.255	-0.320	0.182
-282.516	-200.000	0.001	-0.024
-281.501	-29.595	0.242	0.136
-280.486	-64.807	0.361	0.144
-279.472	281.937	0.279	0.492
-278.457	6.437	-0.258	0.189
-277.443	-200.000	-0.083	0.439
-276.428	523.037	-0.165	-0.382
-275.413	-154.667	-0.383	0.025
-274.399	250.403	0.115	0.192
-273.384	692.600	-0.246	0.637
-272.370	298.809	0.174	-0.316
-271.355	-161.037	0.287	-0.015
-270.340	800.000	0.074	-0.289
-269.326	178.721	-0.234	-0.337
-268.311	-200.000	0.010	-0.194
-267.297	-46.196	0.206	0.100
-266.282	-200.000	-0.065	0.385
-265.267	-31.387	-0.099	0.055
-264.253	-200.000	0.022	-0.210
-263.238	332.316	-0.147	0.279
-262.224	-200.000	0.025	-0.249
-261.209	-111.045	-0.387	0.078
-260.195	-167.446	0.480	-0.019
-259.180	-200.000	0.007	0.429
-258.165	426.851	-0.151	-0.321
-257.151	28.112	-0.376	-0.312
-256.136	-107.392	0.256	-0.055
-255.122	-107.355	-0.214	0.046
-254.107	239.469	-0.142	-0.233
-253.092	52.882	0.163	0.154
-252.078	-76.862	-0.142	0.049
-251.063	800.000	-0.053	0.154
-250.049	145.885	0.113	0.150
-249.034	-98.712	-0.168	-0.042
-248.019	-200.000	-0.010	0.244
-247.005	126.674	-0.072	0.090
-245.990	109.695	-0.107	-0.126
-244.976	-200.000	0.003	0.431
-243.961	170.020	0.236	-0.332
-242.946	328.528	-0.082	-0.155
-241.932	40.476	-0.142	-0.126
-240.917	47.608	0.149	0.136
-239.903	15.894	0.270	-0.209
-238.888	322.978	-0.140	-0.263
-237.873	546.850	-0.045	0.107
-236.859	800.000	-0.085	0.296
-235.844	-106.731	0.108	-0.024
-234.830	-9.171	0.401	0.264
-233.815	213.746	0.155	-0.241
-232.800	57.827	0.056	0.054
-231.786	-80.714	0.037	-0.012
-230.771	50.815	-0.217	0.202
-229.757	67.867	0.097	0.098
-228.742	800.000	-0.059	0.215
-227.727	14.731	-0.251	-0.193
-226.713	151.044	0.077	0.103
-225.698	22.687	-0.079	-0.064
-224.684	-38.385	-0.296	-0.154
-223.669	-7.630	-0.202	0.134
-222.655	-46.819	-0.188	-0.090
-221.640	102.976	-0.138	0.159
-220.625	298.831	0.077	0.139
-219.611	79.164	0.085	-0.089
-218.596	452.248	0.152	-0.331
-217.582	800.000	-0.087	-0.298
-216.567	-116.339	-0.303	-0.055
-215.552	-200.000	-0.009	0.046
-214.538	-22.550	-0.256	0.152
-213.523	210.930	0.124	-0.191
-212.509	190.445	-0.174	0.256
-211.494	-200.000	-0.005	-0.155
-210.479	99.812	-0.102	-0.116
-209.465	-118.419	-0.191	-0.033
-208.450	800.000	-0.091	-0.291
-207.436	491.574	0.060	0.135
-206.421	-8.757	0.254	0.167
-205.406	67.532	0.163	0.163
-204.392	256.884	0.194	0.328
-203.377	-200.000	0.002	0.099
-202.363	14.233	-0.125	-0.095
-201.348	-200.000	-0.041	0.201
-200.333	58.556	0.156	0.150
-199.319	17.793	0.139	-0.109
-198.304	-141.167	-0.240	0.024
-197.290	-22.630	0.249	0.148
-196.275	800.000	-0.029	0.093
-195.260	-50.885	0.101	0.046
-194.246	-0.187	0.256	-0.179
-193.231	-140.572	-0.128	-0.013
-192.217	-143.633	-0.288	0.027
-191.202	197.729	-0.096	-0.144
-190.187	55.184	0.033	0.031
-189.173	499.580	-0.061	-0.139
-188.158	133.890	0.010	0.013
-187.144	155.242	-0.175	0.236
-186.129	-106.877	-0.227	0.049
-185.114	38.367	0.148	0.130
-184.100	-200.000	0.025	-0.210
-183.085	323.463	-0.108	-0.202
-182.071	758.035	-0.145	0.385
-181.056	-200.000	-0.035	-0.353
-180.042	77.675	0.185	0.193
-179.027	-142.951	-0.136	0.013
-178.012	208.944	-0.131	0.201
-176.998	-144.306	0.271	-0.025
-175.983	-55.693	-0.096	0.042
-174.969	14.626	-0.181	-0.138
-173.954	71.187	0.071	-0.073
-172.939	-200.000	0.018	0.164
-171.925	46.085	0.126	0.114
-170.910	38.451	-0.296	0.259
-169.896	49.448	0.206	0.190
-168.881	464.465	0.067	-0.146
-167.866	-13.538	0.211	0.134
-166.852	92.656	0.069	0.076
-165.837	800.000	-0.092	0.311
-164.823	-46.523	-0.101	0.049
-163.808	-144.877	0.153	-0.014
-162.793	783.098	-0.101	0.271
-161.779	-1.280	0.149	-0.103
-160.764	-119.862	-0.153	-0.026
-159.750	-155.946	0.302	-0.019
-158.735	99.079	0.202	0.229
-157.720	11.770	-0.131	-0.099
-156.706	698.205	0.099	0.255
-155.691	-83.459	0.095	0.030
-154.677	6.785	0.275	-0.201
-153.662	62.084	-0.024	0.024
-152.647	-200.000	-0.025	-0.232
-151.633	-200.000	-0.012	0.110
-150.618	428.003	-0.114	0.242
-149.604	-200.000	0.086	0.408
-148.589	549.685	0.081	0.189
-147.574	412.152	0.121	0.252
-146.560	255.357	0.081	0.137
-145.545	150.939	-0.289	-0.385
-144.531	-164.411	-0.159	0.007
-143.516	254.191	0.126	0.211
-142.502	-15.073	-0.092	-0.058
-141.487	-188.375	0.432	-0.005
-140.472	-33.521	-0.342	-0.185
-139.458	800.000	0.077	-0.330
-138.443	-200.000	-0.052	0.255
-137.429	-112.863	0.196	0.038
-136.414	-72.124	0.170	0.062
-135.399	24.191	0.027	0.022
-134.385	-39.082	0.098	-0.051
-133.370	-102.740	-0.027	-0.006
-132.356	89.436	0.115	-0.125
-131.341	-56.107	-0.094	-0.041
-130.326	16.956	0.148	-0.115
-129.312	8.285	-0.246	0.181
-128.297	800.000	0.036	-0.102
-127.283	358.181	0.131	-0.257
-126.268	-200.000	-0.000	-0.034
-125.253	-11.188	-0.073	-0.047
-124.239	-133.405	0.168	-0.021
-123.224	-128.167	-0.234	0.033
-122.210	-51.318	-0.045	0.021
-121.195	-200.000	-0.025	0.157
