DTS Sentinel unit serial number:	SN413079Multiplexer serial number:	ORYXHardware model number:	OX4-SRSoftware version number:	ORYX F/W v4.00 Oryx Data Collector v3.7.2.0data status	okinstallation	princeton_trtdifferential loss correction	single-endedforward channel	channel 3reverse channel	N/Adate	2019/09/12time	18:15:04forward acquisition time	15.00reverse acquisition time	0.00gamma	496.2192k internal	0.2317k external	0.2317temperature offset calibration	1.0099default loss term (dB/km)	0.3790temperature slope calibration	1.0000multiplexer offset coefficient	1.0000multiplexer slope coefficient	1.0000fibre end	0.00T internal ref (°C)	33.50T ext. ref 1 (°C)	2.96T ext. ref 2 (°C)	28.19length (m)	temperature (°C)	Stokes	anti-Stokes-747.200	-200.000	0.018	-0.387
-746.185	800.000	-0.240	-0.932
-745.171	-200.000	0.006	-0.545
-744.156	227.744	0.431	0.710
-743.142	-119.958	0.087	0.015
-742.127	46.503	-0.373	0.350
-741.112	-142.487	-0.612	0.061
-740.098	-71.339	-0.284	0.108
-739.083	-157.509	0.188	0.011
-738.069	-200.000	0.142	-0.745
-737.054	16.742	-0.027	-0.022
-736.039	98.569	-0.629	0.734
-735.025	-83.246	-0.053	-0.017
-734.010	-4.910	-0.339	0.237
-732.996	-200.000	-0.050	-0.431
-731.981	800.000	0.209	-0.827
-730.966	226.547	0.515	-0.846
-729.952	162.097	-0.152	-0.216
-728.937	-75.128	-0.329	-0.119
-727.923	150.244	-0.741	-1.018
-726.908	264.832	0.222	-0.392
-725.894	-200.000	0.005	-0.076
-724.879	-200.000	-0.003	-0.448
-723.864	499.104	-0.477	1.112
-722.850	125.774	0.281	0.359
-721.835	38.929	-0.341	0.308
-720.821	4.017	-0.164	0.121
-719.806	-200.000	-0.058	-0.340
-718.791	-200.000	0.053	-0.499
-717.777	18.113	0.457	-0.368
-716.762	800.000	-0.134	-0.525
-715.748	-78.952	-0.538	0.185
-714.733	33.319	0.314	-0.275
-713.718	-32.846	0.077	0.043
-712.704	-170.681	-0.748	-0.026
-711.689	25.865	-0.462	-0.389
-710.675	17.633	-0.191	-0.153
-709.660	355.404	0.208	-0.419
-708.645	800.000	-0.163	-0.649
-707.631	-45.574	-0.430	0.215
-706.616	-153.746	-0.497	-0.034
-705.602	800.000	-0.248	0.761
-704.587	622.297	0.204	-0.519
-703.572	-17.906	-0.503	0.319
-702.558	-149.138	0.199	-0.016
-701.543	-164.518	-0.549	0.025
-700.529	-200.000	-0.018	0.190
-699.514	40.066	0.200	0.181
-698.499	-142.064	-0.769	-0.077
-697.485	-163.427	-0.613	0.029
-696.470	117.803	0.313	0.389
-695.456	151.601	-0.340	-0.469
-694.441	275.835	0.184	-0.329
-693.426	-51.644	-0.922	-0.435
-692.412	-73.780	0.288	0.106
-691.397	69.122	0.189	0.196
-690.383	29.438	0.199	-0.171
-689.368	-6.845	-0.808	-0.555
-688.354	-200.000	0.025	-0.417
-687.339	149.052	-0.634	0.866
-686.324	453.867	-0.327	0.732
-685.310	131.990	0.187	-0.243
-684.295	-200.000	0.009	-0.270
-683.281	296.061	0.236	-0.437
-682.266	-32.683	-0.465	-0.262
-681.251	-2.015	0.344	0.244
-680.237	-87.487	-0.495	-0.151
-679.222	-21.912	-1.111	0.682
-678.208	-9.165	0.126	-0.085
-677.193	348.844	0.133	-0.265
-676.178	1.248	0.485	0.352
-675.164	800.000	0.062	-0.221
-674.149	-200.000	-0.155	-0.864
-673.135	-200.000	-0.021	-0.808
-672.120	-200.000	0.049	0.427
-671.105	-200.000	-0.044	0.947
-670.091	800.000	0.087	0.332
-669.076	-127.966	0.681	0.099
-668.062	-37.660	0.637	-0.343
-667.047	108.442	-0.238	-0.286
-666.032	-43.892	-0.766	-0.389
-665.018	-200.000	0.063	-0.280
-664.003	-156.397	-0.130	-0.008
-662.989	-67.358	1.028	-0.408
-661.974	-98.670	-0.439	-0.113
-660.959	-151.182	-0.668	-0.051
-659.945	-200.000	-0.039	0.811
-658.930	550.357	0.065	0.157
-657.916	484.966	-0.285	-0.654
-656.901	-125.345	-0.803	0.124
-655.886	632.714	0.206	-0.527
-654.872	103.233	0.351	0.416
-653.857	525.916	-0.366	0.869
-652.843	-200.000	-0.100	0.866
-651.828	-4.401	0.239	0.167
-650.814	-117.168	-0.593	-0.109
-649.799	364.837	-0.136	-0.277
-648.784	-152.454	0.299	0.022
-647.770	133.149	-0.487	-0.635
-646.755	-14.780	-0.246	-0.159
-645.741	-200.000	-0.012	-0.249
-644.726	-34.092	0.210	-0.117
-643.711	-73.234	-0.274	0.101
-642.697	-200.000	0.040	0.627
-641.682	696.960	-0.201	0.532
-640.668	241.913	0.384	-0.648
-639.653	800.000	-0.142	-0.421
-638.638	131.516	0.299	0.388
-637.624	592.053	-0.264	-0.656
-636.609	-129.885	0.387	0.054
-635.595	79.625	-0.368	0.399
-634.580	-7.077	-0.362	-0.248
-633.565	800.000	0.168	0.594
-632.551	-144.297	0.574	-0.054
-631.536	638.838	0.411	1.055
-630.522	382.133	0.344	-0.713
-629.507	-111.971	-0.529	-0.108
-628.492	-83.461	0.701	-0.226
-627.478	-64.742	-0.091	-0.037
-626.463	679.092	-0.169	0.444
-625.449	-88.132	-0.391	-0.118
-624.434	-200.000	0.158	-0.943
-623.419	43.384	0.293	-0.270
-622.405	-134.173	-0.674	0.084
-621.390	-131.569	0.558	-0.074
-620.376	-41.089	0.228	0.119
-619.361	199.746	-0.347	-0.536
-618.346	-200.000	-0.079	-0.400
-617.332	69.526	-0.113	0.117
-616.317	-42.438	0.356	0.183
-615.303	-0.895	0.547	0.390
-614.288	-38.669	-0.279	0.148
-613.273	223.746	0.234	0.381
-612.259	-200.000	0.028	-0.456
-611.244	599.486	-0.145	0.363
-610.230	-200.000	0.214	-1.334
-609.215	-200.000	-0.055	-1.073
-608.201	-117.063	0.757	0.139
-607.186	-52.082	-0.174	-0.082
-606.171	468.563	-0.138	-0.311
-605.157	148.630	-0.269	-0.366
-604.142	36.280	-0.443	0.393
-603.128	236.785	0.294	-0.490
-602.113	800.000	-0.202	0.634
-601.098	-200.000	0.168	0.866
-600.084	588.671	-0.172	0.427
-599.069	192.460	0.208	0.315
-598.055	-2.795	0.269	-0.190
-597.040	508.228	0.301	-0.704
-596.025	-200.000	0.005	-0.066
-595.011	246.057	0.119	-0.201
-593.996	-7.278	-0.610	-0.416
-592.982	-200.000	-0.041	0.256
-591.967	625.581	-0.063	-0.160
-590.952	-172.941	0.860	-0.027
-589.938	-93.736	-0.250	-0.069
-588.923	-100.286	-0.684	0.171
-587.909	-81.629	0.813	-0.269
-586.894	-37.978	0.241	-0.129
-585.879	-200.000	0.012	-0.293
-584.865	-34.460	-0.334	0.184
-583.850	-156.224	0.615	0.039
-582.836	23.655	-0.082	0.068
-581.821	158.170	0.142	0.198
-580.806	-4.386	-0.478	0.333
-579.792	-164.739	-1.151	0.052
-578.777	17.404	-0.221	-0.177
-577.763	77.486	-0.246	0.264
-576.748	-200.000	-0.003	0.204
-575.733	-53.786	-0.506	0.232
-574.719	165.215	0.686	-0.975
-573.704	-58.327	-0.294	-0.128
-572.690	-59.221	0.356	-0.154
-571.675	-74.469	-0.560	-0.203
-570.661	-66.006	-0.175	0.070
-569.646	85.225	-0.105	0.115
-568.631	-158.999	0.839	0.048
-567.617	-121.773	1.053	0.175
-566.602	8.960	-0.344	-0.261
-565.588	89.571	0.337	0.378
-564.573	747.658	-0.147	0.398
-563.558	-85.240	0.455	-0.143
-562.544	-129.795	0.378	-0.052
-561.529	800.000	-0.123	0.466
-560.515	-186.720	-0.642	0.009
-559.500	-69.993	-0.539	0.206
-558.485	-200.000	-0.130	0.751
-557.471	321.328	0.239	0.457
-556.456	-19.514	-0.353	0.220
-555.442	-142.614	-0.889	-0.087
-554.427	69.126	-0.503	-0.520
-553.412	800.000	0.074	0.288
-552.398	-142.272	0.342	-0.034
-551.383	163.578	0.094	-0.133
-550.369	800.000	-0.057	0.212
-549.354	-114.230	-1.107	-0.215
-548.339	800.000	-0.196	0.840
-547.325	-200.000	0.104	-0.485
-546.310	800.000	-0.124	-0.409
-545.296	-190.358	-0.422	-0.005
-544.281	-72.853	0.400	-0.148
-543.266	12.427	0.528	0.409
-542.252	-52.803	-0.333	-0.154
-541.237	42.999	0.178	0.163
-540.223	800.000	-0.256	-1.056
-539.208	800.000	0.210	-0.584
-538.193	63.916	0.367	-0.371
-537.179	-7.861	-0.190	0.129
-536.164	129.840	0.358	-0.459
-535.150	-200.000	0.001	0.301
-534.135	586.998	0.124	-0.306
-533.121	564.731	-0.033	-0.079
-532.106	35.479	0.339	0.299
-531.091	206.471	-0.429	0.670
-530.077	26.409	-1.054	-0.885
-529.062	265.350	-0.089	0.156
-528.048	-200.000	-0.048	-0.423
-527.033	-21.397	-1.041	-0.638
-526.018	800.000	-0.277	0.811
-525.004	-92.104	-0.554	-0.157
-523.989	-82.844	0.479	-0.155
-522.975	-200.000	0.013	0.190
-521.960	-36.388	-0.575	-0.311
-520.945	417.388	-0.228	-0.488
-519.931	145.148	0.343	-0.461
-518.916	10.169	-0.989	-0.754
-517.902	-34.798	-0.769	-0.422
-516.887	-16.912	0.521	-0.330
-515.872	-92.662	-0.558	-0.157
-514.858	375.047	0.352	-0.721
-513.843	-55.569	-1.085	0.488
-512.829	28.624	-0.185	-0.157
-511.814	151.800	0.415	0.567
-510.799	-80.286	0.668	-0.224
-509.785	-14.114	-0.568	0.368
-508.770	-200.000	0.011	0.093
-507.756	33.642	0.300	0.262
-506.741	-116.343	-0.530	0.098
-505.726	-56.084	-0.370	0.165
-504.712	-200.000	0.014	0.562
-503.697	-200.000	0.007	0.067
-502.683	131.780	0.465	-0.600
-501.668	-121.788	0.652	-0.108
-500.653	800.000	0.032	0.108
-499.639	37.002	0.668	0.593
-498.624	-91.890	0.517	0.147
-497.610	-74.289	-0.131	0.048
-496.595	12.424	-0.626	-0.484
-495.581	-162.776	0.465	0.023
-494.566	236.546	-0.064	-0.107
-493.551	-200.000	-0.012	-0.731
-492.537	-200.000	0.023	0.302
-491.522	-84.152	0.319	0.102
-490.508	-200.000	0.005	-0.082
-489.493	-78.990	-1.087	-0.371
-488.478	36.050	0.347	-0.307
-487.464	-118.029	-0.705	-0.126
-486.449	-200.000	0.171	-0.799
-485.435	-160.223	-0.597	-0.032
-484.420	4.754	0.531	0.391
-483.405	-30.645	1.041	0.591
-482.391	52.010	0.035	0.033
-481.376	287.922	-0.331	0.599
-480.362	-57.420	0.276	0.122
-479.347	800.000	0.069	0.240
-478.332	27.795	-0.223	-0.188
-477.318	-200.000	0.025	0.820
-476.303	234.105	-0.264	0.435
-475.289	145.568	0.366	0.491
-474.274	234.027	-0.345	-0.570
-473.259	-39.707	0.336	0.176
-472.245	-132.329	0.360	0.047
-471.230	-34.293	-0.410	0.225
-470.216	-10.864	0.231	0.153
-469.201	-200.000	-0.088	0.915
-468.186	-124.887	0.450	0.070
-467.172	-26.078	-0.070	-0.041
-466.157	-200.000	-0.090	1.507
-465.143	-59.400	-0.739	0.318
-464.128	27.969	-0.465	-0.393
-463.113	31.706	-0.517	-0.446
-462.099	131.937	0.687	0.885
-461.084	-69.211	0.549	0.211
-460.070	-200.000	0.070	-0.393
-459.055	-1.980	-0.193	0.136
-458.040	-200.000	-0.020	0.269
-457.026	-109.570	-0.420	-0.089
-456.011	-166.804	0.547	0.023
-454.997	30.600	0.517	-0.443
-453.982	148.592	-0.062	-0.084
-452.968	-104.545	-0.488	0.113
-451.953	138.616	-0.229	-0.301
-450.938	-116.407	0.361	-0.067
-449.924	-87.118	0.543	0.165
-448.909	800.000	-0.158	0.676
-447.895	-68.109	-0.681	0.265
-446.880	-155.797	-1.127	0.072
-445.865	-159.945	-0.148	-0.008
-444.851	-67.433	0.461	0.181
-443.836	800.000	-0.250	-0.809
-442.822	800.000	-0.170	-0.647
-441.807	115.748	-0.267	0.326
-440.792	-93.286	0.185	0.052
-439.778	-0.435	0.237	0.169
-438.763	84.507	-0.486	-0.532
-437.749	-98.951	0.447	0.113
-436.734	800.000	0.148	0.512
-435.719	-88.452	0.302	0.090
-434.705	4.519	0.182	0.134
-433.690	-115.214	0.822	-0.156
-432.676	-200.000	0.052	-0.582
-431.661	-55.539	-0.633	-0.284
-430.646	-121.899	-0.178	-0.029
-429.632	-200.000	0.115	0.524
-428.617	-200.000	-0.047	-0.648
-427.603	-200.000	-0.003	0.375
-426.588	200.707	0.304	-0.467
-425.573	800.000	0.055	-0.236
-424.559	-82.624	0.482	0.156
-423.544	800.000	-0.186	0.515
-422.530	-177.336	-0.319	-0.008
-421.515	197.050	0.175	-0.267
-420.500	-139.193	0.655	0.071
-419.486	70.668	0.316	-0.327
-418.471	-139.051	0.184	-0.020
-417.457	66.591	-0.563	-0.572
-416.442	72.445	0.370	0.386
-415.428	241.285	0.172	-0.287
-414.413	800.000	0.128	-0.425
-413.398	-31.390	0.457	0.257
-412.384	439.637	0.371	-0.810
-411.369	800.000	-0.183	-0.757
-410.355	-200.000	0.145	-0.651
-409.340	22.273	0.160	-0.130
-408.325	-200.000	-0.010	-0.247
-407.311	-187.510	0.906	0.012
-406.296	-200.000	0.084	-0.387
-405.282	800.000	0.114	-0.413
-404.267	81.784	-0.287	-0.310
-403.252	-200.000	0.041	0.607
-402.238	367.386	0.098	0.198
-401.223	111.790	-0.281	0.338
-400.209	676.481	-0.080	0.208
-399.194	-200.000	-0.102	0.873
-398.179	411.161	0.344	-0.730
-397.165	536.884	0.434	-1.030
-396.150	689.206	-0.249	0.652
-395.136	-200.000	0.042	-0.368
-394.121	-78.557	-0.094	-0.032
-393.106	-176.753	0.453	0.012
-392.092	800.000	0.094	-0.299
-391.077	-29.040	0.461	0.264
-390.063	69.784	-0.299	-0.308
-389.048	800.000	-0.289	0.862
-388.033	56.093	-0.508	0.493
-387.019	-200.000	0.168	-0.846
-386.004	91.996	0.238	0.267
-384.990	-200.000	0.073	-0.581
-383.975	201.687	0.172	-0.264
-382.960	61.951	-0.462	-0.460
-381.946	-63.261	0.322	0.132
-380.931	164.120	-0.586	0.824
-379.917	79.101	0.148	-0.158
-378.902	-76.924	0.143	0.050
-377.888	-66.219	-0.463	0.184
-376.873	-200.000	0.150	-0.702
-375.858	-92.189	0.202	-0.057
-374.844	-130.405	0.516	0.070
-373.829	184.032	-0.631	-0.932
-372.815	-79.547	-0.091	0.031
-371.800	800.000	0.058	0.229
-370.785	-200.000	-0.044	0.339
-369.771	-120.289	-0.768	-0.131
-368.756	-200.000	0.103	-1.273
-367.742	800.000	0.187	-0.572
-366.727	145.137	-0.021	0.028
-365.712	800.000	0.083	0.265
-364.698	-61.463	0.372	0.156
-363.683	-150.763	0.941	0.071
-362.669	172.737	-0.612	0.879
-361.654	272.136	-0.064	0.113
-360.639	-90.469	0.615	0.178
-359.625	287.925	-0.144	0.259
-358.610	82.744	0.481	0.521
-357.596	15.064	0.398	0.311
-356.581	326.042	-0.134	0.256
-355.566	-46.675	0.295	0.144
-354.552	60.701	0.155	0.153
-353.537	-200.000	0.120	0.616
-352.523	-200.000	0.070	0.650
-351.508	-25.545	-0.680	0.400
-350.493	3.863	0.700	0.510
-349.479	119.589	0.254	0.314
-348.464	183.171	-0.112	0.165
-347.450	-19.343	-0.461	-0.285
-346.435	151.640	-0.114	-0.154
-345.420	-11.425	-0.630	0.413
-344.406	6.085	0.509	-0.376
-343.391	40.834	-0.517	0.465
-342.377	800.000	0.272	-0.757
-341.362	-172.506	-0.271	-0.009
-340.348	108.720	-0.207	0.246
-339.333	-89.251	-0.330	0.097
-338.318	558.324	-0.096	-0.232
-337.304	138.222	0.361	0.472
-336.289	322.947	0.317	0.603
-335.275	-200.000	-0.113	-0.726
-334.260	-38.485	0.357	-0.188
-333.245	-152.788	0.643	0.046
-332.231	800.000	0.142	0.447
-331.216	390.955	0.214	-0.443
-330.202	37.474	0.163	0.144
-329.187	176.768	-0.418	-0.606
-328.172	800.000	-0.294	0.936
-327.158	-200.000	0.054	0.915
-326.143	-200.000	0.013	0.509
-325.129	563.343	0.205	-0.493
-324.114	6.973	-0.586	0.435
-323.099	-200.000	-0.074	0.578
-322.085	-61.990	0.693	0.289
-321.070	-7.604	0.064	-0.043
-320.056	-2.132	0.297	0.208
-319.041	-200.000	0.041	-0.192
-318.026	63.428	0.638	0.637
-317.012	-31.898	0.510	-0.285
-315.997	800.000	-0.231	-0.802
-314.983	-106.251	0.514	-0.115
-313.968	-63.271	-0.515	0.211
-312.953	-150.712	-0.839	0.064
-311.939	-200.000	0.003	-0.558
-310.924	158.423	0.438	-0.605
-309.910	-71.976	-0.539	-0.200
-308.895	-147.768	-0.567	0.047
-307.880	190.657	-0.133	-0.199
-306.866	43.751	0.739	0.673
-305.851	-200.000	-0.099	-0.473
-304.837	-90.426	-0.464	0.134
-303.822	-200.000	0.049	-0.399
-302.807	-200.000	0.032	-0.308
-301.793	-200.000	-0.122	0.591
-300.778	-200.000	-0.033	-0.532
-299.764	-200.000	-0.182	0.920
-298.749	-88.909	-0.696	0.205
-297.735	-116.815	-0.361	0.066
-296.720	-16.472	-0.303	0.191
-295.705	412.989	0.164	-0.346
-294.691	83.641	-0.235	-0.255
-293.676	1.946	0.279	0.200
-292.662	800.000	0.136	-0.592
-291.647	-200.000	-0.030	0.224
-290.632	-113.265	0.643	-0.126
-289.618	8.614	-0.478	-0.358
-288.603	-14.627	-0.285	-0.182
-287.589	-116.122	-0.229	0.042
-286.574	290.286	-0.088	0.159
-285.559	-55.681	-0.319	0.142
-284.545	62.150	0.351	0.348
-283.530	16.690	-0.995	-0.782
-282.516	-162.918	0.619	-0.030
-281.501	-92.178	0.449	0.126
-280.486	-101.379	0.407	0.099
-279.472	46.585	-0.207	0.191
-278.457	-200.000	-0.017	-0.566
-277.443	708.473	-0.180	-0.472
-276.428	535.282	0.425	1.001
-275.413	-63.985	-0.579	-0.235
-274.399	-37.717	0.668	0.353
-273.384	295.645	0.038	0.069
-272.370	800.000	0.187	-0.515
-271.355	-58.207	0.624	0.270
-270.340	55.327	0.226	0.217
-269.326	800.000	0.127	0.424
-268.311	581.543	0.299	-0.728
-267.297	49.731	-0.319	-0.299
-266.282	-4.449	-0.326	-0.224
-265.267	111.184	-0.298	-0.357
-264.253	336.560	0.244	0.472
-263.238	-200.000	0.007	0.580
-262.224	508.963	-0.072	0.166
-261.209	-56.452	0.328	0.145
-260.195	-171.745	1.003	-0.033
-259.180	-200.000	0.076	-1.309
-258.165	-108.387	-0.223	-0.048
-257.151	-59.474	-0.343	-0.146
-256.136	-136.829	-0.475	-0.054
-255.122	-113.010	0.088	0.017
-254.107	128.560	0.255	-0.322
-253.092	-42.721	0.676	0.342
-252.078	628.259	-0.108	-0.272
-251.063	-6.967	0.364	0.246
-250.049	18.748	0.428	0.341
-249.034	-143.682	-0.254	-0.024
-248.019	800.000	0.135	0.579
-247.005	-38.850	-1.023	0.536
-245.990	176.266	-0.335	-0.483
-244.976	127.456	0.164	-0.206
-243.961	38.562	-0.106	0.094
-242.946	-43.562	-0.624	-0.313
-241.932	53.796	-0.298	0.284
-240.917	77.916	0.103	-0.109
-239.903	-63.674	-0.346	0.141
-238.888	-104.721	-0.177	-0.040
-237.873	198.705	-0.130	-0.198
-236.859	-107.744	-0.178	-0.039
-235.844	-164.727	-0.805	0.036
-234.830	186.780	-0.250	0.370
-233.815	-129.512	-0.678	-0.093
-232.800	-86.175	-0.486	0.149
-231.786	800.000	0.180	-0.690
-230.771	-75.486	0.697	0.246
-229.757	-200.000	-0.031	1.103
-228.742	-69.597	0.467	0.177
-227.727	-64.870	-0.126	-0.050
-226.713	-200.000	-0.107	0.653
-225.698	274.199	-0.233	-0.409
-224.684	608.651	0.019	-0.047
-223.669	800.000	0.108	0.312
-222.655	-10.727	0.200	0.131
-221.640	-143.952	-0.683	0.064
-220.625	-12.396	-0.204	0.132
-219.611	191.100	-0.303	-0.452
-218.596	445.333	-0.170	-0.371
-217.582	-114.230	0.809	0.155
-216.567	2.584	0.550	0.395
-215.552	-83.202	-0.734	0.234
-214.538	155.838	-0.272	-0.372
-213.523	-42.297	0.748	0.379
-212.509	-105.164	-0.901	-0.204
-211.494	-14.883	-0.086	0.055
-210.479	-200.000	-0.034	-0.287
-209.465	-25.925	1.179	0.688
-208.450	136.991	0.205	0.265
-207.436	-200.000	-0.084	0.584
-206.421	-200.000	-0.105	-0.512
-205.406	78.932	-0.562	0.597
-204.392	169.427	-0.150	-0.212
-203.377	-74.723	-0.134	0.048
-202.363	75.550	0.541	0.566
-201.348	-126.081	0.600	0.089
-200.333	-88.027	0.153	0.046
-199.319	575.320	0.160	-0.388
-198.304	179.602	-0.281	0.408
-197.290	33.959	0.293	-0.253
-196.275	-200.000	0.128	0.880
-195.260	-116.782	-0.803	0.146
-194.246	-10.116	-0.363	-0.239
-193.231	722.527	-0.113	-0.299
-192.217	-67.348	-0.200	-0.078
-191.202	-50.744	0.418	0.195
-190.187	-200.000	-0.005	0.241
-189.173	694.945	0.446	1.159
-188.158	-48.972	0.827	0.393
-187.144	-75.431	0.227	0.080
-186.129	766.697	-0.386	-1.041
-185.114	162.705	0.310	0.431
-184.100	152.757	0.322	-0.436
-183.085	36.685	-0.321	-0.281
-182.071	-172.438	-0.289	0.009
-181.056	-200.000	0.205	-1.166
-180.042	-200.000	-0.099	0.613
-179.027	743.996	0.280	0.745
-178.012	212.678	0.076	-0.119
-176.998	-142.023	0.380	0.037
-175.983	-38.217	-0.401	0.211
-174.969	-86.214	0.770	0.235
-173.954	185.697	-0.299	-0.440
-172.939	-11.300	0.694	-0.452
-171.925	-200.000	0.090	-0.515
-170.910	-74.565	0.192	-0.069
-169.896	135.800	0.220	-0.283
-168.881	-123.030	0.236	-0.038
-167.866	-28.654	0.480	-0.274
-166.852	598.458	-0.056	-0.136
-165.837	51.859	-0.631	0.594
-164.823	-4.802	-0.387	0.264
-163.808	12.334	-0.317	0.242
-162.793	24.896	0.571	-0.468
-161.779	800.000	0.093	0.396
-160.764	-31.976	-0.399	0.221
-159.750	284.036	-0.269	-0.478
-158.735	-61.251	0.169	-0.071
-157.720	172.079	-0.178	0.253
-156.706	2.738	-0.251	-0.180
-155.691	117.381	-0.255	-0.310
-154.677	-54.326	0.791	-0.355
-153.662	164.477	0.081	0.113
-152.647	-43.394	-0.314	0.157
-151.633	-200.000	-0.031	0.361
-150.618	524.872	-0.115	-0.267
-149.604	-29.121	-0.597	-0.339
-148.589	-200.000	0.113	0.563
-147.574	565.987	-0.189	0.454
-146.560	800.000	0.219	0.614
-145.545	-124.364	-0.624	-0.096
-144.531	800.000	0.059	-0.225
-143.516	44.910	0.476	-0.433
-142.502	-28.397	0.385	0.220
-141.487	800.000	0.052	-0.220
-140.472	-28.001	0.351	-0.201
-139.458	-83.199	-0.824	0.262
-138.443	627.267	-0.309	0.771
-137.429	-200.000	0.190	0.893
-136.414	-66.780	-0.451	0.176
-135.399	-130.691	-0.517	0.069
-134.385	223.077	0.297	0.474
-133.370	103.334	-0.313	-0.363
-132.356	800.000	-0.153	-0.582
-131.341	-200.000	-0.023	0.113
-130.326	120.328	0.635	-0.779
-129.312	-200.000	0.050	0.623
-128.297	-27.230	0.528	-0.304
-127.283	-200.000	-0.180	-0.819
-126.268	-46.720	-0.356	0.172
-125.253	800.000	0.295	-0.813
-124.239	257.806	0.416	-0.708
-123.224	-200.000	0.112	0.853
-122.210	645.317	0.373	0.940
-121.195	-5.006	0.567	0.386
