DTS Sentinel unit serial number:	SN413079Multiplexer serial number:	ORYXHardware model number:	OX4-SRSoftware version number:	ORYX F/W v4.00 Oryx Data Collector v3.7.2.0data status	okinstallation	princeton_trtdifferential loss correction	single-endedforward channel	channel 3reverse channel	N/Adate	2019/09/17time	14:28:35forward acquisition time	60.00reverse acquisition time	0.00gamma	496.2192k internal	0.2298k external	0.2298temperature offset calibration	0.9956default loss term (dB/km)	0.3790temperature slope calibration	1.0000multiplexer offset coefficient	1.0000multiplexer slope coefficient	1.0000fibre end	0.00T internal ref (°C)	36.41T ext. ref 1 (°C)	0.40T ext. ref 2 (°C)	33.46length (m)	temperature (°C)	Stokes	anti-Stokes-747.200	800.000	-0.046	-0.171
-746.185	-52.575	0.195	0.092
-745.171	182.667	-0.080	-0.121
-744.156	317.944	-0.091	-0.176
-743.142	545.503	-0.062	0.151
-742.127	-17.428	-0.284	0.183
-741.112	800.000	0.068	0.239
-740.098	-200.000	-0.033	0.274
-739.083	-110.926	-0.241	-0.051
-738.069	-168.104	-0.112	0.004
-737.054	98.101	-0.044	-0.052
-736.039	41.229	0.226	0.209
-735.025	107.247	0.210	0.255
-734.010	25.302	0.100	-0.085
-732.996	-24.013	0.199	-0.122
-731.981	-55.718	-0.199	0.091
-730.966	357.696	0.024	-0.049
-729.952	-132.204	-0.170	-0.022
-728.937	-19.502	0.198	0.125
-727.923	-123.836	-0.127	0.020
-726.908	-32.856	-0.180	0.102
-725.894	51.703	-0.075	0.073
-724.879	-200.000	0.000	-0.098
-723.864	-184.590	0.217	-0.004
-722.850	51.475	-0.198	0.192
-721.835	64.441	0.154	0.158
-720.821	19.318	0.115	-0.095
-719.806	632.603	0.056	-0.146
-718.791	690.692	-0.081	-0.217
-717.777	2.443	0.283	-0.209
-716.762	-200.000	0.034	-0.516
-715.748	-200.000	-0.012	-0.326
-714.733	-102.451	0.094	-0.023
-713.718	269.352	0.026	0.046
-712.704	-123.302	-0.333	-0.054
-711.689	-200.000	-0.054	-0.269
-710.675	-105.786	-0.300	0.069
-709.660	184.742	-0.069	-0.104
-708.645	-123.294	-0.130	-0.021
-707.631	199.693	-0.183	0.287
-706.616	78.428	-0.124	-0.135
-705.602	410.439	0.116	-0.250
-704.587	9.863	0.180	0.139
-703.572	645.424	-0.026	0.067
-702.558	-99.354	-0.111	-0.029
-701.543	788.922	-0.029	0.080
-700.529	800.000	0.033	-0.140
-699.514	-71.085	-0.577	-0.221
-698.499	800.000	-0.098	0.357
-697.485	-49.254	-0.308	0.150
-696.470	53.985	0.196	0.192
-695.456	800.000	0.079	0.304
-694.441	21.219	0.215	-0.178
-693.426	800.000	0.049	0.142
-692.412	758.200	0.044	0.122
-691.397	195.380	-0.062	0.096
-690.383	-99.222	-0.060	-0.015
-689.368	-200.000	0.002	-0.028
-688.354	37.932	0.110	0.100
-687.339	-200.000	0.022	-0.277
-686.324	800.000	-0.049	-0.164
-685.310	-55.202	-0.409	-0.187
-684.295	-200.000	0.044	0.367
-683.281	113.234	0.117	-0.145
-682.266	-97.207	0.103	-0.027
-681.251	-200.000	-0.004	0.053
-680.237	-200.000	-0.054	0.243
-679.222	203.307	0.077	0.121
-678.208	11.633	0.207	-0.162
-677.193	23.520	0.220	-0.184
-676.178	134.962	0.022	-0.029
-675.164	106.198	-0.124	0.149
-674.149	137.905	-0.123	-0.164
-673.135	42.440	0.064	-0.059
-672.120	25.605	-0.282	0.239
-671.105	37.682	-0.117	0.106
-670.091	435.092	-0.087	0.193
-669.076	-200.000	-0.040	-0.183
-668.062	-200.000	0.000	-0.017
-667.047	138.573	-0.293	0.392
-666.032	-200.000	-0.001	-0.079
-665.018	210.490	0.118	0.189
-664.003	-30.648	-0.120	-0.069
-662.989	-26.652	0.173	-0.103
-661.974	-200.000	-0.014	0.108
-660.959	-11.478	0.232	0.155
-659.945	-199.081	-0.226	0.001
-658.930	-7.090	0.107	0.074
-657.916	-29.338	0.335	0.195
-656.901	-18.858	-0.197	-0.125
-655.886	-187.535	-0.127	-0.002
-654.872	4.424	-0.366	-0.273
-653.857	-23.691	-0.344	-0.210
-652.843	-162.262	0.406	0.021
-651.828	-136.355	-0.116	0.014
-650.814	12.654	0.279	0.219
-649.799	21.503	0.101	0.083
-648.784	-164.375	-0.176	-0.008
-647.770	103.983	-0.024	0.029
-646.755	800.000	-0.099	-0.292
-645.741	224.044	0.223	-0.366
-644.726	178.017	-0.111	0.165
-643.711	-85.228	0.230	0.073
-642.697	-200.000	0.036	-0.185
-641.682	170.208	-0.236	0.344
-640.668	56.459	0.120	0.119
-639.653	-77.140	0.247	-0.087
-638.638	399.825	-0.092	0.196
-637.624	578.063	0.105	-0.261
-636.609	-89.433	-0.409	0.122
-635.595	-97.165	0.184	-0.049
-634.580	800.000	0.033	-0.098
-633.565	800.000	-0.082	-0.243
-632.551	-200.000	0.051	-0.316
-631.536	-200.000	-0.068	-0.302
-630.522	751.084	0.064	-0.176
-629.507	504.819	-0.122	0.288
-628.492	-120.460	0.028	-0.005
-627.478	-166.757	-0.384	-0.016
-626.463	-200.000	-0.015	0.104
-625.449	683.054	-0.063	0.168
-624.434	312.331	-0.093	-0.177
-623.419	82.212	-0.096	-0.106
-622.405	-136.746	-0.289	-0.034
-621.390	-200.000	0.014	-0.203
-620.376	-191.075	0.223	0.002
-619.361	-108.986	0.134	0.029
-618.346	-133.443	0.170	-0.022
-617.332	1.029	0.093	-0.068
-616.317	-83.848	-0.383	0.124
-615.303	800.000	-0.114	-0.412
-614.288	-152.171	0.303	-0.022
-613.273	-153.115	-0.267	0.019
-612.259	194.956	-0.151	0.234
-611.244	-200.000	0.017	0.122
-610.230	-186.373	0.212	0.003
-609.215	-27.952	-0.213	0.125
-608.201	-200.000	-0.028	-0.214
-607.186	-17.299	-0.048	-0.031
-606.171	222.224	0.178	0.291
-605.157	-17.583	0.249	-0.159
-604.142	-200.000	0.041	0.441
-603.128	-140.044	-0.134	-0.014
-602.113	-71.099	0.035	0.013
-601.098	-180.538	0.210	-0.004
-600.084	97.753	-0.131	-0.153
-599.069	800.000	-0.020	0.073
-598.055	-43.921	-0.041	0.021
-597.040	-200.000	-0.078	0.360
-596.025	-200.000	-0.074	-0.355
-595.011	-110.823	-0.167	-0.035
-593.996	800.000	-0.043	-0.157
-592.982	41.096	0.149	-0.137
-591.967	159.172	0.357	0.503
-590.952	-146.335	-0.206	-0.018
-589.938	326.883	0.089	-0.172
-588.923	128.399	-0.181	0.234
-587.909	26.705	0.266	0.226
-586.894	197.704	0.099	-0.153
-585.879	-60.594	-0.364	-0.157
-584.865	-31.622	-0.304	-0.173
-583.850	137.863	0.127	0.168
-582.836	800.000	0.030	0.129
-581.821	446.349	-0.018	-0.039
-580.806	-200.000	0.024	0.284
-579.792	-200.000	0.004	0.128
-578.777	-17.896	-0.201	0.128
-577.763	273.094	0.099	0.177
-576.748	-65.522	-0.350	-0.142
-575.733	-200.000	0.013	-0.275
-574.719	-200.000	0.015	-0.095
-573.704	193.393	-0.212	-0.325
-572.690	47.481	-0.152	-0.143
-571.675	112.927	0.137	0.168
-570.661	-113.673	0.201	0.040
-569.646	233.667	-0.111	-0.184
-568.631	45.906	-0.044	0.041
-567.617	41.420	-0.258	-0.237
-566.602	97.073	-0.221	0.257
-565.588	-36.711	0.086	0.047
-564.573	-83.922	0.274	0.088
-563.558	-200.000	0.007	-0.042
-562.544	-80.307	-0.220	0.075
-561.529	-171.086	-0.450	-0.015
-560.515	-91.421	-0.283	-0.082
-559.500	-31.085	0.184	0.105
-558.485	-20.573	-0.241	-0.150
-557.471	400.564	-0.134	-0.284
-556.456	-12.070	0.216	-0.143
-555.442	4.294	0.112	0.083
-554.427	210.551	-0.187	-0.297
-553.412	-77.406	-0.183	-0.064
-552.398	-113.025	0.197	0.040
-551.383	39.593	0.118	-0.107
-550.369	-98.488	-0.212	-0.055
-549.354	-109.236	-0.211	-0.045
-548.339	388.835	-0.139	-0.291
-547.325	-45.373	0.035	-0.017
-546.310	411.405	0.135	0.290
-545.296	231.227	0.042	-0.069
-544.281	-102.889	-0.088	-0.021
-543.266	-160.361	-0.256	-0.014
-542.252	216.052	0.119	0.192
-541.237	3.456	0.089	-0.066
-540.223	532.343	-0.045	0.109
-539.208	-167.181	0.264	-0.011
-538.193	-200.000	-0.005	-0.311
-537.179	-107.780	0.050	0.011
-536.164	-200.000	-0.007	-0.196
-535.150	-103.915	-0.077	-0.018
-534.135	800.000	0.042	-0.143
-533.121	-200.000	-0.055	-0.262
-532.106	-39.846	-0.107	-0.057
-531.091	-51.202	-0.087	0.041
-530.077	-200.000	0.014	-0.230
-529.062	364.647	-0.139	0.284
-528.048	-111.091	0.225	0.047
-527.033	-142.258	0.169	-0.017
-526.018	-97.668	-0.129	0.034
-525.004	361.551	-0.199	-0.405
-523.989	625.493	-0.180	-0.459
-522.975	-200.000	0.008	-0.124
-521.960	120.185	0.231	0.290
-520.945	800.000	0.093	0.270
-519.931	-200.000	-0.018	0.247
-518.916	-66.725	-0.437	-0.175
-517.902	-21.688	0.324	0.200
-516.887	90.873	-0.060	-0.068
-515.872	11.793	-0.122	0.095
-514.858	459.381	0.034	-0.076
-513.843	-110.322	0.076	-0.016
-512.829	365.703	0.018	0.036
-511.814	223.287	0.109	0.178
-510.799	-141.815	-0.275	0.028
-509.785	206.315	-0.116	-0.183
-508.770	-200.000	0.031	-0.221
-507.756	41.041	0.139	0.127
-506.741	-61.050	-0.239	-0.102
-505.726	800.000	-0.100	-0.368
-504.712	-200.000	0.004	0.224
-503.697	-109.880	0.270	0.057
-502.683	706.225	0.157	-0.419
-501.668	-42.223	-0.253	0.131
-500.653	-200.000	-0.002	0.156
-499.639	-127.288	-0.040	-0.006
-498.624	151.675	0.061	-0.084
-497.610	317.561	0.261	-0.500
-496.595	266.003	-0.091	-0.161
-495.581	17.677	0.283	0.227
-494.566	-91.379	0.144	0.042
-493.551	-13.725	-0.331	0.216
-492.537	410.800	-0.011	-0.023
-491.522	259.389	0.062	-0.108
-490.508	-200.000	0.025	-0.180
-489.493	-126.039	-0.172	0.026
-488.478	476.848	-0.207	-0.474
-487.464	-200.000	-0.048	-0.371
-486.449	110.034	0.166	-0.201
-485.435	294.186	-0.022	0.041
-484.420	95.047	-0.083	0.095
-483.405	-107.788	-0.066	0.015
-482.391	-200.000	0.015	-0.128
-481.376	-200.000	0.027	0.133
-480.362	-186.260	-0.103	-0.002
-479.347	-200.000	0.018	0.256
-478.332	-103.565	-0.326	0.077
-477.318	-35.005	0.084	-0.046
-476.303	800.000	-0.058	-0.180
-475.289	652.533	-0.033	-0.084
-474.274	156.938	0.071	-0.099
-473.259	26.687	-0.271	0.229
-472.245	220.680	0.088	0.143
-471.230	-82.935	-0.394	-0.128
-470.216	-41.152	0.262	-0.137
-469.201	-200.000	0.029	0.389
-468.186	800.000	0.113	0.338
-467.172	-41.247	0.162	0.084
-466.157	-96.112	-0.313	0.084
-465.143	19.729	0.099	0.081
-464.128	85.911	-0.198	0.220
-463.113	470.769	0.180	-0.408
-462.099	113.254	0.177	0.217
-461.084	86.024	-0.155	-0.172
-460.070	496.451	-0.028	-0.066
-459.055	407.606	0.124	0.264
-458.040	-200.000	0.020	0.114
-457.026	-58.541	-0.178	-0.078
-456.011	73.319	0.082	-0.087
-454.997	800.000	0.108	0.383
-453.982	-38.867	-0.254	-0.135
-452.968	92.728	0.149	-0.170
-451.953	-200.000	-0.018	-0.102
-450.938	-100.934	0.385	-0.095
-449.924	-108.709	-0.165	0.036
-448.909	800.000	0.072	-0.258
-447.895	-105.396	0.224	-0.052
-446.880	185.589	-0.206	0.309
-445.865	800.000	0.033	-0.102
-444.851	800.000	0.110	-0.379
-443.836	-68.737	0.343	0.134
-442.822	5.692	-0.162	0.121
-441.807	-24.023	0.188	0.113
-440.792	-200.000	0.013	0.225
-439.778	10.586	-0.133	-0.102
-438.763	800.000	0.051	0.199
-437.749	-81.766	0.396	0.131
-436.734	800.000	0.037	-0.120
-435.719	66.847	-0.156	-0.160
-434.705	-62.289	-0.235	-0.099
-433.690	-153.366	0.281	-0.020
-432.676	-200.000	0.005	-0.238
-431.661	-200.000	0.005	0.126
-430.646	-94.398	-0.316	-0.087
-429.632	800.000	-0.013	-0.046
-428.617	133.022	-0.183	-0.239
-427.603	-153.680	-0.166	0.012
-426.588	100.538	-0.101	0.118
-425.573	118.772	-0.195	0.243
-424.559	-86.250	0.101	0.031
-423.544	507.446	0.072	-0.169
-422.530	3.781	0.280	0.206
-421.515	-145.523	-0.138	-0.012
-420.500	263.905	0.054	-0.094
-419.486	-143.980	-0.194	0.018
-418.471	425.477	-0.144	0.314
-417.457	184.410	-0.063	0.094
-416.442	73.850	0.133	0.141
-415.428	800.000	-0.080	0.226
-414.413	19.422	-0.119	0.096
-413.398	-117.837	-0.238	-0.043
-412.384	-200.000	-0.007	0.196
-411.369	-200.000	0.018	-0.254
-410.355	136.450	-0.038	0.049
-409.340	-200.000	0.004	-0.025
-408.325	175.326	-0.099	-0.145
-407.311	-29.331	0.165	0.095
-406.296	20.122	0.129	0.105
-405.282	176.841	0.018	0.027
-404.267	202.433	0.153	0.239
-403.252	40.007	-0.195	0.177
-402.238	800.000	0.070	0.295
-401.223	282.338	0.085	0.153
-400.209	-33.178	-0.186	-0.104
-399.194	31.806	0.177	-0.154
-398.179	82.105	-0.119	0.130
-397.165	-200.000	0.010	0.178
-396.150	43.110	0.269	0.247
-395.136	-54.985	-0.471	0.214
-394.121	-88.917	0.399	-0.119
-393.106	285.124	0.065	-0.119
-392.092	5.728	-0.319	0.237
-391.077	16.861	-0.162	-0.129
-390.063	116.332	0.140	0.172
-389.048	800.000	0.038	0.137
-388.033	19.611	0.300	0.243
-387.019	583.878	0.154	0.381
-386.004	750.737	0.040	-0.109
-384.990	-200.000	-0.009	0.243
-383.975	-200.000	-0.020	0.142
-382.960	-200.000	0.011	-0.106
-381.946	184.093	0.069	0.103
-380.931	800.000	-0.088	0.323
-379.917	122.639	-0.164	0.207
-378.902	178.837	-0.217	0.319
-377.888	121.793	-0.167	0.210
-376.873	800.000	-0.075	0.276
-375.858	-200.000	-0.025	0.263
-374.844	373.107	-0.117	0.239
-373.829	-200.000	-0.024	0.309
-372.815	-200.000	0.009	0.140
-371.800	800.000	0.098	-0.295
-370.785	-32.778	-0.173	0.097
-369.771	-81.051	0.177	0.059
-368.756	392.905	-0.084	0.175
-367.742	-151.572	0.262	0.019
-366.727	-200.000	-0.011	-0.116
-365.712	-128.836	-0.113	0.016
-364.698	-91.168	0.286	-0.082
-363.683	419.501	-0.091	-0.195
-362.669	-140.887	-0.225	-0.023
-361.654	-43.983	0.254	-0.129
-360.639	-33.249	-0.377	-0.210
-359.625	439.230	0.057	-0.125
-358.610	143.507	0.179	-0.239
-357.596	-22.372	-0.197	-0.120
-356.581	59.614	-0.157	-0.156
-355.566	-91.716	-0.272	0.078
-354.552	315.171	0.037	-0.070
-353.537	-26.115	0.556	0.329
-352.523	522.208	0.027	0.064
-351.508	-32.692	-0.098	-0.055
-350.493	800.000	0.060	0.232
-349.479	210.257	-0.153	0.242
-348.464	257.439	0.147	-0.253
-347.450	138.818	0.134	-0.177
-346.435	-200.000	0.000	-0.105
-345.420	-93.424	0.141	0.039
-344.406	-125.213	0.069	0.011
-343.391	800.000	0.023	-0.085
-342.377	375.091	0.077	-0.158
-341.362	-23.399	-0.260	0.157
-340.348	-176.331	0.453	0.012
-339.333	134.211	0.210	-0.273
-338.318	-111.242	0.205	-0.042
-337.304	-2.652	0.211	-0.148
-336.289	-166.956	-0.220	-0.009
-335.275	-68.945	-0.310	-0.120
-334.260	-148.289	0.133	-0.011
-333.245	-71.889	-0.393	-0.147
-332.231	-24.275	0.139	0.084
-331.216	-24.169	0.203	-0.122
-330.202	-200.000	0.008	0.067
-329.187	-105.970	0.346	0.078
-328.172	77.689	0.287	-0.307
-327.158	582.022	0.026	-0.064
-326.143	800.000	0.082	0.356
-325.129	116.481	-0.144	0.178
-324.114	-149.863	-0.074	-0.006
-323.099	-112.842	-0.230	0.046
-322.085	-200.000	0.020	0.216
-321.070	800.000	0.075	-0.257
-320.056	520.826	0.022	-0.052
-319.041	-105.167	-0.388	-0.089
-318.026	-48.393	0.188	0.091
-317.012	-64.843	0.187	-0.076
-315.997	-200.000	0.037	-0.248
-314.983	103.266	-0.154	-0.182
-313.968	800.000	0.128	0.529
-312.953	-127.176	0.228	0.033
-311.939	-34.988	-0.073	0.040
-310.924	-105.550	0.223	0.051
-309.910	562.262	0.078	0.190
-308.895	-139.870	0.322	0.034
-307.880	-31.646	0.306	0.172
-306.866	-50.561	0.141	-0.067
-305.851	-113.668	0.304	0.060
-304.837	76.516	-0.086	-0.092
-303.822	238.105	-0.157	-0.261
-302.807	-200.000	0.010	0.242
-301.793	798.722	-0.103	0.285
-300.778	-84.032	-0.158	0.051
-299.764	-112.626	-0.290	-0.058
-298.749	-200.000	-0.013	-0.073
-297.735	720.783	0.054	-0.145
-296.720	-71.713	-0.091	-0.034
-295.705	675.328	0.123	0.321
-294.691	374.332	0.040	0.083
-293.676	246.556	-0.115	-0.195
-292.662	-200.000	-0.048	0.222
-291.647	13.052	0.020	0.016
-290.632	-75.741	-0.151	0.054
-289.618	746.515	0.135	-0.364
-288.603	538.229	0.040	0.096
-287.589	-41.275	0.080	-0.041
-286.574	-49.598	0.182	0.087
-285.559	-17.808	0.133	-0.084
-284.545	-80.187	-0.173	-0.058
-283.530	-166.519	0.238	-0.010
-282.516	800.000	-0.058	0.196
-281.501	-128.665	0.300	-0.042
-280.486	506.196	-0.047	0.109
-279.472	52.058	-0.220	-0.211
-278.457	623.597	0.160	-0.403
-277.443	92.190	-0.052	0.058
-276.428	108.120	-0.225	0.269
-275.413	-200.000	-0.035	0.255
-274.399	-200.000	-0.006	-0.112
-273.384	-200.000	-0.007	0.211
-272.370	57.225	0.186	-0.182
-271.355	-71.174	0.325	0.122
-270.340	431.523	-0.088	0.190
-269.326	119.435	-0.082	-0.101
-268.311	800.000	-0.011	0.036
-267.297	9.184	0.176	0.133
-266.282	-97.957	0.202	-0.052
-265.267	59.418	0.093	-0.092
-264.253	287.424	0.116	-0.210
-263.238	-200.000	0.019	0.127
-262.224	195.811	-0.264	0.402
-261.209	-34.921	-0.232	-0.127
-260.195	31.808	-0.234	0.202
-259.180	193.235	-0.046	0.070
-258.165	800.000	-0.091	0.308
-257.151	-200.000	-0.012	0.086
-256.136	-49.462	0.500	-0.239
-255.122	695.922	0.054	-0.142
-254.107	112.743	-0.151	-0.183
-253.092	534.908	0.033	-0.079
-252.078	133.235	-0.105	-0.136
-251.063	-8.493	0.106	0.071
-250.049	-8.716	-0.317	0.213
-249.034	-139.124	-0.270	-0.029
-248.019	-85.867	-0.195	-0.060
-247.005	-63.454	0.299	-0.123
-245.990	260.284	0.135	0.234
-244.976	800.000	0.114	0.347
-243.961	-107.464	0.321	-0.070
-242.946	265.372	0.109	0.190
-241.932	619.058	0.095	-0.240
-240.917	181.541	-0.070	0.104
-239.903	232.127	-0.136	-0.223
-238.888	-200.000	-0.018	0.147
-237.873	-30.983	0.163	0.092
-236.859	-37.542	-0.366	-0.195
-235.844	-37.470	-0.181	0.097
-234.830	800.000	0.072	0.258
-233.815	-200.000	0.013	-0.244
-232.800	-72.653	0.278	0.103
-231.786	86.197	0.126	0.139
-230.771	-73.919	0.100	-0.036
-229.757	-200.000	0.055	-0.292
-228.742	-200.000	-0.084	-0.382
-227.727	-109.379	-0.285	0.060
-226.713	-200.000	-0.089	-0.489
-225.698	115.585	0.300	0.367
-224.684	-131.675	0.375	0.049
-223.669	-29.141	-0.210	-0.121
-222.655	97.426	0.168	-0.193
-221.640	-116.896	0.235	0.043
-220.625	106.474	0.161	-0.191
-219.611	-122.829	0.181	0.029
-218.596	-47.848	0.272	0.132
-217.582	-21.597	0.313	-0.191
-216.567	-55.605	0.182	0.082
-215.552	142.045	-0.194	-0.258
-214.538	34.490	0.077	-0.067
-213.523	61.819	0.138	-0.137
-212.509	-109.332	0.159	-0.034
-211.494	743.514	0.026	0.070
-210.479	-126.632	0.296	0.044
-209.465	-200.000	-0.028	-0.154
-208.450	-127.729	-0.428	0.062
-207.436	306.807	-0.118	0.219
-206.421	-127.703	-0.107	0.015
-205.406	-200.000	0.012	-0.084
-204.392	-55.617	0.284	-0.127
-203.377	348.358	0.210	-0.414
-202.363	30.647	-0.150	0.128
-201.348	800.000	-0.030	-0.090
-200.333	-64.300	-0.050	0.020
-199.319	-183.990	0.466	-0.008
-198.304	-110.851	-0.145	0.030
-197.290	92.053	-0.215	-0.241
-196.275	-8.237	0.191	-0.129
-195.260	453.519	-0.061	-0.134
-194.246	100.788	0.115	-0.134
-193.231	800.000	0.068	-0.213
-192.217	-200.000	-0.003	-0.033
-191.202	52.879	-0.111	0.106
-190.187	-95.061	-0.317	-0.086
-189.173	22.955	-0.229	-0.187
-188.158	681.009	-0.063	-0.164
-187.144	122.971	-0.037	0.046
-186.129	13.257	0.123	0.095
-185.114	44.840	-0.026	-0.024
-184.100	-13.108	-0.060	-0.039
-183.085	36.865	-0.091	-0.081
-182.071	-134.650	-0.181	-0.022
-181.056	-42.607	0.007	-0.004
-180.042	103.292	-0.109	0.128
-179.027	408.691	-0.113	0.239
-178.012	-200.000	0.041	0.213
-176.998	-71.050	-0.189	-0.071
-175.983	-200.000	-0.018	0.246
-174.969	-124.050	0.461	-0.072
-173.954	99.338	0.147	-0.170
-172.939	148.703	-0.078	0.105
-171.925	-200.000	0.046	0.238
-170.910	405.161	-0.100	0.210
-169.896	519.205	-0.137	-0.319
-168.881	-65.901	-0.131	0.052
-167.866	-7.660	-0.103	-0.069
-166.852	-12.189	0.203	0.133
-165.837	314.639	0.182	0.342
-164.823	2.234	0.167	-0.121
-163.808	136.455	-0.200	0.261
-162.793	-23.721	0.067	0.040
-161.779	445.912	-0.120	-0.264
-160.764	-46.039	-0.229	-0.113
-159.750	17.501	0.013	0.010
-158.735	246.874	-0.125	-0.211
-157.720	-110.199	-0.360	0.075
-156.706	-43.600	0.166	0.083
-155.691	-114.865	0.297	-0.056
-154.677	-200.000	0.025	0.117
-153.662	-80.535	-0.185	0.062
-152.647	-134.118	0.441	0.054
-151.633	-200.000	-0.021	-0.220
-150.618	-200.000	-0.018	-0.177
-149.604	636.086	0.057	-0.145
-148.589	706.122	0.124	0.328
-147.574	-16.143	0.138	0.087
-146.560	-129.243	0.196	-0.027
-145.545	-200.000	-0.003	0.204
-144.531	-116.524	0.054	-0.010
-143.516	-200.000	-0.010	0.136
-142.502	15.244	-0.118	0.093
-141.487	-200.000	-0.012	-0.171
-140.472	-131.503	0.201	0.026
-139.458	-116.394	0.039	0.007
-138.443	-147.345	0.197	0.017
-137.429	218.330	0.036	-0.057
-136.414	184.633	0.038	0.056
-135.399	-49.280	0.082	0.039
-134.385	-6.356	-0.260	0.177
-133.370	-200.000	-0.013	0.119
-132.356	-12.504	0.198	-0.129
-131.341	124.488	0.147	-0.184
-130.326	-149.967	0.115	0.009
-129.312	-200.000	0.035	0.193
-128.297	-200.000	0.035	0.200
-127.283	-167.930	-0.170	0.007
-126.268	-144.538	-0.321	0.030
-125.253	-61.255	0.184	0.077
-124.239	26.560	-0.055	-0.046
-123.224	25.606	0.345	0.286
-122.210	-167.709	0.194	-0.008
