DTS Sentinel unit serial number:	SN413079Multiplexer serial number:	ORYXHardware model number:	OX4-SRSoftware version number:	ORYX F/W v4.00 Oryx Data Collector v3.7.2.0data status	okinstallation	princeton_trtdifferential loss correction	single-endedforward channel	channel 3reverse channel	N/Adate	2019/09/17time	21:32:35forward acquisition time	60.00reverse acquisition time	0.00gamma	496.2192k internal	0.2343k external	0.2343temperature offset calibration	0.9948default loss term (dB/km)	0.3790temperature slope calibration	1.0000multiplexer offset coefficient	1.0000multiplexer slope coefficient	1.0000fibre end	0.00T internal ref (°C)	27.06T ext. ref 1 (°C)	0.19T ext. ref 2 (°C)	19.27length (m)	temperature (°C)	Stokes	anti-Stokes-747.200	800.000	0.051	0.142
-746.185	375.988	0.074	-0.152
-745.171	-105.755	-0.018	-0.004
-744.156	14.446	-0.381	0.298
-743.142	-200.000	-0.026	-0.192
-742.127	-24.621	0.162	-0.097
-741.112	45.793	-0.267	-0.247
-740.098	-124.701	0.295	-0.046
-739.083	-84.560	0.232	0.073
-738.069	88.248	-0.157	0.175
-737.054	800.000	0.045	-0.146
-736.039	-114.725	-0.178	0.034
-735.025	125.935	0.207	0.262
-734.010	458.425	-0.189	0.421
-732.996	-200.000	-0.044	0.247
-731.981	379.519	-0.148	-0.303
-730.966	800.000	0.075	0.268
-729.952	298.898	-0.137	0.252
-728.937	-92.658	-0.204	0.057
-727.923	-175.323	-0.397	0.011
-726.908	-58.496	0.238	0.103
-725.894	-39.035	-0.040	-0.021
-724.879	46.584	0.241	-0.224
-723.864	476.546	0.095	0.215
-722.850	237.827	-0.136	0.225
-721.835	-200.000	0.008	0.100
-720.821	221.016	0.176	-0.283
-719.806	-127.164	-0.256	0.037
-718.791	277.806	-0.079	0.141
-717.777	-167.887	-0.062	0.002
-716.762	-200.000	-0.074	0.332
-715.748	-85.151	0.049	-0.015
-714.733	-200.000	0.034	-0.302
-713.718	259.984	0.151	-0.261
-712.704	435.187	-0.116	-0.252
-711.689	-67.384	0.057	-0.022
-710.675	-71.675	-0.077	0.029
-709.660	97.907	-0.229	-0.264
-708.645	800.000	0.013	-0.047
-707.631	-80.162	-0.063	0.021
-706.616	30.925	-0.146	-0.125
-705.602	198.664	-0.064	0.098
-704.587	170.497	-0.124	-0.178
-703.572	228.952	0.105	-0.172
-702.558	-33.452	-0.229	0.127
-701.543	-200.000	0.000	-0.438
-700.529	-61.903	-0.227	0.095
-699.514	13.668	-0.150	-0.116
-698.499	-17.366	0.229	0.144
-697.485	-200.000	-0.006	0.050
-696.470	125.149	-0.256	0.322
-695.456	-27.215	-0.336	0.195
-694.441	-55.386	-0.281	0.126
-693.426	800.000	0.079	0.256
-692.412	-44.269	0.238	-0.119
-691.397	-109.567	-0.268	0.057
-690.383	-39.932	0.207	-0.108
-689.368	-41.783	0.055	-0.028
-688.354	-200.000	-0.047	0.298
-687.339	800.000	-0.069	-0.300
-686.324	800.000	-0.040	-0.128
-685.310	-168.873	-0.259	-0.010
-684.295	-149.508	-0.090	-0.007
-683.281	276.273	0.082	0.145
-682.266	-101.689	0.110	0.027
-681.251	-79.567	0.189	-0.064
-680.237	800.000	-0.073	0.256
-679.222	-75.695	0.065	-0.023
-678.208	9.627	0.151	0.115
-677.193	449.599	0.096	-0.212
-676.178	330.506	-0.185	-0.355
-675.164	-15.788	0.074	-0.047
-674.149	537.468	-0.105	0.249
-673.135	-200.000	-0.055	0.252
-672.120	-162.032	-0.415	-0.021
-671.105	284.221	-0.078	-0.139
-670.091	14.501	-0.126	-0.098
-669.076	437.287	-0.140	-0.305
-668.062	80.035	0.077	-0.083
-667.047	-86.540	0.254	-0.078
-666.032	-200.000	0.015	-0.231
-665.018	-124.273	-0.254	-0.040
-664.003	-48.992	0.304	-0.145
-662.989	-200.000	-0.023	0.301
-661.974	-96.010	0.035	-0.009
-660.959	67.323	0.203	-0.206
-659.945	-41.953	-0.163	0.083
-658.930	-200.000	-0.003	-0.073
-657.916	161.663	-0.165	-0.231
-656.901	800.000	0.018	0.060
-655.886	800.000	0.090	0.285
-654.872	-51.391	-0.134	0.063
-653.857	-200.000	0.061	0.334
-652.843	-97.753	-0.155	0.040
-651.828	157.717	0.113	-0.156
-650.814	-200.000	-0.051	0.335
-649.799	556.367	0.191	-0.458
-648.784	546.624	-0.064	0.152
-647.770	-168.983	-0.394	0.015
-646.755	-200.000	-0.029	0.289
-645.741	-200.000	-0.045	-0.333
-644.726	42.619	-0.260	0.236
-643.711	-84.048	-0.367	0.116
-642.697	148.472	0.218	-0.294
-641.682	40.407	0.185	-0.167
-640.668	659.714	-0.192	-0.492
-639.653	-175.129	-0.353	-0.010
-638.638	-25.899	-0.266	0.156
-637.624	-200.000	-0.011	0.143
-636.609	740.659	0.047	0.127
-635.595	-200.000	0.001	0.019
-634.580	-112.496	0.285	-0.057
-633.565	-200.000	-0.069	0.324
-632.551	-200.000	0.035	0.213
-631.536	-98.186	-0.183	-0.047
-630.522	-131.016	-0.200	-0.027
-629.507	-7.455	0.021	0.014
-628.492	-55.457	-0.197	-0.088
-627.478	-200.000	0.060	0.270
-626.463	133.616	-0.227	0.293
-625.449	180.744	-0.034	-0.050
-624.434	81.041	-0.137	0.147
-623.419	42.464	0.134	0.121
-622.405	-42.269	-0.215	-0.110
-621.390	-4.485	0.131	0.090
-620.376	492.552	-0.011	-0.024
-619.361	-21.739	-0.251	0.152
-618.346	-19.016	0.015	-0.009
-617.332	-23.017	-0.423	-0.254
-616.317	-134.136	-0.095	0.012
-615.303	-56.505	-0.327	0.144
-614.288	-96.979	-0.131	-0.034
-613.273	-41.416	-0.047	-0.024
-612.259	-200.000	0.003	-0.341
-611.244	-130.478	-0.173	0.023
-610.230	-64.255	0.060	0.024
-609.215	800.000	0.092	-0.263
-608.201	-200.000	0.015	-0.357
-607.186	-64.882	-0.104	-0.042
-606.171	-200.000	-0.040	-0.178
-605.157	-121.705	-0.151	-0.025
-604.142	-29.782	0.112	0.064
-603.128	-118.328	-0.356	0.063
-602.113	-32.335	-0.177	0.099
-601.098	-200.000	-0.012	0.094
-600.084	-200.000	-0.036	-0.293
-599.069	800.000	0.040	-0.126
-598.055	321.893	0.050	0.095
-597.040	-45.238	0.256	-0.126
-596.025	296.206	0.005	0.008
-595.011	7.526	-0.145	-0.108
-593.996	279.158	-0.114	0.203
-592.982	-160.664	-0.317	0.017
-591.967	-28.690	-0.188	0.107
-590.952	-96.498	0.175	-0.046
-589.938	-28.462	-0.075	-0.043
-588.923	800.000	-0.088	-0.249
-587.909	95.581	0.151	-0.172
-586.894	800.000	0.076	0.213
-585.879	75.089	-0.103	-0.108
-584.865	-93.099	-0.215	-0.059
-583.850	57.108	0.120	-0.117
-582.836	-105.078	0.108	0.024
-581.821	-129.396	-0.231	-0.032
-580.806	89.551	0.080	0.089
-579.792	588.354	0.020	-0.049
-578.777	154.153	0.256	-0.349
-577.763	800.000	-0.134	-0.385
-576.748	-6.867	-0.354	0.239
-575.733	-4.839	-0.311	0.213
-574.719	800.000	0.049	0.164
-573.704	-200.000	0.039	0.299
-572.690	132.125	0.059	-0.076
-571.675	531.634	0.129	-0.304
-570.661	800.000	0.108	0.355
-569.646	651.387	-0.122	0.312
-568.631	-3.489	-0.077	0.053
-567.617	800.000	-0.111	0.318
-566.602	124.514	0.133	0.166
-565.588	-104.680	-0.182	-0.042
-564.573	-76.308	-0.567	0.198
-563.558	9.907	0.105	-0.079
-562.544	-66.081	-0.063	0.025
-561.529	-34.015	-0.119	0.065
-560.515	397.943	0.099	0.206
-559.500	0.627	-0.211	0.150
-558.485	-33.978	-0.223	0.122
-557.471	800.000	-0.030	-0.093
-556.456	67.551	0.169	-0.172
-555.442	-200.000	-0.034	0.161
-554.427	120.987	-0.037	-0.045
-553.412	-96.030	0.184	-0.049
-552.398	-166.275	-0.399	-0.017
-551.383	-88.320	-0.118	0.035
-550.369	66.302	0.067	-0.068
-549.354	-91.269	0.316	0.090
-548.339	-62.094	0.156	0.065
-547.325	219.545	-0.118	-0.188
-546.310	-150.487	-0.355	0.027
-545.296	36.144	-0.157	-0.137
-544.281	-126.675	0.194	0.028
-543.266	340.911	0.036	0.069
-542.252	73.543	0.148	-0.154
-541.237	-170.182	-0.023	-0.001
-540.223	800.000	-0.060	0.187
-539.208	523.401	-0.134	0.312
-538.193	-200.000	0.012	0.274
-537.179	-122.366	-0.221	-0.036
-536.164	-61.640	0.407	-0.169
-535.150	-35.670	-0.451	-0.243
-534.135	32.095	-0.091	-0.078
-533.121	395.859	0.048	0.100
-532.106	-59.581	0.316	-0.135
-531.091	270.997	0.184	0.322
-530.077	-75.426	-0.480	-0.170
-529.062	-76.748	0.225	-0.078
-528.048	-200.000	-0.046	0.208
-527.033	60.226	0.288	0.283
-526.018	-66.813	-0.458	-0.180
-525.004	6.065	-0.028	-0.021
-523.989	-139.123	0.121	-0.013
-522.975	364.887	0.152	-0.304
-521.960	800.000	-0.124	0.350
-520.945	800.000	-0.024	0.093
-519.931	-200.000	-0.005	-0.022
-518.916	-50.865	-0.121	0.056
-517.902	-189.688	-0.245	-0.003
-516.887	800.000	-0.024	0.089
-515.872	800.000	-0.098	0.347
-514.858	-81.650	0.184	0.060
-513.843	134.399	0.072	-0.093
-512.829	24.178	0.235	0.192
-511.814	800.000	0.052	-0.214
-510.799	-200.000	0.010	-0.212
-509.785	178.844	-0.026	0.037
-508.770	-174.848	0.077	0.002
-507.756	-52.012	-0.112	-0.052
-506.741	-46.945	0.157	0.076
-505.726	-88.571	0.183	0.054
-504.712	800.000	-0.045	0.175
-503.697	326.487	-0.069	0.132
-502.683	-200.000	0.009	-0.276
-501.668	132.800	0.135	0.173
-500.653	80.751	0.295	-0.315
-499.639	-200.000	-0.066	-0.327
-498.624	-200.000	0.016	-0.257
-497.610	-96.770	0.247	-0.064
-496.595	-200.000	-0.046	0.207
-495.581	533.762	0.132	0.310
-494.566	472.190	0.139	0.309
-493.551	28.707	0.120	0.101
-492.537	736.330	0.005	0.012
-491.522	86.346	-0.077	-0.085
-490.508	271.323	0.073	-0.128
-489.493	-200.000	-0.034	-0.393
-488.478	428.736	0.151	-0.323
-487.464	800.000	-0.050	-0.196
-486.449	142.444	0.078	0.103
-485.435	263.750	0.201	-0.346
-484.420	79.385	0.181	-0.193
-483.405	530.023	-0.066	-0.155
-482.391	271.012	-0.147	-0.256
-481.376	-43.078	-0.116	0.058
-480.362	171.982	0.138	-0.196
-479.347	-200.000	0.008	-0.188
-478.332	-83.744	-0.112	0.036
-477.318	-200.000	0.027	-0.240
-476.303	-180.243	-0.217	-0.005
-475.289	-23.313	0.210	0.125
-474.274	-150.804	-0.109	-0.008
-473.259	72.935	-0.103	-0.107
-472.245	173.983	-0.165	-0.237
-471.230	-200.000	0.010	-0.207
-470.216	-18.059	-0.226	-0.140
-469.201	46.825	-0.128	0.117
-468.186	-117.273	-0.136	0.024
-467.172	-58.139	-0.201	-0.087
-466.157	273.294	0.067	-0.118
-465.143	-200.000	0.020	-0.135
-464.128	800.000	0.062	-0.233
-463.113	-69.727	0.210	0.080
-462.099	-14.630	0.053	0.034
-461.084	132.423	0.186	0.238
-460.070	-90.663	-0.179	-0.051
-459.055	284.822	-0.138	-0.245
-458.040	-200.000	-0.020	-0.171
-457.026	-119.009	0.183	0.032
-456.011	-28.937	0.260	0.148
-454.997	85.345	0.242	0.263
-453.982	164.126	-0.133	-0.185
-452.968	453.665	-0.071	0.155
-451.953	-101.431	-0.150	-0.036
-450.938	221.730	-0.160	0.255
-449.924	226.191	0.259	0.416
-448.909	282.115	0.143	0.253
-447.895	-102.821	0.221	-0.052
-446.880	182.477	-0.009	-0.013
-445.865	800.000	0.074	-0.277
-444.851	111.004	0.176	-0.210
-443.836	76.203	0.013	-0.013
-442.822	168.269	-0.041	0.058
-441.807	-200.000	-0.001	0.239
-440.792	34.532	-0.161	-0.140
-439.778	56.572	-0.084	-0.081
-438.763	-200.000	-0.046	-0.269
-437.749	-85.514	0.133	-0.041
-436.734	-122.224	-0.126	0.020
-435.719	-200.000	-0.218	-0.001
-434.705	-101.608	0.184	-0.044
-433.690	-158.493	0.250	-0.014
-432.676	-200.000	-0.004	-0.061
-431.661	-102.166	0.273	0.065
-430.646	-200.000	0.018	-0.133
-429.632	-130.838	0.370	0.049
-428.617	67.236	0.164	0.166
-427.603	-131.799	-0.207	-0.027
-426.588	800.000	0.139	0.544
-425.573	796.276	-0.071	0.193
-424.559	0.006	-0.031	0.022
-423.544	238.146	-0.046	0.076
-422.530	61.333	-0.193	0.190
-421.515	-98.315	0.375	-0.095
-420.500	167.325	-0.212	-0.298
-419.486	108.199	0.251	0.296
-418.471	197.066	-0.091	0.138
-417.457	444.243	-0.124	0.269
-416.442	-200.000	0.022	-0.281
-415.428	-130.206	0.149	-0.020
-414.413	7.205	0.355	-0.262
-413.398	114.939	-0.283	-0.341
-412.384	-104.181	0.183	-0.042
-411.369	-158.365	0.484	0.028
-410.355	-57.086	-0.144	-0.063
-409.340	-100.926	-0.095	0.023
-408.325	-117.275	0.190	0.034
-407.311	800.000	-0.041	0.152
-406.296	-200.000	-0.003	-0.235
-405.282	77.653	-0.113	-0.119
-404.267	226.021	0.086	0.138
-403.252	78.375	-0.099	0.104
-402.238	-68.260	-0.304	0.117
-401.223	-200.000	0.011	0.189
-400.209	800.000	-0.097	0.348
-399.194	800.000	-0.122	0.470
-398.179	139.339	-0.163	0.213
-397.165	346.826	0.118	0.229
-396.150	-62.618	0.179	-0.074
-395.136	598.623	-0.153	0.375
-394.121	-133.216	-0.088	-0.011
-393.106	800.000	-0.160	0.489
-392.092	25.175	-0.162	0.133
-391.077	800.000	0.045	0.143
-390.063	-124.238	0.119	0.018
-389.048	-23.840	-0.216	-0.128
-388.033	8.904	-0.198	0.147
-387.019	-116.923	0.176	-0.032
-386.004	45.188	0.249	-0.227
-384.990	798.321	0.084	-0.230
-383.975	-17.867	0.145	-0.090
-382.960	739.267	0.104	0.275
-381.946	-200.000	0.008	-0.073
-380.931	-119.629	0.099	-0.017
-379.917	800.000	0.104	0.404
-378.902	-200.000	0.015	0.125
-377.888	-164.517	0.093	0.004
-376.873	68.077	-0.086	0.087
-375.858	57.144	0.336	0.324
-374.844	89.555	0.186	0.205
-373.829	-63.531	0.147	0.060
-372.815	354.410	-0.068	-0.133
-371.800	72.763	-0.038	0.039
-370.785	634.647	0.043	0.107
-369.771	91.212	0.217	0.240
-368.756	-200.000	-0.023	0.178
-367.742	-77.567	0.440	-0.150
-366.727	199.105	-0.033	-0.049
-365.712	61.720	-0.162	0.160
-364.698	94.639	-0.127	0.142
-363.683	88.687	-0.240	0.263
-362.669	322.772	-0.005	-0.009
-361.654	800.000	0.055	-0.194
-360.639	-8.699	0.118	0.078
-359.625	515.362	0.083	-0.192
-358.610	-200.000	-0.070	-0.309
-357.596	-200.000	-0.019	0.150
-356.581	-200.000	-0.010	0.081
-355.566	730.117	0.096	-0.253
-354.552	92.160	0.071	0.079
-353.537	356.620	0.146	-0.287
-352.523	800.000	0.092	-0.303
-351.508	211.994	-0.092	0.143
-350.493	-96.834	0.267	0.069
-349.479	-91.553	-0.154	0.043
-348.464	-52.878	-0.158	0.072
-347.450	-85.678	0.096	0.030
-346.435	-95.729	0.081	0.021
-345.420	-200.000	0.025	0.225
-344.406	584.614	-0.082	-0.198
-343.391	-131.250	0.470	-0.062
-342.377	-118.021	-0.468	-0.083
-341.362	374.986	0.088	0.177
-340.348	-200.000	0.039	-0.181
-339.333	607.493	-0.103	-0.254
-338.318	55.052	-0.177	0.169
-337.304	114.004	-0.225	0.270
-336.289	800.000	0.041	0.168
-335.275	178.557	-0.097	-0.139
-334.260	51.607	0.221	-0.207
-333.245	-13.500	0.072	0.046
-332.231	-3.978	-0.449	-0.307
-331.216	88.851	0.203	0.222
-330.202	-200.000	0.016	0.163
-329.187	53.253	0.190	-0.179
-328.172	626.339	-0.099	-0.246
-327.158	455.859	0.083	-0.181
-326.143	40.738	-0.164	-0.145
-325.129	69.950	-0.170	0.173
-324.114	-123.864	-0.186	-0.029
-323.099	-137.239	-0.347	0.039
-322.085	343.981	0.189	-0.365
-321.070	47.251	-0.235	0.216
-320.056	-200.000	-0.002	0.339
-319.041	-110.307	0.375	-0.077
-318.026	-200.000	-0.010	-0.128
-317.012	800.000	-0.053	0.150
-315.997	800.000	-0.033	0.126
-314.983	800.000	0.011	0.038
-313.968	114.798	-0.092	0.110
-312.953	-53.338	-0.099	-0.045
-311.939	-15.832	0.203	0.127
-310.924	230.738	0.135	-0.218
-309.910	-199.760	0.459	-0.002
-308.895	111.546	-0.112	-0.133
-307.880	-135.132	0.206	0.024
-306.866	-200.000	0.032	0.210
-305.851	-94.872	0.222	0.059
-304.837	312.867	0.074	-0.137
-303.822	800.000	-0.071	0.299
-302.807	-120.502	0.311	-0.052
-301.793	-67.710	0.178	-0.069
-300.778	800.000	0.102	-0.369
-299.764	761.712	0.134	0.358
-298.749	800.000	-0.207	-0.588
-297.735	-108.151	-0.206	-0.044
-296.720	538.160	-0.001	0.002
-295.705	-83.190	0.474	0.150
-294.691	-180.382	0.324	-0.007
-293.676	-70.814	0.222	-0.083
-292.662	-159.107	0.133	-0.007
-291.647	15.133	-0.135	0.104
-290.632	589.779	0.116	0.281
-289.618	43.093	0.130	-0.117
-288.603	8.273	-0.110	-0.081
-287.589	-126.495	-0.287	-0.042
-286.574	-24.427	0.124	0.073
-285.559	63.394	0.230	0.227
-284.545	-12.320	0.200	0.128
-283.530	334.641	0.102	0.194
-282.516	-44.800	0.179	-0.088
-281.501	-200.000	-0.012	0.143
-280.486	-200.000	0.037	-0.180
-279.472	50.142	-0.174	-0.162
-278.457	-32.264	-0.248	-0.136
-277.443	-77.158	-0.298	-0.102
-276.428	-23.695	0.407	0.240
-275.413	182.426	-0.148	0.215
-274.399	-200.000	0.004	0.061
-273.384	46.836	-0.036	0.033
-272.370	-140.175	-0.125	-0.013
-271.355	54.813	0.245	-0.233
-270.340	800.000	-0.081	-0.282
-269.326	800.000	-0.159	0.451
-268.311	463.388	-0.190	0.418
-267.297	-142.512	-0.399	0.038
-266.282	-10.159	-0.178	0.116
-265.267	209.720	-0.228	-0.351
-264.253	306.838	0.087	0.160
-263.238	-27.728	0.254	-0.145
-262.224	-200.000	-0.022	-0.117
-261.209	-95.047	0.174	0.046
-260.195	800.000	0.051	-0.217
-259.180	-105.207	0.178	-0.040
-258.165	239.507	0.044	-0.073
-257.151	-107.378	0.246	-0.053
-256.136	-200.000	0.001	0.111
-255.122	-21.380	-0.176	-0.105
-254.107	-6.495	0.079	0.053
-253.092	-66.958	-0.039	-0.015
-252.078	-197.261	0.171	0.001
-251.063	-130.430	0.271	-0.036
-250.049	-94.515	0.308	0.082
-249.034	-28.785	-0.237	0.134
-248.019	195.739	0.045	-0.067
-247.005	-73.370	0.567	0.203
-245.990	-134.668	-0.219	0.026
-244.976	-200.000	-0.035	0.340
-243.961	800.000	-0.069	0.278
-242.946	9.420	0.132	-0.098
-241.932	-200.000	-0.013	-0.094
-240.917	-95.385	-0.316	-0.083
-239.903	-142.479	-0.151	0.015
-238.888	565.906	0.131	0.313
-237.873	-125.035	0.349	-0.053
-236.859	190.951	0.109	-0.161
-235.844	320.598	-0.141	0.264
-234.830	-7.613	0.144	-0.096
-233.815	-11.943	-0.466	-0.300
-232.800	-69.905	0.206	-0.077
-231.786	75.948	0.092	0.096
-230.771	-9.908	-0.280	-0.183
-229.757	-178.323	0.277	-0.006
-228.742	48.455	-0.202	0.186
-227.727	8.664	-0.212	0.157
-226.713	-140.403	-0.134	-0.014
-225.698	-200.000	-0.038	0.170
-224.684	126.729	0.243	-0.302
-223.669	500.703	-0.123	0.279
-222.655	42.816	0.048	-0.042
-221.640	-200.000	-0.068	-0.300
-220.625	118.784	0.199	-0.242
-219.611	92.220	-0.226	-0.249
-218.596	-77.363	0.145	0.049
-217.582	14.935	0.134	0.103
-216.567	143.674	0.184	0.241
-215.552	147.427	-0.216	-0.286
-214.538	98.454	0.034	0.039
-213.523	-122.261	-0.306	-0.049
-212.509	-135.523	-0.201	0.024
-211.494	225.969	-0.180	-0.285
-210.479	-200.000	0.006	-0.167
-209.465	-98.796	-0.178	-0.044
-208.450	91.466	0.079	0.087
-207.436	283.827	-0.125	0.220
-206.421	-200.000	0.021	-0.147
-205.406	-66.942	0.151	-0.059
-204.392	-200.000	0.011	-0.084
-203.377	114.904	0.146	-0.175
-202.363	55.722	0.199	-0.189
-201.348	-91.384	-0.371	-0.104
-200.333	256.851	0.181	0.306
-199.319	-56.257	0.235	-0.102
-198.304	113.888	-0.072	-0.086
-197.290	313.089	0.125	-0.231
-196.275	23.953	-0.047	-0.038
-195.260	-200.000	-0.009	0.187
-194.246	-59.769	0.452	-0.190
-193.231	701.659	-0.120	0.311
-192.217	86.328	-0.093	-0.100
-191.202	-161.621	0.240	0.012
-190.187	800.000	-0.008	-0.030
-189.173	-200.000	0.022	-0.142
-188.158	-20.201	0.160	-0.096
-187.144	139.200	-0.045	-0.058
-186.129	-99.875	-0.252	0.062
-185.114	12.420	0.170	0.128
-184.100	469.684	-0.031	-0.069
-183.085	12.186	0.231	-0.174
-182.071	-74.939	-0.308	-0.108
-181.056	800.000	0.057	-0.193
-180.042	-200.000	0.046	-0.297
-179.027	63.589	-0.050	-0.049
-178.012	37.611	-0.226	0.196
-176.998	-39.478	0.358	-0.184
-175.983	-17.121	-0.156	-0.096
-174.969	800.000	-0.120	0.328
-173.954	-200.000	0.008	0.138
-172.939	-58.843	0.195	-0.083
-171.925	3.490	0.052	0.037
-170.910	37.195	0.135	0.117
-169.896	376.674	-0.126	-0.252
-168.881	-32.653	-0.114	-0.062
-167.866	-200.000	0.000	-0.092
-166.852	257.789	0.043	-0.073
-165.837	-200.000	0.003	0.070
-164.823	800.000	0.062	-0.232
-163.808	-132.182	0.145	-0.018
-162.793	-75.480	0.101	0.035
-161.779	-168.164	-0.322	0.012
-160.764	396.374	0.193	0.394
-159.750	-146.027	-0.260	0.022
-158.735	-82.010	0.266	-0.085
-157.720	782.283	-0.053	0.142
-156.706	-169.207	0.275	0.010
-155.691	255.917	0.181	-0.303
-154.677	-80.758	-0.266	0.086
-153.662	800.000	-0.085	-0.232
-152.647	-111.410	-0.225	-0.045
-151.633	-200.000	0.010	-0.240
-150.618	461.156	0.007	0.016
-149.604	130.056	-0.022	0.027
-148.589	-112.662	-0.137	0.027
-147.574	147.802	0.014	0.018
-146.560	800.000	-0.029	-0.116
-145.545	-200.000	-0.007	-0.047
-144.531	-43.183	-0.324	0.161
-143.516	582.258	0.212	-0.508
-142.502	32.809	0.135	-0.114
-141.487	-200.000	0.045	0.289
-140.472	-200.000	-0.006	-0.030
-139.458	82.509	0.118	0.125
-138.443	-65.755	0.155	-0.061
-137.429	800.000	-0.062	-0.254
-136.414	-200.000	0.006	-0.076
-135.399	-200.000	0.004	0.094
-134.385	-76.872	-0.276	0.094
-133.370	-70.483	0.285	-0.106
-132.356	-149.603	-0.315	-0.024
-131.341	2.504	-0.328	0.232
-130.326	-115.037	-0.076	0.014
-129.312	-106.068	0.203	0.045
-128.297	123.843	0.013	0.016
-127.283	-62.228	0.255	0.104
-126.268	26.552	0.341	0.279
-125.253	125.754	-0.088	-0.109
-124.239	-200.000	0.060	0.414
-123.224	-42.681	0.258	0.129
-122.210	800.000	0.014	0.054
-121.195	270.186	0.215	-0.369
