DTS Sentinel unit serial number:	SN413079Multiplexer serial number:	ORYXHardware model number:	OX4-SRSoftware version number:	ORYX F/W v4.00 Oryx Data Collector v3.7.2.0data status	okinstallation	princeton_trtdifferential loss correction	single-endedforward channel	channel 3reverse channel	N/Adate	2019/09/17time	14:44:35forward acquisition time	60.00reverse acquisition time	0.00gamma	496.2192k internal	0.2297k external	0.2297temperature offset calibration	0.9955default loss term (dB/km)	0.3790temperature slope calibration	1.0000multiplexer offset coefficient	1.0000multiplexer slope coefficient	1.0000fibre end	0.00T internal ref (°C)	36.92T ext. ref 1 (°C)	0.39T ext. ref 2 (°C)	33.85length (m)	temperature (°C)	Stokes	anti-Stokes-747.200	-180.199	-0.390	0.008
-746.185	183.849	0.131	0.198
-745.171	180.293	0.109	-0.164
-744.156	59.173	-0.233	0.234
-743.142	-41.416	-0.149	0.078
-742.127	-200.000	0.004	0.303
-741.112	-186.744	-0.450	0.006
-740.098	-200.000	-0.021	0.176
-739.083	18.971	0.093	0.077
-738.069	-200.000	0.059	0.389
-737.054	32.975	0.072	0.064
-736.039	-43.850	0.202	0.104
-735.025	-134.688	-0.391	0.049
-734.010	181.052	-0.060	-0.090
-732.996	34.957	0.302	-0.270
-731.981	-137.220	-0.289	0.034
-730.966	4.621	-0.128	-0.096
-729.952	347.929	-0.033	0.066
-728.937	13.305	-0.296	0.234
-727.923	103.528	0.164	0.196
-726.908	-200.000	-0.014	0.084
-725.894	-110.404	-0.033	0.007
-724.879	800.000	0.049	-0.212
-723.864	800.000	-0.085	-0.242
-722.850	-158.563	-0.503	0.030
-721.835	121.337	-0.279	-0.355
-720.821	-68.634	0.396	-0.157
-719.806	44.211	-0.103	-0.097
-718.791	82.054	-0.181	-0.200
-717.777	39.173	-0.392	-0.358
-716.762	64.683	-0.052	-0.054
-715.748	800.000	0.012	0.051
-714.733	621.262	0.079	0.202
-713.718	21.176	0.133	0.110
-712.704	152.919	0.168	-0.234
-711.689	73.952	-0.096	0.103
-710.675	-135.313	0.030	0.004
-709.660	-200.000	-0.041	-0.353
-708.645	-162.422	0.098	-0.005
-707.631	10.706	-0.274	0.213
-706.616	-60.643	-0.258	0.112
-705.602	800.000	-0.059	0.190
-704.587	-200.000	-0.029	-0.249
-703.572	-200.000	0.010	-0.486
-702.558	415.284	0.062	0.136
-701.543	98.917	0.198	-0.233
-700.529	-73.235	-0.144	-0.054
-699.514	-112.110	0.385	-0.079
-698.499	-6.456	0.075	-0.052
-697.485	800.000	-0.043	-0.127
-696.470	259.208	-0.061	-0.108
-695.456	-200.000	0.029	-0.252
-694.441	377.374	-0.088	0.183
-693.426	-200.000	-0.025	-0.168
-692.412	-200.000	-0.010	0.060
-691.397	417.810	-0.202	-0.439
-690.383	-132.246	-0.149	0.020
-689.368	-144.143	0.091	0.009
-688.354	-164.146	-0.266	-0.013
-687.339	7.695	-0.315	-0.240
-686.324	-19.288	0.267	-0.169
-685.310	43.735	-0.102	-0.096
-684.295	162.644	-0.106	0.152
-683.281	236.153	0.242	0.408
-682.266	-130.793	-0.478	0.065
-681.251	800.000	-0.027	-0.094
-680.237	61.145	0.259	-0.263
-679.222	27.331	0.080	-0.069
-678.208	-30.474	-0.241	0.139
-677.193	124.785	-0.115	0.147
-676.178	685.664	-0.078	-0.207
-675.164	-93.689	0.235	-0.066
-674.149	-42.163	-0.335	0.174
-673.135	-152.434	-0.161	0.012
-672.120	-26.595	0.314	0.187
-671.105	715.176	0.056	0.150
-670.091	-36.090	0.060	0.033
-669.076	609.608	0.066	0.167
-668.062	800.000	0.054	-0.168
-667.047	-34.700	0.185	0.103
-666.032	227.144	0.007	-0.012
-665.018	800.000	-0.031	0.092
-664.003	-18.597	0.073	-0.046
-662.989	-200.000	-0.001	-0.046
-661.974	107.056	0.182	0.220
-660.959	555.437	0.046	0.113
-659.945	234.869	-0.190	0.319
-658.930	800.000	-0.062	-0.200
-657.916	-157.318	0.134	0.008
-656.901	567.341	-0.132	-0.325
-655.886	133.360	0.271	0.357
-654.872	-125.922	-0.208	0.032
-653.857	-14.573	-0.077	-0.050
-652.843	-200.000	-0.068	-0.314
-651.828	32.672	-0.267	-0.235
-650.814	-92.273	0.163	-0.047
-649.799	142.217	-0.110	-0.149
-648.784	-168.984	-0.287	0.011
-647.770	-94.574	0.165	-0.046
-646.755	-200.000	0.015	-0.356
-645.741	-91.023	0.297	0.087
-644.726	570.661	0.175	-0.433
-643.711	800.000	0.042	-0.150
-642.697	-200.000	-0.032	-0.164
-641.682	554.693	-0.084	-0.205
-640.668	800.000	0.028	0.123
-639.653	45.970	0.132	0.125
-638.638	159.828	-0.074	0.105
-637.624	-200.000	-0.027	-0.200
-636.609	156.326	-0.191	0.269
-635.595	-72.195	0.173	0.065
-634.580	173.483	-0.124	0.182
-633.565	-200.000	-0.003	-0.029
-632.551	201.523	0.033	0.052
-631.536	-62.646	-0.140	-0.059
-630.522	243.120	-0.055	0.094
-629.507	104.694	-0.176	0.211
-628.492	-76.349	-0.166	-0.059
-627.478	-142.878	-0.557	-0.055
-626.463	-200.000	0.029	0.307
-625.449	-40.867	-0.233	0.123
-624.434	5.227	-0.196	-0.147
-623.419	-43.289	0.136	0.070
-622.405	163.918	0.172	0.246
-621.390	800.000	0.072	-0.308
-620.376	-162.099	0.155	0.008
-619.361	-180.463	-0.145	0.003
-618.346	3.368	0.190	-0.141
-617.332	-34.593	-0.540	0.301
-616.317	57.986	-0.316	0.315
-615.303	-200.000	-0.025	0.122
-614.288	79.239	-0.093	-0.101
-613.273	-42.330	0.286	0.148
-612.259	-200.000	0.010	0.105
-611.244	511.119	-0.061	-0.145
-610.230	88.750	-0.294	0.332
-609.215	-146.208	-0.172	0.015
-608.201	-8.924	0.189	-0.129
-607.186	-91.357	-0.259	-0.075
-606.171	-127.999	-0.132	0.019
-605.157	-75.243	0.124	0.045
-604.142	92.705	-0.146	0.168
-603.128	-200.000	0.033	0.435
-602.113	-112.142	-0.332	0.068
-601.098	-200.000	0.063	-0.311
-600.084	800.000	-0.051	0.194
-599.069	724.252	0.119	0.321
-598.055	28.764	-0.157	-0.135
-597.040	86.172	0.076	0.085
-596.025	94.010	-0.233	-0.269
-595.011	-39.603	0.424	-0.225
-593.996	-200.000	-0.032	0.210
-592.982	-200.000	0.034	0.230
-591.967	800.000	-0.048	0.139
-590.952	212.085	-0.154	-0.246
-589.938	800.000	0.129	-0.380
-588.923	-200.000	-0.023	-0.324
-587.909	194.339	0.141	-0.217
-586.894	122.988	0.153	-0.195
-585.879	164.005	0.157	-0.225
-584.865	-193.818	0.060	-0.001
-583.850	-200.000	-0.014	-0.278
-582.836	142.181	0.083	0.112
-581.821	93.571	0.111	0.127
-580.806	-14.009	-0.025	0.017
-579.792	175.501	-0.119	0.175
-578.777	66.229	0.159	-0.164
-577.763	33.880	0.207	-0.183
-576.748	198.590	0.159	0.247
-575.733	19.110	0.060	0.048
-574.719	334.521	-0.042	-0.082
-573.704	650.873	-0.183	-0.477
-572.690	113.949	0.066	-0.082
-571.675	89.103	-0.038	-0.043
-570.661	-27.260	0.298	-0.176
-569.646	-124.225	0.147	-0.023
-568.631	-73.186	0.298	-0.111
-567.617	-102.468	0.046	-0.011
-566.602	387.341	-0.032	-0.068
-565.588	136.361	-0.059	0.078
-564.573	-40.922	-0.241	0.127
-563.558	25.792	0.309	0.261
-562.544	-200.000	0.008	-0.046
-561.529	87.454	-0.083	-0.093
-560.515	-102.546	0.258	0.062
-559.500	185.002	0.064	0.096
-558.485	244.396	0.033	0.056
-557.471	-186.195	-0.357	0.005
-556.456	-34.305	-0.096	0.053
-555.442	-115.280	-0.286	-0.055
-554.427	-115.627	-0.091	0.017
-553.412	800.000	-0.034	0.120
-552.398	-111.398	-0.131	0.027
-551.383	-183.591	-0.183	0.003
-550.369	800.000	0.086	-0.331
-549.354	-93.538	0.379	0.106
-548.339	144.128	0.113	-0.153
-547.325	-200.000	0.010	0.065
-546.310	-101.477	0.266	0.066
-545.296	50.732	0.175	0.168
-544.281	440.363	0.073	-0.162
-543.266	99.469	0.117	0.138
-542.252	-200.000	0.021	0.107
-541.237	800.000	0.013	-0.048
-540.223	800.000	0.115	-0.487
-539.208	143.563	-0.134	-0.180
-538.193	-200.000	-0.005	-0.331
-537.179	277.680	0.148	-0.266
-536.164	-64.559	-0.158	0.065
-535.150	82.305	0.111	0.123
-534.135	-200.000	0.047	-0.215
-533.121	-52.810	-0.121	-0.056
-532.106	-1.692	-0.233	0.166
-531.091	101.467	0.317	0.374
-530.077	128.294	-0.214	0.276
-529.062	85.601	0.057	0.063
-528.048	728.740	-0.073	-0.198
-527.033	-65.459	0.126	-0.051
-526.018	800.000	0.086	0.296
-525.004	-121.263	0.117	0.020
-523.989	84.410	0.099	-0.109
-522.975	120.899	0.049	0.062
-521.960	-39.020	-0.112	-0.060
-520.945	-75.255	-0.049	-0.018
-519.931	153.241	0.088	0.123
-518.916	-32.559	-0.347	0.196
-517.902	-80.270	-0.079	0.027
-516.887	-133.180	0.224	0.029
-515.872	-200.000	-0.015	-0.124
-514.858	117.431	0.138	-0.172
-513.843	-161.446	-0.220	-0.012
-512.829	-200.000	-0.004	-0.139
-511.814	-103.114	-0.254	-0.061
-510.799	-99.980	-0.143	0.036
-509.785	-7.595	-0.226	0.155
-508.770	-9.804	0.205	-0.138
-507.756	419.427	0.172	0.372
-506.741	-81.031	0.277	-0.093
-505.726	-95.222	0.114	0.031
-504.712	-79.357	0.335	-0.115
-503.697	-80.175	-0.201	0.068
-502.683	182.401	0.119	0.177
-501.668	-13.281	0.196	0.129
-500.653	-144.387	0.113	-0.011
-499.639	-37.034	0.218	0.118
-498.624	-200.000	-0.054	0.274
-497.610	-105.163	-0.255	0.059
-496.595	17.266	0.173	0.139
-495.581	-137.823	-0.431	0.049
-494.566	515.374	0.204	0.483
-493.551	1.359	-0.106	-0.077
-492.537	-104.571	0.187	0.044
-491.522	-183.471	0.275	-0.005
-490.508	800.000	0.042	0.160
-489.493	-19.327	-0.273	-0.171
-488.478	800.000	-0.135	-0.385
-487.464	-16.346	-0.223	0.143
-486.449	243.111	-0.069	0.117
-485.435	129.958	0.088	0.114
-484.420	107.618	-0.153	-0.184
-483.405	-200.000	-0.009	-0.240
-482.391	290.645	-0.148	-0.272
-481.376	659.713	-0.102	-0.264
-480.362	50.572	-0.063	-0.060
-479.347	-149.437	-0.190	-0.015
-478.332	96.671	-0.003	-0.004
-477.318	102.624	0.125	-0.148
-476.303	-64.439	0.188	0.077
-475.289	-200.000	0.011	-0.079
-474.274	-189.211	0.092	0.001
-473.259	-28.752	-0.253	0.147
-472.245	43.611	-0.176	0.162
-471.230	112.945	-0.123	0.151
-470.216	64.799	0.341	-0.348
-469.201	167.441	0.205	-0.294
-468.186	77.426	0.187	-0.201
-467.172	105.735	-0.197	0.235
-466.157	-83.810	-0.516	0.166
-465.143	800.000	0.153	0.468
-464.128	800.000	-0.133	-0.494
-463.113	48.281	-0.072	0.069
-462.099	-43.818	0.199	-0.101
-461.084	-87.214	0.074	-0.023
-460.070	181.301	0.057	0.085
-459.055	-12.705	0.043	0.028
-458.040	-158.451	0.186	0.011
-457.026	-17.515	0.060	0.038
-456.011	-84.838	-0.122	0.039
-454.997	-200.000	-0.026	-0.265
-453.982	127.201	0.054	0.069
-452.968	-56.939	0.209	0.093
-451.953	295.670	0.119	0.220
-450.938	451.559	0.028	-0.063
-449.924	239.177	-0.126	0.211
-448.909	-88.115	0.420	-0.127
-447.895	-33.224	-0.039	0.022
-446.880	-128.615	0.228	-0.033
-445.865	-101.903	0.143	0.035
-444.851	800.000	0.060	0.236
-443.836	21.546	0.148	0.122
-442.822	-200.000	0.008	-0.154
-441.807	-62.839	0.315	-0.132
-440.792	-200.000	0.024	0.158
-439.778	-121.830	0.236	0.039
-438.763	294.902	-0.108	0.199
-437.749	-96.874	0.092	-0.024
-436.734	-30.851	-0.221	-0.126
-435.719	-99.381	0.069	-0.017
-434.705	-152.142	-0.658	-0.048
-433.690	301.228	0.153	0.286
-432.676	-200.000	-0.013	-0.089
-431.661	244.094	0.080	0.135
-430.646	488.517	0.109	-0.250
-429.632	41.887	-0.058	-0.053
-428.617	32.994	-0.109	-0.096
-427.603	-186.606	-0.161	-0.002
-426.588	-20.957	0.196	0.121
-425.573	442.553	-0.056	0.125
-424.559	106.096	0.158	-0.188
-423.544	-75.342	0.230	0.083
-422.530	-94.475	-0.141	0.039
-421.515	124.590	-0.212	-0.268
-420.500	800.000	-0.029	0.106
-419.486	673.742	-0.055	-0.144
-418.471	-200.000	-0.008	-0.064
-417.457	249.382	-0.054	-0.093
-416.442	-152.921	0.091	0.006
-415.428	600.270	0.122	0.307
-414.413	146.092	0.064	-0.087
-413.398	368.114	0.139	0.283
-412.384	-126.491	-0.140	0.021
-411.369	-84.483	-0.141	0.045
-410.355	214.524	-0.150	0.239
-409.340	249.729	-0.081	-0.139
-408.325	-200.000	-0.000	-0.195
-407.311	-200.000	-0.052	-0.237
-406.296	-127.167	-0.237	-0.035
-405.282	-98.781	-0.340	0.087
-404.267	-137.220	0.214	0.025
-403.252	147.153	-0.054	-0.073
-402.238	-195.721	-0.358	0.003
-401.223	-12.934	-0.291	0.191
-400.209	536.505	0.133	0.319
-399.194	-5.584	-0.193	0.134
-398.179	-200.000	-0.021	-0.317
-397.165	-81.495	0.341	-0.113
-396.150	-63.334	-0.165	-0.068
-395.136	-200.000	-0.095	-0.494
-394.121	681.971	0.092	0.242
-393.106	-175.485	-0.192	0.005
-392.092	-200.000	-0.023	0.211
-391.077	-200.000	-0.028	0.293
-390.063	103.497	-0.039	-0.047
-389.048	81.930	-0.152	-0.166
-388.033	-104.599	0.118	-0.027
-387.019	-37.593	-0.193	0.104
-386.004	-12.509	-0.119	-0.078
-384.990	332.786	-0.118	-0.230
-383.975	37.536	-0.260	0.232
-382.960	-32.538	-0.146	-0.082
-381.946	-121.950	-0.106	0.018
-380.931	800.000	0.081	0.309
-379.917	-11.994	-0.051	-0.033
-378.902	-62.622	0.127	-0.053
-377.888	-135.654	-0.218	0.026
-376.873	800.000	-0.038	0.136
-375.858	325.479	0.102	0.197
-374.844	30.481	-0.234	-0.201
-373.829	72.909	-0.157	0.165
-372.815	181.478	0.121	-0.179
-371.800	-38.024	0.213	-0.114
-370.785	-200.000	-0.001	-0.183
-369.771	-87.283	0.274	0.084
-368.756	1.796	-0.303	0.220
-367.742	800.000	0.056	-0.160
-366.727	-200.000	-0.004	0.109
-365.712	-16.811	0.129	0.082
-364.698	50.166	-0.115	-0.109
-363.683	-120.589	-0.192	0.033
-362.669	-38.476	0.191	0.102
-361.654	212.832	0.159	-0.252
-360.639	31.682	0.164	-0.142
-359.625	-200.000	0.057	-0.289
-358.610	169.203	-0.173	-0.249
-357.596	205.788	0.017	-0.026
-356.581	-118.265	-0.190	0.034
-355.566	53.136	0.175	-0.169
-354.552	746.308	-0.099	0.269
-353.537	116.291	0.011	0.013
-352.523	254.138	0.049	-0.084
-351.508	146.114	-0.201	-0.272
-350.493	40.366	-0.096	-0.087
-349.479	-200.000	0.024	0.288
-348.464	43.052	0.348	0.319
-347.450	-46.392	0.073	-0.036
-346.435	64.864	0.063	0.064
-345.420	519.727	-0.011	0.027
-344.406	800.000	-0.080	0.251
-343.391	455.347	-0.233	0.519
-342.377	142.619	0.152	0.203
-341.362	-26.791	0.190	0.111
-340.348	-85.917	0.283	0.088
-339.333	800.000	-0.023	0.078
-338.318	-61.123	0.234	-0.099
-337.304	800.000	0.050	-0.161
-336.289	800.000	0.053	-0.198
-335.275	493.755	-0.094	0.217
-334.260	-200.000	-0.018	-0.167
-333.245	1.621	0.297	0.215
-332.231	75.159	-0.149	-0.157
-331.216	-93.069	0.367	-0.103
-330.202	188.565	-0.140	-0.210
-329.187	-200.000	0.011	0.353
-328.172	-159.746	0.130	-0.007
-327.158	-143.239	-0.393	-0.038
-326.143	-83.208	-0.231	0.075
-325.129	68.637	0.225	0.232
-324.114	800.000	0.041	0.135
-323.099	-150.841	0.194	0.015
-322.085	-187.271	-0.169	-0.002
-321.070	-164.873	0.358	-0.016
-320.056	-60.469	0.155	0.066
-319.041	59.120	0.448	0.443
-318.026	72.689	-0.143	0.150
-317.012	-133.909	-0.123	0.015
-315.997	-140.610	0.279	0.029
-314.983	550.682	-0.031	-0.075
-313.968	-70.824	0.042	0.016
-312.953	20.242	0.221	0.179
-311.939	-200.000	0.013	-0.248
-310.924	-200.000	0.008	-0.041
-309.910	-83.151	0.042	0.013
-308.895	36.527	-0.292	-0.259
-307.880	-56.355	0.252	-0.112
-306.866	730.479	-0.071	0.191
-305.851	-152.647	-0.140	-0.010
-304.837	-136.921	0.248	-0.029
-303.822	-54.900	0.162	-0.073
-302.807	-200.000	0.009	-0.223
-301.793	-200.000	-0.064	0.402
-300.778	-159.919	0.017	-0.001
-299.764	-40.822	0.212	-0.110
-298.749	-200.000	0.000	-0.157
-297.735	-109.222	-0.203	-0.043
-296.720	800.000	0.015	-0.054
-295.705	-200.000	0.022	-0.211
-294.691	215.638	0.089	0.141
-293.676	-26.193	-0.245	-0.145
-292.662	-200.000	0.016	0.177
-291.647	-93.881	-0.179	0.050
-290.632	78.039	0.151	-0.162
-289.618	-118.401	0.389	0.069
-288.603	-63.499	0.111	-0.046
-287.589	421.302	-0.029	-0.063
-286.574	618.087	0.027	-0.067
-285.559	-12.600	0.329	0.216
-284.545	-73.916	-0.047	0.017
-283.530	800.000	-0.087	0.284
-282.516	14.046	-0.226	0.177
-281.501	378.598	-0.038	0.079
-280.486	-200.000	-0.050	0.366
-279.472	-110.947	0.236	-0.049
-278.457	-98.650	-0.126	-0.032
-277.443	-55.512	-0.095	-0.043
-276.428	800.000	-0.104	-0.363
-275.413	735.920	0.081	0.218
-274.399	720.012	0.080	0.212
-273.384	43.070	-0.144	0.131
-272.370	800.000	-0.060	-0.226
-271.355	-200.000	-0.011	0.136
-270.340	62.358	-0.179	-0.179
-269.326	670.920	-0.048	0.124
-268.311	71.923	0.169	0.176
-267.297	-98.283	-0.302	0.078
-266.282	-123.649	-0.439	0.070
-265.267	-71.053	-0.360	0.136
-264.253	133.929	-0.089	-0.115
-263.238	800.000	-0.047	0.181
-262.224	106.821	0.094	0.112
-261.209	800.000	-0.054	-0.186
-260.195	122.689	0.179	-0.224
-259.180	-59.929	-0.231	0.099
-258.165	-200.000	0.014	0.157
-257.151	-24.429	-0.226	0.135
-256.136	-188.489	0.112	-0.001
-255.122	602.543	-0.083	0.206
-254.107	-100.706	0.262	0.065
-253.092	-18.049	0.185	0.116
-252.078	-200.000	0.018	0.250
-251.063	-200.000	0.013	-0.150
-250.049	139.381	-0.130	0.171
-249.034	75.909	-0.142	-0.150
-248.019	259.267	0.056	-0.097
-247.005	16.479	0.091	-0.072
-245.990	-121.005	0.194	0.033
-244.976	-117.011	-0.179	-0.033
-243.961	-200.000	0.007	0.068
-242.946	-200.000	-0.000	0.041
-241.932	-79.169	0.208	-0.071
-240.917	19.903	0.110	-0.089
-239.903	6.475	0.070	0.052
-238.888	-200.000	0.009	-0.298
-237.873	800.000	0.112	0.325
-236.859	-23.862	0.151	0.091
-235.844	-200.000	0.001	-0.154
-234.830	-128.149	-0.048	-0.007
-233.815	146.712	-0.165	-0.222
-232.800	-94.806	-0.228	0.062
-231.786	11.265	-0.089	-0.069
-230.771	104.341	0.031	-0.037
-229.757	585.693	-0.044	-0.109
-228.742	246.358	-0.123	-0.208
-227.727	213.641	-0.083	0.132
-226.713	-56.306	0.175	-0.078
-225.698	12.739	-0.142	0.110
-224.684	166.858	-0.140	-0.198
-223.669	-49.628	-0.091	0.043
-222.655	-77.695	0.163	-0.056
-221.640	-200.000	0.009	-0.055
-220.625	-200.000	0.015	0.249
-219.611	-106.756	-0.268	-0.059
-218.596	-93.837	-0.182	-0.050
-217.582	79.369	-0.219	0.234
-216.567	105.558	-0.253	-0.300
-215.552	-49.183	-0.018	-0.009
-214.538	-137.655	-0.193	-0.022
-213.523	-119.259	0.126	0.022
-212.509	-200.000	0.024	0.230
-211.494	-67.576	0.301	-0.118
-210.479	229.645	0.168	-0.274
-209.465	800.000	0.057	0.193
-208.450	-88.032	0.140	-0.042
-207.436	195.633	0.154	0.234
-206.421	-109.283	0.057	0.012
-205.406	11.862	-0.191	-0.147
-204.392	241.682	0.285	-0.476
-203.377	664.328	0.024	-0.061
-202.363	-200.000	-0.033	0.168
-201.348	800.000	-0.055	-0.171
-200.333	81.346	-0.029	0.031
-199.319	150.320	0.050	0.068
-198.304	-40.340	0.183	-0.095
-197.290	-200.000	0.010	0.131
-196.275	-200.000	-0.003	0.118
-195.260	-164.166	-0.346	0.016
-194.246	162.874	-0.101	-0.141
-193.231	150.269	0.150	-0.204
-192.217	-6.868	0.071	0.048
-191.202	504.631	0.075	-0.174
-190.187	-37.099	0.139	0.074
-189.173	-81.969	0.115	-0.038
-188.158	-200.000	0.015	-0.297
-187.144	-57.893	0.102	0.044
-186.129	-55.915	-0.140	-0.062
-185.114	-16.083	-0.235	0.149
-184.100	-93.431	0.249	-0.069
-183.085	-200.000	0.096	-0.436
-182.071	369.877	-0.092	-0.186
-181.056	142.089	-0.190	-0.252
-180.042	800.000	-0.041	-0.145
-179.027	-200.000	-0.051	0.282
-178.012	-200.000	0.021	0.146
-176.998	13.403	0.189	0.146
-175.983	45.534	0.436	-0.402
-174.969	-33.824	0.267	-0.147
-173.954	-46.333	0.189	-0.093
-172.939	158.949	-0.171	-0.237
-171.925	69.166	-0.157	0.161
-170.910	101.028	0.297	0.345
-169.896	23.380	-0.068	0.055
-168.881	800.000	0.055	-0.227
-167.866	18.575	-0.132	0.106
-166.852	-200.000	-0.024	-0.118
-165.837	37.522	0.126	0.111
-164.823	-200.000	-0.048	0.238
-163.808	116.865	0.128	-0.157
-162.793	62.516	-0.162	0.161
-161.779	-35.421	-0.117	0.063
-160.764	800.000	0.068	-0.189
-159.750	800.000	-0.141	0.450
-158.735	-200.000	-0.010	-0.258
-157.720	34.478	-0.161	-0.141
-156.706	800.000	-0.092	-0.260
-155.691	213.401	0.179	-0.283
-154.677	800.000	0.019	0.071
-153.662	73.605	0.106	0.111
-152.647	559.496	-0.153	-0.369
-151.633	-147.072	-0.208	0.018
-150.618	-26.400	-0.455	-0.266
-149.604	-153.215	-0.237	0.017
-148.589	12.229	-0.197	0.151
-147.574	800.000	0.082	0.297
-146.560	-200.000	0.040	-0.347
-145.545	429.726	-0.066	0.143
-144.531	-45.669	0.296	-0.146
-143.516	46.557	-0.259	0.240
-142.502	28.040	-0.215	-0.181
-141.487	1.388	-0.233	0.167
-140.472	251.824	-0.080	0.136
-139.458	-86.740	-0.399	0.122
-138.443	-18.660	0.171	-0.106
-137.429	460.978	-0.100	0.223
-136.414	311.094	-0.016	-0.029
-135.399	196.621	0.120	0.182
-134.385	355.893	-0.091	0.181
-133.370	483.357	-0.064	0.145
-132.356	-129.561	0.114	-0.016
-131.341	79.389	0.217	-0.232
-130.326	31.321	-0.115	-0.099
-129.312	198.846	-0.100	-0.153
-128.297	-28.568	0.199	0.114
-127.283	800.000	0.125	0.407
-126.268	-88.334	0.211	-0.063
-125.253	-163.337	-0.182	-0.009
-124.239	800.000	-0.058	0.188
-123.224	32.336	0.233	0.200
-122.210	-178.508	-0.228	-0.005
-121.195	-200.000	-0.022	-0.228
