DTS Sentinel unit serial number:	SN413079Multiplexer serial number:	ORYXHardware model number:	OX4-SRSoftware version number:	ORYX F/W v4.00 Oryx Data Collector v3.7.2.0data status	okinstallation	princeton_trtdifferential loss correction	single-endedforward channel	channel 3reverse channel	N/Adate	2019/09/12time	20:36:34forward acquisition time	60.00reverse acquisition time	0.00gamma	496.2192k internal	0.2324k external	0.2324temperature offset calibration	1.0128default loss term (dB/km)	0.3790temperature slope calibration	1.0000multiplexer offset coefficient	1.0000multiplexer slope coefficient	1.0000fibre end	0.00T internal ref (°C)	31.19T ext. ref 1 (°C)	3.61T ext. ref 2 (°C)	25.77length (m)	temperature (°C)	Stokes	anti-Stokes-747.200	-64.059	0.341	0.140
-746.185	-200.000	0.022	0.593
-745.171	-14.611	0.332	0.215
-744.156	689.907	0.021	0.055
-743.142	-48.864	-0.250	-0.121
-742.127	-133.501	-0.064	0.008
-741.112	158.296	-0.072	-0.101
-740.098	-143.050	-0.114	-0.011
-739.083	12.040	-0.163	0.127
-738.069	-37.143	-0.374	0.202
-737.054	-43.796	0.071	0.036
-736.039	165.467	0.180	0.257
-735.025	-30.827	0.236	0.135
-734.010	-155.597	-0.160	0.010
-732.996	-104.270	-0.304	0.071
-731.981	44.531	0.144	-0.133
-730.966	-48.316	-0.168	-0.082
-729.952	-200.000	-0.069	-0.323
-728.937	125.688	-0.126	-0.161
-727.923	-123.481	-0.179	-0.029
-726.908	-200.000	-0.004	0.126
-725.894	233.282	-0.212	-0.351
-724.879	-71.271	-0.232	-0.088
-723.864	5.273	0.414	-0.308
-722.850	-154.789	0.227	-0.015
-721.835	-0.211	-0.278	-0.200
-720.821	396.719	0.080	0.169
-719.806	35.298	-0.222	0.197
-718.791	-98.928	0.104	0.027
-717.777	180.039	-0.082	0.122
-716.762	-200.000	-0.002	0.220
-715.748	800.000	-0.045	0.191
-714.733	71.864	-0.152	0.160
-713.718	626.911	-0.077	0.196
-712.704	-13.893	0.151	0.098
-711.689	10.022	0.260	-0.199
-710.675	-200.000	-0.095	-0.000
-709.660	93.638	-0.130	0.149
-708.645	-200.000	0.000	-0.205
-707.631	800.000	0.083	0.262
-706.616	-200.000	-0.049	-0.443
-705.602	-135.652	0.085	0.010
-704.587	-88.866	-0.101	-0.030
-703.572	-62.461	-0.192	0.080
-702.558	-125.338	-0.297	-0.046
-701.543	-146.717	-0.323	0.028
-700.529	14.534	0.078	-0.061
-699.514	-185.000	0.310	-0.005
-698.499	-115.108	0.075	0.014
-697.485	-30.418	0.207	0.118
-696.470	-175.993	-0.109	0.003
-695.456	-43.471	0.200	0.102
-694.441	789.320	-0.053	-0.146
-693.426	64.350	-0.237	0.241
-692.412	-200.000	0.038	-0.200
-691.397	-200.000	-0.053	-0.299
-690.383	791.030	-0.048	0.132
-689.368	117.674	0.034	0.042
-688.354	800.000	-0.029	-0.091
-687.339	-200.000	0.007	-0.097
-686.324	103.418	0.217	0.256
-685.310	-68.055	0.172	-0.068
-684.295	-143.337	-0.228	0.022
-683.281	-112.228	-0.257	0.052
-682.266	-132.114	-0.367	0.048
-681.251	-15.572	-0.258	-0.166
-680.237	164.548	0.243	-0.345
-679.222	98.783	0.275	-0.319
-678.208	96.681	-0.098	-0.112
-677.193	-120.696	-0.247	-0.042
-676.178	-115.953	-0.121	0.023
-675.164	490.330	-0.031	0.072
-674.149	-85.709	0.186	0.058
-673.135	-171.423	-0.132	0.004
-672.120	-200.000	0.175	0.000
-671.105	137.848	-0.100	-0.132
-670.091	68.986	0.161	-0.166
-669.076	-117.975	0.163	-0.029
-668.062	-200.000	-0.033	-0.234
-667.047	228.776	0.233	-0.382
-666.032	-169.570	0.062	-0.002
-665.018	-189.098	0.442	0.005
-664.003	20.286	-0.152	0.124
-662.989	-113.179	-0.112	-0.022
-661.974	800.000	0.117	-0.424
-660.959	18.542	0.091	-0.073
-659.945	-1.907	-0.081	-0.057
-658.930	41.738	-0.103	-0.094
-657.916	-159.863	0.358	-0.020
-656.901	-200.000	-0.037	-0.183
-655.886	800.000	-0.099	-0.296
-654.872	-18.349	-0.223	0.140
-653.857	328.940	-0.031	-0.060
-652.843	36.087	-0.130	-0.115
-651.828	396.262	-0.082	-0.171
-650.814	61.712	-0.094	-0.094
-649.799	800.000	0.049	0.165
-648.784	-200.000	0.021	0.093
-647.770	67.071	-0.415	-0.426
-646.755	63.587	0.256	-0.258
-645.741	257.376	-0.050	-0.086
-644.726	19.800	-0.172	0.139
-643.711	-200.000	0.016	-0.127
-642.697	-114.671	-0.140	0.027
-641.682	625.221	0.023	0.060
-640.668	22.060	-0.095	0.078
-639.653	-89.481	0.221	0.065
-638.638	-75.185	0.196	0.071
-637.624	29.456	0.054	-0.046
-636.609	-200.000	-0.026	0.132
-635.595	-86.915	0.066	0.020
-634.580	155.779	-0.122	0.169
-633.565	-200.000	0.041	0.192
-632.551	158.630	-0.004	0.005
-631.536	271.094	-0.047	0.084
-630.522	-162.632	0.457	-0.023
-629.507	-135.144	-0.274	-0.033
-628.492	-190.504	0.166	-0.002
-627.478	800.000	0.032	-0.130
-626.463	-93.359	0.309	-0.086
-625.449	-200.000	0.057	-0.339
-624.434	351.655	0.149	-0.297
-623.419	399.915	0.124	-0.261
-622.405	281.150	0.062	0.112
-621.390	27.753	-0.083	-0.070
-620.376	800.000	0.061	0.175
-619.361	-82.503	0.325	-0.106
-618.346	-200.000	0.013	-0.267
-617.332	360.707	0.083	-0.167
-616.317	314.048	-0.091	-0.172
-615.303	-69.084	-0.394	-0.153
-614.288	325.096	-0.090	-0.172
-613.273	-32.161	0.058	-0.033
-612.259	28.426	-0.199	-0.169
-611.244	-200.000	-0.031	-0.224
-610.230	-162.478	-0.071	0.004
-609.215	298.145	0.053	-0.098
-608.201	-159.450	0.265	-0.015
-607.186	800.000	0.067	0.278
-606.171	65.665	0.105	0.107
-605.157	-7.144	0.171	0.117
-604.142	-40.385	-0.238	-0.124
-603.128	387.243	-0.107	-0.222
-602.113	-124.050	-0.233	0.037
-601.098	-200.000	0.035	-0.260
-600.084	800.000	-0.046	-0.160
-599.069	531.820	0.097	-0.230
-598.055	800.000	0.096	-0.276
-597.040	-68.060	-0.211	-0.083
-596.025	-176.758	0.051	0.001
-595.011	204.811	-0.163	-0.254
-593.996	-143.980	-0.262	0.025
-592.982	167.295	0.089	-0.126
-591.967	-107.348	-0.207	0.046
-590.952	800.000	-0.057	-0.184
-589.938	62.165	-0.427	-0.428
-588.923	21.304	-0.152	-0.124
-587.909	-200.000	-0.032	-0.153
-586.894	280.102	-0.074	-0.132
-585.879	-200.000	0.013	0.293
-584.865	-158.676	-0.107	-0.006
-583.850	110.795	-0.261	-0.315
-582.836	-11.740	0.055	0.036
-581.821	-0.073	0.384	-0.274
-580.806	93.843	-0.191	0.217
-579.792	-31.203	-0.247	0.140
-578.777	-9.131	0.186	0.125
-577.763	33.319	-0.190	0.166
-576.748	-27.916	0.190	-0.110
-575.733	-200.000	-0.030	-0.264
-574.719	153.894	0.170	0.234
-573.704	187.844	-0.045	-0.068
-572.690	-200.000	-0.008	-0.306
-571.675	179.748	-0.091	0.133
-570.661	-200.000	0.005	0.211
-569.646	637.587	0.147	-0.374
-568.631	-18.643	-0.267	0.167
-567.617	-200.000	-0.060	-0.372
-566.602	-200.000	-0.043	-0.324
-565.588	541.743	0.072	-0.172
-564.573	77.962	-0.131	-0.140
-563.558	-66.735	-0.229	0.091
-562.544	-51.087	0.157	0.074
-561.529	132.849	0.086	-0.111
-560.515	-181.052	-0.293	0.006
-559.500	-200.000	-0.029	0.298
-558.485	325.730	-0.117	-0.224
-557.471	83.637	-0.107	-0.117
-556.456	423.242	-0.036	0.078
-555.442	739.268	0.019	0.051
-554.427	421.459	0.088	-0.189
-553.412	332.040	-0.115	-0.223
-552.398	57.764	0.111	-0.109
-551.383	800.000	0.061	0.262
-550.369	-80.924	-0.103	-0.034
-549.354	195.167	-0.062	0.094
-548.339	-113.549	0.076	-0.015
-547.325	12.381	0.288	-0.222
-546.310	67.104	-0.120	0.122
-545.296	-110.646	0.223	0.046
-544.281	-197.947	0.313	0.002
-543.266	-34.766	0.374	0.205
-542.252	-200.000	0.031	0.203
-541.237	-44.478	0.180	-0.090
-540.223	306.206	-0.078	0.145
-539.208	-200.000	0.017	-0.134
-538.193	222.859	-0.079	-0.127
-537.179	241.433	-0.098	-0.164
-536.164	-200.000	0.017	-0.203
-535.150	-36.021	-0.154	0.083
-534.135	-72.812	0.143	-0.053
-533.121	-30.966	0.345	0.195
-532.106	-9.194	0.468	0.313
-531.091	621.576	-0.077	-0.194
-530.077	-115.254	-0.314	-0.059
-529.062	-70.667	-0.217	0.082
-528.048	-72.374	-0.125	-0.046
-527.033	-25.212	-0.197	-0.117
-526.018	16.012	0.045	-0.035
-525.004	33.114	-0.238	-0.206
-523.989	39.682	0.290	-0.260
-522.975	800.000	0.051	0.207
-521.960	212.514	-0.058	0.091
-520.945	149.898	0.167	-0.226
-519.931	-149.431	-0.055	0.004
-518.916	334.510	-0.070	-0.135
-517.902	105.589	-0.132	-0.156
-516.887	-200.000	-0.046	-0.221
-515.872	28.679	-0.110	0.093
-514.858	16.686	-0.184	-0.146
-513.843	56.200	0.250	0.243
-512.829	-62.099	-0.140	0.058
-511.814	-105.816	0.134	-0.030
-510.799	-129.086	0.085	-0.012
-509.785	-176.021	-0.081	-0.002
-508.770	-200.000	0.010	-0.192
-507.756	-13.154	0.066	-0.043
-506.741	-3.282	0.069	0.048
-505.726	-60.060	0.180	0.077
-504.712	-28.220	0.268	0.155
-503.697	-200.000	0.036	-0.179
-502.683	-4.614	-0.083	-0.057
-501.668	52.355	-0.197	0.188
-500.653	-102.639	0.134	-0.032
-499.639	-107.556	0.257	0.056
-498.624	-82.756	-0.133	-0.043
-497.610	19.704	-0.201	-0.162
-496.595	-200.000	0.042	0.279
-495.581	-88.774	-0.306	-0.091
-494.566	-200.000	0.010	0.086
-493.551	-19.644	0.121	0.075
-492.537	-107.503	-0.233	-0.051
-491.522	144.024	-0.077	-0.103
-490.508	-33.640	0.318	-0.175
-489.493	471.986	0.026	0.059
-488.478	352.933	-0.088	-0.174
-487.464	-30.021	-0.283	0.161
-486.449	-133.887	0.340	0.042
-485.435	8.929	-0.135	0.102
-484.420	800.000	0.027	0.087
-483.405	800.000	-0.140	-0.425
-482.391	137.647	0.153	0.200
-481.376	128.888	-0.195	0.248
-480.362	800.000	-0.033	-0.103
-479.347	-123.098	0.148	-0.024
-478.332	34.324	-0.247	-0.216
-477.318	387.086	-0.141	0.291
-476.303	-79.109	-0.293	0.099
-475.289	-69.589	-0.046	-0.018
-474.274	19.247	-0.087	-0.070
-473.259	1.880	-0.173	0.125
-472.245	9.641	-0.185	0.140
-471.230	-75.369	-0.197	-0.070
-470.216	308.921	0.050	0.094
-469.201	-37.408	-0.102	0.054
-468.186	-147.402	-0.130	0.011
-467.172	-103.129	0.225	0.053
-466.157	139.773	-0.088	0.115
-465.143	-200.000	0.024	-0.110
-464.128	52.017	0.200	0.190
-463.113	-107.537	-0.219	-0.048
-462.099	461.721	-0.139	0.311
-461.084	441.096	0.093	0.204
-460.070	262.419	-0.206	0.357
-459.055	-200.000	0.005	-0.084
-458.040	29.855	0.201	0.171
-457.026	-120.389	0.208	-0.035
-456.011	-182.925	-0.059	-0.001
-454.997	800.000	-0.066	-0.189
-453.982	209.092	-0.049	0.077
-452.968	214.636	-0.036	-0.058
-451.953	180.564	-0.126	-0.184
-450.938	573.116	0.087	-0.212
-449.924	-161.040	0.307	-0.016
-448.909	-43.824	-0.037	-0.019
-447.895	271.465	-0.059	0.103
-446.880	-200.000	0.004	0.310
-445.865	-200.000	0.014	0.194
-444.851	189.012	0.111	0.166
-443.836	6.087	-0.274	0.203
-442.822	84.753	-0.320	0.350
-441.807	361.110	-0.064	-0.129
-440.792	295.266	-0.081	-0.147
-439.778	300.502	0.076	-0.141
-438.763	-43.885	-0.143	0.072
-437.749	375.418	-0.054	0.111
-436.734	-81.029	0.178	-0.059
-435.719	184.620	0.022	0.033
-434.705	82.450	0.187	0.203
-433.690	-125.777	-0.145	-0.022
-432.676	800.000	0.060	0.253
-431.661	154.798	-0.041	0.056
-430.646	800.000	0.052	0.162
-429.632	-29.157	0.084	-0.048
-428.617	-30.645	0.107	-0.061
-427.603	1.406	-0.046	-0.033
-426.588	623.559	-0.044	0.109
-425.573	131.969	-0.312	0.400
-424.559	-29.875	0.192	-0.109
-423.544	-71.261	-0.324	-0.121
-422.530	-22.099	-0.282	0.171
-421.515	800.000	0.143	0.413
-420.500	48.712	0.084	0.078
-419.486	-200.000	-0.032	-0.161
-418.471	263.450	0.155	0.268
-417.457	153.548	0.208	-0.284
-416.442	800.000	-0.028	0.116
-415.428	-187.883	0.505	-0.007
-414.413	-124.491	0.180	0.028
-413.398	665.931	0.098	-0.251
-412.384	800.000	-0.111	0.324
-411.369	-67.160	0.091	-0.036
-410.355	-63.278	0.035	0.014
-409.340	700.266	-0.077	0.203
-408.325	4.453	-0.164	0.120
-407.311	-83.554	0.530	0.169
-406.296	-200.000	0.001	-0.304
-405.282	-133.348	-0.116	-0.015
-404.267	-200.000	0.052	-0.280
-403.252	-52.905	-0.350	-0.160
-402.238	-200.000	-0.042	-0.261
-401.223	23.075	-0.344	0.281
-400.209	-200.000	-0.020	0.093
-399.194	-108.315	0.140	-0.030
-398.179	-138.053	0.347	-0.038
-397.165	-21.973	0.271	0.164
-396.150	-200.000	0.011	0.124
-395.136	580.162	0.121	-0.296
-394.121	-72.163	-0.091	0.033
-393.106	-200.000	-0.008	0.107
-392.092	-11.666	0.182	-0.119
-391.077	-65.919	-0.300	-0.119
-390.063	-8.104	0.264	-0.177
-389.048	-104.339	-0.303	-0.070
-388.033	-200.000	0.001	0.061
-387.019	20.698	-0.154	-0.124
-386.004	0.553	0.103	0.073
-384.990	-34.468	-0.065	-0.036
-383.975	44.318	-0.109	-0.099
-382.960	-200.000	0.018	0.231
-381.946	-43.424	0.097	0.049
-380.931	-162.361	-0.360	-0.018
-379.917	-200.000	0.004	-0.319
-378.902	47.276	-0.217	-0.201
-377.888	-75.280	-0.214	-0.076
-376.873	675.484	-0.062	-0.159
-375.858	35.525	-0.251	0.219
-374.844	152.039	0.144	-0.196
-373.829	-122.936	-0.486	-0.078
-372.815	760.492	-0.021	-0.058
-371.800	53.637	0.127	0.122
-370.785	-128.807	0.380	0.053
-369.771	214.561	0.047	-0.073
-368.756	-153.461	0.260	0.018
-367.742	-19.744	-0.495	0.304
-366.727	-106.754	-0.172	0.038
-365.712	-46.965	-0.034	0.016
-364.698	131.529	-0.158	0.202
-363.683	-98.103	0.299	0.077
-362.669	-200.000	0.035	0.247
-361.654	-200.000	-0.020	0.424
-360.639	-160.835	0.113	0.006
-359.625	506.530	0.089	0.206
-358.610	-3.334	-0.251	-0.174
-357.596	35.844	-0.177	-0.155
-356.581	-200.000	0.005	0.404
-355.566	-48.546	0.113	0.054
-354.552	-6.302	0.264	-0.179
-353.537	-200.000	0.052	-0.286
-352.523	201.703	-0.104	0.160
-351.508	-166.363	-0.204	0.009
-350.493	110.301	0.116	0.139
-349.479	185.701	-0.087	-0.129
-348.464	-39.950	0.248	-0.129
-347.450	-200.000	-0.003	-0.062
-346.435	800.000	-0.044	-0.165
-345.420	-20.041	-0.360	-0.221
-344.406	-200.000	-0.007	0.096
-343.391	800.000	-0.026	-0.089
-342.377	-144.468	0.078	-0.007
-341.362	79.220	-0.276	0.294
-340.348	-72.029	0.302	-0.112
-339.333	15.949	0.149	0.117
-338.318	-73.027	0.324	0.118
-337.304	431.382	0.071	-0.152
-336.289	-200.000	-0.029	-0.276
-335.275	141.127	0.193	-0.253
-334.260	-140.052	-0.210	0.022
-333.245	617.489	0.057	-0.142
-332.231	650.362	0.038	0.096
-331.216	-87.852	-0.243	-0.073
-330.202	-198.582	-0.189	-0.001
-329.187	129.085	-0.232	0.294
-328.172	-36.879	0.220	-0.117
-327.158	-158.179	0.300	-0.017
-326.143	-61.018	-0.119	-0.050
-325.129	-153.075	-0.294	0.021
-324.114	460.163	-0.108	-0.240
-323.099	72.479	-0.113	0.117
-322.085	-151.185	0.381	-0.028
-321.070	-127.221	-0.228	0.033
-320.056	282.821	0.189	0.337
-319.041	-148.642	0.135	0.011
-318.026	-117.875	-0.123	-0.022
-317.012	13.869	0.155	-0.120
-315.997	-1.611	-0.424	-0.296
-314.983	187.322	-0.035	-0.052
-313.968	-198.752	-0.399	0.002
-312.953	-200.000	-0.029	0.304
-311.939	-200.000	-0.007	0.073
-310.924	-200.000	0.018	0.162
-309.910	-3.093	0.125	-0.086
-308.895	-21.612	0.173	-0.105
-307.880	-200.000	0.011	-0.154
-306.866	-92.013	-0.367	0.103
-305.851	-80.018	0.174	0.058
-304.837	688.288	-0.084	0.217
-303.822	87.323	0.107	-0.117
-302.807	-64.470	0.215	0.087
-301.793	-72.564	0.129	0.047
-300.778	2.383	-0.129	0.092
-299.764	-32.814	0.458	0.253
-298.749	432.439	0.077	0.166
-297.735	-200.000	0.009	0.064
-296.720	-200.000	-0.038	0.168
-295.705	-3.431	-0.181	-0.125
-294.691	-7.745	-0.182	0.122
-293.676	-199.776	0.114	0.001
-292.662	-42.952	-0.069	-0.035
-291.647	-200.000	0.052	-0.318
-290.632	-84.751	-0.052	-0.016
-289.618	-16.675	-0.278	-0.175
-288.603	-200.000	0.028	0.172
-287.589	26.618	0.360	0.299
-286.574	-54.305	0.225	-0.101
-285.559	-75.125	0.240	0.085
-284.545	-165.727	0.096	0.004
-283.530	338.879	0.072	0.140
-282.516	-42.388	0.175	0.089
-281.501	-160.051	0.208	0.011
-280.486	800.000	-0.097	-0.323
-279.472	59.193	0.151	-0.148
-278.457	-200.000	0.016	-0.095
-277.443	12.553	-0.201	-0.153
-276.428	800.000	-0.066	-0.204
-275.413	-93.618	0.093	-0.026
-274.399	-78.503	-0.203	-0.069
-273.384	90.653	0.087	-0.096
-272.370	379.491	0.103	0.208
-271.355	-91.594	-0.040	0.011
-270.340	662.247	-0.061	-0.155
-269.326	188.954	-0.082	0.121
-268.311	362.145	-0.071	0.140
-267.297	-81.223	0.171	-0.056
-266.282	800.000	-0.094	-0.267
-265.267	-78.029	0.147	-0.050
-264.253	-39.434	-0.234	-0.121
-263.238	316.365	0.086	-0.162
-262.224	-3.116	0.102	0.070
-261.209	50.473	-0.059	-0.055
-260.195	-200.000	0.035	-0.219
-259.180	800.000	-0.111	0.341
-258.165	-121.581	0.176	0.029
-257.151	9.449	0.216	0.162
-256.136	-96.059	-0.172	0.045
-255.122	800.000	0.034	0.095
-254.107	-91.547	-0.094	0.026
-253.092	350.625	-0.060	0.117
-252.078	317.872	-0.097	0.182
-251.063	-110.729	-0.345	-0.070
-250.049	-109.280	0.289	-0.061
-249.034	73.189	-0.023	0.024
-248.019	-99.628	-0.382	0.095
-247.005	201.824	0.098	0.150
-245.990	-122.815	0.210	0.034
-244.976	-25.610	-0.070	-0.041
-243.961	-180.698	0.180	0.004
-242.946	-98.680	-0.459	-0.116
-241.932	800.000	-0.055	-0.164
-240.917	272.252	0.073	0.127
-239.903	-13.309	-0.279	-0.179
-238.888	-200.000	0.029	-0.157
-237.873	-200.000	0.012	0.189
-236.859	-200.000	0.020	0.210
-235.844	256.709	0.076	0.129
-234.830	-104.808	-0.293	0.067
-233.815	-200.000	0.015	-0.122
-232.800	-0.389	-0.066	-0.047
-231.786	800.000	-0.048	0.141
-230.771	-200.000	0.014	0.240
-229.757	279.353	0.082	-0.145
-228.742	-200.000	0.244	0.001
-227.727	-200.000	-0.031	-0.280
-226.713	-200.000	0.037	0.219
-225.698	743.442	0.080	0.213
-224.684	-165.429	0.431	0.019
-223.669	-130.547	-0.207	-0.028
-222.655	-8.211	-0.142	0.095
-221.640	268.240	0.086	0.148
-220.625	-200.000	-0.019	0.175
-219.611	296.263	-0.160	-0.290
-218.596	-136.072	0.230	0.027
-217.582	-132.235	-0.170	0.022
-216.567	-200.000	-0.021	-0.325
-215.552	-101.896	0.457	-0.109
-214.538	-21.275	-0.333	0.201
-213.523	73.779	0.188	0.195
-212.509	-75.397	0.241	-0.085
-211.494	26.221	0.322	0.266
-210.479	163.363	0.067	0.093
-209.465	7.461	0.171	-0.126
-208.450	-200.000	-0.363	-0.001
-207.436	42.669	-0.181	0.163
-206.421	-30.337	-0.290	0.163
-205.406	1.234	-0.148	0.105
-204.392	261.326	0.185	0.317
-203.377	-28.231	-0.141	-0.081
-202.363	57.077	0.154	-0.148
-201.348	-100.998	0.064	0.016
-200.333	-200.000	0.084	-0.478
-199.319	-108.044	0.312	-0.067
-198.304	-96.134	-0.489	-0.128
-197.290	-142.580	0.384	0.037
-196.275	58.738	0.267	-0.259
-195.260	-71.641	-0.137	-0.050
-194.246	-178.639	-0.034	-0.001
-193.231	110.177	-0.134	-0.158
-192.217	26.723	0.123	0.102
-191.202	-50.178	0.159	-0.074
-190.187	-103.154	-0.370	0.086
-189.173	-84.399	0.196	0.061
-188.158	55.306	-0.251	0.239
-187.144	-200.000	0.094	0.452
-186.129	670.720	-0.133	0.340
-185.114	-200.000	-0.001	-0.264
-184.100	-23.123	0.100	0.060
-183.085	-200.000	0.016	-0.269
-182.071	-40.563	-0.194	0.099
-181.056	-100.113	0.243	0.060
-180.042	-115.844	0.308	-0.057
-179.027	209.575	-0.168	0.260
-178.012	91.696	-0.145	0.161
-176.998	800.000	0.022	-0.066
-175.983	-200.000	0.018	-0.171
-174.969	190.749	0.311	0.462
-173.954	-150.861	0.181	-0.014
-172.939	-50.207	0.455	0.213
-171.925	-164.174	-0.056	-0.003
-170.910	-112.053	-0.178	0.035
-169.896	800.000	-0.051	0.188
-168.881	228.485	0.072	-0.115
-167.866	690.391	0.121	0.313
-166.852	48.823	0.120	-0.111
-165.837	220.448	-0.062	0.098
-164.823	-134.776	0.095	0.011
-163.808	-200.000	0.037	0.228
-162.793	-200.000	0.043	0.384
-161.779	800.000	0.019	-0.061
-160.764	744.376	0.047	0.124
-159.750	436.718	0.132	0.283
-158.735	-101.783	0.404	-0.096
-157.720	297.462	-0.063	0.114
-156.706	-93.383	0.270	0.074
-155.691	-200.000	0.059	-0.279
-154.677	-128.036	0.124	0.018
-153.662	100.841	0.265	-0.304
-152.647	-73.738	-0.272	-0.097
-151.633	228.708	0.028	0.045
-150.618	297.597	0.048	-0.086
-149.604	-29.797	-0.179	-0.101
-148.589	-200.000	-0.025	0.365
-147.574	62.905	0.079	0.078
-146.560	-200.000	-0.025	-0.235
-145.545	82.011	0.239	-0.255
-144.531	398.719	0.228	0.470
-143.516	800.000	-0.047	0.164
-142.502	47.825	-0.152	0.139
-141.487	-200.000	0.038	-0.326
-140.472	48.328	-0.185	0.170
-139.458	-200.000	0.033	0.155
-138.443	77.629	-0.098	0.103
-137.429	-200.000	0.043	0.235
-136.414	604.156	-0.020	-0.048
-135.399	-200.000	0.035	-0.180
-134.385	317.588	0.063	-0.117
-133.370	302.788	0.103	-0.189
-132.356	-152.065	-0.295	0.021
-131.341	800.000	0.091	0.373
-130.326	159.400	0.113	0.155
-129.312	123.953	0.036	-0.045
-128.297	92.499	-0.102	-0.114
-127.283	-50.233	0.150	-0.070
-126.268	688.039	-0.134	-0.346
-125.253	-133.038	-0.247	-0.031
-124.239	-200.000	0.041	-0.194
-123.224	-3.889	0.055	-0.038
-122.210	-21.336	0.192	0.116
-121.195	56.147	0.122	-0.116
