DTS Sentinel unit serial number:	SN413079Multiplexer serial number:	ORYXHardware model number:	OX4-SRSoftware version number:	ORYX F/W v4.00 Oryx Data Collector v3.7.2.0data status	okinstallation	princeton_trtdifferential loss correction	single-endedforward channel	channel 3reverse channel	N/Adate	2019/09/14time	20:36:35forward acquisition time	60.00reverse acquisition time	0.00gamma	496.2192k internal	0.2316k external	0.2316temperature offset calibration	1.0003default loss term (dB/km)	0.3790temperature slope calibration	1.0000multiplexer offset coefficient	1.0000multiplexer slope coefficient	1.0000fibre end	0.00T internal ref (°C)	33.44T ext. ref 1 (°C)	4.82T ext. ref 2 (°C)	28.07length (m)	temperature (°C)	Stokes	anti-Stokes-747.200	371.946	0.107	0.220
-746.185	33.676	-0.044	0.039
-745.171	800.000	-0.052	0.155
-744.156	-200.000	0.038	0.189
-743.142	263.864	0.134	0.236
-742.127	-200.000	0.024	0.153
-741.112	-84.525	-0.278	-0.089
-740.098	-50.589	0.405	0.193
-739.083	148.011	-0.099	-0.135
-738.069	-43.755	0.357	0.182
-737.054	-39.908	-0.170	-0.090
-736.039	66.316	-0.175	-0.181
-735.025	475.962	-0.069	0.157
-734.010	-33.814	-0.192	-0.107
-732.996	57.797	-0.234	0.231
-731.981	64.960	0.093	-0.095
-730.966	-200.000	-0.026	-0.133
-729.952	-56.089	-0.283	-0.128
-728.937	-112.055	0.162	-0.033
-727.923	-200.000	-0.006	-0.253
-726.908	-6.141	0.203	-0.140
-725.894	-200.000	-0.051	0.327
-724.879	-200.000	0.028	0.549
-723.864	611.788	0.020	0.050
-722.850	-53.772	-0.360	0.166
-721.835	-58.403	0.183	-0.080
-720.821	800.000	-0.076	0.238
-719.806	734.669	-0.126	-0.342
-718.791	12.058	-0.366	0.285
-717.777	1.403	-0.031	0.022
-716.762	415.720	-0.059	-0.128
-715.748	-66.858	-0.271	0.108
-714.733	87.332	0.293	-0.328
-713.718	800.000	0.051	0.191
-712.704	-80.424	-0.242	-0.082
-711.689	-37.201	-0.162	-0.088
-710.675	215.530	-0.047	0.076
-709.660	-200.000	0.063	0.000
-708.645	800.000	-0.063	0.202
-707.631	-200.000	0.007	-0.128
-706.616	136.748	-0.134	-0.176
-705.602	-35.868	0.132	-0.072
-704.587	-121.683	-0.255	-0.043
-703.572	-4.126	-0.324	-0.227
-702.558	120.161	-0.033	-0.041
-701.543	27.002	-0.166	-0.141
-700.529	57.763	-0.341	0.337
-699.514	-128.338	0.344	-0.050
-698.499	21.756	-0.162	0.134
-697.485	154.854	0.054	0.076
-696.470	800.000	-0.039	-0.163
-695.456	-157.740	-0.178	-0.011
-694.441	33.106	0.091	0.080
-693.426	-50.833	-0.317	-0.151
-692.412	612.538	0.048	0.121
-691.397	-36.138	-0.296	0.161
-690.383	-88.576	-0.350	-0.105
-689.368	-53.658	0.105	0.049
-688.354	-83.431	0.055	0.018
-687.339	-200.000	-0.025	0.412
-686.324	-200.000	-0.022	-0.115
-685.310	-89.448	-0.423	0.126
-684.295	-11.803	0.050	0.033
-683.281	-112.317	-0.384	0.078
-682.266	414.583	0.032	-0.069
-681.251	-56.983	0.164	-0.073
-680.237	800.000	-0.049	-0.162
-679.222	351.361	0.118	-0.237
-678.208	-184.888	-0.085	0.001
-677.193	-41.158	-0.128	-0.067
-676.178	-150.056	0.077	-0.006
-675.164	-200.000	0.057	0.258
-674.149	-8.917	-0.270	0.183
-673.135	-200.000	-0.006	-0.287
-672.120	-160.562	-0.339	0.018
-671.105	800.000	-0.049	-0.142
-670.091	-56.130	0.114	-0.051
-669.076	-60.275	0.260	-0.112
-668.062	604.618	0.067	0.169
-667.047	254.182	0.091	0.158
-666.032	800.000	0.041	0.171
-665.018	-168.911	0.231	0.009
-664.003	-200.000	0.020	-0.098
-662.989	-193.047	0.330	-0.003
-661.974	-135.312	0.071	-0.009
-660.959	34.687	-0.070	-0.061
-659.945	-88.269	0.139	0.042
-658.930	-200.000	-0.013	-0.101
-657.916	598.187	0.104	-0.261
-656.901	117.392	-0.056	0.069
-655.886	-70.065	-0.141	-0.054
-654.872	123.746	0.086	0.109
-653.857	-100.290	0.125	-0.031
-652.843	55.306	0.282	-0.275
-651.828	-88.370	0.045	-0.013
-650.814	226.419	-0.049	0.081
-649.799	25.772	0.232	-0.195
-648.784	243.323	-0.109	-0.184
-647.770	167.835	0.060	-0.087
-646.755	-22.864	-0.217	0.132
-645.741	-117.984	-0.514	-0.093
-644.726	-200.000	-0.045	-0.295
-643.711	163.165	0.169	0.239
-642.697	800.000	0.062	0.193
-641.682	-85.452	-0.261	0.082
-640.668	-156.992	0.335	-0.021
-639.653	142.241	0.139	-0.186
-638.638	-200.000	-0.046	-0.260
-637.624	-101.127	0.200	0.049
-636.609	281.074	0.148	0.267
-635.595	800.000	0.068	0.253
-634.580	-9.838	-0.440	-0.296
-633.565	-71.204	-0.146	0.055
-632.551	-80.263	0.220	0.074
-631.536	142.439	-0.134	-0.179
-630.522	-160.189	-0.093	-0.005
-629.507	-200.000	-0.029	0.205
-628.492	-88.909	0.118	-0.035
-627.478	105.141	0.264	-0.314
-626.463	-15.533	-0.029	0.019
-625.449	32.325	0.016	-0.014
-624.434	800.000	-0.051	-0.175
-623.419	49.871	0.239	-0.227
-622.405	-200.000	0.104	-0.480
-621.390	-64.398	0.274	-0.112
-620.376	37.718	-0.328	0.293
-619.361	-5.117	-0.179	-0.124
-618.346	-200.000	0.027	-0.126
-617.332	-200.000	-0.016	-0.127
-616.317	-117.456	-0.182	-0.033
-615.303	800.000	-0.042	0.142
-614.288	93.932	-0.218	0.249
-613.273	-200.000	0.023	-0.126
-612.259	-122.791	0.191	-0.031
-611.244	800.000	0.015	-0.055
-610.230	250.025	0.046	-0.079
-609.215	326.150	-0.099	-0.191
-608.201	-200.000	-0.010	-0.046
-607.186	371.565	0.096	0.197
-606.171	-41.129	-0.140	-0.073
-605.157	-50.662	0.235	0.112
-604.142	-137.226	0.212	0.024
-603.128	226.396	-0.106	0.173
-602.113	-200.000	0.013	0.144
-601.098	-141.269	-0.309	0.032
-600.084	162.954	-0.151	-0.213
-599.069	-77.634	-0.024	-0.008
-598.055	800.000	0.098	-0.352
-597.040	-181.688	0.228	-0.004
-596.025	-31.897	0.255	-0.144
-595.011	-82.174	-0.055	-0.018
-593.996	363.222	0.027	-0.054
-592.982	-200.000	-0.002	-0.091
-591.967	270.249	0.068	-0.121
-590.952	253.196	-0.149	-0.257
-589.938	-200.000	-0.049	0.254
-588.923	349.017	0.097	-0.192
-587.909	-117.203	-0.108	0.020
-586.894	154.716	-0.062	-0.086
-585.879	-75.589	0.186	-0.067
-584.865	89.249	0.086	-0.097
-583.850	800.000	0.066	0.221
-582.836	290.926	0.044	-0.080
-581.821	-200.000	0.004	-0.094
-580.806	800.000	-0.055	0.163
-579.792	253.224	-0.138	-0.237
-578.777	15.096	-0.220	0.173
-577.763	800.000	0.017	0.075
-576.748	184.718	0.108	0.161
-575.733	-200.000	-0.026	-0.217
-574.719	-122.938	-0.157	-0.026
-573.704	95.403	-0.170	0.195
-572.690	359.915	-0.131	-0.264
-571.675	39.835	0.011	0.010
-570.661	2.704	-0.153	0.112
-569.646	-66.109	0.187	0.075
-568.631	-200.000	-0.035	-0.377
-567.617	-126.820	0.326	0.048
-566.602	334.697	0.132	0.258
-565.588	-111.108	0.341	-0.070
-564.573	-200.000	0.031	0.166
-563.558	-200.000	0.003	-0.061
-562.544	-111.774	0.016	-0.003
-561.529	-81.034	0.108	-0.036
-560.515	-200.000	-0.019	0.145
-559.500	111.090	0.094	-0.113
-558.485	67.936	0.109	0.113
-557.471	261.921	-0.258	-0.450
-556.456	269.008	0.069	0.121
-555.442	64.854	0.247	0.251
-554.427	168.562	-0.117	-0.168
-553.412	-142.352	-0.010	0.001
-552.398	523.431	-0.124	-0.294
-551.383	246.469	-0.201	-0.341
-550.369	160.020	0.232	-0.326
-549.354	-32.162	-0.121	-0.068
-548.339	644.080	-0.111	-0.286
-547.325	59.273	-0.209	-0.207
-546.310	80.578	0.164	-0.178
-545.296	146.158	-0.232	0.313
-544.281	-117.903	-0.279	0.050
-543.266	-150.256	0.224	-0.017
-542.252	87.747	-0.242	-0.269
-541.237	-10.316	-0.088	-0.059
-540.223	-98.515	0.413	0.106
-539.208	148.534	-0.096	-0.130
-538.193	-200.000	-0.022	0.155
-537.179	496.251	0.147	0.340
-536.164	652.956	-0.104	0.269
-535.150	-119.999	-0.222	0.038
-534.135	-89.936	-0.197	0.058
-533.121	748.276	0.174	-0.472
-532.106	-38.509	-0.194	-0.103
-531.091	-200.000	0.044	-0.246
-530.077	-11.833	-0.082	-0.054
-529.062	-200.000	0.012	-0.241
-528.048	-200.000	0.072	-0.342
-527.033	-168.741	0.227	0.009
-526.018	-150.409	-0.212	0.016
-525.004	-48.137	0.119	0.058
-523.989	-130.839	-0.174	0.023
-522.975	24.902	-0.043	-0.035
-521.960	-76.172	0.137	-0.049
-520.945	151.388	0.196	0.268
-519.931	299.223	0.131	-0.242
-518.916	800.000	0.211	0.642
-517.902	-200.000	-0.014	-0.190
-516.887	56.777	0.346	-0.338
-515.872	186.722	-0.040	0.060
-514.858	79.884	-0.141	0.152
-513.843	-200.000	-0.022	0.350
-512.829	800.000	-0.157	0.482
-511.814	-27.506	-0.346	0.202
-510.799	800.000	-0.067	0.252
-509.785	-200.000	0.011	0.083
-508.770	51.911	-0.031	0.029
-507.756	-75.314	0.245	-0.088
-506.741	35.652	0.069	0.061
-505.726	800.000	-0.068	-0.269
-504.712	-38.561	-0.198	-0.105
-503.697	-200.000	-0.029	0.154
-502.683	-175.296	-0.258	-0.007
-501.668	-15.244	-0.342	0.220
-500.653	228.112	0.165	-0.269
-499.639	-200.000	-0.021	-0.139
-498.624	568.432	0.014	0.034
-497.610	-200.000	-0.025	0.151
-496.595	800.000	-0.060	0.202
-495.581	-48.327	0.202	0.098
-494.566	-130.406	0.378	-0.051
-493.551	800.000	0.026	0.090
-492.537	-200.000	0.021	0.250
-491.522	-110.109	0.184	-0.039
-490.508	-200.000	0.018	0.214
-489.493	83.455	0.154	0.168
-488.478	50.417	0.260	-0.247
-487.464	-97.424	0.325	0.085
-486.449	-200.000	0.012	0.198
-485.435	-110.646	0.318	-0.066
-484.420	800.000	0.069	-0.247
-483.405	-200.000	0.016	-0.080
-482.391	153.330	-0.168	-0.230
-481.376	-37.615	-0.156	0.084
-480.362	-8.846	-0.216	0.145
-479.347	-67.924	-0.048	0.019
-478.332	-10.982	-0.123	-0.081
-477.318	-183.962	-0.160	0.003
-476.303	-198.152	-0.355	-0.002
-475.289	-151.147	-0.162	0.012
-474.274	147.482	0.061	-0.082
-473.259	-138.555	-0.074	-0.008
-472.245	800.000	-0.092	0.345
-471.230	3.516	0.255	-0.186
-470.216	-148.078	0.180	0.015
-469.201	93.532	-0.193	0.219
-468.186	363.170	0.124	0.250
-467.172	-174.510	0.146	0.004
-466.157	175.737	-0.074	-0.107
-465.143	-84.021	0.241	0.077
-464.128	25.968	-0.171	0.143
-463.113	19.690	-0.249	0.201
-462.099	-84.030	0.146	0.046
-461.084	71.674	0.207	0.215
-460.070	800.000	0.090	-0.251
-459.055	25.067	-0.082	0.068
-458.040	-50.427	-0.072	0.034
-457.026	172.962	0.243	0.350
-456.011	-39.977	0.132	0.069
-454.997	-35.290	-0.130	-0.071
-453.982	-52.589	0.093	-0.043
-452.968	-19.997	0.268	-0.165
-451.953	-150.930	0.061	0.005
-450.938	-200.000	0.003	-0.058
-449.924	-200.000	0.004	0.407
-448.909	-17.199	0.127	0.080
-447.895	800.000	0.025	-0.094
-446.880	101.448	0.208	-0.243
-445.865	-200.000	-0.056	0.285
-444.851	229.946	-0.205	0.335
-443.836	254.654	0.063	-0.108
-442.822	493.665	-0.100	0.230
-441.807	-200.000	-0.015	-0.363
-440.792	255.916	-0.061	-0.106
-439.778	-5.681	0.454	-0.312
-438.763	800.000	0.012	0.049
-437.749	-200.000	0.102	0.457
-436.734	79.442	-0.085	0.091
-435.719	-120.005	0.141	0.024
-434.705	91.461	0.285	0.321
-433.690	283.625	-0.065	0.117
-432.676	-148.623	0.412	0.034
-431.661	144.740	0.091	-0.122
-430.646	-200.000	-0.084	-0.402
-429.632	573.960	-0.083	-0.203
-428.617	-110.724	0.243	0.050
-427.603	-200.000	0.061	0.372
-426.588	-200.000	0.088	-0.428
-425.573	18.831	-0.208	-0.166
-424.559	-200.000	0.028	0.206
-423.544	800.000	-0.030	0.121
-422.530	12.848	0.274	-0.212
-421.515	-90.037	-0.329	0.096
-420.500	43.434	0.172	-0.157
-419.486	613.598	-0.040	0.101
-418.471	-200.000	0.057	0.260
-417.457	800.000	0.073	-0.222
-416.442	516.512	0.102	-0.239
-415.428	800.000	0.042	-0.145
-414.413	-9.163	0.263	0.176
-413.398	-200.000	-0.010	0.202
-412.384	800.000	-0.070	-0.198
-411.369	639.646	-0.048	0.122
-410.355	-200.000	0.107	0.471
-409.340	-54.889	0.085	0.038
-408.325	-156.752	-0.311	0.019
-407.311	-196.182	-0.298	0.002
-406.296	-110.016	-0.194	-0.041
-405.282	192.044	0.103	-0.155
-404.267	107.884	-0.194	-0.231
-403.252	800.000	-0.050	-0.208
-402.238	-92.816	-0.049	-0.014
-401.223	-200.000	-0.043	0.263
-400.209	258.446	0.113	-0.194
-399.194	-130.608	0.271	-0.037
-398.179	11.093	-0.144	-0.110
-397.165	-81.994	0.270	-0.088
-396.150	83.608	-0.154	0.168
-395.136	319.758	-0.200	0.380
-394.121	-200.000	-0.029	0.162
-393.106	-91.107	0.093	-0.027
-392.092	338.829	-0.220	-0.429
-391.077	15.991	-0.153	-0.120
-390.063	151.893	0.175	-0.239
-389.048	-102.500	-0.138	-0.033
-388.033	-200.000	0.003	-0.117
-387.019	-92.188	0.055	-0.015
-386.004	112.872	-0.190	0.230
-384.990	433.338	-0.052	0.112
-383.975	6.929	0.141	-0.105
-382.960	138.833	0.207	0.271
-381.946	-200.000	0.004	-0.098
-380.931	-67.603	0.099	-0.039
-379.917	-44.827	-0.131	0.065
-378.902	-34.923	-0.377	0.205
-377.888	-52.403	0.376	0.174
-376.873	576.941	-0.078	-0.191
-375.858	-197.558	-0.091	-0.001
-374.844	86.780	0.160	0.176
-373.829	-200.000	0.048	0.314
-372.815	62.483	0.113	0.112
-371.800	-125.806	-0.267	-0.040
-370.785	-104.859	0.216	-0.050
-369.771	-67.526	0.145	-0.057
-368.756	110.363	-0.039	0.047
-367.742	-73.118	0.099	-0.036
-366.727	211.980	-0.109	-0.172
-365.712	-21.815	-0.404	0.245
-364.698	-140.233	-0.290	0.030
-363.683	-82.329	0.105	0.034
-362.669	3.532	0.090	-0.066
-361.654	67.390	-0.058	0.059
-360.639	342.965	0.064	-0.125
-359.625	-66.988	0.157	-0.062
-358.610	17.157	-0.228	-0.180
-357.596	410.671	0.030	0.063
-356.581	520.053	0.068	0.158
-355.566	135.561	0.165	0.214
-354.552	143.348	0.111	0.148
-353.537	-136.182	-0.449	-0.052
-352.523	-200.000	0.031	-0.166
-351.508	-200.000	-0.009	0.072
-350.493	77.291	-0.112	-0.119
-349.479	696.235	0.079	-0.207
-348.464	-200.000	0.011	-0.127
-347.450	800.000	-0.056	-0.212
-346.435	19.382	0.079	-0.063
-345.420	0.409	-0.160	0.114
-344.406	101.439	-0.240	-0.279
-343.391	800.000	-0.076	-0.289
-342.377	5.528	-0.082	-0.061
-341.362	-46.406	-0.439	0.215
-340.348	-59.860	0.284	-0.121
-339.333	-154.372	0.335	0.022
-338.318	-81.229	-0.180	-0.059
-337.304	-200.000	0.027	0.330
-336.289	15.247	0.153	0.120
-335.275	-119.609	0.056	0.010
-334.260	-70.137	-0.068	-0.026
-333.245	800.000	-0.094	0.355
-332.231	331.809	0.110	-0.211
-331.216	39.023	-0.169	-0.151
-330.202	-200.000	0.042	0.433
-329.187	-134.501	-0.193	-0.024
-328.172	-122.608	-0.242	-0.039
-327.158	16.701	-0.088	0.070
-326.143	-200.000	-0.010	0.226
-325.129	166.201	0.190	0.268
-324.114	800.000	-0.017	-0.054
-323.099	-108.372	0.283	0.061
-322.085	-87.376	-0.133	-0.040
-321.070	75.114	0.269	0.283
-320.056	-200.000	0.006	-0.157
-319.041	403.209	0.092	-0.193
-318.026	800.000	0.070	-0.255
-317.012	554.788	0.105	-0.251
-315.997	-184.380	0.300	0.005
-314.983	395.530	-0.091	-0.189
-313.968	800.000	-0.086	-0.260
-312.953	-200.000	0.061	-0.285
-311.939	800.000	0.031	0.110
-310.924	52.999	-0.127	-0.121
-309.910	-200.000	-0.012	0.232
-308.895	-84.727	-0.138	-0.043
-307.880	176.314	0.062	-0.090
-306.866	800.000	0.155	-0.431
-305.851	266.930	0.019	0.033
-304.837	-147.038	0.122	0.010
-303.822	-200.000	0.019	-0.272
-302.807	800.000	0.064	-0.208
-301.793	-123.705	-0.606	-0.096
-300.778	-81.450	-0.127	0.042
-299.764	-40.874	-0.279	0.144
-298.749	-200.000	-0.005	0.047
-297.735	-80.553	0.183	0.061
-296.720	288.333	-0.190	0.342
-295.705	800.000	-0.033	0.140
-294.691	30.785	-0.158	-0.135
-293.676	-200.000	-0.021	0.135
-292.662	-17.258	-0.213	-0.133
-291.647	-200.000	-0.009	0.114
-290.632	67.805	0.138	0.140
-289.618	-200.000	0.000	-0.123
-288.603	-85.784	0.334	0.103
-287.589	-13.574	0.049	0.032
-286.574	654.587	0.031	0.078
-285.559	177.780	-0.174	0.252
-284.545	364.627	0.068	0.137
-283.530	-113.137	0.335	0.066
-282.516	145.167	0.130	0.174
-281.501	-162.373	-0.171	0.008
-280.486	86.055	0.272	0.298
-279.472	72.768	0.186	0.193
-278.457	723.766	0.046	-0.123
-277.443	-136.391	0.294	0.034
-276.428	-67.870	-0.219	-0.085
-275.413	-66.552	-0.157	0.062
-274.399	-162.316	-0.267	0.013
-273.384	-200.000	-0.022	-0.223
-272.370	142.333	-0.295	-0.389
-271.355	-5.722	-0.299	-0.204
-270.340	73.618	0.111	0.116
-269.326	180.399	-0.125	-0.183
-268.311	-53.047	-0.173	0.079
-267.297	-133.941	0.093	0.011
-266.282	-35.029	0.094	0.051
-265.267	-35.804	0.152	0.082
-264.253	800.000	-0.031	0.120
-263.238	-47.769	0.228	-0.110
-262.224	-101.271	-0.377	0.092
-261.209	-51.041	0.265	0.124
-260.195	154.865	-0.158	-0.216
-259.180	296.649	0.066	0.121
-258.165	800.000	-0.016	-0.048
-257.151	-94.373	0.339	-0.092
-256.136	132.351	0.132	-0.169
-255.122	-62.187	0.087	-0.036
-254.107	38.026	0.274	-0.242
-253.092	487.277	-0.085	0.194
-252.078	84.444	-0.255	-0.278
-251.063	258.446	-0.133	0.227
-250.049	231.736	0.091	-0.149
-249.034	17.924	-0.338	-0.267
-248.019	-79.454	-0.070	0.023
-247.005	-42.500	0.023	0.012
-245.990	-152.923	0.249	-0.017
-244.976	-155.624	0.151	-0.010
-243.961	58.315	-0.194	0.189
-242.946	79.228	-0.113	-0.120
-241.932	-200.000	0.025	0.438
-240.917	800.000	0.069	0.263
-239.903	800.000	-0.017	0.048
-238.888	-68.511	-0.281	-0.108
-237.873	-200.000	0.028	-0.334
-236.859	800.000	0.026	-0.091
-235.844	215.236	0.130	0.205
-234.830	-200.000	0.008	0.257
-233.815	-200.000	-0.025	0.243
-232.800	-148.987	-0.175	-0.014
-231.786	4.836	-0.109	-0.080
-230.771	-200.000	0.002	0.125
-229.757	10.815	-0.222	-0.168
-228.742	-200.000	0.024	0.183
-227.727	-16.799	-0.217	0.136
-226.713	800.000	0.013	-0.041
-225.698	-142.935	-0.051	0.005
-224.684	-73.841	0.098	-0.035
-223.669	-200.000	0.044	0.211
-222.655	-80.171	-0.158	-0.053
-221.640	-175.478	0.221	0.006
-220.625	45.533	-0.125	0.114
-219.611	76.611	-0.099	-0.104
-218.596	-47.027	-0.092	0.045
-217.582	67.097	0.139	-0.141
-216.567	-25.648	0.121	0.071
-215.552	39.446	-0.044	0.039
-214.538	29.699	-0.124	-0.105
-213.523	-8.304	-0.284	0.190
-212.509	13.011	0.211	0.162
-211.494	89.962	0.195	-0.217
-210.479	-200.000	0.006	-0.203
-209.465	-76.172	-0.227	0.079
-208.450	4.990	-0.333	-0.243
-207.436	-82.306	0.379	-0.122
-206.421	309.357	-0.055	0.102
-205.406	-92.146	-0.172	0.048
-204.392	32.140	0.085	0.073
-203.377	-147.684	0.258	-0.021
-202.363	41.725	0.298	0.268
-201.348	-127.911	0.354	0.051
-200.333	-24.544	-0.061	0.036
-199.319	-200.000	-0.035	-0.160
-198.304	207.503	-0.098	0.151
-197.290	-43.986	0.207	-0.103
-196.275	800.000	0.050	-0.209
-195.260	423.280	0.092	-0.195
-194.246	-124.671	0.457	-0.070
-193.231	12.948	0.175	-0.134
-192.217	787.608	0.105	0.286
-191.202	177.897	0.172	0.249
-190.187	-143.784	-0.258	-0.024
-189.173	-67.626	-0.350	0.136
-188.158	-153.085	-0.122	-0.008
-187.144	67.260	-0.098	0.099
-186.129	191.978	0.326	-0.487
-185.114	184.144	-0.198	0.291
-184.100	18.056	0.119	-0.094
-183.085	800.000	-0.132	0.418
-182.071	34.601	-0.037	0.032
-181.056	6.035	0.291	-0.213
-180.042	800.000	-0.097	0.323
-179.027	215.886	0.110	-0.173
-178.012	83.371	-0.131	-0.141
-176.998	483.414	-0.054	-0.121
-175.983	-150.894	-0.267	0.020
-174.969	-60.057	0.119	-0.050
-173.954	800.000	0.011	-0.036
-172.939	-138.146	0.089	0.010
-171.925	-200.000	0.003	0.367
-170.910	-127.818	0.142	-0.020
-169.896	-11.259	0.104	-0.068
-168.881	-61.767	-0.153	0.064
-167.866	24.396	-0.320	-0.262
-166.852	-62.062	-0.097	0.040
-165.837	-114.905	-0.074	0.014
-164.823	439.795	0.052	-0.113
-163.808	-90.391	-0.310	-0.089
-162.793	-38.149	0.110	-0.058
-161.779	-158.110	0.202	-0.012
-160.764	-200.000	-0.026	0.123
-159.750	-33.444	0.139	0.076
-158.735	-135.852	-0.241	-0.028
-157.720	-197.223	-0.188	0.001
-156.706	-13.921	-0.202	0.129
-155.691	177.642	-0.077	0.111
-154.677	-200.000	-0.008	0.249
-153.662	56.017	0.151	0.145
-152.647	134.381	-0.158	0.203
-151.633	-105.892	-0.186	-0.041
-150.618	351.745	0.124	-0.244
-149.604	387.946	0.145	0.296
-148.589	800.000	0.086	-0.355
-147.574	-200.000	-0.033	-0.372
-146.560	-200.000	-0.006	0.100
-145.545	800.000	0.098	0.274
-144.531	91.059	0.260	0.289
-143.516	-123.561	0.020	-0.003
-142.502	102.010	-0.189	0.218
-141.487	163.105	-0.068	0.095
-140.472	285.286	0.204	0.364
-139.458	-32.659	-0.222	0.122
-138.443	83.051	0.174	-0.188
-137.429	-175.436	0.022	-0.001
-136.414	-200.000	-0.029	-0.410
-135.399	202.943	0.162	0.247
-134.385	170.271	0.095	0.135
-133.370	-10.042	0.202	0.133
-132.356	800.000	0.063	-0.230
-131.341	800.000	0.094	0.313
-130.326	124.666	-0.094	0.116
-129.312	-4.120	0.188	0.129
-128.297	-83.703	0.089	-0.028
-127.283	7.184	-0.054	0.040
-126.268	-200.000	-0.073	-0.339
-125.253	-200.000	0.036	0.290
-124.239	-104.077	0.411	0.095
-123.224	800.000	-0.077	-0.225
-122.210	-200.000	-0.017	0.319
-121.195	-93.357	-0.352	0.097
