DTS Sentinel unit serial number:	SN413079Multiplexer serial number:	ORYXHardware model number:	OX4-SRSoftware version number:	ORYX F/W v4.00 Oryx Data Collector v3.7.2.0data status	okinstallation	princeton_trtdifferential loss correction	single-endedforward channel	channel 3reverse channel	N/Adate	2019/09/16time	18:36:35forward acquisition time	60.00reverse acquisition time	0.00gamma	496.2192k internal	0.2307k external	0.2307temperature offset calibration	0.9923default loss term (dB/km)	0.3790temperature slope calibration	1.0000multiplexer offset coefficient	1.0000multiplexer slope coefficient	1.0000fibre end	0.00T internal ref (°C)	36.44T ext. ref 1 (°C)	-0.01T ext. ref 2 (°C)	29.78length (m)	temperature (°C)	Stokes	anti-Stokes-747.200	-200.000	0.060	0.274
-746.185	81.710	0.252	0.277
-745.171	-71.682	0.147	0.056
-744.156	800.000	0.122	0.368
-743.142	-99.973	0.212	0.054
-742.127	-114.599	-0.169	-0.033
-741.112	-14.199	-0.163	-0.107
-740.098	744.195	-0.117	0.320
-739.083	-93.328	-0.265	0.075
-738.069	-92.061	-0.275	0.079
-737.054	800.000	0.077	-0.330
-736.039	-0.489	-0.142	0.103
-735.025	-88.972	0.181	0.055
-734.010	3.222	-0.115	0.085
-732.996	-200.000	-0.012	-0.162
-731.981	795.204	-0.032	0.089
-730.966	-78.157	-0.196	-0.069
-729.952	-161.697	-0.115	-0.006
-728.937	424.714	-0.039	0.086
-727.923	-102.699	-0.132	-0.032
-726.908	127.257	0.045	0.059
-725.894	131.326	0.131	0.171
-724.879	800.000	0.055	-0.171
-723.864	-122.086	0.134	0.022
-722.850	32.924	0.147	-0.130
-721.835	-64.426	0.141	-0.058
-720.821	-200.000	-0.037	-0.184
-719.806	192.452	0.125	-0.191
-718.791	18.871	0.096	-0.078
-717.777	621.415	0.009	0.022
-716.762	324.216	-0.035	0.068
-715.748	-49.013	-0.191	0.093
-714.733	246.962	-0.098	-0.168
-713.718	52.336	-0.034	0.033
-712.704	-6.094	-0.050	-0.035
-711.689	-40.731	-0.294	0.155
-710.675	-200.000	-0.005	-0.133
-709.660	-159.266	0.247	-0.014
-708.645	-61.374	-0.260	0.111
-707.631	292.143	-0.018	0.033
-706.616	336.228	0.135	-0.267
-705.602	-68.596	0.326	0.128
-704.587	-200.000	-0.007	-0.120
-703.572	695.804	0.088	0.234
-702.558	-200.000	0.013	0.335
-701.543	-77.192	-0.145	-0.051
-700.529	-200.000	0.050	-0.384
-699.514	-200.000	-0.007	-0.143
-698.499	85.309	0.123	0.137
-697.485	232.530	-0.096	0.160
-696.470	-155.888	-0.060	0.004
-695.456	-133.374	0.197	0.025
-694.441	60.497	0.078	-0.079
-693.426	-58.839	-0.161	0.071
-692.412	-89.959	0.327	0.097
-691.397	123.278	-0.146	-0.185
-690.383	50.697	0.118	-0.113
-689.368	-117.931	0.224	0.041
-688.354	-77.355	0.209	0.074
-687.339	92.703	0.298	0.341
-686.324	-85.340	0.116	-0.037
-685.310	156.791	0.087	0.122
-684.295	-200.000	0.005	-0.108
-683.281	235.806	0.125	0.210
-682.266	-11.630	0.265	-0.177
-681.251	5.598	-0.023	0.017
-680.237	-200.000	0.017	-0.199
-679.222	-200.000	-0.030	-0.328
-678.208	171.152	0.052	-0.076
-677.193	-123.844	0.201	-0.032
-676.178	-10.627	-0.084	0.056
-675.164	114.779	-0.249	0.308
-674.149	127.236	-0.081	-0.105
-673.135	-36.579	0.026	-0.014
-672.120	-200.000	-0.037	0.251
-671.105	-116.655	0.183	-0.034
-670.091	-79.322	-0.320	0.110
-669.076	800.000	-0.081	0.274
-668.062	19.679	-0.130	-0.106
-667.047	-93.978	-0.332	-0.093
-666.032	-13.610	0.169	0.111
-665.018	800.000	0.069	0.211
-664.003	422.863	0.128	-0.279
-662.989	-117.672	0.066	0.012
-661.974	14.594	-0.077	0.061
-660.959	-84.163	-0.281	0.090
-659.945	-41.014	0.295	-0.155
-658.930	170.848	-0.075	0.109
-657.916	-127.076	-0.133	-0.020
-656.901	-73.259	0.359	-0.133
-655.886	-133.564	0.285	-0.036
-654.872	25.887	-0.101	-0.085
-653.857	-48.318	-0.288	-0.141
-652.843	800.000	-0.118	-0.403
-651.828	-200.000	0.031	0.154
-650.814	-18.089	0.125	0.079
-649.799	-35.173	-0.149	-0.082
-648.784	130.132	0.133	-0.172
-647.770	-200.000	-0.004	-0.078
-646.755	-5.841	0.076	-0.053
-645.741	506.868	0.112	-0.264
-644.726	-7.193	0.277	0.190
-643.711	-48.215	0.089	-0.043
-642.697	40.948	-0.047	0.043
-641.682	-200.000	0.060	-0.343
-640.668	-160.984	0.154	-0.008
-639.653	-115.289	-0.192	0.037
-638.638	0.659	-0.183	0.132
-637.624	-57.988	0.149	0.066
-636.609	426.961	-0.178	0.389
-635.595	-173.007	-0.228	0.007
-634.580	-51.150	0.137	-0.065
-633.565	8.752	0.119	0.091
-632.551	-200.000	-0.022	-0.155
-631.536	-200.000	0.054	-0.265
-630.522	313.635	0.151	0.287
-629.507	91.201	-0.026	0.030
-628.492	129.894	-0.292	0.378
-627.478	255.335	-0.014	-0.024
-626.463	636.286	0.039	0.099
-625.449	34.181	0.201	0.177
-624.434	339.809	-0.068	0.135
-623.419	-94.601	-0.109	0.030
-622.405	-76.635	0.289	0.103
-621.390	-106.632	-0.052	-0.012
-620.376	81.769	0.087	-0.095
-619.361	390.474	0.063	-0.133
-618.346	-45.295	-0.231	-0.116
-617.332	478.676	0.086	-0.196
-616.317	800.000	0.087	-0.265
-615.303	-2.185	0.532	0.378
-614.288	-111.290	0.251	-0.052
-613.273	-75.718	0.147	0.053
-612.259	-12.979	-0.276	0.182
-611.244	-63.834	-0.165	-0.069
-610.230	-200.000	0.022	-0.198
-609.215	107.608	-0.058	-0.070
-608.201	-200.000	0.012	-0.259
-607.186	-61.255	-0.062	-0.026
-606.171	-163.607	-0.204	0.010
-605.157	772.335	0.038	-0.106
-604.142	-160.716	-0.290	0.016
-603.128	8.154	0.087	-0.066
-602.113	49.137	-0.056	-0.053
-601.098	800.000	0.078	0.247
-600.084	-67.161	-0.188	-0.075
-599.069	-100.092	-0.065	-0.016
-598.055	42.611	-0.242	-0.222
-597.040	71.564	-0.235	-0.246
-596.025	6.950	-0.128	0.096
-595.011	46.909	0.040	0.038
-593.996	-123.152	-0.280	-0.045
-592.982	-29.368	-0.299	0.173
-591.967	54.362	-0.268	-0.261
-590.952	-137.328	0.419	0.048
-589.938	800.000	0.053	-0.227
-588.923	247.864	-0.027	-0.046
-587.909	387.790	-0.143	0.299
-586.894	122.058	-0.158	0.199
-585.879	-200.000	-0.028	0.268
-584.865	80.723	-0.135	-0.147
-583.850	800.000	-0.056	-0.174
-582.836	175.466	-0.065	-0.096
-581.821	130.936	-0.130	0.168
-580.806	-89.027	-0.301	0.090
-579.792	-111.378	-0.091	0.019
-578.777	387.404	-0.026	-0.055
-577.763	191.291	-0.175	-0.267
-576.748	-15.055	-0.253	-0.164
-575.733	800.000	0.067	0.202
-574.719	-200.000	0.055	0.541
-573.704	-81.262	0.269	-0.090
-572.690	-200.000	-0.027	-0.312
-571.675	687.859	0.145	-0.384
-570.661	-33.446	-0.215	0.120
-569.646	-19.342	-0.157	-0.098
-568.631	-152.666	0.243	0.018
-567.617	469.681	-0.035	-0.079
-566.602	-200.000	-0.009	-0.402
-565.588	490.106	-0.111	0.255
-564.573	-200.000	0.005	-0.153
-563.558	110.048	-0.209	0.253
-562.544	-68.437	-0.198	-0.078
-561.529	100.184	-0.105	0.123
-560.515	90.415	0.226	-0.255
-559.500	-200.000	-0.052	0.000
-558.485	-69.666	-0.282	-0.109
-557.471	-66.622	0.070	-0.028
-556.456	-23.429	-0.307	0.186
-555.442	-69.201	-0.343	-0.133
-554.427	-61.561	0.197	-0.083
-553.412	86.122	-0.251	-0.279
-552.398	306.579	-0.130	0.245
-551.383	800.000	0.040	-0.123
-550.369	141.646	-0.046	-0.062
-549.354	5.833	0.153	-0.115
-548.339	416.842	-0.149	-0.321
-547.325	351.297	0.010	0.020
-546.310	-200.000	-0.071	-0.343
-545.296	-43.078	0.059	-0.030
-544.281	150.556	0.130	-0.178
-543.266	-200.000	0.064	-0.324
-542.252	-93.482	0.439	0.123
-541.237	-199.173	0.223	-0.001
-540.223	74.200	0.202	-0.214
-539.208	800.000	-0.043	-0.158
-538.193	-16.271	0.144	0.093
-537.179	-66.952	-0.333	0.133
-536.164	40.459	-0.201	0.183
-535.150	-13.577	-0.071	0.047
-534.135	-200.000	-0.032	-0.192
-533.121	-200.000	-0.010	0.172
-532.106	-30.409	0.340	0.194
-531.091	256.094	0.039	-0.067
-530.077	123.746	-0.146	0.185
-529.062	-108.841	0.337	0.073
-528.048	36.822	0.100	0.089
-527.033	41.254	-0.223	0.203
-526.018	-47.885	-0.148	0.072
-525.004	480.924	0.086	-0.196
-523.989	-104.918	-0.261	0.060
-522.975	-200.000	-0.017	-0.138
-521.960	800.000	-0.029	0.123
-520.945	155.396	-0.051	0.071
-519.931	647.008	-0.053	-0.138
-518.916	113.324	0.048	0.058
-517.902	310.842	-0.079	0.149
-516.887	639.550	0.110	-0.282
-515.872	-200.000	0.064	-0.313
-514.858	-200.000	0.018	-0.152
-513.843	-153.712	-0.332	-0.023
-512.829	-200.000	-0.048	-0.256
-511.814	217.048	-0.063	-0.101
-510.799	56.184	-0.027	-0.026
-509.785	242.984	0.040	-0.067
-508.770	367.729	-0.114	-0.232
-507.756	174.420	0.112	0.163
-506.741	420.941	-0.103	-0.223
-505.726	800.000	0.072	-0.313
-504.712	-109.229	0.300	0.064
-503.697	800.000	0.093	0.297
-502.683	16.590	-0.057	-0.046
-501.668	800.000	-0.035	-0.101
-500.653	-14.747	0.336	-0.217
-499.639	85.832	0.104	0.115
-498.624	670.848	0.017	-0.045
-497.610	-200.000	0.007	-0.102
-496.595	-200.000	-0.033	-0.217
-495.581	-161.468	-0.423	0.022
-494.566	-200.000	-0.026	-0.135
-493.551	-200.000	-0.000	-0.091
-492.537	-131.476	0.334	0.044
-491.522	32.418	0.044	-0.038
-490.508	-127.682	0.474	0.069
-489.493	-125.665	-0.119	-0.018
-488.478	163.670	-0.164	0.233
-487.464	317.271	0.205	0.391
-486.449	13.538	0.096	0.075
-485.435	372.621	-0.045	0.091
-484.420	105.195	0.254	0.302
-483.405	-29.763	-0.040	-0.023
-482.391	150.821	0.142	-0.194
-481.376	227.610	-0.166	0.273
-480.362	9.469	-0.111	0.085
-479.347	-83.403	0.209	-0.067
-478.332	222.751	0.017	-0.028
-477.318	-24.012	-0.121	-0.073
-476.303	238.046	0.124	-0.207
-475.289	250.946	-0.221	-0.378
-474.274	-39.923	-0.171	-0.090
-473.259	182.559	-0.069	-0.103
-472.245	-55.279	-0.118	0.053
-471.230	-147.172	0.389	-0.033
-470.216	-134.070	-0.153	-0.019
-469.201	-135.462	-0.326	0.039
-468.186	-72.066	0.272	-0.102
-467.172	-200.000	-0.044	-0.283
-466.157	147.138	-0.166	-0.224
-465.143	494.823	-0.127	-0.294
-464.128	57.343	-0.173	0.170
-463.113	800.000	0.052	-0.155
-462.099	-200.000	-0.007	-0.302
-461.084	546.720	0.076	-0.183
-460.070	208.007	0.073	0.114
-459.055	-39.544	0.060	0.032
-458.040	85.943	-0.147	-0.162
-457.026	-14.027	0.101	0.065
-456.011	129.975	-0.135	0.173
-454.997	287.178	-0.111	0.201
-453.982	392.814	0.023	-0.048
-452.968	800.000	0.110	0.374
-451.953	251.362	-0.142	0.243
-450.938	379.133	-0.108	0.223
-449.924	37.829	-0.117	0.104
-448.909	-83.744	0.283	0.091
-447.895	25.262	-0.065	0.054
-446.880	-43.947	0.271	0.137
-445.865	97.364	0.398	0.460
-444.851	-168.702	0.187	0.007
-443.836	-163.127	-0.251	0.012
-442.822	269.550	-0.133	-0.235
-441.807	-200.000	0.012	0.105
-440.792	106.293	-0.160	0.190
-439.778	364.794	0.118	-0.238
-438.763	35.338	0.142	-0.125
-437.749	-17.368	-0.331	-0.209
-436.734	800.000	-0.080	-0.258
-435.719	800.000	-0.032	-0.090
-434.705	800.000	0.068	0.255
-433.690	103.036	0.206	0.242
-432.676	-135.942	-0.099	-0.012
-431.661	-148.106	0.171	-0.014
-430.646	-64.704	-0.232	0.094
-429.632	-11.125	0.097	0.064
-428.617	-200.000	0.007	-0.235
-427.603	-63.310	-0.040	0.017
-426.588	-107.932	0.045	0.010
-425.573	-52.960	0.100	0.046
-424.559	800.000	-0.116	0.393
-423.544	-37.446	-0.303	-0.163
-422.530	800.000	0.068	-0.212
-421.515	723.534	-0.023	-0.062
-420.500	40.658	-0.159	0.144
-419.486	-200.000	0.022	0.309
-418.471	800.000	-0.020	0.079
-417.457	-200.000	0.057	0.385
-416.442	297.310	0.038	0.071
-415.428	-93.219	-0.555	0.155
-414.413	648.125	0.106	0.272
-413.398	-163.636	-0.454	0.021
-412.384	-200.000	-0.033	-0.262
-411.369	-200.000	-0.041	0.202
-410.355	-96.852	0.141	-0.037
-409.340	345.976	-0.098	-0.194
-408.325	-156.181	0.239	-0.015
-407.311	619.539	0.085	0.215
-406.296	-94.611	0.169	0.046
-405.282	-128.892	-0.325	-0.046
-404.267	-14.971	-0.164	0.105
-403.252	-37.640	-0.157	-0.084
-402.238	192.165	-0.143	-0.217
-401.223	-77.911	0.299	0.103
-400.209	-200.000	0.043	-0.276
-399.194	800.000	-0.015	0.052
-398.179	128.185	0.280	0.358
-397.165	532.771	-0.041	-0.098
-396.150	-60.084	0.238	-0.102
-395.136	-17.221	0.133	-0.084
-394.121	-200.000	-0.008	-0.050
-393.106	-30.902	-0.314	-0.178
-392.092	-11.525	-0.085	0.056
-391.077	-155.711	0.171	0.011
-390.063	135.147	-0.100	-0.131
-389.048	-59.955	-0.241	0.103
-388.033	-82.998	0.129	-0.042
-387.019	63.311	0.051	0.051
-386.004	800.000	0.041	-0.133
-384.990	-200.000	-0.030	-0.202
-383.975	60.845	-0.204	-0.203
-382.960	131.777	-0.132	0.171
-381.946	800.000	0.021	0.073
-380.931	17.496	0.202	0.161
-379.917	19.939	-0.366	0.296
-378.902	800.000	-0.146	-0.495
-377.888	16.565	-0.090	-0.072
-376.873	282.942	-0.070	0.126
-375.858	254.123	-0.080	-0.138
-374.844	-120.284	-0.125	-0.021
-373.829	231.567	-0.183	0.300
-372.815	417.323	-0.150	0.321
-371.800	250.431	-0.080	-0.137
-370.785	79.656	0.229	0.246
-369.771	194.748	-0.069	-0.105
-368.756	-200.000	0.001	-0.094
-367.742	72.440	0.155	0.162
-366.727	110.603	0.100	-0.120
-365.712	800.000	0.018	-0.060
-364.698	-118.651	-0.113	-0.020
-363.683	26.063	0.057	-0.048
-362.669	38.919	0.143	-0.128
-361.654	33.868	0.173	-0.151
-360.639	-58.152	0.356	0.155
-359.625	-76.845	-0.218	-0.076
-358.610	795.788	-0.032	-0.088
-357.596	-112.378	-0.468	0.094
-356.581	109.958	0.175	-0.210
-355.566	-13.003	0.142	0.093
-354.552	519.225	-0.171	0.402
-353.537	95.479	-0.055	0.062
-352.523	-76.523	-0.340	0.120
-351.508	-149.682	0.224	0.018
-350.493	-78.535	-0.273	0.094
-349.479	106.257	0.113	0.134
-348.464	-4.332	0.198	-0.137
-347.450	-58.423	-0.137	-0.059
-346.435	197.012	-0.099	0.151
-345.420	-200.000	0.092	0.403
-344.406	293.435	-0.129	0.235
-343.391	-200.000	0.021	-0.298
-342.377	234.506	0.081	-0.134
-341.362	200.616	-0.273	-0.420
-340.348	-75.808	0.392	-0.139
-339.333	105.758	0.130	-0.154
-338.318	-108.699	-0.428	0.092
-337.304	54.141	0.428	0.412
-336.289	37.418	0.161	0.143
-335.275	130.756	0.167	0.215
-334.260	457.391	-0.142	0.316
-333.245	85.768	0.073	0.081
-332.231	800.000	0.096	-0.298
-331.216	-200.000	0.066	-0.331
-330.202	131.245	-0.084	-0.108
-329.187	184.549	-0.128	-0.190
-328.172	483.525	0.048	-0.110
-327.158	471.869	-0.075	0.169
-326.143	-123.188	-0.278	-0.045
-325.129	6.290	0.155	-0.115
-324.114	800.000	-0.080	0.297
-323.099	-30.872	0.187	0.106
-322.085	800.000	-0.049	0.142
-321.070	252.465	0.055	0.093
-320.056	-110.229	0.428	-0.089
-319.041	-72.005	0.174	-0.065
-318.026	800.000	-0.093	-0.264
-317.012	37.676	0.154	-0.137
-315.997	-172.142	-0.185	-0.006
-314.983	184.917	0.149	0.221
-313.968	-3.622	0.140	0.097
-312.953	800.000	0.134	0.372
-311.939	800.000	0.061	-0.257
-310.924	-200.000	0.020	0.090
-309.910	56.651	0.290	-0.283
-308.895	-7.935	-0.182	-0.122
-307.880	149.035	-0.080	-0.108
-306.866	800.000	-0.035	-0.147
-305.851	-179.274	0.066	0.001
-304.837	523.007	-0.018	0.042
-303.822	-90.087	0.214	-0.062
-302.807	-200.000	0.033	-0.225
-301.793	-102.439	-0.054	-0.013
-300.778	8.729	-0.084	0.064
-299.764	-200.000	0.029	-0.230
-298.749	-42.159	0.079	-0.040
-297.735	-105.808	-0.361	-0.081
-296.720	-166.196	-0.077	-0.003
-295.705	-165.725	0.200	-0.009
-294.691	-26.074	-0.031	0.018
-293.676	266.448	-0.161	0.282
-292.662	261.890	-0.131	0.226
-291.647	437.460	0.157	0.342
-290.632	50.968	-0.169	0.160
-289.618	69.168	0.168	0.173
-288.603	104.183	0.146	-0.172
-287.589	34.768	-0.339	0.296
-286.574	-200.000	0.055	-0.252
-285.559	149.563	0.093	-0.126
-284.545	23.938	0.116	-0.096
-283.530	105.990	0.086	0.102
-282.516	570.285	0.130	0.315
-281.501	-35.058	-0.155	0.084
-280.486	62.521	0.156	-0.156
-279.472	222.571	0.285	0.459
-278.457	-24.257	0.094	-0.056
-277.443	-71.021	-0.164	-0.062
-276.428	268.560	0.048	-0.084
-275.413	800.000	0.013	-0.046
-274.399	42.682	0.103	0.094
-273.384	-128.355	0.063	-0.009
-272.370	-13.617	0.234	-0.151
-271.355	-43.672	-0.042	0.021
-270.340	14.709	0.153	0.120
-269.326	77.581	0.234	0.249
-268.311	800.000	-0.084	0.364
-267.297	110.210	-0.007	0.009
-266.282	-33.755	-0.282	0.155
-265.267	-200.000	0.023	-0.141
-264.253	-107.852	0.078	0.017
-263.238	800.000	-0.033	-0.130
-262.224	-200.000	-0.400	0.001
-261.209	800.000	0.087	-0.247
-260.195	-47.252	-0.297	-0.144
-259.180	238.154	0.116	-0.192
-258.165	715.683	-0.038	-0.101
-257.151	-8.569	-0.040	0.027
-256.136	481.771	0.031	-0.070
-255.122	184.129	-0.106	0.157
-254.107	107.701	0.121	0.144
-253.092	28.835	0.139	-0.117
-252.078	248.210	-0.073	-0.124
-251.063	-22.196	-0.103	0.062
-250.049	800.000	-0.006	0.021
-249.034	-200.000	0.015	0.238
-248.019	-200.000	-0.013	-0.182
-247.005	198.297	0.138	-0.211
-245.990	-32.222	-0.191	-0.106
-244.976	14.673	0.271	-0.211
-243.961	527.151	-0.079	0.187
-242.946	-152.608	0.229	-0.016
-241.932	-25.494	-0.158	-0.093
-240.917	470.561	0.080	0.180
-239.903	-28.671	0.343	-0.197
-238.888	-200.000	0.037	0.218
-237.873	-200.000	-0.022	0.150
-236.859	-169.704	-0.124	-0.004
-235.844	-32.058	-0.205	0.114
-234.830	30.437	0.245	-0.209
-233.815	-81.960	0.308	-0.100
-232.800	800.000	0.113	0.335
-231.786	-106.671	-0.166	-0.037
-230.771	-71.364	0.215	-0.080
-229.757	300.797	0.129	-0.237
-228.742	-200.000	0.006	-0.395
-227.727	-12.257	0.199	-0.129
-226.713	-200.000	-0.028	-0.240
-225.698	-177.417	0.369	0.009
-224.684	7.570	-0.262	0.195
-223.669	489.434	0.095	-0.217
-222.655	-68.986	0.213	0.082
-221.640	-98.958	-0.187	0.047
-220.625	-77.270	0.326	0.113
-219.611	-100.363	0.204	0.050
-218.596	-53.266	0.092	0.042
-217.582	33.035	0.201	-0.174
-216.567	-200.000	0.034	-0.321
-215.552	-109.058	0.026	-0.005
-214.538	397.178	0.082	-0.170
-213.523	-123.762	0.007	-0.001
-212.509	-125.451	-0.095	0.014
-211.494	625.205	-0.118	-0.295
-210.479	-9.363	0.181	-0.120
-209.465	-200.000	0.016	0.171
-208.450	-41.254	0.611	0.313
-207.436	-107.544	0.214	0.047
-206.421	224.186	0.104	-0.167
-205.406	98.887	0.212	0.244
-204.392	-141.195	0.205	-0.021
-203.377	-108.446	0.230	0.049
-202.363	188.000	-0.202	-0.301
-201.348	555.450	-0.071	0.169
-200.333	396.843	0.113	0.235
-199.319	54.188	-0.210	0.201
-198.304	-86.155	0.046	-0.014
-197.290	149.283	-0.263	0.354
-196.275	434.405	0.209	0.453
-195.260	69.187	-0.236	0.241
-194.246	-16.921	-0.142	-0.089
-193.231	-114.792	-0.605	0.115
-192.217	-127.872	0.167	0.024
-191.202	-200.000	-0.018	0.216
-190.187	669.360	-0.102	-0.262
-189.173	800.000	-0.063	0.188
-188.158	800.000	0.117	0.364
-187.144	-76.834	0.163	-0.057
-186.129	185.046	0.037	-0.054
-185.114	-169.638	-0.025	0.001
-184.100	215.503	-0.119	0.188
-183.085	151.426	0.090	-0.122
-182.071	-200.000	-0.030	0.165
-181.056	66.951	-0.116	0.118
-180.042	549.611	0.084	-0.201
-179.027	-113.853	-0.146	0.028
-178.012	7.216	-0.266	-0.197
-176.998	10.599	0.149	-0.113
-175.983	74.639	-0.003	0.003
-174.969	103.130	0.183	-0.214
-173.954	-83.949	0.170	0.054
-172.939	-110.255	-0.164	0.034
-171.925	433.440	-0.066	0.143
-170.910	-7.919	-0.242	0.162
-169.896	419.546	-0.135	0.288
-168.881	800.000	0.048	0.140
-167.866	-62.842	0.160	0.066
-166.852	-44.449	0.250	-0.124
-165.837	-200.000	0.525	-0.001
-164.823	44.510	-0.123	-0.112
-163.808	344.570	0.054	-0.105
-162.793	90.844	-0.155	0.173
-161.779	36.960	0.026	0.023
-160.764	2.955	-0.249	0.180
-159.750	-116.634	0.036	0.007
-158.735	-97.705	0.053	-0.014
-157.720	-200.000	-0.082	-0.000
-156.706	-200.000	-0.041	0.278
-155.691	-13.045	-0.335	-0.217
-154.677	-42.870	0.309	0.156
-153.662	5.515	0.099	0.073
-152.647	-30.719	0.218	0.122
-151.633	-169.226	-0.335	-0.012
-150.618	-135.785	0.374	-0.044
-149.604	-10.890	-0.169	-0.111
-148.589	-42.258	0.313	0.159
-147.574	-161.930	-0.351	0.018
-146.560	-93.687	-0.187	0.051
-145.545	121.114	0.192	0.237
-144.531	800.000	-0.086	0.311
-143.516	34.463	-0.169	0.146
-142.502	238.169	0.097	0.160
-141.487	-200.000	-0.160	0.712
-140.472	149.650	0.054	-0.073
-139.458	800.000	0.126	-0.396
-138.443	323.457	0.023	0.044
-137.429	348.296	0.075	0.147
-136.414	-200.000	0.005	0.246
-135.399	800.000	0.086	0.343
-134.385	7.553	0.066	0.049
-133.370	-95.799	-0.279	-0.074
-132.356	184.472	-0.161	0.236
-131.341	108.009	0.325	-0.385
-130.326	170.324	0.116	-0.165
-129.312	-188.794	-0.185	-0.002
-128.297	-66.285	0.161	-0.064
-127.283	-126.564	0.255	-0.038
-126.268	598.353	-0.060	0.147
-125.253	800.000	0.026	-0.095
-124.239	-36.730	0.078	0.041
-123.224	800.000	0.050	0.175
-122.210	-57.562	-0.080	0.035
-121.195	-95.307	0.123	-0.033
-120.180	-45.522	0.328	0.161
