DTS Sentinel unit serial number:	SN413079Multiplexer serial number:	ORYXHardware model number:	OX4-SRSoftware version number:	ORYX F/W v4.00 Oryx Data Collector v3.7.2.0data status	okinstallation	princeton_trtdifferential loss correction	single-endedforward channel	channel 2reverse channel	N/Adate	2019/09/11time	13:41:11forward acquisition time	60.00reverse acquisition time	0.00gamma	496.2192k internal	0.2292k external	0.2292temperature offset calibration	1.0008default loss term (dB/km)	0.3790temperature slope calibration	1.0000multiplexer offset coefficient	1.0000multiplexer slope coefficient	1.0000fibre end	0.00T internal ref (°C)	41.92T ext. ref 1 (°C)	0.84T ext. ref 2 (°C)	36.85length (m)	temperature (°C)	Stokes	anti-Stokes-747.200	800.000	0.062	-0.244
-746.185	-106.077	-0.037	0.008
-745.171	-135.278	-0.323	-0.040
-744.156	202.486	0.156	0.246
-743.142	585.828	-0.042	-0.105
-742.127	-39.138	-0.213	0.115
-741.112	-200.000	0.011	0.353
-740.098	-10.175	-0.091	-0.062
-739.083	-59.641	-0.086	0.038
-738.069	50.965	0.258	0.251
-737.054	-27.723	-0.428	0.254
-736.039	-152.785	0.276	-0.020
-735.025	-200.000	0.036	0.273
-734.010	800.000	-0.038	-0.133
-732.996	-42.177	-0.236	0.124
-731.981	144.131	0.129	0.176
-730.966	-55.827	0.172	0.079
-729.952	-33.380	-0.185	0.105
-728.937	227.251	-0.149	0.248
-727.923	89.331	-0.132	-0.151
-726.908	102.343	0.070	0.084
-725.894	134.889	-0.148	-0.197
-724.879	-200.000	0.015	0.143
-723.864	75.894	-0.160	-0.173
-722.850	87.790	0.158	0.179
-721.835	-200.000	-0.073	-0.490
-720.821	302.780	-0.141	0.267
-719.806	-67.089	0.177	-0.071
-718.791	89.914	-0.375	-0.428
-717.777	-83.793	-0.257	0.084
-716.762	-8.817	-0.307	0.210
-715.748	-200.000	0.015	-0.079
-714.733	-200.000	-0.012	0.121
-713.718	71.434	-0.192	0.204
-712.704	630.294	-0.138	-0.356
-711.689	43.224	-0.160	0.149
-710.675	212.396	-0.077	-0.124
-709.660	189.561	0.061	0.093
-708.645	-55.826	0.072	-0.033
-707.631	-200.000	-0.028	0.165
-706.616	-6.085	0.441	-0.308
-705.602	-71.372	0.230	0.088
-704.587	-200.000	-0.064	-0.462
-703.572	-55.926	-0.233	0.106
-702.558	396.486	0.110	-0.234
-701.543	-85.447	-0.128	-0.041
-700.529	-69.958	-0.105	0.041
-699.514	207.101	0.190	-0.303
-698.499	-200.000	-0.010	-0.157
-697.485	-64.266	0.085	0.035
-696.470	-52.618	-0.252	-0.119
-695.456	-134.999	-0.147	-0.018
-694.441	-69.346	0.128	0.050
-693.426	-59.910	-0.039	-0.017
-692.412	800.000	0.052	0.194
-691.397	-58.206	0.177	-0.079
-690.383	-43.602	0.112	-0.058
-689.368	-200.000	-0.013	-0.225
-688.354	237.399	0.064	0.108
-687.339	-114.144	0.111	0.022
-686.324	140.591	-0.204	-0.274
-685.310	-132.204	0.227	-0.030
-684.295	71.187	-0.126	0.134
-683.281	174.352	-0.066	0.098
-682.266	22.926	0.039	0.033
-681.251	-60.216	0.305	0.133
-680.237	-200.000	0.034	-0.273
-679.222	-200.000	0.005	-0.189
-678.208	-122.623	-0.300	0.050
-677.193	-127.010	-0.180	-0.027
-676.178	117.105	0.210	0.264
-675.164	-61.995	0.253	0.108
-674.149	38.445	-0.054	-0.049
-673.135	253.593	0.090	-0.157
-672.120	-62.189	0.152	0.065
-671.105	-64.068	0.123	-0.051
-670.091	-200.000	-0.029	-0.195
-669.076	67.791	-0.164	-0.171
-668.062	183.094	-0.178	0.269
-667.047	288.752	0.064	-0.119
-666.032	31.847	0.398	-0.350
-665.018	-83.319	-0.258	-0.084
-664.003	225.757	-0.169	0.280
-662.989	346.632	-0.133	0.268
-661.974	-28.310	-0.083	-0.049
-660.959	800.000	0.121	-0.385
-659.945	41.429	-0.195	-0.180
-658.930	-200.000	-0.070	-0.387
-657.916	800.000	-0.027	-0.115
-656.901	500.503	0.051	-0.119
-655.886	80.484	-0.112	-0.123
-654.872	800.000	-0.033	0.106
-653.857	336.315	-0.035	0.070
-652.843	-138.551	-0.412	0.046
-651.828	304.371	-0.104	-0.198
-650.814	800.000	-0.110	0.344
-649.799	800.000	0.023	-0.078
-648.784	25.265	0.309	-0.261
-647.770	-104.536	0.253	0.060
-646.755	-23.579	-0.359	-0.220
-645.741	-87.946	-0.236	-0.072
-644.726	-178.706	0.230	-0.005
-643.711	-61.644	0.165	-0.071
-642.697	800.000	-0.020	0.071
-641.682	286.506	0.192	0.354
-640.668	7.132	0.164	-0.125
-639.653	-31.469	0.149	-0.085
-638.638	-20.836	0.086	-0.054
-637.624	50.000	-0.289	-0.278
-636.609	-102.131	0.256	-0.063
-635.595	163.559	-0.187	-0.268
-634.580	2.492	-0.293	-0.217
-633.565	-108.711	-0.408	0.089
-632.551	-9.642	-0.159	0.108
-631.536	28.979	-0.078	-0.068
-630.522	-43.194	0.210	0.108
-629.507	-70.225	0.163	-0.063
-628.492	-139.803	-0.415	-0.045
-627.478	-1.796	0.200	-0.144
-626.463	-200.000	0.001	-0.056
-625.449	-1.179	0.147	0.106
-624.434	155.933	0.023	0.032
-623.419	26.514	0.261	-0.222
-622.405	67.680	0.036	-0.038
-621.390	-65.223	0.091	-0.037
-620.376	-143.525	-0.152	-0.015
-619.361	-67.529	-0.284	-0.114
-618.346	-200.000	0.027	-0.284
-617.332	336.210	0.101	0.199
-616.317	-35.105	-0.109	0.061
-615.303	800.000	0.084	-0.355
-614.288	-127.536	-0.196	-0.029
-613.273	-50.147	-0.243	0.117
-612.259	103.059	-0.072	0.085
-611.244	-167.373	-0.511	-0.021
-610.230	-63.743	-0.122	0.051
-609.215	-200.000	0.004	-0.054
-608.201	-155.734	0.390	-0.025
-607.186	-25.496	-0.388	0.233
-606.171	-143.389	-0.086	-0.008
-605.157	-34.789	0.217	0.120
-604.142	144.134	0.176	-0.239
-603.128	504.438	-0.060	-0.142
-602.113	-178.698	-0.326	-0.008
-601.098	797.403	0.055	0.154
-600.084	14.735	0.200	-0.159
-599.069	-71.002	0.333	-0.127
-598.055	395.433	0.171	0.362
-597.040	800.000	0.084	-0.256
-596.025	562.645	0.069	-0.170
-595.011	800.000	-0.163	-0.487
-593.996	-200.000	-0.262	-0.001
-592.982	-12.305	0.303	-0.201
-591.967	-124.852	0.220	-0.034
-590.952	362.509	0.145	0.295
-589.938	3.909	0.034	0.026
-588.923	-37.735	-0.213	-0.115
-587.909	207.047	0.198	0.315
-586.894	169.595	-0.030	-0.043
-585.879	-147.572	0.246	-0.021
-584.865	82.033	-0.219	-0.242
-583.850	202.718	-0.175	-0.275
-582.836	90.884	-0.095	0.109
-581.821	-117.218	-0.039	0.007
-580.806	-148.740	0.074	0.006
-579.792	-21.157	0.199	0.124
-578.777	131.924	0.049	0.064
-577.763	52.497	0.352	0.342
-576.748	341.076	0.043	0.086
-575.733	539.686	-0.069	-0.166
-574.719	43.669	0.251	-0.234
-573.704	236.471	-0.076	0.128
-572.690	323.350	0.085	0.164
-571.675	-149.491	0.107	-0.009
-570.661	37.032	-0.249	-0.224
-569.646	12.678	0.210	0.165
-568.631	214.032	-0.060	0.096
-567.617	25.598	-0.239	0.202
-566.602	267.614	-0.078	0.138
-565.588	91.575	-0.145	0.166
-564.573	-37.304	0.329	-0.178
-563.558	-200.000	0.026	0.176
-562.544	800.000	-0.049	0.172
-561.529	526.057	-0.092	0.220
-560.515	-110.477	0.213	0.045
-559.500	-183.421	0.515	-0.009
-558.485	-129.054	0.095	0.014
-557.471	79.173	0.144	-0.157
-556.456	-200.000	-0.131	-0.000
-555.442	800.000	0.100	-0.314
-554.427	-200.000	-0.016	0.322
-553.412	345.311	-0.140	0.279
-552.398	133.721	0.076	0.100
-551.383	-96.797	0.094	-0.025
-550.369	-9.448	0.277	-0.188
-549.354	-75.095	-0.216	0.078
-548.339	-200.000	0.013	-0.145
-547.325	178.649	-0.211	0.313
-546.310	-60.851	0.199	0.085
-545.296	614.271	-0.028	0.070
-544.281	-200.000	-0.020	0.198
-543.266	-105.881	0.567	0.130
-542.252	-40.307	0.237	-0.125
-541.237	50.820	0.173	0.166
-540.223	-106.849	0.206	-0.046
-539.208	16.759	0.030	0.024
-538.193	800.000	0.020	0.066
-537.179	800.000	0.022	0.082
-536.164	33.624	0.208	0.184
-535.150	-168.610	0.055	-0.002
-534.135	-165.796	-0.197	-0.009
-533.121	-69.473	0.326	0.127
-532.106	143.457	-0.167	-0.226
-531.091	340.163	0.100	-0.198
-530.077	-200.000	0.018	0.422
-529.062	153.442	-0.078	0.109
-528.048	-62.089	-0.147	0.062
-527.033	192.991	0.143	0.219
-526.018	37.729	0.059	-0.053
-525.004	47.146	-0.012	-0.011
-523.989	800.000	0.086	-0.269
-522.975	345.904	-0.027	-0.053
-521.960	-66.854	-0.213	-0.085
-520.945	114.461	0.116	0.143
-519.931	-200.000	0.012	0.482
-518.916	465.395	-0.163	-0.369
-517.902	311.089	0.130	0.248
-516.887	-5.094	-0.254	0.177
-515.872	-54.423	-0.162	0.074
-514.858	-124.136	0.146	-0.023
-513.843	-191.821	-0.089	-0.001
-512.829	-64.081	0.579	-0.240
-511.814	-200.000	0.059	0.356
-510.799	18.817	0.195	0.158
-509.785	295.988	0.103	-0.191
-508.770	228.654	-0.060	0.100
-507.756	-60.764	0.272	0.117
-506.741	-12.918	-0.144	-0.095
-505.726	-200.000	-0.010	-0.077
-504.712	-46.690	0.256	-0.127
-503.697	46.550	-0.333	-0.314
-502.683	-124.595	-0.202	0.032
-501.668	453.311	-0.161	-0.361
-500.653	67.792	0.237	-0.246
-499.639	800.000	0.053	-0.233
-498.624	-200.000	0.067	-0.390
-497.610	-200.000	0.020	-0.257
-496.595	-63.612	-0.297	0.124
-495.581	-93.486	-0.111	-0.031
-494.566	68.569	-0.081	-0.085
-493.551	800.000	0.071	-0.303
-492.537	-106.098	0.159	-0.036
-491.522	567.053	-0.049	-0.122
-490.508	-188.788	0.225	0.003
-489.493	-200.000	-0.035	-0.197
-488.478	-76.450	-0.320	-0.114
-487.464	-42.099	-0.349	0.181
-486.449	53.662	-0.158	-0.154
-485.435	218.949	-0.170	-0.276
-484.420	-77.106	-0.101	0.036
-483.405	-200.000	-0.019	-0.133
-482.391	-76.338	-0.105	0.038
-481.376	342.815	0.062	0.123
-480.362	-42.476	-0.158	0.082
-479.347	11.277	-0.081	-0.062
-478.332	800.000	0.108	0.326
-477.318	21.392	0.144	-0.119
-476.303	553.162	0.086	0.209
-475.289	-102.171	-0.093	-0.023
-474.274	-200.000	0.004	-0.079
-473.259	451.299	-0.099	-0.222
-472.245	-140.882	0.349	-0.036
-471.230	800.000	0.043	-0.146
-470.216	800.000	0.075	0.257
-469.201	43.648	0.052	0.049
-468.186	129.392	-0.139	0.180
-467.172	-154.270	0.089	0.006
-466.157	203.975	0.155	0.243
-465.143	117.507	-0.093	0.115
-464.128	-200.000	-0.022	0.191
-463.113	-200.000	-0.022	0.129
-462.099	519.417	0.074	0.175
-461.084	84.583	-0.080	0.089
-460.070	800.000	0.014	0.054
-459.055	-59.955	0.213	-0.092
-458.040	-200.000	-0.057	-0.266
-457.026	-82.644	-0.132	0.043
-456.011	-75.578	-0.106	0.038
-454.997	61.078	-0.131	-0.131
-453.982	381.110	0.133	-0.276
-452.968	-34.447	-0.127	-0.070
-451.953	-40.658	-0.238	0.125
-450.938	-200.000	0.010	-0.098
-449.924	800.000	0.010	0.033
-448.909	650.653	0.168	-0.435
-447.895	-38.628	-0.162	-0.087
-446.880	300.997	-0.066	-0.123
-445.865	-7.211	0.277	0.190
-444.851	14.474	0.200	0.158
-443.836	141.438	-0.094	0.125
-442.822	-43.129	-0.179	0.092
-441.807	-100.395	-0.193	-0.048
-440.792	46.163	-0.094	-0.088
-439.778	102.130	0.193	0.228
-438.763	-97.274	0.289	-0.076
-437.749	-59.849	0.108	-0.047
-436.734	-200.000	-0.005	0.149
-435.719	-200.000	0.016	-0.264
-434.705	195.173	-0.026	0.039
-433.690	-23.201	-0.260	0.158
-432.676	-21.085	0.134	0.083
-431.661	-62.782	-0.058	0.024
-430.646	426.860	0.081	0.178
-429.632	-111.397	-0.108	0.022
-428.617	698.025	-0.170	-0.451
-427.603	186.618	0.107	0.161
-426.588	32.173	-0.139	0.121
-425.573	220.831	0.302	0.489
-424.559	649.827	0.017	0.044
-423.544	-50.323	0.162	0.077
-422.530	-200.000	0.001	0.038
-421.515	-117.633	-0.269	0.049
-420.500	400.495	-0.135	0.287
-419.486	182.869	0.125	-0.186
-418.471	-200.000	0.007	-0.280
-417.457	-200.000	-0.039	-0.195
-416.442	-53.891	-0.254	-0.117
-415.428	-200.000	-0.016	-0.105
-414.413	-200.000	-0.054	-0.300
-413.398	740.137	-0.134	0.363
-412.384	-15.226	-0.185	0.120
-411.369	-70.266	0.015	-0.006
-410.355	-200.000	0.007	-0.088
-409.340	-130.439	0.224	-0.031
-408.325	-129.636	0.520	-0.073
-407.311	579.626	0.095	0.234
-406.296	228.985	-0.137	0.225
-405.282	32.668	-0.183	-0.160
-404.267	-114.455	0.214	0.042
-403.252	-32.942	0.262	-0.147
-402.238	-200.000	-0.024	0.265
-401.223	-96.410	-0.075	0.020
-400.209	-35.681	0.277	-0.151
-399.194	159.040	0.089	0.125
-398.179	340.599	0.072	-0.142
-397.165	353.958	0.147	0.294
-396.150	675.243	0.071	0.187
-395.136	-38.605	0.328	-0.175
-394.121	64.069	0.230	-0.233
-393.106	430.154	-0.212	-0.463
-392.092	-200.000	0.007	-0.189
-391.077	64.246	-0.033	-0.034
-390.063	-95.219	-0.089	-0.024
-389.048	47.278	0.105	0.099
-388.033	-114.434	0.174	-0.034
-387.019	-200.000	-0.001	0.048
-386.004	-60.233	-0.075	-0.032
-384.990	207.015	-0.060	-0.095
-383.975	136.217	0.115	-0.151
-382.960	-36.744	0.161	0.087
-381.946	271.681	0.036	-0.064
-380.931	64.230	0.113	-0.115
-379.917	-200.000	0.038	-0.312
-378.902	-35.437	-0.077	0.042
-377.888	78.441	0.206	0.222
-376.873	-200.000	0.065	-0.378
-375.858	-111.707	0.248	0.051
-374.844	408.044	-0.032	0.068
-373.829	321.492	0.191	0.367
-372.815	-155.968	-0.233	0.015
-371.800	-122.176	0.102	-0.017
-370.785	163.122	-0.250	-0.354
-369.771	-185.714	-0.078	-0.001
-368.756	179.508	0.222	-0.328
-367.742	-200.000	0.048	0.316
-366.727	-200.000	-0.017	-0.152
-365.712	-90.573	-0.115	0.034
-364.698	14.885	-0.222	0.175
-363.683	-70.216	-0.134	0.051
-362.669	-200.000	0.032	-0.150
-361.654	800.000	0.079	0.345
-360.639	800.000	0.022	0.073
-359.625	-200.000	-0.031	0.250
-358.610	-71.510	-0.046	0.017
-357.596	147.594	-0.101	0.137
-356.581	-200.000	-0.013	-0.349
-355.566	133.822	-0.294	0.384
-354.552	-143.942	-0.133	-0.013
-353.537	608.740	-0.218	0.548
-352.523	-138.912	0.286	-0.031
-351.508	-164.407	-0.303	0.014
-350.493	34.250	-0.093	0.082
-349.479	-37.720	0.278	-0.149
-348.464	723.946	-0.126	-0.338
-347.450	-157.273	-0.331	-0.020
-346.435	-200.000	0.005	0.035
-345.420	-200.000	-0.050	0.331
-344.406	-200.000	-0.015	0.266
-343.391	-38.533	-0.158	0.084
-342.377	3.832	-0.378	-0.278
-341.362	-65.148	0.244	0.099
-340.348	44.389	-0.089	0.082
-339.333	-25.284	0.079	-0.047
-338.318	-171.328	-0.085	-0.003
-337.304	-132.887	-0.066	-0.008
-336.289	50.194	0.104	-0.099
-335.275	341.141	0.114	0.225
-334.260	-200.000	0.021	0.324
-333.245	-200.000	-0.018	0.337
-332.231	-65.968	-0.124	0.050
-331.216	800.000	0.089	0.338
-330.202	-59.890	0.110	-0.047
-329.187	-27.475	-0.085	-0.050
-328.172	-24.999	-0.126	-0.075
-327.158	-97.989	-0.125	0.032
-326.143	800.000	-0.037	-0.105
-325.129	367.014	-0.140	-0.284
-324.114	-200.000	0.019	0.253
-323.099	18.459	0.133	0.107
-322.085	800.000	-0.054	0.184
-321.070	370.300	-0.139	-0.283
-320.056	-180.442	-0.215	-0.004
-319.041	15.969	-0.192	0.152
-318.026	55.863	0.269	0.263
-317.012	-75.606	0.022	0.008
-315.997	-78.567	-0.302	0.104
-314.983	622.155	-0.068	0.171
-313.968	-50.645	0.311	-0.148
-312.953	120.069	-0.286	0.357
-311.939	-49.207	-0.090	0.043
-310.924	-200.000	-0.013	-0.124
-309.910	-99.226	-0.047	-0.012
-308.895	151.976	0.176	0.242
-307.880	-200.000	0.041	-0.196
-306.866	-91.089	0.137	-0.039
-305.851	-141.687	0.068	-0.007
-304.837	-200.000	-0.037	0.305
-303.822	-130.420	-0.367	0.050
-302.807	497.648	0.146	-0.338
-301.793	-164.274	0.437	-0.020
-300.778	-200.000	0.009	0.136
-299.764	-135.736	-0.209	0.025
-298.749	12.499	0.347	-0.269
-297.735	-17.135	-0.204	-0.130
-296.720	289.628	-0.119	-0.217
-295.705	800.000	0.075	0.252
-294.691	-63.779	-0.090	-0.037
-293.676	295.365	0.090	0.166
-292.662	-95.351	0.215	0.058
-291.647	530.588	-0.138	-0.328
-290.632	-136.504	-0.212	0.025
-289.618	-108.053	-0.110	0.024
-288.603	2.109	0.061	0.044
-287.589	17.650	-0.210	-0.168
-286.574	-42.705	-0.326	-0.167
-285.559	35.367	0.121	0.107
-284.545	-74.019	0.405	-0.148
-283.530	96.019	-0.160	-0.183
-282.516	800.000	0.087	-0.274
-281.501	172.462	-0.130	-0.188
-280.486	441.213	-0.103	0.227
-279.472	28.432	0.102	-0.086
-278.457	11.410	-0.135	0.104
-277.443	10.680	-0.093	0.071
-276.428	64.580	0.215	-0.218
-275.413	800.000	-0.049	-0.153
-274.399	82.259	-0.150	-0.164
-273.384	-113.541	-0.252	-0.050
-272.370	-109.124	0.210	-0.045
-271.355	9.006	-0.299	-0.226
-270.340	800.000	0.120	-0.398
-269.326	-200.000	0.006	-0.033
-268.311	539.638	0.079	-0.188
-267.297	87.848	-0.213	-0.237
-266.282	78.728	0.092	0.099
-265.267	47.057	-0.059	0.055
-264.253	12.611	0.116	-0.090
-263.238	61.581	-0.185	0.185
-262.224	-174.498	0.041	-0.001
-261.209	374.370	0.116	0.237
-260.195	-2.272	-0.300	0.211
-259.180	-67.674	0.199	-0.078
-258.165	-86.479	0.409	0.126
-257.151	-200.000	-0.022	0.407
-256.136	-63.634	-0.304	-0.125
-255.122	-130.740	0.119	-0.016
-254.107	52.224	-0.107	0.103
-253.092	-171.705	0.318	0.010
-252.078	50.551	0.259	0.246
-251.063	-128.312	-0.024	-0.003
-250.049	-164.155	-0.298	0.014
-249.034	-18.256	-0.140	-0.088
-248.019	-200.000	0.005	0.072
-247.005	-74.306	0.296	-0.107
-245.990	-84.110	0.275	-0.088
-244.976	-53.841	0.184	0.084
-243.961	-2.158	0.155	0.109
-242.946	41.090	-0.251	-0.228
-241.932	-28.423	-0.253	0.147
-240.917	146.155	0.219	0.295
-239.903	-101.013	-0.238	0.059
-238.888	263.583	-0.060	0.105
-237.873	800.000	0.057	0.218
-236.859	-200.000	-0.009	-0.084
-235.844	-200.000	0.049	0.229
-234.830	547.149	-0.093	-0.223
-233.815	-200.000	-0.014	-0.147
-232.800	334.725	0.217	-0.422
-231.786	341.408	0.060	0.118
-230.771	-134.098	0.125	-0.015
-229.757	-96.430	-0.466	0.124
-228.742	-93.184	-0.296	0.082
-227.727	-71.609	-0.055	-0.021
-226.713	-123.868	0.307	0.049
-225.698	-115.160	-0.322	-0.061
-224.684	-180.570	0.296	-0.006
-223.669	311.762	0.060	0.113
-222.655	-200.000	0.054	-0.307
-221.640	28.326	-0.147	0.125
-220.625	-85.181	-0.367	-0.115
-219.611	53.174	-0.197	-0.190
-218.596	-200.000	-0.029	0.283
-217.582	-200.000	0.003	0.121
-216.567	-25.279	-0.105	-0.062
-215.552	39.112	0.020	-0.018
-214.538	6.884	-0.219	-0.164
-213.523	285.265	-0.153	-0.276
-212.509	-32.621	-0.383	-0.214
-211.494	-14.687	0.231	-0.149
-210.479	96.276	0.101	-0.116
-209.465	-126.391	0.209	-0.031
-208.450	-26.184	-0.363	0.214
-207.436	233.046	-0.143	0.236
-206.421	148.119	-0.197	-0.266
-205.406	-111.971	-0.278	0.056
-204.392	155.712	-0.062	0.085
-203.377	-32.067	0.233	0.131
-202.363	-200.000	0.006	-0.336
-201.348	-120.098	0.157	0.027
-200.333	-100.338	0.187	0.047
-199.319	-43.911	0.096	0.048
-198.304	47.132	-0.101	0.094
-197.290	-37.768	0.190	0.101
-196.275	-136.106	-0.213	-0.025
-195.260	-173.241	0.301	-0.009
-194.246	-200.000	0.006	0.434
-193.231	116.262	-0.325	-0.398
-192.217	800.000	0.069	0.192
-191.202	485.388	0.046	0.105
-190.187	-30.487	0.038	-0.022
-189.173	-166.509	-0.174	-0.007
-188.158	210.199	0.144	-0.227
-187.144	-200.000	-0.042	0.323
-186.129	-133.607	-0.231	0.029
-185.114	-200.000	-0.048	-0.259
-184.100	-50.611	-0.161	0.076
-183.085	-79.381	-0.155	0.052
-182.071	400.988	-0.029	-0.062
-181.056	197.558	0.148	-0.226
-180.042	800.000	-0.035	0.108
-179.027	64.368	-0.037	0.038
-178.012	800.000	-0.036	-0.124
-176.998	800.000	0.119	0.439
-175.983	-17.989	0.143	-0.090
-174.969	40.992	-0.134	0.121
-173.954	112.640	-0.182	-0.221
-172.939	-200.000	0.019	0.220
-171.925	-138.724	-0.311	-0.034
-170.910	-34.075	-0.037	-0.020
-169.896	440.048	-0.172	0.377
-168.881	-142.175	0.329	0.033
-167.866	544.781	-0.042	0.100
-166.852	354.175	-0.131	-0.260
-165.837	-79.922	0.251	-0.084
-164.823	800.000	0.058	-0.247
-163.808	-124.606	0.127	-0.020
-162.793	800.000	0.064	-0.271
-161.779	-46.846	0.267	0.131
-160.764	-200.000	-0.022	0.214
-159.750	-200.000	0.047	-0.438
-158.735	14.750	-0.087	-0.068
-157.720	-200.000	-0.051	0.387
-156.706	214.042	0.087	0.138
-155.691	-136.231	-0.360	-0.042
-154.677	800.000	-0.048	-0.136
-153.662	-87.821	0.269	0.081
-152.647	-106.603	-0.087	0.019
-151.633	800.000	0.103	0.316
-150.618	800.000	-0.112	-0.466
-149.604	-31.429	-0.273	-0.154
-148.589	-146.795	0.122	0.011
-147.574	170.263	-0.098	-0.140
-146.560	-132.334	-0.013	-0.002
-145.545	-106.707	0.039	0.009
-144.531	-12.912	-0.161	-0.105
-143.516	800.000	0.079	0.319
-142.502	-200.000	0.025	0.462
-141.487	-130.686	0.179	-0.024
-140.472	800.000	-0.117	-0.415
-139.458	692.638	-0.044	0.116
-138.443	-64.278	-0.170	0.069
-137.429	-85.940	0.154	0.048
-136.414	-49.060	-0.058	-0.028
-135.399	-100.640	0.259	-0.064
-134.385	286.611	0.059	0.107
-133.370	-73.066	-0.141	-0.052
-132.356	-7.598	-0.176	-0.119
-131.341	128.104	-0.184	-0.234
-130.326	-200.000	-0.053	0.245
-129.312	-94.711	0.290	0.079
-128.297	-23.323	0.276	-0.166
-127.283	103.458	0.178	-0.208
-126.268	-200.000	-0.012	0.186
-125.253	-200.000	0.029	0.273
-124.239	-79.470	0.104	0.035
-123.224	304.976	-0.164	0.305
-122.210	22.735	0.183	0.149
