DTS Sentinel unit serial number:	SN413079Multiplexer serial number:	ORYXHardware model number:	OX4-SRSoftware version number:	ORYX F/W v4.00 Oryx Data Collector v3.7.2.0data status	okinstallation	princeton_trtdifferential loss correction	single-endedforward channel	channel 2reverse channel	N/Adate	2019/09/10time	20:05:10forward acquisition time	60.00reverse acquisition time	0.00gamma	496.2192k internal	0.2329k external	0.2329temperature offset calibration	0.9949default loss term (dB/km)	0.3790temperature slope calibration	1.0000multiplexer offset coefficient	1.0000multiplexer slope coefficient	1.0000fibre end	0.00T internal ref (°C)	32.55T ext. ref 1 (°C)	-0.31T ext. ref 2 (°C)	25.52length (m)	temperature (°C)	Stokes	anti-Stokes-747.200	336.543	0.093	0.181
-746.185	763.371	-0.083	0.226
-745.171	185.146	-0.197	0.295
-744.156	9.190	0.139	-0.106
-743.142	-200.000	-0.028	-0.271
-742.127	42.497	0.134	0.123
-741.112	-132.887	0.235	-0.030
-740.098	-60.497	-0.142	0.061
-739.083	688.591	0.121	0.319
-738.069	-113.697	0.148	-0.029
-737.054	-14.478	0.145	0.094
-736.039	27.161	-0.202	0.171
-735.025	-60.092	0.289	-0.124
-734.010	800.000	-0.065	-0.273
-732.996	103.928	-0.174	-0.206
-731.981	800.000	-0.025	-0.110
-730.966	-5.943	-0.213	-0.147
-729.952	-162.831	-0.057	-0.003
-728.937	-35.348	0.258	-0.141
-727.923	-64.797	-0.049	-0.020
-726.908	32.279	-0.096	-0.083
-725.894	65.834	0.127	-0.129
-724.879	22.768	0.183	0.151
-723.864	-41.663	0.163	-0.084
-722.850	-200.000	0.017	-0.165
-721.835	18.015	-0.186	-0.149
-720.821	687.624	0.032	-0.084
-719.806	-59.092	-0.146	0.063
-718.791	100.523	-0.160	-0.187
-717.777	-47.932	-0.324	-0.158
-716.762	-43.021	-0.330	-0.168
-715.748	-200.000	0.001	-0.063
-714.733	-102.551	-0.087	-0.021
-713.718	5.415	-0.189	-0.140
-712.704	216.701	-0.194	0.310
-711.689	-181.956	0.155	-0.003
-710.675	204.031	-0.129	-0.201
-709.660	-102.922	0.237	-0.057
-708.645	-85.415	-0.211	0.066
-707.631	-43.105	-0.220	-0.112
-706.616	-126.155	0.161	0.024
-705.602	128.914	-0.105	0.135
-704.587	263.152	0.088	-0.154
-703.572	-52.305	0.321	-0.150
-702.558	-54.527	-0.016	-0.007
-701.543	-200.000	-0.025	0.560
-700.529	-98.516	-0.213	-0.055
-699.514	-99.321	-0.161	-0.041
-698.499	800.000	0.058	0.165
-697.485	15.720	-0.144	0.114
-696.470	-200.000	0.045	-0.246
-695.456	-21.850	-0.358	-0.219
-694.441	-200.000	-0.001	0.131
-693.426	90.261	0.102	0.115
-692.412	-7.622	0.254	-0.173
-691.397	569.719	0.093	0.227
-690.383	-151.138	0.177	-0.013
-689.368	-172.508	-0.448	0.014
-688.354	-200.000	-0.009	0.149
-687.339	21.390	0.059	0.048
-686.324	1.756	-0.086	0.062
-685.310	-158.233	0.227	-0.013
-684.295	-51.159	0.229	0.108
-683.281	-20.840	-0.183	-0.113
-682.266	-150.076	0.207	0.016
-681.251	55.348	0.045	-0.044
-680.237	88.130	-0.152	-0.170
-679.222	-118.777	-0.086	0.015
-678.208	51.710	-0.030	-0.028
-677.193	180.321	-0.113	0.166
-676.178	-89.259	0.176	-0.052
-675.164	800.000	-0.066	-0.246
-674.149	-100.048	-0.227	-0.057
-673.135	-50.552	-0.255	0.121
-672.120	28.428	0.262	0.222
-671.105	2.009	0.145	-0.105
-670.091	219.637	0.184	-0.296
-669.076	616.659	-0.086	0.218
-668.062	-78.866	-0.436	-0.149
-667.047	-200.000	-0.029	-0.150
-666.032	-200.000	0.015	-0.161
-665.018	-93.404	-0.358	0.100
-664.003	-114.978	0.534	-0.102
-662.989	342.207	0.125	-0.246
-661.974	338.079	-0.112	-0.218
-660.959	-200.000	-0.090	-0.413
-659.945	-65.620	-0.112	0.045
-658.930	-34.210	0.242	0.133
-657.916	-200.000	-0.017	-0.238
-656.901	-69.820	0.137	0.053
-655.886	-200.000	0.039	0.349
-654.872	-200.000	0.039	-0.275
-653.857	-79.037	0.195	0.067
-652.843	-173.097	0.173	-0.005
-651.828	76.680	-0.084	0.090
-650.814	-197.937	0.125	0.001
-649.799	131.520	0.176	0.227
-648.784	-90.630	-0.259	0.075
-647.770	-60.310	-0.261	0.112
-646.755	108.161	0.168	-0.201
-645.741	146.452	0.108	-0.146
-644.726	-200.000	0.016	0.341
-643.711	-200.000	-0.007	0.048
-642.697	128.420	-0.064	-0.081
-641.682	-78.178	0.244	-0.084
-640.668	30.441	0.220	-0.189
-639.653	123.586	-0.205	0.258
-638.638	-200.000	-0.044	0.194
-637.624	-200.000	0.001	-0.019
-636.609	-200.000	0.013	-0.075
-635.595	65.770	0.082	-0.083
-634.580	121.652	-0.077	0.096
-633.565	2.280	-0.273	-0.198
-632.551	74.345	-0.169	-0.178
-631.536	712.757	-0.076	-0.203
-630.522	-182.075	-0.133	-0.003
-629.507	-95.227	-0.058	0.016
-628.492	-175.687	-0.181	0.005
-627.478	394.413	-0.121	0.252
-626.463	532.589	-0.032	-0.075
-625.449	-18.348	-0.301	0.189
-624.434	335.710	-0.264	-0.513
-623.419	212.312	0.073	0.115
-622.405	204.466	-0.143	0.223
-621.390	-70.102	-0.217	-0.083
-620.376	126.639	-0.165	-0.210
-619.361	453.990	-0.098	-0.217
-618.346	382.753	-0.092	0.189
-617.332	800.000	-0.073	0.206
-616.317	107.852	-0.045	-0.053
-615.303	181.733	-0.139	0.206
-614.288	-200.000	0.019	-0.193
-613.273	267.347	0.005	-0.008
-612.259	-200.000	0.052	0.264
-611.244	800.000	0.027	-0.089
-610.230	-61.222	0.081	0.034
-609.215	218.755	-0.143	-0.229
-608.201	250.074	-0.061	-0.103
-607.186	-42.518	-0.332	0.170
-606.171	-137.415	0.303	0.034
-605.157	355.078	0.046	0.092
-604.142	135.607	0.131	-0.171
-603.128	-89.004	0.098	-0.029
-602.113	786.149	-0.145	0.397
-601.098	-200.000	-0.015	0.230
-600.084	-61.552	0.107	0.045
-599.069	-93.037	0.204	-0.057
-598.055	405.696	-0.030	0.063
-597.040	-116.590	-0.469	0.086
-596.025	-10.780	-0.223	-0.148
-595.011	-197.402	0.193	-0.001
-593.996	-200.000	0.010	0.196
-592.982	81.864	-0.214	-0.232
-591.967	-99.911	-0.301	0.075
-590.952	-65.310	-0.348	-0.140
-589.938	-200.000	-0.038	-0.280
-588.923	800.000	-0.082	-0.228
-587.909	-121.369	0.121	0.020
-586.894	710.917	0.072	0.191
-585.879	323.608	0.091	-0.173
-584.865	216.590	0.189	0.302
-583.850	488.532	-0.094	0.215
-582.836	92.022	-0.154	-0.174
-581.821	67.720	0.152	0.156
-580.806	-8.617	0.141	-0.095
-579.792	-200.000	0.021	0.198
-578.777	46.601	-0.195	0.181
-577.763	800.000	0.055	0.157
-576.748	-87.356	0.393	-0.119
-575.733	-155.051	-0.122	0.008
-574.719	-73.385	-0.416	0.152
-573.704	-26.589	0.175	-0.103
-572.690	800.000	-0.090	0.300
-571.675	-50.259	-0.024	-0.011
-570.661	310.410	-0.069	-0.129
-569.646	-200.000	0.012	0.219
-568.631	-85.791	0.087	-0.027
-567.617	-126.553	0.161	0.024
-566.602	-124.819	-0.201	0.031
-565.588	800.000	-0.092	0.323
-564.573	747.512	-0.064	0.173
-563.558	407.452	-0.104	0.219
-562.544	246.668	0.204	-0.345
-561.529	-89.051	0.130	-0.039
-560.515	-101.401	-0.176	0.043
-559.500	800.000	-0.054	-0.156
-558.485	-31.909	-0.283	0.158
-557.471	-190.034	0.118	-0.001
-556.456	222.933	-0.032	0.051
-555.442	165.215	0.048	0.067
-554.427	-200.000	-0.065	-0.326
-553.412	97.854	-0.137	-0.157
-552.398	-63.943	-0.055	0.022
-551.383	800.000	-0.055	0.179
-550.369	-60.413	-0.122	-0.052
-549.354	491.682	0.141	0.324
-548.339	-82.634	-0.201	0.065
-547.325	110.990	-0.161	0.193
-546.310	-141.350	-0.177	-0.018
-545.296	-200.000	0.054	-0.376
-544.281	337.736	0.018	-0.035
-543.266	-60.056	0.168	0.072
-542.252	-47.810	0.204	0.099
-541.237	45.826	-0.060	-0.055
-540.223	20.779	-0.134	-0.109
-539.208	-188.695	-0.218	0.003
-538.193	131.757	0.190	0.245
-537.179	-102.537	-0.541	-0.129
-536.164	-200.000	0.022	-0.190
-535.150	-38.735	0.217	-0.114
-534.135	70.532	0.174	-0.180
-533.121	59.977	0.073	0.072
-532.106	12.193	0.068	0.052
-531.091	297.558	0.072	0.132
-530.077	-200.000	0.007	0.055
-529.062	79.843	0.145	-0.155
-528.048	-200.000	0.015	0.199
-527.033	29.210	-0.231	0.196
-526.018	25.322	0.092	-0.077
-525.004	-54.395	-0.262	0.119
-523.989	-99.192	-0.232	-0.059
-522.975	-25.759	-0.240	0.141
-521.960	-50.663	0.412	0.194
-520.945	10.327	-0.072	0.055
-519.931	261.976	-0.093	-0.160
-518.916	-70.897	-0.489	-0.184
-517.902	77.561	0.207	-0.221
-516.887	312.201	0.073	-0.137
-515.872	42.249	0.272	0.247
-514.858	720.579	0.057	0.151
-513.843	-68.801	0.253	-0.098
-512.829	-9.423	-0.085	-0.056
-511.814	-200.000	-0.021	0.138
-510.799	-16.959	-0.220	0.139
-509.785	-144.216	-0.148	0.014
-508.770	103.726	-0.068	-0.080
-507.756	-200.000	0.014	0.111
-506.741	300.683	-0.084	0.154
-505.726	800.000	-0.027	0.083
-504.712	-107.295	-0.124	0.027
-503.697	-51.800	0.276	0.128
-502.683	-96.305	0.231	-0.061
-501.668	-134.169	0.409	-0.050
-500.653	40.959	0.173	-0.156
-499.639	-115.423	-0.129	0.024
-498.624	-200.000	-0.059	-0.569
-497.610	-87.114	-0.255	0.077
-496.595	800.000	0.042	0.164
-495.581	-129.748	0.107	-0.015
-494.566	-67.081	0.104	-0.041
-493.551	-125.927	-0.203	0.031
-492.537	86.254	-0.273	-0.300
-491.522	66.227	0.128	-0.130
-490.508	522.286	0.135	0.317
-489.493	181.749	-0.181	-0.266
-488.478	-134.904	-0.284	0.034
-487.464	-137.840	-0.362	-0.040
-486.449	800.000	-0.025	0.070
-485.435	77.434	-0.148	0.157
-484.420	800.000	-0.029	0.089
-483.405	39.133	-0.183	0.163
-482.391	149.127	-0.098	-0.133
-481.376	-58.144	-0.539	0.234
-480.362	-200.000	0.010	-0.118
-479.347	-96.222	0.104	-0.028
-478.332	-200.000	-0.004	0.366
-477.318	259.820	-0.036	-0.061
-476.303	-200.000	-0.013	-0.079
-475.289	-109.086	-0.277	-0.059
-474.274	-43.600	-0.040	0.020
-473.259	108.091	-0.110	-0.131
-472.245	-87.210	0.205	0.062
-471.230	-200.000	0.004	-0.017
-470.216	202.278	0.025	-0.038
-469.201	274.380	-0.130	0.230
-468.186	-104.075	-0.172	0.040
-467.172	563.490	0.106	0.256
-466.157	520.123	0.091	-0.211
-465.143	-200.000	-0.008	-0.318
-464.128	-21.195	0.220	-0.134
-463.113	94.333	0.117	-0.133
-462.099	-87.895	0.100	0.030
-461.084	-200.000	0.029	0.168
-460.070	474.969	-0.049	-0.110
-459.055	304.327	-0.027	0.049
-458.040	-200.000	-0.004	-0.073
-457.026	245.643	0.063	0.105
-456.011	152.652	0.094	0.128
-454.997	743.253	-0.098	0.262
-453.982	-200.000	0.003	0.252
-452.968	-27.474	0.399	0.231
-451.953	-168.534	0.340	0.013
-450.938	-133.111	-0.038	-0.005
-449.924	-20.559	-0.057	-0.035
-448.909	-162.710	-0.377	-0.018
-447.895	-200.000	0.006	-0.172
-446.880	-41.368	-0.163	-0.084
-445.865	545.919	-0.095	-0.226
-444.851	41.586	0.150	0.135
-443.836	-75.235	0.264	0.094
-442.822	-27.015	0.314	-0.183
-441.807	-0.176	-0.198	-0.140
-440.792	-200.000	-0.012	0.158
-439.778	-200.000	0.030	-0.157
-438.763	-17.887	-0.041	-0.026
-437.749	-125.027	-0.179	-0.027
-436.734	800.000	-0.032	-0.131
-435.719	-141.799	0.288	0.029
-434.705	800.000	-0.064	0.205
-433.690	655.347	0.107	0.273
-432.676	-200.000	0.052	-0.241
-431.661	-81.736	-0.282	-0.092
-430.646	277.845	0.072	0.127
-429.632	193.156	-0.053	-0.080
-428.617	13.555	0.274	-0.212
-427.603	-200.000	0.026	0.206
-426.588	-200.000	-0.040	-0.411
-425.573	-171.465	-0.291	-0.010
-424.559	-200.000	-0.022	-0.184
-423.544	200.306	-0.171	0.261
-422.530	-143.489	-0.269	-0.026
-421.515	120.470	-0.277	0.343
-420.500	-83.248	0.131	-0.042
-419.486	612.272	0.125	-0.311
-418.471	-200.000	0.037	-0.279
-417.457	-155.510	0.069	-0.004
-416.442	-200.000	-0.025	0.403
-415.428	-178.767	-0.379	-0.009
-414.413	800.000	0.166	-0.457
-413.398	-134.121	-0.127	-0.016
-412.384	-164.537	0.200	0.009
-411.369	81.811	0.121	-0.130
-410.355	-200.000	0.029	-0.126
-409.340	134.631	0.123	0.159
-408.325	-200.000	-0.017	-0.134
-407.311	247.496	-0.194	-0.326
-406.296	93.438	0.225	-0.253
-405.282	-133.079	-0.245	-0.031
-404.267	-84.380	0.116	-0.037
-403.252	-25.025	0.110	-0.065
-402.238	800.000	-0.063	-0.272
-401.223	-90.852	0.158	0.045
-400.209	-79.596	-0.343	-0.115
-399.194	-54.539	0.091	-0.041
-398.179	-70.582	0.110	0.041
-397.165	17.725	0.281	-0.222
-396.150	-10.890	0.158	-0.104
-395.136	-3.392	-0.113	-0.078
-394.121	-103.058	-0.159	-0.037
-393.106	-125.055	-0.261	0.040
-392.092	-39.686	-0.129	-0.067
-391.077	-31.230	0.179	-0.100
-390.063	-105.443	0.147	0.033
-389.048	514.206	0.128	0.297
-388.033	-200.000	-0.017	0.223
-387.019	-116.866	0.279	0.051
-386.004	-0.209	0.130	-0.092
-384.990	-200.000	-0.030	-0.139
-383.975	800.000	0.046	-0.152
-382.960	-200.000	-0.017	0.195
-381.946	-113.264	-0.261	0.051
-380.931	203.358	0.047	0.072
-379.917	356.471	0.111	-0.220
-378.902	-79.594	-0.142	-0.047
-377.888	-18.438	-0.141	0.087
-376.873	800.000	0.008	-0.023
-375.858	800.000	-0.067	0.260
-374.844	79.238	-0.109	-0.116
-373.829	454.941	0.206	-0.454
-372.815	700.407	-0.063	-0.164
-371.800	-17.153	-0.153	0.096
-370.785	89.599	0.057	-0.063
-369.771	-36.088	-0.184	-0.099
-368.756	11.608	0.201	-0.153
-367.742	137.224	0.172	-0.224
-366.727	418.453	0.159	0.337
-365.712	-35.289	0.390	0.211
-364.698	-17.812	-0.117	0.073
-363.683	-200.000	-0.013	0.213
-362.669	800.000	-0.086	-0.274
-361.654	62.895	0.092	0.092
-360.639	-119.293	0.116	0.020
-359.625	191.690	0.178	0.267
-358.610	-113.290	0.157	0.031
-357.596	-102.031	-0.033	0.008
-356.581	-200.000	0.021	0.136
-355.566	-129.801	0.241	0.033
-354.552	-200.000	0.082	-0.461
-353.537	49.821	0.169	-0.158
-352.523	-40.583	-0.102	-0.053
-351.508	800.000	0.063	0.193
-350.493	800.000	0.077	0.255
-349.479	800.000	0.001	-0.004
-348.464	-155.950	0.325	0.020
-347.450	254.577	0.127	0.215
-346.435	800.000	-0.057	0.163
-345.420	-200.000	0.023	-0.111
-344.406	135.220	0.296	-0.382
-343.391	-94.546	0.162	-0.044
-342.377	210.281	-0.055	-0.086
-341.362	-70.065	-0.178	-0.067
-340.348	-200.000	0.016	0.159
-339.333	405.249	-0.134	0.280
-338.318	-200.000	-0.008	-0.035
-337.304	239.005	-0.040	-0.065
-336.289	800.000	-0.078	0.276
-335.275	-200.000	0.001	-0.053
-334.260	-128.871	0.244	-0.034
-333.245	800.000	-0.006	0.017
-332.231	564.227	-0.100	0.240
-331.216	-33.723	-0.187	0.102
-330.202	-200.000	0.030	-0.195
-329.187	215.710	-0.134	-0.211
-328.172	557.793	-0.049	-0.118
-327.158	-105.121	0.145	0.033
-326.143	204.439	0.144	-0.221
-325.129	-111.676	0.157	0.032
-324.114	86.605	0.213	0.233
-323.099	-178.548	0.215	-0.005
-322.085	-78.280	-0.162	0.055
-321.070	116.110	0.138	-0.167
-320.056	74.672	-0.298	0.311
-319.041	601.254	0.141	0.347
-318.026	-200.000	0.005	0.111
-317.012	14.575	-0.222	0.172
-315.997	-200.000	0.006	0.047
-314.983	-200.000	-0.002	-0.203
-313.968	694.947	0.124	-0.322
-312.953	-3.580	-0.079	-0.055
-311.939	-109.828	-0.330	0.069
-310.924	249.117	0.065	-0.110
-309.910	-33.353	0.186	0.102
-308.895	67.904	0.250	0.253
-307.880	-200.000	-0.011	0.231
-306.866	-56.244	-0.334	-0.147
-305.851	479.241	-0.113	0.254
-304.837	-200.000	-0.003	0.052
-303.822	325.690	0.240	0.455
-302.807	-27.137	-0.207	0.120
-301.793	143.073	-0.018	0.024
-300.778	800.000	-0.069	-0.295
-299.764	800.000	0.047	-0.154
-298.749	150.614	-0.142	-0.191
-297.735	-34.131	-0.263	-0.143
-296.720	-20.230	0.196	-0.120
-295.705	-184.168	-0.136	0.002
-294.691	-44.512	0.261	0.129
-293.676	268.446	0.108	0.187
-292.662	-178.333	0.480	0.011
-291.647	-91.379	0.359	-0.102
-290.632	-18.467	-0.495	0.306
-289.618	-174.277	0.155	0.004
-288.603	800.000	0.073	-0.305
-287.589	-136.403	-0.225	-0.026
-286.574	-200.000	-0.020	-0.149
-285.559	191.010	-0.030	0.044
-284.545	1.292	0.193	-0.137
-283.530	-71.103	0.202	-0.075
-282.516	579.348	0.109	-0.263
-281.501	800.000	0.064	-0.184
-280.486	-87.964	-0.157	-0.047
-279.472	-62.223	-0.362	-0.149
-278.457	-140.881	0.147	-0.015
-277.443	-20.488	0.161	0.098
-276.428	238.662	-0.070	-0.115
-275.413	321.868	-0.148	0.278
-274.399	-200.000	0.022	0.150
-273.384	-167.711	0.280	-0.011
-272.370	502.108	-0.042	0.096
-271.355	-200.000	-0.014	-0.108
-270.340	95.332	0.009	-0.011
-269.326	407.879	0.119	-0.249
-268.311	-50.851	-0.024	0.011
-267.297	-149.768	0.313	-0.024
-266.282	-114.654	-0.210	-0.040
-265.267	-163.963	0.238	-0.011
-264.253	-93.605	-0.340	-0.093
-263.238	-200.000	-0.042	0.348
-262.224	-60.253	0.049	0.021
-261.209	-162.360	-0.190	-0.009
-260.195	-200.000	-0.017	-0.162
-259.180	-200.000	-0.030	-0.398
-258.165	800.000	-0.030	0.097
-257.151	194.413	0.071	-0.107
-256.136	-106.906	0.132	-0.029
-255.122	76.985	0.142	-0.149
-254.107	-3.807	0.230	-0.158
-253.092	310.499	0.237	-0.438
-252.078	-21.338	0.094	0.056
-251.063	-200.000	-0.005	0.144
-250.049	257.338	-0.112	-0.191
-249.034	515.881	-0.085	0.196
-248.019	800.000	-0.024	-0.084
-247.005	96.546	0.109	0.124
-245.990	-12.334	0.179	0.116
-244.976	-200.000	0.036	-0.335
-243.961	117.440	-0.077	-0.093
-242.946	324.757	-0.104	0.197
-241.932	-63.435	0.436	-0.177
-240.917	22.232	0.203	-0.164
-239.903	-146.504	0.146	0.013
-238.888	5.860	-0.047	-0.034
-237.873	-187.005	0.357	0.005
-236.859	182.512	0.234	-0.340
-235.844	-42.930	-0.241	-0.121
-234.830	-200.000	-0.056	0.257
-233.815	-141.105	-0.316	0.032
-232.800	675.577	-0.046	-0.118
-231.786	-73.032	0.126	0.046
-230.771	-137.384	0.294	-0.033
-229.757	175.349	0.098	-0.141
-228.742	132.968	0.047	-0.060
-227.727	88.038	-0.195	0.213
-226.713	-52.776	-0.231	-0.105
-225.698	-44.555	0.386	-0.190
-224.684	-136.215	-0.344	-0.040
-223.669	-124.265	0.366	0.056
-222.655	240.659	0.110	0.182
-221.640	800.000	0.027	0.080
-220.625	35.543	0.194	0.168
-219.611	-200.000	0.003	-0.179
-218.596	111.486	0.171	0.204
-217.582	-36.291	-0.209	0.111
-216.567	328.593	-0.060	-0.114
-215.552	-200.000	-0.020	0.193
-214.538	-48.846	-0.212	0.100
-213.523	-71.217	-0.285	0.106
-212.509	-112.040	0.230	0.046
-211.494	-72.515	-0.079	-0.029
-210.479	-35.850	-0.119	0.063
-209.465	-200.000	-0.056	0.386
-208.450	-135.609	-0.140	-0.016
-207.436	-181.117	0.503	0.010
-206.421	-14.171	0.019	0.012
-205.406	-7.106	0.465	0.311
-204.392	514.473	0.081	0.187
-203.377	-95.017	-0.222	0.059
-202.363	800.000	-0.053	-0.164
-201.348	421.392	-0.077	0.163
-200.333	-200.000	-0.005	-0.195
-199.319	562.993	-0.088	0.210
-198.304	-143.543	-0.030	-0.003
-197.290	773.339	-0.032	-0.087
-196.275	-93.017	0.344	0.094
-195.260	143.015	0.170	0.222
-194.246	800.000	-0.095	0.304
-193.231	47.235	-0.105	-0.096
-192.217	2.425	-0.138	0.098
-191.202	-186.743	-0.266	0.004
-190.187	71.720	-0.087	-0.089
-189.173	-131.550	-0.215	-0.028
-188.158	-200.000	-0.026	-0.398
-187.144	-200.000	0.007	-0.110
-186.129	800.000	-0.090	-0.278
-185.114	-188.772	0.453	0.005
-184.100	158.284	0.091	-0.124
-183.085	-200.000	-0.059	0.273
-182.071	250.217	0.153	0.256
-181.056	451.805	0.128	-0.278
-180.042	105.103	0.087	-0.101
-179.027	21.545	0.214	-0.171
-178.012	-200.000	0.013	-0.256
-176.998	413.336	-0.121	-0.255
-175.983	90.468	0.132	-0.145
-174.969	68.108	-0.172	0.173
-173.954	18.307	-0.007	0.005
-172.939	24.179	0.107	-0.087
-171.925	26.485	0.080	-0.066
-170.910	-141.573	0.430	-0.043
-169.896	306.007	-0.066	-0.120
-168.881	163.473	-0.047	0.066
-167.866	-200.000	0.038	0.218
-166.852	61.165	-0.076	0.074
-165.837	275.519	0.149	0.260
-164.823	-105.471	0.112	-0.025
-163.808	-200.000	0.006	-0.157
-162.793	-55.102	-0.278	-0.123
-161.779	-200.000	0.032	0.191
-160.764	800.000	0.044	0.188
-159.750	-92.088	-0.115	-0.032
-158.735	41.942	-0.284	0.253
-157.720	-63.467	0.332	0.134
-156.706	-23.477	0.141	0.083
-155.691	-200.000	-0.015	0.165
-154.677	-200.000	-0.080	0.448
-153.662	-53.818	-0.421	-0.189
-152.647	38.863	0.280	-0.246
-151.633	-127.643	0.157	-0.022
-150.618	800.000	-0.030	-0.102
-149.604	800.000	0.084	0.358
-148.589	-200.000	-0.012	-0.099
-147.574	97.658	-0.129	0.146
-146.560	281.080	0.053	-0.094
-145.545	24.732	0.270	0.220
-144.531	-200.000	0.045	0.307
-143.516	800.000	-0.092	0.262
-142.502	1.802	-0.141	0.100
-141.487	-51.156	-0.217	-0.100
-140.472	800.000	-0.032	-0.103
-139.458	-45.772	0.277	-0.134
-138.443	237.929	-0.070	0.115
-137.429	-200.000	0.001	0.112
-136.414	-19.801	-0.097	0.059
-135.399	763.478	-0.069	0.184
-134.385	30.476	-0.086	0.072
-133.370	307.974	0.074	-0.135
-132.356	-10.226	0.474	0.310
-131.341	-62.979	0.121	0.049
-130.326	128.391	-0.139	-0.174
-129.312	56.633	-0.071	-0.068
-128.297	800.000	-0.096	0.292
-127.283	-123.645	-0.269	-0.042
-126.268	-94.876	-0.153	-0.041
-125.253	800.000	0.032	-0.101
-124.239	90.839	-0.143	-0.157
-123.224	-60.106	0.187	-0.078
