DTS Sentinel unit serial number:	SN413079Multiplexer serial number:	ORYXHardware model number:	OX4-SRSoftware version number:	ORYX F/W v4.00 Oryx Data Collector v3.7.2.0data status	okinstallation	princeton_trtdifferential loss correction	single-endedforward channel	channel 2reverse channel	N/Adate	2019/09/11time	14:21:11forward acquisition time	60.00reverse acquisition time	0.00gamma	496.2192k internal	0.2291k external	0.2291temperature offset calibration	1.0010default loss term (dB/km)	0.3790temperature slope calibration	1.0000multiplexer offset coefficient	1.0000multiplexer slope coefficient	1.0000fibre end	0.00T internal ref (°C)	42.03T ext. ref 1 (°C)	0.90T ext. ref 2 (°C)	37.58length (m)	temperature (°C)	Stokes	anti-Stokes-747.200	-200.000	-0.009	0.300
-746.185	-93.405	0.191	0.054
-745.171	477.285	0.168	0.390
-744.156	21.188	-0.144	0.120
-743.142	-99.090	0.185	-0.048
-742.127	-80.060	0.155	0.053
-741.112	-108.346	0.465	-0.103
-740.098	31.238	-0.150	0.132
-739.083	127.213	0.092	0.119
-738.069	800.000	-0.085	0.326
-737.054	35.246	0.073	0.066
-736.039	-45.774	-0.311	0.157
-735.025	-200.000	0.015	0.090
-734.010	-200.000	0.028	-0.189
-732.996	-172.623	0.116	-0.004
-731.981	-57.477	-0.151	0.068
-730.966	-86.356	-0.107	-0.034
-729.952	-94.627	-0.388	0.108
-728.937	109.237	0.229	0.281
-727.923	-20.498	-0.349	-0.220
-726.908	-6.584	-0.190	-0.133
-725.894	61.716	-0.324	0.330
-724.879	-52.741	0.094	0.044
-723.864	-0.198	-0.097	-0.071
-722.850	27.885	0.289	0.250
-721.835	-116.010	0.109	-0.021
-720.821	-48.773	0.106	-0.052
-719.806	567.176	-0.028	0.069
-718.791	36.385	-0.043	0.038
-717.777	800.000	-0.019	0.076
-716.762	-200.000	0.019	-0.115
-715.748	-179.379	0.260	0.006
-714.733	662.893	0.052	0.137
-713.718	203.533	-0.135	-0.213
-712.704	800.000	0.079	-0.335
-711.689	800.000	0.041	0.163
-710.675	800.000	0.054	0.224
-709.660	177.199	-0.019	-0.028
-708.645	-200.000	-0.010	-0.128
-707.631	529.780	-0.040	-0.096
-706.616	-200.000	-0.015	0.119
-705.602	-200.000	-0.020	-0.141
-704.587	800.000	-0.076	-0.291
-703.572	800.000	0.094	0.291
-702.558	-150.357	-0.284	0.022
-701.543	574.059	-0.129	-0.321
-700.529	-144.102	-0.246	0.024
-699.514	-11.691	-0.343	0.230
-698.499	335.628	-0.046	-0.092
-697.485	13.961	-0.154	-0.123
-696.470	219.364	-0.299	0.489
-695.456	19.872	-0.159	-0.131
-694.441	-14.705	0.246	0.161
-693.426	69.893	-0.258	0.272
-692.412	-200.000	0.005	-0.287
-691.397	-200.000	-0.014	-0.177
-690.383	-187.067	-0.329	-0.005
-689.368	-151.652	-0.241	-0.018
-688.354	7.631	-0.179	-0.137
-687.339	-131.301	-0.087	0.012
-686.324	344.344	-0.037	0.075
-685.310	-49.489	0.220	0.107
-684.295	52.466	0.195	0.190
-683.281	-174.639	-0.161	0.005
-682.266	-26.673	-0.091	-0.054
-681.251	-117.434	-0.093	0.017
-680.237	-97.786	0.262	-0.069
-679.222	9.734	0.034	0.027
-678.208	-119.646	0.124	-0.022
-677.193	-200.000	-0.002	0.124
-676.178	-110.312	0.165	0.035
-675.164	-31.483	-0.428	0.246
-674.149	-135.325	-0.189	-0.023
-673.135	83.440	0.049	-0.055
-672.120	37.935	-0.191	-0.173
-671.105	-110.751	0.236	-0.050
-670.091	297.833	-0.108	0.202
-669.076	800.000	-0.033	0.118
-668.062	-113.008	-0.164	-0.033
-667.047	-22.151	-0.171	0.106
-666.032	21.033	0.193	0.160
-665.018	-113.960	0.180	-0.036
-664.003	-9.705	0.095	0.065
-662.989	96.480	-0.352	-0.412
-661.974	-43.084	-0.091	-0.047
-660.959	78.381	-0.244	0.266
-659.945	28.714	-0.203	0.176
-658.930	-200.000	0.018	-0.084
-657.916	-76.559	0.218	0.078
-656.901	-100.455	0.315	-0.080
-655.886	-39.249	-0.228	0.122
-654.872	-81.948	-0.427	0.143
-653.857	800.000	-0.019	0.071
-652.843	75.225	0.239	0.257
-651.828	-78.630	-0.133	0.046
-650.814	194.815	-0.236	-0.365
-649.799	-200.000	-0.023	-0.131
-648.784	-90.202	0.206	-0.061
-647.770	217.614	0.027	-0.045
-646.755	-200.000	-0.068	-0.492
-645.741	-36.788	0.092	0.051
-644.726	1.843	0.194	0.142
-643.711	-133.914	-0.234	0.030
-642.697	-112.202	-0.248	-0.051
-641.682	118.014	-0.122	0.154
-640.668	-88.339	0.185	-0.056
-639.653	190.999	0.186	0.285
-638.638	-200.000	0.010	-0.116
-637.624	-200.000	0.011	0.054
-636.609	-61.572	0.168	-0.072
-635.595	28.352	0.217	0.187
-634.580	-187.923	0.387	0.005
-633.565	-86.342	-0.210	-0.066
-632.551	800.000	0.002	0.007
-631.536	800.000	-0.030	0.107
-630.522	-122.862	0.199	0.033
-629.507	190.542	-0.007	-0.010
-628.492	-20.136	0.103	0.065
-627.478	274.809	-0.193	0.348
-626.463	-200.000	-0.014	-0.088
-625.449	274.738	-0.065	-0.118
-624.434	14.079	0.140	0.111
-623.419	-200.000	-0.034	-0.206
-622.405	-153.344	-0.325	0.023
-621.390	23.582	-0.235	-0.197
-620.376	800.000	-0.026	-0.089
-619.361	-118.672	0.125	0.023
-618.346	143.262	0.089	-0.121
-617.332	65.995	-0.375	-0.388
-616.317	800.000	0.071	-0.287
-615.303	69.765	0.237	0.249
-614.288	-200.000	-0.025	-0.222
-613.273	-106.142	-0.285	-0.065
-612.259	-132.862	-0.159	0.021
-611.244	70.463	-0.031	0.032
-610.230	-147.093	0.377	-0.033
-609.215	-131.568	0.092	-0.012
-608.201	61.184	0.259	-0.262
-607.186	-16.970	0.074	0.048
-606.171	-33.445	-0.023	0.013
-605.157	-4.336	-0.190	0.134
-604.142	-200.000	-0.016	0.227
-603.128	-116.054	-0.059	0.011
-602.113	-80.250	-0.317	0.108
-601.098	-129.762	0.453	0.063
-600.084	-90.039	-0.059	0.018
-599.069	201.476	0.078	-0.122
-598.055	261.428	0.192	-0.339
-597.040	-176.888	-0.120	0.003
-596.025	173.516	-0.128	0.188
-595.011	-125.529	0.193	-0.030
-593.996	-110.292	-0.180	0.038
-592.982	800.000	-0.111	-0.359
-591.967	-140.531	0.107	-0.011
-590.952	-135.691	0.205	0.025
-589.938	-58.615	-0.219	0.097
-588.923	-182.726	-0.408	0.008
-587.909	-200.000	-0.020	-0.197
-586.894	57.787	0.083	0.082
-585.879	-161.509	-0.157	-0.008
-584.865	233.902	0.045	0.075
-583.850	703.862	0.089	0.239
-582.836	348.515	-0.133	-0.268
-581.821	-200.000	-0.015	0.201
-580.806	53.939	-0.275	-0.269
-579.792	-28.138	0.223	0.131
-578.777	97.696	-0.106	0.124
-577.763	-41.231	-0.158	-0.083
-576.748	9.426	0.188	0.145
-575.733	-93.653	0.245	0.069
-574.719	92.082	0.228	-0.261
-573.704	66.709	0.311	-0.322
-572.690	119.301	-0.137	-0.173
-571.675	-27.740	0.155	0.091
-570.661	-200.000	-0.033	-0.204
-569.646	-200.000	0.035	0.216
-568.631	-9.064	0.197	0.134
-567.617	-200.000	0.022	-0.240
-566.602	-75.212	0.301	0.109
-565.588	-195.825	0.133	0.001
-564.573	-200.000	-0.022	-0.248
-563.558	314.928	0.016	-0.031
-562.544	-159.448	0.414	-0.023
-561.529	-48.208	0.446	0.219
-560.515	-54.809	0.363	0.167
-559.500	230.616	-0.198	-0.330
-558.485	41.827	-0.282	-0.260
-557.471	-30.976	-0.308	-0.177
-556.456	-29.774	0.157	-0.091
-555.442	-21.909	0.143	0.089
-554.427	-77.787	-0.206	-0.072
-553.412	-93.257	0.226	0.064
-552.398	-52.400	-0.071	-0.034
-551.383	-104.481	-0.282	0.066
-550.369	-17.744	0.111	-0.071
-549.354	-172.351	-0.368	-0.012
-548.339	800.000	-0.034	0.129
-547.325	-19.974	-0.010	0.006
-546.310	-82.253	0.383	-0.127
-545.296	-65.808	-0.199	-0.081
-544.281	285.705	-0.138	-0.253
-543.266	-7.580	-0.329	0.226
-542.252	-200.000	-0.021	-0.108
-541.237	-71.700	-0.111	0.042
-540.223	-200.000	-0.033	0.253
-539.208	263.197	0.074	0.130
-538.193	51.289	0.089	0.086
-537.179	800.000	-0.085	-0.260
-536.164	-44.740	0.228	0.116
-535.150	-163.459	0.137	-0.007
-534.135	118.433	0.269	-0.337
-533.121	-200.000	0.019	-0.137
-532.106	-20.698	0.084	-0.053
-531.091	-131.882	-0.150	-0.020
-530.077	-82.568	-0.300	0.099
-529.062	243.452	-0.119	0.203
-528.048	-98.506	0.102	-0.027
-527.033	6.757	-0.285	0.215
-526.018	-200.000	-0.010	-0.076
-525.004	-190.422	-0.234	-0.003
-523.989	-134.227	0.144	0.018
-522.975	120.572	-0.193	0.243
-521.960	315.158	0.174	-0.334
-520.945	142.172	-0.250	-0.336
-519.931	125.004	-0.038	0.049
-518.916	800.000	0.023	-0.097
-517.902	-200.000	-0.007	-0.107
-516.887	-200.000	0.038	0.204
-515.872	72.443	-0.057	-0.060
-514.858	-53.137	-0.356	-0.166
-513.843	-200.000	0.015	0.075
-512.829	-200.000	-0.002	-0.018
-511.814	-200.000	-0.000	-0.248
-510.799	-82.121	0.222	0.073
-509.785	-30.683	0.205	0.118
-508.770	-165.913	0.322	0.014
-507.756	-183.466	0.310	0.005
-506.741	-28.502	0.273	0.159
-505.726	-200.000	0.020	-0.250
-504.712	-79.979	0.147	0.050
-503.697	-99.391	-0.153	0.039
-502.683	-85.148	0.196	0.062
-501.668	-66.673	-0.280	-0.113
-500.653	-152.530	-0.446	0.032
-499.639	36.146	0.253	0.226
-498.624	2.407	0.319	-0.234
-497.610	280.886	-0.107	-0.194
-496.595	76.629	-0.242	0.260
-495.581	800.000	0.043	-0.147
-494.566	800.000	-0.147	-0.411
-493.551	35.824	0.115	-0.103
-492.537	28.775	-0.128	-0.110
-491.522	-38.657	0.112	0.060
-490.508	77.419	0.076	-0.083
-489.493	-45.010	-0.200	0.101
-488.478	-200.000	-0.023	-0.245
-487.464	276.544	0.159	0.286
-486.449	-56.784	0.241	-0.108
-485.435	-163.601	0.171	-0.008
-484.420	150.263	0.147	-0.203
-483.405	-14.875	0.142	-0.092
-482.391	-200.000	-0.006	-0.149
-481.376	-157.411	-0.073	-0.004
-480.362	800.000	-0.075	-0.311
-479.347	800.000	-0.056	0.247
-478.332	-200.000	0.012	0.393
-477.318	603.681	0.128	-0.322
-476.303	-104.379	-0.321	-0.075
-475.289	16.326	-0.177	0.142
-474.274	-64.005	0.333	0.138
-473.259	-16.055	-0.387	-0.249
-472.245	251.438	-0.184	0.318
-471.230	301.383	0.085	0.159
-470.216	24.898	0.025	-0.021
-469.201	708.850	0.051	-0.136
-468.186	-111.937	-0.304	0.062
-467.172	201.093	0.084	-0.131
-466.157	356.660	0.071	0.142
-465.143	-68.518	0.145	-0.057
-464.128	-200.000	0.011	-0.344
-463.113	800.000	-0.092	-0.287
-462.099	-7.704	0.095	0.065
-461.084	-134.552	-0.411	-0.051
-460.070	-175.150	-0.177	-0.005
-459.055	35.194	-0.105	-0.093
-458.040	482.710	0.068	0.157
-457.026	-100.780	0.244	0.061
-456.011	-13.054	-0.283	0.187
-454.997	-200.000	0.014	-0.170
-453.982	-79.475	0.060	0.021
-452.968	-200.000	-0.013	-0.185
-451.953	-127.694	-0.163	-0.024
-450.938	-200.000	0.000	0.040
-449.924	-132.142	-0.174	-0.023
-448.909	171.456	-0.044	-0.064
-447.895	-81.011	-0.165	0.055
-446.880	-200.000	0.004	0.132
-445.865	-65.982	0.295	-0.119
-444.851	448.327	0.057	0.127
-443.836	800.000	-0.102	-0.319
-442.822	-200.000	-0.007	-0.197
-441.807	-200.000	-0.131	-0.000
-440.792	546.135	-0.088	-0.212
-439.778	-200.000	-0.001	-0.298
-438.763	80.354	-0.105	-0.115
-437.749	593.870	-0.034	-0.084
-436.734	-200.000	0.055	-0.337
-435.719	143.525	-0.079	0.106
-434.705	53.262	-0.217	-0.210
-433.690	-200.000	-0.001	0.010
-432.676	-112.191	-0.265	0.054
-431.661	-200.000	-0.024	0.133
-430.646	491.719	-0.052	0.122
-429.632	-150.535	-0.143	-0.011
-428.617	-97.642	0.121	0.032
-427.603	-95.525	-0.216	-0.058
-426.588	330.005	0.053	-0.104
-425.573	-148.191	0.317	-0.026
-424.559	-30.427	-0.359	-0.206
-423.544	800.000	0.118	-0.344
-422.530	800.000	0.038	0.110
-421.515	-200.000	-0.020	-0.284
-420.500	-177.029	0.233	0.006
-419.486	-51.748	0.066	0.031
-418.471	-200.000	0.080	0.403
-417.457	-107.810	0.162	0.036
-416.442	305.681	0.082	0.154
-415.428	800.000	0.047	-0.193
-414.413	97.472	-0.181	-0.211
-413.398	222.231	-0.085	-0.139
-412.384	-200.000	-0.011	0.077
-411.369	-200.000	0.015	0.267
-410.355	220.359	-0.191	-0.310
-409.340	-23.574	0.086	-0.052
-408.325	-200.000	-0.013	-0.221
-407.311	-200.000	0.016	-0.085
-406.296	42.355	-0.108	0.099
-405.282	90.229	-0.247	-0.279
-404.267	-79.032	-0.403	-0.139
-403.252	17.488	0.153	0.123
-402.238	-9.795	0.137	0.092
-401.223	-200.000	0.038	0.176
-400.209	-200.000	-0.010	0.189
-399.194	-147.639	0.144	-0.012
-398.179	800.000	-0.062	-0.185
-397.165	-26.335	-0.187	0.111
-396.150	-133.916	-0.119	0.015
-395.136	171.778	0.193	-0.281
-394.121	4.217	0.340	-0.251
-393.106	358.777	0.184	-0.372
-392.092	-172.404	0.379	-0.012
-391.077	156.016	-0.170	0.237
-390.063	142.058	-0.128	0.171
-389.048	22.119	0.157	-0.130
-388.033	800.000	0.079	0.231
-387.019	56.887	-0.265	0.261
-386.004	0.949	0.087	0.063
-384.990	757.299	-0.019	0.052
-383.975	800.000	-0.020	0.058
-382.960	45.291	-0.116	0.108
-381.946	-183.110	0.280	0.005
-380.931	800.000	-0.012	0.048
-379.917	68.324	-0.155	0.160
-378.902	671.424	-0.167	0.438
-377.888	-12.163	0.260	0.172
-376.873	-98.366	-0.109	-0.028
-375.858	-200.000	0.017	0.202
-374.844	-168.059	0.356	0.014
-373.829	-185.618	-0.245	-0.004
-372.815	800.000	-0.073	0.290
-371.800	-200.000	-0.092	0.557
-370.785	11.057	-0.119	-0.092
-369.771	76.735	-0.078	-0.084
-368.756	-131.002	0.170	0.023
-367.742	-200.000	-0.015	0.198
-366.727	298.764	0.105	0.194
-365.712	390.320	-0.085	0.177
-364.698	-51.045	0.295	0.140
-363.683	-68.907	0.116	-0.045
-362.669	254.697	-0.104	-0.179
-361.654	-107.772	0.259	0.057
-360.639	-70.092	0.401	0.154
-359.625	-46.174	-0.228	-0.113
-358.610	-161.546	-0.302	-0.016
-357.596	800.000	-0.107	0.368
-356.581	-54.598	-0.466	0.213
-355.566	-60.330	-0.228	0.098
-354.552	-9.503	0.297	-0.200
-353.537	-22.986	0.068	0.041
-352.523	800.000	-0.034	-0.117
-351.508	-113.194	-0.039	0.008
-350.493	-107.923	0.144	0.032
-349.479	-200.000	0.006	0.218
-348.464	-200.000	-0.001	0.237
-347.450	-64.084	-0.367	0.151
-346.435	232.080	-0.097	0.160
-345.420	-184.431	0.287	0.005
-344.406	-97.757	-0.134	-0.035
-343.391	-91.116	-0.111	-0.032
-342.377	-200.000	0.028	-0.237
-341.362	782.377	-0.048	-0.134
-340.348	-200.000	0.009	0.089
-339.333	-117.755	0.198	-0.036
-338.318	105.253	-0.113	0.135
-337.304	238.970	-0.170	0.285
-336.289	91.186	-0.072	0.081
-335.275	-152.529	-0.224	-0.016
-334.260	800.000	0.119	-0.357
-333.245	-200.000	-0.045	-0.206
-332.231	-117.870	0.151	0.027
-331.216	-200.000	-0.055	0.298
-330.202	-28.269	-0.236	0.137
-329.187	-12.605	0.047	-0.031
-328.172	61.459	-0.162	-0.162
-327.158	415.369	-0.038	0.082
-326.143	-78.455	-0.115	0.040
-325.129	30.478	-0.278	0.239
-324.114	-31.609	0.105	-0.059
-323.099	800.000	0.028	0.099
-322.085	-86.454	-0.167	-0.052
-321.070	86.514	-0.126	-0.140
-320.056	-52.183	0.133	-0.062
-319.041	578.473	-0.066	0.162
-318.026	-200.000	-0.022	0.171
-317.012	-0.362	0.185	-0.132
-315.997	-200.000	0.005	0.054
-314.983	134.670	0.098	0.129
-313.968	-1.097	-0.229	0.163
-312.953	547.494	-0.135	-0.326
-311.939	187.810	-0.167	-0.251
-310.924	-200.000	0.064	0.314
-309.910	205.970	-0.091	0.143
-308.895	800.000	0.083	0.310
-307.880	-60.264	0.036	0.016
-306.866	-99.354	0.352	-0.089
-305.851	64.468	0.099	-0.100
-304.837	-47.596	-0.252	0.123
-303.822	-13.883	-0.065	-0.042
-302.807	-136.342	0.141	0.017
-301.793	-76.209	-0.349	-0.124
-300.778	800.000	-0.076	-0.247
-299.764	800.000	0.020	0.075
-298.749	108.801	0.071	0.086
-297.735	-6.418	0.058	0.040
-296.720	-109.417	-0.152	-0.032
-295.705	-92.855	-0.374	0.105
-294.691	388.152	0.079	-0.165
-293.676	800.000	-0.061	0.189
-292.662	-37.126	-0.224	-0.121
-291.647	94.475	0.135	-0.155
-290.632	222.087	-0.050	0.081
-289.618	42.695	0.025	-0.023
-288.603	54.247	-0.192	0.186
-287.589	756.913	0.113	0.307
-286.574	-19.462	0.163	-0.102
-285.559	667.161	-0.117	-0.303
-284.545	138.792	0.117	-0.155
-283.530	-73.545	-0.192	-0.070
-282.516	-99.731	-0.217	-0.055
-281.501	42.255	0.221	-0.202
-280.486	-22.341	0.346	0.211
-279.472	-102.064	0.285	0.069
-278.457	108.194	0.163	-0.195
-277.443	800.000	0.076	0.220
-276.428	-158.631	0.247	-0.014
-275.413	-96.628	0.281	0.074
-274.399	-74.332	0.309	0.112
-273.384	32.817	-0.167	0.145
-272.370	-119.079	-0.213	-0.037
-271.355	0.898	-0.114	-0.082
-270.340	-28.873	-0.322	-0.186
-269.326	544.201	0.078	-0.188
-268.311	283.197	0.046	0.083
-267.297	170.188	-0.076	0.110
-266.282	248.349	-0.154	-0.262
-265.267	-127.529	0.042	0.006
-264.253	-101.644	-0.390	0.095
-263.238	219.341	-0.133	-0.215
-262.224	188.818	0.188	-0.283
-261.209	-45.203	0.205	-0.103
-260.195	513.299	0.047	0.110
-259.180	105.922	-0.157	-0.187
-258.165	-81.711	-0.086	0.028
-257.151	-71.389	0.153	-0.058
-256.136	-67.255	0.202	0.080
-255.122	-47.474	0.158	0.077
-254.107	-85.636	0.109	-0.034
-253.092	176.119	-0.174	-0.254
-252.078	-28.909	-0.179	0.103
-251.063	-85.420	-0.102	0.032
-250.049	62.233	0.062	-0.062
-249.034	778.720	0.137	0.377
-248.019	-2.879	-0.176	0.123
-247.005	-141.501	0.239	0.024
-245.990	58.119	0.180	0.177
-244.976	-142.846	0.210	0.021
-243.961	20.328	-0.133	0.108
-242.946	-21.658	0.266	0.162
-241.932	-7.953	-0.197	0.133
-240.917	-74.338	0.057	0.021
-239.903	134.783	0.199	0.259
-238.888	244.059	-0.189	-0.318
-237.873	203.788	-0.218	-0.339
-236.859	179.070	0.155	0.228
-235.844	-109.536	0.047	0.010
-234.830	-176.239	0.133	0.003
-233.815	-155.294	0.130	-0.008
-232.800	-30.469	-0.370	0.211
-231.786	16.153	-0.163	0.129
-230.771	-200.000	-0.017	-0.241
-229.757	107.851	0.161	0.193
-228.742	-107.140	-0.069	0.015
-227.727	-75.515	0.304	0.109
-226.713	181.971	-0.212	0.313
-225.698	-50.589	0.120	-0.057
-224.684	-12.014	0.341	0.224
-223.669	11.211	0.183	-0.140
-222.655	56.852	-0.110	-0.108
-221.640	791.135	0.030	-0.084
-220.625	800.000	0.092	0.268
-219.611	731.737	0.039	-0.106
-218.596	738.664	-0.042	0.114
-217.582	36.363	-0.113	-0.100
-216.567	-111.395	0.344	-0.070
-215.552	28.815	-0.269	-0.229
-214.538	800.000	-0.095	0.371
-213.523	123.207	-0.232	-0.291
-212.509	27.831	-0.029	0.025
-211.494	-49.860	-0.164	-0.078
-210.479	-39.006	0.171	0.090
-209.465	800.000	-0.036	0.122
-208.450	800.000	0.051	-0.165
-207.436	-53.350	-0.238	-0.109
-206.421	510.932	0.038	0.089
-205.406	800.000	0.036	0.126
-204.392	296.663	-0.136	-0.249
-203.377	800.000	0.022	-0.074
-202.363	-200.000	0.050	0.310
-201.348	-33.476	-0.027	-0.015
-200.333	351.309	0.067	0.134
-199.319	80.041	-0.080	0.086
-198.304	294.212	0.141	0.259
-197.290	97.378	-0.287	0.330
-196.275	-200.000	-0.041	-0.442
-195.260	-200.000	0.012	0.281
-194.246	3.488	0.044	0.032
-193.231	201.311	0.088	0.135
-192.217	97.063	0.073	-0.084
-191.202	594.705	0.101	-0.251
-190.187	-200.000	0.026	-0.171
-189.173	-81.833	0.112	-0.037
-188.158	-88.780	-0.207	-0.062
-187.144	143.686	0.103	-0.138
-186.129	-200.000	0.001	0.159
-185.114	800.000	0.089	0.358
-184.100	-156.825	0.023	0.001
-183.085	-49.994	0.082	0.039
-182.071	186.756	-0.056	-0.083
-181.056	800.000	0.028	0.088
-180.042	-103.324	0.307	0.073
-179.027	-0.771	0.269	0.191
-178.012	-31.549	0.043	0.024
-176.998	-200.000	0.015	0.119
-175.983	68.232	-0.208	0.214
-174.969	800.000	0.025	-0.086
-173.954	140.010	-0.056	-0.073
-172.939	-200.000	-0.002	0.327
-171.925	-36.213	-0.090	0.048
-170.910	-129.653	-0.111	-0.015
-169.896	108.723	0.118	0.142
-168.881	-13.618	-0.122	-0.079
-167.866	0.368	0.214	-0.153
-166.852	84.636	-0.089	-0.097
-165.837	-200.000	0.027	-0.164
-164.823	38.625	-0.221	0.197
-163.808	42.148	0.330	0.300
-162.793	-200.000	-0.025	-0.210
-161.779	-49.618	-0.064	-0.030
-160.764	-101.930	0.208	0.050
-159.750	-200.000	0.062	0.288
-158.735	-175.206	0.301	-0.008
-157.720	800.000	-0.056	0.189
-156.706	-17.043	0.182	-0.115
-155.691	438.608	-0.050	-0.109
-154.677	-200.000	-0.061	0.395
-153.662	25.883	-0.231	-0.192
-152.647	-198.794	0.182	0.001
-151.633	-200.000	0.019	0.155
-150.618	468.003	-0.136	-0.306
-149.604	-49.941	0.214	-0.101
-148.589	-28.697	-0.308	-0.177
-147.574	131.755	-0.090	-0.116
-146.560	-19.228	-0.046	0.028
-145.545	164.102	-0.070	-0.099
-144.531	99.789	0.037	-0.043
-143.516	-110.289	0.312	-0.065
-142.502	289.407	0.067	-0.122
-141.487	-200.000	0.022	-0.123
-140.472	251.421	0.204	0.348
-139.458	-82.606	-0.256	0.083
-138.443	-51.645	-0.524	0.244
-137.429	561.569	-0.029	0.070
-136.414	58.149	-0.089	0.087
-135.399	781.243	0.041	0.112
-134.385	595.958	-0.206	-0.510
-133.370	800.000	-0.099	-0.277
-132.356	800.000	-0.079	-0.292
-131.341	-15.158	0.084	-0.054
-130.326	800.000	-0.029	-0.088
-129.312	-26.537	0.324	-0.190
-128.297	-51.009	-0.256	0.120
-127.283	-200.000	0.025	0.217
-126.268	-20.173	-0.114	0.070
-125.253	621.445	-0.082	0.206
-124.239	60.451	-0.295	-0.292
-123.224	-200.000	0.036	-0.329
-122.210	-34.508	0.092	-0.051
-121.195	-61.499	-0.058	-0.024
