DTS Sentinel unit serial number:	SN413079Multiplexer serial number:	ORYXHardware model number:	OX4-SRSoftware version number:	ORYX F/W v4.00 Oryx Data Collector v3.7.2.0data status	okinstallation	princeton_trtdifferential loss correction	single-endedforward channel	channel 2reverse channel	N/Adate	2019/09/11time	07:05:11forward acquisition time	60.00reverse acquisition time	0.00gamma	496.2192k internal	0.2327k external	0.2327temperature offset calibration	0.9938default loss term (dB/km)	0.3790temperature slope calibration	1.0000multiplexer offset coefficient	1.0000multiplexer slope coefficient	1.0000fibre end	0.00T internal ref (°C)	30.25T ext. ref 1 (°C)	-0.10T ext. ref 2 (°C)	26.13length (m)	temperature (°C)	Stokes	anti-Stokes-747.200	-98.291	0.176	-0.046
-746.185	-7.659	-0.249	0.169
-745.171	84.836	0.090	0.099
-744.156	274.812	-0.112	0.201
-743.142	-200.000	-0.006	0.034
-742.127	138.216	0.161	-0.213
-741.112	-92.787	-0.215	-0.061
-740.098	4.452	0.133	0.098
-739.083	-6.720	-0.276	0.189
-738.069	-200.000	0.010	0.185
-737.054	-7.326	0.197	-0.134
-736.039	-138.173	-0.118	-0.013
-735.025	800.000	-0.096	0.338
-734.010	178.952	0.012	-0.018
-732.996	-64.146	0.241	-0.099
-731.981	-87.367	-0.260	0.079
-730.966	-200.000	-0.018	-0.260
-729.952	-168.283	-0.203	-0.008
-728.937	40.186	-0.203	-0.184
-727.923	-200.000	0.048	0.405
-726.908	-29.824	-0.218	-0.125
-725.894	-25.030	-0.255	-0.152
-724.879	2.621	-0.124	0.090
-723.864	-29.611	0.101	-0.058
-722.850	-139.270	-0.251	-0.027
-721.835	-65.543	0.101	-0.041
-720.821	-191.792	-0.368	-0.004
-719.806	800.000	-0.049	0.171
-718.791	97.054	0.098	0.113
-717.777	-80.950	-0.138	-0.046
-716.762	108.140	0.071	-0.086
-715.748	-98.360	0.162	-0.042
-714.733	-200.000	0.012	0.144
-713.718	-105.944	-0.132	-0.030
-712.704	-128.214	0.293	-0.042
-711.689	-110.075	-0.241	0.051
-710.675	87.161	0.261	0.291
-709.660	-128.633	-0.282	0.040
-708.645	-20.999	-0.096	0.059
-707.631	-200.000	-0.000	0.102
-706.616	-30.490	-0.254	0.145
-705.602	99.420	-0.134	0.156
-704.587	800.000	0.078	-0.226
-703.572	-141.698	-0.086	0.009
-702.558	191.938	0.130	0.198
-701.543	-36.211	-0.245	-0.133
-700.529	-200.000	-0.040	0.349
-699.514	-78.460	-0.275	0.095
-698.499	547.870	-0.106	-0.257
-697.485	800.000	0.048	-0.167
-696.470	250.873	-0.163	0.279
-695.456	62.593	-0.048	-0.048
-694.441	519.124	-0.130	-0.307
-693.426	410.418	-0.096	-0.205
-692.412	170.411	0.093	0.135
-691.397	-118.570	0.261	0.046
-690.383	-108.858	-0.187	-0.040
-689.368	24.201	-0.147	-0.123
-688.354	-200.000	-0.047	0.301
-687.339	-59.808	-0.201	0.087
-686.324	-200.000	0.030	0.203
-685.310	126.547	-0.257	0.328
-684.295	-81.738	-0.172	0.057
-683.281	254.340	-0.117	0.201
-682.266	-50.323	-0.155	0.074
-681.251	-26.256	0.166	0.098
-680.237	-154.001	-0.138	-0.009
-679.222	-200.000	0.102	-0.494
-678.208	800.000	-0.080	-0.223
-677.193	-169.847	-0.141	-0.005
-676.178	16.567	-0.214	-0.170
-675.164	-73.895	0.150	0.055
-674.149	-200.000	0.027	-0.207
-673.135	-64.631	0.259	-0.106
-672.120	368.434	-0.126	0.257
-671.105	438.420	0.027	-0.059
-670.091	192.932	0.033	-0.050
-669.076	-147.643	-0.125	-0.011
-668.062	-200.000	0.043	0.228
-667.047	-82.660	-0.048	-0.016
-666.032	12.442	-0.271	-0.210
-665.018	-200.000	0.031	0.172
-664.003	11.305	-0.266	0.205
-662.989	-200.000	-0.029	-0.413
-661.974	223.196	0.147	-0.238
-660.959	800.000	-0.070	-0.232
-659.945	800.000	0.063	-0.275
-658.930	-200.000	-0.016	-0.199
-657.916	-200.000	0.028	-0.168
-656.901	190.026	0.032	-0.048
-655.886	800.000	-0.036	-0.131
-654.872	533.168	0.120	-0.286
-653.857	-97.874	0.220	-0.057
-652.843	292.950	-0.145	-0.265
-651.828	82.148	-0.031	-0.033
-650.814	-3.141	0.225	0.158
-649.799	800.000	0.060	0.168
-648.784	-95.112	-0.213	0.058
-647.770	-200.000	-0.042	-0.285
-646.755	-55.045	-0.547	-0.247
-645.741	301.813	0.127	0.235
-644.726	-91.076	-0.186	0.054
-643.711	-200.000	0.007	-0.140
-642.697	-200.000	0.015	-0.095
-641.682	800.000	-0.151	-0.473
-640.668	29.118	0.089	0.076
-639.653	188.727	0.109	0.164
-638.638	-200.000	-0.031	0.293
-637.624	79.515	0.254	-0.274
-636.609	149.024	-0.011	-0.015
-635.595	-154.997	-0.165	0.011
-634.580	-17.247	-0.134	-0.085
-633.565	126.823	0.018	-0.023
-632.551	-66.346	0.364	0.145
-631.536	800.000	-0.061	-0.175
-630.522	92.958	-0.012	-0.014
-629.507	467.810	-0.134	-0.302
-628.492	800.000	0.064	0.271
-627.478	7.680	-0.210	0.158
-626.463	-81.140	-0.245	-0.081
-625.449	30.291	-0.004	0.003
-624.434	-200.000	0.007	-0.127
-623.419	-91.934	0.158	-0.045
-622.405	551.802	-0.126	-0.303
-621.390	-0.428	-0.120	-0.085
-620.376	-200.000	0.028	0.210
-619.361	-200.000	0.010	-0.133
-618.346	7.227	0.268	0.201
-617.332	800.000	-0.033	-0.117
-616.317	-4.638	-0.048	-0.033
-615.303	267.810	0.085	0.149
-614.288	-97.369	-0.259	0.068
-613.273	-95.622	0.248	-0.067
-612.259	-108.146	0.182	-0.039
-611.244	50.804	-0.175	0.166
-610.230	-114.028	0.148	0.029
-609.215	-60.675	-0.241	-0.103
-608.201	248.004	-0.048	0.081
-607.186	-200.000	0.017	0.242
-606.171	513.250	0.058	0.135
-605.157	-18.290	0.337	0.211
-604.142	247.154	-0.118	0.200
-603.128	39.501	-0.133	0.119
-602.113	120.646	-0.107	0.133
-601.098	200.069	-0.090	0.139
-600.084	-52.841	0.174	-0.080
-599.069	-70.680	0.309	0.117
-598.055	-69.172	-0.214	0.083
-597.040	186.704	0.185	0.276
-596.025	-2.800	-0.157	0.110
-595.011	111.866	0.119	0.144
-593.996	-200.000	0.014	0.246
-592.982	-20.230	-0.315	-0.195
-591.967	-149.572	-0.240	-0.019
-590.952	-22.408	0.082	0.050
-589.938	-133.803	0.066	0.008
-588.923	100.907	0.071	-0.083
-587.909	661.404	-0.083	-0.213
-586.894	-129.284	-0.297	-0.041
-585.879	-200.000	0.065	-0.314
-584.865	-140.448	-0.302	-0.032
-583.850	-200.000	-0.052	0.250
-582.836	-162.553	-0.289	0.014
-581.821	-200.000	0.016	0.244
-580.806	786.147	-0.058	-0.160
-579.792	-169.234	0.087	0.003
-578.777	-157.550	0.313	-0.019
-577.763	177.531	0.214	-0.312
-576.748	45.500	0.186	-0.172
-575.733	800.000	-0.078	-0.272
-574.719	22.372	-0.041	-0.033
-573.704	-50.104	-0.229	-0.108
-572.690	800.000	0.077	0.245
-571.675	-152.470	0.226	0.016
-570.661	102.851	-0.027	0.031
-569.646	-64.661	0.287	-0.116
-568.631	-97.714	-0.108	-0.028
-567.617	24.609	-0.029	-0.024
-566.602	-116.377	0.324	-0.060
-565.588	-200.000	-0.048	0.232
-564.573	800.000	0.072	-0.265
-563.558	12.745	-0.241	-0.186
-562.544	-78.152	0.251	-0.086
-561.529	-17.256	0.181	-0.114
-560.515	-200.000	0.005	0.258
-559.500	183.188	-0.169	-0.250
-558.485	-95.711	-0.427	-0.114
-557.471	564.479	0.015	-0.035
-556.456	-133.518	-0.316	-0.040
-555.442	-47.308	0.200	0.098
-554.427	369.019	-0.032	-0.064
-553.412	-200.000	0.014	-0.116
-552.398	368.166	-0.124	0.251
-551.383	-17.079	0.127	-0.080
-550.369	530.497	0.014	0.033
-549.354	-50.037	0.329	0.156
-548.339	1.035	0.076	0.054
-547.325	-163.309	-0.117	0.006
-546.310	-187.042	0.050	-0.001
-545.296	-59.269	-0.405	-0.174
-544.281	211.882	0.026	-0.041
-543.266	800.000	-0.091	-0.292
-542.252	169.284	0.247	0.353
-541.237	72.798	0.142	-0.149
-540.223	-128.183	0.368	0.053
-539.208	-96.104	-0.074	0.020
-538.193	136.230	0.193	-0.252
-537.179	9.475	-0.225	0.170
-536.164	4.081	-0.162	0.119
-535.150	-200.000	0.015	0.102
-534.135	114.008	-0.070	-0.085
-533.121	-137.964	-0.112	-0.012
-532.106	-1.443	0.194	-0.137
-531.091	302.741	-0.076	-0.141
-530.077	-105.351	-0.249	-0.057
-529.062	-94.310	-0.148	-0.040
-528.048	-56.183	0.157	-0.070
-527.033	-200.000	-0.024	0.116
-526.018	-50.758	0.182	-0.086
-525.004	406.720	-0.128	0.270
-523.989	-57.279	-0.221	-0.097
-522.975	-38.476	0.537	0.284
-521.960	-200.000	0.036	-0.218
-520.945	800.000	-0.105	0.335
-519.931	124.955	0.076	0.096
-518.916	143.539	0.041	-0.055
-517.902	-149.700	0.258	-0.020
-516.887	-11.043	-0.024	0.016
-515.872	-58.261	-0.201	0.088
-514.858	-53.122	-0.281	0.129
-513.843	-19.101	-0.233	-0.145
-512.829	10.942	-0.141	-0.108
-511.814	59.084	-0.405	0.398
-510.799	800.000	-0.068	-0.286
-509.785	-103.188	-0.169	-0.040
-508.770	217.538	0.105	0.167
-507.756	-119.607	-0.224	0.039
-506.741	-27.231	-0.170	0.099
-505.726	-65.259	0.080	-0.032
-504.712	46.513	0.071	0.066
-503.697	61.170	-0.202	0.201
-502.683	125.244	-0.040	-0.050
-501.668	356.222	0.016	-0.032
-500.653	-32.270	0.076	-0.042
-499.639	800.000	-0.089	-0.327
-498.624	-200.000	-0.010	-0.163
-497.610	-200.000	0.071	-0.325
-496.595	68.496	0.047	-0.048
-495.581	228.725	-0.035	0.057
-494.566	666.401	0.066	-0.170
-493.551	-66.521	0.118	-0.047
-492.537	27.467	0.177	-0.149
-491.522	-90.271	-0.159	-0.046
-490.508	-200.000	0.025	-0.220
-489.493	-200.000	-0.032	-0.199
-488.478	-135.381	-0.036	-0.004
-487.464	-200.000	0.017	-0.495
-486.449	-200.000	-0.062	0.286
-485.435	-102.101	0.148	0.036
-484.420	800.000	-0.048	-0.139
-483.405	-87.980	0.151	0.045
-482.391	18.750	-0.145	-0.116
-481.376	0.606	0.137	-0.098
-480.362	-10.865	-0.370	0.244
-479.347	296.893	-0.055	0.101
-478.332	-128.095	0.105	-0.015
-477.318	-152.896	-0.069	-0.005
-476.303	-104.646	0.021	-0.005
-475.289	-121.011	-0.279	0.047
-474.274	-147.217	0.157	0.013
-473.259	-200.000	0.015	-0.168
-472.245	115.471	-0.277	-0.338
-471.230	53.068	0.203	0.194
-470.216	111.272	-0.316	0.380
-469.201	-200.000	0.013	-0.177
-468.186	-200.000	0.013	0.097
-467.172	-174.151	0.145	0.004
-466.157	-23.200	0.078	0.047
-465.143	-141.436	-0.334	0.034
-464.128	-164.685	0.225	-0.010
-463.113	-125.372	0.237	-0.036
-462.099	-99.593	0.111	-0.028
-461.084	80.737	0.128	-0.137
-460.070	631.773	0.163	0.411
-459.055	-200.000	-0.001	-0.253
-458.040	-111.209	-0.150	0.031
-457.026	-200.000	-0.035	0.170
-456.011	-200.000	-0.005	-0.068
-454.997	-44.308	0.211	0.105
-453.982	-166.730	-0.084	-0.003
-452.968	-200.000	0.012	0.153
-451.953	-68.740	0.275	0.106
-450.938	-167.838	0.172	-0.007
-449.924	2.114	0.198	0.143
-448.909	800.000	-0.014	-0.052
-447.895	88.874	-0.096	0.106
-446.880	45.973	-0.087	0.081
-445.865	585.217	-0.138	0.338
-444.851	382.284	0.140	0.287
-443.836	-200.000	0.071	-0.380
-442.822	-102.122	-0.290	-0.069
-441.807	319.454	0.037	0.070
-440.792	-173.010	0.416	0.013
-439.778	-149.059	0.051	-0.004
-438.763	-13.353	0.048	0.031
-437.749	264.590	0.194	-0.336
-436.734	-200.000	-0.026	-0.169
-435.719	34.792	0.134	-0.117
-434.705	800.000	-0.058	0.228
-433.690	-105.652	0.103	-0.023
-432.676	-113.413	-0.193	0.038
-431.661	181.015	0.140	0.205
-430.646	-10.458	0.171	-0.113
-429.632	134.538	-0.223	-0.288
-428.617	368.439	-0.176	-0.355
-427.603	-200.000	0.013	-0.124
-426.588	123.392	0.073	0.091
-425.573	-64.441	-0.243	-0.098
-424.559	194.712	-0.112	0.170
-423.544	-47.430	0.250	-0.121
-422.530	-157.020	-0.145	-0.009
-421.515	-140.397	-0.136	-0.014
-420.500	87.205	-0.097	0.107
-419.486	30.105	-0.006	0.005
-418.471	38.460	0.098	0.087
-417.457	354.159	0.104	0.205
-416.442	-36.600	-0.151	-0.081
-415.428	-100.979	0.174	-0.042
-414.413	618.835	0.040	0.099
-413.398	-47.473	0.069	-0.034
-412.384	45.787	0.088	0.081
-411.369	-13.474	0.386	-0.249
-410.355	544.825	0.081	-0.193
-409.340	560.020	0.020	-0.048
-408.325	176.153	0.118	-0.171
-407.311	398.014	-0.067	0.140
-406.296	-200.000	-0.005	0.149
-405.282	70.194	-0.227	0.234
-404.267	800.000	0.088	-0.286
-403.252	-200.000	-0.060	-0.296
-402.238	17.212	0.301	-0.238
-401.223	-127.643	0.190	-0.027
-400.209	205.335	-0.032	-0.050
-399.194	800.000	0.076	-0.268
-398.179	-200.000	-0.048	0.212
-397.165	151.724	0.050	0.068
-396.150	800.000	-0.049	-0.179
-395.136	-200.000	-0.132	-0.000
-394.121	82.050	-0.059	0.064
-393.106	128.240	0.093	-0.118
-392.092	-119.481	0.242	0.042
-391.077	75.753	0.089	-0.094
-390.063	-200.000	0.012	-0.480
-389.048	-200.000	0.019	0.172
-388.033	-64.715	0.041	0.017
-387.019	242.379	0.083	-0.139
-386.004	102.362	0.091	-0.106
-384.990	-25.767	-0.244	-0.143
-383.975	562.803	0.068	0.163
-382.960	-200.000	0.013	0.145
-381.946	-15.107	0.021	-0.014
-380.931	-154.547	0.200	0.013
-379.917	-200.000	-0.007	0.420
-378.902	49.085	-0.177	-0.166
-377.888	335.451	-0.038	0.074
-376.873	629.577	-0.113	-0.285
-375.858	157.622	0.005	0.007
-374.844	215.478	0.308	0.486
-373.829	-115.146	-0.281	0.053
-372.815	178.728	0.161	0.233
-371.800	5.055	0.182	0.133
-370.785	-100.944	-0.152	0.037
-369.771	-139.828	0.143	-0.015
-368.756	187.989	0.287	-0.426
-367.742	-69.410	0.130	0.050
-366.727	-39.920	-0.327	0.170
-365.712	-91.288	-0.230	-0.065
-364.698	344.772	0.095	-0.186
-363.683	-200.000	0.022	-0.138
-362.669	-102.642	-0.245	0.058
-361.654	-156.913	-0.101	-0.006
-360.639	-51.823	0.135	0.062
-359.625	-200.000	-0.031	0.163
-358.610	261.406	0.044	-0.076
-357.596	187.235	-0.115	-0.170
-356.581	-93.659	-0.148	-0.041
-355.566	321.085	-0.156	0.295
-354.552	-200.000	-0.025	0.294
-353.537	800.000	-0.033	-0.118
-352.523	-36.525	0.053	0.029
-351.508	-33.868	0.147	-0.081
-350.493	800.000	0.051	-0.152
-349.479	-129.642	0.108	-0.015
-348.464	-200.000	0.031	0.170
-347.450	229.476	-0.102	0.165
-346.435	-3.330	-0.198	0.137
-345.420	180.425	-0.129	0.188
-344.406	52.340	-0.063	0.060
-343.391	-119.664	-0.099	-0.017
-342.377	800.000	0.017	0.059
-341.362	-122.882	0.184	-0.029
-340.348	26.338	-0.087	0.072
-339.333	22.472	0.123	-0.100
-338.318	-168.491	-0.229	0.009
-337.304	-200.000	0.063	0.461
-336.289	800.000	-0.061	-0.178
-335.275	800.000	-0.058	-0.191
-334.260	303.210	0.150	-0.276
-333.245	-193.447	-0.076	0.001
-332.231	48.470	-0.093	-0.086
-331.216	423.461	0.062	0.133
-330.202	-91.135	-0.186	-0.053
-329.187	31.632	0.395	0.337
-328.172	134.775	0.174	0.224
-327.158	120.061	-0.115	0.141
-326.143	27.091	0.085	0.071
-325.129	800.000	0.027	-0.090
-324.114	200.629	0.281	-0.428
-323.099	-36.435	-0.174	-0.093
-322.085	-200.000	-0.016	0.279
-321.070	-180.183	0.239	-0.005
-320.056	-69.255	0.168	0.064
-319.041	356.844	-0.095	0.188
-318.026	-200.000	-0.019	-0.165
-317.012	-200.000	0.064	-0.308
-315.997	27.994	0.128	-0.107
-314.983	-102.112	0.140	-0.033
-313.968	253.781	-0.088	-0.149
-312.953	-200.000	-0.001	-0.196
-311.939	-75.010	-0.227	-0.080
-310.924	-140.395	-0.155	0.016
-309.910	-200.000	0.014	0.142
-308.895	-101.084	0.315	0.076
-307.880	-165.008	-0.070	0.003
-306.866	-37.512	-0.362	0.192
-305.851	-104.713	-0.178	0.041
-304.837	111.091	-0.172	0.205
-303.822	169.241	0.156	-0.220
-302.807	-144.493	-0.376	0.034
-301.793	-6.654	-0.059	0.040
-300.778	800.000	0.063	-0.202
-299.764	-87.591	-0.102	0.031
-298.749	281.816	0.172	-0.305
-297.735	-100.384	0.363	0.089
-296.720	-200.000	0.035	0.162
-295.705	420.997	0.067	0.143
-294.691	-129.221	-0.042	0.006
-293.676	-65.536	-0.211	0.084
-292.662	449.012	-0.109	0.238
-291.647	310.209	-0.169	-0.314
-290.632	800.000	-0.039	-0.136
-289.618	800.000	0.004	0.012
-288.603	5.502	0.060	0.044
-287.589	-200.000	-0.021	-0.123
-286.574	-106.619	0.117	0.026
-285.559	89.696	0.323	-0.357
-284.545	-200.000	0.025	-0.173
-283.530	75.186	0.165	0.172
-282.516	-35.159	0.196	0.105
-281.501	-50.022	0.245	0.115
-280.486	-200.000	-0.002	0.151
-279.472	102.584	0.118	0.137
-278.457	60.685	-0.186	-0.183
-277.443	-200.000	0.001	0.397
-276.428	168.657	-0.248	0.350
-275.413	-24.470	0.135	-0.080
-274.399	-169.360	0.458	0.017
-273.384	28.178	0.144	0.121
-272.370	-4.489	-0.047	-0.032
-271.355	-52.379	-0.257	0.118
-270.340	278.165	-0.139	0.245
-269.326	-200.000	-0.019	-0.214
-268.311	-101.700	0.083	-0.020
-267.297	130.694	-0.190	-0.241
-266.282	339.146	0.093	-0.180
-265.267	-97.852	0.242	0.062
-264.253	-136.401	-0.166	-0.019
-263.238	460.229	0.054	0.119
-262.224	-0.080	-0.251	0.177
-261.209	-91.512	0.294	-0.083
-260.195	80.327	0.081	0.086
-259.180	75.610	0.081	-0.085
-258.165	-200.000	0.046	0.246
-257.151	-151.878	0.227	0.016
-256.136	-54.663	-0.247	0.110
-255.122	-145.133	0.098	-0.009
-254.107	-200.000	-0.003	0.072
-253.092	-66.289	-0.077	-0.030
-252.078	-109.636	-0.296	-0.062
-251.063	110.837	0.144	0.172
-250.049	-200.000	0.020	-0.326
-249.034	232.998	-0.231	0.375
-248.019	800.000	0.071	-0.199
-247.005	-72.127	-0.268	0.098
-245.990	-164.510	0.136	0.006
-244.976	162.895	-0.088	-0.122
-243.961	-162.163	0.315	0.016
-242.946	-106.613	-0.367	-0.081
-241.932	-97.634	0.131	-0.034
-240.917	57.214	-0.267	0.258
-239.903	-200.000	-0.013	0.099
-238.888	-200.000	0.014	0.117
-237.873	-86.852	-0.376	0.114
-236.859	-25.266	-0.313	-0.183
-235.844	-18.341	-0.131	0.081
-234.830	153.361	-0.172	0.233
-233.815	800.000	-0.039	-0.140
-232.800	-32.181	0.175	0.097
-231.786	800.000	0.045	0.162
-230.771	-200.000	-0.052	-0.249
-229.757	-154.702	0.121	-0.008
-228.742	655.184	0.092	0.234
-227.727	75.279	0.283	-0.295
-226.713	-24.965	-0.279	-0.164
-225.698	-46.382	-0.238	-0.116
-224.684	42.839	-0.117	0.105
-223.669	-81.859	0.356	-0.115
-222.655	301.929	0.107	0.195
-221.640	-27.972	-0.174	-0.100
-220.625	-20.742	0.129	0.078
-219.611	-4.404	-0.319	0.218
-218.596	-119.806	0.243	0.041
-217.582	-55.329	-0.129	0.057
-216.567	-108.141	-0.267	0.057
-215.552	138.214	-0.234	0.303
-214.538	-31.287	-0.068	-0.038
-213.523	124.530	0.140	-0.174
-212.509	38.716	0.228	-0.201
-211.494	-18.677	-0.376	0.232
-210.479	-129.216	-0.347	-0.048
-209.465	46.083	-0.157	0.144
-208.450	-138.321	0.140	0.015
-207.436	210.854	0.110	0.171
-206.421	179.258	-0.060	-0.086
-205.406	247.566	0.243	-0.405
-204.392	-12.233	-0.147	-0.095
-203.377	134.671	-0.116	0.149
-202.363	-108.333	0.302	0.064
-201.348	-144.466	-0.343	-0.031
-200.333	158.317	0.188	0.258
-199.319	-200.000	-0.022	-0.261
-198.304	110.968	0.080	0.095
-197.290	374.948	0.114	0.230
-196.275	631.928	0.093	-0.232
-195.260	55.795	0.231	-0.221
-194.246	-134.985	-0.258	-0.031
-193.231	-200.000	-0.079	-0.348
-192.217	-155.040	-0.178	0.012
-191.202	-110.619	0.274	-0.056
-190.187	49.667	-0.198	-0.184
-189.173	-108.433	0.198	0.042
-188.158	741.550	0.035	0.093
-187.144	46.970	-0.249	0.229
-186.129	-200.000	0.077	0.385
-185.114	152.392	0.184	0.248
-184.100	-47.208	0.124	-0.060
-183.085	-200.000	0.009	0.111
-182.071	67.566	0.162	0.163
-181.056	103.239	0.208	0.241
-180.042	-200.000	-0.004	0.067
-179.027	-9.359	0.143	-0.094
-178.012	-8.263	0.219	-0.145
-176.998	-19.692	-0.203	-0.124
-175.983	-200.000	0.003	0.202
-174.969	-106.679	-0.015	-0.003
-173.954	10.202	-0.070	0.052
-172.939	-48.154	0.136	-0.065
-171.925	-93.357	0.456	-0.125
-170.910	800.000	0.014	0.050
-169.896	800.000	-0.045	-0.166
-168.881	13.371	-0.195	-0.149
-167.866	-200.000	0.021	-0.145
-166.852	-200.000	0.026	-0.159
-165.837	-120.210	-0.128	0.022
-164.823	-154.673	-0.281	0.018
-163.808	-82.952	0.181	0.058
-162.793	-144.748	0.066	0.006
-161.779	-89.042	0.164	0.048
-160.764	-16.931	-0.281	0.175
-159.750	-200.000	0.006	-0.111
-158.735	313.750	0.101	0.187
-157.720	-62.690	0.227	-0.093
-156.706	-110.963	-0.068	0.014
-155.691	143.308	-0.090	-0.118
-154.677	-140.035	0.252	0.026
-153.662	70.210	-0.176	-0.179
-152.647	-148.925	0.363	0.029
-151.633	155.421	-0.035	-0.048
-150.618	-43.162	0.286	-0.143
-149.604	32.204	-0.319	0.271
-148.589	798.117	0.096	0.260
-147.574	-200.000	0.019	0.110
-146.560	-138.128	-0.121	-0.013
-145.545	-92.828	-0.201	-0.055
-144.531	24.683	-0.107	-0.088
-143.516	-83.624	0.324	-0.102
-142.502	-23.329	0.243	0.144
-141.487	124.501	0.089	0.110
-140.472	-200.000	-0.038	0.561
-139.458	791.335	-0.157	-0.425
-138.443	231.756	0.084	-0.135
-137.429	227.087	0.063	-0.101
-136.414	-30.192	-0.128	-0.072
-135.399	-43.672	0.249	0.124
-134.385	496.646	-0.117	0.266
-133.370	236.889	-0.149	0.243
-132.356	-74.943	0.069	0.024
-131.341	-31.989	0.117	0.065
-130.326	228.319	0.092	-0.148
-129.312	-200.000	0.051	0.351
-128.297	-30.822	-0.067	-0.037
-127.283	377.246	0.067	-0.134
-126.268	615.731	0.056	-0.138
-125.253	-200.000	0.045	0.253
-124.239	65.209	0.185	-0.184
-123.224	23.333	-0.216	-0.174
-122.210	-94.914	-0.114	0.030
