DTS Sentinel unit serial number:	SN413079Multiplexer serial number:	ORYXHardware model number:	OX4-SRSoftware version number:	ORYX F/W v4.00 Oryx Data Collector v3.7.2.0data status	okinstallation	princeton_trtdifferential loss correction	single-endedforward channel	channel 2reverse channel	N/Adate	2019/09/11time	06:49:10forward acquisition time	60.00reverse acquisition time	0.00gamma	496.2192k internal	0.2327k external	0.2327temperature offset calibration	0.9939default loss term (dB/km)	0.3790temperature slope calibration	1.0000multiplexer offset coefficient	1.0000multiplexer slope coefficient	1.0000fibre end	0.00T internal ref (°C)	29.91T ext. ref 1 (°C)	-0.12T ext. ref 2 (°C)	25.14length (m)	temperature (°C)	Stokes	anti-Stokes-747.200	115.684	-0.029	-0.036
-746.185	800.000	-0.100	0.341
-745.171	-103.088	0.247	0.059
-744.156	-163.612	0.067	0.003
-743.142	-56.585	-0.226	-0.101
-742.127	-110.069	-0.094	0.020
-741.112	499.858	-0.068	0.158
-740.098	-84.324	-0.047	-0.015
-739.083	800.000	0.059	0.257
-738.069	-200.000	-0.067	0.302
-737.054	102.837	0.178	0.210
-736.039	-142.141	-0.202	-0.020
-735.025	761.026	0.089	-0.243
-734.010	800.000	0.196	-0.588
-732.996	9.867	-0.103	-0.079
-731.981	-2.689	0.337	-0.237
-730.966	-127.787	0.179	-0.026
-729.952	-200.000	-0.047	-0.213
-728.937	-200.000	0.010	0.380
-727.923	-139.484	-0.120	-0.013
-726.908	165.181	0.066	0.094
-725.894	132.595	-0.094	-0.122
-724.879	-13.802	-0.203	-0.132
-723.864	-114.875	-0.455	-0.087
-722.850	-200.000	-0.071	-0.335
-721.835	39.967	-0.283	-0.256
-720.821	800.000	-0.055	-0.206
-719.806	-68.833	-0.192	-0.075
-718.791	11.909	0.375	-0.290
-717.777	-200.000	0.026	-0.241
-716.762	-44.467	-0.141	-0.071
-715.748	800.000	0.036	-0.148
-714.733	-13.157	-0.078	0.051
-713.718	-164.637	-0.421	-0.019
-712.704	122.638	-0.196	-0.247
-711.689	298.052	-0.036	-0.067
-710.675	11.632	0.037	-0.028
-709.660	-98.494	0.127	-0.033
-708.645	-67.984	-0.137	-0.054
-707.631	84.346	0.144	-0.159
-706.616	286.222	0.124	-0.226
-705.602	67.021	0.233	-0.239
-704.587	-200.000	0.052	-0.252
-703.572	800.000	-0.027	-0.109
-702.558	-200.000	-0.024	0.154
-701.543	47.317	-0.203	0.190
-700.529	-95.875	0.174	0.047
-699.514	157.936	-0.280	0.390
-698.499	-126.481	-0.168	-0.025
-697.485	-88.151	0.421	-0.127
-696.470	-200.000	0.008	-0.129
-695.456	-16.381	0.381	-0.243
-694.441	-78.993	-0.196	-0.067
-693.426	-151.165	0.292	0.022
-692.412	268.033	-0.127	-0.224
-691.397	-35.331	-0.249	0.136
-690.383	-99.540	0.432	-0.109
-689.368	174.312	0.106	-0.154
-688.354	-79.868	-0.311	0.105
-687.339	133.341	0.257	-0.334
-686.324	50.119	-0.388	0.369
-685.310	-46.280	-0.112	-0.055
-684.295	518.685	-0.067	-0.157
-683.281	-47.755	0.215	0.105
-682.266	198.833	-0.202	-0.311
-681.251	4.606	0.244	-0.180
-680.237	258.641	-0.091	0.157
-679.222	-114.992	-0.236	0.045
-678.208	-30.143	-0.103	0.059
-677.193	-68.455	0.160	-0.062
-676.178	29.241	0.240	0.205
-675.164	182.379	-0.036	0.053
-674.149	-87.817	0.054	0.016
-673.135	800.000	-0.084	0.233
-672.120	152.198	0.126	0.173
-671.105	-79.741	0.389	0.132
-670.091	-123.448	0.194	0.031
-669.076	136.166	0.193	-0.252
-668.062	24.798	-0.248	-0.207
-667.047	-200.000	0.001	-0.087
-666.032	800.000	0.043	-0.154
-665.018	-155.539	-0.159	0.010
-664.003	-114.298	0.135	0.026
-662.989	403.882	-0.162	0.343
-661.974	422.806	0.069	0.148
-660.959	-9.374	-0.233	0.157
-659.945	800.000	-0.113	0.435
-658.930	-56.589	-0.103	-0.046
-657.916	96.530	0.307	-0.353
-656.901	85.093	0.181	0.200
-655.886	-109.698	-0.087	-0.018
-654.872	-128.937	-0.209	-0.029
-653.857	20.399	0.123	0.099
-652.843	104.430	-0.427	-0.505
-651.828	13.653	0.222	0.173
-650.814	630.088	0.121	-0.309
-649.799	57.166	-0.212	0.208
-648.784	17.828	-0.211	0.168
-647.770	72.430	-0.282	-0.295
-646.755	617.558	0.043	-0.109
-645.741	-200.000	-0.005	0.049
-644.726	-74.267	-0.285	-0.104
-643.711	16.949	-0.199	-0.158
-642.697	127.011	0.070	0.089
-641.682	74.785	0.187	-0.197
-640.668	-200.000	-0.008	0.115
-639.653	-193.207	-0.101	-0.001
-638.638	100.192	-0.189	-0.220
-637.624	-57.567	0.194	-0.085
-636.609	91.856	0.054	0.061
-635.595	284.696	0.163	-0.294
-634.580	-10.476	0.062	-0.041
-633.565	800.000	-0.135	-0.387
-632.551	-61.993	0.098	0.041
-631.536	-50.442	-0.345	0.164
-630.522	-200.000	0.003	0.044
-629.507	334.209	0.049	0.094
-628.492	289.495	0.065	-0.119
-627.478	-172.648	-0.037	0.001
-626.463	80.182	-0.163	-0.176
-625.449	-97.084	0.180	-0.047
-624.434	-45.135	-0.073	-0.036
-623.419	800.000	-0.058	0.171
-622.405	-200.000	0.033	0.188
-621.390	16.673	0.235	0.187
-620.376	34.484	-0.070	0.061
-619.361	102.116	-0.250	-0.293
-618.346	800.000	0.106	0.330
-617.332	-157.739	-0.189	-0.011
-616.317	72.655	-0.290	-0.304
-615.303	46.647	0.156	-0.145
-614.288	706.418	0.027	0.072
-613.273	628.425	-0.037	0.095
-612.259	721.434	-0.218	0.583
-611.244	800.000	0.078	-0.315
-610.230	-81.509	-0.096	-0.032
-609.215	-25.554	0.101	0.060
-608.201	52.505	-0.173	-0.165
-607.186	-129.762	-0.399	0.055
-606.171	-200.000	-0.021	0.234
-605.157	-32.463	-0.146	0.082
-604.142	243.005	-0.073	-0.123
-603.128	-200.000	0.014	-0.273
-602.113	307.542	-0.023	-0.043
-601.098	800.000	-0.008	0.032
-600.084	800.000	-0.088	-0.280
-599.069	-66.720	-0.089	-0.035
-598.055	-35.895	0.254	-0.138
-597.040	169.749	0.069	-0.099
-596.025	-99.982	-0.353	0.088
-595.011	128.156	0.160	-0.204
-593.996	42.355	-0.153	-0.139
-592.982	-143.379	-0.085	0.008
-591.967	-75.618	-0.070	-0.025
-590.952	142.138	0.311	0.414
-589.938	-200.000	-0.040	0.513
-588.923	-30.797	-0.310	-0.175
-587.909	11.222	-0.089	0.068
-586.894	-43.464	0.311	-0.158
-585.879	-75.210	0.313	0.112
-584.865	9.527	-0.267	-0.202
-583.850	-55.904	-0.157	-0.070
-582.836	277.442	-0.119	-0.212
-581.821	-55.079	-0.246	0.111
-580.806	98.363	0.018	-0.021
-579.792	7.740	0.174	0.130
-578.777	-116.763	-0.203	0.037
-577.763	414.999	0.218	-0.466
-576.748	-200.000	0.007	-0.142
-575.733	231.002	0.063	0.103
-574.719	-59.707	0.288	0.124
-573.704	-62.818	-0.115	0.048
-572.690	800.000	-0.042	0.169
-571.675	88.711	-0.128	0.142
-570.661	-50.714	0.159	0.075
-569.646	382.000	0.089	0.183
-568.631	267.116	0.170	0.298
-567.617	-200.000	0.038	-0.314
-566.602	33.657	-0.228	0.198
-565.588	-200.000	0.027	0.302
-564.573	349.916	0.107	0.212
-563.558	800.000	0.047	-0.173
-562.544	-200.000	-0.274	-0.001
-561.529	-16.245	-0.279	0.178
-560.515	-76.011	-0.176	-0.062
-559.500	-200.000	-0.012	-0.242
-558.485	-200.000	0.029	-0.151
-557.471	-200.000	0.043	-0.228
-556.456	-190.389	-0.094	0.001
-555.442	800.000	0.069	0.279
-554.427	182.047	-0.071	-0.105
-553.412	-191.817	-0.145	0.001
-552.398	-61.177	-0.277	0.117
-551.383	-129.205	0.439	-0.061
-550.369	-200.000	0.048	0.246
-549.354	94.070	-0.167	-0.190
-548.339	-71.962	0.217	0.081
-547.325	49.141	-0.279	-0.262
-546.310	404.603	-0.129	0.271
-545.296	123.175	-0.109	0.137
-544.281	-47.785	0.103	-0.050
-543.266	-30.444	0.111	0.063
-542.252	-44.126	-0.183	0.092
-541.237	-107.935	-0.303	0.066
-540.223	800.000	0.056	0.219
-539.208	800.000	-0.060	-0.184
-538.193	84.632	0.220	-0.241
-537.179	-26.700	-0.240	-0.141
-536.164	156.203	0.077	-0.106
-535.150	63.698	-0.160	0.161
-534.135	-39.268	-0.220	-0.116
-533.121	308.723	0.036	0.068
-532.106	-134.123	0.250	-0.031
-531.091	409.347	-0.093	0.197
-530.077	144.750	0.100	-0.134
-529.062	-63.693	-0.094	-0.038
-528.048	494.050	0.121	0.277
-527.033	-200.000	0.001	0.123
-526.018	162.496	0.112	0.157
-525.004	-134.745	-0.264	-0.032
-523.989	87.627	-0.028	-0.031
-522.975	13.170	-0.188	-0.146
-521.960	-93.849	-0.411	-0.113
-520.945	-25.932	0.226	0.133
-519.931	527.755	0.082	-0.193
-518.916	-165.630	0.200	0.009
-517.902	311.224	-0.087	-0.163
-516.887	-30.419	-0.115	-0.065
-515.872	-104.435	0.401	0.093
-514.858	-106.164	-0.060	0.013
-513.843	-137.162	0.137	-0.016
-512.829	-200.000	0.006	0.064
-511.814	-90.987	0.432	-0.124
-510.799	112.458	0.075	0.091
-509.785	-72.598	-0.269	0.099
-508.770	-55.267	-0.083	-0.037
-507.756	-124.982	-0.185	0.028
-506.741	762.688	0.125	0.339
-505.726	-109.148	0.101	-0.021
-504.712	332.452	-0.030	-0.058
-503.697	-41.377	-0.074	-0.038
-502.683	-89.029	0.174	-0.051
-501.668	800.000	0.067	0.188
-500.653	-33.763	-0.297	-0.164
-499.639	-86.590	-0.236	0.072
-498.624	-61.389	0.186	-0.078
-497.610	-200.000	0.001	0.569
-496.595	-25.013	-0.267	0.158
-495.581	-200.000	0.014	0.280
-494.566	-83.826	-0.168	-0.054
-493.551	-200.000	0.015	0.212
-492.537	-142.850	-0.242	0.024
-491.522	800.000	0.065	0.281
-490.508	39.357	-0.191	0.170
-489.493	-14.805	0.360	-0.230
-488.478	-160.029	-0.097	-0.005
-487.464	-169.616	-0.163	0.006
-486.449	187.675	-0.095	-0.141
-485.435	6.208	0.254	-0.188
-484.420	106.507	0.117	-0.139
-483.405	-200.000	-0.023	-0.328
-482.391	800.000	-0.096	0.302
-481.376	-67.984	0.121	-0.047
-480.362	-102.853	-0.280	-0.066
-479.347	387.796	-0.069	0.142
-478.332	266.078	0.073	-0.128
-477.318	-134.287	-0.081	-0.010
-476.303	241.174	-0.049	0.082
-475.289	800.000	0.084	0.338
-474.274	-126.866	0.324	0.048
-473.259	-164.238	-0.158	-0.007
-472.245	3.462	0.321	-0.233
-471.230	800.000	-0.013	0.044
-470.216	106.806	0.112	-0.133
-469.201	-90.013	0.048	0.014
-468.186	-50.935	-0.092	-0.043
-467.172	-28.212	0.144	-0.083
-466.157	-131.606	-0.256	0.034
-465.143	77.281	-0.069	0.074
-464.128	567.240	-0.162	0.392
-463.113	51.923	-0.196	0.186
-462.099	-22.082	-0.056	0.034
-461.084	-63.431	0.231	0.095
-460.070	4.959	0.052	0.038
-459.055	-200.000	-0.045	0.270
-458.040	30.287	0.197	-0.168
-457.026	40.497	0.122	-0.110
-456.011	-76.060	0.242	0.085
-454.997	800.000	0.036	0.152
-453.982	-117.673	-0.197	-0.035
-452.968	45.159	-0.222	-0.204
-451.953	663.560	-0.155	0.400
-450.938	-200.000	-0.028	0.267
-449.924	146.587	-0.062	0.084
-448.909	-17.739	0.114	-0.071
-447.895	-118.890	0.202	-0.035
-446.880	-200.000	0.117	0.524
-445.865	-115.021	0.324	0.061
-444.851	148.116	-0.027	0.037
-443.836	-200.000	-0.011	-0.136
-442.822	-200.000	0.019	0.344
-441.807	13.373	0.126	-0.097
-440.792	201.422	-0.188	-0.288
-439.778	56.466	-0.112	-0.108
-438.763	66.207	0.112	-0.114
-437.749	63.860	0.160	-0.161
-436.734	35.661	-0.228	0.199
-435.719	-125.096	-0.123	0.019
-434.705	800.000	0.080	0.318
-433.690	800.000	0.031	-0.114
-432.676	-25.618	0.131	-0.077
-431.661	-123.165	0.044	0.007
-430.646	-160.074	0.123	-0.007
-429.632	-67.040	0.310	0.122
-428.617	9.571	0.253	0.191
-427.603	-49.577	-0.168	0.080
-426.588	124.075	-0.206	-0.258
-425.573	-200.000	-0.036	0.255
-424.559	-200.000	0.032	-0.427
-423.544	407.014	0.081	-0.170
-422.530	-200.000	-0.026	0.159
-421.515	62.916	-0.272	-0.271
-420.500	65.981	-0.066	-0.067
-419.486	-75.309	-0.035	-0.012
-418.471	-2.617	-0.246	-0.172
-417.457	-200.000	0.018	-0.159
-416.442	-200.000	-0.042	0.221
-415.428	-200.000	0.041	-0.295
-414.413	-92.535	0.360	0.101
-413.398	800.000	-0.137	0.421
-412.384	-64.381	0.190	0.077
-411.369	-104.871	-0.097	-0.022
-410.355	117.043	0.145	0.177
-409.340	169.169	-0.116	0.165
-408.325	0.479	0.099	0.071
-407.311	-88.636	0.160	0.047
-406.296	573.092	0.173	-0.419
-405.282	241.431	0.115	0.192
-404.267	50.783	0.099	0.093
-403.252	-165.035	0.156	0.007
-402.238	-5.429	0.053	-0.036
-401.223	82.396	-0.298	0.321
-400.209	-200.000	0.016	-0.072
-399.194	-46.569	0.080	-0.039
-398.179	-68.526	-0.017	-0.006
-397.165	263.677	-0.166	-0.286
-396.150	-88.219	0.290	0.086
-395.136	45.440	-0.113	0.103
-394.121	96.415	-0.047	0.053
-393.106	-194.040	0.368	-0.003
-392.092	-50.968	0.232	-0.108
-391.077	118.867	0.182	0.223
-390.063	800.000	-0.075	-0.217
-389.048	-200.000	0.000	-0.035
-388.033	794.700	0.138	0.377
-387.019	-200.000	0.030	-0.262
-386.004	261.752	0.193	-0.333
-384.990	-67.938	-0.072	0.028
-383.975	230.797	-0.132	-0.214
-382.960	107.514	0.221	0.261
-381.946	-63.248	0.198	0.081
-380.931	-45.308	0.305	-0.150
-379.917	-20.011	-0.108	-0.066
-378.902	24.965	0.107	-0.088
-377.888	243.171	-0.177	0.294
-376.873	105.074	0.078	-0.091
-375.858	-25.337	0.225	-0.132
-374.844	335.584	0.205	0.394
-373.829	669.385	-0.135	-0.347
-372.815	-39.854	-0.083	0.043
-371.800	-138.232	0.276	0.030
-370.785	52.505	0.088	0.084
-369.771	800.000	0.009	0.032
-368.756	398.520	-0.169	0.352
-367.742	-200.000	0.024	-0.123
-366.727	-200.000	0.014	-0.076
-365.712	90.690	0.395	-0.440
-364.698	800.000	-0.057	0.205
-363.683	-190.801	0.325	-0.003
-362.669	58.978	-0.060	0.059
-361.654	-200.000	0.050	0.227
-360.639	-1.490	0.298	-0.209
-359.625	-45.072	0.103	-0.051
-358.610	175.625	0.201	0.290
-357.596	312.325	-0.180	0.335
-356.581	-200.000	0.016	0.115
-355.566	51.698	0.271	0.256
-354.552	-200.000	-0.010	-0.217
-353.537	800.000	-0.059	-0.230
-352.523	298.920	-0.169	0.308
-351.508	-98.799	-0.283	0.071
-350.493	288.361	-0.196	0.352
-349.479	-200.000	-0.029	0.181
-348.464	-73.276	0.247	0.090
-347.450	218.089	0.108	0.170
-346.435	258.398	0.036	-0.062
-345.420	-31.175	0.137	-0.077
-344.406	-126.790	-0.110	0.016
-343.391	-143.765	0.131	-0.012
-342.377	-53.923	0.069	-0.031
-341.362	-200.000	0.009	-0.186
-340.348	-122.351	0.262	0.042
-339.333	245.332	0.065	0.109
-338.318	132.287	0.157	-0.200
-337.304	754.778	-0.099	-0.265
-336.289	15.549	-0.073	-0.057
-335.275	172.090	-0.128	-0.182
-334.260	-133.744	-0.189	0.023
-333.245	800.000	-0.005	-0.018
-332.231	-142.551	0.267	-0.026
-331.216	-200.000	0.029	-0.164
-330.202	-200.000	-0.032	-0.186
-329.187	130.465	-0.053	0.068
-328.172	576.078	0.107	-0.258
-327.158	592.060	0.090	-0.220
-326.143	-139.155	0.016	0.002
-325.129	110.731	-0.188	0.224
-324.114	-200.000	-0.006	0.132
-323.099	70.429	0.146	-0.149
-322.085	-66.788	-0.092	-0.036
-321.070	-92.237	0.250	-0.070
-320.056	496.272	0.045	0.103
-319.041	800.000	-0.041	-0.118
-318.026	153.842	0.184	-0.250
-317.012	434.895	0.074	-0.159
-315.997	-200.000	-0.039	0.201
-314.983	-111.182	-0.259	-0.053
-313.968	124.348	-0.317	-0.395
-312.953	60.569	0.127	0.124
-311.939	20.636	0.168	-0.135
-310.924	800.000	-0.070	-0.219
-309.910	-101.030	-0.344	-0.084
-308.895	-119.034	0.337	-0.058
-307.880	-36.235	-0.316	0.169
-306.866	800.000	0.044	0.156
-305.851	137.802	0.183	-0.238
-304.837	113.425	-0.026	0.032
-303.822	308.095	0.008	0.016
-302.807	-85.314	-0.184	-0.057
-301.793	9.097	-0.047	-0.036
-300.778	-132.365	-0.075	0.010
-299.764	-200.000	-0.027	0.170
-298.749	800.000	-0.060	-0.240
-297.735	-200.000	-0.013	-0.199
-296.720	800.000	-0.123	0.349
-295.705	-82.166	0.116	0.038
-294.691	314.263	0.129	0.241
-293.676	-200.000	0.049	-0.321
-292.662	-193.090	0.066	0.001
-291.647	85.303	0.154	-0.167
-290.632	195.443	0.059	-0.089
-289.618	-200.000	-0.035	0.208
-288.603	-93.157	0.218	0.060
-287.589	-200.000	-0.022	0.166
-286.574	-12.204	-0.101	-0.065
-285.559	800.000	-0.046	0.190
-284.545	179.426	0.063	-0.091
-283.530	-124.786	0.239	-0.037
-282.516	372.632	-0.155	0.311
-281.501	800.000	0.050	0.207
-280.486	-67.240	0.234	-0.091
-279.472	-200.000	0.030	-0.279
-278.457	-146.790	0.156	0.013
-277.443	-200.000	0.095	-0.415
-276.428	0.965	-0.183	0.130
-275.413	-79.013	-0.356	0.120
-274.399	-81.719	-0.142	0.046
-273.384	-200.000	0.006	0.217
-272.370	800.000	0.026	-0.097
-271.355	306.015	0.101	-0.185
-270.340	-67.184	-0.138	0.054
-269.326	-83.168	-0.169	-0.054
-268.311	561.926	-0.123	-0.296
-267.297	-90.431	0.276	0.079
-266.282	-7.048	-0.279	-0.188
-265.267	287.686	-0.032	-0.057
-264.253	-93.590	-0.164	-0.045
-263.238	-14.017	-0.116	-0.074
-262.224	9.518	-0.204	0.153
-261.209	-109.038	0.324	0.068
-260.195	-75.477	0.104	0.036
-259.180	-91.986	0.142	0.040
-258.165	-33.139	0.144	-0.079
-257.151	800.000	-0.029	-0.103
-256.136	-179.722	-0.333	-0.007
-255.122	0.889	0.200	0.142
-254.107	64.029	-0.248	0.247
-253.092	160.107	0.054	0.074
-252.078	80.656	-0.255	-0.272
-251.063	-121.590	0.408	0.067
-250.049	-100.196	-0.158	-0.039
-249.034	71.595	-0.101	-0.104
-248.019	-200.000	0.049	-0.272
-247.005	736.422	-0.045	-0.119
-245.990	64.448	0.210	-0.210
-244.976	-200.000	0.018	-0.281
-243.961	111.870	0.291	-0.348
-242.946	800.000	-0.097	0.287
-241.932	143.086	-0.105	0.138
-240.917	-200.000	0.008	0.146
-239.903	351.403	-0.097	-0.191
-238.888	68.654	0.193	0.196
-237.873	-39.734	-0.116	0.060
-236.859	306.534	-0.061	0.113
-235.844	-13.718	0.145	-0.093
-234.830	-118.230	0.277	0.049
-233.815	62.531	-0.163	0.161
-232.800	-32.573	-0.221	0.122
-231.786	59.271	0.069	0.067
-230.771	-120.799	0.240	0.040
-229.757	-200.000	0.007	0.085
-228.742	184.549	-0.062	-0.091
-227.727	-155.126	-0.418	-0.027
-226.713	23.587	0.177	0.144
-225.698	284.017	-0.121	0.215
-224.684	-131.207	0.090	-0.012
-223.669	330.584	0.053	0.101
-222.655	-200.000	-0.004	-0.102
-221.640	-13.429	-0.134	0.086
-220.625	-93.175	-0.196	-0.054
-219.611	448.162	0.113	0.245
-218.596	465.219	0.050	-0.111
-217.582	-200.000	0.037	-0.218
-216.567	60.044	-0.194	0.189
-215.552	246.580	0.084	0.140
-214.538	-5.524	0.288	0.195
-213.523	154.309	-0.151	0.205
-212.509	24.396	0.114	-0.093
-211.494	-112.019	0.166	-0.033
-210.479	-200.000	-0.005	-0.150
-209.465	86.629	0.131	-0.143
-208.450	-87.425	0.205	-0.061
-207.436	149.504	0.165	-0.220
-206.421	286.583	-0.049	-0.088
-205.406	800.000	-0.017	-0.063
-204.392	-200.000	0.013	-0.059
-203.377	35.652	-0.160	-0.139
-202.363	-32.419	-0.288	-0.158
-201.348	-105.488	-0.319	0.071
-200.333	-200.000	-0.030	-0.375
-199.319	-200.000	0.028	-0.158
-198.304	306.001	-0.158	-0.291
-197.290	-106.336	0.211	-0.047
-196.275	107.526	-0.108	-0.126
-195.260	306.453	-0.045	0.082
-194.246	149.737	0.244	-0.326
-193.231	-79.053	0.189	-0.063
-192.217	143.349	-0.064	0.084
-191.202	-48.184	-0.087	0.041
-190.187	133.993	-0.237	0.303
-189.173	-200.000	0.013	0.073
-188.158	148.102	-0.196	-0.260
-187.144	800.000	0.048	-0.203
-186.129	-25.218	0.019	0.011
-185.114	-55.259	-0.208	-0.092
-184.100	-200.000	0.002	-0.230
-183.085	800.000	0.045	0.186
-182.071	69.689	0.075	-0.077
-181.056	-200.000	0.032	0.233
-180.042	-153.239	-0.225	-0.015
-179.027	-96.029	-0.254	-0.067
-178.012	15.196	0.194	-0.150
-176.998	-129.863	0.283	0.038
-175.983	174.197	0.270	-0.385
-174.969	192.245	0.130	-0.194
-173.954	-164.330	0.284	-0.013
-172.939	-128.093	-0.169	-0.024
-171.925	237.370	0.135	-0.221
-170.910	-33.417	-0.388	0.211
-169.896	73.438	0.276	-0.284
-168.881	142.943	-0.072	0.094
-167.866	286.615	-0.178	0.317
-166.852	-115.422	-0.105	0.019
-165.837	-89.067	0.080	0.023
-164.823	-200.000	0.017	0.443
-163.808	3.353	0.034	-0.024
-162.793	800.000	-0.080	-0.245
-161.779	-57.565	0.215	0.093
-160.764	-81.888	-0.171	-0.055
-159.750	800.000	-0.084	0.235
-158.735	131.194	-0.095	-0.120
-157.720	25.599	0.150	0.123
-156.706	139.548	0.080	-0.103
-155.691	-5.204	-0.230	-0.156
-154.677	278.607	-0.121	-0.212
-153.662	-62.221	0.155	0.064
-152.647	-200.000	-0.002	0.409
-151.633	61.890	-0.155	0.152
-150.618	-172.645	-0.321	0.010
-149.604	160.626	0.144	0.198
-148.589	22.172	-0.111	-0.089
-147.574	229.626	0.216	0.347
-146.560	-19.802	0.273	-0.166
-145.545	-131.558	-0.356	0.046
-144.531	800.000	-0.088	0.303
-143.516	43.326	-0.012	0.011
-142.502	-117.279	0.082	0.015
-141.487	800.000	-0.052	0.214
-140.472	-31.221	-0.226	0.125
-139.458	365.446	-0.011	0.022
-138.443	800.000	-0.092	0.307
-137.429	800.000	0.139	0.456
-136.414	5.848	0.254	0.185
-135.399	66.726	0.203	0.204
-134.385	34.098	0.272	0.233
-133.370	-191.055	0.226	0.002
-132.356	656.294	-0.145	0.366
-131.341	-18.616	0.112	0.069
-130.326	-23.653	0.219	0.129
-129.312	57.775	0.030	0.029
-128.297	144.680	0.093	-0.122
-127.283	-50.321	-0.121	0.056
-126.268	21.056	-0.188	-0.150
-125.253	-200.000	-0.012	-0.192
-124.239	-52.790	0.219	-0.100
-123.224	-108.440	-0.177	-0.037
-122.210	-81.941	0.412	-0.132
-121.195	800.000	0.035	0.098
