DTS Sentinel unit serial number:	SN413079Multiplexer serial number:	ORYXHardware model number:	OX4-SRSoftware version number:	ORYX F/W v4.00 Oryx Data Collector v3.7.2.0data status	okinstallation	princeton_trtdifferential loss correction	single-endedforward channel	channel 2reverse channel	N/Adate	2019/09/10time	17:45:11forward acquisition time	60.00reverse acquisition time	0.00gamma	496.2192k internal	0.2311k external	0.2311temperature offset calibration	0.9932default loss term (dB/km)	0.3790temperature slope calibration	1.0000multiplexer offset coefficient	1.0000multiplexer slope coefficient	1.0000fibre end	0.00T internal ref (°C)	37.53T ext. ref 1 (°C)	-0.40T ext. ref 2 (°C)	30.55length (m)	temperature (°C)	Stokes	anti-Stokes-747.200	-20.546	0.332	-0.207
-746.185	186.091	-0.056	-0.085
-745.171	-71.538	0.177	-0.067
-744.156	3.325	0.247	0.182
-743.142	-105.914	-0.162	0.037
-742.127	-46.203	0.180	0.090
-741.112	203.778	0.097	0.153
-740.098	-42.572	0.247	-0.128
-739.083	375.181	0.171	-0.354
-738.069	376.639	0.148	0.306
-737.054	-200.000	-0.069	0.344
-736.039	-127.626	-0.455	-0.067
-735.025	23.153	-0.098	-0.082
-734.010	386.758	-0.043	0.090
-732.996	-12.094	-0.077	-0.051
-731.981	-124.298	-0.197	0.031
-730.966	800.000	-0.029	0.085
-729.952	98.188	0.167	-0.196
-728.937	308.522	-0.047	0.090
-727.923	21.864	-0.116	-0.096
-726.908	515.240	0.080	-0.189
-725.894	-200.000	0.020	-0.130
-724.879	-31.303	-0.099	0.056
-723.864	14.599	-0.327	0.259
-722.850	-200.000	0.017	-0.137
-721.835	-200.000	-0.026	-0.172
-720.821	-200.000	-0.043	-0.540
-719.806	-106.939	0.232	-0.052
-718.791	800.000	-0.090	-0.265
-717.777	84.689	-0.121	-0.134
-716.762	320.796	0.116	-0.223
-715.748	-61.951	-0.198	-0.084
-714.733	-123.573	-0.278	0.045
-713.718	-186.407	-0.271	0.004
-712.704	800.000	-0.002	-0.007
-711.689	-19.643	-0.168	-0.105
-710.675	-43.668	0.197	-0.101
-709.660	-200.000	0.013	-0.172
-708.645	-200.000	-0.022	-0.353
-707.631	-132.824	-0.138	0.018
-706.616	800.000	0.062	0.227
-705.602	-112.755	-0.239	0.048
-704.587	-84.283	-0.107	0.034
-703.572	543.414	-0.069	-0.166
-702.558	-200.000	-0.005	0.077
-701.543	-200.000	-0.021	0.232
-700.529	-113.158	-0.203	0.041
-699.514	148.731	-0.257	-0.351
-698.499	102.887	0.109	0.130
-697.485	-52.793	-0.271	0.126
-696.470	-149.762	-0.295	0.024
-695.456	387.058	0.147	-0.307
-694.441	48.614	0.160	-0.152
-693.426	4.099	-0.101	-0.075
-692.412	-200.000	-0.043	-0.236
-691.397	-200.000	-0.010	-0.179
-690.383	-88.845	-0.115	-0.035
-689.368	40.828	0.074	0.067
-688.354	-13.118	-0.198	-0.130
-687.339	127.868	-0.064	-0.083
-686.324	190.280	0.075	0.115
-685.310	-35.129	0.383	0.211
-684.295	-60.550	0.052	-0.022
-683.281	-12.177	-0.088	0.059
-682.266	20.067	-0.353	-0.288
-681.251	110.103	0.147	0.179
-680.237	-156.583	-0.289	0.018
-679.222	-107.600	0.075	-0.017
-678.208	-102.129	-0.041	-0.010
-677.193	551.446	0.043	0.104
-676.178	-200.000	0.053	0.360
-675.164	-147.340	-0.134	0.012
-674.149	-154.840	0.201	-0.013
-673.135	-75.136	-0.279	0.101
-672.120	-71.178	-0.222	0.084
-671.105	-46.701	0.254	-0.126
-670.091	3.121	-0.058	-0.043
-669.076	517.882	0.149	0.354
-668.062	-37.933	-0.182	0.098
-667.047	-96.370	0.163	0.044
-666.032	20.624	0.312	0.256
-665.018	200.960	-0.121	-0.188
-664.003	160.819	-0.115	-0.163
-662.989	-148.964	-0.026	-0.002
-661.974	800.000	-0.016	-0.050
-660.959	-11.821	0.161	0.107
-659.945	800.000	-0.067	0.264
-658.930	-200.000	-0.007	0.065
-657.916	800.000	0.077	0.250
-656.901	-40.022	-0.543	-0.286
-655.886	233.426	-0.120	-0.199
-654.872	-62.245	-0.191	-0.080
-653.857	-59.037	-0.184	-0.080
-652.843	-30.788	0.139	-0.080
-651.828	588.957	-0.065	0.161
-650.814	-76.095	0.171	-0.061
-649.799	800.000	0.045	-0.180
-648.784	11.463	-0.261	-0.202
-647.770	776.729	-0.007	0.019
-646.755	130.307	0.134	0.173
-645.741	78.275	0.177	0.191
-644.726	-152.381	0.188	-0.014
-643.711	-157.801	0.110	-0.007
-642.697	-200.000	-0.002	-0.350
-641.682	-190.496	0.399	0.004
-640.668	-54.530	0.219	-0.100
-639.653	538.168	-0.213	-0.513
-638.638	380.443	0.074	-0.153
-637.624	-200.000	0.010	-0.226
-636.609	294.162	0.073	0.135
-635.595	-37.209	0.311	0.168
-634.580	-200.000	-0.027	0.232
-633.565	273.503	0.096	0.172
-632.551	35.643	0.182	0.162
-631.536	800.000	-0.058	0.184
-630.522	-68.533	-0.322	0.126
-629.507	-148.661	-0.427	0.035
-628.492	800.000	-0.088	0.315
-627.478	49.646	0.296	0.282
-626.463	47.017	0.178	-0.167
-625.449	93.461	-0.084	0.096
-624.434	45.340	-0.105	-0.098
-623.419	683.922	-0.136	-0.359
-622.405	140.889	-0.104	0.138
-621.390	101.150	0.073	0.086
-620.376	8.696	0.249	-0.190
-619.361	-122.339	0.098	0.016
-618.346	64.927	0.053	0.054
-617.332	-66.368	-0.204	0.082
-616.317	800.000	-0.065	-0.231
-615.303	-200.000	-0.039	-0.323
-614.288	-200.000	-0.237	-0.000
-613.273	66.263	-0.061	-0.062
-612.259	-200.000	-0.032	-0.144
-611.244	-200.000	-0.004	-0.018
-610.230	-200.000	-0.216	0.000
-609.215	-200.000	0.037	-0.274
-608.201	167.158	-0.207	-0.296
-607.186	-177.197	-0.138	0.003
-606.171	71.898	0.103	-0.109
-605.157	373.595	0.090	0.186
-604.142	-95.439	-0.333	-0.090
-603.128	-22.184	0.207	-0.127
-602.113	307.096	-0.089	0.167
-601.098	91.369	-0.219	-0.248
-600.084	-36.152	0.104	-0.057
-599.069	-12.964	0.229	-0.150
-598.055	-200.000	0.005	0.194
-597.040	-157.394	-0.082	-0.005
-596.025	377.951	-0.113	-0.233
-595.011	-200.000	0.006	-0.340
-593.996	-133.242	0.217	0.028
-592.982	210.168	0.093	-0.147
-591.967	-118.728	-0.319	-0.057
-590.952	69.312	0.159	-0.165
-589.938	-1.518	-0.037	0.027
-588.923	-134.817	0.157	0.019
-587.909	-20.277	-0.261	0.162
-586.894	800.000	-0.049	0.185
-585.879	-77.660	-0.202	-0.071
-584.865	-30.661	0.085	0.048
-583.850	-200.000	0.009	0.186
-582.836	-97.327	-0.325	0.086
-581.821	-78.748	0.194	-0.067
-580.806	486.318	-0.087	-0.201
-579.792	-27.737	0.158	-0.093
-578.777	-49.861	-0.145	0.069
-577.763	-86.617	-0.113	0.035
-576.748	-98.983	0.076	0.019
-575.733	106.545	-0.235	0.281
-574.719	102.144	-0.127	-0.150
-573.704	-78.470	0.299	-0.103
-572.690	-141.264	-0.371	0.038
-571.675	57.225	0.127	0.125
-570.661	-37.613	0.301	-0.162
-569.646	57.616	0.286	-0.282
-568.631	280.645	0.163	0.294
-567.617	-106.858	-0.345	-0.077
-566.602	-174.832	-0.170	-0.005
-565.588	-171.986	-0.224	-0.007
-564.573	116.389	0.106	0.131
-563.558	568.698	-0.131	0.320
-562.544	107.321	0.057	0.069
-561.529	-200.000	0.012	-0.139
-560.515	113.325	-0.187	0.229
-559.500	-68.183	-0.176	0.069
-558.485	-200.000	0.023	0.323
-557.471	-200.000	-0.032	0.179
-556.456	-50.521	-0.147	-0.070
-555.442	-200.000	-0.066	0.344
-554.427	-95.059	0.067	0.018
-553.412	-33.165	0.351	-0.196
-552.398	44.217	0.195	-0.180
-551.383	-82.955	0.143	-0.047
-550.369	-200.000	0.034	-0.194
-549.354	-200.000	-0.059	-0.269
-548.339	4.253	0.194	0.143
-547.325	800.000	0.050	0.143
-546.310	800.000	0.018	0.072
-545.296	12.996	-0.125	-0.097
-544.281	800.000	0.015	0.066
-543.266	-200.000	-0.042	0.297
-542.252	139.055	0.159	0.211
-541.237	97.791	-0.108	-0.125
-540.223	-63.753	0.235	0.097
-539.208	-86.520	-0.143	0.044
-538.193	132.365	0.090	0.117
-537.179	-193.909	-0.134	0.001
-536.164	-93.726	-0.434	0.121
-535.150	304.470	-0.119	0.222
-534.135	-68.111	0.204	0.080
-533.121	-155.677	0.355	0.023
-532.106	-92.542	0.180	-0.051
-531.091	-137.389	0.342	0.039
-530.077	-200.000	-0.007	0.246
-529.062	67.637	0.095	0.098
-528.048	-200.000	0.016	0.130
-527.033	-26.108	-0.066	-0.039
-526.018	-200.000	0.003	-0.051
-525.004	-200.000	0.002	0.108
-523.989	-200.000	0.032	-0.172
-522.975	-3.325	0.134	0.094
-521.960	713.303	0.016	-0.044
-520.945	-37.343	-0.254	-0.136
-519.931	-10.638	0.181	-0.120
-518.916	-88.656	-0.105	-0.032
-517.902	269.736	-0.099	-0.175
-516.887	53.200	-0.045	-0.044
-515.872	-200.000	0.013	-0.183
-514.858	-200.000	0.049	0.311
-513.843	-182.867	-0.332	0.006
-512.829	63.396	0.198	-0.200
-511.814	-178.689	0.229	-0.005
-510.799	27.530	0.225	0.190
-509.785	-200.000	-0.001	-0.052
-508.770	-107.492	-0.121	-0.027
-507.756	446.148	0.202	0.447
-506.741	8.993	0.189	-0.143
-505.726	-99.804	-0.311	-0.078
-504.712	-68.675	0.342	-0.133
-503.697	604.192	-0.118	0.294
-502.683	8.373	-0.248	0.188
-501.668	-200.000	0.010	-0.170
-500.653	800.000	0.061	0.222
-499.639	-191.965	0.328	-0.003
-498.624	800.000	0.042	0.120
-497.610	227.274	-0.071	0.115
-496.595	211.059	0.137	-0.217
-495.581	-126.469	0.233	-0.035
-494.566	8.111	0.188	0.142
-493.551	-60.781	-0.121	-0.051
-492.537	-42.997	-0.624	-0.318
-491.522	-30.170	-0.141	-0.081
-490.508	92.989	0.146	0.165
-489.493	-76.428	-0.062	0.022
-488.478	43.154	-0.136	-0.125
-487.464	245.675	-0.044	0.075
-486.449	317.812	-0.067	0.127
-485.435	748.242	-0.098	-0.265
-484.420	62.715	-0.091	-0.092
-483.405	-200.000	0.010	-0.151
-482.391	-114.215	-0.081	0.016
-481.376	7.190	-0.179	-0.135
-480.362	193.407	0.074	0.113
-479.347	-94.355	-0.265	-0.073
-478.332	40.343	-0.043	-0.039
-477.318	673.610	0.069	-0.179
-476.303	-24.559	0.298	-0.178
-475.289	-188.025	-0.360	0.005
-474.274	-200.000	0.017	-0.283
-473.259	-200.000	-0.005	-0.374
-472.245	-200.000	0.024	-0.180
-471.230	-200.000	0.004	-0.313
-470.216	5.677	-0.292	-0.217
-469.201	-200.000	0.021	0.319
-468.186	-27.930	0.183	-0.106
-467.172	-133.313	0.544	-0.069
-466.157	71.824	-0.125	-0.130
-465.143	-41.239	0.209	0.108
-464.128	-81.894	0.316	0.104
-463.113	-27.234	-0.246	0.144
-462.099	-29.441	-0.260	-0.149
-461.084	-177.797	0.230	0.006
-460.070	-60.092	0.085	-0.036
-459.055	88.707	-0.303	0.338
-458.040	25.491	-0.068	0.057
-457.026	-15.371	-0.010	0.006
-456.011	-133.238	-0.198	-0.025
-454.997	-20.885	0.125	-0.077
-453.982	-111.223	-0.155	-0.032
-452.968	203.361	-0.151	-0.234
-451.953	-200.000	-0.007	-0.148
-450.938	-181.475	-0.185	0.004
-449.924	-200.000	-0.066	-0.369
-448.909	-49.249	-0.079	-0.038
-447.895	101.743	0.199	0.233
-446.880	128.322	0.127	0.162
-445.865	-66.728	0.290	0.115
-444.851	-81.701	0.202	-0.067
-443.836	-135.612	-0.033	-0.004
-442.822	-72.433	-0.169	-0.063
-441.807	800.000	0.055	0.224
-440.792	212.417	0.057	0.089
-439.778	590.823	-0.088	0.218
-438.763	800.000	-0.140	-0.549
-437.749	80.200	0.118	0.128
-436.734	800.000	0.083	0.323
-435.719	586.910	-0.088	0.217
-434.705	-82.106	-0.286	-0.094
-433.690	-62.635	0.059	-0.025
-432.676	158.878	0.043	0.060
-431.661	384.915	0.209	-0.432
-430.646	212.496	0.161	0.254
-429.632	-149.626	0.097	0.008
-428.617	-155.994	0.078	0.005
-427.603	503.687	0.052	0.120
-426.588	-19.927	0.024	-0.015
-425.573	-41.249	0.271	0.140
-424.559	-106.198	0.135	-0.030
-423.544	-114.855	0.202	0.039
-422.530	214.989	-0.109	0.174
-421.515	-189.525	-0.069	-0.001
-420.500	-110.953	-0.288	-0.059
-419.486	9.073	0.140	0.106
-418.471	-104.649	0.183	-0.042
-417.457	-68.411	-0.162	0.063
-416.442	693.969	-0.113	0.296
-415.428	-90.346	0.181	-0.053
-414.413	110.660	-0.192	-0.231
-413.398	-200.000	-0.029	0.155
-412.384	-200.000	-0.004	0.070
-411.369	-200.000	0.010	-0.265
-410.355	183.739	-0.184	-0.272
-409.340	-200.000	-0.040	-0.287
-408.325	351.299	-0.084	-0.167
-407.311	244.949	-0.124	0.209
-406.296	-25.175	-0.269	0.160
-405.282	77.103	0.141	0.150
-404.267	37.850	0.193	-0.172
-403.252	62.589	0.125	-0.125
-402.238	800.000	0.039	-0.117
-401.223	800.000	0.082	0.247
-400.209	-140.698	-0.466	0.048
-399.194	800.000	-0.059	0.222
-398.179	-107.907	0.182	0.040
-397.165	749.614	0.060	0.162
-396.150	-101.593	-0.233	0.057
-395.136	-106.158	0.062	0.014
-394.121	-102.682	-0.267	-0.064
-393.106	-83.487	-0.140	-0.045
-392.092	-149.359	0.344	-0.027
-391.077	-200.000	-0.020	0.211
-390.063	-200.000	0.027	0.249
-389.048	-200.000	0.019	-0.224
-388.033	110.968	0.139	0.168
-387.019	-118.211	0.224	0.040
-386.004	-126.998	0.414	0.061
-384.990	357.862	-0.092	-0.184
-383.975	-28.486	-0.131	-0.076
-382.960	-151.193	0.033	0.002
-381.946	-54.024	0.283	-0.129
-380.931	65.022	-0.139	0.140
-379.917	-200.000	0.012	-0.139
-378.902	-40.729	0.239	-0.124
-377.888	298.145	-0.077	-0.142
-376.873	-93.531	0.405	-0.112
-375.858	-152.891	0.255	0.018
-374.844	-200.000	0.074	0.366
-373.829	72.920	0.088	0.092
-372.815	-50.008	0.285	-0.135
-371.800	-200.000	0.066	-0.312
-370.785	-49.272	-0.262	-0.125
-369.771	260.991	0.198	0.342
-368.756	-5.110	-0.205	-0.141
-367.742	-200.000	0.003	-0.019
-366.727	95.147	-0.113	-0.129
-365.712	8.066	0.232	0.174
-364.698	114.394	-0.115	0.140
-363.683	43.515	-0.230	0.210
-362.669	-109.245	0.217	0.046
-361.654	-8.126	0.236	0.159
-360.639	-68.247	-0.206	0.080
-359.625	-200.000	0.028	0.249
-358.610	-159.343	0.147	0.008
-357.596	18.741	-0.278	0.223
-356.581	-97.227	-0.112	-0.029
-355.566	320.021	0.099	0.188
-354.552	800.000	-0.009	0.034
-353.537	90.438	-0.134	-0.150
-352.523	64.536	0.154	-0.155
-351.508	230.197	0.174	-0.285
-350.493	-154.572	0.212	-0.014
-349.479	59.736	-0.093	-0.092
-348.464	-182.451	-0.102	0.002
-347.450	-200.000	0.027	-0.127
-346.435	-154.102	-0.174	0.012
-345.420	-14.839	-0.083	-0.053
-344.406	800.000	0.055	0.226
-343.391	294.961	-0.055	0.101
-342.377	-165.446	0.348	0.015
-341.362	9.143	0.070	0.053
-340.348	-68.581	0.108	0.042
-339.333	64.792	0.174	0.175
-338.318	51.648	-0.027	-0.026
-337.304	93.022	0.164	-0.185
-336.289	-22.171	0.154	0.093
-335.275	561.556	-0.118	-0.285
-334.260	256.759	-0.191	0.327
-333.245	89.581	0.120	-0.134
-332.231	-115.203	0.154	-0.029
-331.216	25.521	-0.144	0.119
-330.202	47.404	0.261	-0.243
-329.187	-1.500	-0.105	0.074
-328.172	536.373	0.025	-0.058
-327.158	-138.359	0.182	0.020
-326.143	-195.137	-0.149	0.001
-325.129	-200.000	-0.056	0.251
-324.114	772.663	0.148	0.404
-323.099	-82.605	-0.344	0.111
-322.085	-16.223	0.080	-0.051
-321.070	-77.942	-0.226	0.078
-320.056	-38.824	-0.102	-0.054
-319.041	291.581	-0.046	0.084
-318.026	800.000	0.092	0.286
-317.012	-200.000	0.007	-0.161
-315.997	800.000	0.062	-0.178
-314.983	800.000	0.003	-0.012
-313.968	438.873	-0.020	-0.042
-312.953	-71.331	0.084	0.032
-311.939	-97.977	-0.267	0.069
-310.924	-200.000	0.039	-0.295
-309.910	360.910	-0.060	0.120
-308.895	-93.848	-0.260	0.071
-307.880	196.424	0.108	0.164
-306.866	232.126	-0.052	0.084
-305.851	-45.259	-0.241	-0.119
-304.837	800.000	-0.044	-0.135
-303.822	-91.341	0.322	-0.092
-302.807	-72.185	-0.082	0.030
-301.793	145.589	0.097	-0.129
-300.778	-63.366	0.095	0.039
-299.764	-81.229	0.158	0.052
-298.749	-18.269	0.242	0.151
-297.735	-180.352	-0.147	0.003
-296.720	-200.000	0.058	0.301
-295.705	800.000	0.039	-0.115
-294.691	109.787	0.054	-0.064
-293.676	583.811	0.072	0.176
-292.662	-200.000	-0.014	0.174
-291.647	-200.000	-0.000	-0.171
-290.632	191.784	-0.253	0.381
-289.618	-172.695	0.245	0.008
-288.603	47.776	0.042	0.039
-287.589	-132.829	0.013	-0.002
-286.574	-14.354	0.285	0.183
-285.559	-62.735	0.297	-0.123
-284.545	732.888	-0.141	0.375
-283.530	413.972	-0.134	-0.283
-282.516	-177.397	0.287	0.007
-281.501	-200.000	-0.017	0.155
-280.486	4.034	0.048	-0.035
-279.472	-114.025	0.089	0.017
-278.457	-118.357	-0.195	0.034
-277.443	96.878	0.115	0.131
-276.428	-89.481	0.053	0.016
-275.413	800.000	-0.058	0.189
-274.399	156.563	0.200	0.276
-273.384	268.511	-0.198	0.346
-272.370	-200.000	-0.015	0.110
-271.355	-134.966	0.178	-0.021
-270.340	-25.035	0.135	0.080
-269.326	-51.771	0.121	-0.056
-268.311	800.000	-0.101	-0.315
-267.297	44.952	-0.163	0.150
-266.282	407.623	0.029	-0.062
-265.267	91.617	0.090	0.101
-264.253	23.882	-0.287	0.236
-263.238	172.104	-0.333	0.477
-262.224	-161.934	-0.149	0.007
-261.209	75.799	0.050	-0.053
-260.195	-74.179	0.109	-0.039
-259.180	-200.000	-0.020	-0.197
-258.165	-81.760	0.163	0.053
-257.151	112.507	0.143	0.173
-256.136	-145.136	-0.518	-0.047
-255.122	-92.561	0.085	0.024
-254.107	-83.948	0.036	-0.012
-253.092	200.863	-0.133	-0.203
-252.078	-157.135	-0.302	0.018
-251.063	-105.879	-0.255	-0.057
-250.049	-65.482	0.229	0.092
-249.034	-63.300	0.151	-0.062
-248.019	-98.648	-0.134	-0.034
-247.005	-35.603	0.122	0.066
-245.990	89.428	-0.210	0.233
-244.976	-121.426	-0.178	-0.029
-243.961	202.276	0.169	-0.260
-242.946	800.000	-0.071	-0.263
-241.932	-38.379	-0.320	0.169
-240.917	800.000	0.060	-0.214
-239.903	-200.000	-0.013	-0.194
-238.888	-14.712	-0.420	-0.268
-237.873	-82.649	-0.217	-0.070
-236.859	192.169	-0.110	-0.165
-235.844	121.368	0.092	-0.113
-234.830	48.724	-0.029	-0.027
-233.815	51.723	-0.273	-0.258
-232.800	-200.000	-0.032	-0.472
-231.786	-110.735	-0.299	0.061
-230.771	-43.006	-0.092	0.046
-229.757	-109.035	0.103	0.022
-228.742	82.178	0.113	-0.122
-227.727	-18.141	-0.239	-0.149
-226.713	-23.400	0.159	-0.095
-225.698	89.590	0.215	-0.238
-224.684	471.164	-0.067	0.151
-223.669	-104.801	0.070	0.016
-222.655	11.357	-0.216	-0.165
-221.640	12.117	0.280	-0.214
-220.625	-47.773	0.343	0.165
-219.611	-90.376	-0.181	-0.052
-218.596	-124.740	0.151	-0.023
-217.582	57.704	-0.073	0.071
-216.567	-200.000	0.002	0.188
-215.552	-179.552	0.079	-0.002
-214.538	122.998	0.088	0.109
-213.523	-30.661	0.038	-0.021
-212.509	59.611	-0.062	-0.060
-211.494	800.000	0.055	-0.237
-210.479	335.525	-0.089	-0.172
-209.465	524.101	0.102	0.239
-208.450	-35.472	-0.231	-0.125
-207.436	-16.164	-0.124	0.078
-206.421	-139.037	-0.340	-0.037
-205.406	800.000	-0.133	-0.373
-204.392	-129.699	0.228	0.031
-203.377	277.303	-0.135	0.239
-202.363	-126.845	-0.273	-0.040
-201.348	-54.623	0.107	-0.048
-200.333	455.826	-0.112	-0.247
-199.319	508.115	0.165	-0.380
-198.304	-98.211	-0.093	-0.024
-197.290	-186.245	-0.150	-0.002
-196.275	37.570	-0.238	-0.210
-195.260	6.187	0.365	0.269
-194.246	-200.000	0.030	0.293
-193.231	107.644	0.094	-0.111
-192.217	461.115	-0.021	0.045
-191.202	5.769	0.053	0.039
-190.187	-129.448	0.148	-0.020
-189.173	20.336	0.182	0.146
-188.158	-20.171	-0.267	0.164
-187.144	95.724	0.218	-0.247
-186.129	126.186	0.049	-0.062
-185.114	118.519	0.082	0.100
-184.100	-81.297	0.166	-0.055
-183.085	54.145	0.120	-0.115
-182.071	-28.399	-0.418	0.240
-181.056	-180.784	0.348	0.007
-180.042	416.834	-0.182	-0.386
-179.027	800.000	-0.036	-0.107
-178.012	137.115	0.109	-0.141
-176.998	-200.000	-0.005	-0.440
-175.983	12.130	-0.115	-0.088
-174.969	86.888	-0.089	-0.097
-173.954	108.045	-0.191	0.226
-172.939	59.356	-0.146	0.142
-171.925	-5.787	0.067	0.046
-170.910	-109.140	-0.231	0.049
-169.896	-75.502	0.529	0.187
-168.881	75.921	-0.106	-0.112
-167.866	-51.741	-0.318	0.147
-166.852	-89.759	-0.140	0.041
-165.837	170.837	-0.113	-0.160
-164.823	-13.844	0.253	-0.163
-163.808	-160.430	-0.174	-0.009
-162.793	-200.000	0.049	0.312
-161.779	-76.097	-0.071	0.025
-160.764	800.000	-0.067	0.263
-159.750	193.385	0.081	0.121
-158.735	376.352	-0.067	0.136
-157.720	-36.729	-0.272	-0.145
-156.706	-137.814	0.157	0.017
-155.691	-50.739	0.299	-0.140
-154.677	800.000	0.030	0.107
-153.662	800.000	0.035	-0.112
-152.647	72.447	-0.107	-0.110
-151.633	800.000	-0.099	0.388
-150.618	-49.473	0.399	0.189
-149.604	16.441	0.125	-0.098
-148.589	-200.000	-0.024	0.189
-147.574	800.000	0.036	0.124
-146.560	800.000	0.086	-0.275
-145.545	784.505	-0.101	-0.276
-144.531	-80.816	-0.101	-0.033
-143.516	-200.000	0.005	0.091
-142.502	-46.991	0.408	0.197
-141.487	268.486	-0.133	-0.231
-140.472	-42.936	-0.370	-0.186
-139.458	-30.395	0.229	0.129
-138.443	-79.352	0.097	0.033
-137.429	165.644	0.123	0.173
-136.414	-200.000	-0.149	0.000
-135.399	-200.000	0.053	-0.438
-134.385	-27.560	-0.134	0.077
-133.370	-200.000	-0.003	0.187
-132.356	384.903	0.072	-0.148
-131.341	65.678	-0.160	0.160
-130.326	160.833	0.067	-0.092
-129.312	97.761	0.168	0.192
-128.297	269.717	-0.110	0.192
-127.283	131.525	0.062	-0.079
-126.268	-27.031	-0.062	-0.036
-125.253	238.893	0.108	-0.177
-124.239	290.675	-0.074	0.134
-123.224	-200.000	-0.011	0.192
-122.210	26.974	0.260	0.216
-121.195	-36.649	0.280	0.149
