DTS Sentinel unit serial number:	SN413079Multiplexer serial number:	ORYXHardware model number:	OX4-SRSoftware version number:	ORYX F/W v4.00 Oryx Data Collector v3.7.2.0data status	okinstallation	princeton_trtdifferential loss correction	single-endedforward channel	channel 2reverse channel	N/Adate	2019/09/11time	06:25:11forward acquisition time	60.00reverse acquisition time	0.00gamma	496.2192k internal	0.2329k external	0.2329temperature offset calibration	0.9940default loss term (dB/km)	0.3790temperature slope calibration	1.0000multiplexer offset coefficient	1.0000multiplexer slope coefficient	1.0000fibre end	0.00T internal ref (°C)	29.56T ext. ref 1 (°C)	-0.19T ext. ref 2 (°C)	24.07length (m)	temperature (°C)	Stokes	anti-Stokes-747.200	43.026	0.110	0.101
-746.185	-200.000	0.019	0.292
-745.171	-200.000	-0.011	-0.351
-744.156	237.163	0.062	0.104
-743.142	-173.407	0.304	-0.009
-742.127	110.334	-0.147	0.177
-741.112	-35.742	0.079	-0.043
-740.098	508.826	0.169	0.396
-739.083	-53.887	-0.259	0.119
-738.069	-60.633	-0.065	0.028
-737.054	374.314	0.139	0.286
-736.039	-133.915	-0.216	-0.027
-735.025	226.853	0.211	0.345
-734.010	31.258	-0.232	0.200
-732.996	53.662	0.160	-0.154
-731.981	800.000	0.092	-0.327
-730.966	-32.485	-0.383	-0.215
-729.952	800.000	-0.064	0.184
-728.937	-200.000	-0.051	-0.318
-727.923	-200.000	0.001	0.072
-726.908	-200.000	-0.005	0.088
-725.894	787.902	-0.106	0.293
-724.879	-29.214	0.097	-0.056
-723.864	113.981	0.120	0.147
-722.850	-60.620	-0.246	-0.105
-721.835	117.794	-0.046	0.057
-720.821	-200.000	0.020	0.179
-719.806	800.000	-0.054	-0.168
-718.791	-200.000	0.052	0.266
-717.777	26.103	0.204	-0.171
-716.762	74.299	-0.220	0.233
-715.748	16.528	0.167	-0.133
-714.733	-200.000	0.005	0.115
-713.718	-25.064	0.268	-0.160
-712.704	-172.403	-0.137	-0.004
-711.689	-134.471	0.112	-0.014
-710.675	-200.000	-0.067	-0.456
-709.660	-84.418	0.292	0.093
-708.645	-200.000	-0.016	-0.433
-707.631	-83.176	-0.381	-0.123
-706.616	-200.000	-0.015	0.448
-705.602	-61.815	0.306	-0.129
-704.587	250.454	0.160	-0.273
-703.572	98.155	0.257	0.298
-702.558	56.310	-0.172	0.168
-701.543	159.286	-0.043	0.060
-700.529	-200.000	-0.004	0.111
-699.514	-2.813	-0.142	0.100
-698.499	800.000	-0.020	0.087
-697.485	435.010	0.090	-0.198
-696.470	-61.941	0.095	-0.040
-695.456	-200.000	0.015	-0.176
-694.441	-128.346	0.064	0.009
-693.426	-200.000	-0.033	-0.278
-692.412	-3.446	-0.248	0.174
-691.397	77.714	-0.160	0.172
-690.383	-200.000	0.046	-0.218
-689.368	224.572	0.095	-0.155
-688.354	72.733	-0.192	0.202
-687.339	-200.000	0.064	-0.295
-686.324	-47.174	-0.184	0.090
-685.310	-183.404	0.168	0.003
-684.295	3.430	-0.343	-0.251
-683.281	800.000	0.028	-0.087
-682.266	-113.475	-0.211	0.042
-681.251	-200.000	-0.018	-0.087
-680.237	38.459	-0.160	-0.143
-679.222	-149.367	-0.329	-0.026
-678.208	-7.897	-0.053	0.036
-677.193	-120.275	0.319	-0.055
-676.178	-75.588	0.087	-0.031
-675.164	-200.000	-0.014	-0.121
-674.149	-200.000	-0.028	-0.125
-673.135	60.607	-0.194	-0.193
-672.120	800.000	0.067	-0.270
-671.105	-200.000	0.008	-0.077
-670.091	1.539	-0.402	-0.291
-669.076	163.025	0.031	0.044
-668.062	36.586	-0.257	0.228
-667.047	-157.580	0.228	-0.014
-666.032	800.000	-0.102	-0.300
-665.018	-66.438	0.320	0.128
-664.003	-23.763	-0.084	-0.051
-662.989	-46.917	-0.072	-0.035
-661.974	641.921	-0.112	-0.286
-660.959	-90.795	0.171	-0.049
-659.945	-122.061	0.099	-0.016
-658.930	-60.685	-0.048	-0.020
-657.916	140.812	0.147	0.195
-656.901	-200.000	0.017	-0.213
-655.886	-16.953	-0.374	-0.237
-654.872	-50.725	-0.254	-0.120
-653.857	-200.000	0.001	-0.356
-652.843	-191.599	-0.225	-0.002
-651.828	-66.878	-0.156	0.062
-650.814	-130.643	0.121	-0.016
-649.799	-106.339	-0.308	0.069
-648.784	-200.000	0.265	-0.000
-647.770	17.586	0.213	0.170
-646.755	245.028	-0.092	-0.155
-645.741	800.000	0.124	0.387
-644.726	-200.000	0.038	0.373
-643.711	-145.494	-0.152	0.014
-642.697	42.760	0.146	-0.134
-641.682	-200.000	-0.045	-0.357
-640.668	472.834	0.048	-0.108
-639.653	-125.332	-0.466	0.071
-638.638	800.000	0.072	-0.315
-637.624	672.949	-0.044	-0.114
-636.609	-200.000	0.029	0.150
-635.595	-101.371	0.238	0.058
-634.580	-150.634	-0.273	0.021
-633.565	-96.662	-0.074	0.020
-632.551	-43.840	-0.173	0.088
-631.536	800.000	-0.070	-0.241
-630.522	-200.000	-0.002	0.208
-629.507	-200.000	-0.008	0.361
-628.492	-152.271	0.131	0.009
-627.478	-135.202	0.215	-0.026
-626.463	188.242	-0.156	0.234
-625.449	5.374	-0.028	-0.021
-624.434	-67.901	-0.272	-0.106
-623.419	9.615	0.271	0.206
-622.405	-200.000	0.006	-0.180
-621.390	-71.370	-0.472	-0.177
-620.376	52.571	0.170	-0.163
-619.361	158.348	0.146	-0.203
-618.346	-74.177	-0.319	0.116
-617.332	-114.567	0.115	0.022
-616.317	298.932	0.014	-0.025
-615.303	225.116	0.067	-0.108
-614.288	21.153	0.083	0.067
-613.273	-31.426	0.128	-0.072
-612.259	84.103	-0.090	0.099
-611.244	-200.000	-0.014	-0.145
-610.230	-200.000	0.049	0.267
-609.215	-200.000	-0.007	-0.408
-608.201	-13.696	0.129	-0.083
-607.186	-62.120	-0.309	0.129
-606.171	687.274	0.123	0.321
-605.157	308.700	0.129	-0.242
-604.142	800.000	-0.046	-0.147
-603.128	800.000	-0.049	0.203
-602.113	118.119	0.088	0.109
-601.098	-200.000	-0.047	-0.223
-600.084	189.735	0.146	0.220
-599.069	-200.000	0.020	0.139
-598.055	-200.000	0.054	-0.260
-597.040	-67.042	-0.184	0.073
-596.025	-117.954	0.158	-0.028
-595.011	-49.702	-0.206	0.098
-593.996	-108.367	-0.229	0.050
-592.982	550.081	0.113	-0.270
-591.967	-108.921	-0.429	0.092
-590.952	81.242	-0.079	0.086
-589.938	14.410	-0.087	0.068
-588.923	-38.784	-0.083	-0.044
-587.909	-30.182	-0.044	-0.025
-586.894	209.869	-0.178	0.279
-585.879	110.794	-0.285	0.343
-584.865	-158.557	0.361	-0.021
-583.850	761.325	0.119	-0.323
-582.836	25.336	-0.062	0.052
-581.821	-186.709	-0.230	0.003
-580.806	-147.933	-0.211	-0.018
-579.792	17.873	-0.448	0.357
-578.777	548.056	0.139	0.333
-577.763	-200.000	-0.021	-0.112
-576.748	-72.698	-0.258	-0.095
-575.733	44.473	0.224	-0.206
-574.719	140.086	0.121	0.160
-573.704	23.852	-0.097	-0.080
-572.690	-41.658	-0.239	0.123
-571.675	-200.000	0.001	0.057
-570.661	-97.385	-0.266	-0.069
-569.646	58.069	0.072	-0.070
-568.631	-15.888	-0.209	-0.133
-567.617	50.060	-0.142	0.134
-566.602	800.000	-0.056	0.214
-565.588	345.310	0.122	0.241
-564.573	-200.000	-0.003	-0.111
-563.558	-123.385	0.162	-0.026
-562.544	-68.453	0.194	0.075
-561.529	-68.841	0.115	-0.044
-560.515	-67.482	-0.248	0.097
-559.500	108.384	-0.077	0.092
-558.485	-200.000	0.007	0.103
-557.471	-72.925	-0.420	0.154
-556.456	12.611	0.258	-0.199
-555.442	-28.910	0.164	-0.094
-554.427	-199.189	-0.237	-0.001
-553.412	-133.924	-0.284	-0.035
-552.398	-50.281	-0.195	-0.092
-551.383	110.935	-0.196	-0.236
-550.369	-128.533	0.262	0.037
-549.354	-145.555	0.235	0.021
-548.339	-56.953	-0.197	0.087
-547.325	800.000	-0.162	0.456
-546.310	-29.162	-0.282	0.162
-545.296	-166.714	-0.161	0.007
-544.281	-177.328	0.376	0.009
-543.266	-200.000	0.055	0.335
-542.252	-173.780	0.148	-0.004
-541.237	300.776	-0.168	-0.309
-540.223	-39.733	-0.107	-0.056
-539.208	-159.069	0.168	0.009
-538.193	-32.910	-0.311	-0.172
-537.179	373.358	-0.157	0.319
-536.164	16.284	-0.185	0.146
-535.150	-13.597	-0.089	0.058
-534.135	106.858	0.194	0.230
-533.121	401.351	-0.120	0.252
-532.106	39.765	0.027	-0.024
-531.091	800.000	-0.136	-0.387
-530.077	800.000	-0.066	0.234
-529.062	19.309	0.086	-0.069
-528.048	50.279	-0.286	-0.270
-527.033	-159.337	-0.206	0.012
-526.018	133.703	0.127	0.164
-525.004	-93.632	-0.405	-0.112
-523.989	-87.738	-0.106	-0.032
-522.975	94.484	-0.105	-0.119
-521.960	-28.654	-0.147	0.084
-520.945	800.000	0.035	0.143
-519.931	58.680	0.116	0.114
-518.916	-28.563	0.231	-0.133
-517.902	-92.681	-0.274	0.077
-516.887	-137.397	0.235	0.027
-515.872	-158.100	0.171	0.010
-514.858	-11.962	-0.114	0.074
-513.843	-98.702	0.212	0.054
-512.829	50.722	0.116	0.110
-511.814	-200.000	0.059	-0.264
-510.799	800.000	0.143	-0.463
-509.785	-2.894	0.255	-0.178
-508.770	800.000	0.063	-0.201
-507.756	203.522	-0.057	-0.088
-506.741	-200.000	0.015	0.162
-505.726	800.000	0.076	-0.298
-504.712	290.995	-0.088	-0.160
-503.697	-200.000	0.051	0.246
-502.683	38.600	-0.239	0.212
-501.668	-200.000	0.000	0.188
-500.653	751.640	0.051	-0.136
-499.639	272.195	-0.068	0.120
-498.624	-147.064	0.198	-0.017
-497.610	-14.935	-0.068	-0.043
-496.595	-61.099	0.168	-0.071
-495.581	-32.779	-0.017	0.009
-494.566	64.827	-0.170	-0.171
-493.551	-81.010	0.181	-0.060
-492.537	-35.469	-0.202	-0.110
-491.522	-47.550	0.362	-0.175
-490.508	-81.174	-0.237	0.078
-489.493	-37.632	-0.109	0.058
-488.478	76.935	-0.024	0.026
-487.464	800.000	-0.102	-0.428
-486.449	800.000	-0.169	-0.508
-485.435	800.000	-0.059	-0.222
-484.420	749.649	-0.179	0.480
-483.405	58.320	0.100	0.098
-482.391	-74.864	-0.331	0.118
-481.376	385.024	-0.118	-0.242
-480.362	-169.090	0.165	-0.006
-479.347	-200.000	-0.017	-0.129
-478.332	301.810	-0.244	-0.450
-477.318	-146.629	-0.257	-0.022
-476.303	-90.439	0.383	-0.111
-475.289	-53.169	-0.191	-0.087
-474.274	-200.000	0.053	-0.438
-473.259	-21.915	0.076	-0.046
-472.245	-3.313	0.335	0.233
-471.230	174.983	0.085	0.123
-470.216	126.271	0.196	-0.248
-469.201	-20.391	0.126	0.077
-468.186	81.205	-0.168	0.181
-467.172	99.674	0.115	-0.133
-466.157	800.000	-0.080	-0.325
-465.143	84.172	0.275	0.300
-464.128	102.537	0.154	0.180
-463.113	-48.906	0.187	0.089
-462.099	0.555	0.137	0.098
-461.084	-200.000	0.026	0.248
-460.070	-55.944	-0.160	-0.071
-459.055	-70.089	-0.253	0.096
-458.040	800.000	0.078	-0.219
-457.026	-56.304	0.163	0.072
-456.011	153.679	0.070	0.095
-454.997	384.979	-0.089	0.183
-453.982	366.885	0.111	-0.222
-452.968	369.925	0.133	0.268
-451.953	-200.000	0.053	-0.263
-450.938	92.616	0.022	-0.024
-449.924	-200.000	-0.003	-0.202
-448.909	39.901	-0.105	0.094
-447.895	-197.127	-0.306	-0.002
-446.880	-92.946	0.085	-0.024
-445.865	-95.380	-0.161	-0.043
-444.851	235.420	0.137	-0.226
-443.836	-110.598	0.152	-0.031
-442.822	11.553	0.310	-0.237
-441.807	-140.248	-0.494	-0.052
-440.792	-46.350	-0.025	0.012
-439.778	72.644	-0.103	-0.107
-438.763	108.083	-0.338	0.401
-437.749	-135.544	0.231	-0.027
-436.734	-200.000	0.000	-0.248
-435.719	-62.066	0.273	0.113
-434.705	703.963	-0.051	0.134
-433.690	-22.166	0.035	-0.021
-432.676	-108.755	0.204	-0.043
-431.661	-8.473	0.087	0.058
-430.646	-48.599	0.259	-0.124
-429.632	420.300	0.092	-0.196
-428.617	216.143	-0.132	-0.209
-427.603	-9.191	0.387	-0.258
-426.588	-200.000	0.001	-0.071
-425.573	109.417	0.152	0.181
-424.559	40.533	-0.096	-0.086
-423.544	444.877	0.030	-0.064
-422.530	355.521	0.201	-0.397
-421.515	-11.249	-0.119	-0.078
-420.500	358.230	0.101	-0.201
-419.486	-20.342	0.147	0.090
-418.471	-86.222	0.221	0.068
-417.457	-33.724	-0.236	0.129
-416.442	176.071	-0.070	0.101
-415.428	800.000	-0.013	-0.038
-414.413	800.000	0.039	0.159
-413.398	-200.000	0.001	-0.086
-412.384	-26.090	-0.248	0.145
-411.369	-200.000	0.030	0.248
-410.355	-26.691	0.276	0.161
-409.340	-127.505	-0.118	0.017
-408.325	128.317	0.155	-0.196
-407.311	800.000	-0.096	0.303
-406.296	688.449	0.039	-0.102
-405.282	270.787	-0.163	-0.284
-404.267	-200.000	0.010	-0.310
-403.252	-16.000	0.064	0.040
-402.238	258.028	0.139	0.237
-401.223	231.520	0.169	0.276
-400.209	185.896	0.031	0.045
-399.194	-115.906	0.242	-0.045
-398.179	347.290	-0.065	-0.127
-397.165	-25.508	0.096	-0.056
-396.150	266.367	-0.135	-0.234
-395.136	75.837	-0.107	0.113
-394.121	-61.868	0.113	0.047
-393.106	24.125	-0.145	-0.119
-392.092	759.974	-0.129	-0.347
-391.077	34.077	-0.138	0.119
-390.063	800.000	0.091	0.274
-389.048	-63.107	0.223	0.091
-388.033	214.074	0.163	-0.257
-387.019	-90.753	0.205	-0.059
-386.004	59.387	-0.261	-0.255
-384.990	786.870	-0.049	0.134
-383.975	-200.000	-0.048	0.254
-382.960	73.908	-0.222	0.231
-381.946	800.000	0.041	-0.115
-380.931	208.829	0.159	-0.248
-379.917	-200.000	0.047	0.215
-378.902	800.000	0.078	0.337
-377.888	-123.784	0.459	0.072
-376.873	-47.471	0.044	0.021
-375.858	-175.419	0.254	0.007
-374.844	-75.221	0.215	0.076
-373.829	-69.121	-0.333	0.127
-372.815	11.330	0.148	-0.112
-371.800	41.709	-0.275	-0.248
-370.785	800.000	-0.084	-0.363
-369.771	656.526	-0.090	0.230
-368.756	-137.496	-0.178	-0.020
-367.742	-196.312	-0.293	0.002
-366.727	-117.100	0.247	0.045
-365.712	-119.407	0.521	0.090
-364.698	-200.000	0.023	-0.115
-363.683	-200.000	-0.025	0.238
-362.669	92.582	0.128	0.143
-361.654	-120.201	0.283	0.048
-360.639	-200.000	-0.025	0.196
-359.625	800.000	-0.079	0.228
-358.610	-25.575	0.191	-0.112
-357.596	-174.626	-0.239	0.007
-356.581	-200.000	-0.025	-0.247
-355.566	-5.738	0.130	0.089
-354.552	29.768	-0.151	0.127
-353.537	-38.852	0.280	-0.147
-352.523	-121.273	0.148	0.024
-351.508	36.459	0.181	0.158
-350.493	2.350	0.300	0.215
-349.479	-57.731	-0.473	0.205
-348.464	800.000	-0.048	-0.148
-347.450	80.732	0.242	-0.258
-346.435	800.000	-0.096	0.269
-345.420	-5.325	-0.131	-0.090
-344.406	36.889	-0.130	0.114
-343.391	-31.874	0.178	0.099
-342.377	-200.000	0.027	0.192
-341.362	104.696	0.297	0.348
-340.348	-80.909	-0.195	-0.064
-339.333	-113.274	0.141	-0.028
-338.318	800.000	0.038	-0.160
-337.304	47.316	-0.121	0.112
-336.289	3.238	-0.236	-0.170
-335.275	172.614	-0.043	0.061
-334.260	-115.057	-0.079	0.015
-333.245	123.616	0.155	-0.192
-332.231	-200.000	-0.010	0.058
-331.216	-159.486	0.181	0.010
-330.202	-88.421	-0.296	0.088
-329.187	629.312	-0.094	-0.237
-328.172	800.000	-0.056	-0.157
-327.158	283.358	-0.069	0.123
-326.143	737.606	-0.100	-0.265
-325.129	800.000	-0.033	-0.120
-324.114	550.646	0.083	0.196
-323.099	399.114	-0.134	-0.278
-322.085	-35.657	0.266	0.143
-321.070	-200.000	0.027	-0.127
-320.056	-39.384	-0.275	-0.143
-319.041	55.412	0.267	0.256
-318.026	212.191	-0.009	-0.014
-317.012	103.536	0.217	-0.252
-315.997	251.670	-0.121	-0.204
-314.983	-75.401	-0.369	0.130
-313.968	-99.278	-0.166	-0.042
-312.953	-13.770	-0.225	-0.144
-311.939	107.706	0.117	0.138
-310.924	-15.236	0.426	-0.270
-309.910	-70.476	0.159	0.060
-308.895	-200.000	-0.039	0.187
-307.880	633.546	-0.085	-0.214
-306.866	549.494	0.142	-0.337
-305.851	49.517	0.109	0.102
-304.837	-200.000	0.003	0.069
-303.822	73.829	0.040	-0.042
-302.807	381.356	-0.083	-0.168
-301.793	800.000	-0.050	-0.152
-300.778	-71.074	-0.090	0.033
-299.764	-98.888	-0.167	0.042
-298.749	-118.191	0.067	0.012
-297.735	71.898	0.152	-0.156
-296.720	-176.938	-0.104	0.003
-295.705	-95.391	0.252	-0.067
-294.691	175.906	-0.098	0.141
-293.676	-134.402	0.103	0.012
-292.662	166.583	-0.111	0.156
-291.647	-200.000	0.007	0.253
-290.632	109.659	0.165	-0.196
-289.618	-200.000	0.022	-0.326
-288.603	499.843	-0.074	0.170
-287.589	71.924	0.172	0.177
-286.574	-74.028	-0.093	-0.033
-285.559	-166.041	0.193	0.008
-284.545	358.824	-0.011	-0.022
-283.530	277.110	0.101	-0.179
-282.516	-200.000	0.022	0.106
-281.501	-104.235	0.138	0.032
-280.486	-12.184	0.147	-0.095
-279.472	41.058	0.277	-0.247
-278.457	-52.980	-0.151	-0.069
-277.443	27.595	0.054	-0.045
-276.428	-88.028	-0.251	0.075
-275.413	-40.010	0.205	0.106
-274.399	-83.203	-0.071	-0.022
-273.384	-79.215	-0.215	-0.072
-272.370	800.000	-0.094	0.373
-271.355	-68.370	0.130	-0.050
-270.340	-200.000	0.009	-0.235
-269.326	366.334	0.046	0.092
-268.311	437.935	-0.067	-0.144
-267.297	-142.821	-0.300	-0.029
-266.282	-200.000	-0.006	0.060
-265.267	31.256	-0.197	0.167
-264.253	73.638	0.058	0.060
-263.238	800.000	0.059	0.247
-262.224	-144.688	-0.319	0.029
-261.209	-174.078	0.127	0.004
-260.195	800.000	-0.055	-0.235
-259.180	250.167	-0.088	-0.147
-258.165	9.215	0.043	0.032
-257.151	-29.439	0.264	0.149
-256.136	211.670	-0.214	-0.333
-255.122	-163.606	-0.042	-0.002
-254.107	305.139	-0.174	-0.320
-253.092	83.216	0.113	0.122
-252.078	-148.001	0.093	-0.008
-251.063	-46.598	-0.160	0.078
-250.049	-87.032	-0.187	0.056
-249.034	-200.000	-0.001	0.225
-248.019	-57.017	0.253	0.110
-247.005	-141.673	-0.326	-0.032
-245.990	-73.195	0.180	0.065
-244.976	-200.000	-0.025	-0.144
-243.961	461.370	0.075	-0.166
-242.946	800.000	0.078	-0.301
-241.932	-200.000	-0.009	0.271
-240.917	-135.124	0.113	-0.013
-239.903	3.430	-0.150	0.108
-238.888	-3.108	0.194	0.134
-237.873	-200.000	-0.027	-0.135
-236.859	-200.000	-0.017	0.253
-235.844	-187.986	-0.123	-0.002
-234.830	-30.223	-0.326	0.183
-233.815	-39.268	-0.470	0.243
-232.800	-200.000	0.021	0.138
-231.786	7.776	0.340	0.251
-230.771	18.542	0.227	-0.179
-229.757	-200.000	0.031	-0.268
-228.742	-75.899	0.133	0.046
-227.727	0.787	0.041	-0.029
-226.713	193.862	-0.089	0.133
-225.698	-38.215	-0.170	-0.089
-224.684	120.981	-0.022	0.027
-223.669	-6.416	0.251	-0.169
-222.655	210.905	-0.175	-0.271
-221.640	-200.000	-0.018	0.112
-220.625	-13.487	-0.245	0.157
-219.611	-18.877	0.058	0.036
-218.596	-200.000	-0.044	0.321
-217.582	-130.876	0.346	0.046
-216.567	255.792	-0.084	-0.141
-215.552	-83.884	0.205	0.064
-214.538	-86.827	0.145	-0.044
-213.523	327.535	-0.078	-0.148
-212.509	-87.621	0.198	0.059
-211.494	25.314	-0.172	-0.141
-210.479	-200.000	0.001	0.097
-209.465	800.000	-0.011	-0.029
-208.450	-200.000	-0.058	0.378
-207.436	800.000	0.102	0.296
-206.421	-130.563	-0.062	0.008
-205.406	-20.195	0.233	-0.142
-204.392	46.036	0.217	0.198
-203.377	-18.117	0.146	0.090
-202.363	-96.116	0.128	0.034
-201.348	-200.000	0.008	-0.081
-200.333	280.415	-0.063	0.111
-199.319	407.721	-0.083	-0.172
-198.304	-78.679	0.431	0.145
-197.290	-58.800	-0.243	0.104
-196.275	529.567	-0.075	0.175
-195.260	170.286	-0.048	0.068
-194.246	-30.661	0.304	0.170
-193.231	338.256	0.114	0.219
-192.217	-118.500	-0.221	0.039
-191.202	163.473	-0.160	0.222
-190.187	-98.299	0.108	0.027
-189.173	345.277	0.015	-0.028
-188.158	-200.000	-0.080	-0.552
-187.144	-200.000	-0.038	0.350
-186.129	-100.122	-0.137	0.034
-185.114	229.916	-0.091	0.146
-184.100	35.067	0.205	-0.177
-183.085	-52.042	0.133	0.061
-182.071	324.022	0.156	-0.293
-181.056	800.000	0.040	0.119
-180.042	-200.000	0.047	0.224
-179.027	-29.967	-0.516	-0.290
-178.012	81.951	-0.100	0.107
-176.998	-153.651	0.174	-0.012
-175.983	19.459	0.052	0.041
-174.969	128.032	0.219	-0.274
-173.954	155.036	-0.167	-0.226
-172.939	16.321	0.151	0.117
-171.925	-101.628	-0.079	0.019
-170.910	35.264	-0.278	0.240
-169.896	77.797	0.136	-0.142
-168.881	191.433	-0.119	-0.177
-167.866	137.261	-0.187	-0.241
-166.852	-200.000	-0.009	0.056
-165.837	148.824	0.098	-0.130
-164.823	-1.712	-0.067	-0.046
-163.808	-46.394	-0.086	-0.042
-162.793	800.000	0.085	0.347
-161.779	800.000	0.027	0.108
-160.764	-160.496	0.218	0.011
-159.750	-1.231	0.099	-0.069
-158.735	122.682	-0.115	-0.142
-157.720	800.000	-0.070	-0.223
-156.706	20.115	-0.265	-0.211
-155.691	-200.000	0.018	0.285
-154.677	83.389	0.023	-0.024
-153.662	-126.881	-0.063	0.009
-152.647	-95.104	0.577	0.153
-151.633	-126.165	0.436	-0.064
-150.618	147.055	0.131	0.173
-149.604	30.185	0.318	0.267
-148.589	119.141	0.204	0.248
-147.574	-159.618	0.164	-0.009
-146.560	170.828	0.173	0.244
-145.545	-200.000	0.012	-0.098
-144.531	-174.517	0.293	-0.008
-143.516	800.000	-0.057	-0.239
-142.502	-150.276	-0.290	0.022
-141.487	-68.366	0.201	-0.077
-140.472	1.108	-0.127	-0.090
-139.458	121.414	-0.037	-0.046
-138.443	-31.608	0.382	-0.211
-137.429	800.000	-0.030	-0.093
-136.414	-166.800	0.254	0.010
-135.399	131.376	-0.078	-0.098
-134.385	800.000	-0.124	0.356
-133.370	3.537	-0.155	-0.111
-132.356	84.008	-0.066	-0.071
-131.341	103.645	0.181	0.209
-130.326	-67.463	0.266	0.103
-129.312	-200.000	0.010	0.082
-128.297	-129.077	-0.259	0.036
-127.283	33.053	0.116	-0.099
-126.268	-47.182	-0.222	-0.106
-125.253	-45.152	-0.398	-0.194
-124.239	326.784	-0.096	0.181
-123.224	-200.000	-0.016	-0.150
-122.210	93.386	-0.157	-0.174
-121.195	-200.000	-0.023	-0.192
