DTS Sentinel unit serial number:	SN413079Multiplexer serial number:	ORYXHardware model number:	OX4-SRSoftware version number:	ORYX F/W v4.00 Oryx Data Collector v3.7.2.0data status	okinstallation	princeton_trtdifferential loss correction	single-endedforward channel	channel 2reverse channel	N/Adate	2019/09/11time	11:37:11forward acquisition time	60.00reverse acquisition time	0.00gamma	496.2192k internal	0.2303k external	0.2303temperature offset calibration	0.9969default loss term (dB/km)	0.3790temperature slope calibration	1.0000multiplexer offset coefficient	1.0000multiplexer slope coefficient	1.0000fibre end	0.00T internal ref (°C)	38.31T ext. ref 1 (°C)	0.18T ext. ref 2 (°C)	36.03length (m)	temperature (°C)	Stokes	anti-Stokes-747.200	-1.403	0.140	-0.101
-746.185	-117.937	0.290	-0.053
-745.171	290.440	-0.121	-0.223
-744.156	-12.210	0.355	0.237
-743.142	63.077	0.203	0.207
-742.127	-200.000	0.047	0.265
-741.112	94.837	0.052	-0.060
-740.098	289.562	-0.122	0.225
-739.083	562.063	-0.033	0.083
-738.069	-31.938	0.364	0.208
-737.054	46.631	-0.157	0.148
-736.039	107.565	-0.196	-0.237
-735.025	83.420	0.201	-0.223
-734.010	-83.172	-0.250	-0.082
-732.996	-200.000	0.006	-0.130
-731.981	-140.416	-0.201	0.021
-730.966	611.394	0.043	0.110
-729.952	35.412	-0.163	0.146
-728.937	-4.511	-0.196	-0.138
-727.923	-82.393	0.068	0.023
-726.908	20.382	0.132	0.109
-725.894	97.465	-0.284	0.332
-724.879	800.000	-0.050	0.202
-723.864	121.479	-0.189	-0.240
-722.850	-99.827	-0.008	-0.002
-721.835	416.771	-0.031	0.068
-720.821	696.430	-0.102	0.273
-719.806	-62.139	-0.047	-0.020
-718.791	-48.166	-0.239	-0.118
-717.777	-92.070	-0.298	0.086
-716.762	-200.000	-0.005	0.073
-715.748	-124.831	-0.401	-0.063
-714.733	49.756	0.034	-0.032
-713.718	-136.863	0.034	0.004
-712.704	359.790	-0.069	-0.140
-711.689	-67.434	-0.155	0.062
-710.675	-200.000	0.020	0.455
-709.660	273.145	0.168	0.302
-708.645	-134.344	-0.214	-0.027
-707.631	800.000	-0.073	-0.250
-706.616	-200.000	-0.114	-0.654
-705.602	-140.555	0.159	0.017
-704.587	-132.839	0.239	0.031
-703.572	-200.000	0.022	0.118
-702.558	68.433	0.184	-0.191
-701.543	-54.127	-0.435	0.201
-700.529	84.350	0.205	-0.228
-699.514	16.656	-0.194	-0.156
-698.499	594.179	0.060	0.150
-697.485	294.750	-0.139	0.259
-696.470	18.198	-0.107	-0.087
-695.456	-142.051	0.181	0.018
-694.441	800.000	-0.062	-0.187
-693.426	-61.912	0.143	-0.061
-692.412	800.000	0.066	-0.188
-691.397	675.205	-0.170	-0.448
-690.383	-34.055	-0.038	0.021
-689.368	-91.059	0.138	0.040
-688.354	-200.000	0.057	0.358
-687.339	-121.870	0.381	0.064
-686.324	800.000	0.036	0.142
-685.310	278.719	-0.204	0.370
-684.295	129.250	-0.109	-0.142
-683.281	-126.853	-0.079	-0.012
-682.266	-13.017	-0.329	-0.217
-681.251	120.007	0.058	0.074
-680.237	-41.881	0.230	0.120
-679.222	800.000	0.083	-0.362
-678.208	-200.000	0.010	0.120
-677.193	48.631	-0.051	-0.049
-676.178	-200.000	-0.027	-0.298
-675.164	161.517	0.061	0.087
-674.149	800.000	0.096	0.304
-673.135	105.942	-0.196	-0.235
-672.120	309.341	0.223	-0.423
-671.105	800.000	0.139	0.615
-670.091	-148.836	-0.173	0.014
-669.076	-136.108	0.031	0.004
-668.062	800.000	-0.115	-0.325
-667.047	155.832	-0.212	0.296
-666.032	-192.821	-0.081	0.001
-665.018	-164.681	-0.174	-0.008
-664.003	332.344	-0.157	-0.307
-662.989	500.031	0.125	0.293
-661.974	209.318	0.114	0.181
-660.959	800.000	0.016	0.072
-659.945	-36.979	-0.059	0.032
-658.930	800.000	0.074	0.247
-657.916	-36.095	-0.135	-0.074
-656.901	447.033	-0.179	-0.401
-655.886	400.560	-0.136	-0.289
-654.872	83.983	0.159	-0.176
-653.857	-200.000	-0.016	-0.161
-652.843	-47.670	-0.094	-0.046
-651.828	-59.959	-0.282	0.122
-650.814	-149.721	-0.093	0.007
-649.799	6.717	-0.125	-0.095
-648.784	46.258	0.251	0.236
-647.770	-65.722	-0.317	0.129
-646.755	0.907	-0.133	-0.097
-645.741	-42.607	-0.183	-0.094
-644.726	-200.000	-0.006	0.237
-643.711	-200.000	-0.011	0.198
-642.697	-139.303	-0.220	0.024
-641.682	800.000	0.089	-0.340
-640.668	518.929	-0.120	0.284
-639.653	-200.000	0.013	-0.288
-638.638	-43.091	0.211	0.109
-637.624	800.000	0.116	-0.373
-636.609	13.168	0.237	-0.186
-635.595	-27.933	-0.149	-0.087
-634.580	-51.064	-0.303	-0.144
-633.565	-17.202	-0.023	-0.015
-632.551	-200.000	-0.035	-0.406
-631.536	800.000	-0.038	-0.130
-630.522	-200.000	-0.025	-0.225
-629.507	180.469	-0.077	-0.115
-628.492	-14.033	-0.143	0.094
-627.478	289.787	-0.243	0.447
-626.463	-52.704	0.174	0.081
-625.449	556.542	-0.136	-0.333
-624.434	65.627	-0.119	-0.122
-623.419	800.000	0.052	0.174
-622.405	-47.556	-0.143	-0.070
-621.390	447.076	-0.049	-0.108
-620.376	-17.188	0.174	-0.111
-619.361	58.706	-0.165	0.164
-618.346	-200.000	0.007	0.347
-617.332	1.724	-0.172	0.125
-616.317	-165.955	-0.185	-0.008
-615.303	-42.691	-0.261	-0.134
-614.288	230.580	0.085	-0.141
-613.273	418.664	-0.092	0.199
-612.259	50.117	-0.080	0.077
-611.244	-200.000	0.035	-0.253
-610.230	-72.998	0.114	-0.042
-609.215	-90.501	-0.061	-0.018
-608.201	144.185	-0.056	-0.076
-607.186	-12.938	-0.155	-0.102
-606.171	-85.232	0.165	-0.052
-605.157	-200.000	0.038	-0.245
-604.142	-15.890	0.206	0.133
-603.128	-64.418	-0.398	-0.164
-602.113	270.909	0.054	-0.097
-601.098	553.015	0.090	-0.220
-600.084	-34.206	0.256	-0.142
-599.069	-200.000	-0.022	-0.112
-598.055	136.967	0.120	-0.159
-597.040	-55.008	0.213	0.097
-596.025	53.591	0.157	-0.152
-595.011	-200.000	-0.062	0.291
-593.996	-82.372	-0.196	0.065
-592.982	-148.634	0.119	-0.010
-591.967	-40.565	0.441	-0.232
-590.952	800.000	-0.051	0.187
-589.938	-25.597	0.377	-0.225
-588.923	-56.808	0.047	-0.021
-587.909	800.000	0.017	0.049
-586.894	54.335	-0.052	-0.051
-585.879	478.540	-0.109	-0.250
-584.865	84.703	0.319	-0.354
-583.850	-126.596	-0.289	0.043
-582.836	-60.131	0.443	0.191
-581.821	800.000	-0.022	0.065
-580.806	-181.152	-0.052	0.001
-579.792	59.481	-0.098	-0.097
-578.777	-9.438	-0.159	0.108
-577.763	12.817	-0.239	0.187
-576.748	60.657	-0.121	0.122
-575.733	-134.306	0.291	0.036
-574.719	-47.127	0.441	0.218
-573.704	200.703	-0.323	-0.502
-572.690	-200.000	-0.035	0.189
-571.675	-130.892	-0.313	-0.042
-570.661	85.667	0.092	0.103
-569.646	124.603	-0.157	-0.200
-568.631	-111.737	0.231	-0.047
-567.617	177.564	0.037	-0.055
-566.602	381.624	0.073	-0.152
-565.588	-68.030	0.064	0.025
-564.573	193.054	0.187	-0.286
-563.558	-200.000	0.026	-0.306
-562.544	800.000	-0.074	-0.273
-561.529	68.255	0.101	0.104
-560.515	-67.811	0.164	0.065
-559.500	-200.000	0.021	-0.138
-558.485	547.412	-0.057	-0.137
-557.471	-122.670	-0.322	-0.053
-556.456	310.960	0.194	0.368
-555.442	-16.646	0.143	-0.092
-554.427	25.967	-0.116	-0.098
-553.412	334.443	-0.090	0.177
-552.398	-89.731	-0.346	-0.102
-551.383	26.977	-0.282	-0.239
-550.369	79.536	0.213	0.231
-549.354	-200.000	-0.006	-0.292
-548.339	-200.000	-0.041	-0.271
-547.325	110.764	0.161	-0.196
-546.310	76.603	0.032	-0.035
-545.296	-200.000	-0.005	0.059
-544.281	-2.246	-0.097	-0.069
-543.266	52.732	0.216	0.209
-542.252	121.265	0.127	-0.159
-541.237	-76.340	-0.115	-0.041
-540.223	144.318	-0.064	0.087
-539.208	175.209	-0.048	0.070
-538.193	-44.418	-0.078	-0.039
-537.179	-69.406	0.086	-0.033
-536.164	-171.341	-0.347	0.012
-535.150	198.207	-0.090	-0.139
-534.135	-102.331	-0.161	-0.039
-533.121	-200.000	0.050	-0.227
-532.106	88.907	0.080	0.090
-531.091	31.691	-0.213	0.185
-530.077	294.509	-0.124	-0.230
-529.062	-181.277	0.163	-0.003
-528.048	-200.000	0.040	-0.230
-527.033	-200.000	-0.024	-0.258
-526.018	-141.490	-0.136	-0.014
-525.004	-200.000	-0.024	-0.207
-523.989	-183.697	-0.078	0.001
-522.975	270.428	-0.072	-0.128
-521.960	82.125	-0.143	0.157
-520.945	-79.082	0.271	0.093
-519.931	-65.467	-0.344	-0.139
-518.916	800.000	0.122	0.463
-517.902	800.000	0.121	0.455
-516.887	5.008	0.147	-0.109
-515.872	-117.900	-0.253	-0.046
-514.858	-33.217	-0.237	-0.133
-513.843	69.462	0.146	0.152
-512.829	522.772	0.113	0.268
-511.814	800.000	0.080	0.316
-510.799	238.627	-0.116	0.195
-509.785	-119.628	-0.231	-0.040
-508.770	-123.451	-0.125	0.020
-507.756	483.996	-0.089	0.205
-506.741	308.496	0.031	0.058
-505.726	-94.303	-0.346	-0.095
-504.712	-116.019	-0.059	0.011
-503.697	-174.306	0.163	0.005
-502.683	750.213	-0.123	0.334
-501.668	-103.735	-0.421	-0.099
-500.653	-111.916	-0.338	0.069
-499.639	-87.407	-0.339	0.104
-498.624	-119.364	0.219	-0.038
-497.610	-6.864	-0.219	0.150
-496.595	-200.000	-0.011	0.236
-495.581	-131.256	0.356	0.048
-494.566	-12.890	0.102	-0.067
-493.551	544.016	-0.124	0.299
-492.537	-83.387	-0.283	-0.091
-491.522	-39.198	0.143	-0.076
-490.508	6.080	-0.067	-0.050
-489.493	787.704	-0.113	-0.313
-488.478	1.045	0.161	-0.116
-487.464	-67.903	-0.236	-0.093
-486.449	538.484	0.035	-0.084
-485.435	515.048	0.042	0.100
-484.420	-200.000	0.043	-0.192
-483.405	-165.823	-0.089	-0.004
-482.391	-102.874	0.048	0.011
-481.376	-64.597	0.350	-0.143
-480.362	188.268	0.014	0.021
-479.347	299.018	0.158	-0.294
-478.332	9.017	-0.283	-0.215
-477.318	-200.000	0.003	-0.147
-476.303	-113.469	0.322	0.064
-475.289	-91.622	-0.081	-0.023
-474.274	800.000	0.041	0.134
-473.259	-200.000	0.030	-0.212
-472.245	42.125	-0.288	0.263
-471.230	23.006	0.159	0.131
-470.216	110.423	0.162	-0.196
-469.201	-3.319	0.223	0.157
-468.186	89.909	0.109	0.123
-467.172	-200.000	0.010	-0.247
-466.157	58.098	-0.202	-0.199
-465.143	22.673	-0.181	-0.150
-464.128	-200.000	0.008	0.102
-463.113	-115.438	-0.312	0.059
-462.099	800.000	0.053	0.174
-461.084	-69.453	-0.241	0.093
-460.070	-61.437	0.027	0.011
-459.055	-134.732	-0.350	-0.043
-458.040	-200.000	0.012	-0.113
-457.026	291.176	0.055	0.101
-456.011	69.454	0.467	0.484
-454.997	-74.052	0.367	-0.134
-453.982	214.323	-0.060	0.096
-452.968	-152.255	0.159	0.012
-451.953	-98.452	0.143	0.037
-450.938	-90.008	-0.382	0.112
-449.924	-101.600	0.119	0.029
-448.909	-25.858	0.252	0.150
-447.895	100.228	0.141	-0.164
-446.880	-131.364	0.081	0.011
-445.865	-28.078	0.104	-0.060
-444.851	-200.000	0.006	0.497
-443.836	-113.532	-0.404	-0.080
-442.822	15.448	-0.347	-0.274
-441.807	125.392	-0.150	0.191
-440.792	269.551	0.172	-0.304
-439.778	-200.000	-0.053	-0.302
-438.763	448.768	-0.064	-0.141
-437.749	-144.244	-0.308	0.029
-436.734	58.267	0.240	-0.237
-435.719	32.179	0.227	0.197
-434.705	-200.000	0.021	0.265
-433.690	271.284	0.108	-0.191
-432.676	113.946	0.081	0.099
-431.661	282.510	0.124	-0.223
-430.646	-26.187	0.232	0.137
-429.632	-200.000	0.021	-0.348
-428.617	-34.477	0.215	-0.118
-427.603	-13.936	0.091	-0.059
-426.588	800.000	-0.069	-0.231
-425.573	800.000	-0.013	-0.042
-424.559	-1.854	-0.203	0.144
-423.544	-200.000	0.053	0.348
-422.530	-14.459	0.218	-0.141
-421.515	170.749	0.044	-0.064
-420.500	218.589	-0.144	0.231
-419.486	800.000	-0.016	0.051
-418.471	-181.809	0.101	0.002
-417.457	-11.567	-0.036	-0.024
-416.442	-74.715	-0.357	-0.129
-415.428	800.000	-0.143	0.496
-414.413	-200.000	-0.008	-0.042
-413.398	-123.980	0.289	-0.046
-412.384	-0.642	0.244	-0.174
-411.369	800.000	-0.064	0.209
-410.355	-11.931	0.228	0.150
-409.340	-78.672	-0.209	0.072
-408.325	800.000	0.089	-0.380
-407.311	-200.000	0.013	-0.062
-406.296	-19.737	-0.354	0.220
-405.282	466.730	-0.129	0.290
-404.267	-200.000	-0.036	0.266
-403.252	-111.476	-0.411	0.084
-402.238	800.000	-0.010	0.040
-401.223	448.117	0.096	-0.213
-400.209	-83.749	0.045	-0.014
-399.194	129.733	-0.004	-0.005
-398.179	-76.449	-0.136	-0.048
-397.165	521.426	0.198	-0.467
-396.150	-37.765	0.140	0.075
-395.136	32.146	0.166	-0.143
-394.121	-200.000	-0.031	-0.212
-393.106	34.635	-0.059	0.052
-392.092	370.063	0.173	0.353
-391.077	-60.067	0.192	0.083
-390.063	-167.851	0.247	-0.010
-389.048	1.357	-0.048	0.034
-388.033	220.699	0.025	0.041
-387.019	-200.000	0.020	0.116
-386.004	-106.768	0.204	0.045
-384.990	16.590	0.108	0.086
-383.975	800.000	0.065	0.202
-382.960	63.877	0.194	0.196
-381.946	-172.363	0.204	-0.007
-380.931	-85.662	-0.114	0.035
-379.917	29.843	-0.104	-0.089
-378.902	-49.930	-0.103	-0.049
-377.888	-150.303	0.341	-0.026
-376.873	-137.453	-0.099	-0.011
-375.858	-96.783	0.292	0.077
-374.844	5.063	-0.095	-0.070
-373.829	-200.000	0.004	-0.134
-372.815	190.735	0.118	-0.178
-371.800	-26.842	0.030	-0.017
-370.785	-142.798	-0.100	-0.010
-369.771	-86.961	0.261	-0.080
-368.756	440.277	-0.100	0.219
-367.742	442.160	-0.135	-0.296
-366.727	107.504	0.238	-0.284
-365.712	-200.000	-0.038	-0.259
-364.698	800.000	-0.041	-0.143
-363.683	-200.000	-0.027	-0.160
-362.669	800.000	-0.048	-0.175
-361.654	-102.420	-0.462	0.111
-360.639	94.973	-0.061	-0.070
-359.625	-200.000	-0.044	0.305
-358.610	-200.000	-0.024	0.232
-357.596	107.356	0.326	-0.389
-356.581	208.885	-0.112	-0.176
-355.566	170.870	-0.100	0.144
-354.552	-18.380	-0.151	-0.094
-353.537	27.873	0.046	0.039
-352.523	-37.511	-0.301	-0.161
-351.508	-84.973	-0.084	-0.027
-350.493	144.605	-0.235	-0.314
-349.479	-2.777	0.074	0.052
-348.464	800.000	-0.105	0.444
-347.450	132.131	0.275	0.356
-346.435	-150.302	0.060	0.005
-345.420	-200.000	0.021	-0.148
-344.406	33.375	0.028	0.024
-343.391	146.300	0.058	0.078
-342.377	-200.000	0.033	0.156
-341.362	-200.000	-0.048	0.564
-340.348	529.891	0.114	0.270
-339.333	800.000	-0.039	0.158
-338.318	-194.732	-0.210	0.002
-337.304	-31.315	0.182	-0.103
-336.289	-200.000	0.029	0.273
-335.275	80.891	0.091	0.098
-334.260	-200.000	-0.002	-0.235
-333.245	-40.500	-0.185	-0.096
-332.231	-200.000	-0.005	0.184
-331.216	-200.000	0.021	-0.154
-330.202	379.598	-0.034	0.070
-329.187	-110.986	0.247	-0.051
-328.172	-98.542	-0.316	0.081
-327.158	27.244	-0.196	0.165
-326.143	-48.430	-0.398	0.192
-325.129	0.616	0.187	-0.134
-324.114	677.542	0.048	-0.124
-323.099	-160.486	0.168	-0.009
-322.085	-200.000	0.017	0.121
-321.070	-200.000	0.007	0.213
-320.056	-28.029	0.224	0.130
-319.041	-96.629	0.057	-0.015
-318.026	-150.757	-0.064	0.005
-317.012	-84.714	-0.210	0.066
-315.997	-200.000	-0.017	0.111
-314.983	-37.351	0.255	0.137
-313.968	-200.000	0.070	-0.336
-312.953	-200.000	-0.050	-0.226
-311.939	-200.000	-0.019	-0.241
-310.924	-200.000	-0.006	0.146
-309.910	-200.000	-0.072	0.340
-308.895	144.231	0.103	-0.137
-307.880	-41.516	-0.282	-0.145
-306.866	-115.033	-0.101	-0.019
-305.851	-127.739	-0.400	0.058
-304.837	-145.174	0.206	-0.019
-303.822	-143.077	0.206	0.020
-302.807	-200.000	0.013	0.188
-301.793	681.116	0.031	-0.082
-300.778	502.000	-0.104	-0.241
-299.764	14.311	-0.106	-0.083
-298.749	-200.000	-0.013	0.122
-297.735	432.280	-0.080	0.174
-296.720	12.376	-0.117	-0.090
-295.705	-52.205	0.122	-0.057
-294.691	-200.000	-0.024	0.311
-293.676	-200.000	0.038	-0.210
-292.662	-130.303	0.088	-0.012
-291.647	-90.147	0.061	-0.018
-290.632	98.788	-0.145	-0.167
-289.618	583.011	-0.067	0.166
-288.603	335.879	0.206	0.401
-287.589	-58.975	-0.198	-0.085
-286.574	702.736	0.055	0.145
-285.559	-20.256	-0.119	0.073
-284.545	234.606	-0.072	0.118
-283.530	-6.314	-0.149	0.102
-282.516	111.642	-0.078	0.095
-281.501	-200.000	0.005	0.240
-280.486	12.309	0.196	0.151
-279.472	800.000	-0.056	0.232
-278.457	50.997	-0.126	-0.119
-277.443	364.951	-0.110	0.221
-276.428	205.068	0.052	-0.081
-275.413	-200.000	-0.057	0.257
-274.399	-200.000	0.011	0.224
-273.384	-139.293	0.193	-0.021
-272.370	76.673	0.221	-0.235
-271.355	431.991	-0.165	-0.359
-270.340	-69.864	-0.347	0.133
-269.326	-118.981	-0.192	0.034
-268.311	96.744	0.177	-0.203
-267.297	-200.000	-0.019	-0.134
-266.282	-200.000	0.006	0.067
-265.267	175.523	-0.090	-0.131
-264.253	-58.343	-0.161	0.070
-263.238	-200.000	0.060	0.277
-262.224	-76.758	-0.190	0.067
-261.209	-195.229	0.077	-0.001
-260.195	-126.260	0.202	-0.030
-259.180	-163.789	0.168	0.008
-258.165	-200.000	0.032	-0.187
-257.151	-93.424	0.503	0.139
-256.136	-41.564	-0.129	-0.066
-255.122	601.720	0.086	-0.214
-254.107	55.821	0.120	0.117
-253.092	-200.000	0.002	0.055
-252.078	-101.156	0.163	0.040
-251.063	249.741	0.036	-0.061
-250.049	84.638	-0.314	0.343
-249.034	-60.448	0.140	-0.059
-248.019	-200.000	-0.036	-0.190
-247.005	-106.020	0.323	0.073
-245.990	30.558	-0.151	0.129
-244.976	330.444	0.196	-0.376
-243.961	-145.098	0.275	0.025
-242.946	-4.451	0.078	-0.054
-241.932	-200.000	-0.051	-0.260
-240.917	800.000	0.036	-0.119
-239.903	296.952	-0.102	-0.186
-238.888	111.888	-0.030	-0.036
-237.873	486.843	-0.219	-0.498
-236.859	800.000	0.062	-0.254
-235.844	-200.000	0.016	-0.305
-234.830	-72.922	0.171	0.063
-233.815	-200.000	0.063	0.288
-232.800	-85.139	-0.112	0.035
-231.786	40.782	0.145	-0.131
-230.771	-200.000	-0.003	0.225
-229.757	-85.192	-0.097	0.030
-228.742	-200.000	-0.019	0.409
-227.727	-200.000	-0.075	0.469
-226.713	800.000	0.043	0.167
-225.698	190.537	0.170	0.255
-224.684	800.000	0.174	0.554
-223.669	-200.000	0.002	0.248
-222.655	-9.556	0.301	0.201
-221.640	268.212	-0.068	-0.118
-220.625	-156.635	-0.149	-0.009
-219.611	-93.832	0.157	0.043
-218.596	-127.579	0.468	-0.068
-217.582	68.806	-0.159	0.163
-216.567	-154.856	-0.335	-0.022
-215.552	138.296	0.184	-0.241
-214.538	675.224	-0.038	0.100
-213.523	800.000	-0.064	-0.210
-212.509	-142.077	0.495	0.049
-211.494	-138.698	0.014	0.001
-210.479	-200.000	0.025	0.128
-209.465	67.009	0.051	-0.052
-208.450	-155.677	0.169	-0.011
-207.436	-200.000	-0.007	-0.153
-206.421	-200.000	0.018	0.084
-205.406	-77.125	-0.085	0.029
-204.392	800.000	-0.026	-0.111
-203.377	263.556	0.275	0.477
-202.363	222.619	-0.145	0.232
-201.348	-84.105	0.461	0.146
-200.333	-49.549	-0.262	0.124
-199.319	-68.078	0.330	-0.128
-198.304	-110.204	-0.259	0.054
-197.290	-121.221	0.083	0.014
-196.275	-80.466	0.198	-0.066
-195.260	381.501	0.221	0.453
-194.246	-64.240	0.139	0.056
-193.231	-25.533	0.044	0.026
-192.217	4.587	-0.080	-0.059
-191.202	-54.501	-0.157	-0.071
-190.187	800.000	-0.078	0.277
-189.173	292.402	-0.075	-0.136
-188.158	33.924	0.166	-0.144
-187.144	-55.236	-0.405	-0.181
-186.129	-152.962	-0.186	0.013
-185.114	-71.510	-0.379	-0.141
-184.100	-200.000	-0.011	-0.131
-183.085	120.780	0.228	0.283
-182.071	350.266	-0.177	0.348
-181.056	80.383	0.099	-0.106
-180.042	-200.000	0.034	-0.253
-179.027	-141.727	0.285	0.029
-178.012	800.000	0.090	-0.333
-176.998	-100.848	0.242	0.059
-175.983	-200.000	-0.037	-0.188
-174.969	371.956	0.015	-0.031
-173.954	150.402	0.197	-0.267
-172.939	47.889	-0.191	0.178
-171.925	-23.443	-0.028	-0.017
-170.910	-50.416	-0.259	0.122
-169.896	-104.022	-0.099	-0.023
-168.881	-92.876	-0.231	-0.064
-167.866	750.085	0.047	0.126
-166.852	343.904	0.178	-0.347
-165.837	-200.000	0.254	0.000
-164.823	-200.000	-0.005	0.084
-163.808	-99.557	0.294	-0.074
-162.793	-200.000	-0.015	-0.141
-161.779	285.294	0.131	0.234
-160.764	235.105	-0.110	0.180
-159.750	800.000	-0.044	0.175
-158.735	-66.640	-0.225	-0.089
-157.720	49.597	-0.203	-0.191
-156.706	137.977	0.211	0.276
-155.691	687.791	-0.027	-0.069
-154.677	-95.609	0.158	-0.042
-153.662	800.000	0.018	-0.067
-152.647	-200.000	-0.001	-0.240
-151.633	291.405	-0.084	0.152
-150.618	-200.000	0.021	0.122
-149.604	324.834	-0.212	0.402
-148.589	128.585	0.386	0.489
-147.574	121.558	-0.176	-0.218
-146.560	800.000	0.031	-0.103
-145.545	800.000	-0.057	-0.198
-144.531	-200.000	0.043	-0.195
-143.516	66.417	0.020	0.020
-142.502	-21.790	0.074	-0.045
-141.487	-200.000	-0.020	0.150
-140.472	-127.277	0.260	0.038
-139.458	-200.000	-0.023	0.329
-138.443	761.350	-0.054	0.146
-137.429	671.494	0.029	0.074
-136.414	9.073	0.254	0.191
-135.399	-39.132	0.131	0.069
-134.385	49.989	-0.098	-0.092
-133.370	-130.681	0.130	0.017
-132.356	62.084	0.259	0.257
-131.341	-200.000	0.020	0.163
-130.326	72.220	0.280	-0.290
-129.312	-200.000	0.007	0.058
-128.297	-85.247	0.151	0.047
-127.283	-4.393	-0.211	0.145
-126.268	-150.407	-0.213	-0.016
-125.253	-200.000	0.023	0.146
-124.239	-68.108	0.400	-0.155
-123.224	-43.782	-0.081	0.040
-122.210	-77.425	-0.111	0.038
