DTS Sentinel unit serial number:	SN413079Multiplexer serial number:	ORYXHardware model number:	OX4-SRSoftware version number:	ORYX F/W v4.00 Oryx Data Collector v3.7.2.0data status	okinstallation	princeton_trtdifferential loss correction	single-endedforward channel	channel 2reverse channel	N/Adate	2019/09/11time	00:17:11forward acquisition time	60.00reverse acquisition time	0.00gamma	496.2192k internal	0.2331k external	0.2331temperature offset calibration	0.9943default loss term (dB/km)	0.3790temperature slope calibration	1.0000multiplexer offset coefficient	1.0000multiplexer slope coefficient	1.0000fibre end	0.00T internal ref (°C)	29.30T ext. ref 1 (°C)	-0.32T ext. ref 2 (°C)	22.85length (m)	temperature (°C)	Stokes	anti-Stokes-747.200	-138.827	-0.082	0.009
-746.185	-63.517	0.274	0.113
-745.171	-156.335	0.408	0.026
-744.156	25.839	-0.110	-0.092
-743.142	-200.000	-0.009	0.061
-742.127	-84.932	-0.019	0.006
-741.112	181.954	0.166	0.246
-740.098	-61.592	-0.278	-0.117
-739.083	-1.743	-0.204	-0.144
-738.069	188.274	-0.044	-0.066
-737.054	363.769	-0.128	0.258
-736.039	93.694	-0.315	-0.359
-735.025	-112.071	-0.093	-0.019
-734.010	-104.080	-0.299	-0.070
-732.996	-101.273	0.051	-0.013
-731.981	-9.433	-0.259	-0.174
-730.966	-33.884	-0.224	0.124
-729.952	-200.000	-0.014	0.222
-728.937	486.277	0.089	-0.205
-727.923	13.258	-0.328	-0.256
-726.908	-200.000	0.077	-0.397
-725.894	78.053	-0.161	-0.172
-724.879	-170.537	0.154	0.005
-723.864	20.286	0.292	0.237
-722.850	-200.000	0.006	0.121
-721.835	188.366	-0.098	-0.147
-720.821	-29.241	-0.396	-0.228
-719.806	35.409	-0.206	0.181
-718.791	-43.908	-0.265	0.134
-717.777	-57.884	-0.177	-0.078
-716.762	-80.245	-0.239	-0.080
-715.748	130.846	-0.243	-0.313
-714.733	-76.253	0.192	-0.068
-713.718	-137.061	-0.083	0.010
-712.704	327.414	-0.064	-0.124
-711.689	152.893	-0.276	-0.379
-710.675	517.118	0.071	-0.168
-709.660	-62.558	0.277	-0.116
-708.645	-197.660	-0.208	-0.001
-707.631	-39.986	0.279	-0.146
-706.616	-97.953	0.205	0.053
-705.602	-0.391	-0.244	-0.174
-704.587	-200.000	-0.015	-0.109
-703.572	-95.803	0.223	0.060
-702.558	-200.000	-0.019	0.120
-701.543	-115.432	0.386	0.073
-700.529	-200.000	0.019	0.375
-699.514	10.241	0.138	0.106
-698.499	-137.255	-0.311	0.035
-697.485	-98.776	-0.191	-0.049
-696.470	134.933	0.126	-0.164
-695.456	-136.271	-0.298	-0.035
-694.441	-127.255	0.177	-0.026
-693.426	800.000	0.054	0.180
-692.412	34.224	0.235	0.206
-691.397	-115.775	-0.119	-0.022
-690.383	-39.914	-0.248	-0.130
-689.368	-65.321	0.318	0.128
-688.354	-136.117	-0.138	-0.016
-687.339	-33.027	-0.218	-0.122
-686.324	-183.393	0.277	-0.005
-685.310	-106.065	-0.137	-0.031
-684.295	79.204	-0.120	-0.129
-683.281	-62.044	0.163	-0.068
-682.266	-90.984	0.326	-0.094
-681.251	-200.000	0.012	-0.191
-680.237	312.857	-0.214	0.404
-679.222	336.339	-0.039	0.075
-678.208	769.781	-0.095	0.260
-677.193	-81.798	0.351	0.115
-676.178	800.000	-0.080	-0.312
-675.164	-200.000	0.042	-0.212
-674.149	-20.079	-0.238	-0.147
-673.135	13.171	-0.166	-0.129
-672.120	126.068	0.249	-0.316
-671.105	-52.329	0.267	-0.124
-670.091	288.117	0.054	0.098
-669.076	-128.847	0.111	0.016
-668.062	-22.984	0.102	-0.062
-667.047	-33.924	-0.091	0.050
-666.032	-43.231	-0.201	0.102
-665.018	-101.301	0.191	0.047
-664.003	-200.000	0.029	0.207
-662.989	-36.587	0.212	-0.114
-661.974	-165.708	-0.124	0.005
-660.959	-48.455	0.186	-0.090
-659.945	-92.513	-0.142	0.040
-658.930	176.552	-0.195	-0.284
-657.916	341.352	0.079	-0.154
-656.901	538.178	0.125	-0.297
-655.886	-200.000	-0.008	-0.109
-654.872	-200.000	-0.009	-0.278
-653.857	163.662	0.117	-0.165
-652.843	347.033	-0.088	0.173
-651.828	13.518	-0.260	-0.202
-650.814	-107.970	0.147	0.032
-649.799	-64.878	-0.354	-0.144
-648.784	136.929	0.115	-0.151
-647.770	-200.000	-0.019	-0.089
-646.755	-100.446	0.027	0.007
-645.741	800.000	-0.041	-0.130
-644.726	-49.767	0.258	0.123
-643.711	303.837	-0.079	-0.147
-642.697	-18.044	-0.231	0.145
-641.682	800.000	-0.072	0.263
-640.668	-26.244	0.180	-0.106
-639.653	-84.426	-0.183	-0.058
-638.638	25.230	-0.452	-0.377
-637.624	221.119	-0.166	-0.267
-636.609	-71.712	0.159	-0.060
-635.595	-200.000	0.028	-0.315
-634.580	78.654	-0.182	-0.195
-633.565	69.598	-0.161	0.166
-632.551	-63.371	0.281	0.116
-631.536	-69.828	0.204	-0.078
-630.522	-141.690	0.194	0.019
-629.507	-16.211	0.212	-0.135
-628.492	130.722	0.117	0.150
-627.478	39.661	0.136	0.122
-626.463	-66.562	-0.284	-0.113
-625.449	127.412	0.166	0.212
-624.434	800.000	0.073	0.309
-623.419	-34.376	0.167	-0.092
-622.405	-200.000	0.016	0.201
-621.390	686.379	-0.112	0.292
-620.376	-99.505	-0.214	0.054
-619.361	84.342	-0.066	-0.072
-618.346	-80.076	-0.197	-0.066
-617.332	-200.000	0.284	-0.000
-616.317	-200.000	-0.053	0.359
-615.303	-87.835	-0.328	-0.099
-614.288	800.000	-0.081	0.286
-613.273	-83.793	0.149	-0.048
-612.259	110.702	-0.107	-0.129
-611.244	530.616	-0.050	0.117
-610.230	-200.000	-0.036	0.175
-609.215	-9.637	0.190	0.127
-608.201	-200.000	0.010	-0.665
-607.186	800.000	-0.119	-0.397
-606.171	-200.000	0.019	-0.244
-605.157	-200.000	0.025	-0.281
-604.142	-9.208	-0.379	-0.254
-603.128	-200.000	-0.015	0.066
-602.113	800.000	-0.046	0.143
-601.098	-1.972	0.108	0.076
-600.084	-90.240	-0.227	0.066
-599.069	800.000	-0.042	-0.168
-598.055	-200.000	0.030	-0.137
-597.040	-200.000	-0.022	-0.145
-596.025	-76.817	-0.101	0.036
-595.011	526.039	-0.108	-0.254
-593.996	-200.000	0.046	-0.260
-592.982	-200.000	0.016	-0.282
-591.967	-200.000	0.003	0.037
-590.952	-200.000	0.002	0.444
-589.938	-61.348	0.227	-0.096
-588.923	331.575	0.059	-0.115
-587.909	106.271	-0.206	-0.244
-586.894	-200.000	-0.002	0.126
-585.879	659.950	0.017	-0.043
-584.865	141.485	-0.026	0.034
-583.850	85.103	-0.157	-0.173
-582.836	-200.000	-0.032	-0.284
-581.821	762.811	0.074	-0.202
-580.806	-135.115	-0.244	-0.029
-579.792	800.000	-0.054	-0.214
-578.777	-58.389	-0.236	0.102
-577.763	443.102	-0.135	-0.295
-576.748	-97.966	0.146	0.038
-575.733	-200.000	-0.083	0.396
-574.719	-111.237	-0.278	0.057
-573.704	-200.000	0.024	-0.250
-572.690	800.000	0.078	0.239
-571.675	-146.868	-0.332	-0.029
-570.661	-47.136	0.090	-0.044
-569.646	-122.337	-0.150	-0.024
-568.631	-22.409	0.498	-0.301
-567.617	-72.515	-0.081	-0.030
-566.602	-48.703	0.134	-0.064
-565.588	-65.921	0.044	0.018
-564.573	-29.356	-0.019	-0.011
-563.558	84.771	0.110	0.121
-562.544	311.757	0.121	-0.226
-561.529	22.429	0.314	0.256
-560.515	800.000	0.056	-0.190
-559.500	93.791	-0.301	0.341
-558.485	-43.741	0.208	0.104
-557.471	800.000	-0.063	0.183
-556.456	367.658	0.038	-0.078
-555.442	269.758	0.037	-0.064
-554.427	-45.597	0.010	0.005
-553.412	800.000	0.053	0.223
-552.398	-31.908	0.350	0.196
-551.383	-142.685	-0.100	-0.010
-550.369	-200.000	-0.032	-0.188
-549.354	-41.713	-0.145	0.075
-548.339	-200.000	0.015	-0.155
-547.325	77.549	0.345	-0.367
-546.310	-95.246	-0.194	-0.052
-545.296	95.292	-0.200	0.227
-544.281	-111.820	0.098	0.020
-543.266	-47.475	-0.130	-0.063
-542.252	-106.676	-0.196	-0.044
-541.237	6.605	0.041	0.030
-540.223	-17.299	0.390	-0.246
-539.208	-200.000	-0.005	0.282
-538.193	-200.000	0.061	-0.267
-537.179	-60.290	0.290	-0.123
-536.164	185.249	-0.185	-0.275
-535.150	-101.545	0.070	-0.017
-534.135	-200.000	0.032	0.252
-533.121	-200.000	0.026	-0.171
-532.106	369.135	-0.089	-0.179
-531.091	195.083	-0.094	-0.142
-530.077	-68.077	0.243	-0.095
-529.062	0.867	-0.258	0.184
-528.048	571.780	0.142	-0.344
-527.033	-200.000	0.066	0.439
-526.018	-200.000	0.031	-0.321
-525.004	368.093	0.031	-0.062
-523.989	800.000	0.089	-0.277
-522.975	-137.798	0.192	0.021
-521.960	-200.000	0.020	0.286
-520.945	-28.332	-0.342	0.197
-519.931	8.569	-0.204	-0.153
-518.916	455.147	-0.038	-0.085
-517.902	-12.894	0.239	0.155
-516.887	-200.000	-0.058	-0.326
-515.872	68.924	0.092	-0.094
-514.858	84.115	-0.195	-0.212
-513.843	-50.782	0.206	0.097
-512.829	161.965	-0.211	0.294
-511.814	662.774	-0.113	-0.291
-510.799	-98.695	-0.163	-0.041
-509.785	-123.976	-0.329	-0.052
-508.770	201.096	0.112	-0.171
-507.756	51.983	-0.029	-0.028
-506.741	-69.050	0.306	0.118
-505.726	-71.273	-0.115	0.043
-504.712	-83.752	-0.182	-0.058
-503.697	50.629	0.296	0.280
-502.683	72.312	0.140	-0.146
-501.668	71.679	0.050	-0.052
-500.653	-19.361	-0.313	0.194
-499.639	-101.578	-0.285	-0.069
-498.624	446.688	0.077	-0.168
-497.610	800.000	-0.069	-0.204
-496.595	18.250	-0.058	-0.046
-495.581	214.589	0.037	-0.059
-494.566	-155.932	0.135	0.009
-493.551	-23.333	0.053	0.031
-492.537	-166.946	-0.354	0.014
-491.522	-51.185	0.316	-0.147
-490.508	-47.515	-0.121	-0.058
-489.493	255.937	0.086	-0.147
-488.478	-91.200	0.124	-0.036
-487.464	106.039	0.049	-0.058
-486.449	685.372	-0.032	0.083
-485.435	-37.677	-0.357	0.189
-484.420	800.000	0.172	0.567
-483.405	-88.625	-0.354	-0.105
-482.391	185.223	-0.195	0.288
-481.376	166.817	0.110	0.155
-480.362	-111.011	-0.176	-0.036
-479.347	183.469	-0.218	-0.321
-478.332	-78.757	0.063	0.021
-477.318	-71.475	-0.329	-0.123
-476.303	-105.536	0.319	0.072
-475.289	-166.904	-0.166	-0.007
-474.274	196.641	-0.178	-0.270
-473.259	135.277	0.175	-0.226
-472.245	7.151	0.215	0.160
-471.230	247.114	0.076	0.127
-470.216	800.000	-0.015	-0.057
-469.201	240.714	-0.171	0.284
-468.186	112.080	-0.131	-0.158
-467.172	-130.884	0.217	0.029
-466.157	-191.820	0.234	0.002
-465.143	107.341	-0.191	0.226
-464.128	439.116	0.112	-0.243
-463.113	232.997	-0.164	-0.269
-462.099	359.418	0.207	0.412
-461.084	-200.000	0.001	0.052
-460.070	357.730	0.018	0.035
-459.055	-151.563	-0.400	-0.029
-458.040	168.784	0.223	0.316
-457.026	-200.000	-0.025	0.508
-456.011	171.294	0.180	-0.257
-454.997	42.402	0.415	-0.376
-453.982	-200.000	-0.001	0.133
-452.968	-72.603	-0.131	0.048
-451.953	800.000	0.061	0.170
-450.938	-106.791	0.255	-0.056
-449.924	442.094	0.059	-0.130
-448.909	621.520	0.101	0.253
-447.895	170.020	-0.089	-0.126
-446.880	-200.000	0.025	0.219
-445.865	800.000	-0.024	0.087
-444.851	-131.032	-0.150	0.020
-443.836	181.664	0.167	-0.245
-442.822	-51.505	0.395	-0.183
-441.807	-200.000	-0.008	-0.118
-440.792	-33.335	0.391	0.215
-439.778	-48.839	-0.089	-0.043
-438.763	-32.811	-0.289	-0.160
-437.749	800.000	-0.073	0.240
-436.734	-84.646	-0.139	0.044
-435.719	800.000	0.037	-0.138
-434.705	-48.736	0.186	0.089
-433.690	-96.281	-0.176	0.046
-432.676	413.947	-0.101	-0.213
-431.661	32.579	0.199	0.171
-430.646	800.000	-0.098	-0.284
-429.632	-2.912	-0.561	-0.390
-428.617	-71.042	-0.465	-0.174
-427.603	380.032	0.061	0.124
-426.588	-200.000	-0.049	0.359
-425.573	-88.872	0.241	0.071
-424.559	47.094	0.270	-0.249
-423.544	-14.153	-0.063	0.040
-422.530	-16.661	-0.099	-0.062
-421.515	-200.000	0.011	-0.151
-420.500	-8.475	0.135	0.090
-419.486	5.852	0.278	0.204
-418.471	-10.890	-0.181	0.119
-417.457	-200.000	-0.008	-0.043
-416.442	-195.761	0.075	-0.001
-415.428	-141.895	0.032	-0.003
-414.413	-166.167	-0.325	0.014
-413.398	18.231	0.103	0.081
-412.384	-71.905	-0.262	0.097
-411.369	-92.766	-0.178	-0.049
-410.355	-164.141	0.286	0.013
-409.340	190.529	-0.056	-0.083
-408.325	-65.949	-0.206	0.082
-407.311	21.205	0.194	-0.157
-406.296	81.466	-0.153	0.164
-405.282	-134.679	0.218	-0.026
-404.267	153.804	0.229	-0.312
-403.252	103.084	-0.183	-0.213
-402.238	-114.256	-0.187	-0.036
-401.223	-200.000	0.030	-0.323
-400.209	-70.990	0.334	0.125
-399.194	-5.218	-0.361	0.246
-398.179	-200.000	0.062	-0.275
-397.165	-200.000	-0.050	0.399
-396.150	-51.039	-0.203	0.095
-395.136	215.997	-0.099	-0.157
-394.121	114.968	-0.070	-0.085
-393.106	-84.290	0.113	0.036
-392.092	-103.174	0.325	0.076
-391.077	-200.000	0.063	-0.347
-390.063	800.000	0.043	0.148
-389.048	800.000	-0.081	0.278
-388.033	-34.809	0.246	-0.133
-387.019	-200.000	-0.001	-0.015
-386.004	-73.398	-0.129	-0.047
-384.990	-200.000	0.038	0.186
-383.975	-62.129	-0.167	0.069
-382.960	-173.201	0.075	0.002
-381.946	-12.520	0.385	0.249
-380.931	800.000	-0.063	0.182
-379.917	-200.000	0.017	-0.103
-378.902	-16.858	0.156	0.098
-377.888	-200.000	0.007	-0.056
-376.873	-200.000	0.054	-0.279
-375.858	-149.575	-0.120	0.009
-374.844	-44.288	0.056	0.028
-373.829	-95.680	0.288	-0.076
-372.815	-85.148	0.064	0.020
-371.800	-200.000	-0.014	0.239
-370.785	-200.000	-0.060	0.372
-369.771	296.792	-0.104	-0.190
-368.756	-200.000	0.036	0.551
-367.742	269.833	-0.094	0.164
-366.727	200.931	-0.121	-0.184
-365.712	119.655	-0.031	-0.038
-364.698	-200.000	0.012	-0.333
-363.683	800.000	0.065	0.194
-362.669	-52.950	-0.193	-0.088
-361.654	-63.473	-0.383	-0.156
-360.639	28.780	-0.011	-0.009
-359.625	139.278	-0.081	0.105
-358.610	-51.110	0.156	0.073
-357.596	-124.007	-0.068	-0.011
-356.581	66.138	-0.037	0.038
-355.566	654.858	-0.100	-0.256
-354.552	-33.161	-0.158	-0.087
-353.537	-122.762	-0.310	-0.050
-352.523	2.886	0.113	-0.081
-351.508	-38.691	0.358	0.187
-350.493	156.777	-0.093	-0.127
-349.479	-139.709	0.320	-0.034
-348.464	800.000	-0.015	0.060
-347.450	800.000	0.067	0.268
-346.435	-46.087	0.112	-0.055
-345.420	283.544	-0.097	0.173
-344.406	464.525	-0.073	-0.161
-343.391	283.883	-0.103	0.183
-342.377	575.220	-0.087	-0.210
-341.362	76.802	0.263	0.276
-340.348	55.810	0.096	0.092
-339.333	31.679	0.117	-0.100
-338.318	-106.093	0.182	-0.041
-337.304	-200.000	0.034	-0.321
-336.289	561.149	-0.124	0.296
-335.275	-200.000	0.006	-0.077
-334.260	-85.168	0.106	-0.033
-333.245	-104.943	-0.272	0.062
-332.231	408.864	-0.202	-0.423
-331.216	-141.464	0.293	-0.029
-330.202	-200.000	-0.018	0.093
-329.187	61.998	-0.021	-0.021
-328.172	-45.977	-0.220	-0.107
-327.158	800.000	-0.120	-0.394
-326.143	-98.547	-0.079	-0.020
-325.129	42.229	-0.289	0.260
-324.114	335.549	-0.074	0.143
-323.099	-200.000	-0.032	0.197
-322.085	-200.000	-0.032	0.224
-321.070	-27.327	0.093	0.053
-320.056	800.000	0.112	0.437
-319.041	196.537	0.075	-0.112
-318.026	800.000	-0.026	-0.102
-317.012	-86.307	0.219	-0.067
-315.997	-200.000	0.043	-0.348
-314.983	-91.434	-0.306	0.087
-313.968	-200.000	0.041	-0.266
-312.953	800.000	0.068	0.209
-311.939	93.516	-0.305	0.342
-310.924	-200.000	-0.029	-0.126
-309.910	-22.341	-0.135	0.081
-308.895	-10.768	-0.227	0.149
-307.880	80.774	-0.259	-0.277
-306.866	-200.000	-0.048	-0.407
-305.851	-200.000	0.001	0.056
-304.837	800.000	0.047	-0.195
-303.822	-99.518	0.404	-0.100
-302.807	-42.024	0.271	0.137
-301.793	-200.000	-0.035	-0.165
-300.778	-72.375	0.092	0.034
-299.764	74.940	0.187	-0.195
-298.749	-7.119	-0.147	-0.099
-297.735	-102.599	0.044	0.010
-296.720	107.625	0.039	-0.045
-295.705	-200.000	0.022	-0.131
-294.691	-108.630	0.359	0.076
-293.676	460.905	-0.178	-0.393
-292.662	119.627	0.038	0.047
-291.647	392.016	-0.141	0.289
-290.632	-127.354	0.142	0.021
-289.618	-156.697	-0.293	-0.018
-288.603	72.949	0.137	-0.141
-287.589	140.009	0.296	-0.386
-286.574	-85.032	0.171	0.053
-285.559	-112.400	-0.244	-0.048
-284.545	-90.697	-0.094	-0.027
-283.530	-200.000	0.063	0.307
-282.516	-152.835	0.331	0.023
-281.501	800.000	0.049	0.137
-280.486	64.223	0.032	0.032
-279.472	-133.330	0.278	0.035
-278.457	-200.000	0.005	-0.065
-277.443	13.751	-0.272	0.209
-276.428	-121.837	0.045	-0.007
-275.413	-38.219	0.357	-0.187
-274.399	-200.000	-0.004	0.192
-273.384	-200.000	-0.028	-0.125
-272.370	800.000	-0.086	0.290
-271.355	72.905	0.100	-0.103
-270.340	800.000	0.090	0.292
-269.326	11.442	0.313	0.237
-268.311	800.000	0.109	0.457
-267.297	-111.146	0.220	0.045
-266.282	351.470	-0.032	0.062
-265.267	601.148	0.104	0.255
-264.253	-200.000	0.005	-0.034
-263.238	5.377	-0.227	-0.166
-262.224	-46.365	-0.131	-0.064
-261.209	-79.137	0.315	0.106
-260.195	109.093	0.189	0.223
-259.180	-45.478	-0.409	0.200
-258.165	642.542	0.192	0.483
-257.151	57.194	-0.042	0.041
-256.136	-66.340	-0.235	0.092
-255.122	-4.363	-0.069	0.047
-254.107	259.252	0.131	0.223
-253.092	-200.000	0.008	-0.078
-252.078	-13.499	-0.208	-0.133
-251.063	-153.283	0.382	0.026
-250.049	-94.333	-0.164	0.044
-249.034	600.933	0.147	-0.360
-248.019	-111.260	-0.023	0.005
-247.005	179.720	-0.098	0.142
-245.990	-123.586	0.106	-0.017
-244.976	58.101	0.266	0.257
-243.961	-113.987	-0.195	0.037
-242.946	-57.229	-0.116	0.050
-241.932	-200.000	0.023	0.322
-240.917	-200.000	0.000	-0.301
-239.903	34.924	0.158	0.136
-238.888	-87.733	0.088	0.026
-237.873	-144.483	-0.214	-0.020
-236.859	-200.000	0.001	0.018
-235.844	143.314	-0.065	0.086
-234.830	-122.701	0.101	0.016
-233.815	-11.747	-0.276	0.179
-232.800	279.524	-0.021	0.038
-231.786	-115.440	-0.213	0.040
-230.771	800.000	0.096	0.279
-229.757	-80.112	-0.206	-0.068
-228.742	-60.640	0.149	0.062
-227.727	58.194	-0.089	0.086
-226.713	800.000	-0.036	-0.130
-225.698	-200.000	-0.041	-0.209
-224.684	-31.142	0.224	-0.125
-223.669	199.132	0.012	-0.018
-222.655	-98.676	-0.088	-0.022
-221.640	125.847	0.151	0.189
-220.625	126.460	0.286	-0.356
-219.611	-72.925	-0.369	-0.134
-218.596	480.086	0.065	0.146
-217.582	-92.085	-0.145	-0.040
-216.567	-200.000	0.001	0.362
-215.552	-141.921	0.230	-0.023
-214.538	66.161	0.128	-0.128
-213.523	128.915	0.073	0.092
-212.509	-189.098	0.233	-0.003
-211.494	-108.538	0.221	-0.047
-210.479	-53.870	0.118	-0.053
-209.465	114.648	0.105	0.127
-208.450	46.274	-0.054	0.049
-207.436	-200.000	-0.072	0.349
-206.421	-181.168	0.155	0.003
-205.406	-1.585	0.160	0.111
-204.392	24.489	0.218	0.177
-203.377	274.485	0.221	0.385
-202.363	-200.000	0.020	-0.187
-201.348	-200.000	-0.056	-0.515
-200.333	-174.146	0.198	0.006
-199.319	-200.000	0.018	0.154
-198.304	-162.904	0.039	-0.002
-197.290	-131.935	0.297	-0.038
-196.275	-200.000	-0.021	0.196
-195.260	-46.667	0.135	0.065
-194.246	503.097	0.082	0.187
-193.231	-69.538	-0.188	0.071
-192.217	347.782	0.119	0.231
-191.202	182.642	-0.104	0.152
-190.187	317.592	0.110	-0.204
-189.173	-67.843	-0.262	-0.101
-188.158	-91.781	0.075	-0.021
-187.144	-38.690	-0.216	0.112
-186.129	-117.383	-0.416	-0.074
-185.114	-200.000	-0.033	-0.245
-184.100	-132.685	-0.371	-0.047
-183.085	-58.587	-0.028	-0.012
-182.071	220.476	0.195	-0.309
-181.056	-146.646	0.164	0.014
-180.042	119.932	-0.125	0.153
-179.027	106.503	-0.173	-0.202
-178.012	-53.319	-0.310	0.140
-176.998	-122.024	0.101	0.016
-175.983	-20.136	0.238	-0.144
-174.969	137.163	0.196	0.252
-173.954	142.698	-0.060	0.079
-172.939	-12.554	0.079	-0.051
-171.925	800.000	-0.044	-0.162
-170.910	-200.000	-0.006	-0.146
-169.896	1.066	-0.129	0.091
-168.881	17.707	0.258	0.202
-167.866	-200.000	-0.054	-0.247
-166.852	-200.000	0.005	-0.063
-165.837	-200.000	-0.013	0.352
-164.823	-114.899	0.211	0.040
-163.808	-200.000	-0.001	0.161
-162.793	-200.000	-0.050	0.310
-161.779	-102.903	-0.266	0.062
-160.764	90.195	-0.116	-0.128
-159.750	-200.000	0.133	-0.000
-158.735	-78.897	-0.439	0.147
-157.720	207.270	0.135	0.206
-156.706	-58.355	-0.294	0.126
-155.691	-128.093	0.198	0.028
-154.677	-200.000	0.025	0.113
-153.662	303.301	0.208	-0.378
-152.647	-99.786	-0.203	-0.050
-151.633	63.836	-0.118	0.116
-150.618	17.005	0.207	0.161
-149.604	800.000	0.183	-0.590
-148.589	-193.909	0.318	-0.003
-147.574	-127.048	0.225	0.032
-146.560	122.466	0.161	-0.198
-145.545	800.000	-0.113	0.307
-144.531	434.821	0.107	-0.228
-143.516	-33.328	0.130	0.071
-142.502	51.627	-0.120	0.112
-141.487	110.663	-0.159	0.188
-140.472	-69.476	-0.156	0.059
-139.458	-24.712	0.299	0.175
-138.443	-2.533	-0.126	-0.087
-137.429	175.821	0.119	0.170
-136.414	-78.122	-0.151	0.051
-135.399	-113.395	-0.233	0.045
-134.385	86.712	-0.079	-0.086
-133.370	-200.000	-0.013	-0.417
-132.356	-200.000	0.054	0.338
-131.341	-200.000	0.003	0.046
-130.326	95.539	-0.150	-0.168
-129.312	-85.440	-0.255	0.078
-128.297	-187.974	0.156	0.002
-127.283	11.133	-0.114	0.085
-126.268	-200.000	-0.112	0.000
-125.253	350.299	0.251	0.488
-124.239	800.000	0.057	-0.206
-123.224	530.309	-0.096	-0.223
