DTS Sentinel unit serial number:	SN413079Multiplexer serial number:	ORYXHardware model number:	OX4-SRSoftware version number:	ORYX F/W v4.00 Oryx Data Collector v3.7.2.0data status	okinstallation	princeton_trtdifferential loss correction	single-endedforward channel	channel 2reverse channel	N/Adate	2019/09/12time	04:13:11forward acquisition time	60.00reverse acquisition time	0.00gamma	496.2192k internal	0.2327k external	0.2327temperature offset calibration	1.0098default loss term (dB/km)	0.3790temperature slope calibration	1.0000multiplexer offset coefficient	1.0000multiplexer slope coefficient	1.0000fibre end	0.00T internal ref (°C)	31.91T ext. ref 1 (°C)	2.21T ext. ref 2 (°C)	25.37length (m)	temperature (°C)	Stokes	anti-Stokes-747.200	-106.995	-0.041	0.009
-746.185	-200.000	-0.012	0.111
-745.171	-78.920	-0.182	-0.063
-744.156	-200.000	0.001	0.095
-743.142	-181.666	-0.153	0.003
-742.127	-113.938	-0.095	0.019
-741.112	-57.260	0.156	0.069
-740.098	800.000	-0.033	0.101
-739.083	44.831	0.324	0.301
-738.069	-24.457	-0.388	0.233
-737.054	-125.960	-0.241	0.037
-736.039	140.605	-0.043	-0.057
-735.025	-145.477	0.211	-0.019
-734.010	800.000	0.046	-0.169
-732.996	43.121	-0.256	-0.236
-731.981	90.218	-0.268	0.302
-730.966	-76.877	-0.033	-0.012
-729.952	182.887	-0.226	-0.336
-728.937	-200.000	-0.052	0.263
-727.923	-57.438	-0.238	-0.105
-726.908	183.558	-0.117	-0.175
-725.894	800.000	0.076	-0.240
-724.879	50.360	-0.356	0.339
-723.864	61.401	0.165	-0.165
-722.850	104.650	-0.079	0.094
-721.835	-200.000	0.003	-0.164
-720.821	-102.556	-0.110	-0.026
-719.806	123.224	-0.342	-0.432
-718.791	-200.000	0.023	0.132
-717.777	-88.752	0.128	0.038
-716.762	51.504	-0.190	-0.181
-715.748	800.000	-0.061	-0.189
-714.733	85.287	0.056	-0.062
-713.718	-83.983	-0.222	-0.071
-712.704	-29.404	0.333	-0.192
-711.689	-115.983	-0.229	0.043
-710.675	149.728	0.269	0.367
-709.660	-114.148	-0.129	-0.025
-708.645	-192.859	0.257	-0.002
-707.631	800.000	-0.117	0.424
-706.616	-37.255	-0.139	-0.075
-705.602	-53.108	0.336	-0.155
-704.587	-23.382	0.111	-0.067
-703.572	-184.931	-0.263	0.004
-702.558	139.506	0.063	-0.083
-701.543	-7.203	-0.341	0.233
-700.529	73.384	-0.148	0.156
-699.514	248.799	0.219	0.373
-698.499	-179.415	-0.166	-0.004
-697.485	800.000	0.116	0.411
-696.470	-25.830	-0.287	-0.170
-695.456	-94.339	-0.362	-0.099
-694.441	-71.023	-0.312	-0.118
-693.426	-200.000	-0.003	-0.126
-692.412	-105.601	0.309	-0.071
-691.397	-164.389	-0.405	-0.019
-690.383	81.803	-0.108	-0.118
-689.368	122.086	0.056	0.071
-688.354	212.558	0.170	-0.269
-687.339	28.645	0.259	-0.220
-686.324	195.575	-0.047	-0.072
-685.310	-16.812	-0.179	-0.114
-684.295	-154.395	0.441	-0.030
-683.281	107.249	-0.196	0.234
-682.266	-200.000	-0.219	-0.000
-681.251	-59.762	-0.339	0.146
-680.237	-200.000	0.036	-0.183
-679.222	800.000	-0.068	0.279
-678.208	-79.135	-0.175	-0.060
-677.193	-200.000	0.034	-0.223
-676.178	253.773	-0.273	-0.470
-675.164	40.708	-0.312	0.283
-674.149	-176.380	-0.262	0.007
-673.135	-200.000	-0.027	-0.198
-672.120	-34.637	-0.266	-0.146
-671.105	19.454	0.062	-0.050
-670.091	-200.000	0.079	0.370
-669.076	-200.000	0.006	0.208
-668.062	228.249	-0.032	0.053
-667.047	608.390	-0.115	-0.288
-666.032	399.505	0.054	0.114
-665.018	-200.000	-0.002	0.177
-664.003	-144.569	-0.297	0.028
-662.989	-130.220	0.024	-0.003
-661.974	-200.000	0.003	0.072
-660.959	253.892	0.101	0.174
-659.945	94.453	-0.176	-0.201
-658.930	-82.025	0.415	-0.136
-657.916	-45.678	0.334	-0.166
-656.901	-95.772	-0.109	-0.029
-655.886	294.445	0.145	0.266
-654.872	-200.000	-0.066	0.323
-653.857	-19.580	-0.160	-0.100
-652.843	-10.280	-0.133	0.089
-651.828	-90.542	-0.298	0.087
-650.814	-54.812	-0.353	-0.160
-649.799	-200.000	0.006	0.162
-648.784	569.805	0.051	-0.125
-647.770	-131.448	-0.398	0.053
-646.755	-56.443	0.326	-0.145
-645.741	-200.000	-0.019	-0.456
-644.726	-200.000	0.009	-0.248
-643.711	-200.000	0.027	0.233
-642.697	697.217	-0.143	-0.378
-641.682	-200.000	0.002	-0.010
-640.668	800.000	-0.027	-0.097
-639.653	-25.620	0.172	-0.102
-638.638	41.197	-0.036	-0.032
-637.624	553.602	0.058	-0.140
-636.609	494.852	-0.157	0.363
-635.595	122.683	0.156	0.196
-634.580	-166.021	0.117	-0.005
-633.565	-200.000	-0.006	-0.158
-632.551	-200.000	0.030	0.333
-631.536	178.162	-0.103	0.151
-630.522	-6.733	-0.268	-0.183
-629.507	-54.988	-0.091	0.041
-628.492	-200.000	0.060	0.308
-627.478	75.808	0.144	0.152
-626.463	800.000	0.092	0.390
-625.449	-65.040	-0.356	0.144
-624.434	-63.044	-0.179	0.074
-623.419	0.422	-0.018	-0.013
-622.405	51.683	-0.141	-0.134
-621.390	395.407	0.114	-0.238
-620.376	-131.075	-0.148	-0.020
-619.361	11.330	0.255	0.196
-618.346	143.825	-0.162	-0.217
-617.332	-153.317	-0.212	-0.015
-616.317	800.000	-0.058	0.211
-615.303	-70.375	-0.313	0.119
-614.288	119.044	-0.145	0.180
-613.273	51.241	0.153	-0.145
-612.259	-50.098	0.100	0.047
-611.244	-103.237	-0.333	-0.079
-610.230	375.937	-0.295	-0.604
-609.215	-82.760	0.147	-0.048
-608.201	13.102	-0.052	-0.040
-607.186	-116.890	-0.456	0.084
-606.171	692.562	-0.103	0.271
-605.157	117.411	-0.260	0.320
-604.142	-44.713	0.073	-0.037
-603.128	-200.000	-0.039	-0.538
-602.113	-113.985	0.039	-0.008
-601.098	800.000	0.020	0.070
-600.084	-200.000	0.012	-0.185
-599.069	-54.444	0.183	-0.083
-598.055	-200.000	-0.028	-0.265
-597.040	-42.220	0.115	0.059
-596.025	40.040	-0.105	-0.095
-595.011	-49.037	-0.195	-0.094
-593.996	-141.968	0.169	0.017
-592.982	-200.000	0.006	-0.064
-591.967	-12.982	0.139	0.091
-590.952	800.000	-0.021	0.072
-589.938	-200.000	0.030	-0.291
-588.923	-200.000	0.004	-0.200
-587.909	48.571	-0.121	0.114
-586.894	60.091	0.208	-0.206
-585.879	20.045	0.193	-0.156
-584.865	-200.000	-0.045	0.408
-583.850	-27.656	-0.109	0.064
-582.836	800.000	-0.032	-0.109
-581.821	27.413	0.157	-0.132
-580.806	-14.742	-0.358	-0.231
-579.792	-98.514	-0.109	-0.028
-578.777	-162.421	-0.134	-0.007
-577.763	-64.403	-0.067	-0.027
-576.748	800.000	-0.076	0.213
-575.733	-72.411	-0.342	-0.127
-574.719	-83.362	-0.275	-0.088
-573.704	52.484	-0.138	0.132
-572.690	56.376	0.103	-0.100
-571.675	-127.243	0.140	0.021
-570.661	105.072	0.232	-0.275
-569.646	-200.000	0.032	0.175
-568.631	-200.000	0.022	0.229
-567.617	85.671	-0.219	0.241
-566.602	136.087	0.128	-0.167
-565.588	-129.710	-0.217	0.030
-564.573	-74.640	-0.195	-0.070
-563.558	126.173	0.056	0.071
-562.544	-200.000	0.018	0.181
-561.529	-95.850	0.200	0.053
-560.515	-38.231	0.079	-0.042
-559.500	-200.000	-0.014	0.201
-558.485	34.700	0.151	-0.132
-557.471	-14.528	0.144	-0.093
-556.456	-140.367	0.103	-0.011
-555.442	-85.374	0.164	0.051
-554.427	97.421	0.412	-0.473
-553.412	-22.412	-0.282	0.171
-552.398	318.871	0.148	0.280
-551.383	520.362	-0.159	-0.373
-550.369	-33.693	-0.329	-0.182
-549.354	800.000	0.074	0.244
-548.339	407.715	0.192	-0.407
-547.325	-200.000	-0.036	0.301
-546.310	800.000	-0.098	0.384
-545.296	116.368	0.127	0.156
-544.281	-151.524	-0.154	-0.011
-543.266	26.845	-0.159	-0.133
-542.252	-102.632	-0.021	-0.005
-541.237	19.485	0.111	0.089
-540.223	231.577	0.115	0.189
-539.208	450.576	0.152	0.336
-538.193	248.444	0.090	0.153
-537.179	19.700	0.115	0.093
-536.164	-200.000	0.079	0.393
-535.150	-107.235	-0.006	0.001
-534.135	121.262	-0.042	-0.052
-533.121	293.225	0.047	0.086
-532.106	-200.000	-0.003	0.259
-531.091	414.055	0.071	0.151
-530.077	-23.726	0.125	-0.075
-529.062	201.928	-0.063	0.098
-528.048	-200.000	-0.005	0.073
-527.033	784.639	0.059	-0.161
-526.018	-61.233	-0.071	-0.030
-525.004	-4.481	-0.043	-0.030
-523.989	-77.345	-0.290	0.101
-522.975	124.088	0.173	-0.217
-521.960	-200.000	0.246	0.001
-520.945	-31.540	0.113	0.063
-519.931	-86.147	0.300	-0.092
-518.916	-75.341	0.172	-0.061
-517.902	-54.040	-0.329	0.150
-516.887	-200.000	-0.032	-0.199
-515.872	-113.620	-0.034	-0.007
-514.858	228.150	0.119	-0.194
-513.843	245.650	-0.078	0.131
-512.829	-157.753	0.143	0.008
-511.814	-152.298	0.148	-0.011
-510.799	-44.853	0.246	-0.122
-509.785	134.756	0.269	-0.349
-508.770	-200.000	-0.014	-0.220
-507.756	-200.000	-0.053	-0.292
-506.741	-87.992	-0.354	0.106
-505.726	-113.828	0.204	-0.040
-504.712	-75.095	0.198	0.071
-503.697	-19.266	0.374	0.232
-502.683	794.288	0.072	0.198
-501.668	-200.000	-0.005	0.169
-500.653	-1.405	0.047	0.033
-499.639	154.549	0.067	-0.092
-498.624	211.554	-0.064	0.101
-497.610	31.429	-0.115	-0.098
-496.595	-200.000	0.015	-0.270
-495.581	14.770	0.094	0.073
-494.566	390.204	0.042	-0.086
-493.551	-145.864	-0.231	0.020
-492.537	-32.254	0.136	-0.076
-491.522	-200.000	-0.020	-0.153
-490.508	-76.506	-0.292	0.102
-489.493	-130.172	-0.452	0.061
-488.478	-95.263	-0.182	0.049
-487.464	73.058	-0.108	0.112
-486.449	-163.270	-0.268	0.013
-485.435	-34.775	-0.188	-0.102
-484.420	18.294	-0.199	-0.158
-483.405	184.158	-0.227	0.336
-482.391	-33.233	-0.302	0.167
-481.376	61.509	-0.059	-0.058
-480.362	440.302	0.165	-0.361
-479.347	-200.000	0.045	0.207
-478.332	-103.616	-0.091	0.021
-477.318	800.000	-0.075	0.298
-476.303	-200.000	-0.066	0.354
-475.289	309.048	0.091	0.170
-474.274	-43.745	0.274	0.138
-473.259	201.145	-0.129	-0.197
-472.245	688.743	0.040	0.106
-471.230	-44.134	0.226	0.113
-470.216	-55.820	-0.416	0.186
-469.201	-175.581	-0.149	0.004
-468.186	-134.257	-0.058	-0.007
-467.172	-4.061	0.235	0.163
-466.157	-82.284	0.265	-0.086
-465.143	-6.572	0.216	0.146
-464.128	-25.014	0.325	-0.192
-463.113	-49.488	0.121	-0.058
-462.099	189.669	0.055	0.082
-461.084	-200.000	0.064	0.338
-460.070	-162.775	0.130	-0.006
-459.055	9.203	-0.032	-0.024
-458.040	409.526	0.033	-0.070
-457.026	-200.000	0.004	0.141
-456.011	247.652	-0.121	-0.204
-454.997	-200.000	0.032	-0.403
-453.982	-79.826	0.479	0.160
-452.968	-162.282	0.187	-0.009
-451.953	-200.000	-0.004	0.109
-450.938	48.923	0.114	-0.106
-449.924	-200.000	0.060	0.410
-448.909	-145.455	-0.144	-0.013
-447.895	-58.865	0.200	0.086
-446.880	80.239	-0.009	0.010
-445.865	1.701	-0.118	-0.085
-444.851	800.000	0.023	0.088
-443.836	63.579	0.188	0.188
-442.822	-200.000	-0.036	-0.160
-441.807	-143.849	-0.201	0.019
-440.792	146.000	-0.208	0.278
-439.778	-94.828	-0.089	0.024
-438.763	127.364	-0.088	-0.111
-437.749	233.359	-0.108	-0.177
-436.734	800.000	-0.029	0.115
-435.719	170.047	0.026	0.037
-434.705	-84.364	0.145	-0.046
-433.690	-55.248	-0.192	0.086
-432.676	-103.471	0.039	0.009
-431.661	-200.000	-0.048	-0.000
-430.646	-200.000	-0.027	-0.185
-429.632	6.460	0.138	0.102
-428.617	-200.000	-0.005	-0.437
-427.603	-168.411	-0.251	-0.010
-426.588	-41.767	0.353	-0.181
-425.573	-141.061	-0.149	-0.015
-424.559	254.290	-0.065	0.111
-423.544	-136.144	-0.237	0.028
-422.530	332.073	-0.061	0.118
-421.515	800.000	-0.032	0.100
-420.500	-164.311	0.189	0.009
-419.486	177.707	0.275	0.399
-418.471	-3.355	-0.182	-0.126
-417.457	11.516	-0.273	0.209
-416.442	120.391	-0.160	-0.198
-415.428	-44.728	0.356	-0.177
-414.413	507.470	-0.087	-0.201
-413.398	-100.649	0.169	-0.042
-412.384	124.615	-0.098	-0.123
-411.369	-200.000	-0.003	0.294
-410.355	-200.000	0.024	0.312
-409.340	-200.000	-0.017	0.120
-408.325	800.000	0.035	-0.105
-407.311	80.879	0.276	-0.297
-406.296	-100.545	-0.318	-0.078
-405.282	-200.000	-0.200	0.000
-404.267	49.095	0.161	0.151
-403.252	9.641	0.142	-0.107
-402.238	93.902	-0.246	0.278
-401.223	-200.000	-0.015	0.131
-400.209	226.858	-0.242	0.390
-399.194	-58.108	0.080	-0.035
-398.179	133.677	0.077	0.100
-397.165	125.700	0.156	0.196
-396.150	121.701	-0.286	-0.355
-395.136	115.634	-0.346	-0.420
-394.121	-112.112	0.205	-0.041
-393.106	-42.322	-0.033	0.017
-392.092	6.415	-0.109	0.080
-391.077	3.075	0.098	-0.071
-390.063	-200.000	-0.032	-0.305
-389.048	241.083	0.224	-0.371
-388.033	800.000	-0.044	0.125
-387.019	234.842	-0.078	-0.129
-386.004	-161.828	0.133	0.007
-384.990	-200.000	-0.016	-0.285
-383.975	-200.000	0.027	0.201
-382.960	800.000	0.114	-0.364
-381.946	-200.000	0.015	0.168
-380.931	-182.389	-0.091	0.002
-379.917	-154.666	0.240	0.016
-378.902	-74.460	-0.213	-0.076
-377.888	72.464	-0.186	0.193
-376.873	189.539	0.114	0.170
-375.858	-81.857	0.172	0.056
-374.844	384.469	0.045	0.092
-373.829	120.492	-0.031	0.039
-372.815	-9.011	0.491	-0.327
-371.800	128.924	-0.138	-0.175
-370.785	-37.408	-0.271	-0.144
-369.771	168.191	0.268	0.379
-368.756	-187.372	-0.092	0.001
-367.742	218.634	0.207	0.328
-366.727	-200.000	-0.036	0.238
-365.712	-200.000	-0.004	-0.135
-364.698	-63.656	0.077	0.031
-363.683	446.505	-0.061	0.133
-362.669	121.043	-0.183	-0.227
-361.654	465.291	-0.060	-0.134
-360.639	-144.434	-0.222	-0.020
-359.625	46.698	-0.095	0.087
-358.610	-13.246	0.241	0.155
-357.596	-134.033	0.176	0.022
-356.581	-96.464	-0.327	-0.086
-355.566	-200.000	0.051	-0.291
-354.552	157.302	0.166	0.228
-353.537	-200.000	-0.001	0.260
-352.523	-35.243	-0.036	0.019
-351.508	-200.000	-0.015	0.281
-350.493	100.388	0.114	0.132
-349.479	25.524	-0.184	0.152
-348.464	-51.647	0.283	0.131
-347.450	572.977	0.065	0.156
-346.435	-107.369	-0.060	-0.013
-345.420	-70.668	-0.138	-0.052
-344.406	-104.582	0.071	0.016
-343.391	-130.001	-0.255	0.035
-342.377	-200.000	0.003	0.136
-341.362	-87.817	0.127	-0.038
-340.348	-200.000	-0.029	-0.232
-339.333	800.000	0.115	0.386
-338.318	-200.000	-0.097	0.422
-337.304	-108.691	0.192	0.041
-336.289	-35.296	0.159	0.086
-335.275	-39.071	0.238	-0.124
-334.260	63.347	0.285	0.283
-333.245	532.339	-0.076	-0.177
-332.231	29.764	0.215	0.181
-331.216	483.116	-0.143	0.322
-330.202	229.760	0.018	0.030
-329.187	64.845	0.188	-0.188
-328.172	74.489	-0.182	-0.190
-327.158	-200.000	0.052	-0.243
-326.143	800.000	0.056	0.157
-325.129	607.502	0.044	-0.109
-324.114	489.934	-0.018	0.040
-323.099	450.078	0.169	0.370
-322.085	-111.367	0.218	-0.044
-321.070	-200.000	0.039	-0.287
-320.056	43.138	0.381	-0.345
-319.041	727.711	-0.038	-0.100
-318.026	460.407	-0.043	0.094
-317.012	-200.000	0.000	0.176
-315.997	-54.934	0.202	-0.090
-314.983	78.411	0.243	-0.257
-313.968	-107.147	-0.109	0.024
-312.953	-200.000	0.016	0.155
-311.939	-200.000	-0.002	-0.014
-310.924	-200.000	-0.004	-0.032
-309.910	800.000	0.055	-0.164
-308.895	74.712	0.212	-0.222
-307.880	-82.048	0.205	0.066
-306.866	800.000	0.066	-0.264
-305.851	84.171	0.223	-0.241
-304.837	-200.000	-0.032	-0.157
-303.822	-7.419	0.106	-0.071
-302.807	-200.000	-0.072	-0.457
-301.793	48.235	-0.334	-0.310
-300.778	-31.630	0.442	-0.246
-299.764	66.797	-0.427	-0.430
-298.749	477.834	0.032	-0.072
-297.735	-102.959	-0.502	0.118
-296.720	283.242	0.049	-0.087
-295.705	88.577	-0.113	0.125
-294.691	-49.654	-0.257	0.121
-293.676	417.636	-0.174	0.368
-292.662	180.970	-0.298	-0.434
-291.647	-200.000	-0.000	-0.157
-290.632	-86.783	-0.161	0.049
-289.618	63.095	-0.109	0.108
-288.603	63.890	0.235	0.234
-287.589	-160.025	0.113	0.006
-286.574	-200.000	0.023	0.143
-285.559	-51.276	-0.064	-0.030
-284.545	-56.360	-0.307	-0.135
-283.530	-28.190	0.392	0.225
-282.516	-200.000	0.068	-0.468
-281.501	136.015	0.241	-0.311
-280.486	-155.641	-0.254	-0.016
-279.472	-200.000	-0.410	0.001
-278.457	194.620	0.043	-0.064
-277.443	800.000	0.083	-0.284
-276.428	141.057	-0.156	0.204
-275.413	216.603	0.085	0.134
-274.399	219.094	-0.164	0.260
-273.384	240.860	-0.167	0.276
-272.370	-74.273	0.134	-0.048
-271.355	29.636	-0.154	0.130
-270.340	-95.318	-0.187	0.050
-269.326	-200.000	-0.076	-0.597
-268.311	-47.616	0.146	-0.070
-267.297	490.134	0.093	0.209
-266.282	539.763	-0.071	0.168
-265.267	800.000	0.106	-0.384
-264.253	263.317	-0.188	-0.323
-263.238	20.475	0.188	-0.150
-262.224	800.000	0.027	-0.103
-261.209	103.266	0.109	-0.127
-260.195	117.997	-0.133	-0.163
-259.180	96.272	-0.098	-0.111
-258.165	689.361	0.078	0.202
-257.151	800.000	0.062	-0.215
-256.136	-5.736	-0.072	0.049
-255.122	-200.000	0.005	-0.295
-254.107	15.627	-0.063	-0.049
-253.092	800.000	-0.026	0.093
-252.078	-64.007	0.197	-0.079
-251.063	61.545	0.190	0.187
-250.049	800.000	-0.070	0.259
-249.034	184.096	0.158	0.232
-248.019	800.000	0.105	0.377
-247.005	-66.741	0.147	-0.057
-245.990	7.284	-0.136	0.100
-244.976	125.803	0.097	0.121
-243.961	-30.906	0.214	0.120
-242.946	-48.730	-0.089	0.042
-241.932	190.799	0.050	-0.074
-240.917	58.204	-0.275	0.267
-239.903	-200.000	-0.046	-0.213
-238.888	46.762	-0.080	-0.074
-237.873	203.093	-0.080	0.122
-236.859	-129.405	-0.074	-0.010
-235.844	29.162	0.213	-0.179
-234.830	-36.857	-0.170	-0.090
-233.815	-200.000	0.002	0.063
-232.800	-109.625	-0.364	-0.076
-231.786	757.417	0.066	-0.177
-230.771	-97.618	-0.117	-0.030
-229.757	800.000	0.029	0.088
-228.742	51.173	0.201	0.188
-227.727	-200.000	-0.036	0.162
-226.713	-200.000	0.020	-0.187
-225.698	-200.000	-0.037	0.239
-224.684	-66.321	0.050	0.019
-223.669	-45.522	0.108	-0.053
-222.655	-27.228	0.278	0.160
-221.640	216.491	-0.139	-0.219
-220.625	-119.146	-0.521	-0.090
-219.611	-32.834	0.032	0.018
-218.596	-155.064	0.402	-0.026
-217.582	-145.008	0.219	-0.020
-216.567	65.112	-0.172	-0.171
-215.552	-130.002	-0.043	0.006
-214.538	-146.546	0.092	0.008
-213.523	-114.992	0.249	-0.047
-212.509	-80.448	-0.068	0.022
-211.494	800.000	0.050	-0.211
-210.479	399.264	0.036	-0.075
-209.465	-187.228	-0.145	0.002
-208.450	800.000	0.093	0.347
-207.436	-66.880	-0.210	-0.082
-206.421	519.046	0.171	0.395
-205.406	-78.805	0.168	0.057
-204.392	196.290	0.065	-0.097
-203.377	-4.065	0.249	-0.171
-202.363	-15.177	0.125	0.079
-201.348	-125.412	0.151	0.023
-200.333	800.000	-0.095	-0.297
-199.319	-99.479	0.395	0.098
-198.304	52.601	0.037	-0.035
-197.290	-200.000	0.047	0.224
-196.275	800.000	-0.066	-0.210
-195.260	142.768	0.120	0.158
-194.246	-200.000	-0.073	-0.568
-193.231	72.751	0.077	-0.080
-192.217	-83.709	-0.170	0.054
-191.202	71.935	-0.034	-0.035
-190.187	-38.544	-0.206	0.107
-189.173	203.914	0.187	-0.286
-188.158	-39.864	0.139	-0.072
-187.144	-49.180	-0.157	-0.074
-186.129	123.872	-0.056	-0.069
-185.114	-130.573	0.137	0.018
-184.100	-0.572	-0.202	0.141
-183.085	-74.464	-0.188	0.067
-182.071	169.973	0.082	0.116
-181.056	10.542	0.137	0.103
-180.042	800.000	-0.083	0.236
-179.027	-200.000	0.026	0.255
-178.012	-59.073	-0.099	0.042
-176.998	-155.661	-0.351	-0.022
-175.983	475.837	0.074	-0.164
-174.969	755.843	0.104	-0.277
-173.954	22.584	0.188	0.152
-172.939	-166.475	-0.050	-0.002
-171.925	112.629	-0.081	-0.097
-170.910	-200.000	-0.009	-0.115
-169.896	800.000	-0.037	0.158
-168.881	417.153	-0.164	-0.346
-167.866	-83.584	-0.148	0.047
-166.852	162.523	-0.119	0.165
-165.837	-18.744	-0.046	0.029
-164.823	-84.739	0.112	-0.035
-163.808	-63.266	0.130	0.053
-162.793	-200.000	0.021	-0.122
-161.779	-51.730	0.128	-0.059
-160.764	97.670	-0.201	-0.228
-159.750	-16.570	-0.154	-0.096
-158.735	367.109	0.086	0.171
-157.720	260.392	0.136	0.231
-156.706	642.326	0.090	0.226
-155.691	344.126	-0.077	-0.150
-154.677	37.834	-0.068	-0.059
-153.662	800.000	0.083	0.317
-152.647	90.942	-0.199	0.220
-151.633	-50.403	0.033	0.015
-150.618	-200.000	-0.023	-0.137
-149.604	-72.257	-0.105	-0.038
-148.589	800.000	-0.084	0.347
-147.574	-192.651	0.110	-0.001
-146.560	-33.270	0.228	-0.124
-145.545	-7.840	0.171	0.114
-144.531	-37.611	-0.058	0.031
-143.516	259.643	-0.054	0.092
-142.502	-149.232	0.057	0.004
-141.487	-42.361	-0.245	-0.123
-140.472	-200.000	-0.036	0.206
-139.458	71.377	0.059	-0.061
-138.443	-115.506	-0.067	0.012
-137.429	180.868	-0.030	-0.043
-136.414	-57.301	-0.225	0.097
-135.399	66.700	-0.019	0.019
-134.385	-80.598	0.544	-0.178
-133.370	800.000	-0.117	0.317
-132.356	-188.827	0.261	0.003
-131.341	522.531	-0.144	-0.334
-130.326	-4.491	-0.033	0.022
-129.312	758.310	-0.059	-0.157
-128.297	82.019	-0.248	0.265
-127.283	-200.000	-0.011	-0.076
-126.268	-62.219	0.176	-0.072
-125.253	-72.035	-0.170	-0.062
-124.239	-8.107	-0.194	0.129
-123.224	-66.728	0.179	0.070
-122.210	-26.280	0.255	0.147
