DTS Sentinel unit serial number:	SN413079Multiplexer serial number:	ORYXHardware model number:	OX4-SRSoftware version number:	ORYX F/W v4.00 Oryx Data Collector v3.7.2.0data status	okinstallation	princeton_trtdifferential loss correction	single-endedforward channel	channel 2reverse channel	N/Adate	2019/09/12time	03:49:11forward acquisition time	60.00reverse acquisition time	0.00gamma	496.2192k internal	0.2326k external	0.2326temperature offset calibration	1.0095default loss term (dB/km)	0.3790temperature slope calibration	1.0000multiplexer offset coefficient	1.0000multiplexer slope coefficient	1.0000fibre end	0.00T internal ref (°C)	32.16T ext. ref 1 (°C)	2.16T ext. ref 2 (°C)	27.28length (m)	temperature (°C)	Stokes	anti-Stokes-747.200	321.311	-0.097	0.187
-746.185	443.212	-0.087	0.191
-745.171	1.454	0.358	-0.260
-744.156	-116.994	0.378	0.070
-743.142	-163.895	-0.086	0.004
-742.127	-132.916	-0.253	0.032
-741.112	-30.514	-0.229	0.131
-740.098	415.539	-0.120	0.258
-739.083	-117.834	0.049	0.009
-738.069	800.000	-0.100	0.284
-737.054	133.771	0.110	0.143
-736.039	-133.703	-0.258	-0.032
-735.025	38.639	0.204	-0.184
-734.010	27.817	-0.190	0.161
-732.996	-200.000	-0.002	0.240
-731.981	217.071	-0.095	0.153
-730.966	-100.865	0.300	-0.074
-729.952	153.359	-0.153	-0.210
-728.937	-152.088	-0.474	0.035
-727.923	231.792	-0.206	0.341
-726.908	-29.923	0.192	0.110
-725.894	295.417	0.133	-0.246
-724.879	-200.000	0.012	-0.079
-723.864	-126.861	0.057	-0.008
-722.850	-200.000	0.025	0.118
-721.835	13.896	-0.041	0.032
-720.821	178.502	0.036	-0.053
-719.806	165.450	-0.080	0.114
-718.791	354.220	-0.178	0.357
-717.777	100.882	-0.172	-0.201
-716.762	-49.700	-0.183	0.088
-715.748	-200.000	-0.060	0.435
-714.733	-14.251	0.285	-0.185
-713.718	-87.869	0.432	-0.131
-712.704	334.206	0.041	0.080
-711.689	439.284	0.159	-0.350
-710.675	-1.748	0.317	0.225
-709.660	-51.979	0.121	0.057
-708.645	-56.886	0.157	0.070
-707.631	238.659	-0.102	0.170
-706.616	800.000	0.048	0.137
-705.602	-165.027	-0.145	0.007
-704.587	102.202	-0.085	0.100
-703.572	84.310	-0.143	0.157
-702.558	-200.000	0.040	-0.336
-701.543	-26.010	0.258	0.153
-700.529	-104.661	0.116	-0.027
-699.514	-112.815	0.170	0.034
-698.499	306.690	0.050	-0.094
-697.485	-145.422	-0.100	0.009
-696.470	-63.767	-0.160	0.066
-695.456	-35.190	0.113	0.062
-694.441	-155.824	0.196	-0.013
-693.426	-100.778	-0.086	-0.021
-692.412	169.121	0.112	-0.161
-691.397	78.483	0.056	-0.060
-690.383	61.356	-0.078	0.078
-689.368	-200.000	-0.047	0.230
-688.354	-138.238	0.247	-0.028
-687.339	-29.270	-0.213	0.123
-686.324	800.000	-0.061	0.184
-685.310	-70.239	-0.294	0.113
-684.295	-200.000	0.001	0.049
-683.281	352.402	-0.052	0.104
-682.266	274.768	-0.102	-0.182
-681.251	800.000	-0.079	0.284
-680.237	471.909	0.085	0.193
-679.222	-45.763	-0.150	0.075
-678.208	800.000	-0.160	0.454
-677.193	-200.000	0.025	-0.557
-676.178	210.933	-0.204	0.322
-675.164	467.385	0.119	-0.268
-674.149	800.000	-0.040	0.154
-673.135	32.027	0.087	0.075
-672.120	-200.000	-0.019	0.106
-671.105	300.521	-0.166	-0.308
-670.091	45.798	0.063	0.059
-669.076	-200.000	-0.027	-0.150
-668.062	800.000	-0.054	0.152
-667.047	-200.000	-0.040	-0.182
-666.032	-200.000	0.009	-0.183
-665.018	-200.000	-0.025	-0.224
-664.003	-200.000	0.008	0.233
-662.989	238.897	-0.065	-0.108
-661.974	93.692	0.066	0.076
-660.959	75.641	-0.109	-0.116
-659.945	330.398	0.091	-0.176
-658.930	-193.721	0.172	0.001
-657.916	273.753	0.182	0.324
-656.901	-129.170	0.080	0.011
-655.886	-119.305	0.191	-0.033
-654.872	-80.701	-0.065	0.022
-653.857	1.360	0.156	0.113
-652.843	-26.439	-0.465	0.274
-651.828	-200.000	-0.026	-0.302
-650.814	-200.000	-0.028	-0.201
-649.799	-200.000	-0.029	-0.461
-648.784	800.000	0.072	0.245
-647.770	-15.757	-0.376	-0.241
-646.755	-124.145	-0.197	-0.031
-645.741	-73.047	-0.308	-0.113
-644.726	-200.000	0.074	-0.357
-643.711	-44.868	0.049	-0.024
-642.697	800.000	-0.116	0.434
-641.682	-116.366	-0.213	0.040
-640.668	-34.107	-0.310	0.171
-639.653	800.000	0.166	0.462
-638.638	-143.612	-0.315	-0.030
-637.624	-157.853	0.266	-0.016
-636.609	-91.616	0.249	0.071
-635.595	-47.345	-0.122	-0.060
-634.580	-200.000	-0.034	-0.317
-633.565	-200.000	0.034	0.205
-632.551	-106.366	0.301	-0.067
-631.536	311.547	-0.075	-0.141
-630.522	62.642	-0.182	-0.183
-629.507	165.214	-0.221	0.313
-628.492	-200.000	0.023	0.280
-627.478	-200.000	-0.002	0.147
-626.463	-62.341	0.129	0.054
-625.449	133.388	-0.148	0.193
-624.434	800.000	-0.086	0.365
-623.419	800.000	-0.056	-0.234
-622.405	17.664	0.142	0.113
-621.390	-200.000	-0.026	-0.255
-620.376	-37.258	-0.095	-0.051
-619.361	327.904	-0.113	-0.217
-618.346	-161.786	-0.299	0.015
-617.332	153.761	0.046	0.064
-616.317	800.000	0.075	-0.275
-615.303	-200.000	-0.072	-0.415
-614.288	38.021	-0.137	-0.122
-613.273	-94.826	-0.171	0.047
-612.259	34.322	-0.159	0.139
-611.244	-41.867	-0.161	0.083
-610.230	112.531	-0.065	-0.079
-609.215	42.668	0.170	-0.156
-608.201	-62.449	0.120	-0.050
-607.186	71.533	0.183	-0.191
-606.171	-200.000	-0.006	0.097
-605.157	-16.998	0.206	-0.131
-604.142	-26.899	-0.050	0.029
-603.128	-56.812	0.134	-0.060
-602.113	41.048	-0.184	0.166
-601.098	-100.605	0.080	-0.020
-600.084	-56.024	-0.287	0.128
-599.069	800.000	-0.038	-0.134
-598.055	-18.720	-0.221	-0.138
-597.040	-200.000	-0.191	-0.001
-596.025	51.691	0.053	-0.050
-595.011	800.000	0.093	0.283
-593.996	-187.960	-0.181	0.002
-592.982	-41.043	-0.163	-0.084
-591.967	84.927	0.196	-0.215
-590.952	-200.000	0.038	-0.316
-589.938	-200.000	0.011	0.198
-588.923	-27.230	0.127	-0.074
-587.909	42.727	-0.190	0.174
-586.894	104.528	0.148	-0.174
-585.879	676.169	-0.044	0.114
-584.865	-179.968	0.158	-0.003
-583.850	-200.000	-0.028	0.347
-582.836	-2.658	-0.249	0.175
-581.821	-30.526	0.129	-0.073
-580.806	-90.207	-0.156	0.046
-579.792	-200.000	0.042	-0.198
-578.777	155.176	-0.123	-0.169
-577.763	800.000	-0.052	-0.177
-576.748	-44.524	0.370	-0.185
-575.733	-19.350	0.153	0.095
-574.719	2.699	-0.245	0.178
-573.704	-139.386	0.075	-0.008
-572.690	-200.000	0.029	-0.159
-571.675	65.049	0.088	0.090
-570.661	221.778	-0.204	0.329
-569.646	800.000	0.084	0.268
-568.631	-200.000	0.063	0.281
-567.617	-154.319	0.227	-0.015
-566.602	118.311	0.011	0.014
-565.588	-45.583	-0.127	-0.063
-564.573	206.400	0.065	0.102
-563.558	-200.000	-0.041	0.184
-562.544	313.715	-0.044	-0.082
-561.529	-118.894	-0.100	-0.018
-560.515	-200.000	-0.012	0.241
-559.500	-77.765	0.153	-0.053
-558.485	274.940	-0.121	0.214
-557.471	-140.635	0.126	-0.013
-556.456	669.677	0.058	-0.151
-555.442	-200.000	-0.019	-0.100
-554.427	276.627	-0.039	0.069
-553.412	-133.052	-0.253	-0.032
-552.398	-200.000	0.026	0.161
-551.383	99.854	-0.035	-0.041
-550.369	118.040	0.223	0.276
-549.354	-200.000	-0.007	0.125
-548.339	-156.575	-0.146	0.009
-547.325	21.890	0.447	-0.365
-546.310	14.096	-0.173	0.135
-545.296	-44.424	-0.256	0.128
-544.281	-17.744	0.248	-0.156
-543.266	-99.451	0.245	0.062
-542.252	-97.747	-0.176	0.046
-541.237	-31.724	-0.330	0.185
-540.223	279.964	-0.182	-0.326
-539.208	-5.343	-0.164	-0.113
-538.193	330.107	0.125	-0.241
-537.179	3.556	-0.170	-0.124
-536.164	-200.000	-0.008	0.188
-535.150	31.726	-0.166	0.143
-534.135	-58.287	-0.190	0.083
-533.121	-33.569	0.296	-0.164
-532.106	-23.040	-0.163	-0.098
-531.091	78.810	-0.162	-0.174
-530.077	-95.164	-0.222	-0.060
-529.062	-37.879	0.180	0.096
-528.048	415.849	0.164	-0.350
-527.033	29.571	-0.170	-0.145
-526.018	-33.266	-0.269	-0.149
-525.004	-200.000	0.043	0.393
-523.989	800.000	0.090	-0.305
-522.975	-49.149	0.325	0.156
-521.960	-42.471	0.132	0.067
-520.945	430.360	-0.161	-0.349
-519.931	-106.254	0.181	-0.041
-518.916	302.468	0.092	-0.170
-517.902	-92.906	0.252	0.070
-516.887	-200.000	0.026	0.195
-515.872	-157.172	0.190	-0.012
-514.858	129.204	0.072	-0.092
-513.843	-200.000	-0.319	0.000
-512.829	-9.084	-0.241	0.161
-511.814	118.878	0.101	0.125
-510.799	800.000	0.115	-0.330
-509.785	116.741	0.305	-0.374
-508.770	134.683	0.070	-0.090
-507.756	442.452	0.106	-0.231
-506.741	170.055	-0.252	-0.361
-505.726	-200.000	-0.007	-0.040
-504.712	-86.302	-0.069	-0.021
-503.697	57.514	-0.117	0.114
-502.683	61.994	0.315	-0.314
-501.668	-123.104	0.208	-0.033
-500.653	4.033	-0.417	-0.305
-499.639	-200.000	-0.015	-0.120
-498.624	-200.000	-0.048	0.406
-497.610	-56.293	-0.484	-0.215
-496.595	-22.652	0.439	-0.265
-495.581	409.933	-0.082	0.173
-494.566	-74.049	0.236	-0.085
-493.551	-27.680	-0.268	0.156
-492.537	-52.599	-0.219	-0.101
-491.522	764.033	-0.132	-0.359
-490.508	-68.672	-0.163	-0.063
-489.493	-200.000	-0.024	-0.167
-488.478	-200.000	0.022	-0.202
-487.464	-78.320	0.320	0.110
-486.449	-38.325	0.054	0.029
-485.435	174.846	-0.118	-0.171
-484.420	227.450	0.174	0.282
-483.405	-57.519	0.081	0.035
-482.391	188.853	-0.065	-0.097
-481.376	-36.847	0.061	0.033
-480.362	244.622	0.043	0.072
-479.347	97.245	0.203	-0.233
-478.332	-122.041	0.216	-0.035
-477.318	-119.906	-0.243	-0.042
-476.303	-121.891	0.354	0.058
-475.289	-85.998	0.101	0.031
-474.274	235.853	0.268	-0.441
-473.259	169.769	-0.209	-0.298
-472.245	-125.497	0.074	-0.011
-471.230	-2.909	-0.085	-0.059
-470.216	-200.000	-0.016	-0.161
-469.201	800.000	-0.032	-0.093
-468.186	132.948	0.053	0.068
-467.172	290.666	0.147	0.266
-466.157	13.150	-0.321	-0.248
-465.143	57.712	0.145	0.142
-464.128	85.122	0.138	-0.151
-463.113	-200.000	0.281	0.000
-462.099	-103.432	0.157	0.037
-461.084	-143.516	0.233	0.022
-460.070	800.000	-0.061	0.222
-459.055	800.000	-0.056	-0.171
-458.040	-180.244	-0.148	0.003
-457.026	-132.581	0.274	-0.035
-456.011	-68.682	0.292	-0.113
-454.997	800.000	0.140	-0.431
-453.982	178.362	-0.153	-0.223
-452.968	-200.000	0.007	-0.076
-451.953	-200.000	-0.009	0.063
-450.938	249.950	-0.050	0.085
-449.924	255.852	-0.192	0.329
-448.909	-42.293	-0.198	0.101
-447.895	-200.000	0.029	-0.244
-446.880	553.253	0.064	-0.154
-445.865	292.191	0.124	-0.226
-444.851	800.000	-0.096	-0.272
-443.836	800.000	-0.063	0.241
-442.822	23.621	0.252	-0.207
-441.807	639.825	0.072	-0.182
-440.792	-200.000	0.022	0.262
-439.778	-200.000	0.022	-0.108
-438.763	-13.954	0.038	0.024
-437.749	241.839	-0.047	-0.079
-436.734	122.880	-0.177	-0.221
-435.719	-115.483	0.065	0.012
-434.705	-135.178	-0.205	0.025
-433.690	-14.763	0.121	0.077
-432.676	-17.435	-0.353	0.221
-431.661	-200.000	-0.052	-0.343
-430.646	713.073	0.053	-0.141
-429.632	-51.196	-0.143	-0.067
-428.617	-57.590	0.132	0.058
-427.603	-121.881	0.294	0.048
-426.588	57.354	0.237	0.231
-425.573	-200.000	-0.007	-0.188
-424.559	-58.488	0.306	-0.132
-423.544	421.164	0.156	-0.333
-422.530	-200.000	0.028	0.332
-421.515	-200.000	-0.006	0.085
-420.500	494.703	0.129	-0.294
-419.486	104.847	-0.063	-0.074
-418.471	39.941	0.121	0.108
-417.457	258.635	0.124	0.213
-416.442	273.445	-0.178	-0.312
-415.428	-200.000	0.004	-0.102
-414.413	44.888	0.187	-0.172
-413.398	-200.000	0.156	0.001
-412.384	-200.000	-0.016	-0.158
-411.369	513.645	0.162	0.376
-410.355	800.000	-0.025	-0.103
-409.340	-200.000	0.001	-0.108
-408.325	144.143	-0.115	0.153
-407.311	800.000	-0.048	-0.149
-406.296	-85.397	-0.373	-0.116
-405.282	-102.551	-0.220	-0.052
-404.267	-53.037	0.134	0.061
-403.252	318.392	0.180	0.338
-402.238	-136.718	-0.013	0.002
-401.223	144.482	0.207	0.274
-400.209	-182.839	-0.098	-0.002
-399.194	-5.973	0.411	-0.280
-398.179	103.506	0.233	-0.272
-397.165	-10.048	0.403	-0.267
-396.150	-168.327	-0.241	0.009
-395.136	67.929	0.180	-0.183
-394.121	184.746	0.260	-0.383
-393.106	-79.044	-0.144	0.049
-392.092	-82.525	0.315	0.102
-391.077	102.150	-0.227	-0.264
-390.063	57.902	-0.150	0.146
-389.048	-200.000	-0.018	0.359
-388.033	800.000	0.081	0.232
-387.019	-28.569	-0.176	0.101
-386.004	-110.984	-0.170	-0.035
-384.990	10.701	0.109	0.083
-383.975	-200.000	0.019	0.343
-382.960	-200.000	0.015	0.152
-381.946	-37.878	0.249	0.131
-380.931	383.912	0.134	-0.274
-379.917	62.340	-0.085	-0.084
-378.902	-53.447	0.116	0.053
-377.888	-112.770	0.152	-0.030
-376.873	187.906	-0.167	-0.249
-375.858	800.000	0.120	-0.365
-374.844	-134.809	-0.262	-0.032
-373.829	-13.887	-0.130	-0.083
-372.815	-111.852	0.120	0.024
-371.800	220.365	0.137	-0.219
-370.785	138.588	-0.226	-0.295
-369.771	-71.636	0.182	0.068
-368.756	-73.737	-0.089	0.032
-367.742	366.364	0.135	0.270
-366.727	150.111	-0.158	0.213
-365.712	284.444	-0.144	0.258
-364.698	-100.187	-0.377	0.093
-363.683	48.523	-0.291	-0.271
-362.669	343.500	0.116	0.227
-361.654	-200.000	0.005	0.569
-360.639	-3.406	0.276	-0.191
-359.625	-103.972	0.334	0.077
-358.610	-185.689	0.227	0.003
-357.596	269.927	-0.251	-0.438
-356.581	482.533	-0.119	0.269
-355.566	-158.698	-0.327	-0.019
-354.552	462.718	-0.124	0.275
-353.537	-200.000	0.008	0.331
-352.523	33.249	-0.251	-0.217
-351.508	800.000	-0.036	0.147
-350.493	-200.000	0.042	0.210
-349.479	61.155	-0.106	0.104
-348.464	800.000	-0.028	0.109
-347.450	558.213	-0.146	-0.349
-346.435	-200.000	0.003	0.040
-345.420	-128.785	-0.369	-0.052
-344.406	-80.324	-0.129	0.043
-343.391	232.659	0.132	-0.216
-342.377	-66.065	-0.179	-0.071
-341.362	30.011	0.179	0.151
-340.348	43.452	-0.230	-0.208
-339.333	662.446	0.126	-0.323
-338.318	143.411	-0.150	-0.198
-337.304	74.531	0.254	0.265
-336.289	-63.234	0.391	0.160
-335.275	-157.814	0.260	0.015
-334.260	155.487	0.204	0.278
-333.245	218.302	-0.154	0.244
-332.231	222.966	0.179	0.286
-331.216	609.752	0.031	-0.076
-330.202	-31.443	-0.186	-0.104
-329.187	426.871	-0.130	0.279
-328.172	-111.329	-0.154	-0.031
-327.158	800.000	0.050	-0.204
-326.143	-46.245	0.162	0.079
-325.129	-200.000	0.006	-0.156
-324.114	800.000	0.052	-0.144
-323.099	166.626	-0.170	-0.239
-322.085	-77.784	0.170	-0.058
-321.070	-200.000	-0.021	0.092
-320.056	-200.000	-0.019	-0.253
-319.041	281.482	-0.073	-0.130
-318.026	46.103	-0.130	0.120
-317.012	80.800	-0.149	0.160
-315.997	685.153	0.193	0.499
-314.983	-43.988	-0.270	-0.134
-313.968	49.889	-0.038	0.035
-312.953	-182.258	0.306	0.006
-311.939	48.338	-0.129	0.120
-310.924	-200.000	0.259	0.001
-309.910	800.000	-0.022	0.070
-308.895	202.296	-0.142	0.217
-307.880	-134.633	0.233	-0.028
-306.866	-67.232	-0.360	-0.141
-305.851	-63.396	-0.294	-0.120
-304.837	-36.730	0.135	0.072
-303.822	-18.810	-0.279	0.172
-302.807	-200.000	0.004	0.108
-301.793	186.435	0.081	-0.119
-300.778	139.091	-0.098	-0.128
-299.764	-200.000	-0.005	-0.157
-298.749	-200.000	0.022	0.127
-297.735	800.000	-0.056	-0.226
-296.720	800.000	-0.052	0.148
-295.705	-200.000	0.023	-0.260
-294.691	41.894	-0.232	-0.208
-293.676	-40.830	-0.154	-0.079
-292.662	-73.387	-0.285	-0.103
-291.647	-87.455	-0.240	0.072
-290.632	-153.951	-0.058	0.004
-289.618	-69.366	-0.121	0.046
-288.603	175.484	0.183	0.263
-287.589	-57.375	0.081	0.035
-286.574	-200.000	0.003	-0.201
-285.559	-71.067	0.271	0.101
-284.545	375.542	-0.044	-0.088
-283.530	445.581	0.154	0.336
-282.516	63.244	-0.066	-0.065
-281.501	-88.302	0.263	0.078
-280.486	800.000	-0.108	0.321
-279.472	-69.675	0.351	-0.133
-278.457	64.377	-0.137	-0.137
-277.443	17.726	-0.254	0.200
-276.428	-200.000	-0.002	0.179
-275.413	9.645	0.113	0.085
-274.399	107.814	0.134	0.158
-273.384	-143.973	0.048	-0.004
-272.370	800.000	0.130	0.420
-271.355	800.000	-0.069	0.234
-270.340	-26.706	0.282	0.163
-269.326	-200.000	-0.004	0.180
-268.311	-200.000	0.000	-0.025
-267.297	267.398	0.046	0.079
-266.282	-162.312	-0.169	0.008
-265.267	800.000	-0.116	0.402
-264.253	607.164	-0.179	0.443
-263.238	231.792	0.036	0.058
-262.224	70.568	0.135	-0.139
-261.209	-200.000	0.004	-0.172
-260.195	-41.835	-0.163	-0.083
-259.180	112.739	0.244	0.293
-258.165	800.000	0.083	0.278
-257.151	-86.423	0.232	0.070
-256.136	-200.000	-0.032	0.315
-255.122	-142.308	-0.157	-0.015
-254.107	295.025	0.188	0.340
-253.092	62.931	0.182	0.180
-252.078	-37.104	0.281	-0.149
-251.063	-200.000	-0.035	-0.162
-250.049	-200.000	0.141	0.000
-249.034	-121.881	-0.229	-0.037
-248.019	-143.777	0.365	0.034
-247.005	-120.255	-0.227	0.038
-245.990	-200.000	-0.017	0.105
-244.976	800.000	0.063	0.243
-243.961	-8.645	-0.337	-0.224
-242.946	228.518	-0.046	0.074
-241.932	-149.954	0.287	0.022
-240.917	-153.997	-0.277	0.019
-239.903	117.094	-0.173	0.210
-238.888	-65.578	-0.153	0.061
-237.873	569.662	-0.165	0.396
-236.859	-20.577	0.071	-0.043
-235.844	-16.624	0.155	0.097
-234.830	800.000	0.033	0.140
-233.815	800.000	-0.021	-0.092
-232.800	-105.949	-0.192	0.043
-231.786	403.688	-0.037	0.077
-230.771	-135.760	-0.144	0.017
-229.757	-0.634	0.178	-0.125
-228.742	-200.000	0.002	0.106
-227.727	800.000	0.027	0.105
-226.713	-26.118	-0.336	-0.195
-225.698	332.850	0.120	0.229
-224.684	83.609	0.121	-0.131
-223.669	135.656	0.088	0.113
-222.655	82.682	0.226	-0.243
-221.640	-26.097	-0.366	0.212
-220.625	105.891	-0.098	0.114
-219.611	-200.000	0.021	0.190
-218.596	105.700	0.136	0.159
-217.582	-86.656	-0.195	0.059
-216.567	-0.107	-0.272	-0.191
-215.552	-70.407	0.107	-0.040
-214.538	80.438	0.147	0.156
-213.523	167.785	-0.083	0.116
-212.509	-18.451	-0.053	0.033
-211.494	21.134	0.115	-0.092
-210.479	94.193	-0.198	-0.222
-209.465	42.631	-0.042	0.038
-208.450	-144.053	0.251	0.023
-207.436	-6.668	0.066	0.044
-206.421	262.765	-0.196	-0.336
-205.406	-200.000	0.030	-0.153
-204.392	100.327	-0.127	0.146
-203.377	-104.593	0.035	-0.008
-202.363	-200.000	0.006	-0.253
-201.348	-114.158	-0.013	0.002
-200.333	-104.812	0.217	0.049
-199.319	-125.278	0.435	0.066
-198.304	345.917	-0.140	0.272
-197.290	286.137	-0.117	-0.209
-196.275	36.352	0.195	-0.170
-195.260	591.657	0.121	0.295
-194.246	-103.125	0.057	0.013
-193.231	-88.829	-0.139	0.041
-192.217	-80.443	-0.335	0.110
-191.202	23.790	-0.065	-0.053
-190.187	800.000	0.085	0.295
-189.173	-156.426	-0.077	-0.005
-188.158	290.815	0.161	-0.289
-187.144	84.585	0.092	-0.099
-186.129	-200.000	0.005	-0.211
-185.114	62.511	0.283	0.279
-184.100	-71.620	-0.191	0.070
-183.085	800.000	0.092	0.344
-182.071	170.361	0.145	0.204
-181.056	-200.000	0.000	0.177
-180.042	-82.303	-0.197	-0.063
-179.027	31.569	-0.034	0.029
-178.012	-111.428	-0.235	0.047
-176.998	-200.000	0.001	0.057
-175.983	-145.450	0.299	-0.027
-174.969	-200.000	0.042	-0.445
-173.954	-142.795	0.233	-0.022
-172.939	220.075	0.097	0.154
-171.925	586.010	-0.025	0.061
-170.910	-200.000	-0.030	-0.293
-169.896	-74.532	0.081	0.029
-168.881	258.329	-0.095	-0.161
-167.866	109.273	0.199	-0.235
-166.852	-119.986	0.455	-0.077
-165.837	800.000	-0.075	-0.207
-164.823	613.348	-0.034	0.083
-163.808	-110.337	-0.422	0.086
-162.793	-130.792	-0.526	-0.070
-161.779	214.240	-0.103	0.161
-160.764	333.310	0.143	0.273
-159.750	-136.880	0.237	-0.027
-158.735	-200.000	0.022	-0.217
-157.720	-67.572	0.270	0.104
-156.706	800.000	-0.065	0.184
-155.691	-200.000	0.007	-0.166
-154.677	-66.773	-0.128	0.050
-153.662	278.569	0.060	-0.106
-152.647	675.699	0.122	0.311
-151.633	800.000	0.052	0.158
-150.618	-173.446	0.273	-0.008
-149.604	304.887	-0.085	-0.156
-148.589	645.368	0.030	-0.075
-147.574	-200.000	0.017	-0.082
-146.560	-200.000	-0.013	0.130
-145.545	311.923	-0.078	-0.144
-144.531	-107.854	0.374	0.080
-143.516	-200.000	-0.250	0.001
-142.502	800.000	0.016	0.045
-141.487	-193.324	0.415	-0.004
-140.472	224.714	0.155	-0.246
-139.458	-71.746	-0.069	0.025
-138.443	-136.289	-0.336	-0.039
-137.429	-120.967	0.280	0.046
-136.414	43.687	0.116	-0.105
-135.399	198.657	0.112	-0.169
-134.385	-63.595	-0.449	-0.182
-133.370	-43.351	0.216	0.107
-132.356	379.165	0.090	0.182
-131.341	800.000	0.035	0.110
-130.326	-110.324	-0.037	-0.008
-129.312	295.021	-0.075	0.136
-128.297	800.000	0.055	-0.234
-127.283	30.046	0.147	-0.123
-126.268	126.131	0.099	0.123
-125.253	667.349	-0.075	0.191
-124.239	0.247	0.180	-0.126
-123.224	-68.351	0.125	0.048
-122.210	-58.686	-0.326	-0.139
-121.195	30.448	-0.322	-0.271
