DTS Sentinel unit serial number:	SN413079Multiplexer serial number:	ORYXHardware model number:	OX4-SRSoftware version number:	ORYX F/W v4.00 Oryx Data Collector v3.7.2.0data status	okinstallation	princeton_trtdifferential loss correction	single-endedforward channel	channel 2reverse channel	N/Adate	2019/09/11time	08:49:11forward acquisition time	60.00reverse acquisition time	0.00gamma	496.2192k internal	0.2319k external	0.2319temperature offset calibration	0.9965default loss term (dB/km)	0.3790temperature slope calibration	1.0000multiplexer offset coefficient	1.0000multiplexer slope coefficient	1.0000fibre end	0.00T internal ref (°C)	33.78T ext. ref 1 (°C)	0.12T ext. ref 2 (°C)	31.11length (m)	temperature (°C)	Stokes	anti-Stokes-747.200	-200.000	-0.035	0.190
-746.185	-200.000	-0.001	-0.106
-745.171	-67.750	0.194	0.077
-744.156	-139.009	0.211	-0.023
-743.142	-200.000	0.018	-0.227
-742.127	-117.947	-0.235	0.043
-741.112	-106.367	-0.215	0.049
-740.098	73.512	0.115	0.122
-739.083	14.370	0.119	-0.094
-738.069	-26.339	-0.239	0.142
-737.054	-45.474	0.247	0.124
-736.039	-162.733	-0.312	-0.015
-735.025	-176.736	0.590	0.015
-734.010	107.600	-0.083	-0.100
-732.996	195.217	-0.013	-0.021
-731.981	-130.564	0.254	0.035
-730.966	12.412	-0.097	-0.076
-729.952	311.958	-0.164	-0.311
-728.937	40.524	0.222	0.202
-727.923	-177.681	-0.282	0.007
-726.908	193.000	-0.198	0.302
-725.894	7.523	0.137	-0.104
-724.879	-200.000	0.021	-0.242
-723.864	6.938	-0.320	-0.241
-722.850	-121.562	0.073	0.012
-721.835	-91.898	-0.267	-0.077
-720.821	319.804	0.078	-0.150
-719.806	162.915	-0.073	0.103
-718.791	-79.336	-0.333	-0.114
-717.777	154.980	0.216	-0.301
-716.762	-91.427	-0.109	-0.032
-715.748	103.187	0.104	-0.123
-714.733	401.023	-0.080	-0.169
-713.718	-148.348	-0.274	-0.023
-712.704	58.227	-0.323	-0.320
-711.689	166.258	-0.129	0.185
-710.675	13.964	-0.257	-0.202
-709.660	-92.671	-0.129	0.036
-708.645	146.477	-0.033	0.045
-707.631	211.951	0.135	0.214
-706.616	-200.000	0.049	0.460
-705.602	-200.000	0.002	0.102
-704.587	-167.669	-0.205	-0.008
-703.572	-200.000	0.005	-0.128
-702.558	-200.000	-0.013	-0.140
-701.543	-113.921	0.136	-0.027
-700.529	228.520	0.154	-0.254
-699.514	-200.000	0.017	0.174
-698.499	5.627	-0.194	0.145
-697.485	-200.000	0.043	-0.278
-696.470	-32.047	0.294	0.166
-695.456	800.000	0.072	0.215
-694.441	-175.093	0.040	0.001
-693.426	66.723	-0.129	-0.133
-692.412	-179.977	0.224	0.005
-691.397	-112.062	0.158	-0.032
-690.383	208.623	0.067	-0.105
-689.368	-31.100	-0.063	-0.036
-688.354	-200.000	-0.041	-0.220
-687.339	800.000	-0.167	-0.631
-686.324	-200.000	0.022	0.262
-685.310	-200.000	-0.039	0.259
-684.295	-166.140	-0.244	0.010
-683.281	-0.526	-0.063	0.045
-682.266	-77.923	0.039	0.014
-681.251	474.237	0.093	0.212
-680.237	681.152	-0.108	0.283
-679.222	-65.116	0.125	0.051
-678.208	117.239	-0.127	-0.158
-677.193	-46.830	-0.083	0.041
-676.178	144.254	0.171	-0.230
-675.164	92.119	-0.104	-0.119
-674.149	570.771	0.054	-0.132
-673.135	-72.082	0.193	-0.072
-672.120	-38.094	-0.113	0.060
-671.105	432.759	0.063	-0.138
-670.091	-79.938	0.147	-0.050
-669.076	-42.977	0.250	-0.128
-668.062	162.039	0.126	-0.178
-667.047	-36.316	0.088	-0.048
-666.032	472.410	-0.128	0.290
-665.018	-88.100	-0.518	0.157
-664.003	-134.364	0.368	0.046
-662.989	-200.000	-0.007	0.046
-661.974	64.677	-0.219	0.222
-660.959	-70.269	-0.126	-0.048
-659.945	502.237	-0.069	-0.160
-658.930	800.000	-0.046	-0.172
-657.916	50.530	-0.108	0.103
-656.901	268.685	0.021	0.037
-655.886	-154.757	0.176	0.012
-654.872	-39.105	-0.071	0.038
-653.857	-34.135	-0.212	-0.118
-652.843	-91.304	-0.299	0.086
-651.828	40.693	0.222	-0.202
-650.814	536.590	-0.024	0.058
-649.799	-37.727	-0.159	-0.085
-648.784	-200.000	-0.004	-0.303
-647.770	93.154	-0.424	-0.483
-646.755	302.710	0.128	0.238
-645.741	800.000	0.073	0.277
-644.726	-7.260	-0.240	0.164
-643.711	31.697	-0.271	0.235
-642.697	-200.000	0.006	-0.128
-641.682	-71.263	-0.206	0.078
-640.668	-113.322	0.256	0.051
-639.653	587.712	-0.162	-0.403
-638.638	800.000	0.097	-0.342
-637.624	-117.694	0.321	0.058
-636.609	81.866	-0.165	0.180
-635.595	664.808	0.020	0.053
-634.580	-200.000	-0.028	0.318
-633.565	-67.259	-0.262	0.104
-632.551	24.333	-0.096	0.080
-631.536	122.782	-0.104	0.132
-630.522	6.645	0.231	0.173
-629.507	-145.301	-0.255	-0.023
-628.492	-135.084	0.259	0.031
-627.478	194.403	-0.043	0.065
-626.463	165.230	-0.161	-0.229
-625.449	-144.565	0.206	0.019
-624.434	800.000	-0.099	-0.300
-623.419	-150.919	0.161	0.012
-622.405	800.000	-0.052	-0.210
-621.390	679.475	0.071	0.186
-620.376	-57.831	0.270	0.119
-619.361	268.496	0.146	-0.259
-618.346	800.000	-0.045	-0.191
-617.332	185.934	-0.123	0.184
-616.317	26.149	0.204	0.171
-615.303	-200.000	-0.031	-0.219
-614.288	473.987	0.159	-0.361
-613.273	-50.303	-0.203	0.096
-612.259	19.045	-0.077	0.063
-611.244	452.216	-0.163	-0.364
-610.230	-60.940	0.147	-0.063
-609.215	40.906	0.217	0.197
-608.201	-12.550	0.337	-0.221
-607.186	394.189	-0.110	0.230
-606.171	-115.560	0.062	0.012
-605.157	610.194	0.046	0.116
-604.142	-157.436	-0.194	-0.012
-603.128	49.617	-0.058	0.055
-602.113	-200.000	-0.061	0.309
-601.098	800.000	0.046	-0.147
-600.084	25.631	0.090	-0.075
-599.069	68.760	0.203	-0.209
-598.055	-85.580	-0.143	0.045
-597.040	385.892	-0.090	0.187
-596.025	-172.712	-0.323	0.010
-595.011	-55.285	0.206	-0.093
-593.996	82.768	0.166	0.181
-592.982	175.149	-0.204	-0.297
-591.967	131.938	0.067	-0.087
-590.952	273.935	-0.048	-0.086
-589.938	80.034	0.398	0.430
-588.923	96.113	-0.228	0.262
-587.909	800.000	0.050	0.186
-586.894	-7.418	0.285	0.194
-585.879	-124.074	-0.264	0.042
-584.865	-97.879	0.127	0.033
-583.850	-200.000	0.030	-0.341
-582.836	800.000	0.039	0.130
-581.821	-90.094	-0.285	0.084
-580.806	-200.000	0.002	0.108
-579.792	46.254	0.052	0.048
-578.777	81.234	0.118	-0.129
-577.763	36.939	-0.156	-0.139
-576.748	468.195	-0.069	0.156
-575.733	-200.000	-0.031	0.257
-574.719	194.005	0.064	-0.098
-573.704	-124.391	-0.315	0.049
-572.690	-136.039	-0.141	0.017
-571.675	221.029	0.186	0.300
-570.661	123.855	0.110	-0.139
-569.646	8.615	-0.157	-0.119
-568.631	-138.486	-0.069	0.008
-567.617	-73.244	-0.081	0.030
-566.602	-130.371	0.129	0.018
-565.588	-130.164	0.058	0.008
-564.573	-191.708	0.276	-0.003
-563.558	-90.873	0.197	-0.057
-562.544	-101.320	-0.055	-0.014
-561.529	16.776	-0.124	0.099
-560.515	787.171	-0.184	-0.509
-559.500	-200.000	0.002	-0.226
-558.485	148.481	0.256	0.347
-557.471	-88.792	0.257	-0.077
-556.456	-118.297	-0.203	0.036
-555.442	-181.347	0.147	0.003
-554.427	56.300	-0.127	-0.124
-553.412	-18.164	0.274	0.172
-552.398	758.765	0.047	-0.127
-551.383	800.000	0.034	0.107
-550.369	-200.000	0.007	0.065
-549.354	-200.000	-0.003	0.029
-548.339	-16.123	0.155	0.099
-547.325	132.376	0.036	-0.046
-546.310	76.760	-0.128	0.136
-545.296	-55.938	0.289	-0.129
-544.281	205.847	-0.052	-0.081
-543.266	123.795	0.053	0.067
-542.252	-116.419	0.072	-0.013
-541.237	162.575	0.185	-0.261
-540.223	-183.424	0.251	0.004
-539.208	-7.270	-0.102	0.069
-538.193	-127.223	-0.244	-0.036
-537.179	-103.837	0.246	0.058
-536.164	3.014	-0.206	-0.150
-535.150	-200.000	-0.010	-0.122
-534.135	-200.000	-0.029	0.309
-533.121	-200.000	0.002	0.036
-532.106	25.207	0.196	0.163
-531.091	-122.806	-0.207	0.034
-530.077	-124.868	0.310	-0.048
-529.062	800.000	-0.087	0.350
-528.048	430.513	-0.070	0.152
-527.033	-103.264	-0.062	0.015
-526.018	446.972	0.102	0.226
-525.004	-8.474	0.169	0.114
-523.989	-48.851	-0.114	0.055
-522.975	-44.187	-0.252	0.127
-521.960	83.102	0.119	-0.130
-520.945	36.631	-0.044	-0.039
-519.931	-200.000	-0.002	0.165
-518.916	-64.329	-0.185	-0.075
-517.902	-100.441	0.266	0.066
-516.887	66.335	-0.089	0.091
-515.872	-122.646	-0.289	-0.047
-514.858	557.715	-0.052	-0.125
-513.843	-49.666	-0.226	-0.108
-512.829	13.963	0.206	-0.161
-511.814	30.749	-0.100	-0.086
-510.799	800.000	-0.094	0.283
-509.785	-118.557	-0.343	-0.061
-508.770	-116.373	0.398	-0.074
-507.756	62.045	-0.194	-0.194
-506.741	800.000	0.028	0.110
-505.726	118.446	0.043	0.053
-504.712	-123.954	0.257	0.041
-503.697	82.625	-0.067	0.073
-502.683	-200.000	-0.007	-0.039
-501.668	-12.590	0.121	-0.079
-500.653	114.164	-0.129	0.158
-499.639	-200.000	0.033	0.341
-498.624	-100.220	-0.198	0.049
-497.610	-9.047	-0.136	-0.091
-496.595	-115.506	-0.042	0.008
-495.581	-88.408	-0.369	-0.110
-494.566	31.326	0.037	0.032
-493.551	-158.668	-0.164	-0.009
-492.537	10.512	-0.143	0.109
-491.522	-70.878	-0.161	-0.061
-490.508	76.680	-0.109	0.116
-489.493	-71.661	-0.261	-0.097
-488.478	-131.661	-0.167	0.022
-487.464	-187.575	-0.173	0.002
-486.449	-200.000	0.006	0.150
-485.435	43.407	0.239	0.218
-484.420	504.188	0.220	-0.510
-483.405	247.309	0.101	0.171
-482.391	-200.000	-0.019	-0.230
-481.376	-176.101	-0.098	-0.003
-480.362	-109.461	-0.225	0.048
-479.347	-200.000	-0.022	-0.315
-478.332	-85.938	-0.154	-0.048
-477.318	17.903	0.229	-0.182
-476.303	-200.000	0.056	0.000
-475.289	530.870	-0.020	-0.047
-474.274	-200.000	0.049	-0.238
-473.259	800.000	0.055	0.156
-472.245	-132.846	0.321	0.041
-471.230	96.127	-0.230	0.263
-470.216	-54.920	-0.080	-0.036
-469.201	-133.225	0.206	-0.026
-468.186	-82.560	0.213	0.069
-467.172	800.000	0.099	-0.352
-466.157	27.282	0.105	0.088
-465.143	257.758	0.036	-0.062
-464.128	-200.000	0.033	-0.230
-463.113	-83.432	0.068	-0.022
-462.099	-123.909	0.225	-0.035
-461.084	567.703	0.032	0.078
-460.070	800.000	0.076	0.300
-459.055	800.000	0.048	0.180
-458.040	-65.989	-0.260	-0.104
-457.026	-125.478	0.232	0.035
-456.011	-22.217	-0.040	0.024
-454.997	-28.776	0.092	-0.053
-453.982	-9.003	0.204	-0.137
-452.968	76.668	0.091	-0.097
-451.953	-128.582	-0.266	-0.038
-450.938	398.328	0.024	-0.049
-449.924	80.707	0.235	0.254
-448.909	242.619	0.218	0.365
-447.895	279.062	0.165	0.295
-446.880	-10.616	-0.164	0.108
-445.865	121.350	-0.315	0.392
-444.851	-189.720	0.395	-0.005
-443.836	314.990	0.105	0.197
-442.822	800.000	0.064	0.208
-441.807	-85.016	-0.187	-0.058
-440.792	208.878	-0.186	-0.291
-439.778	-62.875	0.206	0.085
-438.763	-200.000	0.031	0.250
-437.749	14.643	0.225	-0.176
-436.734	246.295	0.151	0.255
-435.719	366.101	0.091	0.182
-434.705	77.054	-0.125	-0.133
-433.690	-122.349	0.082	0.013
-432.676	153.130	-0.183	0.250
-431.661	800.000	-0.063	-0.195
-430.646	5.858	0.273	-0.202
-429.632	800.000	-0.033	-0.109
-428.617	321.998	0.147	-0.280
-427.603	49.751	-0.094	-0.089
-426.588	-132.709	0.085	0.011
-425.573	800.000	0.082	0.268
-424.559	102.791	-0.092	0.108
-423.544	97.532	-0.137	-0.158
-422.530	14.807	-0.277	0.217
-421.515	-71.088	0.290	-0.109
-420.500	100.029	-0.124	-0.144
-419.486	-167.033	-0.245	-0.010
-418.471	-35.212	0.178	0.097
-417.457	-21.703	0.302	0.184
-416.442	-35.703	0.154	-0.083
-415.428	-200.000	0.029	0.208
-414.413	-75.159	0.448	-0.160
-413.398	92.183	0.174	-0.196
-412.384	323.739	-0.217	-0.413
-411.369	-200.000	0.002	0.130
-410.355	-157.390	0.598	-0.036
-409.340	-101.869	-0.455	0.110
-408.325	-80.185	-0.402	-0.135
-407.311	36.735	-0.070	-0.062
-406.296	541.982	0.068	-0.162
-405.282	-121.637	0.386	-0.064
-404.267	-8.779	-0.157	-0.105
-403.252	5.489	0.150	0.111
-402.238	106.587	0.156	0.185
-401.223	732.353	-0.041	-0.110
-400.209	-10.564	0.183	0.121
-399.194	501.081	0.043	0.099
-398.179	-200.000	0.021	0.240
-397.165	452.474	0.097	0.214
-396.150	191.952	0.117	-0.176
-395.136	-200.000	0.021	-0.107
-394.121	231.718	0.142	0.232
-393.106	-103.745	-0.250	-0.058
-392.092	-17.470	0.219	0.138
-391.077	317.619	-0.098	-0.185
-390.063	800.000	-0.115	-0.468
-389.048	-106.342	0.072	0.016
-388.033	54.197	0.176	-0.169
-387.019	106.918	-0.133	-0.158
-386.004	332.704	-0.240	0.462
-384.990	-50.949	-0.306	-0.143
-383.975	-200.000	0.031	0.204
-382.960	177.091	0.143	0.207
-381.946	250.036	-0.232	-0.393
-380.931	-120.057	-0.083	0.014
-379.917	800.000	0.065	-0.191
-378.902	-9.882	-0.288	-0.191
-377.888	363.735	0.142	0.285
-376.873	96.559	0.049	0.056
-375.858	-42.444	0.088	-0.045
-374.844	-200.000	-0.009	0.055
-373.829	-200.000	-0.003	-0.033
-372.815	-6.588	-0.080	0.054
-371.800	156.619	-0.165	-0.227
-370.785	29.718	-0.173	-0.147
-369.771	-102.706	0.240	0.057
-368.756	-61.997	-0.086	0.036
-367.742	-97.148	0.292	-0.076
-366.727	31.429	-0.311	-0.267
-365.712	-169.239	0.050	-0.002
-364.698	-200.000	0.062	0.279
-363.683	556.375	0.096	0.230
-362.669	-200.000	0.047	-0.375
-361.654	154.977	0.086	0.117
-360.639	-86.110	0.051	0.016
-359.625	800.000	-0.056	-0.166
-358.610	-72.723	0.486	-0.179
-357.596	474.933	-0.030	-0.067
-356.581	679.687	0.040	-0.104
-355.566	85.197	-0.174	-0.190
-354.552	706.978	0.036	-0.096
-353.537	45.695	0.270	-0.249
-352.523	-178.147	-0.306	0.007
-351.508	800.000	0.066	-0.201
-350.493	139.393	-0.095	0.125
-349.479	-72.371	0.198	0.073
-348.464	257.856	-0.081	-0.138
-347.450	-200.000	-0.006	-0.063
-346.435	6.065	-0.214	0.158
-345.420	183.110	0.203	0.299
-344.406	-70.659	-0.038	-0.014
-343.391	546.569	0.043	0.102
-342.377	-200.000	-0.029	-0.297
-341.362	653.650	0.124	-0.317
-340.348	-12.379	-0.192	-0.125
-339.333	-13.845	-0.032	0.021
-338.318	-143.492	-0.048	0.005
-337.304	-97.138	-0.184	0.048
-336.289	73.682	-0.206	0.215
-335.275	-64.919	-0.188	0.076
-334.260	-200.000	0.003	0.152
-333.245	49.343	0.066	0.062
-332.231	149.708	0.105	-0.141
-331.216	260.332	-0.108	-0.186
-330.202	1.044	-0.289	-0.207
-329.187	-114.644	-0.159	0.030
-328.172	800.000	-0.085	-0.237
-327.158	93.870	-0.194	-0.219
-326.143	235.942	0.028	-0.046
-325.129	-69.422	0.187	-0.072
-324.114	48.997	-0.097	-0.091
-323.099	-200.000	0.009	-0.102
-322.085	385.374	-0.151	-0.311
-321.070	-200.000	-0.007	-0.031
-320.056	23.131	-0.209	0.170
-319.041	81.841	0.221	-0.238
-318.026	-10.573	-0.173	-0.114
-317.012	785.436	0.046	0.127
-315.997	800.000	0.057	-0.172
-314.983	-30.290	-0.261	0.147
-313.968	-47.514	-0.358	0.173
-312.953	-6.499	-0.150	0.102
-311.939	-181.030	-0.412	-0.008
-310.924	800.000	-0.062	-0.231
-309.910	-26.792	0.438	-0.255
-308.895	-112.504	-0.723	-0.143
-307.880	-38.749	0.113	0.059
-306.866	-25.965	0.103	0.061
-305.851	-200.000	0.041	-0.222
-304.837	-169.183	-0.533	0.020
-303.822	246.342	0.039	0.066
-302.807	-99.042	-0.307	-0.077
-301.793	346.780	-0.148	0.291
-300.778	638.099	0.123	-0.312
-299.764	-200.000	-0.025	-0.139
-298.749	-40.418	-0.191	0.099
-297.735	-200.000	0.052	0.271
-296.720	289.665	0.038	0.068
-295.705	800.000	0.052	0.209
-294.691	-200.000	0.014	0.318
-293.676	-200.000	-0.026	0.348
-292.662	-45.210	0.263	0.130
-291.647	85.819	0.154	-0.168
-290.632	-28.766	0.221	-0.127
-289.618	800.000	-0.081	0.265
-288.603	-113.072	0.260	0.051
-287.589	35.776	0.220	-0.192
-286.574	-46.099	0.424	0.208
-285.559	-91.273	-0.155	-0.044
-284.545	64.646	0.251	-0.251
-283.530	-78.051	-0.175	0.060
-282.516	-118.395	0.346	0.061
-281.501	183.021	0.051	0.075
-280.486	0.409	-0.213	-0.151
-279.472	800.000	-0.084	0.305
-278.457	-100.130	0.204	0.050
-277.443	-9.961	0.067	-0.044
-276.428	-200.000	-0.003	-0.096
-275.413	170.415	-0.182	0.259
-274.399	587.476	-0.122	0.297
-273.384	-82.520	0.230	-0.074
-272.370	-93.844	-0.420	0.115
-271.355	-200.000	0.007	-0.129
-270.340	-200.000	-0.018	-0.251
-269.326	-9.651	-0.123	0.082
-268.311	-200.000	0.023	-0.161
-267.297	-55.541	0.247	0.110
-266.282	-72.773	0.114	0.042
-265.267	719.926	-0.153	-0.403
-264.253	595.351	-0.091	0.224
-263.238	800.000	-0.112	0.315
-262.224	-200.000	-0.025	-0.139
-261.209	-200.000	-0.040	-0.214
-260.195	-100.205	0.245	-0.060
-259.180	-160.858	-0.251	0.013
-258.165	616.444	-0.081	-0.201
-257.151	-17.914	-0.218	-0.135
-256.136	-200.000	0.047	-0.212
-255.122	50.539	-0.126	0.118
-254.107	-100.833	0.063	-0.015
-253.092	260.267	0.156	-0.268
-252.078	23.524	-0.120	-0.098
-251.063	9.889	-0.186	-0.140
-250.049	48.932	-0.251	0.233
-249.034	72.942	0.126	0.130
-248.019	480.774	0.036	-0.082
-247.005	-200.000	0.055	0.307
-245.990	485.544	0.055	0.123
-244.976	85.348	0.278	0.302
-243.961	-109.157	0.271	0.057
-242.946	-200.000	-0.053	-0.469
-241.932	-101.016	0.328	-0.080
-240.917	3.001	-0.140	-0.101
-239.903	-200.000	-0.005	0.092
-238.888	-105.880	-0.405	-0.091
-237.873	696.960	-0.067	-0.174
-236.859	200.724	0.256	-0.390
-235.844	-200.000	-0.030	0.160
-234.830	-51.529	0.055	0.025
-233.815	800.000	0.029	-0.092
-232.800	-193.410	0.144	-0.001
-231.786	4.214	0.086	0.063
-230.771	-85.742	0.207	-0.064
-229.757	81.342	-0.121	-0.129
-228.742	16.763	0.212	-0.166
-227.727	-89.928	0.268	-0.078
-226.713	-70.496	0.231	0.087
-225.698	-62.434	-0.288	0.119
-224.684	48.524	-0.129	-0.120
-223.669	-135.905	-0.221	-0.026
-222.655	138.547	0.013	0.017
-221.640	-148.090	-0.115	0.009
-220.625	-77.103	0.151	-0.052
-219.611	223.146	0.094	-0.150
-218.596	136.209	-0.045	0.059
-217.582	800.000	-0.123	0.432
-216.567	65.526	-0.134	-0.134
-215.552	90.598	0.109	-0.121
-214.538	56.553	-0.250	0.241
-213.523	-84.051	0.500	0.157
-212.509	800.000	-0.039	-0.143
-211.494	800.000	0.035	-0.134
-210.479	135.734	-0.059	0.076
-209.465	-200.000	0.051	-0.351
-208.450	-39.408	0.287	0.149
-207.436	68.122	0.122	-0.123
-206.421	88.258	-0.107	0.118
-205.406	10.652	-0.384	0.290
-204.392	800.000	-0.007	-0.025
-203.377	25.250	-0.351	-0.289
-202.363	-41.456	0.134	0.068
-201.348	39.685	-0.090	0.080
-200.333	-43.348	0.281	-0.140
-199.319	-139.606	-0.100	0.011
-198.304	59.386	0.204	-0.199
-197.290	385.704	0.109	0.223
-196.275	-173.933	0.333	0.010
-195.260	-200.000	0.010	-0.245
-194.246	2.749	-0.382	0.275
-193.231	800.000	0.037	0.108
-192.217	-183.383	0.106	-0.002
-191.202	81.996	-0.151	-0.162
-190.187	265.931	0.064	-0.110
-189.173	32.489	-0.178	0.152
-188.158	71.170	0.099	-0.102
-187.144	800.000	-0.072	0.233
-186.129	-119.348	0.253	-0.044
-185.114	79.667	0.018	-0.019
-184.100	526.162	-0.042	0.099
-183.085	-70.682	-0.179	0.067
-182.071	-200.000	-0.012	0.084
-181.056	208.864	0.117	-0.181
-180.042	-43.185	0.163	0.082
-179.027	254.870	-0.161	0.273
-178.012	43.721	0.104	-0.094
-176.998	-200.000	-0.024	-0.261
-175.983	-96.517	-0.192	0.050
-174.969	-63.575	-0.159	0.065
-173.954	-114.563	-0.128	-0.024
-172.939	16.355	0.342	0.267
-171.925	5.669	0.088	0.064
-170.910	-200.000	-0.014	0.284
-169.896	114.132	-0.120	0.145
-168.881	262.870	0.221	0.380
-167.866	-121.766	-0.235	0.038
-166.852	-74.682	0.083	-0.030
-165.837	-151.455	-0.104	-0.008
-164.823	6.676	0.400	-0.294
-163.808	800.000	0.106	-0.321
-162.793	62.410	-0.236	0.233
-161.779	-146.538	0.218	0.019
-160.764	296.157	-0.198	0.359
-159.750	-72.001	-0.194	-0.071
-158.735	23.925	0.025	-0.021
-157.720	-15.569	0.054	-0.034
-156.706	-90.227	-0.159	0.046
-155.691	-200.000	-0.041	0.318
-154.677	-26.695	-0.008	-0.005
-153.662	666.737	0.049	0.125
-152.647	-104.379	-0.316	-0.072
-151.633	4.940	-0.099	-0.072
-150.618	800.000	0.034	0.112
-149.604	-200.000	0.001	0.222
-148.589	-200.000	-0.014	0.111
-147.574	-22.216	0.223	-0.134
-146.560	-200.000	0.004	-0.215
-145.545	341.673	-0.108	-0.208
-144.531	-156.962	-0.303	-0.018
-143.516	-93.922	0.222	-0.060
-142.502	-124.038	0.108	0.017
-141.487	660.288	0.188	-0.478
-140.472	-126.076	0.220	0.033
-139.458	27.865	-0.155	-0.129
-138.443	-107.928	0.250	0.054
-137.429	136.519	0.087	0.112
-136.414	83.972	-0.204	0.220
-135.399	-160.866	0.428	-0.022
-134.385	58.538	0.016	0.016
-133.370	-200.000	-0.053	-0.275
-132.356	646.157	-0.062	-0.157
-131.341	-200.000	-0.031	-0.390
-130.326	76.423	-0.090	-0.094
-129.312	-60.292	0.141	-0.059
-128.297	800.000	0.055	0.152
-127.283	800.000	0.051	-0.154
-126.268	372.504	-0.096	0.193
-125.253	-200.000	-0.002	0.020
-124.239	312.383	-0.025	-0.047
-123.224	145.471	0.170	0.225
-122.210	11.794	0.105	-0.079
-121.195	11.918	-0.178	0.135
-120.180	-95.003	-0.223	0.060
