DTS Sentinel unit serial number:	SN413079Multiplexer serial number:	ORYXHardware model number:	OX4-SRSoftware version number:	ORYX F/W v4.00 Oryx Data Collector v3.7.2.0data status	okinstallation	princeton_trtdifferential loss correction	single-endedforward channel	channel 2reverse channel	N/Adate	2019/09/11time	08:41:11forward acquisition time	60.00reverse acquisition time	0.00gamma	496.2192k internal	0.2319k external	0.2319temperature offset calibration	0.9967default loss term (dB/km)	0.3790temperature slope calibration	1.0000multiplexer offset coefficient	1.0000multiplexer slope coefficient	1.0000fibre end	0.00T internal ref (°C)	33.50T ext. ref 1 (°C)	0.11T ext. ref 2 (°C)	30.96length (m)	temperature (°C)	Stokes	anti-Stokes-747.200	-114.739	0.201	0.039
-746.185	-15.971	0.136	0.087
-745.171	100.030	-0.183	-0.215
-744.156	-200.000	-0.023	0.464
-743.142	82.887	0.149	0.164
-742.127	498.334	-0.131	0.304
-741.112	-200.000	-0.036	0.230
-740.098	620.616	0.151	0.384
-739.083	92.632	-0.165	0.188
-738.069	-72.951	0.264	-0.098
-737.054	-200.000	0.044	0.215
-736.039	-58.422	-0.431	-0.190
-735.025	685.924	0.160	0.421
-734.010	-111.282	-0.239	-0.049
-732.996	5.248	-0.196	-0.146
-731.981	-37.571	-0.135	0.073
-730.966	-127.549	-0.129	0.019
-729.952	-200.000	-0.005	-0.032
-728.937	-165.453	0.153	0.007
-727.923	-200.000	-0.004	0.182
-726.908	-49.732	-0.174	0.083
-725.894	18.720	-0.384	0.311
-724.879	-149.613	-0.287	-0.023
-723.864	2.916	-0.198	-0.145
-722.850	-200.000	0.016	0.296
-721.835	-200.000	-0.046	-0.298
-720.821	-200.000	0.022	0.212
-719.806	-200.000	-0.007	-0.185
-718.791	800.000	-0.166	-0.488
-717.777	-120.280	-0.208	0.036
-716.762	99.231	0.270	-0.316
-715.748	-48.338	-0.075	-0.036
-714.733	406.723	0.066	-0.142
-713.718	-200.000	0.013	-0.329
-712.704	431.639	-0.110	-0.241
-711.689	34.710	0.120	-0.106
-710.675	475.652	0.130	-0.296
-709.660	-70.909	-0.354	-0.135
-708.645	-89.289	0.255	0.076
-707.631	-30.080	-0.158	0.091
-706.616	-6.216	0.113	0.078
-705.602	-30.838	-0.143	-0.082
-704.587	800.000	0.063	-0.203
-703.572	243.571	-0.118	-0.200
-702.558	20.055	-0.192	-0.156
-701.543	620.734	-0.034	0.085
-700.529	191.446	0.106	0.161
-699.514	-200.000	-0.055	0.293
-698.499	161.032	-0.184	-0.259
-697.485	288.527	-0.161	-0.294
-696.470	24.688	-0.251	0.210
-695.456	455.111	-0.056	0.126
-694.441	134.943	-0.070	0.091
-693.426	800.000	0.037	-0.154
-692.412	1.338	0.200	-0.145
-691.397	-80.603	-0.320	-0.108
-690.383	153.281	-0.134	0.185
-689.368	4.716	-0.142	-0.105
-688.354	800.000	-0.010	0.041
-687.339	-42.585	0.136	-0.070
-686.324	800.000	0.007	-0.027
-685.310	19.830	0.256	-0.208
-684.295	491.199	-0.043	-0.099
-683.281	-158.041	-0.149	-0.009
-682.266	0.171	-0.081	-0.058
-681.251	-200.000	0.005	0.256
-680.237	800.000	0.018	0.053
-679.222	240.929	0.065	-0.110
-678.208	685.057	-0.149	-0.392
-677.193	289.172	0.095	-0.174
-676.178	-133.468	-0.064	0.008
-675.164	800.000	-0.077	-0.263
-674.149	17.718	-0.119	0.096
-673.135	118.604	0.003	-0.004
-672.120	419.104	-0.117	-0.252
-671.105	44.776	-0.259	0.240
-670.091	-122.418	0.199	-0.033
-669.076	-200.000	0.067	-0.478
-668.062	-200.000	-0.021	0.133
-667.047	23.386	-0.083	-0.069
-666.032	-200.000	-0.002	0.221
-665.018	25.896	-0.227	-0.191
-664.003	372.886	0.089	-0.183
-662.989	-200.000	0.012	-0.287
-661.974	-94.856	0.395	-0.108
-660.959	94.528	-0.223	-0.256
-659.945	-57.381	0.199	0.088
-658.930	-1.630	0.224	-0.159
-657.916	305.244	-0.056	-0.106
-656.901	800.000	-0.103	0.321
-655.886	-107.208	-0.250	0.056
-654.872	263.105	-0.106	-0.185
-653.857	137.994	-0.184	0.243
-652.843	-54.856	-0.217	0.099
-651.828	-15.576	-0.272	0.175
-650.814	112.311	-0.168	0.204
-649.799	-111.683	0.059	-0.012
-648.784	-137.046	-0.059	0.007
-647.770	-200.000	-0.009	0.416
-646.755	1.206	-0.024	-0.017
-645.741	21.275	-0.201	-0.165
-644.726	-111.686	0.333	0.068
-643.711	69.866	-0.152	0.158
-642.697	91.169	-0.190	-0.215
-641.682	25.597	0.247	0.207
-640.668	800.000	0.019	-0.078
-639.653	-123.882	0.088	0.014
-638.638	-200.000	-0.058	-0.295
-637.624	-200.000	0.021	-0.353
-636.609	-95.456	-0.265	-0.072
-635.595	687.029	-0.120	-0.315
-634.580	800.000	0.036	-0.134
-633.565	-89.907	-0.324	0.095
-632.551	-152.269	0.229	0.017
-631.536	48.407	0.204	0.193
-630.522	83.047	-0.091	0.099
-629.507	45.003	0.052	-0.048
-628.492	562.343	0.108	0.263
-627.478	-97.413	0.296	0.077
-626.463	-200.000	0.021	-0.121
-625.449	151.147	-0.059	-0.081
-624.434	471.798	-0.074	-0.168
-623.419	63.657	-0.042	-0.043
-622.405	-61.488	-0.293	0.124
-621.390	709.229	0.115	-0.306
-620.376	-118.483	0.139	-0.025
-619.361	800.000	0.075	-0.277
-618.346	-200.000	0.008	0.376
-617.332	170.726	0.118	0.171
-616.317	22.451	0.172	-0.141
-615.303	-8.767	-0.063	-0.043
-614.288	-28.708	0.320	0.185
-613.273	-185.205	-0.441	0.007
-612.259	-60.622	0.080	-0.034
-611.244	73.058	-0.035	0.037
-610.230	771.756	0.075	0.205
-609.215	11.817	-0.095	-0.074
-608.201	488.452	0.039	0.091
-607.186	-200.000	-0.014	0.088
-606.171	-200.000	0.006	0.160
-605.157	-67.686	0.182	0.072
-604.142	685.515	-0.116	0.305
-603.128	800.000	0.090	0.348
-602.113	-200.000	-0.023	0.574
-601.098	-124.731	0.024	-0.004
-600.084	-145.747	-0.024	0.002
-599.069	-46.857	-0.233	-0.115
-598.055	-145.576	0.254	0.023
-597.040	24.941	0.158	-0.131
-596.025	392.338	-0.144	-0.302
-595.011	204.186	0.138	-0.215
-593.996	-200.000	-0.004	-0.124
-592.982	-67.147	-0.200	0.079
-591.967	344.039	-0.045	0.088
-590.952	800.000	0.074	-0.326
-589.938	-134.310	-0.165	0.020
-588.923	-92.901	-0.179	0.050
-587.909	-24.439	-0.082	0.049
-586.894	-200.000	0.001	0.186
-585.879	-100.609	-0.417	0.103
-584.865	468.771	-0.092	0.207
-583.850	-200.000	0.020	0.097
-582.836	800.000	-0.025	0.098
-581.821	496.017	-0.115	-0.265
-580.806	-75.197	0.208	-0.075
-579.792	-200.000	-0.003	-0.381
-578.777	-62.607	0.221	-0.092
-577.763	597.852	0.055	-0.138
-576.748	319.282	-0.121	0.232
-575.733	342.984	0.087	-0.171
-574.719	-200.000	-0.038	-0.304
-573.704	-34.719	-0.235	-0.129
-572.690	-91.966	0.207	-0.059
-571.675	800.000	-0.091	-0.321
-570.661	126.199	0.109	-0.138
-569.646	280.015	-0.147	0.265
-568.631	-98.103	0.152	-0.039
-567.617	-200.000	-0.000	-0.219
-566.602	57.745	-0.152	0.150
-565.588	34.334	-0.208	-0.183
-564.573	-116.661	0.177	0.033
-563.558	-0.422	0.207	0.148
-562.544	32.657	0.128	0.111
-561.529	800.000	0.135	0.460
-560.515	6.457	-0.116	-0.087
-559.500	101.489	-0.180	-0.210
-558.485	419.750	0.083	-0.178
-557.471	800.000	0.122	-0.411
-556.456	-142.447	0.071	-0.007
-555.442	-64.072	-0.242	-0.099
-554.427	-20.376	0.208	0.128
-553.412	-72.384	-0.038	-0.014
-552.398	-49.452	-0.318	0.152
-551.383	-49.574	0.122	-0.058
-550.369	-74.977	-0.311	0.112
-549.354	-200.000	-0.021	-0.224
-548.339	-110.910	-0.141	0.029
-547.325	-200.000	0.008	-0.293
-546.310	-9.116	-0.247	0.166
-545.296	-80.982	-0.360	-0.120
-544.281	-200.000	-0.028	0.281
-543.266	-200.000	-0.030	0.161
-542.252	116.436	0.173	0.213
-541.237	-114.738	0.233	0.045
-540.223	-75.117	-0.332	-0.119
-539.208	-200.000	0.003	-0.127
-538.193	-60.351	0.134	0.057
-537.179	198.506	-0.179	-0.275
-536.164	-60.807	-0.094	0.040
-535.150	108.270	0.115	-0.137
-534.135	64.631	0.222	0.224
-533.121	33.740	-0.107	-0.093
-532.106	-36.157	-0.302	-0.163
-531.091	-77.874	0.097	0.034
-530.077	-4.360	0.120	-0.083
-529.062	800.000	-0.087	-0.330
-528.048	-200.000	-0.031	0.152
-527.033	-87.424	-0.343	0.104
-526.018	-200.000	0.031	0.333
-525.004	-200.000	0.016	0.076
-523.989	-200.000	-0.010	0.087
-522.975	84.991	0.097	-0.107
-521.960	-110.105	-0.216	0.045
-520.945	-34.495	-0.383	0.210
-519.931	-99.783	0.245	-0.061
-518.916	800.000	0.041	-0.165
-517.902	532.616	-0.078	-0.185
-516.887	12.680	-0.182	0.141
-515.872	-47.822	-0.163	0.079
-514.858	409.415	0.211	-0.449
-513.843	182.611	0.145	-0.214
-512.829	800.000	0.038	0.141
-511.814	800.000	0.030	0.090
-510.799	159.719	0.297	0.414
-509.785	-50.138	-0.013	-0.006
-508.770	800.000	0.082	0.275
-507.756	-52.468	0.215	-0.100
-506.741	-200.000	0.011	0.073
-505.726	30.448	0.123	0.106
-504.712	-7.892	0.337	-0.228
-503.697	-200.000	0.003	-0.122
-502.683	-200.000	0.024	0.278
-501.668	216.349	0.136	-0.217
-500.653	158.324	-0.151	-0.209
-499.639	-194.762	0.199	-0.002
-498.624	157.230	0.141	0.195
-497.610	48.452	0.116	-0.109
-496.595	-111.020	0.400	-0.082
-495.581	-85.024	0.169	0.053
-494.566	-81.892	0.086	0.028
-493.551	-200.000	0.054	-0.414
-492.537	-200.000	0.025	0.177
-491.522	-186.787	0.195	-0.003
-490.508	-145.751	-0.185	0.017
-489.493	182.721	0.041	0.060
-488.478	15.362	0.147	0.116
-487.464	-171.603	-0.110	-0.004
-486.449	-43.852	-0.310	-0.156
-485.435	-8.441	-0.014	-0.009
-484.420	72.722	0.287	0.300
-483.405	-116.489	0.269	0.050
-482.391	76.133	0.127	0.135
-481.376	154.873	0.157	-0.216
-480.362	-125.486	-0.189	0.029
-479.347	-105.161	0.341	0.078
-478.332	0.367	-0.111	-0.079
-477.318	27.204	0.081	-0.068
-476.303	-61.192	-0.277	-0.117
-475.289	800.000	0.076	-0.232
-474.274	-200.000	-0.008	-0.230
-473.259	-95.065	-0.209	0.056
-472.245	-153.984	0.327	-0.022
-471.230	-81.528	0.276	0.091
-470.216	-87.828	0.224	-0.068
-469.201	79.836	-0.199	-0.214
-468.186	-28.205	-0.088	0.051
-467.172	-107.184	-0.158	0.035
-466.157	-81.180	0.250	0.083
-465.143	-111.996	0.119	0.024
-464.128	106.789	-0.294	0.349
-463.113	222.502	-0.072	0.116
-462.099	554.805	-0.030	-0.073
-461.084	-38.968	-0.107	0.056
-460.070	469.473	-0.096	-0.215
-459.055	270.583	-0.158	-0.279
-458.040	18.390	-0.153	0.122
-457.026	-141.552	0.158	0.016
-456.011	397.404	0.085	-0.178
-454.997	156.307	-0.321	-0.443
-453.982	248.510	-0.054	-0.091
-452.968	325.122	-0.095	0.181
-451.953	377.056	-0.050	-0.102
-450.938	-17.794	0.226	0.142
-449.924	-72.110	-0.157	-0.058
-448.909	96.617	0.054	0.062
-447.895	34.953	0.192	-0.168
-446.880	169.609	-0.158	0.225
-445.865	377.195	-0.116	0.237
-444.851	-13.665	0.156	-0.101
-443.836	26.445	0.198	-0.165
-442.822	232.477	-0.046	0.076
-441.807	800.000	-0.066	-0.198
-440.792	93.897	0.100	0.113
-439.778	663.079	0.192	-0.494
-438.763	48.843	-0.158	0.148
-437.749	31.924	-0.178	0.153
-436.734	200.357	-0.135	0.207
-435.719	-200.000	-0.024	0.165
-434.705	-148.319	0.221	0.018
-433.690	800.000	-0.034	0.111
-432.676	352.541	0.079	-0.157
-431.661	24.321	0.207	0.171
-430.646	-200.000	0.015	0.249
-429.632	42.421	0.147	-0.134
-428.617	519.324	0.100	-0.233
-427.603	-200.000	-0.013	0.389
-426.588	-200.000	-0.014	0.279
-425.573	-90.092	-0.176	0.051
-424.559	134.449	0.109	-0.141
-423.544	61.878	0.311	0.309
-422.530	506.748	-0.080	-0.186
-421.515	800.000	0.158	0.483
-420.500	-139.694	0.239	-0.025
-419.486	-48.632	-0.201	-0.097
-418.471	-83.625	-0.279	0.089
-417.457	-200.000	-0.094	0.520
-416.442	800.000	-0.054	0.172
-415.428	-161.291	0.436	0.023
-414.413	-200.000	0.022	-0.144
-413.398	-59.278	-0.117	0.050
-412.384	134.164	0.061	0.079
-411.369	71.534	0.098	0.101
-410.355	-11.235	0.165	0.108
-409.340	-200.000	0.011	-0.117
-408.325	76.140	0.015	-0.016
-407.311	64.069	0.047	-0.048
-406.296	800.000	-0.104	-0.338
-405.282	800.000	-0.061	0.229
-404.267	220.963	-0.181	-0.290
-403.252	-141.359	0.349	0.035
-402.238	-87.407	0.228	-0.069
-401.223	358.426	-0.079	0.158
-400.209	10.392	0.226	0.172
-399.194	251.088	0.026	0.045
-398.179	-200.000	0.018	-0.201
-397.165	-128.103	-0.159	-0.023
-396.150	89.968	-0.065	0.072
-395.136	-67.524	-0.211	-0.083
-394.121	-118.121	-0.170	0.030
-393.106	800.000	-0.040	-0.117
-392.092	-126.755	-0.268	-0.040
-391.077	4.879	-0.135	-0.099
-390.063	-43.067	0.117	0.059
-389.048	-47.643	0.408	0.198
-388.033	-200.000	-0.043	0.249
-387.019	47.592	-0.144	0.134
-386.004	350.815	-0.202	0.399
-384.990	800.000	-0.056	-0.156
-383.975	-198.784	0.175	0.001
-382.960	-200.000	0.011	0.216
-381.946	-104.879	-0.017	-0.004
-380.931	-127.760	-0.109	0.016
-379.917	-132.199	-0.193	0.025
-378.902	-46.134	0.234	0.115
-377.888	109.282	0.092	-0.109
-376.873	-200.000	-0.039	-0.202
-375.858	-200.000	0.030	-0.292
-374.844	4.809	-0.115	0.084
-373.829	122.685	-0.049	-0.061
-372.815	268.265	0.153	0.268
-371.800	394.769	0.110	-0.228
-370.785	-200.000	-0.036	0.171
-369.771	-200.000	0.013	-0.318
-368.756	319.920	-0.067	-0.126
-367.742	304.471	-0.093	-0.172
-366.727	-6.360	-0.379	-0.258
-365.712	306.940	-0.020	0.037
-364.698	146.287	0.139	-0.186
-363.683	-200.000	-0.002	-0.077
-362.669	54.321	-0.116	-0.111
-361.654	-0.949	-0.075	-0.053
-360.639	-149.867	-0.241	0.019
-359.625	-50.120	0.288	-0.136
-358.610	-90.282	-0.588	0.170
-357.596	699.495	-0.140	-0.368
-356.581	-125.637	0.140	-0.021
-355.566	57.771	-0.040	-0.039
-354.552	-145.515	-0.342	-0.031
-353.537	-70.106	0.279	0.106
-352.523	-117.163	0.363	-0.066
-351.508	-11.902	-0.041	0.027
-350.493	-12.651	0.209	0.136
-349.479	-75.126	0.200	0.071
-348.464	-145.198	0.310	-0.028
-347.450	170.088	-0.251	0.358
-346.435	400.311	0.170	-0.356
-345.420	-82.960	-0.114	-0.037
-344.406	-105.476	-0.097	0.022
-343.391	259.550	0.025	-0.044
-342.377	800.000	0.132	-0.364
-341.362	-134.788	0.075	-0.009
-340.348	107.350	0.289	0.342
-339.333	484.577	0.078	-0.178
-338.318	-142.772	0.174	0.017
-337.304	-26.824	-0.187	-0.109
-336.289	68.202	-0.050	0.051
-335.275	-100.774	-0.228	-0.056
-334.260	-85.257	-0.138	-0.043
-333.245	-72.359	0.123	-0.045
-332.231	83.966	-0.166	0.181
-331.216	-200.000	-0.008	0.136
-330.202	-26.098	0.179	-0.105
-329.187	12.955	0.147	-0.113
-328.172	-113.730	-0.284	0.055
-327.158	-16.201	-0.370	-0.234
-326.143	523.882	-0.117	-0.273
-325.129	-45.282	0.122	0.060
-324.114	800.000	-0.015	0.050
-323.099	-200.000	0.000	0.192
-322.085	46.473	0.152	-0.140
-321.070	-200.000	0.038	0.293
-320.056	121.238	-0.050	-0.062
-319.041	-200.000	0.019	0.232
-318.026	-200.000	-0.000	-0.070
-317.012	-18.246	-0.087	-0.054
-315.997	-21.304	-0.140	-0.085
-314.983	-38.974	0.116	-0.061
-313.968	-200.000	-0.001	-0.046
-312.953	72.611	-0.295	-0.306
-311.939	-158.320	0.414	0.024
-310.924	-200.000	-0.042	0.397
-309.910	8.433	-0.059	-0.044
-308.895	800.000	-0.057	-0.171
-307.880	800.000	-0.009	-0.026
-306.866	-134.412	0.200	0.024
-305.851	253.506	-0.052	-0.089
-304.837	-200.000	-0.020	0.209
-303.822	-120.431	-0.101	-0.017
-302.807	83.315	0.100	-0.108
-301.793	-200.000	-0.012	0.381
-300.778	224.088	-0.152	0.244
-299.764	-13.345	0.100	0.065
-298.749	-156.401	-0.209	-0.013
-297.735	800.000	-0.063	-0.219
-296.720	-200.000	0.001	-0.141
-295.705	-12.462	-0.067	-0.043
-294.691	-136.055	0.170	-0.020
-293.676	64.027	0.378	0.378
-292.662	-149.742	0.092	-0.007
-291.647	-200.000	-0.094	-0.457
-290.632	-200.000	-0.022	0.098
-289.618	185.156	-0.150	0.221
-288.603	-200.000	-0.022	0.185
-287.589	-119.933	-0.176	0.030
-286.574	206.056	0.101	-0.157
-285.559	-200.000	-0.391	0.001
-284.545	-200.000	-0.004	0.129
-283.530	800.000	-0.023	0.099
-282.516	93.957	-0.121	0.136
-281.501	-65.088	0.325	-0.130
-280.486	-200.000	0.025	0.112
-279.472	800.000	-0.042	-0.128
-278.457	-62.920	0.104	-0.043
-277.443	-10.006	-0.224	0.148
-276.428	48.305	0.083	0.077
-275.413	-76.124	0.084	0.029
-274.399	240.708	-0.134	0.221
-273.384	-200.000	-0.012	-0.172
-272.370	-140.160	-0.311	0.032
-271.355	413.723	0.103	0.217
-270.340	-71.265	-0.150	0.056
-269.326	-76.996	-0.191	0.066
-268.311	281.469	-0.036	-0.064
-267.297	-106.134	0.294	0.065
-266.282	45.682	-0.075	0.069
-265.267	-81.169	-0.517	-0.170
-264.253	-60.509	0.388	0.164
-263.238	53.599	-0.319	0.303
-262.224	800.000	0.086	-0.334
-261.209	-72.016	-0.096	-0.036
-260.195	-108.882	-0.126	0.027
-259.180	-36.407	0.126	0.067
-258.165	590.089	0.066	0.162
-257.151	-141.202	0.305	-0.031
-256.136	-200.000	-0.038	-0.213
-255.122	121.259	-0.271	-0.335
-254.107	-200.000	0.003	-0.238
-253.092	-162.090	0.156	-0.008
-252.078	-200.000	0.058	0.331
-251.063	-118.259	0.443	0.078
-250.049	-18.717	-0.056	-0.034
-249.034	-68.644	0.213	0.082
-248.019	-113.089	-0.283	0.055
-247.005	622.844	0.015	0.038
-245.990	-200.000	0.021	0.318
-244.976	-132.901	0.124	0.016
-243.961	-119.342	0.092	-0.016
-242.946	62.367	0.260	0.258
-241.932	-35.274	0.090	-0.049
-240.917	117.931	0.048	-0.059
-239.903	-91.980	0.150	0.042
-238.888	-200.000	-0.024	-0.166
-237.873	-200.000	0.005	-0.078
-236.859	-48.003	-0.106	-0.051
-235.844	-121.233	0.351	-0.058
-234.830	165.487	0.118	-0.166
-233.815	668.076	-0.084	0.215
-232.800	-57.220	0.091	-0.040
-231.786	556.044	0.008	-0.018
-230.771	-147.834	0.366	-0.030
-229.757	20.870	-0.094	-0.076
-228.742	398.487	-0.180	-0.374
-227.727	84.361	0.114	-0.124
-226.713	-200.000	-0.114	0.591
-225.698	-102.665	0.202	0.048
-224.684	-108.818	-0.168	-0.036
-223.669	339.019	-0.065	0.125
-222.655	-200.000	0.017	0.317
-221.640	25.026	-0.252	0.207
-220.625	-135.983	0.035	0.004
-219.611	184.707	0.218	0.320
-218.596	-114.364	-0.314	0.060
-217.582	167.050	-0.086	-0.121
-216.567	800.000	0.052	-0.195
-215.552	236.520	0.105	-0.172
-214.538	-43.940	-0.303	0.151
-213.523	-66.815	0.399	-0.156
-212.509	-41.360	0.334	0.171
-211.494	-200.000	-0.011	-0.165
-210.479	-55.058	-0.501	-0.224
-209.465	63.353	-0.042	-0.041
-208.450	132.806	0.117	-0.150
-207.436	-152.903	0.626	0.044
-206.421	-114.303	0.119	0.023
-205.406	-200.000	0.043	-0.290
-204.392	-123.035	-0.079	0.013
-203.377	244.770	-0.150	0.249
-202.363	548.513	-0.009	-0.020
-201.348	406.412	-0.186	0.388
-200.333	800.000	0.086	-0.365
-199.319	-178.122	-0.181	0.004
-198.304	-200.000	0.045	0.237
-197.290	82.883	-0.203	-0.219
-196.275	26.205	0.164	0.136
-195.260	82.030	-0.335	-0.360
-194.246	478.850	0.172	0.385
-193.231	401.046	0.165	-0.343
-192.217	40.304	0.099	-0.088
-191.202	79.107	-0.250	0.266
-190.187	-7.298	-0.240	0.161
-189.173	74.883	0.247	0.258
-188.158	193.274	0.152	0.227
-187.144	-70.037	0.117	0.044
-186.129	-200.000	0.024	-0.213
-185.114	-200.000	0.068	0.334
-184.100	800.000	-0.017	-0.063
-183.085	-7.252	-0.379	-0.254
-182.071	57.031	-0.323	-0.311
-181.056	332.479	-0.059	-0.112
-180.042	337.997	0.104	0.201
-179.027	2.981	0.244	0.176
-178.012	33.845	0.151	-0.130
-176.998	-30.309	-0.250	-0.141
-175.983	-116.765	-0.187	-0.034
-174.969	213.898	0.102	0.160
-173.954	-24.116	-0.155	-0.091
-172.939	-200.000	-0.011	0.089
-171.925	-55.464	-0.168	-0.075
-170.910	-12.890	-0.422	-0.272
-169.896	-155.708	-0.060	-0.004
-168.881	294.797	-0.089	-0.162
-167.866	-67.305	0.118	0.046
-166.852	-200.000	-0.000	0.112
-165.837	-54.239	0.194	-0.087
-164.823	-77.090	-0.253	-0.087
-163.808	170.055	0.107	0.151
-162.793	37.381	-0.318	-0.279
-161.779	94.385	0.152	-0.171
-160.764	-200.000	-0.052	0.300
-159.750	-200.000	-0.064	-0.291
-158.735	175.215	-0.039	-0.057
-157.720	-31.305	0.277	-0.154
-156.706	41.981	-0.046	-0.041
-155.691	81.053	-0.047	-0.051
-154.677	-50.266	0.098	-0.046
-153.662	-200.000	-0.015	0.163
-152.647	-39.709	-0.034	0.017
-151.633	407.872	-0.100	0.208
-150.618	-53.758	0.256	-0.116
-149.604	-59.880	0.124	-0.052
-148.589	-134.254	-0.073	0.009
-147.574	-169.860	0.211	-0.007
-146.560	-124.354	-0.086	0.013
-145.545	0.739	0.222	0.157
-144.531	800.000	-0.047	-0.170
-143.516	-129.888	0.241	-0.033
-142.502	-17.509	0.144	-0.089
-141.487	-200.000	-0.026	-0.115
-140.472	-73.073	0.237	-0.086
-139.458	-142.304	0.254	-0.025
-138.443	-9.901	-0.212	0.139
-137.429	-183.728	-0.163	-0.003
-136.414	-63.582	0.460	0.186
-135.399	-128.129	-0.179	-0.025
-134.385	800.000	0.042	0.151
-133.370	-111.138	0.307	0.062
-132.356	45.244	-0.216	0.197
-131.341	150.414	0.026	-0.035
-130.326	800.000	0.089	-0.291
-129.312	513.923	-0.025	0.058
-128.297	-17.461	0.301	-0.187
-127.283	-13.760	-0.146	0.094
-126.268	800.000	-0.067	0.244
-125.253	-31.968	0.234	0.129
-124.239	-200.000	0.007	-0.102
-123.224	-200.000	0.015	0.108
-122.210	251.654	-0.011	0.018
