DTS Sentinel unit serial number:	SN413079Multiplexer serial number:	ORYXHardware model number:	OX4-SRSoftware version number:	ORYX F/W v4.00 Oryx Data Collector v3.7.2.0data status	okinstallation	princeton_trtdifferential loss correction	single-endedforward channel	channel 2reverse channel	N/Adate	2019/09/10time	15:37:11forward acquisition time	60.00reverse acquisition time	0.00gamma	496.2192k internal	0.2307k external	0.2307temperature offset calibration	0.9943default loss term (dB/km)	0.3790temperature slope calibration	1.0000multiplexer offset coefficient	1.0000multiplexer slope coefficient	1.0000fibre end	0.00T internal ref (°C)	38.00T ext. ref 1 (°C)	-0.23T ext. ref 2 (°C)	31.92length (m)	temperature (°C)	Stokes	anti-Stokes-747.200	301.885	-0.096	0.181
-746.185	151.502	0.047	0.065
-745.171	114.652	0.173	-0.214
-744.156	64.898	-0.103	-0.105
-743.142	-58.012	0.293	0.130
-742.127	136.008	-0.281	0.372
-741.112	-200.000	0.027	0.270
-740.098	491.732	-0.186	0.432
-739.083	-200.000	0.015	0.090
-738.069	39.879	-0.131	0.119
-737.054	178.350	-0.167	-0.248
-736.039	-200.000	0.034	-0.219
-735.025	-52.903	0.068	-0.032
-734.010	800.000	0.061	-0.180
-732.996	800.000	-0.103	-0.289
-731.981	722.782	-0.130	-0.352
-730.966	381.638	-0.133	0.278
-729.952	-48.111	0.350	0.172
-728.937	19.794	-0.272	-0.223
-727.923	230.211	-0.122	0.203
-726.908	-200.000	-0.001	-0.052
-725.894	134.007	-0.263	-0.347
-724.879	-200.000	0.005	0.178
-723.864	800.000	-0.065	0.272
-722.850	535.670	-0.087	0.209
-721.835	71.069	-0.325	0.342
-720.821	56.958	0.086	0.085
-719.806	-200.000	-0.045	0.247
-718.791	-158.129	0.039	0.002
-717.777	-200.000	-0.020	0.091
-716.762	-93.797	0.152	-0.043
-715.748	253.096	0.121	-0.210
-714.733	23.671	0.185	0.155
-713.718	-138.146	0.261	-0.029
-712.704	800.000	-0.097	-0.317
-711.689	800.000	-0.079	-0.330
-710.675	-200.000	-0.010	-0.121
-709.660	-28.201	-0.087	-0.051
-708.645	11.745	-0.156	-0.121
-707.631	-61.943	-0.233	-0.099
-706.616	-149.396	-0.203	-0.016
-705.602	-35.597	-0.143	-0.079
-704.587	7.113	0.238	-0.180
-703.572	85.246	-0.155	0.173
-702.558	-50.307	-0.167	0.080
-701.543	-80.299	-0.360	0.122
-700.529	-87.181	-0.367	-0.113
-699.514	621.602	-0.081	0.208
-698.499	316.551	0.023	0.045
-697.485	-200.000	0.002	-0.112
-696.470	428.827	0.116	0.254
-695.456	-200.000	0.018	0.261
-694.441	-7.390	0.144	0.099
-693.426	-16.823	-0.301	-0.193
-692.412	242.418	0.070	-0.119
-691.397	98.633	-0.151	0.176
-690.383	51.343	-0.127	-0.122
-689.368	-80.721	-0.448	0.151
-688.354	800.000	0.087	-0.247
-687.339	-28.796	-0.275	-0.160
-686.324	-68.769	0.213	-0.084
-685.310	-159.530	0.291	-0.016
-684.295	743.371	-0.029	0.078
-683.281	99.544	0.033	-0.039
-682.266	-85.016	0.185	0.059
-681.251	46.215	-0.127	-0.119
-680.237	759.040	-0.034	0.093
-679.222	-126.007	-0.278	-0.042
-678.208	108.416	0.036	0.044
-677.193	52.706	-0.115	0.111
-676.178	-45.294	-0.097	0.049
-675.164	-39.016	0.041	-0.022
-674.149	-20.781	-0.259	-0.161
-673.135	206.818	0.117	-0.185
-672.120	159.784	-0.104	0.146
-671.105	109.595	-0.133	-0.162
-670.091	-104.191	0.066	-0.015
-669.076	16.006	-0.166	0.132
-668.062	-200.000	-0.053	0.487
-667.047	800.000	0.123	-0.412
-666.032	466.322	0.034	-0.077
-665.018	-106.834	-0.089	-0.020
-664.003	-200.000	-0.139	-0.000
-662.989	641.180	-0.023	-0.059
-661.974	-200.000	-0.003	-0.070
-660.959	-123.299	0.252	0.041
-659.945	-22.263	-0.112	-0.069
-658.930	-152.097	0.195	-0.014
-657.916	-110.748	-0.134	0.028
-656.901	484.398	-0.144	-0.333
-655.886	-181.991	0.420	-0.008
-654.872	-57.882	-0.108	0.048
-653.857	-120.246	0.249	-0.043
-652.843	-162.417	-0.255	0.013
-651.828	-200.000	0.016	-0.310
-650.814	-104.177	0.332	0.078
-649.799	-40.067	0.094	-0.050
-648.784	-33.670	-0.133	0.074
-647.770	-200.000	-0.011	0.112
-646.755	81.682	-0.176	-0.193
-645.741	21.421	-0.037	0.030
-644.726	-200.000	-0.093	0.547
-643.711	417.523	0.120	-0.259
-642.697	-121.913	0.363	-0.061
-641.682	44.591	-0.067	0.062
-640.668	-200.000	-0.039	0.414
-639.653	-200.000	-0.006	-0.267
-638.638	-200.000	0.053	-0.266
-637.624	140.253	-0.191	-0.255
-636.609	-200.000	-0.033	-0.217
-635.595	-200.000	-0.023	-0.245
-634.580	-200.000	-0.003	-0.173
-633.565	-200.000	0.047	0.264
-632.551	-200.000	0.035	-0.187
-631.536	-14.548	-0.360	-0.235
-630.522	-61.994	0.332	0.140
-629.507	454.975	0.077	-0.173
-628.492	-51.838	0.122	-0.057
-627.478	131.346	-0.095	0.123
-626.463	-200.000	-0.014	0.070
-625.449	-48.697	0.120	-0.058
-624.434	33.533	-0.152	0.134
-623.419	800.000	-0.044	0.132
-622.405	-200.000	0.013	0.170
-621.390	512.073	-0.113	-0.267
-620.376	3.002	0.132	-0.097
-619.361	180.848	-0.095	0.142
-618.346	-62.535	-0.153	0.064
-617.332	800.000	-0.050	0.178
-616.317	139.868	0.043	-0.057
-615.303	-53.278	0.134	0.062
-614.288	-102.768	0.079	-0.019
-613.273	205.302	0.055	-0.087
-612.259	125.413	0.242	0.309
-611.244	-77.482	0.237	0.083
-610.230	245.890	-0.017	0.029
-609.215	-50.341	0.126	-0.060
-608.201	-23.553	0.059	-0.036
-607.186	101.930	0.040	-0.048
-606.171	-200.000	-0.019	-0.099
-605.157	-115.792	0.268	0.051
-604.142	-37.735	-0.260	0.140
-603.128	8.278	0.084	0.064
-602.113	215.843	-0.133	-0.214
-601.098	3.139	-0.038	-0.028
-600.084	682.088	-0.073	-0.192
-599.069	198.201	0.121	0.187
-598.055	244.195	-0.161	-0.273
-597.040	177.866	-0.123	0.181
-596.025	-153.216	-0.085	0.006
-595.011	-120.619	-0.027	-0.005
-593.996	224.242	0.130	-0.212
-592.982	-34.948	0.106	-0.058
-591.967	-49.377	-0.077	0.037
-590.952	422.743	-0.138	0.299
-589.938	-49.669	-0.183	0.088
-588.923	90.978	0.074	0.083
-587.909	800.000	0.145	0.406
-586.894	-155.054	0.222	-0.015
-585.879	624.054	-0.108	-0.274
-584.865	-37.371	-0.131	-0.071
-583.850	-73.858	-0.275	-0.101
-582.836	-200.000	0.008	-0.188
-581.821	51.937	-0.039	0.037
-580.806	-200.000	0.027	-0.164
-579.792	320.979	0.004	0.007
-578.777	-200.000	0.234	-0.001
-577.763	-165.241	-0.208	0.009
-576.748	218.490	0.116	-0.187
-575.733	240.350	-0.091	0.153
-574.719	-200.000	0.029	-0.289
-573.704	275.453	-0.096	0.172
-572.690	-58.617	0.430	-0.188
-571.675	-200.000	0.019	0.427
-570.661	-200.000	0.027	0.231
-569.646	-44.322	-0.168	0.085
-568.631	-57.256	-0.317	-0.141
-567.617	-187.359	-0.081	0.001
-566.602	65.069	-0.101	-0.103
-565.588	-177.740	-0.057	0.001
-564.573	66.985	-0.150	0.154
-563.558	-200.000	0.033	-0.307
-562.544	-77.305	-0.323	0.114
-561.529	-200.000	0.015	0.257
-560.515	337.771	-0.039	0.077
-559.500	42.847	-0.148	0.136
-558.485	24.001	0.235	0.195
-557.471	135.772	0.284	0.374
-556.456	-59.621	-0.312	-0.135
-555.442	666.949	0.094	0.246
-554.427	60.366	0.097	0.097
-553.412	-123.042	0.116	-0.019
-552.398	-78.894	0.171	-0.059
-551.383	-18.399	0.118	0.074
-550.369	-200.000	-0.017	0.194
-549.354	94.449	-0.246	-0.282
-548.339	-200.000	-0.048	-0.244
-547.325	-4.083	-0.087	-0.061
-546.310	-200.000	-0.027	-0.175
-545.296	108.592	0.040	-0.049
-544.281	-145.965	-0.256	-0.023
-543.266	-200.000	-0.045	-0.216
-542.252	-65.989	-0.088	0.036
-541.237	43.143	0.223	0.205
-540.223	197.419	0.088	0.135
-539.208	42.731	-0.158	-0.145
-538.193	-3.455	0.048	0.033
-537.179	800.000	0.099	-0.388
-536.164	279.229	0.026	0.047
-535.150	68.411	-0.199	0.206
-534.135	452.070	-0.086	-0.191
-533.121	35.038	-0.053	0.047
-532.106	530.570	-0.040	-0.094
-531.091	-200.000	-0.014	0.096
-530.077	-45.617	-0.203	-0.101
-529.062	-200.000	0.062	0.317
-528.048	-42.202	-0.137	-0.071
-527.033	-200.000	0.088	0.423
-526.018	-5.248	0.199	0.138
-525.004	39.399	0.131	-0.119
-523.989	-24.101	-0.050	0.030
-522.975	-30.167	-0.211	-0.121
-521.960	613.055	0.059	-0.148
-520.945	-40.786	0.228	-0.119
-519.931	-92.003	0.387	-0.111
-518.916	207.285	0.322	0.506
-517.902	118.471	0.166	-0.206
-516.887	-200.000	0.051	0.266
-515.872	800.000	0.128	0.558
-514.858	149.237	0.106	0.144
-513.843	39.739	0.269	-0.243
-512.829	239.641	0.046	-0.078
-511.814	-154.059	-0.138	0.009
-510.799	-200.000	0.031	-0.168
-509.785	800.000	-0.121	-0.352
-508.770	348.010	0.061	-0.121
-507.756	678.602	0.072	0.189
-506.741	-107.547	-0.108	0.024
-505.726	-175.917	-0.257	-0.007
-504.712	-52.847	-0.197	0.091
-503.697	-200.000	-0.026	-0.120
-502.683	212.478	0.206	-0.327
-501.668	-200.000	-0.028	0.197
-500.653	45.080	0.169	0.157
-499.639	800.000	-0.033	0.126
-498.624	83.611	-0.062	0.068
-497.610	27.340	-0.198	-0.167
-496.595	800.000	0.104	0.297
-495.581	-7.990	-0.157	0.107
-494.566	-102.598	0.421	-0.101
-493.551	73.321	-0.094	0.099
-492.537	249.799	0.157	-0.268
-491.522	68.181	-0.153	0.158
-490.508	643.912	-0.080	-0.205
-489.493	152.012	-0.070	0.096
-488.478	-115.222	-0.345	0.066
-487.464	118.940	-0.272	0.338
-486.449	409.754	0.058	0.124
-485.435	-178.059	0.283	0.007
-484.420	-112.533	0.126	-0.025
-483.405	104.736	-0.017	-0.020
-482.391	-200.000	-0.025	0.250
-481.376	391.261	0.202	-0.422
-480.362	320.668	-0.052	-0.100
-479.347	24.898	0.070	0.058
-478.332	-120.711	-0.242	-0.041
-477.318	-200.000	0.028	0.281
-476.303	-200.000	-0.049	-0.308
-475.289	-19.233	0.052	0.032
-474.274	-67.019	-0.273	0.108
-473.259	80.310	-0.223	-0.242
-472.245	23.706	0.132	-0.110
-471.230	-200.000	0.066	-0.314
-470.216	273.693	0.031	-0.056
-469.201	-68.054	0.045	0.018
-468.186	-148.288	0.286	-0.024
-467.172	236.826	-0.075	0.125
-466.157	-151.422	0.164	-0.012
-465.143	657.226	-0.043	0.112
-464.128	-153.494	-0.433	-0.030
-463.113	-200.000	-0.008	-0.186
-462.099	47.081	-0.160	-0.150
-461.084	763.534	-0.098	-0.266
-460.070	-115.377	0.236	-0.045
-459.055	-35.185	0.090	-0.049
-458.040	132.312	0.032	0.042
-457.026	58.877	-0.207	-0.205
-456.011	25.968	-0.073	-0.061
-454.997	-67.295	0.181	0.072
-453.982	370.812	-0.112	0.227
-452.968	203.189	0.175	-0.272
-451.953	-56.540	0.048	-0.022
-450.938	-15.829	-0.127	-0.082
-449.924	-21.066	-0.049	0.030
-448.909	107.435	0.219	0.262
-447.895	-200.000	0.021	0.406
-446.880	561.792	-0.019	0.047
-445.865	-99.102	-0.286	0.073
-444.851	800.000	-0.081	0.237
-443.836	-200.000	0.004	-0.019
-442.822	208.774	-0.105	-0.166
-441.807	800.000	-0.046	-0.171
-440.792	800.000	0.008	0.022
-439.778	82.241	-0.055	0.060
-438.763	800.000	0.008	-0.031
-437.749	-76.236	0.202	-0.071
-436.734	30.608	0.171	0.147
-435.719	-64.611	0.292	-0.119
-434.705	248.878	-0.094	-0.160
-433.690	222.067	0.195	-0.314
-432.676	-46.185	0.254	0.125
-431.661	202.429	-0.035	0.055
-430.646	16.614	-0.145	-0.115
-429.632	-200.000	-0.020	-0.343
-428.617	-11.677	0.035	0.023
-427.603	-4.099	-0.174	0.121
-426.588	-55.038	-0.194	-0.088
-425.573	7.647	0.127	0.096
-424.559	-37.037	-0.018	-0.010
-423.544	128.305	0.100	-0.127
-422.530	13.333	-0.166	-0.129
-421.515	250.253	0.142	-0.242
-420.500	159.976	0.131	0.184
-419.486	800.000	0.023	-0.101
-418.471	-3.371	-0.139	0.098
-417.457	207.186	0.133	0.208
-416.442	238.523	0.125	-0.209
-415.428	-11.573	0.059	0.039
-414.413	142.603	-0.163	-0.218
-413.398	30.234	0.079	-0.068
-412.384	-200.000	-0.013	-0.380
-411.369	800.000	0.023	-0.084
-410.355	-177.464	-0.329	0.008
-409.340	-60.998	0.190	-0.080
-408.325	67.046	-0.124	0.127
-407.311	686.659	-0.116	0.304
-406.296	-118.156	0.199	0.036
-405.282	84.305	0.139	-0.152
-404.267	-200.000	0.009	-0.230
-403.252	28.241	-0.319	-0.270
-402.238	124.607	0.168	-0.213
-401.223	60.508	-0.156	0.155
-400.209	453.807	0.042	0.094
-399.194	162.346	-0.068	0.096
-398.179	800.000	-0.057	-0.246
-397.165	-179.727	0.114	-0.002
-396.150	3.048	-0.234	0.170
-395.136	19.390	0.092	-0.074
-394.121	-200.000	-0.286	0.001
-393.106	71.522	-0.176	0.183
-392.092	22.161	-0.077	-0.063
-391.077	70.499	0.108	-0.112
-390.063	800.000	0.077	0.258
-389.048	561.520	-0.053	0.128
-388.033	110.050	0.104	-0.126
-387.019	-200.000	-0.045	0.207
-386.004	441.197	-0.106	-0.232
-384.990	-200.000	0.015	-0.179
-383.975	-46.455	0.175	-0.086
-382.960	-128.868	-0.117	0.017
-381.946	-63.047	0.090	-0.037
-380.931	-95.540	-0.072	-0.019
-379.917	-122.133	0.154	-0.025
-378.902	245.702	0.147	0.248
-377.888	-200.000	-0.113	-0.507
-376.873	-60.995	0.224	-0.095
-375.858	-14.162	-0.141	-0.091
-374.844	-200.000	-0.015	-0.224
-373.829	-200.000	0.025	0.131
-372.815	10.199	0.244	-0.186
-371.800	-200.000	-0.028	-0.190
-370.785	-124.891	-0.045	0.007
-369.771	8.433	-0.161	-0.121
-368.756	-30.201	0.065	0.037
-367.742	-54.594	0.129	0.059
-366.727	339.158	0.064	-0.126
-365.712	-200.000	-0.092	0.442
-364.698	-200.000	0.002	0.280
-363.683	135.368	0.108	0.141
-362.669	344.434	0.016	-0.032
-361.654	-139.178	0.220	-0.024
-360.639	-39.894	0.066	-0.035
-359.625	-47.881	0.184	-0.089
-358.610	-80.192	-0.247	0.083
-357.596	-73.424	-0.205	0.075
-356.581	-2.097	-0.353	-0.248
-355.566	191.719	-0.082	-0.124
-354.552	496.688	0.147	-0.339
-353.537	-19.819	0.299	-0.185
-352.523	-28.046	0.225	-0.130
-351.508	800.000	-0.081	0.247
-350.493	330.798	0.108	-0.209
-349.479	211.778	-0.036	-0.056
-348.464	-36.307	0.221	-0.119
-347.450	-32.548	0.010	0.006
-346.435	-200.000	0.018	0.497
-345.420	421.648	0.059	0.127
-344.406	297.577	-0.068	0.125
-343.391	800.000	0.117	0.342
-342.377	-154.280	-0.144	0.010
-341.362	158.836	-0.241	0.335
-340.348	-62.095	-0.073	0.030
-339.333	-197.816	0.158	-0.001
-338.318	-127.062	-0.147	0.022
-337.304	96.985	0.085	0.097
-336.289	-45.731	0.035	-0.017
-335.275	25.307	0.054	-0.045
-334.260	124.313	-0.189	-0.238
-333.245	-116.886	-0.132	0.024
-332.231	82.342	0.055	-0.060
-331.216	114.370	0.086	0.104
-330.202	496.621	-0.012	0.027
-329.187	-18.500	-0.064	-0.040
-328.172	39.117	-0.132	0.118
-327.158	-143.152	-0.153	-0.015
-326.143	-200.000	-0.017	-0.154
-325.129	800.000	0.119	0.400
-324.114	308.720	-0.082	-0.153
-323.099	133.843	-0.143	-0.185
-322.085	-200.000	-0.004	-0.198
-321.070	129.096	-0.062	0.079
-320.056	-200.000	-0.033	-0.196
-319.041	-15.008	0.248	0.159
-318.026	-105.584	0.193	-0.044
-317.012	-200.000	-0.007	0.033
-315.997	633.836	0.138	0.350
-314.983	-200.000	-0.035	0.289
-313.968	673.633	-0.108	0.280
-312.953	624.387	-0.186	-0.469
-311.939	-200.000	-0.019	0.156
-310.924	107.167	-0.256	-0.304
-309.910	-200.000	-0.005	-0.144
-308.895	-200.000	0.006	-0.058
-307.880	800.000	0.019	-0.052
-306.866	-130.377	0.198	0.027
-305.851	-149.407	0.236	0.019
-304.837	-141.967	0.230	-0.023
-303.822	-163.744	-0.241	0.011
-302.807	167.505	0.023	-0.033
-301.793	-102.558	-0.195	0.046
-300.778	14.291	0.283	-0.220
-299.764	429.234	-0.072	-0.156
-298.749	598.731	0.233	-0.578
-297.735	-168.770	-0.447	-0.017
-296.720	-122.416	-0.215	-0.035
-295.705	191.647	-0.171	0.258
-294.691	100.769	-0.330	-0.383
-293.676	-200.000	-0.051	-0.230
-292.662	8.654	-0.250	0.188
-291.647	-97.076	-0.285	-0.074
-290.632	-53.616	-0.230	-0.105
-289.618	-200.000	-0.037	-0.198
-288.603	83.847	-0.125	0.136
-287.589	-151.803	0.157	0.011
-286.574	-200.000	0.005	-0.024
-285.559	800.000	-0.101	-0.332
-284.545	-200.000	0.007	-0.100
-283.530	800.000	0.080	0.221
-282.516	-79.362	0.235	0.080
-281.501	-200.000	0.012	0.254
-280.486	141.369	0.373	0.493
-279.472	-156.668	0.263	0.016
-278.457	-13.526	-0.261	-0.169
-277.443	-200.000	-0.032	-0.419
-276.428	93.524	-0.196	-0.221
-275.413	-97.322	0.302	-0.079
-274.399	800.000	0.032	-0.109
-273.384	-85.152	0.013	0.004
-272.370	-85.334	0.214	0.067
-271.355	66.779	0.099	0.101
-270.340	-2.264	-0.061	0.043
-269.326	-36.148	-0.411	0.221
-268.311	800.000	0.057	0.208
-267.297	-200.000	0.367	0.001
-266.282	-102.810	0.073	-0.017
-265.267	147.071	0.078	0.104
-264.253	-200.000	0.003	0.085
-263.238	24.186	-0.100	0.083
-262.224	290.934	0.127	0.230
-261.209	-34.463	0.252	0.138
-260.195	-149.931	-0.269	0.021
-259.180	-153.384	0.162	-0.011
-258.165	-139.772	0.162	0.017
-257.151	-74.583	0.262	-0.094
-256.136	442.532	0.063	0.138
-255.122	142.371	0.048	-0.064
-254.107	-43.625	0.134	-0.068
-253.092	-200.000	0.064	-0.425
-252.078	171.177	0.184	-0.263
-251.063	-131.600	0.228	0.030
-250.049	800.000	0.119	0.405
-249.034	57.030	-0.106	0.103
-248.019	290.200	-0.125	0.227
-247.005	-2.666	0.027	0.019
-245.990	-200.000	-0.001	0.010
-244.976	-83.778	0.137	0.044
-243.961	115.521	0.120	0.146
-242.946	-140.771	-0.106	0.011
-241.932	-49.053	0.111	0.053
-240.917	316.349	-0.259	-0.487
-239.903	191.526	-0.147	-0.221
-238.888	396.139	-0.139	-0.290
-237.873	-138.782	-0.158	0.017
-236.859	-11.851	-0.409	-0.267
-235.844	109.954	0.220	0.263
-234.830	174.609	0.212	0.306
-233.815	12.205	0.271	-0.208
-232.800	-200.000	-0.009	-0.067
-231.786	250.882	-0.088	0.148
-230.771	-200.000	-0.022	0.139
-229.757	800.000	-0.072	0.217
-228.742	212.902	0.038	0.060
-227.727	30.980	-0.117	0.100
-226.713	-48.060	-0.147	0.071
-225.698	800.000	0.058	0.174
-224.684	377.278	-0.070	0.143
-223.669	-125.223	0.070	0.011
-222.655	724.202	-0.146	0.387
-221.640	589.220	0.061	0.149
-220.625	15.185	0.137	-0.107
-219.611	-28.051	0.196	0.113
-218.596	22.606	-0.004	-0.003
-217.582	-78.905	0.331	0.112
-216.567	441.755	-0.152	-0.332
-215.552	-125.183	-0.169	0.026
-214.538	-44.336	0.064	0.032
-213.523	-200.000	0.010	-0.166
-212.509	-200.000	-0.019	-0.153
-211.494	31.028	-0.280	0.239
-210.479	-200.000	-0.014	0.431
-209.465	-56.772	0.118	0.052
-208.450	800.000	-0.021	-0.065
-207.436	548.538	-0.083	0.197
-206.421	27.259	-0.285	0.239
-205.406	142.996	-0.021	0.027
-204.392	-200.000	0.008	0.038
-203.377	-200.000	0.024	0.156
-202.363	365.669	-0.046	0.093
-201.348	52.405	0.124	-0.118
-200.333	-23.318	0.079	-0.047
-199.319	-126.593	0.235	-0.035
-198.304	800.000	-0.021	-0.072
-197.290	142.757	0.109	0.144
-196.275	-156.640	0.523	0.032
-195.260	-143.265	-0.188	-0.018
-194.246	268.885	0.147	-0.256
-193.231	131.253	0.057	-0.072
-192.217	-124.718	-0.287	0.044
-191.202	-16.688	-0.368	-0.232
-190.187	-200.000	0.022	0.306
-189.173	312.998	0.131	-0.245
-188.158	24.913	0.053	-0.043
-187.144	-13.106	-0.120	0.078
-186.129	-155.495	-0.260	-0.017
-185.114	-17.598	0.534	0.334
-184.100	-200.000	0.044	0.269
-183.085	-153.170	0.082	0.006
-182.071	-200.000	-0.044	-0.205
-181.056	-150.395	-0.247	-0.019
-180.042	85.165	-0.160	-0.175
-179.027	-62.658	0.094	-0.039
-178.012	-60.489	0.161	-0.068
-176.998	-74.452	-0.197	0.071
-175.983	800.000	-0.040	-0.126
-174.969	-51.926	0.137	-0.063
-173.954	-115.987	0.028	-0.005
-172.939	-141.929	-0.169	-0.017
-171.925	-200.000	-0.011	-0.191
-170.910	245.783	-0.097	-0.163
-169.896	-82.914	0.031	-0.010
-168.881	-59.843	0.074	0.031
-167.866	800.000	-0.054	0.155
-166.852	-12.207	0.125	0.081
-165.837	-171.359	0.694	-0.023
-164.823	-191.692	-0.114	0.001
-163.808	-200.000	-0.015	-0.073
-162.793	800.000	-0.054	0.198
-161.779	-64.227	-0.412	0.167
-160.764	176.063	0.025	0.035
-159.750	-169.734	-0.225	0.008
-158.735	69.765	-0.164	0.168
-157.720	-200.000	0.042	0.312
-156.706	62.636	-0.246	0.244
-155.691	-200.000	0.020	-0.222
-154.677	791.987	-0.040	0.108
-153.662	158.318	0.140	0.193
-152.647	800.000	-0.014	0.057
-151.633	445.483	0.038	-0.084
-150.618	-200.000	-0.051	0.325
-149.604	315.171	0.130	0.244
-148.589	-142.820	-0.177	0.017
-147.574	571.677	-0.046	0.112
-146.560	-104.667	0.117	-0.027
-145.545	-106.358	-0.199	0.044
-144.531	88.083	-0.086	-0.094
-143.516	-200.000	-0.094	-0.541
-142.502	-27.144	-0.168	0.097
-141.487	110.719	0.122	0.146
-140.472	23.424	0.287	0.234
-139.458	-162.562	0.571	0.028
-138.443	800.000	-0.059	-0.188
-137.429	-200.000	-0.023	-0.123
-136.414	161.260	0.078	-0.109
-135.399	130.187	-0.177	-0.225
-134.385	-71.184	-0.196	-0.073
-133.370	-200.000	-0.024	-0.368
-132.356	154.601	0.129	-0.176
-131.341	-16.039	0.272	-0.172
-130.326	-150.494	0.085	0.006
-129.312	-200.000	-0.002	-0.306
-128.297	73.867	0.204	-0.212
-127.283	167.588	0.131	-0.185
-126.268	72.451	-0.389	0.403
-125.253	-145.080	-0.187	-0.017
-124.239	-171.096	0.161	0.005
-123.224	-200.000	0.020	-0.240
-122.210	-131.286	-0.118	0.016
