DTS Sentinel unit serial number:	SN413079Multiplexer serial number:	ORYXHardware model number:	OX4-SRSoftware version number:	ORYX F/W v4.00 Oryx Data Collector v3.7.2.0data status	okinstallation	princeton_trtdifferential loss correction	single-endedforward channel	channel 2reverse channel	N/Adate	2019/09/12time	07:17:11forward acquisition time	60.00reverse acquisition time	0.00gamma	496.2192k internal	0.2323k external	0.2323temperature offset calibration	1.0062default loss term (dB/km)	0.3790temperature slope calibration	1.0000multiplexer offset coefficient	1.0000multiplexer slope coefficient	1.0000fibre end	0.00T internal ref (°C)	32.25T ext. ref 1 (°C)	1.60T ext. ref 2 (°C)	28.41length (m)	temperature (°C)	Stokes	anti-Stokes-747.200	-200.000	0.013	0.395
-746.185	135.962	-0.141	0.185
-745.171	-124.428	0.161	-0.025
-744.156	-49.053	-0.148	0.072
-743.142	712.324	-0.025	-0.066
-742.127	-200.000	0.085	0.443
-741.112	-134.438	-0.167	0.021
-740.098	139.544	-0.091	0.121
-739.083	33.676	0.091	0.080
-738.069	-95.813	0.343	-0.092
-737.054	-7.450	-0.136	-0.093
-736.039	19.261	-0.142	0.115
-735.025	-104.168	0.081	-0.019
-734.010	177.270	-0.230	-0.338
-732.996	-89.512	0.250	-0.074
-731.981	-83.680	0.200	0.065
-730.966	280.434	-0.152	-0.274
-729.952	214.932	0.090	0.144
-728.937	-36.474	-0.092	-0.050
-727.923	246.053	0.017	-0.029
-726.908	-200.000	-0.055	-0.272
-725.894	787.399	0.033	-0.090
-724.879	-200.000	0.009	0.123
-723.864	-90.862	-0.148	-0.043
-722.850	800.000	0.066	-0.189
-721.835	-6.643	-0.356	-0.244
-720.821	-2.425	-0.207	-0.146
-719.806	-200.000	0.002	-0.176
-718.791	-200.000	0.023	0.104
-717.777	2.096	0.106	0.077
-716.762	800.000	0.026	-0.102
-715.748	-200.000	0.026	0.160
-714.733	450.319	0.013	0.030
-713.718	-138.183	0.305	0.034
-712.704	305.067	-0.110	-0.206
-711.689	251.360	0.188	-0.322
-710.675	800.000	0.040	-0.110
-709.660	-33.497	-0.117	-0.065
-708.645	-65.909	0.178	0.072
-707.631	-126.359	0.090	0.014
-706.616	-200.000	-0.042	-0.205
-705.602	-200.000	0.107	-0.503
-704.587	-200.000	0.008	-0.237
-703.572	-43.694	0.261	-0.133
-702.558	-118.886	-0.170	0.030
-701.543	30.676	-0.040	-0.034
-700.529	271.071	0.145	-0.258
-699.514	-200.000	0.083	0.411
-698.499	-200.000	0.019	0.159
-697.485	-85.619	0.382	-0.120
-696.470	-140.889	-0.119	-0.012
-695.456	-2.362	0.091	-0.065
-694.441	155.747	0.041	-0.057
-693.426	446.974	0.090	-0.201
-692.412	475.599	-0.125	-0.284
-691.397	-180.745	0.092	0.002
-690.383	-16.456	0.307	-0.196
-689.368	-47.890	0.179	-0.087
-688.354	180.510	-0.128	0.190
-687.339	88.146	-0.117	0.130
-686.324	144.102	0.131	-0.175
-685.310	-144.980	-0.134	-0.012
-684.295	270.373	0.217	-0.385
-683.281	-104.474	-0.276	0.064
-682.266	800.000	0.095	0.310
-681.251	276.134	-0.146	0.262
-680.237	92.247	0.146	-0.166
-679.222	151.902	-0.014	-0.019
-678.208	-39.227	0.195	-0.103
-677.193	800.000	-0.124	0.474
-676.178	-82.574	-0.259	0.084
-675.164	-132.196	0.026	0.003
-674.149	153.350	-0.238	-0.329
-673.135	429.804	-0.015	0.032
-672.120	121.872	-0.097	-0.122
-671.105	344.602	0.033	0.065
-670.091	-200.000	0.000	0.028
-669.076	-36.718	-0.286	0.155
-668.062	-43.549	-0.080	0.040
-667.047	77.847	-0.292	-0.313
-666.032	215.286	-0.121	-0.193
-665.018	132.394	-0.113	0.146
-664.003	-175.302	-0.190	0.005
-662.989	-200.000	-0.099	0.441
-661.974	124.257	-0.115	0.146
-660.959	57.312	-0.171	0.168
-659.945	19.789	0.051	0.041
-658.930	199.072	0.134	-0.206
-657.916	-200.000	0.022	0.122
-656.901	-200.000	0.029	-0.327
-655.886	201.858	-0.173	0.268
-654.872	-16.686	-0.068	-0.043
-653.857	254.225	0.108	-0.185
-652.843	800.000	0.042	0.138
-651.828	-4.603	0.062	0.043
-650.814	-103.652	0.356	-0.084
-649.799	94.628	0.161	0.184
-648.784	10.502	0.024	0.019
-647.770	179.670	0.149	0.220
-646.755	580.682	-0.087	-0.214
-645.741	58.725	-0.036	-0.035
-644.726	-200.000	0.004	-0.032
-643.711	124.588	0.033	0.042
-642.697	678.664	0.052	-0.137
-641.682	6.764	0.220	0.165
-640.668	628.067	-0.180	-0.457
-639.653	275.510	-0.206	-0.368
-638.638	254.619	-0.113	-0.195
-637.624	-200.000	-0.040	-0.307
-636.609	41.369	-0.383	-0.348
-635.595	336.493	0.092	-0.180
-634.580	-88.778	-0.258	-0.077
-633.565	-200.000	-0.093	0.525
-632.551	515.671	-0.024	-0.055
-631.536	800.000	-0.038	0.138
-630.522	-12.325	0.095	-0.062
-629.507	800.000	-0.022	0.061
-628.492	-56.613	-0.072	-0.032
-627.478	600.918	-0.096	-0.241
-626.463	227.861	0.053	0.086
-625.449	-7.381	-0.278	0.189
-624.434	-200.000	0.055	0.328
-623.419	181.799	-0.062	-0.091
-622.405	0.168	-0.174	-0.125
-621.390	-73.982	0.077	0.028
-620.376	17.473	0.083	0.066
-619.361	133.483	-0.163	-0.212
-618.346	-27.692	-0.302	-0.176
-617.332	153.590	0.076	-0.105
-616.317	748.510	0.039	0.105
-615.303	154.081	-0.121	-0.167
-614.288	-2.789	-0.286	0.201
-613.273	-200.000	-0.021	0.147
-612.259	800.000	0.010	0.039
-611.244	-60.317	0.222	0.095
-610.230	-200.000	0.018	0.085
-609.215	154.344	-0.125	-0.172
-608.201	149.534	-0.074	0.100
-607.186	21.712	-0.054	0.044
-606.171	88.191	0.253	-0.282
-605.157	-91.884	0.160	0.046
-604.142	-99.399	0.146	0.037
-603.128	177.920	-0.090	0.131
-602.113	130.899	0.052	-0.067
-601.098	-73.868	-0.257	0.094
-600.084	51.584	-0.222	0.212
-599.069	-81.235	0.297	-0.099
-598.055	39.841	0.081	-0.073
-597.040	-148.346	-0.294	0.024
-596.025	800.000	-0.040	0.127
-595.011	143.295	0.258	0.344
-593.996	61.775	0.126	0.126
-592.982	-72.598	0.256	-0.095
-591.967	-55.729	-0.237	-0.106
-590.952	84.555	-0.222	0.244
-589.938	100.763	-0.046	0.054
-588.923	162.692	-0.070	0.099
-587.909	230.405	0.113	0.186
-586.894	91.867	-0.044	0.049
-585.879	-129.284	-0.301	0.042
-584.865	800.000	-0.096	-0.299
-583.850	66.408	0.088	0.090
-582.836	-3.540	-0.060	-0.042
-581.821	171.446	-0.129	0.186
-580.806	88.102	0.199	0.222
-579.792	-27.487	0.211	0.123
-578.777	800.000	-0.008	-0.024
-577.763	-200.000	0.030	0.243
-576.748	757.573	0.084	-0.227
-575.733	-24.923	-0.144	-0.086
-574.719	477.992	0.142	0.323
-573.704	-113.016	-0.256	0.051
-572.690	-80.645	-0.135	0.045
-571.675	504.124	0.056	0.129
-570.661	-200.000	-0.005	-0.177
-569.646	-86.164	-0.076	0.023
-568.631	-158.496	-0.134	-0.008
-567.617	167.811	-0.120	0.171
-566.602	800.000	0.042	0.175
-565.588	221.296	-0.062	0.100
-564.573	25.588	-0.338	-0.282
-563.558	417.226	0.084	0.179
-562.544	-50.811	0.168	0.079
-561.529	-41.426	-0.223	0.115
-560.515	169.526	0.138	0.198
-559.500	39.852	-0.355	-0.319
-558.485	800.000	0.132	-0.371
-557.471	397.039	-0.084	-0.175
-556.456	-86.453	-0.139	-0.043
-555.442	-94.791	-0.613	0.167
-554.427	20.224	-0.172	-0.139
-553.412	-1.866	0.250	-0.176
-552.398	800.000	-0.031	0.095
-551.383	800.000	0.028	0.109
-550.369	-79.558	-0.199	-0.067
-549.354	-113.069	0.255	-0.050
-548.339	-200.000	-0.356	-0.002
-547.325	0.779	0.128	0.092
-546.310	-68.330	0.110	0.043
-545.296	-200.000	-0.025	0.144
-544.281	-160.098	-0.184	0.010
-543.266	-35.576	0.143	0.078
-542.252	-51.683	0.152	0.071
-541.237	800.000	-0.081	0.235
-540.223	-111.140	0.216	0.044
-539.208	-120.107	0.161	0.028
-538.193	-76.715	-0.228	-0.080
-537.179	-45.938	-0.398	0.197
-536.164	-12.562	0.226	-0.148
-535.150	-162.763	0.172	0.008
-534.135	-166.064	-0.116	-0.005
-533.121	151.698	0.063	0.086
-532.106	-137.625	-0.344	-0.039
-531.091	-200.000	-0.009	0.074
-530.077	-73.169	-0.074	-0.027
-529.062	-139.282	-0.300	0.032
-528.048	-200.000	-0.026	-0.150
-527.033	390.950	-0.084	-0.175
-526.018	-200.000	0.047	0.214
-525.004	-66.810	-0.158	0.063
-523.989	-127.250	-0.461	0.067
-522.975	166.881	0.139	-0.197
-521.960	-105.187	0.120	0.028
-520.945	800.000	0.030	-0.108
-519.931	50.474	-0.185	-0.175
-518.916	-147.930	0.231	0.019
-517.902	-9.852	0.145	-0.097
-516.887	73.776	0.102	0.107
-515.872	-109.441	-0.291	-0.062
-514.858	-200.000	0.004	-0.029
-513.843	16.751	0.114	0.090
-512.829	-138.028	-0.284	0.032
-511.814	-96.771	-0.041	-0.011
-510.799	-108.404	-0.116	-0.025
-509.785	177.874	-0.186	-0.272
-508.770	33.535	0.163	0.141
-507.756	84.974	-0.249	0.273
-506.741	-66.996	0.136	-0.054
-505.726	130.563	-0.213	-0.273
-504.712	-117.209	-0.232	-0.042
-503.697	800.000	0.009	-0.034
-502.683	-74.713	-0.313	-0.113
-501.668	59.223	0.186	-0.183
-500.653	159.273	0.078	0.109
-499.639	23.844	0.126	-0.104
-498.624	-138.060	0.355	-0.039
-497.610	-96.444	0.066	0.017
-496.595	435.573	-0.076	-0.166
-495.581	-103.462	-0.235	-0.055
-494.566	235.992	0.084	0.139
-493.551	237.779	-0.077	0.127
-492.537	677.911	-0.055	-0.142
-491.522	-22.909	0.162	0.098
-490.508	-200.000	-0.003	0.154
-489.493	-54.149	0.340	-0.154
-488.478	151.279	-0.109	-0.148
-487.464	-88.312	0.165	-0.049
-486.449	-78.618	0.344	0.117
-485.435	-181.460	0.072	0.001
-484.420	178.365	0.065	-0.094
-483.405	-114.010	0.228	0.044
-482.391	-173.730	-0.288	0.009
-481.376	15.626	0.309	0.243
-480.362	216.554	-0.140	0.222
-479.347	-102.442	-0.240	-0.057
-478.332	-16.529	-0.067	-0.042
-477.318	-200.000	0.036	-0.369
-476.303	-36.047	-0.209	0.113
-475.289	-183.601	-0.160	0.003
-474.274	-0.388	-0.032	0.023
-473.259	-54.113	0.149	0.068
-472.245	-40.118	-0.183	0.095
-471.230	-200.000	0.022	0.275
-470.216	537.187	0.070	0.167
-469.201	107.929	-0.200	-0.239
-468.186	46.019	0.247	-0.229
-467.172	112.852	0.075	0.091
-466.157	-156.297	0.096	0.006
-465.143	147.672	-0.115	-0.155
-464.128	-5.470	-0.242	0.166
-463.113	14.116	-0.165	0.129
-462.099	376.389	-0.021	-0.042
-461.084	-117.856	0.157	0.028
-460.070	-200.000	0.039	-0.183
-459.055	-16.055	-0.147	-0.093
-458.040	-200.000	0.008	0.239
-457.026	-3.476	0.190	-0.132
-456.011	-200.000	-0.022	-0.369
-454.997	-200.000	-0.018	0.098
-453.982	-22.259	0.131	-0.080
-452.968	-58.037	0.234	-0.102
-451.953	-9.519	-0.137	-0.091
-450.938	3.959	-0.362	0.264
-449.924	-55.738	-0.285	-0.127
-448.909	158.843	-0.024	0.034
-447.895	193.459	0.123	-0.186
-446.880	-115.820	0.236	0.044
-445.865	119.627	-0.124	0.153
-444.851	-142.038	0.105	-0.010
-443.836	15.807	0.264	0.207
-442.822	170.238	0.334	-0.477
-441.807	184.400	-0.251	-0.371
-440.792	-48.589	-0.191	0.092
-439.778	252.832	-0.207	0.352
-438.763	-97.301	-0.116	-0.030
-437.749	-50.684	0.117	-0.055
-436.734	-200.000	0.014	0.490
-435.719	-16.886	0.053	0.033
-434.705	800.000	-0.010	-0.032
-433.690	-200.000	0.016	-0.120
-432.676	251.261	-0.125	-0.212
-431.661	-173.181	0.091	0.003
-430.646	-200.000	-0.025	-0.323
-429.632	800.000	0.039	0.150
-428.617	141.212	0.192	-0.253
-427.603	-24.390	-0.157	0.094
-426.588	96.974	0.227	0.260
-425.573	200.917	0.129	0.198
-424.559	105.738	-0.230	-0.271
-423.544	-69.061	0.212	-0.081
-422.530	-200.000	0.018	0.306
-421.515	-200.000	0.031	-0.206
-420.500	-53.145	0.272	-0.125
-419.486	-200.000	0.062	0.315
-418.471	-143.749	-0.156	0.015
-417.457	-90.403	0.151	0.044
-416.442	-200.000	0.022	0.167
-415.428	-200.000	0.039	0.175
-414.413	185.825	-0.076	-0.113
-413.398	157.916	0.269	-0.371
-412.384	400.453	0.136	-0.285
-411.369	94.813	-0.113	0.128
-410.355	-101.425	0.224	0.054
-409.340	-200.000	0.004	0.085
-408.325	52.675	-0.077	0.073
-407.311	783.705	-0.028	0.075
-406.296	-109.281	0.049	0.010
-405.282	502.838	-0.105	-0.242
-404.267	-91.929	-0.162	-0.046
-403.252	706.493	-0.063	-0.165
-402.238	-66.127	-0.334	0.133
-401.223	24.782	0.210	-0.174
-400.209	222.280	-0.142	-0.228
-399.194	257.546	0.122	0.210
-398.179	-185.728	-0.233	-0.003
-397.165	113.241	-0.074	0.089
-396.150	178.503	-0.059	-0.086
-395.136	18.771	0.131	0.105
-394.121	-169.068	-0.074	-0.003
-393.106	-13.482	-0.107	0.069
-392.092	70.978	0.167	-0.172
-391.077	458.346	0.042	-0.092
-390.063	-51.181	0.228	0.106
-389.048	310.207	0.076	-0.142
-388.033	-200.000	0.050	0.330
-387.019	-129.961	-0.225	-0.031
-386.004	702.424	0.125	-0.328
-384.990	17.046	-0.191	-0.151
-383.975	59.145	-0.050	0.049
-382.960	128.349	0.127	-0.161
-381.946	707.330	0.121	0.317
-380.931	673.616	-0.080	-0.206
-379.917	470.214	0.111	0.248
-378.902	-200.000	-0.001	-0.078
-377.888	55.828	-0.160	-0.155
-376.873	-200.000	-0.037	0.215
-375.858	800.000	-0.091	0.332
-374.844	-71.260	-0.237	0.089
-373.829	-14.355	0.251	0.161
-372.815	-156.299	0.257	-0.016
-371.800	800.000	0.071	-0.288
-370.785	-200.000	0.022	0.179
-369.771	-138.568	0.454	0.050
-368.756	-200.000	-0.024	-0.379
-367.742	800.000	0.009	0.029
-366.727	-132.633	-0.132	-0.017
-365.712	800.000	-0.013	-0.056
-364.698	303.311	0.049	-0.090
-363.683	-200.000	-0.048	-0.228
-362.669	0.469	0.056	-0.040
-361.654	-35.357	-0.343	0.185
-360.639	-54.287	0.199	-0.090
-359.625	92.462	-0.179	-0.201
-358.610	-77.075	0.307	0.106
-357.596	43.783	0.159	-0.145
-356.581	-200.000	0.040	0.259
-355.566	604.285	0.028	0.068
-354.552	800.000	-0.016	0.046
-353.537	800.000	-0.141	0.445
-352.523	118.790	0.145	0.178
-351.508	122.913	0.174	-0.217
-350.493	43.529	-0.097	0.088
-349.479	800.000	-0.073	-0.252
-348.464	-200.000	0.059	-0.280
-347.450	-51.480	0.360	-0.167
-346.435	-199.510	0.251	0.001
-345.420	-106.328	-0.196	-0.044
-344.406	800.000	-0.068	-0.201
-343.391	-200.000	0.012	0.075
-342.377	-105.304	0.329	-0.075
-341.362	-200.000	-0.062	0.594
-340.348	800.000	-0.060	0.205
-339.333	-71.691	0.171	-0.063
-338.318	-86.923	0.389	-0.118
-337.304	113.778	0.165	0.199
-336.289	234.074	0.126	0.207
-335.275	-63.248	-0.477	-0.195
-334.260	541.788	-0.079	-0.188
-333.245	-116.957	0.178	-0.032
-332.231	-200.000	-0.042	0.283
-331.216	34.111	0.252	-0.218
-330.202	-200.000	-0.057	-0.457
-329.187	100.820	0.105	0.122
-328.172	800.000	0.057	0.164
-327.158	-50.033	0.116	-0.055
-326.143	299.622	-0.099	-0.182
-325.129	99.915	-0.159	0.183
-324.114	-22.337	0.073	0.044
-323.099	-153.853	-0.171	0.012
-322.085	-10.967	-0.158	-0.104
-321.070	-135.837	0.246	0.029
-320.056	72.545	-0.136	0.141
-319.041	274.307	0.089	0.156
-318.026	800.000	-0.070	-0.217
-317.012	-166.638	-0.369	-0.015
-315.997	514.105	-0.102	-0.236
-314.983	-200.000	-0.027	-0.179
-313.968	19.084	-0.138	0.110
-312.953	-26.337	-0.076	-0.044
-311.939	-116.379	-0.100	-0.018
-310.924	19.378	-0.146	-0.117
-309.910	32.015	0.315	-0.269
-308.895	-155.357	0.303	-0.019
-307.880	71.959	0.071	0.074
-306.866	-63.260	-0.122	0.050
-305.851	-93.961	0.311	0.085
-304.837	202.621	0.066	-0.101
-303.822	-136.823	-0.170	0.019
-302.807	-200.000	0.035	-0.270
-301.793	-75.780	-0.376	0.132
-300.778	253.923	0.088	0.150
-299.764	800.000	-0.030	-0.104
-298.749	-170.115	0.200	-0.007
-297.735	189.708	0.085	-0.126
-296.720	-108.163	0.246	-0.053
-295.705	289.271	0.113	0.204
-294.691	12.462	-0.081	-0.062
-293.676	121.806	0.155	0.191
-292.662	24.438	-0.190	-0.156
-291.647	37.614	0.219	0.192
-290.632	-75.072	0.096	0.034
-289.618	800.000	-0.060	0.251
-288.603	-140.663	-0.187	0.019
-287.589	109.889	0.181	0.215
-286.574	-70.053	0.067	0.025
-285.559	-168.419	-0.100	0.004
-284.545	107.494	0.187	-0.221
-283.530	226.565	0.071	0.115
-282.516	85.572	0.250	0.272
-281.501	597.230	0.066	-0.163
-280.486	-83.400	0.358	-0.114
-279.472	-200.000	0.022	-0.296
-278.457	274.080	0.177	0.310
-277.443	-74.015	0.121	0.044
-276.428	-56.523	0.109	0.048
-275.413	800.000	0.105	-0.327
-274.399	-16.878	0.208	0.130
-273.384	205.204	-0.215	-0.330
-272.370	50.743	-0.070	0.065
-271.355	3.723	-0.092	0.067
-270.340	10.630	-0.291	0.220
-269.326	-140.337	-0.151	0.016
-268.311	-200.000	0.017	-0.668
-267.297	-23.431	0.049	-0.029
-266.282	-50.738	0.198	-0.092
-265.267	120.371	0.251	0.309
-264.253	-101.769	-0.272	-0.065
-263.238	-115.042	0.452	-0.085
-262.224	800.000	-0.071	-0.252
-261.209	-94.927	-0.237	-0.064
-260.195	586.468	0.147	-0.358
-259.180	-117.610	0.206	0.037
-258.165	-200.000	-0.075	-0.338
-257.151	-64.456	-0.109	0.044
-256.136	281.971	0.100	0.177
-255.122	-13.994	0.207	0.132
-254.107	-200.000	-0.044	0.409
-253.092	-200.000	0.010	0.091
-252.078	550.355	0.021	-0.050
-251.063	-200.000	-0.013	-0.113
-250.049	-100.868	0.159	-0.039
-249.034	-69.193	-0.089	-0.034
-248.019	-142.235	0.264	0.026
-247.005	-81.534	0.232	-0.076
-245.990	36.953	-0.283	0.248
-244.976	-200.000	-0.057	-0.387
-243.961	63.773	-0.137	-0.136
-242.946	-188.666	0.210	-0.003
-241.932	-37.756	0.490	0.258
-240.917	-100.549	0.234	0.057
-239.903	99.739	-0.209	0.239
-238.888	694.031	-0.210	-0.545
-237.873	-23.287	0.198	0.118
-236.859	-200.000	0.115	0.568
-235.844	-3.307	-0.237	0.164
-234.830	800.000	-0.141	-0.405
-233.815	-131.480	-0.247	0.032
-232.800	-90.824	-0.335	-0.096
-231.786	291.291	-0.180	-0.324
-230.771	-200.000	-0.015	-0.144
-229.757	-79.042	-0.131	-0.044
-228.742	-12.082	0.237	-0.153
-227.727	94.698	-0.102	-0.115
-226.713	-200.000	0.008	0.221
-225.698	-200.000	0.035	0.195
-224.684	-24.048	0.202	0.119
-223.669	-169.768	-0.110	-0.004
-222.655	94.733	0.176	0.198
-221.640	-200.000	0.023	0.274
-220.625	476.796	-0.101	-0.225
-219.611	-82.758	-0.121	0.039
-218.596	-82.780	0.121	-0.039
-217.582	-200.000	-0.038	0.250
-216.567	340.832	-0.143	0.276
-215.552	800.000	-0.157	-0.478
-214.538	140.888	0.206	0.269
-213.523	247.449	-0.010	0.016
-212.509	-130.343	-0.056	0.008
-211.494	-200.000	0.000	0.121
-210.479	52.957	-0.197	-0.186
-209.465	112.458	-0.095	0.114
-208.450	103.677	0.077	-0.089
-207.436	-200.000	0.057	0.371
-206.421	800.000	0.128	-0.366
-205.406	-47.608	-0.175	-0.084
-204.392	448.059	-0.048	0.104
-203.377	33.973	-0.086	-0.074
-202.363	800.000	-0.040	0.125
-201.348	800.000	0.066	-0.275
-200.333	20.097	-0.107	0.085
-199.319	-94.983	-0.091	-0.024
-198.304	-200.000	-0.017	-0.197
-197.290	280.656	0.194	-0.343
-196.275	-108.276	0.289	0.062
-195.260	-97.441	0.259	-0.067
-194.246	-200.000	-0.019	0.337
-193.231	-91.378	0.570	0.161
-192.217	313.695	-0.033	0.061
-191.202	-200.000	0.066	-0.338
-190.187	339.365	0.069	-0.134
-189.173	49.051	-0.119	0.111
-188.158	498.017	-0.142	-0.322
-187.144	800.000	0.127	0.357
-186.129	32.895	0.188	0.161
-185.114	800.000	-0.023	0.086
-184.100	781.834	-0.110	0.297
-183.085	-69.951	-0.139	0.052
-182.071	132.169	0.204	0.260
-181.056	6.416	0.202	0.148
-180.042	519.934	-0.064	-0.148
-179.027	-200.000	-0.074	0.414
-178.012	-114.119	0.230	0.044
-176.998	63.151	0.114	0.113
-175.983	16.061	-0.201	0.156
-174.969	124.513	0.169	0.210
-173.954	84.581	-0.056	0.061
-172.939	-156.189	-0.061	0.004
-171.925	200.408	-0.089	0.135
-170.910	627.959	-0.139	-0.346
-169.896	-200.000	-0.077	-0.342
-168.881	800.000	-0.079	0.259
-167.866	-84.639	0.242	-0.075
-166.852	-33.437	0.197	-0.107
-165.837	-200.000	-0.004	0.047
-164.823	-88.260	-0.164	0.048
-163.808	-65.351	0.259	0.103
-162.793	-10.003	0.037	-0.024
-161.779	-81.955	0.301	0.097
-160.764	182.200	-0.196	0.285
-159.750	-200.000	0.015	0.108
-158.735	-200.000	-0.011	-0.091
-157.720	-47.502	-0.320	-0.154
-156.706	-200.000	-0.069	0.369
-155.691	519.516	0.068	-0.156
-154.677	-200.000	-0.056	-0.244
-153.662	-7.574	-0.297	-0.198
-152.647	800.000	-0.057	-0.224
-151.633	-200.000	-0.051	0.295
-150.618	-42.346	0.070	-0.035
-149.604	-119.502	0.193	0.033
-148.589	529.196	-0.053	0.124
-147.574	-200.000	0.044	0.430
-146.560	119.077	-0.213	0.260
-145.545	-105.349	-0.109	-0.025
-144.531	800.000	-0.078	-0.276
-143.516	-200.000	0.038	0.267
-142.502	36.595	0.200	-0.174
-141.487	-73.978	-0.266	0.095
-140.472	227.459	-0.122	0.196
-139.458	-200.000	0.047	0.235
-138.443	-2.893	0.288	0.198
-137.429	52.375	0.306	0.288
-136.414	64.605	0.105	0.104
-135.399	-65.338	-0.203	-0.080
-134.385	124.593	0.251	-0.311
-133.370	96.232	0.097	-0.109
-132.356	-138.535	-0.255	-0.028
-131.341	-134.553	0.385	0.046
-130.326	-65.287	0.092	0.036
-129.312	519.625	0.266	-0.614
-128.297	-33.791	-0.344	0.187
-127.283	800.000	0.159	0.453
-126.268	285.386	-0.022	0.039
-125.253	12.257	-0.165	0.125
-124.239	134.480	0.094	0.120
-123.224	257.555	-0.238	0.404
-122.210	800.000	0.086	0.334
-121.195	-141.021	0.254	-0.026
-120.180	209.117	0.152	-0.234
