DTS Sentinel unit serial number:	SN413079Multiplexer serial number:	ORYXHardware model number:	OX4-SRSoftware version number:	ORYX F/W v4.00 Oryx Data Collector v3.7.2.0data status	okinstallation	princeton_trtdifferential loss correction	single-endedforward channel	channel 2reverse channel	N/Adate	2019/09/10time	18:53:10forward acquisition time	60.00reverse acquisition time	0.00gamma	496.2192k internal	0.2323k external	0.2323temperature offset calibration	0.9944default loss term (dB/km)	0.3790temperature slope calibration	1.0000multiplexer offset coefficient	1.0000multiplexer slope coefficient	1.0000fibre end	0.00T internal ref (°C)	34.86T ext. ref 1 (°C)	-0.32T ext. ref 2 (°C)	27.06length (m)	temperature (°C)	Stokes	anti-Stokes-747.200	-22.690	0.237	-0.145
-746.185	73.022	0.114	0.120
-745.171	720.529	-0.072	-0.193
-744.156	374.071	-0.045	0.092
-743.142	-0.107	0.302	-0.217
-742.127	-110.874	0.878	0.183
-741.112	800.000	0.045	0.181
-740.098	800.000	0.011	0.035
-739.083	-55.455	-0.351	-0.159
-738.069	-200.000	-0.025	-0.237
-737.054	-114.640	-0.177	0.034
-736.039	-110.012	-0.301	-0.064
-735.025	-95.267	0.297	0.081
-734.010	800.000	-0.026	-0.083
-732.996	-17.524	-0.322	-0.204
-731.981	-104.856	-0.382	-0.089
-730.966	-82.889	-0.354	-0.115
-729.952	-13.409	0.175	0.114
-728.937	800.000	-0.048	-0.166
-727.923	-48.706	-0.196	-0.095
-726.908	800.000	-0.134	0.389
-725.894	800.000	-0.058	0.200
-724.879	91.197	-0.187	-0.212
-723.864	-173.487	0.271	0.008
-722.850	-55.459	0.337	-0.152
-721.835	7.034	0.182	-0.137
-720.821	800.000	0.094	0.288
-719.806	800.000	-0.048	-0.158
-718.791	37.340	0.345	-0.309
-717.777	-200.000	-0.086	-0.431
-716.762	-129.730	-0.344	0.048
-715.748	800.000	0.032	0.095
-714.733	-136.650	0.321	0.037
-713.718	132.769	0.153	0.199
-712.704	40.311	-0.178	0.162
-711.689	-160.535	-0.265	-0.014
-710.675	-120.839	-0.254	0.043
-709.660	-95.056	0.327	0.089
-708.645	-148.084	0.246	-0.021
-707.631	67.176	0.134	0.138
-706.616	-184.262	-0.238	-0.004
-705.602	-129.084	0.063	0.009
-704.587	-126.482	-0.113	0.017
-703.572	-54.577	0.188	-0.086
-702.558	-105.013	0.249	0.057
-701.543	-4.047	-0.289	-0.202
-700.529	719.590	-0.059	0.158
-699.514	37.017	-0.153	-0.137
-698.499	128.409	0.261	-0.335
-697.485	-156.750	-0.397	0.025
-696.470	-200.000	-0.019	-0.275
-695.456	-65.315	0.259	0.105
-694.441	39.064	0.424	-0.382
-693.426	1.035	-0.158	0.114
-692.412	-161.180	-0.163	-0.009
-691.397	-130.209	0.332	0.046
-690.383	231.829	0.103	-0.170
-689.368	47.911	-0.234	0.220
-688.354	-200.000	-0.043	0.222
-687.339	-200.000	0.084	0.405
-686.324	-200.000	0.032	-0.208
-685.310	800.000	-0.075	-0.267
-684.295	25.179	0.080	-0.067
-683.281	129.245	0.239	0.307
-682.266	800.000	0.021	0.085
-681.251	18.250	0.064	-0.052
-680.237	53.303	0.071	0.069
-679.222	8.082	-0.006	0.005
-678.208	294.143	-0.076	-0.140
-677.193	-200.000	-0.004	-0.089
-676.178	24.112	-0.278	0.231
-675.164	244.703	0.130	0.220
-674.149	81.249	0.040	-0.044
-673.135	-200.000	-0.014	-0.102
-672.120	-4.605	-0.208	0.145
-671.105	-200.000	-0.003	-0.389
-670.091	-25.991	0.514	-0.305
-669.076	-200.000	0.024	0.187
-668.062	-200.000	0.022	-0.231
-667.047	-154.230	0.202	0.014
-666.032	-132.462	0.312	-0.040
-665.018	-118.234	0.184	0.033
-664.003	773.063	-0.073	-0.202
-662.989	-10.803	0.180	0.120
-661.974	800.000	0.128	-0.376
-660.959	-68.077	-0.254	-0.100
-659.945	-39.090	0.223	-0.118
-658.930	149.896	-0.153	0.209
-657.916	-200.000	0.004	-0.072
-656.901	-57.769	0.270	-0.119
-655.886	-133.116	-0.127	0.016
-654.872	-110.196	0.277	-0.058
-653.857	-30.232	0.177	0.101
-652.843	102.916	0.270	0.318
-651.828	-21.023	-0.215	-0.132
-650.814	-84.444	0.219	0.070
-649.799	800.000	0.054	-0.184
-648.784	-111.393	0.129	-0.026
-647.770	-51.063	-0.039	0.018
-646.755	-200.000	0.044	0.406
-645.741	800.000	0.079	-0.254
-644.726	358.236	-0.090	-0.180
-643.711	191.223	-0.083	0.125
-642.697	-7.374	-0.275	0.188
-641.682	-200.000	-0.029	-0.148
-640.668	41.701	0.107	-0.097
-639.653	-127.049	0.187	-0.028
-638.638	-22.443	-0.194	-0.118
-637.624	-200.000	-0.002	-0.188
-636.609	289.560	-0.101	-0.185
-635.595	-170.503	0.082	0.003
-634.580	-145.614	0.531	-0.048
-633.565	282.151	-0.118	0.213
-632.551	-143.011	0.172	0.017
-631.536	-9.074	0.230	-0.155
-630.522	43.645	-0.112	-0.103
-629.507	-200.000	-0.002	0.037
-628.492	341.195	0.061	0.119
-627.478	-108.207	-0.272	0.059
-626.463	-200.000	0.004	-0.039
-625.449	-44.777	-0.150	-0.075
-624.434	338.851	0.138	-0.269
-623.419	245.137	-0.164	-0.278
-622.405	30.354	-0.135	0.116
-621.390	-146.888	-0.389	-0.034
-620.376	-11.095	-0.162	-0.107
-619.361	-200.000	-0.036	-0.177
-618.346	413.065	0.063	-0.134
-617.332	-200.000	-0.019	0.195
-616.317	800.000	0.090	-0.274
-615.303	83.298	-0.082	0.089
-614.288	184.017	-0.264	-0.393
-613.273	288.171	0.187	-0.340
-612.259	-92.105	-0.154	0.044
-611.244	141.520	-0.016	0.022
-610.230	-200.000	0.062	-0.397
-609.215	524.106	0.127	-0.301
-608.201	163.815	-0.086	0.121
-607.186	51.950	0.292	-0.279
-606.171	-146.509	0.156	-0.014
-605.157	-149.140	0.398	0.032
-604.142	44.807	-0.195	0.180
-603.128	71.827	0.136	-0.142
-602.113	354.545	-0.106	-0.211
-601.098	-52.573	-0.162	0.075
-600.084	-26.730	0.396	0.233
-599.069	58.554	-0.241	0.238
-598.055	8.329	0.305	0.230
-597.040	-107.093	-0.203	0.045
-596.025	330.706	-0.194	-0.376
-595.011	319.317	-0.094	-0.179
-593.996	800.000	0.028	0.090
-592.982	-14.638	-0.135	-0.087
-591.967	1.784	0.237	-0.172
-590.952	538.106	0.027	-0.063
-589.938	247.371	-0.033	-0.056
-588.923	19.908	0.281	-0.228
-587.909	741.945	-0.080	-0.215
-586.894	48.370	0.291	-0.274
-585.879	-66.022	0.292	-0.117
-584.865	800.000	-0.059	-0.200
-583.850	-200.000	-0.062	0.352
-582.836	136.609	-0.145	-0.189
-581.821	-50.236	-0.251	0.119
-580.806	800.000	-0.041	-0.129
-579.792	571.257	-0.029	0.071
-578.777	174.653	-0.173	-0.251
-577.763	-63.784	-0.129	-0.053
-576.748	-58.282	-0.147	0.064
-575.733	333.474	-0.076	-0.147
-574.719	-160.699	-0.254	0.014
-573.704	352.378	-0.060	-0.119
-572.690	-59.775	-0.168	0.072
-571.675	-115.036	0.260	-0.050
-570.661	156.835	-0.150	-0.207
-569.646	0.951	-0.225	-0.162
-568.631	8.390	0.106	-0.080
-567.617	-200.000	-0.052	-0.341
-566.602	234.802	0.103	-0.170
-565.588	32.090	-0.229	0.198
-564.573	108.001	-0.044	-0.053
-563.558	118.905	0.307	0.380
-562.544	203.915	-0.106	0.165
-561.529	-17.107	-0.122	0.077
-560.515	298.662	-0.101	0.186
-559.500	-200.000	0.009	-0.252
-558.485	179.298	-0.139	-0.204
-557.471	-140.705	-0.246	-0.026
-556.456	-56.019	0.178	0.080
-555.442	33.759	-0.204	0.178
-554.427	-127.406	0.097	-0.014
-553.412	-84.570	0.139	0.044
-552.398	800.000	-0.051	0.192
-551.383	800.000	-0.078	-0.255
-550.369	-200.000	0.011	-0.142
-549.354	-135.806	-0.137	0.016
-548.339	287.578	-0.032	0.058
-547.325	-69.400	0.088	-0.034
-546.310	245.871	0.082	0.139
-545.296	464.618	-0.121	-0.271
-544.281	177.532	-0.224	0.327
-543.266	-200.000	-0.080	0.488
-542.252	-68.666	-0.207	-0.080
-541.237	-106.176	0.217	-0.049
-540.223	800.000	0.057	-0.187
-539.208	-159.368	-0.433	0.024
-538.193	-14.902	0.179	-0.115
-537.179	-55.385	0.116	-0.052
-536.164	-200.000	-0.022	0.106
-535.150	612.613	-0.051	0.128
-534.135	-83.518	-0.266	0.085
-533.121	-151.903	-0.156	-0.011
-532.106	-80.903	-0.005	-0.002
-531.091	800.000	0.089	0.256
-530.077	125.620	0.117	-0.147
-529.062	-200.000	-0.285	0.001
-528.048	-200.000	0.027	-0.131
-527.033	-200.000	-0.036	-0.247
-526.018	-200.000	-0.010	0.205
-525.004	-22.674	0.270	-0.163
-523.989	119.193	-0.161	0.199
-522.975	-2.474	0.003	0.002
-521.960	-82.400	-0.282	-0.092
-520.945	136.796	-0.138	-0.181
-519.931	-140.249	-0.210	0.022
-518.916	336.026	-0.102	-0.199
-517.902	-43.799	-0.296	0.149
-516.887	79.401	0.151	-0.163
-515.872	800.000	-0.058	0.240
-514.858	25.698	0.107	-0.089
-513.843	800.000	0.054	-0.182
-512.829	115.904	-0.057	-0.070
-511.814	73.334	0.069	-0.072
-510.799	528.919	0.075	-0.178
-509.785	231.081	0.097	-0.159
-508.770	-87.080	0.215	0.066
-507.756	800.000	0.026	-0.100
-506.741	800.000	0.088	-0.303
-505.726	-78.259	0.049	-0.017
-504.712	-151.787	0.080	0.006
-503.697	31.706	0.159	-0.137
-502.683	70.636	-0.212	-0.220
-501.668	-200.000	0.010	-0.311
-500.653	-136.618	-0.171	-0.020
-499.639	-32.327	0.307	0.171
-498.624	83.856	-0.090	0.098
-497.610	-114.899	-0.247	-0.047
-496.595	13.252	0.258	0.200
-495.581	458.750	0.149	-0.332
-494.566	-25.861	-0.136	0.080
-493.551	39.231	-0.127	-0.113
-492.537	-125.825	0.192	0.029
-491.522	652.859	0.167	-0.429
-490.508	-64.177	-0.124	0.051
-489.493	-190.093	-0.270	0.003
-488.478	-200.000	-0.017	0.205
-487.464	90.783	-0.178	-0.199
-486.449	-121.454	-0.206	0.034
-485.435	-72.777	-0.079	-0.029
-484.420	44.691	-0.327	-0.301
-483.405	-93.205	0.275	-0.076
-482.391	76.706	0.098	-0.104
-481.376	-109.917	-0.134	-0.028
-480.362	-200.000	0.027	-0.206
-479.347	269.336	-0.063	-0.111
-478.332	5.199	-0.025	0.018
-477.318	-9.273	-0.092	0.062
-476.303	-200.000	-0.023	0.233
-475.289	56.770	-0.149	0.145
-474.274	-43.474	-0.444	-0.224
-473.259	142.670	-0.160	0.213
-472.245	-200.000	0.064	0.481
-471.230	27.103	0.221	-0.185
-470.216	464.564	0.056	0.125
-469.201	428.646	-0.129	0.278
-468.186	396.647	-0.250	0.521
-467.172	-151.198	0.367	0.027
-466.157	-11.827	-0.035	-0.023
-465.143	-200.000	-0.031	0.177
-464.128	800.000	-0.095	0.326
-463.113	484.458	0.088	-0.200
-462.099	-41.364	-0.222	-0.114
-461.084	-38.235	-0.107	0.057
-460.070	-61.068	0.106	-0.045
-459.055	800.000	-0.034	0.135
-458.040	-200.000	0.055	-0.315
-457.026	-200.000	-0.079	0.419
-456.011	-160.979	0.105	-0.006
-454.997	291.140	0.073	-0.133
-453.982	326.702	0.155	0.297
-452.968	40.866	-0.166	0.150
-451.953	-5.108	0.227	0.156
-450.938	14.697	0.159	-0.124
-449.924	-132.522	-0.227	0.029
-448.909	-11.010	0.139	-0.091
-447.895	646.403	-0.049	-0.124
-446.880	36.620	0.098	0.087
-445.865	-118.632	-0.350	0.062
-444.851	800.000	-0.071	0.299
-443.836	-161.768	0.367	0.019
-442.822	60.743	-0.112	0.111
-441.807	-155.987	0.078	-0.005
-440.792	515.213	0.028	-0.066
-439.778	-118.963	0.174	0.031
-438.763	-62.404	0.301	0.125
-437.749	720.179	0.037	0.097
-436.734	21.468	0.127	-0.103
-435.719	-200.000	0.202	-0.000
-434.705	-2.520	0.118	0.083
-433.690	110.620	-0.087	0.104
-432.676	16.536	-0.325	-0.256
-431.661	-177.137	-0.082	0.002
-430.646	-66.693	0.019	-0.008
-429.632	-68.244	-0.143	-0.055
-428.617	354.460	-0.015	-0.029
-427.603	35.439	0.209	0.183
-426.588	19.912	0.076	-0.061
-425.573	-200.000	0.003	0.285
-424.559	2.424	-0.252	-0.182
-423.544	317.390	0.090	-0.170
-422.530	-30.990	0.010	0.006
-421.515	-96.049	-0.239	-0.063
-420.500	-79.702	0.059	-0.020
-419.486	-49.891	0.150	0.071
-418.471	800.000	-0.055	0.186
-417.457	42.369	0.161	0.146
-416.442	-45.413	-0.159	-0.078
-415.428	14.686	-0.155	-0.121
-414.413	217.165	-0.207	0.329
-413.398	800.000	-0.083	0.236
-412.384	-24.133	0.167	-0.100
-411.369	800.000	0.094	0.362
-410.355	-118.186	0.075	-0.013
-409.340	-95.387	-0.275	0.074
-408.325	800.000	0.121	-0.350
-407.311	10.960	-0.164	-0.125
-406.296	-200.000	0.041	-0.217
-405.282	648.078	-0.042	0.108
-404.267	-18.830	0.071	0.044
-403.252	-200.000	0.037	-0.177
-402.238	572.327	0.130	-0.315
-401.223	-55.149	-0.375	-0.168
-400.209	-153.911	-0.131	0.009
-399.194	150.980	-0.142	-0.193
-398.179	150.990	-0.077	0.104
-397.165	40.384	0.324	0.291
-396.150	188.734	0.199	0.296
-395.136	257.693	0.266	-0.456
-394.121	57.419	-0.330	0.321
-393.106	800.000	-0.051	0.153
-392.092	-200.000	-0.008	-0.112
-391.077	-46.097	0.076	-0.037
-390.063	324.059	-0.234	0.445
-389.048	-65.961	0.184	0.073
-388.033	185.123	0.318	-0.470
-387.019	-200.000	-0.029	-0.306
-386.004	-200.000	0.008	0.096
-384.990	-6.150	0.115	0.078
-383.975	-200.000	0.003	0.061
-382.960	-200.000	0.028	0.137
-381.946	-90.254	0.248	0.072
-380.931	139.482	0.131	-0.171
-379.917	-149.557	0.304	0.024
-378.902	110.731	0.183	0.219
-377.888	235.317	-0.081	-0.133
-376.873	215.704	0.044	0.070
-375.858	-12.811	0.236	-0.153
-374.844	800.000	-0.015	0.059
-373.829	-134.377	0.272	-0.033
-372.815	200.842	-0.076	-0.116
-371.800	3.524	-0.146	-0.106
-370.785	-200.000	0.047	-0.407
-369.771	-83.888	0.250	0.079
-368.756	-49.415	0.072	0.034
-367.742	-200.000	0.050	0.263
-366.727	447.566	-0.100	-0.219
-365.712	171.502	-0.063	0.091
-364.698	-200.000	0.017	0.170
-363.683	220.232	0.128	0.205
-362.669	-63.912	0.363	-0.148
-361.654	-53.410	-0.122	0.056
-360.639	-47.909	0.232	-0.112
-359.625	335.373	-0.060	-0.116
-358.610	390.871	0.065	0.134
-357.596	307.133	-0.068	-0.125
-356.581	-126.595	0.080	0.012
-355.566	260.693	-0.287	-0.494
-354.552	143.276	0.213	-0.282
-353.537	-58.050	-0.139	0.060
-352.523	-96.263	0.170	0.045
-351.508	-10.914	-0.348	0.229
-350.493	82.026	-0.114	0.123
-349.479	48.982	0.092	-0.086
-348.464	134.023	-0.047	0.060
-347.450	800.000	-0.012	0.034
-346.435	145.621	0.172	0.229
-345.420	35.818	-0.290	-0.254
-344.406	-77.615	-0.224	0.077
-343.391	-200.000	0.016	-0.125
-342.377	126.729	0.145	-0.183
-341.362	-200.000	0.000	-0.276
-340.348	121.403	-0.104	0.128
-339.333	8.859	0.217	0.163
-338.318	-160.584	-0.080	0.004
-337.304	261.606	-0.134	-0.231
-336.289	-5.601	0.318	-0.217
-335.275	-169.658	0.211	0.008
-334.260	17.366	-0.377	-0.298
-333.245	348.837	0.153	-0.300
-332.231	-200.000	0.011	0.187
-331.216	-118.619	-0.103	-0.018
-330.202	396.045	0.110	-0.227
-329.187	-3.553	0.245	0.169
-328.172	31.149	0.025	-0.021
-327.158	335.538	-0.142	-0.273
-326.143	-131.566	-0.264	-0.035
-325.129	-6.738	0.066	-0.045
-324.114	-200.000	-0.021	-0.100
-323.099	10.134	-0.173	0.130
-322.085	-200.000	0.028	0.344
-321.070	-71.440	-0.073	0.027
-320.056	334.372	-0.080	0.153
-319.041	42.908	0.047	-0.043
-318.026	32.187	0.211	0.181
-317.012	-35.049	-0.135	0.073
-315.997	-83.653	-0.209	0.066
-314.983	800.000	-0.044	0.161
-313.968	-182.164	-0.061	0.001
-312.953	-131.867	-0.351	0.046
-311.939	72.789	-0.144	0.149
-310.924	58.470	0.198	-0.193
-309.910	-119.826	0.135	-0.023
-308.895	-200.000	0.016	0.236
-307.880	12.020	0.303	0.232
-306.866	-74.029	-0.296	-0.107
-305.851	-172.475	-0.046	0.001
-304.837	-64.283	-0.096	-0.039
-303.822	362.384	0.110	0.220
-302.807	665.944	0.160	-0.410
-301.793	54.021	-0.240	-0.229
-300.778	18.003	0.127	-0.101
-299.764	800.000	0.155	-0.526
-298.749	-48.040	-0.117	-0.056
-297.735	232.460	-0.121	-0.197
-296.720	277.899	0.170	0.301
-295.705	-73.855	0.183	-0.066
-294.691	112.918	0.348	0.418
-293.676	-151.545	0.424	-0.031
-292.662	-114.083	-0.134	-0.026
-291.647	86.062	0.105	0.115
-290.632	-59.847	0.268	0.114
-289.618	0.404	-0.048	0.034
-288.603	800.000	-0.098	0.314
-287.589	12.383	0.141	-0.108
-286.574	-113.380	-0.245	0.048
-285.559	-200.000	-0.027	0.149
-284.545	88.468	0.221	0.244
-283.530	86.972	0.304	-0.333
-282.516	365.709	-0.115	-0.230
-281.501	173.047	-0.202	-0.288
-280.486	-71.231	0.323	-0.120
-279.472	334.159	-0.041	0.079
-278.457	-4.677	-0.143	-0.098
-277.443	-138.257	0.329	0.036
-276.428	467.834	0.096	0.213
-275.413	61.112	0.120	0.119
-274.399	87.033	-0.084	0.092
-273.384	-200.000	0.032	0.420
-272.370	78.818	0.305	0.324
-271.355	98.314	-0.113	0.129
-270.340	-21.785	0.149	0.090
-269.326	-200.000	-0.046	-0.241
-268.311	182.663	-0.056	-0.082
-267.297	-187.471	-0.142	0.002
-266.282	-176.037	0.151	-0.004
-265.267	21.886	-0.066	-0.053
-264.253	53.157	0.144	-0.136
-263.238	-200.000	-0.029	0.273
-262.224	76.288	-0.134	0.141
-261.209	-200.000	0.043	0.288
-260.195	703.855	0.080	0.210
-259.180	110.690	0.226	0.269
-258.165	110.359	0.155	-0.184
-257.151	-200.000	-0.019	0.141
-256.136	78.464	-0.109	0.115
-255.122	-140.056	-0.245	0.026
-254.107	17.200	0.237	0.187
-253.092	-163.841	0.043	-0.002
-252.078	800.000	-0.064	-0.219
-251.063	-147.707	-0.260	0.022
-250.049	23.856	0.076	0.062
-249.034	-134.790	-0.356	-0.043
-248.019	800.000	-0.028	0.078
-247.005	643.709	0.056	0.141
-245.990	-18.344	0.301	0.186
-244.976	-154.934	-0.301	-0.020
-243.961	-132.282	-0.103	-0.013
-242.946	-0.261	0.125	0.088
-241.932	-51.347	0.177	-0.082
-240.917	-127.447	-0.202	0.029
-239.903	800.000	0.029	0.116
-238.888	-200.000	-0.029	-0.217
-237.873	0.943	0.194	0.138
-236.859	243.693	-0.158	0.262
-235.844	20.363	0.096	-0.077
-234.830	-29.903	0.315	-0.178
-233.815	-134.280	-0.341	0.042
-232.800	-200.000	-0.074	0.372
-231.786	53.352	0.231	0.219
-230.771	-109.550	0.257	-0.054
-229.757	-121.213	0.260	0.043
-228.742	-200.000	-0.007	0.185
-227.727	443.189	-0.018	0.040
-226.713	-200.000	-0.001	-0.144
-225.698	-200.000	0.016	0.121
-224.684	77.139	-0.091	0.096
-223.669	147.416	0.104	0.138
-222.655	-2.770	0.099	0.069
-221.640	-190.811	-0.217	0.002
-220.625	199.680	-0.224	-0.339
-219.611	233.268	-0.129	-0.210
-218.596	97.639	0.226	-0.257
-217.582	35.914	0.062	0.054
-216.567	-200.000	0.020	-0.151
-215.552	-200.000	0.029	0.154
-214.538	-56.532	-0.195	0.086
-213.523	-92.902	-0.014	0.004
-212.509	-121.034	-0.071	0.012
-211.494	-200.000	0.037	0.262
-210.479	-200.000	0.001	0.175
-209.465	103.762	0.219	0.255
-208.450	-200.000	0.016	-0.233
-207.436	-25.939	-0.174	0.101
-206.421	181.852	-0.024	0.035
-205.406	-134.057	0.223	0.027
-204.392	111.763	0.097	0.116
-203.377	-47.650	0.255	0.122
-202.363	-102.113	-0.214	-0.051
-201.348	-120.463	0.244	-0.041
-200.333	597.280	0.054	0.131
-199.319	-200.000	-0.010	-0.046
-198.304	550.915	0.106	0.253
-197.290	-95.525	-0.259	-0.069
-196.275	518.835	-0.195	-0.450
-195.260	-200.000	0.017	0.306
-194.246	-17.749	0.287	0.178
-193.231	165.543	-0.125	0.174
-192.217	44.995	0.228	-0.208
-191.202	-200.000	-0.017	0.188
-190.187	-200.000	0.055	-0.239
-189.173	800.000	0.039	0.154
-188.158	237.159	0.085	-0.139
-187.144	98.603	-0.166	-0.189
-186.129	153.865	-0.056	-0.076
-185.114	79.789	-0.032	0.034
-184.100	-200.000	0.016	0.407
-183.085	41.686	-0.365	0.327
-182.071	-115.196	-0.206	0.039
-181.056	104.519	0.104	0.121
-180.042	361.837	-0.150	-0.297
-179.027	-160.265	-0.290	0.015
-178.012	74.230	0.159	-0.165
-176.998	673.669	-0.027	0.068
-175.983	792.564	0.096	-0.261
-174.969	-90.825	0.157	-0.045
-173.954	-27.699	-0.204	0.117
-172.939	24.026	-0.230	0.187
-171.925	800.000	-0.015	0.043
-170.910	386.141	0.125	0.255
-169.896	-200.000	0.040	-0.000
-168.881	-71.175	0.202	-0.075
-167.866	304.140	-0.207	0.378
-166.852	-200.000	0.003	0.106
-165.837	730.730	0.045	0.118
-164.823	-172.459	-0.219	0.007
-163.808	-105.307	-0.306	0.069
-162.793	85.200	0.174	0.188
-161.779	504.867	-0.188	0.430
-160.764	-140.945	0.023	-0.002
-159.750	-67.056	0.047	-0.018
-158.735	800.000	0.014	-0.061
-157.720	14.215	0.433	0.333
-156.706	12.101	0.183	0.139
-155.691	732.215	0.041	-0.108
-154.677	107.790	0.059	0.069
-153.662	38.005	0.215	0.189
-152.647	242.228	-0.204	-0.337
-151.633	157.741	0.067	-0.091
-150.618	-124.382	-0.089	-0.014
-149.604	21.335	0.115	-0.092
-148.589	-74.315	0.278	-0.099
-147.574	-86.687	0.155	0.047
-146.560	767.592	-0.052	0.140
-145.545	-90.339	0.234	0.067
-144.531	-42.325	0.136	0.069
-143.516	800.000	0.105	-0.309
-142.502	-31.554	0.185	-0.103
-141.487	800.000	0.066	0.193
-140.472	3.586	0.032	-0.023
-139.458	-200.000	-0.069	-0.334
-138.443	677.754	0.047	-0.121
-137.429	-67.995	0.034	-0.013
-136.414	-200.000	-0.046	0.295
-135.399	-200.000	-0.084	0.370
-134.385	-200.000	0.052	-0.449
-133.370	132.564	0.078	-0.099
-132.356	-98.110	0.063	0.016
-131.341	393.975	-0.112	-0.229
-130.326	-66.827	0.154	0.060
-129.312	252.664	0.035	-0.059
-128.297	424.095	0.164	-0.347
-127.283	-122.853	-0.183	-0.029
-126.268	386.291	0.070	0.142
-125.253	33.478	-0.090	-0.077
-124.239	-200.000	0.002	0.077
-123.224	84.265	0.174	-0.188
-122.210	-41.658	-0.213	0.108
-121.195	70.407	-0.011	-0.011
-120.180	-200.000	0.016	0.385
