DTS Sentinel unit serial number:	SN413079Multiplexer serial number:	ORYXHardware model number:	OX4-SRSoftware version number:	ORYX F/W v4.00 Oryx Data Collector v3.7.2.0data status	okinstallation	princeton_trtdifferential loss correction	single-endedforward channel	channel 2reverse channel	N/Adate	2019/09/12time	00:29:10forward acquisition time	60.00reverse acquisition time	0.00gamma	496.2192k internal	0.2324k external	0.2324temperature offset calibration	1.0092default loss term (dB/km)	0.3790temperature slope calibration	1.0000multiplexer offset coefficient	1.0000multiplexer slope coefficient	1.0000fibre end	0.00T internal ref (°C)	33.42T ext. ref 1 (°C)	2.07T ext. ref 2 (°C)	27.94length (m)	temperature (°C)	Stokes	anti-Stokes-747.200	-40.578	0.174	0.091
-746.185	343.830	0.096	0.191
-745.171	-157.192	-0.246	0.015
-744.156	80.501	-0.255	0.277
-743.142	-38.645	0.114	0.061
-742.127	-14.793	0.189	-0.122
-741.112	-167.903	0.228	0.009
-740.098	800.000	-0.181	0.537
-739.083	-29.526	-0.269	0.155
-738.069	-75.226	-0.190	0.068
-737.054	72.606	-0.236	0.249
-736.039	42.787	0.042	0.038
-735.025	623.364	0.111	0.281
-734.010	349.689	-0.107	-0.212
-732.996	76.907	0.255	-0.273
-731.981	380.204	-0.178	0.368
-730.966	-31.517	-0.190	-0.108
-729.952	232.225	-0.115	-0.191
-728.937	-54.588	-0.270	0.123
-727.923	-77.392	-0.412	0.144
-726.908	-7.003	-0.299	-0.205
-725.894	-200.000	0.015	-0.224
-724.879	224.069	-0.073	-0.119
-723.864	-45.219	0.067	0.034
-722.850	-141.323	0.262	0.027
-721.835	295.512	-0.121	0.223
-720.821	-95.114	-0.096	0.026
-719.806	800.000	-0.103	-0.371
-718.791	-96.836	-0.138	0.037
-717.777	645.653	0.156	0.402
-716.762	4.642	0.187	-0.139
-715.748	23.527	-0.106	0.088
-714.733	665.685	-0.054	-0.141
-713.718	-78.684	-0.134	0.046
-712.704	-84.288	0.159	-0.051
-711.689	32.923	-0.172	-0.150
-710.675	-136.673	0.297	0.035
-709.660	407.715	-0.179	-0.381
-708.645	800.000	-0.036	-0.114
-707.631	125.799	0.164	-0.209
-706.616	-200.000	-0.090	-0.489
-705.602	-80.886	-0.145	0.048
-704.587	390.752	0.170	-0.355
-703.572	13.415	-0.069	-0.054
-702.558	136.293	0.121	-0.158
-701.543	-178.430	-0.130	-0.003
-700.529	-2.472	-0.067	0.047
-699.514	800.000	-0.072	0.237
-698.499	-143.542	-0.200	-0.019
-697.485	-11.381	0.066	0.044
-696.470	-200.000	-0.002	-0.226
-695.456	62.685	0.090	0.090
-694.441	-200.000	0.005	-0.035
-693.426	-166.247	0.347	0.015
-692.412	57.780	0.051	0.051
-691.397	800.000	0.015	0.064
-690.383	37.167	-0.040	-0.035
-689.368	-81.384	0.151	0.050
-688.354	728.864	-0.123	-0.330
-687.339	-41.339	0.239	-0.124
-686.324	152.788	0.267	-0.367
-685.310	168.889	0.226	0.325
-684.295	800.000	-0.070	-0.239
-683.281	111.638	-0.247	-0.301
-682.266	-11.653	-0.156	-0.103
-681.251	179.581	-0.102	-0.151
-680.237	800.000	-0.155	-0.495
-679.222	-154.124	0.158	-0.011
-678.208	7.883	0.155	-0.117
-677.193	719.915	0.116	-0.310
-676.178	-12.335	0.275	-0.181
-675.164	-200.000	0.022	-0.288
-674.149	800.000	-0.070	0.212
-673.135	197.129	0.137	-0.211
-672.120	-200.000	-0.011	-0.055
-671.105	264.121	0.096	-0.169
-670.091	-200.000	0.039	-0.291
-669.076	-82.426	0.143	0.047
-668.062	-40.766	-0.078	-0.041
-667.047	-200.000	0.092	0.466
-666.032	800.000	0.048	-0.176
-665.018	-124.471	-0.229	-0.036
-664.003	515.426	0.109	0.257
-662.989	18.183	0.298	0.239
-661.974	800.000	0.035	-0.119
-660.959	98.099	0.042	-0.048
-659.945	179.418	0.350	-0.516
-658.930	-200.000	-0.006	-0.039
-657.916	-83.469	0.134	0.043
-656.901	381.267	0.186	0.384
-655.886	342.295	0.132	-0.260
-654.872	-37.461	-0.132	0.071
-653.857	-34.680	-0.359	-0.197
-652.843	-123.348	-0.265	-0.042
-651.828	-131.352	-0.136	0.018
-650.814	-18.149	0.073	0.046
-649.799	19.412	-0.172	-0.139
-648.784	-49.451	-0.201	-0.096
-647.770	27.031	0.122	0.103
-646.755	-181.536	0.019	0.000
-645.741	-37.128	-0.211	0.114
-644.726	-34.757	0.049	0.027
-643.711	-35.914	-0.101	0.055
-642.697	38.100	0.046	0.041
-641.682	487.837	-0.069	-0.158
-640.668	-84.391	-0.211	0.067
-639.653	-200.000	-0.202	0.001
-638.638	-68.449	0.098	-0.038
-637.624	-45.580	0.443	-0.220
-636.609	-113.528	-0.084	-0.017
-635.595	-184.259	0.177	0.003
-634.580	117.037	0.028	0.035
-633.565	-125.995	-0.170	-0.026
-632.551	800.000	-0.046	0.187
-631.536	233.874	-0.179	-0.297
-630.522	-200.000	0.070	-0.369
-629.507	800.000	0.016	0.054
-628.492	188.048	0.105	0.157
-627.478	800.000	-0.063	-0.237
-626.463	57.768	-0.062	0.061
-625.449	800.000	0.119	-0.344
-624.434	-200.000	0.019	0.228
-623.419	-172.254	0.230	0.007
-622.405	316.015	-0.091	-0.173
-621.390	800.000	-0.046	-0.137
-620.376	-78.539	0.163	-0.056
-619.361	166.870	0.110	0.156
-618.346	-200.000	-0.002	0.266
-617.332	800.000	-0.022	-0.071
-616.317	-67.552	0.259	-0.102
-615.303	3.601	0.122	-0.090
-614.288	643.511	0.081	0.207
-613.273	-121.760	0.265	0.044
-612.259	173.571	-0.118	-0.171
-611.244	-198.514	-0.151	0.001
-610.230	-200.000	-0.042	0.197
-609.215	92.988	-0.217	0.246
-608.201	-200.000	0.002	-0.029
-607.186	800.000	0.080	0.234
-606.171	97.944	-0.357	-0.412
-605.157	30.604	0.289	0.248
-604.142	47.412	0.119	-0.111
-603.128	-101.105	0.192	0.047
-602.113	-70.462	0.214	0.081
-601.098	-137.772	0.203	-0.023
-600.084	-200.000	-0.022	0.124
-599.069	8.952	0.250	-0.189
-598.055	-162.858	-0.123	-0.006
-597.040	401.850	0.090	-0.189
-596.025	-130.646	0.100	0.014
-595.011	-200.000	-0.008	0.324
-593.996	313.993	-0.041	-0.078
-592.982	800.000	-0.036	-0.154
-591.967	-107.850	-0.313	0.068
-590.952	-4.343	0.230	-0.159
-589.938	-76.984	0.083	0.029
-588.923	-139.583	0.192	0.021
-587.909	450.094	-0.037	-0.081
-586.894	36.878	0.105	0.093
-585.879	-1.999	-0.228	0.161
-584.865	-200.000	-0.012	-0.379
-583.850	-108.402	-0.251	0.054
-582.836	-106.384	-0.352	0.079
-581.821	-130.624	-0.398	-0.054
-580.806	-141.584	-0.141	-0.014
-579.792	63.343	0.036	0.036
-578.777	-93.426	-0.225	-0.062
-577.763	-59.151	-0.273	-0.118
-576.748	158.762	-0.054	0.076
-575.733	60.029	0.155	0.153
-574.719	-68.555	0.416	0.162
-573.704	-80.348	0.068	-0.023
-572.690	-200.000	0.013	-0.129
-571.675	-90.120	-0.295	-0.086
-570.661	-200.000	-0.042	0.191
-569.646	17.442	0.041	0.032
-568.631	411.043	0.092	-0.195
-567.617	-200.000	-0.012	-0.414
-566.602	118.626	0.081	0.100
-565.588	278.329	0.165	-0.295
-564.573	595.969	-0.031	-0.078
-563.558	668.412	0.039	-0.100
-562.544	326.471	0.042	-0.080
-561.529	587.733	-0.138	-0.341
-560.515	800.000	0.023	0.064
-559.500	27.046	0.135	-0.113
-558.485	-50.724	0.182	-0.086
-557.471	-200.000	-0.063	0.278
-556.456	-200.000	0.040	0.194
-555.442	80.934	-0.194	0.209
-554.427	-120.825	0.256	-0.043
-553.412	800.000	-0.061	0.267
-552.398	-52.207	0.262	0.122
-551.383	-34.508	0.042	-0.023
-550.369	800.000	0.031	0.104
-549.354	745.567	0.043	0.117
-548.339	-157.084	0.316	-0.019
-547.325	-200.000	0.012	-0.256
-546.310	12.469	-0.343	0.265
-545.296	-148.349	0.188	-0.015
-544.281	-82.021	-0.092	0.030
-543.266	800.000	-0.029	-0.092
-542.252	-164.548	-0.231	0.011
-541.237	600.250	0.035	0.088
-540.223	-27.122	-0.181	0.106
-539.208	800.000	0.062	-0.188
-538.193	-200.000	0.010	0.110
-537.179	35.378	0.145	-0.127
-536.164	115.431	-0.158	-0.193
-535.150	-15.885	0.025	-0.016
-534.135	39.476	-0.190	-0.170
-533.121	-156.365	0.172	0.011
-532.106	800.000	0.093	0.270
-531.091	178.491	0.102	0.149
-530.077	-200.000	-0.008	-0.140
-529.062	358.873	-0.173	0.345
-528.048	-200.000	0.012	-0.245
-527.033	-114.205	-0.523	0.101
-526.018	-200.000	-0.043	-0.270
-525.004	-200.000	-0.039	-0.182
-523.989	-100.093	-0.213	-0.053
-522.975	-83.647	0.306	0.098
-521.960	-57.560	-0.174	-0.076
-520.945	35.005	-0.130	-0.114
-519.931	-30.052	-0.125	0.071
-518.916	75.132	-0.220	0.232
-517.902	-176.345	0.193	0.005
-516.887	-104.335	-0.325	-0.075
-515.872	22.042	-0.363	-0.297
-514.858	800.000	0.022	-0.094
-513.843	396.718	-0.121	-0.253
-512.829	13.763	0.123	0.096
-511.814	-50.552	-0.249	0.117
-510.799	800.000	0.088	-0.285
-509.785	149.765	0.214	0.290
-508.770	295.189	-0.181	-0.331
-507.756	12.161	-0.292	-0.224
-506.741	800.000	-0.078	-0.242
-505.726	800.000	0.062	0.256
-504.712	-200.000	-0.026	0.475
-503.697	-200.000	-0.005	-0.195
-502.683	-142.885	-0.260	-0.025
-501.668	-43.892	-0.235	-0.118
-500.653	800.000	0.109	-0.316
-499.639	44.578	0.214	0.196
-498.624	-200.000	0.043	0.461
-497.610	800.000	0.041	0.147
-496.595	-89.364	-0.115	-0.034
-495.581	0.143	-0.220	-0.157
-494.566	-81.429	0.220	-0.072
-493.551	-200.000	-0.061	-0.337
-492.537	-97.026	-0.090	0.024
-491.522	-200.000	0.032	0.248
-490.508	212.890	-0.134	0.211
-489.493	-23.090	0.193	-0.116
-488.478	-104.038	-0.151	-0.035
-487.464	-139.476	-0.133	0.014
-486.449	-200.000	-0.025	-0.147
-485.435	-200.000	0.022	0.131
-484.420	-33.032	0.254	-0.141
-483.405	156.810	0.109	0.151
-482.391	709.584	-0.038	-0.101
-481.376	21.486	0.195	-0.158
-480.362	-180.155	-0.313	0.007
-479.347	177.860	0.263	-0.383
-478.332	-200.000	-0.018	0.185
-477.318	88.295	-0.156	0.173
-476.303	-104.224	0.131	0.030
-475.289	-96.678	-0.385	-0.101
-474.274	-131.879	0.151	-0.020
-473.259	800.000	0.122	0.500
-472.245	100.409	0.039	0.046
-471.230	49.806	-0.073	-0.069
-470.216	269.955	0.191	0.336
-469.201	800.000	0.071	-0.261
-468.186	-58.153	0.103	-0.045
-467.172	-144.449	0.455	-0.042
-466.157	800.000	0.030	0.100
-465.143	-173.386	-0.264	0.008
-464.128	800.000	0.124	-0.537
-463.113	165.631	0.126	-0.178
-462.099	100.565	0.045	-0.052
-461.084	127.920	-0.180	0.228
-460.070	-48.854	-0.135	-0.065
-459.055	72.908	-0.212	0.221
-458.040	-138.244	0.464	0.051
-457.026	800.000	-0.078	0.234
-456.011	-200.000	-0.008	-0.255
-454.997	-200.000	-0.015	-0.156
-453.982	-110.828	0.154	-0.032
-452.968	-134.283	0.229	-0.028
-451.953	526.893	-0.068	0.161
-450.938	468.240	-0.073	0.164
-449.924	-103.128	0.310	0.073
-448.909	800.000	-0.092	0.325
-447.895	381.699	0.012	-0.026
-446.880	136.750	-0.288	0.376
-445.865	-153.291	0.316	0.022
-444.851	-84.530	0.132	0.041
-443.836	-6.595	0.161	-0.109
-442.822	-200.000	-0.052	0.295
-441.807	208.477	0.070	-0.109
-440.792	-200.000	-0.022	-0.211
-439.778	549.870	0.084	-0.200
-438.763	-20.266	-0.136	0.084
-437.749	800.000	0.065	-0.208
-436.734	-200.000	-0.029	0.406
-435.719	800.000	-0.024	-0.093
-434.705	800.000	-0.074	-0.235
-433.690	108.106	0.015	-0.018
-432.676	-68.552	0.244	0.094
-431.661	55.445	-0.373	0.360
-430.646	67.767	0.197	-0.201
-429.632	-125.555	-0.026	-0.004
-428.617	-107.101	0.449	0.099
-427.603	-200.000	0.002	0.059
-426.588	800.000	0.053	0.157
-425.573	-128.606	0.183	-0.026
-424.559	-66.469	0.142	-0.056
-423.544	-113.342	0.235	-0.046
-422.530	406.134	-0.175	-0.368
-421.515	-124.704	0.206	0.032
-420.500	2.421	-0.355	0.256
-419.486	-200.000	0.053	0.251
-418.471	311.811	0.156	0.291
-417.457	523.114	-0.093	0.218
-416.442	-200.000	0.039	-0.254
-415.428	-68.325	0.148	-0.057
-414.413	-68.628	0.394	0.152
-413.398	-25.491	0.199	-0.117
-412.384	800.000	-0.121	-0.387
-411.369	-200.000	-0.011	0.404
-410.355	-200.000	0.009	0.266
-409.340	-83.149	-0.108	0.035
-408.325	800.000	-0.066	-0.204
-407.311	186.400	0.175	-0.260
-406.296	152.652	-0.137	-0.187
-405.282	-158.211	-0.264	0.015
-404.267	-200.000	-0.006	0.199
-403.252	800.000	-0.077	0.217
-402.238	70.596	-0.132	0.136
-401.223	-190.050	-0.233	-0.003
-400.209	-15.002	-0.147	0.094
-399.194	-82.290	0.143	-0.046
-398.179	476.906	-0.153	0.345
-397.165	-166.492	0.055	0.002
-396.150	-85.912	0.529	0.163
-395.136	255.406	-0.011	0.018
-394.121	-200.000	0.141	0.001
-393.106	536.762	-0.127	0.300
-392.092	-200.000	0.013	0.097
-391.077	105.742	0.107	0.126
-390.063	800.000	-0.038	0.135
-389.048	649.783	-0.042	-0.107
-388.033	800.000	-0.066	0.269
-387.019	685.996	0.055	-0.143
-386.004	-52.476	-0.234	0.108
-384.990	447.566	-0.054	0.118
-383.975	21.257	-0.129	0.105
-382.960	-200.000	0.028	0.157
-381.946	-57.280	-0.292	-0.128
-380.931	-200.000	-0.021	-0.113
-379.917	800.000	0.045	-0.126
-378.902	-114.696	-0.261	-0.050
-377.888	30.681	0.150	0.128
-376.873	268.704	-0.120	0.209
-375.858	-60.275	-0.361	0.153
-374.844	-68.803	-0.192	-0.074
-373.829	-4.525	0.098	0.067
-372.815	67.171	0.109	0.110
-371.800	-130.482	0.021	0.003
-370.785	347.328	-0.137	-0.269
-369.771	-67.103	-0.203	-0.080
-368.756	-48.264	-0.142	-0.068
-367.742	-200.000	-0.010	-0.064
-366.727	639.735	0.135	0.343
-365.712	-3.168	-0.141	-0.098
-364.698	-50.447	-0.118	-0.056
-363.683	102.165	-0.078	0.090
-362.669	91.070	-0.152	0.170
-361.654	-32.364	0.282	-0.156
-360.639	-164.722	0.319	0.014
-359.625	34.274	-0.230	-0.199
-358.610	-119.089	-0.241	0.042
-357.596	7.074	0.079	0.059
-356.581	-128.047	-0.132	0.019
-355.566	52.699	0.055	-0.053
-354.552	-37.955	-0.206	-0.109
-353.537	-200.000	-0.011	-0.136
-352.523	116.597	0.161	0.196
-351.508	-200.000	0.033	0.179
-350.493	-29.676	0.115	-0.065
-349.479	2.208	-0.121	-0.087
-348.464	-125.373	0.137	0.021
-347.450	21.864	0.217	-0.176
-346.435	-200.000	0.034	-0.245
-345.420	800.000	0.049	0.210
-344.406	-131.815	0.238	-0.031
-343.391	-45.995	0.460	-0.225
-342.377	800.000	0.045	-0.147
-341.362	800.000	-0.046	0.190
-340.348	-200.000	-0.008	0.074
-339.333	-111.500	-0.378	0.076
-338.318	-86.692	0.121	-0.037
-337.304	99.671	0.137	-0.157
-336.289	-106.125	0.432	0.096
-335.275	800.000	0.017	-0.069
-334.260	-45.031	-0.049	0.024
-333.245	-200.000	0.045	0.212
-332.231	-32.337	-0.309	-0.171
-331.216	800.000	0.093	-0.340
-330.202	-5.703	-0.293	-0.199
-329.187	-200.000	-0.015	0.129
-328.172	-200.000	0.009	-0.272
-327.158	-32.089	0.396	-0.220
-326.143	-20.113	0.186	0.114
-325.129	-89.361	0.068	-0.020
-324.114	-168.523	0.154	-0.006
-323.099	94.373	-0.147	-0.165
-322.085	68.613	-0.094	-0.096
-321.070	163.427	0.230	-0.321
-320.056	-135.851	0.449	-0.053
-319.041	-200.000	-0.060	0.292
-318.026	-87.746	-0.214	-0.064
-317.012	800.000	0.014	-0.046
-315.997	24.510	0.394	-0.324
-314.983	156.248	0.204	-0.279
-313.968	-81.466	-0.217	-0.071
-312.953	-56.336	0.342	0.151
-311.939	-129.788	0.121	0.017
-310.924	-11.298	-0.183	-0.120
-309.910	-111.199	0.171	0.035
-308.895	-200.000	0.019	-0.243
-307.880	129.904	-0.067	-0.085
-306.866	756.096	0.068	-0.182
-305.851	-67.834	-0.228	-0.089
-304.837	-110.366	0.076	-0.016
-303.822	17.681	0.113	-0.089
-302.807	-62.815	-0.165	-0.068
-301.793	-39.932	0.158	-0.082
-300.778	-33.836	0.135	0.074
-299.764	35.748	0.064	0.056
-298.749	-200.000	0.016	-0.313
-297.735	-152.405	0.269	-0.019
-296.720	-200.000	0.001	0.383
-295.705	588.655	0.094	0.229
-294.691	324.600	-0.060	-0.114
-293.676	306.205	0.150	0.277
-292.662	-121.093	-0.448	-0.074
-291.647	426.944	-0.139	-0.297
-290.632	-23.784	-0.094	-0.056
-289.618	-23.800	0.216	-0.128
-288.603	-130.941	0.094	-0.012
-287.589	28.255	-0.169	0.141
-286.574	-114.849	0.300	-0.057
-285.559	240.411	-0.073	0.121
-284.545	251.920	-0.150	-0.254
-283.530	13.850	0.149	0.115
-282.516	332.470	-0.240	0.460
-281.501	-111.742	0.129	-0.026
-280.486	174.948	0.087	-0.125
-279.472	13.191	-0.125	-0.096
-278.457	43.269	-0.095	-0.086
-277.443	517.386	-0.014	-0.032
-276.428	186.619	0.138	-0.203
-275.413	2.077	-0.075	0.053
-274.399	-77.588	-0.255	0.087
-273.384	-200.000	0.026	0.157
-272.370	-179.958	0.427	0.009
-271.355	-11.135	-0.148	0.097
-270.340	72.337	-0.136	0.141
-269.326	-110.960	0.402	-0.082
-268.311	-67.700	0.532	-0.206
-267.297	234.154	-0.229	-0.374
-266.282	221.254	-0.103	-0.164
-265.267	-80.082	-0.253	0.084
-264.253	-200.000	-0.061	-0.472
-263.238	333.445	0.140	-0.267
-262.224	-133.941	-0.281	-0.035
-261.209	-19.386	-0.269	0.165
-260.195	-100.918	0.134	-0.033
-259.180	800.000	0.095	-0.332
-258.165	-46.023	0.160	-0.078
-257.151	14.743	0.052	0.040
-256.136	357.777	-0.212	0.418
-255.122	109.943	-0.128	0.153
-254.107	-92.257	-0.078	-0.022
-253.092	-91.475	-0.160	0.045
-252.078	21.871	0.200	0.162
-251.063	302.968	-0.026	-0.048
-250.049	274.946	0.234	0.410
-249.034	252.321	-0.152	0.257
-248.019	800.000	-0.143	0.431
-247.005	-26.140	-0.203	-0.118
-245.990	-200.000	0.097	0.580
-244.976	-15.339	-0.293	0.186
-243.961	800.000	0.068	0.249
-242.946	-165.347	-0.203	0.009
-241.932	800.000	0.048	-0.131
-240.917	800.000	0.099	0.298
-239.903	683.718	0.098	0.254
-238.888	-50.486	-0.055	0.026
-237.873	800.000	0.084	-0.281
-236.859	230.388	0.171	-0.276
-235.844	31.964	-0.295	0.251
-234.830	-34.600	0.123	0.067
-233.815	-177.781	-0.175	-0.004
-232.800	-200.000	0.000	0.176
-231.786	203.791	-0.026	-0.040
-230.771	1.404	0.166	0.118
-229.757	12.369	0.341	-0.260
-228.742	127.397	0.106	-0.133
-227.727	237.839	-0.125	-0.205
-226.713	-47.907	-0.268	-0.128
-225.698	610.567	-0.070	0.172
-224.684	-167.382	-0.420	-0.017
-223.669	-87.259	0.298	-0.089
-222.655	-200.000	-0.047	0.241
-221.640	-151.344	0.105	-0.008
-220.625	-51.320	-0.204	0.094
-219.611	-117.056	-0.377	0.068
-218.596	-76.332	-0.269	-0.094
-217.582	-68.350	0.253	0.097
-216.567	-58.423	0.254	0.109
-215.552	-24.784	-0.173	-0.102
-214.538	-200.000	-0.022	-0.235
-213.523	560.484	-0.210	-0.502
-212.509	-37.118	0.308	0.163
-211.494	-200.000	0.050	-0.380
-210.479	-149.220	0.459	0.036
-209.465	-106.183	-0.164	0.036
-208.450	-10.839	-0.069	0.045
-207.436	-200.000	-0.034	0.204
-206.421	141.480	-0.186	0.243
-205.406	800.000	0.015	0.041
-204.392	-52.178	0.323	-0.148
-203.377	156.468	-0.156	-0.213
-202.363	-179.124	0.137	-0.003
-201.348	-24.609	0.036	0.021
-200.333	800.000	-0.048	0.136
-199.319	-200.000	-0.030	0.410
-198.304	401.634	-0.158	0.328
-197.290	-200.000	0.004	0.265
-196.275	454.729	0.055	0.120
-195.260	491.041	0.084	0.190
-194.246	-51.602	0.188	0.087
-193.231	-18.079	0.107	-0.066
-192.217	616.436	-0.069	0.172
-191.202	328.055	-0.094	-0.178
-190.187	635.348	-0.046	-0.115
-189.173	659.131	-0.049	0.124
-188.158	47.885	0.082	-0.075
-187.144	-152.538	0.339	0.024
-186.129	-132.757	-0.218	0.028
-185.114	-43.072	-0.035	-0.018
-184.100	-51.479	-0.151	-0.070
-183.085	88.399	-0.264	0.289
-182.071	-200.000	0.041	-0.271
-181.056	305.473	0.074	0.135
-180.042	800.000	0.135	-0.368
-179.027	800.000	0.027	-0.104
-178.012	-15.092	-0.410	0.259
-176.998	31.324	0.213	0.181
-175.983	-128.156	0.135	-0.019
-174.969	714.332	-0.064	-0.168
-173.954	-20.066	0.335	-0.204
-172.939	-200.000	-0.047	-0.232
-171.925	-58.190	0.202	-0.087
-170.910	-54.705	0.039	0.017
-169.896	-88.295	-0.289	0.085
-168.881	304.612	-0.059	-0.108
-167.866	327.983	-0.014	-0.027
-166.852	-28.017	-0.243	-0.139
-165.837	168.914	0.136	0.191
-164.823	800.000	-0.138	0.409
-163.808	-200.000	0.017	-0.117
-162.793	238.758	-0.246	-0.403
-161.779	-79.074	-0.256	0.086
-160.764	-110.962	-0.258	0.052
-159.750	-26.874	0.133	-0.077
-158.735	240.317	-0.026	0.043
-157.720	235.002	0.170	0.277
-156.706	-200.000	-0.015	-0.394
-155.691	47.532	-0.093	0.085
-154.677	-12.627	-0.300	0.193
-153.662	-137.836	0.265	0.029
-152.647	112.928	0.130	-0.156
-151.633	-115.320	-0.234	0.044
-150.618	495.754	-0.018	-0.042
-149.604	243.824	0.079	-0.131
-148.589	800.000	-0.112	0.362
-147.574	-33.052	0.071	0.039
-146.560	-10.550	-0.289	-0.189
-145.545	-56.456	-0.110	0.048
-144.531	-85.521	0.208	0.064
-143.516	-42.104	0.134	-0.067
-142.502	-200.000	0.019	0.313
-141.487	800.000	0.015	-0.053
-140.472	-104.846	-0.114	0.026
-139.458	-119.172	0.300	0.052
-138.443	800.000	-0.053	-0.197
-137.429	800.000	0.067	-0.196
-136.414	-143.990	0.157	0.015
-135.399	-103.574	0.192	0.044
-134.385	-200.000	-0.034	-0.150
-133.370	-168.978	0.179	0.007
-132.356	800.000	0.069	0.274
-131.341	-200.000	0.009	-0.232
-130.326	-200.000	-0.011	0.191
-129.312	-62.361	0.223	0.091
-128.297	-28.458	0.135	0.076
-127.283	800.000	0.047	0.160
-126.268	-200.000	0.061	0.296
-125.253	-105.839	0.334	-0.074
-124.239	-85.779	0.194	0.059
-123.224	785.797	0.094	0.255
-122.210	-47.161	0.061	0.029
