DTS Sentinel unit serial number:	SN413079Multiplexer serial number:	ORYXHardware model number:	OX4-SRSoftware version number:	ORYX F/W v4.00 Oryx Data Collector v3.7.2.0data status	okinstallation	princeton_trtdifferential loss correction	single-endedforward channel	channel 2reverse channel	N/Adate	2019/09/12time	00:09:11forward acquisition time	60.00reverse acquisition time	0.00gamma	496.2192k internal	0.2324k external	0.2324temperature offset calibration	1.0084default loss term (dB/km)	0.3790temperature slope calibration	1.0000multiplexer offset coefficient	1.0000multiplexer slope coefficient	1.0000fibre end	0.00T internal ref (°C)	33.64T ext. ref 1 (°C)	2.01T ext. ref 2 (°C)	28.20length (m)	temperature (°C)	Stokes	anti-Stokes-747.200	-133.087	0.389	-0.050
-746.185	30.886	-0.113	0.098
-745.171	-200.000	-0.005	-0.208
-744.156	-9.604	-0.176	0.118
-743.142	-98.769	0.238	0.061
-742.127	32.619	-0.169	0.147
-741.112	-21.194	-0.156	0.096
-740.098	70.001	-0.252	0.262
-739.083	-100.445	0.208	0.052
-738.069	243.808	-0.112	-0.189
-737.054	18.054	0.106	0.085
-736.039	143.661	-0.166	-0.223
-735.025	747.454	0.097	0.263
-734.010	-200.000	0.003	0.220
-732.996	-122.479	-0.324	-0.053
-731.981	-45.449	0.148	0.074
-730.966	30.644	-0.149	0.128
-729.952	36.255	-0.174	-0.155
-728.937	-142.493	0.130	0.013
-727.923	200.794	-0.168	-0.260
-726.908	244.976	0.150	-0.254
-725.894	-200.000	-0.003	-0.209
-724.879	0.758	0.316	-0.228
-723.864	-4.528	-0.124	0.086
-722.850	800.000	0.068	-0.251
-721.835	800.000	-0.126	-0.353
-720.821	18.384	0.092	0.074
-719.806	-200.000	-0.032	-0.169
-718.791	647.559	0.051	-0.133
-717.777	451.975	0.073	-0.163
-716.762	70.160	0.178	0.185
-715.748	800.000	0.010	0.036
-714.733	800.000	-0.027	-0.115
-713.718	530.101	-0.056	0.133
-712.704	-153.123	-0.148	0.010
-711.689	-172.778	-0.264	0.008
-710.675	-38.666	0.320	-0.171
-709.660	-62.672	-0.212	-0.089
-708.645	151.090	-0.015	0.021
-707.631	-200.000	-0.030	-0.421
-706.616	89.263	0.210	-0.236
-705.602	-5.749	0.209	0.144
-704.587	-9.812	-0.140	0.094
-703.572	12.192	0.061	0.047
-702.558	59.803	-0.205	0.204
-701.543	224.613	0.041	0.067
-700.529	-200.000	0.017	-0.164
-699.514	-34.868	-0.072	-0.040
-698.499	800.000	-0.078	-0.339
-697.485	-200.000	-0.057	-0.549
-696.470	61.447	-0.153	-0.154
-695.456	-200.000	-0.015	0.084
-694.441	71.725	0.137	-0.143
-693.426	-24.366	0.184	-0.111
-692.412	-22.749	0.210	-0.127
-691.397	800.000	-0.071	0.296
-690.383	-80.749	-0.144	-0.048
-689.368	-200.000	-0.050	0.308
-688.354	-3.140	-0.265	-0.186
-687.339	-157.213	0.386	-0.024
-686.324	-85.392	0.059	0.018
-685.310	800.000	-0.070	0.211
-684.295	122.835	-0.102	-0.128
-683.281	-200.000	0.028	0.276
-682.266	709.890	-0.082	-0.219
-681.251	46.465	-0.324	-0.303
-680.237	-200.000	0.026	-0.216
-679.222	609.243	0.140	0.352
-678.208	-67.187	0.116	-0.046
-677.193	13.061	-0.163	0.127
-676.178	208.525	-0.089	-0.140
-675.164	-78.540	0.150	-0.052
-674.149	-23.422	0.249	0.151
-673.135	286.490	-0.175	-0.317
-672.120	-12.031	0.189	-0.125
-671.105	800.000	-0.169	-0.515
-670.091	-103.833	0.375	0.088
-669.076	-3.691	-0.285	-0.200
-668.062	-107.088	0.116	-0.026
-667.047	-101.661	0.024	0.006
-666.032	127.602	-0.040	0.051
-665.018	800.000	0.062	-0.224
-664.003	740.896	-0.071	0.192
-662.989	41.961	0.113	-0.103
-661.974	102.441	0.185	0.217
-660.959	52.494	-0.256	-0.245
-659.945	-77.017	0.161	0.057
-658.930	-200.000	-0.023	0.205
-657.916	-200.000	-0.040	0.336
-656.901	-49.040	0.061	-0.029
-655.886	-22.795	-0.097	-0.059
-654.872	340.185	0.071	-0.140
-653.857	800.000	-0.056	0.198
-652.843	110.575	-0.243	0.294
-651.828	800.000	0.047	-0.150
-650.814	-40.943	0.345	0.180
-649.799	-168.403	-0.140	0.005
-648.784	623.952	0.071	-0.181
-647.770	-60.058	0.158	-0.068
-646.755	-151.281	-0.288	-0.022
-645.741	-98.137	0.321	0.083
-644.726	800.000	0.036	0.129
-643.711	430.894	-0.137	-0.298
-642.697	487.191	0.117	0.268
-641.682	72.111	0.103	-0.108
-640.668	-200.000	-0.029	0.177
-639.653	-200.000	0.071	-0.436
-638.638	-39.643	-0.132	0.069
-637.624	800.000	0.074	-0.220
-636.609	-127.855	-0.319	0.046
-635.595	81.714	-0.292	-0.318
-634.580	337.939	0.073	-0.143
-633.565	-200.000	0.061	0.290
-632.551	630.534	-0.057	-0.145
-631.536	50.830	0.083	0.079
-630.522	647.053	-0.088	-0.225
-629.507	357.569	-0.133	-0.267
-628.492	-166.148	0.578	0.025
-627.478	107.270	-0.049	0.058
-626.463	800.000	0.024	0.083
-625.449	3.628	-0.133	0.097
-624.434	254.776	0.074	-0.127
-623.419	-25.740	0.214	-0.127
-622.405	800.000	-0.037	0.126
-621.390	800.000	-0.051	0.143
-620.376	-31.096	-0.181	0.102
-619.361	-200.000	0.062	-0.384
-618.346	-200.000	-0.003	-0.109
-617.332	112.458	-0.133	0.162
-616.317	800.000	-0.117	0.326
-615.303	-112.893	0.370	0.074
-614.288	48.311	0.190	-0.179
-613.273	-20.647	0.233	-0.144
-612.259	232.676	-0.099	-0.164
-611.244	153.867	0.326	-0.449
-610.230	-116.909	-0.377	-0.069
-609.215	-200.000	-0.010	-0.391
-608.201	144.174	0.264	0.353
-607.186	72.899	0.141	0.148
-606.171	-200.000	-0.011	-0.441
-605.157	-8.921	-0.290	-0.195
-604.142	194.579	0.019	-0.029
-603.128	-42.750	0.111	0.057
-602.113	-200.000	-0.026	-0.124
-601.098	-53.681	0.299	-0.137
-600.084	236.946	-0.114	0.189
-599.069	202.546	0.122	-0.189
-598.055	373.985	-0.126	0.257
-597.040	40.364	0.027	-0.025
-596.025	-61.525	-0.107	0.045
-595.011	-200.000	0.086	-0.379
-593.996	-62.227	-0.138	-0.058
-592.982	2.418	-0.232	-0.169
-591.967	258.813	0.156	-0.270
-590.952	-200.000	-0.013	0.427
-589.938	548.869	-0.171	0.411
-588.923	-142.605	0.114	-0.011
-587.909	-200.000	-0.013	0.260
-586.894	610.222	-0.207	-0.518
-585.879	-81.750	0.365	0.120
-584.865	-200.000	-0.032	0.190
-583.850	-92.776	0.132	0.037
-582.836	-90.549	0.110	0.032
-581.821	-71.446	-0.022	-0.008
-580.806	-153.734	0.160	0.011
-579.792	800.000	0.078	0.268
-578.777	231.241	-0.020	-0.033
-577.763	61.608	0.146	-0.145
-576.748	-200.000	-0.029	-0.282
-575.733	-116.861	0.137	-0.025
-574.719	21.730	0.192	-0.156
-573.704	374.577	0.071	0.145
-572.690	109.762	-0.149	-0.179
-571.675	-200.000	-0.001	0.152
-570.661	78.507	0.171	-0.184
-569.646	-104.614	-0.152	0.035
-568.631	-74.967	0.223	-0.080
-567.617	800.000	-0.051	0.144
-566.602	52.565	-0.126	0.120
-565.588	96.612	-0.007	-0.008
-564.573	-57.892	-0.058	0.026
-563.558	-200.000	-0.012	0.143
-562.544	-74.722	-0.159	-0.057
-561.529	623.297	0.110	0.277
-560.515	-200.000	-0.128	-0.000
-559.500	-54.677	-0.157	-0.071
-558.485	-200.000	-0.036	0.352
-557.471	-46.394	0.359	0.177
-556.456	-200.000	-0.026	0.292
-555.442	516.778	0.065	-0.151
-554.427	-200.000	-0.009	-0.232
-553.412	-22.198	-0.059	0.036
-552.398	197.634	0.222	-0.339
-551.383	800.000	0.053	-0.189
-550.369	-77.455	-0.283	-0.099
-549.354	-29.411	-0.242	-0.139
-548.339	-200.000	0.025	0.152
-547.325	-55.677	-0.084	0.038
-546.310	-200.000	0.003	0.082
-545.296	9.011	0.159	-0.120
-544.281	344.057	-0.086	0.169
-543.266	-85.699	-0.172	-0.054
-542.252	-200.000	-0.016	0.204
-541.237	-37.923	-0.111	0.059
-540.223	424.087	0.130	-0.279
-539.208	-113.984	-0.264	0.051
-538.193	-200.000	-0.013	-0.143
-537.179	800.000	0.081	-0.252
-536.164	-78.497	-0.056	0.019
-535.150	-91.300	0.216	0.062
-534.135	800.000	0.072	-0.222
-533.121	62.581	-0.027	0.027
-532.106	-17.340	-0.151	-0.095
-531.091	-200.000	0.162	0.000
-530.077	314.733	0.071	-0.135
-529.062	-3.779	0.076	-0.053
-528.048	-200.000	0.007	-0.134
-527.033	-200.000	-0.223	-0.001
-526.018	-200.000	0.310	-0.001
-525.004	-103.944	-0.188	-0.044
-523.989	102.433	-0.135	-0.158
-522.975	308.266	-0.087	-0.163
-521.960	267.266	0.127	-0.222
-520.945	800.000	0.101	-0.369
-519.931	63.124	0.146	-0.146
-518.916	800.000	0.084	-0.291
-517.902	238.804	-0.082	0.136
-516.887	-149.043	0.088	-0.007
-515.872	347.665	-0.030	-0.058
-514.858	610.629	-0.111	-0.277
-513.843	169.969	-0.101	0.145
-512.829	24.080	-0.156	0.128
-511.814	-33.931	0.219	0.121
-510.799	54.841	-0.265	0.256
-509.785	-200.000	0.017	0.255
-508.770	-43.902	-0.506	-0.255
-507.756	-120.686	0.355	-0.060
-506.741	-39.104	-0.333	-0.175
-505.726	-200.000	0.005	0.318
-504.712	-4.512	0.025	0.017
-503.697	245.764	0.145	-0.244
-502.683	800.000	0.076	-0.229
-501.668	105.869	0.051	-0.060
-500.653	-200.000	-0.026	-0.186
-499.639	-85.397	0.254	0.079
-498.624	40.385	0.150	-0.135
-497.610	259.286	-0.125	0.216
-496.595	615.287	0.042	0.105
-495.581	26.252	-0.263	0.220
-494.566	800.000	-0.102	-0.353
-493.551	609.584	-0.167	0.418
-492.537	151.521	0.075	0.102
-491.522	-9.111	-0.501	0.335
-490.508	214.868	0.029	0.046
-489.493	-200.000	-0.023	-0.266
-488.478	-112.292	0.185	-0.037
-487.464	-71.716	0.187	-0.070
-486.449	60.088	0.013	-0.013
-485.435	536.933	-0.046	0.109
-484.420	-199.516	0.174	0.001
-483.405	3.459	0.032	-0.023
-482.391	-186.230	-0.112	-0.002
-481.376	-200.000	-0.013	-0.349
-480.362	-127.392	-0.292	0.042
-479.347	-74.581	-0.120	-0.043
-478.332	-142.555	0.077	-0.008
-477.318	-107.741	-0.120	-0.026
-476.303	-94.001	-0.322	0.088
-475.289	719.885	-0.160	0.424
-474.274	239.337	-0.133	-0.222
-473.259	461.586	-0.034	-0.076
-472.245	156.171	-0.102	-0.140
-471.230	592.885	0.175	-0.431
-470.216	13.744	-0.030	0.024
-469.201	21.250	-0.047	0.038
-468.186	-122.402	0.165	-0.027
-467.172	800.000	0.010	0.031
-466.157	19.530	-0.035	0.028
-465.143	-157.264	-0.205	-0.012
-464.128	800.000	0.101	0.316
-463.113	104.463	0.145	-0.170
-462.099	-95.503	-0.412	0.110
-461.084	-32.962	0.054	0.030
-460.070	-200.000	0.010	0.363
-459.055	-125.575	0.224	-0.034
-458.040	186.863	0.097	0.144
-457.026	170.380	-0.141	-0.202
-456.011	108.096	-0.124	-0.148
-454.997	7.423	-0.421	-0.314
-453.982	182.593	-0.158	0.233
-452.968	228.505	0.185	0.302
-451.953	366.280	0.169	-0.340
-450.938	698.968	0.048	0.126
-449.924	555.361	0.071	-0.169
-448.909	-178.964	-0.220	0.005
-447.895	42.435	-0.074	-0.067
-446.880	-200.000	0.024	0.269
-445.865	-111.131	-0.043	0.009
-444.851	800.000	0.077	0.317
-443.836	-200.000	0.002	0.133
-442.822	356.397	-0.217	-0.432
-441.807	-67.311	-0.336	0.132
-440.792	800.000	0.106	0.303
-439.778	-107.854	0.323	0.070
-438.763	-200.000	0.003	0.058
-437.749	-17.231	-0.301	0.189
-436.734	330.547	0.128	0.245
-435.719	304.947	-0.043	0.080
-434.705	437.847	-0.087	0.189
-433.690	800.000	-0.033	-0.132
-432.676	-69.962	0.360	-0.137
-431.661	66.557	-0.226	0.229
-430.646	-42.619	-0.102	-0.052
-429.632	-73.078	0.222	0.081
-428.617	-88.800	0.023	-0.007
-427.603	-200.000	-0.034	-0.181
-426.588	-97.579	-0.213	0.055
-425.573	17.487	-0.044	0.034
-424.559	506.088	-0.111	0.256
-423.544	-142.180	-0.475	0.047
-422.530	-200.000	-0.014	-0.155
-421.515	-180.642	0.290	-0.006
-420.500	657.132	0.070	0.180
-419.486	800.000	0.031	0.129
-418.471	-200.000	-0.032	0.203
-417.457	-88.068	0.068	0.020
-416.442	800.000	0.035	0.100
-415.428	238.673	0.041	0.067
-414.413	21.768	0.195	0.158
-413.398	-152.840	0.141	0.010
-412.384	-192.171	-0.069	0.001
-411.369	62.667	0.186	0.185
-410.355	-80.680	0.116	-0.039
-409.340	800.000	0.052	-0.181
-408.325	270.063	-0.179	0.313
-407.311	68.637	-0.163	0.167
-406.296	-139.434	-0.168	-0.018
-405.282	-20.193	-0.137	0.084
-404.267	242.038	-0.057	0.095
-403.252	-5.142	0.056	-0.038
-402.238	-200.000	0.014	0.315
-401.223	-5.851	0.045	-0.031
-400.209	35.388	0.094	0.082
-399.194	46.805	-0.143	-0.132
-398.179	21.924	0.277	0.225
-397.165	154.189	0.053	0.073
-396.150	-17.903	-0.149	-0.093
-395.136	162.684	0.094	0.131
-394.121	113.030	-0.099	0.119
-393.106	17.482	0.048	-0.038
-392.092	225.162	0.145	0.233
-391.077	-200.000	0.050	0.242
-390.063	28.559	-0.172	0.145
-389.048	-67.827	0.263	0.102
-388.033	-77.757	-0.165	-0.057
-387.019	-98.057	-0.210	-0.054
-386.004	-200.000	0.017	0.094
-384.990	755.624	-0.092	0.248
-383.975	-99.578	-0.208	0.052
-382.960	-74.436	-0.323	0.116
-381.946	-2.430	0.094	-0.065
-380.931	-65.614	0.190	0.076
-379.917	-153.351	-0.132	-0.009
-378.902	437.846	-0.057	0.124
-377.888	-111.921	-0.150	-0.030
-376.873	114.826	0.269	-0.327
-375.858	205.053	-0.225	0.348
-374.844	681.648	-0.068	0.176
-373.829	394.677	0.032	-0.067
-372.815	244.544	-0.061	-0.102
-371.800	-36.264	-0.235	-0.126
-370.785	-93.496	0.149	-0.041
-369.771	-54.497	0.095	-0.043
-368.756	213.479	0.222	0.349
-367.742	-101.090	0.091	0.022
-366.727	110.431	-0.016	0.019
-365.712	106.667	-0.231	-0.273
-364.698	-10.850	0.345	0.227
-363.683	166.720	-0.248	-0.350
-362.669	-51.956	-0.169	0.078
-361.654	-16.464	0.169	-0.107
-360.639	82.495	-0.110	-0.119
-359.625	152.673	-0.120	-0.163
-358.610	178.481	0.177	0.258
-357.596	170.748	0.332	0.472
-356.581	91.749	-0.042	0.046
-355.566	170.659	0.165	-0.235
-354.552	-122.431	0.236	0.038
-353.537	-13.193	-0.168	0.108
-352.523	-200.000	0.030	-0.234
-351.508	-200.000	-0.042	0.307
-350.493	13.628	-0.076	-0.059
-349.479	-67.096	0.261	-0.102
-348.464	-4.565	0.152	-0.105
-347.450	84.691	0.088	0.096
-346.435	-89.097	0.280	0.082
-345.420	800.000	-0.051	-0.155
-344.406	-53.234	0.106	-0.049
-343.391	-165.638	-0.095	-0.004
-342.377	-200.000	0.039	0.321
-341.362	574.730	0.088	0.214
-340.348	133.576	-0.241	0.310
-339.333	-66.398	-0.331	0.131
-338.318	800.000	0.024	-0.069
-337.304	-89.875	-0.136	0.040
-336.289	-104.647	0.473	0.108
-335.275	-200.000	0.077	-0.449
-334.260	-200.000	-0.019	0.262
-333.245	344.096	0.086	0.167
-332.231	-73.449	0.103	0.037
-331.216	-0.269	-0.129	-0.091
-330.202	-160.362	0.361	-0.019
-329.187	-139.204	0.067	0.007
-328.172	398.087	-0.084	-0.175
-327.158	583.215	0.011	0.028
-326.143	-49.244	-0.165	-0.078
-325.129	329.802	-0.078	-0.148
-324.114	-173.503	0.388	0.012
-323.099	-200.000	0.009	-0.174
-322.085	-200.000	0.031	0.173
-321.070	30.190	-0.110	0.093
-320.056	-148.791	-0.194	0.016
-319.041	-28.471	-0.184	-0.105
-318.026	78.481	-0.078	-0.083
-317.012	-68.456	0.131	-0.051
-315.997	-200.000	0.020	-0.217
-314.983	800.000	-0.031	0.098
-313.968	10.009	0.109	0.082
-312.953	151.335	-0.097	0.131
-311.939	195.979	0.106	0.160
-310.924	0.171	-0.201	-0.142
-309.910	-200.000	-0.013	0.209
-308.895	-81.277	0.301	0.099
-307.880	24.515	-0.259	-0.212
-306.866	699.325	0.069	0.180
-305.851	-131.812	0.063	-0.008
-304.837	-200.000	0.003	-0.400
-303.822	-121.626	0.138	0.023
-302.807	-8.893	0.178	-0.119
-301.793	-28.565	-0.098	0.056
-300.778	-125.639	-0.142	-0.021
-299.764	-200.000	0.001	-0.553
-298.749	41.109	0.111	0.100
-297.735	137.716	-0.061	-0.079
-296.720	-131.479	0.328	-0.043
-295.705	310.465	0.142	0.264
-294.691	308.884	-0.184	0.341
-293.676	262.542	0.093	-0.160
-292.662	800.000	-0.039	0.137
-291.647	-200.000	-0.014	0.134
-290.632	800.000	0.057	0.199
-289.618	-200.000	0.010	-0.067
-288.603	622.712	-0.121	-0.302
-287.589	800.000	0.112	-0.434
-286.574	381.998	0.056	0.113
-285.559	20.241	-0.406	0.325
-284.545	81.483	0.275	0.294
-283.530	-163.970	-0.235	0.011
-282.516	-157.236	0.318	-0.019
-281.501	34.734	0.215	0.186
-280.486	95.811	0.097	-0.110
-279.472	-77.391	-0.082	0.028
-278.457	13.649	0.051	-0.040
-277.443	800.000	-0.110	-0.341
-276.428	-171.391	0.289	0.010
-275.413	201.582	-0.114	0.175
-274.399	-181.266	-0.238	0.005
-273.384	-32.241	0.244	0.135
-272.370	-13.608	0.360	-0.231
-271.355	31.124	0.207	-0.176
-270.340	281.824	-0.127	0.225
-269.326	-60.383	-0.200	-0.084
-268.311	-98.786	-0.201	-0.051
-267.297	319.362	0.124	0.232
-266.282	-74.002	-0.097	-0.035
-265.267	246.304	0.193	0.322
-264.253	56.405	0.128	0.123
-263.238	-22.834	0.317	-0.190
-262.224	-43.622	0.192	-0.096
-261.209	547.711	0.076	0.181
-260.195	176.550	0.081	0.117
-259.180	127.841	-0.251	0.316
-258.165	-81.927	0.268	0.087
-257.151	373.365	-0.192	0.386
-256.136	-76.857	-0.250	0.086
-255.122	-200.000	0.041	-0.351
-254.107	666.515	-0.034	-0.086
-253.092	800.000	0.008	0.024
-252.078	-138.411	0.282	-0.031
-251.063	-200.000	-0.006	0.096
-250.049	-200.000	0.034	0.249
-249.034	388.171	0.114	-0.233
-248.019	-96.542	0.097	0.025
-247.005	-96.017	-0.151	0.040
-245.990	-200.000	-0.007	0.037
-244.976	-200.000	0.127	-0.591
-243.961	262.078	0.101	0.173
-242.946	-94.534	0.338	-0.091
-241.932	-200.000	0.043	-0.194
-240.917	-200.000	-0.030	-0.285
-239.903	-1.678	0.153	-0.107
-238.888	-136.227	0.311	0.036
-237.873	-200.000	-0.002	0.186
-236.859	-32.973	-0.072	-0.040
-235.844	-200.000	-0.031	0.218
-234.830	-200.000	0.046	-0.211
-233.815	-31.813	-0.140	0.078
-232.800	-200.000	0.019	-0.096
-231.786	800.000	-0.063	-0.267
-230.771	-124.565	-0.298	-0.046
-229.757	-109.343	-0.110	0.023
-228.742	612.902	-0.080	-0.197
-227.727	55.510	-0.112	-0.108
-226.713	800.000	0.133	-0.409
-225.698	196.819	0.183	0.277
-224.684	548.018	0.121	-0.285
-223.669	-49.498	0.055	-0.026
-222.655	-33.985	0.150	0.082
-221.640	168.636	-0.146	0.205
-220.625	-73.149	0.260	-0.094
-219.611	-179.773	-0.060	-0.001
-218.596	800.000	-0.041	0.116
-217.582	800.000	-0.104	-0.322
-216.567	433.355	0.053	0.113
-215.552	-98.938	0.148	-0.037
-214.538	-77.101	-0.215	0.074
-213.523	-98.773	-0.261	-0.066
-212.509	708.560	0.042	0.110
-211.494	167.699	-0.275	0.387
-210.479	-162.143	-0.201	0.010
-209.465	44.396	0.069	0.063
-208.450	-200.000	-0.017	-0.132
-207.436	-200.000	0.037	-0.194
-206.421	-200.000	-0.021	-0.125
-205.406	-140.143	0.118	-0.012
-204.392	-200.000	0.007	-0.145
-203.377	-124.573	0.249	-0.038
-202.363	308.998	-0.065	0.119
-201.348	-87.683	-0.210	0.063
-200.333	323.887	0.138	-0.260
-199.319	800.000	-0.075	0.292
-198.304	1.455	-0.220	-0.156
-197.290	-107.654	-0.308	0.066
-196.275	-200.000	-0.048	-0.214
-195.260	-85.003	-0.193	0.060
-194.246	272.099	0.211	0.368
-193.231	-110.206	0.289	0.060
-192.217	-28.343	-0.090	-0.051
-191.202	-200.000	-0.038	-0.173
-190.187	-120.833	0.061	-0.010
-189.173	800.000	0.156	-0.428
-188.158	195.192	-0.152	-0.228
-187.144	-200.000	0.013	-0.101
-186.129	-96.894	-0.400	0.104
-185.114	-31.423	0.100	0.055
-184.100	79.513	-0.187	-0.198
-183.085	-101.276	-0.419	0.101
-182.071	-76.127	0.397	0.138
-181.056	352.803	-0.155	0.304
-180.042	40.176	-0.262	0.232
-179.027	-123.077	-0.122	-0.019
-178.012	-37.414	-0.216	-0.114
-176.998	-200.000	-0.004	0.208
-175.983	-200.000	-0.020	-0.123
-174.969	800.000	0.056	-0.197
-173.954	1.412	-0.090	0.064
-172.939	243.962	0.024	-0.039
-171.925	-159.601	0.439	-0.024
-170.910	-130.871	-0.429	0.057
-169.896	-200.000	-0.004	0.190
-168.881	-200.000	-0.013	0.149
-167.866	416.816	0.159	-0.335
-166.852	1.475	-0.177	-0.126
-165.837	-200.000	0.012	0.097
-164.823	75.530	-0.088	0.092
-163.808	-53.297	-0.056	-0.026
-162.793	800.000	-0.103	-0.292
-161.779	-100.860	0.102	-0.025
-160.764	-160.744	0.158	-0.008
-159.750	-41.845	0.393	0.199
-158.735	80.054	-0.014	0.015
-157.720	-125.006	0.123	0.019
-156.706	-33.449	0.296	-0.162
-155.691	-73.472	-0.242	-0.087
-154.677	111.705	0.116	0.138
-153.662	800.000	-0.094	-0.282
-152.647	184.322	-0.193	0.281
-151.633	-168.115	-0.174	0.007
-150.618	-24.606	0.308	0.181
-149.604	-200.000	-0.061	0.294
-148.589	646.463	0.060	0.152
-147.574	-109.336	-0.099	-0.021
-146.560	649.272	-0.066	0.168
-145.545	-168.913	0.125	0.005
-144.531	-101.954	0.093	-0.022
-143.516	75.140	0.015	-0.015
-142.502	800.000	-0.031	-0.104
-141.487	-106.516	-0.051	0.011
-140.472	-27.990	0.089	-0.051
-139.458	98.161	-0.207	0.235
-138.443	505.812	-0.027	0.061
-137.429	-177.563	-0.315	0.008
-136.414	-200.000	0.036	0.267
-135.399	-23.158	0.179	-0.106
-134.385	800.000	0.029	-0.124
-133.370	22.991	-0.345	-0.279
-132.356	94.137	0.195	0.218
-131.341	-3.728	-0.291	-0.199
-130.326	-200.000	-0.026	0.249
-129.312	648.846	-0.091	0.230
-128.297	36.744	-0.234	-0.204
-127.283	229.544	-0.121	-0.195
-126.268	198.147	-0.119	-0.179
-125.253	106.966	-0.025	0.030
-124.239	-95.992	0.505	0.133
-123.224	-54.300	-0.333	-0.149
-122.210	126.184	-0.037	-0.046
-121.195	-37.440	-0.211	0.111
