DTS Sentinel unit serial number:	SN413079Multiplexer serial number:	ORYXHardware model number:	OX4-SRSoftware version number:	ORYX F/W v4.00 Oryx Data Collector v3.7.2.0data status	okinstallation	princeton_trtdifferential loss correction	single-endedforward channel	channel 2reverse channel	N/Adate	2019/09/11time	02:13:11forward acquisition time	60.00reverse acquisition time	0.00gamma	496.2192k internal	0.2331k external	0.2331temperature offset calibration	0.9943default loss term (dB/km)	0.3790temperature slope calibration	1.0000multiplexer offset coefficient	1.0000multiplexer slope coefficient	1.0000fibre end	0.00T internal ref (°C)	29.19T ext. ref 1 (°C)	-0.31T ext. ref 2 (°C)	23.28length (m)	temperature (°C)	Stokes	anti-Stokes-747.200	800.000	-0.030	0.132
-746.185	150.081	-0.086	0.117
-745.171	57.679	0.181	-0.178
-744.156	-128.870	0.331	0.047
-743.142	-84.601	-0.202	0.064
-742.127	5.593	-0.271	-0.202
-741.112	-158.524	0.203	-0.012
-740.098	39.795	-0.249	-0.225
-739.083	237.470	-0.058	-0.097
-738.069	126.283	-0.142	0.180
-737.054	43.554	-0.214	-0.196
-736.039	166.511	-0.162	-0.231
-735.025	10.085	0.057	0.043
-734.010	62.381	-0.274	-0.276
-732.996	572.484	-0.080	-0.196
-731.981	34.574	0.141	0.124
-730.966	-32.811	0.224	-0.125
-729.952	24.153	-0.259	-0.215
-728.937	-107.575	-0.230	-0.051
-727.923	800.000	-0.060	-0.187
-726.908	-162.126	-0.152	-0.008
-725.894	691.641	0.151	-0.397
-724.879	22.428	-0.094	-0.077
-723.864	-91.408	-0.247	-0.071
-722.850	243.794	0.163	0.276
-721.835	794.615	-0.096	-0.266
-720.821	-58.622	-0.299	-0.130
-719.806	104.885	-0.157	-0.186
-718.791	800.000	0.021	-0.083
-717.777	-24.995	0.172	0.102
-716.762	-64.454	-0.309	-0.126
-715.748	68.338	-0.125	-0.128
-714.733	-200.000	0.019	0.104
-713.718	368.868	-0.109	-0.222
-712.704	226.097	0.258	-0.421
-711.689	209.966	-0.130	-0.205
-710.675	228.276	-0.054	-0.088
-709.660	43.168	-0.098	-0.090
-708.645	800.000	-0.089	0.373
-707.631	39.831	0.256	0.231
-706.616	482.331	-0.028	-0.065
-705.602	149.343	-0.069	-0.094
-704.587	716.276	0.144	-0.385
-703.572	800.000	0.052	0.154
-702.558	-58.710	0.311	0.135
-701.543	-46.969	0.312	0.153
-700.529	800.000	-0.111	-0.408
-699.514	-200.000	-0.028	-0.366
-698.499	129.021	0.057	-0.073
-697.485	433.506	-0.069	0.150
-696.470	-78.310	-0.240	0.083
-695.456	-82.218	0.177	0.058
-694.441	-200.000	0.010	-0.176
-693.426	-94.386	-0.484	-0.133
-692.412	800.000	-0.153	-0.486
-691.397	-81.513	0.113	0.037
-690.383	-86.194	-0.127	-0.039
-689.368	149.402	-0.227	-0.308
-688.354	241.391	-0.089	0.150
-687.339	-64.135	-0.173	0.071
-686.324	116.751	-0.230	0.283
-685.310	309.692	-0.083	0.156
-684.295	-200.000	0.028	-0.138
-683.281	-200.000	-0.057	-0.360
-682.266	800.000	0.118	0.427
-681.251	8.323	-0.094	-0.071
-680.237	-74.277	0.109	-0.039
-679.222	-133.759	0.350	0.044
-678.208	800.000	0.074	-0.211
-677.193	-25.128	-0.077	0.046
-676.178	53.791	0.139	0.134
-675.164	800.000	0.029	-0.121
-674.149	-62.676	0.205	0.085
-673.135	-40.473	-0.232	-0.121
-672.120	-75.315	-0.240	0.086
-671.105	-200.000	-0.038	0.216
-670.091	-200.000	0.006	0.124
-669.076	19.705	-0.138	0.112
-668.062	-103.277	0.050	-0.012
-667.047	164.906	0.281	-0.398
-666.032	-99.366	0.093	-0.024
-665.018	-68.947	-0.257	-0.099
-664.003	-200.000	-0.014	-0.298
-662.989	123.680	-0.067	0.085
-661.974	480.181	0.077	-0.175
-660.959	-163.061	-0.181	0.009
-659.945	-103.597	-0.169	0.040
-658.930	-61.675	-0.252	-0.106
-657.916	-51.898	-0.101	-0.047
-656.901	-200.000	-0.012	0.083
-655.886	66.159	0.208	0.212
-654.872	-200.000	-0.022	0.376
-653.857	163.436	0.077	-0.108
-652.843	-142.606	0.529	0.052
-651.828	-87.729	-0.335	-0.101
-650.814	-66.524	0.101	-0.040
-649.799	-198.265	0.296	-0.002
-648.784	-200.000	0.016	0.188
-647.770	-33.324	-0.229	-0.127
-646.755	800.000	0.119	-0.342
-645.741	138.974	-0.127	-0.167
-644.726	-101.787	0.152	0.037
-643.711	-10.111	0.148	-0.099
-642.697	-80.811	0.088	0.029
-641.682	-200.000	-0.067	-0.336
-640.668	-35.715	-0.181	0.098
-639.653	-40.048	0.384	0.201
-638.638	207.976	0.093	0.146
-637.624	800.000	-0.115	-0.368
-636.609	-200.000	-0.012	-0.192
-635.595	-35.847	-0.188	0.102
-634.580	-200.000	0.063	0.329
-633.565	-108.102	-0.215	-0.047
-632.551	-122.679	0.287	-0.047
-631.536	39.712	0.126	0.113
-630.522	800.000	-0.024	0.067
-629.507	223.954	-0.078	0.126
-628.492	800.000	-0.063	-0.192
-627.478	530.065	-0.136	-0.323
-626.463	197.982	0.031	-0.048
-625.449	73.065	-0.268	-0.281
-624.434	-119.867	-0.409	0.070
-623.419	-200.000	-0.010	0.058
-622.405	207.291	-0.066	-0.103
-621.390	508.418	0.058	0.136
-620.376	-200.000	-0.041	-0.361
-619.361	-45.250	-0.167	0.083
-618.346	800.000	0.075	-0.268
-617.332	3.665	-0.140	0.102
-616.317	182.789	0.148	-0.219
-615.303	-107.223	-0.323	-0.071
-614.288	626.378	0.049	0.125
-613.273	-168.457	0.292	-0.011
-612.259	800.000	-0.121	0.406
-611.244	-80.621	0.178	-0.059
-610.230	292.085	-0.060	-0.109
-609.215	800.000	0.033	0.092
-608.201	-200.000	-0.020	-0.256
-607.186	-84.356	-0.175	-0.055
-606.171	633.433	0.098	0.249
-605.157	-146.169	-0.260	0.023
-604.142	-200.000	-0.037	0.227
-603.128	198.826	0.065	0.099
-602.113	800.000	-0.126	-0.357
-601.098	107.584	-0.200	-0.238
-600.084	-88.806	0.294	-0.087
-599.069	519.776	0.024	-0.057
-598.055	-109.809	0.246	0.052
-597.040	-200.000	-0.024	-0.170
-596.025	-79.690	0.056	-0.019
-595.011	61.664	-0.219	-0.218
-593.996	-90.591	-0.286	0.083
-592.982	-158.712	0.213	0.012
-591.967	291.455	-0.083	0.151
-590.952	-40.282	0.018	-0.010
-589.938	158.434	0.105	0.146
-588.923	-45.450	-0.098	-0.049
-587.909	-102.191	0.199	0.048
-586.894	-15.620	0.162	-0.103
-585.879	59.036	-0.054	-0.053
-584.865	27.457	0.115	0.097
-583.850	48.873	0.177	-0.166
-582.836	-200.000	-0.012	-0.135
-581.821	-159.103	0.393	-0.022
-580.806	37.871	-0.162	0.144
-579.792	800.000	-0.045	-0.126
-578.777	27.830	-0.059	-0.049
-577.763	188.948	0.047	-0.070
-576.748	69.066	-0.080	-0.082
-575.733	-200.000	-0.025	0.216
-574.719	-7.986	0.137	0.093
-573.704	800.000	-0.069	0.249
-572.690	58.339	-0.056	0.055
-571.675	800.000	0.077	0.291
-570.661	-34.568	0.083	-0.046
-569.646	13.790	-0.349	-0.272
-568.631	7.846	0.351	-0.263
-567.617	280.517	0.080	-0.143
-566.602	-61.908	-0.293	-0.122
-565.588	-200.000	-0.019	-0.114
-564.573	-156.904	0.216	0.013
-563.558	206.508	-0.144	-0.224
-562.544	60.897	0.076	-0.076
-561.529	219.576	0.126	-0.201
-560.515	99.682	0.066	-0.076
-559.500	-2.409	-0.177	-0.124
-558.485	-104.303	0.436	-0.101
-557.471	-94.144	-0.255	-0.070
-556.456	38.122	-0.028	-0.025
-555.442	800.000	-0.043	0.183
-554.427	-200.000	0.015	0.172
-553.412	-39.785	-0.179	-0.093
-552.398	-76.719	0.249	-0.087
-551.383	304.808	0.104	-0.192
-550.369	703.781	-0.017	-0.046
-549.354	58.586	-0.096	0.094
-548.339	702.132	0.043	-0.114
-547.325	-13.998	-0.145	0.094
-546.310	-200.000	-0.008	-0.286
-545.296	-200.000	-0.013	0.413
-544.281	368.582	0.249	0.503
-543.266	273.512	0.046	-0.082
-542.252	-139.830	0.064	-0.007
-541.237	-29.905	0.135	-0.077
-540.223	-132.188	0.262	-0.034
-539.208	-73.514	0.048	0.018
-538.193	-144.595	-0.265	0.024
-537.179	-200.000	0.055	-0.457
-536.164	274.277	-0.237	-0.419
-535.150	400.464	-0.146	-0.307
-534.135	-200.000	-0.043	-0.236
-533.121	105.443	0.073	-0.086
-532.106	-83.980	-0.124	-0.039
-531.091	238.785	0.079	-0.131
-530.077	-101.517	0.452	-0.110
-529.062	123.589	-0.104	-0.130
-528.048	800.000	0.041	0.167
-527.033	800.000	-0.056	0.211
-526.018	375.990	0.064	-0.130
-525.004	687.352	-0.103	0.268
-523.989	281.280	-0.108	0.194
-522.975	554.165	-0.016	0.038
-521.960	14.308	0.053	0.041
-520.945	88.947	-0.062	-0.069
-519.931	-75.528	-0.171	0.061
-518.916	92.273	-0.129	-0.145
-517.902	-115.606	-0.308	-0.058
-516.887	389.850	0.126	-0.260
-515.872	-36.581	-0.236	0.127
-514.858	402.859	0.100	-0.209
-513.843	138.143	-0.276	-0.360
-512.829	-57.298	0.368	-0.161
-511.814	-2.923	-0.146	-0.102
-510.799	-71.488	-0.368	-0.137
-509.785	-125.905	0.330	-0.050
-508.770	577.827	0.124	-0.301
-507.756	556.013	-0.048	0.114
-506.741	-82.101	0.419	0.136
-505.726	-200.000	0.012	0.174
-504.712	-169.763	0.292	-0.011
-503.697	-51.024	-0.111	0.052
-502.683	68.008	-0.262	-0.267
-501.668	26.190	0.155	-0.129
-500.653	-79.742	0.154	-0.052
-499.639	11.477	-0.048	-0.037
-498.624	-105.183	-0.186	-0.042
-497.610	-200.000	-0.063	-0.457
-496.595	800.000	0.075	-0.223
-495.581	-96.376	-0.206	0.054
-494.566	-130.162	-0.084	0.011
-493.551	-46.138	-0.287	0.141
-492.537	-126.795	-0.177	-0.026
-491.522	457.228	-0.221	-0.490
-490.508	360.853	0.051	0.102
-489.493	-5.928	-0.130	0.089
-488.478	-77.921	-0.375	0.129
-487.464	61.078	-0.111	-0.110
-486.449	191.172	0.182	-0.273
-485.435	-31.107	-0.198	0.111
-484.420	-78.530	0.327	0.111
-483.405	-24.047	-0.100	0.060
-482.391	800.000	0.058	0.245
-481.376	-200.000	-0.010	0.194
-480.362	-87.223	0.170	-0.051
-479.347	-36.844	-0.033	-0.018
-478.332	148.805	0.271	-0.365
-477.318	-200.000	-0.021	0.120
-476.303	800.000	0.055	0.179
-475.289	-189.279	0.147	-0.002
-474.274	121.084	0.136	-0.169
-473.259	-200.000	0.013	-0.065
-472.245	92.833	-0.135	0.152
-471.230	-200.000	-0.033	-0.144
-470.216	-200.000	-0.003	0.044
-469.201	307.346	-0.075	0.139
-468.186	800.000	0.055	-0.227
-467.172	180.621	-0.117	-0.171
-466.157	-116.051	-0.317	0.059
-465.143	41.421	-0.151	0.136
-464.128	29.856	-0.147	0.125
-463.113	133.118	-0.081	-0.105
-462.099	-154.436	-0.122	-0.008
-461.084	-152.920	-0.216	0.015
-460.070	59.697	0.077	-0.075
-459.055	-200.000	0.005	-0.158
-458.040	-86.624	-0.327	-0.100
-457.026	403.232	-0.085	0.178
-456.011	39.827	0.313	-0.279
-454.997	-161.500	-0.079	0.004
-453.982	-200.000	0.021	-0.100
-452.968	-200.000	-0.053	0.258
-451.953	413.531	-0.149	-0.314
-450.938	-155.640	-0.234	-0.015
-449.924	800.000	0.024	-0.085
-448.909	-3.419	-0.138	-0.096
-447.895	-46.183	-0.103	0.051
-446.880	0.934	-0.223	0.159
-445.865	707.181	-0.041	0.107
-444.851	-200.000	-0.003	0.147
-443.836	21.651	0.095	-0.077
-442.822	-68.745	-0.158	-0.061
-441.807	-85.778	-0.359	0.111
-440.792	-200.000	0.026	-0.272
-439.778	800.000	-0.040	0.116
-438.763	13.102	0.201	0.155
-437.749	800.000	-0.035	0.122
-436.734	-118.148	0.181	0.032
-435.719	-22.948	-0.160	0.096
-434.705	800.000	-0.114	0.328
-433.690	-75.834	-0.151	-0.053
-432.676	-69.633	-0.235	-0.089
-431.661	-7.435	-0.228	-0.153
-430.646	-200.000	-0.001	0.075
-429.632	345.926	0.063	-0.124
-428.617	-31.363	0.271	-0.152
-427.603	-159.921	0.406	0.022
-426.588	183.382	0.062	-0.091
-425.573	216.503	-0.120	-0.190
-424.559	249.201	0.051	-0.086
-423.544	43.786	-0.261	0.237
-422.530	-71.000	-0.329	0.123
-421.515	-121.743	0.163	-0.027
-420.500	-200.000	0.017	-0.091
-419.486	-57.576	-0.333	0.145
-418.471	-44.083	0.340	-0.170
-417.457	-200.000	0.037	0.283
-416.442	800.000	-0.088	0.293
-415.428	74.280	0.061	0.063
-414.413	-64.138	-0.162	-0.065
-413.398	-107.766	0.354	-0.077
-412.384	-200.000	0.004	0.180
-411.369	-200.000	0.076	-0.372
-410.355	-200.000	0.010	-0.170
-409.340	-137.266	0.199	-0.023
-408.325	-141.754	-0.088	0.009
-407.311	78.877	0.115	-0.122
-406.296	-99.037	0.509	0.128
-405.282	-200.000	-0.018	0.323
-404.267	22.534	0.159	-0.129
-403.252	204.317	-0.141	0.217
-402.238	-92.003	-0.276	0.078
-401.223	-46.539	0.132	0.064
-400.209	-200.000	-0.032	0.424
-399.194	-119.883	-0.359	-0.061
-398.179	-121.935	-0.225	0.037
-397.165	-174.822	0.121	-0.003
-396.150	61.074	0.090	0.089
-395.136	45.042	-0.280	0.256
-394.121	-13.040	0.389	-0.251
-393.106	-145.252	0.150	0.014
-392.092	-200.000	-0.123	0.000
-391.077	467.057	0.132	0.293
-390.063	-39.403	0.263	0.137
-389.048	173.268	-0.183	0.262
-388.033	-200.000	-0.041	-0.356
-387.019	-100.325	0.115	-0.028
-386.004	-0.853	0.047	-0.033
-384.990	-89.011	-0.288	-0.085
-383.975	-39.657	0.047	-0.024
-382.960	-200.000	-0.015	-0.069
-381.946	-26.635	-0.241	0.140
-380.931	-200.000	0.005	-0.149
-379.917	21.221	0.163	-0.131
-378.902	-140.950	0.134	0.014
-377.888	10.511	0.256	0.193
-376.873	73.881	0.095	-0.098
-375.858	332.564	0.127	0.242
-374.844	800.000	-0.008	0.030
-373.829	8.303	-0.072	-0.054
-372.815	800.000	-0.039	0.108
-371.800	47.704	0.236	-0.218
-370.785	800.000	0.059	-0.223
-369.771	-79.758	0.164	0.055
-368.756	360.789	0.061	-0.121
-367.742	-200.000	0.009	0.065
-366.727	800.000	0.068	0.268
-365.712	-118.111	-0.206	-0.036
-364.698	137.261	-0.087	-0.112
-363.683	-5.466	0.067	0.046
-362.669	600.991	0.060	-0.148
-361.654	125.198	-0.165	0.207
-360.639	-51.786	0.190	0.088
-359.625	497.202	0.028	-0.063
-358.610	620.430	0.100	0.250
-357.596	-59.957	-0.290	-0.123
-356.581	800.000	-0.006	-0.018
-355.566	246.344	0.156	-0.260
-354.552	789.135	0.048	-0.130
-353.537	800.000	0.096	0.360
-352.523	27.867	-0.196	-0.164
-351.508	158.962	0.115	-0.159
-350.493	800.000	-0.051	0.214
-349.479	-20.637	0.212	0.129
-348.464	-200.000	-0.023	0.131
-347.450	800.000	-0.098	-0.359
-346.435	800.000	-0.086	0.363
-345.420	22.222	-0.392	0.317
-344.406	292.062	-0.091	0.164
-343.391	-61.502	0.398	0.166
-342.377	612.009	-0.050	-0.123
-341.362	46.622	0.250	0.230
-340.348	603.161	-0.070	0.173
-339.333	-200.000	0.006	0.061
-338.318	37.498	0.198	-0.174
-337.304	144.737	-0.107	0.142
-336.289	682.395	0.176	0.455
-335.275	-200.000	0.008	0.441
-334.260	370.287	-0.104	0.208
-333.245	278.882	0.096	-0.169
-332.231	42.230	-0.168	-0.151
-331.216	-200.000	0.013	0.193
-330.202	-200.000	-0.046	0.243
-329.187	-63.310	-0.075	-0.031
-328.172	190.781	-0.078	0.116
-327.158	147.653	0.245	-0.327
-326.143	132.562	0.053	0.068
-325.129	431.616	-0.012	0.026
-324.114	-200.000	0.047	0.299
-323.099	242.267	-0.079	0.132
-322.085	304.265	0.152	0.279
-321.070	-110.887	-0.145	-0.030
-320.056	474.344	0.112	-0.249
-319.041	172.395	-0.044	-0.063
-318.026	-200.000	0.004	0.061
-317.012	279.429	0.041	-0.073
-315.997	-33.535	0.184	-0.100
-314.983	-54.876	-0.235	-0.105
-313.968	111.427	0.026	0.031
-312.953	800.000	0.024	0.079
-311.939	263.349	-0.010	-0.018
-310.924	550.397	-0.085	0.202
-309.910	142.817	0.141	-0.185
-308.895	-31.796	0.222	0.123
-307.880	678.759	0.047	0.121
-306.866	-58.821	0.326	0.139
-305.851	316.964	-0.084	-0.156
-304.837	395.860	0.125	-0.258
-303.822	-10.356	-0.276	0.181
-302.807	662.233	-0.043	0.109
-301.793	777.832	-0.067	-0.181
-300.778	-28.291	-0.102	0.058
-299.764	800.000	0.056	-0.181
-298.749	0.764	-0.131	-0.092
-297.735	-0.467	0.157	0.110
-296.720	3.923	0.132	-0.095
-295.705	-133.164	-0.210	0.026
-294.691	-72.513	0.062	0.023
-293.676	-200.000	0.016	0.344
-292.662	-95.939	0.200	-0.053
-291.647	-144.629	-0.208	-0.019
-290.632	-200.000	-0.022	-0.127
-289.618	-95.493	-0.070	0.019
-288.603	189.596	0.153	0.227
-287.589	-124.337	0.306	0.047
-286.574	-200.000	0.062	-0.348
-285.559	-150.858	0.127	-0.009
-284.545	-33.351	-0.158	0.087
-283.530	2.912	-0.124	-0.089
-282.516	316.679	-0.119	-0.223
-281.501	-72.237	-0.210	-0.077
-280.486	-83.928	0.315	-0.099
-279.472	398.702	-0.081	0.168
-278.457	-60.424	0.102	0.043
-277.443	-9.619	0.224	0.147
-276.428	-66.427	0.178	0.070
-275.413	800.000	0.073	0.245
-274.399	-200.000	-0.058	0.311
-273.384	-5.133	0.107	-0.073
-272.370	94.691	-0.110	0.124
-271.355	171.039	0.041	0.058
-270.340	78.068	-0.104	-0.110
-269.326	62.206	-0.212	0.209
-268.311	-200.000	0.034	0.181
-267.297	1.106	0.303	0.215
-266.282	358.766	0.043	-0.085
-265.267	-200.000	-0.027	-0.294
-264.253	-115.194	-0.296	-0.055
-263.238	496.442	-0.064	-0.146
-262.224	42.980	-0.148	-0.133
-261.209	800.000	-0.101	0.338
-260.195	-117.467	0.512	0.091
-259.180	669.901	0.071	0.182
-258.165	305.476	0.033	0.061
-257.151	22.881	0.024	-0.019
-256.136	-10.225	-0.124	0.081
-255.122	800.000	-0.104	-0.320
-254.107	9.262	-0.060	0.045
-253.092	-42.492	0.069	0.035
-252.078	800.000	0.063	-0.226
-251.063	800.000	-0.018	-0.058
-250.049	70.384	-0.115	0.117
-249.034	-96.079	-0.230	0.060
-248.019	751.549	0.029	0.077
-247.005	161.431	-0.071	0.098
-245.990	561.354	0.095	-0.226
-244.976	196.809	-0.123	0.185
-243.961	-15.454	0.104	-0.066
-242.946	-166.379	0.101	0.004
-241.932	-93.897	0.188	-0.051
-240.917	-131.867	0.172	-0.022
-239.903	-82.529	-0.227	-0.073
-238.888	-14.186	0.132	0.084
-237.873	-9.523	-0.147	0.097
-236.859	-92.672	0.205	-0.057
-235.844	388.278	-0.021	0.042
-234.830	-139.706	0.396	-0.042
-233.815	58.688	0.060	-0.058
-232.800	-200.000	-0.112	-0.789
-231.786	160.806	-0.149	0.205
-230.771	53.109	0.076	-0.071
-229.757	-91.232	-0.308	0.087
-228.742	-26.343	-0.033	-0.019
-227.727	117.065	-0.085	0.103
-226.713	800.000	-0.076	0.307
-225.698	-19.965	-0.060	-0.037
-224.684	60.499	0.291	-0.285
-223.669	800.000	0.036	-0.142
-222.655	-200.000	0.019	-0.188
-221.640	-69.810	0.190	-0.072
-220.625	78.095	0.289	0.304
-219.611	-200.000	0.007	0.306
-218.596	210.211	-0.027	0.041
-217.582	-58.154	-0.131	0.056
-216.567	95.304	0.138	0.155
-215.552	-16.125	0.150	-0.094
-214.538	569.243	-0.169	0.405
-213.523	94.463	0.294	0.329
-212.509	231.168	0.034	-0.054
-211.494	-114.645	-0.267	0.050
-210.479	-162.515	-0.152	-0.007
-209.465	-161.387	-0.086	0.004
-208.450	-200.000	-0.014	-0.204
-207.436	-46.700	-0.188	0.091
-206.421	-39.120	0.470	-0.244
-205.406	-200.000	-0.016	-0.122
-204.392	644.321	0.021	0.053
-203.377	-2.074	0.256	0.177
-202.363	-77.297	0.268	-0.092
-201.348	-21.533	-0.111	-0.067
-200.333	-13.580	-0.118	0.075
-199.319	73.191	-0.106	0.109
-198.304	-200.000	0.013	-0.151
-197.290	800.000	-0.074	-0.255
-196.275	-114.531	-0.119	-0.023
-195.260	21.478	-0.052	0.042
-194.246	138.940	-0.068	-0.087
-193.231	36.222	0.129	0.112
-192.217	246.997	0.022	0.036
-191.202	146.796	-0.227	0.300
-190.187	248.633	-0.159	-0.265
-189.173	-200.000	0.000	0.108
-188.158	-200.000	0.000	0.080
-187.144	800.000	0.061	0.222
-186.129	-200.000	-0.013	0.362
-185.114	3.659	0.297	0.214
-184.100	-104.542	-0.079	-0.018
-183.085	386.107	-0.134	-0.272
-182.071	88.025	-0.078	-0.085
-181.056	-74.861	0.583	0.206
-180.042	26.697	-0.373	0.307
-179.027	240.601	0.077	0.126
-178.012	-114.683	0.202	0.038
-176.998	248.091	0.045	-0.076
-175.983	-66.856	0.210	-0.082
-174.969	357.445	0.160	-0.313
-173.954	800.000	0.071	0.231
-172.939	-102.427	0.214	-0.051
-171.925	-29.949	0.043	0.024
-170.910	-92.282	0.155	0.043
-169.896	-89.561	-0.082	0.024
-168.881	262.729	0.048	-0.082
-167.866	113.920	-0.241	0.289
-166.852	129.808	-0.201	0.253
-165.837	-58.104	-0.262	0.113
-164.823	800.000	-0.135	0.486
-163.808	-25.445	-0.335	0.195
-162.793	-68.563	-0.047	0.018
-161.779	154.258	-0.171	-0.231
-160.764	249.714	0.177	-0.296
-159.750	486.061	-0.134	-0.300
-158.735	-52.187	0.301	-0.137
-157.720	800.000	-0.039	-0.136
-156.706	-200.000	-0.019	-0.089
-155.691	318.786	0.032	0.059
-154.677	-200.000	0.024	0.277
-153.662	800.000	0.077	0.248
-152.647	800.000	-0.010	0.040
-151.633	-174.218	-0.219	0.006
-150.618	311.278	-0.094	-0.172
-149.604	61.873	-0.115	-0.112
-148.589	-58.856	-0.218	0.093
-147.574	200.280	0.190	-0.286
-146.560	24.705	-0.128	-0.104
-145.545	524.923	0.058	-0.135
-144.531	-84.796	-0.056	0.017
-143.516	461.921	0.046	-0.102
-142.502	-60.630	-0.105	0.044
-141.487	-200.000	-0.029	0.300
-140.472	-27.582	-0.206	0.118
-139.458	-200.000	0.002	-0.119
-138.443	-148.820	0.478	-0.038
-137.429	26.102	0.189	0.155
-136.414	-200.000	0.011	-0.343
-135.399	10.101	-0.088	-0.066
-134.385	-200.000	-0.455	-0.001
-133.370	-10.085	-0.428	0.279
-132.356	536.159	-0.020	0.046
-131.341	-62.530	0.253	-0.103
-130.326	-8.028	-0.177	0.117
-129.312	-115.374	-0.414	0.077
-128.297	-102.651	-0.027	0.006
-127.283	-41.452	-0.287	0.145
-126.268	-16.558	-0.123	0.077
-125.253	-45.269	-0.343	-0.167
-124.239	187.541	0.096	-0.140
-123.224	54.246	-0.121	0.114
-122.210	210.755	0.030	0.046
-121.195	800.000	0.079	-0.238
