DTS Sentinel unit serial number:	SN413079Multiplexer serial number:	ORYXHardware model number:	OX4-SRSoftware version number:	ORYX F/W v4.00 Oryx Data Collector v3.7.2.0data status	okinstallation	princeton_trtdifferential loss correction	single-endedforward channel	channel 2reverse channel	N/Adate	2019/09/11time	12:09:11forward acquisition time	60.00reverse acquisition time	0.00gamma	496.2192k internal	0.2297k external	0.2297temperature offset calibration	0.9967default loss term (dB/km)	0.3790temperature slope calibration	1.0000multiplexer offset coefficient	1.0000multiplexer slope coefficient	1.0000fibre end	0.00T internal ref (°C)	39.64T ext. ref 1 (°C)	0.20T ext. ref 2 (°C)	37.69length (m)	temperature (°C)	Stokes	anti-Stokes-747.200	496.116	0.046	-0.108
-746.185	-30.809	0.284	0.164
-745.171	-200.000	0.038	-0.211
-744.156	74.578	-0.336	0.361
-743.142	-83.802	-0.402	0.131
-742.127	-200.000	0.046	0.291
-741.112	-161.259	0.072	-0.004
-740.098	-23.028	-0.049	0.030
-739.083	-111.184	-0.367	-0.077
-738.069	162.098	0.088	-0.126
-737.054	3.660	-0.184	0.137
-736.039	-142.846	0.153	0.015
-735.025	20.221	0.070	0.058
-734.010	-200.000	0.022	-0.189
-732.996	-137.715	-0.372	-0.043
-731.981	96.742	-0.255	-0.298
-730.966	649.863	0.049	-0.128
-729.952	113.470	-0.231	-0.287
-728.937	-200.000	-0.040	-0.433
-727.923	-82.326	-0.013	0.004
-726.908	55.319	-0.068	-0.067
-725.894	120.764	0.105	0.133
-724.879	12.117	-0.128	-0.100
-723.864	-173.213	-0.256	-0.008
-722.850	502.207	0.102	-0.240
-721.835	-20.035	0.349	-0.219
-720.821	47.461	-0.176	0.168
-719.806	-82.022	-0.141	-0.047
-718.791	496.197	0.042	0.099
-717.777	606.811	-0.059	0.150
-716.762	-147.008	0.422	-0.037
-715.748	493.978	0.056	-0.132
-714.733	-200.000	-0.021	0.131
-713.718	-31.755	-0.252	-0.144
-712.704	-137.541	0.136	-0.016
-711.689	169.528	0.099	-0.144
-710.675	-35.540	-0.366	-0.203
-709.660	28.459	0.300	-0.258
-708.645	393.587	0.042	-0.090
-707.631	-163.200	-0.094	0.005
-706.616	-80.168	-0.142	-0.049
-705.602	-107.630	0.232	-0.052
-704.587	-200.000	-0.043	-0.269
-703.572	800.000	-0.102	-0.379
-702.558	-87.601	-0.374	-0.115
-701.543	-128.391	0.098	-0.014
-700.529	-200.000	-0.038	0.240
-699.514	-200.000	0.043	-0.230
-698.499	-200.000	0.034	-0.235
-697.485	160.053	-0.106	-0.151
-696.470	69.070	-0.128	-0.134
-695.456	450.763	-0.051	-0.114
-694.441	106.648	0.255	-0.308
-693.426	-122.938	0.088	-0.015
-692.412	789.018	-0.044	0.123
-691.397	800.000	0.113	-0.357
-690.383	85.948	-0.107	-0.119
-689.368	244.392	0.088	0.150
-688.354	-78.380	0.328	-0.115
-687.339	-200.000	0.012	-0.169
-686.324	-22.309	0.158	-0.098
-685.310	1.746	0.208	-0.153
-684.295	800.000	0.074	-0.300
-683.281	63.104	-0.116	-0.119
-682.266	87.414	0.059	0.067
-681.251	-11.084	-0.169	-0.113
-680.237	52.739	-0.218	-0.212
-679.222	-20.098	0.199	-0.125
-678.208	-36.467	0.116	-0.064
-677.193	148.006	-0.095	0.130
-676.178	-200.000	0.083	-0.415
-675.164	-2.431	-0.107	-0.076
-674.149	-130.151	0.213	-0.030
-673.135	167.986	-0.057	0.082
-672.120	-68.603	-0.268	-0.106
-671.105	-99.208	0.189	0.049
-670.091	800.000	-0.040	-0.170
-669.076	796.596	-0.049	-0.138
-668.062	-18.914	-0.162	0.102
-667.047	61.540	-0.198	-0.200
-666.032	-200.000	0.006	-0.328
-665.018	-70.844	-0.191	0.073
-664.003	123.510	-0.281	-0.359
-662.989	-53.201	-0.094	0.044
-661.974	299.871	-0.241	-0.452
-660.959	-96.647	-0.126	-0.034
-659.945	-200.000	-0.004	-0.111
-658.930	-200.000	0.050	-0.361
-657.916	-4.282	-0.292	-0.205
-656.901	-21.840	0.173	0.107
-655.886	-61.580	-0.337	-0.144
-654.872	236.037	0.042	-0.071
-653.857	59.836	-0.228	-0.229
-652.843	-107.255	-0.026	0.006
-651.828	-53.485	0.244	0.113
-650.814	22.818	0.136	0.113
-649.799	363.779	-0.040	0.081
-648.784	572.727	0.131	0.326
-647.770	33.509	-0.166	-0.146
-646.755	-109.543	0.160	0.034
-645.741	10.367	-0.245	-0.190
-644.726	-27.216	-0.105	-0.062
-643.711	-100.771	0.172	-0.043
-642.697	155.680	0.138	-0.193
-641.682	312.074	0.195	-0.372
-640.668	-200.000	-0.006	-0.206
-639.653	387.406	-0.072	-0.151
-638.638	27.597	0.142	0.121
-637.624	83.662	0.068	-0.076
-636.609	69.346	-0.193	0.202
-635.595	-86.656	-0.153	0.047
-634.580	-76.179	0.108	0.039
-633.565	338.518	0.087	-0.172
-632.551	-200.000	-0.005	0.163
-631.536	-46.166	0.190	0.095
-630.522	53.589	-0.149	0.146
-629.507	23.543	-0.218	-0.183
-628.492	-61.966	0.374	-0.159
-627.478	800.000	0.025	0.086
-626.463	347.273	-0.050	0.100
-625.449	-40.326	0.151	-0.080
-624.434	-54.723	0.207	0.095
-623.419	305.716	-0.074	0.139
-622.405	-97.368	-0.262	-0.069
-621.390	-33.262	0.164	-0.092
-620.376	800.000	-0.052	-0.172
-619.361	-200.000	0.016	-0.119
-618.346	800.000	-0.047	-0.202
-617.332	-144.778	-0.125	-0.012
-616.317	213.824	-0.078	0.125
-615.303	3.804	0.236	0.175
-614.288	10.306	-0.286	-0.221
-613.273	-64.418	-0.032	0.013
-612.259	-27.076	0.178	0.105
-611.244	-40.399	-0.205	0.108
-610.230	-200.000	0.002	0.024
-609.215	243.044	-0.160	0.272
-608.201	-155.196	0.282	0.019
-607.186	-127.929	0.293	0.043
-606.171	253.341	-0.126	-0.218
-605.157	213.566	-0.042	0.068
-604.142	800.000	-0.059	0.193
-603.128	24.457	0.111	-0.093
-602.113	800.000	-0.054	-0.159
-601.098	-105.071	-0.190	0.044
-600.084	-200.000	0.028	-0.128
-599.069	-21.482	-0.192	-0.119
-598.055	-3.645	0.120	0.085
-597.040	-57.374	0.103	-0.046
-596.025	-95.415	0.131	-0.036
-595.011	482.810	-0.041	0.094
-593.996	492.139	0.058	-0.134
-592.982	-200.000	0.059	0.425
-591.967	-77.043	-0.075	-0.027
-590.952	94.247	-0.122	-0.140
-589.938	-100.218	-0.158	0.040
-588.923	133.848	-0.177	0.233
-587.909	-200.000	-0.035	0.209
-586.894	187.176	0.237	-0.359
-585.879	22.126	-0.084	0.070
-584.865	-200.000	-0.047	0.246
-583.850	800.000	-0.101	-0.360
-582.836	800.000	0.132	-0.376
-581.821	-129.832	0.173	-0.024
-580.806	800.000	0.031	-0.112
-579.792	-36.546	0.170	0.093
-578.777	17.168	0.102	0.082
-577.763	800.000	0.125	-0.416
-576.748	505.054	0.090	-0.212
-575.733	189.485	-0.043	0.065
-574.719	-65.106	-0.453	0.186
-573.704	-200.000	-0.028	0.160
-572.690	-88.467	0.101	0.030
-571.675	17.403	0.163	-0.132
-570.661	265.435	0.099	-0.176
-569.646	-91.942	-0.281	0.081
-568.631	800.000	-0.136	-0.466
-567.617	-200.000	-0.006	-0.223
-566.602	-92.393	0.133	-0.038
-565.588	2.720	-0.228	-0.168
-564.573	-200.000	-0.040	-0.302
-563.558	-200.000	-0.012	-0.488
-562.544	200.685	0.072	-0.112
-561.529	800.000	0.021	0.076
-560.515	-200.000	-0.030	-0.391
-559.500	-110.309	-0.528	0.111
-558.485	-200.000	0.003	-0.157
-557.471	717.493	0.109	0.293
-556.456	23.533	-0.225	0.188
-555.442	-131.360	-0.277	-0.037
-554.427	104.493	-0.157	0.187
-553.412	-108.195	0.333	0.073
-552.398	-106.994	-0.385	-0.086
-551.383	85.603	0.332	-0.370
-550.369	505.228	-0.020	0.047
-549.354	-70.682	0.271	0.104
-548.339	-96.574	-0.217	-0.058
-547.325	-183.290	0.300	-0.005
-546.310	169.852	0.114	0.166
-545.296	261.672	-0.101	0.177
-544.281	-70.581	-0.042	0.016
-543.266	-86.325	-0.273	-0.085
-542.252	186.153	-0.167	-0.251
-541.237	-200.000	-0.038	0.252
-540.223	-46.280	0.270	0.135
-539.208	800.000	-0.060	-0.252
-538.193	-25.284	0.157	-0.094
-537.179	369.152	-0.121	0.248
-536.164	82.641	0.244	0.268
-535.150	-70.641	0.183	-0.070
-534.135	-200.000	-0.004	0.281
-533.121	-98.094	0.266	0.069
-532.106	-66.996	-0.286	0.114
-531.091	-46.367	-0.106	0.053
-530.077	42.312	-0.026	-0.024
-529.062	-125.897	0.186	-0.028
-528.048	-75.422	0.230	0.083
-527.033	-90.522	0.217	-0.064
-526.018	800.000	-0.053	-0.198
-525.004	-91.086	-0.412	0.120
-523.989	800.000	-0.135	0.459
-522.975	15.862	0.131	-0.104
-521.960	-60.612	-0.135	-0.058
-520.945	56.448	0.160	0.158
-519.931	-106.223	-0.184	0.042
-518.916	-169.885	-0.119	0.004
-517.902	325.505	-0.244	-0.473
-516.887	-85.289	-0.426	-0.135
-515.872	-36.638	-0.257	0.140
-514.858	528.022	0.044	0.106
-513.843	-200.000	0.038	-0.176
-512.829	-96.681	-0.144	-0.038
-511.814	-4.425	-0.143	-0.100
-510.799	-72.644	0.101	-0.038
-509.785	123.093	-0.067	0.085
-508.770	800.000	0.071	0.253
-507.756	-76.444	-0.232	0.083
-506.741	-92.032	-0.158	0.045
-505.726	800.000	0.017	0.069
-504.712	-85.180	0.476	-0.151
-503.697	-200.000	0.003	0.251
-502.683	-76.036	-0.079	-0.028
-501.668	129.631	0.084	-0.108
-500.653	-107.827	0.118	-0.026
-499.639	800.000	-0.068	-0.215
-498.624	-62.852	0.368	-0.154
-497.610	127.671	0.071	-0.091
-496.595	495.624	-0.057	-0.133
-495.581	229.604	0.090	-0.149
-494.566	-147.679	0.056	-0.005
-493.551	-66.904	-0.373	0.149
-492.537	173.499	-0.060	-0.088
-491.522	375.965	-0.164	-0.339
-490.508	305.377	-0.188	-0.354
-489.493	-73.532	-0.091	0.034
-488.478	108.501	-0.107	-0.130
-487.464	-77.915	0.342	-0.119
-486.449	207.971	0.143	-0.225
-485.435	368.782	0.121	0.248
-484.420	519.170	-0.126	0.299
-483.405	81.755	-0.055	0.060
-482.391	-200.000	-0.004	-0.345
-481.376	327.958	0.074	-0.144
-480.362	-9.860	0.143	0.096
-479.347	179.692	0.133	0.197
-478.332	505.044	-0.056	-0.131
-477.318	20.649	-0.045	0.037
-476.303	-200.000	-0.006	0.202
-475.289	161.124	0.132	-0.187
-474.274	-144.186	-0.240	-0.023
-473.259	-105.332	0.338	0.078
-472.245	-120.503	0.173	-0.030
-471.230	-200.000	-0.044	0.209
-470.216	14.776	-0.085	-0.067
-469.201	-51.731	-0.023	0.011
-468.186	-111.744	0.185	0.038
-467.172	-43.278	-0.327	0.167
-466.157	-83.296	0.053	0.017
-465.143	-51.740	-0.293	0.138
-464.128	-77.291	0.051	-0.018
-463.113	52.255	-0.194	0.187
-462.099	-70.091	0.067	0.026
-461.084	174.530	0.114	-0.167
-460.070	-200.000	-0.003	0.023
-459.055	-146.941	-0.108	0.009
-458.040	528.033	-0.107	-0.256
-457.026	-107.688	0.129	-0.028
-456.011	-141.540	-0.287	0.029
-454.997	-78.791	-0.249	-0.086
-453.982	-80.480	-0.332	-0.112
-452.968	-49.027	0.369	-0.178
-451.953	-178.270	0.312	-0.007
-450.938	519.159	-0.131	0.310
-449.924	27.222	0.266	-0.226
-448.909	373.957	-0.082	0.169
-447.895	83.921	0.057	0.062
-446.880	170.416	-0.056	-0.080
-445.865	-50.261	-0.141	-0.067
-444.851	36.616	-0.099	-0.088
-443.836	2.558	-0.008	0.006
-442.822	-15.070	0.024	-0.015
-441.807	-26.623	-0.259	0.153
-440.792	-52.823	0.358	-0.166
-439.778	297.471	-0.100	0.186
-438.763	194.453	0.217	0.332
-437.749	-200.000	-0.013	0.263
-436.734	-200.000	0.021	0.163
-435.719	-108.350	-0.268	-0.058
-434.705	-98.875	-0.245	-0.063
-433.690	-163.248	0.214	-0.010
-432.676	-68.456	0.256	-0.100
-431.661	800.000	-0.033	-0.130
-430.646	120.807	0.161	0.202
-429.632	311.274	0.117	0.221
-428.617	800.000	0.021	0.085
-427.603	-200.000	-0.044	-0.647
-426.588	-67.912	0.232	-0.091
-425.573	98.098	-0.054	-0.063
-424.559	-139.383	-0.248	0.027
-423.544	-156.566	-0.325	0.020
-422.530	-9.634	0.246	0.165
-421.515	-200.000	0.028	0.134
-420.500	-200.000	-0.019	-0.187
-419.486	153.485	0.035	-0.049
-418.471	-125.053	0.089	0.014
-417.457	93.678	-0.117	0.134
-416.442	-41.850	0.284	-0.147
-415.428	-9.427	-0.093	0.063
-414.413	150.185	-0.201	-0.275
-413.398	-200.000	-0.013	0.291
-412.384	-132.216	-0.158	0.021
-411.369	186.592	0.013	-0.019
-410.355	800.000	0.058	-0.202
-409.340	-138.419	0.225	0.025
-408.325	116.590	-0.073	-0.090
-407.311	-114.548	-0.140	-0.027
-406.296	-85.042	0.192	-0.061
-405.282	-25.441	-0.045	0.027
-404.267	800.000	-0.077	0.272
-403.252	63.656	0.075	0.076
-402.238	-200.000	-0.048	0.296
-401.223	-200.000	-0.045	-0.387
-400.209	-200.000	0.024	0.400
-399.194	-3.948	-0.240	-0.168
-398.179	201.040	0.146	0.226
-397.165	202.118	0.083	-0.129
-396.150	489.882	0.056	-0.128
-395.136	-200.000	-0.043	0.195
-394.121	-200.000	0.008	0.301
-393.106	84.055	-0.168	0.185
-392.092	-200.000	-0.080	-0.364
-391.077	800.000	-0.023	-0.083
-390.063	104.356	-0.130	-0.154
-389.048	675.460	0.161	-0.422
-388.033	272.058	-0.121	-0.216
-387.019	-139.477	0.363	0.039
-386.004	800.000	-0.081	-0.248
-384.990	-167.438	0.521	-0.021
-383.975	-200.000	0.034	-0.200
-382.960	-121.003	-0.317	-0.054
-381.946	88.867	0.130	-0.146
-380.931	-0.072	-0.179	-0.128
-379.917	-22.161	-0.142	-0.087
-378.902	253.321	0.038	-0.065
-377.888	33.743	-0.209	0.183
-376.873	800.000	-0.034	-0.130
-375.858	-93.112	-0.254	0.071
-374.844	-200.000	-0.006	-0.056
-373.829	41.121	-0.113	-0.102
-372.815	-200.000	0.032	0.141
-371.800	-198.160	0.209	0.001
-370.785	516.473	0.043	-0.101
-369.771	800.000	-0.021	-0.074
-368.756	3.595	0.210	-0.154
-367.742	-200.000	0.006	0.068
-366.727	-46.899	-0.137	-0.067
-365.712	-159.578	-0.468	0.026
-364.698	-200.000	-0.013	0.144
-363.683	57.366	0.215	-0.211
-362.669	800.000	-0.086	0.286
-361.654	537.371	0.070	-0.166
-360.639	-200.000	0.012	-0.228
-359.625	143.001	-0.088	-0.118
-358.610	189.119	0.178	0.269
-357.596	-55.795	0.162	0.073
-356.581	-71.721	0.249	0.094
-355.566	-96.016	0.494	0.132
-354.552	800.000	0.114	0.394
-353.537	583.679	-0.061	0.151
-352.523	-168.199	-0.163	-0.006
-351.508	800.000	-0.044	-0.158
-350.493	-141.898	-0.354	0.036
-349.479	-51.443	0.123	0.058
-348.464	116.742	-0.210	0.259
-347.450	-200.000	0.014	0.133
-346.435	-200.000	0.031	-0.141
-345.420	267.950	-0.134	-0.236
-344.406	-111.361	-0.295	-0.060
-343.391	-86.729	-0.256	0.079
-342.377	-166.091	-0.072	-0.003
-341.362	800.000	-0.072	-0.235
-340.348	800.000	-0.042	0.159
-339.333	-75.080	0.046	-0.017
-338.318	424.804	-0.112	0.243
-337.304	-137.572	-0.140	-0.016
-336.289	-200.000	0.097	-0.000
-335.275	-81.425	-0.093	-0.031
-334.260	-114.810	-0.059	-0.011
-333.245	-48.380	0.182	-0.088
-332.231	188.295	-0.116	-0.174
-331.216	-159.626	-0.283	0.016
-330.202	-10.067	-0.145	0.097
-329.187	57.413	0.053	-0.052
-328.172	-200.000	-0.043	-0.242
-327.158	5.559	-0.042	-0.031
-326.143	-164.222	0.260	0.012
-325.129	-200.000	-0.004	-0.038
-324.114	800.000	-0.040	0.147
-323.099	-200.000	-0.011	0.187
-322.085	-23.123	0.093	0.057
-321.070	-69.998	-0.028	0.011
-320.056	-200.000	0.004	0.231
-319.041	-82.034	0.311	0.102
-318.026	26.168	0.153	0.129
-317.012	-44.086	0.265	0.134
-315.997	800.000	0.068	-0.298
-314.983	33.257	0.218	-0.190
-313.968	-200.000	0.007	0.176
-312.953	-200.000	-0.076	0.400
-311.939	29.745	-0.008	-0.007
-310.924	124.575	0.109	0.138
-309.910	-200.000	-0.018	-0.226
-308.895	638.514	0.089	0.226
-307.880	-200.000	0.006	-0.297
-306.866	9.113	0.214	-0.163
-305.851	800.000	-0.074	0.210
-304.837	347.116	0.032	-0.063
-303.822	87.358	-0.230	0.256
-302.807	-125.692	-0.129	-0.020
-301.793	-200.000	0.024	0.558
-300.778	-9.796	-0.029	-0.019
-299.764	-200.000	0.001	0.253
-298.749	0.330	0.133	0.096
-297.735	426.053	-0.095	0.205
-296.720	800.000	-0.034	0.103
-295.705	-22.133	-0.107	0.065
-294.691	138.179	0.153	-0.201
-293.676	-200.000	-0.000	0.471
-292.662	283.904	-0.165	0.298
-291.647	71.468	0.078	0.082
-290.632	449.460	-0.173	0.382
-289.618	207.415	-0.168	0.263
-288.603	99.118	0.235	0.272
-287.589	-200.000	-0.021	0.310
-286.574	-36.333	0.259	-0.140
-285.559	-42.164	0.107	-0.055
-284.545	800.000	-0.070	0.223
-283.530	-200.000	0.011	0.176
-282.516	800.000	0.040	0.151
-281.501	800.000	-0.072	-0.309
-280.486	-73.988	-0.175	-0.064
-279.472	-143.417	0.376	-0.036
-278.457	404.831	-0.096	0.202
-277.443	-82.253	-0.372	0.121
-276.428	206.873	0.122	-0.191
-275.413	-200.000	0.016	0.087
-274.399	-50.037	-0.230	0.109
-273.384	800.000	0.073	-0.213
-272.370	-91.493	0.391	0.112
-271.355	-48.957	-0.154	-0.074
-270.340	-122.945	0.104	-0.017
-269.326	184.121	0.109	-0.162
-268.311	177.109	-0.062	0.090
-267.297	800.000	0.098	-0.300
-266.282	-49.529	0.291	0.139
-265.267	-105.628	0.156	0.035
-264.253	-129.897	-0.223	-0.031
-263.238	-19.112	-0.398	0.248
-262.224	-56.944	0.302	-0.134
-261.209	-138.741	-0.149	-0.016
-260.195	470.011	-0.038	0.086
-259.180	-182.715	0.066	0.001
-258.165	0.576	0.229	-0.164
-257.151	800.000	0.077	0.221
-256.136	-200.000	0.019	0.196
-255.122	-85.406	-0.184	-0.057
-254.107	-200.000	0.001	-0.108
-253.092	-200.000	-0.018	-0.156
-252.078	505.559	-0.172	-0.400
-251.063	-163.691	-0.317	-0.015
-250.049	-142.646	-0.047	0.005
-249.034	-16.419	0.121	0.077
-248.019	-22.602	0.071	-0.043
-247.005	-29.645	0.120	-0.069
-245.990	90.683	0.024	0.027
-244.976	-94.531	0.159	0.043
-243.961	97.348	-0.117	0.134
-242.946	-113.039	-0.284	0.056
-241.932	90.451	-0.353	0.396
-240.917	-124.912	0.137	0.021
-239.903	142.755	0.113	0.151
-238.888	3.600	0.185	0.135
-237.873	-136.831	0.239	0.027
-236.859	15.618	0.106	-0.083
-235.844	-200.000	-0.001	-0.190
-234.830	240.056	0.113	-0.188
-233.815	-115.906	0.133	-0.025
-232.800	-34.528	-0.342	-0.187
-231.786	-120.946	-0.409	0.069
-230.771	-33.420	0.228	0.126
-229.757	800.000	0.046	-0.137
-228.742	74.705	0.140	0.147
-227.727	-104.969	0.380	0.087
-226.713	-129.860	-0.127	-0.017
-225.698	-63.574	-0.174	-0.071
-224.684	-7.442	0.296	0.200
-223.669	-200.000	-0.001	-0.302
-222.655	800.000	0.057	-0.162
-221.640	771.102	-0.065	0.176
-220.625	-39.596	0.258	-0.135
-219.611	-72.293	-0.257	-0.095
-218.596	-59.835	0.197	-0.085
-217.582	-96.132	0.130	0.034
-216.567	800.000	-0.089	-0.312
-215.552	-55.908	-0.145	0.065
-214.538	-96.579	-0.169	-0.044
-213.523	800.000	0.054	-0.189
-212.509	-45.510	-0.197	-0.098
-211.494	-200.000	-0.037	-0.321
-210.479	82.097	0.219	0.237
-209.465	800.000	0.070	0.226
-208.450	657.027	-0.188	0.482
-207.436	384.838	0.094	0.193
-206.421	629.210	0.119	-0.301
-205.406	143.951	-0.116	-0.154
-204.392	800.000	0.051	-0.163
-203.377	-200.000	-0.033	-0.232
-202.363	-200.000	0.000	-0.096
-201.348	-200.000	-0.007	-0.162
-200.333	800.000	-0.054	-0.163
-199.319	216.803	-0.085	0.135
-198.304	-61.993	0.094	0.039
-197.290	-4.684	0.433	0.298
-196.275	-125.808	-0.250	0.038
-195.260	-82.722	-0.262	0.085
-194.246	-2.270	-0.168	0.117
-193.231	134.910	0.057	0.074
-192.217	-37.264	0.191	0.102
-191.202	-200.000	0.039	-0.215
-190.187	800.000	0.079	0.305
-189.173	-80.949	0.280	-0.093
-188.158	257.198	0.119	-0.204
-187.144	761.365	-0.054	0.146
-186.129	9.784	-0.038	-0.029
-185.114	212.737	0.187	0.296
-184.100	-200.000	-0.000	0.438
-183.085	33.562	0.172	0.149
-182.071	67.273	0.084	-0.085
-181.056	13.877	-0.132	0.102
-180.042	55.612	0.069	0.066
-179.027	90.077	0.078	0.087
-178.012	800.000	0.026	-0.109
-176.998	271.400	-0.164	0.288
-175.983	439.170	-0.064	-0.140
-174.969	-9.629	0.282	-0.188
-173.954	9.310	-0.256	-0.193
-172.939	54.442	-0.165	0.159
-171.925	-71.695	-0.157	0.058
-170.910	141.778	-0.060	-0.079
-169.896	379.443	-0.130	0.265
-168.881	-159.710	-0.352	-0.019
-167.866	-99.117	0.550	-0.139
-166.852	800.000	-0.028	-0.119
-165.837	-200.000	0.032	0.282
-164.823	233.811	0.186	0.306
-163.808	-200.000	-0.002	-0.259
-162.793	800.000	0.119	-0.424
-161.779	-148.168	0.279	0.023
-160.764	-112.931	0.195	-0.039
-159.750	-200.000	0.060	-0.317
-158.735	-200.000	-0.013	-0.278
-157.720	23.681	0.147	0.121
-156.706	-200.000	0.026	-0.136
-155.691	59.915	-0.236	-0.232
-154.677	13.250	0.229	0.177
-153.662	-95.765	0.050	0.013
-152.647	-119.539	-0.196	0.034
-151.633	-200.000	-0.037	0.190
-150.618	-200.000	-0.006	0.030
-149.604	-53.800	0.377	0.171
-148.589	45.675	0.110	0.102
-147.574	-200.000	0.018	-0.193
-146.560	-139.416	0.042	0.004
-145.545	-94.810	0.266	-0.072
-144.531	34.017	0.115	-0.100
-143.516	294.301	0.134	0.244
-142.502	-35.274	-0.121	-0.066
-141.487	-200.000	0.046	0.208
-140.472	-4.375	0.374	0.258
-139.458	-113.371	0.372	0.073
-138.443	-106.265	-0.350	-0.078
-137.429	169.253	-0.180	0.256
-136.414	-159.273	-0.436	-0.024
-135.399	114.893	0.070	-0.085
-134.385	-40.231	-0.395	0.205
-133.370	404.756	-0.049	-0.102
-132.356	-74.498	0.465	-0.167
-131.341	-124.907	0.347	0.053
-130.326	-89.291	0.102	0.030
-129.312	646.379	0.049	-0.125
-128.297	163.950	-0.129	0.180
-127.283	800.000	-0.007	0.023
-126.268	431.164	0.206	0.444
-125.253	-91.594	0.112	-0.032
-124.239	-191.159	-0.097	-0.001
-123.224	-200.000	0.006	0.088
-122.210	11.898	0.156	-0.120
