DTS Sentinel unit serial number:	SN413079Multiplexer serial number:	ORYXHardware model number:	OX4-SRSoftware version number:	ORYX F/W v4.00 Oryx Data Collector v3.7.2.0data status	okinstallation	princeton_trtdifferential loss correction	single-endedforward channel	channel 2reverse channel	N/Adate	2019/09/10time	23:05:11forward acquisition time	60.00reverse acquisition time	0.00gamma	496.2192k internal	0.2330k external	0.2330temperature offset calibration	0.9947default loss term (dB/km)	0.3790temperature slope calibration	1.0000multiplexer offset coefficient	1.0000multiplexer slope coefficient	1.0000fibre end	0.00T internal ref (°C)	29.98T ext. ref 1 (°C)	-0.29T ext. ref 2 (°C)	23.47length (m)	temperature (°C)	Stokes	anti-Stokes-747.200	-200.000	0.012	-0.118
-746.185	800.000	-0.040	-0.147
-745.171	-200.000	0.031	0.178
-744.156	-163.930	-0.072	0.003
-743.142	-101.740	-0.406	-0.099
-742.127	-62.274	0.150	-0.063
-741.112	588.549	-0.014	-0.035
-740.098	-78.304	-0.301	0.104
-739.083	-15.593	0.173	0.111
-738.069	-41.647	-0.349	0.181
-737.054	800.000	0.047	-0.141
-736.039	-93.954	-0.480	0.133
-735.025	25.539	-0.053	0.044
-734.010	358.427	-0.107	-0.215
-732.996	397.088	0.129	0.271
-731.981	-43.004	0.115	-0.058
-730.966	-161.706	0.099	0.005
-729.952	47.789	0.169	-0.159
-728.937	-200.000	-0.026	-0.134
-727.923	499.785	-0.021	-0.050
-726.908	40.956	-0.028	0.025
-725.894	-200.000	-0.026	-0.294
-724.879	323.138	-0.135	-0.259
-723.864	124.597	-0.108	-0.137
-722.850	189.356	-0.161	0.243
-721.835	-117.787	-0.054	-0.010
-720.821	-54.188	-0.354	-0.162
-719.806	800.000	0.063	-0.270
-718.791	-200.000	0.009	0.102
-717.777	-106.647	-0.259	0.058
-716.762	294.046	0.081	0.150
-715.748	-48.728	0.068	-0.033
-714.733	-200.000	-0.203	-0.001
-713.718	169.133	-0.150	-0.216
-712.704	161.760	-0.133	-0.187
-711.689	125.520	0.117	-0.148
-710.675	309.779	0.069	-0.130
-709.660	162.502	0.090	-0.127
-708.645	72.043	-0.254	-0.266
-707.631	15.373	0.140	-0.110
-706.616	-7.405	-0.160	-0.109
-705.602	-89.688	-0.307	-0.091
-704.587	-169.196	0.179	-0.007
-703.572	-149.235	0.324	-0.026
-702.558	-34.142	-0.301	-0.166
-701.543	99.125	-0.056	0.065
-700.529	800.000	-0.112	-0.492
-699.514	247.541	0.080	-0.136
-698.499	127.148	0.043	-0.054
-697.485	800.000	-0.025	0.089
-696.470	-92.245	-0.306	0.087
-695.456	-118.684	-0.180	0.032
-694.441	800.000	-0.096	-0.278
-693.426	800.000	-0.030	0.098
-692.412	-200.000	-0.052	0.413
-691.397	669.123	0.052	0.135
-690.383	-109.265	-0.162	0.034
-689.368	-200.000	-0.007	-0.288
-688.354	-67.551	-0.131	-0.051
-687.339	800.000	0.079	0.284
-686.324	44.900	0.307	-0.284
-685.310	-68.172	0.218	0.085
-684.295	-102.332	-0.197	-0.048
-683.281	143.502	0.072	-0.096
-682.266	-12.031	-0.224	-0.147
-681.251	-29.614	-0.147	-0.084
-680.237	598.289	-0.045	0.112
-679.222	-200.000	-0.071	-0.456
-678.208	-147.115	-0.348	0.030
-677.193	110.568	-0.117	0.141
-676.178	217.923	-0.264	-0.423
-675.164	285.023	-0.107	-0.193
-674.149	459.171	0.083	-0.186
-673.135	115.701	0.072	-0.089
-672.120	-200.000	0.076	-0.522
-671.105	800.000	0.053	0.201
-670.091	38.697	-0.210	-0.188
-669.076	23.728	-0.022	0.018
-668.062	-108.614	0.165	0.035
-667.047	800.000	-0.063	0.205
-666.032	-185.152	-0.207	-0.003
-665.018	-48.369	-0.377	0.183
-664.003	204.740	-0.101	0.157
-662.989	210.225	0.040	-0.062
-661.974	-156.322	0.268	-0.017
-660.959	-200.000	0.015	0.113
-659.945	-200.000	0.074	-0.347
-658.930	800.000	0.040	0.114
-657.916	133.131	0.298	0.386
-656.901	-200.000	-0.055	0.301
-655.886	-181.984	-0.181	0.003
-654.872	-53.142	0.528	-0.243
-653.857	-126.048	-0.141	0.021
-652.843	-200.000	-0.028	0.167
-651.828	-167.351	0.096	0.004
-650.814	197.712	0.174	0.267
-649.799	800.000	0.047	-0.167
-648.784	111.055	0.091	0.110
-647.770	133.552	-0.192	-0.249
-646.755	-126.320	0.183	-0.027
-645.741	766.998	0.059	0.162
-644.726	-90.807	-0.359	-0.104
-643.711	-77.614	0.302	-0.105
-642.697	203.476	-0.318	0.494
-641.682	29.289	-0.070	-0.060
-640.668	-200.000	0.016	0.390
-639.653	77.142	0.171	0.182
-638.638	-63.688	0.229	-0.094
-637.624	47.522	0.200	-0.187
-636.609	-127.059	-0.025	0.004
-635.595	-67.506	-0.262	-0.103
-634.580	6.561	-0.351	-0.261
-633.565	163.629	-0.052	0.073
-632.551	106.552	0.124	0.148
-631.536	-200.000	-0.008	-0.159
-630.522	-5.104	-0.055	0.038
-629.507	-123.808	-0.339	0.054
-628.492	250.462	-0.082	0.139
-627.478	-200.000	0.000	-0.067
-626.463	-41.115	-0.209	-0.108
-625.449	90.187	0.207	0.232
-624.434	298.048	-0.066	-0.122
-623.419	449.393	-0.075	0.165
-622.405	-20.786	0.219	0.135
-621.390	-58.697	-0.265	0.115
-620.376	-69.926	0.248	0.095
-619.361	384.157	-0.110	-0.227
-618.346	230.674	-0.133	0.217
-617.332	-114.494	0.232	-0.045
-616.317	-75.668	0.103	-0.037
-615.303	10.324	0.177	-0.135
-614.288	795.081	0.033	-0.090
-613.273	281.457	-0.100	-0.179
-612.259	-137.328	-0.367	0.042
-611.244	-15.468	0.198	0.127
-610.230	-57.285	0.271	0.119
-609.215	202.256	0.151	0.233
-608.201	-200.000	0.003	-0.028
-607.186	409.632	0.148	-0.314
-606.171	-69.917	-0.243	0.093
-605.157	43.661	-0.210	-0.192
-604.142	-200.000	0.048	0.247
-603.128	318.253	0.107	0.203
-602.113	800.000	0.043	-0.186
-601.098	71.762	-0.218	0.227
-600.084	127.342	0.179	-0.228
-599.069	790.733	-0.029	-0.080
-598.055	148.175	-0.045	-0.060
-597.040	-21.335	-0.013	0.008
-596.025	85.846	0.439	0.484
-595.011	40.118	0.113	0.102
-593.996	-79.715	-0.270	0.091
-592.982	257.961	-0.138	-0.238
-591.967	-117.796	0.088	-0.016
-590.952	202.212	-0.136	0.210
-589.938	-179.963	-0.398	-0.009
-588.923	-4.788	-0.339	-0.234
-587.909	-28.293	0.124	-0.072
-586.894	-36.394	0.196	0.106
-585.879	-200.000	0.004	-0.063
-584.865	149.907	0.132	0.180
-583.850	-87.459	-0.081	0.024
-582.836	127.891	0.135	0.172
-581.821	56.827	0.175	-0.170
-580.806	171.372	0.104	-0.150
-579.792	-137.664	0.087	0.010
-578.777	80.027	-0.074	-0.079
-577.763	-22.880	0.063	-0.038
-576.748	243.255	-0.046	0.076
-575.733	-147.074	-0.174	-0.015
-574.719	-133.351	0.211	-0.027
-573.704	-157.766	-0.181	-0.011
-572.690	800.000	-0.010	-0.034
-571.675	-47.591	0.040	-0.019
-570.661	45.636	-0.273	0.252
-569.646	-11.393	0.262	0.172
-568.631	-55.761	0.279	0.125
-567.617	423.389	-0.118	-0.253
-566.602	-200.000	-0.010	-0.052
-565.588	12.020	0.169	0.130
-564.573	-200.000	0.014	0.236
-563.558	-200.000	0.039	0.302
-562.544	-41.126	0.132	0.068
-561.529	-200.000	0.033	-0.201
-560.515	800.000	-0.023	0.074
-559.500	-200.000	0.049	0.312
-558.485	-86.759	-0.077	-0.023
-557.471	157.265	-0.146	-0.202
-556.456	-31.836	0.108	-0.061
-555.442	800.000	0.081	0.299
-554.427	-27.887	0.227	0.131
-553.412	416.133	-0.078	0.167
-552.398	-115.400	-0.193	-0.036
-551.383	44.180	-0.196	0.179
-550.369	197.184	-0.090	-0.138
-549.354	-31.123	0.145	0.082
-548.339	-200.000	0.039	-0.216
-547.325	-0.197	0.185	0.131
-546.310	29.043	-0.201	0.171
-545.296	-120.371	-0.046	0.008
-544.281	-77.995	-0.231	0.080
-543.266	-200.000	-0.013	-0.059
-542.252	560.169	-0.052	-0.125
-541.237	45.034	-0.101	-0.093
-540.223	176.854	-0.153	-0.222
-539.208	110.177	-0.103	-0.123
-538.193	-2.911	0.152	-0.106
-537.179	-200.000	0.059	-0.266
-536.164	-200.000	-0.037	-0.336
-535.150	800.000	0.026	0.074
-534.135	169.990	0.020	-0.029
-533.121	-29.141	-0.284	-0.163
-532.106	393.747	0.055	-0.115
-531.091	-50.147	0.124	-0.059
-530.077	-65.169	0.172	-0.069
-529.062	6.005	0.438	0.324
-528.048	65.652	0.257	0.260
-527.033	-108.221	0.174	-0.038
-526.018	77.185	0.233	-0.247
-525.004	-147.087	0.177	0.015
-523.989	-124.582	-0.119	0.018
-522.975	-200.000	-0.003	0.347
-521.960	4.080	0.186	-0.136
-520.945	268.082	0.264	0.462
-519.931	-44.437	-0.248	-0.124
-518.916	-124.247	0.062	0.010
-517.902	-56.460	0.214	0.095
-516.887	506.453	-0.226	-0.523
-515.872	33.343	0.081	-0.070
-514.858	-84.837	-0.486	-0.152
-513.843	106.775	0.167	-0.197
-512.829	-10.023	-0.231	0.153
-511.814	-47.348	0.079	0.038
-510.799	442.592	-0.174	-0.380
-509.785	92.677	0.094	-0.106
-508.770	125.398	0.269	-0.338
-507.756	255.062	-0.235	0.401
-506.741	-150.102	0.167	-0.013
-505.726	-200.000	0.022	-0.488
-504.712	-200.000	-0.005	-0.211
-503.697	-49.635	-0.198	-0.094
-502.683	-122.933	-0.339	0.055
-501.668	-145.120	0.417	-0.038
-500.653	-48.225	0.410	-0.197
-499.639	290.844	-0.250	0.453
-498.624	191.100	0.052	-0.078
-497.610	800.000	0.032	-0.107
-496.595	66.950	0.094	-0.095
-495.581	-55.182	-0.188	-0.084
-494.566	118.447	0.336	-0.413
-493.551	-190.015	0.122	0.001
-492.537	-200.000	0.028	0.302
-491.522	-8.118	-0.255	0.171
-490.508	590.033	-0.034	-0.083
-489.493	-31.010	-0.214	-0.121
-488.478	-121.067	0.170	-0.028
-487.464	-99.459	-0.308	0.077
-486.449	-200.000	-0.003	-0.316
-485.435	42.573	-0.182	0.165
-484.420	-200.000	-0.004	-0.209
-483.405	114.930	-0.155	0.188
-482.391	-200.000	0.038	0.364
-481.376	276.528	-0.087	0.154
-480.362	109.395	0.127	0.152
-479.347	190.844	-0.070	0.104
-478.332	208.078	0.255	-0.396
-477.318	491.938	0.172	-0.394
-476.303	634.623	0.072	-0.182
-475.289	800.000	-0.067	-0.198
-474.274	209.543	-0.221	0.346
-473.259	176.268	-0.045	0.066
-472.245	-200.000	0.005	-0.116
-471.230	99.247	0.085	0.097
-470.216	54.093	0.166	0.159
-469.201	38.484	-0.134	0.119
-468.186	236.683	0.174	-0.287
-467.172	-200.000	0.009	-0.309
-466.157	113.517	0.204	-0.247
-465.143	332.058	-0.039	-0.076
-464.128	-168.266	-0.344	-0.013
-463.113	800.000	-0.049	0.174
-462.099	46.771	-0.180	0.166
-461.084	40.657	-0.170	-0.153
-460.070	800.000	-0.085	-0.312
-459.055	-200.000	-0.011	0.191
-458.040	800.000	0.072	-0.249
-457.026	-61.964	0.196	-0.081
-456.011	-27.261	0.108	-0.063
-454.997	151.638	-0.007	0.010
-453.982	-200.000	0.022	0.170
-452.968	121.986	0.119	-0.148
-451.953	320.907	0.002	-0.004
-450.938	-193.317	-0.201	-0.002
-449.924	-58.245	-0.200	0.087
-448.909	-145.250	-0.136	-0.012
-447.895	800.000	0.082	-0.231
-446.880	-106.644	-0.124	0.027
-445.865	-200.000	-0.009	0.067
-444.851	117.304	-0.009	0.011
-443.836	-138.073	0.217	0.024
-442.822	47.921	-0.062	-0.058
-441.807	209.670	0.014	-0.022
-440.792	800.000	-0.032	-0.128
-439.778	-8.775	0.099	-0.066
-438.763	102.291	0.161	0.187
-437.749	-112.101	-0.472	0.094
-436.734	691.097	0.069	-0.180
-435.719	-23.950	-0.243	0.145
-434.705	23.175	0.209	0.171
-433.690	110.368	0.003	0.004
-432.676	522.192	-0.111	-0.259
-431.661	-200.000	0.009	-0.061
-430.646	71.018	-0.148	-0.152
-429.632	78.263	-0.010	0.010
-428.617	-200.000	-0.023	0.146
-427.603	-93.735	0.117	0.032
-426.588	800.000	-0.097	0.284
-425.573	83.026	0.231	0.250
-424.559	-200.000	-0.018	-0.312
-423.544	-200.000	-0.032	-0.565
-422.530	387.338	0.028	-0.057
-421.515	-200.000	-0.034	0.167
-420.500	114.194	0.213	-0.257
-419.486	-61.150	0.162	-0.068
-418.471	-147.611	-0.218	-0.018
-417.457	800.000	-0.025	-0.098
-416.442	-113.321	-0.020	-0.004
-415.428	157.230	-0.033	-0.046
-414.413	76.536	0.170	0.179
-413.398	325.544	0.098	0.186
-412.384	800.000	0.028	0.091
-411.369	800.000	-0.054	0.227
-410.355	43.347	-0.163	-0.148
-409.340	800.000	0.066	-0.183
-408.325	-78.774	-0.177	0.060
-407.311	-70.014	-0.417	-0.158
-406.296	136.384	-0.181	0.235
-405.282	112.435	0.092	0.110
-404.267	181.073	-0.194	0.283
-403.252	-68.351	0.302	-0.117
-402.238	-200.000	-0.005	0.283
-401.223	510.635	-0.044	0.102
-400.209	58.748	-0.058	-0.057
-399.194	272.998	-0.146	-0.256
-398.179	-191.839	0.363	-0.004
-397.165	-65.589	0.300	-0.120
-396.150	-87.801	-0.169	0.051
-395.136	-200.000	-0.035	-0.244
-394.121	-46.763	-0.559	0.272
-393.106	800.000	0.120	0.395
-392.092	-200.000	0.032	0.273
-391.077	-200.000	0.053	0.368
-390.063	77.031	0.245	0.258
-389.048	800.000	-0.048	-0.151
-388.033	-143.005	0.155	0.015
-387.019	75.438	0.176	-0.185
-386.004	594.204	-0.102	-0.250
-384.990	800.000	-0.029	0.115
-383.975	-200.000	-0.079	0.345
-382.960	-27.816	0.165	0.095
-381.946	-47.793	0.172	-0.083
-380.931	-71.049	-0.187	-0.070
-379.917	-159.608	0.167	-0.009
-378.902	160.829	0.060	0.083
-377.888	800.000	0.098	0.307
-376.873	409.774	-0.197	0.414
-375.858	221.395	0.203	0.324
-374.844	-65.087	0.055	-0.022
-373.829	115.478	-0.133	0.161
-372.815	-9.117	0.141	0.094
-371.800	72.172	0.145	0.150
-370.785	100.233	-0.257	-0.296
-369.771	-200.000	-0.072	-0.455
-368.756	800.000	-0.006	-0.026
-367.742	5.679	-0.075	-0.055
-366.727	-115.867	0.198	-0.037
-365.712	-200.000	0.014	0.123
-364.698	186.273	0.178	-0.263
-363.683	-117.910	0.267	-0.047
-362.669	-200.000	-0.065	0.330
-361.654	36.402	-0.040	0.035
-360.639	800.000	-0.051	0.146
-359.625	178.723	0.185	0.269
-358.610	-95.048	-0.242	-0.065
-357.596	119.683	0.022	0.027
-356.581	98.886	-0.108	0.123
-355.566	-200.000	0.023	0.315
-354.552	-93.807	-0.149	-0.041
-353.537	-71.390	0.137	-0.051
-352.523	-200.000	0.006	0.283
-351.508	341.793	0.074	-0.143
-350.493	234.290	0.071	0.117
-349.479	-200.000	0.039	-0.170
-348.464	733.132	-0.112	-0.297
-347.450	800.000	-0.103	-0.305
-346.435	-20.610	-0.229	-0.139
-345.420	-200.000	0.047	0.219
-344.406	-34.173	0.100	-0.055
-343.391	-42.373	-0.197	-0.099
-342.377	-200.000	0.023	-0.259
-341.362	-200.000	0.033	0.194
-340.348	678.929	-0.088	-0.226
-339.333	-26.098	0.142	0.083
-338.318	-90.602	-0.273	0.078
-337.304	192.438	0.182	0.273
-336.289	-200.000	0.004	0.227
-335.275	208.439	-0.079	-0.123
-334.260	-100.665	-0.020	0.005
-333.245	800.000	-0.009	-0.035
-332.231	-110.206	-0.178	-0.037
-331.216	-34.952	0.337	0.182
-330.202	11.736	0.156	0.119
-329.187	-28.154	-0.294	-0.168
-328.172	-85.993	-0.297	0.091
-327.158	-8.608	-0.281	0.187
-326.143	10.012	0.050	0.038
-325.129	-76.320	0.322	0.112
-324.114	-115.298	0.306	0.057
-323.099	-2.839	0.282	0.195
-322.085	-186.248	-0.272	-0.004
-321.070	2.871	-0.101	0.073
-320.056	129.643	-0.103	-0.130
-319.041	-1.756	0.166	0.116
-318.026	-152.828	-0.261	0.018
-317.012	-110.852	-0.329	-0.067
-315.997	800.000	-0.030	-0.122
-314.983	38.190	0.272	-0.240
-313.968	320.191	-0.157	-0.296
-312.953	337.708	-0.072	0.139
-311.939	-200.000	0.000	0.207
-310.924	179.040	0.157	0.227
-309.910	-143.388	-0.253	0.024
-308.895	-35.887	0.076	0.041
-307.880	-200.000	-0.002	-0.291
-306.866	-85.820	0.136	0.042
-305.851	-41.806	-0.155	-0.079
-304.837	-72.740	-0.403	-0.147
-303.822	800.000	0.003	-0.009
-302.807	-128.589	-0.152	0.021
-301.793	279.549	-0.081	-0.143
-300.778	-78.886	-0.108	-0.036
-299.764	-200.000	-0.013	0.187
-298.749	-59.778	0.315	0.133
-297.735	-143.910	-0.370	0.035
-296.720	382.616	0.051	0.104
-295.705	-200.000	0.038	-0.337
-294.691	73.497	0.143	0.148
-293.676	562.375	-0.026	-0.062
-292.662	224.632	0.120	0.192
-291.647	-158.727	0.480	0.027
-290.632	116.033	-0.020	0.024
-289.618	-200.000	0.028	0.133
-288.603	-135.667	-0.113	0.013
-287.589	-130.580	-0.218	-0.029
-286.574	-18.891	0.315	-0.194
-285.559	67.303	0.015	-0.015
-284.545	-40.674	0.293	-0.150
-283.530	117.203	0.366	-0.444
-282.516	595.007	0.037	-0.091
-281.501	-65.560	-0.064	0.025
-280.486	46.608	-0.067	0.061
-279.472	-17.201	-0.050	0.031
-278.457	502.117	-0.092	0.209
-277.443	-163.607	0.408	0.019
-276.428	310.471	-0.090	0.166
-275.413	-26.536	-0.160	-0.093
-274.399	14.024	0.166	-0.128
-273.384	-10.915	0.128	0.084
-272.370	-32.102	-0.326	-0.180
-271.355	-39.370	0.156	0.081
-270.340	43.475	-0.084	-0.076
-269.326	241.318	-0.236	0.390
-268.311	151.782	0.115	0.155
-267.297	-88.820	-0.221	0.065
-266.282	-88.562	-0.330	0.097
-265.267	-92.073	0.089	0.025
-264.253	-200.000	-0.048	-0.331
-263.238	-65.423	0.180	-0.072
-262.224	-168.323	0.054	-0.002
-261.209	-200.000	-0.008	-0.121
-260.195	-21.829	0.230	-0.138
-259.180	-200.000	-0.010	0.248
-258.165	-142.412	0.145	-0.014
-257.151	-76.672	-0.147	-0.051
-256.136	-200.000	-0.009	-0.087
-255.122	317.517	-0.100	-0.187
-254.107	92.125	-0.163	-0.181
-253.092	158.681	0.097	-0.134
-252.078	-200.000	-0.015	0.130
-251.063	800.000	0.177	0.605
-250.049	135.055	0.075	0.096
-249.034	800.000	0.034	0.098
-248.019	714.964	-0.117	-0.307
-247.005	-162.945	-0.135	0.006
-245.990	394.150	-0.091	0.186
-244.976	-35.034	-0.158	0.085
-243.961	-102.350	-0.229	0.054
-242.946	28.662	-0.117	0.098
-241.932	66.384	-0.120	-0.120
-240.917	324.598	0.114	-0.215
-239.903	-121.301	-0.354	-0.058
-238.888	-135.542	0.296	0.035
-237.873	179.206	-0.173	0.250
-236.859	800.000	0.022	0.093
-235.844	58.736	0.102	-0.099
-234.830	7.707	0.155	-0.114
-233.815	-83.671	-0.212	-0.067
-232.800	-125.286	-0.157	0.024
-231.786	-158.835	0.222	0.012
-230.771	-200.000	-0.013	-0.234
-229.757	-24.531	-0.379	0.222
-228.742	-109.889	0.335	-0.069
-227.727	-200.000	0.010	0.223
-226.713	-200.000	-0.013	0.122
-225.698	-200.000	-0.002	-0.127
-224.684	188.791	0.045	0.066
-223.669	328.434	0.052	-0.098
-222.655	-200.000	-0.025	-0.218
-221.640	155.331	-0.096	-0.131
-220.625	-10.353	-0.095	0.062
-219.611	-56.204	0.129	-0.056
-218.596	324.928	-0.072	0.135
-217.582	-34.793	0.187	-0.101
-216.567	31.143	0.123	0.104
-215.552	-116.882	0.079	-0.014
-214.538	-200.000	-0.001	-0.358
-213.523	800.000	0.060	-0.187
-212.509	-27.644	-0.388	-0.222
-211.494	-142.740	0.103	-0.010
-210.479	606.106	-0.127	0.312
-209.465	388.622	0.099	-0.202
-208.450	106.646	-0.172	0.201
-207.436	207.757	0.180	-0.276
-206.421	244.364	-0.137	0.227
-205.406	474.891	0.076	0.168
-204.392	-132.445	0.179	-0.023
-203.377	-124.836	-0.234	0.036
-202.363	513.634	-0.057	-0.130
-201.348	-38.121	0.161	0.084
-200.333	27.400	-0.086	-0.071
-199.319	-200.000	0.029	0.397
-198.304	134.491	0.080	-0.102
-197.290	800.000	0.045	-0.166
-196.275	-18.028	-0.136	0.084
-195.260	-101.475	0.177	-0.043
-194.246	23.789	0.127	-0.103
-193.231	421.115	-0.139	-0.293
-192.217	-119.461	-0.236	0.040
-191.202	753.409	0.062	-0.165
-190.187	0.507	0.561	0.395
-189.173	-117.883	-0.098	0.017
-188.158	-200.000	-0.003	0.141
-187.144	-85.873	0.137	0.042
-186.129	34.621	0.195	-0.168
-185.114	-112.806	-0.172	0.034
-184.100	-80.533	-0.329	0.108
-183.085	-200.000	0.029	-0.192
-182.071	-200.000	-0.013	0.190
-181.056	315.183	0.047	0.087
-180.042	309.054	0.058	-0.107
-179.027	566.189	-0.121	0.289
-178.012	37.474	-0.090	-0.079
-176.998	-95.818	-0.339	0.089
-175.983	-9.837	-0.294	-0.193
-174.969	-0.624	-0.351	-0.245
-173.954	800.000	0.008	0.028
-172.939	-6.083	0.229	-0.154
-171.925	191.032	-0.147	0.218
-170.910	165.631	0.107	-0.149
-169.896	800.000	-0.005	0.021
-168.881	362.220	0.146	0.288
-167.866	67.744	-0.044	-0.045
-166.852	32.819	0.164	-0.140
-165.837	112.371	0.052	0.062
-164.823	156.634	0.106	0.144
-163.808	-186.787	0.197	-0.003
-162.793	-36.565	0.201	0.106
-161.779	193.238	0.119	0.177
-160.764	800.000	-0.163	-0.448
-159.750	2.731	0.210	-0.150
-158.735	-87.246	-0.252	0.075
-157.720	-8.640	0.201	-0.132
-156.706	50.594	0.165	-0.154
-155.691	129.526	0.109	0.137
-154.677	34.379	0.215	-0.185
-153.662	34.973	0.101	-0.087
-152.647	800.000	0.071	-0.246
-151.633	56.413	0.047	0.045
-150.618	-200.000	-0.002	-0.157
-149.604	-200.000	-0.003	-0.087
-148.589	108.165	0.007	-0.008
-147.574	712.828	-0.033	0.087
-146.560	-96.458	-0.105	-0.027
-145.545	-40.974	-0.227	0.115
-144.531	135.310	0.086	0.111
-143.516	800.000	0.076	0.208
-142.502	-200.000	-0.025	0.216
-141.487	-85.054	-0.447	-0.138
-140.472	73.852	-0.081	0.083
-139.458	-93.576	-0.094	0.025
-138.443	188.196	-0.110	-0.162
-137.429	800.000	0.044	-0.174
-136.414	-63.059	0.365	-0.148
-135.399	467.491	-0.108	-0.237
-134.385	25.429	0.180	-0.147
-133.370	117.447	-0.154	-0.186
-132.356	-200.000	-0.010	-0.235
-131.341	-71.098	0.431	0.159
-130.326	-118.876	-0.187	-0.032
-129.312	483.536	0.062	0.139
-128.297	-200.000	-0.012	0.234
-127.283	-47.728	0.293	-0.140
-126.268	800.000	0.055	-0.227
-125.253	-200.000	0.028	0.165
-124.239	164.922	0.169	-0.234
-123.224	68.002	0.189	-0.190
-122.210	7.965	-0.176	0.130
