DTS Sentinel unit serial number:	SN413079Multiplexer serial number:	ORYXHardware model number:	OX4-SRSoftware version number:	ORYX F/W v4.00 Oryx Data Collector v3.7.2.0data status	okinstallation	princeton_trtdifferential loss correction	single-endedforward channel	channel 2reverse channel	N/Adate	2019/09/11time	01:09:11forward acquisition time	60.00reverse acquisition time	0.00gamma	496.2192k internal	0.2332k external	0.2332temperature offset calibration	0.9942default loss term (dB/km)	0.3790temperature slope calibration	1.0000multiplexer offset coefficient	1.0000multiplexer slope coefficient	1.0000fibre end	0.00T internal ref (°C)	29.12T ext. ref 1 (°C)	-0.29T ext. ref 2 (°C)	23.17length (m)	temperature (°C)	Stokes	anti-Stokes-747.200	-200.000	-0.104	-0.471
-746.185	220.547	-0.125	-0.201
-745.171	15.976	-0.112	-0.089
-744.156	73.275	-0.152	0.160
-743.142	-57.821	-0.390	0.171
-742.127	172.625	-0.083	0.120
-741.112	800.000	0.077	0.267
-740.098	93.300	-0.164	0.187
-739.083	-88.068	0.221	-0.067
-738.069	800.000	0.043	0.166
-737.054	3.199	-0.335	0.245
-736.039	376.318	-0.095	-0.196
-735.025	800.000	0.059	0.219
-734.010	-166.276	-0.324	-0.014
-732.996	-158.060	-0.411	-0.024
-731.981	-200.000	-0.053	0.479
-730.966	-51.708	-0.325	0.152
-729.952	-200.000	-0.042	-0.199
-728.937	727.813	-0.025	-0.067
-727.923	-200.000	-0.212	-0.001
-726.908	-200.000	0.040	0.330
-725.894	128.786	-0.114	0.146
-724.879	37.234	-0.182	0.162
-723.864	-200.000	-0.015	0.077
-722.850	-145.483	0.192	0.017
-721.835	-116.228	-0.240	-0.045
-720.821	800.000	0.075	-0.278
-719.806	160.959	-0.159	-0.224
-718.791	603.541	-0.146	-0.366
-717.777	-140.641	-0.302	0.031
-716.762	-72.444	0.124	-0.046
-715.748	-32.001	0.386	-0.217
-714.733	-200.000	-0.014	0.143
-713.718	-169.757	0.259	0.009
-712.704	410.362	-0.002	-0.005
-711.689	-200.000	-0.011	0.152
-710.675	23.873	-0.096	0.080
-709.660	800.000	0.099	-0.344
-708.645	183.050	-0.159	0.236
-707.631	649.617	-0.182	-0.467
-706.616	800.000	-0.059	-0.176
-705.602	-180.495	0.227	-0.005
-704.587	-158.481	0.064	0.004
-703.572	-64.815	0.272	-0.110
-702.558	204.315	-0.134	0.209
-701.543	-99.692	0.165	0.042
-700.529	-131.008	0.064	-0.009
-699.514	-200.000	-0.076	-0.000
-698.499	-122.014	-0.271	0.045
-697.485	55.700	0.165	-0.160
-696.470	-193.321	-0.222	0.002
-695.456	194.808	-0.135	-0.205
-694.441	631.471	-0.185	0.471
-693.426	35.869	-0.134	0.118
-692.412	-200.000	0.067	-0.352
-691.397	800.000	0.106	-0.444
-690.383	44.006	-0.351	-0.323
-689.368	-110.573	-0.266	0.055
-688.354	-200.000	-0.014	0.107
-687.339	60.533	0.099	-0.098
-686.324	26.007	0.046	-0.039
-685.310	-104.982	-0.241	0.055
-684.295	29.327	0.135	0.115
-683.281	800.000	-0.023	0.084
-682.266	-200.000	-0.032	-0.259
-681.251	-157.788	-0.257	0.015
-680.237	-183.360	-0.247	0.004
-679.222	800.000	0.077	-0.276
-678.208	-30.642	-0.166	0.094
-677.193	119.508	0.084	-0.105
-676.178	-97.692	-0.205	-0.053
-675.164	202.541	0.078	0.121
-674.149	171.790	-0.316	-0.455
-673.135	-200.000	-0.011	-0.246
-672.120	2.759	-0.122	-0.089
-671.105	-200.000	0.016	-0.261
-670.091	336.012	-0.045	-0.087
-669.076	333.345	-0.091	-0.176
-668.062	541.808	0.129	0.309
-667.047	132.775	-0.256	-0.331
-666.032	84.809	0.106	0.116
-665.018	514.571	0.108	0.254
-664.003	37.437	-0.280	-0.249
-662.989	57.969	-0.063	-0.062
-661.974	238.702	0.018	-0.031
-660.959	-71.254	0.509	-0.191
-659.945	62.314	-0.193	-0.193
-658.930	-84.756	0.236	-0.074
-657.916	-9.067	-0.206	0.138
-656.901	90.352	0.079	-0.089
-655.886	-48.086	0.262	-0.127
-654.872	-11.630	-0.260	-0.171
-653.857	-145.768	0.212	-0.019
-652.843	-169.815	0.186	0.007
-651.828	-106.521	-0.358	0.080
-650.814	381.919	-0.177	-0.365
-649.799	185.844	0.069	0.102
-648.784	800.000	0.115	0.353
-647.770	-83.016	-0.091	0.030
-646.755	159.925	0.093	0.129
-645.741	274.079	0.161	-0.286
-644.726	800.000	-0.058	-0.251
-643.711	232.167	0.018	-0.030
-642.697	-1.189	-0.222	-0.157
-641.682	295.411	0.107	0.197
-640.668	-40.961	-0.349	-0.181
-639.653	-25.799	-0.287	-0.169
-638.638	705.820	-0.159	0.419
-637.624	67.414	0.147	-0.150
-636.609	-138.586	0.252	-0.028
-635.595	-61.300	0.208	0.088
-634.580	-178.170	-0.375	-0.009
-633.565	337.830	0.135	0.263
-632.551	800.000	-0.032	0.109
-631.536	299.839	0.100	0.185
-630.522	735.082	-0.041	0.109
-629.507	800.000	0.008	0.034
-628.492	24.541	0.072	-0.059
-627.478	-140.284	-0.074	0.008
-626.463	800.000	0.151	0.440
-625.449	-53.499	0.104	0.047
-624.434	-174.435	0.326	0.009
-623.419	800.000	0.063	-0.225
-622.405	-134.342	-0.221	0.027
-621.390	39.069	0.226	0.202
-620.376	-124.358	-0.380	0.059
-619.361	7.849	-0.110	-0.083
-618.346	-80.180	0.182	0.061
-617.332	113.760	0.229	-0.278
-616.317	-60.253	0.185	-0.079
-615.303	345.135	0.121	0.238
-614.288	33.237	0.056	-0.049
-613.273	-184.927	-0.242	-0.004
-612.259	683.567	-0.066	-0.174
-611.244	-99.012	-0.088	0.022
-610.230	-165.534	0.406	0.018
-609.215	-200.000	-0.034	0.159
-608.201	-110.332	-0.263	-0.055
-607.186	16.577	-0.238	-0.188
-606.171	-200.000	0.021	-0.144
-605.157	800.000	-0.094	-0.393
-604.142	-69.159	0.145	-0.056
-603.128	-200.000	-0.023	-0.150
-602.113	196.977	-0.214	-0.326
-601.098	279.130	0.096	-0.171
-600.084	-108.182	-0.132	0.029
-599.069	39.821	0.108	-0.097
-598.055	-200.000	0.010	0.048
-597.040	136.174	-0.095	-0.124
-596.025	-41.144	-0.428	-0.221
-595.011	-200.000	-0.017	-0.166
-593.996	111.519	0.088	-0.107
-592.982	-200.000	-0.050	0.231
-591.967	-65.111	-0.139	0.056
-590.952	-58.748	-0.115	0.050
-589.938	772.685	0.028	0.076
-588.923	-10.270	-0.308	-0.204
-587.909	-118.541	-0.306	0.054
-586.894	-53.526	-0.129	-0.059
-585.879	-8.209	0.367	-0.247
-584.865	1.001	0.200	-0.143
-583.850	526.954	0.086	-0.204
-582.836	-112.000	0.162	0.033
-581.821	-87.775	-0.313	-0.094
-580.806	-36.255	-0.178	-0.096
-579.792	-52.781	-0.229	0.106
-578.777	-200.000	0.034	-0.458
-577.763	-111.891	0.147	-0.030
-576.748	800.000	-0.098	0.367
-575.733	136.644	-0.186	-0.243
-574.719	-1.485	-0.252	0.178
-573.704	78.035	0.189	-0.202
-572.690	101.689	0.184	0.215
-571.675	-0.460	-0.427	0.303
-570.661	11.971	0.183	0.140
-569.646	-82.339	-0.090	-0.029
-568.631	-116.350	0.379	-0.070
-567.617	574.049	0.061	0.149
-566.602	373.314	-0.047	0.096
-565.588	-200.000	-0.003	-0.017
-564.573	-200.000	0.030	0.206
-563.558	-200.000	-0.031	0.454
-562.544	147.186	-0.101	0.135
-561.529	800.000	0.056	-0.184
-560.515	-46.729	-0.301	0.147
-559.500	377.386	0.106	-0.217
-558.485	-144.202	-0.332	0.031
-557.471	-90.981	-0.242	-0.070
-556.456	800.000	-0.053	-0.165
-555.442	800.000	0.052	-0.162
-554.427	-73.464	0.169	-0.062
-553.412	-47.644	0.164	-0.080
-552.398	-170.952	0.266	0.009
-551.383	-65.312	0.231	0.093
-550.369	-26.935	-0.191	0.111
-549.354	407.566	-0.054	-0.113
-548.339	273.517	-0.259	-0.457
-547.325	254.751	-0.124	-0.212
-546.310	-112.481	0.147	-0.029
-545.296	173.349	0.034	0.048
-544.281	95.632	0.117	0.133
-543.266	427.252	-0.186	0.400
-542.252	-200.000	0.021	-0.197
-541.237	-136.025	0.537	-0.063
-540.223	-200.000	-0.013	-0.254
-539.208	110.251	0.136	-0.163
-538.193	-69.688	-0.307	-0.117
-537.179	-144.854	0.210	0.019
-536.164	192.847	-0.138	-0.208
-535.150	-55.281	0.057	-0.026
-534.135	-200.000	0.004	0.215
-533.121	800.000	0.073	-0.204
-532.106	94.663	-0.139	0.157
-531.091	115.449	-0.098	0.119
-530.077	73.700	-0.219	-0.229
-529.062	280.246	0.145	-0.258
-528.048	737.165	0.098	-0.262
-527.033	-113.974	0.437	0.085
-526.018	9.673	0.090	0.068
-525.004	-200.000	0.036	-0.169
-523.989	114.051	-0.183	-0.222
-522.975	38.304	-0.280	-0.249
-521.960	-68.043	-0.284	0.110
-520.945	-86.246	-0.192	-0.059
-519.931	256.849	0.109	0.186
-518.916	800.000	0.078	0.310
-517.902	-70.467	-0.193	-0.073
-516.887	525.889	-0.063	0.147
-515.872	-77.989	0.458	-0.157
-514.858	-200.000	-0.005	-0.103
-513.843	49.779	-0.176	0.165
-512.829	-2.520	0.026	0.018
-511.814	-200.000	0.027	0.334
-510.799	800.000	-0.068	-0.243
-509.785	-113.050	0.184	-0.036
-508.770	-200.000	-0.028	0.226
-507.756	336.017	0.045	0.087
-506.741	-13.105	-0.180	0.117
-505.726	22.486	-0.124	0.101
-504.712	-135.588	-0.151	-0.018
-503.697	-171.208	-0.279	0.009
-502.683	-200.000	0.030	-0.267
-501.668	-25.041	0.100	-0.059
-500.653	-76.503	0.065	0.023
-499.639	272.105	-0.148	0.260
-498.624	142.565	-0.191	0.253
-497.610	239.057	-0.219	0.363
-496.595	800.000	-0.107	0.411
-495.581	35.585	-0.114	-0.099
-494.566	800.000	-0.025	-0.099
-493.551	41.050	0.162	-0.146
-492.537	124.591	-0.148	0.186
-491.522	-112.893	0.099	0.020
-490.508	-200.000	0.025	0.453
-489.493	65.712	0.266	0.269
-488.478	-13.508	0.233	0.151
-487.464	137.212	-0.114	-0.149
-486.449	451.628	0.085	-0.186
-485.435	-50.349	0.195	0.092
-484.420	-13.822	-0.081	0.052
-483.405	-146.382	-0.119	0.010
-482.391	93.385	0.340	0.383
-481.376	-157.370	-0.440	0.026
-480.362	-131.146	0.342	0.045
-479.347	-49.415	-0.275	0.131
-478.332	190.726	0.178	0.267
-477.318	-33.033	0.051	-0.028
-476.303	-168.512	-0.141	0.005
-475.289	-146.514	0.147	-0.013
-474.274	-123.500	-0.119	0.019
-473.259	-157.788	-0.007	-0.000
-472.245	2.667	-0.185	0.133
-471.230	108.630	0.150	0.178
-470.216	-85.691	0.115	-0.035
-469.201	438.318	-0.116	-0.252
-468.186	-114.368	-0.255	0.049
-467.172	-150.468	-0.425	-0.032
-466.157	-200.000	0.029	0.334
-465.143	-30.752	0.231	-0.130
-464.128	-200.000	-0.052	-0.333
-463.113	-200.000	0.037	-0.205
-462.099	0.050	0.095	0.067
-461.084	800.000	0.087	-0.262
-460.070	191.455	0.200	0.300
-459.055	87.772	0.059	0.065
-458.040	420.284	-0.187	-0.399
-457.026	800.000	-0.073	0.230
-456.011	-200.000	0.014	-0.234
-454.997	-200.000	0.035	0.331
-453.982	-200.000	-0.038	-0.261
-452.968	129.001	0.207	0.262
-451.953	-175.992	0.297	-0.008
-450.938	264.338	0.161	-0.278
-449.924	-149.799	-0.297	0.023
-448.909	-200.000	0.024	0.294
-447.895	-105.686	-0.156	0.035
-446.880	49.626	-0.202	0.189
-445.865	-95.098	0.238	-0.064
-444.851	476.697	0.099	0.222
-443.836	293.534	0.248	-0.450
-442.822	-200.000	-0.037	0.214
-441.807	-200.000	0.002	-0.095
-440.792	800.000	-0.069	-0.203
-439.778	800.000	0.012	0.051
-438.763	-103.609	-0.238	-0.056
-437.749	-200.000	-0.074	-0.434
-436.734	-38.924	-0.280	-0.147
-435.719	24.039	-0.234	0.192
-434.705	579.513	-0.151	-0.368
-433.690	-200.000	-0.012	0.128
-432.676	127.493	0.168	-0.212
-431.661	-58.554	0.163	0.070
-430.646	229.581	0.122	0.198
-429.632	64.845	0.362	0.363
-428.617	-49.650	-0.458	-0.216
-427.603	-200.000	-0.008	-0.195
-426.588	800.000	-0.053	0.207
-425.573	156.810	0.206	-0.282
-424.559	-121.137	-0.224	-0.037
-423.544	-133.761	-0.176	-0.022
-422.530	18.091	-0.267	-0.212
-421.515	-26.660	0.277	-0.161
-420.500	8.129	0.187	-0.140
-419.486	221.025	0.111	0.177
-418.471	-200.000	0.078	-0.338
-417.457	249.980	-0.129	0.217
-416.442	-190.903	0.030	0.000
-415.428	800.000	-0.081	-0.250
-414.413	180.355	-0.124	-0.181
-413.398	112.876	-0.250	0.301
-412.384	-200.000	0.037	-0.222
-411.369	-6.511	-0.302	-0.204
-410.355	800.000	-0.042	0.141
-409.340	47.935	0.175	0.163
-408.325	12.768	0.188	-0.144
-407.311	464.670	-0.141	0.314
-406.296	6.904	-0.068	0.050
-405.282	-200.000	0.075	-0.606
-404.267	260.152	-0.095	0.163
-403.252	113.040	-0.128	-0.154
-402.238	528.444	-0.128	-0.299
-401.223	3.262	-0.095	0.068
-400.209	325.411	-0.049	0.094
-399.194	800.000	-0.072	0.236
-398.179	-65.423	0.070	0.028
-397.165	800.000	0.062	0.185
-396.150	-200.000	-0.010	0.053
-395.136	-75.737	-0.255	-0.090
-394.121	672.353	0.139	0.358
-393.106	-12.500	-0.153	0.099
-392.092	73.521	0.039	-0.041
-391.077	128.706	-0.128	-0.162
-390.063	-200.000	0.024	0.120
-389.048	112.836	-0.067	0.080
-388.033	95.444	0.310	0.351
-387.019	-159.181	0.206	-0.012
-386.004	-200.000	0.075	-0.402
-384.990	28.085	-0.152	0.127
-383.975	7.708	0.242	0.180
-382.960	-44.756	-0.146	-0.072
-381.946	508.016	0.036	-0.082
-380.931	-90.233	-0.078	0.022
-379.917	15.688	0.251	-0.196
-378.902	-200.000	0.021	-0.151
-377.888	-200.000	0.007	0.233
-376.873	5.477	0.060	0.044
-375.858	0.593	0.086	0.061
-374.844	800.000	0.036	-0.105
-373.829	-127.636	0.260	-0.037
-372.815	73.986	-0.251	-0.261
-371.800	-91.127	-0.153	0.043
-370.785	800.000	-0.102	0.313
-369.771	11.434	0.445	0.338
-368.756	-200.000	0.034	0.206
-367.742	-129.211	0.215	0.030
-366.727	-200.000	0.006	0.078
-365.712	800.000	-0.038	-0.115
-364.698	-200.000	-0.007	0.231
-363.683	103.804	-0.267	0.310
-362.669	252.960	-0.091	-0.154
-361.654	800.000	-0.060	0.188
-360.639	-200.000	0.045	0.276
-359.625	-200.000	0.050	-0.286
-358.610	800.000	-0.033	0.143
-357.596	31.515	-0.209	-0.178
-356.581	800.000	-0.063	0.257
-355.566	800.000	0.081	-0.303
-354.552	800.000	0.091	-0.301
-353.537	-87.783	0.272	-0.081
-352.523	800.000	-0.014	-0.044
-351.508	93.344	-0.057	0.064
-350.493	106.667	0.220	-0.258
-349.479	-200.000	-0.007	-0.178
-348.464	-64.127	-0.216	0.087
-347.450	115.913	0.123	0.150
-346.435	111.516	0.306	0.365
-345.420	800.000	-0.078	-0.239
-344.406	-73.048	0.106	-0.039
-343.391	490.947	-0.105	0.238
-342.377	-200.000	-0.007	-0.228
-341.362	67.280	0.121	-0.122
-340.348	-200.000	-0.028	-0.160
-339.333	415.797	-0.063	0.132
-338.318	800.000	-0.038	-0.127
-337.304	-53.954	0.189	-0.085
-336.289	800.000	0.013	0.047
-335.275	800.000	-0.076	0.212
-334.260	-200.000	0.029	0.186
-333.245	-66.081	-0.368	0.145
-332.231	62.162	0.142	-0.140
-331.216	668.186	-0.194	-0.496
-330.202	800.000	-0.019	-0.072
-329.187	-105.049	-0.223	0.051
-328.172	-112.535	0.216	0.043
-327.158	-97.556	0.249	0.064
-326.143	800.000	0.143	0.445
-325.129	-128.113	-0.134	-0.019
-324.114	-19.877	-0.170	0.104
-323.099	-200.000	0.022	-0.164
-322.085	601.693	-0.173	-0.426
-321.070	-77.906	-0.153	-0.052
-320.056	-200.000	-0.049	0.211
-319.041	-143.035	0.212	-0.020
-318.026	80.002	0.284	-0.302
-317.012	-72.157	0.025	0.009
-315.997	-185.702	-0.386	-0.006
-314.983	-102.602	0.221	-0.052
-313.968	-42.770	-0.326	-0.164
-312.953	-148.537	0.183	-0.015
-311.939	152.112	0.219	-0.296
-310.924	-88.085	0.204	0.061
-309.910	-2.409	-0.172	0.119
-308.895	-200.000	-0.043	-0.289
-307.880	363.059	0.033	0.066
-306.866	-200.000	-0.021	0.253
-305.851	115.029	-0.260	0.314
-304.837	10.300	0.100	-0.076
-303.822	104.571	-0.116	0.135
-302.807	800.000	0.026	-0.113
-301.793	-79.638	0.185	-0.062
-300.778	-142.302	0.305	-0.030
-299.764	-157.535	-0.355	-0.021
-298.749	139.253	0.102	0.133
-297.735	8.977	-0.120	0.089
-296.720	800.000	-0.138	0.379
-295.705	-118.886	0.191	-0.033
-294.691	310.778	-0.184	-0.341
-293.676	-0.046	0.124	0.087
-292.662	-82.688	0.392	-0.126
-291.647	336.358	-0.223	-0.428
-290.632	-85.150	-0.158	-0.049
-289.618	-105.080	0.274	0.062
-288.603	19.771	-0.328	-0.261
-287.589	-200.000	-0.076	-0.328
-286.574	-200.000	0.023	0.253
-285.559	154.853	-0.112	-0.153
-284.545	-92.684	0.058	0.016
-283.530	7.958	-0.253	-0.187
-282.516	-200.000	-0.045	0.672
-281.501	167.445	0.108	0.152
-280.486	800.000	0.053	-0.189
-279.472	-200.000	0.009	-0.246
-278.457	88.357	0.185	-0.203
-277.443	-69.208	0.348	0.132
-276.428	-200.000	0.003	-0.061
-275.413	382.834	-0.044	0.090
-274.399	800.000	0.018	-0.074
-273.384	366.918	0.067	0.134
-272.370	-200.000	-0.046	-0.220
-271.355	800.000	0.044	0.173
-270.340	-133.178	-0.341	-0.043
-269.326	512.475	0.176	-0.404
-268.311	-123.421	0.104	-0.016
-267.297	9.910	-0.220	-0.165
-266.282	800.000	0.064	-0.198
-265.267	-38.975	0.253	0.132
-264.253	-200.000	-0.029	0.160
-263.238	549.617	-0.092	0.218
-262.224	-63.703	0.291	0.118
-261.209	-200.000	0.060	0.318
-260.195	60.082	-0.241	0.235
-259.180	63.160	-0.159	-0.157
-258.165	28.380	0.116	-0.097
-257.151	-22.414	-0.084	-0.050
-256.136	800.000	0.018	0.060
-255.122	115.492	0.128	0.155
-254.107	-32.809	-0.217	-0.119
-253.092	-200.000	-0.004	0.136
-252.078	321.729	0.176	0.330
-251.063	-140.117	0.133	0.014
-250.049	234.783	-0.050	0.081
-249.034	412.146	0.020	0.042
-248.019	-200.000	-0.023	0.297
-247.005	800.000	0.080	0.225
-245.990	301.668	0.188	-0.344
-244.976	-39.944	-0.180	-0.093
-243.961	71.777	0.165	0.170
-242.946	800.000	0.035	0.101
-241.932	800.000	0.012	-0.043
-240.917	-15.090	-0.206	0.130
-239.903	800.000	-0.065	-0.260
-238.888	369.261	0.141	-0.282
-237.873	381.414	-0.117	-0.237
-236.859	-93.932	-0.185	0.050
-235.844	-10.499	-0.058	0.038
-234.830	-200.000	0.028	-0.140
-233.815	-129.118	0.070	0.010
-232.800	-115.665	0.183	0.034
-231.786	181.279	-0.101	0.147
-230.771	-81.129	-0.039	0.013
-229.757	362.151	0.096	0.190
-228.742	800.000	0.074	0.290
-227.727	-200.000	0.056	0.353
-226.713	313.921	0.144	-0.267
-225.698	-200.000	0.013	-0.136
-224.684	-76.112	0.094	0.033
-223.669	-40.616	0.119	-0.061
-222.655	-103.495	-0.126	0.029
-221.640	236.055	0.130	-0.211
-220.625	60.758	-0.115	-0.112
-219.611	-98.471	-0.206	-0.052
-218.596	396.250	-0.038	-0.079
-217.582	-200.000	0.028	-0.478
-216.567	-20.647	-0.178	0.108
-215.552	-33.693	0.300	0.163
-214.538	-163.366	0.182	-0.009
-213.523	-200.000	0.477	0.001
-212.509	135.150	-0.111	-0.142
-211.494	800.000	0.085	-0.232
-210.479	800.000	-0.084	-0.291
-209.465	800.000	0.043	0.164
-208.450	-70.089	0.170	0.064
-207.436	143.397	0.017	0.023
-206.421	146.592	0.162	-0.214
-205.406	-200.000	0.059	-0.361
-204.392	-107.838	0.172	-0.037
-203.377	-200.000	0.017	0.139
-202.363	-180.399	0.414	0.008
-201.348	800.000	-0.020	0.068
-200.333	-96.929	0.368	0.095
-199.319	-142.482	0.395	-0.038
-198.304	56.802	0.083	-0.079
-197.290	-26.218	-0.253	0.146
-196.275	7.130	-0.090	-0.066
-195.260	67.674	0.135	0.136
-194.246	-200.000	0.042	0.336
-193.231	-200.000	-0.010	-0.131
-192.217	800.000	-0.062	-0.218
-191.202	-73.382	-0.123	0.044
-190.187	-29.836	0.083	-0.047
-189.173	-109.239	-0.123	0.026
-188.158	164.349	0.089	0.123
-187.144	406.877	-0.033	-0.070
-186.129	599.258	-0.112	-0.274
-185.114	-73.197	0.118	0.042
-184.100	800.000	-0.074	0.268
-183.085	-139.724	-0.187	-0.020
-182.071	74.090	-0.188	0.194
-181.056	800.000	-0.038	0.163
-180.042	175.736	0.128	-0.183
-179.027	-41.123	-0.376	0.191
-178.012	-64.579	0.207	0.083
-176.998	227.948	-0.115	0.184
-175.983	22.130	0.213	0.171
-174.969	23.966	-0.182	0.148
-173.954	800.000	0.131	0.546
-172.939	800.000	-0.171	0.490
-171.925	-164.183	0.146	-0.007
-170.910	58.278	0.119	0.115
-169.896	-101.766	0.195	-0.046
-168.881	-153.915	0.309	-0.021
-167.866	248.475	-0.151	-0.251
-166.852	-54.094	0.157	0.070
-165.837	26.313	-0.133	-0.109
-164.823	1.312	-0.161	-0.114
-163.808	587.120	-0.094	0.227
-162.793	-74.903	-0.179	0.063
-161.779	800.000	-0.048	0.194
-160.764	434.148	-0.068	0.144
-159.750	-198.252	0.188	0.001
-158.735	27.367	0.149	-0.123
-157.720	14.114	-0.044	0.034
-156.706	38.640	-0.087	0.077
-155.691	-21.848	0.182	-0.109
-154.677	-76.577	-0.181	-0.062
-153.662	-200.000	-0.025	-0.153
-152.647	1.297	0.138	0.097
-151.633	800.000	-0.058	-0.228
-150.618	25.581	-0.330	-0.270
-149.604	800.000	0.147	0.436
-148.589	-159.211	-0.234	0.013
-147.574	95.887	-0.215	0.242
-146.560	-200.000	0.017	0.359
-145.545	-68.235	-0.115	0.044
-144.531	-139.188	0.293	0.031
-143.516	-37.106	-0.122	0.064
-142.502	340.904	-0.035	-0.067
-141.487	31.332	-0.067	-0.057
-140.472	-147.176	-0.182	0.015
-139.458	189.934	0.219	0.323
-138.443	800.000	0.014	0.042
-137.429	-116.320	0.045	0.008
-136.414	16.615	-0.139	0.108
-135.399	-94.507	-0.498	0.133
-134.385	800.000	-0.040	0.147
-133.370	-54.342	0.210	0.094
-132.356	26.910	-0.286	-0.236
-131.341	-8.722	0.107	0.070
-130.326	1.973	0.182	0.129
-129.312	143.069	-0.158	-0.207
-128.297	-12.224	-0.155	0.100
-127.283	-157.741	-0.154	-0.009
-126.268	-108.883	-0.582	-0.122
-125.253	-62.263	0.541	0.221
-124.239	-139.182	-0.287	-0.030
-123.224	-102.984	0.219	-0.051
-122.210	-133.527	0.316	0.039
-121.195	-45.585	-0.223	-0.108
