DTS Sentinel unit serial number:	SN413079Multiplexer serial number:	ORYXHardware model number:	OX4-SRSoftware version number:	ORYX F/W v4.00 Oryx Data Collector v3.7.2.0data status	okinstallation	princeton_trtdifferential loss correction	single-endedforward channel	channel 2reverse channel	N/Adate	2019/09/11time	11:45:11forward acquisition time	60.00reverse acquisition time	0.00gamma	496.2192k internal	0.2302k external	0.2302temperature offset calibration	0.9970default loss term (dB/km)	0.3790temperature slope calibration	1.0000multiplexer offset coefficient	1.0000multiplexer slope coefficient	1.0000fibre end	0.00T internal ref (°C)	38.62T ext. ref 1 (°C)	0.19T ext. ref 2 (°C)	36.31length (m)	temperature (°C)	Stokes	anti-Stokes-747.200	800.000	0.020	0.065
-746.185	165.114	0.294	0.424
-745.171	-200.000	0.034	-0.211
-744.156	-191.797	-0.176	0.002
-743.142	-16.880	0.327	0.211
-742.127	-200.000	-0.023	0.207
-741.112	392.014	-0.158	-0.334
-740.098	800.000	0.038	-0.109
-739.083	182.173	0.134	-0.201
-738.069	-128.635	0.247	0.036
-737.054	-123.855	-0.127	0.020
-736.039	56.192	-0.225	0.223
-735.025	520.307	0.069	0.165
-734.010	-22.179	-0.337	-0.209
-732.996	-200.000	-0.008	-0.106
-731.981	2.537	0.222	-0.164
-730.966	-55.316	-0.130	-0.059
-729.952	800.000	0.150	-0.479
-728.937	121.014	-0.026	0.033
-727.923	23.251	-0.136	-0.114
-726.908	571.047	-0.057	0.142
-725.894	61.207	-0.153	0.155
-724.879	-43.963	0.199	0.102
-723.864	263.994	-0.058	-0.103
-722.850	-133.521	-0.091	0.012
-721.835	131.963	0.126	0.165
-720.821	-200.000	-0.003	0.089
-719.806	-200.000	-0.028	-0.142
-718.791	-19.014	-0.159	0.101
-717.777	38.805	-0.143	-0.130
-716.762	38.794	0.109	-0.099
-715.748	499.472	0.116	0.272
-714.733	-200.000	-0.056	-0.285
-713.718	-142.951	-0.028	0.003
-712.704	23.775	0.107	0.090
-711.689	76.395	-0.148	-0.159
-710.675	-200.000	0.038	-0.372
-709.660	-67.755	0.168	-0.067
-708.645	146.681	0.076	-0.104
-707.631	-200.000	-0.046	-0.294
-706.616	380.379	0.120	-0.250
-705.602	-120.145	0.224	0.039
-704.587	-49.603	0.216	-0.104
-703.572	117.975	0.187	0.235
-702.558	800.000	-0.033	-0.129
-701.543	67.892	-0.129	-0.134
-700.529	-186.989	-0.267	-0.004
-699.514	-0.539	0.127	-0.092
-698.499	46.891	-0.275	-0.260
-697.485	98.080	0.280	0.327
-696.470	-107.806	0.122	0.027
-695.456	17.808	0.182	0.147
-694.441	52.040	-0.271	0.262
-693.426	-156.564	0.197	0.012
-692.412	-45.898	0.135	-0.068
-691.397	-117.380	-0.332	-0.061
-690.383	-118.396	0.093	-0.017
-689.368	800.000	0.056	-0.214
-688.354	-24.186	-0.174	-0.106
-687.339	4.378	-0.203	0.151
-686.324	-200.000	-0.021	-0.105
-685.310	465.423	-0.145	-0.331
-684.295	-62.701	-0.118	-0.050
-683.281	-145.984	0.296	0.027
-682.266	-86.463	0.129	-0.040
-681.251	50.347	-0.140	0.134
-680.237	800.000	-0.038	0.145
-679.222	95.468	-0.154	0.178
-678.208	64.805	0.105	-0.108
-677.193	202.151	-0.161	0.252
-676.178	71.027	0.278	-0.293
-675.164	54.658	0.106	-0.104
-674.149	-78.812	0.172	-0.060
-673.135	50.809	-0.178	0.172
-672.120	-14.092	0.142	-0.093
-671.105	-80.489	-0.304	-0.103
-670.091	32.512	-0.070	-0.062
-669.076	199.674	-0.161	0.251
-668.062	-63.455	0.228	0.095
-667.047	344.440	0.084	0.168
-666.032	236.019	-0.201	-0.337
-665.018	800.000	-0.066	-0.207
-664.003	-200.000	0.056	-0.259
-662.989	-64.104	0.266	0.110
-661.974	-113.098	-0.203	0.041
-660.959	388.450	0.073	0.153
-659.945	-0.909	-0.010	0.007
-658.930	742.173	0.086	-0.234
-657.916	-37.295	-0.251	0.136
-656.901	232.176	0.007	-0.012
-655.886	-106.525	-0.261	-0.059
-654.872	-40.522	0.160	-0.085
-653.857	-200.000	-0.032	-0.175
-652.843	467.815	-0.157	0.357
-651.828	92.031	0.137	0.157
-650.814	15.493	0.347	0.276
-649.799	800.000	-0.064	-0.226
-648.784	-200.000	-0.023	-0.133
-647.770	-41.718	-0.246	-0.128
-646.755	-200.000	0.026	-0.347
-645.741	472.313	-0.046	-0.104
-644.726	-106.471	0.123	0.028
-643.711	-118.776	-0.225	-0.040
-642.697	-110.840	0.269	-0.056
-641.682	241.563	-0.093	-0.158
-640.668	28.961	0.018	0.016
-639.653	800.000	-0.052	0.186
-638.638	618.089	0.190	0.483
-637.624	-133.305	0.015	0.002
-636.609	-200.000	0.022	0.413
-635.595	-200.000	-0.067	0.315
-634.580	-130.224	-0.073	0.010
-633.565	-84.962	0.293	0.093
-632.551	-200.000	-0.044	0.234
-631.536	-115.004	0.185	-0.036
-630.522	62.969	-0.216	0.220
-629.507	25.774	-0.189	-0.159
-628.492	1.325	-0.275	0.200
-627.478	163.031	-0.038	-0.054
-626.463	653.877	-0.116	-0.303
-625.449	-71.658	-0.272	0.103
-624.434	394.837	0.079	0.168
-623.419	-60.645	-0.200	-0.086
-622.405	-54.255	-0.120	-0.055
-621.390	-89.151	0.136	0.041
-620.376	-130.458	0.196	-0.027
-619.361	800.000	-0.078	0.231
-618.346	392.874	0.055	-0.116
-617.332	-72.065	0.294	-0.111
-616.317	-52.110	0.127	-0.060
-615.303	401.747	-0.156	-0.333
-614.288	162.320	-0.173	-0.246
-613.273	-200.000	-0.048	0.226
-612.259	-200.000	0.030	-0.249
-611.244	-62.512	-0.295	0.124
-610.230	-200.000	0.053	0.303
-609.215	98.283	-0.089	-0.103
-608.201	-145.376	0.401	0.037
-607.186	-114.144	0.217	-0.043
-606.171	-200.000	-0.011	-0.163
-605.157	539.317	-0.147	0.354
-604.142	-200.000	-0.009	0.089
-603.128	-109.076	0.208	-0.045
-602.113	266.958	0.172	0.305
-601.098	-128.216	0.290	0.042
-600.084	-18.507	0.191	0.121
-599.069	237.973	0.107	0.180
-598.055	-200.000	-0.049	-0.267
-597.040	26.365	0.125	-0.106
-596.025	-21.398	-0.153	-0.095
-595.011	67.814	-0.254	0.263
-593.996	-18.054	-0.255	0.162
-592.982	-200.000	0.012	0.361
-591.967	800.000	-0.180	-0.531
-590.952	-19.213	-0.180	0.113
-589.938	-200.000	-0.022	0.207
-588.923	768.676	0.100	-0.275
-587.909	771.680	-0.098	0.271
-586.894	-94.253	0.190	0.053
-585.879	-93.988	0.158	0.044
-584.865	-200.000	-0.001	0.148
-583.850	-200.000	0.035	-0.280
-582.836	-200.000	-0.014	-0.108
-581.821	32.627	-0.168	0.147
-580.806	-31.926	-0.327	0.185
-579.792	-12.368	0.023	-0.015
-578.777	-200.000	-0.039	-0.291
-577.763	-200.000	-0.040	-0.204
-576.748	92.059	-0.168	0.191
-575.733	32.837	0.084	-0.074
-574.719	-121.672	0.155	-0.026
-573.704	35.806	0.214	0.190
-572.690	-181.807	-0.196	0.004
-571.675	-114.022	0.200	0.039
-570.661	800.000	-0.017	-0.053
-569.646	-200.000	-0.039	0.411
-568.631	-94.907	-0.199	0.055
-567.617	-87.978	0.087	0.027
-566.602	385.983	-0.154	0.322
-565.588	39.852	0.291	0.264
-564.573	-160.017	0.166	0.009
-563.558	383.826	-0.095	-0.198
-562.544	552.785	0.067	-0.164
-561.529	251.151	0.006	-0.010
-560.515	211.685	-0.030	-0.048
-559.500	218.680	-0.097	0.157
-558.485	-76.075	0.123	-0.044
-557.471	-200.000	-0.002	0.352
-556.456	94.371	0.111	-0.127
-555.442	-27.536	0.158	-0.093
-554.427	-56.782	-0.066	0.029
-553.412	-11.108	0.242	-0.161
-552.398	1.857	0.190	0.139
-551.383	-78.948	-0.149	0.051
-550.369	-200.000	0.011	0.300
-549.354	-84.905	0.099	0.031
-548.339	636.508	-0.144	-0.371
-547.325	-200.000	-0.035	0.188
-546.310	112.835	-0.067	-0.083
-545.296	-172.539	0.093	-0.003
-544.281	-63.043	-0.071	-0.030
-543.266	-43.806	0.186	-0.094
-542.252	282.191	0.149	-0.270
-541.237	-108.229	0.359	-0.079
-540.223	-94.096	-0.131	0.036
-539.208	-27.535	-0.037	0.022
-538.193	-20.723	-0.258	-0.160
-537.179	-200.000	0.012	-0.163
-536.164	-200.000	-0.003	0.140
-535.150	162.563	0.045	-0.064
-534.135	-121.722	-0.282	0.047
-533.121	-157.076	-0.111	-0.007
-532.106	-200.000	0.009	-0.059
-531.091	-61.728	0.086	-0.037
-530.077	-200.000	-0.007	-0.126
-529.062	800.000	-0.088	0.308
-528.048	-104.860	-0.038	0.009
-527.033	243.033	-0.169	-0.287
-526.018	-102.953	0.332	-0.080
-525.004	-71.983	-0.319	-0.120
-523.989	800.000	0.056	-0.230
-522.975	800.000	0.016	0.054
-521.960	-200.000	0.020	-0.224
-520.945	-72.217	0.107	-0.040
-519.931	246.336	0.071	0.120
-518.916	800.000	0.031	-0.095
-517.902	-200.000	-0.076	-0.391
-516.887	130.768	-0.155	-0.201
-515.872	-200.000	0.024	0.243
-514.858	91.613	-0.113	0.128
-513.843	37.452	0.203	-0.182
-512.829	276.975	0.118	-0.212
-511.814	248.002	0.186	-0.318
-510.799	-178.038	-0.217	-0.005
-509.785	-169.328	0.078	0.003
-508.770	-29.026	0.303	-0.176
-507.756	-187.640	-0.318	0.004
-506.741	174.120	-0.337	-0.492
-505.726	-200.000	0.038	-0.271
-504.712	508.958	-0.072	0.169
-503.697	800.000	-0.041	0.161
-502.683	-200.000	0.002	-0.332
-501.668	644.610	0.097	-0.250
-500.653	-112.830	-0.101	0.020
-499.639	-134.065	-0.258	-0.032
-498.624	-19.955	0.148	-0.092
-497.610	580.941	0.070	0.173
-496.595	-99.318	-0.218	-0.056
-495.581	4.843	0.157	0.116
-494.566	41.573	-0.089	0.082
-493.551	-200.000	0.013	-0.236
-492.537	10.425	-0.118	0.091
-491.522	573.742	-0.055	-0.135
-490.508	-112.146	-0.122	-0.025
-489.493	23.574	0.144	-0.120
-488.478	-26.559	0.107	-0.063
-487.464	155.782	-0.210	0.292
-486.449	187.579	-0.182	0.275
-485.435	800.000	-0.107	0.328
-484.420	596.445	0.155	-0.388
-483.405	33.643	0.132	-0.116
-482.391	103.183	-0.278	-0.329
-481.376	-200.000	0.050	0.370
-480.362	800.000	-0.024	0.087
-479.347	-200.000	0.023	-0.197
-478.332	7.622	0.218	-0.165
-477.318	-180.599	0.267	-0.006
-476.303	84.776	-0.143	-0.158
-475.289	-200.000	0.056	-0.493
-474.274	-200.000	0.009	0.110
-473.259	-45.228	-0.099	0.050
-472.245	-12.310	-0.194	0.128
-471.230	32.243	0.097	-0.084
-470.216	646.792	0.027	-0.070
-469.201	800.000	-0.009	-0.037
-468.186	-17.200	-0.025	0.016
-467.172	26.388	0.216	-0.182
-466.157	51.200	-0.232	-0.222
-465.143	75.480	0.050	0.053
-464.128	-127.876	-0.176	-0.026
-463.113	-30.198	-0.141	-0.081
-462.099	-200.000	-0.018	-0.117
-461.084	-200.000	-0.045	0.368
-460.070	-63.169	0.272	0.113
-459.055	-105.579	0.273	-0.062
-458.040	-96.935	0.201	0.053
-457.026	-139.264	0.119	-0.013
-456.011	-200.000	-0.010	0.083
-454.997	266.886	-0.038	-0.067
-453.982	-200.000	0.035	0.414
-452.968	-0.174	-0.064	-0.046
-451.953	164.091	0.195	0.276
-450.938	-15.642	-0.085	-0.055
-449.924	-200.000	-0.048	-0.324
-448.909	-20.397	0.291	-0.181
-447.895	73.370	-0.225	-0.237
-446.880	-125.861	-0.373	-0.057
-445.865	494.065	-0.114	0.264
-444.851	27.786	-0.055	-0.046
-443.836	42.622	0.147	0.135
-442.822	800.000	0.128	-0.375
-441.807	349.232	0.173	-0.344
-440.792	-200.000	0.004	-0.313
-439.778	22.943	-0.231	-0.190
-438.763	-200.000	0.017	-0.081
-437.749	-200.000	-0.039	0.215
-436.734	-89.645	-0.100	0.030
-435.719	427.235	-0.093	0.202
-434.705	69.913	-0.281	-0.292
-433.690	-125.492	-0.277	0.042
-432.676	-119.901	-0.099	0.017
-431.661	-25.000	-0.118	-0.071
-430.646	131.226	0.127	-0.164
-429.632	-68.578	0.194	-0.076
-428.617	141.231	0.104	0.138
-427.603	-89.355	0.057	0.017
-426.588	-200.000	-0.030	-0.426
-425.573	276.141	0.296	-0.530
-424.559	66.769	-0.074	-0.076
-423.544	-65.661	-0.083	-0.034
-422.530	159.869	0.099	-0.138
-421.515	-53.260	0.221	-0.102
-420.500	800.000	0.012	-0.041
-419.486	57.127	-0.176	0.172
-418.471	80.063	0.282	-0.306
-417.457	184.052	-0.129	0.193
-416.442	-34.124	-0.107	0.059
-415.428	-86.554	-0.148	0.046
-414.413	110.030	0.102	-0.123
-413.398	18.216	0.160	0.128
-412.384	800.000	-0.058	0.169
-411.369	55.107	0.086	-0.084
-410.355	800.000	-0.037	-0.106
-409.340	-24.470	0.172	0.103
-408.325	-200.000	-0.002	0.100
-407.311	-23.640	-0.149	0.090
-406.296	24.423	-0.141	-0.117
-405.282	-69.547	0.110	0.042
-404.267	-40.379	-0.155	-0.081
-403.252	433.926	-0.200	0.438
-402.238	-81.597	0.067	-0.022
-401.223	-75.413	0.136	0.049
-400.209	-24.552	-0.078	-0.047
-399.194	-200.000	-0.002	-0.106
-398.179	-200.000	-0.031	0.318
-397.165	-52.293	-0.027	-0.013
-396.150	648.349	-0.063	-0.162
-395.136	-114.805	-0.219	0.042
-394.121	-200.000	0.017	0.110
-393.106	171.941	-0.172	-0.248
-392.092	66.133	-0.128	0.131
-391.077	-69.753	0.065	0.025
-390.063	-79.985	0.120	-0.040
-389.048	-200.000	0.031	0.201
-388.033	-25.229	0.156	0.093
-387.019	149.006	0.089	-0.122
-386.004	800.000	-0.042	-0.149
-384.990	-63.237	0.140	-0.058
-383.975	-82.638	0.292	-0.095
-382.960	458.558	-0.046	-0.102
-381.946	-95.425	0.365	0.098
-380.931	345.250	-0.121	-0.238
-379.917	118.989	-0.207	-0.257
-378.902	338.121	-0.114	0.223
-377.888	-24.160	-0.112	0.067
-376.873	-200.000	0.026	-0.235
-375.858	286.393	-0.175	0.318
-374.844	661.901	0.114	0.296
-373.829	800.000	-0.027	0.094
-372.815	-183.809	0.339	0.006
-371.800	54.409	-0.026	-0.025
-370.785	-121.741	-0.291	0.048
-369.771	-200.000	-0.020	-0.257
-368.756	736.375	-0.107	-0.289
-367.742	-9.512	-0.277	0.186
-366.727	661.083	-0.080	0.207
-365.712	800.000	-0.141	-0.401
-364.698	-98.974	0.248	-0.063
-363.683	-42.926	0.142	-0.072
-362.669	645.244	0.084	-0.216
-361.654	-200.000	0.001	-0.152
-360.639	17.730	0.161	-0.129
-359.625	-200.000	0.001	0.140
-358.610	-47.855	-0.215	0.104
-357.596	222.775	0.135	-0.218
-356.581	-136.947	-0.354	-0.041
-355.566	800.000	0.041	-0.138
-354.552	-163.104	-0.165	0.008
-353.537	501.142	-0.114	0.265
-352.523	39.488	-0.206	-0.185
-351.508	-1.160	-0.204	0.145
-350.493	-66.543	0.236	0.094
-349.479	201.669	-0.225	0.348
-348.464	-95.774	0.155	0.042
-347.450	-85.800	-0.151	-0.047
-346.435	-51.514	-0.189	0.089
-345.420	144.046	0.128	0.171
-344.406	-200.000	-0.008	-0.165
-343.391	-127.361	0.532	0.078
-342.377	450.264	-0.112	0.247
-341.362	309.941	0.114	0.213
-340.348	62.902	-0.150	0.151
-339.333	-200.000	0.040	0.239
-338.318	-200.000	0.028	-0.132
-337.304	-200.000	-0.038	0.171
-336.289	234.465	-0.069	0.114
-335.275	111.466	0.159	-0.193
-334.260	-68.408	-0.261	-0.101
-333.245	-175.396	0.083	-0.002
-332.231	95.414	-0.235	-0.269
-331.216	-179.782	0.510	-0.011
-330.202	15.207	0.353	0.278
-329.187	77.650	0.130	-0.138
-328.172	-2.107	0.124	-0.088
-327.158	-59.641	0.124	-0.053
-326.143	378.532	0.162	0.332
-325.129	6.714	0.190	0.142
-324.114	14.668	0.121	-0.095
-323.099	-19.836	0.106	0.065
-322.085	394.260	0.061	-0.128
-321.070	-34.649	-0.326	0.179
-320.056	285.003	-0.205	-0.370
-319.041	-155.570	0.280	0.018
-318.026	-70.099	0.177	0.067
-317.012	212.144	-0.153	0.241
-315.997	-200.000	-0.028	0.133
-314.983	80.002	-0.123	-0.133
-313.968	800.000	0.063	-0.237
-312.953	-200.000	0.020	0.511
-311.939	-102.981	-0.223	-0.053
-310.924	-200.000	-0.010	0.113
-309.910	735.747	-0.114	-0.305
-308.895	-166.581	0.385	-0.016
-307.880	-147.730	-0.249	0.021
-306.866	-56.470	0.189	0.084
-305.851	92.430	0.211	0.238
-304.837	-200.000	-0.026	0.146
-303.822	-91.428	0.218	-0.062
-302.807	-200.000	0.004	0.018
-301.793	800.000	-0.082	0.239
-300.778	-103.933	-0.385	0.090
-299.764	62.451	-0.044	0.044
-298.749	-112.988	-0.128	-0.025
-297.735	230.953	0.104	0.171
-296.720	44.393	0.095	0.087
-295.705	-13.286	-0.188	0.122
-294.691	604.620	0.067	-0.168
-293.676	-131.857	0.158	-0.021
-292.662	-73.265	-0.194	-0.071
-291.647	280.154	0.135	0.242
-290.632	241.408	-0.213	0.356
-289.618	-95.225	0.121	0.033
-288.603	-64.707	-0.278	0.113
-287.589	-112.010	-0.219	0.044
-286.574	-200.000	-0.058	0.312
-285.559	-200.000	-0.065	-0.397
-284.545	38.800	0.291	0.260
-283.530	-75.885	0.222	-0.079
-282.516	58.954	0.117	0.115
-281.501	269.958	-0.070	-0.123
-280.486	146.179	-0.236	0.317
-279.472	46.315	-0.147	-0.137
-278.457	-200.000	-0.027	0.182
-277.443	15.937	-0.127	0.100
-276.428	-93.542	0.105	0.029
-275.413	152.261	0.187	0.256
-274.399	-200.000	0.007	0.190
-273.384	-69.477	-0.095	0.037
-272.370	91.347	-0.016	0.018
-271.355	252.499	0.122	0.208
-270.340	-200.000	-0.045	-0.217
-269.326	-23.341	0.103	0.062
-268.311	-45.812	0.220	-0.109
-267.297	800.000	0.036	0.136
-266.282	-200.000	0.302	0.001
-265.267	800.000	0.047	-0.197
-264.253	-4.918	0.103	-0.071
-263.238	-176.934	-0.277	-0.007
-262.224	179.972	0.106	0.155
-261.209	-200.000	0.029	0.247
-260.195	-146.499	0.166	0.014
-259.180	199.264	0.089	-0.136
-258.165	304.905	0.101	0.188
-257.151	-200.000	-0.020	0.198
-256.136	-2.125	-0.161	0.113
-255.122	447.114	-0.037	-0.081
-254.107	301.633	0.064	-0.118
-253.092	-116.400	0.380	0.070
-252.078	285.833	0.029	-0.052
-251.063	414.698	0.050	-0.106
-250.049	385.664	-0.074	-0.153
-249.034	-200.000	0.040	-0.288
-248.019	124.072	-0.309	0.388
-247.005	36.222	0.172	-0.151
-245.990	8.910	-0.105	0.079
-244.976	220.190	0.074	-0.118
-243.961	135.078	-0.082	0.106
-242.946	657.980	-0.023	0.060
-241.932	24.823	0.212	-0.176
-240.917	160.900	-0.169	-0.236
-239.903	800.000	-0.065	-0.205
-238.888	-18.745	0.115	-0.071
-237.873	34.378	0.244	0.213
-236.859	29.692	0.144	0.123
-235.844	800.000	0.101	0.280
-234.830	-58.139	0.165	0.072
-233.815	40.309	-0.044	-0.039
-232.800	-105.609	0.331	0.075
-231.786	13.119	0.120	-0.092
-230.771	-36.250	-0.119	-0.064
-229.757	-59.324	0.095	0.041
-228.742	107.621	0.089	-0.106
-227.727	-200.000	0.035	0.290
-226.713	-155.574	-0.267	0.017
-225.698	16.020	0.277	-0.218
-224.684	219.725	-0.054	-0.086
-223.669	105.112	-0.234	0.276
-222.655	800.000	0.142	0.408
-221.640	254.490	0.074	-0.126
-220.625	-200.000	0.038	0.233
-219.611	-200.000	0.016	0.094
-218.596	-111.112	0.039	-0.008
-217.582	292.036	-0.144	-0.262
-216.567	-49.087	-0.359	0.171
-215.552	6.985	0.147	0.109
-214.538	1.760	0.046	0.033
-213.523	-49.446	-0.097	-0.046
-212.509	-154.032	-0.074	0.005
-211.494	-200.000	0.013	0.115
-210.479	204.458	0.032	-0.049
-209.465	800.000	0.056	0.168
-208.450	-140.828	0.355	0.036
-207.436	800.000	0.069	0.244
-206.421	104.467	-0.181	0.213
-205.406	90.556	-0.177	-0.198
-204.392	-135.476	-0.179	0.021
-203.377	124.054	-0.295	-0.370
-202.363	62.430	-0.118	-0.118
-201.348	325.187	0.070	0.133
-200.333	-90.876	-0.224	-0.064
-199.319	89.691	-0.169	0.188
-198.304	62.529	0.158	0.158
-197.290	76.153	0.190	0.200
-196.275	-15.810	-0.238	-0.151
-195.260	-74.891	0.109	0.039
-194.246	-123.926	-0.261	0.041
-193.231	-200.000	-0.005	-0.041
-192.217	7.209	-0.173	0.129
-191.202	-127.804	-0.518	0.075
-190.187	-132.487	0.526	-0.067
-189.173	-200.000	0.018	0.130
-188.158	60.765	-0.249	0.246
-187.144	159.443	0.176	-0.244
-186.129	-15.389	0.250	-0.159
-185.114	42.930	-0.135	-0.123
-184.100	800.000	-0.108	0.448
-183.085	-92.533	-0.268	-0.075
-182.071	-14.866	0.214	0.137
-181.056	-143.838	-0.176	0.017
-180.042	-67.646	0.194	0.076
-179.027	490.809	0.061	-0.139
-178.012	-73.298	0.235	0.086
-176.998	11.894	-0.110	0.084
-175.983	83.444	-0.076	-0.083
-174.969	-40.410	0.455	0.236
-173.954	293.156	0.093	0.169
-172.939	420.579	-0.061	-0.131
-171.925	-21.187	-0.398	-0.243
-170.910	-63.871	-0.340	0.139
-169.896	-8.134	0.243	0.163
-168.881	-200.000	-0.008	-0.177
-167.866	-146.333	-0.080	0.007
-166.852	-119.510	0.191	-0.033
-165.837	-49.068	-0.105	0.050
-164.823	8.684	-0.129	-0.097
-163.808	225.394	0.082	-0.132
-162.793	800.000	-0.055	-0.165
-161.779	-70.363	-0.072	0.027
-160.764	-46.888	0.225	-0.109
-159.750	-200.000	0.019	-0.226
-158.735	586.911	0.060	-0.146
-157.720	393.803	0.149	-0.310
-156.706	-200.000	-0.001	-0.134
-155.691	-200.000	-0.042	-0.328
-154.677	-149.281	-0.322	0.026
-153.662	122.296	-0.101	-0.126
-152.647	204.942	0.167	-0.258
-151.633	800.000	0.061	0.193
-150.618	492.607	-0.035	-0.081
-149.604	332.762	-0.030	-0.058
-148.589	-50.320	0.577	0.272
-147.574	753.374	-0.133	0.359
-146.560	-60.829	0.257	0.109
-145.545	136.386	-0.082	0.106
-144.531	-110.642	0.352	-0.072
-143.516	271.893	0.026	-0.046
-142.502	15.102	0.244	-0.191
-141.487	149.566	0.387	-0.522
-140.472	188.116	-0.070	0.104
-139.458	-111.701	-0.365	-0.074
-138.443	-133.401	0.377	-0.047
-137.429	175.454	0.076	-0.110
-136.414	145.222	0.029	-0.039
-135.399	127.273	-0.071	0.090
-134.385	5.771	-0.125	-0.092
-133.370	-140.541	-0.182	0.019
-132.356	-200.000	0.023	0.136
-131.341	-37.304	0.212	-0.113
-130.326	-83.119	0.188	-0.060
-129.312	316.682	0.140	-0.263
-128.297	800.000	-0.122	-0.335
-127.283	427.067	0.044	0.095
-126.268	576.148	-0.102	0.248
-125.253	14.913	-0.232	0.180
-124.239	-200.000	0.058	0.349
-123.224	157.231	0.152	0.210
-122.210	141.873	-0.191	0.252
-121.195	5.603	-0.211	-0.155
