DTS Sentinel unit serial number:	SN413079Multiplexer serial number:	ORYXHardware model number:	OX4-SRSoftware version number:	ORYX F/W v4.00 Oryx Data Collector v3.7.2.0data status	okinstallation	princeton_trtdifferential loss correction	single-endedforward channel	channel 2reverse channel	N/Adate	2019/09/11time	08:53:11forward acquisition time	60.00reverse acquisition time	0.00gamma	496.2192k internal	0.2319k external	0.2319temperature offset calibration	0.9964default loss term (dB/km)	0.3790temperature slope calibration	1.0000multiplexer offset coefficient	1.0000multiplexer slope coefficient	1.0000fibre end	0.00T internal ref (°C)	33.94T ext. ref 1 (°C)	0.10T ext. ref 2 (°C)	30.88length (m)	temperature (°C)	Stokes	anti-Stokes-747.200	800.000	0.096	-0.302
-746.185	63.563	0.114	0.115
-745.171	-72.567	0.154	0.058
-744.156	-200.000	-0.009	-0.460
-743.142	-194.716	0.335	-0.003
-742.127	638.170	-0.127	-0.327
-741.112	-137.461	-0.279	0.032
-740.098	-109.545	-0.031	-0.007
-739.083	-175.679	0.413	-0.011
-738.069	-60.699	-0.223	-0.096
-737.054	26.122	0.223	0.188
-736.039	-42.678	0.122	0.063
-735.025	-200.000	-0.060	0.311
-734.010	26.040	-0.137	-0.115
-732.996	800.000	0.058	-0.226
-731.981	55.702	0.144	-0.141
-730.966	-70.037	-0.181	-0.070
-729.952	-55.741	-0.123	0.056
-728.937	776.737	0.105	-0.291
-727.923	-200.000	0.023	0.375
-726.908	800.000	-0.049	0.190
-725.894	-200.000	0.042	-0.311
-724.879	-49.649	-0.273	0.131
-723.864	-200.000	0.025	-0.473
-722.850	-200.000	0.002	-0.074
-721.835	-89.984	0.380	0.112
-720.821	106.450	-0.095	0.114
-719.806	308.292	0.025	0.048
-718.791	-77.933	0.239	-0.083
-717.777	126.154	0.070	-0.089
-716.762	-170.201	-0.212	0.008
-715.748	-137.299	0.232	0.027
-714.733	-200.000	-0.025	-0.375
-713.718	-156.420	-0.120	0.008
-712.704	-43.408	-0.341	0.174
-711.689	800.000	0.069	0.230
-710.675	-200.000	0.028	0.302
-709.660	-200.000	-0.042	0.244
-708.645	-20.802	-0.298	0.185
-707.631	-200.000	0.004	0.023
-706.616	-64.066	0.307	-0.127
-705.602	-142.238	-0.288	0.029
-704.587	800.000	-0.118	-0.469
-703.572	-90.436	-0.072	0.021
-702.558	208.209	0.152	0.240
-701.543	-145.126	0.191	0.018
-700.529	260.934	0.062	-0.108
-699.514	184.966	-0.148	0.222
-698.499	-130.240	0.125	0.017
-697.485	127.128	-0.098	0.126
-696.470	312.792	-0.130	-0.247
-695.456	535.434	-0.017	0.041
-694.441	-20.773	-0.274	0.170
-693.426	86.225	-0.159	-0.177
-692.412	7.344	-0.382	0.288
-691.397	54.064	-0.143	-0.139
-690.383	-131.850	0.359	0.047
-689.368	-29.947	0.180	0.104
-688.354	424.396	0.055	-0.120
-687.339	-200.000	0.001	-0.088
-686.324	-200.000	-0.024	-0.105
-685.310	-200.000	-0.030	-0.489
-684.295	-43.365	-0.080	0.041
-683.281	93.279	-0.100	0.114
-682.266	184.061	0.169	-0.253
-681.251	-48.075	0.143	-0.070
-680.237	583.527	-0.072	-0.179
-679.222	-28.751	-0.176	0.102
-678.208	254.761	-0.082	0.142
-677.193	-128.553	-0.177	0.025
-676.178	-21.301	0.175	0.108
-675.164	315.292	0.121	0.230
-674.149	594.586	-0.111	-0.278
-673.135	237.200	-0.055	0.092
-672.120	-147.987	-0.356	0.030
-671.105	800.000	-0.040	-0.146
-670.091	4.583	-0.202	0.150
-669.076	-200.000	0.023	-0.249
-668.062	-129.760	-0.262	-0.036
-667.047	-130.167	-0.138	0.019
-666.032	33.935	0.119	-0.105
-665.018	800.000	0.071	-0.305
-664.003	800.000	-0.051	-0.200
-662.989	-88.390	-0.271	0.082
-661.974	-200.000	0.009	0.260
-660.959	-200.000	-0.002	0.186
-659.945	-48.901	-0.178	0.086
-658.930	15.072	-0.079	0.062
-657.916	-14.254	-0.112	0.073
-656.901	-110.348	-0.348	0.073
-655.886	46.841	-0.344	0.322
-654.872	-200.000	-0.049	0.217
-653.857	-54.099	0.242	-0.111
-652.843	-37.438	-0.258	0.139
-651.828	800.000	-0.096	0.350
-650.814	-200.000	-0.041	0.360
-649.799	175.093	0.155	-0.227
-648.784	-95.229	-0.261	-0.071
-647.770	-200.000	0.043	-0.466
-646.755	-7.380	-0.263	-0.179
-645.741	254.108	-0.090	0.155
-644.726	103.227	0.105	0.125
-643.711	13.482	-0.293	-0.229
-642.697	-50.390	0.246	-0.117
-641.682	-146.265	0.027	0.002
-640.668	10.688	0.237	0.182
-639.653	138.100	0.135	0.178
-638.638	-66.547	-0.229	-0.092
-637.624	-200.000	-0.011	-0.089
-636.609	-155.560	0.109	-0.007
-635.595	116.416	-0.250	-0.309
-634.580	42.120	-0.146	-0.134
-633.565	-111.960	-0.153	0.031
-632.551	52.814	-0.179	0.173
-631.536	86.664	-0.194	-0.216
-630.522	-98.009	0.034	-0.009
-629.507	-22.088	0.092	-0.057
-628.492	-123.342	-0.220	0.035
-627.478	207.136	-0.029	0.046
-626.463	-13.161	-0.065	-0.042
-625.449	-175.013	-0.100	-0.003
-624.434	42.419	0.018	0.016
-623.419	31.341	-0.219	-0.189
-622.405	-171.062	-0.253	0.009
-621.390	186.051	-0.040	-0.060
-620.376	-20.164	0.223	0.138
-619.361	202.733	-0.295	-0.458
-618.346	-123.466	0.296	-0.047
-617.332	107.252	-0.151	-0.180
-616.317	-200.000	0.024	-0.289
-615.303	-200.000	0.008	0.090
-614.288	-136.728	-0.004	0.000
-613.273	-24.395	-0.484	0.290
-612.259	-200.000	0.025	0.354
-611.244	-200.000	-0.005	0.249
-610.230	-169.981	-0.284	-0.010
-609.215	101.753	-0.010	-0.012
-608.201	-95.926	-0.147	0.040
-607.186	-89.473	0.079	0.023
-606.171	26.943	-0.240	0.202
-605.157	360.310	-0.061	0.123
-604.142	2.466	0.321	-0.234
-603.128	64.373	0.101	0.102
-602.113	-168.917	0.170	0.006
-601.098	-84.446	-0.299	-0.095
-600.084	15.874	0.124	-0.098
-599.069	71.179	-0.106	-0.110
-598.055	569.656	0.230	0.562
-597.040	-164.795	0.167	-0.008
-596.025	800.000	-0.104	0.293
-595.011	299.106	0.224	0.415
-593.996	15.620	0.127	0.101
-592.982	78.923	-0.244	-0.262
-591.967	-136.186	0.368	0.043
-590.952	-132.534	-0.135	-0.017
-589.938	82.299	-0.202	-0.221
-588.923	-157.513	-0.131	0.008
-587.909	-50.404	-0.255	0.121
-586.894	-6.254	0.230	-0.158
-585.879	-30.250	0.173	-0.099
-584.865	186.928	0.173	-0.259
-583.850	151.933	-0.121	0.165
-582.836	-2.664	-0.067	-0.047
-581.821	-200.000	0.012	-0.207
-580.806	800.000	-0.055	-0.224
-579.792	519.207	-0.139	-0.327
-578.777	164.225	-0.157	-0.223
-577.763	-200.000	0.003	-0.241
-576.748	-200.000	-0.004	-0.180
-575.733	800.000	0.087	0.327
-574.719	-188.875	-0.123	0.001
-573.704	374.674	-0.015	0.031
-572.690	-56.526	-0.160	0.071
-571.675	-70.227	0.284	-0.108
-570.661	-147.558	0.328	0.028
-569.646	174.696	0.062	-0.090
-568.631	-200.000	0.030	0.283
-567.617	-103.940	-0.122	0.029
-566.602	-200.000	-0.001	-0.137
-565.588	30.125	-0.296	-0.254
-564.573	374.781	0.102	0.210
-563.558	-51.166	-0.369	0.174
-562.544	-70.739	-0.392	-0.149
-561.529	-8.679	-0.356	-0.240
-560.515	40.490	0.126	0.114
-559.500	-200.000	0.015	-0.204
-558.485	-179.049	-0.172	0.004
-557.471	131.259	-0.084	-0.109
-556.456	11.388	-0.156	-0.120
-555.442	193.474	-0.223	-0.339
-554.427	-90.786	0.371	-0.107
-553.412	212.777	-0.121	0.192
-552.398	-157.240	0.158	-0.010
-551.383	800.000	-0.077	0.228
-550.369	395.507	0.052	0.109
-549.354	-13.150	-0.143	-0.093
-548.339	-61.508	0.183	0.077
-547.325	-200.000	0.029	0.284
-546.310	-95.741	0.255	-0.068
-545.296	143.789	-0.124	0.165
-544.281	-200.000	0.027	0.124
-543.266	-118.483	-0.131	-0.023
-542.252	68.488	-0.106	-0.109
-541.237	136.460	0.049	0.064
-540.223	-200.000	0.049	0.281
-539.208	306.514	-0.153	-0.286
-538.193	-91.922	-0.254	0.072
-537.179	238.851	-0.173	0.289
-536.164	68.951	-0.287	-0.296
-535.150	-200.000	-0.028	-0.390
-534.135	118.506	-0.058	0.072
-533.121	800.000	0.090	-0.389
-532.106	-200.000	0.052	0.320
-531.091	179.981	-0.156	-0.229
-530.077	144.763	0.176	-0.236
-529.062	-192.888	-0.298	0.003
-528.048	-75.247	-0.191	0.069
-527.033	-117.521	0.480	-0.087
-526.018	-82.965	-0.304	-0.098
-525.004	85.395	-0.136	-0.150
-523.989	-9.300	0.153	-0.102
-522.975	-200.000	-0.018	0.344
-521.960	-71.214	-0.126	-0.047
-520.945	45.883	-0.135	0.125
-519.931	562.476	-0.087	0.212
-518.916	403.430	0.171	-0.361
-517.902	-109.496	-0.347	-0.073
-516.887	-128.606	0.191	-0.027
-515.872	-96.462	-0.040	0.011
-514.858	-14.064	-0.111	0.072
-513.843	-200.000	-0.041	0.242
-512.829	-122.706	-0.238	-0.039
-511.814	800.000	0.050	-0.146
-510.799	-139.090	0.212	0.023
-509.785	269.624	0.103	0.182
-508.770	184.341	-0.066	-0.099
-507.756	-50.284	-0.197	-0.093
-506.741	-30.850	-0.068	-0.038
-505.726	222.450	0.327	-0.527
-504.712	-44.276	-0.487	-0.245
-503.697	13.259	-0.088	-0.069
-502.683	-200.000	-0.014	-0.523
-501.668	419.356	0.038	-0.081
-500.653	151.424	0.220	-0.301
-499.639	800.000	-0.102	-0.313
-498.624	-4.362	0.111	0.077
-497.610	165.471	0.097	0.138
-496.595	471.894	0.056	0.127
-495.581	76.634	-0.133	0.141
-494.566	212.767	0.158	-0.250
-493.551	29.015	-0.227	0.193
-492.537	-132.395	0.256	0.033
-491.522	123.654	0.084	0.105
-490.508	156.566	0.014	-0.020
-489.493	181.416	0.119	-0.176
-488.478	800.000	0.023	0.084
-487.464	-200.000	-0.030	-0.290
-486.449	92.065	0.121	-0.137
-485.435	59.573	-0.120	0.119
-484.420	-153.996	-0.261	-0.018
-483.405	328.986	-0.223	-0.430
-482.391	-53.205	-0.438	-0.201
-481.376	-139.322	-0.305	0.033
-480.362	56.555	-0.275	-0.268
-479.347	-200.000	0.008	-0.399
-478.332	169.961	-0.156	-0.223
-477.318	800.000	-0.203	0.634
-476.303	1.848	-0.199	0.144
-475.289	800.000	0.019	0.062
-474.274	-28.203	0.148	0.085
-473.259	93.977	0.109	0.123
-472.245	173.619	0.070	0.101
-471.230	-200.000	0.008	0.307
-470.216	13.361	0.133	-0.103
-469.201	-200.000	-0.017	-0.196
-468.186	800.000	0.016	0.054
-467.172	-57.854	0.174	-0.076
-466.157	800.000	0.031	-0.119
-465.143	-112.033	0.389	0.079
-464.128	61.183	0.248	0.246
-463.113	-200.000	0.056	-0.515
-462.099	-200.000	-0.005	0.043
-461.084	86.038	-0.199	-0.219
-460.070	-18.540	-0.254	0.158
-459.055	-19.977	-0.134	-0.083
-458.040	800.000	0.052	0.221
-457.026	-200.000	0.005	0.073
-456.011	-76.367	0.114	0.040
-454.997	-63.740	-0.034	0.014
-453.982	-109.186	0.430	0.091
-452.968	317.944	-0.149	0.281
-451.953	800.000	0.072	-0.289
-450.938	800.000	-0.010	0.042
-449.924	-67.457	-0.330	-0.130
-448.909	-190.968	0.382	-0.004
-447.895	-200.000	0.066	-0.338
-446.880	-135.947	-0.108	0.013
-445.865	108.202	-0.177	0.211
-444.851	-19.074	-0.189	0.118
-443.836	-200.000	0.017	0.159
-442.822	17.372	0.218	-0.173
-441.807	-87.743	-0.101	0.030
-440.792	-66.224	-0.059	-0.024
-439.778	231.055	0.094	0.154
-438.763	-200.000	0.018	0.119
-437.749	800.000	-0.053	0.179
-436.734	-137.530	0.099	-0.011
-435.719	-114.271	0.149	0.029
-434.705	87.960	0.193	0.214
-433.690	-2.310	0.098	-0.068
-432.676	-65.920	-0.033	-0.013
-431.661	-200.000	0.013	0.278
-430.646	-53.078	-0.201	-0.092
-429.632	800.000	-0.066	-0.216
-428.617	-90.029	0.329	-0.096
-427.603	-200.000	-0.031	0.227
-426.588	-46.399	-0.266	0.130
-425.573	-83.569	-0.332	-0.106
-424.559	142.166	0.336	-0.445
-423.544	-114.763	-0.154	0.029
-422.530	409.471	-0.002	-0.005
-421.515	800.000	0.089	-0.310
-420.500	-10.863	-0.291	0.192
-419.486	800.000	-0.070	0.303
-418.471	-200.000	0.010	-0.189
-417.457	-37.377	-0.115	-0.061
-416.442	-27.318	0.167	0.097
-415.428	-58.831	-0.146	0.063
-414.413	-127.319	0.186	0.027
-413.398	209.981	-0.222	-0.348
-412.384	800.000	-0.055	0.241
-411.369	54.810	0.194	-0.187
-410.355	45.348	-0.125	-0.115
-409.340	800.000	-0.038	-0.111
-408.325	800.000	0.154	0.424
-407.311	-52.056	0.100	0.046
-406.296	-103.915	0.201	0.047
-405.282	156.830	-0.211	0.291
-404.267	-62.984	0.270	-0.111
-403.252	92.426	0.215	0.242
-402.238	-79.044	0.118	0.040
-401.223	-100.511	-0.044	-0.011
-400.209	194.454	-0.114	0.173
-399.194	123.973	0.156	0.196
-398.179	-53.984	0.186	-0.085
-397.165	-41.777	-0.036	-0.018
-396.150	-71.041	0.156	-0.059
-395.136	587.593	-0.068	0.167
-394.121	102.449	-0.145	0.169
-393.106	-76.638	0.143	0.050
-392.092	800.000	-0.048	0.145
-391.077	62.335	-0.177	0.176
-390.063	-89.712	-0.196	0.057
-389.048	92.045	0.151	-0.169
-388.033	-110.161	0.197	0.041
-387.019	147.134	0.236	-0.316
-386.004	-200.000	0.021	0.277
-384.990	335.297	0.148	-0.285
-383.975	217.362	0.112	-0.178
-382.960	-33.446	0.062	0.034
-381.946	800.000	0.038	-0.134
-380.931	53.244	-0.187	-0.179
-379.917	-200.000	-0.004	-0.489
-378.902	800.000	0.081	-0.344
-377.888	-74.900	-0.183	0.066
-376.873	-128.719	-0.211	0.030
-375.858	33.556	-0.177	-0.153
-374.844	-200.000	-0.125	0.000
-373.829	-31.635	0.186	0.104
-372.815	-73.312	0.172	0.063
-371.800	438.123	0.118	0.257
-370.785	-28.694	0.056	0.032
-369.771	-200.000	0.006	0.137
-368.756	-200.000	0.065	0.369
-367.742	-94.457	-0.264	0.072
-366.727	203.380	-0.084	-0.129
-365.712	82.859	0.080	-0.086
-364.698	-115.443	-0.339	-0.064
-363.683	204.933	-0.103	0.159
-362.669	268.538	-0.158	-0.276
-361.654	-200.000	0.001	-0.013
-360.639	-68.325	0.135	-0.052
-359.625	67.800	-0.164	-0.167
-358.610	-24.484	-0.286	-0.170
-357.596	-142.184	-0.063	0.006
-356.581	123.393	-0.138	-0.172
-355.566	800.000	-0.048	0.159
-354.552	92.468	0.144	0.162
-353.537	181.533	-0.087	0.128
-352.523	55.869	-0.127	-0.123
-351.508	152.867	-0.153	0.209
-350.493	-104.280	0.352	-0.081
-349.479	-200.000	0.060	-0.324
-348.464	-200.000	0.019	0.085
-347.450	-14.014	0.273	0.176
-346.435	176.761	0.096	0.139
-345.420	-200.000	-0.010	-0.095
-344.406	50.696	0.207	-0.195
-343.391	-200.000	0.003	-0.058
-342.377	-184.806	0.170	0.003
-341.362	12.229	-0.042	0.032
-340.348	800.000	0.050	0.178
-339.333	104.115	0.083	-0.097
-338.318	800.000	0.144	0.433
-337.304	491.548	-0.070	-0.159
-336.289	-200.000	0.005	-0.130
-335.275	-17.799	-0.017	-0.011
-334.260	-25.402	-0.045	0.026
-333.245	71.475	0.243	0.251
-332.231	-145.795	0.253	0.022
-331.216	800.000	0.082	-0.273
-330.202	87.196	0.177	0.195
-329.187	210.525	0.093	0.145
-328.172	311.153	-0.217	-0.405
-327.158	73.525	-0.276	-0.288
-326.143	77.764	0.263	0.278
-325.129	-200.000	-0.030	0.293
-324.114	204.604	0.131	0.202
-323.099	-23.881	0.297	-0.177
-322.085	144.770	0.210	-0.280
-321.070	-40.229	-0.123	-0.064
-320.056	800.000	0.082	0.258
-319.041	800.000	0.097	0.283
-318.026	-83.493	0.287	0.091
-317.012	134.305	0.072	-0.092
-315.997	-200.000	-0.006	-0.221
-314.983	-114.069	-0.163	-0.031
-313.968	-171.771	0.287	0.009
-312.953	-30.290	-0.029	0.016
-311.939	-58.866	0.178	0.077
-310.924	114.117	-0.066	0.080
-309.910	508.505	0.107	0.247
-308.895	-125.812	0.453	0.068
-307.880	800.000	0.110	-0.388
-306.866	-139.432	0.337	-0.036
-305.851	-138.412	0.112	-0.012
-304.837	38.343	0.174	-0.154
-303.822	-54.032	0.180	-0.081
-302.807	153.133	0.192	-0.261
-301.793	-70.835	0.036	0.014
-300.778	32.279	0.135	-0.116
-299.764	-69.699	0.148	0.056
-298.749	800.000	0.073	0.253
-297.735	108.854	0.138	0.164
-296.720	-69.841	-0.115	0.044
-295.705	-76.879	0.185	0.064
-294.691	-23.305	0.308	0.184
-293.676	-165.784	-0.229	0.010
-292.662	-7.431	0.272	-0.183
-291.647	-200.000	0.015	0.164
-290.632	-200.000	0.070	-0.360
-289.618	86.558	0.032	-0.035
-288.603	-186.294	0.556	-0.008
-287.589	49.044	-0.125	-0.116
-286.574	-200.000	0.028	0.182
-285.559	181.587	0.079	0.116
-284.545	35.090	-0.164	0.143
-283.530	316.184	0.105	-0.197
-282.516	-130.600	-0.248	-0.033
-281.501	800.000	0.135	0.421
-280.486	-200.000	0.002	0.068
-279.472	-183.826	0.161	0.003
-278.457	248.675	-0.161	0.271
-277.443	42.518	0.088	0.080
-276.428	-49.709	0.035	-0.017
-275.413	15.068	-0.046	-0.036
-274.399	-200.000	-0.062	-0.337
-273.384	800.000	-0.080	0.341
-272.370	-200.000	0.034	-0.150
-271.355	230.421	-0.051	-0.083
-270.340	289.990	0.193	0.349
-269.326	-33.142	0.193	0.106
-268.311	-200.000	0.047	0.311
-267.297	779.076	0.123	0.333
-266.282	292.317	-0.041	-0.075
-265.267	-60.656	0.078	-0.033
-264.253	64.049	0.357	-0.357
-263.238	335.517	-0.200	-0.385
-262.224	142.595	0.141	0.185
-261.209	-200.000	-0.040	0.256
-260.195	8.280	-0.148	0.110
-259.180	-153.611	-0.184	-0.013
-258.165	-74.531	-0.180	-0.065
-257.151	-147.775	-0.108	0.009
-256.136	150.374	-0.114	0.153
-255.122	-71.837	0.041	-0.015
-254.107	-200.000	-0.001	-0.066
-253.092	-200.000	0.020	-0.245
-252.078	-4.451	-0.193	-0.133
-251.063	60.358	-0.141	-0.138
-250.049	-74.188	-0.214	0.077
-249.034	47.447	-0.106	0.098
-248.019	-95.240	-0.231	-0.062
-247.005	-200.000	-0.011	0.161
-245.990	800.000	0.053	0.163
-244.976	-167.057	-0.403	-0.016
-243.961	-117.655	0.136	-0.024
-242.946	-200.000	-0.067	0.331
-241.932	163.661	-0.049	-0.069
-240.917	-103.377	-0.342	-0.080
-239.903	57.982	-0.243	-0.236
-238.888	101.275	0.223	0.258
-237.873	131.334	0.126	0.160
-236.859	4.092	0.259	-0.188
-235.844	-200.000	-0.002	-0.047
-234.830	-16.824	0.102	0.064
-233.815	24.048	-0.232	-0.190
-232.800	61.729	-0.124	0.122
-231.786	-200.000	0.016	0.248
-230.771	-200.000	0.018	-0.299
-229.757	352.475	0.069	-0.135
-228.742	-100.651	-0.174	0.043
-227.727	187.189	0.112	0.166
-226.713	-79.163	0.224	0.075
-225.698	70.797	-0.163	0.167
-224.684	-200.000	0.002	-0.048
-223.669	291.467	-0.069	-0.124
-222.655	-69.985	0.322	-0.122
-221.640	167.694	-0.054	0.076
-220.625	133.620	0.109	-0.139
-219.611	-200.000	-0.021	-0.251
-218.596	-98.217	0.473	0.120
-217.582	160.789	0.109	-0.151
-216.567	-127.220	-0.156	0.023
-215.552	-200.000	0.039	0.226
-214.538	-200.000	0.056	0.433
-213.523	13.504	0.259	0.199
-212.509	-200.000	-0.022	0.161
-211.494	-200.000	-0.061	0.439
-210.479	-200.000	-0.005	-0.106
-209.465	-200.000	0.052	0.327
-208.450	137.909	0.185	0.240
-207.436	77.343	-0.077	0.081
-206.421	-168.907	-0.129	0.005
-205.406	-135.644	0.048	0.006
-204.392	-87.692	-0.342	-0.102
-203.377	-52.687	0.081	0.037
-202.363	-200.000	-0.021	0.107
-201.348	96.555	0.035	-0.040
-200.333	-200.000	0.009	0.044
-199.319	82.855	0.250	0.269
-198.304	3.387	-0.165	0.119
-197.290	-136.562	0.129	-0.015
-196.275	-200.000	-0.046	0.226
-195.260	-200.000	-0.006	0.186
-194.246	-148.703	-0.100	0.008
-193.231	6.985	0.223	-0.165
-192.217	99.312	-0.178	-0.204
-191.202	28.484	-0.089	-0.074
-190.187	-146.982	0.124	0.011
-189.173	-117.600	-0.088	-0.016
-188.158	-200.000	-0.062	-0.326
-187.144	-200.000	0.034	-0.150
-186.129	-147.076	-0.196	-0.017
-185.114	-200.000	-0.045	0.296
-184.100	306.714	-0.198	0.365
-183.085	643.912	0.038	0.096
-182.071	95.490	-0.195	-0.220
-181.056	-82.605	-0.156	0.050
-180.042	332.326	0.073	-0.139
-179.027	-200.000	-0.050	0.273
-178.012	54.650	0.351	0.334
-176.998	-144.341	-0.106	-0.010
-175.983	800.000	0.109	0.385
-174.969	-200.000	0.068	-0.445
-173.954	-82.079	0.179	0.058
-172.939	101.555	0.170	0.196
-171.925	141.289	0.135	-0.176
-170.910	-200.000	-0.056	0.000
-169.896	800.000	-0.022	-0.059
-168.881	800.000	0.062	-0.193
-167.866	586.957	0.037	0.090
-166.852	658.648	-0.073	0.185
-165.837	-192.103	-0.121	-0.001
-164.823	-200.000	0.079	0.453
-163.808	-39.687	0.245	-0.127
-162.793	-140.858	0.114	0.012
-161.779	-20.354	0.184	0.112
-160.764	-200.000	0.022	0.129
-159.750	-115.704	0.114	-0.021
-158.735	121.501	-0.165	-0.203
-157.720	36.270	-0.084	-0.073
-156.706	-200.000	0.005	0.066
-155.691	692.121	0.096	0.250
-154.677	800.000	0.018	-0.049
-153.662	-45.550	-0.186	-0.091
-152.647	-156.836	0.259	0.016
-151.633	-91.096	-0.214	-0.061
-150.618	-32.114	-0.224	0.124
-149.604	-123.948	0.133	0.021
-148.589	-9.458	-0.162	0.107
-147.574	-39.722	0.173	-0.089
-146.560	8.611	0.136	-0.101
-145.545	260.213	-0.075	0.129
-144.531	31.057	-0.212	-0.180
-143.516	-200.000	-0.051	0.260
-142.502	59.432	-0.137	-0.134
-141.487	-200.000	-0.029	-0.131
-140.472	-34.045	0.225	-0.122
-139.458	-131.077	-0.132	-0.017
-138.443	408.089	-0.163	-0.341
-137.429	-13.206	0.300	-0.193
-136.414	-26.011	-0.306	-0.178
-135.399	122.702	-0.030	-0.037
-134.385	-75.474	-0.203	0.071
-133.370	-118.270	0.262	-0.046
-132.356	-200.000	-0.012	-0.243
-131.341	509.129	-0.172	0.394
-130.326	271.017	-0.137	0.238
-129.312	800.000	-0.082	-0.236
-128.297	96.877	0.103	-0.117
-127.283	-47.948	-0.175	-0.084
-126.268	340.623	0.053	-0.103
-125.253	-34.353	0.232	-0.126
-124.239	-200.000	-0.014	0.283
-123.224	800.000	0.040	0.144
-122.210	-128.924	0.098	-0.014
-121.195	-11.441	0.166	-0.108
