DTS Sentinel unit serial number:	SN413079Multiplexer serial number:	ORYXHardware model number:	OX4-SRSoftware version number:	ORYX F/W v4.00 Oryx Data Collector v3.7.2.0data status	okinstallation	princeton_trtdifferential loss correction	single-endedforward channel	channel 2reverse channel	N/Adate	2019/09/11time	00:05:11forward acquisition time	60.00reverse acquisition time	0.00gamma	496.2192k internal	0.2331k external	0.2331temperature offset calibration	0.9943default loss term (dB/km)	0.3790temperature slope calibration	1.0000multiplexer offset coefficient	1.0000multiplexer slope coefficient	1.0000fibre end	0.00T internal ref (°C)	29.37T ext. ref 1 (°C)	-0.31T ext. ref 2 (°C)	22.90length (m)	temperature (°C)	Stokes	anti-Stokes-747.200	-10.433	0.072	0.048
-746.185	84.097	0.246	0.270
-745.171	-109.066	-0.124	0.027
-744.156	-123.268	0.164	0.026
-743.142	-76.901	-0.201	0.071
-742.127	-90.502	-0.326	0.095
-741.112	49.635	-0.177	0.168
-740.098	-19.597	-0.150	0.093
-739.083	53.216	-0.170	0.164
-738.069	-57.017	0.414	0.184
-737.054	62.851	0.252	-0.253
-736.039	92.898	-0.264	-0.300
-735.025	482.180	0.107	-0.245
-734.010	-106.674	-0.321	0.072
-732.996	-84.222	-0.151	0.048
-731.981	-73.764	0.154	-0.057
-730.966	-71.753	-0.376	-0.141
-729.952	90.002	-0.100	-0.113
-728.937	800.000	0.057	-0.160
-727.923	-114.838	0.128	-0.025
-726.908	-13.339	-0.271	0.177
-725.894	800.000	-0.009	-0.037
-724.879	800.000	0.090	-0.344
-723.864	122.833	0.269	-0.339
-722.850	-32.558	-0.242	0.136
-721.835	77.409	-0.197	0.211
-720.821	107.697	0.097	-0.117
-719.806	101.212	0.106	0.124
-718.791	198.497	0.098	-0.151
-717.777	458.741	-0.016	-0.036
-716.762	629.302	0.072	-0.183
-715.748	79.184	-0.093	-0.101
-714.733	800.000	0.074	-0.259
-713.718	282.495	-0.068	0.123
-712.704	-200.000	-0.002	-0.022
-711.689	-21.405	-0.373	0.229
-710.675	-131.206	-0.186	0.025
-709.660	143.459	0.267	0.358
-708.645	23.934	0.085	-0.070
-707.631	-57.983	-0.034	0.015
-706.616	-75.749	0.105	-0.037
-705.602	-13.329	0.144	-0.094
-704.587	800.000	-0.122	-0.407
-703.572	183.043	-0.104	-0.154
-702.558	-200.000	-0.048	0.243
-701.543	-80.166	0.195	0.066
-700.529	469.050	-0.135	0.304
-699.514	-85.223	0.103	-0.032
-698.499	-141.610	0.262	0.027
-697.485	-134.854	-0.097	0.012
-696.470	151.190	-0.116	-0.159
-695.456	-1.597	-0.082	0.058
-694.441	440.453	-0.145	0.318
-693.426	114.878	0.168	-0.206
-692.412	342.225	-0.095	-0.186
-691.397	-12.130	-0.159	0.105
-690.383	-99.152	0.188	-0.048
-689.368	800.000	0.010	0.038
-688.354	121.824	0.124	0.155
-687.339	-200.000	0.023	-0.332
-686.324	118.079	-0.180	0.223
-685.310	-117.233	-0.308	0.056
-684.295	111.611	0.075	-0.091
-683.281	-7.804	0.217	-0.147
-682.266	-35.757	-0.305	0.166
-681.251	-9.183	0.145	-0.097
-680.237	-64.468	-0.173	-0.070
-679.222	-118.125	-0.516	0.092
-678.208	-21.165	-0.102	-0.062
-677.193	-104.770	-0.220	0.051
-676.178	-130.133	0.182	0.025
-675.164	-34.527	0.148	0.081
-674.149	-200.000	0.003	-0.285
-673.135	-172.048	0.295	0.010
-672.120	-200.000	-0.038	-0.282
-671.105	-200.000	0.038	0.207
-670.091	-39.434	0.304	-0.160
-669.076	39.517	-0.173	-0.156
-668.062	155.320	-0.173	0.239
-667.047	-37.547	-0.131	-0.070
-666.032	-200.000	0.011	-0.109
-665.018	660.913	0.099	-0.255
-664.003	-14.267	-0.074	0.048
-662.989	517.403	0.130	-0.305
-661.974	800.000	0.064	-0.275
-660.959	-116.403	0.278	-0.051
-659.945	800.000	0.045	-0.126
-658.930	123.210	0.117	-0.147
-657.916	800.000	-0.050	0.157
-656.901	760.658	0.200	0.543
-655.886	-200.000	-0.021	0.176
-654.872	-120.147	-0.330	-0.057
-653.857	-22.606	-0.136	0.083
-652.843	106.464	-0.060	-0.072
-651.828	-76.140	-0.182	0.064
-650.814	-83.188	-0.426	-0.137
-649.799	-146.746	0.277	0.024
-648.784	-200.000	-0.027	-0.330
-647.770	385.509	0.068	0.142
-646.755	-200.000	0.004	-0.127
-645.741	36.826	0.107	-0.094
-644.726	52.147	0.192	-0.183
-643.711	-67.715	0.303	-0.119
-642.697	-23.051	-0.244	0.147
-641.682	150.471	-0.309	0.420
-640.668	-99.481	-0.305	-0.077
-639.653	-119.217	-0.190	-0.033
-638.638	-162.689	-0.298	-0.015
-637.624	154.394	-0.211	0.291
-636.609	800.000	-0.168	0.464
-635.595	-134.809	-0.147	0.018
-634.580	400.450	-0.170	0.357
-633.565	48.135	-0.164	-0.154
-632.551	29.863	-0.303	-0.259
-631.536	317.114	0.269	0.509
-630.522	-102.024	0.177	-0.043
-629.507	-130.278	0.134	-0.018
-628.492	67.074	0.265	0.271
-627.478	328.005	-0.145	0.278
-626.463	193.350	-0.059	0.089
-625.449	-128.456	0.343	-0.049
-624.434	59.699	-0.058	0.057
-623.419	246.510	-0.151	0.254
-622.405	-130.723	-0.014	-0.002
-621.390	80.718	-0.100	0.108
-620.376	-56.602	-0.247	0.110
-619.361	-70.270	-0.162	-0.062
-618.346	800.000	0.068	0.212
-617.332	-17.801	-0.337	0.212
-616.317	-200.000	-0.011	-0.246
-615.303	-200.000	-0.032	-0.438
-614.288	-200.000	-0.035	-0.187
-613.273	-95.883	-0.120	-0.032
-612.259	127.679	-0.069	-0.088
-611.244	-51.598	-0.304	0.142
-610.230	-26.499	-0.343	0.201
-609.215	-151.074	-0.291	0.022
-608.201	800.000	0.045	-0.158
-607.186	-9.851	-0.159	-0.106
-606.171	-200.000	0.003	-0.159
-605.157	-20.984	-0.360	0.221
-604.142	288.524	-0.124	0.225
-603.128	-80.961	0.083	-0.027
-602.113	429.185	-0.161	-0.349
-601.098	278.249	-0.061	-0.109
-600.084	800.000	0.047	0.150
-599.069	800.000	-0.049	0.150
-598.055	-72.220	0.043	0.016
-597.040	99.412	-0.159	0.184
-596.025	-128.625	0.224	-0.032
-595.011	646.925	0.107	-0.274
-593.996	33.767	-0.156	0.136
-592.982	247.447	-0.130	0.220
-591.967	144.258	-0.070	-0.094
-590.952	40.927	-0.220	-0.198
-589.938	-89.775	0.343	0.100
-588.923	281.304	0.032	0.058
-587.909	-51.697	-0.303	-0.141
-586.894	800.000	0.134	0.378
-585.879	133.897	-0.182	-0.235
-584.865	-200.000	-0.016	0.085
-583.850	-56.209	-0.042	0.019
-582.836	86.117	-0.142	-0.156
-581.821	-14.046	0.357	0.231
-580.806	-65.806	-0.163	0.065
-579.792	-200.000	0.002	0.008
-578.777	-76.695	0.297	0.104
-577.763	-153.540	0.167	-0.012
-576.748	-70.304	0.210	-0.080
-575.733	-200.000	0.049	-0.288
-574.719	136.049	-0.100	0.131
-573.704	28.607	-0.100	0.084
-572.690	144.268	-0.123	0.165
-571.675	189.386	0.160	0.240
-570.661	-48.589	-0.102	0.049
-569.646	91.356	0.135	-0.152
-568.631	-139.907	-0.331	0.035
-567.617	-121.745	0.274	0.045
-566.602	551.905	-0.031	0.074
-565.588	-200.000	0.049	-0.241
-564.573	-117.003	-0.284	-0.052
-563.558	-65.321	0.146	-0.059
-562.544	-140.689	0.054	-0.006
-561.529	-62.270	-0.224	0.093
-560.515	377.598	-0.038	0.077
-559.500	-59.835	-0.287	0.123
-558.485	417.287	-0.075	0.161
-557.471	-200.000	0.004	-0.139
-556.456	138.849	0.035	0.046
-555.442	-132.888	0.243	0.031
-554.427	149.348	0.234	-0.316
-553.412	-101.611	0.081	0.020
-552.398	92.971	-0.085	0.096
-551.383	322.648	-0.131	0.249
-550.369	-10.866	0.164	0.108
-549.354	62.154	0.178	-0.177
-548.339	-131.970	-0.109	-0.014
-547.325	76.793	0.153	0.162
-546.310	8.284	0.095	0.071
-545.296	-121.576	-0.468	-0.077
-544.281	-200.000	0.011	0.110
-543.266	-53.294	-0.325	-0.149
-542.252	-134.458	-0.176	0.021
-541.237	61.440	-0.175	-0.174
-540.223	-12.041	0.017	0.011
-539.208	-88.579	0.163	-0.048
-538.193	-138.500	0.355	-0.039
-537.179	-200.000	0.061	-0.501
-536.164	-122.662	0.189	-0.031
-535.150	-191.704	0.308	0.003
-534.135	-200.000	0.048	-0.214
-533.121	-200.000	0.007	-0.149
-532.106	17.696	0.135	-0.107
-531.091	-40.822	-0.183	0.094
-530.077	-17.087	0.232	-0.146
-529.062	-111.248	0.166	0.034
-528.048	-58.949	0.146	0.063
-527.033	-200.000	-0.001	0.024
-526.018	-200.000	0.034	0.204
-525.004	256.513	-0.124	-0.212
-523.989	-14.682	0.167	0.107
-522.975	-200.000	0.022	0.233
-521.960	-65.076	0.233	0.094
-520.945	800.000	-0.096	0.341
-519.931	-1.829	-0.242	-0.170
-518.916	-54.793	-0.109	-0.049
-517.902	-6.107	0.131	0.089
-516.887	800.000	-0.032	-0.089
-515.872	100.286	-0.239	-0.277
-514.858	-200.000	-0.004	0.039
-513.843	86.718	-0.250	0.276
-512.829	-23.808	-0.015	-0.009
-511.814	-200.000	0.007	-0.169
-510.799	-24.528	-0.174	-0.103
-509.785	6.092	-0.103	0.076
-508.770	78.799	-0.154	0.165
-507.756	61.269	-0.072	-0.072
-506.741	-131.049	-0.147	-0.020
-505.726	199.032	-0.164	0.250
-504.712	-2.639	0.079	0.055
-503.697	-200.000	0.039	-0.259
-502.683	-200.000	0.002	-0.163
-501.668	-200.000	0.041	0.390
-500.653	273.842	-0.057	-0.100
-499.639	-200.000	-0.031	-0.286
-498.624	86.857	0.377	-0.415
-497.610	800.000	-0.059	0.207
-496.595	250.520	-0.104	-0.177
-495.581	278.052	0.212	-0.377
-494.566	10.781	-0.228	-0.173
-493.551	800.000	0.036	0.143
-492.537	65.361	-0.266	0.268
-491.522	-32.000	0.070	-0.039
-490.508	-92.972	-0.298	0.083
-489.493	140.748	-0.098	-0.129
-488.478	117.734	0.139	0.170
-487.464	-101.175	-0.102	-0.025
-486.449	715.011	-0.037	-0.098
-485.435	-8.849	0.159	0.106
-484.420	150.314	0.121	0.164
-483.405	800.000	0.120	-0.375
-482.391	-44.005	0.378	0.189
-481.376	-200.000	0.076	-0.353
-480.362	-200.000	-0.059	-0.287
-479.347	20.800	-0.251	-0.203
-478.332	-200.000	-0.045	-0.256
-477.318	-72.774	-0.268	0.098
-476.303	-200.000	-0.031	-0.153
-475.289	-200.000	-0.067	-0.323
-474.274	4.397	-0.030	0.022
-473.259	-162.519	-0.176	-0.009
-472.245	800.000	0.052	-0.180
-471.230	-200.000	-0.081	0.360
-470.216	-62.794	-0.090	0.037
-469.201	408.320	-0.088	0.185
-468.186	800.000	-0.127	0.383
-467.172	76.598	-0.191	-0.201
-466.157	-200.000	-0.045	-0.369
-465.143	-3.860	-0.116	0.080
-464.128	-45.277	0.013	0.007
-463.113	56.822	0.280	0.271
-462.099	31.145	0.063	0.053
-461.084	-57.121	0.038	-0.017
-460.070	-153.278	-0.110	0.008
-459.055	4.795	-0.276	0.202
-458.040	-145.184	-0.314	-0.028
-457.026	-31.042	0.194	0.109
-456.011	-200.000	-0.009	0.098
-454.997	800.000	0.060	0.235
-453.982	-125.165	0.076	-0.012
-452.968	645.023	0.044	-0.112
-451.953	141.981	0.205	-0.270
-450.938	-200.000	-0.009	-0.073
-449.924	800.000	0.133	-0.368
-448.909	605.232	0.062	-0.153
-447.895	-11.539	0.222	0.145
-446.880	-200.000	-0.010	-0.233
-445.865	-1.428	0.092	-0.065
-444.851	800.000	0.149	-0.472
-443.836	-85.652	0.064	0.020
-442.822	-200.000	-0.078	0.340
-441.807	-105.973	0.287	0.064
-440.792	108.458	-0.191	-0.227
-439.778	25.996	-0.220	-0.182
-438.763	-92.881	0.357	-0.099
-437.749	65.565	0.141	0.142
-436.734	323.178	-0.006	0.012
-435.719	800.000	0.047	0.176
-434.705	-11.798	-0.431	-0.281
-433.690	-170.251	0.278	-0.010
-432.676	800.000	0.047	-0.202
-431.661	-200.000	0.016	0.112
-430.646	-166.590	0.289	-0.012
-429.632	85.602	0.157	0.171
-428.617	-200.000	0.030	-0.133
-427.603	-195.654	0.772	0.006
-426.588	-200.000	-0.060	-0.266
-425.573	-200.000	0.004	-0.106
-424.559	800.000	-0.050	-0.171
-423.544	1.545	0.241	0.173
-422.530	800.000	0.042	0.127
-421.515	38.399	-0.212	-0.188
-420.500	-146.355	0.322	-0.028
-419.486	-188.312	-0.148	0.002
-418.471	-0.105	-0.181	-0.128
-417.457	-22.931	0.288	0.173
-416.442	512.148	-0.108	0.250
-415.428	800.000	0.120	-0.379
-414.413	-137.964	-0.221	0.024
-413.398	220.596	0.096	0.153
-412.384	800.000	0.085	0.259
-411.369	206.541	0.171	0.264
-410.355	8.727	0.098	0.073
-409.340	106.348	0.038	-0.045
-408.325	-88.524	-0.109	-0.032
-407.311	-109.762	0.184	0.038
-406.296	-200.000	0.036	0.156
-405.282	-200.000	0.019	-0.120
-404.267	393.839	0.099	0.206
-403.252	800.000	-0.075	0.251
-402.238	-21.939	-0.078	-0.047
-401.223	87.498	-0.116	0.128
-400.209	-200.000	0.041	-0.451
-399.194	800.000	-0.075	0.230
-398.179	243.007	-0.020	-0.033
-397.165	118.299	0.053	0.064
-396.150	-200.000	-0.045	0.203
-395.136	-105.055	-0.276	0.063
-394.121	-200.000	-0.023	-0.288
-393.106	-58.480	0.148	0.064
-392.092	-55.221	-0.160	-0.072
-391.077	155.636	-0.097	0.133
-390.063	420.474	-0.115	0.244
-389.048	3.149	-0.283	-0.204
-388.033	-141.510	0.212	-0.021
-387.019	-200.000	0.000	0.137
-386.004	-56.840	-0.024	0.010
-384.990	-200.000	-0.015	-0.196
-383.975	60.561	0.049	-0.048
-382.960	513.158	-0.082	-0.189
-381.946	408.330	0.081	-0.171
-380.931	800.000	-0.048	-0.193
-379.917	800.000	0.033	0.093
-378.902	-89.873	0.278	-0.081
-377.888	-21.764	-0.073	-0.044
-376.873	-19.512	-0.141	-0.087
-375.858	-138.401	-0.329	-0.036
-374.844	112.262	-0.186	0.223
-373.829	-68.956	-0.011	-0.004
-372.815	11.888	0.125	0.095
-371.800	-146.273	0.091	-0.008
-370.785	-80.524	0.172	0.057
-369.771	-87.001	0.050	0.015
-368.756	-200.000	0.014	0.061
-367.742	-14.087	0.159	-0.102
-366.727	-200.000	-0.072	-0.323
-365.712	360.171	-0.179	-0.354
-364.698	-167.437	0.050	0.002
-363.683	7.491	0.193	0.143
-362.669	-134.725	0.182	-0.022
-361.654	556.942	0.190	-0.453
-360.639	800.000	-0.047	-0.145
-359.625	-158.786	0.114	-0.006
-358.610	-126.462	0.204	0.030
-357.596	27.781	0.236	-0.197
-356.581	411.679	-0.031	-0.064
-355.566	-200.000	0.004	-0.168
-354.552	-200.000	0.019	-0.227
-353.537	-84.880	-0.373	0.116
-352.523	800.000	0.008	0.034
-351.508	-35.511	0.068	0.037
-350.493	-52.044	0.112	-0.052
-349.479	-200.000	-0.026	0.152
-348.464	-27.525	0.080	-0.046
-347.450	119.276	-0.087	0.107
-346.435	771.776	0.061	0.165
-345.420	-200.000	0.013	-0.194
-344.406	-114.762	0.136	-0.026
-343.391	-200.000	-0.048	0.244
-342.377	357.049	0.111	-0.218
-341.362	-85.040	0.246	-0.076
-340.348	-137.577	0.361	0.040
-339.333	-96.556	-0.330	-0.086
-338.318	-62.368	0.411	-0.169
-337.304	69.715	-0.175	-0.179
-336.289	66.675	0.126	0.127
-335.275	-200.000	-0.002	0.091
-334.260	-93.873	-0.104	0.028
-333.245	170.549	0.099	-0.141
-332.231	708.838	-0.026	-0.068
-331.216	93.333	-0.154	0.172
-330.202	-92.695	-0.241	-0.067
-329.187	-20.854	0.140	-0.085
-328.172	381.340	-0.143	0.291
-327.158	217.802	-0.133	-0.210
-326.143	194.772	-0.296	0.445
-325.129	800.000	0.026	-0.084
-324.114	97.408	-0.079	-0.089
-323.099	-82.477	-0.121	0.039
-322.085	-200.000	-0.048	0.342
-321.070	-1.984	0.075	-0.052
-320.056	110.590	-0.135	0.160
-319.041	-78.622	0.026	0.009
-318.026	146.504	-0.117	-0.155
-317.012	-155.441	0.245	0.016
-315.997	-200.000	-0.016	-0.077
-314.983	142.733	-0.095	-0.126
-313.968	-102.895	-0.115	-0.027
-312.953	-126.437	0.114	-0.017
-311.939	-16.078	0.288	-0.181
-310.924	226.671	0.085	-0.136
-309.910	22.349	-0.084	0.068
-308.895	800.000	-0.025	-0.095
-307.880	189.381	0.120	0.179
-306.866	800.000	-0.095	0.330
-305.851	-102.696	0.294	-0.069
-304.837	105.656	-0.136	0.159
-303.822	358.154	0.074	-0.146
-302.807	105.297	-0.184	-0.215
-301.793	-160.285	0.257	0.014
-300.778	800.000	-0.046	-0.181
-299.764	30.268	-0.184	0.155
-298.749	-80.153	-0.295	0.098
-297.735	61.648	0.118	0.117
-296.720	-162.649	0.298	-0.014
-295.705	266.193	-0.088	0.152
-294.691	-117.795	-0.375	0.067
-293.676	-96.598	0.167	-0.044
-292.662	-68.147	0.413	-0.159
-291.647	-182.466	0.086	-0.002
-290.632	-200.000	-0.082	-0.384
-289.618	198.151	-0.155	-0.234
-288.603	-63.455	0.105	0.043
-287.589	-156.632	-0.299	0.018
-286.574	161.271	-0.230	0.318
-285.559	-34.078	-0.357	-0.194
-284.545	-200.000	0.008	-0.216
-283.530	262.090	-0.053	-0.091
-282.516	165.397	-0.175	0.244
-281.501	-151.320	0.237	-0.017
-280.486	172.588	0.104	0.147
-279.472	165.616	-0.149	0.208
-278.457	-200.000	-0.199	0.001
-277.443	-4.658	-0.127	-0.087
-276.428	-200.000	-0.247	-0.000
-275.413	-125.699	-0.100	-0.015
-274.399	183.757	-0.124	0.181
-273.384	528.249	-0.066	-0.153
-272.370	-13.767	-0.146	-0.093
-271.355	43.849	0.214	0.194
-270.340	-154.508	0.251	0.017
-269.326	43.101	-0.315	0.284
-268.311	-14.908	0.152	0.096
-267.297	-91.665	-0.093	-0.026
-266.282	-183.279	0.151	0.003
-265.267	168.100	-0.240	0.337
-264.253	-129.371	0.169	-0.023
-263.238	-162.434	-0.266	-0.013
-262.224	499.711	0.089	0.202
-261.209	-93.255	0.263	-0.072
-260.195	117.526	0.075	-0.091
-259.180	273.599	0.160	0.280
-258.165	-77.474	0.364	-0.125
-257.151	-200.000	0.005	-0.229
-256.136	800.000	0.091	-0.260
-255.122	-127.790	0.297	-0.042
-254.107	-118.760	0.311	0.054
-253.092	-130.921	-0.047	0.006
-252.078	-141.214	-0.082	-0.008
-251.063	41.482	-0.259	-0.231
-250.049	-115.134	0.028	0.005
-249.034	86.106	0.193	0.209
-248.019	88.825	-0.153	0.167
-247.005	-36.933	0.259	0.137
-245.990	-200.000	0.021	0.194
-244.976	83.341	-0.055	-0.059
-243.961	105.266	0.156	0.182
-242.946	-29.553	0.250	0.141
-241.932	-90.504	-0.194	-0.055
-240.917	136.466	-0.076	0.098
-239.903	-86.716	0.324	-0.098
-238.888	727.793	0.142	0.374
-237.873	800.000	-0.120	0.367
-236.859	31.900	-0.179	0.152
-235.844	-165.753	0.145	-0.006
-234.830	800.000	-0.043	-0.151
-233.815	-69.400	0.312	0.118
-232.800	219.031	-0.076	0.120
-231.786	-200.000	0.008	0.051
-230.771	380.313	-0.096	0.193
-229.757	-200.000	-0.005	0.081
-228.742	95.718	-0.161	0.182
-227.727	166.509	-0.077	0.107
-226.713	-70.044	0.255	-0.096
-225.698	-99.334	0.377	0.094
-224.684	-14.131	0.179	0.114
-223.669	-11.621	-0.041	-0.027
-222.655	10.870	-0.139	-0.105
-221.640	-200.000	0.020	-0.233
-220.625	-86.260	-0.255	0.077
-219.611	17.216	0.275	-0.215
-218.596	-96.807	-0.324	0.084
-217.582	-147.626	0.350	-0.029
-216.567	-117.442	-0.230	-0.041
-215.552	800.000	0.049	0.176
-214.538	-22.991	0.084	-0.050
-213.523	-94.054	-0.125	-0.034
-212.509	-45.779	0.355	0.173
-211.494	800.000	-0.081	-0.323
-210.479	800.000	-0.020	-0.078
-209.465	-4.560	0.161	0.109
-208.450	-200.000	-0.027	-0.134
-207.436	800.000	0.121	-0.440
-206.421	800.000	-0.088	-0.258
-205.406	-200.000	0.079	-0.000
-204.392	502.939	-0.051	-0.115
-203.377	-161.226	0.517	-0.027
-202.363	-128.352	0.408	-0.057
-201.348	37.661	-0.039	0.035
-200.333	390.729	0.082	0.168
-199.319	-122.899	0.222	0.035
-198.304	104.111	0.151	0.175
-197.290	69.902	-0.201	0.204
-196.275	198.985	0.026	-0.039
-195.260	92.384	-0.243	-0.269
-194.246	800.000	-0.084	-0.290
-193.231	800.000	0.116	-0.347
-192.217	800.000	-0.017	0.050
-191.202	26.930	-0.104	-0.086
-190.187	-126.585	-0.123	-0.018
-189.173	-12.341	-0.164	0.106
-188.158	106.090	0.076	0.089
-187.144	-191.802	0.283	-0.003
-186.129	-90.442	0.226	0.064
-185.114	266.831	0.100	-0.172
-184.100	50.610	-0.429	-0.400
-183.085	42.151	-0.127	0.113
-182.071	230.018	0.145	-0.233
-181.056	-101.606	0.203	0.049
-180.042	10.078	0.210	0.157
-179.027	-200.000	0.018	0.468
-178.012	-22.967	-0.126	0.074
-176.998	-200.000	0.030	0.257
-175.983	355.847	0.137	-0.269
-174.969	800.000	-0.138	0.530
-173.954	319.881	-0.093	0.173
-172.939	-56.375	0.094	0.041
-171.925	-1.072	-0.264	0.184
-170.910	-105.099	-0.058	-0.013
-169.896	522.196	0.057	0.132
-168.881	-79.079	-0.139	0.046
-167.866	-142.432	-0.165	0.016
-166.852	756.558	0.101	-0.269
-165.837	-177.366	-0.316	-0.008
-164.823	-160.835	0.205	0.011
-163.808	-98.349	0.242	-0.061
-162.793	-199.214	-0.045	0.000
-161.779	486.887	0.070	0.158
-160.764	125.270	-0.066	-0.082
-159.750	800.000	0.057	0.166
-158.735	145.778	-0.122	0.161
-157.720	800.000	0.028	0.113
-156.706	-200.000	0.024	-0.148
-155.691	800.000	-0.063	-0.236
-154.677	-129.967	0.083	-0.011
-153.662	-62.533	-0.191	0.078
-152.647	40.505	-0.037	0.033
-151.633	231.276	0.123	-0.198
-150.618	395.446	0.190	-0.389
-149.604	139.259	0.063	-0.081
-148.589	586.080	-0.058	-0.140
-147.574	-132.010	-0.060	0.008
-146.560	147.041	-0.161	-0.212
-145.545	-62.370	0.287	-0.117
-144.531	800.000	0.089	-0.251
-143.516	143.346	-0.015	0.020
-142.502	27.798	0.151	-0.125
-141.487	212.377	0.144	0.224
-140.472	20.092	-0.247	0.196
-139.458	15.838	-0.227	-0.176
-138.443	165.859	0.063	0.087
-137.429	-144.270	0.380	-0.035
-136.414	-114.170	0.359	-0.068
-135.399	-119.825	-0.354	0.060
-134.385	-51.409	0.242	-0.111
-133.370	-200.000	-0.022	0.294
-132.356	-153.799	0.065	0.004
-131.341	45.902	0.058	0.053
-130.326	-112.869	0.339	0.066
-129.312	338.693	0.168	0.322
-128.297	800.000	0.072	-0.216
-127.283	157.554	-0.143	0.195
-126.268	-200.000	-0.035	0.192
-125.253	295.787	-0.059	-0.106
-124.239	-100.562	0.199	0.048
-123.224	800.000	0.102	0.405
-122.210	265.416	0.027	-0.046
