DTS Sentinel unit serial number:	SN413079Multiplexer serial number:	ORYXHardware model number:	OX4-SRSoftware version number:	ORYX F/W v4.00 Oryx Data Collector v3.7.2.0data status	okinstallation	princeton_trtdifferential loss correction	single-endedforward channel	channel 2reverse channel	N/Adate	2019/09/11time	19:33:11forward acquisition time	60.00reverse acquisition time	0.00gamma	496.2192k internal	0.2305k external	0.2305temperature offset calibration	1.0047default loss term (dB/km)	0.3790temperature slope calibration	1.0000multiplexer offset coefficient	1.0000multiplexer slope coefficient	1.0000fibre end	0.00T internal ref (°C)	40.25T ext. ref 1 (°C)	1.35T ext. ref 2 (°C)	32.28length (m)	temperature (°C)	Stokes	anti-Stokes-747.200	53.768	0.047	-0.046
-746.185	-83.962	0.209	-0.068
-745.171	-68.206	-0.136	0.054
-744.156	800.000	0.117	0.355
-743.142	-65.126	-0.110	0.045
-742.127	-87.974	0.258	-0.079
-741.112	800.000	0.113	0.323
-740.098	-92.681	-0.137	0.039
-739.083	-200.000	0.005	-0.064
-738.069	-27.784	0.352	0.208
-737.054	3.130	0.155	-0.115
-736.039	-181.519	-0.278	-0.006
-735.025	456.411	0.085	-0.191
-734.010	-80.979	0.140	-0.047
-732.996	42.856	-0.228	0.211
-731.981	17.542	-0.068	-0.055
-730.966	800.000	0.141	-0.459
-729.952	800.000	0.056	-0.162
-728.937	-159.652	0.154	-0.009
-727.923	-200.000	-0.006	-0.474
-726.908	61.655	0.165	-0.167
-725.894	37.127	-0.148	0.133
-724.879	800.000	0.175	-0.508
-723.864	96.643	-0.040	0.047
-722.850	-72.470	-0.612	0.230
-721.835	162.221	-0.089	-0.127
-720.821	-175.654	0.193	0.005
-719.806	69.700	-0.204	-0.214
-718.791	800.000	0.024	0.075
-717.777	-77.167	-0.341	-0.121
-716.762	33.960	-0.303	-0.268
-715.748	9.727	0.164	0.127
-714.733	-200.000	-0.273	-0.001
-713.718	-200.000	0.002	0.072
-712.704	-200.000	0.048	-0.248
-711.689	-58.088	-0.045	0.020
-710.675	-149.426	-0.126	-0.010
-709.660	-200.000	-0.028	0.178
-708.645	-200.000	0.107	-0.531
-707.631	-159.214	-0.365	0.021
-706.616	-103.265	0.404	-0.097
-705.602	-37.878	-0.270	-0.146
-704.587	800.000	-0.055	-0.184
-703.572	-200.000	-0.088	0.401
-702.558	-142.698	0.177	-0.018
-701.543	-19.286	0.256	0.161
-700.529	-0.915	-0.115	0.083
-699.514	-200.000	-0.084	-0.485
-698.499	-106.098	-0.381	-0.087
-697.485	203.279	-0.077	0.121
-696.470	-200.000	-0.004	-0.243
-695.456	134.273	0.202	-0.266
-694.441	271.623	0.231	0.413
-693.426	39.945	-0.171	-0.156
-692.412	800.000	0.069	0.197
-691.397	-200.000	0.024	-0.142
-690.383	5.468	0.138	0.103
-689.368	800.000	-0.062	-0.235
-688.354	4.340	0.223	-0.166
-687.339	15.140	-0.220	0.175
-686.324	-83.701	-0.165	0.054
-685.310	-57.142	0.165	0.074
-684.295	-71.696	0.291	0.110
-683.281	272.579	0.076	-0.136
-682.266	16.807	-0.110	-0.088
-681.251	-200.000	-0.057	0.261
-680.237	-200.000	0.025	-0.133
-679.222	-63.587	-0.114	-0.047
-678.208	12.467	-0.130	0.102
-677.193	191.915	0.035	0.053
-676.178	120.126	0.190	-0.240
-675.164	-28.291	-0.187	-0.109
-674.149	-200.000	0.004	0.051
-673.135	-152.658	0.203	0.015
-672.120	-126.291	0.252	-0.038
-671.105	-200.000	-0.014	0.200
-670.091	-6.966	0.289	0.199
-669.076	97.333	0.125	0.145
-668.062	-73.727	-0.380	0.140
-667.047	-119.723	-0.186	0.033
-666.032	24.225	-0.042	-0.035
-665.018	-200.000	-0.010	-0.148
-664.003	227.783	-0.164	-0.271
-662.989	629.205	-0.226	-0.581
-661.974	65.464	0.165	-0.169
-660.959	446.795	-0.042	-0.094
-659.945	-200.000	0.092	-0.534
-658.930	-200.000	0.006	-0.305
-657.916	-43.351	-0.090	0.046
-656.901	-59.142	-0.076	-0.033
-655.886	56.846	0.109	0.108
-654.872	-15.670	-0.157	0.102
-653.857	800.000	-0.102	0.423
-652.843	-154.401	-0.222	0.015
-651.828	547.134	-0.024	-0.059
-650.814	38.595	-0.195	0.176
-649.799	-200.000	0.009	-0.115
-648.784	-66.870	-0.031	0.012
-647.770	157.663	0.091	-0.128
-646.755	-59.772	0.185	-0.081
-645.741	800.000	0.062	0.217
-644.726	-200.000	0.035	0.236
-643.711	-141.648	-0.265	-0.027
-642.697	800.000	0.043	0.122
-641.682	50.356	0.148	0.142
-640.668	42.933	-0.224	0.207
-639.653	-200.000	0.017	-0.226
-638.638	-115.279	-0.397	0.076
-637.624	-12.386	0.079	0.053
-636.609	-54.344	0.401	0.184
-635.595	4.319	0.014	0.010
-634.580	-200.000	-0.006	0.120
-633.565	267.612	-0.063	0.112
-632.551	34.380	-0.139	-0.123
-631.536	160.522	0.281	-0.398
-630.522	800.000	-0.084	-0.243
-629.507	-157.597	-0.300	0.018
-628.492	69.557	0.320	0.333
-627.478	-15.409	-0.191	0.124
-626.463	-29.831	-0.144	-0.083
-625.449	568.735	0.098	0.242
-624.434	202.430	-0.185	0.289
-623.419	-74.154	0.078	-0.029
-622.405	-122.685	0.256	-0.042
-621.390	108.899	-0.159	-0.192
-620.376	106.286	-0.284	-0.341
-619.361	1.783	-0.226	-0.165
-618.346	108.774	-0.091	0.111
-617.332	800.000	-0.047	0.181
-616.317	-57.194	-0.007	-0.003
-615.303	-117.516	-0.253	0.046
-614.288	52.636	0.233	0.225
-613.273	800.000	0.115	-0.333
-612.259	185.599	-0.254	-0.382
-611.244	-68.746	-0.293	-0.115
-610.230	-111.287	0.266	0.055
-609.215	-173.946	-0.275	-0.008
-608.201	-159.596	-0.420	-0.024
-607.186	46.907	-0.222	0.209
-606.171	128.257	0.041	0.052
-605.157	-200.000	-0.015	-0.189
-604.142	-200.000	-0.009	-0.257
-603.128	-200.000	0.050	-0.241
-602.113	0.253	-0.051	-0.037
-601.098	-141.553	0.095	-0.010
-600.084	547.563	-0.081	0.196
-599.069	368.585	0.079	0.161
-598.055	-164.610	-0.281	0.013
-597.040	-200.000	0.012	-0.106
-596.025	465.985	0.095	0.215
-595.011	-15.977	0.032	0.021
-593.996	-200.000	0.014	0.220
-592.982	-28.336	-0.209	-0.122
-591.967	117.968	-0.163	0.203
-590.952	0.627	0.238	0.172
-589.938	-200.000	0.003	-0.106
-588.923	-200.000	0.017	0.204
-587.909	-200.000	0.066	0.323
-586.894	762.197	0.206	0.566
-585.879	-47.007	0.137	0.067
-584.865	-200.000	-0.009	0.058
-583.850	-171.446	0.181	-0.006
-582.836	75.409	0.235	-0.251
-581.821	-170.863	0.149	0.005
-580.806	23.725	-0.059	-0.049
-579.792	333.309	0.151	-0.295
-578.777	-136.803	-0.151	-0.018
-577.763	-119.716	-0.271	-0.047
-576.748	-147.105	-0.451	0.039
-575.733	-148.686	0.157	-0.013
-574.719	-56.610	-0.289	-0.130
-573.704	-107.024	0.141	-0.032
-572.690	52.874	0.089	0.086
-571.675	-3.184	0.114	0.080
-570.661	-3.479	-0.087	-0.061
-569.646	800.000	0.084	0.240
-568.631	187.251	0.120	-0.181
-567.617	-200.000	0.016	0.481
-566.602	131.658	-0.156	0.203
-565.588	-184.069	-0.080	-0.001
-564.573	-121.371	0.162	0.027
-563.558	-144.771	0.246	-0.023
-562.544	331.929	0.118	-0.230
-561.529	310.103	-0.143	0.270
-560.515	32.041	-0.068	-0.059
-559.500	368.927	0.021	0.042
-558.485	21.368	0.148	-0.121
-557.471	-33.647	-0.178	0.099
-556.456	-72.368	-0.322	-0.120
-555.442	-32.982	-0.151	-0.085
-554.427	-18.863	0.224	0.141
-553.412	162.175	0.132	-0.186
-552.398	-86.718	0.217	-0.067
-551.383	-9.619	0.276	0.186
-550.369	-200.000	-0.004	-0.206
-549.354	-92.653	-0.281	0.079
-548.339	24.952	-0.114	-0.096
-547.325	-171.421	-0.074	0.002
-546.310	-32.806	-0.232	-0.130
-545.296	-200.000	0.078	0.466
-544.281	379.246	0.146	-0.303
-543.266	-46.135	0.196	0.098
-542.252	-118.729	-0.454	-0.081
-541.237	49.037	0.391	0.371
-540.223	-98.173	0.121	0.031
-539.208	800.000	-0.049	-0.213
-538.193	-90.163	0.231	0.068
-537.179	27.071	-0.199	-0.169
-536.164	448.393	-0.102	-0.227
-535.150	800.000	-0.032	-0.113
-534.135	-49.295	-0.127	-0.061
-533.121	13.093	0.131	0.102
-532.106	464.130	0.092	-0.207
-531.091	67.486	-0.217	0.223
-530.077	-11.549	-0.244	-0.162
-529.062	-200.000	-0.009	0.100
-528.048	-200.000	-0.026	0.172
-527.033	-200.000	0.035	0.379
-526.018	-200.000	0.018	0.190
-525.004	607.980	0.158	-0.398
-523.989	20.266	-0.274	0.223
-522.975	800.000	0.055	0.174
-521.960	168.303	-0.082	-0.118
-520.945	185.840	0.063	-0.094
-519.931	-15.233	-0.141	-0.091
-518.916	366.547	-0.124	0.252
-517.902	-200.000	0.007	-0.187
-516.887	-200.000	0.035	0.159
-515.872	-47.999	-0.287	-0.140
-514.858	597.794	-0.072	-0.181
-513.843	-5.462	-0.386	0.267
-512.829	193.314	0.127	-0.194
-511.814	-72.313	-0.132	0.049
-510.799	-58.325	0.168	-0.074
-509.785	4.994	-0.318	-0.236
-508.770	-65.104	-0.251	-0.102
-507.756	-154.787	-0.127	-0.009
-506.741	-51.764	-0.210	0.098
-505.726	-200.000	0.005	-0.068
-504.712	74.863	0.183	0.194
-503.697	67.711	-0.025	0.026
-502.683	130.989	-0.193	0.250
-501.668	-142.350	-0.159	0.016
-500.653	-39.002	-0.110	0.058
-499.639	-200.000	-0.004	0.175
-498.624	364.523	0.059	-0.121
-497.610	-84.655	0.124	-0.039
-496.595	-67.225	-0.048	0.019
-495.581	338.906	0.217	-0.427
-494.566	-197.053	-0.231	-0.002
-493.551	-200.000	-0.013	0.182
-492.537	209.846	0.059	-0.093
-491.522	148.759	-0.196	0.267
-490.508	3.727	0.238	0.175
-489.493	725.397	-0.131	-0.351
-488.478	-139.009	0.312	0.034
-487.464	192.722	0.109	-0.166
-486.449	280.008	0.130	0.234
-485.435	-162.968	-0.098	-0.005
-484.420	800.000	-0.021	-0.075
-483.405	-172.850	-0.306	0.010
-482.391	-193.886	0.191	0.002
-481.376	800.000	0.048	-0.204
-480.362	800.000	-0.054	-0.154
-479.347	-200.000	0.012	-0.102
-478.332	-200.000	0.013	0.113
-477.318	24.234	-0.184	0.153
-476.303	-142.835	0.221	-0.022
-475.289	170.616	0.098	0.142
-474.274	-54.911	0.251	0.114
-473.259	-200.000	-0.020	0.134
-472.245	-82.179	0.102	-0.033
-471.230	16.222	0.091	0.072
-470.216	-200.000	0.048	0.363
-469.201	-164.257	0.217	0.010
-468.186	399.449	-0.066	-0.139
-467.172	36.625	-0.128	0.114
-466.157	-200.000	-0.027	-0.202
-465.143	-110.110	-0.112	0.024
-464.128	433.367	0.155	-0.338
-463.113	-58.870	-0.200	0.087
-462.099	62.642	0.239	-0.241
-461.084	450.446	0.048	0.107
-460.070	740.929	-0.192	0.520
-459.055	-71.028	0.403	-0.152
-458.040	175.629	-0.118	-0.173
-457.026	-122.900	-0.505	0.082
-456.011	-68.882	0.357	-0.139
-454.997	262.826	0.119	-0.209
-453.982	-200.000	-0.016	-0.118
-452.968	-100.577	-0.229	-0.057
-451.953	800.000	0.111	0.345
-450.938	-161.195	-0.172	0.009
-449.924	-58.521	-0.128	-0.056
-448.909	-200.000	-0.016	0.130
-447.895	338.448	0.066	-0.130
-446.880	-74.526	-0.148	-0.054
-445.865	323.543	-0.197	-0.377
-444.851	-41.392	0.350	-0.181
-443.836	-48.677	-0.137	-0.066
-442.822	-200.000	0.036	0.251
-441.807	-62.054	0.046	-0.019
-440.792	134.769	-0.205	0.268
-439.778	452.118	-0.093	0.206
-438.763	800.000	-0.072	0.293
-437.749	-156.385	0.094	0.006
-436.734	-111.304	-0.182	-0.037
-435.719	227.175	0.185	-0.303
-434.705	-200.000	0.011	0.249
-433.690	-69.705	-0.054	-0.021
-432.676	-93.563	0.169	-0.047
-431.661	10.471	-0.128	0.098
-430.646	116.559	0.071	-0.087
-429.632	433.765	-0.050	0.109
-428.617	9.385	0.229	0.174
-427.603	-81.996	0.260	0.085
-426.588	-64.240	0.218	-0.089
-425.573	81.982	0.127	-0.138
-424.559	-71.104	0.085	0.032
-423.544	-200.000	-0.010	-0.101
-422.530	-18.799	-0.177	-0.111
-421.515	191.747	-0.163	0.247
-420.500	-40.252	0.155	-0.081
-419.486	-200.000	-0.039	-0.183
-418.471	471.805	0.047	0.107
-417.457	95.628	-0.127	-0.146
-416.442	-21.748	0.303	0.185
-415.428	364.204	0.143	-0.288
-414.413	-74.341	0.235	-0.085
-413.398	-200.000	0.204	0.001
-412.384	-75.203	-0.034	0.012
-411.369	83.394	0.112	-0.122
-410.355	-32.237	0.159	-0.089
-409.340	-175.777	0.259	-0.007
-408.325	14.790	0.151	0.119
-407.311	137.733	0.122	-0.161
-406.296	682.969	0.120	-0.314
-405.282	-92.968	0.181	0.051
-404.267	694.259	-0.048	0.125
-403.252	90.367	-0.161	0.181
-402.238	-103.700	0.335	-0.079
-401.223	19.615	-0.182	-0.147
-400.209	-170.540	-0.226	-0.008
-399.194	-200.000	0.013	0.156
-398.179	-91.583	-0.274	-0.078
-397.165	-5.383	-0.183	-0.126
-396.150	428.247	-0.025	-0.054
-395.136	315.578	0.132	-0.250
-394.121	-30.278	0.210	-0.120
-393.106	657.437	-0.070	-0.180
-392.092	-78.427	-0.186	-0.064
-391.077	113.823	0.020	0.024
-390.063	-69.769	0.094	0.036
-389.048	-70.258	-0.369	0.141
-388.033	192.807	0.290	0.440
-387.019	308.003	-0.101	0.189
-386.004	97.644	-0.185	-0.214
-384.990	524.870	-0.065	0.155
-383.975	-70.890	0.138	0.052
-382.960	-200.000	0.006	-0.436
-381.946	-200.000	0.005	-0.023
-380.931	245.069	0.116	0.195
-379.917	-165.997	-0.238	0.010
-378.902	34.524	-0.219	0.192
-377.888	-69.108	0.151	0.058
-376.873	-67.059	-0.322	0.127
-375.858	279.105	0.108	-0.194
-374.844	-97.032	0.300	-0.079
-373.829	-86.118	0.199	-0.062
-372.815	-100.613	0.154	0.038
-371.800	510.176	-0.098	-0.229
-370.785	-54.014	0.274	-0.125
-369.771	543.276	0.046	0.110
-368.756	-127.716	-0.141	0.020
-367.742	459.235	0.123	0.274
-366.727	124.318	0.128	0.162
-365.712	-200.000	-0.051	-0.417
-364.698	-36.769	0.217	0.117
-363.683	-102.933	0.159	0.038
-362.669	-200.000	0.076	-0.433
-361.654	-200.000	0.010	0.381
-360.639	467.145	-0.109	-0.245
-359.625	450.197	-0.032	0.070
-358.610	163.981	0.065	-0.092
-357.596	-57.759	-0.137	0.060
-356.581	146.715	-0.087	-0.117
-355.566	217.885	-0.155	0.249
-354.552	-151.623	0.217	-0.016
-353.537	717.752	0.083	0.220
-352.523	662.809	-0.066	-0.170
-351.508	-75.587	-0.145	-0.052
-350.493	363.573	-0.190	-0.384
-349.479	65.148	0.116	0.118
-348.464	592.676	0.053	0.132
-347.450	132.112	-0.189	0.244
-346.435	-73.329	-0.078	0.029
-345.420	-132.911	-0.098	0.013
-344.406	-104.213	-0.399	0.093
-343.391	197.682	0.088	-0.135
-342.377	635.032	0.074	-0.188
-341.362	-5.324	-0.179	0.123
-340.348	-200.000	0.048	0.241
-339.333	70.502	0.251	-0.260
-338.318	-68.896	-0.066	-0.026
-337.304	74.113	0.101	0.106
-336.289	79.199	0.279	0.299
-335.275	800.000	0.032	0.129
-334.260	324.735	-0.024	-0.047
-333.245	-79.515	-0.141	-0.048
-332.231	52.690	0.047	-0.045
-331.216	18.114	0.347	-0.277
-330.202	-157.762	-0.192	-0.011
-329.187	175.057	0.128	-0.186
-328.172	333.744	-0.178	-0.344
-327.158	535.073	0.101	0.240
-326.143	-106.812	-0.248	-0.055
-325.129	224.571	0.164	-0.266
-324.114	-200.000	-0.009	0.346
-323.099	-141.747	-0.243	0.024
-322.085	-200.000	-0.025	-0.327
-321.070	-67.568	0.232	-0.091
-320.056	-124.732	-0.124	0.019
-319.041	800.000	-0.049	-0.145
-318.026	55.202	-0.332	-0.321
-317.012	800.000	0.055	0.178
-315.997	-63.810	-0.203	-0.083
-314.983	56.130	0.090	-0.088
-313.968	311.220	0.032	-0.059
-312.953	-136.161	-0.235	-0.027
-311.939	800.000	-0.045	-0.163
-310.924	62.871	-0.080	-0.080
-309.910	-29.814	0.264	-0.151
-308.895	-200.000	0.033	-0.206
-307.880	207.920	0.076	0.118
-306.866	-76.265	-0.380	0.134
-305.851	-58.886	0.202	-0.087
-304.837	14.867	-0.215	-0.168
-303.822	61.428	-0.124	0.124
-302.807	657.849	-0.036	0.094
-301.793	-107.871	0.023	-0.005
-300.778	84.069	0.152	0.166
-299.764	165.990	0.152	0.215
-298.749	138.326	-0.181	0.238
-297.735	-43.456	0.330	-0.167
-296.720	715.343	0.121	0.322
-295.705	96.007	-0.073	-0.083
-294.691	-161.125	0.282	-0.015
-293.676	-58.936	-0.020	0.009
-292.662	800.000	-0.045	-0.187
-291.647	223.612	0.224	0.361
-290.632	-17.373	0.254	-0.160
-289.618	130.947	0.125	0.161
-288.603	118.020	-0.117	-0.145
-287.589	-200.000	0.003	-0.051
-286.574	193.577	0.051	0.078
-285.559	-46.616	0.232	0.114
-284.545	-91.795	0.175	-0.050
-283.530	487.562	-0.075	0.171
-282.516	-83.144	0.103	-0.033
-281.501	81.489	0.078	-0.084
-280.486	-154.407	-0.013	0.001
-279.472	70.697	-0.244	0.253
-278.457	86.502	-0.153	0.168
-277.443	100.597	-0.092	-0.107
-276.428	336.013	0.131	-0.253
-275.413	746.155	-0.113	-0.303
-274.399	-59.985	0.258	0.110
-273.384	46.129	-0.131	-0.122
-272.370	18.897	0.174	0.139
-271.355	-85.689	-0.229	-0.071
-270.340	-81.236	-0.323	0.107
-269.326	-14.674	0.064	-0.041
-268.311	63.977	-0.131	0.132
-267.297	-105.953	-0.373	0.084
-266.282	-198.555	0.297	-0.002
-265.267	-16.998	0.071	-0.045
-264.253	202.537	0.111	0.170
-263.238	174.006	0.077	-0.111
-262.224	-200.000	0.003	0.057
-261.209	800.000	0.107	0.324
-260.195	-22.166	0.115	-0.070
-259.180	39.133	0.142	0.127
-258.165	-104.494	0.220	0.051
-257.151	-200.000	0.007	0.086
-256.136	-200.000	0.041	-0.243
-255.122	-116.586	-0.182	0.033
-254.107	-100.984	0.046	-0.011
-253.092	-87.808	-0.151	0.046
-252.078	-25.449	-0.260	0.153
-251.063	-23.448	0.109	0.066
-250.049	-200.000	0.010	-0.068
-249.034	213.925	0.059	-0.093
-248.019	-99.322	0.224	0.056
-247.005	-22.841	0.153	0.092
-245.990	800.000	-0.095	-0.308
-244.976	-26.810	-0.359	-0.209
-243.961	106.949	0.241	0.286
-242.946	63.265	0.285	0.285
-241.932	37.939	0.265	-0.235
-240.917	-63.881	0.291	0.119
-239.903	-125.810	-0.249	0.037
-238.888	230.347	-0.301	-0.491
-237.873	-157.531	-0.308	-0.018
-236.859	-123.031	0.130	-0.021
-235.844	-64.485	-0.220	0.089
-234.830	288.122	-0.150	0.271
-233.815	-132.047	-0.237	0.031
-232.800	-26.271	0.366	0.214
-231.786	-129.523	-0.039	0.005
-230.771	-90.431	0.228	-0.066
-229.757	-108.749	-0.087	-0.019
-228.742	800.000	-0.049	-0.203
-227.727	23.835	-0.140	-0.115
-226.713	-200.000	0.005	-0.096
-225.698	-157.246	0.191	0.012
-224.684	-163.281	-0.192	0.009
-223.669	-145.148	0.191	0.017
-222.655	-122.296	-0.112	0.018
-221.640	800.000	-0.047	-0.169
-220.625	-128.164	-0.474	-0.068
-219.611	98.197	0.187	0.215
-218.596	-140.147	-0.211	0.022
-217.582	-111.297	0.220	-0.045
-216.567	36.994	0.065	0.058
-215.552	-40.299	0.224	-0.116
-214.538	613.597	-0.074	-0.186
-213.523	321.476	0.054	-0.102
-212.509	-176.922	-0.382	0.010
-211.494	-115.368	-0.090	0.017
-210.479	9.417	-0.234	0.177
-209.465	122.565	-0.114	0.142
-208.450	-200.000	0.073	0.396
-207.436	-123.650	-0.193	0.031
-206.421	-200.000	0.047	0.227
-205.406	800.000	0.054	0.198
-204.392	-48.426	0.060	0.029
-203.377	98.756	-0.010	0.012
-202.363	509.671	-0.170	-0.395
-201.348	-6.602	0.178	0.121
-200.333	-200.000	-0.006	-0.043
-199.319	374.301	-0.085	0.173
-198.304	-200.000	0.043	-0.230
-197.290	-94.464	0.310	0.084
-196.275	800.000	-0.023	-0.082
-195.260	-14.909	0.057	0.036
-194.246	112.636	-0.129	-0.156
-193.231	70.140	0.218	-0.224
-192.217	501.854	-0.039	-0.090
-191.202	-200.000	-0.017	0.223
-190.187	-116.462	0.124	-0.023
-189.173	-82.768	-0.283	-0.091
-188.158	800.000	0.008	0.029
-187.144	-97.808	0.448	-0.115
-186.129	-86.570	-0.141	0.043
-185.114	-149.451	-0.056	0.004
-184.100	75.808	0.037	0.039
-183.085	-80.419	0.077	-0.026
-182.071	-22.872	0.382	-0.230
-181.056	274.798	-0.098	0.173
-180.042	-46.358	-0.165	-0.081
-179.027	-103.068	-0.307	0.072
-178.012	-93.605	-0.403	0.111
-176.998	-18.262	0.139	0.087
-175.983	-138.847	0.095	-0.010
-174.969	317.528	-0.033	0.063
-173.954	-200.000	-0.007	-0.116
-172.939	-181.751	0.191	0.004
-171.925	-200.000	0.036	-0.258
-170.910	72.952	0.123	-0.127
-169.896	84.066	0.120	-0.130
-168.881	509.557	0.099	0.230
-167.866	-80.832	0.006	-0.002
-166.852	-16.512	0.167	-0.106
-165.837	27.581	0.244	-0.204
-164.823	215.278	0.130	-0.206
-163.808	-66.085	0.183	-0.073
-162.793	-200.000	-0.012	-0.125
-161.779	222.628	-0.041	-0.066
-160.764	94.233	-0.033	-0.037
-159.750	147.658	0.110	-0.148
-158.735	209.021	0.103	0.160
-157.720	-38.042	-0.077	-0.041
-156.706	157.189	0.112	0.154
-155.691	-93.940	0.042	-0.012
-154.677	773.789	0.099	0.269
-153.662	-200.000	-0.011	-0.116
-152.647	-158.969	0.086	0.005
-151.633	-100.210	-0.254	0.063
-150.618	184.826	0.234	0.346
-149.604	121.401	0.276	0.342
-148.589	367.398	0.069	0.138
-147.574	-141.874	-0.204	0.020
-146.560	161.798	-0.063	0.087
-145.545	-46.092	0.033	-0.016
-144.531	-11.732	-0.064	0.042
-143.516	-22.843	0.262	-0.157
-142.502	-88.730	-0.231	0.068
-141.487	-91.980	-0.068	0.019
-140.472	-62.763	-0.321	-0.132
-139.458	220.193	0.117	0.187
-138.443	-83.675	-0.179	-0.057
-137.429	108.154	0.230	0.273
-136.414	-133.962	0.148	0.018
-135.399	-184.663	0.076	-0.001
-134.385	800.000	0.053	0.212
-133.370	486.795	0.067	0.152
-132.356	-200.000	0.005	-0.111
-131.341	-178.653	0.339	-0.008
-130.326	-1.509	-0.077	0.054
-129.312	540.233	-0.149	-0.352
-128.297	-200.000	-0.035	0.425
-127.283	800.000	0.004	0.016
-126.268	-51.569	-0.107	0.049
-125.253	-152.453	0.336	0.024
-124.239	-200.000	0.064	-0.408
-123.224	-143.864	0.247	-0.023
-122.210	-104.054	-0.200	-0.046
-121.195	-200.000	-0.021	0.092
