DTS Sentinel unit serial number:	SN413079Multiplexer serial number:	ORYXHardware model number:	OX4-SRSoftware version number:	ORYX F/W v4.00 Oryx Data Collector v3.7.2.0data status	okinstallation	princeton_trtdifferential loss correction	single-endedforward channel	channel 2reverse channel	N/Adate	2019/09/12time	05:45:11forward acquisition time	60.00reverse acquisition time	0.00gamma	496.2192k internal	0.2325k external	0.2325temperature offset calibration	1.0062default loss term (dB/km)	0.3790temperature slope calibration	1.0000multiplexer offset coefficient	1.0000multiplexer slope coefficient	1.0000fibre end	0.00T internal ref (°C)	32.00T ext. ref 1 (°C)	1.58T ext. ref 2 (°C)	27.51length (m)	temperature (°C)	Stokes	anti-Stokes-747.200	-98.856	-0.318	-0.082
-746.185	399.844	0.209	0.443
-745.171	-67.383	0.314	-0.125
-744.156	295.896	-0.156	0.289
-743.142	-200.000	0.041	-0.406
-742.127	444.387	-0.311	0.688
-741.112	-41.213	-0.167	0.087
-740.098	-65.224	-0.296	0.120
-739.083	32.821	-0.179	-0.156
-738.069	800.000	0.029	0.087
-737.054	-200.000	0.002	-0.168
-736.039	41.191	-0.112	0.102
-735.025	30.615	0.305	0.263
-734.010	-151.720	-0.259	-0.019
-732.996	313.109	-0.145	-0.275
-731.981	-99.034	0.254	-0.065
-730.966	48.276	-0.239	-0.225
-729.952	-200.000	-0.053	0.291
-728.937	-78.443	0.065	0.022
-727.923	-12.594	-0.106	0.070
-726.908	-200.000	0.042	0.309
-725.894	99.715	-0.152	-0.178
-724.879	241.279	-0.171	-0.288
-723.864	-76.211	-0.259	-0.092
-722.850	-77.165	-0.238	-0.083
-721.835	318.558	0.036	-0.069
-720.821	276.923	0.033	-0.060
-719.806	-86.128	-0.153	0.048
-718.791	69.956	-0.168	0.174
-717.777	-62.061	0.236	0.099
-716.762	-46.159	-0.238	0.118
-715.748	800.000	-0.026	0.100
-714.733	148.222	0.138	-0.187
-713.718	-2.048	-0.163	-0.116
-712.704	136.100	0.118	-0.155
-711.689	331.487	-0.008	0.016
-710.675	657.305	0.036	0.092
-709.660	47.973	0.220	-0.207
-708.645	91.610	0.226	-0.256
-707.631	-200.000	-0.019	0.148
-706.616	-136.016	-0.207	0.024
-705.602	-200.000	0.052	0.295
-704.587	114.120	-0.221	-0.271
-703.572	-67.855	0.143	0.056
-702.558	-167.747	0.018	0.001
-701.543	247.432	-0.069	-0.117
-700.529	100.216	0.284	-0.332
-699.514	800.000	-0.011	-0.043
-698.499	-93.207	0.210	-0.059
-697.485	-104.528	0.037	0.009
-696.470	-156.113	0.143	-0.009
-695.456	697.825	0.127	0.336
-694.441	182.831	0.118	-0.176
-693.426	-21.225	0.102	0.063
-692.412	-200.000	-0.007	-0.174
-691.397	-200.000	0.004	0.051
-690.383	333.144	-0.184	0.357
-689.368	-0.785	-0.337	-0.240
-688.354	101.878	-0.154	-0.181
-687.339	401.021	-0.075	-0.159
-686.324	74.317	-0.080	0.085
-685.310	-200.000	-0.015	0.098
-684.295	26.140	0.198	0.166
-683.281	-172.297	-0.289	-0.009
-682.266	-200.000	0.001	-0.075
-681.251	-105.413	0.424	0.097
-680.237	84.875	-0.188	-0.208
-679.222	188.069	0.182	-0.274
-678.208	800.000	0.099	-0.434
-677.193	183.472	-0.129	-0.192
-676.178	800.000	-0.090	0.323
-675.164	-124.977	0.459	0.071
-674.149	386.311	-0.116	0.240
-673.135	-25.466	0.375	-0.223
-672.120	-200.000	0.003	-0.017
-671.105	-9.439	0.226	-0.152
-670.091	-149.161	-0.162	0.013
-669.076	-200.000	-0.024	0.153
-668.062	-200.000	0.001	0.010
-667.047	-40.973	0.304	-0.158
-666.032	-28.833	-0.424	-0.245
-665.018	800.000	-0.080	0.237
-664.003	2.394	-0.288	-0.209
-662.989	480.293	0.148	0.337
-661.974	800.000	-0.031	-0.129
-660.959	54.709	-0.199	-0.193
-659.945	71.349	-0.198	0.206
-658.930	-200.000	0.002	-0.430
-657.916	-116.744	-0.470	-0.087
-656.901	-86.345	0.376	-0.116
-655.886	-200.000	0.003	-0.032
-654.872	266.459	-0.179	0.315
-653.857	81.116	-0.097	0.106
-652.843	23.632	-0.207	0.171
-651.828	-200.000	-0.038	0.254
-650.814	-92.680	-0.358	-0.101
-649.799	55.662	-0.082	-0.080
-648.784	179.127	-0.130	-0.191
-647.770	-200.000	0.044	0.204
-646.755	-200.000	-0.066	-0.425
-645.741	104.307	0.234	0.277
-644.726	120.658	0.177	0.222
-643.711	104.539	-0.215	-0.255
-642.697	800.000	0.071	-0.253
-641.682	74.206	-0.240	-0.253
-640.668	800.000	0.120	0.457
-639.653	-115.510	-0.351	0.066
-638.638	-30.351	0.229	-0.131
-637.624	247.295	0.184	-0.311
-636.609	-200.000	-0.011	-0.121
-635.595	-200.000	-0.010	0.304
-634.580	800.000	-0.167	0.506
-633.565	-1.368	0.202	-0.143
-632.551	779.557	-0.120	-0.329
-631.536	-200.000	-0.044	-0.359
-630.522	352.863	0.146	0.290
-629.507	-89.962	-0.122	0.036
-628.492	-150.270	-0.191	-0.015
-627.478	-200.000	-0.010	-0.137
-626.463	91.320	-0.056	-0.063
-625.449	1.125	-0.018	-0.013
-624.434	48.827	-0.226	-0.213
-623.419	304.637	0.033	0.061
-622.405	-94.714	-0.187	-0.051
-621.390	748.176	0.013	-0.034
-620.376	-13.730	-0.309	0.201
-619.361	-84.170	0.190	0.061
-618.346	180.906	0.123	0.182
-617.332	-92.719	-0.084	-0.023
-616.317	-6.201	0.266	0.182
-615.303	27.140	0.263	0.222
-614.288	-125.402	0.302	-0.046
-613.273	716.095	-0.105	-0.281
-612.259	-97.600	-0.307	-0.080
-611.244	-142.720	-0.266	0.026
-610.230	-200.000	0.018	-0.135
-609.215	123.312	-0.082	-0.103
-608.201	0.348	-0.254	0.182
-607.186	-157.523	-0.083	0.005
-606.171	121.545	0.058	0.072
-605.157	-200.000	0.024	0.195
-604.142	662.805	0.064	-0.166
-603.128	19.848	-0.395	0.319
-602.113	-200.000	-0.025	-0.195
-601.098	34.647	-0.049	0.043
-600.084	21.167	0.196	0.160
-599.069	-125.180	-0.045	-0.007
-598.055	3.012	-0.170	-0.124
-597.040	-18.024	0.146	0.092
-596.025	372.050	-0.145	-0.295
-595.011	-130.523	-0.470	-0.064
-593.996	800.000	-0.065	-0.182
-592.982	237.994	-0.157	0.261
-591.967	-120.317	-0.356	-0.061
-590.952	-40.554	-0.082	-0.043
-589.938	-200.000	0.028	-0.228
-588.923	-62.410	0.082	-0.034
-587.909	413.018	0.043	-0.091
-586.894	-200.000	-0.031	-0.226
-585.879	152.756	-0.194	0.266
-584.865	80.805	-0.101	0.109
-583.850	-147.680	0.271	-0.023
-582.836	800.000	0.033	0.129
-581.821	14.140	-0.146	-0.114
-580.806	-200.000	0.016	-0.271
-579.792	203.053	-0.096	0.149
-578.777	-11.373	-0.154	0.101
-577.763	-162.552	-0.094	0.005
-576.748	-16.328	0.196	0.125
-575.733	78.888	0.285	0.306
-574.719	-105.690	-0.245	0.055
-573.704	153.592	0.181	-0.248
-572.690	-55.736	0.197	0.088
-571.675	800.000	-0.047	0.141
-570.661	-69.197	-0.117	-0.045
-569.646	-122.386	0.329	-0.054
-568.631	-200.000	0.025	-0.121
-567.617	-159.351	0.240	-0.013
-566.602	-200.000	0.095	-0.471
-565.588	288.578	-0.037	-0.066
-564.573	10.431	0.102	0.078
-563.558	127.537	-0.281	-0.358
-562.544	782.951	0.061	0.166
-561.529	-76.552	-0.286	-0.100
-560.515	443.597	0.105	-0.231
-559.500	214.843	-0.217	0.344
-558.485	191.026	0.087	0.132
-557.471	143.735	-0.215	0.287
-556.456	307.875	0.132	-0.246
-555.442	-44.767	0.233	-0.117
-554.427	-149.076	-0.051	0.004
-553.412	-101.755	0.279	-0.068
-552.398	10.302	-0.217	-0.166
-551.383	800.000	0.084	-0.311
-550.369	-64.887	0.489	0.198
-549.354	362.878	0.069	-0.138
-548.339	-20.754	0.105	-0.065
-547.325	146.736	0.220	0.296
-546.310	-46.781	-0.083	-0.041
-545.296	-102.756	-0.122	0.029
-544.281	115.348	0.268	-0.328
-543.266	-167.353	-0.170	0.007
-542.252	-127.183	0.177	0.026
-541.237	-47.230	0.321	-0.156
-540.223	547.463	-0.030	-0.073
-539.208	-67.216	0.110	-0.043
-538.193	-200.000	0.025	-0.212
-537.179	305.210	-0.061	-0.113
-536.164	-143.038	-0.072	0.007
-535.150	-36.622	-0.218	-0.117
-534.135	36.361	0.223	0.197
-533.121	800.000	0.024	0.099
-532.106	424.906	-0.079	-0.170
-531.091	133.995	-0.301	0.390
-530.077	-200.000	-0.004	-0.020
-529.062	49.402	0.071	0.067
-528.048	52.406	-0.130	-0.124
-527.033	76.526	0.068	0.072
-526.018	-178.968	0.143	0.003
-525.004	-25.449	0.223	-0.132
-523.989	-200.000	-0.005	0.097
-522.975	-139.449	-0.411	-0.044
-521.960	84.952	-0.247	0.270
-520.945	300.895	-0.092	-0.169
-519.931	800.000	-0.104	-0.320
-518.916	-128.870	0.333	-0.047
-517.902	46.239	-0.087	0.080
-516.887	-200.000	-0.005	-0.412
-515.872	-179.945	0.203	-0.004
-514.858	-178.883	0.178	0.004
-513.843	733.076	-0.062	0.165
-512.829	-84.999	-0.205	0.064
-511.814	-115.428	-0.184	-0.035
-510.799	74.596	-0.144	-0.151
-509.785	450.672	-0.108	-0.239
-508.770	122.205	0.135	-0.169
-507.756	40.756	-0.198	-0.179
-506.741	-30.802	0.326	-0.184
-505.726	800.000	-0.044	0.166
-504.712	160.202	-0.211	-0.295
-503.697	204.341	0.056	-0.087
-502.683	136.286	0.086	0.112
-501.668	-200.000	-0.025	0.160
-500.653	-28.071	0.087	-0.051
-499.639	-200.000	0.074	-0.375
-498.624	800.000	0.056	-0.193
-497.610	-200.000	-0.055	-0.486
-496.595	46.654	-0.324	0.301
-495.581	181.856	-0.042	-0.062
-494.566	-122.012	0.171	0.028
-493.551	800.000	0.066	0.225
-492.537	800.000	-0.023	0.085
-491.522	142.865	-0.038	0.051
-490.508	120.211	-0.190	0.236
-489.493	29.242	0.108	0.092
-488.478	46.071	-0.161	0.149
-487.464	-125.808	0.324	0.049
-486.449	-181.214	-0.111	-0.002
-485.435	-13.409	-0.218	0.141
-484.420	16.742	-0.347	-0.274
-483.405	800.000	0.003	-0.009
-482.391	-100.151	0.163	0.041
-481.376	-109.271	0.297	-0.063
-480.362	-200.000	0.022	-0.210
-479.347	-200.000	-0.030	-0.213
-478.332	101.923	0.152	-0.177
-477.318	-200.000	-0.035	-0.277
-476.303	-127.548	0.393	-0.057
-475.289	-46.375	0.079	-0.039
-474.274	-62.601	-0.207	0.086
-473.259	-8.284	-0.058	0.039
-472.245	800.000	-0.045	-0.139
-471.230	-56.481	0.212	-0.094
-470.216	96.148	-0.268	0.305
-469.201	76.906	0.194	0.206
-468.186	-135.374	-0.306	-0.036
-467.172	-200.000	0.015	-0.211
-466.157	337.639	0.052	-0.102
-465.143	-200.000	-0.033	0.290
-464.128	-11.912	-0.114	-0.074
-463.113	18.852	-0.118	-0.094
-462.099	11.407	-0.104	-0.080
-461.084	137.966	-0.146	0.191
-460.070	179.371	0.168	0.246
-459.055	800.000	-0.014	-0.050
-458.040	120.655	-0.273	-0.338
-457.026	-108.581	0.071	-0.015
-456.011	112.514	-0.143	0.172
-454.997	-60.274	0.143	0.061
-453.982	-200.000	0.018	-0.157
-452.968	-122.305	0.037	0.006
-451.953	800.000	-0.072	-0.206
-450.938	-106.851	-0.170	0.038
-449.924	800.000	-0.073	0.247
-448.909	291.569	-0.104	-0.190
-447.895	-156.799	-0.163	0.010
-446.880	-200.000	-0.040	0.309
-445.865	487.599	-0.055	0.125
-444.851	-148.865	-0.083	-0.007
-443.836	-9.132	0.325	0.217
-442.822	-200.000	-0.046	0.411
-441.807	-171.309	-0.137	-0.005
-440.792	547.449	-0.072	0.171
-439.778	-35.928	-0.303	-0.163
-438.763	186.799	-0.036	0.054
-437.749	706.038	0.022	0.059
-436.734	98.327	0.131	-0.150
-435.719	-34.307	-0.205	0.112
-434.705	76.629	-0.172	0.181
-433.690	-126.093	-0.204	-0.031
-432.676	-100.044	0.464	-0.115
-431.661	-103.799	-0.132	0.031
-430.646	-200.000	-0.029	0.147
-429.632	-200.000	-0.002	0.126
-428.617	-200.000	0.039	0.311
-427.603	800.000	0.035	-0.098
-426.588	-34.522	0.196	-0.107
-425.573	7.056	0.210	0.156
-424.559	-200.000	-0.002	-0.199
-423.544	-142.276	-0.070	-0.007
-422.530	800.000	-0.031	0.087
-421.515	-58.993	0.154	0.066
-420.500	102.291	0.133	-0.154
-419.486	-200.000	0.021	0.110
-418.471	188.845	0.125	0.187
-417.457	183.405	-0.213	0.314
-416.442	-123.937	0.240	-0.038
-415.428	493.983	-0.123	-0.281
-414.413	0.564	-0.120	-0.085
-413.398	295.707	-0.130	-0.237
-412.384	-94.416	0.239	-0.065
-411.369	-19.872	0.134	-0.083
-410.355	129.909	-0.253	-0.323
-409.340	-200.000	-0.002	-0.092
-408.325	172.180	0.169	-0.242
-407.311	800.000	0.030	0.091
-406.296	-164.920	0.233	0.010
-405.282	762.584	0.127	-0.344
-404.267	-106.330	0.166	-0.037
-403.252	-60.597	-0.108	-0.046
-402.238	102.411	0.180	-0.209
-401.223	654.645	-0.170	-0.435
-400.209	82.431	-0.100	0.108
-399.194	-200.000	-0.021	0.360
-398.179	209.196	0.068	-0.106
-397.165	-17.001	0.221	0.139
-396.150	19.584	-0.236	-0.189
-395.136	84.591	-0.104	0.113
-394.121	309.318	-0.080	-0.148
-393.106	-200.000	0.019	0.168
-392.092	-41.758	-0.088	-0.045
-391.077	-125.254	0.191	0.029
-390.063	-129.215	-0.318	-0.044
-389.048	-34.919	0.257	-0.139
-388.033	-16.780	-0.192	0.121
-387.019	-22.075	-0.221	0.133
-386.004	-200.000	0.015	-0.080
-384.990	128.092	0.156	0.197
-383.975	800.000	-0.050	-0.179
-382.960	-197.776	0.252	0.002
-381.946	-49.433	0.284	-0.135
-380.931	76.202	0.159	0.167
-379.917	58.094	-0.238	0.232
-378.902	-200.000	-0.017	-0.076
-377.888	92.384	-0.088	-0.098
-376.873	-54.343	0.222	-0.100
-375.858	-56.772	-0.088	0.039
-374.844	79.049	-0.043	-0.046
-373.829	273.756	-0.057	-0.101
-372.815	248.249	-0.224	0.376
-371.800	-200.000	0.028	0.303
-370.785	-200.000	0.015	-0.265
-369.771	-200.000	-0.018	-0.099
-368.756	-22.985	0.059	-0.035
-367.742	-200.000	-0.033	-0.262
-366.727	800.000	0.061	0.192
-365.712	800.000	-0.101	0.349
-364.698	-200.000	0.055	0.470
-363.683	509.667	0.061	0.141
-362.669	-168.990	-0.211	-0.008
-361.654	136.887	0.304	0.395
-360.639	-76.082	-0.118	-0.042
-359.625	-30.105	0.310	-0.175
-358.610	-2.179	-0.208	-0.145
-357.596	-80.305	-0.289	0.096
-356.581	145.939	-0.096	0.128
-355.566	193.537	0.120	-0.181
-354.552	593.772	0.105	0.258
-353.537	413.795	0.150	0.318
-352.523	428.242	0.145	-0.312
-351.508	103.311	0.142	-0.165
-350.493	800.000	0.048	0.173
-349.479	217.798	0.058	0.092
-348.464	143.238	0.049	-0.064
-347.450	149.354	0.121	0.162
-346.435	-11.804	-0.199	-0.130
-345.420	-96.360	-0.088	0.023
-344.406	-200.000	-0.019	0.168
-343.391	-52.949	0.157	0.072
-342.377	-200.000	-0.020	-0.217
-341.362	-200.000	0.013	-0.107
-340.348	672.078	-0.048	0.123
-339.333	531.312	0.090	-0.211
-338.318	-168.167	0.249	-0.010
-337.304	285.611	-0.098	-0.175
-336.289	29.002	-0.039	-0.033
-335.275	-200.000	0.001	-0.016
-334.260	46.161	-0.187	-0.172
-333.245	800.000	-0.124	-0.377
-332.231	-86.662	0.108	0.033
-331.216	157.033	-0.034	0.047
-330.202	298.102	-0.108	-0.198
-329.187	-88.567	0.283	0.084
-328.172	800.000	-0.018	-0.065
-327.158	568.024	-0.056	0.136
-326.143	90.915	-0.142	-0.158
-325.129	108.836	-0.125	-0.148
-324.114	-200.000	0.021	-0.104
-323.099	-5.737	-0.175	0.119
-322.085	228.653	0.345	-0.558
-321.070	-146.509	0.560	0.048
-320.056	477.806	-0.057	0.127
-319.041	-94.859	0.204	0.055
-318.026	500.813	0.134	0.306
-317.012	-13.329	0.230	0.148
-315.997	221.336	-0.095	0.152
-314.983	-176.132	-0.217	-0.006
-313.968	-200.000	0.003	0.060
-312.953	419.693	-0.087	0.184
-311.939	207.120	-0.083	0.128
-310.924	-9.520	0.292	0.193
-309.910	-85.306	0.062	0.019
-308.895	-29.307	0.164	0.093
-307.880	-200.000	0.041	0.252
-306.866	-137.832	-0.135	0.015
-305.851	311.984	-0.078	-0.145
-304.837	298.656	-0.103	-0.187
-303.822	-6.188	0.451	-0.305
-302.807	19.192	0.322	-0.257
-301.793	131.061	0.117	0.149
-300.778	-19.812	0.276	-0.169
-299.764	-200.000	0.051	-0.272
-298.749	-122.968	-0.427	0.068
-297.735	800.000	0.014	-0.046
-296.720	-111.717	0.117	-0.023
-295.705	-5.650	-0.159	-0.108
-294.691	-38.512	-0.208	-0.109
-293.676	134.728	0.130	-0.167
-292.662	205.475	-0.108	0.166
-291.647	-98.876	0.129	-0.032
-290.632	-64.387	-0.199	0.080
-289.618	75.072	0.224	-0.234
-288.603	223.810	-0.162	0.259
-287.589	308.614	-0.170	0.315
-286.574	-200.000	0.017	0.124
-285.559	5.280	0.139	-0.101
-284.545	-137.055	-0.114	-0.013
-283.530	800.000	0.061	0.183
-282.516	151.561	-0.087	-0.118
-281.501	-71.661	-0.335	-0.124
-280.486	-40.125	-0.232	-0.120
-279.472	203.202	-0.217	-0.332
-278.457	263.867	0.152	0.263
-277.443	800.000	0.105	0.293
-276.428	14.681	-0.058	-0.045
-275.413	-125.548	-0.118	-0.018
-274.399	800.000	-0.058	0.199
-273.384	153.299	-0.276	0.375
-272.370	151.368	-0.084	0.113
-271.355	800.000	0.061	0.211
-270.340	-200.000	0.000	-0.062
-269.326	-200.000	-0.010	-0.095
-268.311	-20.134	-0.135	-0.083
-267.297	-0.413	-0.202	0.142
-266.282	-200.000	0.032	0.320
-265.267	-200.000	0.041	-0.227
-264.253	481.659	-0.029	0.065
-263.238	29.448	0.201	-0.169
-262.224	692.374	-0.029	0.076
-261.209	-11.792	-0.221	-0.144
-260.195	-160.996	-0.141	-0.007
-259.180	157.444	-0.196	0.269
-258.165	-99.175	0.174	0.043
-257.151	-200.000	0.139	-0.000
-256.136	-147.097	0.328	-0.028
-255.122	150.045	0.065	0.087
-254.107	-63.318	-0.231	-0.094
-253.092	2.394	-0.085	0.061
-252.078	-200.000	-0.021	0.142
-251.063	181.013	0.289	0.420
-250.049	800.000	-0.106	0.317
-249.034	-41.450	-0.330	0.168
-248.019	-200.000	-0.002	0.095
-247.005	33.699	0.336	0.289
-245.990	258.726	0.036	0.061
-244.976	800.000	0.084	0.324
-243.961	138.622	-0.120	-0.156
-242.946	-145.857	0.288	-0.025
-241.932	-51.899	0.133	-0.061
-240.917	-200.000	-0.010	-0.064
-239.903	520.824	0.190	0.442
-238.888	-5.676	-0.080	0.054
-237.873	31.812	-0.243	0.207
-236.859	-120.479	0.186	-0.031
-235.844	33.912	-0.093	-0.080
-234.830	800.000	-0.042	-0.165
-233.815	-200.000	-0.009	0.229
-232.800	-28.288	-0.179	0.102
-231.786	21.239	0.338	0.271
-230.771	-117.342	-0.033	-0.006
-229.757	-200.000	-0.040	0.202
-228.742	-178.638	0.211	0.005
-227.727	-200.000	0.044	-0.344
-226.713	-104.245	0.216	-0.050
-225.698	-45.936	-0.061	0.030
-224.684	-75.820	0.203	0.071
-223.669	-118.160	-0.235	-0.041
-222.655	-15.988	0.221	0.139
-221.640	-104.687	-0.122	0.028
-220.625	800.000	-0.147	-0.485
-219.611	-200.000	-0.035	-0.209
-218.596	-128.166	0.194	-0.027
-217.582	-200.000	-0.010	0.289
-216.567	-138.393	-0.170	-0.019
-215.552	-182.108	0.361	-0.007
-214.538	427.893	0.071	0.151
-213.523	-96.536	-0.314	0.082
-212.509	-200.000	-0.001	-0.190
-211.494	-3.050	0.184	0.127
-210.479	-200.000	-0.010	-0.050
-209.465	-200.000	-0.034	-0.382
-208.450	-60.031	0.164	0.069
-207.436	66.993	-0.081	-0.081
-206.421	631.462	0.048	-0.119
-205.406	6.574	0.418	-0.307
-204.392	204.177	-0.102	0.157
-203.377	-62.828	0.185	0.076
-202.363	180.152	0.138	-0.200
-201.348	-200.000	-0.034	-0.151
-200.333	250.662	-0.039	0.065
-199.319	66.663	-0.291	-0.292
-198.304	82.100	-0.173	0.186
-197.290	-200.000	-0.061	0.265
-196.275	2.764	0.279	-0.200
-195.260	-200.000	0.030	0.210
-194.246	-17.038	0.228	-0.142
-193.231	800.000	0.051	-0.192
-192.217	-200.000	0.034	-0.185
-191.202	27.774	-0.150	0.125
-190.187	-200.000	0.010	0.225
-189.173	245.010	0.068	-0.112
-188.158	-200.000	-0.032	-0.141
-187.144	363.540	-0.133	-0.264
-186.129	-152.461	-0.077	-0.005
-185.114	74.649	-0.060	-0.062
-184.100	-200.000	-0.012	0.062
-183.085	162.694	-0.043	-0.060
-182.071	279.176	-0.056	0.099
-181.056	800.000	0.168	-0.534
-180.042	-36.946	0.351	0.186
-179.027	-200.000	0.026	0.174
-178.012	-107.689	0.021	0.004
-176.998	800.000	-0.037	0.112
-175.983	800.000	0.074	0.245
-174.969	-200.000	-0.002	-0.128
-173.954	-112.378	0.296	-0.058
-172.939	800.000	-0.039	0.147
-171.925	8.225	0.245	0.182
-170.910	56.942	-0.061	0.059
-169.896	-64.623	-0.314	0.126
-168.881	-128.683	0.187	-0.026
-167.866	359.032	-0.061	-0.121
-166.852	8.324	0.281	0.208
-165.837	29.804	-0.194	-0.163
-164.823	800.000	-0.071	0.234
-163.808	800.000	0.058	0.235
-162.793	-23.793	-0.148	0.087
-161.779	98.200	-0.164	0.187
-160.764	-81.207	0.164	0.053
-159.750	167.215	-0.163	0.228
-158.735	274.566	-0.104	0.182
-157.720	-127.607	0.128	-0.018
-156.706	-173.399	-0.198	0.006
-155.691	-40.659	-0.104	-0.053
-154.677	-4.970	-0.295	-0.200
-153.662	-155.409	0.348	-0.022
-152.647	-200.000	-0.022	0.180
-151.633	398.975	0.072	0.150
-150.618	-98.534	0.464	-0.117
-149.604	37.919	0.271	0.238
-148.589	417.137	0.161	0.339
-147.574	336.502	-0.087	-0.167
-146.560	-200.000	-0.014	0.089
-145.545	-77.059	0.331	0.114
-144.531	84.262	-0.138	0.149
-143.516	167.132	0.155	0.217
-142.502	56.997	0.244	0.235
-141.487	110.046	-0.237	0.281
-140.472	-22.377	-0.145	0.086
-139.458	554.316	-0.085	0.201
-138.443	95.750	0.161	0.181
-137.429	-43.197	0.131	-0.065
-136.414	-121.836	0.302	-0.049
-135.399	-29.830	-0.161	-0.090
-134.385	-21.011	-0.130	-0.078
-133.370	-130.089	0.181	-0.024
-132.356	-200.000	-0.030	0.307
-131.341	-200.000	0.046	0.211
-130.326	-68.378	-0.351	0.134
-129.312	-200.000	0.021	-0.116
-128.297	458.438	0.163	-0.357
-127.283	-24.079	0.147	-0.086
-126.268	49.051	-0.167	-0.155
-125.253	-6.230	0.167	-0.113
-124.239	178.517	-0.016	-0.023
-123.224	134.491	0.327	0.418
-122.210	-200.000	0.008	0.095
