DTS Sentinel unit serial number:	SN413079Multiplexer serial number:	ORYXHardware model number:	OX4-SRSoftware version number:	ORYX F/W v4.00 Oryx Data Collector v3.7.2.0data status	okinstallation	princeton_trtdifferential loss correction	single-endedforward channel	channel 2reverse channel	N/Adate	2019/09/11time	22:09:11forward acquisition time	60.00reverse acquisition time	0.00gamma	496.2192k internal	0.2324k external	0.2324temperature offset calibration	1.0071default loss term (dB/km)	0.3790temperature slope calibration	1.0000multiplexer offset coefficient	1.0000multiplexer slope coefficient	1.0000fibre end	0.00T internal ref (°C)	35.37T ext. ref 1 (°C)	1.76T ext. ref 2 (°C)	29.51length (m)	temperature (°C)	Stokes	anti-Stokes-747.200	-93.197	0.222	-0.062
-746.185	-75.476	-0.085	0.030
-745.171	-14.386	0.221	0.144
-744.156	-107.371	0.220	0.049
-743.142	-25.517	-0.276	0.164
-742.127	-200.000	0.028	0.176
-741.112	800.000	-0.139	0.446
-740.098	403.777	-0.127	0.270
-739.083	-200.000	-0.018	0.180
-738.069	302.757	-0.245	0.458
-737.054	800.000	-0.045	0.197
-736.039	-184.311	-0.264	0.004
-735.025	-97.979	0.546	0.142
-734.010	-159.927	-0.318	-0.018
-732.996	800.000	0.029	0.118
-731.981	0.006	0.261	-0.187
-730.966	-200.000	0.069	0.352
-729.952	-134.406	0.092	0.011
-728.937	-49.955	0.116	-0.055
-727.923	225.717	-0.098	-0.160
-726.908	90.691	-0.314	0.355
-725.894	800.000	-0.117	-0.437
-724.879	-62.878	0.192	0.080
-723.864	-200.000	-0.049	0.418
-722.850	-200.000	0.034	0.150
-721.835	100.472	0.206	0.241
-720.821	488.751	0.055	-0.128
-719.806	-200.000	0.021	-0.320
-718.791	-200.000	0.007	-0.224
-717.777	283.188	0.102	-0.184
-716.762	-57.745	-0.181	-0.080
-715.748	9.601	-0.134	0.102
-714.733	-63.984	0.351	-0.145
-713.718	-189.406	-0.697	-0.008
-712.704	-83.914	0.324	-0.104
-711.689	-131.043	-0.303	-0.041
-710.675	194.427	-0.341	-0.522
-709.660	-81.913	0.037	-0.012
-708.645	-94.011	-0.142	-0.039
-707.631	-75.747	0.354	-0.126
-706.616	-54.972	-0.281	0.128
-705.602	-163.200	-0.360	-0.017
-704.587	17.835	0.187	-0.150
-703.572	155.503	0.150	-0.208
-702.558	-123.200	-0.232	0.037
-701.543	165.057	-0.335	-0.476
-700.529	23.997	-0.215	-0.179
-699.514	-200.000	-0.010	-0.232
-698.499	77.180	-0.244	-0.262
-697.485	-87.585	-0.088	-0.027
-696.470	-200.000	-0.009	-0.342
-695.456	-4.434	0.215	0.150
-694.441	-200.000	0.016	-0.193
-693.426	-149.370	0.526	-0.042
-692.412	-200.000	-0.017	-0.078
-691.397	88.675	0.149	0.167
-690.383	800.000	-0.117	-0.326
-689.368	436.895	0.184	-0.405
-688.354	-200.000	-0.029	-0.172
-687.339	48.338	-0.198	-0.187
-686.324	78.125	-0.205	-0.220
-685.310	265.050	0.060	0.105
-684.295	-200.000	0.006	0.042
-683.281	-111.930	-0.395	0.080
-682.266	14.016	-0.127	-0.100
-681.251	30.455	-0.045	-0.039
-680.237	13.196	0.139	-0.109
-679.222	-150.395	-0.261	0.020
-678.208	-118.764	-0.252	-0.045
-677.193	46.448	-0.243	-0.227
-676.178	-200.000	-0.004	0.326
-675.164	-144.384	-0.212	0.020
-674.149	-115.128	0.296	0.056
-673.135	297.003	-0.052	-0.096
-672.120	78.250	-0.135	-0.145
-671.105	30.213	0.167	0.143
-670.091	-200.000	0.062	-0.303
-669.076	-200.000	0.008	0.242
-668.062	-85.554	0.240	-0.075
-667.047	-7.428	-0.217	-0.148
-666.032	-11.286	-0.009	0.006
-665.018	241.758	-0.053	-0.090
-664.003	-120.130	-0.203	0.035
-662.989	800.000	-0.067	-0.261
-661.974	108.880	0.190	-0.228
-660.959	126.988	0.271	-0.346
-659.945	99.459	-0.106	-0.123
-658.930	800.000	-0.019	-0.064
-657.916	-200.000	-0.002	-0.038
-656.901	-13.975	-0.339	-0.220
-655.886	-47.955	0.220	-0.107
-654.872	178.663	-0.148	0.218
-653.857	800.000	0.033	-0.130
-652.843	-39.786	-0.249	0.131
-651.828	183.884	0.056	-0.084
-650.814	-96.986	-0.156	-0.041
-649.799	71.806	-0.058	0.060
-648.784	800.000	-0.057	0.168
-647.770	-200.000	0.010	0.094
-646.755	79.974	-0.060	0.065
-645.741	-56.586	-0.360	0.160
-644.726	-200.000	-0.027	0.126
-643.711	-51.340	-0.120	-0.057
-642.697	19.822	-0.228	-0.185
-641.682	-12.343	0.066	0.043
-640.668	800.000	-0.077	0.305
-639.653	6.208	0.125	-0.093
-638.638	268.669	0.070	-0.123
-637.624	47.285	0.120	0.113
-636.609	34.778	-0.177	0.156
-635.595	329.842	-0.115	-0.223
-634.580	-200.000	-0.002	-0.084
-633.565	798.173	-0.115	0.317
-632.551	-200.000	-0.037	0.175
-631.536	-130.974	0.285	0.038
-630.522	34.101	-0.170	0.149
-629.507	79.179	0.211	0.227
-628.492	-77.335	-0.088	-0.031
-627.478	-200.000	-0.014	-0.082
-626.463	-126.268	-0.317	0.048
-625.449	138.865	-0.231	-0.305
-624.434	-71.989	-0.416	0.155
-623.419	124.691	-0.060	0.076
-622.405	-124.047	-0.278	-0.044
-621.390	62.015	-0.072	0.072
-620.376	207.676	-0.010	-0.015
-619.361	-58.211	0.029	-0.013
-618.346	-124.047	-0.157	-0.025
-617.332	-200.000	-0.035	-0.226
-616.317	800.000	0.093	-0.300
-615.303	-99.107	-0.314	-0.080
-614.288	-90.743	-0.025	0.007
-613.273	-137.741	-0.249	0.028
-612.259	-48.466	-0.178	0.086
-611.244	10.055	-0.319	0.243
-610.230	90.693	-0.181	-0.204
-609.215	-93.678	-0.344	-0.095
-608.201	274.938	0.049	-0.088
-607.186	-54.682	0.255	-0.116
-606.171	73.363	-0.260	0.273
-605.157	800.000	0.088	-0.309
-604.142	199.803	0.260	0.401
-603.128	-22.519	0.171	0.104
-602.113	800.000	-0.101	-0.349
-601.098	-106.382	0.244	-0.055
-600.084	-104.252	0.207	-0.048
-599.069	-30.403	-0.386	-0.220
-598.055	62.898	0.017	0.017
-597.040	-148.552	-0.111	-0.009
-596.025	19.572	-0.090	0.073
-595.011	-6.705	-0.137	-0.093
-593.996	-200.000	0.029	-0.272
-592.982	-200.000	-0.006	-0.353
-591.967	30.440	0.060	-0.051
-590.952	800.000	-0.051	-0.213
-589.938	-17.379	-0.443	0.280
-588.923	24.453	-0.113	0.093
-587.909	-93.837	0.152	0.042
-586.894	215.247	-0.141	0.225
-585.879	121.180	-0.114	0.142
-584.865	-200.000	0.056	-0.382
-583.850	0.194	-0.212	-0.152
-582.836	-91.008	-0.325	0.094
-581.821	800.000	-0.026	0.100
-580.806	800.000	0.045	0.185
-579.792	-200.000	-0.043	-0.259
-578.777	23.025	0.047	-0.039
-577.763	-21.206	0.230	-0.141
-576.748	-200.000	0.027	-0.211
-575.733	75.415	0.172	-0.182
-574.719	-10.598	-0.072	-0.047
-573.704	-200.000	0.021	-0.109
-572.690	418.754	-0.111	-0.237
-571.675	-108.541	0.178	-0.038
-570.661	-68.647	0.207	-0.080
-569.646	85.450	0.146	0.161
-568.631	-157.289	0.003	-0.000
-567.617	123.563	-0.097	0.122
-566.602	169.172	-0.176	0.251
-565.588	64.438	0.096	-0.097
-564.573	321.651	0.117	-0.223
-563.558	-61.684	0.166	0.070
-562.544	37.132	-0.195	-0.173
-561.529	694.017	-0.054	-0.142
-560.515	-69.788	-0.173	-0.066
-559.500	-92.485	0.390	-0.110
-558.485	203.236	0.052	0.080
-557.471	-74.025	-0.115	0.042
-556.456	313.149	-0.064	0.121
-555.442	543.119	0.139	-0.332
-554.427	10.944	-0.257	0.197
-553.412	-163.362	0.234	0.011
-552.398	-147.625	-0.199	0.017
-551.383	695.774	-0.047	-0.123
-550.369	267.203	0.143	0.251
-549.354	-200.000	-0.031	0.135
-548.339	-200.000	0.025	0.133
-547.325	800.000	-0.017	-0.067
-546.310	154.217	-0.218	-0.299
-545.296	-0.720	0.298	0.212
-544.281	37.401	-0.147	-0.131
-543.266	-80.259	-0.109	0.036
-542.252	261.204	0.097	0.168
-541.237	800.000	-0.086	0.352
-540.223	13.670	-0.117	-0.091
-539.208	-200.000	0.010	-0.386
-538.193	-138.970	0.387	0.042
-537.179	-200.000	-0.011	-0.089
-536.164	800.000	0.080	0.231
-535.150	1.318	0.154	-0.111
-534.135	-68.592	-0.175	-0.068
-533.121	35.160	-0.237	0.208
-532.106	-47.617	-0.055	0.027
-531.091	769.216	-0.038	-0.103
-530.077	645.031	-0.089	-0.229
-529.062	61.151	0.039	-0.038
-528.048	-200.000	0.019	0.141
-527.033	-103.033	-0.192	-0.046
-526.018	67.405	0.294	-0.300
-525.004	184.226	-0.061	-0.091
-523.989	800.000	-0.050	-0.160
-522.975	569.297	0.071	0.172
-521.960	-85.760	-0.427	0.133
-520.945	800.000	0.068	-0.201
-519.931	-200.000	0.014	0.091
-518.916	-68.860	0.138	-0.053
-517.902	-31.123	-0.086	0.049
-516.887	401.877	0.044	-0.093
-515.872	-44.063	0.214	0.108
-514.858	83.032	-0.169	-0.184
-513.843	178.710	-0.061	-0.089
-512.829	599.795	0.055	0.137
-511.814	-200.000	0.011	-0.235
-510.799	-153.363	0.061	0.004
-509.785	-46.101	-0.166	0.082
-508.770	25.253	0.266	-0.221
-507.756	40.242	0.131	-0.118
-506.741	-75.328	0.190	0.068
-505.726	707.534	-0.106	-0.281
-504.712	-72.591	-0.281	-0.104
-503.697	-107.883	-0.194	-0.042
-502.683	-200.000	0.022	-0.252
-501.668	-200.000	0.037	-0.199
-500.653	-75.282	0.286	0.102
-499.639	-84.762	0.185	-0.058
-498.624	624.993	-0.085	-0.214
-497.610	93.843	-0.181	-0.206
-496.595	800.000	-0.100	-0.362
-495.581	87.496	-0.108	0.120
-494.566	-76.191	-0.206	-0.073
-493.551	-72.742	0.180	0.066
-492.537	56.986	0.118	0.115
-491.522	800.000	0.072	-0.226
-490.508	-77.297	0.214	0.074
-489.493	-187.761	-0.124	0.002
-488.478	88.874	0.209	-0.232
-487.464	-200.000	0.032	0.445
-486.449	-200.000	0.070	-0.370
-485.435	-146.688	0.225	-0.019
-484.420	-16.813	-0.379	0.239
-483.405	509.317	-0.049	-0.114
-482.391	15.130	0.159	-0.124
-481.376	-68.389	-0.120	0.047
-480.362	-166.541	0.066	0.003
-479.347	210.924	0.077	-0.121
-478.332	51.639	0.055	-0.052
-477.318	800.000	-0.069	-0.199
-476.303	-149.834	0.196	0.015
-475.289	106.823	-0.066	-0.078
-474.274	800.000	0.058	-0.223
-473.259	-182.394	-0.241	-0.004
-472.245	91.542	-0.192	-0.216
-471.230	59.294	0.151	-0.148
-470.216	121.627	0.153	0.190
-469.201	-2.389	0.167	0.117
-468.186	706.676	-0.074	0.196
-467.172	691.199	-0.060	0.156
-466.157	800.000	-0.082	0.274
-465.143	1.684	-0.306	0.220
-464.128	157.030	0.216	-0.298
-463.113	4.078	-0.125	-0.092
-462.099	-60.520	-0.407	-0.173
-461.084	108.102	0.091	-0.109
-460.070	-107.533	0.158	-0.035
-459.055	30.890	0.181	0.155
-458.040	-145.806	0.213	-0.019
-457.026	48.868	0.299	0.280
-456.011	-200.000	-0.015	-0.182
-454.997	102.396	-0.079	-0.092
-453.982	-6.812	-0.246	-0.167
-452.968	-200.000	0.065	-0.390
-451.953	52.835	-0.086	0.082
-450.938	-68.794	-0.252	-0.097
-449.924	-200.000	0.012	-0.143
-448.909	121.937	0.107	0.133
-447.895	-95.825	-0.226	0.060
-446.880	255.459	0.127	0.217
-445.865	-134.766	-0.696	0.084
-444.851	-0.156	-0.099	-0.070
-443.836	-122.622	-0.429	0.069
-442.822	800.000	-0.076	-0.305
-441.807	392.521	0.065	-0.135
-440.792	9.499	0.163	-0.123
-439.778	-59.085	-0.278	0.119
-438.763	-138.549	-0.077	-0.008
-437.749	-133.267	-0.181	0.023
-436.734	-200.000	-0.021	-0.196
-435.719	599.390	0.079	-0.194
-434.705	198.016	0.165	-0.252
-433.690	-200.000	-0.063	-0.351
-432.676	-9.899	-0.296	0.196
-431.661	-18.171	0.145	0.091
-430.646	37.941	0.318	-0.282
-429.632	-200.000	0.001	-0.074
-428.617	-99.088	0.268	0.068
-427.603	-169.452	-0.153	0.006
-426.588	-6.469	-0.107	-0.073
-425.573	-200.000	0.037	0.228
-424.559	-133.124	-0.136	0.017
-423.544	428.157	0.143	0.309
-422.530	-98.041	0.425	-0.109
-421.515	-24.411	-0.182	-0.108
-420.500	-200.000	0.011	-0.193
-419.486	82.781	0.065	-0.070
-418.471	86.638	-0.074	-0.082
-417.457	-115.506	-0.094	-0.018
-416.442	800.000	0.074	-0.271
-415.428	231.783	0.021	-0.034
-414.413	142.766	-0.119	0.158
-413.398	800.000	0.097	0.271
-412.384	431.716	-0.152	0.329
-411.369	198.111	-0.164	0.250
-410.355	554.633	-0.082	0.196
-409.340	-4.441	-0.121	0.083
-408.325	-24.080	-0.236	-0.140
-407.311	15.078	-0.073	-0.057
-406.296	-47.526	0.411	0.199
-405.282	126.091	-0.091	-0.115
-404.267	-200.000	0.043	-0.305
-403.252	-112.227	0.147	-0.029
-402.238	-41.058	-0.208	0.107
-401.223	-200.000	-0.015	0.131
-400.209	-200.000	-0.010	-0.543
-399.194	116.927	-0.032	0.040
-398.179	-30.394	-0.058	0.033
-397.165	355.558	0.053	-0.105
-396.150	342.853	-0.271	-0.529
-395.136	800.000	-0.083	0.276
-394.121	-200.000	0.035	-0.181
-393.106	800.000	0.054	0.222
-392.092	128.835	0.218	0.276
-391.077	-38.922	0.109	-0.057
-390.063	-200.000	0.041	0.446
-389.048	759.578	0.106	0.286
-388.033	-19.804	0.173	0.106
-387.019	-120.897	0.103	-0.017
-386.004	508.593	-0.032	0.073
-384.990	-200.000	0.049	-0.244
-383.975	329.376	0.149	0.285
-382.960	-200.000	-0.002	-0.016
-381.946	429.931	0.064	-0.137
-380.931	340.325	-0.180	0.349
-379.917	56.015	-0.052	-0.051
-378.902	21.227	0.142	-0.115
-377.888	-25.093	-0.079	-0.047
-376.873	-200.000	0.014	0.241
-375.858	-200.000	0.015	0.222
-374.844	12.107	-0.096	0.074
-373.829	46.390	0.145	-0.134
-372.815	-5.621	-0.191	-0.130
-371.800	-200.000	-0.011	-0.160
-370.785	10.593	-0.232	-0.176
-369.771	-62.662	0.207	-0.086
-368.756	800.000	-0.102	0.368
-367.742	-200.000	-0.058	0.263
-366.727	800.000	0.034	-0.114
-365.712	-9.923	-0.281	-0.186
-364.698	-200.000	-0.001	0.059
-363.683	176.660	0.044	-0.064
-362.669	-115.606	-0.117	0.022
-361.654	85.825	-0.212	-0.232
-360.639	800.000	0.100	0.296
-359.625	-200.000	-0.052	0.267
-358.610	-104.905	0.288	0.066
-357.596	-122.022	0.256	-0.042
-356.581	292.718	0.043	-0.078
-355.566	800.000	-0.016	-0.062
-354.552	251.796	0.075	0.128
-353.537	23.121	0.196	0.160
-352.523	56.317	0.172	-0.166
-351.508	-36.041	0.317	0.170
-350.493	78.331	0.235	-0.250
-349.479	628.172	0.148	-0.371
-348.464	-114.175	0.310	0.060
-347.450	-143.148	0.133	-0.013
-346.435	800.000	-0.069	-0.207
-345.420	590.711	-0.110	-0.270
-344.406	-200.000	0.009	-0.223
-343.391	-68.155	-0.029	0.011
-342.377	-140.431	-0.200	-0.021
-341.362	162.849	0.181	0.253
-340.348	-21.956	0.414	-0.250
-339.333	-69.103	-0.088	0.034
-338.318	-8.378	-0.082	-0.055
-337.304	-200.000	0.009	0.262
-336.289	-134.016	0.245	0.030
-335.275	800.000	0.049	-0.197
-334.260	146.268	-0.221	-0.294
-333.245	-117.439	0.162	-0.029
-332.231	-33.643	0.114	0.063
-331.216	93.625	0.041	-0.046
-330.202	346.474	-0.062	0.121
-329.187	-23.923	0.070	0.042
-328.172	-96.529	-0.104	-0.027
-327.158	-85.730	0.253	0.078
-326.143	800.000	-0.114	-0.448
-325.129	-56.638	-0.388	-0.171
-324.114	8.773	0.277	0.207
-323.099	-107.712	-0.258	0.056
-322.085	15.675	0.042	-0.033
-321.070	-18.592	0.197	0.122
-320.056	166.005	0.105	0.147
-319.041	748.231	-0.080	0.214
-318.026	-6.906	0.077	-0.052
-317.012	-200.000	-0.025	0.479
-315.997	-46.796	-0.140	-0.068
-314.983	73.086	0.214	0.222
-313.968	-8.028	-0.292	0.196
-312.953	-200.000	0.022	0.377
-311.939	358.775	-0.074	-0.146
-310.924	-200.000	-0.003	-0.271
-309.910	-96.775	0.140	0.037
-308.895	-200.000	0.025	0.255
-307.880	93.184	-0.207	0.233
-306.866	-95.909	0.404	-0.107
-305.851	183.893	0.056	-0.082
-304.837	800.000	-0.154	0.427
-303.822	177.601	0.205	0.297
-302.807	-25.001	-0.152	0.090
-301.793	-32.318	-0.352	0.195
-300.778	-118.714	-0.136	0.024
-299.764	213.333	-0.207	-0.325
-298.749	496.798	0.044	-0.100
-297.735	5.022	0.147	0.107
-296.720	-95.673	-0.540	0.143
-295.705	21.887	-0.020	0.017
-294.691	205.379	0.093	-0.143
-293.676	56.969	0.153	-0.148
-292.662	73.929	0.034	-0.036
-291.647	-200.000	0.005	0.200
-290.632	-3.084	0.096	-0.066
-289.618	605.309	0.027	0.067
-288.603	-11.784	-0.154	0.100
-287.589	-200.000	-0.004	-0.037
-286.574	-200.000	0.040	0.254
-285.559	-46.058	0.239	0.117
-284.545	49.712	0.200	-0.186
-283.530	-138.730	-0.106	0.011
-282.516	111.872	0.212	0.254
-281.501	517.756	-0.078	0.181
-280.486	282.522	0.081	0.143
-279.472	800.000	0.038	0.117
-278.457	168.782	-0.096	0.136
-277.443	-119.819	-0.325	0.056
-276.428	800.000	0.114	0.332
-275.413	-128.730	-0.278	0.039
-274.399	-200.000	-0.001	-0.311
-273.384	87.853	-0.238	-0.261
-272.370	-200.000	0.016	-0.165
-271.355	303.645	-0.078	0.144
-270.340	-200.000	0.045	0.260
-269.326	194.846	-0.041	-0.062
-268.311	-139.529	0.331	-0.035
-267.297	800.000	0.029	0.089
-266.282	75.052	-0.181	0.189
-265.267	169.169	0.105	-0.148
-264.253	-164.196	0.500	0.023
-263.238	14.499	0.201	0.155
-262.224	-200.000	-0.035	0.173
-261.209	3.579	0.095	-0.069
-260.195	121.490	-0.064	0.079
-259.180	-20.328	-0.120	0.073
-258.165	14.867	-0.079	0.061
-257.151	82.619	0.242	-0.260
-256.136	63.568	0.288	-0.286
-255.122	623.436	-0.013	-0.033
-254.107	182.770	0.066	0.096
-253.092	420.589	0.155	0.329
-252.078	-38.817	-0.148	-0.077
-251.063	158.857	0.226	0.310
-250.049	15.007	0.024	-0.018
-249.034	151.284	0.060	-0.081
-248.019	-58.769	-0.299	-0.128
-247.005	306.624	0.199	0.367
-245.990	800.000	-0.124	-0.378
-244.976	35.849	0.164	0.143
-243.961	800.000	-0.167	0.461
-242.946	279.986	0.221	0.390
-241.932	800.000	0.025	0.092
-240.917	-121.002	-0.297	-0.049
-239.903	520.370	-0.181	0.420
-238.888	-200.000	0.000	0.205
-237.873	-200.000	0.072	0.427
-236.859	44.412	0.089	0.080
-235.844	-94.834	0.081	0.022
-234.830	800.000	0.053	-0.205
-233.815	-200.000	0.017	0.085
-232.800	-65.997	0.245	-0.097
-231.786	-113.022	-0.182	0.036
-230.771	-200.000	-0.024	-0.129
-229.757	-41.536	0.204	0.104
-228.742	-93.880	0.211	0.057
-227.727	-1.824	0.040	-0.028
-226.713	800.000	-0.045	0.168
-225.698	259.301	-0.152	-0.260
-224.684	104.847	0.147	-0.171
-223.669	363.855	0.163	0.324
-222.655	-109.545	0.260	0.054
-221.640	94.805	0.070	-0.079
-220.625	800.000	-0.036	-0.129
-219.611	-200.000	0.004	0.117
-218.596	-171.054	0.360	0.012
-217.582	39.767	0.377	0.335
-216.567	-200.000	-0.007	-0.081
-215.552	-29.840	0.316	0.178
-214.538	177.225	-0.176	0.253
-213.523	-174.817	0.277	-0.008
-212.509	-200.000	0.002	0.223
-211.494	-109.501	0.235	0.049
-210.479	800.000	-0.069	0.267
-209.465	452.141	-0.101	0.221
-208.450	70.513	-0.165	0.168
-207.436	109.896	-0.116	-0.137
-206.421	76.966	-0.085	0.090
-205.406	15.583	-0.415	-0.322
-204.392	-12.127	0.296	-0.191
-203.377	100.272	-0.055	0.063
-202.363	-21.836	-0.284	0.171
-201.348	411.728	0.090	-0.189
-200.333	-200.000	-0.002	-0.245
-199.319	-63.444	0.315	0.128
-198.304	311.859	0.092	-0.170
-197.290	222.313	-0.112	0.178
-196.275	50.364	0.203	0.189
-195.260	-47.717	0.262	0.125
-194.246	-99.179	0.164	0.041
-193.231	-200.000	0.007	-0.135
-192.217	-78.070	-0.222	-0.076
-191.202	-91.953	0.228	0.064
-190.187	377.597	0.058	-0.118
-189.173	207.457	0.057	-0.088
-188.158	-182.667	0.301	-0.005
-187.144	800.000	-0.037	-0.156
-186.129	-55.129	0.425	-0.189
-185.114	-83.762	-0.182	0.057
-184.100	-178.385	-0.177	-0.004
-183.085	-199.986	-0.123	-0.001
-182.071	115.474	-0.228	-0.275
-181.056	53.560	-0.102	-0.096
-180.042	1.261	-0.061	-0.043
-179.027	59.988	-0.109	-0.107
-178.012	39.088	-0.030	0.026
-176.998	-37.110	-0.119	0.063
-175.983	-87.758	0.211	-0.063
-174.969	-27.800	-0.245	0.140
-173.954	-100.471	0.289	-0.071
-172.939	800.000	0.046	-0.177
-171.925	-200.000	-0.040	0.374
-170.910	-22.135	0.223	0.133
-169.896	-148.005	-0.220	0.018
-168.881	179.938	0.127	-0.184
-167.866	-146.560	-0.188	0.016
-166.852	-112.404	-0.163	0.032
-165.837	-200.000	0.025	0.230
-164.823	34.957	0.118	-0.102
-163.808	-200.000	0.216	0.000
-162.793	-146.731	0.217	-0.019
-161.779	-17.690	0.279	-0.173
-160.764	64.889	0.031	0.031
-159.750	-50.231	-0.118	-0.055
-158.735	-83.021	-0.384	-0.122
-157.720	-121.596	-0.138	-0.023
-156.706	-125.331	0.352	0.053
-155.691	136.661	-0.085	0.109
-154.677	-200.000	0.066	-0.371
-153.662	34.328	0.016	0.014
-152.647	93.856	0.081	0.090
-151.633	127.033	0.185	-0.231
-150.618	800.000	-0.027	-0.095
-149.604	82.029	-0.133	0.142
-148.589	-200.000	-0.044	0.441
-147.574	-78.036	0.261	-0.089
-146.560	-200.000	0.036	0.230
-145.545	-48.012	-0.070	0.033
-144.531	53.115	0.124	-0.117
-143.516	101.116	-0.302	0.346
-142.502	-60.783	0.061	0.025
-141.487	308.822	0.140	-0.258
-140.472	800.000	0.055	0.165
-139.458	-79.249	-0.023	-0.008
-138.443	90.223	-0.073	0.081
-137.429	-200.000	-0.045	0.211
-136.414	-200.000	0.064	0.302
-135.399	-39.848	0.141	0.072
-134.385	-100.663	0.242	-0.059
-133.370	-49.202	0.235	-0.111
-132.356	-167.959	-0.322	0.012
-131.341	239.703	0.141	0.231
-130.326	14.681	-0.090	0.070
-129.312	775.730	0.015	-0.041
-128.297	18.240	-0.114	0.090
-127.283	-110.930	-0.334	0.068
-126.268	-102.053	0.683	-0.162
-125.253	-161.809	-0.082	0.004
-124.239	800.000	-0.030	0.102
-123.224	-200.000	-0.018	0.170
-122.210	-78.151	-0.104	0.035
-121.195	-163.035	0.176	-0.008
-120.180	-122.966	-0.154	-0.024
