DTS Sentinel unit serial number:	SN413079Multiplexer serial number:	ORYXHardware model number:	OX4-SRSoftware version number:	ORYX F/W v4.00 Oryx Data Collector v3.7.2.0data status	okinstallation	princeton_trtdifferential loss correction	single-endedforward channel	channel 2reverse channel	N/Adate	2019/09/11time	09:05:11forward acquisition time	60.00reverse acquisition time	0.00gamma	496.2192k internal	0.2318k external	0.2318temperature offset calibration	0.9972default loss term (dB/km)	0.3790temperature slope calibration	1.0000multiplexer offset coefficient	1.0000multiplexer slope coefficient	1.0000fibre end	0.00T internal ref (°C)	34.19T ext. ref 1 (°C)	0.10T ext. ref 2 (°C)	30.31length (m)	temperature (°C)	Stokes	anti-Stokes-747.200	34.840	0.107	0.094
-746.185	-44.146	0.063	-0.032
-745.171	86.319	0.035	-0.039
-744.156	619.698	-0.120	-0.304
-743.142	169.135	0.113	0.163
-742.127	-109.651	-0.100	-0.021
-741.112	-132.346	0.188	0.025
-740.098	417.428	-0.076	-0.164
-739.083	-22.930	-0.017	0.010
-738.069	-71.835	-0.043	0.016
-737.054	100.766	-0.142	0.167
-736.039	83.345	-0.286	0.316
-735.025	-200.000	0.021	0.373
-734.010	-63.262	-0.225	-0.094
-732.996	-58.617	-0.141	-0.062
-731.981	-151.789	-0.181	0.013
-730.966	107.198	0.065	0.078
-729.952	-55.786	-0.114	-0.052
-728.937	72.668	-0.144	0.152
-727.923	75.173	-0.126	0.134
-726.908	-51.791	-0.040	0.019
-725.894	-200.000	-0.030	-0.194
-724.879	-52.417	-0.296	-0.138
-723.864	-10.109	-0.203	0.136
-722.850	108.540	-0.254	-0.307
-721.835	-200.000	0.000	-0.187
-720.821	61.210	0.159	-0.159
-719.806	-56.208	-0.315	0.142
-718.791	-12.464	0.155	-0.102
-717.777	79.984	-0.276	-0.300
-716.762	171.245	-0.083	-0.120
-715.748	-58.867	-0.177	-0.077
-714.733	32.976	0.249	0.218
-713.718	30.668	0.390	-0.337
-712.704	215.181	0.078	0.125
-711.689	44.295	-0.173	-0.160
-710.675	-200.000	-0.033	-0.259
-709.660	161.086	0.177	-0.251
-708.645	-200.000	-0.078	-0.434
-707.631	-13.784	0.209	0.137
-706.616	141.497	0.236	0.316
-705.602	77.471	0.184	-0.198
-704.587	-58.105	-0.297	-0.131
-703.572	-14.116	-0.246	-0.160
-702.558	245.697	0.145	-0.247
-701.543	-200.000	-0.054	0.332
-700.529	-5.716	0.181	-0.126
-699.514	-36.783	-0.599	-0.325
-698.499	-52.282	0.078	-0.037
-697.485	-49.608	0.041	0.020
-696.470	-190.664	0.281	0.003
-695.456	88.633	-0.396	-0.445
-694.441	-144.664	0.302	-0.028
-693.426	-92.050	0.152	-0.043
-692.412	-200.000	-0.007	-0.173
-691.397	102.022	-0.171	0.201
-690.383	-183.936	-0.275	-0.005
-689.368	800.000	0.088	-0.266
-688.354	800.000	0.089	0.269
-687.339	-125.002	0.166	-0.026
-686.324	800.000	0.076	-0.291
-685.310	-200.000	-0.199	0.000
-684.295	-200.000	-0.021	0.191
-683.281	7.887	0.069	-0.052
-682.266	-200.000	-0.001	0.055
-681.251	81.022	-0.021	0.022
-680.237	-168.907	-0.338	0.013
-679.222	-18.682	0.144	0.091
-678.208	434.445	-0.069	-0.152
-677.193	290.482	0.100	-0.183
-676.178	99.276	-0.220	-0.257
-675.164	296.091	-0.073	0.135
-674.149	-95.253	-0.236	-0.064
-673.135	800.000	0.121	-0.391
-672.120	35.480	0.068	0.060
-671.105	-98.703	-0.067	-0.017
-670.091	-91.606	-0.109	-0.031
-669.076	-200.000	-0.053	-0.256
-668.062	-200.000	-0.023	-0.387
-667.047	-63.555	0.070	-0.029
-666.032	295.290	-0.104	0.192
-665.018	-200.000	0.200	-0.000
-664.003	-25.013	0.092	0.055
-662.989	403.280	-0.013	-0.028
-661.974	-200.000	-0.050	-0.000
-660.959	-79.895	-0.261	0.089
-659.945	420.330	-0.119	-0.258
-658.930	0.365	0.027	0.020
-657.916	75.160	-0.175	-0.187
-656.901	-54.719	-0.337	-0.154
-655.886	-108.400	-0.079	-0.017
-654.872	-200.000	0.006	-0.333
-653.857	-60.322	-0.370	0.159
-652.843	-24.469	-0.231	-0.139
-651.828	52.862	0.063	0.061
-650.814	200.754	0.223	-0.346
-649.799	200.951	0.243	-0.378
-648.784	760.445	-0.029	-0.078
-647.770	181.648	-0.126	-0.187
-646.755	-90.427	-0.301	-0.088
-645.741	61.283	0.144	-0.144
-644.726	-89.526	0.090	-0.027
-643.711	-200.000	-0.058	-0.288
-642.697	800.000	0.112	-0.345
-641.682	5.079	0.063	0.047
-640.668	275.873	0.122	0.219
-639.653	-22.740	0.340	-0.207
-638.638	15.642	0.193	0.153
-637.624	-12.681	-0.171	0.113
-636.609	153.258	-0.144	0.198
-635.595	-22.155	0.274	0.168
-634.580	-79.138	-0.194	0.066
-633.565	-140.910	0.230	-0.024
-632.551	308.773	0.160	0.301
-631.536	-145.612	0.326	0.029
-630.522	84.688	-0.094	0.104
-629.507	23.524	-0.194	0.160
-628.492	9.763	0.167	0.128
-627.478	-47.039	-0.140	-0.069
-626.463	-158.607	-0.392	-0.023
-625.449	421.449	-0.066	-0.143
-624.434	-71.505	-0.246	0.093
-623.419	-106.133	0.106	0.024
-622.405	-34.989	0.142	-0.078
-621.390	97.240	0.115	-0.133
-620.376	43.508	0.109	0.101
-619.361	-157.698	0.177	0.011
-618.346	800.000	-0.117	0.357
-617.332	-200.000	0.014	-0.254
-616.317	800.000	-0.095	0.314
-615.303	-200.000	0.005	0.405
-614.288	-9.755	0.103	-0.069
-613.273	3.531	0.246	-0.180
-612.259	-200.000	0.005	-0.541
-611.244	-200.000	-0.015	-0.140
-610.230	189.457	-0.178	0.268
-609.215	-101.265	-0.190	0.047
-608.201	-71.689	0.444	-0.167
-607.186	140.275	0.280	-0.373
-606.171	58.144	0.324	-0.319
-605.157	-87.480	0.066	-0.020
-604.142	134.339	-0.102	-0.133
-603.128	6.046	-0.126	-0.094
-602.113	109.819	0.245	-0.296
-601.098	-74.110	-0.165	-0.060
-600.084	-81.517	-0.377	0.125
-599.069	-13.594	0.176	-0.115
-598.055	129.326	0.135	-0.173
-597.040	-70.469	-0.174	-0.066
-596.025	-200.000	0.004	-0.019
-595.011	-161.376	0.440	0.023
-593.996	101.329	-0.030	0.035
-592.982	-84.766	0.064	-0.020
-591.967	800.000	-0.098	-0.350
-590.952	800.000	0.055	-0.209
-589.938	-200.000	0.009	0.059
-588.923	118.771	0.043	0.053
-587.909	-200.000	0.015	0.090
-586.894	-200.000	0.023	0.168
-585.879	-200.000	0.060	0.406
-584.865	800.000	-0.082	0.246
-583.850	21.123	0.135	-0.110
-582.836	300.223	-0.091	0.170
-581.821	-117.228	-0.549	-0.100
-580.806	-64.981	0.045	-0.018
-579.792	61.244	-0.116	0.116
-578.777	-200.000	0.016	0.086
-577.763	512.102	0.014	0.034
-576.748	-170.985	-0.080	0.003
-575.733	800.000	-0.012	0.049
-574.719	-180.274	-0.334	0.007
-573.704	2.139	0.146	0.106
-572.690	800.000	-0.127	-0.468
-571.675	502.784	-0.020	0.046
-570.661	-50.137	-0.391	-0.186
-569.646	9.646	0.135	0.103
-568.631	-112.144	0.139	0.028
-567.617	-2.191	-0.141	0.100
-566.602	-113.715	-0.338	-0.066
-565.588	168.089	-0.025	0.036
-564.573	71.796	0.240	-0.251
-563.558	60.685	0.094	-0.094
-562.544	21.419	-0.350	0.286
-561.529	140.238	-0.067	-0.088
-560.515	81.703	0.064	0.070
-559.500	296.903	0.069	-0.127
-558.485	3.356	-0.201	0.147
-557.471	-118.038	-0.057	0.010
-556.456	800.000	-0.064	-0.225
-555.442	-144.338	-0.275	-0.026
-554.427	-141.585	-0.226	-0.023
-553.412	-52.006	-0.017	-0.008
-552.398	16.174	-0.214	0.170
-551.383	20.178	-0.300	0.243
-550.369	-182.834	0.159	0.003
-549.354	59.956	0.255	0.253
-548.339	173.588	-0.263	0.382
-547.325	-71.512	-0.189	-0.071
-546.310	-146.700	-0.161	-0.014
-545.296	-75.389	-0.144	0.052
-544.281	-200.000	0.031	-0.190
-543.266	61.611	0.027	0.027
-542.252	56.431	0.215	0.210
-541.237	128.510	-0.126	0.161
-540.223	460.104	-0.049	0.110
-539.208	100.793	-0.149	0.174
-538.193	-111.271	-0.290	0.060
-537.179	-76.060	-0.253	0.090
-536.164	327.483	-0.099	0.190
-535.150	-135.906	0.014	-0.002
-534.135	-88.747	-0.051	-0.015
-533.121	-200.000	-0.001	0.047
-532.106	52.078	0.174	-0.167
-531.091	103.144	0.127	-0.149
-530.077	234.339	-0.027	0.045
-529.062	-122.544	-0.270	-0.044
-528.048	31.764	0.125	-0.108
-527.033	-170.103	-0.182	0.006
-526.018	361.441	0.176	0.354
-525.004	800.000	0.073	0.228
-523.989	-140.744	-0.361	0.037
-522.975	-47.375	0.216	-0.105
-521.960	47.337	0.205	-0.192
-520.945	800.000	0.019	-0.076
-519.931	800.000	0.084	-0.274
-518.916	37.715	-0.402	0.358
-517.902	113.128	0.094	-0.115
-516.887	115.862	0.026	-0.032
-515.872	-200.000	0.028	0.128
-514.858	135.174	-0.062	0.081
-513.843	673.615	0.082	-0.213
-512.829	144.327	0.233	-0.311
-511.814	-27.145	-0.207	-0.121
-510.799	112.048	0.203	-0.246
-509.785	-200.000	-0.047	-0.327
-508.770	-10.187	-0.096	-0.064
-507.756	472.882	-0.035	0.078
-506.741	634.039	0.038	-0.096
-505.726	800.000	-0.036	-0.142
-504.712	135.773	-0.117	-0.152
-503.697	-200.000	-0.011	0.078
-502.683	-51.258	-0.191	-0.090
-501.668	-122.887	-0.154	-0.025
-500.653	-200.000	0.009	-0.059
-499.639	-200.000	0.003	0.035
-498.624	-164.183	-0.243	0.011
-497.610	800.000	-0.040	0.157
-496.595	-200.000	-0.004	-0.204
-495.581	-75.034	0.344	0.124
-494.566	108.492	-0.100	-0.119
-493.551	45.089	0.177	0.164
-492.537	-109.171	0.345	0.074
-491.522	340.032	-0.174	0.339
-490.508	-200.000	-0.020	0.107
-489.493	183.543	0.064	0.095
-488.478	-200.000	0.098	-0.499
-487.464	-28.924	0.193	0.111
-486.449	4.916	0.186	0.137
-485.435	-43.248	-0.234	-0.119
-484.420	215.340	0.111	0.176
-483.405	-19.004	-0.249	-0.155
-482.391	-16.239	-0.206	-0.131
-481.376	-88.981	-0.157	0.047
-480.362	-0.775	-0.269	0.191
-479.347	-83.347	0.225	0.072
-478.332	158.554	-0.074	0.103
-477.318	178.266	0.121	-0.177
-476.303	-143.994	0.166	-0.016
-475.289	-86.139	-0.107	-0.033
-474.274	-180.805	0.192	-0.004
-473.259	225.091	-0.194	-0.314
-472.245	268.829	-0.165	-0.289
-471.230	76.944	0.138	-0.147
-470.216	41.777	-0.162	-0.147
-469.201	234.519	0.080	-0.132
-468.186	-200.000	-0.039	0.246
-467.172	782.687	0.035	-0.097
-466.157	800.000	0.027	-0.089
-465.143	197.914	0.200	0.306
-464.128	800.000	0.027	0.105
-463.113	233.700	0.231	0.380
-462.099	-11.058	0.150	0.099
-461.084	800.000	-0.029	0.086
-460.070	201.524	-0.049	-0.076
-459.055	-111.747	-0.113	-0.023
-458.040	-147.817	-0.171	-0.014
-457.026	-119.491	-0.346	0.060
-456.011	-169.218	-0.134	-0.005
-454.997	-106.978	0.102	-0.022
-453.982	202.537	-0.203	0.314
-452.968	-88.090	-0.072	0.022
-451.953	-200.000	-0.036	0.300
-450.938	800.000	0.100	-0.412
-449.924	-200.000	0.047	-0.476
-448.909	6.498	-0.292	-0.217
-447.895	-35.044	-0.150	0.082
-446.880	-60.103	0.189	0.080
-445.865	-200.000	-0.019	0.298
-444.851	-96.152	0.232	-0.062
-443.836	800.000	-0.084	0.266
-442.822	18.108	-0.169	0.135
-441.807	800.000	-0.108	0.317
-440.792	-22.918	0.315	0.190
-439.778	-74.317	-0.409	0.148
-438.763	-97.369	-0.249	0.065
-437.749	253.443	-0.069	-0.118
-436.734	-158.597	-0.328	0.019
-435.719	-200.000	-0.072	-0.341
-434.705	243.026	-0.169	-0.283
-433.690	3.980	-0.257	-0.188
-432.676	10.672	0.226	-0.173
-431.661	-27.659	0.221	-0.128
-430.646	-64.452	-0.433	-0.176
-429.632	-25.462	-0.429	0.254
-428.617	-101.115	-0.462	-0.113
-427.603	-200.000	0.001	-0.271
-426.588	-200.000	-0.012	-0.153
-425.573	23.378	0.025	-0.021
-424.559	-135.085	0.169	0.020
-423.544	-42.640	-0.213	-0.109
-422.530	-111.315	-0.122	0.025
-421.515	14.485	0.132	0.103
-420.500	-106.882	-0.236	0.052
-419.486	4.121	0.218	-0.159
-418.471	86.068	0.206	0.226
-417.457	-200.000	0.015	-0.284
-416.442	82.842	0.287	-0.311
-415.428	-58.528	-0.094	0.041
-414.413	281.304	-0.093	-0.167
-413.398	-113.878	0.263	0.051
-412.384	-134.662	-0.177	0.022
-411.369	265.910	0.078	-0.137
-410.355	-200.000	0.022	0.202
-409.340	46.501	-0.213	-0.198
-408.325	-124.092	-0.206	0.032
-407.311	-1.108	0.235	-0.166
-406.296	-28.480	-0.351	-0.202
-405.282	69.066	0.333	0.342
-404.267	209.638	0.243	0.380
-403.252	87.534	0.042	0.046
-402.238	-160.453	0.342	0.018
-401.223	-200.000	-0.007	0.182
-400.209	-200.000	-0.234	0.000
-399.194	-96.337	0.187	-0.049
-398.179	-200.000	-0.085	0.492
-397.165	800.000	-0.119	0.327
-396.150	14.840	-0.218	0.170
-395.136	-74.872	0.356	0.128
-394.121	-98.993	0.212	-0.054
-393.106	-75.469	0.331	-0.118
-392.092	30.179	0.166	0.141
-391.077	28.880	-0.046	-0.039
-390.063	54.369	0.089	-0.085
-389.048	160.148	0.211	0.294
-388.033	-200.000	0.007	-0.143
-387.019	77.410	0.143	-0.151
-386.004	4.246	-0.084	-0.062
-384.990	-32.792	0.309	0.171
-383.975	364.913	-0.041	0.083
-382.960	-200.000	0.011	0.287
-381.946	498.937	0.094	0.215
-380.931	-200.000	-0.173	-0.001
-379.917	-107.107	-0.246	-0.054
-378.902	-0.776	0.445	-0.315
-377.888	240.651	0.166	-0.276
-376.873	55.778	0.197	-0.190
-375.858	169.812	0.175	0.249
-374.844	346.456	-0.136	-0.267
-373.829	-62.956	-0.046	0.019
-372.815	236.987	-0.089	-0.147
-371.800	800.000	-0.055	-0.192
-370.785	481.828	-0.056	-0.126
-369.771	800.000	-0.040	-0.116
-368.756	86.988	-0.195	-0.215
-367.742	-78.476	0.142	0.048
-366.727	-29.824	0.190	-0.108
-365.712	98.511	-0.051	0.058
-364.698	800.000	0.023	-0.064
-363.683	800.000	-0.026	0.082
-362.669	-200.000	-0.016	0.193
-361.654	-16.842	-0.248	0.156
-360.639	230.929	-0.207	-0.338
-359.625	-176.115	0.127	-0.003
-358.610	230.062	0.123	-0.201
-357.596	-26.440	-0.450	-0.263
-356.581	49.262	0.225	0.211
-355.566	800.000	-0.013	0.049
-354.552	-200.000	0.029	-0.250
-353.537	242.562	-0.148	-0.248
-352.523	-200.000	0.012	0.099
-351.508	248.717	0.038	0.065
-350.493	188.476	-0.137	-0.204
-349.479	387.499	-0.045	0.094
-348.464	668.118	-0.051	0.131
-347.450	253.622	0.056	-0.096
-346.435	-200.000	0.003	-0.049
-345.420	-200.000	-0.002	0.138
-344.406	-200.000	0.040	0.211
-343.391	252.303	0.105	-0.178
-342.377	-200.000	0.023	-0.148
-341.362	269.027	0.258	-0.451
-340.348	177.493	-0.160	0.232
-339.333	285.350	-0.116	0.209
-338.318	-140.415	-0.453	-0.047
-337.304	-67.879	0.264	0.103
-336.289	-200.000	-0.022	0.100
-335.275	800.000	0.069	0.201
-334.260	11.873	0.217	-0.166
-333.245	-110.438	-0.221	-0.046
-332.231	-117.088	0.482	-0.087
-331.216	-44.173	0.144	-0.072
-330.202	-200.000	0.056	-0.281
-329.187	-54.017	-0.056	-0.025
-328.172	-159.349	-0.437	-0.024
-327.158	-112.836	0.176	-0.035
-326.143	-56.459	0.161	0.071
-325.129	-58.969	-0.288	-0.124
-324.114	-200.000	0.025	0.381
-323.099	-2.605	0.250	0.174
-322.085	587.938	0.196	-0.480
-321.070	233.237	-0.021	-0.034
-320.056	279.156	-0.249	0.442
-319.041	-136.785	0.496	0.057
-318.026	-200.000	0.002	0.186
-317.012	324.736	-0.152	0.289
-315.997	-200.000	-0.035	0.257
-314.983	-137.930	0.166	0.018
-313.968	159.045	-0.227	-0.315
-312.953	-105.617	-0.406	-0.091
-311.939	-138.907	-0.069	0.008
-310.924	-10.081	-0.169	0.112
-309.910	-104.142	0.221	-0.051
-308.895	386.899	0.215	-0.443
-307.880	800.000	-0.010	-0.027
-306.866	125.966	0.101	0.127
-305.851	306.883	-0.165	-0.306
-304.837	-200.000	-0.074	-0.337
-303.822	-44.073	-0.218	0.109
-302.807	-200.000	-0.086	0.587
-301.793	-200.000	-0.011	-0.203
-300.778	-3.603	-0.159	0.110
-299.764	800.000	-0.112	0.311
-298.749	-118.761	0.139	-0.024
-297.735	-200.000	0.008	0.094
-296.720	8.901	0.102	0.077
-295.705	-200.000	-0.002	-0.030
-294.691	-75.751	-0.428	0.151
-293.676	61.744	-0.152	-0.150
-292.662	0.993	-0.126	0.090
-291.647	-22.983	-0.375	-0.225
-290.632	-127.815	0.269	-0.039
-289.618	-62.215	-0.266	-0.110
-288.603	800.000	0.043	-0.160
-287.589	-107.883	-0.227	0.049
-286.574	-200.000	-0.025	0.194
-285.559	51.171	0.081	0.077
-284.545	-200.000	-0.006	0.316
-283.530	800.000	0.071	0.232
-282.516	800.000	0.062	0.176
-281.501	-138.131	0.365	-0.040
-280.486	-146.415	-0.078	0.007
-279.472	-81.532	0.151	-0.049
-278.457	286.008	-0.192	0.345
-277.443	7.982	0.153	0.114
-276.428	-32.163	0.193	-0.107
-275.413	644.887	-0.092	0.233
-274.399	55.974	0.236	-0.228
-273.384	-200.000	-0.004	0.183
-272.370	-200.000	-0.003	0.117
-271.355	-152.376	0.185	-0.013
-270.340	-163.240	0.192	-0.009
-269.326	558.833	0.124	-0.298
-268.311	79.261	0.173	0.184
-267.297	12.661	0.240	0.184
-266.282	-134.267	0.113	0.014
-265.267	282.294	0.128	-0.228
-264.253	-101.534	0.312	0.075
-263.238	-97.981	0.142	-0.036
-262.224	-102.934	-0.149	0.035
-261.209	543.615	0.064	-0.153
-260.195	-200.000	-0.030	0.222
-259.180	-200.000	-0.018	0.124
-258.165	-141.686	0.111	-0.011
-257.151	39.836	0.348	-0.310
-256.136	612.619	0.049	-0.122
-255.122	-64.530	0.241	0.097
-254.107	-200.000	0.003	-0.117
-253.092	4.969	0.180	-0.132
-252.078	800.000	-0.005	-0.019
-251.063	-118.363	-0.338	-0.060
-250.049	44.126	0.138	0.126
-249.034	-183.659	-0.125	-0.002
-248.019	20.497	0.272	0.219
-247.005	-22.672	-0.218	0.131
-245.990	-9.512	0.280	0.186
-244.976	309.302	0.123	-0.229
-243.961	-200.000	-0.000	-0.360
-242.946	-97.379	0.218	-0.056
-241.932	-200.000	-0.027	0.218
-240.917	-110.851	-0.170	-0.035
-239.903	-200.000	0.009	0.156
-238.888	-200.000	0.001	0.062
-237.873	-200.000	0.023	0.120
-236.859	-15.246	0.295	-0.187
-235.844	-200.000	0.013	0.108
-234.830	491.527	0.110	0.249
-233.815	-137.330	-0.182	0.021
-232.800	-200.000	0.011	0.214
-231.786	-200.000	-0.015	-0.194
-230.771	429.753	0.104	0.223
-229.757	-114.648	0.101	0.019
-228.742	190.464	0.162	-0.241
-227.727	800.000	-0.062	0.228
-226.713	-65.021	-0.109	-0.044
-225.698	-112.176	0.343	-0.068
-224.684	-161.411	0.230	-0.012
-223.669	251.367	0.139	0.234
-222.655	-11.444	-0.037	-0.024
-221.640	-11.870	-0.225	0.146
-220.625	-51.290	0.081	-0.038
-219.611	-200.000	0.048	-0.248
-218.596	364.782	-0.108	0.215
-217.582	-74.961	0.202	0.072
-216.567	257.689	-0.062	0.107
-215.552	-134.338	-0.182	-0.022
-214.538	-190.760	0.343	-0.004
-213.523	602.981	0.091	-0.223
-212.509	221.415	0.118	0.189
-211.494	-6.039	-0.203	0.137
-210.479	-47.991	-0.406	-0.195
-209.465	-200.000	0.033	-0.159
-208.450	800.000	0.076	-0.209
-207.436	-67.027	-0.149	0.058
-206.421	-200.000	0.008	-0.150
-205.406	287.359	0.166	-0.297
-204.392	55.340	0.227	0.218
-203.377	-200.000	-0.023	-0.190
-202.363	800.000	0.020	-0.078
-201.348	-200.000	-0.032	0.309
-200.333	800.000	0.062	-0.237
-199.319	-93.229	-0.178	0.049
-198.304	-200.000	0.021	-0.121
-197.290	800.000	0.073	-0.311
-196.275	112.882	0.061	-0.073
-195.260	71.204	-0.033	-0.034
-194.246	-200.000	0.052	0.370
-193.231	52.762	-0.235	-0.222
-192.217	-80.717	0.394	0.130
-191.202	-50.304	-0.134	-0.063
-190.187	-200.000	-0.030	0.171
-189.173	739.468	0.091	0.241
-188.158	-200.000	-0.009	0.300
-187.144	-87.573	-0.438	0.131
-186.129	255.254	-0.176	-0.298
-185.114	374.032	-0.213	-0.430
-184.100	83.724	0.143	-0.155
-183.085	510.349	0.113	-0.260
-182.071	374.044	0.068	0.137
-181.056	-200.000	0.051	-0.356
-180.042	-41.995	-0.138	0.070
-179.027	69.851	-0.275	0.281
-178.012	800.000	-0.112	0.407
-176.998	-200.000	-0.004	0.182
-175.983	301.961	-0.135	-0.247
-174.969	-99.129	0.149	0.037
-173.954	115.169	0.068	0.082
-172.939	-115.746	0.153	0.028
-171.925	64.868	-0.170	-0.170
-170.910	-200.000	-0.011	0.294
-169.896	29.551	-0.289	0.244
-168.881	-200.000	-0.237	0.001
-167.866	250.589	0.048	-0.080
-166.852	-200.000	0.041	-0.269
-165.837	40.418	0.169	0.150
-164.823	-200.000	-0.013	0.118
-163.808	-177.478	0.371	0.009
-162.793	-178.361	-0.010	-0.000
-161.779	-200.000	0.015	-0.127
-160.764	-200.000	0.009	0.109
-159.750	-200.000	0.026	0.288
-158.735	-164.107	0.024	0.001
-157.720	269.615	0.150	0.261
-156.706	-123.928	0.062	-0.010
-155.691	21.140	0.037	-0.030
-154.677	-157.593	0.392	0.023
-153.662	-91.927	-0.330	-0.092
-152.647	-26.128	0.357	0.207
-151.633	800.000	-0.052	-0.206
-150.618	-89.942	-0.313	0.090
-149.604	-200.000	-0.014	0.162
-148.589	-77.980	-0.244	-0.083
-147.574	80.107	0.120	-0.128
-146.560	-200.000	0.011	0.235
-145.545	192.935	0.147	-0.220
-144.531	49.925	-0.200	-0.187
-143.516	57.542	0.071	0.068
-142.502	-116.141	0.310	0.057
-141.487	79.086	0.062	-0.065
-140.472	-73.508	0.256	0.092
-139.458	16.799	0.135	-0.106
-138.443	-111.076	0.271	-0.055
-137.429	800.000	0.117	0.398
-136.414	-200.000	-0.014	0.151
-135.399	32.212	0.099	-0.085
-134.385	-80.365	0.030	-0.010
-133.370	-99.386	-0.224	0.056
-132.356	-80.289	-0.278	0.092
-131.341	-200.000	-0.030	0.241
-130.326	77.438	0.141	0.148
-129.312	85.658	0.187	-0.203
-128.297	196.792	-0.127	0.191
-127.283	-200.000	-0.009	0.124
-126.268	-118.558	0.184	0.032
-125.253	7.868	0.144	0.106
-124.239	44.420	0.271	0.246
-123.224	569.022	-0.029	0.068
-122.210	-143.908	-0.116	-0.011
-121.195	-200.000	-0.020	0.221
