DTS Sentinel unit serial number:	SN413079Multiplexer serial number:	ORYXHardware model number:	OX4-SRSoftware version number:	ORYX F/W v4.00 Oryx Data Collector v3.7.2.0data status	okinstallation	princeton_trtdifferential loss correction	single-endedforward channel	channel 2reverse channel	N/Adate	2019/09/11time	18:25:11forward acquisition time	60.00reverse acquisition time	0.00gamma	496.2192k internal	0.2285k external	0.2285temperature offset calibration	1.0028default loss term (dB/km)	0.3790temperature slope calibration	1.0000multiplexer offset coefficient	1.0000multiplexer slope coefficient	1.0000fibre end	0.00T internal ref (°C)	43.94T ext. ref 1 (°C)	1.17T ext. ref 2 (°C)	38.04length (m)	temperature (°C)	Stokes	anti-Stokes-747.200	800.000	-0.076	0.256
-746.185	244.555	0.144	0.248
-745.171	-200.000	-0.005	0.025
-744.156	95.455	-0.339	0.397
-743.142	16.238	-0.051	0.042
-742.127	800.000	-0.105	0.312
-741.112	173.896	0.058	0.085
-740.098	275.741	0.151	0.275
-739.083	-200.000	0.023	0.112
-738.069	-147.920	-0.127	0.011
-737.054	-8.600	-0.404	0.278
-736.039	335.006	-0.071	-0.142
-735.025	536.104	0.018	-0.043
-734.010	116.537	-0.150	0.189
-732.996	-142.235	-0.236	-0.024
-731.981	-23.506	0.110	-0.068
-730.966	72.782	-0.110	-0.118
-729.952	-22.093	-0.081	0.051
-728.937	90.669	-0.245	-0.282
-727.923	-39.254	-0.397	-0.214
-726.908	250.271	0.057	0.100
-725.894	-6.399	-0.060	0.042
-724.879	-44.796	-0.040	0.020
-723.864	-126.223	-0.229	0.035
-722.850	-200.000	0.006	0.054
-721.835	788.938	0.110	0.311
-720.821	257.418	-0.077	0.136
-719.806	-200.000	-0.011	-0.243
-718.791	9.360	0.054	-0.042
-717.777	79.158	0.067	-0.074
-716.762	-108.063	0.068	-0.015
-715.748	-35.777	0.444	0.246
-714.733	-200.000	0.006	-0.218
-713.718	800.000	-0.041	-0.134
-712.704	163.518	-0.267	0.385
-711.689	74.991	-0.419	0.453
-710.675	-80.473	-0.289	0.099
-709.660	-122.548	-0.314	0.052
-708.645	113.037	-0.166	0.206
-707.631	-54.867	0.088	-0.041
-706.616	8.219	0.110	-0.085
-705.602	-112.647	0.464	0.095
-704.587	-64.742	-0.264	-0.109
-703.572	-44.183	0.156	0.080
-702.558	-144.760	-0.386	-0.036
-701.543	-200.000	-0.012	-0.309
-700.529	-37.847	-0.103	-0.056
-699.514	800.000	-0.130	0.413
-698.499	332.199	-0.089	-0.175
-697.485	14.327	-0.262	-0.210
-696.470	84.779	0.133	0.150
-695.456	101.348	0.095	0.114
-694.441	348.316	0.088	0.179
-693.426	41.505	0.156	-0.145
-692.412	146.559	0.151	0.208
-691.397	-33.123	0.030	0.017
-690.383	473.265	-0.065	0.151
-689.368	133.190	-0.162	0.215
-688.354	17.701	0.128	0.104
-687.339	-125.002	-0.120	-0.019
-686.324	25.910	-0.152	0.130
-685.310	-52.098	-0.123	-0.059
-684.295	-158.780	0.220	-0.013
-683.281	-73.684	-0.248	0.092
-682.266	264.505	-0.138	0.246
-681.251	693.009	0.095	0.256
-680.237	-200.000	-0.046	-0.320
-679.222	700.393	0.085	-0.228
-678.208	-24.207	0.251	-0.153
-677.193	800.000	0.097	-0.374
-676.178	359.702	0.130	0.266
-675.164	234.559	0.089	0.150
-674.149	-200.000	0.008	-0.100
-673.135	-62.940	0.174	-0.074
-672.120	-42.510	0.204	-0.106
-671.105	-134.096	0.090	0.011
-670.091	-200.000	0.036	0.259
-669.076	130.732	-0.113	0.148
-668.062	125.930	0.138	-0.178
-667.047	-109.351	0.380	-0.082
-666.032	-69.288	-0.423	0.166
-665.018	425.195	-0.018	0.039
-664.003	-200.000	0.011	0.170
-662.989	-108.077	-0.283	0.063
-661.974	-59.391	0.435	-0.192
-660.959	-200.000	0.039	-0.240
-659.945	-200.000	-0.006	0.035
-658.930	-117.682	0.290	0.053
-657.916	800.000	-0.063	-0.225
-656.901	-200.000	0.026	-0.255
-655.886	800.000	-0.063	-0.259
-654.872	-68.262	0.254	-0.101
-653.857	-200.000	0.006	-0.126
-652.843	-115.704	0.119	0.023
-651.828	-138.416	-0.359	-0.040
-650.814	800.000	-0.053	0.238
-649.799	52.767	0.366	-0.358
-648.784	82.347	-0.256	0.284
-647.770	30.304	-0.159	0.139
-646.755	-193.179	-0.338	-0.003
-645.741	-98.621	0.137	0.036
-644.726	-50.148	-0.079	-0.038
-643.711	-75.650	-0.135	-0.049
-642.697	-17.331	0.241	0.155
-641.682	-200.000	-0.026	-0.350
-640.668	-146.036	0.518	0.047
-639.653	-146.253	-0.362	-0.032
-638.638	-200.000	-0.067	-0.308
-637.624	-81.800	-0.258	0.086
-636.609	120.062	-0.150	-0.191
-635.595	-161.420	0.310	0.016
-634.580	-200.000	0.015	-0.241
-633.565	-200.000	-0.012	0.067
-632.551	14.059	-0.339	0.270
-631.536	-35.034	-0.182	-0.102
-630.522	48.569	0.230	0.220
-629.507	756.610	0.093	0.257
-628.492	-87.534	-0.149	-0.046
-627.478	-200.000	0.055	0.248
-626.463	-174.288	0.047	0.001
-625.449	-87.813	0.308	-0.095
-624.434	337.778	0.130	-0.258
-623.419	-106.606	-0.124	-0.028
-622.405	-200.000	-0.001	0.225
-621.390	-89.180	-0.168	-0.051
-620.376	-117.743	-0.124	-0.023
-619.361	44.451	-0.212	-0.199
-618.346	540.867	-0.083	0.201
-617.332	-85.873	0.063	0.020
-616.317	8.954	-0.163	0.126
-615.303	-200.000	0.033	0.164
-614.288	-130.743	-0.160	0.022
-613.273	-170.549	0.247	0.009
-612.259	-77.192	-0.122	0.043
-611.244	-41.539	-0.261	-0.137
-610.230	-200.000	0.007	-0.359
-609.215	-48.977	0.325	0.159
-608.201	-200.000	-0.015	-0.124
-607.186	-143.172	0.163	-0.016
-606.171	-114.840	0.122	-0.024
-605.157	-154.455	0.399	0.027
-604.142	46.559	0.018	-0.017
-603.128	148.137	0.118	0.162
-602.113	800.000	0.110	-0.342
-601.098	393.928	-0.008	-0.017
-600.084	800.000	0.025	-0.081
-599.069	-200.000	0.001	0.381
-598.055	557.071	-0.089	0.218
-597.040	-89.495	0.322	-0.097
-596.025	800.000	-0.016	0.063
-595.011	78.257	-0.202	0.221
-593.996	2.605	-0.272	0.201
-592.982	-41.793	-0.327	-0.171
-591.967	-188.921	-0.101	0.001
-590.952	800.000	0.039	-0.169
-589.938	800.000	-0.040	-0.162
-588.923	800.000	0.162	-0.468
-587.909	107.035	0.090	-0.109
-586.894	-1.621	-0.133	0.096
-585.879	800.000	-0.008	0.034
-584.865	800.000	-0.096	-0.347
-583.850	-200.000	-0.041	-0.289
-582.836	-200.000	0.038	-0.239
-581.821	-200.000	0.008	0.069
-580.806	-200.000	-0.017	-0.302
-579.792	17.812	0.211	-0.171
-578.777	-200.000	-0.074	-0.408
-577.763	-100.016	0.344	-0.088
-576.748	-114.792	-0.052	0.010
-575.733	-97.383	-0.384	-0.102
-574.719	241.913	0.083	-0.142
-573.704	-136.236	0.177	0.021
-572.690	-176.703	0.142	-0.004
-571.675	-172.724	-0.034	0.001
-570.661	800.000	-0.039	0.165
-569.646	81.538	-0.138	-0.152
-568.631	775.033	0.136	-0.378
-567.617	-124.634	0.195	0.031
-566.602	-178.972	0.251	-0.006
-565.588	-200.000	-0.027	-0.377
-564.573	-57.055	-0.131	-0.059
-563.558	4.054	0.147	0.109
-562.544	800.000	-0.055	-0.207
-561.529	382.477	0.126	-0.264
-560.515	-28.122	0.138	0.081
-559.500	164.241	-0.078	-0.112
-558.485	-33.707	0.130	0.073
-557.471	-200.000	0.030	-0.315
-556.456	-200.000	-0.019	0.132
-555.442	-128.093	-0.009	-0.001
-554.427	-29.085	0.044	-0.025
-553.412	-200.000	-0.031	0.223
-552.398	505.632	-0.064	0.152
-551.383	-163.244	-0.205	-0.010
-550.369	-74.132	-0.045	0.017
-549.354	-6.951	0.292	-0.202
-548.339	88.501	-0.079	-0.089
-547.325	-200.000	0.029	0.207
-546.310	214.903	0.073	-0.118
-545.296	94.473	-0.036	-0.042
-544.281	335.630	0.120	0.236
-543.266	800.000	0.094	-0.329
-542.252	771.346	-0.087	-0.242
-541.237	-33.580	-0.193	0.109
-540.223	800.000	-0.132	-0.382
-539.208	-200.000	-0.013	-0.128
-538.193	-112.579	-0.297	0.060
-537.179	35.164	-0.214	0.191
-536.164	-100.142	-0.254	-0.064
-535.150	-49.469	0.152	0.074
-534.135	800.000	-0.022	-0.082
-533.121	20.317	0.183	-0.151
-532.106	-200.000	0.001	-0.077
-531.091	-36.210	0.336	0.185
-530.077	-67.123	-0.261	0.105
-529.062	528.027	0.059	0.142
-528.048	232.133	-0.123	0.205
-527.033	800.000	-0.079	0.318
-526.018	-113.325	-0.219	0.044
-525.004	97.542	-0.099	0.116
-523.989	-200.000	-0.006	0.243
-522.975	625.438	-0.125	0.322
-521.960	-200.000	0.061	0.283
-520.945	-41.211	0.263	-0.138
-519.931	171.079	0.118	-0.173
-518.916	-169.284	-0.606	0.023
-517.902	43.872	-0.249	-0.232
-516.887	800.000	0.016	0.064
-515.872	800.000	-0.068	0.299
-514.858	737.140	-0.067	0.184
-513.843	-112.669	-0.291	0.059
-512.829	-200.000	-0.002	0.026
-511.814	413.459	-0.134	0.290
-510.799	-43.727	0.206	0.106
-509.785	-73.785	0.182	-0.067
-508.770	800.000	-0.047	-0.186
-507.756	-40.232	-0.354	0.187
-506.741	-200.000	-0.070	0.381
-505.726	31.289	0.173	-0.151
-504.712	709.166	0.133	-0.356
-503.697	173.283	0.085	0.125
-502.683	-26.277	-0.271	0.162
-501.668	800.000	-0.064	-0.237
-500.653	253.421	-0.035	0.061
-499.639	214.664	-0.283	-0.455
-498.624	400.775	-0.101	-0.215
-497.610	-30.143	-0.391	-0.226
-496.595	-88.442	-0.202	-0.061
-495.581	788.496	-0.038	0.105
-494.566	-38.826	-0.060	-0.032
-493.551	-27.555	0.342	0.202
-492.537	-47.927	-0.136	-0.067
-491.522	800.000	-0.088	0.269
-490.508	199.951	-0.124	0.193
-489.493	-200.000	-0.026	-0.311
-488.478	-63.929	0.058	-0.024
-487.464	-173.654	-0.199	-0.006
-486.449	-173.590	-0.310	-0.009
-485.435	405.462	-0.085	0.182
-484.420	-200.000	0.006	0.057
-483.405	-4.830	0.284	0.199
-482.391	38.982	-0.217	0.197
-481.376	-45.231	-0.210	0.106
-480.362	-75.070	-0.077	-0.028
-479.347	658.002	0.136	-0.355
-478.332	-124.471	0.335	0.053
-477.318	-131.849	-0.139	-0.019
-476.303	-200.000	0.017	0.118
-475.289	396.151	0.134	-0.284
-474.274	-174.870	0.173	0.005
-473.259	351.677	0.079	0.158
-472.245	-57.411	0.075	0.033
-471.230	-200.000	-0.014	-0.425
-470.216	-83.173	0.167	0.054
-469.201	38.551	0.093	-0.084
-468.186	-80.673	-0.177	0.060
-467.172	469.813	0.071	0.161
-466.157	249.683	-0.129	0.221
-465.143	-127.971	0.377	-0.055
-464.128	-200.000	0.020	0.173
-463.113	-200.000	-0.003	-0.125
-462.099	-200.000	-0.074	-0.351
-461.084	-200.000	-0.022	0.143
-460.070	-200.000	0.005	0.064
-459.055	7.619	-0.175	-0.133
-458.040	10.484	-0.045	0.035
-457.026	-148.816	0.092	0.008
-456.011	26.682	-0.067	0.057
-454.997	128.821	-0.074	-0.095
-453.982	-175.479	-0.148	-0.004
-452.968	389.765	0.103	0.217
-451.953	-200.000	-0.056	0.516
-450.938	456.357	-0.205	-0.461
-449.924	-148.287	0.333	-0.028
-448.909	800.000	-0.119	-0.352
-447.895	131.571	0.032	-0.042
-446.880	53.891	0.189	0.185
-445.865	-25.810	0.113	0.068
-444.851	-51.074	0.149	-0.071
-443.836	218.657	0.088	0.142
-442.822	185.549	-0.197	0.297
-441.807	-100.661	-0.047	-0.012
-440.792	-58.382	0.310	0.137
-439.778	-200.000	-0.050	-0.566
-438.763	-151.703	0.117	-0.009
-437.749	-92.331	0.327	-0.094
-436.734	-142.856	0.227	0.022
-435.719	498.883	-0.133	0.310
-434.705	183.348	-0.139	0.208
-433.690	-10.940	0.136	0.091
-432.676	-64.710	-0.075	0.031
-431.661	78.269	0.125	0.135
-430.646	180.890	0.126	0.188
-429.632	-99.515	-0.419	-0.107
-428.617	-52.778	0.422	-0.197
-427.603	-102.258	-0.044	-0.011
-426.588	-133.196	0.006	0.001
-425.573	-28.427	-0.059	0.035
-424.559	137.575	0.067	-0.089
-423.544	-23.540	0.240	0.146
-422.530	-200.000	-0.026	0.210
-421.515	292.954	0.191	-0.354
-420.500	47.569	0.217	0.205
-419.486	-200.000	-0.001	0.221
-418.471	-52.142	0.076	-0.036
-417.457	-44.357	0.071	-0.036
-416.442	800.000	-0.048	-0.145
-415.428	-116.458	-0.194	0.036
-414.413	800.000	-0.064	0.261
-413.398	-2.336	0.128	-0.091
-412.384	135.396	-0.161	-0.213
-411.369	291.989	-0.185	0.341
-410.355	371.244	-0.067	-0.137
-409.340	-200.000	-0.008	0.177
-408.325	-200.000	-0.024	-0.513
-407.311	122.963	-0.150	-0.190
-406.296	379.936	0.039	0.081
-405.282	273.840	-0.248	0.444
-404.267	142.719	0.244	-0.329
-403.252	-61.936	-0.155	0.065
-402.238	203.389	-0.074	-0.116
-401.223	429.799	0.199	0.437
-400.209	201.960	0.248	0.387
-399.194	63.591	-0.049	-0.050
-398.179	-44.008	0.235	0.119
-397.165	-71.831	0.149	0.056
-396.150	77.891	-0.023	0.024
-395.136	-82.206	-0.223	-0.074
-394.121	-109.253	0.288	-0.062
-393.106	-200.000	-0.041	-0.445
-392.092	800.000	-0.066	0.187
-391.077	34.408	0.156	-0.138
-390.063	309.603	-0.100	-0.190
-389.048	-82.648	0.128	-0.042
-388.033	596.114	-0.126	-0.315
-387.019	-96.132	-0.099	-0.027
-386.004	244.813	0.074	-0.126
-384.990	46.641	-0.366	0.344
-383.975	235.841	0.142	0.237
-382.960	-125.028	0.178	0.028
-381.946	24.493	-0.140	0.117
-380.931	-79.291	-0.088	0.030
-379.917	-200.000	0.011	-0.092
-378.902	-200.000	0.032	-0.306
-377.888	182.966	-0.044	0.066
-376.873	-132.093	0.336	-0.044
-375.858	756.200	0.075	-0.206
-374.844	-118.237	-0.308	-0.055
-373.829	420.798	0.057	0.124
-372.815	-200.000	0.035	-0.494
-371.800	-200.000	0.046	-0.258
-370.785	-200.000	-0.017	-0.083
-369.771	301.869	-0.140	0.262
-368.756	-12.797	0.342	-0.226
-367.742	-178.000	0.186	0.004
-366.727	-200.000	0.043	0.347
-365.712	-200.000	0.068	0.521
-364.698	-200.000	-0.023	0.116
-363.683	-117.665	0.086	0.016
-362.669	48.552	-0.010	-0.009
-361.654	-101.769	-0.070	-0.017
-360.639	800.000	-0.040	-0.125
-359.625	624.516	-0.043	-0.111
-358.610	288.522	0.159	-0.290
-357.596	51.065	-0.209	0.200
-356.581	-57.647	0.209	-0.093
-355.566	136.595	0.056	-0.074
-354.552	34.321	0.227	0.200
-353.537	-9.301	-0.357	-0.241
-352.523	324.639	0.042	-0.080
-351.508	48.855	0.101	0.096
-350.493	-200.000	-0.008	-0.035
-349.479	-39.813	-0.193	0.102
-348.464	-40.699	-0.276	0.145
-347.450	-41.373	-0.181	0.094
-346.435	800.000	-0.087	0.245
-345.420	-200.000	-0.032	0.200
-344.406	-50.881	0.052	-0.025
-343.391	800.000	0.070	-0.254
-342.377	27.354	-0.070	0.059
-341.362	13.922	0.358	-0.281
-340.348	787.107	0.128	0.355
-339.333	-99.728	0.144	-0.036
-338.318	-40.488	0.303	0.159
-337.304	-81.075	0.226	0.076
-336.289	0.902	-0.240	-0.174
-335.275	-19.530	-0.084	-0.052
-334.260	-104.850	-0.168	-0.039
-333.245	134.591	-0.110	0.145
-332.231	-175.713	-0.308	0.008
-331.216	315.915	-0.074	0.141
-330.202	-81.852	0.302	-0.100
-329.187	-200.000	0.074	0.398
-328.172	-87.329	-0.196	-0.060
-327.158	-200.000	0.021	0.376
-326.143	136.563	0.060	0.079
-325.129	-200.000	0.012	-0.130
-324.114	-29.553	0.102	0.059
-323.099	-185.726	0.263	-0.004
-322.085	-37.811	0.459	-0.247
-321.070	800.000	-0.105	0.351
-320.056	332.776	0.223	0.435
-319.041	518.546	-0.058	-0.138
-318.026	800.000	-0.044	-0.140
-317.012	-40.772	0.109	-0.057
-315.997	124.875	-0.011	0.013
-314.983	50.326	0.254	0.242
-313.968	370.341	-0.046	0.095
-312.953	-200.000	0.042	0.278
-311.939	-200.000	0.012	0.242
-310.924	-14.453	-0.273	-0.177
-309.910	-199.884	-0.223	-0.001
-308.895	-154.674	0.212	-0.014
-307.880	-53.500	-0.098	0.045
-306.866	-128.270	-0.019	0.003
-305.851	12.491	0.295	-0.230
-304.837	-20.410	0.293	0.182
-303.822	71.739	-0.093	-0.097
-302.807	118.916	-0.102	0.127
-301.793	-200.000	-0.049	-0.307
-300.778	102.581	0.132	-0.156
-299.764	-15.074	0.085	-0.055
-298.749	13.794	-0.252	-0.198
-297.735	584.129	-0.082	0.203
-296.720	471.622	0.096	0.218
-295.705	192.640	0.197	-0.300
-294.691	-27.096	-0.237	0.140
-293.676	800.000	0.069	0.247
-292.662	-200.000	0.021	0.133
-291.647	52.524	-0.179	0.172
-290.632	216.708	0.067	0.107
-289.618	318.534	-0.126	-0.241
-288.603	800.000	-0.027	0.095
-287.589	51.092	0.072	-0.069
-286.574	-9.322	-0.274	0.185
-285.559	64.593	0.343	0.349
-284.545	26.599	0.221	-0.187
-283.530	550.592	-0.106	0.257
-282.516	-41.394	-0.094	0.049
-281.501	-135.318	-0.099	-0.012
-280.486	212.560	0.047	0.075
-279.472	-29.575	-0.160	-0.092
-278.457	-200.000	-0.039	0.257
-277.443	-97.373	-0.266	-0.070
-276.428	81.980	0.229	0.250
-275.413	622.805	0.093	-0.235
-274.399	767.035	-0.061	-0.166
-273.384	-200.000	-0.071	0.405
-272.370	-74.809	0.261	0.094
-271.355	-198.756	0.149	-0.001
-270.340	68.939	0.198	-0.205
-269.326	-35.821	-0.098	-0.053
-268.311	208.443	-0.107	0.169
-267.297	-34.513	-0.270	0.149
-266.282	-103.454	0.157	-0.037
-265.267	180.919	-0.210	0.311
-264.253	28.115	0.175	0.149
-263.238	-57.718	0.313	-0.138
-262.224	107.510	-0.276	-0.331
-261.209	132.642	0.164	-0.214
-260.195	-28.570	0.007	-0.004
-259.180	66.798	-0.037	0.038
-258.165	-142.430	-0.543	-0.054
-257.151	-200.000	-0.013	0.325
-256.136	800.000	-0.063	0.246
-255.122	-200.000	0.039	-0.184
-254.107	-53.241	-0.123	0.057
-253.092	-41.343	0.615	0.319
-252.078	-111.363	0.144	-0.030
-251.063	-130.293	0.443	-0.061
-250.049	145.306	0.141	0.190
-249.034	50.234	0.108	0.102
-248.019	800.000	-0.090	-0.258
-247.005	328.341	0.145	-0.280
-245.990	-123.915	0.115	0.018
-244.976	800.000	0.065	0.211
-243.961	-200.000	-0.013	-0.152
-242.946	289.228	-0.053	0.097
-241.932	-87.288	-0.363	0.111
-240.917	8.276	-0.418	0.316
-239.903	-45.348	0.273	-0.136
-238.888	-14.771	0.087	-0.056
-237.873	-4.707	-0.295	-0.205
-236.859	-200.000	-0.031	-0.219
-235.844	25.140	0.078	0.065
-234.830	218.241	-0.036	-0.057
-233.815	212.872	0.050	0.079
-232.800	800.000	-0.098	-0.334
-231.786	-200.000	0.010	-0.057
-230.771	-67.148	0.191	0.076
-229.757	290.512	-0.061	-0.112
-228.742	-200.000	0.014	-0.197
-227.727	-200.000	-0.003	0.159
-226.713	800.000	-0.065	-0.180
-225.698	-200.000	0.030	-0.291
-224.684	273.186	-0.163	-0.290
-223.669	562.028	0.141	0.344
-222.655	-200.000	0.237	0.001
-221.640	800.000	-0.027	0.089
-220.625	169.145	0.124	-0.178
-219.611	5.924	-0.098	-0.073
-218.596	105.202	-0.091	-0.108
-217.582	-128.474	-0.143	-0.020
-216.567	-107.004	-0.425	-0.095
-215.552	-72.663	-0.180	-0.067
-214.538	-200.000	-0.021	-0.138
-213.523	652.502	-0.022	0.058
-212.509	75.633	-0.125	0.133
-211.494	9.781	-0.129	0.098
-210.479	-35.961	0.214	-0.117
-209.465	800.000	-0.043	-0.164
-208.450	-200.000	0.004	-0.106
-207.436	26.301	-0.143	0.120
-206.421	588.400	0.118	-0.293
-205.406	-41.479	-0.165	0.085
-204.392	165.701	-0.023	-0.032
-203.377	136.654	-0.073	0.096
-202.363	121.666	0.095	-0.119
-201.348	113.055	0.041	-0.050
-200.333	-81.797	-0.158	0.052
-199.319	335.884	0.103	-0.201
-198.304	-71.092	0.225	0.085
-197.290	242.366	-0.082	0.138
-196.275	-200.000	-0.010	-0.278
-195.260	176.891	-0.021	0.030
-194.246	-80.591	0.313	-0.105
-193.231	-43.761	0.126	0.064
-192.217	441.151	0.087	0.192
-191.202	8.499	0.197	0.149
-190.187	-31.013	0.082	0.046
-189.173	477.537	-0.059	-0.133
-188.158	473.192	0.093	0.209
-187.144	-182.105	0.164	-0.003
-186.129	-169.941	0.060	-0.002
-185.114	-17.199	0.059	0.037
-184.100	498.680	0.016	-0.038
-183.085	-200.000	-0.040	0.263
-182.071	24.432	-0.245	0.203
-181.056	-200.000	-0.018	0.529
-180.042	-200.000	0.009	-0.050
-179.027	-10.851	0.164	0.109
-178.012	138.768	-0.241	0.318
-176.998	-4.671	-0.217	0.151
-175.983	123.550	-0.176	0.222
-174.969	-135.437	-0.125	-0.015
-173.954	-200.000	0.004	-0.086
-172.939	-115.306	-0.243	-0.046
-171.925	493.665	-0.111	0.255
-170.910	-37.018	0.050	-0.027
-169.896	301.614	-0.072	-0.134
-168.881	-160.571	-0.136	0.007
-167.866	24.402	0.086	0.071
-166.852	303.905	0.157	-0.292
-165.837	-200.000	0.037	-0.344
-164.823	800.000	0.053	-0.225
-163.808	-132.380	0.037	-0.005
-162.793	-81.923	-0.178	-0.058
-161.779	348.953	0.106	-0.211
-160.764	-125.795	0.338	0.051
-159.750	-176.502	0.174	0.005
-158.735	37.569	-0.099	-0.088
-157.720	-69.149	-0.226	-0.087
-156.706	-104.519	-0.152	-0.035
-155.691	-200.000	-0.057	0.000
-154.677	70.351	-0.174	-0.180
-153.662	215.023	-0.133	-0.211
-152.647	-67.072	0.172	-0.068
-151.633	-145.040	0.186	0.017
-150.618	800.000	0.036	0.118
-149.604	800.000	-0.042	0.147
-148.589	-176.114	0.354	0.009
-147.574	156.534	-0.183	0.253
-146.560	188.069	-0.210	0.314
-145.545	28.531	0.083	0.070
-144.531	51.319	-0.167	-0.159
-143.516	-137.165	0.178	0.020
-142.502	4.020	-0.159	-0.116
-141.487	800.000	-0.049	0.162
-140.472	50.836	0.130	-0.124
-139.458	-200.000	-0.013	-0.144
-138.443	224.144	0.118	0.191
-137.429	511.445	0.105	0.245
-136.414	-78.856	0.259	0.089
-135.399	-200.000	-0.049	-0.217
-134.385	103.797	0.210	0.247
-133.370	288.122	0.129	0.234
-132.356	-200.000	-0.015	0.124
-131.341	77.411	0.033	-0.035
-130.326	-200.000	0.049	0.244
-129.312	145.313	0.076	0.102
-128.297	800.000	-0.034	-0.133
-127.283	-37.269	-0.237	-0.127
-126.268	311.235	-0.054	-0.101
-125.253	-92.407	0.237	0.067
-124.239	257.153	-0.059	-0.102
-123.224	-200.000	-0.002	-0.296
-122.210	89.099	0.074	-0.083
