DTS Sentinel unit serial number:	SN413079Multiplexer serial number:	ORYXHardware model number:	OX4-SRSoftware version number:	ORYX F/W v4.00 Oryx Data Collector v3.7.2.0data status	okinstallation	princeton_trtdifferential loss correction	single-endedforward channel	channel 2reverse channel	N/Adate	2019/09/11time	23:53:11forward acquisition time	60.00reverse acquisition time	0.00gamma	496.2192k internal	0.2325k external	0.2325temperature offset calibration	1.0086default loss term (dB/km)	0.3790temperature slope calibration	1.0000multiplexer offset coefficient	1.0000multiplexer slope coefficient	1.0000fibre end	0.00T internal ref (°C)	33.87T ext. ref 1 (°C)	2.00T ext. ref 2 (°C)	27.98length (m)	temperature (°C)	Stokes	anti-Stokes-747.200	-76.562	0.107	0.038
-746.185	-200.000	0.003	-0.155
-745.171	266.653	0.119	0.210
-744.156	800.000	-0.037	0.145
-743.142	302.665	0.121	-0.226
-742.127	-83.936	-0.255	-0.082
-741.112	-200.000	0.019	-0.278
-740.098	421.090	-0.157	0.339
-739.083	-200.000	-0.013	0.113
-738.069	358.629	-0.049	0.099
-737.054	-200.000	0.032	0.300
-736.039	91.810	-0.087	-0.099
-735.025	176.686	-0.100	-0.146
-734.010	-200.000	0.014	0.368
-732.996	-200.000	0.011	-0.252
-731.981	-93.152	0.199	0.056
-730.966	13.815	-0.167	-0.131
-729.952	-200.000	-0.042	-0.285
-728.937	211.735	0.070	-0.111
-727.923	-63.106	-0.234	-0.097
-726.908	-49.946	0.302	0.144
-725.894	68.912	0.206	-0.213
-724.879	800.000	-0.038	-0.120
-723.864	-200.000	-0.009	-0.151
-722.850	-4.726	-0.276	0.192
-721.835	-94.149	-0.151	0.042
-720.821	-200.000	0.009	0.099
-719.806	192.465	-0.212	-0.323
-718.791	-185.695	0.168	-0.003
-717.777	-26.719	-0.218	-0.129
-716.762	-113.875	-0.217	-0.042
-715.748	-157.372	0.126	-0.008
-714.733	-41.242	-0.239	0.124
-713.718	112.265	0.119	-0.145
-712.704	-200.000	-0.011	0.171
-711.689	84.213	-0.251	0.277
-710.675	390.887	-0.093	-0.194
-709.660	-108.218	-0.189	0.041
-708.645	-55.137	0.204	0.092
-707.631	222.490	0.088	0.143
-706.616	-52.003	0.243	-0.114
-705.602	15.563	0.062	-0.049
-704.587	1.281	-0.137	0.099
-703.572	138.011	0.108	-0.142
-702.558	212.057	0.083	-0.132
-701.543	-165.491	-0.414	-0.018
-700.529	-114.829	0.202	-0.039
-699.514	-56.443	-0.067	0.030
-698.499	800.000	-0.116	0.334
-697.485	-200.000	-0.022	0.125
-696.470	-114.221	-0.149	-0.029
-695.456	55.511	-0.124	-0.121
-694.441	-188.257	-0.311	0.004
-693.426	-200.000	-0.007	0.061
-692.412	641.578	0.059	0.151
-691.397	61.441	0.246	0.246
-690.383	468.935	-0.023	-0.053
-689.368	7.090	0.224	0.169
-688.354	32.145	0.200	0.174
-687.339	271.642	-0.214	0.380
-686.324	6.490	-0.059	0.044
-685.310	-55.640	-0.446	-0.201
-684.295	47.723	0.070	-0.066
-683.281	-49.351	0.021	0.010
-682.266	-196.159	0.132	-0.001
-681.251	-139.594	-0.227	0.024
-680.237	-149.186	0.302	0.024
-679.222	-200.000	0.002	0.262
-678.208	71.823	-0.099	-0.104
-677.193	800.000	-0.061	0.216
-676.178	101.043	0.188	-0.220
-675.164	-58.062	-0.196	-0.086
-674.149	800.000	-0.064	0.277
-673.135	-43.440	-0.098	0.050
-672.120	800.000	-0.042	0.183
-671.105	-43.973	0.121	0.061
-670.091	-54.922	-0.201	-0.091
-669.076	68.451	-0.086	-0.088
-668.062	140.209	-0.079	0.105
-667.047	507.004	0.174	-0.405
-666.032	343.303	0.088	-0.174
-665.018	-36.175	0.051	0.027
-664.003	-96.949	-0.244	0.064
-662.989	54.614	0.106	-0.103
-661.974	800.000	-0.038	-0.142
-660.959	-200.000	0.010	-0.268
-659.945	-66.847	-0.166	0.066
-658.930	129.183	0.106	0.136
-657.916	670.025	-0.069	0.181
-656.901	230.260	-0.233	-0.383
-655.886	-90.113	-0.272	-0.080
-654.872	800.000	0.034	0.121
-653.857	-17.852	0.011	-0.007
-652.843	-43.287	0.112	-0.057
-651.828	-29.411	0.195	0.112
-650.814	-200.000	0.026	-0.147
-649.799	-109.851	-0.333	-0.070
-648.784	-52.884	-0.107	-0.049
-647.770	-200.000	-0.018	0.211
-646.755	-20.615	0.133	-0.082
-645.741	800.000	0.106	-0.310
-644.726	48.479	-0.211	0.198
-643.711	-93.926	0.185	-0.051
-642.697	-200.000	0.046	-0.286
-641.682	351.399	-0.007	0.014
-640.668	-37.919	0.083	0.045
-639.653	-200.000	-0.019	-0.441
-638.638	115.710	0.065	-0.080
-637.624	800.000	-0.022	0.081
-636.609	207.726	0.155	0.243
-635.595	63.762	-0.209	-0.211
-634.580	77.387	-0.037	-0.039
-633.565	-8.870	0.195	-0.131
-632.551	-200.000	0.015	0.252
-631.536	31.871	0.081	-0.070
-630.522	81.815	-0.065	0.071
-629.507	100.983	-0.073	0.085
-628.492	162.497	-0.093	-0.131
-627.478	-200.000	0.024	-0.180
-626.463	186.759	0.104	-0.156
-625.449	-45.567	-0.153	-0.076
-624.434	-89.687	0.293	-0.086
-623.419	109.304	0.052	0.063
-622.405	44.996	-0.130	-0.120
-621.390	41.426	-0.504	-0.458
-620.376	-100.872	0.107	0.026
-619.361	104.063	-0.440	-0.519
-618.346	-112.730	-0.185	0.037
-617.332	-142.742	0.161	-0.016
-616.317	375.663	-0.086	-0.176
-615.303	35.977	-0.052	-0.046
-614.288	800.000	0.015	-0.051
-613.273	-200.000	0.021	-0.184
-612.259	-63.041	0.144	-0.060
-611.244	275.529	0.078	0.138
-610.230	-178.242	0.080	-0.002
-609.215	-5.375	-0.112	-0.077
-608.201	-19.930	0.081	-0.050
-607.186	681.570	-0.080	0.209
-606.171	800.000	-0.015	-0.042
-605.157	80.537	0.163	0.176
-604.142	61.491	0.124	-0.124
-603.128	-200.000	0.035	-0.310
-602.113	800.000	0.035	0.131
-601.098	17.662	0.068	0.054
-600.084	41.816	-0.079	-0.072
-599.069	790.185	-0.081	-0.222
-598.055	800.000	-0.073	-0.285
-597.040	-126.841	-0.198	-0.029
-596.025	-115.639	-0.195	0.037
-595.011	800.000	0.083	-0.334
-593.996	-100.002	0.228	-0.057
-592.982	800.000	-0.071	-0.236
-591.967	-66.904	-0.144	-0.057
-590.952	-140.422	0.305	-0.032
-589.938	-200.000	-0.054	0.276
-588.923	-200.000	-0.036	0.171
-587.909	149.279	-0.168	0.227
-586.894	800.000	0.062	-0.217
-585.879	-200.000	-0.068	-0.313
-584.865	-43.371	-0.058	0.030
-583.850	-28.089	-0.385	0.223
-582.836	-1.265	-0.053	0.037
-581.821	59.190	0.155	-0.153
-580.806	-23.399	0.284	-0.171
-579.792	-74.925	0.309	-0.111
-578.777	125.931	-0.197	-0.250
-577.763	376.558	-0.123	-0.251
-576.748	-200.000	-0.001	0.153
-575.733	511.844	-0.099	-0.230
-574.719	306.451	0.077	-0.143
-573.704	-128.390	0.298	-0.043
-572.690	136.519	-0.196	0.256
-571.675	180.847	-0.052	-0.076
-570.661	-108.213	0.105	-0.023
-569.646	214.149	-0.096	0.153
-568.631	-46.951	-0.182	-0.089
-567.617	317.251	-0.224	-0.425
-566.602	669.255	-0.144	-0.373
-565.588	-44.964	0.186	0.093
-564.573	17.896	-0.276	0.220
-563.558	-67.225	0.274	0.108
-562.544	-60.604	-0.146	-0.062
-561.529	800.000	0.025	-0.078
-560.515	-106.877	0.039	0.009
-559.500	800.000	0.059	0.189
-558.485	-200.000	-0.015	-0.130
-557.471	-118.514	0.278	-0.049
-556.456	-72.781	-0.151	-0.056
-555.442	-146.570	-0.224	0.019
-554.427	82.800	-0.170	0.185
-553.412	330.745	-0.096	-0.185
-552.398	-32.952	-0.096	0.053
-551.383	-200.000	0.027	-0.323
-550.369	244.703	-0.045	-0.076
-549.354	10.736	0.240	0.183
-548.339	89.920	0.069	0.077
-547.325	800.000	-0.088	0.305
-546.310	316.351	0.120	-0.226
-545.296	-99.175	0.086	-0.022
-544.281	157.187	0.279	-0.386
-543.266	156.560	0.056	0.078
-542.252	12.111	-0.163	0.125
-541.237	280.990	0.096	0.172
-540.223	-200.000	-0.019	0.297
-539.208	489.633	0.101	0.232
-538.193	-200.000	0.010	0.043
-537.179	-200.000	0.082	-0.617
-536.164	-109.229	0.253	-0.054
-535.150	-14.938	-0.219	-0.140
-534.135	-36.157	-0.240	-0.130
-533.121	575.990	-0.123	-0.301
-532.106	-20.726	-0.300	0.184
-531.091	61.990	-0.075	0.074
-530.077	-60.051	0.045	0.019
-529.062	6.590	-0.332	-0.247
-528.048	157.728	-0.038	0.052
-527.033	153.407	0.083	0.113
-526.018	-200.000	0.041	-0.351
-525.004	-76.602	-0.423	-0.149
-523.989	104.713	-0.078	-0.092
-522.975	-116.017	0.191	-0.036
-521.960	-11.369	0.224	0.147
-520.945	-200.000	0.075	-0.376
-519.931	399.767	0.101	-0.212
-518.916	-30.329	-0.297	0.168
-517.902	800.000	-0.031	-0.131
-516.887	-200.000	0.037	-0.289
-515.872	-7.627	0.208	0.141
-514.858	178.890	0.077	-0.112
-513.843	35.272	-0.123	0.108
-512.829	617.372	-0.105	0.264
-511.814	-200.000	-0.025	0.156
-510.799	-124.961	-0.067	-0.010
-509.785	33.711	0.223	-0.194
-508.770	-34.120	0.004	-0.002
-507.756	-15.795	-0.312	-0.199
-506.741	800.000	0.045	0.173
-505.726	-27.906	0.217	-0.126
-504.712	71.698	0.218	0.227
-503.697	408.294	0.086	-0.182
-502.683	273.300	0.111	-0.196
-501.668	-60.973	0.185	0.078
-500.653	116.819	-0.036	-0.044
-499.639	-61.928	-0.280	-0.117
-498.624	65.085	0.107	0.108
-497.610	0.011	0.292	-0.208
-496.595	0.439	-0.310	-0.221
-495.581	-103.256	0.255	0.060
-494.566	-140.909	-0.170	-0.017
-493.551	-200.000	0.006	0.076
-492.537	-200.000	-0.014	-0.171
-491.522	-200.000	0.011	-0.188
-490.508	800.000	0.112	-0.357
-489.493	-2.881	-0.313	0.219
-488.478	-154.732	0.354	0.023
-487.464	-200.000	0.001	0.134
-486.449	102.202	0.167	0.195
-485.435	-187.338	-0.240	0.003
-484.420	109.735	0.225	-0.269
-483.405	53.043	0.326	0.312
-482.391	-200.000	-0.062	-0.304
-481.376	-198.820	0.274	-0.002
-480.362	730.230	-0.082	-0.219
-479.347	-169.776	-0.256	-0.009
-478.332	39.505	-0.310	0.278
-477.318	-9.402	0.076	-0.051
-476.303	-67.635	0.261	0.102
-475.289	138.339	-0.171	0.224
-474.274	-24.430	0.354	-0.211
-473.259	245.413	-0.143	0.240
-472.245	-69.337	-0.388	-0.149
-471.230	-16.246	-0.143	0.091
-470.216	19.659	0.073	-0.059
-469.201	-111.382	-0.167	-0.034
-468.186	-200.000	-0.060	-0.273
-467.172	107.602	0.177	0.211
-466.157	-200.000	0.046	0.281
-465.143	-145.434	0.350	0.031
-464.128	78.777	-0.186	0.198
-463.113	-148.662	-0.120	0.010
-462.099	172.446	-0.222	-0.319
-461.084	800.000	-0.137	-0.500
-460.070	426.163	0.061	-0.131
-459.055	145.389	-0.139	-0.185
-458.040	-83.241	-0.392	-0.126
-457.026	-39.179	0.396	-0.208
-456.011	-26.389	-0.274	0.161
-454.997	-152.697	-0.032	-0.002
-453.982	120.863	-0.014	-0.018
-452.968	-200.000	0.009	0.361
-451.953	-79.322	-0.267	0.090
-450.938	-63.588	-0.176	-0.072
-449.924	-64.652	0.276	-0.112
-448.909	62.487	-0.199	-0.199
-447.895	-200.000	0.002	0.549
-446.880	487.828	-0.084	0.191
-445.865	800.000	-0.111	-0.349
-444.851	-106.331	0.207	0.046
-443.836	207.783	-0.131	0.204
-442.822	73.177	-0.300	-0.312
-441.807	-64.106	0.180	-0.073
-440.792	126.066	-0.217	-0.273
-439.778	800.000	-0.069	-0.218
-438.763	212.852	0.169	-0.266
-437.749	98.990	0.065	-0.075
-436.734	-166.188	-0.257	-0.011
-435.719	-45.067	0.284	0.141
-434.705	154.024	0.244	0.334
-433.690	128.457	-0.072	0.092
-432.676	258.884	0.157	0.271
-431.661	-75.568	-0.179	0.064
-430.646	271.086	0.089	0.156
-429.632	203.500	0.233	0.360
-428.617	1.283	-0.218	0.156
-427.603	-181.849	0.353	0.007
-426.588	800.000	-0.112	-0.357
-425.573	-65.730	-0.134	-0.053
-424.559	164.122	-0.142	-0.200
-423.544	-169.945	-0.313	0.011
-422.530	739.137	-0.058	-0.155
-421.515	-200.000	0.052	-0.233
-420.500	-120.973	-0.180	0.030
-419.486	-200.000	-0.029	-0.213
-418.471	96.806	-0.040	-0.046
-417.457	-10.096	0.047	0.031
-416.442	-40.550	-0.260	0.135
-415.428	145.371	-0.113	-0.151
-414.413	99.982	0.134	-0.155
-413.398	487.906	-0.034	0.076
-412.384	-28.655	-0.174	0.100
-411.369	-158.443	0.153	-0.009
-410.355	800.000	0.068	-0.223
-409.340	261.491	-0.331	0.571
-408.325	454.831	0.037	0.082
-407.311	246.589	-0.069	-0.116
-406.296	-129.549	0.220	0.030
-405.282	-28.745	0.046	0.026
-404.267	-60.448	-0.087	-0.037
-403.252	101.494	0.241	0.279
-402.238	-68.989	0.214	0.082
-401.223	800.000	0.047	-0.196
-400.209	-200.000	-0.018	0.255
-399.194	251.755	0.043	0.073
-398.179	38.807	-0.233	-0.207
-397.165	-200.000	-0.018	-0.184
-396.150	-123.381	-0.135	0.021
-395.136	-54.483	0.215	0.097
-394.121	199.947	0.053	-0.081
-393.106	-200.000	0.014	-0.152
-392.092	-200.000	0.031	0.333
-391.077	173.459	0.081	0.116
-390.063	-29.190	0.113	-0.065
-389.048	-85.135	-0.150	-0.047
-388.033	-140.132	0.281	-0.029
-387.019	-127.763	-0.219	0.031
-386.004	14.920	-0.284	0.221
-384.990	435.554	0.036	0.077
-383.975	-200.000	-0.063	0.464
-382.960	16.133	0.198	-0.156
-381.946	59.002	-0.137	-0.134
-380.931	-129.541	-0.368	-0.051
-379.917	-24.805	0.352	-0.208
-378.902	-92.368	-0.025	-0.007
-377.888	-7.850	-0.200	0.134
-376.873	28.519	-0.094	0.079
-375.858	-0.660	0.054	-0.038
-374.844	-200.000	-0.062	0.279
-373.829	-116.598	-0.086	-0.016
-372.815	325.031	0.036	0.069
-371.800	-159.411	-0.302	-0.017
-370.785	134.568	0.132	-0.170
-369.771	-200.000	-0.102	-0.000
-368.756	-144.785	0.271	-0.025
-367.742	134.277	-0.205	0.265
-366.727	98.255	-0.231	-0.265
-365.712	-120.893	0.368	-0.062
-364.698	195.120	0.197	-0.298
-363.683	83.178	-0.241	-0.260
-362.669	-75.290	0.178	-0.063
-361.654	355.678	-0.151	-0.298
-360.639	14.851	-0.099	0.077
-359.625	-89.496	-0.326	0.095
-358.610	800.000	0.097	-0.389
-357.596	800.000	-0.102	-0.406
-356.581	-56.918	0.077	0.034
-355.566	-200.000	-0.031	0.271
-354.552	-200.000	-0.073	0.330
-353.537	273.628	-0.050	0.087
-352.523	290.233	0.167	0.301
-351.508	-32.457	0.115	0.064
-350.493	-59.433	0.295	0.126
-349.479	-60.683	0.061	-0.026
-348.464	-147.027	-0.366	0.031
-347.450	800.000	0.147	0.433
-346.435	346.288	0.035	-0.069
-345.420	149.883	-0.133	-0.179
-344.406	791.243	-0.104	-0.283
-343.391	64.839	-0.158	0.158
-342.377	-171.586	0.152	-0.005
-341.362	-2.565	0.278	0.194
-340.348	-43.501	-0.189	-0.095
-339.333	-17.460	-0.188	0.117
-338.318	93.938	-0.293	0.330
-337.304	21.192	0.181	-0.146
-336.289	211.455	-0.104	0.162
-335.275	6.159	0.189	0.139
-334.260	-25.555	-0.225	-0.132
-333.245	-200.000	-0.013	0.382
-332.231	3.758	0.451	-0.327
-331.216	-200.000	0.010	0.156
-330.202	141.160	0.045	0.059
-329.187	-100.986	0.167	0.041
-328.172	236.230	-0.145	0.237
-327.158	477.101	0.173	0.389
-326.143	-136.641	-0.270	-0.031
-325.129	156.004	0.098	-0.133
-324.114	-104.737	-0.193	0.044
-323.099	-118.320	0.119	0.021
-322.085	-200.000	0.021	0.216
-321.070	-110.058	0.299	-0.062
-320.056	-200.000	-0.008	-0.039
-319.041	-200.000	-0.022	-0.106
-318.026	-200.000	0.305	0.001
-317.012	800.000	0.003	-0.014
-315.997	470.112	-0.030	-0.067
-314.983	-124.841	0.172	0.026
-313.968	-200.000	-0.005	-0.060
-312.953	-29.403	-0.133	-0.076
-311.939	-119.292	-0.516	-0.089
-310.924	500.715	-0.159	0.365
-309.910	165.705	0.161	0.226
-308.895	800.000	0.042	0.154
-307.880	-176.311	-0.139	0.004
-306.866	-34.409	0.077	-0.042
-305.851	87.596	-0.200	0.220
-304.837	-86.787	-0.427	-0.129
-303.822	-116.507	0.144	-0.026
-302.807	315.509	0.075	-0.140
-301.793	-200.000	0.022	0.245
-300.778	-69.270	-0.157	0.060
-299.764	25.798	0.085	0.070
-298.749	89.595	0.109	0.120
-297.735	-200.000	0.022	-0.186
-296.720	404.699	0.041	-0.085
-295.705	-164.351	0.295	0.013
-294.691	-44.821	0.189	-0.093
-293.676	154.184	-0.206	-0.281
-292.662	114.864	0.327	-0.395
-291.647	-92.285	0.270	-0.075
-290.632	-200.000	0.031	0.211
-289.618	-127.585	0.519	-0.075
-288.603	266.315	0.260	0.450
-287.589	148.102	-0.335	0.447
-286.574	-78.150	-0.330	0.113
-285.559	-2.166	-0.176	-0.123
-284.545	800.000	0.078	0.253
-283.530	-74.172	-0.306	-0.110
-282.516	79.638	0.280	0.297
-281.501	356.320	0.163	-0.323
-280.486	186.637	0.181	-0.268
-279.472	-73.113	-0.215	-0.078
-278.457	-94.975	-0.501	-0.134
-277.443	347.412	0.053	0.103
-276.428	148.000	0.195	0.260
-275.413	-200.000	-0.090	0.515
-274.399	459.651	0.218	0.480
-273.384	224.221	0.260	0.416
-272.370	800.000	0.046	-0.128
-271.355	257.688	0.045	0.077
-270.340	-200.000	0.098	0.461
-269.326	476.895	0.137	0.308
-268.311	7.949	-0.257	0.191
-267.297	-94.745	0.026	-0.007
-266.282	800.000	0.102	0.345
-265.267	-200.000	-0.021	0.179
-264.253	48.882	0.229	0.212
-263.238	-200.000	0.019	0.116
-262.224	200.149	0.047	-0.071
-261.209	-128.901	0.049	-0.007
-260.195	117.114	0.128	-0.156
-259.180	7.019	0.151	0.111
-258.165	147.489	0.029	0.039
-257.151	-105.703	0.209	-0.047
-256.136	255.913	0.083	0.141
-255.122	-188.115	0.086	0.001
-254.107	-139.567	0.145	-0.015
-253.092	173.817	0.119	0.170
-252.078	161.244	-0.113	0.156
-251.063	-200.000	0.063	0.322
-250.049	274.361	0.321	-0.562
-249.034	20.928	-0.146	-0.117
-248.019	-200.000	-0.020	0.144
-247.005	-200.000	-0.030	0.134
-245.990	169.430	-0.062	0.088
-244.976	325.130	-0.061	0.116
-243.961	-86.495	0.207	-0.063
-242.946	305.874	-0.183	0.337
-241.932	98.047	-0.084	0.096
-240.917	-37.252	-0.063	-0.033
-239.903	-200.000	0.063	0.300
-238.888	-59.922	0.136	-0.057
-237.873	-63.242	-0.108	0.044
-236.859	-200.000	0.016	0.084
-235.844	-11.791	0.336	0.218
-234.830	86.379	0.143	0.156
-233.815	-200.000	0.002	-0.192
-232.800	90.751	0.069	-0.076
-231.786	561.843	-0.056	0.134
-230.771	-200.000	0.024	-0.141
-229.757	111.101	0.122	-0.146
-228.742	-200.000	-0.010	-0.062
-227.727	331.225	0.060	0.114
-226.713	161.174	0.170	-0.235
-225.698	55.494	-0.065	-0.063
-224.684	-16.256	0.180	-0.113
-223.669	311.896	0.069	-0.128
-222.655	-74.660	-0.428	-0.152
-221.640	117.742	-0.125	0.153
-220.625	359.613	0.125	0.248
-219.611	-0.245	-0.243	-0.171
-218.596	486.522	0.013	0.029
-217.582	9.830	-0.090	0.067
-216.567	-200.000	0.030	0.468
-215.552	-113.071	-0.226	0.044
-214.538	554.217	0.064	-0.152
-213.523	8.633	0.137	0.102
-212.509	217.271	0.060	0.094
-211.494	800.000	-0.049	-0.148
-210.479	-200.000	-0.033	0.250
-209.465	-162.760	0.187	0.009
-208.450	-18.188	0.132	-0.082
-207.436	261.571	0.130	0.223
-206.421	-30.291	0.277	0.156
-205.406	-46.251	-0.345	0.168
-204.392	-26.360	0.175	0.101
-203.377	-53.207	-0.391	0.177
-202.363	215.297	-0.223	0.349
-201.348	537.477	-0.119	-0.278
-200.333	-86.220	0.072	0.022
-199.319	308.024	0.098	-0.181
-198.304	168.799	-0.056	0.079
-197.290	-147.778	-0.103	-0.008
-196.275	-153.503	0.278	0.019
-195.260	-50.160	-0.330	-0.154
-194.246	-109.827	0.304	-0.063
-193.231	139.176	0.064	-0.083
-192.217	320.295	-0.212	0.398
-191.202	-144.213	0.418	0.039
-190.187	28.897	0.124	0.104
-189.173	56.948	0.106	0.102
-188.158	32.931	-0.052	-0.045
-187.144	-187.995	0.305	-0.004
-186.129	-133.398	0.103	0.013
-185.114	-165.502	-0.092	0.004
-184.100	82.387	-0.227	-0.243
-183.085	12.500	-0.160	-0.121
-182.071	-84.259	-0.092	-0.029
-181.056	58.218	0.107	-0.104
-180.042	17.322	0.224	-0.175
-179.027	189.184	-0.116	0.171
-178.012	195.173	-0.018	0.027
-176.998	-29.316	-0.165	0.093
-175.983	-150.819	-0.297	-0.022
-174.969	800.000	-0.084	0.242
-173.954	-50.730	0.277	-0.129
-172.939	-200.000	0.035	0.175
-171.925	700.451	-0.110	-0.287
-170.910	-16.337	0.143	0.089
-169.896	-102.811	-0.270	-0.063
-168.881	279.465	-0.163	0.287
-167.866	-200.000	0.000	-0.071
-166.852	-200.000	0.085	-0.436
-165.837	106.206	-0.178	-0.208
-164.823	382.769	0.071	-0.144
-163.808	77.061	0.056	0.058
-162.793	-77.948	0.181	-0.062
-161.779	134.457	-0.088	0.113
-160.764	148.742	0.205	0.273
-159.750	-6.362	-0.088	-0.059
-158.735	800.000	0.043	0.186
-157.720	65.484	0.225	0.225
-156.706	-75.257	0.559	-0.197
-155.691	93.923	-0.168	0.188
-154.677	715.841	0.080	-0.208
-153.662	-164.456	-0.235	0.011
-152.647	-52.420	0.259	-0.118
-151.633	271.905	0.068	0.118
-150.618	123.949	0.037	0.046
-149.604	800.000	0.020	0.085
-148.589	19.310	0.199	-0.158
-147.574	68.880	-0.093	0.094
-146.560	157.471	0.056	-0.077
-145.545	-200.000	0.060	-0.456
-144.531	-200.000	-0.017	0.309
-143.516	-144.877	0.498	-0.045
-142.502	-122.642	0.141	-0.023
-141.487	-14.990	0.163	-0.103
-140.472	19.373	-0.162	-0.128
-139.458	-111.501	-0.188	0.038
-138.443	-140.434	-0.244	0.025
-137.429	-200.000	-0.020	0.256
-136.414	-160.863	0.145	0.008
-135.399	-200.000	0.008	-0.238
-134.385	149.669	-0.222	-0.297
-133.370	22.691	-0.220	0.177
-132.356	-200.000	-0.024	0.224
-131.341	456.366	-0.211	-0.462
-130.326	-78.932	0.144	-0.048
-129.312	-200.000	0.013	0.420
-128.297	86.364	-0.045	-0.049
-127.283	-99.820	0.291	0.072
-126.268	-132.171	0.201	-0.026
-125.253	-80.214	0.257	0.085
-124.239	691.396	-0.123	0.317
-123.224	28.451	-0.228	-0.190
-122.210	29.803	0.137	0.115
-121.195	800.000	0.050	-0.203
