DTS Sentinel unit serial number:	SN413079Multiplexer serial number:	ORYXHardware model number:	OX4-SRSoftware version number:	ORYX F/W v4.00 Oryx Data Collector v3.7.2.0data status	okinstallation	princeton_trtdifferential loss correction	single-endedforward channel	channel 2reverse channel	N/Adate	2019/09/11time	13:05:11forward acquisition time	60.00reverse acquisition time	0.00gamma	496.2192k internal	0.2292k external	0.2292temperature offset calibration	0.9969default loss term (dB/km)	0.3790temperature slope calibration	1.0000multiplexer offset coefficient	1.0000multiplexer slope coefficient	1.0000fibre end	0.00T internal ref (°C)	41.70T ext. ref 1 (°C)	0.25T ext. ref 2 (°C)	39.04length (m)	temperature (°C)	Stokes	anti-Stokes-747.200	-54.658	0.202	-0.093
-746.185	17.268	-0.185	0.150
-745.171	711.441	-0.095	0.257
-744.156	-200.000	-0.020	0.435
-743.142	-200.000	-0.004	0.393
-742.127	-106.234	-0.442	0.101
-741.112	90.883	0.147	-0.168
-740.098	-102.834	-0.138	0.034
-739.083	-90.049	-0.071	0.021
-738.069	562.280	0.118	0.292
-737.054	-95.796	0.138	0.038
-736.039	800.000	-0.059	0.184
-735.025	36.436	0.119	0.108
-734.010	800.000	0.028	-0.111
-732.996	579.606	-0.161	0.404
-731.981	-57.441	-0.179	-0.080
-730.966	719.235	-0.009	0.024
-729.952	665.251	-0.101	-0.267
-728.937	77.951	0.126	-0.137
-727.923	800.000	-0.026	-0.110
-726.908	104.839	-0.081	-0.098
-725.894	-11.471	0.052	-0.035
-724.879	-75.319	-0.259	-0.094
-723.864	-77.850	-0.425	-0.150
-722.850	435.104	0.015	-0.033
-721.835	362.278	-0.140	-0.287
-720.821	-138.860	-0.124	-0.014
-719.806	-28.702	-0.034	0.020
-718.791	-200.000	0.038	0.441
-717.777	800.000	0.068	-0.219
-716.762	49.868	0.060	0.057
-715.748	800.000	0.148	-0.439
-714.733	44.827	-0.326	-0.307
-713.718	-28.134	-0.120	0.071
-712.704	56.495	-0.187	-0.186
-711.689	-86.672	0.277	-0.087
-710.675	55.719	-0.136	0.135
-709.660	8.241	-0.040	0.031
-708.645	75.795	-0.199	-0.215
-707.631	167.155	0.075	-0.109
-706.616	-21.383	0.348	-0.217
-705.602	800.000	0.052	-0.152
-704.587	-36.976	0.234	0.128
-703.572	-200.000	0.016	0.299
-702.558	157.693	0.105	-0.148
-701.543	14.804	-0.057	0.046
-700.529	800.000	0.009	-0.038
-699.514	23.707	0.306	-0.258
-698.499	-139.877	0.074	0.008
-697.485	-145.675	0.281	0.026
-696.470	-200.000	0.020	-0.190
-695.456	-49.089	0.218	0.106
-694.441	-198.267	-0.153	-0.001
-693.426	45.187	-0.384	0.361
-692.412	457.391	-0.101	-0.230
-691.397	800.000	-0.040	-0.129
-690.383	-200.000	-0.014	0.335
-689.368	62.561	-0.126	-0.128
-688.354	380.086	0.072	0.150
-687.339	-11.158	0.214	-0.144
-686.324	100.525	-0.179	-0.213
-685.310	-200.000	0.059	0.341
-684.295	-200.000	-0.011	0.175
-683.281	-122.779	-0.216	-0.036
-682.266	-21.101	-0.063	-0.040
-681.251	-200.000	-0.045	-0.221
-680.237	-120.328	-0.207	-0.036
-679.222	800.000	0.050	0.220
-678.208	-74.817	0.292	0.107
-677.193	50.475	0.067	-0.065
-676.178	-122.959	-0.104	-0.017
-675.164	114.652	-0.098	-0.122
-674.149	168.259	0.043	0.063
-673.135	176.100	-0.056	-0.083
-672.120	191.883	0.102	0.157
-671.105	-7.891	0.151	-0.104
-670.091	800.000	-0.020	-0.056
-669.076	-200.000	-0.015	-0.257
-668.062	23.839	-0.298	-0.250
-667.047	428.510	0.216	-0.477
-666.032	-125.495	0.237	0.037
-665.018	11.680	-0.186	-0.145
-664.003	-200.000	-0.039	0.402
-662.989	-14.742	-0.156	0.102
-661.974	217.606	0.090	0.147
-660.959	-200.000	0.011	-0.266
-659.945	800.000	-0.045	-0.133
-658.930	124.977	0.145	-0.187
-657.916	-200.000	0.052	-0.424
-656.901	586.210	0.066	0.166
-655.886	36.074	-0.071	-0.063
-654.872	-136.295	-0.261	-0.031
-653.857	478.479	0.077	0.177
-652.843	800.000	0.028	0.095
-651.828	462.182	-0.054	0.122
-650.814	541.026	-0.136	-0.331
-649.799	-47.490	-0.323	-0.160
-648.784	-200.000	-0.060	0.460
-647.770	180.226	-0.214	-0.319
-646.755	-200.000	-0.071	-0.403
-645.741	-25.018	-0.150	0.090
-644.726	654.289	-0.023	-0.059
-643.711	295.229	0.119	-0.221
-642.697	800.000	-0.038	-0.153
-641.682	597.375	0.012	0.029
-640.668	214.322	-0.175	0.283
-639.653	322.379	0.158	0.307
-638.638	-200.000	-0.012	-0.291
-637.624	602.948	-0.155	-0.392
-636.609	800.000	-0.160	-0.548
-635.595	2.000	0.148	-0.109
-634.580	-170.457	0.301	0.011
-633.565	800.000	-0.040	0.141
-632.551	295.798	0.133	0.248
-631.536	47.101	0.216	0.204
-630.522	81.081	0.042	0.047
-629.507	604.413	0.028	-0.070
-628.492	130.016	-0.147	0.192
-627.478	150.739	0.096	0.133
-626.463	-200.000	0.001	0.165
-625.449	-52.794	0.190	-0.089
-624.434	-105.557	-0.190	-0.044
-623.419	-200.000	0.037	0.169
-622.405	-32.221	0.034	0.019
-621.390	214.848	0.157	0.253
-620.376	-22.454	-0.229	-0.141
-619.361	800.000	-0.080	-0.268
-618.346	2.711	0.349	-0.257
-617.332	66.393	-0.189	0.195
-616.317	162.991	-0.312	0.447
-615.303	-79.633	-0.238	-0.082
-614.288	-94.469	-0.232	-0.064
-613.273	-128.665	-0.132	-0.019
-612.259	-74.647	-0.330	0.121
-611.244	518.697	-0.081	0.194
-610.230	199.498	-0.115	0.180
-609.215	-51.815	-0.072	-0.034
-608.201	-22.822	-0.086	-0.053
-607.186	670.747	0.020	-0.054
-606.171	-180.092	-0.049	0.001
-605.157	6.657	-0.202	-0.153
-604.142	28.682	-0.132	-0.114
-603.128	117.843	-0.206	-0.258
-602.113	-200.000	0.059	0.278
-601.098	6.994	0.154	-0.117
-600.084	95.160	-0.259	-0.300
-599.069	-162.535	0.228	-0.011
-598.055	-188.139	0.082	0.001
-597.040	47.820	-0.174	-0.165
-596.025	88.046	-0.091	0.102
-595.011	-200.000	-0.051	-0.264
-593.996	-20.053	-0.023	-0.015
-592.982	800.000	0.041	-0.153
-591.967	-26.283	-0.227	-0.136
-590.952	-200.000	0.044	-0.299
-589.938	424.017	0.045	-0.098
-588.923	287.051	-0.085	0.156
-587.909	800.000	0.024	-0.074
-586.894	-147.053	-0.220	-0.019
-585.879	-200.000	0.011	0.112
-584.865	-141.508	0.311	0.032
-583.850	-200.000	0.030	0.232
-582.836	80.225	-0.044	0.049
-581.821	800.000	-0.065	0.264
-580.806	-200.000	0.015	-0.243
-579.792	-71.325	0.261	-0.100
-578.777	-85.905	0.080	-0.025
-577.763	800.000	0.025	0.071
-576.748	101.183	-0.112	0.132
-575.733	209.645	-0.162	-0.258
-574.719	-43.104	0.160	-0.082
-573.704	-77.023	0.366	0.130
-572.690	-55.793	0.315	0.143
-571.675	45.829	-0.224	-0.211
-570.661	-15.304	0.012	0.008
-569.646	230.667	0.061	0.102
-568.631	800.000	0.082	0.309
-567.617	14.511	0.087	0.069
-566.602	-136.375	0.081	0.010
-565.588	-200.000	-0.060	0.285
-564.573	-200.000	0.034	-0.219
-563.558	-200.000	-0.042	0.222
-562.544	-34.334	-0.277	-0.154
-561.529	133.527	0.074	0.097
-560.515	117.089	-0.126	0.157
-559.500	-45.376	-0.297	0.150
-558.485	-174.531	-0.291	-0.008
-557.471	364.365	0.083	-0.170
-556.456	-40.998	-0.094	-0.049
-555.442	-67.352	-0.169	0.068
-554.427	655.519	0.132	-0.345
-553.412	107.231	-0.266	-0.321
-552.398	-101.749	0.141	-0.035
-551.383	286.666	-0.060	0.109
-550.369	-59.540	0.224	-0.098
-549.354	-99.337	-0.375	0.096
-548.339	800.000	-0.110	-0.365
-547.325	68.364	-0.097	0.101
-546.310	23.246	-0.169	-0.141
-545.296	-63.334	-0.128	0.054
-544.281	-111.285	0.164	0.034
-543.266	-200.000	-0.000	0.092
-542.252	-200.000	-0.015	0.206
-541.237	-67.659	-0.075	0.030
-540.223	800.000	-0.110	-0.448
-539.208	-170.237	0.084	0.003
-538.193	-200.000	-0.045	-0.335
-537.179	800.000	0.017	-0.050
-536.164	-200.000	-0.020	-0.269
-535.150	-200.000	0.010	0.113
-534.135	-200.000	0.006	-0.081
-533.121	-200.000	0.002	0.037
-532.106	60.514	-0.130	-0.131
-531.091	-43.128	0.134	0.069
-530.077	175.557	-0.083	-0.121
-529.062	290.807	0.061	-0.113
-528.048	14.706	-0.053	0.042
-527.033	800.000	0.045	-0.172
-526.018	-2.322	0.275	0.196
-525.004	-158.042	-0.090	0.005
-523.989	-153.983	-0.045	-0.003
-522.975	235.874	-0.096	0.162
-521.960	-114.150	0.229	0.045
-520.945	121.032	-0.089	0.112
-519.931	59.187	0.246	-0.245
-518.916	-200.000	0.065	0.485
-517.902	-34.430	0.157	-0.088
-516.887	100.912	-0.121	0.143
-515.872	-87.679	-0.116	0.036
-514.858	52.759	-0.207	-0.201
-513.843	-167.506	0.008	-0.000
-512.829	-127.859	-0.085	0.012
-511.814	-200.000	0.035	-0.197
-510.799	155.172	0.201	-0.280
-509.785	800.000	0.114	-0.344
-508.770	800.000	0.041	-0.132
-507.756	-41.446	0.162	-0.085
-506.741	46.960	-0.227	-0.214
-505.726	-200.000	-0.007	-0.050
-504.712	61.794	0.040	0.041
-503.697	-15.610	-0.236	0.153
-502.683	136.534	-0.063	0.084
-501.668	86.327	-0.146	-0.163
-500.653	12.583	-0.365	-0.285
-499.639	-193.344	-0.036	-0.000
-498.624	-200.000	0.043	0.213
-497.610	-75.666	-0.206	-0.074
-496.595	-7.485	0.237	0.163
-495.581	-38.592	0.183	0.098
-494.566	119.529	-0.060	-0.075
-493.551	-122.808	-0.322	-0.053
-492.537	620.000	0.044	-0.111
-491.522	79.266	0.027	0.029
-490.508	-130.844	-0.079	0.011
-489.493	125.783	-0.100	0.128
-488.478	101.674	0.333	0.394
-487.464	-200.000	-0.002	-0.082
-486.449	-92.580	0.304	0.086
-485.435	51.831	0.213	0.205
-484.420	800.000	-0.011	0.044
-483.405	800.000	0.080	-0.256
-482.391	658.620	-0.067	-0.174
-481.376	-200.000	-0.027	0.256
-480.362	138.628	-0.151	0.201
-479.347	37.841	0.100	0.090
-478.332	198.273	-0.040	-0.062
-477.318	100.660	0.233	0.274
-476.303	217.244	0.143	0.231
-475.289	98.251	0.076	-0.088
-474.274	-143.118	-0.180	-0.018
-473.259	-200.000	0.020	-0.151
-472.245	220.750	-0.095	0.154
-471.230	-47.067	0.247	0.122
-470.216	-98.044	0.193	0.050
-469.201	213.027	-0.078	-0.124
-468.186	-103.889	-0.284	0.067
-467.172	-122.530	0.195	0.032
-466.157	-132.856	0.209	-0.027
-465.143	147.857	0.041	0.056
-464.128	1.150	0.064	-0.046
-463.113	4.152	-0.185	-0.137
-462.099	141.948	0.151	-0.203
-461.084	-84.235	0.243	-0.078
-460.070	51.155	-0.068	0.065
-459.055	-145.187	-0.120	-0.011
-458.040	190.223	0.170	-0.258
-457.026	161.062	-0.057	-0.080
-456.011	-200.000	-0.009	-0.082
-454.997	-182.628	-0.130	-0.002
-453.982	256.290	-0.202	-0.351
-452.968	-115.456	0.293	-0.056
-451.953	398.248	0.067	0.142
-450.938	80.005	0.096	0.104
-449.924	-129.574	-0.182	-0.025
-448.909	378.984	0.076	-0.157
-447.895	74.126	0.240	-0.255
-446.880	629.349	-0.055	-0.141
-445.865	106.145	0.148	-0.177
-444.851	-200.000	0.012	0.205
-443.836	141.531	-0.130	0.174
-442.822	-62.266	0.247	-0.104
-441.807	-200.000	0.020	-0.126
-440.792	-24.203	0.084	-0.050
-439.778	465.823	-0.081	0.183
-438.763	342.878	0.050	0.100
-437.749	-159.455	0.042	-0.002
-436.734	800.000	0.045	0.126
-435.719	96.943	-0.290	0.336
-434.705	43.397	0.174	-0.161
-433.690	-24.286	-0.239	-0.144
-432.676	436.175	0.063	0.138
-431.661	-200.000	-0.011	0.109
-430.646	538.261	0.112	-0.269
-429.632	-200.000	-0.014	0.371
-428.617	-87.880	-0.276	0.084
-427.603	-200.000	0.069	-0.370
-426.588	134.304	-0.092	0.121
-425.573	43.357	0.109	0.101
-424.559	-200.000	-0.078	-0.373
-423.544	152.232	0.158	0.218
-422.530	-102.924	-0.208	-0.050
-421.515	67.854	0.215	-0.222
-420.500	-200.000	0.100	-0.000
-419.486	87.397	0.083	-0.093
-418.471	238.959	0.037	0.061
-417.457	-200.000	-0.068	-0.357
-416.442	-68.839	-0.124	0.048
-415.428	706.657	0.138	-0.369
-414.413	-200.000	0.007	0.261
-413.398	-34.273	-0.218	-0.121
-412.384	-136.962	-0.114	0.013
-411.369	-74.448	-0.248	0.090
-410.355	16.848	-0.078	-0.062
-409.340	52.945	-0.144	-0.139
-408.325	315.744	-0.082	-0.156
-407.311	-75.563	-0.381	-0.137
-406.296	-107.385	-0.605	-0.134
-405.282	147.553	-0.146	0.198
-404.267	84.484	0.200	0.221
-403.252	-146.328	0.259	0.023
-402.238	-3.486	0.139	0.098
-401.223	-200.000	-0.039	-0.327
-400.209	273.653	0.134	-0.240
-399.194	-86.995	0.180	-0.055
-398.179	42.023	-0.155	-0.142
-397.165	-200.000	0.049	-0.267
-396.150	48.117	-0.144	-0.136
-395.136	-67.532	0.487	0.193
-394.121	-41.940	0.084	0.043
-393.106	-72.113	-0.291	0.109
-392.092	18.807	0.058	-0.047
-391.077	-200.000	0.022	-0.127
-390.063	-26.787	-0.196	-0.115
-389.048	-17.997	0.158	-0.100
-388.033	-65.023	-0.158	-0.065
-387.019	-65.960	-0.028	0.011
-386.004	421.889	0.100	0.216
-384.990	-96.957	0.200	0.053
-383.975	-46.144	0.178	0.089
-382.960	90.670	-0.200	0.226
-381.946	-134.940	-0.126	0.015
-380.931	-171.593	0.112	0.004
-379.917	800.000	-0.064	0.182
-378.902	10.859	0.062	0.048
-377.888	-178.830	0.111	-0.003
-376.873	195.844	0.068	0.105
-375.858	-7.575	0.361	0.246
-374.844	-162.684	0.201	0.010
-373.829	494.175	-0.049	-0.113
-372.815	600.558	-0.072	-0.181
-371.800	-54.208	0.295	0.135
-370.785	-80.658	0.219	-0.073
-369.771	-200.000	-0.004	-0.142
-368.756	-153.027	-0.119	0.008
-367.742	-200.000	-0.006	0.199
-366.727	53.881	0.108	-0.105
-365.712	800.000	0.035	0.115
-364.698	800.000	0.105	0.406
-363.683	800.000	-0.109	0.317
-362.669	-200.000	-0.008	-0.063
-361.654	-200.000	-0.028	0.272
-360.639	-190.895	0.235	-0.002
-359.625	-19.014	0.124	0.078
-358.610	-200.000	0.018	0.094
-357.596	-2.180	-0.096	0.068
-356.581	-200.000	0.009	0.090
-355.566	-200.000	-0.042	0.257
-354.552	107.192	-0.083	-0.100
-353.537	800.000	0.150	-0.459
-352.523	-5.121	0.182	0.126
-351.508	-200.000	0.003	0.256
-350.493	-45.338	-0.266	-0.133
-349.479	153.720	-0.057	-0.079
-348.464	-200.000	0.051	0.238
-347.450	-81.033	0.407	-0.136
-346.435	-200.000	0.036	-0.165
-345.420	31.616	0.205	-0.177
-344.406	800.000	0.065	0.269
-343.391	-34.961	0.187	0.103
-342.377	-154.354	0.486	0.033
-341.362	-113.717	-0.289	-0.057
-340.348	-112.908	0.155	0.031
-339.333	237.625	-0.092	0.153
-338.318	3.967	-0.173	0.128
-337.304	-56.791	-0.600	-0.267
-336.289	-5.675	0.168	-0.116
-335.275	-134.239	0.188	-0.023
-334.260	3.223	0.398	-0.292
-333.245	2.597	0.125	0.091
-332.231	-20.872	0.155	0.096
-331.216	-103.334	-0.178	-0.042
-330.202	-163.273	-0.319	-0.015
-329.187	123.032	-0.144	0.181
-328.172	-107.071	-0.264	0.059
-327.158	-200.000	-0.001	-0.178
-326.143	800.000	0.007	0.030
-325.129	-200.000	-0.071	0.548
-324.114	-116.647	0.125	0.023
-323.099	-200.000	-0.022	0.410
-322.085	-31.519	0.276	0.156
-321.070	14.006	0.208	0.163
-320.056	-52.180	0.206	-0.096
-319.041	-200.000	-0.107	0.543
-318.026	105.294	-0.318	0.378
-317.012	-200.000	0.018	0.305
-315.997	66.378	-0.239	-0.244
-314.983	-200.000	0.004	0.243
-313.968	3.409	-0.096	-0.071
-312.953	800.000	-0.020	-0.087
-311.939	-101.652	-0.148	-0.036
-310.924	-200.000	0.018	-0.153
-309.910	-22.091	0.124	-0.076
-308.895	149.211	0.128	0.175
-307.880	313.981	0.233	0.442
-306.866	270.824	-0.051	0.090
-305.851	42.331	-0.162	0.148
-304.837	-91.191	-0.266	-0.077
-303.822	-73.953	0.260	0.095
-302.807	-12.339	0.216	0.142
-301.793	-70.265	0.292	0.112
-300.778	-200.000	-0.021	0.203
-299.764	103.870	0.028	-0.033
-298.749	-100.905	-0.158	0.039
-297.735	34.562	-0.054	-0.048
-296.720	121.720	0.117	0.147
-295.705	38.468	0.249	-0.223
-294.691	115.929	-0.176	-0.217
-293.676	-26.072	0.241	0.143
-292.662	-70.757	-0.243	-0.092
-291.647	-121.047	-0.186	-0.031
-290.632	206.239	-0.142	0.222
-289.618	-59.964	-0.272	-0.117
-288.603	-200.000	0.003	0.048
-287.589	-31.775	-0.087	0.049
-286.574	112.667	0.158	0.192
-285.559	-68.022	-0.133	-0.052
-284.545	-36.360	0.483	0.261
-283.530	800.000	-0.041	-0.155
-282.516	112.465	0.121	-0.147
-281.501	117.985	0.130	0.162
-280.486	-60.152	0.521	0.223
-279.472	-115.423	-0.333	0.063
-278.457	122.057	-0.076	-0.095
-277.443	-111.436	0.267	0.055
-276.428	272.714	0.164	-0.292
-275.413	-200.000	0.057	-0.397
-274.399	-87.717	-0.077	0.023
-273.384	-121.848	0.243	0.040
-272.370	-76.502	-0.158	0.056
-271.355	-97.760	-0.360	-0.094
-270.340	-107.827	-0.088	-0.019
-269.326	-124.365	0.163	-0.026
-268.311	492.314	-0.111	-0.257
-267.297	34.683	-0.235	0.206
-266.282	800.000	0.102	0.423
-265.267	-49.129	0.320	-0.154
-264.253	-90.970	-0.150	0.043
-263.238	800.000	-0.045	0.130
-262.224	260.094	-0.085	0.148
-261.209	-102.847	-0.136	-0.033
-260.195	-200.000	-0.019	-0.094
-259.180	385.172	-0.150	0.310
-258.165	-29.304	-0.145	-0.083
-257.151	-200.000	-0.034	-0.258
-256.136	800.000	-0.030	0.124
-255.122	229.682	0.100	0.163
-254.107	-77.736	0.308	0.107
-253.092	147.432	0.036	0.048
-252.078	-4.237	0.230	-0.160
-251.063	513.380	0.047	0.109
-250.049	-53.159	-0.232	0.107
-249.034	442.012	0.118	-0.259
-248.019	538.742	-0.080	0.190
-247.005	-81.425	0.105	0.035
-245.990	119.025	0.255	-0.316
-244.976	800.000	0.092	0.317
-243.961	31.244	0.280	0.241
-242.946	-126.742	-0.131	0.019
-241.932	-127.347	0.155	0.023
-240.917	-145.867	0.269	-0.024
-239.903	800.000	0.087	0.249
-238.888	-33.529	0.265	-0.147
-237.873	48.624	0.380	0.357
-236.859	96.066	0.170	-0.195
-235.844	20.270	-0.166	-0.135
-234.830	800.000	0.051	0.188
-233.815	-160.838	-0.240	0.013
-232.800	-83.326	0.039	0.012
-231.786	122.652	0.152	0.191
-230.771	21.847	-0.118	0.096
-229.757	-18.761	-0.178	0.111
-228.742	-200.000	-0.037	-0.197
-227.727	-169.529	-0.295	0.011
-226.713	-72.574	0.368	-0.136
-225.698	800.000	-0.084	0.232
-224.684	339.370	0.071	0.139
-223.669	-79.582	0.261	-0.088
-222.655	-81.118	0.393	0.130
-221.640	800.000	-0.064	0.232
-220.625	21.688	0.194	-0.159
-219.611	27.346	-0.221	-0.186
-218.596	-89.830	0.159	0.047
-217.582	-39.108	0.205	-0.108
-216.567	-139.300	0.096	-0.010
-215.552	-144.185	-0.131	0.012
-214.538	-200.000	0.045	-0.202
-213.523	-0.258	-0.104	-0.074
-212.509	800.000	-0.009	-0.026
-211.494	298.823	-0.170	0.314
-210.479	-36.372	0.366	-0.198
-209.465	-109.546	0.086	-0.018
-208.450	715.051	0.082	-0.217
-207.436	-31.047	-0.224	-0.127
-206.421	129.529	-0.120	0.154
-205.406	-159.273	-0.090	-0.005
-204.392	-23.015	-0.165	0.100
-203.377	-70.430	0.214	0.081
-202.363	-8.154	0.140	-0.095
-201.348	-33.284	-0.184	-0.102
-200.333	800.000	0.030	-0.097
-199.319	-200.000	0.020	-0.457
-198.304	-136.287	-0.391	0.046
-197.290	698.826	-0.114	0.300
-196.275	589.115	-0.086	-0.213
-195.260	800.000	-0.081	-0.248
-194.246	800.000	-0.068	-0.197
-193.231	-12.530	-0.207	-0.135
-192.217	-56.287	-0.119	-0.053
-191.202	-121.615	-0.260	-0.043
-190.187	800.000	-0.068	0.297
-189.173	-181.505	0.098	0.002
-188.158	116.158	-0.268	0.328
-187.144	-200.000	-0.042	-0.285
-186.129	15.253	0.224	-0.176
-185.114	266.546	-0.114	0.199
-184.100	390.839	0.064	-0.134
-183.085	-86.622	-0.039	0.012
-182.071	-37.172	0.270	0.145
-181.056	70.507	0.185	-0.191
-180.042	-200.000	-0.136	-0.000
-179.027	-200.000	-0.013	0.166
-178.012	800.000	0.059	-0.175
-176.998	-93.991	-0.083	-0.023
-175.983	175.997	0.084	0.122
-174.969	312.725	0.175	-0.329
-173.954	800.000	-0.076	-0.300
-172.939	-200.000	0.036	0.241
-171.925	-200.000	0.010	-0.188
-170.910	588.487	-0.119	-0.293
-169.896	-94.635	-0.343	0.093
-168.881	-31.577	-0.248	0.140
-167.866	-200.000	0.004	-0.016
-166.852	232.495	0.110	-0.181
-165.837	-44.101	-0.101	-0.051
-164.823	261.564	0.059	0.102
-163.808	668.349	0.085	0.220
-162.793	83.345	-0.153	0.166
-161.779	78.478	-0.229	-0.245
-160.764	-60.524	0.160	-0.068
-159.750	-200.000	-0.037	0.205
-158.735	-65.031	-0.079	-0.032
-157.720	800.000	-0.052	0.183
-156.706	67.266	0.248	0.253
-155.691	-200.000	0.007	-0.201
-154.677	163.226	-0.071	-0.100
-153.662	800.000	0.125	-0.464
-152.647	-56.698	-0.077	0.034
-151.633	-140.231	-0.361	0.038
-150.618	800.000	0.018	-0.052
-149.604	-70.075	0.100	-0.038
-148.589	-81.565	0.136	-0.045
-147.574	472.500	-0.150	-0.337
-146.560	123.723	-0.114	-0.143
-145.545	-83.571	0.102	-0.033
-144.531	146.726	-0.239	0.321
-143.516	-21.411	-0.143	-0.087
-142.502	-72.176	-0.172	-0.064
-141.487	-47.958	0.068	0.033
-140.472	800.000	-0.044	0.183
-139.458	174.538	-0.066	-0.096
-138.443	-200.000	0.037	-0.194
-137.429	-52.661	-0.279	-0.129
-136.414	86.854	0.170	0.188
-135.399	169.427	-0.178	-0.254
-134.385	-21.305	0.064	-0.039
-133.370	129.391	0.147	0.187
-132.356	-200.000	0.000	0.011
-131.341	247.876	-0.234	-0.396
-130.326	-56.355	-0.092	-0.041
-129.312	-41.604	-0.271	-0.139
-128.297	21.783	0.067	-0.055
-127.283	-172.473	-0.282	0.009
-126.268	-172.016	0.073	0.002
-125.253	14.416	-0.207	-0.161
-124.239	-65.513	-0.218	0.087
-123.224	-146.468	0.200	0.017
-122.210	-90.587	0.076	-0.022
-121.195	-200.000	0.005	0.295
