DTS Sentinel unit serial number:	SN413079Multiplexer serial number:	ORYXHardware model number:	OX4-SRSoftware version number:	ORYX F/W v4.00 Oryx Data Collector v3.7.2.0data status	okinstallation	princeton_trtdifferential loss correction	single-endedforward channel	channel 2reverse channel	N/Adate	2019/09/11time	15:41:11forward acquisition time	60.00reverse acquisition time	0.00gamma	496.2192k internal	0.2289k external	0.2289temperature offset calibration	1.0018default loss term (dB/km)	0.3790temperature slope calibration	1.0000multiplexer offset coefficient	1.0000multiplexer slope coefficient	1.0000fibre end	0.00T internal ref (°C)	42.81T ext. ref 1 (°C)	1.02T ext. ref 2 (°C)	37.22length (m)	temperature (°C)	Stokes	anti-Stokes-747.200	-1.717	0.156	0.113
-746.185	-104.929	-0.144	-0.034
-745.171	-41.731	-0.155	-0.082
-744.156	75.443	0.130	0.140
-743.142	-50.601	-0.190	0.092
-742.127	10.051	-0.102	0.079
-741.112	406.316	0.116	0.252
-740.098	-48.014	0.055	0.027
-739.083	75.696	0.150	0.162
-738.069	-200.000	-0.049	0.452
-737.054	-83.855	-0.246	-0.080
-736.039	-70.021	-0.418	-0.163
-735.025	701.911	0.041	-0.111
-734.010	-31.761	0.172	-0.099
-732.996	-200.000	0.026	-0.349
-731.981	44.868	0.323	0.305
-730.966	-103.028	-0.172	0.042
-729.952	-123.643	0.127	0.021
-728.937	-173.371	0.199	-0.006
-727.923	155.279	0.072	-0.101
-726.908	26.927	-0.067	-0.058
-725.894	-200.000	-0.042	-0.201
-724.879	234.442	-0.077	0.130
-723.864	-160.809	0.260	-0.014
-722.850	166.185	0.147	-0.213
-721.835	-78.480	-0.279	-0.098
-720.821	-200.000	-0.016	0.306
-719.806	37.381	0.016	-0.015
-718.791	-15.120	-0.209	0.137
-717.777	-143.934	-0.218	0.021
-716.762	-200.000	0.000	-0.017
-715.748	206.668	-0.038	0.061
-714.733	117.495	-0.043	0.054
-713.718	116.660	-0.158	0.198
-712.704	-200.000	0.059	-0.370
-711.689	4.844	0.268	-0.202
-710.675	362.845	0.085	-0.176
-709.660	-52.371	-0.054	0.026
-708.645	-200.000	-0.001	0.026
-707.631	-200.000	0.047	0.351
-706.616	-68.121	-0.269	0.107
-705.602	-62.485	0.491	-0.209
-704.587	-200.000	0.006	-0.388
-703.572	-200.000	-0.051	0.247
-702.558	-154.611	-0.363	0.025
-701.543	800.000	-0.067	0.297
-700.529	37.251	-0.128	0.116
-699.514	521.423	-0.053	0.127
-698.499	37.563	0.108	0.098
-697.485	63.786	0.104	0.107
-696.470	261.210	-0.143	-0.253
-695.456	-200.000	0.050	-0.226
-694.441	385.142	0.114	-0.240
-693.426	-115.922	0.149	0.028
-692.412	800.000	0.027	0.102
-691.397	-116.489	-0.373	-0.070
-690.383	-77.585	-0.028	0.010
-689.368	-57.132	0.347	-0.156
-688.354	345.142	-0.115	0.232
-687.339	16.240	-0.122	-0.098
-686.324	800.000	-0.094	-0.358
-685.310	-200.000	-0.018	-0.123
-684.295	-200.000	-0.017	0.142
-683.281	-46.804	-0.477	-0.239
-682.266	189.993	0.143	0.220
-681.251	56.267	0.295	-0.293
-680.237	187.185	-0.107	-0.163
-679.222	49.161	0.050	-0.048
-678.208	-200.000	-0.046	0.370
-677.193	800.000	-0.093	-0.327
-676.178	140.819	-0.269	-0.364
-675.164	57.244	-0.059	0.059
-674.149	66.593	0.065	-0.068
-673.135	-54.032	-0.079	0.037
-672.120	-140.749	-0.087	-0.009
-671.105	77.338	0.168	0.183
-670.091	-12.432	0.187	-0.125
-669.076	-47.501	-0.128	-0.064
-668.062	190.046	0.162	-0.249
-667.047	-200.000	-0.013	-0.157
-666.032	175.956	-0.157	-0.233
-665.018	224.581	0.112	-0.185
-664.003	-46.671	-0.236	-0.118
-662.989	451.776	-0.075	-0.169
-661.974	348.782	0.149	-0.301
-660.959	-200.000	-0.032	-0.201
-659.945	-114.345	-0.316	-0.062
-658.930	-200.000	-0.011	0.088
-657.916	251.400	-0.099	-0.173
-656.901	-79.644	0.128	-0.044
-655.886	-200.000	0.056	-0.386
-654.872	648.819	0.167	-0.436
-653.857	-200.000	0.107	0.519
-652.843	78.205	-0.165	-0.179
-651.828	7.409	-0.159	-0.121
-650.814	229.333	-0.184	0.306
-649.799	-200.000	-0.040	0.459
-648.784	-200.000	-0.004	0.059
-647.770	-200.000	0.081	-0.406
-646.755	144.551	0.135	0.185
-645.741	140.099	-0.062	-0.084
-644.726	343.180	-0.162	0.325
-643.711	-141.291	-0.053	-0.005
-642.697	-52.376	0.174	0.082
-641.682	57.260	-0.201	-0.200
-640.668	800.000	-0.120	0.347
-639.653	114.785	-0.157	0.195
-638.638	244.093	-0.153	0.263
-637.624	-7.376	-0.148	-0.102
-636.609	639.529	-0.057	-0.148
-635.595	800.000	-0.062	-0.247
-634.580	495.675	-0.156	0.366
-633.565	-25.871	-0.173	-0.104
-632.551	-117.658	0.257	-0.047
-631.536	458.532	0.065	-0.147
-630.522	-97.070	-0.044	-0.012
-629.507	-111.060	0.322	-0.067
-628.492	-200.000	-0.017	-0.308
-627.478	114.421	0.073	-0.091
-626.463	775.018	0.056	-0.156
-625.449	59.661	-0.234	0.236
-624.434	-147.156	0.026	-0.002
-623.419	444.664	-0.069	0.154
-622.405	2.701	0.068	0.050
-621.390	-200.000	-0.064	-0.338
-620.376	-183.144	0.280	-0.005
-619.361	800.000	0.083	0.316
-618.346	-118.628	-0.069	0.012
-617.332	-19.023	-0.155	-0.098
-616.317	-128.566	-0.341	-0.049
-615.303	-153.341	0.127	-0.009
-614.288	800.000	0.038	0.131
-613.273	-43.062	0.266	-0.137
-612.259	102.499	-0.130	0.155
-611.244	26.660	-0.217	-0.185
-610.230	114.257	0.069	-0.086
-609.215	800.000	0.020	-0.082
-608.201	23.291	-0.268	0.224
-607.186	120.479	-0.151	0.191
-606.171	-200.000	0.005	0.126
-605.157	365.390	-0.059	-0.121
-604.142	-79.370	-0.143	0.049
-603.128	-100.381	-0.217	0.055
-602.113	-200.000	-0.015	-0.269
-601.098	-123.857	-0.054	-0.009
-600.084	-200.000	0.042	-0.197
-599.069	349.583	0.036	-0.073
-598.055	-63.256	0.174	-0.073
-597.040	-0.205	-0.201	-0.146
-596.025	-200.000	-0.020	-0.187
-595.011	629.515	0.101	-0.260
-593.996	-200.000	0.062	-0.398
-592.982	-18.332	-0.045	0.028
-591.967	-95.736	0.187	0.051
-590.952	-200.000	0.005	0.103
-589.938	-200.000	0.027	-0.133
-588.923	-133.282	-0.162	-0.021
-587.909	436.733	-0.075	0.165
-586.894	707.999	-0.066	0.177
-585.879	27.277	-0.109	-0.093
-584.865	-59.644	-0.081	-0.035
-583.850	-52.898	0.192	0.090
-582.836	-200.000	-0.011	0.104
-581.821	26.090	-0.346	-0.294
-580.806	-117.612	-0.235	-0.043
-579.792	3.214	0.081	0.060
-578.777	-96.407	0.127	0.034
-577.763	-89.330	0.298	-0.090
-576.748	-140.536	-0.178	-0.019
-575.733	22.762	-0.171	-0.143
-574.719	-126.377	-0.031	-0.005
-573.704	-39.618	-0.283	0.151
-572.690	66.352	0.158	0.164
-571.675	249.570	0.142	0.245
-570.661	-39.138	-0.340	-0.182
-569.646	-200.000	-0.037	0.185
-568.631	-161.359	-0.458	-0.024
-567.617	15.252	-0.336	-0.268
-566.602	-200.000	0.013	0.397
-565.588	-26.490	-0.323	0.193
-564.573	2.867	0.066	-0.048
-563.558	800.000	0.022	0.084
-562.544	-200.000	-0.016	-0.073
-561.529	257.418	0.072	0.126
-560.515	396.532	-0.046	0.097
-559.500	617.106	-0.042	-0.108
-558.485	62.668	0.072	-0.073
-557.471	490.231	-0.078	-0.182
-556.456	800.000	0.135	-0.426
-555.442	449.216	-0.025	-0.055
-554.427	-200.000	-0.050	0.304
-553.412	33.203	-0.149	0.131
-552.398	76.827	-0.155	0.167
-551.383	115.560	-0.116	0.144
-550.369	-200.000	-0.002	0.049
-549.354	94.023	0.160	-0.184
-548.339	-54.879	-0.167	0.076
-547.325	-200.000	0.009	-0.058
-546.310	-165.738	0.141	-0.006
-545.296	-200.000	-0.005	0.201
-544.281	38.316	-0.289	0.262
-543.266	-43.182	-0.100	-0.051
-542.252	0.783	0.231	-0.168
-541.237	-200.000	-0.001	-0.053
-540.223	-200.000	-0.063	-0.347
-539.208	-110.145	0.226	-0.048
-538.193	-17.884	-0.066	0.042
-537.179	-200.000	-0.020	-0.193
-536.164	-200.000	-0.010	0.186
-535.150	-31.526	0.376	0.215
-534.135	800.000	-0.088	0.255
-533.121	-200.000	0.029	-0.288
-532.106	266.774	-0.128	0.227
-531.091	48.676	-0.265	0.253
-530.077	29.027	-0.162	-0.140
-529.062	-46.347	-0.165	0.083
-528.048	200.364	0.058	-0.091
-527.033	523.033	-0.174	0.415
-526.018	-200.000	-0.017	-0.323
-525.004	-132.190	0.085	0.011
-523.989	800.000	0.022	-0.076
-522.975	-6.016	-0.277	-0.193
-521.960	-57.405	0.418	0.186
-520.945	71.422	0.108	-0.114
-519.931	-38.408	-0.108	-0.058
-518.916	-10.730	-0.112	0.075
-517.902	800.000	0.103	-0.299
-516.887	4.445	0.137	-0.102
-515.872	28.566	0.267	0.230
-514.858	-48.456	-0.150	0.073
-513.843	24.597	-0.416	-0.350
-512.829	-130.572	-0.262	-0.036
-511.814	92.211	-0.257	-0.295
-510.799	-96.657	0.309	-0.083
-509.785	9.983	-0.226	0.174
-508.770	-200.000	0.075	-0.408
-507.756	46.591	0.171	0.161
-506.741	57.629	-0.205	0.204
-505.726	-80.833	0.094	-0.032
-504.712	90.942	0.202	0.229
-503.697	-86.409	0.521	-0.163
-502.683	-106.245	-0.273	-0.062
-501.668	-12.958	-0.066	0.043
-500.653	50.312	-0.175	0.168
-499.639	800.000	0.019	-0.058
-498.624	-66.043	0.177	-0.072
-497.610	-150.299	-0.212	0.017
-496.595	527.030	-0.169	0.406
-495.581	-88.348	-0.096	-0.029
-494.566	-71.338	0.098	0.037
-493.551	-200.000	-0.009	0.043
-492.537	-195.534	0.280	-0.002
-491.522	37.226	0.290	-0.261
-490.508	800.000	-0.107	0.350
-489.493	506.465	-0.133	0.314
-488.478	70.704	0.182	-0.191
-487.464	-200.000	-0.013	0.397
-486.449	638.507	0.051	0.132
-485.435	22.165	0.337	0.279
-484.420	232.227	-0.121	0.202
-483.405	-137.026	0.133	-0.015
-482.391	-29.187	-0.263	-0.153
-481.376	-200.000	0.010	-0.257
-480.362	-50.387	-0.253	0.121
-479.347	338.980	-0.076	0.151
-478.332	-115.904	0.443	0.084
-477.318	-200.000	-0.018	-0.096
-476.303	289.274	-0.141	0.259
-475.289	-88.671	-0.136	-0.041
-474.274	-200.000	-0.058	-0.331
-473.259	-16.478	0.071	-0.046
-472.245	-200.000	-0.008	0.304
-471.230	-147.446	-0.057	0.005
-470.216	-86.584	0.377	-0.117
-469.201	772.034	-0.095	0.262
-468.186	-56.272	0.112	0.051
-467.172	30.641	0.227	0.197
-466.157	60.522	0.278	-0.280
-465.143	-11.165	0.160	-0.107
-464.128	629.452	-0.076	0.195
-463.113	316.785	-0.104	0.199
-462.099	94.040	0.189	0.218
-461.084	776.558	-0.200	-0.552
-460.070	-122.963	-0.265	-0.043
-459.055	-96.241	0.323	-0.087
-458.040	407.796	-0.136	-0.291
-457.026	-122.061	0.126	0.021
-456.011	-72.962	-0.348	-0.130
-454.997	800.000	-0.053	0.173
-453.982	-113.635	0.192	0.038
-452.968	-200.000	0.009	-0.142
-451.953	51.755	0.079	-0.076
-450.938	181.266	0.091	-0.135
-449.924	800.000	0.072	0.274
-448.909	-192.941	-0.360	0.003
-447.895	190.028	-0.228	0.346
-446.880	800.000	-0.051	-0.220
-445.865	360.995	0.122	-0.248
-444.851	127.411	0.057	0.074
-443.836	-200.000	0.051	0.337
-442.822	82.110	0.203	0.223
-441.807	-200.000	0.021	0.174
-440.792	322.046	0.035	-0.067
-439.778	-200.000	-0.002	-0.118
-438.763	32.305	-0.157	-0.137
-437.749	124.564	0.070	0.089
-436.734	-200.000	-0.028	-0.139
-435.719	800.000	-0.041	0.118
-434.705	-13.593	0.143	0.094
-433.690	0.438	0.153	0.111
-432.676	47.930	0.243	-0.230
-431.661	-68.203	-0.102	-0.040
-430.646	-174.936	-0.286	-0.008
-429.632	-99.396	-0.119	-0.030
-428.617	-43.244	0.174	-0.089
-427.603	57.941	0.322	0.319
-426.588	-200.000	-0.025	0.295
-425.573	107.621	-0.315	0.380
-424.559	-200.000	-0.014	0.241
-423.544	459.005	-0.177	0.398
-422.530	-89.571	0.117	0.035
-421.515	-71.599	-0.121	0.046
-420.500	123.092	-0.083	-0.105
-419.486	176.046	-0.134	-0.197
-418.471	-200.000	-0.016	0.199
-417.457	-138.021	0.052	0.006
-416.442	-200.000	0.029	0.255
-415.428	29.897	0.080	-0.069
-414.413	-171.570	0.182	0.006
-413.398	-92.134	-0.178	-0.051
-412.384	800.000	0.075	0.319
-411.369	155.511	0.072	-0.101
-410.355	130.991	0.193	0.251
-409.340	52.449	-0.190	0.183
-408.325	800.000	-0.078	-0.241
-407.311	385.101	-0.049	-0.102
-406.296	800.000	-0.061	-0.177
-405.282	58.837	-0.207	0.205
-404.267	-114.311	-0.202	-0.039
-403.252	800.000	-0.081	-0.353
-402.238	-7.023	0.248	-0.170
-401.223	-110.076	-0.027	-0.006
-400.209	134.795	-0.049	0.065
-399.194	800.000	0.069	-0.235
-398.179	-67.335	0.068	-0.027
-397.165	332.883	0.017	0.034
-396.150	800.000	0.023	-0.092
-395.136	800.000	-0.063	0.222
-394.121	-54.352	-0.233	-0.107
-393.106	-200.000	-0.020	0.277
-392.092	580.961	0.057	-0.141
-391.077	-113.778	0.147	0.029
-390.063	-156.393	0.147	-0.009
-389.048	800.000	0.025	0.082
-388.033	765.123	-0.109	0.300
-387.019	100.742	-0.047	-0.055
-386.004	-84.331	-0.148	-0.047
-384.990	-115.122	-0.104	0.020
-383.975	-141.720	0.106	-0.011
-382.960	-67.888	0.271	0.107
-381.946	-6.762	0.156	-0.107
-380.931	-134.923	-0.110	0.013
-379.917	241.977	-0.164	0.276
-378.902	506.280	0.073	0.171
-377.888	536.793	0.104	0.250
-376.873	-1.437	0.110	-0.078
-375.858	-1.785	-0.140	0.099
-374.844	-200.000	0.051	-0.285
-373.829	-200.000	-0.001	-0.202
-372.815	311.237	-0.113	0.213
-371.800	282.573	0.106	0.193
-370.785	-200.000	-0.016	-0.112
-369.771	708.968	0.111	-0.296
-368.756	-200.000	0.010	-0.279
-367.742	-77.530	-0.327	0.114
-366.727	-200.000	0.068	0.428
-365.712	-158.452	0.168	0.010
-364.698	-200.000	0.000	-0.146
-363.683	119.894	0.100	-0.125
-362.669	-58.898	-0.121	-0.053
-361.654	-146.019	0.176	-0.016
-360.639	800.000	0.018	-0.059
-359.625	-100.486	-0.136	-0.034
-358.610	-110.114	0.284	-0.060
-357.596	-122.070	0.326	0.054
-356.581	11.814	-0.268	-0.208
-355.566	-200.000	0.005	0.111
-354.552	148.840	0.107	0.146
-353.537	800.000	0.090	-0.397
-352.523	-200.000	0.016	-0.191
-351.508	-200.000	-0.039	-0.524
-350.493	-188.741	-0.454	0.006
-349.479	-200.000	-0.034	0.293
-348.464	800.000	-0.044	-0.170
-347.450	800.000	-0.049	-0.200
-346.435	209.818	-0.174	-0.275
-345.420	8.220	-0.305	0.231
-344.406	-12.962	0.062	0.041
-343.391	-200.000	-0.047	-0.227
-342.377	-121.546	0.270	0.045
-341.362	66.076	-0.219	0.225
-340.348	-26.249	0.293	0.173
-339.333	-200.000	0.010	0.327
-338.318	800.000	0.062	-0.252
-337.304	-186.073	0.232	0.003
-336.289	-53.099	0.151	-0.070
-335.275	528.898	0.069	0.163
-334.260	356.997	0.048	0.097
-333.245	-200.000	-0.008	0.115
-332.231	-40.978	0.124	-0.065
-331.216	249.466	-0.124	0.212
-330.202	800.000	-0.026	0.096
-329.187	-33.647	0.139	0.077
-328.172	-44.325	0.080	0.040
-327.158	-13.591	-0.370	0.242
-326.143	-109.897	-0.408	0.086
-325.129	53.607	0.010	0.010
-324.114	319.613	0.176	-0.336
-323.099	50.002	0.087	-0.083
-322.085	-200.000	-0.007	-0.385
-321.070	208.623	0.159	0.250
-320.056	190.080	0.238	0.361
-319.041	-200.000	-0.008	-0.130
-318.026	785.648	-0.037	-0.104
-317.012	77.014	-0.173	0.185
-315.997	-76.503	-0.177	0.063
-314.983	-70.762	0.172	-0.065
-313.968	-21.577	-0.035	0.021
-312.953	212.682	0.140	-0.223
-311.939	-166.028	-0.151	0.007
-310.924	-200.000	0.052	0.400
-309.910	-97.214	-0.257	0.068
-308.895	-200.000	0.004	-0.105
-307.880	-108.009	0.300	-0.066
-306.866	-92.192	-0.125	0.035
-305.851	-31.366	-0.268	0.152
-304.837	191.923	-0.096	-0.145
-303.822	-123.991	0.184	0.029
-302.807	-200.000	0.064	-0.514
-301.793	177.033	0.065	0.095
-300.778	193.212	0.246	0.375
-299.764	-50.823	0.167	0.079
-298.749	9.981	0.151	-0.116
-297.735	60.630	0.083	-0.083
-296.720	-59.430	-0.177	-0.077
-295.705	800.000	-0.082	-0.273
-294.691	651.925	0.014	0.037
-293.676	-24.139	0.483	0.291
-292.662	106.398	-0.149	-0.178
-291.647	68.254	0.230	-0.237
-290.632	125.649	-0.131	0.167
-289.618	-3.441	-0.207	-0.145
-288.603	8.256	0.278	-0.210
-287.589	173.572	0.083	0.120
-286.574	182.961	0.051	-0.075
-285.559	437.583	0.057	0.125
-284.545	-73.867	0.145	-0.053
-283.530	-43.954	0.415	0.210
-282.516	-200.000	0.068	0.331
-281.501	-35.750	0.172	0.094
-280.486	238.659	0.079	0.132
-279.472	800.000	-0.105	0.348
-278.457	78.049	-0.047	0.051
-277.443	800.000	0.116	-0.357
-276.428	99.919	-0.189	0.221
-275.413	800.000	-0.056	-0.231
-274.399	800.000	-0.028	-0.086
-273.384	497.737	-0.096	0.221
-272.370	-96.348	-0.246	-0.065
-271.355	-150.763	-0.252	0.019
-270.340	477.118	-0.071	-0.161
-269.326	-149.437	-0.163	0.013
-268.311	-200.000	-0.031	0.140
-267.297	-53.470	0.357	-0.164
-266.282	-13.034	0.169	-0.110
-265.267	44.926	-0.307	-0.284
-264.253	-23.950	0.377	-0.227
-263.238	-9.464	-0.189	0.127
-262.224	-200.000	-0.189	0.001
-261.209	-83.842	0.371	0.119
-260.195	-149.949	0.203	-0.016
-259.180	-86.546	0.211	-0.065
-258.165	800.000	0.007	0.026
-257.151	-138.282	0.342	-0.038
-256.136	72.862	-0.084	0.088
-255.122	-49.630	0.271	0.130
-254.107	163.070	0.123	0.173
-253.092	-91.099	0.200	-0.058
-252.078	-124.701	0.131	0.020
-251.063	-102.531	0.234	0.056
-250.049	48.099	0.278	-0.262
-249.034	-32.956	0.243	-0.136
-248.019	175.008	0.103	0.150
-247.005	-200.000	-0.012	-0.080
-245.990	151.080	-0.115	-0.157
-244.976	-59.842	-0.384	0.165
-243.961	-182.746	0.148	0.003
-242.946	169.162	-0.065	-0.093
-241.932	-72.867	0.327	-0.121
-240.917	-179.652	0.204	-0.004
-239.903	-102.803	-0.322	0.077
-238.888	-101.035	0.155	-0.038
-237.873	-134.682	0.289	0.035
-236.859	-200.000	-0.028	0.148
-235.844	-200.000	-0.013	0.066
-234.830	-65.711	-0.213	-0.086
-233.815	182.855	-0.085	-0.126
-232.800	-151.606	0.247	0.018
-231.786	401.624	0.139	0.294
-230.771	322.495	0.035	-0.066
-229.757	361.726	0.062	-0.125
-228.742	390.390	-0.166	0.347
-227.727	-200.000	-0.010	0.058
-226.713	82.047	-0.203	-0.220
-225.698	-200.000	-0.090	-0.459
-224.684	-2.461	-0.147	-0.103
-223.669	-118.262	0.139	0.025
-222.655	-146.159	0.342	-0.030
-221.640	-105.138	-0.313	0.072
-220.625	-37.700	-0.139	-0.074
-219.611	16.258	-0.118	0.094
-218.596	-200.000	-0.004	-0.055
-217.582	4.620	-0.203	-0.150
-216.567	13.407	-0.265	-0.206
-215.552	781.693	-0.055	0.152
-214.538	800.000	0.027	0.108
-213.523	-200.000	-0.002	-0.163
-212.509	-18.953	0.268	-0.167
-211.494	41.749	-0.131	0.119
-210.479	380.382	0.125	0.258
-209.465	210.086	-0.162	0.255
-208.450	-200.000	0.002	-0.216
-207.436	-96.860	0.290	-0.076
-206.421	51.881	0.203	-0.194
-205.406	-200.000	0.041	0.213
-204.392	-44.988	-0.256	0.128
-203.377	800.000	0.068	0.218
-202.363	-77.205	-0.262	-0.091
-201.348	-127.168	0.252	0.037
-200.333	-104.919	-0.098	0.023
-199.319	156.797	0.174	0.241
-198.304	45.197	-0.235	-0.217
-197.290	-103.972	-0.233	-0.054
-196.275	-132.469	0.182	0.024
-195.260	800.000	-0.068	0.205
-194.246	-23.356	0.188	0.113
-193.231	-200.000	-0.012	-0.133
-192.217	-47.283	-0.412	-0.201
-191.202	800.000	-0.064	0.228
-190.187	800.000	0.062	0.229
-189.173	-0.220	-0.070	-0.050
-188.158	-137.032	0.406	-0.047
-187.144	-200.000	-0.034	0.240
-186.129	157.860	0.108	-0.151
-185.114	-103.384	-0.087	0.020
-184.100	14.476	-0.338	-0.264
-183.085	-44.730	0.338	-0.169
-182.071	265.287	0.093	0.163
-181.056	142.795	-0.020	0.026
-180.042	-45.519	0.381	-0.189
-179.027	-68.660	0.261	0.101
-178.012	800.000	0.115	-0.395
-176.998	521.021	0.043	-0.102
-175.983	-13.444	-0.290	-0.188
-174.969	63.237	-0.249	-0.251
-173.954	-148.732	-0.242	-0.020
-172.939	686.176	-0.126	-0.331
-171.925	-200.000	0.041	-0.222
-170.910	167.046	-0.171	0.244
-169.896	-200.000	0.006	-0.106
-168.881	-98.044	-0.252	-0.065
-167.866	-92.149	-0.125	-0.035
-166.852	-68.160	0.277	-0.108
-165.837	-56.913	0.229	0.101
-164.823	-46.141	0.166	-0.082
-163.808	18.945	-0.232	0.187
-162.793	800.000	-0.088	0.290
-161.779	800.000	0.054	-0.208
-160.764	97.409	0.342	-0.393
-159.750	-32.453	-0.379	-0.212
-158.735	-143.907	0.453	-0.043
-157.720	-103.711	-0.059	0.014
-156.706	-78.873	0.162	0.055
-155.691	-4.503	0.211	-0.146
-154.677	-87.226	-0.543	-0.165
-153.662	354.833	0.145	-0.289
-152.647	151.746	0.151	-0.206
-151.633	800.000	0.021	-0.062
-150.618	800.000	-0.036	-0.144
-149.604	-112.006	-0.236	-0.048
-148.589	-118.258	-0.308	-0.055
-147.574	195.576	-0.038	-0.058
-146.560	-87.598	-0.159	0.048
-145.545	128.697	0.125	0.160
-144.531	-113.097	0.374	0.074
-143.516	-54.012	0.218	0.100
-142.502	-36.867	-0.269	-0.144
-141.487	-36.936	0.105	-0.056
-140.472	-200.000	0.015	0.081
-139.458	85.611	-0.192	0.212
-138.443	18.852	0.042	0.034
-137.429	42.605	0.134	-0.122
-136.414	43.556	-0.136	0.124
-135.399	239.851	-0.185	-0.309
-134.385	-113.591	0.227	0.044
-133.370	654.325	-0.087	0.224
-132.356	-117.662	-0.183	0.033
-131.341	800.000	-0.081	-0.302
-130.326	-173.535	0.262	0.008
-129.312	-99.100	0.122	-0.031
-128.297	-70.006	0.287	0.110
-127.283	27.801	-0.039	-0.032
-126.268	800.000	0.102	-0.359
-125.253	335.151	-0.155	-0.301
-124.239	-79.970	-0.146	0.049
-123.224	-128.228	-0.261	-0.037
-122.210	-65.550	0.343	0.138
