DTS Sentinel unit serial number:	SN413079Multiplexer serial number:	ORYXHardware model number:	OX4-SRSoftware version number:	ORYX F/W v4.00 Oryx Data Collector v3.7.2.0data status	okinstallation	princeton_trtdifferential loss correction	single-endedforward channel	channel 2reverse channel	N/Adate	2019/09/12time	02:21:11forward acquisition time	60.00reverse acquisition time	0.00gamma	496.2192k internal	0.2326k external	0.2326temperature offset calibration	1.0094default loss term (dB/km)	0.3790temperature slope calibration	1.0000multiplexer offset coefficient	1.0000multiplexer slope coefficient	1.0000fibre end	0.00T internal ref (°C)	32.56T ext. ref 1 (°C)	2.10T ext. ref 2 (°C)	26.66length (m)	temperature (°C)	Stokes	anti-Stokes-747.200	41.278	-0.182	0.166
-746.185	-200.000	-0.064	0.378
-745.171	87.142	0.186	-0.207
-744.156	800.000	0.105	0.335
-743.142	201.415	0.157	-0.244
-742.127	-72.075	-0.283	0.106
-741.112	729.200	0.042	-0.113
-740.098	-37.913	0.083	-0.044
-739.083	120.533	-0.122	0.153
-738.069	-88.338	-0.248	-0.075
-737.054	-102.489	0.479	-0.116
-736.039	522.222	0.036	0.085
-735.025	400.122	-0.059	-0.124
-734.010	-98.637	-0.280	-0.072
-732.996	258.370	0.134	-0.233
-731.981	687.618	0.055	-0.146
-730.966	-69.931	0.233	0.089
-729.952	38.195	-0.133	-0.120
-728.937	62.542	-0.062	0.062
-727.923	29.513	0.091	0.078
-726.908	-65.134	-0.328	0.133
-725.894	-2.777	-0.131	-0.092
-724.879	-69.235	0.092	0.036
-723.864	372.946	-0.161	-0.331
-722.850	365.046	0.254	-0.515
-721.835	42.357	0.130	0.119
-720.821	-111.725	-0.251	-0.051
-719.806	-127.708	-0.333	0.048
-718.791	-153.062	0.243	0.017
-717.777	-11.134	-0.141	-0.094
-716.762	-200.000	-0.001	-0.162
-715.748	-83.534	-0.047	0.015
-714.733	-200.000	0.008	0.297
-713.718	73.717	-0.024	0.025
-712.704	-1.632	0.179	-0.127
-711.689	-74.801	-0.135	-0.049
-710.675	29.250	-0.163	-0.139
-709.660	8.986	0.276	-0.210
-708.645	-200.000	0.015	-0.145
-707.631	-5.278	0.157	-0.109
-706.616	-97.423	0.148	0.039
-705.602	-88.964	0.139	0.041
-704.587	269.299	0.211	-0.374
-703.572	-85.219	-0.039	0.012
-702.558	202.994	0.077	-0.119
-701.543	80.429	0.108	0.117
-700.529	-80.393	0.069	-0.023
-699.514	-73.511	0.440	-0.162
-698.499	1.269	-0.185	-0.134
-697.485	146.939	-0.102	-0.138
-696.470	800.000	-0.041	0.172
-695.456	-200.000	0.022	0.131
-694.441	-102.029	-0.219	-0.053
-693.426	380.375	-0.060	-0.124
-692.412	115.139	0.070	-0.086
-691.397	202.981	-0.085	0.132
-690.383	-154.735	-0.093	0.006
-689.368	89.744	-0.046	-0.052
-688.354	447.860	0.082	-0.183
-687.339	-157.399	0.192	-0.012
-686.324	-48.487	0.213	0.103
-685.310	32.038	-0.258	0.224
-684.295	-60.264	-0.171	-0.073
-683.281	225.362	-0.110	0.180
-682.266	-200.000	0.051	0.267
-681.251	-144.705	-0.222	-0.021
-680.237	120.102	-0.077	-0.096
-679.222	31.295	-0.125	0.108
-678.208	283.625	-0.218	0.394
-677.193	-75.957	-0.482	-0.171
-676.178	-4.663	-0.202	0.140
-675.164	-50.581	-0.104	-0.049
-674.149	104.761	0.068	-0.081
-673.135	800.000	0.116	0.417
-672.120	-200.000	-0.012	-0.121
-671.105	-75.679	0.162	0.058
-670.091	-117.200	0.125	-0.023
-669.076	-146.187	0.337	0.030
-668.062	14.292	-0.264	0.207
-667.047	-125.417	-0.324	0.050
-666.032	56.755	-0.106	-0.104
-665.018	147.308	0.146	-0.197
-664.003	-105.764	0.189	0.043
-662.989	-75.240	0.187	0.067
-661.974	112.831	0.160	0.195
-660.959	461.631	-0.135	-0.303
-659.945	-89.805	0.265	-0.078
-658.930	-200.000	-0.017	0.109
-657.916	179.093	-0.219	-0.321
-656.901	-200.000	-0.035	0.215
-655.886	344.114	-0.134	-0.263
-654.872	519.793	-0.030	-0.070
-653.857	199.759	-0.048	0.073
-652.843	28.038	0.068	-0.058
-651.828	361.452	0.040	0.080
-650.814	800.000	0.038	0.108
-649.799	-200.000	0.019	0.323
-648.784	800.000	0.036	0.103
-647.770	-200.000	0.005	0.167
-646.755	-128.075	0.303	0.044
-645.741	5.311	0.217	0.161
-644.726	-49.090	-0.096	-0.046
-643.711	800.000	-0.103	0.295
-642.697	-200.000	0.005	-0.079
-641.682	14.790	0.154	-0.121
-640.668	530.842	-0.171	-0.406
-639.653	800.000	-0.113	0.396
-638.638	-64.341	-0.530	-0.217
-637.624	546.524	-0.092	0.221
-636.609	-200.000	-0.030	0.257
-635.595	800.000	-0.057	-0.234
-634.580	-200.000	-0.001	-0.025
-633.565	-145.408	0.213	0.019
-632.551	-46.813	0.126	-0.062
-631.536	-133.302	0.116	-0.015
-630.522	6.748	0.095	-0.071
-629.507	132.010	0.003	-0.003
-628.492	131.847	0.077	0.099
-627.478	-44.755	0.226	0.113
-626.463	-200.000	0.009	-0.262
-625.449	-200.000	-0.106	0.491
-624.434	-3.680	0.209	0.146
-623.419	-200.000	0.106	-0.526
-622.405	549.646	0.089	-0.214
-621.390	-200.000	0.008	-0.319
-620.376	-200.000	-0.063	0.285
-619.361	-200.000	-0.068	0.341
-618.346	-72.241	-0.126	0.047
-617.332	-200.000	-0.012	-0.060
-616.317	-46.151	0.199	-0.098
-615.303	87.683	0.101	0.112
-614.288	-45.164	0.108	-0.054
-613.273	52.890	0.428	0.410
-612.259	800.000	0.050	0.211
-611.244	200.509	-0.088	0.136
-610.230	174.961	0.096	-0.140
-609.215	-200.000	-0.053	-0.306
-608.201	800.000	0.025	-0.072
-607.186	-99.869	0.182	-0.046
-606.171	-65.125	0.274	-0.111
-605.157	43.345	-0.133	0.122
-604.142	-200.000	-0.001	0.031
-603.128	-169.612	-0.387	0.014
-602.113	-200.000	-0.028	0.549
-601.098	-200.000	0.167	0.000
-600.084	-200.000	-0.017	-0.153
-599.069	-119.162	-0.038	-0.007
-598.055	-197.765	0.237	0.001
-597.040	35.810	0.079	0.070
-596.025	-99.318	0.133	-0.034
-595.011	-47.636	0.367	0.178
-593.996	-115.309	-0.450	-0.085
-592.982	-53.144	0.147	-0.067
-591.967	-82.916	-0.497	0.161
-590.952	-200.000	0.001	-0.118
-589.938	-19.913	0.139	-0.086
-588.923	-200.000	0.014	-0.280
-587.909	-138.473	0.420	-0.046
-586.894	-66.510	-0.327	0.130
-585.879	-171.931	0.144	0.005
-584.865	144.202	-0.180	-0.240
-583.850	170.028	-0.169	-0.242
-582.836	-63.340	-0.215	-0.089
-581.821	134.264	0.036	0.047
-580.806	800.000	-0.082	0.346
-579.792	800.000	-0.022	-0.064
-578.777	-87.251	-0.342	0.104
-577.763	367.725	-0.036	-0.074
-576.748	-200.000	0.002	-0.060
-575.733	-132.387	-0.215	-0.028
-574.719	29.483	0.037	0.032
-573.704	417.943	-0.023	-0.049
-572.690	233.589	-0.083	0.136
-571.675	-200.000	0.041	-0.286
-570.661	53.234	0.276	-0.265
-569.646	199.953	-0.040	-0.062
-568.631	282.796	-0.172	-0.308
-567.617	-86.978	-0.229	-0.070
-566.602	-38.945	-0.132	-0.070
-565.588	19.095	0.126	0.101
-564.573	233.299	-0.164	0.269
-563.558	-200.000	0.015	0.085
-562.544	164.329	0.274	0.387
-561.529	-200.000	-0.013	0.264
-560.515	39.612	0.228	-0.205
-559.500	11.089	0.175	-0.134
-558.485	-200.000	-0.038	0.190
-557.471	132.450	0.058	-0.074
-556.456	-200.000	-0.000	-0.261
-555.442	800.000	-0.053	0.188
-554.427	219.900	0.119	0.191
-553.412	144.336	0.286	-0.382
-552.398	-177.654	-0.238	-0.006
-551.383	-78.776	0.300	-0.103
-550.369	658.973	0.060	-0.154
-549.354	-2.037	0.118	-0.083
-548.339	-200.000	0.034	0.425
-547.325	-0.410	-0.131	-0.093
-546.310	-17.544	0.060	-0.038
-545.296	108.354	-0.096	-0.115
-544.281	24.149	-0.288	0.238
-543.266	-39.540	0.268	0.140
-542.252	155.429	0.050	-0.069
-541.237	-200.000	-0.009	-0.342
-540.223	-64.980	-0.244	0.099
-539.208	58.230	-0.095	-0.093
-538.193	217.330	0.139	-0.221
-537.179	319.168	0.161	0.305
-536.164	363.610	-0.123	0.248
-535.150	800.000	-0.032	-0.122
-534.135	-200.000	0.018	-0.119
-533.121	-37.975	0.111	0.059
-532.106	-166.308	-0.401	0.017
-531.091	-4.746	0.300	0.207
-530.077	-200.000	-0.003	-0.243
-529.062	800.000	0.046	-0.192
-528.048	646.173	0.059	-0.150
-527.033	43.838	0.105	0.096
-526.018	-0.556	0.172	0.122
-525.004	-18.758	-0.266	0.166
-523.989	53.711	-0.338	-0.324
-522.975	574.808	0.130	-0.316
-521.960	-32.284	0.221	-0.124
-520.945	169.341	-0.027	0.039
-519.931	-35.318	-0.232	-0.126
-518.916	1.826	-0.107	0.077
-517.902	14.427	-0.289	0.225
-516.887	-200.000	-0.022	0.376
-515.872	7.249	-0.049	-0.037
-514.858	35.100	-0.061	0.053
-513.843	279.935	-0.095	-0.169
-512.829	-200.000	-0.026	0.206
-511.814	186.380	-0.112	0.167
-510.799	800.000	-0.074	0.236
-509.785	-200.000	-0.005	-0.272
-508.770	95.046	0.150	-0.170
-507.756	-124.831	-0.176	0.027
-506.741	189.517	-0.133	-0.199
-505.726	-200.000	0.014	0.403
-504.712	247.323	-0.099	-0.167
-503.697	-200.000	0.007	-0.109
-502.683	-200.000	-0.025	-0.118
-501.668	-54.562	0.203	0.092
-500.653	-111.899	-0.253	-0.051
-499.639	59.801	0.322	-0.317
-498.624	-65.134	0.438	-0.177
-497.610	442.773	0.063	0.138
-496.595	84.221	-0.098	-0.107
-495.581	800.000	0.123	0.476
-494.566	178.070	-0.125	-0.183
-493.551	-117.219	-0.386	0.070
-492.537	-34.597	-0.171	0.094
-491.522	-138.816	-0.138	-0.015
-490.508	-87.898	0.165	-0.049
-489.493	-108.943	0.257	0.055
-488.478	85.607	-0.231	-0.254
-487.464	119.810	-0.167	0.207
-486.449	-166.843	-0.295	0.012
-485.435	800.000	-0.073	-0.213
-484.420	9.840	0.196	0.148
-483.405	-62.794	0.187	0.077
-482.391	68.222	0.218	-0.223
-481.376	-44.679	-0.339	-0.169
-480.362	-150.174	0.375	0.029
-479.347	-200.000	0.004	0.047
-478.332	265.259	-0.021	0.037
-477.318	-33.497	-0.160	-0.088
-476.303	158.138	-0.023	-0.031
-475.289	-103.728	-0.039	-0.009
-474.274	-38.626	-0.136	0.072
-473.259	-75.633	0.128	0.045
-472.245	109.205	-0.262	0.313
-471.230	-200.000	0.010	0.338
-470.216	-16.725	-0.153	0.097
-469.201	208.078	0.163	-0.254
-468.186	-200.000	0.217	-0.001
-467.172	-200.000	0.027	-0.209
-466.157	-30.018	0.020	0.011
-465.143	800.000	-0.040	-0.157
-464.128	199.981	-0.070	-0.107
-463.113	-15.711	-0.264	-0.168
-462.099	43.972	-0.358	-0.327
-461.084	-114.018	-0.298	-0.058
-460.070	-142.180	0.291	0.029
-459.055	-19.505	0.267	0.165
-458.040	-200.000	0.021	0.291
-457.026	63.327	-0.183	0.183
-456.011	-200.000	-0.051	0.310
-454.997	800.000	-0.044	0.164
-453.982	-17.867	-0.103	-0.064
-452.968	-51.444	-0.161	0.075
-451.953	147.022	0.078	-0.105
-450.938	800.000	-0.070	-0.241
-449.924	-32.619	-0.032	-0.018
-448.909	35.789	-0.204	0.179
-447.895	-200.000	0.029	-0.440
-446.880	-90.884	0.096	-0.028
-445.865	143.788	0.066	0.087
-444.851	-200.000	0.036	-0.211
-443.836	-37.133	0.248	0.132
-442.822	-135.765	0.213	0.025
-441.807	17.571	-0.117	0.093
-440.792	105.505	0.011	-0.013
-439.778	-87.200	-0.066	-0.020
-438.763	6.277	-0.264	-0.195
-437.749	569.961	-0.095	-0.231
-436.734	271.901	-0.033	0.058
-435.719	-200.000	-0.013	0.083
-434.705	-200.000	-0.020	-0.263
-433.690	800.000	-0.050	-0.159
-432.676	800.000	0.058	-0.169
-431.661	203.515	0.101	-0.156
-430.646	800.000	0.053	-0.169
-429.632	-66.243	0.126	0.050
-428.617	175.742	0.087	-0.125
-427.603	-200.000	-0.019	-0.253
-426.588	-161.383	0.029	0.001
-425.573	-137.416	0.130	0.015
-424.559	-55.301	-0.017	0.008
-423.544	-183.222	-0.345	0.006
-422.530	-71.102	-0.087	0.032
-421.515	682.211	-0.022	0.056
-420.500	487.654	0.072	-0.164
-419.486	514.313	-0.147	-0.342
-418.471	-114.881	0.136	-0.026
-417.457	450.564	-0.099	0.218
-416.442	-119.646	-0.510	0.088
-415.428	-61.599	0.109	0.046
-414.413	702.725	0.083	0.218
-413.398	267.165	0.057	-0.099
-412.384	26.097	-0.111	-0.093
-411.369	-40.605	0.091	0.047
-410.355	800.000	0.034	-0.104
-409.340	-71.346	-0.055	-0.021
-408.325	141.178	0.102	0.134
-407.311	134.128	0.310	-0.400
-406.296	-85.815	0.211	0.065
-405.282	-7.965	-0.196	-0.132
-404.267	-16.015	0.096	-0.061
-403.252	800.000	-0.056	-0.183
-402.238	-80.921	0.191	-0.063
-401.223	94.339	-0.222	0.251
-400.209	-35.909	0.029	-0.016
-399.194	25.646	0.121	-0.100
-398.179	-143.401	-0.256	0.024
-397.165	-111.521	0.151	-0.031
-396.150	242.169	-0.062	0.104
-395.136	255.865	-0.106	0.181
-394.121	800.000	-0.012	0.041
-393.106	75.989	-0.184	0.194
-392.092	27.326	-0.088	-0.073
-391.077	800.000	-0.064	-0.210
-390.063	800.000	-0.118	-0.462
-389.048	260.531	-0.049	-0.084
-388.033	18.900	0.231	0.184
-387.019	-89.356	0.139	-0.041
-386.004	-34.328	-0.310	-0.169
-384.990	-200.000	-0.000	0.147
-383.975	-200.000	0.045	-0.435
-382.960	-143.771	-0.044	0.004
-381.946	58.953	-0.047	0.046
-380.931	-24.702	-0.083	0.049
-379.917	499.318	-0.115	-0.264
-378.902	-14.614	-0.099	0.063
-377.888	195.288	0.121	0.183
-376.873	-23.890	0.016	-0.009
-375.858	7.677	0.129	-0.096
-374.844	-156.561	0.134	0.008
-373.829	-45.112	0.131	-0.065
-372.815	539.396	-0.110	-0.259
-371.800	-112.478	-0.157	-0.031
-370.785	607.382	0.121	0.299
-369.771	431.292	-0.085	-0.184
-368.756	-62.126	0.072	-0.030
-367.742	-95.984	0.275	-0.073
-366.727	163.354	0.049	0.069
-365.712	-105.959	0.131	0.029
-364.698	3.760	0.138	0.100
-363.683	-200.000	0.009	0.104
-362.669	151.217	-0.059	0.080
-361.654	-200.000	-0.023	-0.193
-360.639	800.000	-0.025	-0.087
-359.625	106.397	-0.146	0.172
-358.610	-36.756	-0.227	-0.121
-357.596	251.517	0.024	0.041
-356.581	595.530	-0.034	0.083
-355.566	-23.190	-0.290	0.174
-354.552	151.056	-0.122	-0.165
-353.537	-200.000	-0.033	-0.151
-352.523	304.963	-0.201	-0.370
-351.508	800.000	0.088	-0.256
-350.493	-57.435	0.109	0.048
-349.479	-200.000	-0.011	-0.559
-348.464	27.725	0.099	-0.083
-347.450	-26.577	-0.219	0.127
-346.435	-57.055	-0.100	-0.044
-345.420	-145.780	0.070	-0.006
-344.406	-35.250	-0.266	0.144
-343.391	-200.000	0.004	0.075
-342.377	783.043	0.051	0.138
-341.362	-72.042	-0.207	0.076
-340.348	-46.409	-0.091	0.044
-339.333	71.039	0.185	-0.190
-338.318	-108.778	0.066	-0.014
-337.304	-200.000	0.046	-0.320
-336.289	-200.000	-0.020	0.499
-335.275	-200.000	0.048	-0.309
-334.260	-200.000	-0.023	-0.357
-333.245	-200.000	-0.019	-0.320
-332.231	-32.369	0.141	0.078
-331.216	-200.000	-0.025	0.205
-330.202	56.938	0.376	0.364
-329.187	1.562	0.020	-0.014
-328.172	-197.151	-0.147	-0.001
-327.158	-104.891	0.258	0.059
-326.143	-45.336	0.086	0.043
-325.129	-27.328	-0.240	0.139
-324.114	-83.299	0.144	0.046
-323.099	-126.880	-0.281	0.041
-322.085	-200.000	0.010	0.076
-321.070	-135.462	0.174	-0.021
-320.056	-142.723	-0.344	0.033
-319.041	130.750	-0.135	0.172
-318.026	-119.091	-0.060	0.010
-317.012	-200.000	0.018	0.190
-315.997	302.779	-0.099	0.182
-314.983	154.324	-0.105	0.143
-313.968	800.000	0.026	0.083
-312.953	16.576	-0.198	-0.155
-311.939	-106.917	0.170	0.037
-310.924	-200.000	0.012	0.075
-309.910	187.419	0.185	0.274
-308.895	495.697	-0.100	0.228
-307.880	531.705	0.095	0.222
-306.866	77.017	-0.084	-0.088
-305.851	-200.000	0.009	-0.202
-304.837	-200.000	-0.019	0.256
-303.822	-188.256	-0.404	-0.005
-302.807	33.434	-0.194	0.167
-301.793	13.392	0.060	-0.046
-300.778	41.164	-0.087	0.078
-299.764	685.926	0.175	0.453
-298.749	-200.000	0.060	0.302
-297.735	-41.963	-0.192	-0.097
-296.720	-37.865	0.189	-0.100
-295.705	52.121	0.201	-0.189
-294.691	800.000	0.120	-0.404
-293.676	28.918	0.032	0.027
-292.662	561.792	0.163	-0.392
-291.647	145.293	-0.126	-0.167
-290.632	-62.164	-0.083	-0.034
-289.618	800.000	-0.050	-0.215
-288.603	-86.303	0.197	0.060
-287.589	-43.450	-0.418	0.209
-286.574	54.037	0.301	0.286
-285.559	-48.931	0.225	0.107
-284.545	190.579	0.139	-0.207
-283.530	-60.061	0.249	-0.105
-282.516	-17.479	0.113	-0.070
-281.501	38.356	-0.280	0.247
-280.486	163.684	-0.208	-0.290
-279.472	14.383	-0.067	-0.052
-278.457	-109.234	0.226	0.047
-277.443	-44.972	0.215	0.106
-276.428	-72.278	-0.181	0.066
-275.413	-135.320	-0.437	-0.052
-274.399	-68.208	-0.115	-0.044
-273.384	120.137	0.030	-0.037
-272.370	800.000	-0.043	0.128
-271.355	-81.769	0.158	0.051
-270.340	449.695	0.078	0.171
-269.326	-96.055	0.281	0.074
-268.311	-30.494	-0.208	0.117
-267.297	216.325	-0.093	0.146
-266.282	251.006	-0.049	0.082
-265.267	-200.000	0.068	-0.395
-264.253	4.144	-0.048	0.035
-263.238	-120.754	0.279	-0.047
-262.224	31.248	0.260	-0.221
-261.209	242.342	-0.232	-0.384
-260.195	68.946	-0.107	-0.109
-259.180	-200.000	-0.002	-0.182
-258.165	714.561	-0.106	-0.277
-257.151	-74.463	0.429	0.153
-256.136	364.602	0.087	-0.172
-255.122	70.864	-0.132	0.136
-254.107	-76.256	-0.183	0.064
-253.092	110.464	-0.129	0.154
-252.078	52.399	0.056	-0.053
-251.063	-134.442	0.376	-0.046
-250.049	97.933	0.292	0.332
-249.034	-137.045	0.295	-0.033
-248.019	588.138	-0.145	0.354
-247.005	-200.000	0.025	0.358
-245.990	-111.848	0.367	-0.073
-244.976	-16.621	0.176	-0.110
-243.961	183.831	0.070	-0.103
-242.946	-157.774	-0.341	-0.020
-241.932	-146.366	0.141	-0.012
-240.917	800.000	-0.072	-0.232
-239.903	-115.027	0.164	0.031
-238.888	-200.000	0.017	0.129
-237.873	-121.468	0.543	0.089
-236.859	242.641	-0.108	-0.179
-235.844	177.782	-0.120	-0.173
-234.830	-89.605	0.180	0.052
-233.815	138.617	0.145	-0.188
-232.800	47.692	0.078	0.072
-231.786	-165.923	0.116	0.005
-230.771	241.789	-0.178	0.294
-229.757	330.375	0.161	0.307
-228.742	-56.548	-0.295	0.129
-227.727	-116.896	0.315	-0.057
-226.713	-186.754	-0.200	0.003
-225.698	175.590	-0.125	-0.180
-224.684	579.194	-0.104	-0.251
-223.669	189.258	-0.092	0.136
-222.655	-200.000	0.025	0.203
-221.640	-152.078	0.289	0.021
-220.625	108.636	-0.166	0.196
-219.611	35.867	0.257	0.223
-218.596	-124.524	0.155	-0.024
-217.582	140.166	0.287	0.374
-216.567	-14.200	0.191	0.122
-215.552	-107.505	-0.308	-0.067
-214.538	199.762	0.282	0.428
-213.523	-146.554	0.715	0.061
-212.509	-39.127	0.158	-0.082
-211.494	322.999	0.203	0.381
-210.479	-100.881	-0.174	-0.042
-209.465	-64.730	0.135	0.054
-208.450	-73.330	0.063	-0.023
-207.436	320.063	-0.152	0.284
-206.421	16.275	-0.478	0.372
-205.406	62.947	0.065	0.065
-204.392	41.356	-0.073	-0.065
-203.377	-200.000	-0.082	-0.378
-202.363	-115.671	0.136	0.025
-201.348	99.611	-0.209	-0.238
-200.333	-200.000	-0.025	0.150
-199.319	625.195	-0.170	-0.424
-198.304	-49.584	-0.297	-0.140
-197.290	-140.865	-0.203	-0.021
-196.275	276.508	0.076	-0.132
-195.260	65.675	0.179	-0.179
-194.246	103.222	-0.234	-0.270
-193.231	-17.712	0.194	0.120
-192.217	-83.998	0.205	0.064
-191.202	-75.742	-0.126	0.044
-190.187	106.836	-0.147	0.172
-189.173	-146.319	0.266	-0.023
-188.158	-181.090	-0.213	-0.004
-187.144	572.270	0.150	0.362
-186.129	-9.054	0.143	-0.094
-185.114	800.000	0.101	0.435
-184.100	-136.222	0.157	0.018
-183.085	-76.875	-0.156	0.054
-182.071	800.000	0.053	0.221
-181.056	-118.792	-0.231	-0.040
-180.042	-31.912	0.176	-0.097
-179.027	-113.489	-0.135	0.026
-178.012	-200.000	-0.005	0.139
-176.998	-45.043	-0.186	-0.092
-175.983	-101.554	-0.242	0.058
-174.969	181.980	-0.122	-0.178
-173.954	-64.309	0.411	-0.165
-172.939	639.015	0.061	-0.153
-171.925	-35.815	-0.230	0.123
-170.910	124.539	-0.142	0.176
-169.896	490.342	0.074	-0.168
-168.881	-46.972	-0.117	-0.057
-167.866	-200.000	0.019	0.341
-166.852	-200.000	0.019	-0.117
-165.837	800.000	0.054	-0.200
-164.823	-124.163	0.096	0.015
-163.808	-191.603	-0.192	0.002
-162.793	200.772	0.101	-0.152
-161.779	-66.856	-0.330	-0.129
-160.764	800.000	0.046	0.183
-159.750	-109.682	-0.263	0.055
-158.735	75.888	-0.105	0.110
-157.720	-130.848	0.265	-0.035
-156.706	-200.000	-0.009	0.160
-155.691	225.840	-0.058	0.093
-154.677	482.047	-0.055	0.122
-153.662	800.000	0.075	0.300
-152.647	720.674	0.080	-0.210
-151.633	-184.956	0.188	0.003
-150.618	54.488	0.071	-0.067
-149.604	800.000	0.060	-0.237
-148.589	800.000	0.065	-0.258
-147.574	-4.457	-0.154	0.105
-146.560	-26.695	-0.173	-0.100
-145.545	110.956	-0.061	-0.072
-144.531	-113.775	-0.288	-0.055
-143.516	317.042	0.168	-0.313
-142.502	-159.479	-0.168	0.009
-141.487	-200.000	-0.092	0.512
-140.472	-132.803	-0.407	0.051
-139.458	800.000	-0.081	-0.292
-138.443	-78.480	0.186	0.063
-137.429	529.480	0.111	0.258
-136.414	314.695	0.159	0.295
-135.399	244.938	-0.222	0.368
-134.385	-49.560	0.392	0.184
-133.370	-200.000	0.017	0.267
-132.356	233.741	0.187	-0.303
-131.341	67.652	0.147	-0.148
-130.326	-200.000	-0.034	0.179
-129.312	61.993	-0.088	0.086
-128.297	-115.593	0.111	0.020
-127.283	155.701	0.232	0.315
-126.268	-72.929	-0.331	0.120
-125.253	581.480	-0.134	0.323
-124.239	28.558	-0.089	0.074
-123.224	-200.000	0.043	-0.241
-122.210	552.753	-0.132	-0.313
-121.195	-112.064	-0.163	-0.032
