DTS Sentinel unit serial number:	SN413079Multiplexer serial number:	ORYXHardware model number:	OX4-SRSoftware version number:	ORYX F/W v4.00 Oryx Data Collector v3.7.2.0data status	okinstallation	princeton_trtdifferential loss correction	single-endedforward channel	channel 2reverse channel	N/Adate	2019/09/11time	19:29:11forward acquisition time	60.00reverse acquisition time	0.00gamma	496.2192k internal	0.2304k external	0.2304temperature offset calibration	1.0041default loss term (dB/km)	0.3790temperature slope calibration	1.0000multiplexer offset coefficient	1.0000multiplexer slope coefficient	1.0000fibre end	0.00T internal ref (°C)	40.52T ext. ref 1 (°C)	1.33T ext. ref 2 (°C)	32.65length (m)	temperature (°C)	Stokes	anti-Stokes-747.200	179.488	-0.178	0.266
-746.185	521.498	-0.131	0.314
-745.171	-49.151	0.255	-0.124
-744.156	-68.404	0.051	-0.020
-743.142	-3.429	-0.471	-0.334
-742.127	531.012	0.080	0.192
-741.112	-87.361	0.164	0.051
-740.098	39.527	-0.218	0.199
-739.083	-200.000	0.007	0.068
-738.069	-112.769	0.269	-0.054
-737.054	-200.000	0.024	0.146
-736.039	188.124	-0.132	-0.200
-735.025	800.000	-0.108	0.307
-734.010	-161.430	-0.336	-0.018
-732.996	-116.583	-0.211	-0.040
-731.981	800.000	-0.036	0.156
-730.966	70.558	-0.168	0.177
-729.952	-200.000	0.046	-0.237
-728.937	-124.194	-0.396	-0.063
-727.923	-200.000	-0.025	0.380
-726.908	24.487	-0.362	-0.305
-725.894	392.162	0.180	-0.380
-724.879	-91.371	-0.192	0.056
-723.864	800.000	0.130	0.537
-722.850	138.652	0.061	-0.082
-721.835	-200.000	0.025	0.239
-720.821	-150.952	0.137	-0.011
-719.806	800.000	-0.060	0.234
-718.791	800.000	-0.067	-0.214
-717.777	-40.765	-0.185	-0.097
-716.762	236.304	0.105	-0.177
-715.748	-65.538	-0.248	0.101
-714.733	-114.170	-0.096	0.019
-713.718	2.888	-0.067	-0.049
-712.704	-105.222	0.250	0.058
-711.689	190.108	0.071	-0.108
-710.675	-137.378	-0.355	-0.041
-709.660	134.424	0.031	0.040
-708.645	-94.444	-0.284	0.079
-707.631	-85.485	0.283	-0.090
-706.616	182.036	0.088	0.132
-705.602	101.734	-0.207	0.246
-704.587	603.425	-0.083	-0.211
-703.572	-3.815	-0.249	0.176
-702.558	-64.955	-0.135	-0.055
-701.543	85.135	0.145	0.162
-700.529	-77.304	0.221	0.078
-699.514	27.545	-0.123	0.105
-698.499	330.930	-0.073	0.144
-697.485	508.401	-0.103	0.242
-696.470	143.155	-0.248	-0.335
-695.456	-200.000	0.022	-0.167
-694.441	-174.639	-0.251	0.007
-693.426	-56.083	0.221	-0.100
-692.412	-53.639	-0.182	0.084
-691.397	151.025	0.128	-0.177
-690.383	-200.000	-0.035	0.285
-689.368	-200.000	-0.003	-0.240
-688.354	-200.000	0.019	0.334
-687.339	375.520	0.058	0.120
-686.324	41.495	-0.246	-0.226
-685.310	800.000	-0.118	-0.385
-684.295	146.883	0.129	0.177
-683.281	-125.050	-0.211	-0.033
-682.266	-200.000	-0.006	0.050
-681.251	800.000	-0.069	0.240
-680.237	-200.000	-0.066	0.331
-679.222	-200.000	0.081	-0.407
-678.208	78.774	0.142	-0.155
-677.193	460.784	-0.064	-0.145
-676.178	-195.469	-0.377	0.003
-675.164	142.593	0.091	-0.123
-674.149	-43.271	0.347	0.178
-673.135	113.339	0.063	0.078
-672.120	-200.000	-0.053	0.307
-671.105	109.359	-0.049	0.060
-670.091	-135.800	0.264	-0.032
-669.076	263.600	0.081	0.144
-668.062	-200.000	0.001	0.130
-667.047	-77.542	0.163	-0.057
-666.032	-60.394	0.106	-0.046
-665.018	-110.707	-0.229	-0.048
-664.003	-130.468	0.087	0.012
-662.989	-164.835	-0.436	0.020
-661.974	255.525	0.184	-0.320
-660.959	171.191	0.073	-0.106
-659.945	-17.092	0.296	0.189
-658.930	-153.162	-0.286	-0.020
-657.916	-89.939	-0.087	0.026
-656.901	-129.202	0.031	0.004
-655.886	-200.000	0.023	-0.385
-654.872	800.000	-0.143	-0.416
-653.857	542.350	-0.076	0.183
-652.843	-200.000	0.079	-0.381
-651.828	-65.140	0.162	-0.066
-650.814	800.000	-0.057	-0.176
-649.799	-61.595	-0.388	0.165
-648.784	163.330	0.127	-0.181
-647.770	39.240	-0.266	0.242
-646.755	-95.635	-0.246	0.067
-645.741	800.000	-0.120	0.364
-644.726	-56.042	0.350	0.158
-643.711	800.000	0.055	0.160
-642.697	-193.108	0.162	0.001
-641.682	800.000	0.063	-0.207
-640.668	216.155	0.202	-0.325
-639.653	123.282	0.098	-0.125
-638.638	-200.000	0.027	-0.152
-637.624	-107.764	-0.038	-0.008
-636.609	4.891	-0.248	-0.185
-635.595	434.139	-0.062	0.136
-634.580	502.628	-0.150	-0.352
-633.565	39.804	-0.149	0.135
-632.551	800.000	0.046	-0.167
-631.536	-43.510	0.119	0.061
-630.522	146.864	0.154	0.210
-629.507	800.000	0.037	0.106
-628.492	194.731	-0.202	-0.311
-627.478	342.668	0.178	-0.353
-626.463	89.825	0.152	-0.172
-625.449	652.321	0.033	0.086
-624.434	160.351	-0.192	0.271
-623.419	-200.000	0.027	-0.363
-622.405	-69.328	0.509	0.198
-621.390	363.753	-0.086	-0.174
-620.376	185.654	0.164	-0.247
-619.361	-200.000	-0.166	0.000
-618.346	183.830	-0.141	0.212
-617.332	-130.379	0.139	-0.019
-616.317	-5.252	0.102	-0.071
-615.303	-172.944	0.052	0.002
-614.288	-134.826	0.328	0.040
-613.273	-85.683	-0.233	-0.073
-612.259	-13.434	0.318	-0.209
-611.244	-79.730	0.231	0.079
-610.230	-52.029	-0.292	-0.138
-609.215	-55.437	0.237	0.108
-608.201	265.968	-0.114	-0.201
-607.186	-3.459	0.148	0.104
-606.171	-200.000	-0.015	-0.231
-605.157	-169.247	0.452	0.017
-604.142	-20.817	-0.293	-0.182
-603.128	109.398	0.103	-0.125
-602.113	-140.709	0.147	0.015
-601.098	-65.415	-0.136	-0.055
-600.084	-104.882	0.136	0.032
-599.069	800.000	0.060	0.182
-598.055	-80.580	0.258	-0.087
-597.040	800.000	0.019	-0.074
-596.025	-101.919	-0.177	0.043
-595.011	-127.667	-0.170	0.025
-593.996	56.060	0.117	-0.115
-592.982	800.000	-0.093	-0.269
-591.967	59.950	-0.216	-0.216
-590.952	-200.000	0.039	0.298
-589.938	-96.253	0.256	0.069
-588.923	800.000	-0.096	-0.291
-587.909	-83.227	0.223	-0.072
-586.894	146.834	-0.149	-0.202
-585.879	64.932	0.353	-0.361
-584.865	107.940	0.084	0.101
-583.850	-64.968	0.252	-0.103
-582.836	376.099	-0.109	-0.225
-581.821	-101.274	-0.152	0.038
-580.806	-95.050	0.075	0.020
-579.792	68.447	0.131	0.136
-578.777	536.834	0.021	0.052
-577.763	231.084	0.098	-0.162
-576.748	-135.040	-0.340	-0.042
-575.733	800.000	-0.080	-0.226
-574.719	-13.775	-0.218	0.143
-573.704	-55.716	-0.172	0.078
-572.690	-14.688	0.247	-0.160
-571.675	71.486	-0.127	-0.133
-570.661	-4.904	0.221	0.154
-569.646	110.026	0.367	0.446
-568.631	-112.034	0.105	-0.021
-567.617	-3.363	-0.078	-0.055
-566.602	800.000	-0.050	-0.193
-565.588	-200.000	-0.040	-0.191
-564.573	-109.412	-0.244	0.052
-563.558	-154.061	0.073	0.005
-562.544	-7.619	0.082	-0.056
-561.529	649.912	0.099	-0.257
-560.515	-35.789	0.213	0.117
-559.500	-128.103	-0.277	-0.040
-558.485	761.485	-0.109	0.299
-557.471	-41.896	0.055	-0.028
-556.456	-170.502	0.396	-0.014
-555.442	-32.330	-0.140	0.079
-554.427	-120.296	-0.385	0.066
-553.412	-182.102	0.313	-0.006
-552.398	20.632	0.123	-0.101
-551.383	97.268	-0.177	-0.205
-550.369	-18.776	-0.206	-0.130
-549.354	-200.000	-0.022	-0.175
-548.339	-27.105	0.155	-0.091
-547.325	694.636	-0.148	0.391
-546.310	800.000	-0.024	-0.086
-545.296	-200.000	-0.003	-0.119
-544.281	33.386	0.165	0.145
-543.266	36.862	0.231	0.206
-542.252	-83.529	0.058	0.019
-541.237	93.904	0.081	-0.093
-540.223	355.275	-0.131	-0.262
-539.208	-123.262	-0.314	0.051
-538.193	201.959	-0.181	0.282
-537.179	-200.000	-0.008	-0.124
-536.164	-200.000	0.001	-0.141
-535.150	318.317	-0.004	-0.007
-534.135	62.403	-0.151	-0.152
-533.121	-27.780	0.205	-0.120
-532.106	598.185	0.090	0.224
-531.091	-99.246	-0.169	0.043
-530.077	-158.350	0.652	0.038
-529.062	-141.858	0.209	-0.021
-528.048	-14.158	-0.420	-0.273
-527.033	-106.815	-0.333	-0.075
-526.018	-90.770	-0.191	0.056
-525.004	758.418	0.029	-0.080
-523.989	-200.000	-0.028	0.127
-522.975	332.300	-0.036	0.071
-521.960	-200.000	0.026	-0.195
-520.945	36.408	-0.229	-0.204
-519.931	26.692	-0.225	0.191
-518.916	88.471	-0.105	-0.118
-517.902	713.984	0.024	-0.063
-516.887	81.918	-0.093	0.102
-515.872	92.650	0.138	0.157
-514.858	-39.806	-0.420	-0.222
-513.843	-200.000	0.054	-0.392
-512.829	3.975	0.239	-0.176
-511.814	58.115	0.142	-0.141
-510.799	323.270	-0.173	0.333
-509.785	23.330	-0.115	-0.095
-508.770	-30.028	0.223	0.128
-507.756	-185.953	-0.318	0.005
-506.741	-200.000	0.021	0.153
-505.726	-67.015	0.301	-0.120
-504.712	6.150	-0.203	0.152
-503.697	-200.000	0.004	-0.141
-502.683	-56.375	-0.224	-0.100
-501.668	800.000	-0.063	-0.248
-500.653	800.000	-0.061	0.196
-499.639	95.749	-0.084	0.097
-498.624	-22.761	-0.133	0.081
-497.610	174.763	0.201	0.293
-496.595	6.726	-0.090	-0.067
-495.581	-200.000	-0.020	-0.139
-494.566	-148.871	-0.119	-0.010
-493.551	800.000	0.023	-0.077
-492.537	221.949	0.132	0.214
-491.522	-200.000	-0.060	-0.312
-490.508	88.730	-0.204	0.229
-489.493	5.784	0.103	-0.077
-488.478	-190.914	-0.156	-0.002
-487.464	417.329	0.046	0.099
-486.449	-91.603	0.164	0.047
-485.435	-32.841	0.069	-0.039
-484.420	-200.000	0.021	0.267
-483.405	-200.000	-0.053	-0.238
-482.391	94.122	-0.069	0.079
-481.376	100.958	0.171	0.201
-480.362	-23.423	-0.258	0.156
-479.347	-200.000	-0.024	0.216
-478.332	-19.329	-0.059	-0.037
-477.318	-162.998	0.076	-0.004
-476.303	-75.649	0.148	0.053
-475.289	27.050	0.026	-0.022
-474.274	344.541	0.174	-0.345
-473.259	-200.000	-0.032	-0.277
-472.245	182.641	-0.109	-0.162
-471.230	370.643	0.151	-0.308
-470.216	182.535	-0.100	-0.149
-469.201	-176.317	-0.344	-0.009
-468.186	-43.708	0.312	-0.158
-467.172	-156.366	0.200	0.013
-466.157	800.000	0.113	0.396
-465.143	-42.652	-0.273	-0.140
-464.128	80.746	0.125	-0.135
-463.113	-169.768	0.298	0.011
-462.099	-200.000	0.038	-0.210
-461.084	614.646	-0.086	-0.216
-460.070	-2.492	-0.214	0.151
-459.055	17.043	-0.140	-0.112
-458.040	311.054	-0.071	0.135
-457.026	-59.679	-0.216	0.093
-456.011	41.587	-0.068	0.062
-454.997	-94.300	0.213	0.059
-453.982	-200.000	0.058	-0.318
-452.968	800.000	-0.148	-0.457
-451.953	73.478	0.063	0.066
-450.938	202.049	-0.113	0.176
-449.924	-77.040	0.057	-0.020
-448.909	11.419	0.058	0.045
-447.895	38.464	0.329	-0.295
-446.880	800.000	-0.082	0.240
-445.865	24.307	-0.291	0.242
-444.851	-118.442	-0.577	-0.103
-443.836	434.355	0.202	0.442
-442.822	-200.000	-0.001	0.067
-441.807	137.036	0.088	-0.116
-440.792	-24.384	0.296	-0.178
-439.778	-183.921	-0.279	0.005
-438.763	-158.505	-0.222	0.013
-437.749	-124.786	-0.147	-0.023
-436.734	7.181	0.058	-0.044
-435.719	73.145	-0.062	0.065
-434.705	-143.667	0.115	-0.011
-433.690	346.396	0.098	0.194
-432.676	92.975	-0.202	-0.229
-431.661	-12.152	-0.034	0.023
-430.646	457.991	-0.062	0.139
-429.632	81.379	-0.134	-0.146
-428.617	193.912	0.135	-0.206
-427.603	800.000	-0.115	-0.328
-426.588	-141.630	-0.354	0.036
-425.573	-73.564	-0.052	-0.019
-424.559	-200.000	0.041	-0.388
-423.544	99.638	0.060	0.069
-422.530	116.837	0.063	0.077
-421.515	-60.764	-0.061	0.026
-420.500	-92.439	-0.038	0.011
-419.486	428.271	0.067	0.146
-418.471	393.337	-0.102	0.214
-417.457	800.000	0.067	0.193
-416.442	58.105	-0.337	0.332
-415.428	-53.923	0.179	0.082
-414.413	800.000	-0.015	-0.045
-413.398	800.000	0.039	0.111
-412.384	-128.455	-0.193	0.028
-411.369	-200.000	0.001	-0.314
-410.355	186.343	-0.151	-0.225
-409.340	-19.647	0.172	-0.107
-408.325	-87.638	0.263	-0.080
-407.311	-100.996	-0.181	-0.045
-406.296	156.346	0.136	-0.189
-405.282	-117.489	-0.097	0.018
-404.267	255.276	-0.112	-0.192
-403.252	-56.976	0.323	-0.143
-402.238	-85.382	-0.164	-0.051
-401.223	448.897	-0.063	0.140
-400.209	-0.721	-0.073	-0.052
-399.194	-109.949	0.205	0.043
-398.179	800.000	-0.025	0.094
-397.165	-48.864	-0.028	-0.013
-396.150	-72.968	0.217	-0.080
-395.136	-32.615	-0.038	-0.021
-394.121	-107.161	0.191	-0.042
-393.106	58.045	0.202	0.198
-392.092	-57.710	-0.099	-0.043
-391.077	-126.482	-0.176	0.026
-390.063	53.794	0.100	-0.097
-389.048	-101.554	-0.288	-0.070
-388.033	-110.199	-0.069	-0.014
-387.019	-79.918	-0.185	0.062
-386.004	28.891	0.203	0.173
-384.990	800.000	-0.034	0.115
-383.975	-91.297	-0.309	-0.089
-382.960	103.831	-0.115	0.135
-381.946	-99.682	0.187	-0.047
-380.931	216.167	-0.114	-0.182
-379.917	-200.000	-0.101	0.453
-378.902	-133.919	0.219	-0.027
-377.888	-200.000	-0.002	-0.308
-376.873	-160.888	-0.177	-0.009
-375.858	-24.619	-0.103	0.061
-374.844	-200.000	0.015	0.138
-373.829	-200.000	0.086	0.388
-372.815	-39.297	0.056	-0.030
-371.800	329.575	-0.293	-0.566
-370.785	45.550	0.348	-0.323
-369.771	352.171	0.140	-0.279
-368.756	-67.261	0.168	-0.066
-367.742	800.000	0.057	0.239
-366.727	289.768	-0.081	0.147
-365.712	-55.554	0.276	0.124
-364.698	163.375	0.084	0.118
-363.683	-142.002	-0.515	0.051
-362.669	-125.086	-0.493	-0.076
-361.654	515.173	0.118	-0.277
-360.639	108.002	0.024	-0.029
-359.625	-200.000	0.001	0.062
-358.610	800.000	0.094	0.262
-357.596	13.828	0.110	0.086
-356.581	-5.979	0.091	-0.062
-355.566	52.748	0.111	0.106
-354.552	519.715	0.207	-0.487
-353.537	-43.180	0.029	-0.015
-352.523	-200.000	-0.013	-0.216
-351.508	-79.690	0.022	-0.008
-350.493	421.707	0.111	-0.239
-349.479	-200.000	0.027	-0.268
-348.464	79.960	0.091	0.099
-347.450	-109.608	-0.119	-0.025
-346.435	-200.000	-0.023	-0.211
-345.420	-23.150	0.152	0.092
-344.406	17.059	0.351	0.279
-343.391	-200.000	0.027	0.479
-342.377	484.612	-0.082	0.188
-341.362	256.876	-0.161	0.277
-340.348	340.857	-0.035	-0.069
-339.333	-148.984	-0.391	-0.032
-338.318	720.761	-0.089	0.236
-337.304	-133.838	0.051	-0.006
-336.289	800.000	0.131	0.429
-335.275	8.721	-0.197	0.149
-334.260	-35.809	-0.285	0.155
-333.245	61.619	0.212	0.211
-332.231	47.008	-0.138	0.129
-331.216	-48.000	-0.212	0.103
-330.202	-200.000	0.065	0.324
-329.187	-200.000	0.047	0.389
-328.172	35.443	-0.116	0.102
-327.158	89.998	0.232	0.260
-326.143	372.352	0.114	0.233
-325.129	-85.874	0.218	0.068
-324.114	800.000	0.034	0.118
-323.099	800.000	0.039	-0.116
-322.085	800.000	0.044	0.172
-321.070	-47.892	-0.128	0.062
-320.056	479.230	-0.020	0.044
-319.041	-200.000	0.056	0.494
-318.026	-48.525	-0.151	-0.073
-317.012	13.089	0.115	-0.089
-315.997	82.326	0.052	-0.056
-314.983	-103.635	-0.293	-0.069
-313.968	102.911	0.114	-0.133
-312.953	369.942	0.117	0.238
-311.939	-200.000	0.009	0.057
-310.924	86.105	0.386	0.425
-309.910	145.093	-0.269	0.360
-308.895	91.894	-0.357	0.402
-307.880	339.245	0.217	0.424
-306.866	39.174	0.057	-0.051
-305.851	273.450	-0.146	0.258
-304.837	-200.000	-0.009	-0.221
-303.822	101.655	-0.138	0.161
-302.807	-0.239	0.302	-0.215
-301.793	303.029	-0.105	-0.195
-300.778	573.701	0.187	0.457
-299.764	-80.000	-0.195	-0.066
-298.749	236.277	0.117	0.194
-297.735	-69.797	0.281	0.107
-296.720	72.600	0.176	-0.184
-295.705	102.765	0.210	0.245
-294.691	-140.265	-0.355	0.037
-293.676	496.912	-0.101	-0.232
-292.662	283.418	-0.151	-0.272
-291.647	88.937	-0.179	-0.199
-290.632	-200.000	-0.000	-0.081
-289.618	-33.023	-0.143	0.080
-288.603	-98.564	-0.039	-0.010
-287.589	699.569	-0.071	0.188
-286.574	263.993	-0.135	-0.236
-285.559	74.225	-0.147	-0.154
-284.545	-183.483	-0.129	0.002
-283.530	113.945	-0.099	-0.120
-282.516	800.000	-0.101	0.320
-281.501	80.982	0.131	-0.142
-280.486	-200.000	0.016	-0.232
-279.472	90.861	-0.123	-0.137
-278.457	-200.000	0.032	0.215
-277.443	345.243	0.037	0.072
-276.428	105.159	-0.124	0.147
-275.413	-200.000	-0.008	0.144
-274.399	-92.434	0.283	-0.079
-273.384	-57.544	-0.288	0.126
-272.370	107.808	-0.048	0.057
-271.355	-178.329	0.196	0.005
-270.340	-47.095	0.295	0.144
-269.326	6.786	-0.088	0.066
-268.311	141.532	0.099	-0.132
-267.297	325.862	0.110	0.211
-266.282	210.003	0.055	-0.086
-265.267	110.638	-0.142	0.171
-264.253	-44.904	-0.228	-0.114
-263.238	-64.842	0.174	-0.070
-262.224	-200.000	-0.001	0.134
-261.209	278.693	-0.137	0.245
-260.195	800.000	0.082	0.237
-259.180	-111.839	0.087	-0.018
-258.165	391.417	0.090	-0.186
-257.151	-121.848	-0.132	0.022
-256.136	-200.000	-0.006	0.180
-255.122	174.364	-0.121	-0.175
-254.107	-200.000	-0.104	0.000
-253.092	270.525	-0.122	-0.214
-252.078	528.939	-0.101	-0.237
-251.063	61.447	0.112	0.111
-250.049	800.000	0.080	-0.231
-249.034	-200.000	0.016	-0.240
-248.019	107.828	-0.101	-0.121
-247.005	113.155	0.130	-0.158
-245.990	63.032	0.166	-0.166
-244.976	-48.797	-0.117	-0.056
-243.961	-24.734	-0.292	0.173
-242.946	775.178	-0.053	0.145
-241.932	256.117	-0.314	0.537
-240.917	581.321	-0.075	0.184
-239.903	-70.392	-0.197	0.074
-238.888	131.216	-0.116	0.149
-237.873	800.000	0.048	-0.138
-236.859	-122.744	0.510	-0.082
-235.844	-200.000	-0.038	-0.280
-234.830	36.199	0.114	-0.100
-233.815	156.957	-0.242	0.333
-232.800	-200.000	0.006	-0.100
-231.786	-200.000	0.023	0.320
-230.771	334.613	-0.091	-0.176
-229.757	-200.000	-0.065	-0.486
-228.742	93.125	-0.146	-0.164
-227.727	-149.216	0.229	0.018
-226.713	-200.000	-0.008	-0.185
-225.698	-63.291	0.127	-0.052
-224.684	800.000	0.051	-0.170
-223.669	188.974	-0.182	-0.272
-222.655	-200.000	0.014	-0.102
-221.640	-7.871	0.301	-0.202
-220.625	475.502	0.031	-0.070
-219.611	-20.478	0.032	0.020
-218.596	206.937	-0.046	-0.071
-217.582	25.058	0.064	0.053
-216.567	800.000	-0.066	0.257
-215.552	-200.000	-0.046	0.211
-214.538	-75.484	-0.085	0.030
-213.523	113.448	0.051	-0.062
-212.509	193.671	-0.125	0.189
-211.494	-28.276	0.192	0.111
-210.479	238.987	-0.138	0.229
-209.465	-200.000	-0.013	0.274
-208.450	-200.000	-0.011	0.168
-207.436	-82.049	0.218	-0.071
-206.421	-138.635	-0.164	-0.018
-205.406	68.109	-0.178	-0.182
-204.392	800.000	0.122	-0.380
-203.377	-97.202	0.176	-0.046
-202.363	-200.000	0.053	0.421
-201.348	-33.114	0.189	0.104
-200.333	-124.102	-0.250	-0.039
-199.319	197.262	0.205	-0.311
-198.304	-134.164	0.386	-0.047
-197.290	-200.000	-0.012	-0.093
-196.275	526.423	-0.159	-0.373
-195.260	199.601	0.181	0.277
-194.246	273.790	0.129	0.227
-193.231	800.000	0.056	-0.222
-192.217	-200.000	0.015	0.322
-191.202	-133.615	0.212	-0.026
-190.187	800.000	0.069	-0.219
-189.173	18.739	-0.083	0.066
-188.158	-21.031	0.104	-0.063
-187.144	-181.976	0.235	-0.004
-186.129	-200.000	-0.017	-0.277
-185.114	-29.979	0.168	-0.095
-184.100	-200.000	0.008	-0.080
-183.085	234.860	0.050	0.082
-182.071	-200.000	-0.013	0.185
-181.056	51.607	-0.107	0.101
-180.042	-200.000	-0.007	0.248
-179.027	800.000	-0.074	-0.255
-178.012	-98.432	0.214	-0.055
-176.998	268.435	0.052	0.091
-175.983	-200.000	-0.016	-0.080
-174.969	-83.712	0.390	0.124
-173.954	-98.798	0.323	-0.082
-172.939	183.225	-0.068	-0.100
-171.925	35.339	0.162	0.141
-170.910	-200.000	-0.073	0.326
-169.896	800.000	-0.069	-0.238
-168.881	-77.312	0.300	0.104
-167.866	-2.076	-0.172	0.121
-166.852	-20.905	-0.304	0.186
-165.837	-200.000	-0.025	0.337
-164.823	-109.643	0.162	0.034
-163.808	-72.698	0.554	0.203
-162.793	-153.214	0.160	-0.011
-161.779	-200.000	0.036	-0.267
-160.764	83.251	-0.184	-0.199
-159.750	-164.561	-0.085	0.004
-158.735	1.632	-0.223	0.160
-157.720	33.649	0.051	-0.045
-156.706	-200.000	0.036	0.298
-155.691	-32.719	-0.278	-0.154
-154.677	-141.693	0.012	-0.001
-153.662	-63.740	-0.416	0.170
-152.647	-200.000	-0.002	-0.129
-151.633	164.564	0.155	0.217
-150.618	141.062	-0.126	0.165
-149.604	100.417	0.151	-0.174
-148.589	23.981	0.199	-0.163
-147.574	-200.000	0.008	-0.159
-146.560	205.971	-0.120	0.185
-145.545	453.175	0.083	0.183
-144.531	-200.000	-0.065	-0.318
-143.516	-8.211	0.298	0.200
-142.502	-142.519	-0.334	-0.033
-141.487	-121.114	0.126	-0.021
-140.472	-200.000	-0.035	0.233
-139.458	-200.000	-0.064	0.387
-138.443	309.083	0.246	0.457
-137.429	-200.000	0.023	-0.146
-136.414	63.086	-0.082	-0.082
-135.399	84.261	0.035	-0.038
-134.385	66.742	-0.135	0.136
-133.370	236.682	0.060	-0.099
-132.356	-200.000	-0.021	-0.190
-131.341	-185.453	-0.226	-0.003
-130.326	-200.000	-0.020	-0.183
-129.312	800.000	0.030	-0.090
-128.297	-68.892	0.147	-0.056
-127.283	124.528	0.053	0.066
-126.268	800.000	0.096	-0.334
-125.253	120.829	0.069	-0.085
-124.239	185.336	-0.081	-0.119
-123.224	-23.515	0.105	-0.063
-122.210	-148.585	0.198	-0.016
-121.195	-64.667	0.208	-0.084
