DTS Sentinel unit serial number:	SN413079Multiplexer serial number:	ORYXHardware model number:	OX4-SRSoftware version number:	ORYX F/W v4.00 Oryx Data Collector v3.7.2.0data status	okinstallation	princeton_trtdifferential loss correction	single-endedforward channel	channel 2reverse channel	N/Adate	2019/09/11time	09:45:11forward acquisition time	60.00reverse acquisition time	0.00gamma	496.2192k internal	0.2316k external	0.2316temperature offset calibration	0.9968default loss term (dB/km)	0.3790temperature slope calibration	1.0000multiplexer offset coefficient	1.0000multiplexer slope coefficient	1.0000fibre end	0.00T internal ref (°C)	34.94T ext. ref 1 (°C)	0.13T ext. ref 2 (°C)	31.43length (m)	temperature (°C)	Stokes	anti-Stokes-747.200	251.184	0.028	-0.049
-746.185	329.959	0.205	0.400
-745.171	-200.000	-0.076	0.375
-744.156	-43.314	0.120	-0.061
-743.142	330.348	-0.050	-0.097
-742.127	567.911	-0.075	0.184
-741.112	80.041	-0.123	-0.134
-740.098	-200.000	0.010	-0.190
-739.083	800.000	0.026	-0.078
-738.069	-181.069	-0.201	0.004
-737.054	800.000	0.044	0.124
-736.039	-14.224	0.202	-0.132
-735.025	-22.875	0.192	-0.117
-734.010	800.000	-0.044	-0.157
-732.996	-173.944	-0.327	0.010
-731.981	-89.846	0.198	-0.059
-730.966	-145.989	-0.420	0.038
-729.952	-97.677	-0.642	0.169
-728.937	438.054	-0.049	0.107
-727.923	111.793	0.099	0.121
-726.908	-21.852	-0.220	-0.135
-725.894	-200.000	-0.001	-0.088
-724.879	146.482	-0.066	0.090
-723.864	-102.911	-0.251	-0.060
-722.850	-200.000	-0.006	-0.191
-721.835	89.450	0.134	-0.152
-720.821	-200.000	-0.058	0.276
-719.806	-102.806	-0.104	-0.025
-718.791	90.145	-0.160	0.181
-717.777	800.000	0.047	-0.196
-716.762	48.443	0.133	0.126
-715.748	-70.831	0.645	-0.246
-714.733	8.188	0.318	-0.241
-713.718	273.877	-0.062	0.110
-712.704	-119.842	0.199	0.035
-711.689	112.282	0.229	-0.280
-710.675	-44.631	-0.287	-0.145
-709.660	219.421	0.078	0.126
-708.645	-137.709	-0.094	0.011
-707.631	22.159	-0.130	-0.107
-706.616	130.691	0.079	-0.103
-705.602	-144.978	0.028	-0.003
-704.587	-200.000	-0.032	0.199
-703.572	-75.582	-0.165	0.059
-702.558	122.763	-0.105	0.133
-701.543	-52.959	0.338	-0.157
-700.529	-200.000	-0.003	-0.351
-699.514	800.000	0.084	-0.311
-698.499	-200.000	0.027	0.139
-697.485	-59.110	-0.176	-0.077
-696.470	-56.032	-0.187	-0.084
-695.456	-200.000	-0.025	-0.164
-694.441	-23.444	0.126	-0.077
-693.426	-136.176	-0.185	-0.022
-692.412	-45.448	-0.258	-0.129
-691.397	212.639	0.157	0.250
-690.383	649.554	-0.060	-0.155
-689.368	-18.957	-0.187	-0.118
-688.354	-49.063	0.024	-0.012
-687.339	-69.724	0.218	0.084
-686.324	112.169	0.217	-0.265
-685.310	68.178	0.283	0.293
-684.295	800.000	-0.178	-0.517
-683.281	36.277	0.059	-0.053
-682.266	-180.001	-0.109	0.002
-681.251	323.124	0.041	-0.080
-680.237	82.211	-0.281	-0.308
-679.222	800.000	-0.066	-0.268
-678.208	-65.190	-0.245	-0.100
-677.193	247.685	-0.123	-0.211
-676.178	-100.441	-0.187	0.047
-675.164	-200.000	0.016	-0.142
-674.149	800.000	0.061	-0.173
-673.135	785.525	0.072	-0.199
-672.120	86.594	0.178	0.199
-671.105	-57.538	-0.206	0.091
-670.091	800.000	0.041	-0.162
-669.076	-200.000	0.081	-0.373
-668.062	-171.017	-0.281	-0.010
-667.047	167.761	0.166	-0.238
-666.032	-120.080	-0.193	-0.033
-665.018	-13.725	-0.092	0.060
-664.003	157.177	0.353	-0.493
-662.989	346.196	0.078	-0.155
-661.974	338.295	-0.072	0.142
-660.959	-56.009	-0.184	-0.083
-659.945	-200.000	0.032	0.274
-658.930	190.170	0.117	-0.177
-657.916	23.767	-0.258	0.214
-656.901	800.000	-0.101	-0.384
-655.886	-200.000	0.054	-0.339
-654.872	-200.000	0.042	-0.219
-653.857	-200.000	-0.004	-0.161
-652.843	-82.412	-0.271	-0.089
-651.828	27.212	0.012	0.011
-650.814	3.941	-0.118	0.087
-649.799	-200.000	0.016	-0.218
-648.784	-98.586	0.153	0.040
-647.770	-15.506	0.031	-0.020
-646.755	441.391	-0.188	0.415
-645.741	-200.000	0.007	0.037
-644.726	-123.784	-0.123	-0.020
-643.711	250.244	-0.015	-0.026
-642.697	-83.696	-0.041	-0.013
-641.682	-200.000	0.042	0.277
-640.668	-62.404	-0.130	0.055
-639.653	-89.484	-0.305	0.090
-638.638	723.247	-0.070	-0.187
-637.624	-56.761	-0.025	-0.011
-636.609	561.992	0.108	0.263
-635.595	800.000	-0.042	0.152
-634.580	445.053	-0.076	-0.169
-633.565	171.387	0.181	-0.262
-632.551	387.856	0.058	-0.120
-631.536	-173.450	0.218	0.007
-630.522	-200.000	0.039	-0.326
-629.507	-200.000	-0.005	-0.128
-628.492	220.662	0.238	0.384
-627.478	-200.000	0.028	-0.172
-626.463	-61.960	-0.175	-0.074
-625.449	-200.000	0.051	-0.228
-624.434	-165.808	0.238	-0.010
-623.419	9.634	0.319	-0.244
-622.405	82.885	0.210	-0.231
-621.390	-68.310	-0.249	0.097
-620.376	-78.444	-0.165	0.057
-619.361	-200.000	-0.002	0.253
-618.346	-138.794	-0.277	0.030
-617.332	-62.872	0.249	-0.104
-616.317	57.058	0.099	-0.097
-615.303	51.227	-0.145	0.139
-614.288	-88.980	0.395	-0.118
-613.273	-23.898	0.250	0.151
-612.259	-200.000	-0.005	-0.453
-611.244	-200.000	0.003	0.262
-610.230	-200.000	-0.059	0.394
-609.215	-106.279	-0.140	-0.032
-608.201	-124.851	0.445	-0.069
-607.186	-49.664	0.148	-0.071
-606.171	-190.138	-0.112	0.001
-605.157	148.856	-0.058	-0.079
-604.142	-78.385	-0.296	-0.102
-603.128	-6.069	0.208	-0.143
-602.113	-21.009	0.153	-0.094
-601.098	71.797	0.231	-0.241
-600.084	-200.000	0.028	-0.221
-599.069	2.244	0.053	0.039
-598.055	-159.629	-0.259	-0.014
-597.040	72.173	0.169	-0.177
-596.025	-72.430	-0.216	-0.080
-595.011	-70.464	-0.039	0.015
-593.996	-64.623	-0.315	-0.129
-592.982	-138.841	0.246	-0.027
-591.967	126.702	-0.159	-0.202
-590.952	-200.000	0.021	0.428
-589.938	-81.003	-0.141	0.047
-588.923	-200.000	0.450	0.001
-587.909	-195.581	-0.313	-0.002
-586.894	218.078	-0.202	0.325
-585.879	-0.692	-0.142	-0.102
-584.865	8.772	-0.119	0.090
-583.850	-58.002	-0.281	-0.124
-582.836	-200.000	0.064	0.333
-581.821	-31.541	-0.233	0.132
-580.806	-49.462	-0.474	-0.227
-579.792	542.013	0.089	0.212
-578.777	662.216	-0.056	-0.145
-577.763	-47.300	-0.103	-0.051
-576.748	171.420	0.119	0.171
-575.733	-200.000	-0.011	0.371
-574.719	329.282	0.108	0.208
-573.704	181.365	-0.084	-0.124
-572.690	-172.798	0.193	0.006
-571.675	7.231	-0.309	-0.232
-570.661	-84.141	-0.301	0.096
-569.646	800.000	0.032	-0.108
-568.631	-92.607	0.245	0.069
-567.617	-55.148	-0.494	0.224
-566.602	-102.809	0.301	-0.072
-565.588	399.432	0.147	-0.309
-564.573	-200.000	0.096	0.444
-563.558	-85.408	-0.131	-0.041
-562.544	164.571	0.055	0.078
-561.529	-25.406	0.127	0.075
-560.515	59.375	0.155	-0.153
-559.500	800.000	0.068	0.258
-558.485	-105.385	-0.026	-0.006
-557.471	-200.000	-0.034	0.396
-556.456	800.000	-0.095	-0.348
-555.442	-33.759	0.185	0.103
-554.427	-200.000	-0.238	-0.001
-553.412	-30.622	-0.075	-0.043
-552.398	26.473	0.166	-0.140
-551.383	-46.987	0.158	0.077
-550.369	231.245	-0.192	0.317
-549.354	-200.000	-0.017	0.304
-548.339	800.000	-0.054	0.176
-547.325	14.205	-0.169	-0.133
-546.310	121.239	-0.107	-0.133
-545.296	65.642	0.127	-0.130
-544.281	69.981	-0.323	-0.335
-543.266	87.805	0.314	-0.349
-542.252	7.770	-0.175	0.132
-541.237	297.450	0.067	-0.123
-540.223	216.275	-0.170	0.271
-539.208	30.704	0.193	-0.166
-538.193	491.386	0.068	-0.156
-537.179	-8.497	-0.124	0.084
-536.164	146.434	-0.015	0.021
-535.150	200.873	-0.160	0.247
-534.135	512.593	-0.113	-0.264
-533.121	38.558	-0.112	-0.100
-532.106	36.689	0.235	-0.209
-531.091	-164.792	0.166	-0.007
-530.077	-3.573	-0.238	-0.166
-529.062	-23.093	0.098	-0.059
-528.048	-190.495	0.084	-0.001
-527.033	366.627	0.109	0.221
-526.018	-200.000	-0.070	0.328
-525.004	191.813	-0.125	0.189
-523.989	800.000	-0.045	0.141
-522.975	-24.690	0.206	-0.123
-521.960	282.276	-0.061	0.110
-520.945	-200.000	0.041	0.187
-519.931	-91.302	0.394	-0.113
-518.916	-116.764	-0.089	-0.016
-517.902	-200.000	-0.017	0.306
-516.887	37.462	-0.256	0.228
-515.872	800.000	-0.119	0.370
-514.858	-44.269	-0.112	0.057
-513.843	90.953	-0.359	0.404
-512.829	46.197	0.156	-0.145
-511.814	-143.491	0.186	0.018
-510.799	-149.705	0.166	-0.013
-509.785	-77.369	-0.344	0.120
-508.770	-200.000	-0.001	-0.047
-507.756	-53.561	-0.152	-0.070
-506.741	112.767	0.048	0.058
-505.726	800.000	-0.043	-0.135
-504.712	596.304	-0.132	-0.328
-503.697	93.792	0.030	-0.034
-502.683	-5.840	-0.199	-0.137
-501.668	-18.975	0.209	-0.130
-500.653	158.201	-0.102	-0.143
-499.639	9.958	-0.066	0.051
-498.624	612.056	-0.145	0.365
-497.610	13.872	0.278	0.217
-496.595	17.772	0.115	0.092
-495.581	91.930	0.052	0.059
-494.566	11.412	-0.118	0.090
-493.551	800.000	0.048	0.200
-492.537	4.441	0.293	-0.216
-491.522	-74.635	-0.260	0.094
-490.508	28.064	-0.225	-0.190
-489.493	501.659	-0.067	0.155
-488.478	-123.799	0.318	0.050
-487.464	800.000	-0.074	-0.313
-486.449	343.199	-0.027	0.053
-485.435	386.986	0.043	-0.089
-484.420	-54.470	0.177	0.080
-483.405	101.144	-0.089	-0.103
-482.391	-67.006	0.297	0.117
-481.376	148.572	-0.173	0.234
-480.362	-63.751	-0.177	0.073
-479.347	-169.036	-0.241	0.009
-478.332	-77.856	-0.199	-0.069
-477.318	-200.000	-0.048	-0.227
-476.303	336.418	0.087	0.169
-475.289	-83.855	-0.179	0.057
-474.274	-200.000	-0.004	-0.267
-473.259	-44.967	0.364	-0.182
-472.245	-132.353	-0.309	0.040
-471.230	800.000	-0.110	0.365
-470.216	-71.720	0.220	0.082
-469.201	-60.584	-0.080	0.034
-468.186	94.849	-0.043	0.049
-467.172	-42.652	-0.288	-0.147
-466.157	184.090	0.120	0.178
-465.143	50.236	-0.040	-0.037
-464.128	800.000	-0.089	-0.320
-463.113	-37.495	-0.171	-0.092
-462.099	41.559	-0.172	0.156
-461.084	-86.513	0.145	0.045
-460.070	-107.916	-0.422	0.092
-459.055	95.690	0.133	0.152
-458.040	-6.678	-0.208	-0.142
-457.026	800.000	0.056	-0.247
-456.011	-109.746	0.172	-0.036
-454.997	-200.000	-0.014	0.116
-453.982	-133.166	0.072	0.009
-452.968	600.606	-0.157	-0.390
-451.953	198.944	0.057	0.087
-450.938	149.026	0.047	0.064
-449.924	426.246	0.089	-0.193
-448.909	-200.000	-0.054	-0.254
-447.895	-98.639	0.176	0.045
-446.880	-200.000	0.012	-0.086
-445.865	-5.674	-0.370	-0.254
-444.851	-6.850	0.231	-0.157
-443.836	-181.840	0.159	-0.003
-442.822	61.418	-0.050	0.049
-441.807	-46.717	-0.076	0.037
-440.792	272.819	-0.078	-0.137
-439.778	-90.449	0.345	0.100
-438.763	33.804	0.070	0.061
-437.749	177.164	0.164	0.239
-436.734	-8.346	-0.350	0.235
-435.719	-0.539	0.338	-0.240
-434.705	-200.000	-0.011	-0.178
-433.690	212.428	0.111	-0.175
-432.676	800.000	-0.049	-0.194
-431.661	58.899	0.151	-0.149
-430.646	174.654	-0.239	-0.347
-429.632	595.564	-0.082	0.202
-428.617	-166.236	-0.192	0.008
-427.603	-200.000	0.014	0.619
-426.588	-54.490	0.244	0.110
-425.573	43.280	-0.021	-0.020
-424.559	-79.141	-0.221	0.075
-423.544	112.265	-0.104	-0.126
-422.530	-200.000	-0.028	0.433
-421.515	-64.431	0.090	0.037
-420.500	-16.709	-0.239	0.152
-419.486	-200.000	0.001	-0.072
-418.471	-116.871	-0.163	-0.030
-417.457	-148.419	-0.353	0.029
-416.442	-165.661	-0.068	0.003
-415.428	74.178	0.215	0.225
-414.413	-36.686	0.120	-0.065
-413.398	169.760	0.100	-0.143
-412.384	166.140	-0.089	0.125
-411.369	800.000	-0.074	-0.227
-410.355	1.913	0.064	0.046
-409.340	714.895	-0.101	0.267
-408.325	10.138	0.229	-0.174
-407.311	597.760	0.115	0.284
-406.296	-200.000	-0.040	0.354
-405.282	-200.000	-0.021	0.232
-404.267	6.397	0.294	0.219
-403.252	-163.998	-0.321	-0.015
-402.238	-200.000	-0.041	0.185
-401.223	-42.039	-0.261	0.134
-400.209	-70.954	-0.082	-0.031
-399.194	-200.000	0.006	-0.278
-398.179	-200.000	-0.016	-0.206
-397.165	-151.815	-0.333	0.024
-396.150	534.835	0.059	-0.141
-395.136	-86.005	0.260	0.080
-394.121	467.303	0.104	-0.232
-393.106	800.000	0.104	0.290
-392.092	-133.723	-0.075	0.009
-391.077	-145.480	-0.049	-0.004
-390.063	538.159	0.032	0.075
-389.048	174.764	-0.132	-0.191
-388.033	54.762	0.069	0.066
-387.019	476.181	-0.011	0.024
-386.004	-192.970	0.047	0.000
-384.990	546.894	-0.073	0.175
-383.975	173.826	-0.083	-0.120
-382.960	69.267	-0.176	-0.181
-381.946	73.588	0.294	0.307
-380.931	-98.747	-0.144	0.037
-379.917	451.389	-0.167	-0.369
-378.902	-137.629	0.177	0.020
-377.888	800.000	-0.137	-0.411
-376.873	-100.908	-0.113	0.028
-375.858	221.393	0.057	-0.092
-374.844	-1.453	0.178	-0.125
-373.829	43.549	-0.067	-0.061
-372.815	-63.535	-0.199	0.081
-371.800	-103.602	-0.270	-0.063
-370.785	-70.772	0.443	0.167
-369.771	-120.676	-0.247	0.042
-368.756	800.000	0.036	-0.146
-367.742	-200.000	0.019	-0.246
-366.727	176.837	-0.112	0.163
-365.712	-42.217	0.160	-0.081
-364.698	103.934	0.164	-0.193
-363.683	550.056	0.007	-0.016
-362.669	124.618	-0.136	0.171
-361.654	88.479	-0.157	-0.174
-360.639	131.498	0.141	-0.181
-359.625	-72.893	0.226	-0.083
-358.610	-126.183	0.090	-0.013
-357.596	-156.051	0.139	-0.009
-356.581	-152.838	-0.125	0.009
-355.566	-82.429	-0.413	-0.134
-354.552	264.714	-0.153	0.266
-353.537	-113.307	0.153	0.030
-352.523	-78.720	-0.208	0.071
-351.508	-200.000	0.020	0.182
-350.493	-89.586	0.203	-0.059
-349.479	-46.034	-0.277	-0.136
-348.464	127.463	0.119	0.150
-347.450	-200.000	0.004	0.131
-346.435	-145.770	0.039	0.003
-345.420	-156.026	-0.428	-0.027
-344.406	300.733	0.205	0.377
-343.391	800.000	0.039	-0.156
-342.377	439.975	0.043	0.095
-341.362	91.270	-0.046	0.052
-340.348	800.000	0.029	0.084
-339.333	-25.879	0.201	0.118
-338.318	24.842	-0.175	-0.145
-337.304	-200.000	-0.003	-0.078
-336.289	26.538	-0.286	0.238
-335.275	64.878	0.105	-0.106
-334.260	-159.659	0.297	-0.016
-333.245	297.875	0.106	-0.194
-332.231	0.094	0.348	-0.247
-331.216	-183.490	0.302	-0.005
-330.202	514.154	-0.044	-0.103
-329.187	-61.031	0.113	0.048
-328.172	-53.629	0.083	-0.038
-327.158	-151.377	0.128	0.009
-326.143	34.806	-0.214	-0.187
-325.129	17.761	0.149	-0.119
-324.114	324.798	-0.061	0.116
-323.099	130.069	-0.210	0.268
-322.085	57.123	-0.108	0.105
-321.070	120.816	0.089	0.110
-320.056	-163.284	-0.235	0.011
-319.041	77.302	0.280	0.297
-318.026	366.528	0.037	0.075
-317.012	108.264	0.107	-0.128
-315.997	-4.259	0.142	0.098
-314.983	-58.763	0.293	0.126
-313.968	65.712	0.234	-0.236
-312.953	-30.942	0.128	-0.072
-311.939	-69.862	0.226	-0.086
-310.924	-1.768	0.190	-0.133
-309.910	-200.000	-0.010	-0.102
-308.895	-93.432	-0.219	0.060
-307.880	479.489	0.135	-0.304
-306.866	-200.000	0.051	-0.401
-305.851	29.337	-0.042	-0.035
-304.837	-200.000	0.035	0.481
-303.822	258.472	-0.010	0.017
-302.807	221.977	0.053	0.085
-301.793	261.073	0.101	-0.174
-300.778	-141.362	0.413	-0.042
-299.764	-79.752	0.163	0.054
-298.749	98.954	-0.196	0.225
-297.735	188.603	0.069	-0.102
-296.720	561.128	-0.108	0.259
-295.705	6.381	0.157	0.116
-294.691	530.345	-0.064	0.150
-293.676	390.215	0.133	-0.275
-292.662	-200.000	0.081	-0.379
-291.647	-200.000	0.004	0.106
-290.632	303.762	-0.120	0.222
-289.618	188.101	-0.295	-0.439
-288.603	-200.000	-0.017	0.147
-287.589	-200.000	-0.018	-0.169
-286.574	374.748	0.125	0.252
-285.559	-130.622	-0.399	0.053
-284.545	800.000	0.071	-0.224
-283.530	800.000	0.030	-0.086
-282.516	501.255	0.079	0.182
-281.501	-109.540	0.384	0.081
-280.486	52.224	0.293	0.278
-279.472	-83.760	-0.316	0.100
-278.457	800.000	-0.084	0.246
-277.443	-2.625	0.157	-0.109
-276.428	-40.453	-0.193	0.100
-275.413	-200.000	-0.040	-0.222
-274.399	116.049	-0.210	-0.255
-273.384	-72.891	0.353	0.129
-272.370	-200.000	-0.051	-0.388
-271.355	-200.000	-0.008	0.247
-270.340	11.824	0.265	0.203
-269.326	43.037	0.285	0.258
-268.311	85.864	0.191	-0.209
-267.297	105.369	0.178	0.209
-266.282	54.631	-0.274	-0.262
-265.267	-5.545	0.475	-0.324
-264.253	230.461	-0.165	0.269
-263.238	-200.000	0.027	-0.176
-262.224	800.000	0.113	-0.416
-261.209	800.000	0.064	-0.231
-260.195	249.005	-0.131	-0.220
-259.180	291.258	-0.125	0.227
-258.165	25.010	-0.289	0.238
-257.151	168.594	-0.052	0.074
-256.136	-155.293	0.046	-0.003
-255.122	-121.393	0.386	-0.064
-254.107	618.235	-0.111	-0.276
-253.092	-133.467	-0.180	0.022
-252.078	-104.887	-0.081	0.019
-251.063	218.599	-0.225	-0.357
-250.049	-200.000	-0.008	0.184
-249.034	251.556	0.168	0.284
-248.019	-6.788	0.297	-0.201
-247.005	-77.018	-0.363	-0.126
-245.990	-200.000	0.047	0.215
-244.976	-109.960	0.295	0.061
-243.961	148.419	-0.190	0.255
-242.946	454.252	-0.085	0.187
-241.932	231.077	0.065	0.106
-240.917	209.863	-0.226	0.351
-239.903	-200.000	0.048	0.254
-238.888	-125.310	0.143	-0.022
-237.873	-11.871	-0.140	0.091
-236.859	-156.566	0.444	-0.027
-235.844	6.336	0.208	-0.153
-234.830	800.000	0.107	-0.315
-233.815	17.165	-0.338	0.266
-232.800	520.867	0.151	-0.351
-231.786	92.908	-0.203	0.228
-230.771	-86.942	-0.192	-0.058
-229.757	-200.000	0.326	0.001
-228.742	305.264	0.103	-0.189
-227.727	800.000	-0.026	0.080
-226.713	-53.003	0.248	-0.113
-225.698	800.000	0.075	-0.266
-224.684	-39.507	0.115	-0.060
-223.669	505.014	-0.154	0.354
-222.655	284.591	0.066	0.117
-221.640	-83.595	0.170	0.054
-220.625	-38.895	-0.107	-0.056
-219.611	-149.292	-0.153	0.012
-218.596	1.101	-0.102	0.072
-217.582	-200.000	-0.040	0.176
-216.567	44.811	0.137	-0.125
-215.552	-200.000	0.012	-0.221
-214.538	348.468	-0.067	-0.131
-213.523	-200.000	0.014	-0.318
-212.509	-200.000	-0.015	0.121
-211.494	-100.025	-0.071	0.017
-210.479	106.654	0.073	0.086
-209.465	-2.721	0.062	-0.043
-208.450	152.792	-0.182	0.246
-207.436	461.538	0.032	-0.071
-206.421	-24.676	-0.161	0.095
-205.406	285.856	-0.218	-0.390
-204.392	-200.000	-0.065	-0.455
-203.377	126.877	0.119	0.150
-202.363	48.639	-0.199	0.185
-201.348	-200.000	0.029	-0.140
-200.333	-153.789	-0.088	0.006
-199.319	-48.725	-0.123	0.059
-198.304	-62.124	0.287	0.119
-197.290	-122.327	-0.254	-0.041
-196.275	-130.741	0.134	0.018
-195.260	217.252	0.092	-0.145
-194.246	35.032	-0.194	0.169
-193.231	326.824	-0.069	-0.131
-192.217	-23.728	-0.162	-0.096
-191.202	800.000	0.067	0.280
-190.187	-200.000	-0.028	-0.338
-189.173	-33.566	0.143	-0.078
-188.158	800.000	0.027	0.108
-187.144	-14.431	0.077	-0.049
-186.129	-165.302	-0.277	-0.012
-185.114	-33.565	0.214	-0.117
-184.100	-136.333	0.386	-0.045
-183.085	414.993	-0.068	-0.144
-182.071	50.670	-0.094	0.089
-181.056	108.758	-0.049	0.058
-180.042	800.000	-0.035	0.132
-179.027	-46.054	0.268	-0.131
-178.012	-24.857	0.193	-0.114
-176.998	315.273	0.153	0.286
-175.983	154.230	-0.113	-0.154
-174.969	343.147	-0.208	-0.404
-173.954	94.877	0.368	-0.415
-172.939	800.000	-0.131	-0.371
-171.925	361.730	0.127	0.252
-170.910	538.675	-0.227	0.534
-169.896	-157.511	0.233	0.014
-168.881	-10.639	0.237	-0.155
-167.866	-104.155	-0.457	0.105
-166.852	800.000	0.114	-0.455
-165.837	177.844	-0.070	-0.101
-164.823	417.438	0.113	-0.240
-163.808	220.260	-0.065	-0.103
-162.793	666.019	-0.027	-0.070
-161.779	-200.000	0.036	0.185
-160.764	-57.692	-0.129	0.056
-159.750	78.936	-0.202	0.214
-158.735	-61.217	0.366	-0.153
-157.720	-121.612	-0.240	-0.039
-156.706	-183.773	0.177	-0.003
-155.691	-33.622	-0.319	0.174
-154.677	-148.327	-0.207	0.017
-153.662	-200.000	0.012	0.372
-152.647	533.890	0.106	0.250
-151.633	-130.395	0.243	0.033
-150.618	184.093	-0.126	0.185
-149.604	800.000	0.020	-0.071
-148.589	-127.071	0.150	-0.022
-147.574	-200.000	0.031	0.201
-146.560	800.000	0.096	-0.307
-145.545	800.000	-0.134	-0.404
-144.531	-169.943	-0.188	0.007
-143.516	800.000	0.061	0.184
-142.502	-71.593	0.069	0.026
-141.487	299.120	0.120	0.219
-140.472	-200.000	-0.000	-0.125
-139.458	-1.108	-0.037	0.026
-138.443	98.647	0.094	0.107
-137.429	134.757	0.109	0.140
-136.414	-73.637	0.526	-0.190
-135.399	800.000	-0.033	0.136
-134.385	-200.000	0.052	0.307
-133.370	100.952	0.207	-0.238
-132.356	-24.927	0.222	-0.130
-131.341	-31.744	0.193	0.107
-130.326	-46.553	-0.204	-0.099
-129.312	-200.000	0.017	-0.192
-128.297	157.453	0.076	0.104
-127.283	35.948	-0.241	0.210
-126.268	-145.582	0.397	-0.035
-125.253	-200.000	-0.027	0.195
-124.239	-92.542	-0.478	-0.133
-123.224	118.158	-0.092	0.112
-122.210	-72.975	0.137	-0.050
-121.195	221.447	-0.301	0.479
