DTS Sentinel unit serial number:	SN413079Multiplexer serial number:	ORYXHardware model number:	OX4-SRSoftware version number:	ORYX F/W v4.00 Oryx Data Collector v3.7.2.0data status	okinstallation	princeton_trtdifferential loss correction	single-endedforward channel	channel 2reverse channel	N/Adate	2019/09/12time	06:13:11forward acquisition time	60.00reverse acquisition time	0.00gamma	496.2192k internal	0.2325k external	0.2325temperature offset calibration	1.0061default loss term (dB/km)	0.3790temperature slope calibration	1.0000multiplexer offset coefficient	1.0000multiplexer slope coefficient	1.0000fibre end	0.00T internal ref (°C)	32.12T ext. ref 1 (°C)	1.56T ext. ref 2 (°C)	27.39length (m)	temperature (°C)	Stokes	anti-Stokes-747.200	-107.801	0.221	0.049
-746.185	81.700	-0.068	0.074
-745.171	1.343	0.160	-0.116
-744.156	584.208	-0.024	-0.059
-743.142	-116.102	-0.147	-0.028
-742.127	-5.471	-0.269	0.187
-741.112	274.567	-0.183	0.326
-740.098	94.019	0.249	0.285
-739.083	-46.044	-0.210	-0.104
-738.069	210.507	-0.345	0.547
-737.054	78.543	-0.190	0.204
-736.039	-50.963	-0.082	0.039
-735.025	-73.082	-0.171	0.063
-734.010	800.000	-0.080	-0.270
-732.996	196.509	0.081	0.124
-731.981	800.000	0.090	-0.382
-730.966	-44.961	-0.042	-0.021
-729.952	241.361	0.137	-0.231
-728.937	315.482	-0.187	0.355
-727.923	-42.640	0.112	-0.057
-726.908	745.344	-0.060	-0.164
-725.894	-144.342	0.191	0.018
-724.879	153.751	0.357	-0.494
-723.864	-110.290	-0.308	0.065
-722.850	-70.430	0.014	-0.005
-721.835	-122.540	-0.249	0.041
-720.821	90.635	-0.156	-0.177
-719.806	-64.490	-0.118	0.049
-718.791	800.000	0.142	-0.403
-717.777	186.167	0.224	-0.336
-716.762	75.634	0.046	-0.049
-715.748	300.977	0.037	-0.070
-714.733	-21.799	-0.254	0.156
-713.718	42.626	-0.264	0.242
-712.704	-17.930	-0.126	-0.080
-711.689	800.000	0.053	-0.174
-710.675	-200.000	-0.048	-0.219
-709.660	143.786	0.047	-0.064
-708.645	-13.481	0.135	-0.088
-707.631	391.653	0.148	-0.310
-706.616	-91.900	0.057	-0.016
-705.602	16.428	-0.202	-0.161
-704.587	800.000	0.065	-0.239
-703.572	-200.000	0.007	0.118
-702.558	800.000	-0.072	0.203
-701.543	321.174	-0.146	0.279
-700.529	343.755	-0.042	0.083
-699.514	145.647	-0.126	-0.170
-698.499	68.185	-0.203	-0.210
-697.485	19.243	0.093	-0.076
-696.470	14.850	0.308	0.243
-695.456	-200.000	-0.036	-0.211
-694.441	-5.894	0.132	-0.091
-693.426	366.577	-0.042	0.085
-692.412	41.390	0.117	-0.106
-691.397	-68.921	-0.150	0.058
-690.383	192.925	0.094	-0.143
-689.368	92.044	0.100	0.113
-688.354	800.000	-0.078	-0.221
-687.339	179.684	-0.074	-0.109
-686.324	20.076	-0.289	-0.234
-685.310	150.603	0.087	-0.119
-684.295	-200.000	0.018	-0.102
-683.281	50.106	0.231	-0.220
-682.266	800.000	0.033	0.136
-681.251	-87.054	0.236	-0.072
-680.237	506.789	0.057	-0.133
-679.222	169.357	-0.161	0.232
-678.208	33.805	0.269	0.236
-677.193	771.305	0.113	0.311
-676.178	-33.897	0.084	-0.047
-675.164	-162.638	0.193	-0.010
-674.149	800.000	0.095	-0.371
-673.135	-56.312	-0.172	0.077
-672.120	-80.964	0.209	0.070
-671.105	-200.000	0.010	0.124
-670.091	295.557	0.038	0.070
-669.076	-87.133	-0.302	-0.092
-668.062	-115.397	0.366	-0.070
-667.047	800.000	0.030	-0.112
-666.032	-121.296	0.198	0.033
-665.018	-190.056	-0.071	-0.001
-664.003	-67.454	0.087	0.034
-662.989	-122.739	-0.325	0.053
-661.974	30.004	0.235	-0.201
-660.959	-37.852	0.347	0.186
-659.945	6.969	0.158	0.118
-658.930	89.815	-0.138	0.155
-657.916	53.060	0.119	-0.115
-656.901	-63.245	-0.242	-0.100
-655.886	-122.345	0.057	0.009
-654.872	-70.878	-0.195	-0.074
-653.857	205.023	0.170	0.266
-652.843	800.000	0.039	-0.151
-651.828	-24.648	-0.133	-0.079
-650.814	596.982	-0.133	0.332
-649.799	189.725	0.076	-0.115
-648.784	-200.000	0.020	-0.185
-647.770	-121.752	-0.144	0.024
-646.755	-102.688	-0.429	-0.103
-645.741	102.364	-0.027	0.032
-644.726	-200.000	0.009	0.223
-643.711	-117.098	0.042	0.008
-642.697	49.038	-0.178	-0.168
-641.682	-138.166	0.229	0.026
-640.668	-200.000	-0.007	0.130
-639.653	187.723	0.047	-0.070
-638.638	-86.213	-0.128	-0.040
-637.624	800.000	-0.023	-0.068
-636.609	-7.683	-0.262	0.178
-635.595	-55.323	-0.142	0.064
-634.580	62.196	0.332	-0.333
-633.565	-20.169	-0.172	0.106
-632.551	6.246	0.044	-0.033
-631.536	-56.749	-0.484	-0.215
-630.522	41.326	-0.143	-0.130
-629.507	-18.954	-0.172	0.107
-628.492	307.262	0.111	-0.209
-627.478	129.704	0.107	-0.137
-626.463	-28.486	0.289	-0.167
-625.449	-46.859	-0.217	-0.106
-624.434	781.207	-0.040	0.111
-623.419	-67.615	-0.321	-0.126
-622.405	107.747	0.204	-0.244
-621.390	8.229	0.462	0.349
-620.376	-52.061	0.138	0.064
-619.361	-156.085	0.033	-0.002
-618.346	800.000	0.016	-0.065
-617.332	13.324	-0.153	-0.119
-616.317	-200.000	-0.041	0.385
-615.303	-104.364	0.044	-0.010
-614.288	-94.216	0.265	0.073
-613.273	21.047	-0.427	-0.348
-612.259	-11.362	-0.119	0.079
-611.244	-23.246	0.119	-0.072
-610.230	-78.704	-0.233	0.080
-609.215	79.195	0.165	-0.178
-608.201	-34.245	0.263	-0.145
-607.186	-89.967	0.179	-0.052
-606.171	-200.000	-0.047	0.349
-605.157	351.565	0.284	0.564
-604.142	-38.457	-0.343	-0.182
-603.128	-15.727	0.183	-0.117
-602.113	39.102	-0.188	-0.169
-601.098	113.208	-0.131	0.160
-600.084	-200.000	-0.006	-0.044
-599.069	-13.736	-0.311	0.202
-598.055	-200.000	0.012	0.123
-597.040	800.000	0.100	0.311
-596.025	-4.523	-0.242	-0.168
-595.011	-200.000	0.014	0.277
-593.996	800.000	0.064	0.245
-592.982	-98.031	-0.068	-0.018
-591.967	339.494	-0.051	-0.099
-590.952	-200.000	0.013	0.204
-589.938	800.000	0.048	-0.168
-588.923	2.891	0.207	-0.151
-587.909	18.538	0.237	0.190
-586.894	46.114	0.080	0.074
-585.879	4.115	0.170	-0.125
-584.865	-200.000	0.049	-0.230
-583.850	-200.000	0.007	-0.052
-582.836	-200.000	-0.041	-0.243
-581.821	-200.000	0.022	-0.213
-580.806	-121.893	-0.119	0.020
-579.792	-83.260	-0.338	-0.109
-578.777	2.160	-0.071	0.051
-577.763	-15.611	0.127	-0.081
-576.748	-19.837	-0.168	0.104
-575.733	-200.000	-0.006	0.073
-574.719	-200.000	0.001	-0.341
-573.704	262.877	-0.054	0.094
-572.690	-36.157	0.217	-0.117
-571.675	71.022	-0.020	0.021
-570.661	-200.000	-0.063	0.283
-569.646	303.446	0.113	-0.211
-568.631	22.952	0.152	-0.125
-567.617	-30.807	0.087	0.050
-566.602	270.489	-0.071	0.126
-565.588	-81.772	0.127	-0.042
-564.573	-68.487	-0.214	0.083
-563.558	-200.000	-0.008	0.056
-562.544	36.571	-0.271	-0.240
-561.529	370.823	0.038	-0.077
-560.515	87.575	-0.302	-0.335
-559.500	-103.355	-0.298	-0.070
-558.485	800.000	0.019	0.057
-557.471	-106.548	-0.442	-0.099
-556.456	-70.827	0.134	-0.051
-555.442	-200.000	-0.015	0.394
-554.427	-200.000	-0.009	-0.045
-553.412	800.000	-0.021	-0.082
-552.398	245.179	0.121	-0.203
-551.383	800.000	0.095	-0.291
-550.369	19.839	0.202	0.163
-549.354	800.000	-0.016	-0.060
-548.339	40.803	0.069	-0.062
-547.325	208.357	-0.243	0.381
-546.310	-200.000	0.006	-0.068
-545.296	-200.000	-0.007	-0.038
-544.281	-200.000	0.052	0.237
-543.266	-160.167	0.056	-0.003
-542.252	-26.997	-0.231	0.135
-541.237	-41.803	0.177	0.091
-540.223	774.471	0.017	-0.047
-539.208	800.000	-0.085	-0.243
-538.193	61.185	0.179	-0.178
-537.179	800.000	-0.105	0.343
-536.164	-163.629	-0.299	-0.014
-535.150	216.690	0.094	0.150
-534.135	800.000	0.098	-0.331
-533.121	134.118	-0.079	0.103
-532.106	800.000	0.116	0.384
-531.091	15.215	0.115	0.090
-530.077	-91.681	-0.083	-0.024
-529.062	100.278	0.297	-0.344
-528.048	44.672	0.141	-0.130
-527.033	229.960	0.169	0.277
-526.018	-2.383	0.253	-0.177
-525.004	542.494	0.132	0.314
-523.989	-86.745	-0.041	-0.012
-522.975	753.450	-0.049	0.132
-521.960	312.383	0.120	0.225
-520.945	-98.418	-0.335	-0.086
-519.931	86.331	0.093	0.102
-518.916	-200.000	-0.012	-0.252
-517.902	100.205	-0.200	-0.232
-516.887	-124.012	-0.098	-0.015
-515.872	83.927	-0.180	-0.196
-514.858	51.753	0.166	-0.158
-513.843	-200.000	-0.032	-0.235
-512.829	-57.148	0.174	0.077
-511.814	55.568	-0.151	0.146
-510.799	-105.005	-0.275	-0.063
-509.785	-52.038	-0.070	0.032
-508.770	-164.828	0.355	-0.016
-507.756	60.408	0.142	-0.141
-506.741	23.190	-0.118	0.097
-505.726	123.453	0.077	-0.097
-504.712	-104.549	-0.030	-0.007
-503.697	-200.000	-0.033	0.477
-502.683	406.925	0.111	0.234
-501.668	-77.392	-0.219	-0.076
-500.653	298.414	0.139	0.256
-499.639	800.000	-0.133	0.379
-498.624	-20.551	0.220	0.135
-497.610	-157.220	0.105	0.006
-496.595	204.133	0.023	0.036
-495.581	66.253	0.068	0.069
-494.566	385.869	0.094	0.193
-493.551	-200.000	-0.008	-0.133
-492.537	-135.451	-0.349	-0.042
-491.522	369.006	0.033	0.067
-490.508	-200.000	-0.063	0.405
-489.493	800.000	0.047	0.155
-488.478	-200.000	-0.042	0.000
-487.464	146.219	0.043	-0.057
-486.449	-19.389	-0.185	0.115
-485.435	-200.000	-0.046	0.492
-484.420	-137.921	0.211	-0.024
-483.405	319.337	0.035	0.067
-482.391	-19.857	0.160	-0.099
-481.376	-141.438	-0.446	0.045
-480.362	800.000	-0.053	-0.220
-479.347	31.663	-0.226	0.194
-478.332	743.728	-0.071	0.191
-477.318	-108.892	0.350	0.075
-476.303	-14.107	-0.224	0.144
-475.289	749.708	-0.093	0.250
-474.274	189.600	-0.214	0.321
-473.259	-134.219	-0.259	0.032
-472.245	31.280	-0.427	0.366
-471.230	800.000	0.049	-0.209
-470.216	-200.000	-0.015	-0.406
-469.201	800.000	0.062	0.239
-468.186	199.644	0.135	0.207
-467.172	339.370	-0.112	0.219
-466.157	-107.856	0.121	-0.026
-465.143	280.393	-0.164	0.292
-464.128	-13.058	0.301	-0.195
-463.113	354.134	-0.042	-0.083
-462.099	-35.446	0.293	0.159
-461.084	-85.824	0.129	-0.040
-460.070	144.368	-0.155	-0.207
-459.055	210.084	-0.046	-0.073
-458.040	356.768	-0.097	-0.194
-457.026	-12.844	0.181	-0.118
-456.011	-44.010	-0.129	-0.065
-454.997	-7.364	-0.207	0.140
-453.982	-83.985	-0.304	0.096
-452.968	161.618	-0.046	0.064
-451.953	-20.321	0.170	0.105
-450.938	-133.272	0.143	0.018
-449.924	-13.556	0.149	-0.096
-448.909	100.864	-0.159	0.184
-447.895	142.009	0.103	0.136
-446.880	62.327	0.136	-0.135
-445.865	800.000	-0.028	-0.100
-444.851	-116.156	0.549	-0.102
-443.836	27.634	0.338	0.284
-442.822	134.301	-0.135	0.175
-441.807	-130.855	0.303	0.040
-440.792	-114.038	0.311	-0.060
-439.778	129.782	-0.253	-0.323
-438.763	-200.000	0.003	-0.141
-437.749	102.272	-0.088	0.103
-436.734	573.240	-0.055	0.134
-435.719	-200.000	0.002	-0.288
-434.705	23.375	-0.253	-0.208
-433.690	-44.499	0.083	0.042
-432.676	800.000	-0.020	-0.065
-431.661	-92.926	0.305	-0.085
-430.646	800.000	-0.056	0.171
-429.632	169.335	-0.046	0.066
-428.617	-200.000	0.023	0.204
-427.603	589.037	-0.101	-0.249
-426.588	-200.000	-0.018	-0.098
-425.573	-77.088	-0.104	-0.036
-424.559	-200.000	-0.018	0.180
-423.544	-4.355	-0.200	-0.138
-422.530	266.289	0.049	0.085
-421.515	800.000	-0.134	0.410
-420.500	-200.000	-0.020	0.170
-419.486	59.503	0.269	0.265
-418.471	38.058	-0.047	0.042
-417.457	-75.919	0.315	0.111
-416.442	-100.992	-0.265	-0.065
-415.428	-200.000	-0.176	0.000
-414.413	800.000	0.052	0.179
-413.398	-161.278	0.045	0.002
-412.384	12.800	0.097	0.075
-411.369	-30.057	-0.200	-0.113
-410.355	-200.000	0.026	-0.254
-409.340	-200.000	0.003	0.066
-408.325	-0.105	0.176	0.125
-407.311	282.969	0.156	0.279
-406.296	-68.827	0.117	-0.045
-405.282	-33.229	-0.354	0.195
-404.267	-168.724	0.110	0.004
-403.252	800.000	-0.043	-0.170
-402.238	-38.349	0.167	-0.088
-401.223	-109.154	0.194	0.041
-400.209	-98.198	0.193	0.049
-399.194	-91.005	0.266	-0.076
-398.179	346.472	-0.094	0.183
-397.165	800.000	0.157	-0.450
-396.150	-200.000	-0.020	-0.145
-395.136	-153.228	0.025	0.002
-394.121	-200.000	-0.002	-0.230
-393.106	-10.182	-0.252	-0.167
-392.092	-200.000	0.001	-0.009
-391.077	275.405	-0.112	0.197
-390.063	57.545	0.080	-0.078
-389.048	14.266	-0.099	-0.077
-388.033	-7.801	0.179	-0.120
-387.019	-125.585	-0.219	-0.033
-386.004	167.767	0.178	-0.252
-384.990	-200.000	-0.047	0.359
-383.975	-96.664	-0.128	-0.034
-382.960	342.502	-0.077	-0.149
-381.946	-200.000	0.026	-0.195
-380.931	170.531	0.106	0.151
-379.917	-200.000	0.221	-0.001
-378.902	800.000	-0.123	-0.346
-377.888	14.563	-0.061	0.048
-376.873	-4.131	0.372	0.256
-375.858	-128.939	-0.355	0.050
-374.844	-112.714	-0.161	0.032
-373.829	-179.384	0.157	-0.003
-372.815	11.124	0.131	-0.099
-371.800	-86.419	-0.038	-0.012
-370.785	130.505	0.193	-0.247
-369.771	-44.173	0.339	-0.169
-368.756	-200.000	-0.011	0.302
-367.742	261.695	0.134	0.231
-366.727	156.050	-0.075	0.103
-365.712	100.663	0.132	0.152
-364.698	-43.374	0.368	-0.185
-363.683	592.489	0.081	0.199
-362.669	-101.798	-0.262	-0.063
-361.654	-119.428	0.327	0.056
-360.639	266.183	-0.062	0.108
-359.625	-200.000	-0.021	0.110
-358.610	-95.136	0.255	-0.068
-357.596	-23.584	0.133	-0.079
-356.581	800.000	0.126	-0.370
-355.566	-124.950	-0.187	-0.029
-354.552	800.000	0.089	0.348
-353.537	27.309	-0.304	0.254
-352.523	11.164	0.182	0.139
-351.508	221.019	-0.177	-0.283
-350.493	-200.000	-0.077	-0.361
-349.479	-102.936	-0.152	0.036
-348.464	-24.921	0.114	0.067
-347.450	800.000	-0.073	0.267
-346.435	166.215	0.257	-0.362
-345.420	-200.000	-0.056	-0.249
-344.406	-162.510	0.210	-0.010
-343.391	749.281	-0.104	-0.279
-342.377	140.260	0.010	-0.013
-341.362	242.932	0.241	0.400
-340.348	52.585	0.052	0.050
-339.333	252.046	0.069	-0.117
-338.318	-118.738	-0.336	-0.059
-337.304	-200.000	-0.042	-0.194
-336.289	-68.055	0.351	-0.136
-335.275	467.442	-0.087	0.194
-334.260	-79.902	-0.496	0.165
-333.245	-46.270	-0.200	0.098
-332.231	10.596	0.161	0.122
-331.216	13.319	-0.182	-0.140
-330.202	-157.958	-0.182	0.011
-329.187	-86.491	-0.209	-0.064
-328.172	-200.000	-0.015	-0.487
-327.158	-19.574	0.326	0.200
-326.143	-115.505	-0.524	0.098
-325.129	-106.722	0.158	-0.035
-324.114	45.140	-0.206	-0.188
-323.099	102.343	0.202	-0.235
-322.085	-50.464	-0.500	0.234
-321.070	-78.680	0.265	0.090
-320.056	28.718	-0.049	0.041
-319.041	-200.000	-0.018	0.228
-318.026	411.805	0.068	0.144
-317.012	800.000	0.024	-0.099
-315.997	-181.902	-0.137	-0.003
-314.983	-200.000	-0.026	0.179
-313.968	-134.643	0.067	0.008
-312.953	-81.532	0.165	0.054
-311.939	537.822	-0.086	0.203
-310.924	-200.000	0.024	-0.109
-309.910	-200.000	0.051	-0.378
-308.895	800.000	0.050	-0.187
-307.880	-127.291	-0.193	-0.028
-306.866	-200.000	0.029	0.292
-305.851	33.797	0.116	-0.100
-304.837	-200.000	-0.000	0.054
-303.822	800.000	0.037	0.122
-302.807	-17.945	-0.089	0.055
-301.793	-148.400	0.041	0.003
-300.778	167.173	0.187	0.263
-299.764	10.296	-0.069	-0.052
-298.749	800.000	-0.071	-0.263
-297.735	-99.840	0.063	0.016
-296.720	-200.000	-0.002	0.142
-295.705	47.298	0.092	-0.085
-294.691	-88.224	-0.347	0.103
-293.676	34.598	-0.091	0.079
-292.662	-45.188	0.149	-0.074
-291.647	800.000	0.061	0.170
-290.632	593.737	-0.120	0.293
-289.618	-77.588	0.183	-0.063
-288.603	-17.162	-0.128	-0.080
-287.589	-23.968	-0.063	-0.037
-286.574	-98.970	-0.284	-0.071
-285.559	738.609	-0.068	0.180
-284.545	236.993	0.135	-0.222
-283.530	-10.732	-0.152	-0.100
-282.516	220.128	0.102	0.162
-281.501	800.000	0.049	0.204
-280.486	-200.000	-0.002	-0.079
-279.472	188.316	0.176	0.261
-278.457	-74.716	0.042	-0.015
-277.443	-200.000	0.002	-0.214
-276.428	248.972	0.061	0.102
-275.413	-200.000	-0.045	-0.335
-274.399	800.000	0.108	0.343
-273.384	329.568	0.055	-0.105
-272.370	88.280	-0.217	-0.239
-271.355	-125.146	-0.115	0.017
-270.340	-122.508	-0.419	0.067
-269.326	-200.000	0.053	-0.378
-268.311	-50.544	-0.166	-0.078
-267.297	-200.000	-0.054	-0.268
-266.282	800.000	0.113	0.355
-265.267	16.899	0.126	0.099
-264.253	341.152	-0.073	0.142
-263.238	-1.640	0.164	-0.114
-262.224	54.203	0.107	-0.102
-261.209	-18.577	0.288	0.178
-260.195	-86.174	0.190	0.058
-259.180	192.017	-0.265	0.395
-258.165	-32.284	0.121	-0.067
-257.151	800.000	-0.013	0.051
-256.136	-11.611	-0.085	0.055
-255.122	-178.019	-0.527	0.012
-254.107	800.000	0.065	-0.231
-253.092	-200.000	0.018	-0.111
-252.078	2.151	0.292	0.209
-251.063	91.710	-0.192	0.214
-250.049	-200.000	-0.014	-0.105
-249.034	-148.322	-0.335	-0.027
-248.019	-200.000	-0.000	-0.020
-247.005	202.786	-0.064	-0.098
-245.990	-11.203	-0.342	0.223
-244.976	102.599	-0.227	0.263
-243.961	145.394	0.199	-0.264
-242.946	-141.209	0.315	0.032
-241.932	-95.063	-0.093	0.025
-240.917	71.970	0.120	-0.123
-239.903	-168.462	-0.090	0.003
-238.888	-13.396	-0.051	-0.032
-237.873	252.340	0.080	-0.135
-236.859	-135.833	0.103	-0.012
-235.844	91.620	-0.258	-0.287
-234.830	-30.745	0.182	-0.102
-233.815	-87.576	-0.021	-0.006
-232.800	67.025	0.093	0.094
-231.786	-200.000	0.012	0.152
-230.771	-200.000	0.043	0.376
-229.757	-45.649	0.060	-0.030
-228.742	518.486	0.011	0.025
-227.727	-200.000	-0.014	-0.067
-226.713	313.613	0.096	0.179
-225.698	259.566	-0.197	-0.336
-224.684	-81.468	0.254	-0.083
-223.669	5.077	-0.169	0.123
-222.655	-2.157	0.375	0.260
-221.640	496.199	-0.033	-0.076
-220.625	5.257	-0.297	-0.217
-219.611	800.000	-0.031	0.121
-218.596	1.705	-0.248	0.177
-217.582	174.686	0.130	0.187
-216.567	-78.795	0.028	0.009
-215.552	-162.074	0.204	-0.010
-214.538	800.000	0.117	0.348
-213.523	16.497	0.245	-0.191
-212.509	-56.973	-0.316	0.138
-211.494	8.176	-0.035	-0.026
-210.479	-200.000	0.054	0.268
-209.465	-106.494	0.367	0.081
-208.450	-192.262	-0.279	0.003
-207.436	-13.764	-0.167	0.107
-206.421	39.197	0.314	-0.278
-205.406	84.524	-0.203	-0.220
-204.392	-200.000	0.004	0.271
-203.377	445.731	0.129	-0.280
-202.363	800.000	0.048	0.160
-201.348	-145.147	0.204	-0.018
-200.333	-29.144	0.151	0.086
-199.319	-5.439	0.247	-0.167
-198.304	79.956	-0.181	-0.192
-197.290	-56.601	-0.210	-0.092
-196.275	-200.000	-0.018	0.141
-195.260	-200.000	0.058	-0.368
-194.246	-200.000	0.023	-0.106
-193.231	94.529	-0.126	0.142
-192.217	-55.812	0.304	0.134
-191.202	-123.831	-0.312	-0.049
-190.187	-23.522	-0.148	-0.088
-189.173	-82.587	0.294	-0.094
-188.158	-164.392	0.120	0.005
-187.144	731.238	0.108	-0.285
-186.129	-200.000	-0.035	-0.182
-185.114	-103.200	0.298	0.070
-184.100	-45.130	0.040	-0.020
-183.085	-105.387	0.214	-0.048
-182.071	800.000	-0.020	0.081
-181.056	-98.605	-0.087	-0.022
-180.042	-200.000	0.001	-0.172
-179.027	-105.000	0.104	0.023
-178.012	-90.729	-0.060	0.017
-176.998	191.674	-0.153	-0.228
-175.983	539.078	0.099	-0.232
-174.969	317.955	-0.158	-0.296
-173.954	-88.169	0.275	0.081
-172.939	-98.286	-0.247	0.063
-171.925	-131.484	0.065	0.008
-170.910	800.000	-0.040	-0.116
-169.896	-133.363	0.092	0.011
-168.881	5.061	-0.256	-0.186
-167.866	-200.000	-0.022	-0.253
-166.852	82.624	0.145	-0.156
-165.837	-96.688	-0.242	-0.063
-164.823	-61.838	-0.201	-0.083
-163.808	293.338	-0.183	-0.329
-162.793	-200.000	0.013	0.413
-161.779	-55.446	0.138	-0.061
-160.764	-17.527	0.198	-0.123
-159.750	-38.695	0.332	-0.173
-158.735	133.428	0.077	-0.098
-157.720	-200.000	-0.031	-0.303
-156.706	-49.430	-0.016	0.007
-155.691	-52.407	-0.184	0.084
-154.677	15.032	0.071	-0.055
-153.662	80.848	0.235	-0.250
-152.647	800.000	-0.018	0.056
-151.633	609.583	0.077	-0.189
-150.618	-86.025	0.433	-0.132
-149.604	-4.028	0.229	-0.157
-148.589	-49.850	-0.109	-0.051
-147.574	-32.920	-0.135	-0.074
-146.560	-147.170	0.228	0.019
-145.545	81.085	0.113	-0.120
-144.531	-200.000	-0.010	-0.269
-143.516	-68.783	-0.031	0.012
-142.502	163.401	-0.100	0.139
-141.487	237.545	-0.186	0.304
-140.472	77.763	0.094	0.099
-139.458	-164.289	-0.484	0.022
-138.443	-71.496	0.168	0.062
-137.429	85.575	0.202	-0.219
-136.414	-86.385	0.128	-0.039
-135.399	332.730	-0.179	-0.341
-134.385	-200.000	-0.005	-0.322
-133.370	-62.566	0.250	0.102
-132.356	106.002	-0.218	-0.254
-131.341	-200.000	-0.040	-0.285
-130.326	800.000	-0.116	0.340
-129.312	-200.000	-0.004	-0.295
-128.297	-62.751	0.238	-0.097
-127.283	-74.963	-0.300	-0.106
-126.268	-28.918	0.180	0.102
-125.253	800.000	-0.061	-0.201
-124.239	-6.721	-0.105	-0.070
-123.224	-74.019	-0.093	0.033
-122.210	70.380	-0.090	0.092
-121.195	29.190	0.119	-0.099
