DTS Sentinel unit serial number:	SN413079Multiplexer serial number:	ORYXHardware model number:	OX4-SRSoftware version number:	ORYX F/W v4.00 Oryx Data Collector v3.7.2.0data status	okinstallation	princeton_trtdifferential loss correction	single-endedforward channel	channel 2reverse channel	N/Adate	2019/09/10time	16:29:11forward acquisition time	60.00reverse acquisition time	0.00gamma	496.2192k internal	0.2308k external	0.2308temperature offset calibration	0.9938default loss term (dB/km)	0.3790temperature slope calibration	1.0000multiplexer offset coefficient	1.0000multiplexer slope coefficient	1.0000fibre end	0.00T internal ref (°C)	38.06T ext. ref 1 (°C)	-0.27T ext. ref 2 (°C)	30.58length (m)	temperature (°C)	Stokes	anti-Stokes-747.200	321.600	-0.023	-0.044
-746.185	-115.174	-0.178	0.034
-745.171	-200.000	0.006	-0.272
-744.156	-54.855	-0.305	0.140
-743.142	492.226	-0.019	-0.045
-742.127	334.014	-0.205	0.403
-741.112	10.356	-0.268	0.208
-740.098	-91.110	0.192	0.056
-739.083	800.000	-0.067	-0.236
-738.069	-47.042	-0.110	0.055
-737.054	364.347	-0.067	0.137
-736.039	-140.525	0.179	-0.019
-735.025	71.253	0.110	-0.116
-734.010	-63.581	-0.471	-0.196
-732.996	800.000	-0.159	-0.459
-731.981	152.626	0.005	-0.007
-730.966	9.076	0.111	-0.085
-729.952	80.104	-0.117	0.127
-728.937	-131.393	-0.479	-0.064
-727.923	80.325	0.058	-0.063
-726.908	3.182	0.227	-0.167
-725.894	276.289	0.229	-0.413
-724.879	142.417	0.123	-0.166
-723.864	-119.915	0.114	-0.020
-722.850	-45.989	-0.272	-0.136
-721.835	700.954	0.104	-0.279
-720.821	320.801	-0.009	-0.017
-719.806	800.000	-0.154	-0.477
-718.791	-48.047	-0.323	-0.159
-717.777	280.961	-0.115	-0.209
-716.762	800.000	-0.136	-0.388
-715.748	94.012	-0.164	0.189
-714.733	800.000	-0.026	-0.108
-713.718	-200.000	-0.018	-0.352
-712.704	-95.557	0.068	0.018
-711.689	16.457	-0.224	-0.179
-710.675	-72.036	-0.103	0.039
-709.660	-200.000	0.030	-0.272
-708.645	800.000	0.047	-0.206
-707.631	6.607	0.028	0.021
-706.616	14.539	-0.454	-0.359
-705.602	56.895	0.242	-0.239
-704.587	704.351	0.074	0.199
-703.572	-60.478	-0.395	-0.170
-702.558	11.121	-0.373	0.289
-701.543	800.000	-0.065	-0.191
-700.529	-200.000	-0.016	0.100
-699.514	-65.877	0.270	-0.109
-698.499	-146.111	0.212	-0.019
-697.485	91.783	-0.184	-0.210
-696.470	-83.062	-0.408	0.133
-695.456	-143.308	0.507	0.049
-694.441	-65.759	0.064	0.026
-693.426	-43.166	-0.189	0.097
-692.412	-200.000	-0.013	0.093
-691.397	282.931	0.068	-0.123
-690.383	-55.048	-0.167	0.076
-689.368	244.336	-0.228	-0.388
-688.354	268.914	0.110	-0.195
-687.339	25.444	0.019	-0.016
-686.324	-10.663	-0.056	-0.038
-685.310	-144.117	0.143	0.014
-684.295	225.956	0.259	0.426
-683.281	-200.000	0.026	0.186
-682.266	-144.317	0.105	-0.010
-681.251	-5.437	-0.352	-0.245
-680.237	-200.000	-0.013	-0.282
-679.222	24.562	0.058	-0.048
-678.208	-200.000	0.006	0.085
-677.193	800.000	0.113	-0.412
-676.178	-45.117	0.210	-0.106
-675.164	-38.879	0.048	-0.026
-674.149	-15.329	0.121	0.079
-673.135	122.401	-0.097	0.123
-672.120	654.164	0.094	-0.244
-671.105	-200.000	0.034	0.168
-670.091	488.680	-0.098	0.228
-669.076	164.002	0.266	0.380
-668.062	-88.720	0.370	0.111
-667.047	24.095	0.135	-0.113
-666.032	-200.000	0.001	-0.168
-665.018	800.000	0.022	-0.093
-664.003	23.729	0.131	0.109
-662.989	386.395	0.144	0.302
-661.974	-26.549	-0.047	0.028
-660.959	-200.000	-0.049	-0.217
-659.945	222.220	-0.088	0.143
-658.930	-200.000	0.004	-0.301
-657.916	-32.792	0.298	0.168
-656.901	-46.603	0.257	0.128
-655.886	-31.836	-0.123	0.070
-654.872	-25.530	0.228	0.136
-653.857	800.000	0.094	-0.404
-652.843	800.000	-0.153	0.532
-651.828	-200.000	0.000	0.109
-650.814	-113.830	0.336	-0.066
-649.799	-154.638	-0.397	-0.027
-648.784	117.209	-0.134	-0.167
-647.770	584.706	-0.113	0.281
-646.755	552.060	-0.121	-0.295
-645.741	-152.013	-0.210	-0.016
-644.726	-40.515	0.261	0.137
-643.711	-200.000	0.007	-0.481
-642.697	-31.328	0.137	0.078
-641.682	74.345	-0.131	0.140
-640.668	4.301	-0.099	-0.073
-639.653	222.868	0.168	-0.274
-638.638	4.170	-0.112	-0.083
-637.624	498.236	-0.160	0.372
-636.609	30.724	0.265	-0.229
-635.595	603.828	-0.096	-0.241
-634.580	-47.180	-0.099	0.049
-633.565	-95.731	0.211	-0.057
-632.551	432.167	-0.164	-0.361
-631.536	-200.000	-0.014	0.434
-630.522	99.066	-0.145	0.169
-629.507	203.419	0.117	0.182
-628.492	204.248	0.069	0.107
-627.478	94.442	0.114	-0.131
-626.463	-55.225	0.177	0.081
-625.449	-200.000	-0.022	0.319
-624.434	-13.044	-0.118	-0.077
-623.419	178.178	-0.065	0.096
-622.405	-200.000	-0.016	0.094
-621.390	27.234	-0.090	0.076
-620.376	74.767	0.125	0.133
-619.361	306.950	-0.095	-0.178
-618.346	-200.000	-0.003	-0.176
-617.332	-171.331	-0.160	0.005
-616.317	592.050	-0.079	-0.198
-615.303	-70.992	-0.060	0.023
-614.288	-128.243	0.163	0.024
-613.273	-6.859	0.183	-0.126
-612.259	205.161	0.162	-0.255
-611.244	800.000	-0.102	0.334
-610.230	-147.712	-0.106	0.009
-609.215	-134.280	-0.144	-0.018
-608.201	800.000	-0.097	-0.424
-607.186	-49.392	-0.168	0.081
-606.171	51.788	-0.133	-0.128
-605.157	-200.000	0.030	-0.137
-604.142	37.050	-0.185	-0.165
-603.128	-2.892	0.126	-0.089
-602.113	167.543	-0.127	-0.183
-601.098	141.057	0.047	-0.062
-600.084	275.580	-0.057	-0.102
-599.069	-117.714	0.427	-0.078
-598.055	206.387	0.147	-0.231
-597.040	-5.687	0.106	-0.073
-596.025	-133.819	-0.478	0.060
-595.011	800.000	-0.124	0.395
-593.996	504.862	-0.052	-0.122
-592.982	-124.529	0.264	0.041
-591.967	64.466	0.094	-0.096
-590.952	-118.851	-0.131	-0.023
-589.938	-150.051	-0.235	-0.018
-588.923	306.728	-0.131	0.247
-587.909	-200.000	-0.013	0.469
-586.894	-66.240	-0.349	0.140
-585.879	-163.633	-0.441	-0.021
-584.865	-32.762	0.234	-0.131
-583.850	-38.254	-0.279	-0.149
-582.836	37.797	0.097	0.087
-581.821	-55.254	-0.043	-0.020
-580.806	39.255	0.187	0.169
-579.792	37.556	0.276	0.247
-578.777	800.000	-0.025	0.082
-577.763	-31.449	0.306	0.174
-576.748	315.743	0.045	0.086
-575.733	124.247	-0.087	-0.110
-574.719	-154.426	0.161	0.011
-573.704	-6.903	0.187	0.128
-572.690	-55.031	-0.071	0.032
-571.675	-200.000	0.003	-0.377
-570.661	800.000	0.057	-0.247
-569.646	186.921	-0.063	-0.094
-568.631	62.216	-0.108	0.109
-567.617	-85.393	0.253	-0.080
-566.602	10.862	0.205	-0.158
-565.588	66.336	-0.092	0.094
-564.573	-107.130	-0.209	-0.047
-563.558	460.444	0.130	-0.292
-562.544	800.000	0.037	0.153
-561.529	634.453	0.140	0.357
-560.515	800.000	-0.141	-0.446
-559.500	-59.449	0.328	-0.142
-558.485	489.373	0.113	0.260
-557.471	-119.776	-0.403	-0.070
-556.456	363.782	0.033	-0.066
-555.442	130.324	0.208	0.269
-554.427	24.516	0.057	0.047
-553.412	800.000	-0.049	-0.183
-552.398	138.938	0.110	0.146
-551.383	148.598	-0.215	0.294
-550.369	-114.535	0.247	-0.048
-549.354	150.292	0.107	0.146
-548.339	-200.000	-0.022	-0.326
-547.325	-40.362	-0.214	0.112
-546.310	77.457	0.164	-0.176
-545.296	800.000	-0.077	0.321
-544.281	-200.000	-0.005	-0.150
-543.266	-52.632	-0.150	-0.070
-542.252	-107.972	-0.390	-0.085
-541.237	-200.000	0.027	-0.191
-540.223	800.000	-0.145	-0.440
-539.208	483.534	0.055	0.127
-538.193	-103.590	0.150	0.035
-537.179	-200.000	-0.024	0.154
-536.164	504.540	-0.029	0.068
-535.150	59.201	0.127	-0.126
-534.135	320.983	0.206	-0.394
-533.121	-39.355	-0.307	-0.162
-532.106	338.061	-0.023	0.046
-531.091	800.000	0.074	-0.243
-530.077	-200.000	-0.014	0.139
-529.062	40.967	0.078	0.071
-528.048	-200.000	-0.061	0.361
-527.033	-200.000	-0.006	-0.254
-526.018	-39.527	-0.378	0.199
-525.004	14.218	-0.219	-0.172
-523.989	-96.937	-0.352	-0.093
-522.975	606.683	-0.074	-0.187
-521.960	123.206	-0.122	-0.154
-520.945	46.559	-0.078	-0.073
-519.931	-150.501	-0.499	0.039
-518.916	-33.515	-0.042	0.023
-517.902	-200.000	0.016	-0.228
-516.887	151.299	0.008	-0.011
-515.872	73.475	0.174	0.183
-514.858	-162.445	0.230	0.011
-513.843	515.973	0.080	0.188
-512.829	-46.726	0.065	-0.032
-511.814	147.610	0.076	0.103
-510.799	-44.576	-0.223	0.112
-509.785	232.102	0.079	-0.131
-508.770	246.635	-0.165	0.280
-507.756	-8.464	0.104	0.070
-506.741	-19.885	-0.285	-0.177
-505.726	-76.372	-0.389	0.138
-504.712	800.000	0.012	0.046
-503.697	-71.402	-0.045	0.017
-502.683	-34.519	-0.124	0.068
-501.668	-200.000	-0.038	-0.186
-500.653	-200.000	0.013	-0.151
-499.639	57.743	0.240	-0.237
-498.624	-58.870	0.177	0.077
-497.610	-200.000	-0.038	-0.191
-496.595	-80.159	-0.254	0.086
-495.581	-103.538	-0.476	0.113
-494.566	-200.000	-0.010	-0.235
-493.551	289.865	0.080	-0.147
-492.537	-26.549	-0.103	0.061
-491.522	312.387	0.128	-0.243
-490.508	482.080	-0.020	0.045
-489.493	-82.588	0.284	0.093
-488.478	119.185	0.284	0.354
-487.464	135.784	0.151	0.198
-486.449	259.526	-0.091	-0.159
-485.435	-101.266	-0.316	0.078
-484.420	-65.812	-0.208	-0.084
-483.405	-42.122	-0.203	0.104
-482.391	800.000	0.044	-0.131
-481.376	0.497	0.154	0.110
-480.362	-155.368	0.251	0.016
-479.347	-200.000	-0.023	0.234
-478.332	562.302	0.125	0.304
-477.318	284.580	0.244	0.442
-476.303	409.754	-0.109	0.231
-475.289	137.831	0.183	-0.241
-474.274	-87.576	0.401	-0.122
-473.259	195.871	-0.033	-0.050
-472.245	1.579	-0.243	0.176
-471.230	407.973	0.148	-0.315
-470.216	34.884	-0.207	0.182
-469.201	-200.000	0.013	-0.293
-468.186	173.750	0.109	0.158
-467.172	-74.865	0.277	0.100
-466.157	-32.491	-0.102	0.057
-465.143	-124.245	-0.206	0.032
-464.128	-126.603	0.229	0.034
-463.113	-142.022	-0.106	-0.011
-462.099	15.378	0.098	0.077
-461.084	-135.764	0.243	0.029
-460.070	-102.591	0.156	-0.037
-459.055	-41.968	0.208	0.107
-458.040	416.250	-0.077	-0.165
-457.026	-138.851	-0.135	0.015
-456.011	111.905	0.140	-0.170
-454.997	-18.961	-0.092	-0.057
-453.982	32.065	-0.253	0.219
-452.968	-146.035	0.262	-0.023
-451.953	632.869	-0.043	-0.110
-450.938	-82.097	0.074	0.024
-449.924	533.623	-0.191	0.454
-448.909	-170.205	0.336	-0.012
-447.895	-23.962	-0.344	-0.206
-446.880	800.000	0.015	0.048
-445.865	38.265	-0.210	0.188
-444.851	642.918	-0.107	-0.274
-443.836	-200.000	-0.013	-0.083
-442.822	800.000	-0.087	0.245
-441.807	-78.313	0.262	0.090
-440.792	112.809	-0.146	0.178
-439.778	800.000	0.015	-0.057
-438.763	-39.974	-0.241	-0.126
-437.749	236.324	0.164	-0.273
-436.734	32.555	-0.095	-0.083
-435.719	-93.585	0.277	-0.077
-434.705	18.977	-0.175	0.141
-433.690	-148.286	0.220	-0.018
-432.676	52.617	-0.148	-0.142
-431.661	-200.000	-0.078	0.463
-430.646	-42.263	-0.178	0.091
-429.632	-166.996	-0.070	0.003
-428.617	-160.313	-0.325	0.018
-427.603	276.342	0.075	0.134
-426.588	129.422	-0.068	-0.088
-425.573	-132.576	-0.237	-0.030
-424.559	-200.000	-0.067	0.517
-423.544	196.770	-0.113	0.173
-422.530	288.601	0.131	0.238
-421.515	74.488	0.190	0.200
-420.500	-2.438	0.239	-0.168
-419.486	-94.953	-0.303	-0.082
-418.471	43.117	0.166	-0.152
-417.457	-50.446	0.143	-0.068
-416.442	34.838	-0.065	0.057
-415.428	149.108	-0.111	0.150
-414.413	-38.530	-0.163	0.087
-413.398	-75.350	0.283	0.101
-412.384	-200.000	0.001	-0.203
-411.369	-114.404	-0.180	0.035
-410.355	-167.855	-0.077	-0.003
-409.340	-92.151	0.110	-0.031
-408.325	-200.000	0.034	0.158
-407.311	155.963	0.215	0.297
-406.296	-167.369	-0.362	-0.015
-405.282	-200.000	-0.011	-0.218
-404.267	800.000	0.045	0.172
-403.252	-68.930	-0.282	0.109
-402.238	22.815	0.185	-0.152
-401.223	231.864	0.120	0.197
-400.209	-144.726	-0.012	0.001
-399.194	-134.539	0.064	-0.008
-398.179	33.001	0.040	-0.034
-397.165	37.095	-0.068	0.060
-396.150	136.107	0.104	0.136
-395.136	-200.000	0.061	-0.390
-394.121	137.987	-0.055	0.073
-393.106	-200.000	-0.014	0.075
-392.092	-66.431	0.251	0.100
-391.077	-115.438	0.359	-0.068
-390.063	-57.143	-0.315	0.139
-389.048	149.174	0.083	-0.112
-388.033	-16.749	0.218	0.138
-387.019	452.515	-0.125	-0.276
-386.004	106.479	0.262	-0.312
-384.990	-200.000	-0.004	0.029
-383.975	-200.000	0.013	-0.056
-382.960	317.580	0.204	0.386
-381.946	-151.670	-0.115	0.009
-380.931	-79.368	0.275	0.093
-379.917	-161.620	-0.259	0.013
-378.902	-200.000	0.014	-0.067
-377.888	19.424	0.327	0.263
-376.873	-122.111	-0.158	0.026
-375.858	800.000	0.004	-0.011
-374.844	-25.886	0.248	0.146
-373.829	-147.459	0.269	0.023
-372.815	-125.207	-0.180	0.028
-371.800	-200.000	-0.031	0.194
-370.785	777.835	-0.092	-0.252
-369.771	-160.026	0.240	-0.013
-368.756	-200.000	0.010	0.217
-367.742	57.152	0.167	-0.163
-366.727	146.112	-0.088	-0.119
-365.712	153.318	-0.128	0.175
-364.698	800.000	-0.038	-0.167
-363.683	-200.000	0.018	-0.107
-362.669	-128.814	0.192	-0.027
-361.654	51.482	-0.173	0.165
-360.639	800.000	0.077	0.251
-359.625	-42.552	0.322	0.164
-358.610	344.346	-0.018	0.035
-357.596	-106.130	0.386	0.087
-356.581	151.617	-0.190	0.260
-355.566	-62.471	0.104	-0.043
-354.552	-200.000	0.042	-0.356
-353.537	478.926	0.085	0.193
-352.523	-114.254	-0.106	0.020
-351.508	-200.000	-0.008	0.091
-350.493	131.763	0.174	0.224
-349.479	-200.000	-0.048	-0.441
-348.464	575.871	0.010	0.025
-347.450	-200.000	0.049	-0.263
-346.435	-200.000	-0.025	-0.232
-345.420	45.219	0.184	-0.170
-344.406	115.146	-0.134	-0.163
-343.391	258.775	0.040	-0.070
-342.377	87.448	-0.127	0.140
-341.362	-28.627	-0.174	-0.100
-340.348	760.698	0.083	0.225
-339.333	-200.000	-0.004	0.080
-338.318	440.944	-0.130	0.285
-337.304	216.494	-0.229	-0.364
-336.289	-65.520	-0.158	0.063
-335.275	104.467	-0.282	0.332
-334.260	129.999	-0.010	0.013
-333.245	59.777	-0.228	0.225
-332.231	-132.167	-0.418	0.054
-331.216	-18.521	-0.208	-0.130
-330.202	313.811	0.130	0.244
-329.187	90.410	0.129	-0.145
-328.172	192.104	0.193	0.291
-327.158	-157.798	0.236	0.014
-326.143	-20.187	0.091	-0.056
-325.129	-130.251	-0.221	0.030
-324.114	800.000	0.126	-0.444
-323.099	-37.973	0.280	0.149
-322.085	-125.491	-0.157	-0.024
-321.070	339.264	0.082	-0.160
-320.056	-200.000	-0.212	0.001
-319.041	-96.966	-0.132	0.035
-318.026	-200.000	-0.012	-0.371
-317.012	-88.800	0.319	-0.095
-315.997	-14.309	0.125	-0.080
-314.983	-176.363	-0.123	0.003
-313.968	-44.464	0.038	-0.019
-312.953	52.106	0.078	-0.074
-311.939	-47.902	-0.176	-0.085
-310.924	-9.505	-0.185	0.123
-309.910	800.000	0.020	0.085
-308.895	-38.958	-0.156	0.082
-307.880	-200.000	-0.039	-0.240
-306.866	33.705	-0.061	0.053
-305.851	-56.183	0.225	0.100
-304.837	6.931	-0.292	-0.218
-303.822	-47.694	-0.124	0.060
-302.807	800.000	-0.045	-0.183
-301.793	-113.270	-0.126	-0.025
-300.778	-200.000	0.018	0.183
-299.764	-13.516	0.218	-0.141
-298.749	159.418	0.193	-0.269
-297.735	252.364	0.063	0.107
-296.720	283.190	0.159	0.286
-295.705	-57.081	0.419	0.185
-294.691	800.000	0.076	0.229
-293.676	-200.000	-0.011	-0.094
-292.662	7.684	-0.133	0.099
-291.647	-73.397	-0.017	-0.006
-290.632	275.315	0.128	-0.226
-289.618	-200.000	-0.003	0.184
-288.603	800.000	0.034	-0.114
-287.589	32.501	-0.025	-0.022
-286.574	-3.464	-0.065	0.045
-285.559	-107.135	-0.174	0.038
-284.545	-15.825	-0.180	-0.114
-283.530	800.000	-0.085	-0.305
-282.516	153.000	-0.262	-0.357
-281.501	-27.043	-0.112	-0.065
-280.486	91.632	0.141	-0.158
-279.472	45.951	-0.071	0.065
-278.457	-51.192	0.173	0.081
-277.443	-44.038	0.045	0.022
-276.428	-64.442	-0.131	-0.053
-275.413	-75.556	0.280	-0.099
-274.399	-45.029	-0.265	-0.132
-273.384	-39.999	0.266	-0.138
-272.370	201.442	0.122	0.187
-271.355	-147.860	-0.316	-0.026
-270.340	-200.000	-0.008	0.242
-269.326	44.243	-0.134	-0.122
-268.311	-36.108	0.353	-0.190
-267.297	107.444	-0.268	0.318
-266.282	219.406	-0.038	-0.060
-265.267	-64.670	0.044	-0.018
-264.253	64.925	-0.257	0.258
-263.238	330.371	0.016	0.031
-262.224	-106.889	0.331	0.073
-261.209	800.000	-0.067	-0.199
-260.195	800.000	-0.152	-0.491
-259.180	10.173	0.211	0.160
-258.165	-77.850	-0.095	0.033
-257.151	-200.000	0.016	0.197
-256.136	498.454	-0.113	0.258
-255.122	-11.782	0.341	0.223
-254.107	-119.391	0.357	0.062
-253.092	-200.000	0.050	-0.244
-252.078	-68.680	-0.138	-0.053
-251.063	-200.000	-0.022	-0.170
-250.049	-200.000	0.039	-0.171
-249.034	133.292	0.176	0.226
-248.019	-54.629	-0.124	-0.056
-247.005	-69.676	0.228	0.087
-245.990	-52.682	0.123	0.057
-244.976	-138.905	0.198	0.021
-243.961	-200.000	-0.021	-0.101
-242.946	800.000	-0.030	-0.122
-241.932	-28.189	-0.142	0.082
-240.917	-58.769	-0.244	-0.105
-239.903	317.323	-0.122	-0.230
-238.888	194.010	-0.028	-0.042
-237.873	562.246	0.068	-0.164
-236.859	22.695	-0.130	-0.106
-235.844	31.511	0.170	0.145
-234.830	9.439	-0.306	0.231
-233.815	137.301	-0.234	-0.305
-232.800	800.000	-0.078	-0.285
-231.786	36.866	-0.064	0.057
-230.771	800.000	-0.009	-0.028
-229.757	-112.538	0.338	-0.067
-228.742	480.899	0.177	-0.400
-227.727	800.000	-0.059	0.181
-226.713	44.197	-0.083	0.076
-225.698	-39.592	-0.044	-0.023
-224.684	-69.009	0.225	-0.086
-223.669	16.863	0.270	0.213
-222.655	-43.526	0.168	-0.084
-221.640	691.522	-0.177	-0.463
-220.625	99.566	-0.269	0.309
-219.611	-200.000	-0.007	0.095
-218.596	-78.175	-0.201	0.069
-217.582	430.160	-0.064	0.138
-216.567	-200.000	-0.046	-0.225
-215.552	-200.000	-0.051	0.440
-214.538	188.442	0.178	0.265
-213.523	161.930	0.172	0.240
-212.509	41.337	-0.161	0.145
-211.494	800.000	0.028	-0.124
-210.479	11.165	0.096	0.073
-209.465	-29.344	-0.084	-0.048
-208.450	-133.095	0.303	0.038
-207.436	-200.000	-0.006	0.189
-206.421	56.241	0.425	0.411
-205.406	-76.074	-0.277	0.098
-204.392	106.386	0.142	0.167
-203.377	0.115	0.271	0.192
-202.363	193.070	0.073	-0.110
-201.348	-145.080	0.107	0.010
-200.333	-200.000	0.027	0.130
-199.319	-200.000	-0.063	-0.404
-198.304	-145.789	-0.080	-0.007
-197.290	-200.000	0.035	-0.242
-196.275	192.148	0.142	0.214
-195.260	283.285	0.169	0.302
-194.246	-162.165	0.281	0.014
-193.231	-200.000	-0.066	-0.385
-192.217	14.960	0.183	-0.143
-191.202	-200.000	-0.003	-0.101
-190.187	47.671	0.104	-0.097
-189.173	-73.114	-0.373	0.136
-188.158	-99.413	0.160	-0.040
-187.144	-200.000	-0.020	-0.199
-186.129	-112.168	-0.130	-0.026
-185.114	-200.000	-0.015	-0.153
-184.100	83.114	-0.224	0.242
-183.085	526.088	0.178	0.416
-182.071	71.087	-0.144	-0.149
-181.056	-12.593	0.210	0.136
-180.042	-69.717	0.169	-0.064
-179.027	-200.000	-0.046	0.293
-178.012	-40.452	0.085	0.044
-176.998	72.456	-0.021	-0.022
-175.983	-54.036	0.229	0.104
-174.969	-200.000	-0.022	-0.274
-173.954	-200.000	0.071	-0.396
-172.939	-200.000	0.034	-0.252
-171.925	-88.055	-0.329	-0.098
-170.910	348.674	-0.027	0.053
-169.896	-103.837	-0.231	0.054
-168.881	-123.884	0.208	-0.033
-167.866	-186.620	-0.101	-0.001
-166.852	27.843	-0.191	0.160
-165.837	-200.000	-0.010	0.091
-164.823	727.454	0.050	0.132
-163.808	-97.345	-0.278	0.072
-162.793	-151.461	0.102	-0.007
-161.779	-200.000	0.100	-0.501
-160.764	-200.000	0.005	-0.143
-159.750	-18.533	-0.033	-0.020
-158.735	3.708	0.293	0.212
-157.720	10.621	0.091	-0.069
-156.706	152.970	-0.210	-0.285
-155.691	-200.000	-0.002	0.072
-154.677	-200.000	0.005	-0.263
-153.662	-91.138	0.201	-0.057
-152.647	-108.369	0.182	-0.039
-151.633	800.000	0.113	0.386
-150.618	384.676	0.212	0.435
-149.604	523.462	0.153	0.357
-148.589	-190.118	0.423	-0.005
-147.574	-200.000	0.041	-0.192
-146.560	800.000	0.036	-0.129
-145.545	-84.561	-0.221	-0.069
-144.531	36.744	0.164	-0.144
-143.516	-131.525	0.099	-0.013
-142.502	-103.763	0.119	-0.028
-141.487	-200.000	-0.012	0.153
-140.472	-14.878	-0.106	0.068
-139.458	-200.000	-0.004	-0.067
-138.443	405.208	-0.056	-0.117
-137.429	398.087	-0.066	-0.136
-136.414	80.654	-0.075	-0.080
-135.399	264.413	0.081	-0.141
-134.385	-9.921	0.268	-0.177
-133.370	-57.399	0.152	-0.066
-132.356	-135.302	0.098	0.012
-131.341	-100.250	0.041	-0.010
-130.326	-138.322	-0.196	0.021
-129.312	126.094	-0.066	-0.083
-128.297	54.833	0.147	0.141
-127.283	7.699	0.108	-0.080
-126.268	-174.569	0.338	0.010
-125.253	-26.302	-0.187	-0.109
-124.239	-200.000	-0.004	-0.207
-123.224	-23.370	0.183	0.109
-122.210	425.523	-0.144	-0.307
-121.195	-11.072	0.223	0.146
