DTS Sentinel unit serial number:	SN413079Multiplexer serial number:	ORYXHardware model number:	OX4-SRSoftware version number:	ORYX F/W v4.00 Oryx Data Collector v3.7.2.0data status	okinstallation	princeton_trtdifferential loss correction	single-endedforward channel	channel 2reverse channel	N/Adate	2019/09/11time	21:45:11forward acquisition time	60.00reverse acquisition time	0.00gamma	496.2192k internal	0.2325k external	0.2325temperature offset calibration	1.0063default loss term (dB/km)	0.3790temperature slope calibration	1.0000multiplexer offset coefficient	1.0000multiplexer slope coefficient	1.0000fibre end	0.00T internal ref (°C)	35.75T ext. ref 1 (°C)	1.67T ext. ref 2 (°C)	30.12length (m)	temperature (°C)	Stokes	anti-Stokes-747.200	-145.258	0.295	-0.027
-746.185	-63.042	-0.207	0.086
-745.171	-13.583	0.137	0.089
-744.156	34.380	0.210	0.185
-743.142	-200.000	-0.111	-0.513
-742.127	-93.894	0.298	-0.083
-741.112	-142.231	0.097	0.010
-740.098	-200.000	0.002	0.289
-739.083	-165.276	0.455	0.020
-738.069	800.000	0.084	0.305
-737.054	800.000	0.116	0.403
-736.039	473.735	-0.139	0.316
-735.025	-4.185	0.444	0.310
-734.010	781.714	-0.162	-0.448
-732.996	52.614	-0.286	-0.276
-731.981	800.000	0.051	0.222
-730.966	-82.647	-0.288	-0.094
-729.952	541.978	-0.045	-0.108
-728.937	-112.756	-0.258	-0.052
-727.923	800.000	0.041	-0.148
-726.908	-176.392	-0.171	0.004
-725.894	-90.801	-0.115	0.033
-724.879	39.475	-0.222	-0.200
-723.864	800.000	0.042	0.168
-722.850	800.000	0.098	-0.289
-721.835	-200.000	0.011	-0.120
-720.821	-29.001	0.157	-0.091
-719.806	-200.000	0.034	0.202
-718.791	-104.175	0.300	0.070
-717.777	-65.251	0.201	-0.082
-716.762	183.748	0.179	0.267
-715.748	800.000	0.021	0.071
-714.733	-200.000	-0.028	-0.302
-713.718	17.897	0.164	0.131
-712.704	341.074	0.056	-0.110
-711.689	-60.241	0.148	-0.064
-710.675	-200.000	0.015	-0.120
-709.660	186.502	0.100	0.150
-708.645	345.947	-0.135	0.267
-707.631	-69.157	-0.261	-0.101
-706.616	155.129	-0.179	0.248
-705.602	-165.515	0.056	-0.002
-704.587	-141.083	0.296	-0.031
-703.572	-188.302	-0.157	-0.002
-702.558	65.675	-0.192	-0.196
-701.543	200.567	-0.033	0.051
-700.529	134.415	0.043	0.057
-699.514	-200.000	0.012	0.095
-698.499	800.000	-0.074	-0.258
-697.485	-154.612	0.045	-0.003
-696.470	-169.368	-0.165	0.006
-695.456	-141.634	0.194	-0.020
-694.441	-94.206	-0.279	0.077
-693.426	-52.594	-0.144	0.067
-692.412	-200.000	-0.177	-0.001
-691.397	-151.732	0.145	-0.011
-690.383	-149.942	-0.364	-0.029
-689.368	-173.165	-0.166	0.005
-688.354	171.944	0.127	0.184
-687.339	800.000	-0.026	-0.082
-686.324	-200.000	0.012	-0.095
-685.310	10.160	-0.232	0.178
-684.295	800.000	-0.004	0.015
-683.281	-200.000	0.036	-0.338
-682.266	55.029	0.138	0.134
-681.251	800.000	-0.069	-0.278
-680.237	31.076	0.061	0.053
-679.222	-74.334	-0.094	-0.034
-678.208	224.003	-0.205	-0.333
-677.193	26.974	0.144	0.122
-676.178	37.467	-0.175	0.157
-675.164	-129.474	0.399	-0.056
-674.149	-38.115	0.076	0.040
-673.135	54.580	-0.110	0.107
-672.120	-133.046	0.176	-0.023
-671.105	-79.609	0.210	0.071
-670.091	800.000	-0.065	0.231
-669.076	-83.424	-0.051	0.016
-668.062	-131.687	0.229	0.030
-667.047	800.000	0.090	-0.259
-666.032	-200.000	0.025	-0.141
-665.018	-123.265	0.312	-0.050
-664.003	-200.000	0.029	-0.293
-662.989	172.045	-0.231	-0.334
-661.974	33.043	-0.163	0.142
-660.959	34.633	0.044	0.038
-659.945	-200.000	-0.070	-0.377
-658.930	-14.587	0.400	0.259
-657.916	263.627	0.110	0.192
-656.901	-200.000	0.031	-0.287
-655.886	47.392	0.127	-0.119
-654.872	217.333	-0.021	0.033
-653.857	52.420	-0.233	-0.224
-652.843	-200.000	0.012	0.176
-651.828	800.000	0.063	-0.228
-650.814	392.860	0.067	0.139
-649.799	62.417	-0.181	0.181
-648.784	-43.501	-0.478	0.243
-647.770	-146.895	-0.071	0.006
-646.755	60.157	-0.277	-0.275
-645.741	469.502	-0.008	0.019
-644.726	-113.301	0.191	0.038
-643.711	103.648	0.188	0.222
-642.697	-200.000	0.011	0.171
-641.682	224.001	-0.146	-0.237
-640.668	15.882	-0.135	-0.107
-639.653	-91.976	-0.476	-0.136
-638.638	-111.302	-0.060	-0.012
-637.624	331.985	0.050	0.097
-636.609	222.522	0.106	0.172
-635.595	-144.034	-0.192	-0.018
-634.580	95.847	0.211	0.242
-633.565	-98.823	0.180	0.046
-632.551	-37.528	-0.290	0.155
-631.536	50.797	0.039	0.037
-630.522	329.547	-0.105	0.203
-629.507	-200.000	0.033	-0.177
-628.492	-118.619	0.311	-0.055
-627.478	422.518	-0.115	0.248
-626.463	-59.517	-0.354	0.153
-625.449	-28.536	-0.265	-0.153
-624.434	91.396	0.096	-0.109
-623.419	-200.000	-0.050	0.239
-622.405	192.888	0.146	-0.222
-621.390	800.000	0.036	-0.121
-620.376	-200.000	-0.025	0.250
-619.361	-105.412	-0.169	0.039
-618.346	-95.152	0.168	-0.046
-617.332	-200.000	-0.016	-0.168
-616.317	123.842	0.108	-0.136
-615.303	146.463	-0.077	-0.104
-614.288	-200.000	0.021	0.098
-613.273	-72.139	-0.188	-0.070
-612.259	-115.964	0.190	-0.036
-611.244	217.736	0.110	0.177
-610.230	-160.807	-0.244	-0.013
-609.215	-200.000	-0.071	-0.549
-608.201	128.745	-0.094	-0.121
-607.186	496.688	-0.131	-0.303
-606.171	-134.788	0.158	0.019
-605.157	-109.888	-0.328	-0.069
-604.142	-137.552	0.337	-0.038
-603.128	64.512	-0.155	0.156
-602.113	800.000	-0.022	0.088
-601.098	-39.440	0.218	-0.115
-600.084	800.000	0.114	-0.348
-599.069	217.311	-0.056	-0.089
-598.055	6.148	-0.268	0.200
-597.040	15.986	0.058	-0.046
-596.025	800.000	0.017	-0.063
-595.011	287.940	-0.073	0.133
-593.996	137.296	0.116	-0.152
-592.982	300.745	0.058	-0.107
-591.967	-111.653	0.204	-0.042
-590.952	410.695	-0.138	-0.293
-589.938	-200.000	-0.052	-0.390
-588.923	-110.602	-0.148	0.031
-587.909	-200.000	0.029	0.181
-586.894	-36.881	-0.079	-0.042
-585.879	-108.527	-0.022	0.005
-584.865	-162.559	-0.276	0.014
-583.850	-70.409	0.227	0.086
-582.836	-60.467	-0.099	0.042
-581.821	163.712	-0.222	0.313
-580.806	-80.019	0.154	0.052
-579.792	393.792	-0.012	0.025
-578.777	-200.000	-0.069	-0.306
-577.763	347.200	-0.149	0.294
-576.748	-200.000	-0.023	-0.165
-575.733	6.821	-0.035	-0.026
-574.719	59.063	0.086	-0.085
-573.704	11.048	0.135	0.103
-572.690	62.721	-0.160	-0.160
-571.675	800.000	0.076	-0.226
-570.661	228.168	0.027	-0.043
-569.646	569.905	-0.095	-0.232
-568.631	-200.000	-0.007	-0.062
-567.617	-200.000	0.009	-0.048
-566.602	161.637	-0.193	0.270
-565.588	-102.152	0.101	0.024
-564.573	8.195	-0.074	0.055
-563.558	-94.762	0.135	0.037
-562.544	56.021	-0.102	0.099
-561.529	-81.153	0.198	0.066
-560.515	433.200	-0.088	-0.191
-559.500	-20.485	0.115	-0.071
-558.485	256.039	-0.042	0.073
-557.471	-13.550	-0.342	-0.222
-556.456	399.884	0.064	-0.135
-555.442	-89.679	0.094	0.028
-554.427	-102.822	-0.239	0.057
-553.412	135.050	-0.128	-0.166
-552.398	-60.594	0.276	-0.117
-551.383	13.149	-0.094	-0.073
-550.369	22.354	0.122	-0.100
-549.354	-18.991	0.139	-0.086
-548.339	-135.337	0.047	0.006
-547.325	107.297	0.118	-0.140
-546.310	129.454	-0.100	0.128
-545.296	175.252	-0.139	-0.202
-544.281	397.222	0.255	0.534
-543.266	188.790	-0.159	0.238
-542.252	-22.057	-0.050	0.030
-541.237	-61.410	0.108	-0.046
-540.223	285.275	0.130	-0.234
-539.208	269.515	-0.097	-0.171
-538.193	-18.555	-0.082	-0.051
-537.179	-147.702	-0.192	-0.016
-536.164	800.000	0.035	-0.142
-535.150	117.334	0.068	-0.083
-534.135	-164.637	0.045	-0.002
-533.121	-200.000	0.017	-0.329
-532.106	-9.646	-0.160	0.107
-531.091	545.895	-0.050	0.118
-530.077	27.046	-0.198	0.166
-529.062	-58.459	-0.182	0.079
-528.048	128.567	-0.097	0.123
-527.033	55.619	-0.213	-0.207
-526.018	-143.659	-0.281	0.027
-525.004	25.590	-0.073	-0.061
-523.989	-33.894	-0.293	-0.161
-522.975	39.333	0.132	0.118
-521.960	800.000	0.060	0.248
-520.945	-46.209	0.050	-0.025
-519.931	-0.912	0.261	0.185
-518.916	-191.250	-0.109	0.001
-517.902	-72.816	0.313	-0.115
-516.887	147.628	0.164	-0.222
-515.872	604.298	-0.068	0.170
-514.858	800.000	0.066	-0.190
-513.843	114.265	0.269	0.328
-512.829	-149.550	-0.346	-0.027
-511.814	-30.792	0.231	-0.130
-510.799	15.803	0.233	0.183
-509.785	-151.077	0.101	0.008
-508.770	154.973	-0.283	0.388
-507.756	800.000	0.054	-0.175
-506.741	-76.113	0.071	-0.025
-505.726	-74.822	-0.276	0.099
-504.712	-162.180	0.292	-0.015
-503.697	-132.243	0.103	0.013
-502.683	35.649	-0.103	0.090
-501.668	42.360	-0.291	0.264
-500.653	372.199	0.143	0.291
-499.639	800.000	0.072	0.313
-498.624	-136.834	0.457	0.053
-497.610	-200.000	-0.013	-0.088
-496.595	220.162	0.112	0.179
-495.581	-99.121	0.314	0.080
-494.566	615.802	0.089	-0.223
-493.551	-138.474	-0.119	0.013
-492.537	-44.702	-0.175	0.087
-491.522	-137.822	-0.346	0.039
-490.508	-3.541	-0.268	0.186
-489.493	-99.047	0.220	0.056
-488.478	-136.325	-0.249	0.029
-487.464	800.000	-0.155	0.512
-486.449	-200.000	0.025	-0.242
-485.435	-175.448	0.148	0.004
-484.420	163.167	0.128	-0.180
-483.405	800.000	-0.013	-0.047
-482.391	-65.438	-0.080	-0.032
-481.376	-106.489	0.170	-0.038
-480.362	138.817	-0.093	-0.121
-479.347	-200.000	-0.002	0.055
-478.332	-84.935	0.673	0.211
-477.318	-200.000	0.003	0.124
-476.303	230.911	-0.122	0.199
-475.289	-200.000	-0.020	-0.222
-474.274	34.121	0.131	0.114
-473.259	215.118	0.108	0.172
-472.245	-52.866	-0.395	0.182
-471.230	-200.000	-0.038	0.222
-470.216	800.000	0.056	-0.197
-469.201	176.611	0.178	-0.258
-468.186	-200.000	-0.336	-0.001
-467.172	-36.012	-0.165	0.089
-466.157	-144.994	-0.089	0.008
-465.143	124.017	0.153	0.192
-464.128	-200.000	0.030	-0.323
-463.113	348.329	0.092	-0.181
-462.099	374.079	-0.108	-0.219
-461.084	490.882	0.130	-0.296
-460.070	131.065	0.186	-0.239
-459.055	-122.261	0.283	0.046
-458.040	159.555	0.282	-0.392
-457.026	18.199	0.165	-0.132
-456.011	-157.002	0.181	-0.011
-454.997	-64.335	-0.173	0.070
-453.982	-26.046	-0.009	-0.005
-452.968	-25.328	-0.136	-0.080
-451.953	68.273	-0.187	-0.192
-450.938	-174.537	0.271	0.008
-449.924	202.373	0.062	0.096
-448.909	-140.473	0.137	-0.014
-447.895	188.750	-0.125	0.187
-446.880	67.374	-0.258	0.262
-445.865	-71.936	0.274	0.102
-444.851	-127.252	0.224	-0.033
-443.836	48.633	-0.121	0.113
-442.822	-97.980	-0.236	0.061
-441.807	-24.739	0.079	0.047
-440.792	-114.242	0.340	0.065
-439.778	-64.632	0.146	0.059
-438.763	-200.000	0.064	-0.291
-437.749	30.555	-0.166	0.142
-436.734	-154.201	-0.121	-0.008
-435.719	336.771	0.061	-0.118
-434.705	-200.000	-0.009	-0.185
-433.690	-3.740	-0.107	-0.074
-432.676	-200.000	0.031	0.175
-431.661	800.000	0.026	-0.104
-430.646	26.120	0.170	0.142
-429.632	66.064	-0.179	0.181
-428.617	-10.727	-0.078	0.052
-427.603	-37.402	-0.203	0.108
-426.588	-200.000	-0.019	-0.239
-425.573	108.160	-0.233	-0.277
-424.559	-26.022	0.250	0.146
-423.544	-121.267	-0.308	-0.051
-422.530	-60.702	0.236	-0.100
-421.515	105.538	0.113	-0.133
-420.500	-96.176	-0.184	0.049
-419.486	370.800	-0.117	-0.236
-418.471	-89.156	0.131	-0.039
-417.457	70.175	0.166	-0.171
-416.442	285.027	0.209	0.375
-415.428	-132.567	-0.151	-0.019
-414.413	-56.003	-0.037	-0.016
-413.398	132.001	-0.095	-0.122
-412.384	107.103	0.224	-0.265
-411.369	800.000	0.027	-0.083
-410.355	-200.000	0.019	0.209
-409.340	447.284	0.026	-0.056
-408.325	-36.889	-0.113	-0.061
-407.311	-200.000	-0.020	-0.109
-406.296	-160.348	-0.118	-0.006
-405.282	-165.520	0.121	0.005
-404.267	-200.000	-0.023	0.107
-403.252	209.816	0.187	-0.292
-402.238	-130.871	0.094	-0.013
-401.223	126.007	-0.280	0.352
-400.209	113.155	0.116	0.140
-399.194	-200.000	-0.044	-0.256
-398.179	-200.000	-0.001	-0.016
-397.165	800.000	-0.092	0.267
-396.150	-102.566	0.211	0.050
-395.136	112.903	0.071	-0.086
-394.121	-137.912	-0.188	-0.021
-393.106	-139.064	0.288	-0.031
-392.092	204.550	0.157	0.243
-391.077	-132.648	-0.197	0.025
-390.063	-116.769	0.456	-0.083
-389.048	-7.815	-0.363	-0.244
-388.033	-35.827	0.206	-0.111
-387.019	-10.156	0.118	0.078
-386.004	582.940	0.029	-0.070
-384.990	430.152	-0.085	0.184
-383.975	-151.075	0.264	0.020
-382.960	-49.790	0.069	0.032
-381.946	505.527	0.077	0.177
-380.931	-100.350	-0.065	0.016
-379.917	40.623	0.207	0.186
-378.902	-97.300	0.221	-0.057
-377.888	-200.000	-0.031	-0.194
-376.873	63.464	-0.167	0.166
-375.858	-21.669	-0.193	0.117
-374.844	102.775	0.090	-0.104
-373.829	-60.602	-0.081	-0.034
-372.815	-30.489	0.091	-0.052
-371.800	99.365	-0.116	0.133
-370.785	-167.313	-0.087	-0.003
-369.771	-61.015	0.266	-0.112
-368.756	203.717	0.088	-0.135
-367.742	250.534	0.239	0.403
-366.727	-25.977	-0.240	0.140
-365.712	-200.000	-0.009	0.049
-364.698	98.204	0.053	-0.061
-363.683	-179.749	0.236	0.005
-362.669	-1.640	-0.127	0.089
-361.654	-200.000	-0.007	-0.371
-360.639	-41.145	0.163	0.084
-359.625	105.505	-0.073	0.086
-358.610	-200.000	-0.008	-0.201
-357.596	-27.698	0.171	0.098
-356.581	800.000	0.100	0.384
-355.566	-200.000	0.001	-0.215
-354.552	800.000	0.058	-0.236
-353.537	-77.577	-0.167	-0.057
-352.523	-71.970	-0.189	0.070
-351.508	797.900	-0.121	0.332
-350.493	-200.000	0.042	-0.262
-349.479	77.027	-0.104	0.110
-348.464	81.588	-0.233	0.251
-347.450	-131.892	-0.121	-0.016
-346.435	-91.343	0.395	-0.112
-345.420	777.165	-0.059	-0.160
-344.406	16.820	0.259	0.203
-343.391	-163.473	-0.320	-0.015
-342.377	77.636	0.108	0.115
-341.362	-1.510	-0.205	-0.143
-340.348	-200.000	-0.005	0.184
-339.333	-107.831	0.315	-0.068
-338.318	79.840	0.242	0.258
-337.304	800.000	-0.066	-0.202
-336.289	800.000	0.133	0.381
-335.275	800.000	0.030	-0.110
-334.260	-129.366	0.117	-0.016
-333.245	-32.004	0.427	0.237
-332.231	-25.137	0.108	-0.064
-331.216	-200.000	-0.007	-0.238
-330.202	-200.000	-0.005	-0.262
-329.187	-4.664	-0.135	-0.093
-328.172	35.149	-0.127	-0.110
-327.158	395.351	0.055	-0.114
-326.143	67.970	0.174	0.176
-325.129	-127.995	0.201	0.029
-324.114	46.282	-0.175	-0.161
-323.099	-83.250	-0.102	-0.032
-322.085	386.483	0.146	-0.299
-321.070	63.780	0.243	0.242
-320.056	468.479	-0.065	0.145
-319.041	-84.641	-0.172	0.054
-318.026	115.088	0.065	-0.079
-317.012	-70.803	-0.032	0.012
-315.997	-31.150	-0.347	0.194
-314.983	41.902	-0.039	-0.035
-313.968	800.000	-0.052	-0.160
-312.953	-137.613	0.424	-0.047
-311.939	-67.565	-0.511	0.199
-310.924	166.853	-0.113	-0.159
-309.910	-59.432	0.102	-0.044
-308.895	-50.207	0.066	0.031
-307.880	800.000	-0.117	0.393
-306.866	-200.000	-0.010	-0.130
-305.851	-200.000	-0.037	0.234
-304.837	-200.000	-0.045	0.267
-303.822	193.933	0.111	-0.167
-302.807	-200.000	-0.059	-0.366
-301.793	-30.070	-0.105	0.059
-300.778	800.000	-0.073	0.256
-299.764	-16.632	-0.246	-0.155
-298.749	800.000	-0.053	-0.230
-297.735	426.810	0.118	0.252
-296.720	303.750	-0.017	-0.031
-295.705	-11.282	0.292	0.191
-294.691	-138.587	-0.289	0.031
-293.676	800.000	-0.060	0.251
-292.662	-79.438	0.143	-0.048
-291.647	800.000	-0.100	-0.329
-290.632	800.000	0.050	0.173
-289.618	50.383	-0.116	-0.109
-288.603	-144.184	-0.450	0.042
-287.589	-45.081	-0.104	0.051
-286.574	-104.661	0.190	-0.043
-285.559	-67.788	-0.276	-0.107
-284.545	290.398	-0.006	-0.012
-283.530	169.855	-0.119	-0.168
-282.516	-200.000	0.012	-0.256
-281.501	-200.000	-0.010	-0.222
-280.486	115.977	0.071	-0.086
-279.472	-132.189	-0.176	-0.023
-278.457	52.328	-0.149	0.141
-277.443	-200.000	-0.049	-0.229
-276.428	-96.015	0.213	-0.056
-275.413	25.100	0.266	-0.219
-274.399	-200.000	0.006	-0.035
-273.384	-168.167	-0.106	0.004
-272.370	51.620	-0.214	0.202
-271.355	-200.000	0.053	0.261
-270.340	76.853	0.107	-0.112
-269.326	-200.000	0.005	0.105
-268.311	-37.811	0.035	0.018
-267.297	800.000	-0.034	-0.107
-266.282	-56.695	-0.350	-0.153
-265.267	169.084	-0.064	-0.091
-264.253	-134.514	-0.205	0.025
-263.238	-75.879	0.208	0.073
-262.224	-89.988	0.059	-0.017
-261.209	-12.058	-0.098	0.064
-260.195	81.639	0.112	-0.120
-259.180	-44.441	0.253	0.125
-258.165	8.773	-0.019	0.014
-257.151	-200.000	-0.004	-0.126
-256.136	82.048	0.039	-0.041
-255.122	151.962	0.108	-0.146
-254.107	-145.347	-0.320	-0.029
-253.092	-98.217	-0.237	0.060
-252.078	-125.702	-0.371	-0.056
-251.063	-4.412	0.084	0.057
-250.049	142.222	-0.099	0.131
-249.034	116.891	0.168	-0.204
-248.019	800.000	-0.120	-0.440
-247.005	3.714	0.067	0.048
-245.990	1.165	0.155	-0.110
-244.976	-57.407	-0.045	-0.020
-243.961	-200.000	0.070	0.393
-242.946	-200.000	0.151	0.000
-241.932	510.143	-0.101	-0.233
-240.917	795.303	0.092	-0.251
-239.903	0.129	0.241	-0.170
-238.888	800.000	-0.093	-0.326
-237.873	214.794	0.072	-0.113
-236.859	95.052	0.315	0.355
-235.844	23.458	0.026	0.021
-234.830	-23.598	0.226	0.134
-233.815	83.860	0.116	0.126
-232.800	-104.937	-0.395	0.090
-231.786	-200.000	0.030	0.160
-230.771	-200.000	0.033	0.149
-229.757	-52.368	-0.183	0.084
-228.742	-78.498	0.283	-0.096
-227.727	-94.792	0.049	0.013
-226.713	68.905	0.050	-0.050
-225.698	28.977	0.102	0.086
-224.684	-166.296	0.169	-0.007
-223.669	195.798	0.157	0.236
-222.655	-45.881	-0.129	-0.063
-221.640	-91.098	0.324	-0.092
-220.625	-67.846	0.261	-0.101
-219.611	-200.000	0.029	0.346
-218.596	800.000	-0.098	0.281
-217.582	-200.000	-0.020	-0.332
-216.567	322.186	0.083	0.156
-215.552	324.220	-0.062	0.117
-214.538	-23.206	-0.062	-0.037
-213.523	-59.925	-0.264	-0.112
-212.509	-40.012	0.196	-0.101
-211.494	-146.788	0.289	0.025
-210.479	-36.424	-0.104	-0.055
-209.465	-171.158	-0.381	-0.013
-208.450	-5.381	0.243	0.165
-207.436	-200.000	-0.027	-0.147
-206.421	-138.906	0.219	-0.024
-205.406	-30.529	0.142	-0.079
-204.392	239.922	0.063	0.104
-203.377	-200.000	-0.040	-0.205
-202.363	800.000	-0.073	0.201
-201.348	-95.869	-0.329	0.087
-200.333	-200.000	-0.086	0.470
-199.319	-39.052	0.041	-0.021
-198.304	-2.565	0.157	0.108
-197.290	62.889	0.137	0.135
-196.275	-86.286	-0.307	-0.093
-195.260	-9.818	0.205	-0.135
-194.246	-11.041	0.033	-0.022
-193.231	-200.000	0.014	0.140
-192.217	800.000	0.073	0.234
-191.202	800.000	0.090	0.306
-190.187	29.034	0.187	0.157
-189.173	-200.000	-0.025	-0.169
-188.158	-180.827	-0.181	-0.004
-187.144	-154.598	-0.175	-0.012
-186.129	-200.000	-0.000	0.239
-185.114	800.000	-0.036	0.138
-184.100	-104.421	-0.222	0.051
-183.085	3.778	0.198	0.143
-182.071	343.316	-0.034	-0.065
-181.056	-12.250	-0.139	0.089
-180.042	36.911	0.104	-0.090
-179.027	-75.729	-0.217	0.076
-178.012	-197.652	0.258	0.002
-176.998	-1.700	0.047	-0.032
-175.983	-81.069	0.100	0.033
-174.969	-190.287	-0.016	0.000
-173.954	48.731	-0.144	0.133
-172.939	131.916	0.131	-0.167
-171.925	180.810	-0.033	-0.047
-170.910	-110.030	0.400	-0.083
-169.896	420.458	0.105	0.223
-168.881	-31.419	0.171	-0.095
-167.866	-174.139	0.075	0.002
-166.852	571.173	0.060	-0.144
-165.837	-129.537	0.043	-0.006
-164.823	-89.696	0.175	0.050
-163.808	128.114	-0.148	-0.186
-162.793	-166.362	-0.226	0.009
-161.779	-200.000	-0.240	0.000
-160.764	-199.492	-0.237	0.001
-159.750	189.525	-0.109	0.161
-158.735	46.000	0.387	0.353
-157.720	-200.000	-0.004	-0.142
-156.706	800.000	-0.058	-0.173
-155.691	279.660	0.102	-0.180
-154.677	-140.931	-0.438	0.044
-153.662	6.380	-0.275	-0.201
-152.647	5.108	-0.273	-0.198
-151.633	177.573	0.166	0.239
-150.618	800.000	-0.066	-0.235
-149.604	-200.000	0.046	-0.284
-148.589	-57.918	0.059	0.026
-147.574	-118.762	0.323	0.056
-146.560	-200.000	-0.022	-0.140
-145.545	600.577	-0.074	-0.180
-144.531	56.261	-0.089	-0.085
-143.516	379.805	0.067	-0.135
-142.502	207.526	0.008	0.012
-141.487	16.742	-0.160	-0.125
-140.472	-200.000	-0.025	-0.300
-139.458	40.344	0.130	-0.115
-138.443	-200.000	0.007	0.191
-137.429	-87.880	0.094	-0.028
-136.414	-200.000	-0.018	-0.203
-135.399	-200.000	0.015	0.087
-134.385	800.000	-0.026	-0.106
-133.370	35.716	-0.041	0.036
-132.356	136.475	0.051	-0.066
-131.341	-200.000	0.014	0.199
-130.326	36.432	-0.046	0.040
-129.312	229.089	-0.147	-0.237
-128.297	800.000	-0.054	-0.195
-127.283	199.269	0.123	-0.185
-126.268	150.241	0.060	-0.080
-125.253	-124.987	0.252	0.038
-124.239	409.896	-0.223	0.465
-123.224	-161.889	-0.180	0.009
-122.210	-200.000	-0.037	-0.305
