DTS Sentinel unit serial number:	SN413079Multiplexer serial number:	ORYXHardware model number:	OX4-SRSoftware version number:	ORYX F/W v4.00 Oryx Data Collector v3.7.2.0data status	okinstallation	princeton_trtdifferential loss correction	single-endedforward channel	channel 2reverse channel	N/Adate	2019/09/10time	18:41:11forward acquisition time	60.00reverse acquisition time	0.00gamma	496.2192k internal	0.2322k external	0.2322temperature offset calibration	0.9939default loss term (dB/km)	0.3790temperature slope calibration	1.0000multiplexer offset coefficient	1.0000multiplexer slope coefficient	1.0000fibre end	0.00T internal ref (°C)	35.39T ext. ref 1 (°C)	-0.41T ext. ref 2 (°C)	27.36length (m)	temperature (°C)	Stokes	anti-Stokes-747.200	800.000	-0.057	0.206
-746.185	395.306	-0.122	0.258
-745.171	-127.236	0.305	-0.045
-744.156	-61.472	-0.016	0.007
-743.142	377.600	0.062	-0.128
-742.127	-87.072	-0.172	0.053
-741.112	-104.023	-0.230	-0.054
-740.098	-200.000	0.073	0.374
-739.083	-122.984	0.276	0.045
-738.069	55.400	0.213	0.208
-737.054	800.000	-0.117	0.373
-736.039	277.502	0.060	0.108
-735.025	-140.578	0.112	0.012
-734.010	-180.991	0.218	-0.004
-732.996	-24.943	-0.449	-0.269
-731.981	800.000	0.083	-0.292
-730.966	-122.071	-0.097	0.016
-729.952	-0.614	-0.242	-0.173
-728.937	756.663	0.078	-0.213
-727.923	-129.408	0.334	-0.047
-726.908	-200.000	0.003	-0.177
-725.894	-200.000	-0.050	0.250
-724.879	-200.000	0.048	-0.428
-723.864	-35.017	0.146	-0.080
-722.850	-200.000	-0.046	-0.214
-721.835	49.421	-0.202	0.191
-720.821	-170.563	0.255	0.009
-719.806	160.741	0.086	-0.121
-718.791	-28.720	0.265	-0.154
-717.777	-200.000	-0.003	0.207
-716.762	-97.529	-0.296	-0.078
-715.748	-200.000	0.030	-0.218
-714.733	489.724	-0.083	0.192
-713.718	201.058	-0.081	-0.126
-712.704	-62.173	-0.158	-0.067
-711.689	611.853	-0.129	-0.324
-710.675	-200.000	-0.002	0.180
-709.660	66.922	0.143	0.147
-708.645	206.672	0.232	-0.364
-707.631	276.174	0.096	-0.173
-706.616	-116.012	0.139	0.026
-705.602	196.041	-0.154	-0.236
-704.587	-200.000	0.032	-0.218
-703.572	-122.405	-0.261	-0.043
-702.558	-42.708	0.422	-0.216
-701.543	-194.363	0.314	0.003
-700.529	-15.615	-0.283	0.182
-699.514	-196.946	-0.388	0.003
-698.499	-200.000	-0.001	-0.205
-697.485	-135.744	0.237	-0.028
-696.470	-18.092	0.100	-0.063
-695.456	117.088	0.069	-0.086
-694.441	347.880	-0.074	-0.147
-693.426	-200.000	0.021	0.106
-692.412	18.431	0.204	0.164
-691.397	-128.794	-0.387	-0.055
-690.383	38.149	-0.529	0.475
-689.368	-148.863	0.167	-0.014
-688.354	749.781	0.156	-0.423
-687.339	-124.022	-0.231	-0.037
-686.324	-200.000	0.002	-0.163
-685.310	-184.349	-0.367	-0.006
-684.295	800.000	0.013	-0.039
-683.281	-200.000	-0.025	-0.148
-682.266	800.000	-0.047	-0.177
-681.251	118.794	0.237	-0.294
-680.237	-146.875	-0.272	-0.024
-679.222	-200.000	-0.009	0.143
-678.208	60.078	0.264	0.263
-677.193	12.682	-0.214	0.167
-676.178	227.229	-0.256	0.419
-675.164	-200.000	0.034	0.160
-674.149	-120.225	0.122	-0.021
-673.135	146.020	0.039	-0.052
-672.120	437.333	0.013	-0.028
-671.105	159.555	0.117	0.163
-670.091	-62.779	-0.310	-0.129
-669.076	264.804	-0.022	-0.038
-668.062	-103.547	0.170	-0.040
-667.047	-51.707	-0.260	0.122
-666.032	-67.812	0.288	-0.114
-665.018	352.195	0.050	-0.100
-664.003	-81.471	0.206	-0.068
-662.989	-139.198	-0.356	0.039
-661.974	297.522	-0.094	0.173
-660.959	800.000	-0.067	-0.224
-659.945	-101.313	-0.236	0.058
-658.930	72.018	0.063	-0.066
-657.916	-200.000	0.040	-0.256
-656.901	-1.057	-0.175	0.125
-655.886	114.301	-0.191	0.234
-654.872	339.834	-0.120	0.235
-653.857	-200.000	0.027	0.216
-652.843	3.666	0.253	0.186
-651.828	-165.710	-0.171	0.007
-650.814	157.980	-0.107	-0.150
-649.799	800.000	-0.045	-0.178
-648.784	-200.000	0.002	0.157
-647.770	64.903	-0.336	0.342
-646.755	-200.000	0.041	-0.283
-645.741	-18.233	0.250	-0.157
-644.726	-200.000	0.070	0.445
-643.711	-106.678	0.177	0.040
-642.697	800.000	-0.153	0.437
-641.682	-101.726	0.103	-0.025
-640.668	341.658	-0.142	0.279
-639.653	-87.893	-0.233	-0.071
-638.638	800.000	-0.064	-0.233
-637.624	800.000	-0.031	0.124
-636.609	166.897	-0.182	-0.260
-635.595	-64.603	-0.362	-0.148
-634.580	124.183	0.133	-0.169
-633.565	800.000	-0.049	0.161
-632.551	800.000	-0.113	0.434
-631.536	-7.482	-0.036	0.025
-630.522	-102.981	-0.114	-0.027
-629.507	114.436	0.290	-0.355
-628.492	371.018	0.037	0.076
-627.478	213.836	-0.031	-0.049
-626.463	-200.000	0.042	0.212
-625.449	306.952	-0.069	0.130
-624.434	396.618	0.105	-0.219
-623.419	800.000	0.090	0.254
-622.405	-35.797	0.014	0.008
-621.390	211.394	-0.117	-0.186
-620.376	-200.000	-0.008	0.251
-619.361	-200.000	-0.034	0.347
-618.346	519.960	-0.184	0.433
-617.332	-9.536	0.138	0.092
-616.317	-1.544	-0.065	-0.046
-615.303	-3.455	0.206	-0.144
-614.288	-28.217	0.230	0.134
-613.273	-118.434	-0.305	0.054
-612.259	-58.374	0.139	-0.061
-611.244	130.499	0.151	-0.194
-610.230	-45.379	-0.231	-0.115
-609.215	-14.792	-0.271	-0.175
-608.201	-48.578	0.068	0.033
-607.186	-17.850	0.324	0.204
-606.171	-200.000	-0.091	0.454
-605.157	-89.743	0.095	-0.028
-604.142	111.898	-0.144	-0.174
-603.128	-66.203	-0.236	-0.094
-602.113	-96.494	-0.131	-0.035
-601.098	-79.621	0.374	-0.127
-600.084	-89.075	0.212	-0.063
-599.069	-112.646	0.384	0.077
-598.055	800.000	-0.064	0.218
-597.040	-128.025	0.203	0.029
-596.025	-200.000	-0.037	-0.170
-595.011	-200.000	-0.063	-0.334
-593.996	100.803	-0.013	0.015
-592.982	67.165	0.104	0.107
-591.967	-200.000	-0.005	0.128
-590.952	43.920	-0.215	-0.198
-589.938	-200.000	0.053	-0.267
-588.923	722.801	0.041	-0.109
-587.909	-41.586	-0.078	0.040
-586.894	-11.659	0.183	0.121
-585.879	-200.000	0.016	-0.251
-584.865	-46.528	-0.301	0.148
-583.850	-178.520	0.216	-0.005
-582.836	255.110	0.249	-0.429
-581.821	27.504	-0.267	0.226
-580.806	-200.000	0.013	-0.082
-579.792	-45.472	-0.117	0.058
-578.777	-195.487	0.017	-0.000
-577.763	-145.460	-0.151	-0.014
-576.748	-150.884	0.159	0.012
-575.733	-34.130	-0.274	-0.151
-574.719	-56.018	0.112	0.050
-573.704	-200.000	0.003	0.152
-572.690	-200.000	-0.001	-0.209
-571.675	-136.660	-0.373	0.043
-570.661	-200.000	0.008	0.079
-569.646	476.503	0.061	-0.139
-568.631	343.966	0.048	0.095
-567.617	-9.852	0.294	0.197
-566.602	-200.000	0.016	-0.350
-565.588	-103.872	0.114	0.027
-564.573	264.360	-0.049	-0.085
-563.558	-54.226	0.119	0.054
-562.544	121.140	-0.206	-0.258
-561.529	-3.085	0.251	0.176
-560.515	-117.486	-0.218	0.040
-559.500	800.000	0.085	-0.257
-558.485	518.604	-0.090	0.212
-557.471	456.870	-0.067	-0.150
-556.456	119.179	-0.146	0.181
-555.442	-68.479	0.132	-0.052
-554.427	375.551	0.111	0.227
-553.412	-183.610	0.114	0.002
-552.398	-81.025	-0.299	-0.099
-551.383	343.911	0.157	0.309
-550.369	495.591	0.131	-0.302
-549.354	-15.693	0.190	0.121
-548.339	-200.000	-0.024	-0.202
-547.325	-200.000	0.019	0.206
-546.310	91.120	0.109	-0.122
-545.296	-41.023	0.174	-0.090
-544.281	7.129	0.182	-0.136
-543.266	-125.022	0.131	0.020
-542.252	800.000	-0.021	0.062
-541.237	-10.178	-0.093	-0.062
-540.223	18.624	-0.146	0.117
-539.208	-9.395	-0.314	-0.210
-538.193	65.113	0.278	0.282
-537.179	-150.868	0.385	-0.029
-536.164	220.447	0.118	0.190
-535.150	-59.637	-0.221	0.095
-534.135	178.404	0.051	-0.075
-533.121	6.545	0.201	-0.149
-532.106	-44.806	0.013	0.006
-531.091	-29.968	0.078	0.044
-530.077	-53.596	0.140	0.064
-529.062	97.113	-0.107	-0.123
-528.048	-106.440	-0.090	0.020
-527.033	155.506	-0.121	-0.167
-526.018	-65.555	0.161	0.065
-525.004	-97.431	-0.502	-0.131
-523.989	59.011	-0.155	0.153
-522.975	-200.000	0.002	0.103
-521.960	-200.000	0.037	0.388
-520.945	35.367	0.143	-0.125
-519.931	104.373	0.140	-0.165
-518.916	-45.372	0.075	0.037
-517.902	-9.701	-0.131	0.087
-516.887	-55.655	-0.154	-0.069
-515.872	27.612	-0.148	-0.125
-514.858	-200.000	-0.017	0.191
-513.843	-200.000	0.008	-0.056
-512.829	138.185	0.225	0.296
-511.814	68.311	0.074	0.076
-510.799	-200.000	0.144	-0.000
-509.785	-158.522	-0.059	0.003
-508.770	-200.000	0.020	0.296
-507.756	473.875	0.133	-0.301
-506.741	-200.000	0.035	-0.311
-505.726	-194.832	0.041	0.000
-504.712	-79.916	0.280	-0.094
-503.697	-200.000	0.002	0.096
-502.683	-93.184	0.046	0.013
-501.668	-107.465	0.102	0.022
-500.653	-40.921	0.161	-0.083
-499.639	-200.000	0.057	0.267
-498.624	800.000	-0.074	-0.281
-497.610	-105.563	0.511	0.116
-496.595	800.000	-0.081	-0.242
-495.581	-158.303	-0.193	-0.011
-494.566	-98.350	-0.366	0.094
-493.551	589.326	-0.060	0.149
-492.537	-200.000	-0.005	0.062
-491.522	800.000	-0.042	-0.154
-490.508	367.064	-0.258	-0.520
-489.493	-200.000	0.018	0.186
-488.478	307.825	0.111	-0.207
-487.464	-141.260	-0.163	-0.017
-486.449	-121.809	0.104	-0.017
-485.435	-89.369	0.211	0.062
-484.420	532.507	-0.097	0.230
-483.405	800.000	0.020	0.077
-482.391	-79.461	-0.064	0.022
-481.376	-200.000	0.004	-0.221
-480.362	521.666	-0.163	-0.382
-479.347	-200.000	0.008	-0.051
-478.332	-116.667	0.268	0.049
-477.318	139.085	0.318	-0.419
-476.303	-117.086	0.338	0.062
-475.289	-200.000	0.021	0.116
-474.274	416.501	0.100	0.214
-473.259	-118.818	-0.206	0.036
-472.245	-51.298	0.305	0.143
-471.230	-1.125	0.142	-0.100
-470.216	12.441	-0.230	0.177
-469.201	-200.000	-0.003	0.278
-468.186	100.333	-0.321	0.373
-467.172	83.119	0.116	-0.126
-466.157	-79.159	-0.254	0.086
-465.143	-75.060	0.019	-0.007
-464.128	153.168	0.138	-0.188
-463.113	39.598	-0.186	-0.167
-462.099	-200.000	0.111	0.532
-461.084	-200.000	0.002	0.269
-460.070	419.700	-0.161	0.344
-459.055	-200.000	0.010	0.195
-458.040	-52.261	0.151	0.070
-457.026	-54.892	0.275	0.124
-456.011	800.000	0.063	0.242
-454.997	-80.633	0.165	-0.055
-453.982	547.959	0.070	0.167
-452.968	-200.000	-0.025	0.112
-451.953	-75.978	-0.174	-0.061
-450.938	-15.553	-0.203	0.130
-449.924	-48.744	-0.028	-0.013
-448.909	-200.000	-0.081	0.414
-447.895	-200.000	-0.007	0.226
-446.880	-190.445	-0.194	0.002
-445.865	-31.608	0.279	-0.156
-444.851	800.000	0.039	0.156
-443.836	23.867	-0.124	0.102
-442.822	800.000	0.103	0.404
-441.807	-96.561	-0.087	0.023
-440.792	-40.412	0.095	0.049
-439.778	112.624	-0.059	-0.071
-438.763	-200.000	0.031	-0.199
-437.749	16.530	-0.206	-0.163
-436.734	-200.000	0.004	-0.205
-435.719	628.877	0.053	-0.134
-434.705	800.000	0.110	0.449
-433.690	-118.773	0.165	0.029
-432.676	134.149	0.089	-0.115
-431.661	-200.000	-0.000	0.045
-430.646	-80.996	-0.250	0.083
-429.632	-19.681	-0.389	-0.240
-428.617	364.689	0.090	-0.181
-427.603	140.521	0.150	-0.197
-426.588	231.999	0.138	0.225
-425.573	143.768	0.124	0.164
-424.559	-200.000	-0.003	-0.137
-423.544	10.761	-0.332	-0.253
-422.530	-133.420	-0.215	0.027
-421.515	-200.000	0.001	-0.114
-420.500	170.492	0.261	0.372
-419.486	-14.893	0.207	-0.132
-418.471	-55.901	0.130	-0.058
-417.457	30.705	-0.222	-0.189
-416.442	147.324	0.159	0.213
-415.428	-10.933	-0.100	-0.066
-414.413	-7.653	-0.193	0.130
-413.398	-200.000	-0.047	-0.221
-412.384	800.000	-0.033	0.095
-411.369	-127.240	0.236	0.034
-410.355	520.653	-0.070	0.163
-409.340	-200.000	-0.034	0.265
-408.325	315.526	-0.095	-0.179
-407.311	-163.912	0.282	0.013
-406.296	420.460	0.044	-0.093
-405.282	177.751	-0.160	0.233
-404.267	235.726	-0.197	0.325
-403.252	444.186	0.090	0.196
-402.238	-91.508	-0.141	0.040
-401.223	94.294	0.076	0.086
-400.209	800.000	0.081	-0.265
-399.194	800.000	0.071	-0.226
-398.179	-6.843	0.448	0.303
-397.165	-45.748	-0.509	-0.251
-396.150	-151.406	-0.499	-0.037
-395.136	-20.479	0.126	0.077
-394.121	-77.850	-0.184	0.063
-393.106	102.228	-0.143	-0.167
-392.092	42.972	-0.252	-0.229
-391.077	23.920	-0.275	-0.226
-390.063	800.000	-0.063	-0.203
-389.048	394.228	0.214	-0.443
-388.033	-118.016	0.264	0.047
-387.019	181.840	0.072	-0.106
-386.004	113.653	0.146	-0.177
-384.990	29.610	-0.242	-0.205
-383.975	131.879	0.066	-0.084
-382.960	35.272	0.150	0.131
-381.946	-47.543	0.091	-0.044
-380.931	-200.000	-0.019	0.495
-379.917	-68.320	-0.369	-0.143
-378.902	670.626	-0.081	0.209
-377.888	47.258	-0.092	-0.085
-376.873	-158.596	0.277	-0.016
-375.858	800.000	0.106	-0.321
-374.844	-66.644	-0.155	0.061
-373.829	-27.928	-0.210	-0.121
-372.815	12.934	0.133	-0.102
-371.800	-58.592	-0.207	-0.089
-370.785	140.409	-0.234	-0.308
-369.771	637.693	0.032	-0.080
-368.756	80.851	0.200	0.215
-367.742	-200.000	0.002	-0.318
-366.727	-103.149	0.369	-0.087
-365.712	5.149	0.382	-0.280
-364.698	7.476	-0.177	-0.132
-363.683	-39.957	-0.257	-0.134
-362.669	800.000	-0.056	0.183
-361.654	-200.000	-0.010	-0.046
-360.639	-124.629	-0.164	0.025
-359.625	134.637	0.113	-0.146
-358.610	-97.232	-0.329	-0.085
-357.596	161.088	0.044	0.061
-356.581	769.009	-0.071	0.192
-355.566	-35.331	-0.285	-0.154
-354.552	-36.344	-0.189	-0.101
-353.537	-167.387	0.079	0.003
-352.523	596.565	-0.092	0.226
-351.508	445.917	0.154	0.337
-350.493	-66.750	0.179	0.071
-349.479	26.599	0.283	-0.236
-348.464	259.079	-0.051	-0.088
-347.450	114.931	0.137	-0.166
-346.435	-200.000	-0.021	-0.117
-345.420	69.209	-0.172	0.176
-344.406	39.216	0.084	0.075
-343.391	-200.000	-0.036	-0.276
-342.377	-132.422	-0.215	0.028
-341.362	-68.103	-0.272	-0.106
-340.348	28.248	0.194	-0.163
-339.333	800.000	-0.099	-0.282
-338.318	65.821	0.029	0.029
-337.304	185.652	-0.200	-0.295
-336.289	-55.828	-0.204	-0.091
-335.275	186.701	-0.195	0.289
-334.260	362.027	0.145	-0.290
-333.245	285.009	-0.163	0.292
-332.231	214.236	0.352	-0.553
-331.216	-111.708	-0.147	0.030
-330.202	64.669	0.089	0.089
-329.187	800.000	-0.012	-0.037
-328.172	-200.000	0.014	0.190
-327.158	-108.896	0.168	-0.036
-326.143	557.193	0.060	0.145
-325.129	200.746	0.028	-0.042
-324.114	800.000	0.075	0.284
-323.099	-1.501	-0.222	-0.156
-322.085	-11.761	-0.073	0.048
-321.070	-38.761	0.197	0.103
-320.056	-112.703	0.327	0.065
-319.041	-195.394	0.198	-0.001
-318.026	800.000	0.072	-0.225
-317.012	-11.568	-0.276	0.180
-315.997	-154.021	0.293	0.020
-314.983	173.053	-0.149	0.214
-313.968	-200.000	0.010	-0.112
-312.953	1.995	-0.211	-0.151
-311.939	87.860	0.189	-0.208
-310.924	-200.000	0.013	-0.083
-309.910	-200.000	0.031	-0.189
-308.895	-200.000	0.043	-0.252
-307.880	-76.483	-0.108	-0.038
-306.866	800.000	-0.040	0.123
-305.851	397.062	0.069	0.143
-304.837	93.757	-0.193	0.217
-303.822	10.846	0.261	-0.198
-302.807	-151.201	-0.155	-0.012
-301.793	10.405	0.171	0.129
-300.778	216.934	0.077	0.121
-299.764	53.461	-0.261	0.249
-298.749	20.649	0.459	0.369
-297.735	339.659	-0.034	0.065
-296.720	800.000	-0.064	-0.254
-295.705	800.000	0.092	0.272
-294.691	-167.910	-0.222	0.009
-293.676	108.308	0.086	-0.102
-292.662	-60.181	-0.321	-0.136
-291.647	-111.743	-0.249	0.050
-290.632	800.000	0.069	0.230
-289.618	-48.975	0.075	-0.036
-288.603	101.536	0.114	-0.132
-287.589	234.208	-0.205	-0.335
-286.574	800.000	0.043	0.137
-285.559	132.105	0.201	-0.257
-284.545	-57.997	-0.125	-0.054
-283.530	227.541	0.021	0.034
-282.516	-98.651	-0.267	0.067
-281.501	437.676	-0.150	0.324
-280.486	800.000	-0.044	0.131
-279.472	-137.367	0.023	0.003
-278.457	-43.606	0.055	-0.027
-277.443	279.931	-0.174	-0.308
-276.428	-12.876	-0.156	-0.101
-275.413	507.766	0.035	0.080
-274.399	-97.026	-0.195	0.051
-273.384	273.520	0.201	-0.352
-272.370	324.222	0.076	0.144
-271.355	78.079	0.155	0.164
-270.340	-194.632	-0.022	0.000
-269.326	-41.297	-0.149	-0.076
-268.311	152.211	0.145	-0.196
-267.297	800.000	-0.089	-0.273
-266.282	-75.246	-0.282	-0.100
-265.267	-153.909	0.094	-0.006
-264.253	141.969	-0.200	-0.263
-263.238	-32.040	0.075	-0.041
-262.224	-92.976	-0.218	0.060
-261.209	800.000	-0.048	-0.150
-260.195	-67.560	0.352	0.137
-259.180	190.192	-0.140	0.208
-258.165	-38.044	0.202	-0.106
-257.151	367.947	0.099	0.199
-256.136	-125.123	-0.221	0.034
-255.122	6.376	-0.162	-0.119
-254.107	357.293	-0.148	-0.293
-253.092	-200.000	-0.026	0.176
-252.078	-200.000	0.033	0.249
-251.063	50.156	-0.149	-0.139
-250.049	126.877	0.167	-0.210
-249.034	-50.574	0.177	0.083
-248.019	-84.728	0.020	-0.006
-247.005	70.646	-0.209	-0.215
-245.990	422.733	-0.068	-0.145
-244.976	-145.582	0.137	0.012
-243.961	800.000	0.106	0.322
-242.946	246.393	-0.122	-0.204
-241.932	98.609	-0.232	-0.265
-240.917	800.000	0.054	0.154
-239.903	-65.017	0.079	0.032
-238.888	-2.652	-0.211	-0.146
-237.873	54.007	0.207	-0.197
-236.859	-94.565	-0.105	0.028
-235.844	253.261	0.140	-0.236
-234.830	82.685	0.219	-0.236
-233.815	99.239	-0.125	-0.144
-232.800	-77.746	0.114	0.039
-231.786	-112.006	0.333	-0.067
-230.771	27.885	-0.241	0.201
-229.757	241.449	0.151	-0.249
-228.742	86.171	-0.037	0.041
-227.727	-200.000	-0.027	0.233
-226.713	-200.000	0.064	0.286
-225.698	13.282	0.042	0.032
-224.684	143.726	-0.126	0.166
-223.669	-169.997	-0.083	-0.003
-222.655	-130.652	0.379	0.051
-221.640	-43.218	-0.180	0.090
-220.625	28.976	0.155	0.130
-219.611	800.000	-0.140	-0.438
-218.596	-82.891	0.229	0.073
-217.582	-79.695	-0.212	0.071
-216.567	-65.172	-0.073	-0.029
-215.552	-174.808	0.153	-0.004
-214.538	-21.878	-0.069	-0.041
-213.523	57.420	-0.079	-0.076
-212.509	54.110	0.261	-0.248
-211.494	800.000	-0.073	0.311
-210.479	58.950	0.233	0.227
-209.465	-125.878	0.177	0.026
-208.450	157.685	-0.102	0.140
-207.436	225.324	0.019	-0.030
-206.421	-200.000	-0.055	0.314
-205.406	-21.663	0.217	0.131
-204.392	268.277	0.170	0.295
-203.377	24.300	0.085	0.069
-202.363	-188.316	-0.295	-0.004
-201.348	-115.837	-0.440	0.081
-200.333	157.548	0.127	0.174
-199.319	-200.000	0.021	0.228
-198.304	-128.130	0.216	-0.031
-197.290	-200.000	-0.031	0.231
-196.275	-136.497	0.154	-0.018
-195.260	115.619	0.231	-0.280
-194.246	165.674	-0.119	-0.167
-193.231	387.752	0.078	0.159
-192.217	-32.298	-0.159	-0.088
-191.202	662.635	-0.040	-0.102
-190.187	304.689	-0.049	0.090
-189.173	735.254	0.044	-0.117
-188.158	116.282	-0.213	-0.258
-187.144	-200.000	-0.018	-0.131
-186.129	-86.128	-0.185	-0.056
-185.114	79.974	0.310	-0.330
-184.100	79.777	0.109	-0.116
-183.085	-200.000	-0.019	0.298
-182.071	-88.412	-0.348	-0.103
-181.056	14.001	0.234	0.180
-180.042	-16.089	0.126	0.079
-179.027	-112.604	0.266	-0.052
-178.012	-30.075	-0.261	-0.147
-176.998	800.000	-0.103	0.284
-175.983	216.349	-0.099	-0.155
-174.969	-69.373	-0.141	-0.054
-173.954	36.834	0.133	0.116
-172.939	-200.000	0.032	0.175
-171.925	562.591	-0.041	-0.099
-170.910	-134.150	-0.127	0.015
-169.896	-200.000	0.035	-0.167
-168.881	800.000	-0.046	0.127
-167.866	346.550	0.061	-0.119
-166.852	-51.106	-0.395	0.183
-165.837	89.418	0.134	0.148
-164.823	-83.234	-0.115	0.036
-163.808	-200.000	0.014	-0.098
-162.793	-29.755	0.456	-0.257
-161.779	71.164	0.196	0.200
-160.764	202.223	0.067	0.102
-159.750	800.000	-0.037	0.135
-158.735	159.186	0.154	0.211
-157.720	800.000	0.010	-0.033
-156.706	321.038	-0.182	0.342
-155.691	800.000	-0.116	-0.341
-154.677	800.000	-0.027	-0.088
-153.662	-135.321	-0.298	-0.035
-152.647	-45.538	0.194	0.095
-151.633	144.679	0.096	-0.127
-150.618	800.000	-0.031	-0.095
-149.604	290.603	-0.098	0.176
-148.589	800.000	-0.047	0.145
-147.574	165.701	-0.062	-0.086
-146.560	800.000	-0.076	0.313
-145.545	-200.000	0.002	0.364
-144.531	41.398	-0.208	0.186
-143.516	-200.000	-0.038	-0.329
-142.502	-200.000	-0.010	-0.078
-141.487	238.925	0.138	0.226
-140.472	64.569	0.062	0.062
-139.458	-12.199	-0.226	0.146
-138.443	-28.886	-0.147	0.083
-137.429	600.653	-0.142	-0.349
-136.414	-31.714	-0.251	0.139
-135.399	-83.818	-0.170	0.053
-134.385	800.000	-0.062	-0.199
-133.370	-200.000	-0.010	-0.330
-132.356	-101.868	-0.114	-0.027
-131.341	-3.646	-0.181	0.124
-130.326	205.894	0.095	0.145
-129.312	800.000	-0.152	-0.417
-128.297	-89.720	0.281	-0.081
-127.283	523.822	-0.093	0.216
-126.268	424.150	-0.067	-0.142
-125.253	-56.806	-0.091	-0.040
-124.239	800.000	0.075	0.227
-123.224	153.023	0.154	-0.207
-122.210	-3.724	0.222	-0.152
-121.195	-10.592	0.268	-0.175
