DTS Sentinel unit serial number:	SN413079Multiplexer serial number:	ORYXHardware model number:	OX4-SRSoftware version number:	ORYX F/W v4.00 Oryx Data Collector v3.7.2.0data status	okinstallation	princeton_trtdifferential loss correction	single-endedforward channel	channel 2reverse channel	N/Adate	2019/09/11time	11:01:11forward acquisition time	60.00reverse acquisition time	0.00gamma	496.2192k internal	0.2308k external	0.2308temperature offset calibration	0.9966default loss term (dB/km)	0.3790temperature slope calibration	1.0000multiplexer offset coefficient	1.0000multiplexer slope coefficient	1.0000fibre end	0.00T internal ref (°C)	37.23T ext. ref 1 (°C)	0.15T ext. ref 2 (°C)	34.56length (m)	temperature (°C)	Stokes	anti-Stokes-747.200	478.175	-0.131	0.302
-746.185	335.473	-0.101	0.199
-745.171	-200.000	0.001	0.133
-744.156	266.892	-0.253	0.449
-743.142	-86.977	0.192	0.060
-742.127	800.000	0.070	0.240
-741.112	129.971	-0.120	-0.156
-740.098	335.534	0.072	0.141
-739.083	74.422	-0.090	-0.096
-738.069	528.662	-0.153	0.367
-737.054	-124.142	-0.132	-0.021
-736.039	-54.684	-0.175	0.080
-735.025	-200.000	0.048	0.435
-734.010	218.732	-0.132	-0.215
-732.996	-116.641	-0.201	-0.037
-731.981	-55.286	0.326	0.149
-730.966	22.544	0.289	0.240
-729.952	-89.516	0.021	0.006
-728.937	-200.000	0.003	-0.344
-727.923	-6.462	0.059	-0.041
-726.908	27.385	-0.142	0.121
-725.894	-135.372	-0.325	0.039
-724.879	-135.593	0.061	-0.007
-723.864	-200.000	0.036	0.190
-722.850	800.000	-0.077	0.233
-721.835	800.000	-0.053	-0.203
-720.821	57.189	0.080	-0.080
-719.806	-121.265	0.040	-0.007
-718.791	789.471	-0.069	-0.192
-717.777	-36.246	-0.266	-0.146
-716.762	-172.039	-0.255	-0.008
-715.748	46.347	-0.091	-0.086
-714.733	59.581	-0.124	0.124
-713.718	-95.767	-0.218	0.059
-712.704	-69.194	0.242	0.095
-711.689	79.636	-0.226	0.247
-710.675	-61.666	-0.144	-0.061
-709.660	28.213	-0.193	-0.166
-708.645	-66.636	0.263	-0.106
-707.631	-127.477	-0.358	-0.053
-706.616	-200.000	-0.040	0.214
-705.602	800.000	-0.111	-0.421
-704.587	47.572	-0.141	0.134
-703.572	353.474	-0.137	0.276
-702.558	530.922	0.022	0.053
-701.543	-152.942	-0.405	-0.029
-700.529	-96.844	0.237	0.063
-699.514	-67.661	-0.145	-0.058
-698.499	80.922	0.191	0.209
-697.485	-200.000	0.058	-0.434
-696.470	-13.178	-0.178	-0.117
-695.456	-111.366	0.228	-0.047
-694.441	-191.780	0.053	-0.001
-693.426	-143.750	0.279	0.027
-692.412	-34.381	-0.092	0.051
-691.397	32.957	-0.253	-0.223
-690.383	46.718	-0.179	-0.169
-689.368	185.809	-0.130	-0.197
-688.354	-200.000	0.069	-0.479
-687.339	172.865	-0.142	-0.207
-686.324	-110.447	0.117	-0.025
-685.310	-49.127	-0.078	0.038
-684.295	446.790	0.110	0.246
-683.281	-25.200	-0.089	-0.053
-682.266	800.000	-0.126	0.408
-681.251	40.600	-0.026	0.024
-680.237	-31.462	-0.465	-0.265
-679.222	800.000	-0.006	0.024
-678.208	-38.160	-0.277	0.149
-677.193	10.219	0.056	0.043
-676.178	800.000	0.038	-0.125
-675.164	-35.025	-0.317	-0.175
-674.149	-200.000	0.037	-0.328
-673.135	-200.000	-0.029	-0.299
-672.120	129.477	0.091	-0.118
-671.105	-30.893	-0.355	0.203
-670.091	-53.522	0.475	-0.220
-669.076	800.000	-0.067	0.274
-668.062	-158.106	0.151	-0.009
-667.047	-200.000	-0.010	0.118
-666.032	249.904	0.094	-0.162
-665.018	78.129	-0.100	0.108
-664.003	-200.000	0.046	-0.269
-662.989	63.009	0.267	0.271
-661.974	-83.101	-0.289	0.094
-660.959	-8.604	-0.219	0.149
-659.945	-68.769	-0.112	0.044
-658.930	-130.402	-0.555	0.076
-657.916	8.587	-0.171	0.131
-656.901	26.475	-0.099	0.084
-655.886	690.952	0.108	0.286
-654.872	-142.409	0.481	0.048
-653.857	800.000	-0.056	0.204
-652.843	-85.875	-0.179	-0.056
-651.828	-200.000	0.013	-0.125
-650.814	3.062	-0.210	0.155
-649.799	-125.287	0.190	-0.029
-648.784	662.770	0.050	0.131
-647.770	261.048	0.119	-0.209
-646.755	215.503	0.161	0.259
-645.741	-140.883	-0.053	0.006
-644.726	117.965	0.187	0.234
-643.711	118.757	-0.071	-0.089
-642.697	74.960	0.188	-0.201
-641.682	556.400	-0.060	0.146
-640.668	800.000	0.063	0.194
-639.653	-156.501	-0.331	-0.021
-638.638	-67.820	-0.143	-0.057
-637.624	-17.484	-0.138	-0.088
-636.609	-21.426	-0.402	-0.248
-635.595	276.181	-0.070	-0.127
-634.580	151.595	-0.018	0.025
-633.565	-200.000	0.006	-0.070
-632.551	-67.897	-0.149	0.059
-631.536	39.469	0.150	-0.136
-630.522	-88.588	-0.183	-0.055
-629.507	-135.008	-0.205	0.025
-628.492	-200.000	-0.002	0.328
-627.478	800.000	-0.060	0.256
-626.463	-160.222	0.134	-0.007
-625.449	-200.000	0.028	0.237
-624.434	-200.000	0.057	0.307
-623.419	-124.573	-0.086	-0.013
-622.405	-91.026	-0.177	-0.052
-621.390	247.591	-0.033	-0.057
-620.376	-61.685	-0.188	-0.080
-619.361	-200.000	0.031	0.145
-618.346	400.773	0.252	-0.535
-617.332	340.071	-0.019	0.037
-616.317	798.631	0.081	0.225
-615.303	332.201	-0.169	0.330
-614.288	-97.949	0.261	0.068
-613.273	800.000	-0.061	-0.212
-612.259	308.007	-0.170	-0.320
-611.244	-29.985	0.082	-0.047
-610.230	120.345	-0.130	-0.163
-609.215	-138.308	-0.171	0.019
-608.201	-200.000	-0.012	0.113
-607.186	235.503	0.115	-0.192
-606.171	58.724	0.040	0.040
-605.157	-188.224	0.157	-0.002
-604.142	-45.601	-0.283	0.142
-603.128	-101.741	-0.243	-0.060
-602.113	-87.990	0.342	0.104
-601.098	-187.146	0.006	0.000
-600.084	418.017	-0.028	-0.060
-599.069	-1.011	-0.129	-0.092
-598.055	-7.446	-0.263	0.180
-597.040	9.041	0.078	-0.060
-596.025	-200.000	0.040	0.228
-595.011	336.421	0.224	-0.439
-593.996	88.796	-0.179	-0.202
-592.982	-200.000	-0.033	0.167
-591.967	-47.534	0.254	0.125
-590.952	0.571	-0.518	0.374
-589.938	34.331	-0.053	-0.047
-588.923	-55.874	0.456	-0.206
-587.909	-177.544	-0.099	0.002
-586.894	-200.000	0.066	-0.304
-585.879	-68.140	-0.296	0.117
-584.865	-196.190	-0.136	0.001
-583.850	-75.867	0.302	-0.108
-582.836	-123.991	-0.070	0.011
-581.821	-54.678	-0.224	0.102
-580.806	800.000	-0.056	-0.156
-579.792	-106.023	-0.228	0.052
-578.777	800.000	-0.044	0.132
-577.763	-45.849	0.072	-0.036
-576.748	-28.867	-0.141	-0.082
-575.733	17.017	-0.175	0.140
-574.719	169.040	0.072	-0.103
-573.704	-0.685	0.176	0.126
-572.690	-200.000	-0.012	0.086
-571.675	800.000	0.100	-0.391
-570.661	-120.826	0.245	0.042
-569.646	-37.657	0.054	0.029
-568.631	0.782	-0.261	-0.188
-567.617	-79.559	0.279	-0.095
-566.602	-7.946	0.262	-0.178
-565.588	-65.985	-0.154	0.062
-564.573	-41.618	0.427	0.221
-563.558	263.855	-0.144	0.252
-562.544	321.246	0.137	0.263
-561.529	71.862	-0.233	-0.245
-560.515	269.553	0.151	-0.267
-559.500	398.514	0.094	-0.198
-558.485	36.148	-0.071	0.063
-557.471	-130.524	0.129	-0.018
-556.456	-121.890	0.198	-0.033
-555.442	-64.321	0.332	-0.136
-554.427	251.494	0.050	0.085
-553.412	-25.728	-0.167	-0.099
-552.398	71.525	-0.134	-0.141
-551.383	-81.504	0.429	-0.142
-550.369	536.874	-0.169	-0.404
-549.354	-100.482	-0.073	0.018
-548.339	161.846	-0.059	-0.084
-547.325	-163.187	-0.271	-0.013
-546.310	-200.000	-0.010	-0.096
-545.296	-200.000	-0.051	0.326
-544.281	800.000	0.159	-0.549
-543.266	261.087	-0.071	0.124
-542.252	800.000	-0.084	-0.337
-541.237	-130.147	0.145	-0.020
-540.223	-128.822	0.219	0.031
-539.208	259.993	-0.236	0.412
-538.193	800.000	-0.029	-0.128
-537.179	-33.381	0.128	0.071
-536.164	-36.497	0.145	0.079
-535.150	-122.754	0.260	-0.042
-534.135	-192.435	-0.135	-0.001
-533.121	-200.000	0.013	-0.201
-532.106	-200.000	0.038	0.349
-531.091	-3.683	-0.235	-0.165
-530.077	-94.375	-0.159	-0.044
-529.062	198.307	-0.113	-0.174
-528.048	-200.000	0.009	0.302
-527.033	3.449	-0.263	0.193
-526.018	-200.000	-0.001	0.421
-525.004	-66.310	-0.035	0.014
-523.989	-200.000	-0.074	-0.451
-522.975	128.158	0.179	0.229
-521.960	-200.000	-0.010	0.186
-520.945	-128.986	-0.191	0.027
-519.931	15.392	-0.162	0.128
-518.916	-51.648	0.299	-0.140
-517.902	270.000	0.054	0.095
-516.887	77.822	0.087	0.093
-515.872	651.914	0.066	-0.170
-514.858	578.737	-0.080	0.196
-513.843	-112.680	0.097	-0.019
-512.829	-87.819	0.140	0.043
-511.814	-55.736	-0.107	0.048
-510.799	-38.419	-0.204	-0.109
-509.785	-66.636	0.224	0.089
-508.770	800.000	0.066	0.283
-507.756	-102.614	0.114	-0.027
-506.741	-200.000	0.352	0.000
-505.726	286.177	-0.164	0.298
-504.712	-48.220	0.160	0.078
-503.697	-138.908	-0.254	-0.028
-502.683	91.272	0.207	-0.234
-501.668	-200.000	-0.017	-0.134
-500.653	800.000	0.006	-0.020
-499.639	292.524	0.131	-0.240
-498.624	800.000	0.066	0.202
-497.610	152.232	-0.121	-0.166
-496.595	-45.598	0.311	-0.155
-495.581	98.351	-0.037	0.043
-494.566	-200.000	-0.070	-0.405
-493.551	773.964	-0.024	0.065
-492.537	-151.448	-0.196	-0.015
-491.522	800.000	-0.072	-0.247
-490.508	-8.132	-0.262	0.178
-489.493	-175.898	-0.225	-0.006
-488.478	-145.148	0.485	-0.044
-487.464	6.226	-0.139	0.104
-486.449	-200.000	0.026	-0.193
-485.435	-63.991	-0.101	-0.042
-484.420	-142.604	0.142	-0.014
-483.405	-55.647	0.288	0.130
-482.391	-15.516	-0.283	-0.182
-481.376	-200.000	-0.132	0.000
-480.362	-87.055	0.183	-0.056
-479.347	-63.178	0.166	0.069
-478.332	-46.945	0.099	-0.048
-477.318	-99.305	-0.120	0.030
-476.303	244.959	-0.115	0.194
-475.289	-16.252	-0.043	-0.027
-474.274	-61.381	-0.252	-0.107
-473.259	419.170	0.154	-0.331
-472.245	-200.000	0.039	-0.210
-471.230	-200.000	-0.013	0.065
-470.216	-19.642	-0.239	0.149
-469.201	-50.584	-0.101	-0.048
-468.186	402.790	-0.030	-0.064
-467.172	636.079	0.151	-0.386
-466.157	-54.787	0.165	0.075
-465.143	189.881	0.018	0.028
-464.128	-200.000	-0.018	0.225
-463.113	-200.000	-0.046	-0.206
-462.099	-200.000	0.019	-0.097
-461.084	297.837	-0.123	0.227
-460.070	-110.489	-0.393	-0.082
-459.055	33.749	-0.176	-0.154
-458.040	800.000	-0.042	-0.154
-457.026	-89.160	0.237	-0.070
-456.011	-81.579	-0.100	0.033
-454.997	55.998	0.347	0.339
-453.982	174.597	-0.131	0.191
-452.968	-31.835	-0.158	0.089
-451.953	446.065	-0.088	-0.194
-450.938	-200.000	0.020	-0.104
-449.924	126.246	0.149	-0.189
-448.909	-55.183	0.184	-0.083
-447.895	-200.000	-0.005	-0.405
-446.880	425.801	-0.176	-0.381
-445.865	645.138	0.103	-0.264
-444.851	678.269	-0.118	-0.309
-443.836	167.150	-0.262	-0.374
-442.822	49.968	0.233	-0.220
-441.807	-55.403	-0.301	0.135
-440.792	-10.581	-0.268	-0.178
-439.778	-200.000	0.045	-0.204
-438.763	-71.703	0.247	-0.093
-437.749	-152.357	0.286	-0.021
-436.734	-50.184	-0.125	0.059
-435.719	-77.677	0.210	0.073
-434.705	-200.000	-0.014	0.224
-433.690	800.000	0.118	-0.428
-432.676	-35.833	0.210	0.114
-431.661	-200.000	0.016	0.088
-430.646	-200.000	0.007	-0.085
-429.632	-58.881	0.235	0.102
-428.617	111.377	0.090	-0.108
-427.603	-0.325	-0.440	0.314
-426.588	478.148	0.110	0.250
-425.573	800.000	-0.019	-0.075
-424.559	-6.271	-0.191	0.131
-423.544	-200.000	0.272	0.001
-422.530	142.055	-0.044	-0.059
-421.515	-200.000	0.026	0.231
-420.500	55.510	0.068	-0.066
-419.486	800.000	-0.042	0.133
-418.471	-3.402	0.098	0.068
-417.457	-200.000	-0.031	-0.209
-416.442	70.366	0.196	0.203
-415.428	102.920	-0.188	0.221
-414.413	-5.362	0.117	0.080
-413.398	193.294	0.107	0.162
-412.384	800.000	-0.071	0.288
-411.369	246.169	-0.128	0.216
-410.355	-63.693	0.088	-0.036
-409.340	-137.036	0.268	-0.031
-408.325	800.000	0.037	-0.109
-407.311	84.346	-0.116	-0.127
-406.296	145.039	0.095	0.127
-405.282	-35.886	0.096	0.052
-404.267	244.137	-0.061	0.102
-403.252	151.946	-0.117	0.160
-402.238	231.845	-0.143	0.235
-401.223	115.831	-0.206	-0.253
-400.209	259.214	0.058	-0.100
-399.194	24.923	0.171	-0.142
-398.179	-34.718	-0.227	0.124
-397.165	-161.011	-0.470	0.025
-396.150	-54.389	0.140	-0.064
-395.136	264.605	-0.144	0.252
-394.121	84.287	0.091	-0.100
-393.106	-55.623	-0.272	0.122
-392.092	-200.000	-0.014	0.193
-391.077	-100.348	-0.210	-0.052
-390.063	800.000	-0.073	-0.213
-389.048	197.716	-0.122	-0.187
-388.033	-79.689	0.183	0.062
-387.019	-114.674	0.288	0.055
-386.004	-118.118	0.245	0.044
-384.990	266.694	-0.181	-0.318
-383.975	-127.185	0.216	-0.032
-382.960	312.157	0.151	-0.284
-381.946	-200.000	0.013	0.067
-380.931	282.738	-0.095	-0.170
-379.917	50.666	0.093	0.088
-378.902	-75.998	0.332	0.118
-377.888	739.594	-0.040	-0.106
-376.873	-51.440	0.195	0.091
-375.858	-200.000	-0.006	-0.479
-374.844	187.370	-0.053	0.080
-373.829	-8.134	-0.197	-0.133
-372.815	107.393	-0.170	0.202
-371.800	38.851	0.231	-0.207
-370.785	-114.257	0.136	0.026
-369.771	162.478	0.136	-0.192
-368.756	92.452	-0.012	0.014
-367.742	-24.235	-0.161	0.096
-366.727	800.000	0.053	0.168
-365.712	-80.290	-0.482	0.161
-364.698	-55.198	0.166	0.075
-363.683	98.974	0.176	-0.204
-362.669	-122.062	-0.193	0.032
-361.654	-191.659	0.215	0.002
-360.639	41.589	-0.024	0.022
-359.625	-169.505	0.327	0.012
-358.610	-200.000	-0.000	-0.025
-357.596	37.523	0.123	-0.110
-356.581	-87.242	-0.154	0.047
-355.566	-200.000	-0.028	0.206
-354.552	-52.673	0.282	-0.130
-353.537	5.862	-0.234	-0.173
-352.523	-200.000	-0.027	0.126
-351.508	-122.133	-0.255	0.042
-350.493	-173.926	-0.561	0.017
-349.479	-78.380	0.311	-0.107
-348.464	-151.356	0.238	0.018
-347.450	426.851	0.066	-0.142
-346.435	-81.745	0.188	-0.062
-345.420	-89.907	0.346	0.101
-344.406	-20.956	-0.199	0.122
-343.391	-82.652	-0.159	-0.051
-342.377	16.015	0.108	0.085
-341.362	115.376	-0.167	0.204
-340.348	200.308	0.098	-0.151
-339.333	-4.778	0.306	0.211
-338.318	-121.978	-0.322	0.053
-337.304	800.000	-0.137	0.416
-336.289	352.797	0.011	0.022
-335.275	800.000	0.089	0.252
-334.260	375.736	0.096	0.195
-333.245	-112.144	0.268	-0.054
-332.231	241.222	0.068	0.113
-331.216	800.000	-0.049	-0.159
-330.202	-112.800	-0.141	0.028
-329.187	152.286	0.220	-0.300
-328.172	58.010	-0.066	0.064
-327.158	-154.482	0.114	0.008
-326.143	76.414	-0.326	-0.346
-325.129	125.395	-0.125	0.158
-324.114	800.000	-0.021	-0.084
-323.099	800.000	-0.153	0.529
-322.085	41.542	-0.183	0.166
-321.070	-200.000	-0.021	0.200
-320.056	-45.552	0.155	-0.077
-319.041	-150.045	-0.249	-0.019
-318.026	-169.662	0.137	0.005
-317.012	8.810	-0.164	-0.124
-315.997	-173.368	0.174	-0.005
-314.983	-83.096	0.192	-0.062
-313.968	52.886	-0.287	-0.274
-312.953	-200.000	0.013	-0.295
-311.939	131.343	-0.032	0.041
-310.924	19.274	0.109	0.087
-309.910	-156.130	-0.335	0.021
-308.895	800.000	0.052	0.163
-307.880	187.547	0.160	-0.238
-306.866	43.567	-0.349	-0.319
-305.851	-96.084	-0.246	0.065
-304.837	800.000	-0.029	0.082
-303.822	-200.000	-0.040	0.275
-302.807	372.785	-0.115	0.234
-301.793	295.432	0.131	-0.240
-300.778	-164.820	0.339	0.015
-299.764	104.056	-0.182	-0.214
-298.749	800.000	-0.147	0.432
-297.735	-121.524	-0.184	0.031
-296.720	800.000	0.014	-0.052
-295.705	-200.000	-0.042	-0.246
-294.691	-2.288	-0.169	0.118
-293.676	146.070	0.164	0.220
-292.662	103.065	0.139	-0.162
-291.647	-161.252	-0.216	0.011
-290.632	-200.000	0.007	0.216
-289.618	-200.000	-0.015	0.077
-288.603	280.580	-0.013	0.024
-287.589	-16.913	0.227	-0.143
-286.574	-99.784	-0.182	-0.046
-285.559	-123.291	0.106	0.017
-284.545	50.536	-0.221	0.209
-283.530	285.861	-0.304	0.548
-282.516	-114.124	-0.371	-0.072
-281.501	260.875	-0.051	-0.088
-280.486	-96.407	0.141	0.037
-279.472	-200.000	-0.005	-0.176
-278.457	800.000	0.112	-0.319
-277.443	706.983	-0.057	-0.151
-276.428	77.111	0.105	0.112
-275.413	334.199	0.196	0.378
-274.399	44.494	0.173	-0.159
-273.384	496.164	0.153	0.352
-272.370	253.773	-0.259	0.441
-271.355	-111.130	-0.206	0.042
-270.340	7.227	0.097	-0.072
-269.326	800.000	0.051	0.161
-268.311	800.000	0.048	0.163
-267.297	-99.878	0.146	0.036
-266.282	800.000	0.113	0.311
-265.267	-200.000	-0.054	-0.284
-264.253	-200.000	0.017	0.218
-263.238	-107.099	-0.165	-0.036
-262.224	195.202	-0.187	0.283
-261.209	800.000	-0.089	-0.360
-260.195	-182.855	-0.070	0.001
-259.180	-88.467	0.093	0.028
-258.165	135.115	0.179	0.232
-257.151	800.000	-0.047	-0.136
-256.136	-119.365	-0.216	-0.037
-255.122	679.491	-0.057	-0.147
-254.107	800.000	0.034	-0.129
-253.092	800.000	0.180	-0.543
-252.078	-200.000	-0.033	0.274
-251.063	800.000	0.036	-0.135
-250.049	11.664	-0.148	-0.113
-249.034	186.414	-0.178	-0.264
-248.019	50.996	-0.170	-0.160
-247.005	800.000	-0.048	-0.165
-245.990	188.016	0.294	0.438
-244.976	133.562	0.120	-0.155
-243.961	-9.727	0.251	0.166
-242.946	15.636	0.157	0.123
-241.932	-128.855	-0.020	-0.003
-240.917	-84.098	-0.240	-0.076
-239.903	-200.000	0.007	0.196
-238.888	222.378	-0.240	0.385
-237.873	800.000	0.057	0.207
-236.859	800.000	-0.038	0.154
-235.844	800.000	-0.086	-0.243
-234.830	-101.152	0.274	0.067
-233.815	-141.899	-0.301	-0.030
-232.800	79.051	0.198	0.211
-231.786	197.824	-0.032	0.049
-230.771	15.970	0.054	0.042
-229.757	-200.000	-0.019	0.139
-228.742	51.786	0.133	0.126
-227.727	78.159	0.148	0.158
-226.713	-111.459	-0.126	-0.025
-225.698	52.814	-0.040	-0.038
-224.684	-200.000	-0.009	-0.178
-223.669	28.719	0.108	-0.091
-222.655	495.910	-0.078	0.179
-221.640	441.246	0.122	-0.265
-220.625	-45.835	0.157	-0.077
-219.611	28.807	-0.207	-0.174
-218.596	376.450	-0.065	-0.132
-217.582	-200.000	-0.013	-0.165
-216.567	-124.473	0.070	-0.011
-215.552	-47.747	0.225	-0.108
-214.538	27.983	0.302	-0.253
-213.523	800.000	-0.050	0.199
-212.509	-44.560	-0.083	-0.041
-211.494	248.213	-0.121	0.204
-210.479	-200.000	-0.009	-0.056
-209.465	79.539	0.283	-0.303
-208.450	21.180	-0.221	0.179
-207.436	76.713	-0.284	-0.300
-206.421	-78.831	-0.290	0.098
-205.406	130.692	-0.087	-0.111
-204.392	58.399	-0.251	0.245
-203.377	482.574	0.090	0.203
-202.363	-200.000	-0.014	0.121
-201.348	56.013	-0.103	0.100
-200.333	-126.093	0.258	-0.039
-199.319	-13.372	-0.271	-0.175
-198.304	490.949	0.138	0.313
-197.290	161.371	0.156	0.217
-196.275	800.000	0.036	0.124
-195.260	51.062	-0.178	0.168
-194.246	-200.000	0.040	-0.247
-193.231	80.994	0.145	0.156
-192.217	-93.077	0.297	0.082
-191.202	-46.685	0.078	-0.038
-190.187	-200.000	-0.016	-0.224
-189.173	-79.242	-0.462	-0.156
-188.158	29.740	0.317	0.268
-187.144	-200.000	-0.029	0.224
-186.129	-72.308	-0.261	0.096
-185.114	186.777	0.027	0.041
-184.100	737.421	0.128	0.343
-183.085	-81.676	-0.260	-0.085
-182.071	102.639	0.120	-0.140
-181.056	-59.649	0.245	0.104
-180.042	-38.723	0.430	0.226
-179.027	-200.000	0.029	-0.141
-178.012	-145.864	-0.255	-0.022
-176.998	-200.000	0.061	-0.357
-175.983	45.131	0.195	0.178
-174.969	-31.021	-0.120	0.067
-173.954	-103.183	0.214	-0.050
-172.939	60.617	-0.077	-0.075
-171.925	2.119	0.333	0.239
-170.910	-133.837	0.148	-0.018
-169.896	-175.599	0.334	0.009
-168.881	-135.546	0.149	-0.018
-167.866	-158.432	0.277	0.016
-166.852	-122.490	-0.210	0.034
-165.837	152.002	-0.036	0.049
-164.823	17.464	0.049	-0.039
-163.808	84.436	-0.176	-0.191
-162.793	-200.000	-0.053	0.311
-161.779	-41.256	0.252	-0.129
-160.764	32.118	0.138	-0.118
-159.750	92.152	0.197	0.221
-158.735	248.113	0.108	0.181
-157.720	-94.226	0.161	0.044
-156.706	203.672	-0.071	-0.110
-155.691	-200.000	0.009	0.124
-154.677	-118.405	0.321	-0.056
-153.662	385.148	-0.261	-0.534
-152.647	-153.999	-0.390	-0.026
-151.633	-200.000	-0.021	-0.125
-150.618	-132.742	-0.243	-0.031
-149.604	585.393	-0.029	-0.072
-148.589	21.355	-0.139	0.112
-147.574	-200.000	0.018	0.090
-146.560	-200.000	0.025	-0.344
-145.545	74.303	-0.103	-0.107
-144.531	800.000	0.053	0.154
-143.516	-16.459	0.143	0.090
-142.502	-200.000	0.015	-0.200
-141.487	-110.625	-0.288	-0.059
-140.472	66.252	0.201	-0.203
-139.458	-133.850	-0.100	-0.012
-138.443	-160.709	0.235	-0.012
-137.429	168.759	-0.071	-0.101
-136.414	-45.420	-0.212	0.104
-135.399	69.085	0.207	-0.211
-134.385	-34.921	0.382	0.207
-133.370	655.898	0.056	-0.144
-132.356	-200.000	-0.011	-0.190
-131.341	503.598	-0.039	0.090
-130.326	138.174	-0.196	-0.255
-129.312	-73.215	0.235	0.086
-128.297	-130.403	0.430	0.058
-127.283	428.930	0.018	0.039
-126.268	-158.762	0.232	-0.013
-125.253	117.869	0.095	0.116
-124.239	335.381	-0.136	0.262
-123.224	528.823	0.019	-0.046
-122.210	800.000	0.062	0.193
-121.195	13.301	-0.081	0.062
