DTS Sentinel unit serial number:	SN413079Multiplexer serial number:	ORYXHardware model number:	OX4-SRSoftware version number:	ORYX F/W v4.00 Oryx Data Collector v3.7.2.0data status	okinstallation	princeton_trtdifferential loss correction	single-endedforward channel	channel 2reverse channel	N/Adate	2019/09/11time	22:25:11forward acquisition time	60.00reverse acquisition time	0.00gamma	496.2192k internal	0.2325k external	0.2325temperature offset calibration	1.0074default loss term (dB/km)	0.3790temperature slope calibration	1.0000multiplexer offset coefficient	1.0000multiplexer slope coefficient	1.0000fibre end	0.00T internal ref (°C)	35.14T ext. ref 1 (°C)	1.79T ext. ref 2 (°C)	29.36length (m)	temperature (°C)	Stokes	anti-Stokes-747.200	75.204	0.065	0.069
-746.185	-153.362	-0.029	-0.002
-745.171	-8.237	0.118	-0.080
-744.156	94.743	0.134	0.154
-743.142	161.871	0.164	-0.231
-742.127	-141.758	-0.410	-0.041
-741.112	-27.707	0.158	0.092
-740.098	-16.209	0.315	0.202
-739.083	56.629	-0.074	-0.072
-738.069	530.922	0.195	0.465
-737.054	-31.175	-0.158	0.090
-736.039	57.535	-0.172	0.170
-735.025	-200.000	-0.028	0.354
-734.010	-138.156	-0.138	0.015
-732.996	180.859	-0.083	0.123
-731.981	-200.000	0.010	0.095
-730.966	132.961	0.196	-0.255
-729.952	-200.000	0.002	-0.121
-728.937	-200.000	-0.010	0.118
-727.923	78.253	0.140	-0.151
-726.908	82.996	-0.199	-0.218
-725.894	-66.969	0.080	0.032
-724.879	-99.349	-0.195	0.050
-723.864	-48.699	0.261	0.126
-722.850	-78.245	0.273	0.095
-721.835	-200.000	0.002	-0.079
-720.821	299.135	0.045	0.083
-719.806	-130.927	-0.316	-0.043
-718.791	-200.000	-0.046	0.218
-717.777	-79.419	0.049	-0.017
-716.762	28.218	0.125	-0.106
-715.748	17.729	0.380	-0.305
-714.733	22.777	-0.149	0.123
-713.718	-122.040	0.284	-0.047
-712.704	-200.000	-0.013	0.222
-711.689	800.000	-0.056	0.204
-710.675	412.997	-0.195	-0.418
-709.660	122.338	0.060	-0.075
-708.645	100.339	0.179	0.210
-707.631	31.799	0.319	0.277
-706.616	-34.599	-0.124	-0.069
-705.602	-200.000	-0.039	-0.230
-704.587	227.927	-0.463	0.759
-703.572	-117.771	0.292	0.053
-702.558	109.597	-0.102	0.124
-701.543	-3.999	0.298	0.208
-700.529	-200.000	-0.047	0.317
-699.514	-131.981	0.275	0.036
-698.499	-48.621	0.336	-0.163
-697.485	662.860	-0.065	0.168
-696.470	-128.040	0.096	0.014
-695.456	-129.785	-0.201	0.028
-694.441	393.034	0.103	-0.217
-693.426	800.000	-0.095	0.337
-692.412	-200.000	0.015	-0.127
-691.397	81.708	-0.341	0.371
-690.383	-96.171	-0.198	0.053
-689.368	-200.000	-0.015	-0.139
-688.354	-95.977	0.118	-0.032
-687.339	800.000	0.061	-0.191
-686.324	-200.000	0.004	0.145
-685.310	34.525	0.068	0.060
-684.295	-26.447	0.171	0.101
-683.281	-36.801	-0.418	-0.226
-682.266	66.680	-0.098	-0.100
-681.251	13.252	-0.107	-0.083
-680.237	800.000	-0.026	-0.075
-679.222	-200.000	-0.038	-0.258
-678.208	439.420	-0.080	0.175
-677.193	-58.949	-0.262	0.114
-676.178	-154.219	-0.221	-0.015
-675.164	-200.000	0.001	-0.158
-674.149	-200.000	-0.021	0.203
-673.135	-51.924	-0.248	0.116
-672.120	-10.887	-0.199	-0.132
-671.105	-128.209	-0.298	0.043
-670.091	178.705	0.049	-0.072
-669.076	64.584	-0.211	-0.214
-668.062	-200.000	0.086	-0.382
-667.047	-49.518	0.395	-0.189
-666.032	94.802	-0.110	-0.126
-665.018	-120.139	0.112	0.019
-664.003	16.616	-0.274	0.218
-662.989	-24.659	-0.139	0.083
-661.974	-5.088	0.107	-0.074
-660.959	251.332	0.075	-0.128
-659.945	-136.780	-0.281	-0.033
-658.930	-85.147	-0.136	-0.043
-657.916	-52.991	-0.270	-0.125
-656.901	-123.264	0.215	-0.035
-655.886	65.337	-0.266	0.271
-654.872	40.235	-0.372	0.337
-653.857	-160.681	0.157	0.008
-652.843	63.648	-0.130	0.131
-651.828	76.471	0.072	-0.077
-650.814	-76.960	0.095	0.033
-649.799	800.000	0.049	0.165
-648.784	88.940	-0.074	-0.083
-647.770	118.828	0.031	-0.039
-646.755	-200.000	-0.056	-0.306
-645.741	-23.923	-0.095	-0.057
-644.726	-72.507	0.463	-0.172
-643.711	-200.000	-0.189	0.001
-642.697	60.278	0.016	0.016
-641.682	216.641	-0.122	-0.196
-640.668	188.212	-0.139	-0.209
-639.653	-107.880	0.168	-0.037
-638.638	38.573	0.065	-0.058
-637.624	-200.000	-0.015	0.245
-636.609	-46.817	0.134	0.066
-635.595	231.645	0.096	0.158
-634.580	800.000	0.056	0.159
-633.565	-83.027	0.155	0.050
-632.551	194.666	-0.117	-0.178
-631.536	-86.848	-0.196	0.060
-630.522	-200.000	0.021	0.095
-629.507	-2.350	-0.233	-0.164
-628.492	-105.331	0.055	0.013
-627.478	-161.184	-0.205	-0.011
-626.463	-100.199	-0.201	0.050
-625.449	800.000	-0.048	-0.146
-624.434	-89.008	0.490	0.146
-623.419	132.305	0.079	0.102
-622.405	2.606	-0.102	0.074
-621.390	-200.000	0.017	-0.117
-620.376	-73.303	-0.553	0.203
-619.361	-81.186	-0.222	0.074
-618.346	-28.330	0.344	-0.200
-617.332	112.091	-0.089	0.108
-616.317	-200.000	-0.040	0.178
-615.303	28.348	0.239	-0.203
-614.288	394.922	-0.109	-0.229
-613.273	-113.502	-0.336	0.066
-612.259	-50.170	0.234	0.111
-611.244	262.386	-0.131	-0.228
-610.230	-8.911	0.085	0.057
-609.215	44.162	-0.084	-0.078
-608.201	272.778	-0.147	-0.260
-607.186	-200.000	0.011	0.219
-606.171	-200.000	-0.023	0.140
-605.157	-91.491	-0.299	-0.086
-604.142	-200.000	-0.055	-0.263
-603.128	42.718	-0.102	-0.093
-602.113	703.579	0.064	-0.168
-601.098	-21.149	0.114	0.070
-600.084	533.006	-0.103	-0.245
-599.069	-79.904	-0.089	0.030
-598.055	25.909	-0.211	0.177
-597.040	-200.000	0.079	-0.498
-596.025	-98.609	-0.133	0.034
-595.011	-72.714	0.045	-0.017
-593.996	340.231	0.174	0.340
-592.982	-200.000	0.020	0.333
-591.967	-39.913	0.206	0.108
-590.952	299.600	-0.038	0.070
-589.938	-142.569	-0.136	0.013
-588.923	-40.410	-0.201	0.105
-587.909	88.780	-0.085	-0.095
-586.894	194.141	-0.168	0.255
-585.879	-200.000	0.018	0.314
-584.865	-200.000	0.052	0.293
-583.850	-37.854	-0.325	0.173
-582.836	-25.277	0.128	0.076
-581.821	-118.251	0.222	-0.040
-580.806	-36.433	-0.317	-0.171
-579.792	119.759	-0.070	0.087
-578.777	183.683	-0.178	0.264
-577.763	-200.000	0.005	-0.047
-576.748	81.013	-0.163	-0.176
-575.733	114.917	0.160	0.196
-574.719	-200.000	-0.026	0.298
-573.704	-200.000	-0.004	0.027
-572.690	11.592	0.284	-0.218
-571.675	-200.000	0.009	-0.299
-570.661	61.012	0.173	-0.172
-569.646	547.429	0.040	0.096
-568.631	453.878	-0.209	0.465
-567.617	433.058	-0.120	0.261
-566.602	75.918	0.082	-0.087
-565.588	-156.853	-0.134	-0.008
-564.573	-20.430	-0.062	-0.038
-563.558	-88.623	0.356	-0.106
-562.544	162.309	-0.074	0.103
-561.529	-80.156	-0.223	0.075
-560.515	-27.926	0.239	-0.139
-559.500	18.839	0.194	0.156
-558.485	-4.520	-0.125	-0.086
-557.471	-41.332	0.023	-0.012
-556.456	-200.000	0.009	-0.240
-555.442	-81.317	0.157	-0.052
-554.427	-26.449	0.035	-0.021
-553.412	-200.000	-0.039	-0.174
-552.398	-77.947	0.209	0.072
-551.383	-89.813	0.186	0.055
-550.369	73.455	-0.147	-0.154
-549.354	-4.985	-0.149	0.103
-548.339	-78.557	0.356	-0.122
-547.325	135.887	0.090	0.118
-546.310	106.328	0.037	0.043
-545.296	70.593	0.113	0.117
-544.281	-200.000	-0.037	-0.350
-543.266	220.167	-0.237	-0.379
-542.252	-200.000	-0.002	0.058
-541.237	-176.021	-0.081	-0.002
-540.223	57.358	0.092	-0.090
-539.208	800.000	-0.083	0.258
-538.193	-200.000	0.003	0.234
-537.179	-196.467	-0.360	0.002
-536.164	-33.277	0.313	0.173
-535.150	800.000	-0.028	-0.085
-534.135	-200.000	-0.021	0.241
-533.121	-200.000	-0.032	0.173
-532.106	-200.000	0.028	0.177
-531.091	194.382	0.120	-0.183
-530.077	800.000	-0.034	-0.105
-529.062	-41.782	-0.247	0.127
-528.048	-7.920	0.404	0.273
-527.033	-107.352	0.285	-0.063
-526.018	-200.000	-0.039	-0.232
-525.004	-182.084	-0.051	0.001
-523.989	176.350	0.129	0.187
-522.975	-78.569	0.102	0.035
-521.960	-72.174	0.475	-0.176
-520.945	105.186	0.054	0.064
-519.931	3.278	0.101	-0.074
-518.916	-141.909	0.137	0.014
-517.902	-35.061	0.176	0.096
-516.887	800.000	-0.012	-0.036
-515.872	-137.876	-0.286	-0.032
-514.858	800.000	0.059	0.245
-513.843	201.871	0.061	0.095
-512.829	-200.000	-0.009	0.161
-511.814	-19.177	-0.072	0.045
-510.799	-137.899	-0.282	0.032
-509.785	81.730	-0.112	-0.121
-508.770	23.288	-0.123	-0.101
-507.756	-93.097	0.130	-0.036
-506.741	-71.135	-0.239	-0.090
-505.726	-9.872	0.274	-0.182
-504.712	-200.000	0.005	0.097
-503.697	-128.300	-0.234	-0.033
-502.683	-168.911	-0.354	0.013
-501.668	106.710	0.260	-0.308
-500.653	-167.353	0.046	-0.002
-499.639	430.880	-0.167	-0.362
-498.624	-200.000	-0.021	-0.135
-497.610	800.000	-0.070	-0.196
-496.595	-26.823	-0.190	0.111
-495.581	92.234	0.072	-0.081
-494.566	121.549	0.122	0.152
-493.551	-200.000	0.012	-0.358
-492.537	800.000	0.030	-0.114
-491.522	-26.008	0.322	0.189
-490.508	36.156	-0.082	0.072
-489.493	-30.031	0.288	0.164
-488.478	-135.648	-0.281	0.033
-487.464	566.478	-0.036	-0.087
-486.449	-12.343	-0.229	-0.150
-485.435	-69.846	0.148	0.056
-484.420	79.283	-0.186	-0.199
-483.405	105.200	-0.064	-0.075
-482.391	240.813	0.064	0.107
-481.376	369.366	-0.106	0.213
-480.362	-200.000	-0.018	0.168
-479.347	-200.000	-0.004	-0.286
-478.332	800.000	0.046	-0.187
-477.318	-163.539	-0.312	0.015
-476.303	-138.409	0.474	0.052
-475.289	-44.968	0.315	-0.156
-474.274	-66.895	-0.105	-0.042
-473.259	-20.324	-0.121	-0.075
-472.245	424.334	-0.021	0.044
-471.230	-200.000	-0.006	0.050
-470.216	-200.000	0.038	0.183
-469.201	-158.630	0.229	0.013
-468.186	-200.000	-0.033	-0.146
-467.172	-16.855	-0.145	-0.092
-466.157	800.000	0.052	0.144
-465.143	-199.587	0.130	0.001
-464.128	-144.419	0.187	0.017
-463.113	800.000	-0.020	-0.087
-462.099	10.919	-0.106	-0.081
-461.084	800.000	-0.163	-0.522
-460.070	800.000	0.060	-0.252
-459.055	-103.367	-0.365	0.086
-458.040	-87.152	0.122	-0.037
-457.026	242.831	-0.158	0.264
-456.011	800.000	0.021	-0.078
-454.997	-200.000	0.003	0.392
-453.982	-200.000	0.006	0.080
-452.968	310.665	-0.114	-0.212
-451.953	110.623	0.011	0.014
-450.938	109.989	-0.028	-0.033
-449.924	311.533	-0.083	-0.155
-448.909	356.717	0.106	0.211
-447.895	-79.549	0.261	-0.088
-446.880	-65.215	0.343	-0.138
-445.865	82.110	0.246	-0.266
-444.851	306.318	-0.073	-0.135
-443.836	-200.000	0.001	-0.031
-442.822	11.687	0.054	0.042
-441.807	66.333	-0.152	0.154
-440.792	368.598	0.093	-0.187
-439.778	-200.000	0.013	0.299
-438.763	-200.000	0.059	-0.408
-437.749	681.738	-0.148	-0.384
-436.734	800.000	0.061	0.262
-435.719	-200.000	-0.059	-0.311
-434.705	142.085	0.052	0.068
-433.690	-61.598	0.249	0.104
-432.676	591.558	0.130	0.320
-431.661	474.672	-0.040	-0.089
-430.646	142.981	0.239	0.317
-429.632	169.903	-0.158	-0.226
-428.617	-18.035	-0.117	0.073
-427.603	695.968	0.101	-0.264
-426.588	13.326	-0.369	0.285
-425.573	129.195	0.107	-0.136
-424.559	-44.398	-0.041	-0.020
-423.544	129.040	-0.131	0.166
-422.530	-200.000	-0.023	0.156
-421.515	-16.930	0.144	0.090
-420.500	800.000	0.084	-0.278
-419.486	-112.193	-0.314	-0.063
-418.471	-200.000	-0.057	-0.285
-417.457	-124.938	-0.216	0.033
-416.442	800.000	0.082	0.294
-415.428	800.000	0.033	0.114
-414.413	-25.479	0.255	-0.150
-413.398	-92.847	0.058	0.016
-412.384	13.403	-0.139	-0.107
-411.369	23.070	-0.081	0.066
-410.355	529.840	-0.141	0.331
-409.340	-200.000	-0.005	-0.137
-408.325	94.153	0.117	-0.133
-407.311	295.683	-0.175	0.319
-406.296	-90.738	0.323	-0.093
-405.282	800.000	0.057	0.169
-404.267	173.921	0.219	0.315
-403.252	25.480	0.384	0.318
-402.238	-19.672	0.154	0.095
-401.223	-200.000	0.043	0.236
-400.209	69.643	0.143	-0.147
-399.194	-200.000	0.034	-0.204
-398.179	145.946	0.178	-0.238
-397.165	3.147	-0.109	-0.079
-396.150	-5.753	0.182	-0.124
-395.136	-200.000	-0.054	-0.246
-394.121	131.803	-0.127	-0.162
-393.106	59.463	-0.122	0.120
-392.092	-93.846	-0.152	0.042
-391.077	-119.527	0.277	-0.048
-390.063	35.512	-0.249	0.218
-389.048	29.641	0.082	-0.069
-388.033	-92.481	0.185	0.052
-387.019	-78.717	-0.119	0.040
-386.004	131.767	0.151	0.194
-384.990	101.882	0.088	0.102
-383.975	-27.876	0.249	0.144
-382.960	800.000	0.077	-0.322
-381.946	161.861	-0.231	0.322
-380.931	413.814	0.094	0.199
-379.917	-200.000	-0.001	0.430
-378.902	569.819	0.079	-0.190
-377.888	-200.000	-0.046	0.348
-376.873	-58.611	0.171	-0.074
-375.858	800.000	-0.106	0.341
-374.844	-200.000	-0.012	-0.176
-373.829	-159.928	0.503	-0.027
-372.815	126.151	-0.122	-0.153
-371.800	123.491	-0.101	0.126
-370.785	-124.704	-0.167	-0.026
-369.771	-5.956	0.147	-0.100
-368.756	800.000	0.053	-0.156
-367.742	240.525	0.131	-0.218
-366.727	-135.919	-0.302	-0.035
-365.712	-181.128	-0.109	0.002
-364.698	-178.949	-0.123	-0.003
-363.683	15.790	0.161	-0.126
-362.669	14.433	-0.107	-0.083
-361.654	276.862	0.070	-0.123
-360.639	23.217	0.129	-0.105
-359.625	-38.527	0.065	-0.034
-358.610	800.000	0.017	0.053
-357.596	-190.149	-0.276	0.003
-356.581	-76.546	0.464	0.162
-355.566	-200.000	-0.033	0.274
-354.552	-114.802	0.211	-0.040
-353.537	479.375	0.097	0.218
-352.523	800.000	0.021	-0.066
-351.508	685.899	-0.095	-0.247
-350.493	800.000	0.035	0.113
-349.479	366.081	-0.022	0.045
-348.464	-116.833	0.043	0.008
-347.450	291.256	-0.121	0.219
-346.435	38.595	0.286	-0.254
-345.420	220.043	0.120	0.191
-344.406	-146.543	-0.027	-0.002
-343.391	97.346	-0.157	-0.179
-342.377	305.066	-0.141	0.259
-341.362	64.536	-0.112	0.112
-340.348	-9.372	-0.094	-0.062
-339.333	22.150	0.108	0.088
-338.318	97.634	0.120	0.137
-337.304	76.653	0.103	0.108
-336.289	67.894	-0.061	0.062
-335.275	61.504	-0.245	-0.242
-334.260	-112.713	0.102	0.020
-333.245	-113.139	0.275	0.054
-332.231	-80.056	0.273	-0.091
-331.216	-109.980	-0.116	-0.024
-330.202	-46.017	0.214	0.105
-329.187	-92.777	-0.434	0.121
-328.172	-88.265	0.132	0.039
-327.158	800.000	-0.118	0.330
-326.143	118.105	-0.038	-0.046
-325.129	315.236	0.107	0.200
-324.114	-196.273	0.207	-0.001
-323.099	441.885	-0.215	-0.467
-322.085	44.637	0.218	0.199
-321.070	-97.134	-0.398	0.103
-320.056	-45.286	0.184	-0.091
-319.041	-179.612	0.148	0.003
-318.026	127.416	-0.201	0.253
-317.012	-59.464	-0.590	0.252
-315.997	-45.879	-0.294	0.144
-314.983	282.711	-0.144	0.256
-313.968	-200.000	0.005	0.033
-312.953	124.957	-0.147	0.184
-311.939	-63.122	0.104	0.043
-310.924	-10.461	-0.185	0.122
-309.910	800.000	-0.075	-0.258
-308.895	800.000	0.018	0.056
-307.880	-15.699	-0.278	0.176
-306.866	-87.283	0.238	0.072
-305.851	-200.000	0.039	0.197
-304.837	-172.221	0.366	0.012
-303.822	356.613	0.099	-0.195
-302.807	-112.945	0.145	-0.029
-301.793	47.504	-0.316	-0.292
-300.778	-99.481	0.390	-0.097
-299.764	-71.744	-0.128	-0.047
-298.749	800.000	-0.055	0.185
-297.735	-200.000	-0.012	0.192
-296.720	-200.000	0.010	-0.140
-295.705	81.426	-0.071	0.076
-294.691	-200.000	-0.017	-0.256
-293.676	-20.322	-0.101	0.062
-292.662	212.850	0.086	-0.135
-291.647	-200.000	-0.064	-0.381
-290.632	249.434	-0.157	-0.264
-289.618	362.179	-0.075	0.149
-288.603	-102.485	0.259	0.062
-287.589	92.836	0.135	-0.151
-286.574	95.980	-0.227	-0.258
-285.559	-73.238	-0.356	-0.129
-284.545	0.847	-0.036	-0.025
-283.530	12.336	-0.100	0.076
-282.516	91.022	-0.139	-0.155
-281.501	114.743	-0.102	0.124
-280.486	-135.995	-0.080	0.009
-279.472	-200.000	-0.029	-0.306
-278.457	-33.305	-0.278	0.152
-277.443	45.099	-0.136	0.124
-276.428	91.838	-0.109	0.121
-275.413	800.000	0.062	-0.177
-274.399	-4.303	-0.038	-0.026
-273.384	-75.617	-0.231	0.081
-272.370	14.250	-0.208	0.160
-271.355	16.616	0.210	0.164
-270.340	-200.000	-0.062	0.318
-269.326	-167.200	0.050	0.002
-268.311	-133.353	0.322	-0.040
-267.297	349.008	-0.077	0.151
-266.282	-146.366	-0.244	-0.021
-265.267	535.752	0.057	-0.135
-264.253	-200.000	0.018	0.188
-263.238	-132.629	-0.172	0.022
-262.224	120.299	-0.076	0.094
-261.209	48.044	-0.205	0.189
-260.195	-200.000	-0.042	-0.438
-259.180	-55.321	-0.382	0.170
-258.165	-93.021	-0.217	0.060
-257.151	51.491	0.232	0.218
-256.136	45.286	0.171	0.156
-255.122	-76.864	-0.067	0.023
-254.107	110.338	0.016	-0.019
-253.092	254.080	0.231	-0.391
-252.078	-138.110	0.531	0.058
-251.063	800.000	0.061	0.168
-250.049	339.793	-0.031	-0.060
-249.034	-200.000	0.048	-0.262
-248.019	-34.914	-0.381	-0.206
-247.005	800.000	0.071	0.272
-245.990	-200.000	-0.013	-0.254
-244.976	34.233	-0.270	-0.233
-243.961	388.063	0.033	-0.067
-242.946	275.726	0.177	0.310
-241.932	-55.001	-0.283	-0.126
-240.917	134.637	0.094	0.121
-239.903	-106.153	-0.193	0.043
-238.888	70.152	0.195	0.199
-237.873	246.431	-0.030	-0.050
-236.859	-44.441	0.106	-0.052
-235.844	-89.757	0.390	-0.113
-234.830	650.695	0.099	0.252
-233.815	-77.686	0.132	-0.045
-232.800	800.000	-0.060	-0.214
-231.786	7.374	0.144	-0.107
-230.771	-32.887	-0.115	0.063
-229.757	6.306	0.191	0.140
-228.742	-200.000	0.010	0.163
-227.727	153.697	-0.076	-0.103
-226.713	-65.824	-0.060	0.024
-225.698	-115.562	0.244	0.045
-224.684	-43.344	-0.235	-0.117
-223.669	122.818	-0.169	0.210
-222.655	18.434	-0.280	0.221
-221.640	-200.000	0.016	0.160
-220.625	-124.606	0.148	0.023
-219.611	44.530	0.154	-0.140
-218.596	267.421	-0.097	0.169
-217.582	-39.421	-0.466	-0.242
-216.567	-75.742	0.221	-0.077
-215.552	206.625	0.070	0.108
-214.538	-45.044	-0.291	-0.143
-213.523	421.748	0.116	0.247
-212.509	197.684	0.229	0.346
-211.494	116.265	-0.133	-0.161
-210.479	205.286	0.138	-0.211
-209.465	312.888	-0.021	-0.040
-208.450	-166.065	0.199	-0.008
-207.436	103.317	-0.068	0.079
-206.421	2.696	0.158	-0.113
-205.406	265.215	-0.110	0.189
-204.392	673.217	-0.091	0.233
-203.377	-42.976	0.079	-0.040
-202.363	-200.000	-0.000	0.024
-201.348	697.864	0.017	0.045
-200.333	-38.674	-0.356	-0.185
-199.319	-200.000	-0.018	-0.175
-198.304	-140.048	-0.086	0.009
-197.290	800.000	0.186	-0.541
-196.275	-66.998	0.205	0.080
-195.260	-74.379	0.066	-0.024
-194.246	-200.000	-0.001	-0.161
-193.231	-108.410	-0.140	-0.030
-192.217	115.890	0.089	0.108
-191.202	-119.654	0.335	0.057
-190.187	-102.760	0.652	0.153
-189.173	-88.930	-0.188	0.055
-188.158	144.715	-0.113	0.149
-187.144	574.745	-0.149	-0.360
-186.129	-8.319	0.136	-0.091
-185.114	-200.000	-0.031	-0.253
-184.100	-200.000	-0.015	-0.168
-183.085	264.501	-0.047	-0.081
-182.071	-133.190	-0.039	0.005
-181.056	800.000	0.051	-0.194
-180.042	181.342	0.147	-0.214
-179.027	-200.000	-0.014	0.169
-178.012	-53.001	0.135	-0.062
-176.998	-1.243	-0.099	0.069
-175.983	746.411	0.088	0.234
-174.969	-200.000	-0.022	-0.538
-173.954	111.137	-0.184	-0.218
-172.939	179.002	0.294	0.424
-171.925	-117.073	-0.352	0.063
-170.910	-62.479	-0.110	0.045
-169.896	-11.340	-0.238	0.155
-168.881	-104.067	-0.151	-0.035
-167.866	-200.000	-0.013	-0.209
-166.852	203.640	0.090	-0.137
-165.837	-200.000	-0.016	0.142
-164.823	-126.423	-0.237	0.035
-163.808	447.363	0.033	-0.071
-162.793	800.000	-0.017	0.069
-161.779	-200.000	0.036	-0.171
-160.764	-140.344	0.158	-0.016
-159.750	-200.000	0.027	-0.142
-158.735	-76.264	0.031	-0.011
-157.720	-200.000	0.047	-0.386
-156.706	-167.383	-0.140	-0.006
-155.691	-12.371	-0.218	0.140
-154.677	172.701	0.220	-0.312
-153.662	-140.303	0.225	-0.023
-152.647	800.000	-0.053	0.205
-151.633	-130.469	0.186	-0.025
-150.618	800.000	-0.075	0.266
-149.604	-46.438	-0.265	-0.128
-148.589	5.002	0.203	-0.148
-147.574	800.000	-0.028	-0.082
-146.560	202.528	-0.062	-0.095
-145.545	-132.983	0.581	-0.073
-144.531	328.814	-0.112	-0.211
-143.516	-96.646	-0.084	0.022
-142.502	800.000	-0.023	-0.068
-141.487	48.364	0.207	0.191
-140.472	800.000	-0.073	0.260
-139.458	129.390	-0.214	0.270
-138.443	-200.000	0.002	-0.093
-137.429	520.854	0.090	-0.208
-136.414	331.674	0.013	0.024
-135.399	3.580	-0.231	0.166
-134.385	103.478	-0.200	0.232
-133.370	22.571	-0.281	0.226
-132.356	-200.000	-0.007	-0.102
-131.341	13.048	0.166	0.126
-130.326	121.338	0.090	-0.111
-129.312	800.000	0.047	-0.147
-128.297	-169.505	-0.279	0.010
-127.283	184.332	0.022	-0.032
-126.268	-200.000	0.009	-0.131
-125.253	-200.000	-0.051	-0.362
-124.239	-83.778	-0.422	-0.133
-123.224	223.710	-0.232	0.369
-122.210	-200.000	-0.024	0.149
-121.195	-94.637	-0.333	0.089
