DTS Sentinel unit serial number:	SN413079Multiplexer serial number:	ORYXHardware model number:	OX4-SRSoftware version number:	ORYX F/W v4.00 Oryx Data Collector v3.7.2.0data status	okinstallation	princeton_trtdifferential loss correction	single-endedforward channel	channel 2reverse channel	N/Adate	2019/09/10time	21:49:11forward acquisition time	60.00reverse acquisition time	0.00gamma	496.2192k internal	0.2330k external	0.2330temperature offset calibration	0.9942default loss term (dB/km)	0.3790temperature slope calibration	1.0000multiplexer offset coefficient	1.0000multiplexer slope coefficient	1.0000fibre end	0.00T internal ref (°C)	30.87T ext. ref 1 (°C)	-0.31T ext. ref 2 (°C)	23.99length (m)	temperature (°C)	Stokes	anti-Stokes-747.200	-147.020	0.163	0.014
-746.185	96.483	-0.331	0.381
-745.171	-7.491	-0.128	-0.087
-744.156	-200.000	0.026	0.271
-743.142	318.903	0.151	0.287
-742.127	-185.038	0.162	0.003
-741.112	-37.423	-0.204	-0.110
-740.098	481.503	0.112	0.256
-739.083	123.558	-0.146	-0.185
-738.069	-113.501	0.144	0.028
-737.054	-7.291	0.116	0.079
-736.039	-91.787	-0.120	0.034
-735.025	424.086	0.057	-0.124
-734.010	800.000	-0.016	-0.071
-732.996	-111.229	-0.171	0.035
-731.981	389.777	0.063	0.130
-730.966	192.201	0.177	0.268
-729.952	128.935	-0.087	-0.111
-728.937	145.406	-0.064	0.086
-727.923	44.315	-0.170	-0.157
-726.908	-200.000	0.003	0.286
-725.894	21.406	0.260	-0.213
-724.879	800.000	-0.063	-0.188
-723.864	671.584	0.087	-0.226
-722.850	-165.807	-0.500	0.022
-721.835	-156.192	0.150	0.010
-720.821	-153.025	-0.138	-0.010
-719.806	-46.618	0.337	-0.166
-718.791	-200.000	-0.028	-0.395
-717.777	-93.261	-0.231	-0.064
-716.762	-200.000	-0.001	-0.181
-715.748	-200.000	0.028	0.176
-714.733	-114.541	-0.166	-0.032
-713.718	4.329	-0.212	-0.156
-712.704	67.900	-0.371	-0.382
-711.689	-168.753	0.475	-0.018
-710.675	-73.340	-0.219	-0.081
-709.660	190.771	0.089	0.134
-708.645	-83.219	-0.108	0.035
-707.631	-200.000	0.042	-0.384
-706.616	-200.000	0.007	-0.173
-705.602	-135.467	-0.088	0.011
-704.587	-75.755	-0.061	0.022
-703.572	381.506	0.041	-0.085
-702.558	-79.437	-0.034	0.012
-701.543	556.073	0.185	-0.448
-700.529	-110.224	-0.440	0.092
-699.514	37.004	-0.048	0.043
-698.499	684.439	0.020	-0.053
-697.485	800.000	0.040	-0.119
-696.470	44.873	-0.026	0.024
-695.456	-95.784	0.227	0.061
-694.441	-187.566	-0.365	0.005
-693.426	-73.897	0.222	-0.081
-692.412	-27.691	0.187	-0.109
-691.397	-10.786	0.192	-0.127
-690.383	175.293	-0.206	0.299
-689.368	125.390	-0.113	0.143
-688.354	15.462	-0.069	0.054
-687.339	-107.479	-0.352	0.078
-686.324	18.158	-0.200	-0.160
-685.310	194.847	-0.113	-0.173
-684.295	71.453	0.088	-0.092
-683.281	784.367	0.058	-0.160
-682.266	104.459	-0.150	-0.178
-681.251	505.089	-0.110	-0.256
-680.237	-107.183	-0.343	0.076
-679.222	800.000	-0.058	-0.211
-678.208	-22.636	0.124	-0.075
-677.193	800.000	0.047	-0.182
-676.178	-71.682	0.178	-0.067
-675.164	-47.195	-0.271	0.133
-674.149	139.194	-0.248	-0.327
-673.135	-40.067	-0.267	-0.140
-672.120	-135.701	-0.212	0.025
-671.105	132.514	0.115	-0.149
-670.091	168.218	0.151	-0.216
-669.076	304.046	0.035	0.066
-668.062	-125.807	0.150	0.023
-667.047	800.000	0.035	-0.154
-666.032	-200.000	0.011	-0.241
-665.018	228.396	0.146	-0.239
-664.003	-1.272	-0.238	-0.169
-662.989	123.449	0.117	-0.147
-661.974	-9.674	-0.094	-0.063
-660.959	91.077	-0.095	-0.107
-659.945	-96.445	0.295	0.078
-658.930	22.788	-0.148	-0.122
-657.916	800.000	-0.033	-0.116
-656.901	-159.458	0.296	-0.017
-655.886	-64.920	-0.217	-0.088
-654.872	63.019	-0.043	-0.043
-653.857	120.018	-0.277	0.345
-652.843	137.623	0.226	0.296
-651.828	-200.000	-0.029	0.451
-650.814	800.000	0.034	0.102
-649.799	800.000	-0.038	0.152
-648.784	141.304	-0.272	-0.362
-647.770	-158.397	-0.247	-0.014
-646.755	-102.208	-0.189	-0.046
-645.741	506.474	0.113	0.263
-644.726	-156.388	-0.275	0.017
-643.711	-138.370	0.484	-0.054
-642.697	30.022	0.117	0.100
-641.682	-160.509	-0.592	-0.032
-640.668	-78.826	-0.392	0.134
-639.653	-121.225	-0.352	-0.059
-638.638	-200.000	-0.004	-0.142
-637.624	-200.000	-0.050	0.461
-636.609	-52.966	0.182	0.084
-635.595	-26.580	-0.431	0.253
-634.580	-148.511	0.168	-0.014
-633.565	-157.754	0.249	0.015
-632.551	43.216	-0.202	-0.185
-631.536	-38.899	0.186	-0.098
-630.522	88.857	-0.144	0.161
-629.507	-78.394	0.361	0.124
-628.492	-108.002	0.121	0.026
-627.478	-109.423	-0.473	-0.100
-626.463	-20.288	0.229	-0.141
-625.449	-39.121	-0.283	0.149
-624.434	-137.303	-0.039	-0.004
-623.419	243.658	0.087	0.146
-622.405	242.022	-0.067	-0.112
-621.390	7.451	-0.186	-0.139
-620.376	-89.101	0.151	0.045
-619.361	148.037	0.106	0.143
-618.346	74.662	0.126	0.132
-617.332	-200.000	0.073	0.392
-616.317	-200.000	0.103	0.655
-615.303	-27.554	-0.112	0.065
-614.288	59.759	-0.074	-0.073
-613.273	-200.000	-0.013	-0.117
-612.259	800.000	-0.030	-0.088
-611.244	62.269	-0.040	-0.040
-610.230	-200.000	-0.053	-0.344
-609.215	5.381	-0.399	-0.294
-608.201	97.273	0.043	0.050
-607.186	49.288	0.259	0.243
-606.171	-200.000	-0.017	-0.086
-605.157	68.028	0.236	0.242
-604.142	115.812	-0.054	-0.066
-603.128	-13.115	-0.219	0.143
-602.113	-200.000	-0.003	-0.019
-601.098	301.966	-0.077	0.143
-600.084	-100.982	0.289	0.071
-599.069	800.000	0.051	0.218
-598.055	-200.000	0.002	-0.076
-597.040	-3.760	-0.371	-0.258
-596.025	-15.322	-0.199	0.127
-595.011	57.869	0.041	-0.040
-593.996	-72.287	0.086	0.032
-592.982	-151.513	0.206	-0.015
-591.967	35.949	0.107	0.094
-590.952	-17.685	0.313	0.196
-589.938	-17.136	0.058	0.036
-588.923	-102.679	-0.224	0.053
-587.909	174.703	0.073	-0.105
-586.894	-200.000	0.004	-0.090
-585.879	72.340	0.116	-0.121
-584.865	311.175	0.155	-0.290
-583.850	800.000	-0.069	0.227
-582.836	338.179	0.099	-0.192
-581.821	9.570	-0.099	0.075
-580.806	-19.975	-0.216	0.134
-579.792	-138.769	-0.217	-0.024
-578.777	-6.015	-0.140	-0.096
-577.763	-117.273	-0.226	0.041
-576.748	-155.493	-0.358	-0.023
-575.733	800.000	-0.075	0.227
-574.719	157.815	0.227	-0.315
-573.704	-200.000	0.021	-0.177
-572.690	-126.505	0.182	0.027
-571.675	-57.409	-0.084	0.037
-570.661	-110.557	-0.339	-0.070
-569.646	800.000	-0.036	0.107
-568.631	-144.149	-0.281	-0.026
-567.617	137.222	-0.102	-0.133
-566.602	-24.498	-0.183	-0.109
-565.588	4.351	-0.271	-0.198
-564.573	297.997	-0.094	0.173
-563.558	-10.063	0.069	0.046
-562.544	-90.749	0.332	0.096
-561.529	-38.312	0.192	0.101
-560.515	-110.144	-0.369	-0.077
-559.500	800.000	-0.104	0.371
-558.485	96.576	0.079	0.091
-557.471	-6.550	0.112	-0.076
-556.456	111.012	-0.261	0.314
-555.442	-40.305	-0.041	0.022
-554.427	310.134	0.032	0.059
-553.412	-33.180	-0.109	-0.060
-552.398	-108.122	-0.305	0.066
-551.383	297.277	-0.116	-0.212
-550.369	-130.433	0.232	-0.031
-549.354	-131.380	0.177	-0.023
-548.339	-200.000	-0.018	0.183
-547.325	14.309	-0.289	-0.225
-546.310	-200.000	-0.020	-0.168
-545.296	-46.066	0.210	0.103
-544.281	800.000	-0.037	0.111
-543.266	46.551	-0.099	-0.092
-542.252	-200.000	-0.002	-0.041
-541.237	-133.641	-0.170	0.021
-540.223	-200.000	0.053	-0.275
-539.208	-84.503	-0.113	-0.036
-538.193	800.000	0.003	-0.011
-537.179	-172.573	0.286	-0.009
-536.164	18.903	0.225	-0.180
-535.150	-49.871	0.206	-0.098
-534.135	0.354	-0.258	0.184
-533.121	800.000	-0.037	0.110
-532.106	146.181	0.063	-0.084
-531.091	-166.130	-0.220	-0.009
-530.077	-150.812	0.190	-0.014
-529.062	73.115	-0.117	-0.122
-528.048	800.000	0.040	-0.133
-527.033	-200.000	-0.012	0.167
-526.018	-150.411	0.060	0.005
-525.004	800.000	-0.030	-0.109
-523.989	74.915	0.082	-0.086
-522.975	-82.511	0.194	-0.063
-521.960	74.108	0.035	-0.037
-520.945	231.836	0.100	-0.164
-519.931	131.614	-0.169	0.217
-518.916	190.798	0.144	0.217
-517.902	-92.169	0.255	0.072
-516.887	-24.037	-0.422	0.252
-515.872	13.479	0.183	-0.142
-514.858	265.780	-0.094	0.164
-513.843	-31.218	-0.122	0.069
-512.829	270.971	-0.175	0.307
-511.814	-127.110	0.202	-0.030
-510.799	693.043	0.049	-0.129
-509.785	800.000	0.060	-0.167
-508.770	800.000	0.076	0.256
-507.756	-135.321	0.321	-0.038
-506.741	-162.866	-0.460	-0.022
-505.726	275.736	0.061	0.108
-504.712	-27.162	0.290	-0.169
-503.697	420.104	0.066	0.141
-502.683	-200.000	0.001	-0.072
-501.668	-142.931	-0.227	-0.022
-500.653	-18.750	-0.111	0.069
-499.639	-200.000	-0.027	-0.273
-498.624	-91.693	0.231	-0.065
-497.610	486.140	0.087	-0.198
-496.595	-40.655	-0.167	-0.086
-495.581	-133.348	0.065	-0.008
-494.566	-200.000	-0.072	0.322
-493.551	-13.878	0.064	0.041
-492.537	-13.954	-0.164	-0.106
-491.522	-99.542	0.122	0.031
-490.508	-105.770	0.095	-0.021
-489.493	543.934	-0.023	-0.055
-488.478	141.725	0.135	-0.178
-487.464	-102.226	0.277	0.066
-486.449	-20.410	0.130	-0.080
-485.435	-30.482	-0.067	-0.038
-484.420	-200.000	-0.001	-0.284
-483.405	68.725	-0.365	-0.373
-482.391	-200.000	0.105	-0.460
-481.376	-53.703	0.196	-0.089
-480.362	338.753	0.128	-0.248
-479.347	472.078	0.078	0.176
-478.332	-107.359	0.338	0.074
-477.318	-55.318	0.185	0.083
-476.303	-74.647	0.264	-0.095
-475.289	-66.343	0.016	0.006
-474.274	800.000	-0.053	0.191
-473.259	-93.113	-0.403	0.112
-472.245	-140.245	-0.089	-0.009
-471.230	800.000	0.054	0.189
-470.216	192.401	-0.219	-0.330
-469.201	-190.563	0.388	-0.004
-468.186	238.924	0.189	-0.313
-467.172	-0.591	-0.507	-0.359
-466.157	800.000	-0.064	-0.273
-465.143	-200.000	0.020	0.330
-464.128	251.345	-0.089	-0.150
-463.113	2.405	0.419	-0.302
-462.099	-200.000	-0.037	-0.426
-461.084	217.096	0.195	-0.309
-460.070	-200.000	-0.026	-0.149
-459.055	129.549	-0.101	-0.128
-458.040	-200.000	-0.068	0.390
-457.026	60.454	-0.188	0.185
-456.011	-24.697	-0.118	0.070
-454.997	63.347	0.150	0.149
-453.982	-88.981	0.416	0.123
-452.968	13.974	-0.088	0.068
-451.953	-60.625	-0.308	-0.130
-450.938	-106.931	-0.196	-0.043
-449.924	6.654	0.018	-0.013
-448.909	-200.000	0.015	0.414
-447.895	-115.606	0.303	-0.057
-446.880	-200.000	0.046	0.248
-445.865	-65.332	-0.292	-0.117
-444.851	222.088	0.057	0.091
-443.836	-2.690	-0.126	0.088
-442.822	-148.182	-0.310	-0.026
-441.807	14.888	0.298	-0.232
-440.792	-172.915	0.067	0.002
-439.778	673.967	0.031	-0.079
-438.763	-12.013	-0.359	-0.234
-437.749	-186.357	-0.142	-0.002
-436.734	-83.091	-0.267	-0.086
-435.719	-200.000	-0.017	-0.094
-434.705	-169.506	0.220	0.008
-433.690	25.552	-0.148	-0.123
-432.676	-73.323	-0.276	0.100
-431.661	-200.000	0.044	-0.211
-430.646	-92.167	-0.173	-0.049
-429.632	75.184	0.082	0.086
-428.617	-132.852	0.231	0.029
-427.603	-200.000	0.008	-0.106
-426.588	75.138	-0.144	0.151
-425.573	268.211	-0.219	0.381
-424.559	19.211	0.083	-0.067
-423.544	675.957	0.103	0.266
-422.530	59.043	0.234	-0.229
-421.515	-30.289	0.095	-0.054
-420.500	-200.000	0.008	-0.108
-419.486	-45.901	0.166	-0.081
-418.471	-170.352	0.110	0.004
-417.457	-146.063	0.082	-0.007
-416.442	-88.123	-0.199	0.059
-415.428	48.206	0.078	-0.072
-414.413	302.976	-0.036	0.066
-413.398	438.183	0.181	0.392
-412.384	9.643	-0.264	0.199
-411.369	-8.013	0.120	-0.081
-410.355	-120.119	-0.154	0.026
-409.340	-41.210	-0.131	0.067
-408.325	20.387	0.065	0.052
-407.311	-134.522	-0.023	-0.003
-406.296	230.143	-0.065	-0.105
-405.282	-10.902	-0.104	0.069
-404.267	27.537	0.037	0.031
-403.252	800.000	-0.083	-0.229
-402.238	800.000	0.066	0.255
-401.223	158.817	-0.112	0.154
-400.209	-71.156	-0.071	0.027
-399.194	-200.000	0.031	-0.225
-398.179	298.174	-0.108	-0.198
-397.165	512.367	-0.020	-0.046
-396.150	70.419	0.124	0.127
-395.136	8.192	-0.233	-0.173
-394.121	303.951	-0.140	-0.257
-393.106	301.296	-0.114	-0.208
-392.092	800.000	-0.062	-0.244
-391.077	-200.000	-0.026	-0.319
-390.063	-200.000	0.011	-0.185
-389.048	-29.114	0.471	-0.268
-388.033	-65.359	0.330	-0.132
-387.019	-74.156	-0.213	0.077
-386.004	592.406	-0.106	0.261
-384.990	376.698	0.067	0.136
-383.975	-200.000	0.024	0.162
-382.960	-176.487	0.522	0.013
-381.946	64.244	0.129	-0.129
-380.931	-72.383	-0.123	0.045
-379.917	-200.000	-0.000	-0.403
-378.902	-12.383	0.189	0.122
-377.888	-41.198	-0.043	-0.022
-376.873	88.217	-0.261	0.288
-375.858	90.483	0.201	0.223
-374.844	249.227	0.152	0.256
-373.829	3.296	-0.147	-0.106
-372.815	-68.684	0.427	-0.164
-371.800	-28.119	0.142	-0.082
-370.785	-81.217	0.163	0.053
-369.771	230.213	-0.016	0.026
-368.756	-83.386	-0.216	0.069
-367.742	96.568	0.055	-0.062
-366.727	-80.151	0.203	-0.068
-365.712	-115.330	0.256	0.048
-364.698	-38.604	-0.071	0.037
-363.683	-87.739	-0.219	-0.066
-362.669	-8.620	0.240	-0.160
-361.654	187.027	-0.168	-0.249
-360.639	285.890	0.045	-0.081
-359.625	0.986	0.229	-0.163
-358.610	45.502	-0.179	-0.164
-357.596	79.243	0.282	0.299
-356.581	498.662	-0.162	0.371
-355.566	-159.853	-0.289	-0.016
-354.552	-82.399	0.464	-0.149
-353.537	639.770	-0.010	-0.026
-352.523	28.427	-0.172	0.144
-351.508	-15.436	0.083	0.052
-350.493	787.293	0.120	-0.327
-349.479	-114.290	-0.386	0.074
-348.464	-75.992	0.386	-0.135
-347.450	-65.929	-0.099	-0.039
-346.435	-2.712	0.056	-0.039
-345.420	-56.230	0.197	0.087
-344.406	161.375	-0.067	-0.093
-343.391	-142.490	-0.148	-0.014
-342.377	-83.934	0.115	0.036
-341.362	-200.000	0.010	-0.175
-340.348	-110.504	0.339	-0.070
-339.333	101.554	0.084	-0.097
-338.318	-56.008	-0.267	0.118
-337.304	800.000	0.054	-0.160
-336.289	-140.991	0.183	0.019
-335.275	6.552	-0.014	0.010
-334.260	800.000	-0.135	-0.453
-333.245	-139.939	-0.210	0.022
-332.231	-181.051	-0.323	0.006
-331.216	468.450	0.071	-0.157
-330.202	-125.640	-0.124	-0.019
-329.187	-43.284	0.154	-0.077
-328.172	-200.000	0.039	-0.178
-327.158	427.480	-0.061	0.130
-326.143	-169.958	0.592	0.021
-325.129	-200.000	-0.004	0.124
-324.114	783.178	0.049	0.132
-323.099	260.402	0.069	-0.118
-322.085	115.771	-0.140	0.170
-321.070	-48.682	0.164	0.078
-320.056	326.924	-0.167	0.318
-319.041	116.942	-0.161	-0.196
-318.026	-200.000	0.003	0.212
-317.012	159.140	-0.125	0.172
-315.997	-62.368	0.304	-0.125
-314.983	-41.737	-0.169	0.086
-313.968	-136.921	-0.259	0.029
-312.953	181.716	-0.088	0.127
-311.939	29.491	0.074	-0.062
-310.924	-152.824	0.270	0.019
-309.910	380.148	-0.017	0.035
-308.895	-41.415	0.143	-0.073
-307.880	-31.829	-0.167	0.092
-306.866	-38.474	-0.195	0.102
-305.851	107.412	-0.252	0.296
-304.837	168.522	-0.091	-0.128
-303.822	-86.120	0.215	0.066
-302.807	-129.502	0.179	-0.024
-301.793	156.570	0.210	0.286
-300.778	-39.334	-0.037	0.019
-299.764	-200.000	-0.016	0.286
-298.749	131.641	-0.190	0.242
-297.735	-10.933	-0.091	-0.059
-296.720	163.792	0.111	0.155
-295.705	800.000	-0.070	-0.211
-294.691	-182.563	0.138	0.003
-293.676	-108.418	0.169	0.036
-292.662	-200.000	-0.003	-0.123
-291.647	787.950	-0.058	-0.158
-290.632	-70.069	0.321	-0.121
-289.618	-31.777	-0.288	-0.160
-288.603	-181.916	0.094	0.002
-287.589	498.454	-0.143	0.326
-286.574	800.000	0.062	-0.233
-285.559	-146.539	-0.355	0.031
-284.545	374.421	0.037	0.074
-283.530	-19.724	-0.168	0.103
-282.516	800.000	0.034	-0.134
-281.501	10.833	0.150	0.113
-280.486	-121.831	0.211	0.034
-279.472	-122.015	-0.252	0.041
-278.457	48.721	0.184	-0.171
-277.443	96.329	0.221	-0.250
-276.428	-189.798	-0.225	-0.003
-275.413	-81.649	0.268	0.087
-274.399	-51.772	0.114	0.052
-273.384	-82.723	-0.154	-0.049
-272.370	-200.000	-0.008	-0.250
-271.355	-200.000	-0.010	0.095
-270.340	-200.000	0.021	0.151
-269.326	-0.689	0.432	-0.303
-268.311	136.768	0.129	-0.166
-267.297	800.000	0.048	-0.169
-266.282	-111.798	0.095	-0.019
-265.267	210.560	0.071	0.110
-264.253	-200.000	0.042	-0.210
-263.238	-200.000	0.045	0.219
-262.224	3.136	-0.121	0.087
-261.209	-61.537	0.222	-0.092
-260.195	-51.704	0.170	0.078
-259.180	800.000	-0.101	0.374
-258.165	787.617	-0.093	-0.253
-257.151	-200.000	0.022	0.350
-256.136	-200.000	-0.036	0.173
-255.122	-133.289	0.403	0.050
-254.107	136.718	-0.092	0.118
-253.092	-11.128	-0.268	-0.174
-252.078	-109.902	-0.110	-0.023
-251.063	28.372	-0.295	-0.247
-250.049	-31.510	0.125	-0.069
-249.034	716.743	0.016	0.041
-248.019	123.133	0.082	0.102
-247.005	-180.955	0.270	0.005
-245.990	-30.542	-0.097	0.054
-244.976	65.401	-0.091	-0.091
-243.961	60.819	-0.108	0.106
-242.946	800.000	0.150	0.423
-241.932	714.918	0.034	-0.090
-240.917	800.000	-0.038	-0.114
-239.903	369.798	0.064	-0.128
-238.888	-200.000	0.022	0.103
-237.873	-200.000	-0.062	0.283
-236.859	-153.799	-0.249	-0.017
-235.844	-16.366	0.205	0.128
-234.830	-142.148	0.072	0.007
-233.815	23.077	0.371	0.300
-232.800	-200.000	0.040	0.353
-231.786	-200.000	-0.024	-0.130
-230.771	39.097	-0.121	-0.106
-229.757	-181.034	-0.284	0.006
-228.742	-200.000	-0.031	0.377
-227.727	205.459	0.085	0.130
-226.713	-101.429	-0.078	-0.019
-225.698	410.415	-0.126	-0.263
-224.684	-200.000	-0.065	0.427
-223.669	-111.702	0.135	-0.027
-222.655	-66.708	0.308	-0.121
-221.640	104.065	0.231	-0.268
-220.625	-200.000	0.016	0.314
-219.611	-200.000	-0.008	-0.313
-218.596	-200.000	0.006	0.074
-217.582	800.000	-0.051	-0.219
-216.567	-79.374	-0.376	0.125
-215.552	280.174	-0.195	-0.343
-214.538	-76.104	0.021	0.007
-213.523	196.465	-0.286	0.429
-212.509	303.915	0.171	-0.313
-211.494	-45.095	-0.134	0.066
-210.479	-80.741	-0.272	-0.089
-209.465	-162.889	0.204	-0.010
-208.450	-97.076	-0.134	0.034
-207.436	303.345	-0.032	0.059
-206.421	19.787	0.024	0.019
-205.406	82.961	-0.252	0.271
-204.392	-21.538	0.166	0.100
-203.377	341.767	-0.133	0.257
-202.363	51.886	-0.238	0.223
-201.348	149.024	0.074	0.099
-200.333	264.145	0.089	0.153
-199.319	800.000	-0.019	-0.082
-198.304	-74.736	-0.132	0.047
-197.290	-80.390	0.306	-0.101
-196.275	-26.062	-0.152	0.088
-195.260	-82.066	-0.121	0.039
-194.246	-126.370	0.059	0.009
-193.231	65.215	-0.162	0.161
-192.217	-173.129	-0.327	-0.010
-191.202	283.413	0.058	-0.102
-190.187	-200.000	0.145	0.000
-189.173	57.884	0.085	-0.082
-188.158	76.082	0.211	-0.220
-187.144	-109.358	0.092	-0.019
-186.129	-53.390	0.189	0.085
-185.114	-56.612	0.459	-0.200
-184.100	314.831	-0.104	0.194
-183.085	-47.087	-0.207	0.099
-182.071	11.392	-0.131	0.099
-181.056	800.000	0.109	0.364
-180.042	-161.685	0.183	0.009
-179.027	-32.085	-0.075	0.042
-178.012	123.899	0.108	0.134
-176.998	-136.647	0.229	0.026
-175.983	157.831	0.109	-0.149
-174.969	-200.000	0.020	-0.315
-173.954	-28.838	-0.162	0.092
-172.939	-132.650	-0.174	0.022
-171.925	-135.570	-0.279	0.033
-170.910	129.728	0.092	-0.116
-169.896	-185.881	-0.312	-0.005
-168.881	189.221	0.153	0.226
-167.866	-200.000	-0.027	-0.155
-166.852	-153.078	0.223	-0.015
-165.837	193.741	-0.138	-0.205
-164.823	226.946	-0.192	-0.307
-163.808	-83.863	0.129	0.040
-162.793	485.661	-0.049	0.109
-161.779	212.088	0.139	-0.215
-160.764	131.861	0.117	-0.148
-159.750	612.183	-0.098	-0.240
-158.735	800.000	-0.127	0.489
-157.720	784.187	0.081	0.218
-156.706	800.000	0.064	-0.261
-155.691	-68.300	0.253	-0.097
-154.677	18.429	0.254	0.199
-153.662	211.549	-0.023	0.036
-152.647	-36.149	0.227	-0.121
-151.633	428.603	-0.078	-0.166
-150.618	-7.369	0.033	-0.022
-149.604	80.035	-0.082	0.087
-148.589	-18.985	0.198	0.121
-147.574	-200.000	0.009	0.076
-146.560	-54.281	0.237	-0.106
-145.545	-77.205	0.363	-0.124
-144.531	-35.754	-0.398	-0.212
-143.516	610.191	-0.135	0.332
-142.502	800.000	-0.101	0.332
-141.487	-200.000	0.068	-0.386
-140.472	800.000	0.011	0.042
-139.458	800.000	0.149	0.410
-138.443	800.000	0.029	0.090
-137.429	35.415	-0.080	-0.069
-136.414	-63.144	0.182	0.074
-135.399	-200.000	-0.006	0.075
-134.385	43.889	-0.188	0.169
-133.370	-78.555	0.003	0.001
-132.356	-51.340	0.280	-0.129
-131.341	-200.000	0.026	-0.147
-130.326	-200.000	0.010	-0.079
-129.312	-200.000	-0.013	-0.101
-128.297	-200.000	-0.011	-0.193
-127.283	-200.000	0.243	-0.000
-126.268	-99.889	-0.199	0.049
-125.253	-149.818	-0.189	0.015
-124.239	-200.000	0.010	0.223
-123.224	-182.681	-0.309	0.006
-122.210	70.522	-0.082	-0.083
