DTS Sentinel unit serial number:	SN413079Multiplexer serial number:	ORYXHardware model number:	OX4-SRSoftware version number:	ORYX F/W v4.00 Oryx Data Collector v3.7.2.0data status	okinstallation	princeton_trtdifferential loss correction	single-endedforward channel	channel 2reverse channel	N/Adate	2019/09/12time	01:17:11forward acquisition time	60.00reverse acquisition time	0.00gamma	496.2192k internal	0.2326k external	0.2326temperature offset calibration	1.0090default loss term (dB/km)	0.3790temperature slope calibration	1.0000multiplexer offset coefficient	1.0000multiplexer slope coefficient	1.0000fibre end	0.00T internal ref (°C)	33.00T ext. ref 1 (°C)	2.07T ext. ref 2 (°C)	27.92length (m)	temperature (°C)	Stokes	anti-Stokes-747.200	-80.471	0.256	-0.086
-746.185	-200.000	0.084	0.508
-745.171	-110.005	0.243	-0.051
-744.156	389.340	-0.108	0.226
-743.142	-125.289	0.365	0.056
-742.127	48.313	-0.063	0.059
-741.112	-118.888	0.184	0.033
-740.098	-200.000	-0.039	-0.213
-739.083	-48.323	-0.217	-0.106
-738.069	-200.000	-0.026	0.300
-737.054	-8.554	0.363	0.246
-736.039	-132.590	-0.342	0.044
-735.025	800.000	-0.029	-0.119
-734.010	-87.764	-0.259	0.079
-732.996	45.636	-0.128	-0.120
-731.981	-200.000	-0.017	0.165
-730.966	-40.439	0.171	-0.089
-729.952	13.016	0.084	-0.066
-728.937	202.981	-0.093	-0.144
-727.923	149.010	0.080	-0.108
-726.908	221.904	-0.346	-0.561
-725.894	-200.000	0.117	0.000
-724.879	19.799	-0.148	-0.120
-723.864	-200.000	-0.018	0.272
-722.850	-74.280	-0.224	-0.082
-721.835	55.193	-0.145	-0.141
-720.821	319.556	0.055	-0.106
-719.806	46.120	-0.150	0.140
-718.791	-200.000	-0.023	-0.439
-717.777	-200.000	0.007	-0.145
-716.762	-200.000	-0.041	0.221
-715.748	46.858	0.210	-0.197
-714.733	204.401	-0.135	-0.211
-713.718	67.977	0.054	0.056
-712.704	443.616	0.166	-0.367
-711.689	450.556	-0.047	-0.105
-710.675	162.525	0.055	0.077
-709.660	84.488	0.135	-0.149
-708.645	63.438	0.205	0.207
-707.631	-148.489	-0.235	-0.019
-706.616	142.455	0.233	0.311
-705.602	800.000	-0.042	0.127
-704.587	170.594	-0.194	-0.279
-703.572	800.000	-0.031	-0.133
-702.558	-200.000	0.036	-0.316
-701.543	-200.000	-0.013	0.061
-700.529	-114.650	0.390	0.075
-699.514	-71.824	0.085	0.032
-698.499	100.240	-0.133	0.155
-697.485	-1.300	0.207	-0.147
-696.470	-78.860	0.052	-0.018
-695.456	414.653	-0.093	0.199
-694.441	-23.444	0.229	0.138
-693.426	-57.918	-0.158	-0.070
-692.412	219.362	-0.108	0.173
-691.397	4.900	0.241	-0.178
-690.383	142.778	0.297	-0.397
-689.368	-50.480	-0.249	-0.118
-688.354	-200.000	0.032	-0.244
-687.339	-200.000	0.041	0.204
-686.324	800.000	0.058	0.249
-685.310	-19.900	-0.090	0.056
-684.295	-24.334	0.260	-0.156
-683.281	800.000	-0.050	0.147
-682.266	86.753	-0.153	0.170
-681.251	0.486	0.248	0.178
-680.237	-115.279	0.113	-0.021
-679.222	-200.000	0.004	-0.242
-678.208	388.561	0.085	0.178
-677.193	500.537	0.111	0.258
-676.178	-142.751	-0.310	0.030
-675.164	800.000	-0.067	0.277
-674.149	32.813	0.204	0.177
-673.135	-14.711	-0.047	-0.030
-672.120	-88.739	0.148	0.044
-671.105	-46.295	-0.180	-0.089
-670.091	176.906	-0.138	-0.202
-669.076	487.796	0.059	-0.134
-668.062	144.418	-0.321	-0.431
-667.047	-89.397	0.307	-0.091
-666.032	-68.086	-0.371	0.145
-665.018	-200.000	-0.039	0.465
-664.003	655.937	-0.058	0.149
-662.989	223.785	0.155	0.251
-661.974	-200.000	-0.018	-0.303
-660.959	-104.990	0.077	-0.018
-659.945	-39.643	-0.226	0.119
-658.930	-80.827	-0.212	0.071
-657.916	281.234	0.039	-0.069
-656.901	-58.621	0.173	0.075
-655.886	800.000	0.042	0.173
-654.872	-55.822	-0.110	-0.049
-653.857	-93.096	0.061	0.017
-652.843	-200.000	0.023	0.578
-651.828	377.891	0.136	0.280
-650.814	102.351	-0.077	0.090
-649.799	-200.000	-0.034	0.240
-648.784	-67.268	-0.051	0.020
-647.770	-131.932	0.146	0.019
-646.755	21.186	-0.172	0.140
-645.741	-200.000	0.006	-0.243
-644.726	-154.640	-0.154	0.010
-643.711	-59.875	-0.412	0.177
-642.697	-127.522	0.226	-0.033
-641.682	-200.000	0.042	-0.275
-640.668	93.756	-0.172	-0.196
-639.653	430.439	0.095	0.206
-638.638	148.834	-0.192	0.261
-637.624	-58.466	-0.231	0.101
-636.609	-200.000	-0.024	-0.313
-635.595	112.815	0.146	-0.178
-634.580	-30.869	0.317	0.180
-633.565	800.000	0.128	0.409
-632.551	170.601	0.112	0.162
-631.536	155.413	0.127	-0.175
-630.522	-33.498	-0.121	0.067
-629.507	-92.007	0.144	0.041
-628.492	96.598	0.154	-0.178
-627.478	-131.546	-0.172	-0.023
-626.463	-69.511	-0.333	0.128
-625.449	248.992	-0.117	0.199
-624.434	553.190	-0.120	0.291
-623.419	-200.000	0.032	0.178
-622.405	-200.000	0.014	-0.089
-621.390	-61.648	-0.221	0.093
-620.376	-200.000	-0.058	0.513
-619.361	-34.399	0.201	-0.111
-618.346	-23.692	-0.218	-0.131
-617.332	-167.463	-0.279	-0.011
-616.317	88.986	-0.034	-0.038
-615.303	109.931	-0.028	0.034
-614.288	38.089	0.142	0.127
-613.273	76.196	-0.111	-0.118
-612.259	-69.069	-0.057	-0.022
-611.244	800.000	-0.061	-0.179
-610.230	800.000	0.011	0.041
-609.215	161.734	-0.203	-0.286
-608.201	292.863	0.111	-0.202
-607.186	800.000	0.065	-0.208
-606.171	-200.000	-0.046	0.222
-605.157	-6.761	-0.008	0.006
-604.142	-200.000	0.031	-0.176
-603.128	-100.398	-0.190	-0.047
-602.113	-75.212	-0.201	-0.072
-601.098	53.358	0.120	-0.115
-600.084	800.000	0.048	-0.164
-599.069	-102.910	-0.234	-0.056
-598.055	84.845	-0.068	0.075
-597.040	-125.468	-0.173	0.026
-596.025	-119.860	-0.256	0.044
-595.011	348.453	0.173	-0.342
-593.996	-84.390	0.111	-0.035
-592.982	-200.000	0.014	-0.203
-591.967	556.400	0.082	0.198
-590.952	-32.936	-0.072	-0.040
-589.938	-91.213	-0.175	-0.050
-588.923	99.517	-0.190	-0.220
-587.909	-1.179	-0.144	-0.102
-586.894	46.435	-0.233	-0.217
-585.879	-200.000	0.009	0.185
-584.865	79.576	-0.192	0.207
-583.850	-197.857	0.069	-0.000
-582.836	800.000	0.032	0.092
-581.821	-11.432	-0.155	-0.102
-580.806	-93.944	-0.341	0.094
-579.792	-170.407	-0.249	-0.009
-578.777	458.505	0.164	0.365
-577.763	126.688	-0.256	0.325
-576.748	621.546	-0.024	0.062
-575.733	-17.311	-0.370	-0.234
-574.719	-200.000	-0.001	-0.102
-573.704	350.502	0.101	0.200
-572.690	-173.402	-0.106	-0.003
-571.675	35.271	-0.292	0.257
-570.661	-7.709	0.064	-0.044
-569.646	800.000	-0.122	-0.339
-568.631	-145.612	0.282	0.025
-567.617	800.000	-0.029	-0.091
-566.602	800.000	0.098	-0.408
-565.588	100.222	-0.231	-0.268
-564.573	-200.000	0.002	-0.106
-563.558	800.000	-0.030	-0.109
-562.544	63.755	0.216	-0.218
-561.529	-200.000	0.018	-0.094
-560.515	800.000	-0.041	-0.119
-559.500	-26.643	-0.167	0.098
-558.485	800.000	0.074	-0.287
-557.471	-55.750	0.336	0.151
-556.456	429.988	-0.026	0.056
-555.442	70.674	0.180	-0.187
-554.427	-76.584	-0.058	-0.020
-553.412	227.895	-0.127	-0.206
-552.398	89.641	0.263	-0.294
-551.383	-2.056	-0.319	-0.224
-550.369	-133.135	0.152	0.019
-549.354	79.278	0.124	0.134
-548.339	-91.032	0.188	-0.054
-547.325	68.497	0.120	0.123
-546.310	-200.000	-0.061	-0.286
-545.296	800.000	0.036	0.122
-544.281	-170.132	0.143	0.005
-543.266	78.352	0.148	-0.159
-542.252	669.405	0.069	0.179
-541.237	-200.000	0.012	-0.088
-540.223	-31.149	-0.077	0.043
-539.208	-27.564	0.093	0.054
-538.193	-41.709	-0.089	0.046
-537.179	-72.187	-0.330	-0.123
-536.164	-30.993	-0.136	0.077
-535.150	-200.000	-0.009	-0.231
-534.135	-94.138	-0.307	-0.084
-533.121	-200.000	0.013	-0.154
-532.106	762.636	0.122	0.332
-531.091	-200.000	-0.008	0.385
-530.077	800.000	-0.063	0.244
-529.062	-100.371	0.053	-0.013
-528.048	800.000	-0.043	-0.134
-527.033	74.219	0.011	-0.012
-526.018	-200.000	0.075	0.473
-525.004	-39.811	-0.187	-0.098
-523.989	-200.000	0.002	-0.043
-522.975	-92.968	0.121	0.034
-521.960	59.598	-0.122	-0.120
-520.945	26.818	-0.079	0.066
-519.931	-21.830	-0.283	-0.172
-518.916	169.113	0.097	-0.139
-517.902	-104.102	-0.111	0.026
-516.887	271.130	0.163	0.286
-515.872	-171.042	0.038	-0.001
-514.858	642.595	0.035	0.088
-513.843	-200.000	0.014	0.149
-512.829	4.809	-0.224	0.164
-511.814	-47.592	0.123	0.060
-510.799	-165.035	0.141	0.006
-509.785	255.054	-0.117	0.201
-508.770	37.571	0.131	-0.116
-507.756	-200.000	0.016	-0.439
-506.741	112.195	0.077	0.093
-505.726	800.000	-0.046	0.176
-504.712	-200.000	0.003	-0.550
-503.697	468.622	0.097	-0.217
-502.683	-136.848	0.049	-0.006
-501.668	-11.499	0.288	0.189
-500.653	-99.580	-0.084	-0.021
-499.639	-39.965	-0.225	0.117
-498.624	-140.997	0.066	-0.007
-497.610	-200.000	-0.018	0.113
-496.595	36.426	-0.267	0.235
-495.581	-105.720	-0.094	-0.021
-494.566	-200.000	-0.041	-0.264
-493.551	-173.577	-0.249	0.007
-492.537	-66.935	-0.237	0.093
-491.522	87.322	0.226	-0.250
-490.508	-13.496	-0.075	0.048
-489.493	-174.845	-0.199	-0.006
-488.478	-122.933	0.114	0.018
-487.464	-200.000	0.021	-0.151
-486.449	-132.724	-0.072	0.009
-485.435	-200.000	-0.024	-0.391
-484.420	-200.000	0.034	-0.211
-483.405	-200.000	0.090	-0.499
-482.391	-55.381	-0.165	0.074
-481.376	-134.659	0.300	0.037
-480.362	-102.758	0.240	0.057
-479.347	800.000	-0.052	-0.217
-478.332	61.661	-0.073	-0.073
-477.318	-97.327	0.093	0.024
-476.303	38.299	0.330	-0.293
-475.289	296.876	-0.155	0.283
-474.274	-51.302	0.397	-0.186
-473.259	326.757	0.117	0.225
-472.245	62.606	-0.127	-0.127
-471.230	431.602	-0.116	-0.250
-470.216	4.695	-0.261	-0.191
-469.201	-200.000	0.010	0.098
-468.186	-112.284	-0.071	-0.014
-467.172	800.000	0.029	-0.121
-466.157	-200.000	-0.031	-0.308
-465.143	-200.000	-0.032	0.372
-464.128	383.924	-0.119	0.243
-463.113	-200.000	0.023	0.375
-462.099	643.978	-0.054	0.138
-461.084	-40.381	0.340	0.176
-460.070	339.241	0.068	0.132
-459.055	-200.000	0.067	-0.322
-458.040	800.000	-0.072	0.267
-457.026	-48.413	0.167	0.080
-456.011	-182.923	0.209	0.004
-454.997	-197.185	-0.193	0.001
-453.982	-200.000	-0.022	0.099
-452.968	800.000	-0.084	-0.297
-451.953	64.013	0.145	-0.145
-450.938	164.433	-0.161	-0.226
-449.924	139.741	-0.342	-0.450
-448.909	41.171	-0.043	0.039
-447.895	-200.000	0.089	0.000
-446.880	75.597	-0.097	-0.102
-445.865	-21.317	0.260	0.158
-444.851	57.985	-0.228	0.223
-443.836	318.974	-0.084	0.159
-442.822	800.000	0.090	-0.307
-441.807	141.623	0.146	-0.193
-440.792	-113.703	-0.419	-0.081
-439.778	-93.142	-0.158	-0.044
-438.763	800.000	0.052	0.161
-437.749	261.391	-0.158	-0.272
-436.734	-200.000	0.006	0.159
-435.719	-177.041	0.189	-0.005
-434.705	52.559	-0.165	0.157
-433.690	800.000	0.011	-0.034
-432.676	282.244	-0.092	0.165
-431.661	-153.650	0.198	-0.014
-430.646	-57.952	-0.070	-0.031
-429.632	-200.000	0.011	-0.066
-428.617	-28.525	0.166	-0.095
-427.603	147.322	0.093	0.124
-426.588	34.594	0.092	0.080
-425.573	-128.130	0.297	0.042
-424.559	800.000	0.051	0.166
-423.544	49.242	0.157	-0.147
-422.530	-96.750	-0.269	-0.071
-421.515	292.109	0.142	0.257
-420.500	-61.905	-0.167	0.069
-419.486	800.000	0.086	0.246
-418.471	-97.604	-0.332	-0.086
-417.457	-59.206	0.239	-0.102
-416.442	-200.000	0.251	-0.001
-415.428	-149.665	0.237	0.019
-414.413	-146.413	-0.359	-0.031
-413.398	-76.225	-0.090	-0.032
-412.384	4.403	0.136	0.099
-411.369	239.205	-0.049	-0.082
-410.355	47.402	0.118	0.110
-409.340	-200.000	0.015	-0.236
-408.325	-103.517	0.315	-0.074
-407.311	-200.000	0.006	-0.038
-406.296	93.723	0.209	0.236
-405.282	-200.000	0.021	-0.200
-404.267	-65.360	-0.116	-0.046
-403.252	-200.000	0.027	-0.165
-402.238	-57.900	-0.301	0.131
-401.223	35.886	0.126	0.110
-400.209	-35.790	0.256	0.138
-399.194	-54.116	0.391	-0.177
-398.179	-11.608	0.097	0.063
-397.165	-200.000	-0.011	0.198
-396.150	377.514	0.194	-0.395
-395.136	-71.751	-0.082	-0.030
-394.121	9.396	-0.324	-0.244
-393.106	216.655	0.154	0.243
-392.092	-200.000	-0.006	-0.228
-391.077	800.000	-0.094	0.293
-390.063	202.426	-0.038	-0.059
-389.048	-184.134	0.011	0.000
-388.033	52.361	-0.075	0.071
-387.019	-200.000	0.036	0.233
-386.004	130.116	0.009	-0.011
-384.990	800.000	-0.063	0.233
-383.975	-110.373	-0.233	-0.048
-382.960	45.017	0.290	-0.266
-381.946	-200.000	-0.008	-0.203
-380.931	-200.000	0.003	-0.188
-379.917	147.506	0.221	-0.296
-378.902	184.942	0.178	0.263
-377.888	-13.596	0.310	-0.200
-376.873	-32.756	-0.161	-0.089
-375.858	800.000	-0.103	0.412
-374.844	1.889	-0.135	0.097
-373.829	-166.294	0.243	-0.010
-372.815	426.241	0.169	-0.363
-371.800	27.640	0.170	0.142
-370.785	-96.244	-0.340	-0.090
-369.771	-200.000	-0.005	-0.309
-368.756	-200.000	0.000	-0.384
-367.742	-22.383	0.010	0.006
-366.727	42.375	0.226	0.204
-365.712	-200.000	-0.017	-0.088
-364.698	-80.080	0.157	0.052
-363.683	-55.084	0.164	0.073
-362.669	-126.828	-0.396	0.058
-361.654	-0.861	-0.132	0.093
-360.639	-145.360	-0.144	0.013
-359.625	800.000	0.022	0.086
-358.610	-43.057	0.245	0.124
-357.596	-55.313	-0.183	-0.082
-356.581	-155.401	0.342	0.022
-355.566	-28.647	-0.144	0.082
-354.552	-83.181	-0.233	-0.074
-353.537	219.792	-0.114	0.181
-352.523	221.359	0.062	-0.098
-351.508	-62.767	0.183	-0.075
-350.493	404.174	0.069	-0.145
-349.479	-109.916	0.246	-0.051
-348.464	-25.698	-0.154	0.090
-347.450	-96.119	0.158	-0.042
-346.435	-79.085	0.322	-0.109
-345.420	-40.443	-0.114	-0.059
-344.406	122.398	-0.012	0.015
-343.391	-200.000	-0.045	0.244
-342.377	-79.773	0.084	0.028
-341.362	83.564	-0.116	0.125
-340.348	330.853	-0.187	0.358
-339.333	-114.130	-0.191	-0.037
-338.318	59.595	-0.253	0.248
-337.304	-160.959	-0.208	0.011
-336.289	-49.634	-0.087	0.041
-335.275	-85.243	0.075	0.023
-334.260	7.836	-0.076	-0.056
-333.245	44.308	-0.271	-0.247
-332.231	-81.686	-0.211	-0.069
-331.216	-200.000	0.035	0.375
-330.202	-79.351	-0.329	0.110
-329.187	84.279	0.031	-0.034
-328.172	270.992	-0.058	0.102
-327.158	800.000	0.016	0.045
-326.143	-200.000	-0.017	-0.277
-325.129	152.215	-0.129	-0.175
-324.114	800.000	-0.078	-0.271
-323.099	-32.655	0.218	0.120
-322.085	92.292	-0.114	-0.128
-321.070	-27.327	0.224	-0.129
-320.056	-122.405	0.166	0.027
-319.041	-200.000	0.005	-0.231
-318.026	31.718	0.242	0.206
-317.012	-183.787	-0.059	-0.001
-315.997	187.477	0.265	0.392
-314.983	-37.062	0.265	-0.141
-313.968	190.390	-0.090	-0.134
-312.953	65.075	0.134	-0.134
-311.939	-44.838	-0.128	0.063
-310.924	11.576	0.142	0.108
-309.910	274.148	-0.142	-0.250
-308.895	141.661	-0.049	0.064
-307.880	120.291	0.181	0.222
-306.866	452.268	-0.104	0.227
-305.851	-199.011	0.254	0.001
-304.837	-200.000	-0.038	-0.300
-303.822	-70.882	0.240	-0.090
-302.807	38.821	-0.092	-0.082
-301.793	-200.000	-0.066	0.387
-300.778	-187.409	-0.209	-0.003
-299.764	-200.000	-0.015	-0.088
-298.749	120.465	-0.066	-0.081
-297.735	-200.000	-0.511	0.002
-296.720	-59.502	0.137	0.058
-295.705	-185.521	0.366	0.006
-294.691	566.517	0.092	-0.221
-293.676	-200.000	0.042	-0.187
-292.662	-174.007	0.090	-0.003
-291.647	800.000	0.097	0.307
-290.632	311.124	-0.024	-0.045
-289.618	-200.000	-0.010	-0.213
-288.603	719.571	0.120	0.316
-287.589	-116.048	0.166	0.031
-286.574	800.000	0.016	0.058
-285.559	800.000	-0.060	0.196
-284.545	-200.000	-0.006	0.107
-283.530	-200.000	0.071	-0.407
-282.516	-5.005	-0.308	-0.210
-281.501	14.106	-0.097	-0.075
-280.486	-133.408	-0.077	0.010
-279.472	228.010	0.132	-0.212
-278.457	-133.068	0.483	-0.061
-277.443	-69.411	-0.096	-0.036
-276.428	800.000	-0.026	0.080
-275.413	122.596	0.211	0.261
-274.399	246.838	0.051	0.085
-273.384	-87.221	-0.165	-0.050
-272.370	178.768	0.075	-0.108
-271.355	-8.970	0.162	-0.107
-270.340	196.990	-0.244	0.368
-269.326	547.322	0.055	0.131
-268.311	-200.000	0.007	0.201
-267.297	296.889	0.141	-0.256
-266.282	247.714	0.091	-0.152
-265.267	-139.415	-0.192	0.020
-264.253	-200.000	0.024	0.145
-263.238	-67.625	0.385	-0.149
-262.224	-200.000	0.009	-0.116
-261.209	-96.548	0.147	-0.038
-260.195	87.824	-0.057	0.062
-259.180	-200.000	0.007	0.279
-258.165	-200.000	-0.003	0.111
-257.151	-96.061	0.262	0.069
-256.136	25.435	0.165	0.135
-255.122	-200.000	0.005	-0.119
-254.107	91.472	-0.334	-0.371
-253.092	-32.536	-0.192	-0.106
-252.078	-121.333	-0.423	0.070
-251.063	128.842	-0.320	-0.403
-250.049	-183.937	0.185	-0.003
-249.034	-69.154	0.281	0.107
-248.019	-14.159	0.151	-0.097
-247.005	800.000	0.098	-0.347
-245.990	-180.571	0.126	0.003
-244.976	31.046	-0.106	0.090
-243.961	141.693	0.088	0.115
-242.946	170.626	0.193	0.274
-241.932	-148.598	0.424	-0.034
-240.917	5.748	-0.195	0.142
-239.903	-200.000	0.014	0.307
-238.888	-106.892	0.166	-0.036
-237.873	-67.493	0.110	0.043
-236.859	-124.881	-0.205	0.031
-235.844	-95.406	0.148	0.039
-234.830	-93.688	0.098	-0.027
-233.815	-200.000	0.007	0.289
-232.800	13.851	-0.288	0.222
-231.786	41.004	0.116	0.103
-230.771	-104.852	0.116	-0.026
-229.757	546.637	0.082	-0.194
-228.742	153.013	-0.108	-0.146
-227.727	47.188	-0.037	0.034
-226.713	-105.092	0.352	-0.079
-225.698	272.220	0.103	0.179
-224.684	-200.000	0.032	0.271
-223.669	800.000	0.017	-0.049
-222.655	-91.375	0.263	-0.074
-221.640	-159.150	-0.184	0.010
-220.625	-200.000	-0.007	0.324
-219.611	-1.760	0.225	0.157
-218.596	-98.464	0.197	0.050
-217.582	125.464	0.281	-0.351
-216.567	-43.857	-0.227	0.113
-215.552	24.651	0.064	0.052
-214.538	-200.000	-0.011	0.100
-213.523	-125.544	-0.105	0.016
-212.509	-101.365	0.370	-0.089
-211.494	-126.272	-0.308	0.045
-210.479	-200.000	0.001	0.213
-209.465	237.447	0.180	0.295
-208.450	-200.000	0.054	0.247
-207.436	800.000	-0.074	0.234
-206.421	-185.838	0.230	-0.003
-205.406	156.154	0.087	-0.118
-204.392	-90.482	-0.170	-0.049
-203.377	469.189	0.164	-0.363
-202.363	-129.440	-0.167	0.023
-201.348	800.000	-0.035	0.147
-200.333	-66.874	-0.339	-0.132
-199.319	800.000	-0.091	0.329
-198.304	-0.754	-0.170	-0.119
-197.290	-92.650	0.343	-0.095
-196.275	800.000	0.076	0.227
-195.260	-200.000	0.100	0.508
-194.246	-22.551	-0.339	-0.202
-193.231	229.112	0.095	-0.153
-192.217	-51.732	0.088	0.041
-191.202	538.880	0.084	-0.197
-190.187	296.886	-0.058	0.105
-189.173	-112.988	0.107	0.021
-188.158	-37.841	0.117	0.062
-187.144	40.508	-0.107	0.095
-186.129	-62.368	-0.214	-0.088
-185.114	-74.609	0.115	0.041
-184.100	222.262	0.072	0.114
-183.085	-61.964	-0.215	0.089
-182.071	31.325	-0.129	-0.110
-181.056	400.463	0.152	0.316
-180.042	-60.759	0.091	0.038
-179.027	-200.000	-0.031	-0.191
-178.012	27.175	0.229	0.189
-176.998	800.000	0.022	0.080
-175.983	-9.091	-0.249	0.165
-174.969	-45.063	0.044	-0.021
-173.954	-15.527	0.209	0.132
-172.939	-70.050	-0.313	0.118
-171.925	800.000	0.023	0.076
-170.910	-200.000	-0.015	0.090
-169.896	-136.488	-0.089	-0.010
-168.881	800.000	-0.043	-0.178
-167.866	-80.287	0.198	0.065
-166.852	-86.012	0.293	0.089
-165.837	25.876	-0.150	-0.123
-164.823	-57.394	-0.209	0.091
-163.808	173.734	0.180	0.256
-162.793	-200.000	-0.020	-0.262
-161.779	800.000	0.038	0.134
-160.764	243.334	0.051	-0.084
-159.750	322.812	-0.160	-0.301
-158.735	-89.619	0.092	0.027
-157.720	-54.509	-0.142	0.063
-156.706	32.833	-0.052	0.045
-155.691	83.388	0.088	-0.094
-154.677	-200.000	-0.056	0.334
-153.662	524.324	0.067	-0.154
-152.647	72.068	0.152	0.156
-151.633	-124.075	-0.439	-0.068
-150.618	800.000	0.121	-0.363
-149.604	-200.000	0.046	-0.383
-148.589	4.687	0.120	0.087
-147.574	158.738	0.162	-0.222
-146.560	-200.000	0.031	-0.233
-145.545	-116.904	0.125	-0.023
-144.531	288.876	-0.078	0.139
-143.516	34.401	-0.198	-0.170
-142.502	146.988	-0.078	-0.103
-141.487	-73.958	-0.202	0.072
-140.472	32.289	-0.235	-0.200
-139.458	-200.000	0.026	0.125
-138.443	-133.876	0.225	0.027
-137.429	23.501	-0.178	-0.144
-136.414	-120.036	0.076	0.013
-135.399	-165.953	-0.342	0.014
-134.385	-189.609	-0.166	-0.002
-133.370	-67.218	0.246	0.095
-132.356	800.000	-0.125	0.525
-131.341	254.259	-0.113	0.191
-130.326	95.264	-0.010	0.011
-129.312	64.069	0.097	-0.096
-128.297	-74.556	0.214	-0.076
-127.283	582.378	0.050	0.120
-126.268	-130.767	0.133	-0.018
-125.253	-200.000	0.005	-0.197
-124.239	-114.608	-0.145	0.027
-123.224	-110.124	-0.113	0.023
-122.210	-67.056	-0.325	-0.126
-121.195	800.000	0.153	0.437
