DTS Sentinel unit serial number:	SN413079Multiplexer serial number:	ORYXHardware model number:	OX4-SRSoftware version number:	ORYX F/W v4.00 Oryx Data Collector v3.7.2.0data status	okinstallation	princeton_trtdifferential loss correction	single-endedforward channel	channel 2reverse channel	N/Adate	2019/09/12time	00:01:10forward acquisition time	60.00reverse acquisition time	0.00gamma	496.2192k internal	0.2325k external	0.2325temperature offset calibration	1.0084default loss term (dB/km)	0.3790temperature slope calibration	1.0000multiplexer offset coefficient	1.0000multiplexer slope coefficient	1.0000fibre end	0.00T internal ref (°C)	33.75T ext. ref 1 (°C)	2.00T ext. ref 2 (°C)	28.29length (m)	temperature (°C)	Stokes	anti-Stokes-747.200	75.761	0.198	0.211
-746.185	-200.000	-0.016	0.212
-745.171	79.524	-0.212	0.229
-744.156	800.000	-0.042	0.176
-743.142	-44.927	-0.362	0.182
-742.127	67.165	-0.103	0.106
-741.112	-147.374	0.227	0.019
-740.098	800.000	-0.014	-0.062
-739.083	800.000	-0.085	0.298
-738.069	305.660	0.151	0.283
-737.054	-68.399	-0.323	-0.127
-736.039	671.576	-0.139	0.364
-735.025	-200.000	-0.037	0.225
-734.010	-200.000	-0.003	0.184
-732.996	-200.000	-0.087	0.395
-731.981	-117.791	-0.101	-0.018
-730.966	-75.947	0.012	-0.004
-729.952	-200.000	0.008	0.204
-728.937	800.000	0.061	0.195
-727.923	-95.623	-0.338	0.091
-726.908	256.483	0.126	0.218
-725.894	-57.203	-0.019	-0.008
-724.879	-93.203	0.181	-0.051
-723.864	69.213	0.295	0.306
-722.850	-137.279	-0.239	-0.027
-721.835	516.756	-0.075	0.177
-720.821	-55.413	0.232	-0.105
-719.806	0.345	-0.405	-0.291
-718.791	139.047	-0.226	0.300
-717.777	-200.000	0.008	0.119
-716.762	-147.827	-0.255	0.021
-715.748	543.985	-0.062	0.148
-714.733	707.291	0.063	0.168
-713.718	-191.158	-0.097	0.001
-712.704	52.296	-0.210	-0.202
-711.689	-105.312	-0.178	-0.041
-710.675	-112.000	-0.258	0.052
-709.660	-200.000	0.009	-0.168
-708.645	104.630	0.146	-0.173
-707.631	-200.000	-0.006	0.059
-706.616	800.000	-0.081	0.241
-705.602	800.000	-0.055	0.230
-704.587	-83.784	0.259	-0.083
-703.572	-33.671	0.156	-0.086
-702.558	-39.280	-0.221	-0.117
-701.543	-98.126	0.093	0.024
-700.529	-109.075	0.275	-0.059
-699.514	-40.267	0.370	-0.194
-698.499	272.827	-0.004	0.007
-697.485	208.179	-0.174	-0.273
-696.470	-103.371	-0.252	-0.060
-695.456	-200.000	0.010	0.162
-694.441	800.000	-0.063	0.178
-693.426	44.636	-0.238	0.221
-692.412	493.906	-0.068	0.157
-691.397	-87.017	0.415	-0.127
-690.383	-62.929	0.119	-0.050
-689.368	-36.751	-0.295	-0.160
-688.354	800.000	-0.020	-0.066
-687.339	-71.437	-0.045	0.017
-686.324	-200.000	-0.003	-0.420
-685.310	274.263	-0.128	-0.229
-684.295	-200.000	0.016	0.210
-683.281	-105.538	0.208	0.048
-682.266	-53.552	0.180	0.083
-681.251	72.966	-0.143	0.151
-680.237	-21.049	-0.137	0.084
-679.222	118.515	-0.105	-0.130
-678.208	113.328	0.119	0.145
-677.193	-153.558	0.143	-0.010
-676.178	-133.873	-0.275	0.034
-675.164	48.038	0.101	0.095
-674.149	280.514	-0.177	0.319
-673.135	22.270	0.054	0.045
-672.120	-56.959	0.074	-0.033
-671.105	-177.654	0.157	0.004
-670.091	56.962	-0.213	-0.209
-669.076	-21.266	0.073	0.045
-668.062	-60.884	0.182	-0.077
-667.047	62.655	0.144	0.145
-666.032	542.317	0.145	0.348
-665.018	62.725	-0.169	0.170
-664.003	800.000	0.043	0.127
-662.989	140.522	0.132	-0.175
-661.974	-128.552	0.261	0.037
-660.959	329.764	0.082	-0.160
-659.945	197.184	-0.158	-0.243
-658.930	42.520	-0.178	0.163
-657.916	399.844	-0.096	0.203
-656.901	-110.174	-0.482	-0.101
-655.886	-58.902	-0.192	-0.083
-654.872	-159.178	0.188	0.011
-653.857	2.899	0.217	0.159
-652.843	-200.000	0.038	0.210
-651.828	-44.794	-0.199	0.100
-650.814	-124.090	-0.257	-0.041
-649.799	-86.609	0.240	0.074
-648.784	-200.000	-0.006	-0.101
-647.770	-123.662	0.113	0.018
-646.755	239.295	0.031	0.053
-645.741	70.221	0.108	0.112
-644.726	509.463	0.014	-0.032
-643.711	-39.052	-0.217	-0.115
-642.697	800.000	0.059	0.215
-641.682	-161.630	0.363	0.019
-640.668	-200.000	-0.004	0.159
-639.653	239.205	0.089	-0.149
-638.638	-53.047	-0.192	-0.089
-637.624	68.513	-0.278	0.287
-636.609	92.556	-0.107	-0.121
-635.595	-159.114	-0.165	-0.009
-634.580	274.107	0.088	0.156
-633.565	-200.000	-0.008	-0.179
-632.551	119.493	-0.053	-0.066
-631.536	112.458	-0.112	-0.136
-630.522	-120.039	0.369	-0.064
-629.507	49.089	-0.129	-0.121
-628.492	-200.000	-0.005	-0.544
-627.478	800.000	-0.099	0.317
-626.463	-78.105	0.238	-0.082
-625.449	102.093	0.155	-0.182
-624.434	20.513	0.122	-0.099
-623.419	136.305	-0.194	0.255
-622.405	257.587	-0.115	-0.199
-621.390	-200.000	-0.050	0.276
-620.376	305.747	-0.213	-0.398
-619.361	31.213	-0.019	-0.016
-618.346	-25.736	-0.297	0.176
-617.332	-200.000	-0.013	-0.086
-616.317	-63.146	-0.195	-0.081
-615.303	-200.000	-0.023	-0.218
-614.288	91.201	0.045	-0.050
-613.273	-145.194	-0.210	0.019
-612.259	167.012	0.031	-0.045
-611.244	12.200	0.337	-0.260
-610.230	-200.000	-0.065	0.600
-609.215	262.936	0.116	-0.202
-608.201	457.104	-0.141	0.314
-607.186	304.169	-0.074	0.137
-606.171	-116.629	-0.315	-0.058
-605.157	186.583	-0.232	0.347
-604.142	-155.532	0.262	-0.017
-603.128	-61.828	-0.268	0.113
-602.113	-21.438	-0.322	-0.197
-601.098	-102.170	-0.257	-0.062
-600.084	-105.963	-0.306	0.069
-599.069	497.745	-0.057	0.131
-598.055	-160.684	-0.372	0.020
-597.040	144.997	0.026	-0.035
-596.025	-200.000	-0.050	-0.225
-595.011	75.153	0.203	0.215
-593.996	153.525	0.127	-0.174
-592.982	40.828	-0.237	-0.214
-591.967	94.624	-0.097	-0.110
-590.952	698.992	0.066	-0.175
-589.938	-200.000	-0.044	0.218
-588.923	236.358	0.081	-0.134
-587.909	153.190	0.076	0.104
-586.894	240.018	0.290	0.484
-585.879	800.000	-0.052	-0.159
-584.865	385.993	0.118	-0.245
-583.850	185.305	-0.066	0.098
-582.836	570.159	0.029	0.071
-581.821	657.417	-0.093	-0.238
-580.806	415.385	-0.060	-0.128
-579.792	-120.789	0.350	0.059
-578.777	-200.000	0.004	0.023
-577.763	-124.696	0.240	0.037
-576.748	-86.310	0.186	-0.057
-575.733	322.833	-0.029	-0.055
-574.719	-109.071	0.150	-0.032
-573.704	-200.000	0.071	-0.342
-572.690	-92.616	-0.076	-0.022
-571.675	-131.643	0.180	-0.024
-570.661	367.697	0.196	0.397
-569.646	-200.000	-0.050	-0.293
-568.631	-62.175	-0.339	0.142
-567.617	-61.642	0.299	0.126
-566.602	-148.312	0.210	-0.017
-565.588	-72.492	-0.211	0.078
-564.573	-108.084	-0.154	-0.033
-563.558	2.672	-0.087	0.063
-562.544	-200.000	0.106	0.520
-561.529	-200.000	-0.028	-0.252
-560.515	-200.000	0.021	-0.389
-559.500	511.715	-0.071	0.166
-558.485	-153.054	0.173	-0.012
-557.471	-188.874	0.173	-0.002
-556.456	3.077	-0.102	-0.075
-555.442	-47.157	-0.271	0.132
-554.427	34.135	-0.211	0.184
-553.412	-200.000	-0.001	-0.328
-552.398	-200.000	0.026	0.281
-551.383	800.000	0.082	-0.258
-550.369	767.687	0.099	-0.269
-549.354	150.704	-0.043	0.058
-548.339	-65.546	-0.143	-0.057
-547.325	800.000	-0.024	0.069
-546.310	-64.269	0.173	-0.071
-545.296	-200.000	0.027	-0.235
-544.281	800.000	-0.066	0.231
-543.266	-133.293	-0.182	0.023
-542.252	-187.890	-0.126	-0.002
-541.237	-160.905	-0.287	-0.015
-540.223	-200.000	-0.011	-0.085
-539.208	-28.522	-0.394	0.227
-538.193	418.673	-0.139	-0.298
-537.179	-31.306	0.338	-0.191
-536.164	181.628	0.204	-0.300
-535.150	-51.597	0.040	-0.019
-534.135	275.783	-0.198	-0.351
-533.121	800.000	0.121	0.405
-532.106	-11.532	0.203	0.133
-531.091	-44.533	-0.102	-0.051
-530.077	-200.000	-0.052	0.401
-529.062	153.495	-0.059	-0.081
-528.048	164.913	0.105	-0.149
-527.033	-136.915	0.425	-0.049
-526.018	-130.658	-0.288	-0.039
-525.004	800.000	0.092	-0.354
-523.989	800.000	-0.080	0.258
-522.975	175.107	0.161	-0.234
-521.960	-2.212	0.241	-0.169
-520.945	12.959	-0.178	0.137
-519.931	95.100	0.158	-0.180
-518.916	249.807	-0.083	0.141
-517.902	-200.000	0.070	-0.453
-516.887	296.043	-0.087	0.159
-515.872	-67.421	0.089	0.035
-514.858	171.495	-0.175	0.251
-513.843	-109.534	-0.281	-0.059
-512.829	-48.912	-0.159	0.076
-511.814	605.636	0.141	-0.350
-510.799	-100.692	0.131	0.032
-509.785	800.000	-0.098	0.350
-508.770	-126.997	0.028	0.004
-507.756	-112.131	0.269	-0.054
-506.741	773.246	-0.052	-0.141
-505.726	-86.242	0.341	-0.105
-504.712	320.272	0.121	-0.230
-503.697	-15.851	0.421	-0.268
-502.683	11.384	0.237	-0.181
-501.668	-132.544	-0.195	-0.025
-500.653	23.713	-0.364	-0.299
-499.639	-200.000	-0.042	0.391
-498.624	-49.584	0.180	0.086
-497.610	-17.994	-0.382	-0.239
-496.595	179.094	-0.035	0.051
-495.581	38.855	-0.136	-0.122
-494.566	800.000	0.028	-0.102
-493.551	3.306	-0.135	-0.098
-492.537	-200.000	0.037	0.199
-491.522	-200.000	0.000	0.086
-490.508	-42.589	-0.198	-0.101
-489.493	-200.000	0.013	-0.172
-488.478	438.941	0.139	0.303
-487.464	-200.000	0.087	0.417
-486.449	-138.547	0.151	0.017
-485.435	800.000	-0.036	-0.120
-484.420	110.782	-0.168	0.202
-483.405	-200.000	-0.027	0.262
-482.391	800.000	-0.053	-0.147
-481.376	-200.000	-0.009	-0.181
-480.362	-59.243	0.402	0.173
-479.347	-200.000	-0.079	0.496
-478.332	344.076	0.202	0.395
-477.318	-177.616	-0.110	-0.003
-476.303	-35.704	0.342	-0.185
-475.289	800.000	-0.085	-0.303
-474.274	-109.557	0.028	-0.006
-473.259	-200.000	0.037	0.188
-472.245	-99.444	-0.168	0.042
-471.230	-47.995	0.105	0.051
-470.216	-200.000	-0.028	-0.402
-469.201	800.000	0.049	-0.183
-468.186	-200.000	0.008	-0.308
-467.172	-61.886	-0.270	-0.113
-466.157	-41.236	0.308	0.159
-465.143	736.375	0.084	0.224
-464.128	-200.000	0.006	-0.030
-463.113	800.000	0.076	0.240
-462.099	-26.771	-0.323	-0.188
-461.084	-20.546	-0.290	-0.178
-460.070	30.543	0.142	0.121
-459.055	-200.000	-0.030	-0.421
-458.040	-118.240	-0.134	-0.024
-457.026	448.633	0.112	-0.246
-456.011	57.998	0.170	0.166
-454.997	-200.000	0.033	0.232
-453.982	-81.669	-0.081	0.026
-452.968	-114.691	0.053	0.010
-451.953	-7.615	0.138	0.093
-450.938	-105.782	-0.292	-0.066
-449.924	800.000	-0.049	-0.151
-448.909	-91.408	-0.168	0.048
-447.895	98.868	0.139	0.160
-446.880	547.600	-0.063	0.150
-445.865	-155.227	0.193	0.013
-444.851	31.449	0.303	-0.260
-443.836	-51.374	-0.292	-0.136
-442.822	12.681	0.330	0.254
-441.807	95.267	0.089	0.101
-440.792	-128.047	0.210	-0.030
-439.778	-62.882	0.106	-0.044
-438.763	656.819	-0.041	0.106
-437.749	33.771	0.049	-0.043
-436.734	9.550	-0.026	-0.020
-435.719	-140.821	0.221	-0.023
-434.705	-71.297	-0.228	-0.085
-433.690	389.111	0.084	0.172
-432.676	412.117	0.158	-0.334
-431.661	3.063	-0.151	-0.109
-430.646	38.341	-0.153	-0.136
-429.632	154.936	-0.168	0.230
-428.617	301.949	-0.176	-0.325
-427.603	423.125	0.104	-0.222
-426.588	-200.000	0.057	0.354
-425.573	-104.905	-0.306	0.070
-424.559	-30.646	0.230	0.130
-423.544	-137.543	-0.076	0.009
-422.530	-200.000	-0.001	0.085
-421.515	257.522	-0.006	0.011
-420.500	296.548	-0.257	-0.470
-419.486	-55.314	0.160	-0.072
-418.471	-24.929	-0.349	0.206
-417.457	-200.000	0.024	0.284
-416.442	-61.537	0.125	0.052
-415.428	20.396	-0.108	-0.087
-414.413	-103.302	-0.109	0.026
-413.398	-41.217	-0.326	0.168
-412.384	-31.095	-0.262	-0.147
-411.369	252.536	-0.184	-0.312
-410.355	-117.262	0.163	-0.030
-409.340	-200.000	-0.088	0.474
-408.325	85.602	0.115	-0.125
-407.311	800.000	-0.101	0.300
-406.296	354.990	0.085	-0.169
-405.282	800.000	-0.030	0.098
-404.267	27.455	-0.004	0.003
-403.252	72.105	-0.077	0.079
-402.238	135.547	-0.052	0.067
-401.223	-155.448	0.134	-0.009
-400.209	-40.267	-0.100	-0.052
-399.194	1.489	0.032	0.023
-398.179	-38.374	0.156	-0.082
-397.165	108.748	-0.120	0.143
-396.150	101.477	-0.128	0.149
-395.136	-35.468	0.066	-0.036
-394.121	-139.393	-0.267	0.028
-393.106	-119.849	0.239	-0.041
-392.092	800.000	0.059	-0.210
-391.077	-11.700	0.037	0.024
-390.063	96.877	0.078	-0.089
-389.048	179.429	-0.076	-0.110
-388.033	542.053	-0.009	0.021
-387.019	-200.000	-0.050	0.246
-386.004	-10.472	0.271	0.179
-384.990	-27.766	-0.176	0.101
-383.975	-151.449	-0.088	0.007
-382.960	225.012	0.115	-0.186
-381.946	800.000	0.046	0.181
-380.931	-64.840	0.476	0.192
-379.917	-112.268	-0.168	0.034
-378.902	-200.000	-0.064	-0.347
-377.888	-87.327	0.027	0.008
-376.873	-116.803	0.197	-0.036
-375.858	-113.542	-0.230	0.045
-374.844	-9.900	-0.191	-0.126
-373.829	97.015	-0.267	-0.305
-372.815	73.561	-0.194	-0.202
-371.800	-200.000	0.010	-0.213
-370.785	-133.199	-0.062	0.008
-369.771	270.401	-0.149	-0.261
-368.756	-96.151	0.121	-0.032
-367.742	315.653	0.022	-0.041
-366.727	250.298	-0.103	-0.174
-365.712	-17.596	0.088	0.055
-364.698	-200.000	-0.005	0.135
-363.683	-13.096	0.105	0.068
-362.669	-169.768	0.069	0.002
-361.654	-42.407	0.186	-0.094
-360.639	-135.591	0.089	0.010
-359.625	-130.509	-0.232	0.031
-358.610	121.549	-0.059	-0.073
-357.596	800.000	0.056	-0.215
-356.581	181.517	0.076	-0.112
-355.566	-71.099	-0.037	0.014
-354.552	64.628	0.112	0.113
-353.537	-200.000	-0.025	0.234
-352.523	49.881	0.126	0.118
-351.508	70.933	0.110	0.113
-350.493	37.503	0.222	-0.196
-349.479	-71.698	-0.208	-0.077
-348.464	-200.000	-0.025	0.115
-347.450	-166.871	-0.178	0.007
-346.435	24.477	0.179	0.147
-345.420	165.404	0.235	0.330
-344.406	433.522	0.063	0.136
-343.391	-200.000	-0.007	-0.210
-342.377	-200.000	-0.010	-0.196
-341.362	-75.785	0.080	0.028
-340.348	242.699	-0.126	-0.210
-339.333	-200.000	0.017	-0.086
-338.318	-37.096	-0.242	-0.128
-337.304	-174.359	-0.238	0.007
-336.289	-200.000	0.050	-0.301
-335.275	128.026	-0.234	-0.296
-334.260	800.000	-0.112	-0.358
-333.245	-16.340	0.251	-0.158
-332.231	-142.050	-0.120	-0.012
-331.216	446.752	-0.042	-0.092
-330.202	800.000	0.067	-0.225
-329.187	-158.491	-0.057	-0.003
-328.172	800.000	0.080	0.275
-327.158	196.142	0.158	-0.239
-326.143	-200.000	-0.029	-0.267
-325.129	-200.000	-0.012	-0.215
-324.114	68.489	0.022	0.023
-323.099	-41.987	-0.082	-0.042
-322.085	-200.000	-0.021	-0.226
-321.070	33.106	-0.075	0.065
-320.056	800.000	-0.070	-0.272
-319.041	-150.219	-0.375	-0.029
-318.026	-200.000	0.018	-0.123
-317.012	237.625	-0.108	0.178
-315.997	800.000	0.050	0.169
-314.983	-200.000	0.060	0.261
-313.968	116.780	-0.101	-0.123
-312.953	128.225	0.137	-0.173
-311.939	160.004	0.191	0.265
-310.924	155.091	0.208	-0.284
-309.910	-200.000	-0.025	-0.216
-308.895	-114.824	0.164	0.031
-307.880	800.000	0.058	-0.243
-306.866	321.585	0.037	0.070
-305.851	502.591	-0.097	-0.221
-304.837	122.191	-0.230	0.285
-303.822	-21.210	-0.020	0.012
-302.807	-120.643	0.185	-0.031
-301.793	-28.246	0.127	0.072
-300.778	195.252	0.076	-0.114
-299.764	-34.330	0.050	0.027
-298.749	-200.000	0.053	-0.250
-297.735	-49.925	-0.222	0.105
-296.720	10.741	0.054	-0.041
-295.705	-26.273	-0.215	-0.125
-294.691	161.293	0.111	-0.154
-293.676	257.433	-0.098	0.166
-292.662	343.036	0.100	-0.194
-291.647	122.327	0.121	-0.149
-290.632	-8.969	-0.105	0.070
-289.618	-200.000	0.040	0.191
-288.603	204.079	0.195	0.299
-287.589	54.654	0.016	-0.016
-286.574	55.640	-0.182	0.175
-285.559	62.262	0.232	-0.229
-284.545	58.001	0.222	0.216
-283.530	224.395	-0.191	0.307
-282.516	336.656	0.170	0.327
-281.501	-64.719	0.275	0.110
-280.486	-23.202	-0.217	0.129
-279.472	800.000	0.145	0.502
-278.457	300.203	0.100	-0.182
-277.443	-47.167	-0.287	-0.139
-276.428	30.992	0.107	-0.091
-275.413	800.000	0.025	0.071
-274.399	-57.776	-0.093	-0.040
-273.384	613.604	0.073	0.180
-272.370	6.301	-0.066	-0.048
-271.355	-125.008	0.175	0.027
-270.340	8.585	-0.205	-0.153
-269.326	160.364	0.291	-0.402
-268.311	449.362	-0.160	-0.349
-267.297	-90.562	0.185	0.053
-266.282	-12.453	0.196	0.127
-265.267	-95.270	-0.295	0.079
-264.253	8.885	-0.141	-0.105
-263.238	296.713	0.030	0.055
-262.224	800.000	-0.025	0.090
-261.209	707.938	-0.044	0.115
-260.195	26.513	-0.207	-0.172
-259.180	234.033	0.093	0.152
-258.165	-112.455	-0.284	0.056
-257.151	-29.471	0.164	0.093
-256.136	97.306	0.075	0.085
-255.122	-78.493	-0.425	0.144
-254.107	25.182	-0.111	-0.092
-253.092	800.000	-0.070	-0.191
-252.078	552.652	0.038	0.091
-251.063	-134.878	0.190	0.023
-250.049	144.763	0.140	0.186
-249.034	-154.150	0.171	-0.011
-248.019	-7.157	-0.068	-0.045
-247.005	-50.345	-0.145	-0.068
-245.990	-60.147	0.311	0.131
-244.976	800.000	0.070	-0.223
-243.961	-200.000	-0.048	0.307
-242.946	-200.000	0.029	0.133
-241.932	36.983	0.092	0.080
-240.917	-73.019	-0.041	-0.015
-239.903	-71.710	0.154	0.057
-238.888	-38.012	0.223	-0.117
-237.873	619.857	0.135	0.335
-236.859	-63.666	-0.271	0.110
-235.844	24.759	-0.130	-0.107
-234.830	-27.013	-0.185	0.107
-233.815	-158.027	-0.130	-0.008
-232.800	-136.004	0.063	0.007
-231.786	36.011	-0.095	-0.083
-230.771	-62.100	-0.397	-0.164
-229.757	-41.284	0.233	0.119
-228.742	526.263	-0.082	-0.191
-227.727	-93.297	0.241	0.066
-226.713	-141.849	0.290	0.029
-225.698	-200.000	0.027	-0.119
-224.684	-200.000	0.004	0.080
-223.669	-200.000	-0.027	-0.207
-222.655	800.000	0.029	0.106
-221.640	-96.349	-0.194	-0.051
-220.625	-36.099	-0.197	-0.105
-219.611	-63.671	0.096	0.039
-218.596	94.625	0.112	-0.125
-217.582	227.941	-0.138	0.223
-216.567	-200.000	0.054	-0.309
-215.552	-92.057	0.334	-0.093
-214.538	-188.215	-0.186	0.002
-213.523	-200.000	0.010	-0.334
-212.509	401.320	-0.153	-0.318
-211.494	-85.447	0.378	0.116
-210.479	800.000	0.032	0.131
-209.465	800.000	0.058	0.164
-208.450	-200.000	0.021	0.307
-207.436	213.670	0.037	0.058
-206.421	-200.000	-0.055	0.242
-205.406	-200.000	0.007	0.252
-204.392	800.000	0.034	-0.118
-203.377	356.183	-0.021	-0.042
-202.363	132.343	-0.086	0.109
-201.348	175.867	-0.046	-0.066
-200.333	-200.000	0.029	0.337
-199.319	-16.353	-0.078	0.049
-198.304	-17.626	0.207	0.128
-197.290	601.028	0.148	0.362
-196.275	-200.000	0.053	0.266
-195.260	20.282	-0.185	0.148
-194.246	333.710	0.144	-0.275
-193.231	21.552	0.191	0.153
-192.217	101.671	-0.124	0.143
-191.202	-200.000	0.013	0.175
-190.187	-200.000	-0.002	0.057
-189.173	33.927	0.167	-0.144
-188.158	95.921	0.024	-0.028
-187.144	800.000	-0.035	0.097
-186.129	-90.962	0.188	0.053
-185.114	-200.000	0.051	0.374
-184.100	253.291	-0.169	0.284
-183.085	-80.022	0.073	-0.024
-182.071	-37.462	-0.237	-0.125
-181.056	-200.000	0.004	0.145
-180.042	-200.000	0.053	0.366
-179.027	-85.873	-0.534	0.163
-178.012	-200.000	0.037	0.357
-176.998	800.000	0.063	-0.203
-175.983	-200.000	-0.050	0.290
-174.969	-153.445	-0.253	0.017
-173.954	-142.449	0.365	0.035
-172.939	275.544	-0.031	-0.054
-171.925	-200.000	0.070	0.355
-170.910	-130.162	0.112	0.015
-169.896	5.227	-0.254	-0.185
-168.881	256.074	-0.049	-0.083
-167.866	-157.662	-0.250	-0.015
-166.852	55.458	0.260	0.249
-165.837	-65.452	0.252	0.100
-164.823	48.185	-0.157	0.145
-163.808	-33.141	0.283	0.155
-162.793	-30.276	0.223	-0.125
-161.779	-71.114	0.405	0.150
-160.764	-161.354	0.128	0.007
-159.750	509.882	0.101	0.233
-158.735	-161.654	0.103	0.005
-157.720	27.455	0.100	-0.083
-156.706	-68.007	0.154	0.059
-155.691	-46.752	-0.144	-0.069
-154.677	-200.000	0.000	0.025
-153.662	-53.717	-0.254	-0.114
-152.647	63.018	0.108	0.106
-151.633	44.016	-0.174	0.157
-150.618	-200.000	0.067	0.384
-149.604	-107.759	-0.338	0.073
-148.589	22.417	0.065	0.052
-147.574	-200.000	-0.025	0.331
-146.560	68.875	0.141	0.143
-145.545	114.100	-0.048	-0.057
-144.531	800.000	-0.056	-0.191
-143.516	-39.777	0.143	-0.074
-142.502	-200.000	-0.032	-0.209
-141.487	-200.000	0.007	-0.110
-140.472	800.000	0.040	-0.156
-139.458	141.258	-0.099	-0.129
-138.443	-123.824	0.052	0.008
-137.429	35.523	-0.048	-0.042
-136.414	800.000	0.066	0.197
-135.399	36.763	0.050	0.043
-134.385	-77.469	-0.209	-0.071
-133.370	-146.914	0.047	0.004
-132.356	-43.866	0.124	-0.062
-131.341	-48.563	-0.197	-0.093
-130.326	800.000	0.049	0.180
-129.312	-38.261	0.383	0.200
-128.297	483.964	-0.146	0.327
-127.283	746.613	-0.102	0.270
-126.268	-131.550	-0.333	-0.043
-125.253	-30.107	0.407	0.228
-124.239	-68.587	0.217	-0.083
-123.224	-148.621	-0.202	-0.016
-122.210	431.732	-0.168	0.359
-121.195	616.911	0.159	0.392
