DTS Sentinel unit serial number:	SN413079Multiplexer serial number:	ORYXHardware model number:	OX4-SRSoftware version number:	ORYX F/W v4.00 Oryx Data Collector v3.7.2.0data status	okinstallation	princeton_trtdifferential loss correction	single-endedforward channel	channel 2reverse channel	N/Adate	2019/09/11time	04:37:11forward acquisition time	60.00reverse acquisition time	0.00gamma	496.2192k internal	0.2329k external	0.2329temperature offset calibration	0.9940default loss term (dB/km)	0.3790temperature slope calibration	1.0000multiplexer offset coefficient	1.0000multiplexer slope coefficient	1.0000fibre end	0.00T internal ref (°C)	29.53T ext. ref 1 (°C)	-0.31T ext. ref 2 (°C)	23.33length (m)	temperature (°C)	Stokes	anti-Stokes-747.200	78.546	-0.108	-0.117
-746.185	-165.110	-0.216	-0.010
-745.171	800.000	-0.071	0.201
-744.156	-52.490	0.182	-0.085
-743.142	118.638	-0.170	0.212
-742.127	28.730	0.433	0.370
-741.112	271.226	-0.101	0.179
-740.098	82.243	-0.293	0.320
-739.083	-113.072	0.151	0.030
-738.069	584.997	-0.081	0.202
-737.054	-200.000	0.070	0.390
-736.039	800.000	0.087	-0.327
-735.025	80.365	0.072	-0.078
-734.010	-200.000	0.027	-0.488
-732.996	800.000	0.081	0.238
-731.981	224.402	-0.095	-0.155
-730.966	-122.714	0.182	0.030
-729.952	-63.366	-0.188	0.078
-728.937	104.066	0.102	0.121
-727.923	800.000	0.101	-0.322
-726.908	800.000	-0.076	-0.288
-725.894	-117.691	-0.110	0.020
-724.879	-200.000	0.026	-0.135
-723.864	302.568	0.134	0.250
-722.850	96.000	-0.201	0.231
-721.835	800.000	-0.044	-0.140
-720.821	527.847	-0.063	0.150
-719.806	15.038	-0.030	-0.023
-718.791	-105.621	0.084	0.019
-717.777	-200.000	0.003	0.167
-716.762	258.248	-0.101	0.175
-715.748	800.000	-0.014	0.056
-714.733	111.236	-0.142	0.172
-713.718	-200.000	-0.026	0.218
-712.704	800.000	-0.040	0.150
-711.689	800.000	0.053	-0.191
-710.675	-81.370	0.167	0.055
-709.660	208.425	0.079	-0.124
-708.645	-18.624	-0.169	0.106
-707.631	-11.365	0.117	-0.078
-706.616	17.376	-0.211	-0.169
-705.602	168.630	-0.176	0.253
-704.587	32.038	-0.448	0.388
-703.572	157.011	0.047	-0.065
-702.558	195.257	0.078	0.119
-701.543	89.886	0.156	-0.175
-700.529	290.064	-0.119	0.218
-699.514	53.986	0.168	0.163
-698.499	800.000	0.079	0.267
-697.485	656.859	0.037	-0.094
-696.470	75.210	-0.141	0.149
-695.456	59.008	-0.044	-0.043
-694.441	-200.000	-0.036	0.178
-693.426	47.031	-0.026	-0.024
-692.412	160.545	-0.206	0.289
-691.397	112.639	-0.367	0.446
-690.383	-142.051	-0.361	-0.036
-689.368	556.927	-0.076	-0.185
-688.354	412.496	0.099	0.211
-687.339	233.238	-0.118	0.195
-686.324	188.547	-0.133	0.199
-685.310	237.929	-0.235	-0.392
-684.295	244.680	-0.037	0.063
-683.281	74.129	0.172	-0.181
-682.266	-102.400	0.264	0.064
-681.251	112.865	-0.101	0.123
-680.237	175.034	0.224	-0.327
-679.222	-138.484	-0.137	0.015
-678.208	17.068	0.068	-0.054
-677.193	23.364	0.115	0.095
-676.178	-92.464	-0.130	0.037
-675.164	-177.006	0.299	0.008
-674.149	118.415	-0.077	-0.096
-673.135	182.635	-0.313	-0.464
-672.120	-200.000	0.012	0.156
-671.105	253.798	0.143	0.245
-670.091	596.987	-0.080	0.199
-669.076	-127.404	-0.336	-0.049
-668.062	800.000	-0.048	0.212
-667.047	-76.993	0.200	-0.070
-666.032	-181.251	0.228	0.005
-665.018	49.167	-0.120	0.113
-664.003	800.000	0.036	-0.109
-662.989	-200.000	-0.027	0.230
-661.974	-130.081	-0.215	-0.029
-660.959	19.752	-0.145	-0.117
-659.945	-144.813	0.155	-0.014
-658.930	72.533	0.172	-0.180
-657.916	636.000	0.068	-0.174
-656.901	-92.594	-0.082	-0.023
-655.886	59.941	-0.174	-0.173
-654.872	-82.849	0.028	-0.009
-653.857	-15.595	-0.140	0.090
-652.843	-200.000	-0.025	0.175
-651.828	-13.449	0.148	0.096
-650.814	-97.333	0.318	0.083
-649.799	129.776	-0.077	0.099
-648.784	201.064	0.073	-0.113
-647.770	113.059	-0.140	0.170
-646.755	-200.000	-0.003	-0.063
-645.741	-26.978	-0.118	-0.069
-644.726	-87.253	-0.134	-0.041
-643.711	-10.304	-0.190	0.127
-642.697	-200.000	-0.226	-0.000
-641.682	64.743	0.228	-0.231
-640.668	-90.485	0.542	0.158
-639.653	195.003	-0.135	0.206
-638.638	-200.000	0.004	0.068
-637.624	-200.000	-0.009	0.094
-636.609	-105.882	0.386	-0.087
-635.595	800.000	0.062	0.259
-634.580	-44.042	-0.171	-0.086
-633.565	300.010	-0.078	0.144
-632.551	-200.000	-0.045	-0.378
-631.536	-62.115	0.268	0.112
-630.522	-200.000	-0.001	-0.141
-629.507	-103.437	-0.232	0.055
-628.492	-23.109	-0.278	-0.168
-627.478	54.990	0.114	-0.110
-626.463	800.000	0.086	-0.375
-625.449	-200.000	-0.004	0.100
-624.434	-94.054	-0.182	0.050
-623.419	-164.192	0.210	0.010
-622.405	-200.000	0.027	-0.155
-621.390	-137.266	0.318	0.036
-620.376	-200.000	0.015	0.182
-619.361	0.475	-0.330	-0.237
-618.346	507.083	0.089	-0.207
-617.332	-134.516	-0.302	-0.037
-616.317	-81.859	0.324	0.106
-615.303	46.628	-0.072	-0.067
-614.288	-0.383	-0.330	0.235
-613.273	206.147	0.176	-0.274
-612.259	-57.436	-0.209	0.092
-611.244	-171.588	0.279	-0.009
-610.230	-200.000	0.012	-0.164
-609.215	86.993	-0.025	-0.028
-608.201	-10.177	-0.333	-0.221
-607.186	-54.174	0.202	-0.092
-606.171	-92.673	0.118	0.033
-605.157	-200.000	0.010	-0.185
-604.142	634.692	-0.132	-0.334
-603.128	193.000	0.091	0.138
-602.113	-85.540	0.183	-0.057
-601.098	-121.671	-0.288	-0.048
-600.084	249.610	0.064	0.109
-599.069	800.000	-0.130	-0.465
-598.055	-133.388	-0.152	0.019
-597.040	-200.000	-0.022	0.121
-596.025	238.873	-0.046	-0.076
-595.011	-1.368	-0.217	0.154
-593.996	-102.494	-0.096	0.023
-592.982	-47.725	-0.249	-0.121
-591.967	-19.798	-0.123	-0.076
-590.952	800.000	-0.113	0.421
-589.938	1.262	0.232	0.167
-588.923	-153.496	0.093	0.006
-587.909	-200.000	0.011	0.471
-586.894	-82.693	0.165	0.054
-585.879	-0.565	0.092	-0.065
-584.865	-0.970	-0.133	-0.094
-583.850	-200.000	-0.024	0.279
-582.836	260.006	0.080	-0.138
-581.821	-51.806	-0.120	0.056
-580.806	-156.677	-0.344	0.021
-579.792	98.555	-0.086	-0.100
-578.777	-51.805	0.230	0.107
-577.763	240.727	0.246	0.410
-576.748	-127.771	-0.032	0.005
-575.733	97.531	0.063	0.072
-574.719	687.409	0.136	-0.357
-573.704	-58.168	0.107	-0.047
-572.690	800.000	0.058	0.194
-571.675	-91.809	-0.272	-0.077
-570.661	-5.003	0.061	0.042
-569.646	-0.157	0.269	0.192
-568.631	135.962	0.119	0.155
-567.617	306.091	-0.023	0.044
-566.602	-200.000	0.018	0.185
-565.588	-17.228	-0.069	0.043
-564.573	-58.048	-0.261	0.114
-563.558	10.918	0.044	0.033
-562.544	-200.000	-0.001	-0.098
-561.529	-31.630	0.250	-0.140
-560.515	308.873	-0.272	0.509
-559.500	437.002	-0.089	-0.194
-558.485	62.616	-0.302	0.302
-557.471	0.475	-0.200	0.143
-556.456	74.669	-0.134	-0.141
-555.442	-59.613	0.238	0.102
-554.427	-97.857	-0.065	-0.017
-553.412	-200.000	-0.031	0.235
-552.398	-5.418	-0.139	-0.095
-551.383	43.272	-0.110	-0.100
-550.369	-76.213	-0.209	0.074
-549.354	-108.564	-0.349	0.075
-548.339	-6.468	-0.137	-0.093
-547.325	25.942	0.117	0.098
-546.310	392.904	0.043	-0.090
-545.296	-200.000	-0.029	0.184
-544.281	-21.720	0.394	0.240
-543.266	-169.136	-0.219	0.008
-542.252	-155.859	0.085	-0.005
-541.237	-74.901	-0.368	-0.132
-540.223	131.995	0.037	-0.048
-539.208	-117.578	-0.288	0.052
-538.193	158.583	-0.047	-0.065
-537.179	-124.902	-0.085	-0.013
-536.164	-200.000	0.002	0.050
-535.150	-61.691	0.286	-0.120
-534.135	31.190	0.179	-0.153
-533.121	135.104	0.150	-0.195
-532.106	-200.000	-0.058	0.368
-531.091	-200.000	0.026	-0.252
-530.077	88.426	-0.207	-0.230
-529.062	432.877	0.096	-0.207
-528.048	-200.000	0.022	-0.213
-527.033	240.949	0.094	-0.157
-526.018	20.772	0.044	0.035
-525.004	-28.173	0.201	0.116
-523.989	417.061	-0.122	-0.260
-522.975	-200.000	0.010	0.255
-521.960	104.883	0.151	-0.178
-520.945	-200.000	-0.024	0.139
-519.931	26.900	0.175	-0.146
-518.916	-80.749	0.068	-0.022
-517.902	800.000	0.031	0.107
-516.887	252.792	-0.255	-0.435
-515.872	214.385	-0.198	-0.313
-514.858	490.853	-0.042	0.096
-513.843	682.076	0.051	0.132
-512.829	-200.000	0.025	-0.114
-511.814	-38.834	-0.228	-0.120
-510.799	-200.000	0.026	0.172
-509.785	139.702	-0.146	0.192
-508.770	800.000	0.082	0.234
-507.756	405.364	0.115	-0.242
-506.741	301.014	-0.097	-0.178
-505.726	-200.000	0.044	-0.518
-504.712	337.447	-0.036	-0.070
-503.697	-81.401	0.442	-0.145
-502.683	7.909	0.028	0.021
-501.668	-66.769	0.189	0.075
-500.653	-156.476	0.194	-0.012
-499.639	-200.000	-0.011	0.299
-498.624	-164.615	0.201	-0.009
-497.610	-164.966	-0.305	-0.014
-496.595	16.207	0.196	-0.154
-495.581	26.673	-0.161	0.134
-494.566	-200.000	-0.067	0.339
-493.551	63.303	-0.239	-0.239
-492.537	800.000	0.055	-0.170
-491.522	-77.423	-0.392	-0.136
-490.508	-121.408	-0.060	0.010
-489.493	127.338	-0.092	-0.116
-488.478	800.000	-0.048	0.149
-487.464	-49.042	0.211	0.101
-486.449	-200.000	0.029	0.204
-485.435	-150.772	-0.238	-0.018
-484.420	-13.980	0.152	-0.098
-483.405	220.673	0.086	0.137
-482.391	112.767	0.080	0.097
-481.376	-105.592	0.465	-0.105
-480.362	262.972	0.041	0.071
-479.347	-65.540	-0.091	-0.036
-478.332	-40.823	0.331	-0.171
-477.318	-200.000	0.006	0.174
-476.303	-200.000	0.042	-0.249
-475.289	-124.322	0.147	0.023
-474.274	398.053	0.030	-0.062
-473.259	-150.436	0.280	0.021
-472.245	-200.000	-0.069	0.483
-471.230	35.606	0.135	0.118
-470.216	-136.443	0.171	0.020
-469.201	-200.000	-0.028	-0.229
-468.186	-200.000	0.056	-0.270
-467.172	111.381	-0.137	-0.165
-466.157	15.545	-0.202	0.158
-465.143	-104.964	-0.435	-0.099
-464.128	-59.892	0.162	0.069
-463.113	473.594	0.183	-0.412
-462.099	-73.827	0.277	-0.100
-461.084	-200.000	-0.003	0.023
-460.070	-166.912	-0.090	0.004
-459.055	-200.000	-0.003	0.039
-458.040	117.597	-0.123	-0.151
-457.026	-200.000	-0.007	0.264
-456.011	180.347	-0.122	-0.178
-454.997	-79.581	0.222	-0.075
-453.982	-29.343	0.180	-0.102
-452.968	-118.850	0.186	-0.033
-451.953	-55.882	-0.213	-0.095
-450.938	140.519	0.107	-0.141
-449.924	-3.404	0.060	-0.042
-448.909	179.905	-0.058	0.085
-447.895	-200.000	0.039	-0.234
-446.880	-44.399	0.275	0.137
-445.865	-107.769	-0.220	0.048
-444.851	418.829	0.070	0.149
-443.836	579.726	0.092	0.225
-442.822	-200.000	-0.009	0.098
-441.807	-200.000	-0.039	-0.173
-440.792	13.928	0.312	0.241
-439.778	20.970	-0.098	0.079
-438.763	73.558	0.241	0.251
-437.749	800.000	0.066	-0.196
-436.734	298.599	-0.041	-0.076
-435.719	-87.164	0.286	-0.087
-434.705	-200.000	-0.046	-0.388
-433.690	-14.941	-0.196	-0.125
-432.676	-24.035	0.288	-0.171
-431.661	-200.000	-0.013	0.142
-430.646	-200.000	-0.030	0.268
-429.632	800.000	0.097	0.331
-428.617	-60.854	0.447	-0.188
-427.603	-115.312	-0.380	0.071
-426.588	1.796	-0.197	-0.141
-425.573	266.619	0.069	0.121
-424.559	-200.000	0.071	-0.327
-423.544	-36.770	0.200	0.107
-422.530	-149.559	-0.303	0.024
-421.515	223.369	0.126	0.203
-420.500	27.649	-0.019	-0.016
-419.486	-200.000	0.037	-0.166
-418.471	-200.000	0.025	0.159
-417.457	-132.399	-0.171	0.022
-416.442	-200.000	0.062	-0.393
-415.428	-110.948	0.181	-0.037
-414.413	-200.000	0.149	-0.001
-413.398	-34.986	-0.228	0.124
-412.384	-119.641	0.337	0.058
-411.369	800.000	0.039	0.128
-410.355	20.885	-0.073	0.059
-409.340	28.755	-0.248	0.209
-408.325	-200.000	0.017	0.182
-407.311	515.826	-0.147	-0.341
-406.296	-200.000	0.010	0.206
-405.282	-54.411	-0.124	0.056
-404.267	-0.117	0.119	-0.084
-403.252	208.177	0.151	0.235
-402.238	-57.348	-0.121	0.053
-401.223	6.543	-0.187	0.138
-400.209	172.312	0.086	-0.123
-399.194	35.528	0.193	0.168
-398.179	423.212	-0.034	-0.072
-397.165	389.016	-0.110	0.226
-396.150	-200.000	0.011	-0.392
-395.136	399.761	0.047	-0.097
-394.121	-32.220	0.077	-0.043
-393.106	-200.000	0.035	0.161
-392.092	-79.447	-0.099	0.033
-391.077	-164.928	-0.343	0.015
-390.063	800.000	0.032	0.105
-389.048	-132.481	-0.232	-0.030
-388.033	-64.372	0.151	-0.061
-387.019	41.482	-0.265	0.239
-386.004	16.379	-0.204	-0.160
-384.990	425.580	0.054	0.115
-383.975	-151.000	0.122	0.009
-382.960	311.702	0.057	-0.107
-381.946	800.000	0.051	0.148
-380.931	-33.382	0.252	-0.139
-379.917	151.828	-0.056	0.076
-378.902	-41.631	0.305	0.156
-377.888	-19.494	-0.091	-0.056
-376.873	800.000	0.074	-0.211
-375.858	-29.345	0.154	-0.088
-374.844	144.395	0.159	0.210
-373.829	-70.301	-0.171	-0.064
-372.815	344.674	-0.057	-0.110
-371.800	95.916	-0.185	-0.210
-370.785	-38.150	-0.039	-0.020
-369.771	-200.000	-0.033	0.290
-368.756	-121.475	-0.097	-0.016
-367.742	-88.403	0.059	-0.018
-366.727	250.084	0.119	-0.201
-365.712	-200.000	-0.009	-0.090
-364.698	-34.459	0.133	-0.072
-363.683	-25.399	-0.089	-0.052
-362.669	-94.996	0.149	0.040
-361.654	14.887	0.311	0.242
-360.639	800.000	0.056	-0.157
-359.625	130.915	-0.213	-0.272
-358.610	230.506	-0.063	-0.103
-357.596	-110.290	0.259	0.053
-356.581	-132.499	0.173	-0.022
-355.566	-68.453	0.063	-0.024
-354.552	619.928	-0.066	0.165
-353.537	800.000	0.107	0.310
-352.523	-8.691	0.134	0.089
-351.508	3.442	0.093	-0.067
-350.493	800.000	0.103	-0.305
-349.479	47.455	-0.281	0.259
-348.464	13.672	0.071	-0.054
-347.450	-1.300	0.031	0.022
-346.435	41.317	-0.204	0.183
-345.420	800.000	0.073	0.224
-344.406	-200.000	0.021	0.094
-343.391	-200.000	-0.049	0.264
-342.377	-186.700	0.225	-0.003
-341.362	-133.614	-0.222	-0.028
-340.348	-200.000	-0.010	-0.255
-339.333	353.696	0.150	0.294
-338.318	1.575	-0.268	0.191
-337.304	-104.364	-0.207	-0.048
-336.289	800.000	-0.050	0.218
-335.275	-200.000	0.016	0.212
-334.260	-125.406	0.171	0.026
-333.245	-93.646	0.226	-0.062
-332.231	800.000	-0.077	0.232
-331.216	98.148	-0.166	-0.189
-330.202	-146.767	-0.203	-0.017
-329.187	74.322	-0.252	-0.263
-328.172	-104.272	0.176	-0.040
-327.158	-200.000	0.003	0.065
-326.143	-200.000	0.035	-0.194
-325.129	50.283	-0.123	0.115
-324.114	24.225	0.104	0.085
-323.099	-48.125	0.172	-0.082
-322.085	-63.030	0.473	-0.193
-321.070	800.000	-0.065	-0.257
-320.056	676.744	-0.066	0.170
-319.041	23.260	-0.243	0.198
-318.026	36.138	-0.103	-0.090
-317.012	-120.470	0.048	-0.008
-315.997	-200.000	-0.037	0.411
-314.983	159.062	0.069	0.095
-313.968	-72.396	0.200	0.073
-312.953	472.189	0.054	-0.121
-311.939	125.996	0.149	0.187
-310.924	232.191	-0.201	0.326
-309.910	131.394	-0.279	-0.355
-308.895	221.380	0.174	0.277
-307.880	75.420	-0.151	-0.157
-306.866	143.208	0.202	-0.266
-305.851	800.000	0.036	0.122
-304.837	182.263	0.142	-0.207
-303.822	2.899	-0.301	-0.216
-302.807	-122.418	-0.161	0.026
-301.793	-47.582	0.265	0.128
-300.778	121.439	-0.197	-0.243
-299.764	658.360	0.062	0.158
-298.749	-200.000	-0.015	-0.091
-297.735	-200.000	0.000	0.167
-296.720	-200.000	0.055	-0.274
-295.705	-200.000	-0.011	0.380
-294.691	800.000	-0.051	0.150
-293.676	278.871	-0.152	-0.268
-292.662	587.611	0.083	-0.203
-291.647	49.203	-0.232	-0.216
-290.632	-15.510	-0.219	0.138
-289.618	-14.438	-0.288	0.184
-288.603	-12.664	-0.216	-0.139
-287.589	54.131	-0.109	-0.103
-286.574	242.636	-0.045	0.075
-285.559	800.000	-0.128	-0.398
-284.545	-143.015	-0.066	0.006
-283.530	85.547	0.207	0.225
-282.516	-96.899	0.176	0.046
-281.501	24.113	0.110	-0.090
-280.486	-18.277	0.242	0.150
-279.472	60.172	-0.090	-0.088
-278.457	27.317	0.201	0.167
-277.443	150.355	-0.317	-0.426
-276.428	-134.065	-0.138	0.017
-275.413	452.425	-0.085	0.186
-274.399	-4.429	0.218	-0.149
-273.384	-200.000	0.012	-0.126
-272.370	435.444	-0.050	0.107
-271.355	60.654	-0.142	-0.139
-270.340	-130.654	-0.283	0.038
-269.326	22.910	0.066	0.054
-268.311	24.488	-0.256	0.210
-267.297	226.179	-0.044	-0.071
-266.282	561.801	0.064	-0.153
-265.267	511.962	0.076	-0.175
-264.253	-76.295	0.228	-0.079
-263.238	-200.000	0.063	0.397
-262.224	-200.000	-0.018	-0.156
-261.209	42.841	-0.275	-0.248
-260.195	132.920	-0.250	-0.319
-259.180	-3.966	-0.365	0.250
-258.165	-144.318	0.225	0.021
-257.151	-125.951	0.182	-0.027
-256.136	-14.554	-0.143	0.091
-255.122	-74.496	-0.294	-0.105
-254.107	-200.000	0.043	0.256
-253.092	-200.000	-0.043	0.360
-252.078	596.458	-0.046	0.112
-251.063	55.058	0.149	0.143
-250.049	151.737	0.053	0.071
-249.034	550.146	0.134	0.316
-248.019	-200.000	-0.039	-0.208
-247.005	800.000	-0.140	-0.383
-245.990	199.763	0.075	-0.114
-244.976	-123.642	0.245	-0.038
-243.961	-98.887	0.207	0.052
-242.946	215.857	-0.179	-0.280
-241.932	-200.000	-0.004	-0.038
-240.917	42.731	-0.067	-0.060
-239.903	95.097	-0.079	-0.088
-238.888	-200.000	0.012	-0.156
-237.873	-200.000	-0.018	-0.224
-236.859	-200.000	-0.011	-0.288
-235.844	-30.189	-0.096	-0.054
-234.830	800.000	-0.063	-0.244
-233.815	-200.000	0.022	-0.346
-232.800	-200.000	-0.011	-0.291
-231.786	-78.335	0.061	-0.021
-230.771	800.000	-0.117	-0.397
-229.757	142.239	0.239	0.313
-228.742	150.550	-0.167	0.224
-227.727	-200.000	0.030	0.307
-226.713	-109.491	-0.217	0.045
-225.698	22.997	0.094	-0.076
-224.684	800.000	-0.145	-0.473
-223.669	21.552	-0.219	-0.176
-222.655	83.733	0.068	0.073
-221.640	23.832	0.349	0.284
-220.625	125.729	0.097	0.121
-219.611	-27.001	-0.132	0.076
-218.596	-200.000	-0.016	0.372
-217.582	69.201	0.149	0.151
-216.567	-137.351	0.142	-0.016
-215.552	77.330	0.024	0.025
-214.538	-126.632	0.172	0.025
-213.523	56.787	-0.155	-0.149
-212.509	-30.101	-0.042	-0.024
-211.494	-15.948	-0.196	0.123
-210.479	-200.000	-0.056	0.375
-209.465	800.000	0.043	0.181
-208.450	-11.030	0.077	-0.050
-207.436	-179.506	-0.244	-0.005
-206.421	-124.669	0.234	0.036
-205.406	-91.172	0.151	-0.043
-204.392	800.000	-0.041	-0.150
-203.377	-200.000	0.006	0.165
-202.363	372.354	0.075	0.150
-201.348	-29.954	0.078	0.044
-200.333	-95.199	0.277	-0.074
-199.319	137.773	-0.088	-0.113
-198.304	156.183	0.137	0.186
-197.290	325.420	-0.043	0.081
-196.275	-200.000	0.001	-0.022
-195.260	678.261	-0.107	-0.275
-194.246	-60.592	0.072	-0.030
-193.231	-16.064	0.163	-0.102
-192.217	50.136	0.127	-0.118
-191.202	713.257	-0.095	-0.248
-190.187	149.446	0.199	-0.265
-189.173	-164.888	-0.254	0.011
-188.158	-200.000	-0.008	-0.167
-187.144	-119.906	0.259	-0.044
-186.129	800.000	-0.074	0.316
-185.114	-141.860	-0.159	0.016
-184.100	-55.294	-0.057	-0.025
-183.085	-73.876	-0.153	0.055
-182.071	199.729	0.091	-0.137
-181.056	368.788	-0.025	0.050
-180.042	-102.216	0.122	0.029
-179.027	444.537	0.072	-0.156
-178.012	50.925	-0.238	0.223
-176.998	800.000	-0.047	0.146
-175.983	43.921	0.127	0.115
-174.969	-150.573	-0.212	0.016
-173.954	-123.233	-0.261	-0.041
-172.939	142.605	0.105	0.138
-171.925	-0.119	-0.343	0.240
-170.910	0.468	0.226	-0.159
-169.896	-164.147	-0.283	0.013
-168.881	0.384	0.127	0.089
-167.866	-75.801	0.318	0.111
-166.852	-126.012	0.187	-0.028
-165.837	-34.603	-0.128	0.069
-164.823	-200.000	-0.046	0.441
-163.808	120.527	0.279	-0.342
-162.793	-200.000	0.002	0.050
-161.779	57.446	0.135	0.129
-160.764	-41.772	-0.194	0.098
-159.750	415.230	0.213	0.446
-158.735	-200.000	-0.076	0.456
-157.720	800.000	0.053	-0.150
-156.706	-200.000	-0.007	0.077
-155.691	-151.507	0.089	0.006
-154.677	800.000	0.037	0.107
-153.662	-102.186	-0.111	-0.026
-152.647	-200.000	0.034	-0.235
-151.633	381.934	-0.020	0.041
-150.618	-36.155	-0.226	0.120
-149.604	82.833	0.184	-0.197
-148.589	197.980	0.039	0.058
-147.574	294.429	-0.161	0.290
-146.560	119.419	0.150	0.183
-145.545	251.436	0.218	0.365
-144.531	202.980	0.083	0.127
-143.516	-200.000	-0.008	0.221
-142.502	77.561	-0.029	-0.030
-141.487	-200.000	-0.014	-0.121
-140.472	163.398	-0.257	-0.355
-139.458	10.558	0.175	-0.131
-138.443	-200.000	-0.014	-0.195
-137.429	-166.193	-0.202	0.008
-136.414	-98.503	0.055	-0.014
-135.399	-89.418	0.146	0.042
-134.385	92.647	-0.205	-0.228
-133.370	166.483	0.068	0.095
-132.356	518.860	-0.044	0.101
-131.341	159.715	-0.116	0.159
-130.326	-200.000	-0.015	0.211
-129.312	-127.196	0.123	-0.018
-128.297	-114.685	-0.254	-0.048
-127.283	-200.000	0.034	-0.175
-126.268	-47.788	-0.136	0.065
-125.253	-200.000	0.001	-0.054
-124.239	-200.000	0.024	0.240
-123.224	43.144	-0.243	-0.218
-122.210	525.592	0.141	-0.327
-121.195	-26.162	-0.444	0.257
