DTS Sentinel unit serial number:	SN413079Multiplexer serial number:	ORYXHardware model number:	OX4-SRSoftware version number:	ORYX F/W v4.00 Oryx Data Collector v3.7.2.0data status	okinstallation	princeton_trtdifferential loss correction	single-endedforward channel	channel 2reverse channel	N/Adate	2019/09/10time	19:41:10forward acquisition time	60.00reverse acquisition time	0.00gamma	496.2192k internal	0.2327k external	0.2327temperature offset calibration	0.9947default loss term (dB/km)	0.3790temperature slope calibration	1.0000multiplexer offset coefficient	1.0000multiplexer slope coefficient	1.0000fibre end	0.00T internal ref (°C)	33.14T ext. ref 1 (°C)	-0.32T ext. ref 2 (°C)	25.92length (m)	temperature (°C)	Stokes	anti-Stokes-747.200	311.706	0.060	-0.114
-746.185	-146.456	-0.185	-0.016
-745.171	-105.615	-0.018	0.004
-744.156	415.340	-0.094	-0.202
-743.142	-10.581	-0.117	-0.078
-742.127	-200.000	-0.043	0.286
-741.112	-200.000	0.041	0.411
-740.098	-200.000	-0.015	0.268
-739.083	187.879	-0.241	0.363
-738.069	83.021	0.241	0.264
-737.054	-61.890	0.306	0.129
-736.039	-134.098	-0.242	-0.030
-735.025	-200.000	0.013	0.116
-734.010	-200.000	-0.025	-0.476
-732.996	-7.838	-0.256	-0.174
-731.981	10.711	-0.286	-0.220
-730.966	-176.578	-0.139	0.004
-729.952	96.701	-0.124	0.143
-728.937	48.627	0.075	0.071
-727.923	63.952	0.069	0.070
-726.908	-112.947	0.142	0.028
-725.894	-86.682	-0.164	0.050
-724.879	-129.139	-0.369	-0.052
-723.864	2.418	-0.196	-0.143
-722.850	-200.000	0.005	-0.029
-721.835	-125.640	-0.078	0.012
-720.821	-200.000	0.009	0.281
-719.806	800.000	-0.054	-0.201
-718.791	36.858	-0.091	-0.081
-717.777	-200.000	0.040	-0.253
-716.762	29.761	-0.192	-0.164
-715.748	-200.000	0.025	0.156
-714.733	-200.000	0.014	0.068
-713.718	187.522	0.272	-0.409
-712.704	800.000	0.077	-0.269
-711.689	-200.000	-0.014	0.141
-710.675	-9.777	-0.244	-0.164
-709.660	-111.542	0.371	0.076
-708.645	-121.108	-0.114	-0.019
-707.631	-63.819	0.106	0.044
-706.616	372.323	-0.063	0.129
-705.602	-171.453	0.339	-0.011
-704.587	-200.000	-0.003	-0.123
-703.572	-50.546	-0.146	0.069
-702.558	-200.000	0.000	-0.216
-701.543	108.769	0.174	-0.209
-700.529	193.994	0.019	0.029
-699.514	-4.069	-0.274	0.191
-698.499	-200.000	0.019	0.245
-697.485	-200.000	-0.001	0.213
-696.470	57.761	0.150	-0.147
-695.456	-21.411	-0.404	-0.248
-694.441	341.551	-0.026	0.051
-693.426	50.180	-0.182	-0.173
-692.412	-180.634	-0.421	-0.009
-691.397	-30.625	-0.181	-0.103
-690.383	800.000	-0.098	0.277
-689.368	-118.123	-0.140	0.025
-688.354	-66.063	0.072	-0.029
-687.339	358.621	-0.031	0.063
-686.324	70.951	0.084	0.087
-685.310	-200.000	-0.030	-0.148
-684.295	18.468	0.126	-0.101
-683.281	-78.201	-0.183	-0.063
-682.266	-200.000	0.008	-0.238
-681.251	-131.650	-0.118	0.016
-680.237	215.379	-0.179	0.285
-679.222	-200.000	0.011	0.111
-678.208	85.831	0.024	-0.027
-677.193	43.727	0.108	0.099
-676.178	514.851	-0.127	0.299
-675.164	-93.005	-0.248	-0.070
-674.149	51.148	-0.088	0.084
-673.135	-8.998	0.230	0.155
-672.120	153.057	-0.056	0.078
-671.105	268.914	-0.135	0.239
-670.091	63.426	0.085	0.086
-669.076	-192.574	-0.325	0.003
-668.062	-100.258	0.095	-0.024
-667.047	-16.267	0.209	-0.133
-666.032	-44.086	0.252	0.127
-665.018	-102.093	-0.218	-0.053
-664.003	-177.999	-0.225	0.005
-662.989	-200.000	-0.032	-0.254
-661.974	-111.722	-0.073	-0.015
-660.959	259.427	0.130	0.225
-659.945	134.486	0.073	0.095
-658.930	68.234	0.265	-0.273
-657.916	57.107	0.021	-0.020
-656.901	800.000	0.068	-0.190
-655.886	166.273	-0.155	-0.220
-654.872	-200.000	0.021	-0.101
-653.857	117.839	-0.168	-0.207
-652.843	227.223	0.124	-0.203
-651.828	57.001	0.192	-0.188
-650.814	-200.000	-0.018	0.119
-649.799	144.059	0.054	0.072
-648.784	-200.000	0.035	-0.206
-647.770	-188.244	0.097	0.001
-646.755	82.250	-0.265	0.289
-645.741	-75.487	-0.138	0.049
-644.726	235.000	-0.049	0.081
-643.711	15.387	0.312	-0.246
-642.697	316.108	0.105	0.200
-641.682	-116.086	0.418	0.078
-640.668	-12.985	0.042	0.027
-639.653	-200.000	0.037	-0.372
-638.638	-17.304	-0.282	-0.178
-637.624	112.521	-0.188	-0.229
-636.609	-58.110	-0.191	-0.084
-635.595	-200.000	0.061	0.436
-634.580	10.490	0.163	-0.125
-633.565	786.363	0.094	-0.258
-632.551	-67.078	-0.198	-0.078
-631.536	96.714	0.265	0.305
-630.522	41.510	-0.099	0.090
-629.507	-30.580	0.077	-0.044
-628.492	-97.769	0.032	0.008
-627.478	91.817	0.153	-0.173
-626.463	33.509	-0.379	-0.330
-625.449	-48.865	0.051	0.024
-624.434	-113.965	0.518	-0.101
-623.419	-200.000	0.027	-0.337
-622.405	-65.961	-0.162	0.065
-621.390	-200.000	0.082	-0.512
-620.376	-74.362	-0.084	-0.030
-619.361	-97.214	-0.081	-0.021
-618.346	-98.509	-0.297	0.076
-617.332	343.378	0.063	0.124
-616.317	145.701	-0.065	0.087
-615.303	54.925	-0.103	-0.100
-614.288	800.000	-0.057	-0.193
-613.273	-124.940	0.466	-0.072
-612.259	-164.628	0.283	-0.013
-611.244	436.172	0.054	0.119
-610.230	132.160	-0.214	0.277
-609.215	-35.577	0.241	0.131
-608.201	-133.099	0.064	-0.008
-607.186	16.895	0.178	-0.142
-606.171	-155.107	0.202	-0.013
-605.157	-153.372	-0.179	0.013
-604.142	168.564	0.117	0.167
-603.128	234.739	-0.173	-0.286
-602.113	-134.457	-0.338	0.041
-601.098	800.000	-0.057	0.247
-600.084	-70.346	-0.015	0.006
-599.069	-161.506	0.241	-0.012
-598.055	800.000	0.071	0.254
-597.040	122.502	0.194	0.244
-596.025	800.000	0.064	-0.246
-595.011	-200.000	0.022	-0.136
-593.996	-95.619	-0.504	0.135
-592.982	69.184	0.170	-0.175
-591.967	6.685	0.154	0.115
-590.952	134.446	-0.087	0.114
-589.938	-200.000	-0.071	-0.402
-588.923	193.814	-0.119	-0.180
-587.909	-84.494	-0.115	0.036
-586.894	-39.768	0.143	-0.075
-585.879	276.538	0.040	0.071
-584.865	17.332	0.251	-0.200
-583.850	800.000	-0.130	-0.397
-582.836	-107.557	-0.198	-0.043
-581.821	-112.128	-0.156	0.032
-580.806	-200.000	-0.024	0.243
-579.792	22.881	-0.090	-0.074
-578.777	-200.000	0.001	0.073
-577.763	-150.264	0.074	-0.006
-576.748	511.163	-0.120	0.280
-575.733	-141.599	0.262	0.026
-574.719	29.414	0.320	0.273
-573.704	540.764	-0.015	-0.036
-572.690	-200.000	0.032	0.247
-571.675	377.430	-0.096	0.196
-570.661	-41.679	-0.278	-0.143
-569.646	221.155	-0.155	0.249
-568.631	-2.496	0.437	-0.306
-567.617	-200.000	0.049	-0.225
-566.602	800.000	-0.029	0.105
-565.588	-200.000	0.027	0.265
-564.573	239.619	-0.103	-0.171
-563.558	290.686	0.173	-0.314
-562.544	88.921	0.117	0.130
-561.529	-200.000	0.029	-0.208
-560.515	-200.000	0.051	-0.473
-559.500	-200.000	-0.039	-0.276
-558.485	-4.419	-0.043	-0.030
-557.471	-53.961	0.325	0.148
-556.456	-200.000	0.076	-0.405
-555.442	-195.232	-0.186	0.001
-554.427	20.472	-0.292	0.237
-553.412	132.208	0.163	-0.210
-552.398	-47.161	0.152	0.074
-551.383	-123.288	-0.231	0.037
-550.369	552.522	-0.099	0.238
-549.354	-140.633	0.147	-0.015
-548.339	800.000	0.009	-0.030
-547.325	-7.873	0.304	-0.205
-546.310	108.347	-0.066	0.079
-545.296	790.794	-0.108	0.296
-544.281	-62.115	-0.259	0.108
-543.266	800.000	0.027	0.117
-542.252	750.004	0.095	0.255
-541.237	-62.488	-0.156	0.065
-540.223	-179.721	0.180	0.004
-539.208	776.974	-0.061	-0.167
-538.193	19.447	0.356	-0.286
-537.179	711.881	-0.132	-0.350
-536.164	212.778	-0.016	0.025
-535.150	-200.000	-0.295	0.001
-534.135	-158.585	0.151	-0.009
-533.121	48.522	0.171	0.160
-532.106	-10.730	0.018	0.012
-531.091	-200.000	0.008	-0.075
-530.077	-159.498	-0.266	-0.015
-529.062	-6.527	-0.132	0.090
-528.048	800.000	-0.103	-0.338
-527.033	120.074	0.088	-0.109
-526.018	31.981	-0.259	0.223
-525.004	250.161	-0.124	-0.211
-523.989	191.236	-0.142	-0.213
-522.975	4.504	-0.059	0.043
-521.960	-93.549	0.158	0.044
-520.945	-200.000	0.014	0.083
-519.931	-6.873	0.078	0.053
-518.916	54.642	0.105	-0.101
-517.902	-128.159	0.158	-0.023
-516.887	254.159	0.113	0.192
-515.872	73.352	-0.111	-0.116
-514.858	-109.825	0.313	-0.066
-513.843	243.217	-0.148	-0.248
-512.829	63.240	0.112	0.112
-511.814	-50.979	0.043	0.020
-510.799	-41.440	-0.053	0.027
-509.785	18.367	-0.052	0.042
-508.770	51.881	0.193	-0.184
-507.756	-143.775	-0.187	0.018
-506.741	800.000	-0.094	0.299
-505.726	-60.197	-0.287	-0.122
-504.712	-200.000	0.010	-0.160
-503.697	205.993	-0.074	-0.115
-502.683	800.000	-0.138	-0.507
-501.668	278.641	-0.098	0.174
-500.653	290.685	-0.071	0.129
-499.639	4.711	0.025	0.018
-498.624	-127.122	0.182	-0.027
-497.610	790.491	0.091	-0.251
-496.595	-0.986	-0.352	0.249
-495.581	800.000	-0.090	-0.251
-494.566	8.453	0.045	-0.034
-493.551	800.000	-0.081	0.295
-492.537	19.059	0.229	0.183
-491.522	273.730	-0.105	-0.186
-490.508	172.074	-0.144	-0.206
-489.493	-31.754	-0.170	-0.095
-488.478	-200.000	0.040	0.292
-487.464	-173.736	0.046	0.001
-486.449	-90.350	0.189	0.055
-485.435	14.073	-0.180	-0.140
-484.420	-200.000	0.041	-0.482
-483.405	-200.000	-0.062	-0.308
-482.391	-123.771	0.170	-0.027
-481.376	-200.000	-0.022	-0.285
-480.362	178.536	0.183	0.267
-479.347	117.960	-0.007	-0.009
-478.332	-112.778	-0.244	0.048
-477.318	22.414	0.384	-0.313
-476.303	630.498	-0.044	0.110
-475.289	439.046	0.079	-0.172
-474.274	143.087	-0.063	-0.084
-473.259	351.824	-0.227	0.449
-472.245	190.954	-0.143	-0.215
-471.230	39.648	-0.266	-0.238
-470.216	108.169	-0.052	-0.062
-469.201	-200.000	-0.033	-0.569
-468.186	-200.000	-0.017	-0.098
-467.172	421.352	0.143	-0.305
-466.157	-121.063	-0.152	0.025
-465.143	-150.228	0.074	-0.006
-464.128	183.753	0.231	-0.340
-463.113	420.965	-0.115	-0.245
-462.099	-96.117	0.292	0.077
-461.084	15.542	0.120	-0.094
-460.070	-132.976	-0.167	-0.021
-459.055	123.899	0.129	0.162
-458.040	131.922	-0.117	0.150
-457.026	162.104	-0.165	-0.231
-456.011	-200.000	0.031	0.367
-454.997	-200.000	-0.030	0.215
-453.982	-158.155	0.210	-0.012
-452.968	-200.000	-0.037	0.266
-451.953	199.548	0.132	-0.202
-450.938	-121.009	-0.283	0.047
-449.924	151.870	-0.017	-0.024
-448.909	-200.000	0.004	0.030
-447.895	-200.000	0.033	-0.175
-446.880	345.969	-0.216	-0.423
-445.865	136.979	-0.216	-0.282
-444.851	600.920	0.068	-0.168
-443.836	62.855	0.045	0.045
-442.822	381.908	-0.087	-0.178
-441.807	800.000	-0.060	0.176
-440.792	-16.503	0.135	-0.085
-439.778	-106.072	0.221	-0.049
-438.763	-19.831	-0.184	-0.113
-437.749	279.173	-0.171	-0.304
-436.734	-121.485	-0.178	0.029
-435.719	162.338	0.136	0.191
-434.705	231.721	-0.076	0.123
-433.690	-85.771	0.216	-0.067
-432.676	-182.354	0.179	0.003
-431.661	89.358	0.212	-0.235
-430.646	-199.619	-0.125	0.001
-429.632	-73.588	-0.282	0.102
-428.617	133.974	-0.090	0.116
-427.603	800.000	-0.086	0.266
-426.588	800.000	-0.008	-0.025
-425.573	-44.521	-0.249	0.124
-424.559	302.148	-0.162	0.298
-423.544	800.000	0.098	-0.316
-422.530	118.304	-0.261	0.321
-421.515	-200.000	-0.052	-0.252
-420.500	-74.736	0.285	-0.102
-419.486	-89.619	0.345	-0.101
-418.471	-200.000	-0.009	0.065
-417.457	-3.412	0.145	-0.100
-416.442	20.443	0.037	0.029
-415.428	-34.727	0.118	0.064
-414.413	800.000	0.031	-0.113
-413.398	138.331	0.081	0.105
-412.384	61.883	0.208	-0.207
-411.369	38.359	0.107	0.095
-410.355	357.156	0.149	0.295
-409.340	-119.008	0.361	0.063
-408.325	-187.971	-0.192	-0.002
-407.311	-41.031	0.099	-0.051
-406.296	-152.322	0.194	-0.014
-405.282	-0.321	-0.155	0.109
-404.267	53.455	-0.088	0.084
-403.252	-200.000	-0.020	-0.201
-402.238	-11.239	-0.187	0.123
-401.223	-126.001	-0.222	-0.033
-400.209	309.903	-0.248	-0.462
-399.194	114.470	-0.210	-0.255
-398.179	-179.830	0.171	-0.004
-397.165	114.646	-0.077	0.094
-396.150	-107.274	0.112	0.025
-395.136	25.321	-0.381	0.315
-394.121	737.598	0.122	0.325
-393.106	800.000	-0.031	-0.093
-392.092	144.349	-0.139	0.184
-391.077	-14.688	0.218	0.139
-390.063	27.374	-0.222	0.186
-389.048	-23.854	0.145	-0.087
-388.033	47.092	-0.363	0.336
-387.019	-115.334	0.147	-0.028
-386.004	83.985	-0.083	0.090
-384.990	483.217	0.060	0.136
-383.975	531.567	-0.083	0.196
-382.960	172.595	-0.064	-0.092
-381.946	283.993	0.197	0.351
-380.931	224.123	-0.147	-0.235
-379.917	-176.709	0.160	0.004
-378.902	120.702	0.178	0.220
-377.888	-30.797	-0.305	0.171
-376.873	14.377	-0.184	-0.142
-375.858	315.615	0.259	-0.486
-374.844	-108.422	-0.223	-0.048
-373.829	-194.754	0.185	-0.001
-372.815	-123.990	0.199	-0.031
-371.800	-77.701	-0.348	-0.120
-370.785	1.433	0.367	-0.262
-369.771	54.012	-0.216	0.207
-368.756	-41.818	-0.063	0.032
-367.742	6.885	0.092	-0.068
-366.727	16.426	-0.179	0.141
-365.712	34.782	-0.224	-0.194
-364.698	305.969	-0.072	0.133
-363.683	468.942	0.070	-0.156
-362.669	-200.000	0.046	0.260
-361.654	800.000	-0.030	0.125
-360.639	55.517	0.173	0.167
-359.625	154.273	0.087	-0.119
-358.610	-200.000	-0.073	-0.327
-357.596	-200.000	0.012	0.187
-356.581	20.574	0.130	0.105
-355.566	39.912	0.285	0.254
-354.552	715.060	-0.084	0.220
-353.537	186.356	0.082	0.122
-352.523	800.000	-0.069	-0.285
-351.508	-23.428	-0.218	-0.130
-350.493	-200.000	-0.028	0.134
-349.479	87.248	-0.043	-0.047
-348.464	800.000	0.076	-0.222
-347.450	166.464	-0.024	-0.034
-346.435	320.852	0.140	0.264
-345.420	800.000	-0.006	0.018
-344.406	800.000	-0.047	-0.184
-343.391	776.189	-0.066	0.179
-342.377	340.863	0.029	0.057
-341.362	219.785	0.231	0.368
-340.348	53.782	0.139	0.132
-339.333	-164.796	-0.132	-0.006
-338.318	-193.741	-0.290	0.002
-337.304	83.271	0.105	0.113
-336.289	-78.883	-0.263	-0.089
-335.275	405.309	-0.162	-0.338
-334.260	800.000	-0.083	0.231
-333.245	800.000	0.023	0.070
-332.231	347.439	-0.090	-0.176
-331.216	-73.277	-0.087	-0.032
-330.202	25.509	-0.098	0.081
-329.187	-179.638	0.140	0.003
-328.172	-30.569	0.195	-0.109
-327.158	161.139	-0.106	-0.147
-326.143	-150.553	0.108	0.008
-325.129	-54.649	0.303	-0.136
-324.114	-200.000	0.054	0.534
-323.099	39.463	0.302	0.269
-322.085	6.115	-0.160	0.118
-321.070	660.753	0.004	-0.011
-320.056	243.735	-0.214	-0.356
-319.041	-200.000	0.011	-0.301
-318.026	181.613	0.328	-0.478
-317.012	146.154	0.167	-0.223
-315.997	-26.583	-0.021	0.012
-314.983	161.788	-0.184	-0.255
-313.968	-120.162	0.173	-0.029
-312.953	-104.310	-0.109	0.025
-311.939	707.122	0.112	0.293
-310.924	-5.841	-0.169	-0.115
-309.910	347.197	-0.274	0.535
-308.895	753.683	-0.100	0.268
-307.880	800.000	0.029	0.124
-306.866	63.351	0.370	0.368
-305.851	396.591	0.097	-0.201
-304.837	-149.145	0.090	0.007
-303.822	800.000	0.095	0.282
-302.807	800.000	-0.092	0.330
-301.793	352.864	0.164	0.322
-300.778	306.279	0.067	0.124
-299.764	350.973	0.068	-0.133
-298.749	800.000	-0.037	0.148
-297.735	-50.089	-0.157	0.074
-296.720	381.843	0.109	-0.221
-295.705	135.938	-0.107	0.138
-294.691	-200.000	-0.013	0.171
-293.676	492.371	0.152	-0.345
-292.662	800.000	0.078	0.257
-291.647	-200.000	-0.041	0.213
-290.632	30.681	0.190	-0.161
-289.618	174.953	0.046	-0.066
-288.603	410.909	-0.081	0.170
-287.589	-200.000	-0.011	0.113
-286.574	800.000	0.056	-0.162
-285.559	299.816	0.139	-0.254
-284.545	392.411	0.078	-0.160
-283.530	155.184	0.197	0.268
-282.516	175.942	-0.039	0.056
-281.501	102.616	-0.200	0.232
-280.486	22.093	-0.116	-0.094
-279.472	-200.000	0.038	0.223
-278.457	-57.334	0.038	0.016
-277.443	-118.435	0.070	0.012
-276.428	310.771	0.036	0.067
-275.413	259.504	0.203	0.347
-274.399	-185.230	-0.267	-0.004
-273.384	-200.000	0.010	-0.275
-272.370	6.844	0.084	0.062
-271.355	21.475	0.182	0.147
-270.340	531.408	0.074	0.174
-269.326	-21.984	-0.178	0.107
-268.311	241.571	-0.098	0.162
-267.297	800.000	-0.067	0.190
-266.282	800.000	-0.053	0.214
-265.267	-40.087	-0.218	0.112
-264.253	752.180	0.038	0.102
-263.238	-200.000	-0.003	0.066
-262.224	-45.082	-0.144	-0.071
-261.209	800.000	-0.066	-0.273
-260.195	232.081	-0.007	0.011
-259.180	79.858	0.156	0.166
-258.165	800.000	0.055	0.237
-257.151	-141.412	-0.236	-0.024
-256.136	-47.067	-0.173	-0.083
-255.122	800.000	-0.057	-0.231
-254.107	-112.712	0.274	-0.054
-253.092	-135.400	-0.127	-0.015
-252.078	800.000	0.079	0.219
-251.063	717.309	0.049	-0.129
-250.049	-200.000	-0.001	-0.114
-249.034	-7.356	0.057	0.038
-248.019	800.000	-0.081	0.262
-247.005	-11.585	-0.118	0.077
-245.990	-24.672	-0.115	-0.068
-244.976	-143.888	0.255	-0.024
-243.961	-84.337	0.385	0.120
-242.946	-200.000	0.007	-0.293
-241.932	57.006	-0.062	0.060
-240.917	-94.076	0.276	0.075
-239.903	-103.487	0.456	0.106
-238.888	10.567	-0.206	-0.155
-237.873	-5.383	0.219	-0.149
-236.859	238.939	0.035	0.057
-235.844	11.408	0.012	-0.009
-234.830	-105.058	-0.081	0.018
-233.815	-33.263	-0.152	0.083
-232.800	8.839	0.243	0.181
-231.786	-29.570	0.225	-0.127
-230.771	800.000	-0.081	-0.319
-229.757	-110.439	0.151	0.031
-228.742	13.711	-0.206	0.158
-227.727	-174.623	-0.141	-0.004
-226.713	45.195	-0.212	-0.193
-225.698	-200.000	-0.007	0.072
-224.684	-154.266	0.210	-0.014
-223.669	41.355	0.145	-0.129
-222.655	767.699	0.012	0.031
-221.640	-113.709	-0.209	0.040
-220.625	41.364	-0.250	-0.223
-219.611	521.649	0.092	0.214
-218.596	7.102	-0.032	0.023
-217.582	56.457	-0.233	0.224
-216.567	5.186	0.397	0.289
-215.552	-91.158	-0.184	0.052
-214.538	-200.000	0.014	-0.210
-213.523	-105.196	0.392	-0.088
-212.509	-145.158	0.300	0.027
-211.494	92.800	-0.269	0.300
-210.479	430.049	0.182	0.390
-209.465	753.539	0.106	-0.283
-208.450	282.723	0.042	0.074
-207.436	-103.797	0.310	0.072
-206.421	225.992	0.105	0.168
-205.406	-84.502	-0.376	0.117
-204.392	86.047	-0.102	0.111
-203.377	800.000	-0.037	0.127
-202.363	-108.460	0.226	-0.048
-201.348	251.735	-0.044	0.074
-200.333	-146.821	-0.283	-0.024
-199.319	-114.116	0.107	0.021
-198.304	-171.436	-0.214	-0.007
-197.290	800.000	-0.094	-0.405
-196.275	120.051	0.041	-0.050
-195.260	81.493	-0.147	0.157
-194.246	-200.000	-0.007	0.193
-193.231	-18.640	0.111	0.068
-192.217	721.684	0.038	-0.100
-191.202	50.075	-0.111	0.103
-190.187	-200.000	-0.015	-0.124
-189.173	367.376	0.030	0.060
-188.158	-66.520	-0.163	0.064
-187.144	-66.305	0.168	0.066
-186.129	20.798	0.078	-0.062
-185.114	91.775	-0.211	-0.234
-184.100	-2.293	0.268	0.185
-183.085	179.170	-0.238	0.343
-182.071	239.625	-0.105	0.172
-181.056	78.013	0.092	-0.097
-180.042	-124.082	-0.419	0.065
-179.027	-179.663	0.067	-0.001
-178.012	130.415	0.027	-0.034
-176.998	41.155	-0.178	-0.159
-175.983	-168.805	0.097	0.004
-174.969	-149.156	-0.170	0.013
-173.954	800.000	-0.057	-0.161
-172.939	-22.929	-0.293	0.174
-171.925	-104.770	0.236	0.053
-170.910	56.121	0.104	0.100
-169.896	732.587	0.054	-0.142
-168.881	-29.213	0.183	-0.103
-167.866	87.071	-0.194	0.211
-166.852	-200.000	0.023	-0.115
-165.837	-43.196	0.188	-0.094
-164.823	800.000	0.018	0.066
-163.808	-169.711	0.398	-0.014
-162.793	106.983	0.155	0.181
-161.779	54.571	-0.075	-0.071
-160.764	223.798	-0.130	0.206
-159.750	-200.000	0.025	-0.144
-158.735	-70.027	-0.148	0.056
-157.720	506.390	-0.054	0.124
-156.706	-99.376	-0.086	-0.021
-155.691	-200.000	0.007	0.069
-154.677	-123.074	-0.285	0.045
-153.662	68.630	-0.329	-0.333
-152.647	800.000	-0.048	-0.182
-151.633	-78.548	-0.285	0.096
-150.618	-67.666	0.308	0.119
-149.604	-200.000	-0.007	0.169
-148.589	118.662	-0.096	0.117
-147.574	225.588	0.089	-0.142
-146.560	800.000	-0.043	0.176
-145.545	369.784	0.060	0.119
-144.531	-62.641	0.205	-0.084
-143.516	-110.920	0.079	0.016
-142.502	-20.236	-0.030	-0.018
-141.487	-200.000	0.045	0.211
-140.472	554.714	-0.066	-0.157
-139.458	-200.000	-0.005	0.120
-138.443	-113.135	-0.400	0.078
-137.429	-160.800	0.209	-0.011
-136.414	4.180	-0.150	-0.108
-135.399	-17.235	0.112	-0.070
-134.385	-200.000	-0.044	0.339
-133.370	90.732	-0.088	-0.097
-132.356	800.000	-0.075	0.281
-131.341	-14.571	-0.110	-0.069
-130.326	-88.296	-0.284	-0.084
-129.312	613.071	-0.095	-0.233
-128.297	311.569	-0.107	-0.198
-127.283	-91.947	-0.265	-0.074
-126.268	-159.050	-0.449	-0.025
-125.253	-200.000	-0.024	-0.397
-124.239	-115.439	0.255	-0.047
-123.224	-200.000	-0.046	0.404
-122.210	-200.000	0.034	-0.191
-121.195	4.984	-0.202	-0.146
-120.180	-200.000	-0.005	0.339
