DTS Sentinel unit serial number:	SN413079Multiplexer serial number:	ORYXHardware model number:	OX4-SRSoftware version number:	ORYX F/W v4.00 Oryx Data Collector v3.7.2.0data status	okinstallation	princeton_trtdifferential loss correction	single-endedforward channel	channel 2reverse channel	N/Adate	2019/09/10time	21:09:11forward acquisition time	60.00reverse acquisition time	0.00gamma	496.2192k internal	0.2330k external	0.2330temperature offset calibration	0.9948default loss term (dB/km)	0.3790temperature slope calibration	1.0000multiplexer offset coefficient	1.0000multiplexer slope coefficient	1.0000fibre end	0.00T internal ref (°C)	31.47T ext. ref 1 (°C)	-0.31T ext. ref 2 (°C)	24.52length (m)	temperature (°C)	Stokes	anti-Stokes-747.200	-200.000	0.009	0.266
-746.185	-200.000	0.011	0.119
-745.171	-34.641	0.237	0.131
-744.156	84.109	-0.376	0.414
-743.142	-141.989	-0.030	-0.003
-742.127	-140.495	0.266	0.028
-741.112	96.047	-0.138	-0.158
-740.098	-200.000	0.026	0.177
-739.083	-200.000	0.058	0.443
-738.069	800.000	-0.034	0.129
-737.054	6.665	-0.188	0.141
-736.039	29.371	-0.479	0.409
-735.025	185.975	-0.121	0.181
-734.010	800.000	-0.026	-0.096
-732.996	-114.929	0.039	0.007
-731.981	44.228	0.156	-0.144
-730.966	-136.247	-0.185	0.022
-729.952	-25.944	0.124	-0.074
-728.937	58.673	0.089	0.088
-727.923	336.855	0.032	-0.062
-726.908	-31.900	-0.127	-0.071
-725.894	377.889	-0.143	0.295
-724.879	35.815	0.229	-0.202
-723.864	684.660	0.064	-0.168
-722.850	800.000	-0.075	0.326
-721.835	-89.859	-0.112	-0.033
-720.821	-9.140	-0.217	0.146
-719.806	-200.000	-0.052	-0.303
-718.791	-158.289	-0.194	0.011
-717.777	800.000	-0.144	-0.451
-716.762	140.782	-0.086	-0.115
-715.748	207.742	0.126	-0.197
-714.733	44.934	0.266	0.247
-713.718	164.749	0.321	-0.455
-712.704	788.117	-0.201	-0.555
-711.689	302.702	0.092	-0.171
-710.675	30.978	0.307	0.265
-709.660	800.000	0.124	0.410
-708.645	-13.043	-0.093	0.061
-707.631	-149.041	0.111	-0.009
-706.616	-200.000	0.011	-0.066
-705.602	190.963	-0.038	-0.057
-704.587	-200.000	0.020	-0.180
-703.572	141.393	0.108	0.144
-702.558	-51.408	-0.171	0.080
-701.543	-72.927	0.206	0.076
-700.529	-128.315	0.058	0.008
-699.514	213.246	-0.067	-0.107
-698.499	-200.000	-0.066	-0.572
-697.485	-131.170	0.428	-0.057
-696.470	-200.000	-0.055	-0.346
-695.456	13.343	-0.182	0.142
-694.441	-96.581	-0.247	-0.066
-693.426	-126.174	-0.111	-0.017
-692.412	339.499	-0.033	0.065
-691.397	3.286	0.138	0.101
-690.383	150.368	-0.105	-0.144
-689.368	-72.613	0.269	-0.100
-688.354	-1.966	0.142	0.100
-687.339	18.451	0.042	0.034
-686.324	254.877	-0.372	-0.640
-685.310	-183.586	-0.553	-0.010
-684.295	-200.000	-0.042	0.481
-683.281	300.838	-0.149	0.277
-682.266	133.299	0.113	-0.147
-681.251	22.336	-0.173	-0.142
-680.237	-130.697	-0.196	-0.027
-679.222	318.292	-0.140	0.266
-678.208	800.000	-0.077	-0.266
-677.193	-26.103	-0.032	0.019
-676.178	-94.620	-0.220	-0.060
-675.164	-28.070	0.215	0.125
-674.149	-33.917	-0.306	-0.169
-673.135	560.733	-0.040	0.098
-672.120	-200.000	0.009	0.215
-671.105	130.501	0.074	0.096
-670.091	-25.157	-0.198	-0.118
-669.076	800.000	-0.007	-0.023
-668.062	-200.000	-0.010	-0.050
-667.047	800.000	-0.075	-0.231
-666.032	-135.255	0.189	0.023
-665.018	800.000	-0.032	-0.110
-664.003	-109.343	-0.389	-0.083
-662.989	419.719	-0.089	-0.190
-661.974	-200.000	-0.002	0.105
-660.959	107.724	-0.054	-0.065
-659.945	-200.000	0.081	-0.436
-658.930	-101.445	0.351	0.086
-657.916	70.564	-0.059	0.062
-656.901	659.787	-0.144	-0.372
-655.886	-148.314	0.197	-0.016
-654.872	-17.096	-0.214	-0.135
-653.857	800.000	-0.075	0.232
-652.843	-63.257	0.058	0.024
-651.828	-200.000	0.054	-0.245
-650.814	-200.000	0.022	0.477
-649.799	69.241	0.070	0.072
-648.784	-143.768	-0.227	-0.022
-647.770	-118.145	-0.277	-0.050
-646.755	12.676	-0.041	0.032
-645.741	-115.662	0.418	-0.079
-644.726	75.496	0.128	0.136
-643.711	-40.337	-0.092	-0.048
-642.697	49.695	-0.050	-0.047
-641.682	-174.219	0.125	0.004
-640.668	146.828	0.098	-0.133
-639.653	-100.943	-0.278	-0.069
-638.638	635.623	0.075	0.190
-637.624	-48.317	0.167	0.081
-636.609	307.333	0.023	0.043
-635.595	-200.000	-0.019	-0.092
-634.580	-200.000	0.050	0.352
-633.565	-145.608	0.310	-0.028
-632.551	-57.368	0.211	-0.093
-631.536	216.769	0.036	-0.058
-630.522	56.403	-0.187	-0.183
-629.507	800.000	-0.102	-0.416
-628.492	143.659	0.076	-0.102
-627.478	20.139	-0.120	-0.097
-626.463	800.000	0.033	-0.107
-625.449	-72.872	0.387	-0.142
-624.434	139.717	-0.115	-0.152
-623.419	125.116	-0.415	-0.524
-622.405	94.000	-0.034	-0.039
-621.390	-29.641	-0.368	0.211
-620.376	800.000	0.083	0.322
-619.361	-36.486	-0.164	0.088
-618.346	120.268	0.219	0.272
-617.332	-200.000	-0.036	0.251
-616.317	-200.000	-0.008	0.292
-615.303	-173.936	-0.380	-0.011
-614.288	-89.912	-0.129	0.038
-613.273	383.438	-0.063	-0.129
-612.259	800.000	-0.036	0.123
-611.244	-6.188	-0.137	0.093
-610.230	-200.000	0.074	0.372
-609.215	800.000	0.061	0.195
-608.201	-200.000	-0.005	0.340
-607.186	-16.747	-0.333	-0.211
-606.171	800.000	0.012	-0.045
-605.157	583.173	0.161	0.395
-604.142	-165.024	-0.234	-0.010
-603.128	144.803	-0.174	-0.233
-602.113	-120.175	0.053	0.009
-601.098	235.841	0.133	-0.220
-600.084	42.282	0.124	0.113
-599.069	121.900	0.036	0.045
-598.055	231.752	-0.048	-0.078
-597.040	377.299	0.182	0.373
-596.025	-63.249	-0.243	0.100
-595.011	-137.410	-0.037	0.004
-593.996	33.917	0.127	0.111
-592.982	-200.000	0.066	0.375
-591.967	-73.400	0.030	0.011
-590.952	-143.328	-0.019	-0.002
-589.938	-127.259	-0.541	0.079
-588.923	189.239	-0.170	-0.254
-587.909	800.000	0.111	-0.331
-586.894	-16.053	-0.135	-0.086
-585.879	87.441	-0.195	0.216
-584.865	-106.106	0.191	0.043
-583.850	237.313	-0.172	0.285
-582.836	21.500	-0.096	-0.078
-581.821	-48.926	-0.231	-0.111
-580.806	-111.192	0.050	0.010
-579.792	-114.336	-0.222	-0.043
-578.777	-71.521	-0.153	-0.057
-577.763	800.000	-0.039	0.168
-576.748	-68.425	-0.327	-0.127
-575.733	-178.430	0.208	0.005
-574.719	204.551	-0.132	0.204
-573.704	399.360	0.057	-0.119
-572.690	-200.000	0.059	-0.448
-571.675	45.033	-0.148	-0.136
-570.661	-200.000	0.029	0.129
-569.646	-79.497	-0.252	0.085
-568.631	-200.000	0.006	-0.130
-567.617	-52.622	-0.053	-0.024
-566.602	-10.757	0.128	0.085
-565.588	-90.041	0.105	-0.031
-564.573	227.432	0.055	0.089
-563.558	4.571	-0.048	0.035
-562.544	800.000	-0.149	0.472
-561.529	-2.282	0.066	-0.046
-560.515	662.418	0.064	0.165
-559.500	366.913	0.100	0.202
-558.485	212.077	0.156	-0.246
-557.471	-52.366	-0.076	-0.035
-556.456	339.267	-0.088	0.172
-555.442	-112.941	-0.237	0.047
-554.427	255.517	0.121	-0.208
-553.412	-10.011	0.227	0.151
-552.398	-95.652	-0.360	-0.096
-551.383	800.000	0.048	-0.164
-550.369	800.000	0.054	0.186
-549.354	60.780	0.308	-0.305
-548.339	-116.318	-0.081	-0.015
-547.325	419.970	0.179	-0.384
-546.310	68.275	0.185	-0.189
-545.296	-55.869	-0.258	0.115
-544.281	292.046	0.094	-0.171
-543.266	254.592	0.123	-0.211
-542.252	-0.248	-0.050	-0.035
-541.237	-71.949	-0.105	0.039
-540.223	-66.469	-0.196	0.078
-539.208	-62.910	-0.116	-0.048
-538.193	-95.419	-0.152	0.041
-537.179	800.000	0.062	0.188
-536.164	171.253	0.087	0.124
-535.150	-178.489	-0.144	-0.003
-534.135	443.410	0.080	0.174
-533.121	186.832	0.089	0.132
-532.106	-200.000	0.019	0.203
-531.091	800.000	0.044	0.153
-530.077	-200.000	-0.007	-0.048
-529.062	17.685	0.209	-0.166
-528.048	437.797	-0.015	-0.032
-527.033	-154.711	0.190	0.013
-526.018	-200.000	0.047	0.247
-525.004	-78.988	-0.208	0.070
-523.989	-28.601	0.232	-0.133
-522.975	-51.583	0.190	0.089
-521.960	-139.069	0.091	0.010
-520.945	-27.607	0.165	0.096
-519.931	179.359	-0.040	-0.058
-518.916	247.113	0.137	0.231
-517.902	686.848	0.056	-0.146
-516.887	-96.837	0.171	-0.045
-515.872	303.462	-0.055	-0.102
-514.858	324.760	0.193	-0.368
-513.843	169.853	0.140	0.200
-512.829	198.106	-0.096	0.147
-511.814	-200.000	0.042	0.316
-510.799	-128.372	-0.097	-0.014
-509.785	-200.000	0.017	0.094
-508.770	800.000	-0.092	-0.269
-507.756	-6.205	-0.085	0.058
-506.741	-200.000	-0.052	-0.277
-505.726	414.713	0.063	-0.133
-504.712	-189.374	-0.208	-0.002
-503.697	800.000	0.034	0.124
-502.683	800.000	-0.041	-0.158
-501.668	-78.906	-0.143	0.049
-500.653	800.000	0.069	0.234
-499.639	-197.029	-0.196	0.001
-498.624	-124.089	0.224	-0.035
-497.610	-30.477	-0.229	0.130
-496.595	142.926	-0.129	-0.171
-495.581	620.273	0.011	0.028
-494.566	800.000	-0.054	0.216
-493.551	23.551	-0.187	-0.153
-492.537	-89.564	-0.054	0.016
-491.522	-200.000	-0.036	-0.170
-490.508	-51.837	0.011	-0.005
-489.493	713.938	0.070	0.184
-488.478	-138.131	-0.135	-0.015
-487.464	-200.000	0.028	0.193
-486.449	-128.140	0.407	0.058
-485.435	-157.406	0.293	0.018
-484.420	37.155	-0.554	0.489
-483.405	-192.539	0.152	-0.001
-482.391	46.810	-0.269	-0.249
-481.376	-66.085	-0.167	-0.066
-480.362	-200.000	-0.011	0.118
-479.347	584.946	0.047	0.116
-478.332	220.055	-0.175	0.279
-477.318	-200.000	-0.030	-0.136
-476.303	262.570	0.054	-0.093
-475.289	-19.532	-0.195	0.120
-474.274	440.754	-0.166	-0.363
-473.259	-150.699	0.150	-0.011
-472.245	337.577	0.089	-0.171
-471.230	11.070	0.260	0.198
-470.216	33.653	-0.244	-0.211
-469.201	-133.394	-0.116	-0.014
-468.186	-2.070	0.266	0.186
-467.172	-47.061	-0.140	-0.068
-466.157	490.871	-0.066	0.150
-465.143	53.742	-0.088	-0.084
-464.128	90.255	-0.147	0.164
-463.113	135.445	0.243	0.315
-462.099	467.537	-0.067	-0.149
-461.084	15.410	-0.248	0.194
-460.070	800.000	-0.082	0.268
-459.055	800.000	-0.091	0.346
-458.040	-174.714	0.235	0.007
-457.026	800.000	-0.117	0.473
-456.011	503.810	-0.010	-0.023
-454.997	39.941	0.344	0.308
-453.982	-200.000	0.038	-0.254
-452.968	12.916	0.240	0.184
-451.953	-13.370	-0.358	0.231
-450.938	-200.000	-0.038	-0.303
-449.924	29.294	0.359	-0.304
-448.909	-32.893	0.179	0.099
-447.895	483.646	0.128	0.290
-446.880	-63.084	0.228	-0.093
-445.865	-116.670	-0.149	0.027
-444.851	800.000	-0.128	0.371
-443.836	-79.152	0.201	0.068
-442.822	-200.000	-0.019	0.133
-441.807	800.000	0.082	-0.244
-440.792	-142.631	-0.135	-0.013
-439.778	800.000	0.019	-0.065
-438.763	-46.077	-0.340	0.167
-437.749	-122.105	0.174	-0.028
-436.734	264.029	0.158	-0.274
-435.719	-109.344	0.530	-0.112
-434.705	397.558	0.042	0.087
-433.690	582.349	-0.196	0.479
-432.676	-200.000	0.011	-0.067
-431.661	-25.991	0.289	-0.169
-430.646	-12.230	-0.068	0.044
-429.632	-0.469	-0.199	-0.140
-428.617	-200.000	0.008	0.208
-427.603	-182.693	0.104	0.002
-426.588	6.800	-0.186	0.137
-425.573	800.000	-0.137	0.396
-424.559	518.346	-0.050	0.117
-423.544	40.355	-0.166	-0.148
-422.530	-187.664	0.073	0.001
-421.515	-61.910	0.192	-0.080
-420.500	-52.400	0.280	0.129
-419.486	-200.000	0.029	-0.218
-418.471	-200.000	-0.005	0.131
-417.457	202.597	0.293	-0.450
-416.442	600.629	-0.083	-0.205
-415.428	-200.000	-0.027	-0.164
-414.413	142.221	-0.204	-0.269
-413.398	-123.028	-0.305	-0.049
-412.384	-200.000	-0.022	0.147
-411.369	-100.004	-0.251	-0.062
-410.355	91.284	-0.183	-0.204
-409.340	-60.517	-0.062	0.026
-408.325	-5.444	-0.163	-0.111
-407.311	-158.361	0.094	-0.005
-406.296	-200.000	-0.030	0.181
-405.282	-200.000	0.030	0.461
-404.267	-99.405	-0.232	-0.058
-403.252	-82.518	0.274	0.088
-402.238	-200.000	0.015	-0.413
-401.223	-65.330	0.282	0.113
-400.209	-200.000	0.014	-0.064
-399.194	-200.000	0.026	-0.244
-398.179	-61.165	-0.171	0.072
-397.165	-44.937	0.262	0.130
-396.150	-102.700	0.066	0.016
-395.136	-130.155	0.129	-0.017
-394.121	-6.687	0.219	-0.148
-393.106	-90.501	0.190	0.055
-392.092	176.462	-0.079	-0.115
-391.077	-200.000	0.030	0.347
-390.063	-32.457	-0.169	0.093
-389.048	-70.299	0.194	-0.073
-388.033	800.000	-0.165	-0.463
-387.019	-106.018	0.093	0.021
-386.004	297.533	-0.153	-0.279
-384.990	800.000	0.020	0.066
-383.975	-28.406	0.108	0.062
-382.960	-33.668	0.071	-0.039
-381.946	673.596	0.050	-0.128
-380.931	80.194	0.115	0.123
-379.917	-200.000	-0.033	-0.186
-378.902	800.000	-0.067	-0.195
-377.888	-112.663	0.188	-0.037
-376.873	83.739	0.177	-0.191
-375.858	-200.000	0.018	-0.185
-374.844	-7.108	-0.374	0.252
-373.829	800.000	0.102	0.321
-372.815	101.099	0.071	0.082
-371.800	-179.158	-0.070	-0.002
-370.785	15.909	0.055	-0.043
-369.771	44.799	-0.087	-0.079
-368.756	-129.389	0.202	0.028
-367.742	10.366	-0.057	-0.043
-366.727	733.820	0.038	0.101
-365.712	135.726	-0.148	-0.192
-364.698	-24.151	-0.131	0.077
-363.683	-81.754	0.134	-0.043
-362.669	60.276	-0.192	-0.189
-361.654	-55.480	0.241	-0.107
-360.639	45.300	0.290	-0.265
-359.625	-200.000	0.013	-0.171
-358.610	12.084	-0.234	0.178
-357.596	-200.000	0.015	0.227
-356.581	29.771	-0.263	-0.222
-355.566	-67.601	0.088	0.034
-354.552	-108.719	0.233	-0.050
-353.537	92.523	-0.153	0.171
-352.523	-137.601	0.180	-0.020
-351.508	-81.151	-0.391	-0.128
-350.493	800.000	0.107	0.367
-349.479	1.669	-0.199	0.142
-348.464	37.658	-0.113	0.099
-347.450	-200.000	0.033	-0.234
-346.435	-12.246	-0.110	-0.071
-345.420	-200.000	0.013	0.071
-344.406	-200.000	0.038	-0.210
-343.391	142.300	-0.109	0.144
-342.377	-32.722	-0.145	0.080
-341.362	-119.625	0.207	0.035
-340.348	472.235	0.058	-0.129
-339.333	19.522	0.071	-0.056
-338.318	-200.000	0.003	0.041
-337.304	40.146	0.231	0.206
-336.289	-17.758	0.082	0.051
-335.275	-200.000	-0.038	-0.295
-334.260	-47.891	0.228	0.110
-333.245	-200.000	0.018	0.086
-332.231	-200.000	0.011	0.266
-331.216	-86.730	0.222	-0.067
-330.202	800.000	0.105	-0.346
-329.187	754.273	0.105	0.280
-328.172	-2.727	0.102	0.071
-327.158	159.218	-0.105	0.144
-326.143	-67.520	0.083	-0.032
-325.129	-125.006	-0.142	-0.022
-324.114	-109.679	-0.102	0.021
-323.099	217.722	0.043	0.067
-322.085	-130.530	0.265	0.035
-321.070	-200.000	0.032	0.465
-320.056	-129.636	0.164	0.022
-319.041	-200.000	0.013	0.443
-318.026	49.537	0.165	-0.154
-317.012	-127.429	0.258	-0.037
-315.997	-119.345	0.061	0.010
-314.983	800.000	0.044	0.190
-313.968	-45.769	0.197	0.096
-312.953	-72.196	-0.038	0.014
-311.939	642.867	-0.027	-0.067
-310.924	-40.618	0.304	-0.156
-309.910	-38.980	-0.197	-0.103
-308.895	19.057	-0.173	-0.137
-307.880	-200.000	0.011	0.382
-306.866	-0.969	-0.174	0.122
-305.851	219.477	0.068	0.107
-304.837	-135.913	0.116	0.014
-303.822	-116.524	0.037	0.007
-302.807	-29.522	-0.072	-0.041
-301.793	6.338	-0.257	-0.189
-300.778	-97.355	-0.191	0.049
-299.764	-158.535	-0.095	-0.005
-298.749	457.496	-0.026	-0.057
-297.735	123.454	0.085	-0.105
-296.720	-200.000	-0.002	0.075
-295.705	542.771	-0.087	-0.206
-294.691	32.772	-0.086	0.074
-293.676	-24.857	-0.218	0.128
-292.662	285.945	0.093	0.165
-291.647	85.364	0.105	0.114
-290.632	-200.000	0.011	-0.094
-289.618	800.000	0.019	-0.073
-288.603	163.926	0.114	-0.158
-287.589	-200.000	0.032	-0.244
-286.574	-30.707	0.138	0.077
-285.559	-200.000	0.059	0.351
-284.545	-156.064	0.326	0.020
-283.530	-59.059	0.043	0.019
-282.516	-125.257	-0.362	0.055
-281.501	-37.021	-0.182	-0.097
-280.486	-169.312	-0.186	0.007
-279.472	800.000	-0.089	-0.267
-278.457	249.155	0.248	-0.416
-277.443	55.033	0.101	-0.096
-276.428	-165.359	-0.200	0.009
-275.413	4.676	-0.091	0.066
-274.399	24.793	0.286	0.234
-273.384	-200.000	-0.049	-0.241
-272.370	42.705	0.062	-0.056
-271.355	118.739	-0.117	-0.143
-270.340	43.337	-0.102	-0.092
-269.326	-13.141	-0.205	0.132
-268.311	-200.000	-0.002	-0.137
-267.297	800.000	-0.014	-0.040
-266.282	-200.000	0.005	-0.259
-265.267	68.441	-0.160	0.162
-264.253	525.201	0.034	0.079
-263.238	800.000	-0.082	0.259
-262.224	-43.312	-0.096	0.048
-261.209	219.264	0.076	-0.119
-260.195	-200.000	0.041	-0.214
-259.180	104.569	0.398	-0.463
-258.165	232.160	-0.094	0.152
-257.151	156.708	-0.306	-0.418
-256.136	640.279	0.060	-0.151
-255.122	37.023	-0.317	0.277
-254.107	322.317	-0.026	0.050
-253.092	20.481	0.157	0.125
-252.078	800.000	0.047	0.131
-251.063	-185.916	-0.158	0.002
-250.049	77.321	-0.071	-0.075
-249.034	132.548	-0.032	0.041
-248.019	-41.753	0.259	0.131
-247.005	10.181	-0.151	-0.113
-245.990	-200.000	-0.007	-0.167
-244.976	37.714	0.287	0.251
-243.961	96.564	0.097	-0.110
-242.946	800.000	0.090	0.256
-241.932	-108.286	0.355	0.076
-240.917	19.444	-0.228	0.181
-239.903	-200.000	-0.000	0.115
-238.888	-156.691	-0.050	-0.003
-237.873	-170.773	0.125	-0.004
-236.859	-21.639	0.323	-0.194
-235.844	-200.000	0.008	-0.067
-234.830	329.324	-0.120	0.228
-233.815	121.293	0.172	0.211
-232.800	-11.712	-0.108	0.070
-231.786	61.392	0.296	0.291
-230.771	28.620	-0.096	0.080
-229.757	547.556	-0.096	0.227
-228.742	44.619	-0.039	0.035
-227.727	289.849	0.081	0.144
-226.713	103.040	-0.254	-0.294
-225.698	800.000	0.071	-0.255
-224.684	-5.164	-0.278	-0.189
-223.669	158.352	0.013	-0.018
-222.655	-119.381	0.303	0.052
-221.640	800.000	0.009	-0.029
-220.625	-102.642	0.143	-0.034
-219.611	-68.033	0.113	0.043
-218.596	-157.594	0.329	0.019
-217.582	-112.708	-0.232	-0.046
-216.567	83.390	0.005	0.005
-215.552	-44.133	0.155	-0.077
-214.538	-33.651	-0.393	0.214
-213.523	-127.830	0.246	-0.035
-212.509	104.079	0.183	-0.212
-211.494	116.371	-0.110	0.133
-210.479	141.274	0.138	-0.180
-209.465	-93.760	0.430	0.117
-208.450	-38.194	0.355	0.185
-207.436	-17.046	-0.224	-0.139
-206.421	-89.117	-0.165	0.048
-205.406	-26.518	-0.160	0.092
-204.392	33.286	-0.344	0.294
-203.377	-16.655	0.085	-0.053
-202.363	63.654	0.035	0.035
-201.348	183.490	-0.154	-0.225
-200.333	-200.000	0.021	0.107
-199.319	-200.000	0.031	-0.164
-198.304	-200.000	0.019	-0.202
-197.290	-139.824	-0.247	-0.026
-196.275	184.997	-0.239	0.349
-195.260	-68.245	-0.112	0.043
-194.246	-200.000	0.001	-0.101
-193.231	36.386	0.076	0.066
-192.217	-155.174	-0.198	0.013
-191.202	795.158	0.077	0.209
-190.187	-200.000	0.013	0.110
-189.173	299.499	0.027	-0.049
-188.158	800.000	0.092	-0.260
-187.144	-200.000	0.040	-0.292
-186.129	-150.131	-0.246	0.019
-185.114	-200.000	-0.056	-0.389
-184.100	-44.981	0.072	-0.035
-183.085	-92.033	0.147	-0.041
-182.071	-24.981	0.204	-0.119
-181.056	12.913	-0.306	-0.233
-180.042	28.722	-0.341	-0.284
-179.027	175.693	0.127	-0.181
-178.012	-147.262	0.276	0.023
-176.998	-107.380	0.467	-0.101
-175.983	-70.464	-0.265	0.099
-174.969	608.488	0.073	0.178
-173.954	-65.403	-0.354	-0.140
-172.939	800.000	-0.044	-0.142
-171.925	800.000	0.035	-0.135
-170.910	-200.000	0.043	0.236
-169.896	202.549	-0.152	-0.230
-168.881	4.812	0.119	-0.086
-167.866	386.493	0.060	-0.123
-166.852	23.321	0.201	-0.163
-165.837	-200.000	-0.070	-0.317
-164.823	239.599	-0.124	-0.204
-163.808	800.000	0.136	-0.410
-162.793	-122.706	-0.310	0.049
-161.779	19.761	-0.225	0.179
-160.764	277.574	0.140	-0.245
-159.750	370.328	0.067	-0.134
-158.735	-200.000	-0.056	-0.385
-157.720	284.134	0.169	-0.300
-156.706	11.935	0.055	0.042
-155.691	682.534	0.010	-0.024
-154.677	494.529	0.088	-0.199
-153.662	-83.254	0.216	-0.068
-152.647	-11.896	-0.154	-0.099
-151.633	-200.000	0.037	0.224
-150.618	202.585	0.073	0.110
-149.604	800.000	0.074	0.240
-148.589	355.980	-0.069	-0.134
-147.574	70.790	0.223	-0.228
-146.560	-88.756	-0.114	-0.033
-145.545	88.468	0.185	-0.202
-144.531	-78.030	-0.386	0.131
-143.516	-86.530	-0.098	-0.030
-142.502	-200.000	0.008	0.135
-141.487	-200.000	0.001	0.140
-140.472	86.651	0.086	-0.093
-139.458	259.182	0.091	-0.154
-138.443	187.197	0.154	0.226
-137.429	-5.721	0.215	-0.145
-136.414	800.000	-0.027	0.113
-135.399	-121.214	0.239	0.039
-134.385	-105.740	-0.314	-0.070
-133.370	-200.000	0.066	-0.319
-132.356	270.072	-0.074	-0.127
-131.341	-55.763	0.275	0.121
-130.326	800.000	-0.157	-0.501
-129.312	76.012	0.070	0.072
-128.297	188.291	-0.104	0.152
-127.283	-200.000	-0.003	-0.177
-126.268	-83.108	-0.220	0.070
-125.253	480.239	0.082	0.183
-124.239	-200.000	0.011	-0.239
-123.224	26.065	0.220	0.180
-122.210	529.645	0.070	-0.162
-121.195	266.670	0.106	-0.183
