DTS Sentinel unit serial number:	SN413079Multiplexer serial number:	ORYXHardware model number:	OX4-SRSoftware version number:	ORYX F/W v4.00 Oryx Data Collector v3.7.2.0data status	okinstallation	princeton_trtdifferential loss correction	single-endedforward channel	channel 2reverse channel	N/Adate	2019/09/11time	16:05:11forward acquisition time	60.00reverse acquisition time	0.00gamma	496.2192k internal	0.2287k external	0.2287temperature offset calibration	1.0017default loss term (dB/km)	0.3790temperature slope calibration	1.0000multiplexer offset coefficient	1.0000multiplexer slope coefficient	1.0000fibre end	0.00T internal ref (°C)	43.12T ext. ref 1 (°C)	1.03T ext. ref 2 (°C)	38.56length (m)	temperature (°C)	Stokes	anti-Stokes-747.200	-196.246	0.303	0.002
-746.185	-200.000	0.010	0.106
-745.171	179.426	0.140	0.211
-744.156	15.307	0.164	0.132
-743.142	33.669	0.172	0.153
-742.127	195.936	0.161	-0.252
-741.112	-102.565	-0.305	-0.075
-740.098	-200.000	0.045	0.308
-739.083	18.962	-0.135	0.111
-738.069	-200.000	0.031	0.335
-737.054	-118.569	0.294	-0.053
-736.039	756.202	0.091	-0.253
-735.025	-25.832	0.130	0.079
-734.010	777.695	0.064	-0.179
-732.996	-94.999	0.217	0.060
-731.981	-71.931	0.401	-0.153
-730.966	317.562	-0.093	0.181
-729.952	-88.265	-0.148	-0.045
-728.937	212.350	-0.097	-0.156
-727.923	386.828	-0.089	-0.189
-726.908	125.097	-0.124	0.161
-725.894	237.376	0.201	-0.341
-724.879	-101.392	0.155	-0.039
-723.864	5.189	0.054	-0.040
-722.850	725.999	0.163	0.446
-721.835	-51.389	-0.294	-0.141
-720.821	163.617	0.181	0.261
-719.806	-65.683	0.100	-0.041
-718.791	-90.027	0.373	0.111
-717.777	490.899	0.101	-0.238
-716.762	7.976	-0.134	0.103
-715.748	-89.333	0.227	-0.069
-714.733	800.000	-0.023	-0.069
-713.718	-77.508	-0.226	-0.080
-712.704	-46.953	-0.222	0.111
-711.689	491.640	0.190	-0.445
-710.675	421.873	0.111	-0.244
-709.660	411.452	0.075	0.163
-708.645	-35.896	0.118	-0.065
-707.631	-58.642	0.355	0.157
-706.616	-118.416	0.502	0.091
-705.602	-20.384	-0.310	-0.195
-704.587	-200.000	0.053	0.263
-703.572	64.654	0.133	-0.137
-702.558	-67.417	0.410	-0.165
-701.543	-27.480	0.091	-0.054
-700.529	-10.001	-0.069	0.047
-699.514	-139.353	-0.205	-0.023
-698.499	-200.000	-0.025	-0.138
-697.485	-144.585	-0.100	0.009
-696.470	-82.388	0.201	-0.067
-695.456	800.000	0.109	-0.350
-694.441	-200.000	0.113	-0.547
-693.426	-200.000	-0.001	-0.074
-692.412	-78.626	0.137	-0.048
-691.397	-108.634	-0.183	-0.040
-690.383	-107.543	0.174	0.039
-689.368	-26.791	-0.051	0.030
-688.354	769.318	-0.090	-0.251
-687.339	-200.000	-0.022	0.243
-686.324	-158.755	-0.343	0.020
-685.310	-46.504	-0.184	0.093
-684.295	800.000	0.020	-0.086
-683.281	295.666	0.128	0.241
-682.266	-51.562	0.062	0.030
-681.251	-200.000	-0.048	0.299
-680.237	-142.188	0.341	-0.035
-679.222	-9.149	-0.089	-0.061
-678.208	-64.907	-0.315	0.130
-677.193	39.658	0.030	0.027
-676.178	1.400	-0.026	-0.019
-675.164	800.000	-0.101	-0.284
-674.149	41.798	-0.114	0.106
-673.135	-200.000	-0.027	0.131
-672.120	-162.211	0.097	0.005
-671.105	140.579	0.173	-0.234
-670.091	-200.000	-0.010	0.214
-669.076	-200.000	0.023	0.105
-668.062	-200.000	0.013	-0.126
-667.047	-170.664	0.205	0.007
-666.032	-118.834	0.040	0.007
-665.018	20.784	0.293	0.243
-664.003	-200.000	0.005	-0.026
-662.989	-10.722	-0.308	0.208
-661.974	-72.098	0.226	-0.086
-660.959	-104.137	-0.117	-0.028
-659.945	165.946	0.083	-0.119
-658.930	-86.784	-0.208	0.065
-657.916	283.135	0.105	0.192
-656.901	-200.000	-0.037	-0.222
-655.886	-200.000	0.030	-0.232
-654.872	-200.000	-0.008	-0.139
-653.857	-112.507	0.117	-0.024
-652.843	48.037	0.215	0.205
-651.828	800.000	-0.034	0.096
-650.814	-8.724	0.200	-0.137
-649.799	-51.859	0.218	-0.104
-648.784	274.036	0.121	0.218
-647.770	6.362	-0.106	0.081
-646.755	-21.224	0.138	0.086
-645.741	-200.000	0.038	0.237
-644.726	-11.895	-0.186	0.125
-643.711	157.885	-0.211	0.298
-642.697	800.000	0.096	0.281
-641.682	224.853	-0.129	-0.214
-640.668	-133.995	0.336	0.043
-639.653	156.694	0.194	0.273
-638.638	-49.342	-0.146	0.071
-637.624	364.989	-0.140	-0.289
-636.609	113.646	0.344	0.427
-635.595	-54.777	-0.190	0.088
-634.580	-200.000	-0.001	-0.128
-633.565	800.000	-0.052	0.188
-632.551	468.866	-0.094	0.215
-631.536	800.000	0.064	0.205
-630.522	237.483	-0.092	-0.156
-629.507	-72.649	-0.192	-0.072
-628.492	-143.705	-0.071	-0.007
-627.478	69.660	-0.174	-0.183
-626.463	-45.210	-0.260	-0.132
-625.449	124.390	-0.086	-0.111
-624.434	-24.393	-0.070	0.043
-623.419	84.239	-0.307	0.343
-622.405	84.829	-0.253	0.283
-621.390	-161.970	-0.085	-0.004
-620.376	-200.000	0.019	0.308
-619.361	-80.433	-0.129	-0.044
-618.346	-48.898	0.100	-0.049
-617.332	465.685	-0.112	0.257
-616.317	-200.000	-0.001	-0.015
-615.303	253.659	-0.193	-0.337
-614.288	-200.000	-0.005	-0.335
-613.273	800.000	0.087	-0.253
-612.259	-43.548	-0.145	0.075
-611.244	498.538	-0.214	-0.504
-610.230	46.715	0.274	-0.259
-609.215	-200.000	0.023	-0.121
-608.201	800.000	0.113	-0.344
-607.186	-200.000	-0.037	-0.346
-606.171	724.580	-0.062	0.170
-605.157	-17.797	0.108	0.069
-604.142	-60.568	-0.177	-0.077
-603.128	673.653	0.106	-0.279
-602.113	-200.000	-0.005	-0.040
-601.098	-12.423	-0.377	-0.251
-600.084	126.749	-0.060	-0.078
-599.069	56.068	-0.236	0.233
-598.055	-200.000	0.004	-0.151
-597.040	-148.161	-0.293	-0.025
-596.025	157.933	-0.054	-0.077
-595.011	800.000	0.068	-0.216
-593.996	-75.421	0.289	0.105
-592.982	-89.626	0.275	-0.082
-591.967	-28.095	-0.069	0.041
-590.952	800.000	-0.093	-0.294
-589.938	-119.169	-0.376	0.067
-588.923	800.000	0.076	-0.261
-587.909	-200.000	-0.028	0.231
-586.894	-200.000	-0.003	-0.306
-585.879	453.705	0.088	-0.199
-584.865	800.000	0.050	-0.169
-583.850	800.000	-0.119	-0.506
-582.836	-111.357	-0.283	0.059
-581.821	40.328	0.151	0.139
-580.806	4.738	-0.101	-0.076
-579.792	-21.862	0.166	0.103
-578.777	5.209	0.170	-0.128
-577.763	-1.971	-0.261	-0.187
-576.748	-9.115	-0.185	-0.126
-575.733	-200.000	-0.029	-0.351
-574.719	-82.060	0.330	0.110
-573.704	-200.000	0.053	-0.299
-572.690	800.000	0.164	-0.510
-571.675	-34.051	0.219	-0.123
-570.661	-31.688	-0.116	-0.067
-569.646	58.028	0.167	0.166
-568.631	34.663	-0.207	0.184
-567.617	59.203	0.276	-0.277
-566.602	15.545	0.123	-0.099
-565.588	-4.383	-0.306	-0.216
-564.573	-200.000	0.045	-0.323
-563.558	-200.000	-0.002	-0.302
-562.544	800.000	-0.132	-0.415
-561.529	-200.000	-0.026	-0.190
-560.515	-200.000	-0.016	-0.274
-559.500	653.823	0.146	-0.383
-558.485	-107.704	0.344	0.076
-557.471	331.316	0.045	0.088
-556.456	-200.000	0.033	0.182
-555.442	-200.000	0.002	0.070
-554.427	-73.408	0.273	-0.102
-553.412	800.000	0.074	0.284
-552.398	-50.868	-0.126	-0.060
-551.383	12.764	0.233	0.183
-550.369	157.593	0.218	0.308
-549.354	22.756	-0.233	0.194
-548.339	40.890	-0.089	-0.082
-547.325	233.620	0.128	-0.215
-546.310	-116.643	0.244	0.046
-545.296	46.340	-0.072	0.068
-544.281	429.662	-0.061	-0.134
-543.266	-111.751	0.152	0.031
-542.252	103.886	0.104	-0.125
-541.237	-151.329	-0.166	0.013
-540.223	113.951	-0.250	0.310
-539.208	50.642	0.239	-0.230
-538.193	-4.341	0.085	0.060
-537.179	-27.537	0.025	-0.015
-536.164	182.223	0.126	0.189
-535.150	-17.475	-0.311	0.199
-534.135	753.660	-0.068	-0.188
-533.121	27.781	0.038	0.032
-532.106	-115.579	0.249	0.048
-531.091	-200.000	-0.019	-0.311
-530.077	63.461	-0.138	-0.141
-529.062	625.939	0.025	-0.065
-528.048	-200.000	-0.006	0.232
-527.033	118.875	0.185	0.232
-526.018	35.067	0.129	-0.115
-525.004	-50.008	-0.169	0.081
-523.989	88.240	-0.152	0.172
-522.975	150.455	0.232	-0.321
-521.960	116.320	-0.136	-0.169
-520.945	-200.000	-0.017	-0.130
-519.931	221.591	-0.043	0.070
-518.916	-125.895	-0.165	-0.025
-517.902	-56.735	0.100	0.045
-516.887	42.102	-0.209	0.193
-515.872	119.138	-0.061	0.077
-514.858	200.330	-0.051	0.079
-513.843	57.855	-0.281	0.279
-512.829	-200.000	-0.002	-0.245
-511.814	-162.199	-0.273	-0.014
-510.799	-162.490	-0.419	-0.021
-509.785	800.000	0.093	0.377
-508.770	-80.168	-0.095	-0.032
-507.756	10.200	0.362	-0.280
-506.741	270.473	0.141	-0.252
-505.726	-87.961	0.318	0.097
-504.712	498.170	-0.068	0.159
-503.697	-94.045	0.197	-0.055
-502.683	-158.139	0.025	-0.001
-501.668	-51.164	-0.309	-0.147
-500.653	-149.435	-0.134	-0.011
-499.639	129.209	0.097	-0.126
-498.624	140.868	0.214	-0.288
-497.610	-20.069	0.079	-0.049
-496.595	-115.487	-0.155	0.030
-495.581	-35.600	0.127	-0.070
-494.566	19.491	-0.164	-0.134
-493.551	-97.026	0.159	-0.042
-492.537	217.834	-0.062	0.101
-491.522	-200.000	-0.008	0.169
-490.508	-200.000	0.015	0.172
-489.493	127.151	0.208	0.268
-488.478	-138.583	-0.158	-0.018
-487.464	-160.146	0.141	-0.008
-486.449	118.431	-0.115	-0.144
-485.435	-70.514	-0.124	-0.048
-484.420	103.023	0.088	-0.105
-483.405	-44.622	0.055	-0.028
-482.391	90.209	-0.121	0.137
-481.376	223.689	-0.177	-0.290
-480.362	501.989	0.052	-0.122
-479.347	362.986	-0.060	-0.122
-478.332	-108.552	-0.164	-0.036
-477.318	2.268	-0.151	0.111
-476.303	-200.000	-0.025	0.206
-475.289	800.000	0.095	0.284
-474.274	32.620	0.033	-0.029
-473.259	156.703	0.173	0.243
-472.245	-110.086	-0.139	-0.030
-471.230	93.860	-0.063	-0.073
-470.216	64.944	-0.194	0.199
-469.201	-200.000	0.020	-0.324
-468.186	93.405	0.153	-0.176
-467.172	800.000	-0.102	0.290
-466.157	-38.151	0.080	0.043
-465.143	118.329	-0.163	0.204
-464.128	-156.809	-0.221	-0.014
-463.113	-200.000	-0.047	0.233
-462.099	-13.733	0.092	0.060
-461.084	800.000	-0.095	0.323
-460.070	-36.125	-0.198	-0.108
-459.055	-74.765	-0.164	-0.060
-458.040	-38.600	-0.410	0.220
-457.026	6.889	0.147	-0.111
-456.011	-71.309	-0.211	0.080
-454.997	612.063	-0.086	-0.219
-453.982	800.000	0.065	-0.192
-452.968	-119.303	0.459	-0.081
-451.953	-49.927	-0.357	-0.172
-450.938	800.000	-0.079	0.291
-449.924	-148.948	0.276	0.023
-448.909	800.000	0.069	0.283
-447.895	-70.362	-0.404	0.155
-446.880	380.075	0.100	0.209
-445.865	-63.861	-0.139	0.058
-444.851	-200.000	-0.007	-0.081
-443.836	410.432	-0.121	0.260
-442.822	-106.140	-0.143	-0.033
-441.807	622.319	-0.133	-0.339
-440.792	-36.959	-0.117	0.064
-439.778	261.618	-0.107	-0.188
-438.763	262.191	-0.022	0.038
-437.749	63.162	0.119	0.121
-436.734	-155.829	0.276	0.018
-435.719	-179.544	0.080	0.002
-434.705	-3.843	0.320	0.225
-433.690	-127.439	-0.453	-0.067
-432.676	-200.000	-0.028	0.146
-431.661	800.000	0.034	-0.106
-430.646	-47.958	-0.215	-0.105
-429.632	800.000	0.080	-0.239
-428.617	255.900	0.154	-0.267
-427.603	93.267	0.109	-0.125
-426.588	-33.881	-0.268	0.150
-425.573	-200.000	0.055	0.282
-424.559	99.060	0.153	0.179
-423.544	20.083	0.085	-0.069
-422.530	282.104	0.134	-0.244
-421.515	276.148	-0.160	-0.288
-420.500	-76.501	0.120	-0.043
-419.486	800.000	0.084	-0.259
-418.471	-193.783	-0.182	0.002
-417.457	-7.100	0.220	0.151
-416.442	-43.082	-0.164	0.084
-415.428	-124.172	0.272	0.043
-414.413	-99.140	0.276	-0.071
-413.398	-200.000	-0.021	0.183
-412.384	545.693	-0.045	0.110
-411.369	30.439	-0.099	-0.085
-410.355	-29.543	-0.012	0.007
-409.340	76.842	0.199	0.214
-408.325	-132.577	0.139	-0.018
-407.311	-132.517	0.181	-0.024
-406.296	251.226	-0.015	-0.026
-405.282	800.000	-0.052	0.189
-404.267	5.871	0.040	-0.030
-403.252	481.692	-0.154	0.353
-402.238	462.241	0.022	0.049
-401.223	-72.380	0.167	-0.063
-400.209	-16.478	-0.292	0.187
-399.194	-200.000	0.024	-0.396
-398.179	585.583	-0.136	-0.338
-397.165	324.952	-0.045	-0.087
-396.150	800.000	-0.044	-0.132
-395.136	-91.998	0.086	-0.025
-394.121	-122.812	0.142	0.023
-393.106	2.165	-0.187	-0.137
-392.092	-76.625	-0.392	-0.139
-391.077	-29.069	-0.200	-0.116
-390.063	196.163	0.097	0.149
-389.048	-129.285	0.296	-0.042
-388.033	35.914	0.097	-0.087
-387.019	-200.000	-0.057	0.527
-386.004	3.643	-0.161	0.119
-384.990	-49.087	-0.150	0.073
-383.975	224.244	-0.057	0.093
-382.960	733.519	-0.055	0.149
-381.946	629.793	0.094	0.241
-380.931	-200.000	-0.043	0.271
-379.917	-59.608	-0.360	-0.156
-378.902	-187.617	0.066	0.001
-377.888	-1.705	0.087	0.062
-376.873	79.627	-0.108	0.118
-375.858	-78.044	0.092	0.032
-374.844	-84.454	0.130	0.042
-373.829	398.341	-0.174	0.368
-372.815	-0.532	-0.192	0.138
-371.800	154.003	0.098	0.136
-370.785	128.853	0.218	-0.281
-369.771	-41.351	-0.356	0.185
-368.756	24.061	-0.162	0.135
-367.742	514.387	0.072	0.170
-366.727	118.534	-0.148	-0.185
-365.712	148.165	0.097	0.132
-364.698	-200.000	0.000	-0.135
-363.683	-200.000	0.018	0.162
-362.669	-200.000	-0.026	0.414
-361.654	353.035	0.101	-0.202
-360.639	-110.837	0.103	0.021
-359.625	-200.000	0.032	0.247
-358.610	31.126	0.205	-0.178
-357.596	247.426	-0.128	-0.218
-356.581	-200.000	0.006	-0.239
-355.566	-141.285	0.464	0.048
-354.552	-101.162	-0.194	0.048
-353.537	373.916	0.109	0.224
-352.523	160.122	-0.055	0.078
-351.508	-152.637	-0.172	0.012
-350.493	108.713	-0.339	0.410
-349.479	-51.792	0.304	-0.143
-348.464	-37.901	-0.142	-0.076
-347.450	-45.599	-0.320	-0.160
-346.435	89.302	-0.103	0.116
-345.420	-135.067	0.177	0.022
-344.406	-68.656	-0.069	0.027
-343.391	-88.329	-0.465	0.140
-342.377	-74.897	0.217	0.079
-341.362	-149.331	0.104	-0.008
-340.348	-80.941	-0.094	-0.032
-339.333	-31.106	-0.151	0.086
-338.318	-122.335	-0.373	0.062
-337.304	-188.062	0.108	0.001
-336.289	-100.807	-0.307	-0.076
-335.275	124.128	0.227	-0.288
-334.260	-200.000	0.007	0.070
-333.245	230.482	-0.219	0.362
-332.231	-15.536	-0.218	0.140
-331.216	593.105	-0.123	0.306
-330.202	-25.768	0.385	0.229
-329.187	-133.704	0.161	0.020
-328.172	18.011	-0.039	0.031
-327.158	800.000	0.065	0.209
-326.143	-54.282	0.295	-0.135
-325.129	-39.345	0.169	0.090
-324.114	-105.911	-0.251	-0.057
-323.099	17.065	0.170	0.136
-322.085	-10.152	0.089	-0.059
-321.070	330.981	0.160	-0.310
-320.056	59.475	-0.283	-0.281
-319.041	-49.058	0.072	0.035
-318.026	-32.646	0.402	-0.226
-317.012	25.600	0.199	-0.167
-315.997	-54.382	0.135	0.062
-314.983	222.373	-0.036	-0.058
-313.968	-85.564	-0.067	0.021
-312.953	-106.033	-0.119	-0.027
-311.939	161.608	-0.108	-0.152
-310.924	800.000	-0.036	-0.149
-309.910	253.073	0.178	0.306
-308.895	44.517	0.283	0.263
-307.880	3.189	0.220	-0.161
-306.866	323.108	0.189	0.363
-305.851	649.205	0.139	0.357
-304.837	-118.337	0.282	0.050
-303.822	741.388	-0.009	-0.026
-302.807	36.745	0.129	0.115
-301.793	219.941	0.229	-0.371
-300.778	-200.000	-0.037	0.362
-299.764	108.613	0.159	0.191
-298.749	422.385	-0.186	-0.402
-297.735	-4.996	0.104	-0.073
-296.720	-1.671	-0.156	-0.111
-295.705	246.982	0.108	-0.184
-294.691	3.892	0.245	0.180
-293.676	-2.528	0.197	-0.139
-292.662	-163.101	-0.215	-0.010
-291.647	-180.530	0.364	-0.008
-290.632	373.268	0.091	0.186
-289.618	146.246	-0.199	-0.269
-288.603	-200.000	-0.004	0.127
-287.589	306.173	-0.262	0.491
-286.574	-118.061	-0.092	-0.017
-285.559	-200.000	-0.024	-0.322
-284.545	-131.520	0.209	-0.028
-283.530	-168.126	0.280	0.011
-282.516	58.145	0.082	-0.081
-281.501	-142.899	-0.223	-0.022
-280.486	483.421	-0.066	0.152
-279.472	800.000	-0.022	0.089
-278.457	-200.000	-0.038	-0.172
-277.443	591.858	-0.082	0.204
-276.428	-200.000	-0.035	0.214
-275.413	-200.000	0.028	0.164
-274.399	-200.000	0.022	-0.137
-273.384	389.179	-0.157	0.327
-272.370	121.843	0.122	-0.153
-271.355	-148.197	0.162	-0.013
-270.340	800.000	-0.065	0.246
-269.326	-29.991	0.295	0.169
-268.311	155.814	-0.071	0.099
-267.297	-54.361	0.144	-0.066
-266.282	-109.481	0.297	0.063
-265.267	-200.000	0.049	-0.429
-264.253	-200.000	-0.001	0.099
-263.238	732.713	0.080	-0.215
-262.224	218.681	-0.031	-0.051
-261.209	49.129	-0.095	0.089
-260.195	-84.346	-0.246	0.078
-259.180	-200.000	-0.002	0.087
-258.165	20.160	0.241	-0.196
-257.151	-50.340	0.083	-0.040
-256.136	67.442	-0.104	0.107
-255.122	101.995	0.148	0.174
-254.107	62.604	0.123	-0.124
-253.092	-78.909	0.219	0.075
-252.078	-46.578	0.108	-0.053
-251.063	25.757	-0.230	0.192
-250.049	224.715	0.070	0.114
-249.034	412.881	0.156	-0.334
-248.019	-144.319	-0.197	0.018
-247.005	-200.000	-0.001	0.269
-245.990	-200.000	0.043	-0.207
-244.976	-200.000	0.022	0.123
-243.961	77.355	0.163	-0.174
-242.946	-8.061	0.118	-0.080
-241.932	-64.171	0.427	-0.175
-240.917	-149.973	0.246	-0.019
-239.903	800.000	0.096	-0.334
-238.888	-107.319	-0.331	-0.073
-237.873	-200.000	0.031	-0.214
-236.859	-23.586	-0.441	-0.266
-235.844	-191.778	-0.127	-0.001
-234.830	241.016	0.136	0.228
-233.815	-200.000	0.002	0.161
-232.800	800.000	-0.029	-0.091
-231.786	-5.632	-0.091	0.063
-230.771	-200.000	0.031	0.341
-229.757	-200.000	-0.084	-0.442
-228.742	-200.000	-0.018	0.084
-227.727	278.359	0.145	-0.259
-226.713	800.000	0.044	0.132
-225.698	-142.882	-0.147	0.014
-224.684	-16.957	0.209	0.132
-223.669	76.404	0.137	0.145
-222.655	-50.371	0.207	-0.098
-221.640	-123.472	0.250	0.040
-220.625	800.000	-0.011	-0.033
-219.611	-45.413	0.292	-0.145
-218.596	-117.399	0.090	-0.016
-217.582	-12.260	-0.127	-0.083
-216.567	800.000	-0.018	0.078
-215.552	113.808	-0.174	-0.212
-214.538	264.346	0.122	0.213
-213.523	39.374	-0.137	0.124
-212.509	-106.562	-0.388	-0.087
-211.494	-200.000	-0.049	0.223
-210.479	-151.841	0.407	0.030
-209.465	353.333	0.019	0.037
-208.450	71.455	0.040	0.041
-207.436	-70.762	-0.482	-0.183
-206.421	-85.219	0.470	0.148
-205.406	150.251	-0.093	0.126
-204.392	-136.441	0.203	0.024
-203.377	-29.016	0.154	0.089
-202.363	-119.225	0.066	-0.012
-201.348	-200.000	0.023	0.359
-200.333	37.597	-0.315	0.281
-199.319	690.516	0.197	-0.519
-198.304	-145.009	0.214	0.020
-197.290	-200.000	0.049	-0.257
-196.275	800.000	-0.005	-0.020
-195.260	-200.000	-0.060	0.417
-194.246	55.746	-0.124	0.121
-193.231	-97.585	-0.214	-0.056
-192.217	800.000	-0.078	0.306
-191.202	800.000	0.024	-0.099
-190.187	17.950	-0.271	-0.216
-189.173	-104.137	0.134	0.031
-188.158	-77.307	0.345	0.120
-187.144	-127.331	0.036	-0.005
-186.129	-200.000	0.034	-0.238
-185.114	-71.394	-0.206	0.077
-184.100	-82.907	0.113	0.037
-183.085	687.848	-0.095	0.249
-182.071	681.962	0.065	-0.171
-181.056	98.132	-0.103	-0.119
-180.042	-116.245	-0.109	-0.020
-179.027	-200.000	0.007	-0.166
-178.012	-200.000	-0.002	0.189
-176.998	-16.895	-0.233	-0.148
-175.983	-27.882	-0.145	0.085
-174.969	-113.883	0.107	0.021
-173.954	-76.150	-0.245	-0.087
-172.939	-108.595	-0.169	0.036
-171.925	205.842	-0.014	0.022
-170.910	-108.274	0.149	-0.032
-169.896	-200.000	-0.028	-0.186
-168.881	55.498	-0.357	0.346
-167.866	-93.268	0.349	0.097
-166.852	129.003	-0.093	0.120
-165.837	202.783	-0.115	0.179
-164.823	-163.998	-0.288	0.013
-163.808	348.279	0.254	0.502
-162.793	144.629	0.163	0.219
-161.779	109.705	0.177	-0.212
-160.764	27.355	-0.284	-0.240
-159.750	800.000	-0.105	-0.359
-158.735	-33.355	0.147	-0.081
-157.720	800.000	-0.071	-0.263
-156.706	-30.217	-0.046	-0.026
-155.691	-92.759	0.168	-0.047
-154.677	-26.522	0.076	-0.045
-153.662	-192.052	0.215	-0.002
-152.647	-107.698	0.418	0.092
-151.633	-200.000	0.002	-0.022
-150.618	-124.860	0.341	0.053
-149.604	-200.000	0.038	0.257
-148.589	800.000	-0.024	-0.092
-147.574	800.000	0.088	0.305
-146.560	-200.000	0.008	-0.115
-145.545	-145.120	-0.202	0.018
-144.531	64.118	0.124	0.125
-143.516	334.815	-0.121	-0.234
-142.502	364.003	0.052	-0.104
-141.487	-124.479	-0.238	-0.037
-140.472	-186.774	0.185	-0.003
-139.458	67.024	-0.182	0.186
-138.443	-1.866	-0.280	0.197
-137.429	121.023	0.152	0.189
-136.414	116.325	0.053	-0.065
-135.399	-35.667	0.130	0.070
-134.385	30.530	0.314	-0.269
-133.370	-200.000	-0.024	-0.346
-132.356	187.057	0.114	-0.171
-131.341	74.950	0.147	0.155
-130.326	24.570	0.217	0.180
-129.312	406.573	0.132	0.279
-128.297	-39.500	-0.173	0.091
-127.283	-41.549	-0.136	0.070
-126.268	800.000	-0.075	-0.233
-125.253	800.000	-0.057	-0.208
-124.239	-162.864	-0.129	0.006
-123.224	800.000	0.074	0.291
-122.210	-200.000	-0.024	-0.146
-121.195	138.192	0.270	-0.354
