DTS Sentinel unit serial number:	SN413079Multiplexer serial number:	ORYXHardware model number:	OX4-SRSoftware version number:	ORYX F/W v4.00 Oryx Data Collector v3.7.2.0data status	okinstallation	princeton_trtdifferential loss correction	single-endedforward channel	channel 2reverse channel	N/Adate	2019/09/10time	20:01:10forward acquisition time	60.00reverse acquisition time	0.00gamma	496.2192k internal	0.2328k external	0.2328temperature offset calibration	0.9947default loss term (dB/km)	0.3790temperature slope calibration	1.0000multiplexer offset coefficient	1.0000multiplexer slope coefficient	1.0000fibre end	0.00T internal ref (°C)	32.62T ext. ref 1 (°C)	-0.31T ext. ref 2 (°C)	25.70length (m)	temperature (°C)	Stokes	anti-Stokes-747.200	251.671	0.062	0.107
-746.185	800.000	-0.097	0.275
-745.171	800.000	-0.040	0.127
-744.156	132.839	-0.139	0.181
-743.142	-119.554	0.368	-0.064
-742.127	192.759	-0.075	-0.114
-741.112	800.000	0.047	-0.164
-740.098	76.412	-0.188	0.200
-739.083	-9.294	-0.203	0.137
-738.069	-200.000	-0.017	0.091
-737.054	-200.000	-0.020	-0.139
-736.039	-27.078	-0.150	-0.088
-735.025	380.870	-0.063	-0.130
-734.010	-8.461	-0.056	-0.038
-732.996	-106.484	-0.291	-0.065
-731.981	-43.339	0.241	-0.123
-730.966	800.000	-0.040	-0.135
-729.952	-200.000	0.014	-0.258
-728.937	38.653	0.012	0.010
-727.923	220.174	0.027	0.044
-726.908	-108.240	0.205	0.045
-725.894	-118.744	0.135	0.024
-724.879	114.182	-0.173	-0.212
-723.864	111.046	0.095	-0.115
-722.850	216.602	0.144	-0.231
-721.835	-76.468	-0.174	0.062
-720.821	-120.396	0.342	-0.059
-719.806	47.091	-0.142	0.133
-718.791	108.178	-0.240	-0.288
-717.777	4.326	-0.328	-0.242
-716.762	129.535	0.026	0.034
-715.748	355.078	0.079	-0.159
-714.733	36.718	-0.157	0.140
-713.718	-0.445	0.344	0.246
-712.704	-108.606	0.179	0.039
-711.689	-128.479	-0.145	0.021
-710.675	21.211	-0.115	0.094
-709.660	-150.933	0.232	0.018
-708.645	109.547	-0.108	0.130
-707.631	101.642	0.138	0.161
-706.616	-124.018	0.126	0.020
-705.602	495.298	0.041	0.094
-704.587	-139.131	-0.310	-0.034
-703.572	48.542	-0.211	-0.199
-702.558	-200.000	0.007	-0.135
-701.543	725.366	-0.037	-0.100
-700.529	-83.173	0.198	-0.064
-699.514	455.846	-0.093	-0.207
-698.499	166.425	0.007	-0.010
-697.485	10.801	-0.057	-0.043
-696.470	-200.000	0.009	-0.291
-695.456	-87.637	-0.302	-0.092
-694.441	94.771	0.072	-0.083
-693.426	-43.168	-0.170	0.086
-692.412	-200.000	-0.035	0.194
-691.397	-151.241	-0.209	-0.016
-690.383	-200.000	0.004	-0.082
-689.368	-92.836	-0.257	0.072
-688.354	-175.090	-0.103	0.003
-687.339	-25.978	-0.079	-0.047
-686.324	74.146	0.168	0.178
-685.310	-130.159	-0.351	0.048
-684.295	-200.000	-0.085	0.455
-683.281	800.000	0.048	-0.202
-682.266	800.000	-0.060	-0.184
-681.251	-89.919	-0.321	-0.094
-680.237	244.268	0.047	-0.079
-679.222	-46.086	0.036	0.018
-678.208	69.014	0.095	0.098
-677.193	-200.000	-0.036	-0.191
-676.178	45.776	-0.306	-0.284
-675.164	-128.236	-0.281	0.040
-674.149	-200.000	0.043	-0.256
-673.135	-146.144	-0.353	-0.031
-672.120	62.977	0.277	-0.279
-671.105	-31.760	-0.464	-0.262
-670.091	413.852	-0.149	0.319
-669.076	190.742	0.046	-0.070
-668.062	-6.537	0.217	-0.148
-667.047	35.974	0.059	0.053
-666.032	590.012	0.067	-0.165
-665.018	168.078	0.149	-0.213
-664.003	128.266	-0.163	0.209
-662.989	-132.836	-0.118	-0.015
-661.974	-200.000	-0.064	0.424
-660.959	800.000	0.165	-0.523
-659.945	-200.000	0.058	-0.287
-658.930	214.580	0.132	-0.209
-657.916	116.612	-0.041	0.050
-656.901	-107.979	-0.213	-0.046
-655.886	-73.513	-0.126	-0.046
-654.872	-132.057	0.089	0.012
-653.857	-5.945	-0.267	-0.183
-652.843	800.000	-0.052	0.183
-651.828	-178.989	-0.166	0.004
-650.814	83.392	-0.122	-0.134
-649.799	672.865	0.096	0.250
-648.784	-158.408	-0.352	0.020
-647.770	98.284	0.065	-0.075
-646.755	92.059	0.125	0.141
-645.741	-75.059	0.225	0.081
-644.726	-70.529	0.128	0.049
-643.711	78.157	-0.323	0.346
-642.697	800.000	0.017	0.054
-641.682	800.000	-0.038	0.105
-640.668	-158.989	-0.096	0.005
-639.653	263.838	-0.042	-0.073
-638.638	275.569	-0.025	0.044
-637.624	-122.207	-0.263	-0.043
-636.609	-39.858	0.162	0.085
-635.595	152.696	-0.169	-0.232
-634.580	178.004	-0.122	-0.179
-633.565	800.000	-0.062	-0.233
-632.551	384.311	-0.071	-0.146
-631.536	800.000	-0.040	-0.130
-630.522	800.000	-0.125	-0.519
-629.507	37.652	0.049	0.043
-628.492	-135.635	-0.264	0.031
-627.478	757.970	-0.115	-0.312
-626.463	-200.000	0.012	0.054
-625.449	-200.000	-0.007	-0.036
-624.434	140.105	0.051	-0.067
-623.419	27.057	-0.157	0.132
-622.405	-68.033	-0.229	0.090
-621.390	-170.149	-0.249	-0.009
-620.376	238.802	-0.058	0.097
-619.361	-200.000	-0.019	-0.248
-618.346	-200.000	0.027	0.211
-617.332	109.199	0.104	-0.125
-616.317	-200.000	0.024	-0.153
-615.303	800.000	-0.117	-0.464
-614.288	-98.254	-0.287	-0.074
-613.273	-123.005	0.205	0.033
-612.259	800.000	0.032	0.119
-611.244	-29.223	-0.110	-0.063
-610.230	-159.260	-0.240	-0.013
-609.215	-52.061	-0.160	-0.075
-608.201	269.436	-0.140	0.246
-607.186	-151.815	-0.174	0.013
-606.171	31.125	0.316	-0.271
-605.157	215.643	-0.160	0.255
-604.142	-5.469	0.164	0.113
-603.128	800.000	0.027	-0.090
-602.113	28.907	-0.395	-0.336
-601.098	-165.723	0.153	-0.007
-600.084	-95.343	-0.067	-0.018
-599.069	-200.000	-0.005	0.161
-598.055	10.287	0.149	0.114
-597.040	139.562	0.138	-0.182
-596.025	-160.618	-0.097	0.005
-595.011	-19.344	0.182	0.113
-593.996	11.892	-0.274	-0.211
-592.982	-141.238	0.495	0.050
-591.967	-78.533	-0.321	0.110
-590.952	-108.193	-0.132	-0.029
-589.938	65.321	-0.051	0.051
-588.923	-200.000	0.014	-0.079
-587.909	221.735	0.056	-0.091
-586.894	102.095	-0.084	0.098
-585.879	127.579	-0.229	-0.291
-584.865	-200.000	0.041	0.250
-583.850	90.517	0.230	0.257
-582.836	-200.000	-0.021	0.164
-581.821	-200.000	-0.033	0.257
-580.806	45.018	0.072	0.067
-579.792	588.004	-0.068	0.169
-578.777	105.983	0.197	0.234
-577.763	-13.214	0.065	0.043
-576.748	-200.000	-0.014	0.213
-575.733	-70.187	0.214	-0.082
-574.719	-163.748	0.216	-0.010
-573.704	-157.189	0.190	0.012
-572.690	-200.000	-0.027	-0.269
-571.675	550.427	0.046	-0.110
-570.661	44.926	-0.074	-0.068
-569.646	115.296	0.347	0.424
-568.631	-144.113	0.365	-0.034
-567.617	-6.462	0.138	0.094
-566.602	9.921	-0.128	0.097
-565.588	-159.387	0.437	-0.024
-564.573	-200.000	-0.022	-0.440
-563.558	201.490	0.170	-0.262
-562.544	-115.516	0.276	-0.052
-561.529	-200.000	0.013	0.217
-560.515	-200.000	-0.031	-0.235
-559.500	-109.178	-0.251	0.053
-558.485	633.566	-0.079	0.201
-557.471	119.762	-0.076	-0.094
-556.456	-200.000	-0.044	0.220
-555.442	-13.518	0.066	0.043
-554.427	-200.000	-0.008	-0.150
-553.412	716.325	-0.090	-0.239
-552.398	-127.294	-0.453	0.066
-551.383	-119.045	0.111	0.019
-550.369	-13.850	0.131	0.085
-549.354	334.829	-0.187	-0.363
-548.339	216.213	0.143	-0.228
-547.325	20.397	-0.218	0.176
-546.310	-40.457	-0.058	0.030
-545.296	96.140	-0.230	-0.262
-544.281	-59.479	-0.345	0.148
-543.266	-200.000	-0.015	0.296
-542.252	-200.000	-0.022	-0.213
-541.237	-38.178	0.304	0.161
-540.223	-200.000	0.051	-0.356
-539.208	53.577	0.140	-0.134
-538.193	-173.340	-0.310	0.009
-537.179	-68.117	0.213	-0.083
-536.164	-151.698	0.223	-0.016
-535.150	-40.442	0.183	-0.095
-534.135	-54.172	-0.254	0.115
-533.121	168.481	-0.153	0.218
-532.106	57.835	-0.174	-0.171
-531.091	291.662	0.032	0.058
-530.077	-43.356	-0.128	0.065
-529.062	130.165	-0.101	-0.129
-528.048	800.000	0.022	-0.094
-527.033	-58.521	-0.301	-0.130
-526.018	-104.126	-0.207	-0.048
-525.004	-200.000	-0.012	0.159
-523.989	-43.648	0.304	0.153
-522.975	279.234	-0.112	-0.200
-521.960	-105.809	-0.069	-0.016
-520.945	-122.271	0.440	-0.072
-519.931	-200.000	-0.039	-0.236
-518.916	-29.290	0.193	0.110
-517.902	-60.715	0.098	0.042
-516.887	494.512	-0.072	0.165
-515.872	-22.561	0.043	0.026
-514.858	32.372	0.201	-0.173
-513.843	-92.173	0.203	-0.057
-512.829	-200.000	-0.067	0.448
-511.814	42.739	-0.297	0.270
-510.799	279.146	-0.122	0.218
-509.785	-200.000	-0.033	-0.298
-508.770	281.746	-0.308	-0.551
-507.756	-25.273	-0.236	0.140
-506.741	-170.571	-0.363	-0.013
-505.726	768.423	0.028	-0.076
-504.712	-42.403	-0.338	-0.172
-503.697	-63.816	-0.186	-0.076
-502.683	34.427	0.266	-0.232
-501.668	466.885	-0.194	0.434
-500.653	-200.000	-0.025	-0.437
-499.639	-67.308	0.047	0.018
-498.624	-121.307	-0.182	-0.030
-497.610	-78.197	0.369	-0.126
-496.595	800.000	-0.090	-0.313
-495.581	-158.159	-0.227	-0.013
-494.566	-200.000	-0.007	-0.183
-493.551	-98.483	0.122	0.031
-492.537	-96.437	-0.282	0.074
-491.522	-139.569	0.354	0.038
-490.508	121.905	-0.170	-0.211
-489.493	-200.000	-0.049	-0.241
-488.478	1.789	-0.205	-0.148
-487.464	306.443	-0.103	0.190
-486.449	263.865	0.201	-0.348
-485.435	-151.020	0.346	-0.026
-484.420	347.585	-0.145	0.285
-483.405	92.468	0.203	0.228
-482.391	800.000	0.074	0.249
-481.376	37.099	-0.194	-0.171
-480.362	85.941	-0.139	-0.153
-479.347	-200.000	-0.065	-0.431
-478.332	-107.801	-0.214	-0.047
-477.318	-134.198	-0.137	0.017
-476.303	132.217	-0.152	-0.195
-475.289	-67.741	0.286	0.112
-474.274	182.963	0.054	0.079
-473.259	-94.968	-0.225	-0.061
-472.245	800.000	0.050	0.185
-471.230	-200.000	-0.011	-0.062
-470.216	-200.000	0.034	0.176
-469.201	-136.448	0.189	-0.022
-468.186	37.712	0.045	-0.039
-467.172	556.637	0.015	0.036
-466.157	95.298	0.177	-0.201
-465.143	-33.392	-0.073	-0.040
-464.128	-157.099	-0.234	-0.014
-463.113	192.456	0.132	0.199
-462.099	-73.004	0.316	0.116
-461.084	585.272	0.041	0.101
-460.070	-71.508	0.253	0.094
-459.055	-8.213	-0.223	-0.150
-458.040	4.301	-0.286	0.209
-457.026	103.574	-0.080	0.094
-456.011	-200.000	0.058	-0.266
-454.997	-200.000	-0.013	0.142
-453.982	271.326	-0.083	-0.146
-452.968	-63.160	-0.534	-0.219
-451.953	800.000	-0.041	-0.176
-450.938	-60.422	0.239	0.101
-449.924	-200.000	0.032	0.335
-448.909	155.170	-0.129	-0.176
-447.895	-200.000	-0.024	-0.142
-446.880	-5.699	0.271	-0.185
-445.865	800.000	-0.040	0.156
-444.851	-73.491	-0.341	-0.124
-443.836	-175.424	-0.327	-0.009
-442.822	28.580	-0.117	0.099
-441.807	-200.000	-0.011	-0.081
-440.792	130.071	-0.032	-0.041
-439.778	97.501	-0.100	0.115
-438.763	143.119	0.091	0.121
-437.749	-39.812	-0.192	-0.100
-436.734	-200.000	-0.022	-0.141
-435.719	81.803	-0.062	-0.066
-434.705	-134.351	0.182	-0.022
-433.690	800.000	0.073	0.222
-432.676	40.680	0.081	0.073
-431.661	360.678	-0.049	0.097
-430.646	86.083	-0.102	0.111
-429.632	185.595	0.099	-0.146
-428.617	800.000	-0.130	0.357
-427.603	-68.149	-0.157	0.061
-426.588	-151.582	0.083	0.006
-425.573	-122.172	0.203	0.033
-424.559	-200.000	0.027	-0.265
-423.544	4.798	0.148	0.108
-422.530	-200.000	-0.005	0.031
-421.515	82.052	-0.165	-0.178
-420.500	145.805	0.265	-0.354
-419.486	-200.000	-0.021	-0.426
-418.471	-200.000	0.015	-0.190
-417.457	-200.000	-0.010	-0.079
-416.442	-39.243	-0.180	-0.094
-415.428	-99.614	-0.223	0.056
-414.413	-89.209	-0.500	0.147
-413.398	595.449	-0.036	0.089
-412.384	-57.540	0.132	-0.057
-411.369	272.167	-0.112	0.196
-410.355	251.741	0.135	0.228
-409.340	173.465	-0.093	0.133
-408.325	-169.910	0.269	-0.010
-407.311	-19.033	-0.078	-0.048
-406.296	-200.000	0.001	0.194
-405.282	800.000	0.085	-0.235
-404.267	-183.008	0.422	0.007
-403.252	-200.000	0.003	0.150
-402.238	800.000	0.076	-0.213
-401.223	800.000	0.148	0.421
-400.209	-49.176	-0.090	0.043
-399.194	-127.332	-0.468	-0.068
-398.179	-43.114	0.028	0.014
-397.165	800.000	0.021	0.080
-396.150	104.611	0.095	0.112
-395.136	-200.000	-0.023	-0.225
-394.121	-200.000	0.017	-0.216
-393.106	29.277	0.106	-0.090
-392.092	-73.335	0.129	-0.047
-391.077	595.972	-0.024	0.059
-390.063	-200.000	-0.012	0.264
-389.048	143.467	-0.106	-0.140
-388.033	-78.375	-0.215	0.073
-387.019	59.641	0.101	-0.099
-386.004	800.000	-0.069	0.209
-384.990	-57.099	-0.181	-0.079
-383.975	288.960	-0.037	-0.067
-382.960	-200.000	-0.018	0.117
-381.946	-18.783	-0.306	0.190
-380.931	-42.387	-0.253	0.128
-379.917	-200.000	-0.029	0.278
-378.902	-158.907	0.228	0.013
-377.888	-100.738	-0.286	0.070
-376.873	570.472	0.089	0.214
-375.858	-138.184	-0.363	0.040
-374.844	-130.758	0.253	-0.034
-373.829	-170.426	0.219	0.008
-372.815	-78.001	0.384	-0.132
-371.800	-159.655	0.269	-0.015
-370.785	60.547	0.176	0.173
-369.771	45.230	-0.123	-0.113
-368.756	-12.332	-0.173	-0.112
-367.742	-181.982	0.058	0.001
-366.727	-200.000	-0.013	0.174
-365.712	-138.599	-0.228	-0.025
-364.698	-28.163	0.257	0.148
-363.683	800.000	-0.094	-0.316
-362.669	-200.000	0.034	0.184
-361.654	128.604	-0.177	0.224
-360.639	246.336	0.203	0.340
-359.625	800.000	0.026	0.091
-358.610	-6.269	0.091	-0.062
-357.596	-28.882	0.121	-0.069
-356.581	6.833	0.066	-0.049
-355.566	-71.275	-0.115	0.043
-354.552	191.308	-0.144	0.215
-353.537	-134.510	-0.134	0.016
-352.523	-200.000	0.024	0.125
-351.508	251.012	-0.207	0.349
-350.493	-97.110	-0.182	0.047
-349.479	-200.000	-0.040	-0.193
-348.464	800.000	-0.076	0.265
-347.450	-117.432	0.281	0.050
-346.435	-200.000	-0.005	-0.168
-345.420	635.067	-0.118	0.297
-344.406	-129.466	-0.202	-0.028
-343.391	-108.094	0.374	-0.080
-342.377	281.210	-0.029	-0.051
-341.362	89.644	-0.048	0.053
-340.348	230.896	0.175	-0.284
-339.333	261.537	0.140	-0.241
-338.318	-95.928	-0.126	0.033
-337.304	502.371	0.047	0.107
-336.289	84.519	-0.138	-0.150
-335.275	-137.899	0.227	0.025
-334.260	800.000	-0.107	0.311
-333.245	-200.000	-0.008	0.139
-332.231	800.000	-0.077	0.301
-331.216	-33.611	-0.294	0.161
-330.202	118.673	0.071	0.087
-329.187	-200.000	0.029	0.223
-328.172	-79.739	-0.105	-0.035
-327.158	25.465	0.147	0.121
-326.143	254.893	-0.246	-0.417
-325.129	-137.636	-0.241	0.027
-324.114	33.965	0.076	-0.066
-323.099	199.370	0.120	0.182
-322.085	-52.937	-0.038	0.017
-321.070	-102.015	0.227	-0.054
-320.056	-144.603	0.550	0.050
-319.041	800.000	0.058	-0.205
-318.026	-200.000	0.024	-0.343
-317.012	765.377	0.053	-0.143
-315.997	86.580	-0.076	0.083
-314.983	-115.909	-0.165	0.031
-313.968	-200.000	0.047	-0.210
-312.953	-49.722	0.082	-0.039
-311.939	60.747	-0.071	0.070
-310.924	320.871	0.130	0.244
-309.910	-47.101	0.388	0.188
-308.895	80.161	-0.124	-0.132
-307.880	-150.242	0.174	-0.013
-306.866	800.000	-0.068	-0.268
-305.851	64.234	0.232	0.231
-304.837	6.257	-0.190	-0.140
-303.822	800.000	0.014	-0.055
-302.807	52.909	0.137	-0.130
-301.793	1.606	0.082	0.059
-300.778	-68.251	0.184	0.071
-299.764	-65.886	0.130	0.051
-298.749	322.079	0.147	-0.278
-297.735	146.165	0.140	-0.186
-296.720	351.045	-0.051	0.100
-295.705	-162.918	0.302	-0.015
-294.691	-77.118	0.345	-0.119
-293.676	-200.000	-0.001	-0.010
-292.662	775.831	0.097	-0.261
-291.647	134.185	-0.216	0.277
-290.632	-200.000	0.020	0.151
-289.618	800.000	0.070	-0.259
-288.603	39.928	0.146	0.129
-287.589	153.861	0.181	0.246
-286.574	266.332	-0.032	0.055
-285.559	-4.396	0.237	0.163
-284.545	-186.425	-0.307	0.004
-283.530	-200.000	-0.037	-0.221
-282.516	-192.560	-0.171	-0.002
-281.501	-200.000	-0.036	0.187
-280.486	-46.165	0.081	-0.040
-279.472	-69.271	-0.223	-0.085
-278.457	-82.249	0.060	-0.019
-277.443	372.119	-0.060	-0.121
-276.428	632.316	0.144	0.360
-275.413	-200.000	-0.018	0.178
-274.399	-88.628	-0.391	-0.115
-273.384	-200.000	-0.018	0.247
-272.370	467.153	-0.079	-0.176
-271.355	800.000	-0.009	-0.024
-270.340	-120.971	-0.368	-0.061
-269.326	800.000	-0.044	-0.131
-268.311	-44.062	0.257	-0.128
-267.297	63.603	-0.221	0.219
-266.282	423.880	-0.055	0.117
-265.267	-200.000	0.025	-0.277
-264.253	34.351	-0.093	0.081
-263.238	-141.985	0.376	0.037
-262.224	-165.535	0.087	0.004
-261.209	76.592	0.170	-0.178
-260.195	800.000	-0.054	0.200
-259.180	-200.000	0.001	-0.116
-258.165	282.696	0.088	0.155
-257.151	771.996	0.068	0.184
-256.136	-200.000	-0.017	0.167
-255.122	800.000	0.029	-0.095
-254.107	-200.000	-0.021	0.217
-253.092	156.666	-0.087	-0.119
-252.078	101.136	-0.224	0.257
-251.063	800.000	0.011	0.038
-250.049	139.625	0.278	-0.362
-249.034	130.607	-0.150	-0.190
-248.019	-200.000	-0.103	0.481
-247.005	-24.749	0.116	0.068
-245.990	154.639	0.394	0.535
-244.976	-125.766	-0.295	0.044
-243.961	8.754	0.109	0.081
-242.946	-88.667	0.123	-0.036
-241.932	78.285	0.230	-0.243
-240.917	-31.515	0.221	0.123
-239.903	-200.000	-0.037	-0.243
-238.888	-23.632	-0.129	0.076
-237.873	800.000	-0.160	-0.476
-236.859	-147.315	0.131	-0.011
-235.844	59.160	-0.317	-0.308
-234.830	-200.000	0.014	-0.122
-233.815	-76.740	-0.395	-0.137
-232.800	-117.336	0.264	-0.047
-231.786	-200.000	0.015	0.412
-230.771	-200.000	0.015	0.108
-229.757	-111.459	0.097	0.019
-228.742	-200.000	-0.019	-0.196
-227.727	-200.000	-0.019	-0.114
-226.713	-3.679	-0.113	-0.078
-225.698	-200.000	0.019	0.322
-224.684	-62.676	0.100	-0.041
-223.669	-200.000	-0.002	-0.168
-222.655	800.000	0.066	0.256
-221.640	101.872	0.160	0.184
-220.625	218.778	-0.149	-0.235
-219.611	-1.274	0.166	0.115
-218.596	-200.000	-0.043	0.210
-217.582	11.540	0.201	0.152
-216.567	-179.076	0.355	-0.008
-215.552	-115.710	0.064	-0.012
-214.538	-200.000	0.040	0.416
-213.523	161.986	0.011	0.015
-212.509	-104.465	0.350	0.080
-211.494	11.305	0.200	-0.151
-210.479	-200.000	-0.017	-0.118
-209.465	34.386	-0.126	0.109
-208.450	262.667	-0.211	-0.361
-207.436	-200.000	0.043	-0.292
-206.421	20.496	0.092	0.073
-205.406	-2.090	0.105	-0.073
-204.392	800.000	0.069	-0.222
-203.377	-200.000	-0.021	-0.115
-202.363	90.566	-0.204	-0.226
-201.348	-200.000	-0.012	-0.052
-200.333	-7.529	-0.195	0.130
-199.319	-147.546	-0.479	-0.040
-198.304	125.452	-0.171	0.212
-197.290	-200.000	-0.032	0.280
-196.275	-5.542	-0.132	-0.090
-195.260	-141.599	0.291	0.029
-194.246	-200.000	0.006	-0.149
-193.231	-200.000	-0.033	-0.243
-192.217	547.761	0.099	0.233
-191.202	800.000	0.048	-0.203
-190.187	260.933	0.047	-0.080
-189.173	-154.343	0.242	0.016
-188.158	528.493	0.137	0.318
-187.144	-200.000	-0.076	0.371
-186.129	-120.880	-0.247	0.041
-185.114	70.339	-0.140	0.143
-184.100	-57.183	-0.110	0.048
-183.085	-132.376	0.096	-0.012
-182.071	-36.682	-0.071	0.038
-181.056	233.425	-0.062	-0.101
-180.042	-200.000	-0.079	-0.000
-179.027	-72.511	0.328	-0.119
-178.012	372.481	-0.050	-0.101
-176.998	800.000	0.095	-0.260
-175.983	-73.022	0.194	0.070
-174.969	185.733	0.085	-0.125
-173.954	-200.000	0.020	-0.193
-172.939	-166.232	-0.190	0.008
-171.925	-124.640	-0.104	0.016
-170.910	427.357	0.021	-0.045
-169.896	-28.332	0.100	0.057
-168.881	14.068	0.051	0.039
-167.866	-23.309	0.182	-0.108
-166.852	-7.169	0.203	0.136
-165.837	-141.981	0.183	0.018
-164.823	-198.008	0.263	0.002
-163.808	220.529	0.134	0.211
-162.793	231.387	0.107	-0.173
-161.779	-91.918	0.282	-0.079
-160.764	67.292	0.065	0.065
-159.750	-175.995	0.238	-0.006
-158.735	-62.348	0.290	0.119
-157.720	33.453	0.179	0.153
-156.706	-109.831	-0.102	0.021
-155.691	109.323	0.238	0.281
-154.677	-12.465	-0.160	-0.103
-153.662	800.000	0.039	-0.114
-152.647	-200.000	-0.028	0.143
-151.633	-17.553	-0.102	0.063
-150.618	61.307	-0.209	0.204
-149.604	-95.573	0.225	0.059
-148.589	800.000	0.050	0.149
-147.574	338.539	0.089	0.170
-146.560	-200.000	-0.046	-0.341
-145.545	-4.983	-0.207	0.140
-144.531	56.793	0.228	-0.219
-143.516	580.900	-0.082	-0.198
-142.502	-200.000	-0.003	-0.211
-141.487	-130.937	0.137	-0.018
-140.472	800.000	0.066	0.221
-139.458	-200.000	0.003	-0.289
-138.443	-77.747	0.077	0.026
-137.429	19.716	0.227	-0.180
-136.414	118.301	-0.170	0.207
-135.399	800.000	0.048	-0.142
-134.385	176.815	-0.050	0.071
-133.370	-45.049	-0.096	0.047
-132.356	82.136	-0.242	0.258
-131.341	800.000	0.036	0.125
-130.326	443.330	-0.093	-0.201
-129.312	-63.207	-0.188	0.076
-128.297	-21.894	-0.367	0.220
-127.283	606.900	-0.058	-0.141
-126.268	-98.668	-0.175	0.044
-125.253	-181.306	0.161	0.003
-124.239	800.000	-0.025	-0.069
-123.224	20.177	0.010	-0.008
-122.210	-53.587	-0.173	-0.078
