DTS Sentinel unit serial number:	SN413079Multiplexer serial number:	ORYXHardware model number:	OX4-SRSoftware version number:	ORYX F/W v4.00 Oryx Data Collector v3.7.2.0data status	okinstallation	princeton_trtdifferential loss correction	single-endedforward channel	channel 2reverse channel	N/Adate	2019/09/11time	12:29:11forward acquisition time	60.00reverse acquisition time	0.00gamma	496.2192k internal	0.2297k external	0.2297temperature offset calibration	0.9965default loss term (dB/km)	0.3790temperature slope calibration	1.0000multiplexer offset coefficient	1.0000multiplexer slope coefficient	1.0000fibre end	0.00T internal ref (°C)	40.44T ext. ref 1 (°C)	0.20T ext. ref 2 (°C)	38.01length (m)	temperature (°C)	Stokes	anti-Stokes-747.200	150.647	0.200	0.278
-746.185	-57.486	-0.315	0.141
-745.171	173.697	0.301	0.443
-744.156	-200.000	-0.068	0.335
-743.142	-79.803	0.284	0.098
-742.127	-45.621	-0.086	0.044
-741.112	-200.000	-0.033	0.174
-740.098	35.505	-0.200	-0.179
-739.083	130.016	0.212	0.278
-738.069	-200.000	0.091	0.540
-737.054	-63.976	0.119	-0.050
-736.039	-100.504	-0.176	0.044
-735.025	297.520	0.038	0.071
-734.010	-73.938	-0.498	-0.185
-732.996	-62.090	-0.096	0.041
-731.981	494.707	-0.059	-0.137
-730.966	118.964	0.080	0.101
-729.952	131.528	-0.093	0.123
-728.937	90.766	0.237	0.272
-727.923	-104.886	0.291	0.068
-726.908	-200.000	0.012	0.143
-725.894	800.000	-0.095	0.289
-724.879	-62.720	-0.327	-0.138
-723.864	800.000	-0.109	-0.412
-722.850	-114.135	-0.196	0.039
-721.835	800.000	-0.032	0.125
-720.821	-17.900	-0.268	0.171
-719.806	43.600	-0.092	-0.086
-718.791	-162.137	0.042	-0.002
-717.777	-103.466	-0.144	0.035
-716.762	-102.108	-0.082	-0.020
-715.748	-100.123	-0.327	0.083
-714.733	-31.150	-0.153	0.088
-713.718	-200.000	0.015	0.216
-712.704	800.000	-0.053	0.195
-711.689	-200.000	0.042	-0.310
-710.675	698.671	-0.030	0.080
-709.660	66.100	0.166	0.172
-708.645	320.653	-0.119	0.231
-707.631	-58.424	0.379	-0.168
-706.616	-200.000	-0.079	-0.364
-705.602	-72.844	0.216	0.081
-704.587	800.000	0.124	-0.393
-703.572	-49.731	-0.086	0.042
-702.558	-67.282	0.201	0.081
-701.543	-23.340	-0.187	-0.115
-700.529	-137.356	-0.441	0.051
-699.514	-61.339	0.250	0.107
-698.499	16.085	-0.114	-0.092
-697.485	-200.000	0.331	0.002
-696.470	35.812	0.080	0.071
-695.456	-11.274	-0.122	0.082
-694.441	-74.890	0.205	-0.075
-693.426	638.417	-0.073	0.189
-692.412	-48.784	-0.124	-0.061
-691.397	-200.000	-0.023	0.209
-690.383	-74.085	0.232	-0.086
-689.368	-200.000	-0.018	0.493
-688.354	127.616	-0.067	0.087
-687.339	-200.000	0.055	0.305
-686.324	45.247	-0.128	0.121
-685.310	-200.000	-0.026	-0.396
-684.295	-200.000	0.041	-0.205
-683.281	76.175	-0.109	-0.117
-682.266	-42.020	-0.270	-0.141
-681.251	-42.898	0.162	0.084
-680.237	8.713	-0.168	-0.129
-679.222	189.164	-0.124	0.189
-678.208	-37.127	-0.066	0.036
-677.193	-44.761	-0.305	-0.155
-676.178	54.788	-0.143	-0.141
-675.164	200.670	0.053	-0.083
-674.149	-200.000	0.012	0.191
-673.135	393.488	-0.164	-0.348
-672.120	7.683	-0.211	0.161
-671.105	431.529	0.138	-0.304
-670.091	-22.623	0.107	0.066
-669.076	-147.604	-0.160	0.014
-668.062	800.000	0.098	0.359
-667.047	-200.000	0.018	0.192
-666.032	-61.184	0.028	0.012
-665.018	306.972	0.177	-0.335
-664.003	800.000	0.076	0.285
-662.989	164.564	-0.018	-0.026
-661.974	-28.396	0.328	0.193
-660.959	-87.035	-0.244	-0.076
-659.945	-200.000	-0.038	-0.281
-658.930	-200.000	0.021	-0.261
-657.916	444.222	0.074	0.165
-656.901	-200.000	0.008	-0.117
-655.886	41.499	0.066	-0.061
-654.872	26.768	-0.165	0.141
-653.857	-56.572	0.219	-0.099
-652.843	800.000	-0.037	-0.108
-651.828	800.000	-0.036	-0.145
-650.814	364.537	0.093	0.191
-649.799	7.399	-0.100	0.076
-648.784	-19.952	0.147	0.093
-647.770	-56.575	-0.282	0.127
-646.755	-200.000	-0.006	0.268
-645.741	-95.723	0.152	0.041
-644.726	735.839	0.029	-0.079
-643.711	105.241	0.206	0.247
-642.697	-83.671	0.351	-0.114
-641.682	-200.000	0.031	0.212
-640.668	77.709	0.144	0.156
-639.653	-130.475	0.350	-0.048
-638.638	-64.296	-0.107	0.044
-637.624	-200.000	0.057	-0.271
-636.609	-67.181	0.188	-0.075
-635.595	-31.264	0.276	0.158
-634.580	52.253	0.279	-0.271
-633.565	-200.000	-0.025	-0.118
-632.551	231.232	0.182	0.304
-631.536	-163.768	-0.299	-0.014
-630.522	34.549	0.118	-0.105
-629.507	-117.200	-0.040	-0.007
-628.492	-110.712	0.119	-0.025
-627.478	375.932	-0.089	-0.185
-626.463	-163.664	-0.206	0.010
-625.449	-68.403	0.135	0.053
-624.434	392.602	-0.034	-0.071
-623.419	172.787	-0.174	-0.255
-622.405	-117.842	-0.195	-0.036
-621.390	118.281	-0.093	-0.116
-620.376	-1.763	0.151	-0.108
-619.361	101.297	0.252	0.299
-618.346	23.015	0.148	-0.123
-617.332	-47.157	0.075	-0.037
-616.317	434.108	-0.038	0.083
-615.303	800.000	-0.009	-0.034
-614.288	-163.337	-0.279	-0.014
-613.273	-142.964	0.190	-0.019
-612.259	82.241	0.159	-0.175
-611.244	-95.314	-0.172	-0.047
-610.230	639.566	0.054	-0.140
-609.215	-19.925	0.212	-0.133
-608.201	-50.896	-0.147	0.070
-607.186	-200.000	0.012	0.169
-606.171	-180.169	0.170	0.004
-605.157	800.000	-0.007	-0.030
-604.142	-37.765	-0.081	0.044
-603.128	-151.568	0.461	0.035
-602.113	-200.000	0.014	0.144
-601.098	89.523	-0.233	-0.264
-600.084	104.184	0.050	-0.060
-599.069	352.624	0.097	-0.195
-598.055	-157.629	-0.241	0.015
-597.040	98.103	-0.223	0.261
-596.025	547.382	0.038	0.093
-595.011	141.371	-0.059	-0.079
-593.996	45.685	0.293	0.275
-592.982	-50.675	-0.300	-0.143
-591.967	128.147	-0.060	0.078
-590.952	536.566	0.100	0.241
-589.938	112.499	0.201	0.247
-588.923	-38.159	0.306	-0.165
-587.909	106.513	-0.147	0.177
-586.894	483.112	-0.003	-0.007
-585.879	33.847	0.077	-0.068
-584.865	235.402	0.107	-0.180
-583.850	70.277	0.269	-0.282
-582.836	-93.102	0.352	0.099
-581.821	800.000	0.055	0.170
-580.806	-48.098	0.104	-0.051
-579.792	389.586	-0.013	0.027
-578.777	109.871	0.114	0.138
-577.763	121.992	-0.248	-0.314
-576.748	-71.334	-0.050	-0.019
-575.733	49.478	0.164	-0.157
-574.719	29.793	0.077	0.067
-573.704	-134.565	-0.071	0.009
-572.690	125.949	0.056	-0.072
-571.675	289.470	0.023	-0.043
-570.661	195.673	-0.046	-0.071
-569.646	-110.703	0.114	0.024
-568.631	-122.253	0.247	0.041
-567.617	-181.999	-0.366	-0.007
-566.602	221.517	-0.036	0.059
-565.588	-77.340	-0.362	-0.127
-564.573	-98.991	0.211	0.054
-563.558	224.153	0.113	-0.185
-562.544	5.119	0.171	0.128
-561.529	-185.586	0.073	0.001
-560.515	-200.000	0.001	-0.137
-559.500	-143.278	0.368	0.036
-558.485	8.216	0.121	0.092
-557.471	-200.000	0.026	0.210
-556.456	332.598	0.173	0.340
-555.442	-70.338	0.061	0.024
-554.427	800.000	-0.041	0.182
-553.412	698.215	-0.098	0.261
-552.398	-64.539	-0.368	0.152
-551.383	629.515	0.122	0.312
-550.369	-129.108	-0.320	0.045
-549.354	68.345	-0.037	-0.038
-548.339	-11.866	-0.044	-0.029
-547.325	800.000	-0.135	0.392
-546.310	-200.000	0.009	-0.369
-545.296	800.000	0.073	0.263
-544.281	-11.525	0.063	-0.042
-543.266	-200.000	0.052	0.280
-542.252	88.297	-0.098	-0.110
-541.237	-85.486	0.138	-0.044
-540.223	132.666	-0.053	-0.070
-539.208	-141.077	0.240	0.025
-538.193	141.309	-0.045	-0.060
-537.179	497.832	0.058	-0.134
-536.164	717.029	0.068	0.184
-535.150	90.531	0.075	-0.085
-534.135	4.145	0.245	-0.182
-533.121	-64.091	0.217	0.090
-532.106	28.757	-0.078	0.067
-531.091	-200.000	0.002	-0.329
-530.077	-200.000	0.024	0.201
-529.062	-54.326	0.064	0.030
-528.048	110.394	-0.132	-0.161
-527.033	109.584	0.196	-0.238
-526.018	-53.961	-0.255	0.118
-525.004	-39.706	0.205	-0.108
-523.989	-200.000	0.002	0.087
-522.975	800.000	-0.048	-0.185
-521.960	-128.051	-0.088	-0.013
-520.945	172.768	0.162	0.236
-519.931	-130.885	0.166	-0.022
-518.916	-200.000	-0.052	0.275
-517.902	-99.825	0.384	-0.097
-516.887	57.265	0.071	-0.070
-515.872	-36.009	-0.271	0.148
-514.858	-200.000	-0.013	0.103
-513.843	97.965	0.250	0.291
-512.829	-200.000	-0.026	0.256
-511.814	800.000	0.092	0.271
-510.799	538.846	0.086	0.207
-509.785	-0.972	-0.091	0.065
-508.770	-200.000	-0.035	0.393
-507.756	233.543	-0.191	-0.318
-506.741	-200.000	-0.001	-0.019
-505.726	-20.156	0.336	0.210
-504.712	800.000	0.025	-0.077
-503.697	-59.861	-0.167	-0.072
-502.683	-200.000	-0.020	-0.246
-501.668	31.119	-0.195	-0.169
-500.653	60.774	-0.133	0.133
-499.639	-200.000	0.027	0.147
-498.624	-95.318	0.204	0.056
-497.610	-19.910	-0.107	0.067
-496.595	-200.000	-0.035	-0.266
-495.581	50.940	-0.115	0.111
-494.566	-29.255	0.054	-0.031
-493.551	470.191	0.065	-0.147
-492.537	53.447	-0.090	0.087
-491.522	-110.308	-0.175	0.037
-490.508	35.312	-0.138	0.122
-489.493	-200.000	0.033	-0.236
-488.478	124.495	-0.222	-0.283
-487.464	-21.452	-0.234	-0.145
-486.449	-93.707	0.272	-0.076
-485.435	29.781	-0.079	0.068
-484.420	133.557	0.034	-0.044
-483.405	-200.000	-0.053	0.238
-482.391	800.000	-0.050	0.183
-481.376	546.612	-0.035	0.085
-480.362	-153.859	-0.201	0.014
-479.347	-200.000	0.005	-0.092
-478.332	-200.000	-0.015	-0.351
-477.318	12.290	-0.148	-0.115
-476.303	-79.554	0.069	-0.024
-475.289	-67.206	-0.165	0.066
-474.274	-10.472	-0.283	0.190
-473.259	7.133	0.103	0.078
-472.245	-131.981	-0.060	-0.008
-471.230	-64.955	0.180	0.073
-470.216	98.112	0.196	0.228
-469.201	800.000	-0.054	-0.186
-468.186	-113.258	0.191	-0.038
-467.172	46.141	0.281	0.263
-466.157	-200.000	-0.026	-0.194
-465.143	-26.265	-0.047	-0.028
-464.128	-110.677	-0.208	-0.043
-463.113	606.495	0.089	-0.224
-462.099	800.000	-0.014	-0.046
-461.084	626.663	-0.049	0.126
-460.070	-21.518	0.170	-0.105
-459.055	364.223	-0.125	-0.253
-458.040	333.679	-0.093	-0.182
-457.026	-162.101	-0.211	-0.011
-456.011	-60.209	-0.237	-0.102
-454.997	103.765	-0.117	-0.138
-453.982	363.984	-0.110	-0.223
-452.968	106.219	-0.188	0.225
-451.953	189.512	0.146	-0.221
-450.938	-200.000	0.048	-0.514
-449.924	-124.844	0.042	-0.007
-448.909	434.986	-0.106	0.232
-447.895	-200.000	0.001	0.117
-446.880	165.266	-0.257	0.367
-445.865	-200.000	0.004	-0.047
-444.851	-41.661	0.136	0.071
-443.836	380.248	-0.087	-0.180
-442.822	-31.022	-0.071	0.040
-441.807	-150.938	0.162	-0.012
-440.792	-165.995	-0.202	0.009
-439.778	224.665	-0.165	0.270
-438.763	-40.315	0.140	0.074
-437.749	554.620	-0.089	-0.216
-436.734	102.154	-0.029	-0.035
-435.719	81.906	0.123	0.135
-434.705	81.701	0.261	-0.285
-433.690	78.101	-0.091	0.098
-432.676	2.675	-0.309	0.226
-431.661	105.327	-0.185	-0.221
-430.646	800.000	-0.054	0.173
-429.632	30.411	-0.256	-0.221
-428.617	4.751	0.270	-0.200
-427.603	-72.322	-0.260	0.097
-426.588	-85.661	0.260	0.082
-425.573	-70.116	-0.251	0.096
-424.559	-156.575	-0.261	-0.016
-423.544	-191.783	0.186	-0.002
-422.530	-110.880	0.117	0.024
-421.515	12.278	-0.115	-0.089
-420.500	278.142	0.234	0.420
-419.486	-72.005	0.213	-0.080
-418.471	514.131	0.030	-0.070
-417.457	-200.000	-0.030	0.331
-416.442	-76.269	-0.130	0.046
-415.428	613.132	0.160	0.405
-414.413	-131.203	-0.361	-0.048
-413.398	800.000	-0.019	0.062
-412.384	0.769	0.083	0.060
-411.369	384.717	-0.021	0.043
-410.355	57.177	-0.163	0.160
-409.340	715.853	0.182	0.486
-408.325	-108.870	-0.320	0.069
-407.311	-200.000	0.015	-0.112
-406.296	-146.605	0.215	0.019
-405.282	791.084	0.054	0.149
-404.267	142.234	-0.119	0.159
-403.252	-101.317	-0.018	-0.005
-402.238	-99.994	-0.403	0.101
-401.223	800.000	0.145	0.587
-400.209	119.027	0.141	-0.176
-399.194	161.668	0.024	0.033
-398.179	-158.628	0.136	-0.008
-397.165	24.987	-0.143	0.119
-396.150	-160.221	0.248	-0.014
-395.136	39.799	-0.117	0.105
-394.121	156.385	0.163	0.226
-393.106	-84.901	-0.508	0.161
-392.092	-83.383	-0.267	-0.086
-391.077	508.787	0.016	0.038
-390.063	-114.806	-0.227	0.044
-389.048	-200.000	-0.006	-0.158
-388.033	478.946	0.185	0.422
-387.019	-48.626	0.202	-0.098
-386.004	800.000	0.029	-0.113
-384.990	-137.395	-0.145	-0.017
-383.975	-115.908	0.378	0.071
-382.960	-152.593	0.147	0.011
-381.946	-21.331	-0.160	-0.099
-380.931	-44.316	-0.262	-0.132
-379.917	-62.173	0.358	0.150
-378.902	191.678	-0.177	0.268
-377.888	-47.430	-0.175	0.086
-376.873	-200.000	0.006	0.043
-375.858	127.959	0.072	-0.092
-374.844	-80.127	0.420	-0.142
-373.829	-76.855	-0.419	0.148
-372.815	-125.887	-0.265	-0.040
-371.800	-175.274	-0.227	-0.006
-370.785	25.904	-0.144	0.121
-369.771	800.000	-0.049	-0.153
-368.756	-119.864	-0.187	0.032
-367.742	800.000	0.022	0.085
-366.727	-200.000	0.009	0.273
-365.712	-52.146	-0.102	0.048
-364.698	800.000	-0.067	0.216
-363.683	502.831	0.121	0.282
-362.669	574.620	0.058	0.143
-361.654	-184.238	0.083	-0.001
-360.639	-70.289	-0.158	-0.060
-359.625	321.906	-0.153	0.294
-358.610	-68.666	-0.236	-0.092
-357.596	95.818	-0.145	-0.167
-356.581	-105.746	0.134	-0.030
-355.566	-200.000	0.001	0.072
-354.552	30.180	-0.184	0.158
-353.537	105.560	0.189	-0.224
-352.523	516.088	-0.118	-0.278
-351.508	800.000	0.040	-0.137
-350.493	199.639	0.218	-0.337
-349.479	-143.849	0.084	0.008
-348.464	-81.946	0.383	0.126
-347.450	-19.023	0.214	0.134
-346.435	253.108	-0.158	-0.271
-345.420	-152.833	-0.176	0.013
-344.406	635.070	-0.052	0.133
-343.391	122.656	-0.235	0.296
-342.377	433.159	0.071	0.155
-341.362	-2.373	0.071	0.050
-340.348	-29.121	-0.114	0.065
-339.333	644.947	0.099	-0.253
-338.318	-72.149	-0.134	0.050
-337.304	653.980	0.042	0.107
-336.289	147.434	0.126	0.170
-335.275	193.080	-0.051	-0.077
-334.260	800.000	-0.076	-0.217
-333.245	-138.636	0.050	-0.006
-332.231	-30.750	0.057	-0.032
-331.216	-83.171	-0.238	-0.077
-330.202	800.000	-0.093	0.309
-329.187	-6.491	0.023	-0.016
-328.172	141.151	0.018	-0.023
-327.158	35.905	-0.220	-0.195
-326.143	-109.970	-0.112	-0.024
-325.129	25.925	0.088	0.074
-324.114	800.000	-0.074	-0.275
-323.099	101.976	-0.181	-0.212
-322.085	800.000	0.109	-0.315
-321.070	116.380	-0.149	0.183
-320.056	-100.733	-0.409	0.101
-319.041	-200.000	-0.053	-0.283
-318.026	14.778	-0.239	-0.188
-317.012	20.384	-0.168	-0.136
-315.997	-95.035	0.420	-0.114
-314.983	-12.992	-0.140	0.092
-313.968	-99.835	0.506	0.127
-312.953	-3.724	-0.256	-0.178
-311.939	489.324	-0.077	0.176
-310.924	-2.702	-0.118	-0.083
-309.910	-83.460	-0.239	-0.077
-308.895	-126.432	0.141	-0.021
-307.880	-138.695	-0.249	-0.027
-306.866	62.028	0.164	-0.164
-305.851	800.000	-0.065	-0.226
-304.837	-139.511	0.102	0.011
-303.822	-103.914	0.200	0.047
-302.807	800.000	0.053	-0.210
-301.793	-25.721	0.093	0.055
-300.778	-200.000	-0.014	-0.363
-299.764	-101.842	-0.062	-0.015
-298.749	-78.288	0.358	0.123
-297.735	-118.372	0.333	-0.059
-296.720	33.598	0.137	-0.119
-295.705	679.399	-0.059	-0.154
-294.691	800.000	0.078	0.262
-293.676	681.200	0.094	-0.245
-292.662	-68.166	-0.119	0.047
-291.647	-146.806	0.210	-0.018
-290.632	379.390	0.131	-0.270
-289.618	-129.707	-0.263	0.036
-288.603	247.391	-0.040	-0.069
-287.589	47.871	-0.123	-0.116
-286.574	70.465	0.227	-0.236
-285.559	-48.327	-0.054	-0.026
-284.545	-79.817	0.021	0.007
-283.530	193.807	-0.153	0.232
-282.516	240.007	0.163	0.272
-281.501	23.290	-0.144	0.119
-280.486	718.361	0.033	-0.089
-279.472	-144.562	-0.290	0.027
-278.457	-200.000	-0.043	-0.356
-277.443	800.000	0.064	-0.179
-276.428	45.306	-0.084	-0.078
-275.413	800.000	-0.098	-0.290
-274.399	96.475	-0.118	-0.135
-273.384	-115.750	0.270	-0.051
-272.370	-83.414	0.108	-0.035
-271.355	35.389	-0.157	0.138
-270.340	-67.977	0.154	-0.060
-269.326	-29.745	0.411	0.235
-268.311	327.038	0.111	0.214
-267.297	-168.348	0.187	0.007
-266.282	800.000	0.062	0.235
-265.267	-200.000	0.002	-0.247
-264.253	-18.073	-0.087	0.055
-263.238	-3.445	0.225	0.157
-262.224	-38.068	-0.080	0.043
-261.209	-200.000	-0.043	-0.269
-260.195	-29.551	0.076	-0.044
-259.180	-200.000	-0.048	-0.322
-258.165	134.314	-0.100	-0.130
-257.151	800.000	-0.109	0.351
-256.136	266.056	0.054	-0.094
-255.122	-200.000	-0.017	-0.345
-254.107	800.000	-0.038	0.118
-253.092	-83.942	0.172	0.055
-252.078	11.685	0.237	-0.182
-251.063	-57.832	0.260	0.114
-250.049	-130.465	0.298	-0.040
-249.034	83.139	0.083	0.090
-248.019	-123.290	-0.149	-0.024
-247.005	-33.389	0.067	0.037
-245.990	-126.129	0.346	0.052
-244.976	-59.128	-0.124	-0.054
-243.961	-23.773	0.200	-0.120
-242.946	219.986	-0.231	0.371
-241.932	-1.537	-0.162	0.114
-240.917	47.332	-0.023	0.021
-239.903	-21.223	0.200	0.122
-238.888	-42.622	-0.032	0.017
-237.873	16.570	-0.029	-0.023
-236.859	5.784	-0.076	0.056
-235.844	-33.686	-0.340	0.188
-234.830	63.924	0.231	-0.233
-233.815	-111.506	-0.052	0.011
-232.800	93.493	-0.169	0.191
-231.786	-81.412	-0.521	0.172
-230.771	-49.905	0.081	-0.039
-229.757	-200.000	-0.089	-0.397
-228.742	59.634	-0.180	0.177
-227.727	5.630	0.141	-0.104
-226.713	-200.000	0.046	-0.364
-225.698	-200.000	-0.011	-0.235
-224.684	2.636	0.238	-0.173
-223.669	-35.098	-0.362	0.197
-222.655	183.189	-0.161	-0.239
-221.640	-70.774	-0.363	0.137
-220.625	-138.017	-0.142	0.016
-219.611	-200.000	-0.027	-0.233
-218.596	-7.023	-0.181	-0.123
-217.582	-55.071	0.181	-0.081
-216.567	-25.672	0.293	0.173
-215.552	800.000	-0.113	0.459
-214.538	800.000	-0.114	0.393
-213.523	283.018	-0.082	-0.147
-212.509	50.120	-0.235	0.222
-211.494	-200.000	0.024	-0.177
-210.479	334.241	-0.037	0.072
-209.465	-37.475	0.389	0.208
-208.450	1.801	0.256	-0.184
-207.436	-8.979	0.168	-0.113
-206.421	800.000	-0.091	0.284
-205.406	114.022	-0.088	0.107
-204.392	-191.597	-0.274	-0.003
-203.377	-24.402	0.127	-0.076
-202.363	-200.000	-0.061	-0.356
-201.348	-140.745	0.078	-0.008
-200.333	62.251	0.329	-0.328
-199.319	-43.065	-0.198	0.100
-198.304	-200.000	-0.009	0.110
-197.290	-119.225	0.285	0.050
-196.275	-87.601	-0.318	-0.096
-195.260	800.000	-0.011	-0.042
-194.246	-23.411	-0.145	-0.087
-193.231	63.625	0.019	0.019
-192.217	-100.932	0.083	0.020
-191.202	-96.840	0.149	-0.039
-190.187	310.911	0.183	-0.342
-189.173	17.601	0.187	0.149
-188.158	159.633	0.093	-0.130
-187.144	477.098	0.024	-0.055
-186.129	-47.038	0.233	-0.114
-185.114	-125.500	0.042	-0.006
-184.100	-15.405	-0.174	0.111
-183.085	-82.239	0.151	-0.049
-182.071	-129.110	0.289	0.040
-181.056	-103.830	-0.288	-0.067
-180.042	800.000	0.079	0.218
-179.027	216.712	-0.038	0.060
-178.012	-13.466	-0.232	-0.150
-176.998	-61.807	0.231	0.097
-175.983	-8.836	-0.382	0.256
-174.969	99.322	0.270	-0.312
-173.954	-10.121	-0.190	-0.126
-172.939	136.212	0.033	-0.043
-171.925	-200.000	-0.015	-0.113
-170.910	-200.000	0.023	0.332
-169.896	-23.377	-0.147	-0.088
-168.881	-100.681	-0.204	0.050
-167.866	-21.658	-0.156	-0.095
-166.852	770.659	-0.159	-0.432
-165.837	164.161	0.206	-0.289
-164.823	272.230	0.049	-0.087
-163.808	-163.584	-0.180	-0.009
-162.793	157.243	-0.179	0.247
-161.779	245.068	-0.077	-0.129
-160.764	-200.000	0.034	-0.227
-159.750	114.032	-0.086	-0.105
-158.735	281.525	-0.048	-0.087
-157.720	-200.000	-0.033	0.154
-156.706	60.561	-0.085	-0.084
-155.691	38.035	0.338	-0.300
-154.677	-137.077	-0.304	0.035
-153.662	105.741	0.177	-0.209
-152.647	50.091	0.143	-0.135
-151.633	800.000	-0.064	0.213
-150.618	111.904	-0.151	-0.182
-149.604	-11.550	0.350	-0.229
-148.589	394.446	-0.080	0.167
-147.574	27.194	-0.083	0.070
-146.560	-40.479	-0.110	-0.057
-145.545	-200.000	-0.028	-0.251
-144.531	-133.465	0.173	-0.022
-143.516	-200.000	0.064	0.500
-142.502	35.346	0.430	0.377
-141.487	314.613	-0.053	-0.099
-140.472	-120.333	-0.226	0.038
-139.458	-200.000	-0.030	-0.167
-138.443	-200.000	0.028	0.204
-137.429	322.499	0.058	0.109
-136.414	-12.279	-0.222	-0.144
-135.399	-29.835	0.119	0.068
-134.385	332.847	-0.099	0.191
-133.370	-77.507	0.414	-0.143
-132.356	383.302	-0.152	0.311
-131.341	-115.814	-0.156	0.029
-130.326	53.645	-0.088	-0.084
-129.312	-200.000	-0.100	0.465
-128.297	-149.671	-0.138	-0.011
-127.283	800.000	0.002	0.009
-126.268	-42.792	0.023	0.012
-125.253	232.548	0.029	0.048
-124.239	-120.578	0.190	0.032
-123.224	-114.676	0.190	0.036
-122.210	388.183	-0.107	0.220
-121.195	-200.000	-0.027	0.363
