DTS Sentinel unit serial number:	SN413079Multiplexer serial number:	ORYXHardware model number:	OX4-SRSoftware version number:	ORYX F/W v4.00 Oryx Data Collector v3.7.2.0data status	okinstallation	princeton_trtdifferential loss correction	single-endedforward channel	channel 2reverse channel	N/Adate	2019/09/11time	09:53:11forward acquisition time	60.00reverse acquisition time	0.00gamma	496.2192k internal	0.2315k external	0.2315temperature offset calibration	0.9968default loss term (dB/km)	0.3790temperature slope calibration	1.0000multiplexer offset coefficient	1.0000multiplexer slope coefficient	1.0000fibre end	0.00T internal ref (°C)	35.12T ext. ref 1 (°C)	0.15T ext. ref 2 (°C)	32.42length (m)	temperature (°C)	Stokes	anti-Stokes-747.200	-119.015	0.193	-0.034
-746.185	800.000	0.082	0.268
-745.171	-166.191	-0.305	-0.013
-744.156	-78.778	0.272	-0.094
-743.142	-67.827	-0.231	0.092
-742.127	504.344	-0.052	-0.123
-741.112	326.641	-0.097	0.188
-740.098	-82.749	-0.079	0.026
-739.083	-200.000	-0.018	-0.212
-738.069	-200.000	-0.028	0.179
-737.054	-143.489	-0.439	-0.042
-736.039	-98.682	-0.192	-0.049
-735.025	586.243	0.017	0.043
-734.010	40.691	-0.282	-0.257
-732.996	-91.151	0.214	0.062
-731.981	-19.903	0.252	-0.158
-730.966	-18.580	-0.229	0.145
-729.952	535.434	-0.029	0.070
-728.937	297.255	-0.063	0.116
-727.923	-48.540	-0.141	-0.069
-726.908	-35.197	0.182	0.100
-725.894	91.368	0.117	-0.133
-724.879	16.221	-0.084	-0.067
-723.864	288.740	-0.147	-0.270
-722.850	-84.158	0.152	0.049
-721.835	800.000	-0.106	-0.310
-720.821	15.660	-0.139	0.111
-719.806	-129.962	-0.327	-0.045
-718.791	-200.000	0.021	-0.197
-717.777	528.715	0.053	-0.126
-716.762	800.000	0.021	0.093
-715.748	-200.000	0.031	-0.286
-714.733	-132.885	-0.086	0.011
-713.718	800.000	0.076	0.230
-712.704	800.000	-0.037	0.122
-711.689	-47.939	-0.192	0.094
-710.675	252.939	0.133	-0.229
-709.660	172.185	0.311	-0.452
-708.645	-81.991	-0.214	0.071
-707.631	338.618	-0.056	-0.111
-706.616	-72.053	-0.106	-0.040
-705.602	144.846	-0.089	-0.121
-704.587	-143.603	-0.133	-0.013
-703.572	155.502	-0.122	-0.169
-702.558	-137.742	0.069	0.008
-701.543	-196.808	-0.368	-0.002
-700.529	-174.043	0.021	-0.001
-699.514	-41.866	-0.169	-0.088
-698.499	32.705	0.113	0.098
-697.485	724.585	-0.045	-0.122
-696.470	-57.155	-0.184	-0.082
-695.456	521.293	0.088	0.210
-694.441	71.080	-0.177	-0.185
-693.426	41.460	0.121	-0.111
-692.412	80.857	0.065	-0.071
-691.397	-182.385	-0.408	-0.008
-690.383	800.000	0.028	-0.089
-689.368	31.469	0.014	0.012
-688.354	174.806	-0.098	0.143
-687.339	-200.000	0.015	-0.160
-686.324	78.233	0.139	0.150
-685.310	-118.798	-0.083	-0.015
-684.295	-163.999	-0.250	-0.012
-683.281	539.309	0.101	-0.242
-682.266	281.215	-0.235	-0.425
-681.251	37.547	0.032	0.029
-680.237	-116.900	0.222	-0.041
-679.222	-130.621	0.336	-0.046
-678.208	-200.000	0.029	-0.168
-677.193	140.004	-0.064	-0.086
-676.178	-64.500	-0.374	0.154
-675.164	-92.872	-0.115	-0.033
-674.149	38.823	0.195	-0.176
-673.135	-69.106	-0.023	0.009
-672.120	-99.744	-0.239	-0.061
-671.105	20.506	0.410	-0.335
-670.091	311.984	0.037	0.071
-669.076	-121.860	-0.263	0.044
-668.062	447.097	-0.069	-0.154
-667.047	-10.121	0.447	0.300
-666.032	-194.148	-0.336	0.003
-665.018	175.849	-0.094	0.138
-664.003	-200.000	-0.020	-0.093
-662.989	228.889	-0.186	0.307
-661.974	-200.000	-0.052	0.515
-660.959	-150.097	-0.411	0.032
-659.945	-200.000	0.062	-0.331
-658.930	-112.661	-0.217	-0.044
-657.916	-200.000	-0.022	0.161
-656.901	-119.480	-0.008	-0.001
-655.886	341.986	0.034	-0.067
-654.872	-96.977	0.163	0.043
-653.857	-84.546	-0.063	-0.020
-652.843	238.107	0.115	0.193
-651.828	400.696	-0.063	-0.133
-650.814	800.000	-0.051	0.172
-649.799	-103.508	0.101	-0.024
-648.784	-12.132	-0.019	-0.013
-647.770	50.199	-0.092	0.087
-646.755	39.178	0.270	-0.244
-645.741	-148.454	-0.262	-0.022
-644.726	-200.000	-0.010	0.065
-643.711	-22.503	0.142	-0.087
-642.697	-115.840	0.284	0.054
-641.682	-200.000	-0.008	-0.128
-640.668	290.614	-0.060	-0.110
-639.653	-165.702	-0.210	0.009
-638.638	-26.987	-0.214	0.126
-637.624	640.932	-0.136	0.350
-636.609	772.880	-0.063	-0.174
-635.595	476.315	-0.045	0.103
-634.580	49.063	0.182	0.173
-633.565	-77.748	-0.208	-0.072
-632.551	33.523	0.087	0.076
-631.536	800.000	-0.109	-0.343
-630.522	460.161	0.079	-0.177
-629.507	3.754	-0.371	0.274
-628.492	716.036	0.087	0.232
-627.478	393.517	-0.128	-0.269
-626.463	10.232	0.205	-0.157
-625.449	36.694	0.353	-0.314
-624.434	-27.042	0.106	-0.062
-623.419	91.743	0.051	-0.057
-622.405	708.198	-0.102	-0.271
-621.390	-200.000	0.006	-0.153
-620.376	-5.336	-0.130	-0.090
-619.361	59.779	0.202	-0.201
-618.346	-120.752	-0.189	-0.032
-617.332	503.827	-0.116	-0.271
-616.317	-141.728	-0.222	-0.022
-615.303	-174.608	-0.014	0.000
-614.288	-200.000	-0.035	0.378
-613.273	800.000	-0.145	0.454
-612.259	437.377	-0.110	0.242
-611.244	-8.808	0.063	-0.042
-610.230	-138.722	0.076	0.008
-609.215	-15.057	-0.140	0.090
-608.201	-118.297	0.246	0.044
-607.186	-34.962	-0.286	-0.158
-606.171	-200.000	-0.038	-0.224
-605.157	-200.000	0.050	0.293
-604.142	120.049	0.203	0.254
-603.128	-86.383	0.187	-0.058
-602.113	-35.745	0.155	-0.085
-601.098	800.000	-0.026	0.113
-600.084	-139.223	0.124	-0.013
-599.069	456.122	-0.070	0.157
-598.055	-28.289	-0.563	0.328
-597.040	-9.153	0.322	0.217
-596.025	16.080	-0.135	0.107
-595.011	169.339	-0.188	-0.270
-593.996	-108.321	-0.120	0.026
-592.982	95.897	0.103	0.118
-591.967	20.044	0.134	-0.109
-590.952	95.078	0.103	0.118
-589.938	-162.036	0.142	-0.007
-588.923	428.139	-0.098	-0.214
-587.909	139.228	0.186	-0.247
-586.894	602.764	0.067	-0.169
-585.879	86.218	0.062	0.069
-584.865	-117.690	0.329	0.060
-583.850	-200.000	-0.012	-0.216
-582.836	-62.440	0.298	-0.125
-581.821	172.963	0.024	-0.034
-580.806	-56.037	-0.277	-0.124
-579.792	83.018	-0.299	0.327
-578.777	-200.000	-0.028	0.133
-577.763	159.548	0.011	-0.016
-576.748	-5.311	0.045	-0.031
-575.733	-200.000	-0.021	0.229
-574.719	-132.364	0.103	-0.013
-573.704	-200.000	-0.029	0.187
-572.690	98.697	0.046	-0.053
-571.675	-200.000	-0.030	-0.327
-570.661	800.000	0.038	0.139
-569.646	-200.000	-0.007	-0.134
-568.631	-54.008	-0.161	0.074
-567.617	-85.431	-0.193	0.061
-566.602	22.621	-0.258	-0.212
-565.588	-200.000	0.024	0.203
-564.573	-75.137	0.214	-0.077
-563.558	800.000	-0.067	0.200
-562.544	319.016	-0.221	0.422
-561.529	-47.434	0.108	0.053
-560.515	252.421	0.116	-0.199
-559.500	-64.947	0.367	0.149
-558.485	172.406	-0.127	0.184
-557.471	-200.000	0.003	-0.218
-556.456	-50.837	-0.154	0.073
-555.442	-30.265	0.140	0.080
-554.427	-200.000	0.009	0.257
-553.412	-200.000	0.009	0.105
-552.398	226.391	-0.190	0.310
-551.383	-78.018	0.157	-0.055
-550.369	102.138	0.184	0.216
-549.354	6.504	-0.126	-0.094
-548.339	-200.000	-0.007	0.333
-547.325	245.350	0.119	-0.202
-546.310	-112.790	0.361	0.072
-545.296	132.308	-0.109	-0.142
-544.281	-200.000	-0.023	-0.282
-543.266	-100.163	-0.333	0.083
-542.252	407.756	-0.007	-0.016
-541.237	778.042	0.087	-0.239
-540.223	800.000	0.020	-0.072
-539.208	-111.710	-0.376	-0.077
-538.193	90.102	-0.170	0.192
-537.179	-200.000	0.063	0.407
-536.164	210.689	0.120	0.189
-535.150	124.798	0.210	0.266
-534.135	180.034	-0.301	-0.444
-533.121	-0.767	0.109	-0.078
-532.106	-56.279	-0.315	-0.141
-531.091	-130.028	0.171	-0.024
-530.077	326.863	-0.057	0.109
-529.062	-22.975	0.086	-0.052
-528.048	800.000	0.050	-0.144
-527.033	-63.280	0.118	-0.049
-526.018	20.688	0.150	0.122
-525.004	124.398	0.098	-0.124
-523.989	-68.647	-0.144	-0.056
-522.975	603.387	-0.109	0.271
-521.960	-41.737	0.241	0.124
-520.945	4.788	0.355	-0.262
-519.931	67.919	0.250	0.257
-518.916	14.840	-0.226	0.177
-517.902	3.221	0.111	0.081
-516.887	-121.198	-0.236	-0.040
-515.872	675.068	-0.044	-0.115
-514.858	45.069	-0.246	0.228
-513.843	-129.861	0.297	-0.041
-512.829	55.054	0.070	0.068
-511.814	22.684	0.263	0.217
-510.799	-152.821	-0.180	0.013
-509.785	-200.000	0.018	0.233
-508.770	89.308	0.047	-0.053
-507.756	-41.056	0.306	-0.159
-506.741	643.852	-0.096	0.246
-505.726	-63.810	-0.525	-0.216
-504.712	444.252	-0.132	-0.291
-503.697	-48.272	0.056	0.027
-502.683	-62.974	0.196	-0.081
-501.668	580.949	-0.140	-0.345
-500.653	-142.455	-0.381	-0.038
-499.639	63.860	-0.324	0.326
-498.624	-155.866	-0.270	0.017
-497.610	369.656	-0.180	-0.366
-496.595	60.037	0.110	-0.109
-495.581	714.582	0.077	-0.206
-494.566	286.954	-0.219	-0.398
-493.551	-88.662	-0.312	0.093
-492.537	-140.102	-0.209	-0.022
-491.522	5.822	0.070	-0.052
-490.508	23.768	0.089	0.074
-489.493	94.680	0.111	0.126
-488.478	17.272	0.210	-0.168
-487.464	379.150	0.096	-0.198
-486.449	-200.000	-0.040	0.195
-485.435	800.000	0.037	-0.143
-484.420	329.733	-0.056	-0.107
-483.405	-27.227	-0.173	-0.101
-482.391	-5.602	0.103	0.071
-481.376	574.882	-0.086	0.210
-480.362	-200.000	0.050	-0.359
-479.347	-79.792	0.457	-0.154
-478.332	89.560	0.125	0.139
-477.318	-200.000	0.040	-0.337
-476.303	-79.916	0.162	-0.055
-475.289	-63.570	-0.281	0.116
-474.274	-23.803	-0.180	-0.108
-473.259	-57.104	-0.485	-0.214
-472.245	507.267	-0.045	0.105
-471.230	-200.000	0.025	-0.145
-470.216	-89.399	0.142	0.042
-469.201	162.394	0.050	-0.070
-468.186	-200.000	0.010	0.075
-467.172	-200.000	-0.022	-0.265
-466.157	-94.974	-0.111	0.030
-465.143	-141.824	0.156	-0.016
-464.128	-132.672	0.175	0.022
-463.113	-64.412	-0.239	-0.097
-462.099	-12.372	-0.125	0.082
-461.084	-181.632	-0.231	-0.004
-460.070	-19.054	0.158	0.099
-459.055	-76.052	-0.018	0.006
-458.040	-79.662	-0.089	-0.030
-457.026	-51.815	0.171	0.080
-456.011	-200.000	-0.002	0.094
-454.997	-200.000	-0.026	0.296
-453.982	800.000	0.092	-0.269
-452.968	68.434	-0.122	0.125
-451.953	182.346	-0.206	-0.304
-450.938	645.606	0.117	0.298
-449.924	800.000	0.042	0.131
-448.909	147.401	0.139	-0.188
-447.895	101.517	-0.035	0.040
-446.880	-44.937	0.140	-0.070
-445.865	27.524	0.281	-0.237
-444.851	-72.469	-0.441	-0.163
-443.836	-200.000	-0.018	-0.306
-442.822	-92.724	-0.340	-0.095
-441.807	-84.213	0.063	0.020
-440.792	800.000	-0.090	-0.330
-439.778	92.176	-0.030	0.034
-438.763	-24.255	0.265	0.159
-437.749	-27.511	-0.248	-0.144
-436.734	658.074	0.053	-0.138
-435.719	-200.000	-0.049	-0.312
-434.705	-5.676	-0.164	-0.112
-433.690	201.824	0.153	-0.236
-432.676	473.874	-0.119	-0.268
-431.661	-74.608	0.075	-0.027
-430.646	800.000	0.056	-0.166
-429.632	-115.872	0.176	-0.033
-428.617	800.000	0.044	-0.180
-427.603	-85.611	-0.144	-0.045
-426.588	-200.000	-0.010	0.215
-425.573	274.443	0.064	0.113
-424.559	-77.800	0.257	0.089
-423.544	800.000	0.062	0.175
-422.530	102.617	-0.121	-0.142
-421.515	-34.805	-0.145	0.079
-420.500	-30.759	-0.263	0.149
-419.486	321.944	0.013	-0.026
-418.471	-141.559	-0.031	-0.003
-417.457	-133.943	0.131	-0.016
-416.442	-42.318	-0.144	0.074
-415.428	-29.628	-0.306	0.175
-414.413	800.000	0.010	-0.039
-413.398	-102.983	-0.130	-0.031
-412.384	-114.838	0.134	0.026
-411.369	238.330	-0.123	-0.204
-410.355	-135.189	-0.166	-0.020
-409.340	3.069	-0.057	0.041
-408.325	-44.748	-0.082	-0.041
-407.311	800.000	0.079	0.224
-406.296	-97.201	0.318	0.083
-405.282	69.367	0.122	-0.125
-404.267	-200.000	0.086	-0.453
-403.252	800.000	0.086	-0.275
-402.238	-35.680	-0.171	0.093
-401.223	37.328	0.149	-0.132
-400.209	-124.155	-0.249	-0.039
-399.194	-101.588	0.149	-0.036
-398.179	213.463	0.092	-0.145
-397.165	-200.000	0.066	0.316
-396.150	-1.514	-0.246	0.173
-395.136	241.648	0.181	0.302
-394.121	52.039	-0.217	0.207
-393.106	-200.000	0.039	-0.310
-392.092	196.160	0.021	-0.032
-391.077	70.957	-0.121	0.126
-390.063	-200.000	-0.030	-0.165
-389.048	114.450	-0.133	-0.161
-388.033	-80.777	0.137	-0.045
-387.019	-145.582	-0.229	0.021
-386.004	166.604	-0.324	-0.459
-384.990	51.199	-0.146	0.138
-383.975	36.200	0.047	0.041
-382.960	-107.632	-0.165	-0.036
-381.946	-78.547	0.326	-0.111
-380.931	206.821	-0.241	0.375
-379.917	70.158	-0.140	-0.144
-378.902	503.356	0.139	-0.322
-377.888	-164.499	0.365	0.017
-376.873	-114.443	0.133	-0.026
-375.858	361.186	0.102	-0.205
-374.844	548.158	-0.098	0.235
-373.829	-200.000	-0.024	-0.123
-372.815	-200.000	-0.037	-0.178
-371.800	328.075	0.097	0.186
-370.785	100.594	-0.168	0.195
-369.771	0.423	-0.160	-0.114
-368.756	-54.307	0.291	0.132
-367.742	-150.277	0.285	-0.022
-366.727	-16.570	-0.176	0.111
-365.712	-39.394	0.100	0.052
-364.698	196.169	0.140	-0.212
-363.683	-12.078	0.173	0.113
-362.669	-200.000	0.014	-0.192
-361.654	-200.000	-0.044	0.327
-360.639	-15.900	-0.188	0.120
-359.625	-200.000	0.016	0.194
-358.610	-60.200	-0.236	-0.100
-357.596	-50.864	-0.123	0.058
-356.581	-108.810	-0.370	0.079
-355.566	-200.000	-0.008	0.221
-354.552	-28.847	0.307	0.176
-353.537	607.097	-0.033	-0.083
-352.523	125.954	0.165	0.208
-351.508	-96.532	0.132	0.035
-350.493	234.365	-0.067	-0.109
-349.479	-79.192	0.126	-0.043
-348.464	-127.923	-0.318	-0.046
-347.450	12.590	0.268	0.206
-346.435	-200.000	0.005	-0.074
-345.420	463.326	-0.072	-0.161
-344.406	34.638	0.065	-0.057
-343.391	79.542	-0.175	0.187
-342.377	-6.504	0.241	0.164
-341.362	-34.778	0.378	0.206
-340.348	-130.339	-0.204	0.028
-339.333	400.031	0.057	-0.120
-338.318	-105.029	-0.092	0.021
-337.304	-200.000	-0.001	-0.036
-336.289	-79.745	0.130	0.044
-335.275	-151.807	-0.300	-0.022
-334.260	220.886	0.058	-0.092
-333.245	78.240	-0.199	-0.212
-332.231	-200.000	-0.001	-0.003
-331.216	-200.000	0.043	-0.198
-330.202	800.000	0.063	0.221
-329.187	-152.015	0.164	-0.012
-328.172	-200.000	-0.009	-0.224
-327.158	-107.707	0.170	0.037
-326.143	-200.000	0.058	0.411
-325.129	-112.934	-0.143	0.028
-324.114	114.340	0.051	0.062
-323.099	-200.000	0.044	-0.243
-322.085	-83.855	0.266	-0.084
-321.070	11.270	-0.178	-0.136
-320.056	-200.000	-0.002	-0.022
-319.041	800.000	0.051	0.171
-318.026	66.305	-0.194	-0.196
-317.012	-1.148	0.139	0.098
-315.997	-200.000	-0.076	0.335
-314.983	141.081	-0.171	-0.225
-313.968	-200.000	-0.021	0.308
-312.953	618.255	-0.061	0.153
-311.939	177.018	0.164	-0.238
-310.924	800.000	0.033	-0.131
-309.910	-78.472	0.106	-0.036
-308.895	62.333	0.199	-0.198
-307.880	78.203	0.063	-0.067
-306.866	-200.000	0.025	0.325
-305.851	334.230	0.086	0.166
-304.837	-39.621	-0.139	0.072
-303.822	-99.741	-0.303	0.076
-302.807	440.868	0.043	0.094
-301.793	60.293	-0.202	0.199
-300.778	-92.884	-0.145	-0.040
-299.764	182.575	0.097	0.143
-298.749	-115.313	0.352	0.066
-297.735	-110.887	-0.184	0.038
-296.720	99.670	0.348	0.401
-295.705	-64.533	0.247	-0.100
-294.691	-200.000	-0.020	0.098
-293.676	800.000	-0.081	-0.295
-292.662	-21.687	0.206	0.125
-291.647	129.050	-0.065	0.083
-290.632	-8.048	-0.241	-0.162
-289.618	-200.000	-0.006	-0.177
-288.603	-47.844	-0.295	-0.142
-287.589	-152.179	-0.089	-0.006
-286.574	-200.000	0.041	0.208
-285.559	-200.000	0.003	0.130
-284.545	1.774	0.030	-0.022
-283.530	349.422	0.123	-0.241
-282.516	419.980	0.176	0.375
-281.501	-148.445	0.326	0.027
-280.486	-71.839	-0.111	0.041
-279.472	189.600	-0.060	0.089
-278.457	-51.262	-0.196	0.091
-277.443	-200.000	0.006	0.056
-276.428	-200.000	0.016	0.259
-275.413	242.397	-0.046	-0.077
-274.399	185.304	-0.113	0.167
-273.384	800.000	-0.065	-0.208
-272.370	-92.626	0.054	-0.015
-271.355	-70.288	-0.332	-0.125
-270.340	-104.872	-0.113	-0.026
-269.326	-89.746	0.346	0.101
-268.311	2.605	0.236	0.170
-267.297	163.957	0.283	0.397
-266.282	-43.572	0.237	-0.119
-265.267	544.276	-0.113	-0.268
-264.253	-200.000	0.033	0.283
-263.238	1.512	0.131	-0.094
-262.224	201.913	-0.221	0.339
-261.209	49.216	0.025	-0.024
-260.195	-200.000	-0.037	0.190
-259.180	-101.860	0.328	-0.079
-258.165	800.000	0.065	0.264
-257.151	800.000	-0.042	-0.131
-256.136	-200.000	0.029	0.181
-255.122	345.659	-0.174	-0.340
-254.107	-148.928	0.343	-0.027
-253.092	-200.000	-0.004	0.156
-252.078	145.635	0.264	0.351
-251.063	-123.215	-0.087	0.014
-250.049	-61.508	-0.085	-0.035
-249.034	800.000	0.057	0.170
-248.019	353.385	-0.091	-0.179
-247.005	-200.000	0.050	-0.331
-245.990	432.103	-0.104	-0.224
-244.976	-19.709	0.168	-0.103
-243.961	-3.491	-0.147	-0.102
-242.946	-87.595	-0.233	-0.070
-241.932	-102.946	-0.320	-0.075
-240.917	-151.773	0.442	-0.032
-239.903	488.090	-0.154	-0.350
-238.888	-23.686	0.138	0.082
-237.873	800.000	-0.135	-0.535
-236.859	-73.671	-0.135	0.049
-235.844	-8.310	-0.116	0.078
-234.830	-61.390	-0.185	0.077
-233.815	-200.000	-0.044	0.390
-232.800	-200.000	0.030	0.180
-231.786	-129.874	-0.376	-0.051
-230.771	800.000	-0.119	0.375
-229.757	238.064	-0.061	0.101
-228.742	-199.008	-0.070	-0.000
-227.727	28.612	-0.268	0.226
-226.713	-65.876	-0.434	-0.172
-225.698	445.320	-0.056	0.123
-224.684	88.758	0.051	0.056
-223.669	-170.671	0.334	-0.011
-222.655	800.000	-0.033	-0.104
-221.640	-41.356	0.078	-0.040
-220.625	-86.225	-0.115	-0.035
-219.611	-149.979	-0.202	-0.016
-218.596	10.456	-0.060	-0.045
-217.582	-163.267	-0.108	0.005
-216.567	56.668	-0.087	0.084
-215.552	-50.432	-0.073	0.034
-214.538	25.559	-0.182	0.151
-213.523	246.736	0.176	0.294
-212.509	-66.327	-0.208	-0.082
-211.494	467.050	0.223	-0.496
-210.479	-127.731	0.221	-0.032
-209.465	-200.000	0.021	0.401
-208.450	100.830	-0.118	0.136
-207.436	786.447	0.052	-0.143
-206.421	30.470	0.147	-0.124
-205.406	440.776	0.065	0.142
-204.392	166.416	0.012	-0.017
-203.377	800.000	0.073	-0.254
-202.363	497.407	-0.069	0.159
-201.348	-29.958	0.273	0.154
-200.333	149.180	-0.005	-0.007
-199.319	-45.449	0.314	0.154
-198.304	-22.498	-0.011	0.007
-197.290	87.092	0.122	0.134
-196.275	-200.000	0.039	-0.318
-195.260	6.545	0.146	-0.108
-194.246	-200.000	0.034	-0.181
-193.231	0.222	-0.234	-0.166
-192.217	-139.603	-0.266	0.028
-191.202	370.662	0.195	0.393
-190.187	170.513	-0.191	0.271
-189.173	-192.254	0.059	0.001
-188.158	191.645	0.156	0.233
-187.144	-180.194	-0.137	-0.003
-186.129	-158.445	-0.285	0.016
-185.114	-140.832	0.311	-0.032
-184.100	-63.011	0.232	0.095
-183.085	-13.783	-0.142	-0.091
-182.071	67.412	0.201	-0.203
-181.056	-200.000	0.019	0.226
-180.042	-124.159	0.043	-0.007
-179.027	164.723	0.277	-0.387
-178.012	-20.116	0.195	-0.119
-176.998	490.231	0.053	0.121
-175.983	800.000	-0.028	-0.104
-174.969	102.003	0.101	0.117
-173.954	241.862	0.063	0.105
-172.939	-200.000	-0.008	-0.092
-171.925	215.656	-0.058	-0.092
-170.910	173.727	0.077	0.110
-169.896	314.492	-0.042	0.079
-168.881	-86.843	0.258	0.078
-167.866	-71.058	0.202	0.075
-166.852	732.773	-0.107	-0.284
-165.837	-200.000	0.025	-0.326
-164.823	123.327	0.325	-0.404
-163.808	200.980	0.099	-0.151
-162.793	-26.114	-0.095	-0.055
-161.779	-27.441	-0.329	0.190
-160.764	800.000	0.057	-0.224
-159.750	-14.893	0.137	0.087
-158.735	-82.928	-0.199	0.063
-157.720	10.567	0.213	0.161
-156.706	-143.009	0.267	-0.026
-155.691	-96.683	0.433	0.113
-154.677	4.970	-0.152	0.111
-153.662	-200.000	0.044	0.219
-152.647	93.752	0.165	-0.185
-151.633	34.403	0.015	-0.013
-150.618	361.938	-0.067	0.134
-149.604	-131.096	-0.435	-0.057
-148.589	14.838	-0.356	0.275
-147.574	413.295	-0.112	0.236
-146.560	-200.000	0.028	0.130
-145.545	438.514	-0.016	0.035
-144.531	81.321	0.265	-0.284
-143.516	-42.917	0.213	0.107
-142.502	-127.752	0.384	0.055
-141.487	-38.871	0.156	-0.082
-140.472	21.640	-0.276	-0.223
-139.458	-29.074	-0.117	-0.066
-138.443	37.785	-0.159	0.140
-137.429	-200.000	-0.058	0.372
-136.414	10.067	-0.201	-0.151
-135.399	-107.492	-0.215	-0.047
-134.385	-61.973	0.210	-0.087
-133.370	108.197	-0.059	-0.070
-132.356	800.000	0.133	0.390
-131.341	142.303	-0.227	-0.298
-130.326	-74.538	0.339	-0.121
-129.312	-200.000	0.008	-0.523
-128.297	265.587	0.116	-0.200
-127.283	102.404	-0.147	0.170
-126.268	-31.908	0.112	0.062
-125.253	504.431	-0.042	0.097
-124.239	-200.000	-0.022	0.195
-123.224	-18.071	-0.212	0.131
-122.210	800.000	0.034	-0.103
