DTS Sentinel unit serial number:	SN413079Multiplexer serial number:	ORYXHardware model number:	OX4-SRSoftware version number:	ORYX F/W v4.00 Oryx Data Collector v3.7.2.0data status	okinstallation	princeton_trtdifferential loss correction	single-endedforward channel	channel 2reverse channel	N/Adate	2019/09/11time	05:13:10forward acquisition time	60.00reverse acquisition time	0.00gamma	496.2192k internal	0.2329k external	0.2329temperature offset calibration	0.9941default loss term (dB/km)	0.3790temperature slope calibration	1.0000multiplexer offset coefficient	1.0000multiplexer slope coefficient	1.0000fibre end	0.00T internal ref (°C)	29.44T ext. ref 1 (°C)	-0.25T ext. ref 2 (°C)	23.42length (m)	temperature (°C)	Stokes	anti-Stokes-747.200	-47.364	-0.103	0.051
-746.185	-48.230	0.109	-0.053
-745.171	0.457	0.312	0.225
-744.156	-200.000	0.081	0.499
-743.142	-31.781	-0.212	-0.120
-742.127	800.000	0.089	0.300
-741.112	-43.031	-0.023	0.012
-740.098	339.278	-0.131	0.258
-739.083	-97.103	0.226	0.059
-738.069	16.068	0.112	-0.088
-737.054	286.198	-0.092	-0.167
-736.039	-101.415	-0.271	0.066
-735.025	-200.000	-0.020	0.243
-734.010	-32.291	-0.331	-0.186
-732.996	-142.642	-0.465	0.046
-731.981	-22.986	0.365	-0.222
-730.966	-200.000	0.013	0.102
-729.952	-11.778	0.251	-0.166
-728.937	73.459	-0.119	-0.126
-727.923	-200.000	0.040	-0.305
-726.908	-5.130	-0.276	-0.191
-725.894	-17.848	0.119	-0.075
-724.879	-200.000	-0.052	-0.378
-723.864	-92.792	-0.269	-0.076
-722.850	169.786	-0.159	-0.229
-721.835	-200.000	0.004	-0.165
-720.821	800.000	-0.044	-0.165
-719.806	-200.000	0.012	-0.324
-718.791	-85.192	0.107	0.034
-717.777	196.364	0.037	0.056
-716.762	74.289	0.085	-0.090
-715.748	-4.832	-0.177	-0.123
-714.733	-45.838	0.225	-0.112
-713.718	-120.770	-0.240	0.041
-712.704	-29.993	-0.223	-0.128
-711.689	-200.000	0.038	0.186
-710.675	95.940	-0.199	-0.229
-709.660	41.547	-0.179	0.163
-708.645	5.474	0.076	-0.057
-707.631	-38.648	0.149	-0.079
-706.616	66.440	-0.109	0.111
-705.602	71.234	0.150	-0.157
-704.587	-200.000	-0.031	-0.305
-703.572	2.509	-0.213	0.155
-702.558	-200.000	-0.027	0.130
-701.543	-200.000	0.064	-0.444
-700.529	-200.000	0.033	-0.165
-699.514	-27.779	-0.123	-0.072
-698.499	-153.785	-0.178	-0.012
-697.485	-200.000	0.006	-0.207
-696.470	-18.999	-0.129	0.081
-695.456	-200.000	-0.047	-0.290
-694.441	14.842	0.065	-0.051
-693.426	-36.663	0.275	0.149
-692.412	-47.412	0.083	0.041
-691.397	-78.071	-0.232	-0.080
-690.383	-200.000	-0.034	-0.274
-689.368	346.691	-0.154	0.305
-688.354	626.013	0.061	0.155
-687.339	80.264	-0.208	-0.225
-686.324	81.857	-0.022	-0.024
-685.310	-28.826	0.202	0.117
-684.295	5.786	0.091	0.068
-683.281	800.000	0.022	-0.067
-682.266	-200.000	0.169	0.001
-681.251	-9.527	0.084	0.056
-680.237	-72.337	-0.267	0.100
-679.222	47.816	-0.108	0.101
-678.208	-44.909	-0.166	0.083
-677.193	800.000	-0.023	-0.083
-676.178	-75.717	0.274	-0.098
-675.164	-129.489	-0.227	-0.032
-674.149	-30.801	0.232	0.132
-673.135	-37.868	-0.061	-0.033
-672.120	-123.353	-0.224	-0.036
-671.105	-136.124	-0.024	0.003
-670.091	-145.532	-0.360	0.032
-669.076	129.087	0.188	0.241
-668.062	278.441	0.120	0.215
-667.047	-46.160	0.114	-0.056
-666.032	-200.000	-0.022	0.182
-665.018	-83.271	-0.347	0.112
-664.003	38.562	0.056	0.050
-662.989	52.327	0.131	-0.126
-661.974	3.072	-0.167	0.122
-660.959	800.000	0.070	-0.210
-659.945	274.892	0.200	-0.355
-658.930	100.316	0.230	0.268
-657.916	-78.841	-0.381	-0.131
-656.901	34.254	-0.212	0.186
-655.886	-79.616	0.098	0.033
-654.872	0.177	-0.086	0.062
-653.857	31.140	-0.225	0.194
-652.843	-143.978	0.499	0.047
-651.828	-15.101	0.214	-0.137
-650.814	800.000	-0.107	-0.326
-649.799	-102.744	0.107	-0.026
-648.784	800.000	0.071	-0.220
-647.770	-62.809	-0.045	0.019
-646.755	246.162	-0.112	-0.189
-645.741	50.968	-0.169	-0.161
-644.726	613.931	0.030	0.075
-643.711	132.674	0.030	-0.039
-642.697	194.076	0.073	-0.111
-641.682	-200.000	0.007	-0.205
-640.668	136.834	-0.077	-0.100
-639.653	328.917	0.152	0.293
-638.638	800.000	0.149	-0.507
-637.624	-92.856	-0.163	-0.046
-636.609	43.125	-0.301	0.276
-635.595	2.272	-0.192	0.139
-634.580	65.514	-0.156	0.159
-633.565	-200.000	-0.025	0.160
-632.551	-200.000	-0.068	-0.324
-631.536	-101.572	0.221	-0.054
-630.522	-142.785	-0.041	-0.004
-629.507	61.314	0.196	-0.195
-628.492	293.425	0.045	0.082
-627.478	13.156	-0.245	-0.190
-626.463	79.309	-0.163	-0.176
-625.449	180.909	0.047	0.070
-624.434	-2.255	-0.154	0.108
-623.419	53.994	-0.126	0.121
-622.405	-13.739	-0.165	-0.107
-621.390	417.765	-0.158	0.339
-620.376	150.392	0.216	-0.294
-619.361	324.266	0.076	0.145
-618.346	-156.360	-0.193	-0.012
-617.332	-131.784	-0.190	0.025
-616.317	-1.967	0.091	-0.064
-615.303	-99.345	-0.086	0.022
-614.288	307.437	0.104	-0.194
-613.273	-92.913	-0.322	-0.090
-612.259	800.000	-0.068	0.194
-611.244	450.023	-0.162	-0.357
-610.230	-146.014	0.307	0.027
-609.215	-126.116	-0.367	0.055
-608.201	163.128	-0.135	0.190
-607.186	-9.615	-0.030	0.020
-606.171	689.281	-0.082	0.216
-605.157	-0.044	0.079	0.057
-604.142	520.700	0.042	0.099
-603.128	-65.938	0.111	-0.044
-602.113	-49.339	-0.212	0.101
-601.098	81.482	-0.081	0.088
-600.084	136.331	-0.104	-0.136
-599.069	-133.142	-0.046	-0.006
-598.055	84.560	0.031	-0.033
-597.040	644.288	-0.036	-0.093
-596.025	-36.379	-0.292	-0.158
-595.011	49.346	0.249	-0.235
-593.996	-58.086	0.318	0.139
-592.982	352.195	-0.050	0.098
-591.967	120.808	-0.121	-0.151
-590.952	-200.000	0.031	0.227
-589.938	-150.177	0.242	-0.019
-588.923	13.181	0.175	-0.135
-587.909	-82.309	-0.119	0.039
-586.894	-200.000	-0.025	-0.280
-585.879	-141.356	-0.318	-0.032
-584.865	-72.238	-0.165	0.061
-583.850	-140.137	-0.303	-0.032
-582.836	63.885	-0.082	-0.082
-581.821	800.000	0.021	-0.082
-580.806	-64.977	-0.200	0.081
-579.792	-51.482	-0.298	0.139
-578.777	212.638	0.126	0.200
-577.763	-159.647	-0.227	-0.013
-576.748	52.187	0.134	0.128
-575.733	-197.286	0.148	0.001
-574.719	9.498	0.038	-0.028
-573.704	-200.000	-0.003	-0.131
-572.690	-47.157	-0.285	0.139
-571.675	-46.624	-0.104	0.051
-570.661	479.930	0.071	-0.162
-569.646	62.249	-0.077	0.077
-568.631	800.000	-0.053	0.195
-567.617	-105.103	-0.431	0.099
-566.602	26.603	-0.238	-0.200
-565.588	53.838	-0.226	-0.217
-564.573	800.000	0.045	0.144
-563.558	251.015	-0.156	0.265
-562.544	219.896	0.057	-0.092
-561.529	-200.000	0.010	-0.212
-560.515	217.738	-0.067	-0.106
-559.500	63.109	0.225	-0.226
-558.485	500.478	-0.031	0.071
-557.471	-200.000	0.007	0.084
-556.456	507.306	-0.057	0.132
-555.442	-143.212	0.232	0.022
-554.427	-157.479	0.274	0.016
-553.412	-76.315	0.263	-0.093
-552.398	151.277	-0.258	0.351
-551.383	-169.201	0.294	0.011
-550.369	52.795	-0.294	-0.281
-549.354	-22.730	-0.201	0.121
-548.339	-52.787	-0.043	0.020
-547.325	-41.927	0.318	-0.163
-546.310	47.899	0.137	0.128
-545.296	701.929	-0.086	0.228
-544.281	-1.722	0.067	-0.047
-543.266	268.502	-0.105	-0.184
-542.252	-200.000	0.041	-0.246
-541.237	207.257	0.105	0.163
-540.223	-200.000	-0.013	-0.253
-539.208	204.679	-0.196	0.304
-538.193	105.821	-0.049	0.058
-537.179	66.724	-0.028	0.029
-536.164	182.887	0.124	-0.183
-535.150	800.000	0.070	-0.219
-534.135	-62.383	-0.153	-0.063
-533.121	-68.630	-0.141	0.055
-532.106	639.210	-0.110	-0.280
-531.091	-39.890	-0.005	0.003
-530.077	800.000	0.126	0.422
-529.062	-200.000	0.061	0.331
-528.048	-102.645	0.055	-0.013
-527.033	-18.644	0.335	-0.208
-526.018	800.000	-0.015	-0.058
-525.004	147.143	-0.199	0.268
-523.989	-200.000	0.045	-0.358
-522.975	-99.423	0.263	-0.066
-521.960	-200.000	-0.004	-0.036
-520.945	-159.257	0.231	0.013
-519.931	-200.000	-0.004	-0.041
-518.916	60.675	-0.196	0.194
-517.902	15.203	-0.056	0.044
-516.887	-200.000	-0.011	0.255
-515.872	-132.677	0.190	0.024
-514.858	-65.139	-0.049	0.020
-513.843	508.526	-0.061	0.141
-512.829	800.000	0.074	0.246
-511.814	699.081	-0.082	0.214
-510.799	-122.332	-0.311	0.051
-509.785	800.000	-0.028	0.080
-508.770	800.000	-0.061	0.194
-507.756	34.519	0.061	-0.053
-506.741	-87.475	0.139	0.042
-505.726	263.112	-0.034	0.059
-504.712	159.237	-0.065	-0.090
-503.697	-43.279	-0.186	0.094
-502.683	-74.938	0.063	-0.023
-501.668	-200.000	-0.014	0.355
-500.653	252.495	0.122	0.207
-499.639	800.000	-0.038	0.141
-498.624	-104.456	-0.320	0.074
-497.610	800.000	0.027	0.108
-496.595	-200.000	-0.017	0.179
-495.581	-200.000	-0.005	-0.062
-494.566	800.000	-0.038	-0.119
-493.551	-105.823	0.236	0.053
-492.537	-59.232	0.390	-0.167
-491.522	-130.493	0.462	-0.062
-490.508	-46.572	0.153	-0.075
-489.493	-200.000	0.015	0.081
-488.478	403.417	-0.022	-0.045
-487.464	-79.947	0.077	0.026
-486.449	-39.354	0.130	0.068
-485.435	692.255	0.061	0.161
-484.420	-55.136	0.513	0.230
-483.405	-58.280	0.157	0.068
-482.391	-11.627	-0.173	-0.113
-481.376	800.000	-0.026	-0.080
-480.362	-175.736	0.430	-0.012
-479.347	-25.481	-0.481	-0.284
-478.332	-158.570	0.210	0.012
-477.318	148.624	-0.191	0.258
-476.303	800.000	-0.069	-0.281
-475.289	132.373	0.222	-0.285
-474.274	247.103	-0.340	-0.572
-473.259	-10.937	0.197	-0.130
-472.245	64.305	-0.144	-0.144
-471.230	-36.183	0.206	0.111
-470.216	-74.736	-0.117	0.042
-469.201	264.840	0.133	-0.231
-468.186	-200.000	-0.031	-0.323
-467.172	-188.867	0.196	-0.002
-466.157	304.546	0.202	-0.374
-465.143	-119.727	-0.147	-0.025
-464.128	210.405	-0.247	-0.386
-463.113	-71.570	0.192	0.071
-462.099	-200.000	0.062	-0.288
-461.084	763.400	-0.082	0.222
-460.070	-126.249	0.292	-0.044
-459.055	87.564	0.145	0.160
-458.040	-53.849	0.422	-0.192
-457.026	-107.802	-0.119	-0.026
-456.011	-200.000	0.060	-0.387
-454.997	-149.463	0.175	-0.014
-453.982	-13.956	-0.092	0.059
-452.968	800.000	0.057	-0.219
-451.953	-200.000	0.017	-0.297
-450.938	-164.394	0.221	0.010
-449.924	684.199	0.054	0.141
-448.909	371.250	0.082	0.166
-447.895	-68.949	-0.453	-0.174
-446.880	-107.987	0.085	-0.018
-445.865	414.784	0.120	0.254
-444.851	-15.490	0.073	0.047
-443.836	800.000	-0.033	-0.130
-442.822	-95.813	-0.112	-0.030
-441.807	800.000	0.066	-0.199
-440.792	26.457	-0.175	-0.146
-439.778	-200.000	-0.069	0.362
-438.763	86.574	0.115	-0.126
-437.749	-200.000	0.034	-0.185
-436.734	-101.298	-0.120	0.029
-435.719	-118.369	-0.079	-0.014
-434.705	115.355	0.099	-0.120
-433.690	79.517	-0.114	0.122
-432.676	-81.634	-0.322	0.105
-431.661	800.000	0.017	-0.064
-430.646	287.462	-0.092	-0.166
-429.632	-200.000	-0.051	0.276
-428.617	130.647	0.091	-0.116
-427.603	53.623	-0.064	-0.061
-426.588	-200.000	0.008	0.052
-425.573	5.887	-0.081	-0.059
-424.559	-119.287	-0.282	-0.049
-423.544	800.000	0.032	0.132
-422.530	-200.000	-0.035	-0.286
-421.515	-200.000	0.009	0.086
-420.500	24.019	-0.231	0.190
-419.486	51.481	0.223	0.211
-418.471	-158.724	0.083	-0.005
-417.457	800.000	0.078	0.259
-416.442	-47.174	0.100	-0.048
-415.428	-200.000	0.013	0.252
-414.413	-200.000	0.025	-0.266
-413.398	-153.742	-0.246	0.017
-412.384	162.551	0.224	-0.312
-411.369	296.020	0.043	0.078
-410.355	-13.972	0.216	0.139
-409.340	-46.557	-0.135	0.066
-408.325	17.160	-0.150	0.119
-407.311	-128.885	0.099	0.014
-406.296	800.000	-0.036	-0.136
-405.282	-119.215	0.183	0.032
-404.267	136.825	-0.043	-0.056
-403.252	800.000	0.114	0.327
-402.238	76.265	0.021	0.023
-401.223	186.059	-0.108	-0.160
-400.209	-11.253	-0.209	0.137
-399.194	-101.195	-0.197	0.048
-398.179	-200.000	-0.137	-0.000
-397.165	52.155	-0.191	0.181
-396.150	72.524	-0.079	0.082
-395.136	-113.229	0.251	-0.049
-394.121	79.000	-0.045	-0.048
-393.106	-142.918	-0.185	0.018
-392.092	531.704	0.077	-0.181
-391.077	204.019	0.129	-0.199
-390.063	-72.243	-0.153	0.057
-389.048	182.192	0.094	0.138
-388.033	55.185	0.117	-0.113
-387.019	-200.000	0.001	-0.573
-386.004	118.476	0.038	-0.047
-384.990	-25.573	-0.125	0.073
-383.975	615.361	0.058	0.145
-382.960	800.000	-0.019	0.055
-381.946	-121.599	-0.145	-0.024
-380.931	493.155	-0.103	0.235
-379.917	257.465	0.155	0.265
-378.902	-200.000	0.061	0.394
-377.888	298.391	0.136	0.249
-376.873	142.486	0.052	0.068
-375.858	59.118	-0.166	0.163
-374.844	-200.000	-0.022	0.353
-373.829	178.239	0.312	-0.452
-372.815	149.154	-0.228	-0.307
-371.800	800.000	0.125	0.429
-370.785	258.571	-0.064	-0.110
-369.771	-105.786	0.177	-0.040
-368.756	43.175	0.046	-0.042
-367.742	271.212	-0.171	-0.300
-366.727	-31.535	-0.083	0.046
-365.712	-53.618	0.294	0.133
-364.698	23.660	-0.088	-0.072
-363.683	-200.000	-0.019	0.209
-362.669	120.114	0.141	0.173
-361.654	-42.355	0.566	0.287
-360.639	180.612	-0.132	-0.192
-359.625	-200.000	-0.051	0.317
-358.610	218.787	-0.207	0.329
-357.596	53.936	0.065	0.062
-356.581	236.514	0.023	0.038
-355.566	-200.000	0.000	0.124
-354.552	-55.758	-0.201	0.089
-353.537	-51.946	-0.195	0.090
-352.523	-72.693	-0.105	-0.039
-351.508	548.160	0.047	-0.112
-350.493	104.461	0.053	0.062
-349.479	79.286	0.334	0.355
-348.464	32.761	0.351	0.301
-347.450	211.972	-0.069	0.108
-346.435	515.847	0.015	-0.036
-345.420	119.330	0.118	-0.145
-344.406	171.316	-0.287	0.409
-343.391	-128.895	-0.450	-0.063
-342.377	-200.000	0.020	-0.091
-341.362	96.025	-0.126	-0.143
-340.348	-200.000	-0.025	0.129
-339.333	-200.000	0.017	-0.089
-338.318	278.844	-0.159	-0.281
-337.304	800.000	-0.008	0.035
-336.289	143.250	-0.019	-0.025
-335.275	13.757	0.290	-0.223
-334.260	-200.000	-0.007	0.083
-333.245	-76.213	0.212	-0.074
-332.231	-200.000	-0.066	0.316
-331.216	-120.373	0.127	-0.021
-330.202	-69.106	-0.158	0.060
-329.187	227.505	-0.008	-0.013
-328.172	-123.708	-0.261	-0.041
-327.158	-173.294	-0.084	-0.003
-326.143	99.045	0.137	0.157
-325.129	-200.000	0.010	-0.131
-324.114	-200.000	0.027	0.140
-323.099	-93.321	0.065	0.018
-322.085	68.134	0.297	-0.301
-321.070	226.672	0.119	0.191
-320.056	-109.005	0.325	0.069
-319.041	517.070	-0.060	-0.140
-318.026	-200.000	0.006	-0.025
-317.012	-108.802	-0.459	0.097
-315.997	-200.000	0.016	0.105
-314.983	-76.791	0.164	-0.057
-313.968	-10.153	-0.102	-0.067
-312.953	800.000	0.067	-0.220
-311.939	25.187	0.165	0.136
-310.924	-6.971	0.271	-0.182
-309.910	-200.000	0.027	0.294
-308.895	-128.616	0.202	0.028
-307.880	-200.000	-0.014	0.185
-306.866	-86.104	0.201	0.061
-305.851	-117.156	0.226	0.041
-304.837	-104.458	0.241	-0.055
-303.822	-162.917	0.230	-0.011
-302.807	283.820	0.172	0.307
-301.793	-66.680	-0.370	-0.145
-300.778	-68.028	0.102	-0.039
-299.764	691.535	0.063	-0.165
-298.749	237.915	-0.234	-0.384
-297.735	-53.771	0.197	0.089
-296.720	-9.751	0.085	0.056
-295.705	-86.743	0.255	0.077
-294.691	58.503	0.085	-0.083
-293.676	238.450	-0.172	-0.283
-292.662	-125.263	0.239	-0.036
-291.647	89.905	-0.340	-0.375
-290.632	544.842	-0.045	-0.106
-289.618	570.022	-0.157	0.377
-288.603	-50.736	0.354	0.165
-287.589	-5.550	0.192	0.131
-286.574	-97.820	-0.150	-0.038
-285.559	-117.028	-0.444	0.080
-284.545	800.000	0.124	-0.352
-283.530	167.212	0.211	-0.297
-282.516	729.015	-0.122	0.323
-281.501	-55.871	-0.292	0.129
-280.486	-77.413	0.192	0.066
-279.472	16.024	0.033	-0.026
-278.457	-22.326	0.009	-0.006
-277.443	129.527	0.074	0.094
-276.428	-123.032	-0.352	-0.056
-275.413	800.000	-0.115	0.423
-274.399	800.000	-0.047	0.129
-273.384	-200.000	-0.046	0.301
-272.370	115.154	-0.213	-0.257
-271.355	233.050	0.052	0.085
-270.340	-200.000	-0.047	0.413
-269.326	71.041	0.200	0.205
-268.311	487.104	0.120	-0.271
-267.297	327.019	-0.131	-0.248
-266.282	800.000	-0.056	-0.201
-265.267	127.900	0.113	-0.142
-264.253	5.868	0.255	0.187
-263.238	380.043	0.095	-0.193
-262.224	-38.447	0.122	-0.064
-261.209	51.937	-0.064	-0.060
-260.195	86.631	0.362	0.394
-259.180	-117.751	0.157	-0.028
-258.165	800.000	0.051	-0.201
-257.151	166.646	-0.190	-0.266
-256.136	441.345	-0.061	0.132
-255.122	-41.428	-0.087	-0.044
-254.107	-200.000	0.009	0.112
-253.092	69.660	0.329	0.335
-252.078	-200.000	-0.026	-0.207
-251.063	42.142	0.256	0.230
-250.049	59.514	0.266	0.259
-249.034	-134.733	0.450	-0.054
-248.019	-200.000	0.003	-0.082
-247.005	19.936	0.176	0.140
-245.990	22.035	-0.073	0.059
-244.976	-78.651	0.352	0.119
-243.961	-65.395	-0.289	-0.115
-242.946	-36.804	-0.231	-0.122
-241.932	800.000	0.079	0.298
-240.917	-101.669	-0.060	0.014
-239.903	800.000	0.056	0.167
-238.888	70.467	-0.137	-0.140
-237.873	-200.000	0.023	-0.291
-236.859	-20.199	-0.186	0.113
-235.844	800.000	0.047	-0.148
-234.830	-47.058	-0.126	-0.061
-233.815	34.539	0.204	0.176
-232.800	-200.000	0.003	-0.050
-231.786	148.738	0.104	-0.139
-230.771	-79.000	-0.175	0.059
-229.757	-200.000	-0.052	0.270
-228.742	-71.852	0.312	0.115
-227.727	260.246	-0.218	0.371
-226.713	-200.000	0.024	0.322
-225.698	-126.151	0.305	-0.045
-224.684	800.000	-0.107	-0.334
-223.669	-89.917	0.198	-0.057
-222.655	-134.274	0.253	0.031
-221.640	-40.842	-0.195	-0.099
-220.625	-101.187	-0.176	0.042
-219.611	98.839	-0.199	-0.226
-218.596	450.595	-0.123	-0.269
-217.582	-200.000	0.041	-0.193
-216.567	-200.000	0.042	-0.378
-215.552	296.782	0.118	-0.213
-214.538	-89.926	0.259	-0.075
-213.523	-65.065	0.301	-0.120
-212.509	15.615	0.176	-0.136
-211.494	800.000	-0.060	-0.203
-210.479	-133.805	-0.082	-0.010
-209.465	113.316	0.014	-0.017
-208.450	518.032	-0.072	0.165
-207.436	-134.648	-0.389	0.047
-206.421	-5.806	-0.263	-0.178
-205.406	269.239	0.080	-0.139
-204.392	-53.435	-0.221	-0.100
-203.377	-17.523	-0.247	-0.153
-202.363	51.394	0.186	-0.174
-201.348	-25.923	-0.204	0.118
-200.333	-77.891	0.100	-0.034
-199.319	25.180	0.172	0.141
-198.304	-48.679	0.092	-0.043
-197.290	-39.084	-0.237	0.123
-196.275	-60.616	0.401	0.168
-195.260	-109.127	-0.264	0.055
-194.246	-136.958	0.089	-0.010
-193.231	574.497	0.059	0.142
-192.217	13.976	-0.166	0.127
-191.202	-146.825	-0.106	-0.009
-190.187	5.239	0.312	-0.227
-189.173	-62.143	-0.179	-0.074
-188.158	-200.000	0.003	0.185
-187.144	-199.359	-0.372	0.002
-186.129	-143.351	-0.125	0.012
-185.114	422.987	-0.064	0.136
-184.100	38.950	-0.378	-0.333
-183.085	800.000	-0.032	0.121
-182.071	44.400	-0.198	0.179
-181.056	-200.000	-0.001	-0.122
-180.042	7.991	0.255	-0.188
-179.027	-48.779	-0.212	-0.100
-178.012	347.611	-0.063	0.122
-176.998	-1.058	-0.243	0.170
-175.983	-124.299	-0.321	0.049
-174.969	-159.714	-0.698	-0.038
-173.954	-190.095	0.469	-0.005
-172.939	-130.237	0.205	-0.027
-171.925	-167.791	-0.312	-0.012
-170.910	43.792	-0.302	0.272
-169.896	-74.686	0.216	-0.077
-168.881	45.942	-0.264	0.240
-167.866	-93.061	0.266	-0.073
-166.852	55.428	-0.144	0.137
-165.837	328.680	0.044	-0.083
-164.823	-200.000	-0.049	-0.304
-163.808	58.664	0.255	0.247
-162.793	401.347	-0.090	0.185
-161.779	-200.000	0.012	-0.123
-160.764	365.102	0.093	-0.184
-159.750	5.521	0.092	-0.067
-158.735	-45.743	0.163	0.079
-157.720	22.127	-0.199	-0.160
-156.706	800.000	0.048	-0.176
-155.691	47.264	0.046	0.042
-154.677	-94.013	0.133	0.036
-153.662	-200.000	-0.011	-0.152
-152.647	182.417	0.287	-0.417
-151.633	-44.409	0.115	0.057
-150.618	-56.340	0.245	0.107
-149.604	22.853	0.166	0.134
-148.589	214.207	0.127	0.197
-147.574	625.500	0.058	0.144
-146.560	22.034	0.047	-0.038
-145.545	-90.525	-0.123	0.035
-144.531	182.625	0.124	-0.180
-143.516	-92.456	0.187	-0.052
-142.502	-200.000	-0.002	-0.109
-141.487	96.644	0.094	0.106
-140.472	-108.220	0.057	-0.012
-139.458	-16.294	-0.349	-0.218
-138.443	57.716	0.068	-0.065
-137.429	-147.970	0.056	-0.005
-136.414	-75.794	-0.440	-0.153
-135.399	15.917	-0.214	0.166
-134.385	-87.680	-0.041	0.012
-133.370	-21.542	-0.377	0.226
-132.356	-124.021	0.359	0.055
-131.341	-17.530	-0.260	0.161
-130.326	-141.049	-0.221	-0.022
-129.312	-91.215	-0.024	-0.007
-128.297	800.000	-0.057	0.220
-127.283	433.482	0.103	0.220
-126.268	241.565	-0.015	0.024
-125.253	800.000	0.031	-0.098
-124.239	800.000	0.075	-0.232
-123.224	725.065	0.057	0.149
-122.210	-200.000	-0.047	-0.266
-121.195	-92.105	-0.552	-0.153
-120.180	61.086	0.052	0.051
