DTS Sentinel unit serial number:	SN413079Multiplexer serial number:	ORYXHardware model number:	OX4-SRSoftware version number:	ORYX F/W v4.00 Oryx Data Collector v3.7.2.0data status	okinstallation	princeton_trtdifferential loss correction	single-endedforward channel	channel 2reverse channel	N/Adate	2019/09/12time	02:33:10forward acquisition time	60.00reverse acquisition time	0.00gamma	496.2192k internal	0.2326k external	0.2326temperature offset calibration	1.0093default loss term (dB/km)	0.3790temperature slope calibration	1.0000multiplexer offset coefficient	1.0000multiplexer slope coefficient	1.0000fibre end	0.00T internal ref (°C)	32.44T ext. ref 1 (°C)	2.08T ext. ref 2 (°C)	27.29length (m)	temperature (°C)	Stokes	anti-Stokes-747.200	-200.000	-0.024	-0.163
-746.185	-200.000	-0.010	-0.328
-745.171	-200.000	-0.030	0.157
-744.156	372.098	0.124	0.254
-743.142	-73.862	0.191	-0.070
-742.127	-200.000	-0.031	0.362
-741.112	346.095	0.122	0.242
-740.098	197.713	-0.157	0.241
-739.083	-200.000	-0.020	-0.287
-738.069	388.674	-0.150	0.312
-737.054	800.000	-0.106	-0.328
-736.039	-27.886	-0.048	-0.028
-735.025	211.161	-0.007	0.011
-734.010	-200.000	-0.014	-0.169
-732.996	-200.000	-0.038	-0.171
-731.981	800.000	-0.042	-0.116
-730.966	196.954	-0.140	-0.216
-729.952	-169.762	-0.050	0.002
-728.937	-34.846	-0.044	-0.024
-727.923	800.000	-0.058	-0.171
-726.908	-110.719	-0.353	-0.073
-725.894	-122.117	-0.405	-0.067
-724.879	-63.181	-0.076	0.032
-723.864	-200.000	-0.024	0.157
-722.850	-63.094	-0.236	0.098
-721.835	484.118	-0.154	-0.354
-720.821	27.465	0.216	-0.183
-719.806	-85.600	0.211	0.066
-718.791	-200.000	-0.003	-0.044
-717.777	13.890	-0.267	0.210
-716.762	-109.239	0.176	-0.038
-715.748	-57.184	-0.243	-0.108
-714.733	207.124	-0.120	-0.188
-713.718	-59.196	0.133	-0.058
-712.704	-200.000	-0.024	0.108
-711.689	-64.049	-0.172	-0.071
-710.675	203.758	-0.113	-0.176
-709.660	-86.950	0.229	-0.070
-708.645	131.989	-0.111	-0.145
-707.631	-200.000	0.024	-0.182
-706.616	797.232	-0.100	-0.277
-705.602	509.188	0.108	-0.252
-704.587	554.725	0.051	-0.124
-703.572	534.322	-0.050	0.118
-702.558	-200.000	0.014	0.211
-701.543	-23.685	0.413	-0.249
-700.529	-60.536	-0.352	0.150
-699.514	800.000	0.045	-0.124
-698.499	-13.991	-0.213	-0.138
-697.485	-105.032	0.176	-0.041
-696.470	246.439	0.032	-0.054
-695.456	166.436	0.112	-0.160
-694.441	111.501	-0.170	0.206
-693.426	-52.427	-0.160	0.074
-692.412	800.000	0.046	0.161
-691.397	152.003	-0.288	-0.396
-690.383	13.801	0.423	-0.331
-689.368	-75.651	0.085	-0.031
-688.354	-114.976	-0.029	-0.006
-687.339	-200.000	-0.067	-0.310
-686.324	-8.970	0.200	-0.135
-685.310	-103.942	-0.268	-0.063
-684.295	148.924	0.159	-0.217
-683.281	614.956	0.190	0.479
-682.266	34.082	0.088	0.077
-681.251	-200.000	0.010	0.318
-680.237	95.296	0.135	-0.155
-679.222	47.222	-0.022	0.020
-678.208	-75.850	0.297	-0.106
-677.193	-112.026	0.326	0.066
-676.178	800.000	0.036	-0.110
-675.164	59.167	0.228	0.226
-674.149	-200.000	-0.018	-0.218
-673.135	452.802	0.074	0.165
-672.120	173.312	-0.029	0.042
-671.105	-96.547	-0.151	-0.040
-670.091	-89.037	0.548	0.163
-669.076	-200.000	0.044	-0.264
-668.062	-200.000	-0.028	-0.392
-667.047	-137.723	0.146	0.017
-666.032	-200.000	-0.022	-0.149
-665.018	800.000	-0.060	-0.214
-664.003	800.000	-0.023	-0.071
-662.989	-73.853	0.269	-0.098
-661.974	-132.024	-0.262	0.034
-660.959	595.281	0.072	0.178
-659.945	-25.221	0.192	0.114
-658.930	389.125	-0.074	-0.153
-657.916	-31.027	0.152	0.086
-656.901	-32.510	0.329	0.184
-655.886	-200.000	0.010	0.115
-654.872	279.206	-0.121	0.217
-653.857	-83.388	0.123	0.040
-652.843	800.000	0.075	0.230
-651.828	-45.642	0.235	0.117
-650.814	800.000	0.091	0.353
-649.799	-141.367	0.155	-0.016
-648.784	-183.787	0.224	-0.004
-647.770	71.765	0.230	0.240
-646.755	-13.781	0.094	-0.061
-645.741	-38.229	-0.437	0.233
-644.726	135.858	0.103	-0.135
-643.711	-98.139	-0.215	0.056
-642.697	60.514	0.150	0.149
-641.682	394.204	0.083	0.174
-640.668	-1.006	0.147	0.104
-639.653	800.000	-0.065	-0.210
-638.638	-92.986	0.262	-0.074
-637.624	800.000	-0.059	0.227
-636.609	-26.442	-0.200	0.117
-635.595	-114.315	0.258	0.050
-634.580	86.218	0.147	-0.163
-633.565	2.184	-0.278	-0.202
-632.551	-200.000	-0.020	0.346
-631.536	-16.239	-0.241	0.154
-630.522	-36.102	-0.179	0.097
-629.507	800.000	0.035	-0.144
-628.492	-200.000	-0.032	0.151
-627.478	-200.000	-0.034	-0.159
-626.463	11.833	-0.164	0.127
-625.449	-200.000	0.015	-0.108
-624.434	-47.539	-0.126	0.061
-623.419	-200.000	-0.036	-0.160
-622.405	-114.232	0.223	0.043
-621.390	-152.571	-0.180	0.013
-620.376	800.000	0.073	0.216
-619.361	159.343	0.245	-0.342
-618.346	-138.092	-0.213	0.024
-617.332	313.312	0.028	-0.053
-616.317	-91.076	-0.212	0.061
-615.303	-46.167	-0.180	0.089
-614.288	139.776	0.115	0.151
-613.273	-66.517	-0.144	-0.057
-612.259	-129.241	-0.359	-0.050
-611.244	300.081	-0.166	-0.307
-610.230	-92.736	-0.286	-0.080
-609.215	89.570	0.270	0.302
-608.201	28.599	0.134	0.113
-607.186	174.454	-0.299	0.434
-606.171	-157.951	0.350	-0.021
-605.157	800.000	-0.061	0.175
-604.142	-163.452	-0.122	0.006
-603.128	-200.000	-0.005	0.025
-602.113	-200.000	0.018	0.176
-601.098	-200.000	-0.009	-0.340
-600.084	18.560	-0.212	-0.170
-599.069	145.929	0.160	-0.216
-598.055	75.202	0.076	-0.080
-597.040	-79.075	-0.277	0.094
-596.025	5.232	0.181	0.134
-595.011	393.291	0.090	0.189
-593.996	71.352	0.105	0.110
-592.982	800.000	-0.086	-0.278
-591.967	800.000	-0.035	0.147
-590.952	337.843	-0.174	0.339
-589.938	-32.571	-0.226	0.126
-588.923	144.134	-0.136	-0.182
-587.909	181.956	-0.165	0.244
-586.894	451.556	-0.048	-0.107
-585.879	722.827	-0.059	-0.156
-584.865	89.080	0.184	-0.205
-583.850	132.486	-0.187	-0.242
-582.836	800.000	0.038	-0.165
-581.821	-107.287	0.088	0.019
-580.806	-200.000	-0.003	-0.111
-579.792	97.772	-0.086	-0.099
-578.777	25.919	-0.102	-0.085
-577.763	-81.225	-0.274	0.091
-576.748	-123.565	-0.347	-0.055
-575.733	-83.097	0.136	0.044
-574.719	-200.000	0.057	0.328
-573.704	-200.000	0.059	0.341
-572.690	69.258	0.263	0.271
-571.675	115.529	-0.212	-0.259
-570.661	-200.000	0.030	-0.250
-569.646	-157.444	-0.242	0.015
-568.631	-139.042	0.189	0.020
-567.617	-16.591	0.141	-0.089
-566.602	-65.570	0.067	0.027
-565.588	800.000	-0.081	-0.332
-564.573	70.260	-0.280	0.290
-563.558	588.839	0.080	-0.198
-562.544	-198.770	0.430	0.002
-561.529	800.000	0.056	-0.180
-560.515	96.051	-0.170	0.194
-559.500	107.072	0.182	-0.216
-558.485	110.830	-0.052	0.062
-557.471	800.000	-0.093	-0.360
-556.456	236.193	-0.036	0.060
-555.442	-102.644	0.129	-0.031
-554.427	94.257	-0.159	-0.180
-553.412	-145.078	0.361	-0.033
-552.398	-200.000	0.012	-0.345
-551.383	157.953	-0.053	-0.074
-550.369	-132.139	-0.218	-0.028
-549.354	-146.359	0.276	0.024
-548.339	393.719	-0.133	-0.277
-547.325	-123.488	-0.373	-0.059
-546.310	-39.520	0.359	-0.188
-545.296	-200.000	-0.012	0.222
-544.281	274.540	-0.031	-0.055
-543.266	14.484	-0.205	0.160
-542.252	249.123	0.108	0.183
-541.237	-125.682	-0.106	0.016
-540.223	-129.260	0.068	0.010
-539.208	287.799	-0.044	0.080
-538.193	151.969	0.109	-0.148
-537.179	-139.220	-0.186	0.020
-536.164	248.911	-0.043	0.073
-535.150	46.966	0.092	0.085
-534.135	-166.761	-0.155	0.006
-533.121	200.360	0.090	-0.139
-532.106	-32.992	-0.285	-0.158
-531.091	-200.000	-0.006	0.112
-530.077	-108.699	0.116	0.025
-529.062	-200.000	-0.013	0.219
-528.048	525.163	0.067	0.158
-527.033	23.518	-0.139	-0.115
-526.018	-17.697	-0.323	-0.203
-525.004	54.958	0.292	-0.282
-523.989	115.389	-0.132	-0.161
-522.975	-200.000	0.047	-0.383
-521.960	-150.470	-0.066	0.005
-520.945	151.111	-0.103	0.140
-519.931	26.858	-0.466	0.391
-518.916	-14.538	0.135	-0.087
-517.902	800.000	0.023	-0.091
-516.887	90.758	0.103	-0.115
-515.872	-132.866	-0.245	-0.031
-514.858	12.002	0.133	0.102
-513.843	-86.447	-0.164	0.050
-512.829	231.602	-0.106	-0.174
-511.814	-200.000	-0.037	-0.219
-510.799	-163.627	0.092	0.004
-509.785	-98.921	-0.154	0.039
-508.770	5.959	0.042	0.031
-507.756	-57.862	-0.224	-0.098
-506.741	-28.512	-0.015	-0.008
-505.726	-200.000	-0.013	-0.235
-504.712	-50.415	-0.005	0.002
-503.697	287.209	0.104	0.188
-502.683	-200.000	0.009	0.126
-501.668	-46.039	-0.328	0.162
-500.653	-169.416	0.042	0.002
-499.639	-200.000	-0.005	-0.130
-498.624	721.141	0.069	0.184
-497.610	-40.883	0.084	0.044
-496.595	-200.000	-0.038	-0.306
-495.581	127.085	0.088	0.112
-494.566	-200.000	-0.042	0.205
-493.551	101.047	0.061	-0.071
-492.537	-17.673	-0.284	-0.178
-491.522	-157.475	-0.346	-0.021
-490.508	-105.189	-0.439	0.100
-489.493	800.000	0.032	-0.131
-488.478	175.461	-0.141	0.204
-487.464	282.880	0.083	0.149
-486.449	33.951	-0.204	-0.177
-485.435	259.911	0.212	0.365
-484.420	-150.082	0.170	-0.013
-483.405	-200.000	-0.016	-0.164
-482.391	-200.000	-0.026	0.439
-481.376	132.999	0.093	0.120
-480.362	-99.485	0.238	-0.060
-479.347	-118.889	0.300	-0.053
-478.332	191.369	0.161	0.242
-477.318	-155.558	0.242	-0.016
-476.303	360.012	-0.038	0.076
-475.289	-25.149	-0.047	0.028
-474.274	684.961	-0.030	-0.079
-473.259	502.766	-0.012	0.028
-472.245	59.940	0.163	-0.161
-471.230	-12.316	0.342	0.223
-470.216	137.752	0.107	0.139
-469.201	210.295	-0.111	-0.173
-468.186	800.000	0.102	0.349
-467.172	40.590	0.253	-0.227
-466.157	195.661	-0.260	-0.394
-465.143	180.977	0.054	0.080
-464.128	-200.000	-0.061	-0.507
-463.113	-124.108	0.241	-0.038
-462.099	-100.716	-0.221	0.054
-461.084	800.000	0.119	0.359
-460.070	-168.806	-0.275	-0.010
-459.055	-12.321	-0.082	0.054
-458.040	32.581	-0.029	0.025
-457.026	139.804	-0.079	-0.104
-456.011	-157.196	0.211	0.013
-454.997	211.060	-0.123	0.193
-453.982	305.986	-0.084	-0.156
-452.968	-69.309	0.552	-0.211
-451.953	223.867	0.113	-0.183
-450.938	-105.252	-0.173	0.039
-449.924	800.000	-0.060	0.186
-448.909	-47.657	-0.299	0.145
-447.895	528.472	-0.035	0.082
-446.880	-200.000	0.066	-0.398
-445.865	55.730	-0.058	0.056
-444.851	-108.185	0.180	0.039
-443.836	-200.000	0.000	0.280
-442.822	56.368	-0.151	0.146
-441.807	-186.520	-0.070	-0.001
-440.792	-159.419	-0.309	-0.017
-439.778	111.266	0.176	0.212
-438.763	130.680	0.025	-0.032
-437.749	32.633	0.130	-0.112
-436.734	-200.000	0.005	0.079
-435.719	-78.008	0.164	0.056
-434.705	95.200	0.060	-0.068
-433.690	-200.000	-0.003	0.088
-432.676	85.949	-0.088	0.097
-431.661	144.548	0.081	0.107
-430.646	-26.259	-0.101	-0.059
-429.632	800.000	-0.036	0.138
-428.617	374.383	0.025	0.051
-427.603	-200.000	0.054	-0.280
-426.588	-69.344	0.104	0.040
-425.573	-200.000	0.022	-0.110
-424.559	-12.239	-0.170	-0.111
-423.544	-200.000	0.038	-0.380
-422.530	469.823	0.124	-0.277
-421.515	-102.955	0.298	0.070
-420.500	-13.072	0.221	0.143
-419.486	557.483	-0.111	0.268
-418.471	-200.000	0.006	0.249
-417.457	49.394	0.239	-0.224
-416.442	520.281	-0.019	0.045
-415.428	-133.753	0.241	-0.030
-414.413	-102.980	-0.181	-0.043
-413.398	-103.959	-0.191	0.044
-412.384	-128.898	0.356	-0.050
-411.369	-136.940	-0.087	-0.010
-410.355	-74.697	-0.150	0.054
-409.340	196.623	0.235	-0.356
-408.325	102.246	-0.098	-0.114
-407.311	638.599	0.106	-0.268
-406.296	800.000	-0.191	-0.564
-405.282	-105.813	0.405	0.091
-404.267	-7.551	-0.253	0.170
-403.252	-200.000	-0.045	0.268
-402.238	-86.679	-0.222	0.067
-401.223	-101.238	0.242	0.059
-400.209	-90.882	-0.138	0.039
-399.194	-84.985	0.080	0.025
-398.179	-163.078	-0.308	-0.015
-397.165	434.924	-0.113	-0.245
-396.150	-200.000	-0.043	0.270
-395.136	-88.794	-0.155	0.046
-394.121	80.199	-0.121	0.129
-393.106	239.073	0.183	-0.303
-392.092	76.946	-0.100	-0.106
-391.077	268.003	0.080	-0.139
-390.063	519.496	0.062	0.145
-389.048	26.747	0.108	0.090
-388.033	-87.479	-0.241	0.073
-387.019	-55.916	0.125	0.056
-386.004	-138.442	-0.165	-0.018
-384.990	-200.000	-0.037	0.260
-383.975	62.086	0.161	0.159
-382.960	-100.697	-0.174	0.043
-381.946	135.599	0.210	-0.272
-380.931	-91.504	0.234	-0.066
-379.917	64.123	-0.093	0.093
-378.902	-200.000	-0.037	0.350
-377.888	-66.020	0.038	-0.015
-376.873	-64.947	0.283	0.114
-375.858	34.973	-0.375	-0.326
-374.844	-26.459	0.356	-0.207
-373.829	-137.389	0.116	-0.013
-372.815	45.529	0.139	0.128
-371.800	-200.000	-0.016	0.103
-370.785	735.302	-0.037	0.100
-369.771	129.208	0.015	0.020
-368.756	800.000	0.060	-0.250
-367.742	151.972	0.093	-0.125
-366.727	-77.382	0.177	-0.061
-365.712	-200.000	0.019	-0.321
-364.698	-92.489	-0.273	0.076
-363.683	-13.426	0.166	0.107
-362.669	-23.181	-0.179	-0.107
-361.654	47.303	0.131	0.121
-360.639	800.000	-0.066	0.253
-359.625	-143.012	0.143	-0.014
-358.610	-90.195	-0.150	-0.043
-357.596	800.000	-0.063	-0.240
-356.581	-200.000	-0.011	-0.200
-355.566	93.891	-0.070	0.078
-354.552	-21.133	-0.101	0.062
-353.537	318.671	0.159	-0.298
-352.523	800.000	-0.127	-0.353
-351.508	-200.000	0.018	0.285
-350.493	-156.155	-0.240	0.015
-349.479	-64.944	-0.232	0.093
-348.464	27.300	0.143	-0.119
-347.450	67.599	-0.128	0.129
-346.435	-87.805	0.209	-0.062
-345.420	-93.301	-0.098	-0.027
-344.406	800.000	0.086	-0.261
-343.391	-200.000	0.028	-0.169
-342.377	-30.289	0.153	-0.086
-341.362	62.371	0.170	0.169
-340.348	-20.829	0.130	-0.079
-339.333	-200.000	-0.019	-0.199
-338.318	-200.000	0.006	-0.324
-337.304	-200.000	0.012	0.143
-336.289	-92.605	0.088	0.025
-335.275	-66.811	0.328	0.129
-334.260	475.871	-0.082	0.183
-333.245	-194.728	-0.270	0.002
-332.231	-89.236	-0.278	-0.082
-331.216	800.000	-0.056	0.238
-330.202	-200.000	-0.004	-0.249
-329.187	-200.000	0.023	-0.207
-328.172	147.125	-0.053	0.071
-327.158	266.633	-0.070	0.121
-326.143	132.535	0.120	-0.154
-325.129	800.000	-0.111	-0.339
-324.114	-11.544	0.186	0.121
-323.099	63.394	0.060	0.060
-322.085	800.000	0.124	-0.430
-321.070	128.237	-0.196	0.247
-320.056	75.908	-0.412	0.432
-319.041	-193.411	0.273	-0.002
-318.026	-138.795	-0.140	0.015
-317.012	123.293	0.054	0.067
-315.997	-200.000	-0.023	-0.241
-314.983	-14.267	-0.123	0.078
-313.968	-108.687	-0.173	0.037
-312.953	-110.421	-0.174	0.036
-311.939	-102.955	0.133	-0.031
-310.924	-200.000	-0.002	0.205
-309.910	20.151	0.047	0.038
-308.895	171.216	-0.048	-0.069
-307.880	-200.000	-0.014	-0.078
-306.866	-165.394	0.243	0.011
-305.851	16.165	0.123	-0.096
-304.837	-102.950	0.045	-0.011
-303.822	-116.965	0.082	-0.015
-302.807	-113.490	-0.092	0.018
-301.793	127.410	-0.139	-0.175
-300.778	480.785	0.124	0.280
-299.764	5.070	0.309	0.226
-298.749	-62.419	-0.359	0.148
-297.735	-167.702	0.322	0.013
-296.720	1.330	0.120	0.085
-295.705	-112.331	-0.132	-0.026
-294.691	272.733	0.116	0.202
-293.676	-129.099	-0.130	-0.018
-292.662	-17.237	-0.256	0.160
-291.647	-200.000	-0.005	0.053
-290.632	800.000	-0.044	-0.168
-289.618	800.000	0.050	-0.207
-288.603	311.744	0.151	-0.281
-287.589	242.368	-0.161	0.266
-286.574	-77.670	-0.164	0.056
-285.559	-152.851	-0.414	-0.029
-284.545	-200.000	-0.008	0.231
-283.530	-169.499	-0.126	-0.005
-282.516	532.347	0.147	-0.344
-281.501	-56.462	0.168	0.074
-280.486	-4.248	0.273	-0.187
-279.472	191.634	-0.093	-0.139
-278.457	82.076	0.173	-0.186
-277.443	800.000	-0.108	-0.321
-276.428	-200.000	0.040	0.226
-275.413	-131.381	-0.106	-0.014
-274.399	800.000	0.038	0.107
-273.384	148.010	0.041	0.054
-272.370	-110.051	0.247	0.051
-271.355	-85.092	0.270	-0.084
-270.340	-118.122	-0.302	-0.053
-269.326	230.527	0.140	-0.227
-268.311	120.278	0.139	0.170
-267.297	609.908	0.052	0.128
-266.282	800.000	-0.064	0.194
-265.267	-40.152	-0.315	0.162
-264.253	-200.000	0.014	-0.183
-263.238	800.000	0.087	-0.254
-262.224	-200.000	-0.009	0.142
-261.209	-71.159	-0.336	0.125
-260.195	-200.000	-0.021	-0.252
-259.180	-200.000	-0.026	-0.121
-258.165	-147.224	0.410	0.035
-257.151	-94.747	-0.148	-0.040
-256.136	324.994	0.094	0.178
-255.122	-14.550	0.176	-0.112
-254.107	-200.000	0.015	-0.180
-253.092	-200.000	0.021	-0.157
-252.078	-200.000	0.052	0.332
-251.063	43.197	0.200	-0.181
-250.049	104.409	0.236	0.275
-249.034	800.000	-0.079	0.284
-248.019	291.271	0.237	-0.426
-247.005	13.083	0.289	0.221
-245.990	72.600	-0.081	0.083
-244.976	-200.000	-0.032	0.253
-243.961	15.935	-0.200	0.156
-242.946	686.453	0.048	0.124
-241.932	-200.000	-0.003	0.296
-240.917	176.548	0.072	-0.104
-239.903	-132.136	0.152	-0.020
-238.888	-47.533	-0.143	0.069
-237.873	800.000	0.018	0.070
-236.859	-113.763	-0.217	0.042
-235.844	51.490	-0.296	0.278
-234.830	35.444	0.155	-0.135
-233.815	-44.524	0.361	-0.179
-232.800	-90.137	0.201	0.058
-231.786	800.000	0.105	-0.297
-230.771	46.976	-0.040	-0.037
-229.757	-200.000	0.047	0.220
-228.742	-176.472	-0.271	-0.007
-227.727	3.121	-0.261	-0.188
-226.713	-200.000	-0.012	-0.103
-225.698	247.544	0.207	-0.346
-224.684	317.384	-0.144	-0.269
-223.669	-39.316	0.221	-0.115
-222.655	-165.021	-0.387	-0.017
-221.640	-67.967	0.064	-0.025
-220.625	97.924	-0.290	0.330
-219.611	190.701	0.067	0.099
-218.596	378.873	-0.140	0.284
-217.582	336.408	0.048	-0.092
-216.567	218.705	0.113	-0.179
-215.552	-126.106	0.179	-0.027
-214.538	-13.753	-0.172	0.110
-213.523	-119.393	-0.337	-0.058
-212.509	-200.000	0.010	0.279
-211.494	-170.066	0.469	0.016
-210.479	-200.000	0.034	-0.169
-209.465	246.387	-0.152	-0.253
-208.450	533.548	-0.044	0.104
-207.436	800.000	-0.040	-0.142
-206.421	-200.000	0.028	-0.132
-205.406	-45.609	0.052	0.025
-204.392	745.638	-0.158	0.420
-203.377	114.317	0.121	0.145
-202.363	327.773	0.113	-0.214
-201.348	-200.000	0.043	0.220
-200.333	3.430	0.098	0.071
-199.319	-171.994	0.416	-0.013
-198.304	-93.593	0.079	-0.021
-197.290	-200.000	-0.013	0.068
-196.275	-200.000	-0.032	-0.358
-195.260	800.000	-0.039	-0.114
-194.246	-200.000	0.011	0.432
-193.231	9.949	0.128	0.096
-192.217	62.934	-0.046	-0.046
-191.202	-160.895	-0.043	0.002
-190.187	-73.094	0.287	-0.104
-189.173	149.444	0.128	-0.171
-188.158	-154.308	-0.120	-0.008
-187.144	179.369	0.083	-0.120
-186.129	-82.311	-0.046	-0.015
-185.114	219.828	0.128	0.202
-184.100	-139.012	0.325	-0.035
-183.085	18.264	-0.244	-0.192
-182.071	-41.665	0.055	0.028
-181.056	800.000	0.065	0.187
-180.042	-53.380	-0.334	0.151
-179.027	-170.086	0.068	0.002
-178.012	-200.000	-0.012	-0.092
-176.998	800.000	0.025	0.072
-175.983	30.394	0.194	0.163
-174.969	-22.988	0.400	-0.238
-173.954	-200.000	0.001	0.265
-172.939	294.959	-0.007	0.012
-171.925	-73.863	0.325	0.117
-170.910	-75.296	-0.089	0.031
-169.896	-200.000	-0.028	0.138
-168.881	-113.275	0.095	0.018
-167.866	-146.588	-0.081	-0.007
-166.852	-79.936	-0.273	0.090
-165.837	800.000	-0.075	0.298
-164.823	-30.071	0.380	0.213
-163.808	40.873	-0.348	0.310
-162.793	-200.000	0.003	-0.298
-161.779	301.495	-0.042	-0.076
-160.764	-23.457	0.204	0.121
-159.750	-16.301	-0.356	0.223
-158.735	326.668	0.176	-0.332
-157.720	138.734	0.179	-0.231
-156.706	-200.000	-0.036	0.272
-155.691	-2.812	-0.104	0.072
-154.677	-173.313	-0.207	-0.006
-153.662	-25.458	-0.010	-0.006
-152.647	800.000	0.055	-0.183
-151.633	-22.940	0.238	0.142
-150.618	-200.000	0.013	0.071
-149.604	-81.939	0.065	0.021
-148.589	210.370	0.156	0.241
-147.574	-161.189	0.278	0.014
-146.560	800.000	0.165	-0.689
-145.545	-32.872	-0.078	0.043
-144.531	51.584	-0.084	-0.079
-143.516	129.690	0.144	0.181
-142.502	34.199	-0.214	0.184
-141.487	200.267	-0.040	0.060
-140.472	-200.000	0.002	0.141
-139.458	-107.809	-0.426	0.091
-138.443	76.183	0.035	0.036
-137.429	69.773	0.366	0.372
-136.414	166.769	0.118	-0.164
-135.399	394.465	0.144	-0.296
-134.385	442.926	0.107	0.231
-133.370	493.662	-0.015	0.034
-132.356	-145.873	0.088	0.008
-131.341	221.175	0.016	-0.026
-130.326	-100.123	-0.216	0.053
-129.312	-107.970	0.271	0.058
-128.297	312.262	-0.199	-0.368
-127.283	-200.000	-0.007	0.182
-126.268	304.796	-0.094	0.173
-125.253	189.566	0.247	0.365
-124.239	35.508	0.298	0.258
-123.224	-200.000	0.015	0.089
-122.210	186.229	-0.175	0.257
