DTS Sentinel unit serial number:	SN413079Multiplexer serial number:	ORYXHardware model number:	OX4-SRSoftware version number:	ORYX F/W v4.00 Oryx Data Collector v3.7.2.0data status	okinstallation	princeton_trtdifferential loss correction	single-endedforward channel	channel 2reverse channel	N/Adate	2019/09/11time	22:37:11forward acquisition time	60.00reverse acquisition time	0.00gamma	496.2192k internal	0.2325k external	0.2325temperature offset calibration	1.0072default loss term (dB/km)	0.3790temperature slope calibration	1.0000multiplexer offset coefficient	1.0000multiplexer slope coefficient	1.0000fibre end	0.00T internal ref (°C)	34.95T ext. ref 1 (°C)	1.79T ext. ref 2 (°C)	28.59length (m)	temperature (°C)	Stokes	anti-Stokes-747.200	-200.000	-0.020	0.324
-746.185	146.185	-0.378	0.512
-745.171	466.712	-0.087	-0.196
-744.156	301.799	0.166	0.309
-743.142	-200.000	0.049	0.269
-742.127	534.954	-0.090	0.215
-741.112	31.058	0.287	-0.248
-740.098	3.796	0.282	0.208
-739.083	245.271	0.190	0.323
-738.069	800.000	0.091	0.315
-737.054	350.681	-0.061	0.122
-736.039	-7.660	-0.224	0.153
-735.025	522.671	0.093	0.220
-734.010	446.835	0.086	-0.192
-732.996	181.328	-0.109	-0.161
-731.981	-200.000	-0.101	-0.483
-730.966	528.577	-0.104	-0.247
-729.952	-133.756	-0.054	0.007
-728.937	-118.871	-0.437	-0.078
-727.923	-41.103	-0.155	-0.081
-726.908	23.991	0.138	0.115
-725.894	248.956	0.140	-0.239
-724.879	-88.389	0.391	0.118
-723.864	800.000	-0.042	-0.117
-722.850	800.000	0.084	-0.294
-721.835	112.233	0.107	-0.131
-720.821	69.592	-0.253	0.263
-719.806	42.252	-0.257	-0.236
-718.791	542.593	-0.119	-0.286
-717.777	-200.000	-0.024	-0.304
-716.762	57.165	0.148	-0.145
-715.748	40.391	-0.127	0.116
-714.733	105.577	-0.159	0.189
-713.718	141.024	-0.148	-0.197
-712.704	-60.236	-0.240	0.103
-711.689	-200.000	-0.021	0.127
-710.675	0.898	0.034	0.025
-709.660	800.000	0.017	0.065
-708.645	363.018	-0.144	-0.292
-707.631	48.553	0.187	-0.177
-706.616	-170.773	-0.127	-0.004
-705.602	430.388	0.091	0.198
-704.587	800.000	-0.071	-0.204
-703.572	-84.585	0.127	0.040
-702.558	95.816	-0.039	-0.044
-701.543	-45.331	0.113	0.056
-700.529	621.513	-0.054	0.137
-699.514	-141.366	0.226	-0.023
-698.499	-200.000	-0.051	-0.251
-697.485	67.090	-0.064	0.065
-696.470	-99.539	0.422	-0.107
-695.456	-72.307	0.353	-0.132
-694.441	-60.189	-0.126	0.054
-693.426	96.771	-0.100	-0.116
-692.412	-200.000	-0.032	0.152
-691.397	-200.000	-0.057	0.380
-690.383	-43.714	0.160	-0.081
-689.368	-98.469	0.314	-0.081
-688.354	-22.579	-0.290	-0.177
-687.339	800.000	-0.027	0.087
-686.324	-44.910	-0.213	-0.107
-685.310	134.681	-0.184	0.240
-684.295	138.638	-0.033	0.044
-683.281	-200.000	0.016	-0.320
-682.266	-17.498	0.135	0.086
-681.251	-136.979	-0.359	-0.041
-680.237	65.354	-0.342	-0.348
-679.222	-70.903	-0.187	0.071
-678.208	371.921	-0.041	0.084
-677.193	45.611	-0.274	-0.255
-676.178	-200.000	0.046	0.218
-675.164	94.458	0.288	-0.330
-674.149	-51.418	0.153	-0.072
-673.135	172.240	-0.061	0.089
-672.120	156.110	0.292	-0.406
-671.105	-200.000	-0.020	-0.087
-670.091	15.084	-0.216	0.170
-669.076	28.260	0.131	-0.111
-668.062	-58.747	0.205	0.089
-667.047	3.180	-0.251	-0.184
-666.032	-2.106	-0.129	0.091
-665.018	-70.687	0.463	-0.176
-664.003	-172.006	-0.442	0.014
-662.989	-200.000	0.003	0.150
-661.974	72.215	0.269	-0.282
-660.959	-124.607	0.385	0.060
-659.945	99.123	-0.176	0.205
-658.930	-140.704	-0.154	-0.016
-657.916	-22.568	-0.265	0.161
-656.901	4.717	0.189	-0.140
-655.886	250.256	0.128	0.218
-654.872	-124.147	0.123	-0.019
-653.857	232.769	0.074	-0.123
-652.843	-123.411	0.234	0.038
-651.828	324.769	0.066	-0.127
-650.814	83.830	-0.257	-0.282
-649.799	-107.114	-0.141	-0.031
-648.784	229.405	-0.094	-0.154
-647.770	-136.940	-0.333	-0.038
-646.755	93.945	0.206	-0.235
-645.741	800.000	0.087	-0.313
-644.726	-200.000	0.086	-0.381
-643.711	-63.426	-0.138	-0.057
-642.697	116.695	0.140	0.172
-641.682	-79.563	0.063	-0.021
-640.668	-121.875	-0.150	0.025
-639.653	-186.655	0.139	0.002
-638.638	-44.427	-0.078	-0.039
-637.624	48.327	0.119	-0.112
-636.609	-200.000	-0.019	-0.187
-635.595	-156.069	-0.186	-0.012
-634.580	289.853	-0.061	-0.111
-633.565	800.000	0.023	0.083
-632.551	-10.535	-0.251	-0.167
-631.536	-114.498	-0.356	-0.069
-630.522	800.000	-0.017	0.053
-629.507	228.067	-0.018	0.029
-628.492	196.770	0.148	-0.226
-627.478	-125.333	-0.044	0.007
-626.463	289.430	-0.083	0.152
-625.449	-3.582	-0.028	-0.019
-624.434	671.818	-0.085	0.221
-623.419	-87.020	0.246	0.075
-622.405	178.735	0.041	-0.061
-621.390	163.144	0.262	0.370
-620.376	53.708	-0.102	0.098
-619.361	-200.000	-0.061	-0.347
-618.346	-81.449	-0.231	-0.076
-617.332	-116.845	-0.401	-0.074
-616.317	137.783	0.191	-0.252
-615.303	69.800	-0.093	-0.096
-614.288	11.298	0.264	-0.203
-613.273	-35.712	-0.253	-0.138
-612.259	204.811	0.115	-0.178
-611.244	-200.000	0.030	-0.193
-610.230	363.040	-0.178	-0.360
-609.215	-23.833	-0.167	0.100
-608.201	-101.968	-0.314	0.076
-607.186	213.920	0.228	0.362
-606.171	-88.810	0.066	0.020
-605.157	15.664	0.149	0.118
-604.142	90.538	-0.088	0.099
-603.128	44.364	-0.138	0.127
-602.113	-127.915	-0.330	-0.048
-601.098	-200.000	-0.017	0.171
-600.084	75.992	-0.185	0.196
-599.069	3.842	0.202	0.148
-598.055	-101.194	-0.403	0.099
-597.040	800.000	-0.061	-0.177
-596.025	800.000	-0.090	0.255
-595.011	-200.000	-0.001	0.195
-593.996	11.049	-0.184	-0.141
-592.982	40.381	0.093	0.084
-591.967	800.000	0.206	0.655
-590.952	28.088	-0.060	0.051
-589.938	-42.056	0.172	0.088
-588.923	800.000	0.046	-0.180
-587.909	-200.000	0.014	0.062
-586.894	-85.294	0.104	-0.032
-585.879	-68.608	0.230	-0.089
-584.865	800.000	0.031	-0.119
-583.850	-200.000	0.034	0.000
-582.836	-139.984	0.374	-0.040
-581.821	-200.000	-0.012	-0.248
-580.806	301.256	-0.129	0.239
-579.792	326.023	0.109	-0.210
-578.777	115.090	0.306	-0.374
-577.763	373.530	-0.062	-0.127
-576.748	-200.000	-0.016	-0.346
-575.733	133.902	0.222	-0.288
-574.719	112.627	0.247	0.299
-573.704	-33.307	-0.180	-0.100
-572.690	67.199	0.447	-0.456
-571.675	-167.367	-0.040	-0.002
-570.661	211.040	-0.086	0.135
-569.646	-60.141	-0.182	-0.078
-568.631	-96.793	-0.078	-0.020
-567.617	-102.366	0.105	-0.025
-566.602	297.399	0.093	-0.171
-565.588	-129.539	-0.020	0.003
-564.573	-15.435	-0.070	-0.045
-563.558	-200.000	-0.006	0.078
-562.544	-119.250	-0.218	0.038
-561.529	324.673	-0.116	0.222
-560.515	-49.234	-0.198	0.095
-559.500	-200.000	0.020	-0.151
-558.485	-180.748	0.208	-0.004
-557.471	-26.998	0.318	0.186
-556.456	-66.604	-0.186	0.074
-555.442	-8.012	-0.300	0.203
-554.427	-200.000	-0.042	0.201
-553.412	-200.000	-0.011	-0.100
-552.398	-20.145	-0.118	0.073
-551.383	800.000	-0.093	-0.288
-550.369	-111.483	0.163	-0.033
-549.354	-200.000	0.031	-0.201
-548.339	-200.000	0.010	-0.172
-547.325	247.479	0.148	0.251
-546.310	-200.000	0.020	0.162
-545.296	171.122	0.172	-0.247
-544.281	-119.246	-0.139	-0.024
-543.266	-145.946	-0.182	-0.016
-542.252	800.000	-0.143	0.483
-541.237	89.807	-0.195	-0.218
-540.223	-7.786	0.217	0.147
-539.208	250.825	0.074	-0.126
-538.193	-199.393	0.216	-0.001
-537.179	-12.326	-0.271	-0.177
-536.164	34.635	0.212	0.185
-535.150	59.347	0.205	-0.202
-534.135	105.572	-0.159	0.188
-533.121	-154.143	0.260	-0.018
-532.106	377.070	-0.034	0.069
-531.091	648.609	-0.090	0.229
-530.077	395.135	-0.039	0.082
-529.062	-51.360	-0.044	-0.020
-528.048	769.041	-0.033	-0.090
-527.033	-200.000	0.009	0.136
-526.018	-200.000	-0.045	0.286
-525.004	369.445	0.149	-0.301
-523.989	100.116	0.083	0.097
-522.975	-200.000	0.005	-0.175
-521.960	-113.624	0.312	0.061
-520.945	-78.056	0.366	-0.126
-519.931	108.208	0.206	0.246
-518.916	-113.648	-0.201	-0.039
-517.902	-200.000	-0.022	0.296
-516.887	85.520	0.192	0.211
-515.872	-192.055	0.179	-0.002
-514.858	159.553	-0.163	0.227
-513.843	56.844	-0.025	0.024
-512.829	-113.616	0.184	0.036
-511.814	-61.064	-0.439	0.185
-510.799	27.900	0.257	0.217
-509.785	-183.053	0.103	0.002
-508.770	535.227	0.072	-0.172
-507.756	-117.706	0.191	-0.034
-506.741	197.542	-0.154	-0.234
-505.726	-103.865	0.248	-0.058
-504.712	51.033	0.271	0.257
-503.697	669.398	0.172	-0.446
-502.683	800.000	-0.106	0.356
-501.668	146.499	-0.035	0.046
-500.653	-200.000	0.000	-0.371
-499.639	-80.825	-0.215	0.071
-498.624	-200.000	-0.032	0.161
-497.610	-154.287	0.343	-0.023
-496.595	-23.814	-0.205	0.123
-495.581	352.892	-0.156	0.310
-494.566	-56.307	0.251	-0.112
-493.551	800.000	0.059	-0.215
-492.537	-200.000	-0.020	0.156
-491.522	-157.639	-0.387	-0.023
-490.508	-105.550	-0.234	0.053
-489.493	-13.160	0.199	-0.129
-488.478	-75.238	0.244	-0.087
-487.464	-171.926	-0.321	0.010
-486.449	-79.478	-0.225	0.076
-485.435	-200.000	0.017	-0.073
-484.420	-108.595	0.274	-0.059
-483.405	-200.000	-0.010	-0.176
-482.391	156.976	0.098	-0.135
-481.376	-200.000	-0.037	0.170
-480.362	-117.772	-0.090	-0.016
-479.347	49.425	0.230	-0.216
-478.332	-200.000	-0.037	0.183
-477.318	-98.058	0.203	-0.052
-476.303	23.000	-0.119	-0.098
-475.289	49.154	-0.208	0.195
-474.274	679.382	-0.009	0.023
-473.259	-92.026	-0.216	0.061
-472.245	764.754	-0.062	0.168
-471.230	571.756	0.049	0.118
-470.216	55.271	0.088	-0.085
-469.201	-127.199	-0.081	-0.012
-468.186	12.346	0.077	-0.059
-467.172	-90.611	-0.267	0.077
-466.157	800.000	-0.041	0.119
-465.143	-13.041	0.095	0.061
-464.128	469.233	-0.157	-0.352
-463.113	-200.000	-0.016	0.107
-462.099	800.000	-0.038	0.128
-461.084	-200.000	0.066	-0.344
-460.070	-120.778	0.312	-0.052
-459.055	-81.637	-0.233	-0.076
-458.040	-200.000	-0.034	0.437
-457.026	-85.949	0.191	-0.059
-456.011	30.894	0.102	0.088
-454.997	-200.000	-0.004	-0.165
-453.982	800.000	0.052	0.196
-452.968	-137.294	-0.256	0.029
-451.953	31.087	-0.157	-0.134
-450.938	-142.853	-0.461	0.045
-449.924	-172.880	-0.216	0.007
-448.909	800.000	-0.039	-0.154
-447.895	-108.866	-0.558	-0.119
-446.880	-17.112	-0.162	-0.102
-445.865	497.820	0.089	-0.205
-444.851	219.331	0.127	-0.202
-443.836	-200.000	-0.000	-0.196
-442.822	152.058	-0.146	-0.198
-441.807	30.885	-0.301	0.257
-440.792	800.000	-0.095	0.320
-439.778	-70.767	0.194	0.073
-438.763	-150.701	-0.058	-0.004
-437.749	183.670	-0.163	-0.240
-436.734	-68.708	0.265	0.102
-435.719	-200.000	-0.548	-0.002
-434.705	-43.551	-0.355	0.178
-433.690	-102.148	0.260	-0.062
-432.676	34.551	0.108	0.094
-431.661	349.672	0.084	0.165
-430.646	-34.648	-0.450	0.245
-429.632	-200.000	-0.011	-0.295
-428.617	-148.696	-0.099	0.008
-427.603	800.000	0.064	0.204
-426.588	800.000	-0.085	0.277
-425.573	-110.688	-0.079	0.016
-424.559	-200.000	0.003	0.228
-423.544	-200.000	0.057	0.402
-422.530	800.000	0.028	-0.117
-421.515	24.211	-0.170	0.140
-420.500	-200.000	0.011	0.166
-419.486	-200.000	0.035	-0.242
-418.471	88.776	0.129	0.143
-417.457	-60.863	-0.315	0.133
-416.442	-200.000	-0.036	0.314
-415.428	67.633	0.074	0.075
-414.413	107.260	0.353	0.418
-413.398	-17.304	0.127	0.080
-412.384	-200.000	0.013	0.158
-411.369	-70.321	0.144	0.054
-410.355	550.054	0.121	0.289
-409.340	28.974	-0.123	0.104
-408.325	-41.826	-0.254	0.130
-407.311	8.729	0.322	-0.242
-406.296	-200.000	0.007	-0.258
-405.282	-103.398	-0.279	0.066
-404.267	-31.596	-0.096	0.054
-403.252	800.000	-0.050	0.204
-402.238	125.308	0.051	-0.064
-401.223	171.088	0.174	0.248
-400.209	-61.731	0.308	0.128
-399.194	-54.014	-0.240	-0.109
-398.179	800.000	0.014	-0.041
-397.165	-146.522	0.055	0.005
-396.150	410.858	-0.020	-0.043
-395.136	-168.231	0.216	0.008
-394.121	-200.000	-0.008	0.069
-393.106	332.613	-0.031	0.060
-392.092	252.920	-0.137	0.233
-391.077	410.538	-0.196	0.413
-390.063	180.090	-0.096	0.141
-389.048	-69.527	0.308	-0.117
-388.033	-1.051	0.019	0.013
-387.019	-108.494	0.282	-0.060
-386.004	12.427	0.027	0.021
-384.990	18.648	-0.232	0.185
-383.975	-200.000	0.047	0.280
-382.960	-88.990	0.277	0.082
-381.946	87.831	-0.169	-0.187
-380.931	15.587	0.216	-0.169
-379.917	173.509	0.169	-0.242
-378.902	-200.000	0.082	-0.360
-377.888	-132.463	-0.210	0.027
-376.873	726.727	-0.138	0.365
-375.858	-200.000	-0.025	0.148
-374.844	800.000	0.069	-0.283
-373.829	186.450	0.013	0.019
-372.815	4.962	-0.014	0.010
-371.800	-166.632	0.263	0.011
-370.785	65.440	-0.103	0.104
-369.771	104.880	-0.330	-0.387
-368.756	402.186	0.121	-0.253
-367.742	-82.732	0.375	0.120
-366.727	327.986	-0.129	-0.245
-365.712	241.937	-0.191	-0.317
-364.698	451.937	-0.046	0.100
-363.683	-200.000	0.033	-0.169
-362.669	-5.039	-0.042	0.028
-361.654	41.442	0.058	0.052
-360.639	-42.151	0.347	0.176
-359.625	28.047	0.389	0.327
-358.610	-129.820	-0.170	-0.023
-357.596	-92.040	0.148	0.042
-356.581	-96.431	-0.253	-0.067
-355.566	523.637	0.136	-0.317
-354.552	107.809	-0.192	-0.228
-353.537	68.591	0.187	-0.190
-352.523	-166.959	0.223	0.009
-351.508	-200.000	0.033	0.160
-350.493	-75.491	0.495	-0.175
-349.479	-74.106	0.362	-0.130
-348.464	-84.263	0.193	-0.061
-347.450	800.000	-0.080	-0.304
-346.435	800.000	0.017	-0.058
-345.420	-59.499	-0.142	0.060
-344.406	800.000	0.081	0.227
-343.391	179.747	-0.068	0.099
-342.377	19.589	0.117	0.094
-341.362	-2.483	-0.233	0.162
-340.348	-200.000	0.039	-0.446
-339.333	-200.000	0.035	-0.237
-338.318	625.350	-0.129	0.323
-337.304	93.130	0.056	-0.063
-336.289	800.000	0.095	0.406
-335.275	-21.429	0.223	-0.135
-334.260	-48.956	0.166	-0.079
-333.245	800.000	0.064	0.175
-332.231	-84.628	0.154	-0.048
-331.216	257.758	-0.179	0.306
-330.202	264.208	0.111	0.193
-329.187	-200.000	-0.007	0.049
-328.172	-84.685	0.222	0.069
-327.158	-93.342	-0.098	-0.027
-326.143	-107.333	-0.393	0.086
-325.129	-101.156	-0.141	-0.034
-324.114	373.467	-0.115	0.232
-323.099	-72.493	0.090	-0.033
-322.085	-130.869	0.143	0.019
-321.070	99.639	-0.158	0.182
-320.056	-112.570	0.067	0.013
-319.041	-200.000	-0.183	0.000
-318.026	-170.962	-0.280	-0.009
-317.012	1.077	0.093	0.066
-315.997	800.000	0.029	0.083
-314.983	102.626	0.138	-0.160
-313.968	-200.000	-0.016	-0.168
-312.953	-200.000	-0.007	-0.130
-311.939	-21.231	0.100	0.060
-310.924	-118.325	-0.147	-0.026
-309.910	239.083	-0.135	-0.223
-308.895	-63.347	0.100	0.041
-307.880	156.630	0.162	0.222
-306.866	-2.892	0.160	-0.111
-305.851	14.758	0.219	-0.170
-304.837	-72.597	-0.300	-0.110
-303.822	103.096	0.071	0.083
-302.807	800.000	0.164	-0.453
-301.793	124.564	-0.120	-0.150
-300.778	210.972	-0.082	-0.128
-299.764	-128.067	-0.207	-0.029
-298.749	366.748	-0.181	0.361
-297.735	-74.556	-0.097	0.035
-296.720	-50.285	0.216	-0.101
-295.705	-200.000	-0.021	0.210
-294.691	115.918	0.210	-0.255
-293.676	437.933	-0.117	-0.253
-292.662	285.361	-0.068	-0.121
-291.647	800.000	-0.076	-0.272
-290.632	87.979	0.083	-0.091
-289.618	-78.875	-0.243	0.082
-288.603	-200.000	-0.029	-0.129
-287.589	-148.111	0.410	0.034
-286.574	-200.000	-0.043	0.323
-285.559	151.224	0.132	-0.179
-284.545	-83.151	-0.186	0.059
-283.530	-200.000	-0.013	0.171
-282.516	163.985	0.164	-0.229
-281.501	15.356	0.149	-0.116
-280.486	-25.705	0.138	0.081
-279.472	271.206	0.077	-0.135
-278.457	7.877	0.302	0.224
-277.443	-2.277	-0.247	0.172
-276.428	163.559	0.223	-0.310
-275.413	-79.501	0.241	0.081
-274.399	-105.790	-0.058	-0.013
-273.384	800.000	0.115	-0.339
-272.370	-200.000	0.013	0.302
-271.355	24.845	-0.224	0.184
-270.340	800.000	0.054	-0.178
-269.326	239.083	-0.117	-0.192
-268.311	-7.148	0.050	-0.034
-267.297	-30.646	0.304	0.170
-266.282	-200.000	-0.053	0.233
-265.267	-148.435	0.071	-0.006
-264.253	-200.000	0.017	-0.338
-263.238	-109.194	-0.446	0.094
-262.224	133.603	-0.173	-0.221
-261.209	-200.000	-0.005	0.143
-260.195	77.638	-0.218	-0.230
-259.180	-104.178	0.175	-0.040
-258.165	-142.226	0.296	-0.029
-257.151	-147.957	-0.234	-0.019
-256.136	34.558	0.134	0.116
-255.122	800.000	0.074	0.243
-254.107	-11.935	0.245	-0.159
-253.092	-101.679	0.257	-0.062
-252.078	-200.000	-0.034	0.161
-251.063	800.000	-0.027	-0.103
-250.049	800.000	0.078	0.269
-249.034	-143.429	0.347	0.033
-248.019	-132.899	-0.345	-0.044
-247.005	-103.045	0.194	0.046
-245.990	-152.347	0.095	-0.007
-244.976	-64.011	-0.218	-0.088
-243.961	-98.390	-0.171	-0.043
-242.946	800.000	0.029	0.113
-241.932	337.344	-0.083	0.160
-240.917	-200.000	0.060	0.475
-239.903	208.868	-0.054	-0.084
-238.888	679.917	-0.017	0.045
-237.873	-47.633	0.213	-0.102
-236.859	124.784	0.143	-0.178
-235.844	-200.000	-0.029	-0.144
-234.830	358.931	-0.059	0.117
-233.815	-1.022	-0.016	0.011
-232.800	16.831	0.074	-0.058
-231.786	-152.570	0.138	-0.010
-230.771	362.923	-0.111	0.220
-229.757	690.197	-0.030	-0.078
-228.742	59.341	-0.108	-0.105
-227.727	-116.253	-0.021	0.004
-226.713	-200.000	-0.003	-0.200
-225.698	-86.436	-0.431	-0.131
-224.684	81.286	0.208	0.222
-223.669	-71.291	-0.142	0.053
-222.655	-108.650	-0.202	0.043
-221.640	-11.638	0.149	-0.097
-220.625	-133.825	0.065	-0.008
-219.611	20.206	-0.035	-0.028
-218.596	491.816	0.061	0.139
-217.582	-51.144	0.150	-0.069
-216.567	800.000	-0.056	0.167
-215.552	248.786	0.030	-0.050
-214.538	28.854	0.268	0.224
-213.523	-42.432	0.347	-0.175
-212.509	215.473	0.102	-0.159
-211.494	-78.810	-0.194	-0.065
-210.479	54.397	0.158	0.150
-209.465	800.000	-0.033	0.097
-208.450	135.123	0.111	0.142
-207.436	48.011	-0.043	0.040
-206.421	-118.908	0.135	0.023
-205.406	-109.055	-0.170	-0.036
-204.392	34.201	-0.428	0.368
-203.377	800.000	0.031	-0.098
-202.363	-16.623	-0.262	-0.164
-201.348	-200.000	-0.005	-0.066
-200.333	101.769	-0.105	-0.120
-199.319	205.787	0.101	0.155
-198.304	-200.000	-0.063	0.439
-197.290	278.465	-0.090	-0.159
-196.275	-178.134	0.152	-0.004
-195.260	108.978	0.120	0.141
-194.246	-177.545	-0.240	0.006
-193.231	-130.924	0.095	0.013
-192.217	800.000	-0.031	0.097
-191.202	-61.905	0.043	0.018
-190.187	-200.000	-0.012	-0.094
-189.173	11.001	-0.498	-0.376
-188.158	-26.686	0.276	-0.160
-187.144	-115.038	-0.293	0.055
-186.129	-200.000	-0.001	0.325
-185.114	-26.297	0.095	0.055
-184.100	680.988	-0.054	-0.140
-183.085	-173.466	-0.420	0.013
-182.071	-200.000	-0.061	-0.423
-181.056	-200.000	-0.039	-0.185
-180.042	-152.762	-0.097	-0.007
-179.027	104.131	0.073	-0.085
-178.012	-200.000	-0.054	0.249
-176.998	231.090	0.217	-0.351
-175.983	2.838	-0.228	-0.163
-174.969	-44.766	0.365	0.180
-173.954	-65.747	-0.098	-0.039
-172.939	114.583	-0.215	-0.259
-171.925	-200.000	0.038	-0.401
-170.910	520.249	0.045	-0.104
-169.896	800.000	0.042	-0.118
-168.881	514.481	-0.033	0.076
-167.866	-6.055	-0.178	0.120
-166.852	782.311	0.095	0.256
-165.837	-125.254	0.225	-0.034
-164.823	-48.733	-0.169	0.080
-163.808	-200.000	0.006	-0.078
-162.793	-142.501	-0.029	-0.003
-161.779	-185.237	-0.137	0.002
-160.764	-53.301	0.178	0.081
-159.750	202.171	0.056	0.086
-158.735	-200.000	0.004	-0.215
-157.720	-200.000	-0.001	-0.044
-156.706	-27.489	-0.071	-0.040
-155.691	175.417	0.204	-0.291
-154.677	760.370	0.085	-0.228
-153.662	-84.402	-0.344	0.107
-152.647	289.464	0.111	0.198
-151.633	228.845	0.023	0.037
-150.618	315.269	0.063	0.118
-149.604	529.690	0.029	0.067
-148.589	-53.890	0.070	0.031
-147.574	-41.098	0.237	0.121
-146.560	-113.790	0.205	-0.039
-145.545	-91.664	0.118	0.033
-144.531	19.849	0.055	-0.044
-143.516	-200.000	-0.010	-0.076
-142.502	48.740	0.103	-0.095
-141.487	-117.343	0.216	0.039
-140.472	35.735	0.237	0.205
-139.458	-41.300	0.061	-0.031
-138.443	-19.395	-0.159	0.097
-137.429	-49.098	0.021	0.010
-136.414	-99.217	-0.188	-0.047
-135.399	-58.195	-0.189	0.081
-134.385	55.394	-0.230	0.219
-133.370	-121.216	-0.067	-0.011
-132.356	-38.087	-0.052	0.027
-131.341	-77.648	-0.288	-0.098
-130.326	-77.483	0.162	0.055
-129.312	-173.726	-0.319	0.009
-128.297	175.134	0.081	-0.115
-127.283	-58.166	0.320	-0.137
-126.268	2.114	-0.125	-0.089
-125.253	800.000	-0.137	-0.377
-124.239	-57.750	-0.012	0.005
-123.224	-172.081	-0.060	-0.002
-122.210	-69.183	0.071	0.027
