DTS Sentinel unit serial number:	SN413079Multiplexer serial number:	ORYXHardware model number:	OX4-SRSoftware version number:	ORYX F/W v4.00 Oryx Data Collector v3.7.2.0data status	okinstallation	princeton_trtdifferential loss correction	single-endedforward channel	channel 2reverse channel	N/Adate	2019/09/10time	18:33:10forward acquisition time	60.00reverse acquisition time	0.00gamma	496.2192k internal	0.2320k external	0.2320temperature offset calibration	0.9938default loss term (dB/km)	0.3790temperature slope calibration	1.0000multiplexer offset coefficient	1.0000multiplexer slope coefficient	1.0000fibre end	0.00T internal ref (°C)	35.73T ext. ref 1 (°C)	-0.37T ext. ref 2 (°C)	27.87length (m)	temperature (°C)	Stokes	anti-Stokes-747.200	-39.206	0.121	0.064
-746.185	65.714	-0.285	0.292
-745.171	-41.034	0.445	-0.233
-744.156	-114.397	-0.213	0.041
-743.142	-200.000	0.000	-0.331
-742.127	-148.314	0.324	0.027
-741.112	-13.229	-0.027	-0.018
-740.098	-200.000	0.039	0.446
-739.083	245.138	-0.063	-0.108
-738.069	-48.240	-0.333	0.162
-737.054	4.611	0.374	-0.278
-736.039	800.000	0.079	0.226
-735.025	-200.000	0.013	0.124
-734.010	-126.537	-0.457	-0.069
-732.996	-62.203	-0.324	-0.137
-731.981	-59.357	0.399	-0.174
-730.966	-200.000	-0.037	0.184
-729.952	800.000	0.022	-0.065
-728.937	253.951	0.044	-0.076
-727.923	286.972	0.107	0.196
-726.908	191.138	-0.022	0.033
-725.894	54.983	0.128	-0.125
-724.879	-200.000	-0.034	0.401
-723.864	-19.290	-0.249	0.156
-722.850	-109.740	0.129	0.027
-721.835	-16.627	0.056	0.036
-720.821	137.772	-0.106	0.140
-719.806	-140.367	-0.204	-0.022
-718.791	393.271	0.142	0.297
-717.777	800.000	-0.230	0.725
-716.762	248.343	-0.031	-0.052
-715.748	-70.632	-0.085	0.032
-714.733	-200.000	0.062	0.325
-713.718	-136.443	-0.329	-0.039
-712.704	-95.495	-0.333	0.090
-711.689	-200.000	-0.013	-0.139
-710.675	116.958	-0.115	0.143
-709.660	450.045	-0.059	0.131
-708.645	243.715	0.116	-0.197
-707.631	-200.000	0.009	-0.148
-706.616	800.000	-0.046	-0.182
-705.602	-200.000	0.022	-0.178
-704.587	800.000	0.056	-0.229
-703.572	800.000	0.074	0.256
-702.558	800.000	-0.106	-0.297
-701.543	116.686	0.026	-0.032
-700.529	626.873	-0.051	-0.129
-699.514	-60.393	0.109	-0.047
-698.499	-200.000	0.077	-0.351
-697.485	-107.963	0.129	0.028
-696.470	379.332	0.126	-0.261
-695.456	-69.323	0.234	0.091
-694.441	163.102	-0.098	-0.139
-693.426	-28.060	0.303	0.177
-692.412	-200.000	-0.069	-0.436
-691.397	7.356	0.191	-0.144
-690.383	476.880	-0.127	-0.291
-689.368	-179.080	-0.293	0.007
-688.354	654.021	0.061	0.157
-687.339	323.419	-0.172	-0.330
-686.324	504.625	0.058	0.137
-685.310	-200.000	0.028	-0.314
-684.295	-200.000	0.325	0.000
-683.281	-200.000	-0.003	-0.209
-682.266	42.019	0.033	-0.030
-681.251	707.684	0.040	0.108
-680.237	800.000	-0.049	0.178
-679.222	134.494	0.087	-0.113
-678.208	-132.351	-0.145	-0.019
-677.193	689.067	-0.040	-0.107
-676.178	461.428	0.186	-0.419
-675.164	150.946	0.229	0.315
-674.149	0.698	0.199	-0.143
-673.135	800.000	-0.132	-0.371
-672.120	-200.000	-0.071	-0.377
-671.105	-81.903	0.205	0.068
-670.091	-30.548	0.222	-0.127
-669.076	170.484	-0.149	0.215
-668.062	-200.000	0.004	-0.065
-667.047	218.329	-0.127	-0.204
-666.032	-90.939	0.130	0.038
-665.018	-120.738	0.130	-0.022
-664.003	588.624	-0.088	-0.219
-662.989	-84.731	0.234	0.074
-661.974	-200.000	-0.013	-0.195
-660.959	-200.000	-0.016	-0.271
-659.945	-37.588	-0.346	0.186
-658.930	555.624	0.165	0.401
-657.916	69.976	0.204	0.212
-656.901	343.354	0.053	-0.105
-655.886	2.261	-0.179	0.130
-654.872	-119.468	-0.076	0.013
-653.857	-132.850	-0.152	0.020
-652.843	-200.000	-0.000	-0.369
-651.828	-170.534	-0.041	0.001
-650.814	103.459	0.070	0.083
-649.799	-19.862	-0.239	-0.149
-648.784	167.289	0.058	-0.083
-647.770	-35.025	0.097	-0.053
-646.755	412.368	-0.041	0.087
-645.741	636.133	-0.015	0.038
-644.726	-54.354	0.073	-0.033
-643.711	-22.229	0.205	-0.125
-642.697	800.000	0.066	-0.214
-641.682	-200.000	0.087	0.475
-640.668	-200.000	0.004	0.264
-639.653	44.042	-0.183	0.169
-638.638	-200.000	0.023	-0.111
-637.624	800.000	0.065	0.269
-636.609	621.978	-0.095	0.242
-635.595	-19.865	0.185	0.115
-634.580	387.855	-0.222	0.463
-633.565	-135.772	-0.377	0.045
-632.551	-163.975	-0.338	0.016
-631.536	123.308	-0.265	0.334
-630.522	174.457	0.175	0.254
-629.507	142.830	-0.043	-0.058
-628.492	57.467	-0.275	-0.271
-627.478	-92.684	-0.138	-0.039
-626.463	114.373	0.026	0.032
-625.449	-68.201	-0.110	-0.043
-624.434	363.535	-0.061	0.123
-623.419	-92.173	-0.272	0.077
-622.405	5.524	0.056	0.041
-621.390	394.098	-0.116	-0.243
-620.376	218.393	-0.075	-0.120
-619.361	14.947	-0.201	-0.158
-618.346	-60.343	-0.131	0.056
-617.332	-151.634	0.390	-0.029
-616.317	-121.983	-0.098	0.016
-615.303	281.562	-0.150	0.270
-614.288	-135.421	0.322	0.039
-613.273	-200.000	-0.029	-0.176
-612.259	342.419	-0.145	-0.285
-611.244	745.617	-0.106	-0.286
-610.230	55.497	0.208	-0.202
-609.215	-138.281	0.237	0.026
-608.201	-200.000	0.240	-0.001
-607.186	-12.873	-0.269	0.176
-606.171	-200.000	-0.006	0.271
-605.157	593.168	-0.079	-0.196
-604.142	-38.762	0.155	-0.082
-603.128	-10.646	-0.172	-0.114
-602.113	-200.000	-0.015	0.173
-601.098	-200.000	-0.015	0.092
-600.084	688.102	-0.066	-0.173
-599.069	-200.000	-0.055	-0.509
-598.055	-106.122	-0.288	0.065
-597.040	-200.000	-0.025	0.281
-596.025	602.076	-0.077	-0.193
-595.011	16.665	0.163	-0.129
-593.996	800.000	0.056	0.217
-592.982	-92.487	-0.130	0.037
-591.967	50.636	-0.056	-0.053
-590.952	75.928	0.237	0.252
-589.938	800.000	0.035	-0.108
-588.923	308.028	0.018	0.033
-587.909	-130.676	-0.288	0.039
-586.894	800.000	0.164	0.533
-585.879	326.764	0.197	0.378
-584.865	213.228	-0.156	-0.248
-583.850	159.298	-0.247	-0.345
-582.836	-22.973	0.159	0.096
-581.821	-200.000	0.009	0.265
-580.806	90.020	-0.189	-0.213
-579.792	-200.000	-0.011	0.147
-578.777	-109.726	0.263	-0.056
-577.763	124.743	0.169	-0.214
-576.748	717.621	-0.080	-0.214
-575.733	-128.668	-0.293	0.042
-574.719	22.683	0.127	0.104
-573.704	-200.000	0.100	-0.456
-572.690	800.000	-0.043	-0.152
-571.675	-19.808	-0.074	0.046
-570.661	240.876	0.043	-0.071
-569.646	391.846	0.089	0.186
-568.631	107.912	0.192	0.230
-567.617	81.693	0.277	-0.301
-566.602	800.000	-0.043	-0.123
-565.588	201.243	-0.133	-0.205
-564.573	-99.826	-0.174	-0.044
-563.558	-126.858	0.079	0.012
-562.544	-96.434	-0.497	0.132
-561.529	194.932	-0.032	0.049
-560.515	800.000	-0.110	0.321
-559.500	537.663	0.117	-0.278
-558.485	148.986	0.121	-0.164
-557.471	13.213	0.153	-0.119
-556.456	-66.533	0.170	-0.068
-555.442	-139.793	0.308	-0.033
-554.427	-39.524	0.117	-0.061
-553.412	800.000	0.050	0.140
-552.398	171.088	0.162	-0.232
-551.383	11.700	-0.358	-0.275
-550.369	124.208	0.164	0.207
-549.354	3.216	-0.290	0.212
-548.339	121.003	-0.204	0.254
-547.325	800.000	-0.060	0.209
-546.310	-88.013	0.278	-0.084
-545.296	800.000	-0.096	-0.302
-544.281	159.560	-0.142	-0.198
-543.266	800.000	-0.065	0.279
-542.252	-144.768	0.094	-0.009
-541.237	-200.000	0.039	-0.176
-540.223	-200.000	0.007	-0.227
-539.208	-200.000	0.031	-0.201
-538.193	124.322	0.041	-0.052
-537.179	375.373	-0.011	0.022
-536.164	800.000	-0.015	0.057
-535.150	219.405	0.233	-0.374
-534.135	195.375	0.242	-0.368
-533.121	-68.273	0.355	-0.138
-532.106	-110.796	-0.042	0.009
-531.091	247.171	0.124	-0.209
-530.077	-49.687	-0.205	-0.098
-529.062	50.821	-0.106	0.101
-528.048	-200.000	0.019	0.108
-527.033	1.229	-0.124	0.089
-526.018	554.493	-0.018	0.044
-525.004	-137.502	-0.160	-0.018
-523.989	-60.222	0.104	0.044
-522.975	-82.339	-0.140	0.046
-521.960	-135.432	-0.500	-0.060
-520.945	11.536	-0.133	-0.103
-519.931	-62.474	-0.098	0.041
-518.916	30.790	-0.186	-0.160
-517.902	86.136	0.173	0.191
-516.887	-101.043	0.283	-0.069
-515.872	133.507	-0.222	-0.288
-514.858	-200.000	0.027	-0.236
-513.843	-107.821	-0.215	0.047
-512.829	654.309	0.083	-0.212
-511.814	-200.000	-0.037	0.179
-510.799	-92.942	-0.031	0.009
-509.785	122.854	-0.239	-0.299
-508.770	-114.784	0.299	0.057
-507.756	-56.012	0.261	0.117
-506.741	3.205	-0.201	-0.147
-505.726	-142.911	0.056	0.005
-504.712	-57.642	0.231	-0.101
-503.697	-75.922	-0.143	-0.051
-502.683	-200.000	-0.063	-0.306
-501.668	-200.000	-0.012	-0.105
-500.653	-200.000	0.075	-0.473
-499.639	-200.000	-0.060	0.387
-498.624	-200.000	0.042	0.187
-497.610	71.652	-0.205	0.213
-496.595	-133.856	0.327	0.041
-495.581	-200.000	-0.004	0.147
-494.566	-50.065	-0.162	-0.077
-493.551	800.000	-0.085	0.304
-492.537	-132.624	-0.328	-0.042
-491.522	102.239	-0.200	-0.234
-490.508	800.000	0.014	0.049
-489.493	-9.841	0.171	0.114
-488.478	-140.480	-0.045	0.005
-487.464	52.958	0.094	-0.090
-486.449	50.910	-0.394	0.374
-485.435	-200.000	0.050	0.344
-484.420	-200.000	0.040	-0.442
-483.405	532.719	0.125	-0.297
-482.391	-20.562	0.354	0.217
-481.376	800.000	0.034	-0.145
-480.362	576.775	-0.069	-0.169
-479.347	1.974	-0.162	0.117
-478.332	-96.601	-0.045	0.012
-477.318	800.000	0.037	-0.110
-476.303	-31.770	-0.288	0.162
-475.289	-80.903	-0.057	0.019
-474.274	57.368	0.300	-0.293
-473.259	153.181	-0.133	-0.181
-472.245	-200.000	-0.005	0.069
-471.230	800.000	-0.104	-0.365
-470.216	-87.585	0.158	0.048
-469.201	-45.314	0.185	0.092
-468.186	618.132	0.023	0.059
-467.172	624.839	-0.132	-0.332
-466.157	-200.000	-0.012	-0.052
-465.143	-73.994	0.260	0.094
-464.128	289.662	-0.121	-0.219
-463.113	627.135	0.099	-0.251
-462.099	-121.306	-0.191	-0.032
-461.084	-200.000	-0.055	-0.353
-460.070	-200.000	-0.001	0.200
-459.055	88.384	-0.063	-0.069
-458.040	-87.012	-0.267	0.081
-457.026	800.000	0.050	-0.200
-456.011	12.609	-0.341	0.263
-454.997	-53.541	0.267	0.122
-453.982	-200.000	0.007	0.092
-452.968	-175.735	0.223	-0.006
-451.953	-97.197	-0.346	0.090
-450.938	84.710	0.170	0.186
-449.924	109.410	-0.068	0.081
-448.909	-200.000	0.012	-0.157
-447.895	800.000	0.033	-0.097
-446.880	247.456	-0.086	0.144
-445.865	-137.798	-0.283	0.032
-444.851	-61.457	0.036	-0.015
-443.836	16.421	0.219	0.173
-442.822	188.760	-0.217	-0.324
-441.807	-49.009	-0.134	-0.064
-440.792	800.000	-0.070	0.239
-439.778	800.000	-0.060	-0.188
-438.763	-104.144	0.350	-0.081
-437.749	-95.531	-0.213	0.057
-436.734	21.358	0.138	-0.112
-435.719	-200.000	-0.002	0.082
-434.705	-127.779	0.159	0.023
-433.690	317.882	0.039	0.074
-432.676	-91.822	0.158	-0.045
-431.661	-3.298	0.206	0.143
-430.646	-84.140	0.052	0.016
-429.632	133.382	-0.139	0.180
-428.617	309.738	-0.145	0.270
-427.603	-200.000	0.047	0.379
-426.588	122.280	-0.066	-0.082
-425.573	-58.573	0.104	-0.045
-424.559	33.036	-0.126	0.109
-423.544	156.509	-0.191	-0.263
-422.530	461.668	-0.167	-0.371
-421.515	-38.856	0.116	0.061
-420.500	-48.402	0.219	-0.105
-419.486	-200.000	-0.051	0.275
-418.471	121.354	0.263	-0.327
-417.457	800.000	0.028	0.078
-416.442	23.039	-0.086	-0.070
-415.428	-50.822	0.217	-0.102
-414.413	-196.977	0.145	-0.001
-413.398	-200.000	-0.008	0.313
-412.384	-200.000	-0.022	-0.162
-411.369	35.951	0.218	-0.191
-410.355	-200.000	0.057	-0.431
-409.340	83.658	0.231	0.251
-408.325	-200.000	-0.012	-0.076
-407.311	-200.000	0.016	-0.248
-406.296	-61.317	0.173	-0.073
-405.282	417.725	0.029	-0.062
-404.267	-102.449	0.353	-0.084
-403.252	-200.000	-0.008	0.050
-402.238	-42.561	0.327	0.166
-401.223	-52.991	-0.114	-0.052
-400.209	227.867	-0.074	-0.120
-399.194	74.713	0.025	0.026
-398.179	-200.000	-0.021	0.106
-397.165	-101.545	-0.258	-0.062
-396.150	-104.806	0.163	-0.037
-395.136	-123.248	-0.081	-0.013
-394.121	-193.575	-0.185	0.002
-393.106	-72.265	-0.072	-0.026
-392.092	175.052	0.105	0.152
-391.077	-131.547	-0.181	0.024
-390.063	800.000	0.080	0.222
-389.048	-200.000	-0.042	-0.236
-388.033	18.291	-0.176	0.140
-387.019	-5.018	0.333	0.228
-386.004	-89.574	0.228	-0.067
-384.990	234.265	0.173	-0.285
-383.975	-110.314	0.236	0.049
-382.960	800.000	-0.074	0.312
-381.946	775.075	-0.034	0.092
-380.931	800.000	0.055	0.158
-379.917	768.096	-0.067	0.181
-378.902	321.562	0.127	-0.241
-377.888	-86.535	-0.175	-0.054
-376.873	153.742	-0.039	0.053
-375.858	-117.257	-0.341	-0.062
-374.844	-135.118	0.049	-0.006
-373.829	2.014	0.265	-0.191
-372.815	76.218	-0.199	-0.210
-371.800	-133.258	-0.239	-0.030
-370.785	25.329	-0.269	0.223
-369.771	-34.356	0.122	-0.067
-368.756	330.379	0.184	-0.353
-367.742	7.192	0.145	-0.108
-366.727	108.264	-0.110	0.131
-365.712	800.000	-0.081	0.291
-364.698	-120.995	0.235	0.039
-363.683	213.971	-0.051	-0.081
-362.669	800.000	0.057	-0.236
-361.654	-200.000	-0.002	-0.146
-360.639	-53.712	-0.030	0.014
-359.625	800.000	0.080	0.284
-358.610	438.633	0.185	0.402
-357.596	154.814	-0.211	-0.289
-356.581	-40.602	0.230	-0.119
-355.566	800.000	0.073	0.293
-354.552	-135.409	0.056	0.007
-353.537	-150.997	0.264	0.020
-352.523	-200.000	-0.006	0.104
-351.508	39.582	-0.206	-0.184
-350.493	344.558	-0.060	0.117
-349.479	106.234	0.175	-0.207
-348.464	-84.960	-0.220	0.069
-347.450	800.000	-0.090	0.330
-346.435	-100.103	0.352	-0.087
-345.420	-200.000	0.091	0.405
-344.406	-27.899	0.005	-0.003
-343.391	-42.384	-0.320	-0.163
-342.377	-178.021	0.173	0.004
-341.362	-200.000	0.047	-0.316
-340.348	201.795	0.172	-0.264
-339.333	17.689	-0.142	0.112
-338.318	89.693	0.213	-0.237
-337.304	117.424	-0.036	0.044
-336.289	118.965	-0.137	-0.168
-335.275	-200.000	-0.034	-0.271
-334.260	269.104	-0.101	0.177
-333.245	-2.485	-0.131	0.091
-332.231	41.388	-0.226	-0.203
-331.216	-200.000	-0.066	0.344
-330.202	76.402	0.097	0.102
-329.187	-147.236	0.417	-0.035
-328.172	-71.937	0.064	0.024
-327.158	398.057	-0.205	-0.426
-326.143	-26.023	0.206	-0.120
-325.129	14.848	-0.101	0.079
-324.114	177.337	0.084	-0.121
-323.099	38.850	-0.157	-0.140
-322.085	800.000	0.072	-0.272
-321.070	-121.473	-0.259	-0.043
-320.056	-200.000	-0.019	0.204
-319.041	-200.000	0.001	0.280
-318.026	-42.714	-0.026	-0.013
-317.012	-178.094	-0.065	-0.002
-315.997	290.590	0.204	0.368
-314.983	-56.724	0.276	0.122
-313.968	-85.473	0.047	0.014
-312.953	800.000	0.063	-0.178
-311.939	260.717	-0.202	-0.347
-310.924	-6.767	-0.018	-0.012
-309.910	-200.000	0.004	-0.034
-308.895	66.475	-0.170	0.172
-307.880	104.305	-0.108	0.127
-306.866	101.379	0.235	0.272
-305.851	-3.599	-0.105	-0.073
-304.837	-200.000	-0.013	0.193
-303.822	679.165	0.030	0.077
-302.807	-200.000	0.012	-0.223
-301.793	-200.000	-0.004	0.167
-300.778	-186.342	-0.266	0.004
-299.764	800.000	-0.087	-0.301
-298.749	-200.000	-0.030	-0.216
-297.735	-200.000	-0.033	0.196
-296.720	800.000	-0.027	-0.084
-295.705	32.703	0.289	0.248
-294.691	-55.221	0.124	-0.056
-293.676	-145.461	-0.074	-0.007
-292.662	2.054	-0.104	-0.075
-291.647	-56.518	0.115	0.051
-290.632	-200.000	-0.012	-0.103
-289.618	-153.243	0.232	-0.016
-288.603	-200.000	0.001	0.167
-287.589	-55.702	-0.165	-0.073
-286.574	-200.000	-0.071	0.348
-285.559	4.370	-0.353	-0.257
-284.545	-69.760	0.114	0.043
-283.530	-200.000	0.178	0.001
-282.516	645.557	-0.101	-0.256
-281.501	-89.670	-0.226	0.066
-280.486	-200.000	-0.054	-0.253
-279.472	-76.366	-0.108	0.038
-278.457	175.571	-0.013	0.019
-277.443	-64.776	-0.231	0.093
-276.428	-111.549	0.405	-0.082
-275.413	-139.663	0.304	-0.032
-274.399	-32.534	-0.219	0.121
-273.384	-200.000	-0.080	0.368
-272.370	-188.673	0.360	0.004
-271.355	-90.226	-0.202	-0.058
-270.340	800.000	-0.034	0.098
-269.326	800.000	0.064	0.207
-268.311	-1.484	-0.139	0.097
-267.297	417.917	0.019	-0.041
-266.282	-200.000	-0.020	0.419
-265.267	-102.062	-0.147	0.035
-264.253	-114.228	0.258	0.049
-263.238	-100.952	-0.304	-0.074
-262.224	-200.000	-0.012	-0.151
-261.209	499.545	-0.066	0.152
-260.195	38.721	-0.238	-0.210
-259.180	800.000	0.067	-0.287
-258.165	20.213	-0.231	-0.185
-257.151	163.257	0.119	-0.166
-256.136	300.340	0.127	0.232
-255.122	-152.058	-0.355	0.026
-254.107	-200.000	-0.027	0.354
-253.092	-41.460	-0.204	0.104
-252.078	419.003	0.218	-0.462
-251.063	-16.449	-0.169	-0.106
-250.049	261.495	-0.117	0.200
-249.034	51.928	0.228	-0.216
-248.019	14.096	0.197	0.152
-247.005	-29.729	0.096	-0.054
-245.990	-168.855	-0.197	0.007
-244.976	90.797	0.075	0.083
-243.961	-200.000	-0.001	0.036
-242.946	-35.366	0.255	0.137
-241.932	-130.614	-0.175	0.023
-240.917	-200.000	-0.016	0.275
-239.903	-21.928	0.184	-0.111
-238.888	-88.513	0.376	0.111
-237.873	106.425	-0.023	-0.026
-236.859	-114.190	0.028	0.005
-235.844	-200.000	-0.049	0.397
-234.830	-136.735	0.288	0.033
-233.815	800.000	-0.094	-0.354
-232.800	26.125	0.182	0.150
-231.786	800.000	-0.070	0.245
-230.771	-48.138	0.128	0.061
-229.757	800.000	0.059	0.214
-228.742	-74.211	0.228	0.082
-227.727	800.000	-0.030	0.124
-226.713	45.693	-0.355	0.325
-225.698	-17.165	0.043	-0.027
-224.684	-200.000	0.021	0.200
-223.669	16.102	-0.219	0.171
-222.655	-200.000	-0.024	-0.184
-221.640	-111.965	-0.441	0.088
-220.625	101.005	0.054	0.062
-219.611	-200.000	-0.061	-0.435
-218.596	125.333	0.165	-0.207
-217.582	-170.054	-0.024	0.001
-216.567	-77.605	-0.246	-0.084
-215.552	309.459	-0.024	0.044
-214.538	-3.870	0.165	-0.113
-213.523	203.195	0.193	0.295
-212.509	177.411	-0.106	-0.153
-211.494	32.621	-0.087	0.074
-210.479	20.223	-0.091	-0.073
-209.465	0.726	0.142	0.100
-208.450	-49.348	-0.349	0.165
-207.436	800.000	0.033	0.134
-206.421	110.646	0.132	0.157
-205.406	-63.596	0.263	0.107
-204.392	-123.995	-0.156	0.024
-203.377	-85.321	0.325	-0.100
-202.363	-200.000	0.082	0.482
-201.348	-200.000	0.052	-0.287
-200.333	-110.519	-0.359	-0.074
-199.319	125.819	0.077	0.096
-198.304	-200.000	0.029	0.267
-197.290	160.920	0.093	-0.128
-196.275	800.000	0.077	-0.242
-195.260	-50.904	-0.378	0.176
-194.246	800.000	0.172	0.492
-193.231	-200.000	-0.031	0.214
-192.217	800.000	0.074	0.300
-191.202	-109.523	0.180	0.038
-190.187	147.880	0.046	0.062
-189.173	-200.000	-0.055	0.468
-188.158	86.137	0.075	0.082
-187.144	-69.470	0.337	0.128
-186.129	140.549	0.171	-0.224
-185.114	800.000	-0.092	0.380
-184.100	27.812	0.103	0.086
-183.085	-200.000	0.043	0.224
-182.071	676.315	0.042	0.108
-181.056	-198.482	-0.176	0.001
-180.042	40.229	-0.300	-0.267
-179.027	-31.446	-0.197	-0.109
-178.012	-2.279	-0.041	0.029
-176.998	800.000	-0.096	-0.368
-175.983	-38.791	-0.099	0.052
-174.969	-76.436	0.347	0.121
-173.954	-131.331	0.092	-0.012
-172.939	800.000	0.047	0.153
-171.925	800.000	0.095	-0.316
-170.910	-42.523	-0.136	-0.068
-169.896	89.264	-0.163	-0.180
-168.881	-74.109	0.162	-0.058
-167.866	170.374	0.202	-0.286
-166.852	134.827	-0.052	-0.066
-165.837	-62.833	-0.287	0.117
-164.823	-128.259	0.215	-0.030
-163.808	156.217	0.259	0.353
-162.793	0.806	0.292	-0.206
-161.779	800.000	0.043	0.139
-160.764	-36.375	0.154	-0.082
-159.750	-136.974	-0.107	-0.012
-158.735	-58.262	-0.178	-0.077
-157.720	-17.287	0.277	-0.173
-156.706	1.248	-0.181	-0.128
-155.691	-200.000	0.004	-0.131
-154.677	65.352	0.144	0.144
-153.662	-36.887	-0.052	-0.028
-152.647	800.000	-0.039	-0.116
-151.633	-80.695	0.426	0.140
-150.618	800.000	0.156	0.495
-149.604	-137.945	-0.103	-0.011
-148.589	800.000	-0.071	0.259
-147.574	800.000	0.083	0.336
-146.560	-73.595	0.177	0.064
-145.545	94.001	0.072	0.081
-144.531	800.000	0.023	-0.064
-143.516	-145.875	0.190	0.017
-142.502	-59.938	-0.107	0.045
-141.487	-200.000	0.078	-0.433
-140.472	-200.000	-0.013	-0.074
-139.458	-158.860	-0.118	0.007
-138.443	-115.782	0.421	0.078
-137.429	46.217	0.209	-0.191
-136.414	800.000	-0.125	-0.374
-135.399	-39.566	0.196	0.102
-134.385	337.245	-0.078	0.150
-133.370	-89.769	-0.105	0.030
-132.356	-200.000	0.042	0.287
-131.341	469.051	-0.079	-0.175
-130.326	-148.742	0.143	-0.011
-129.312	455.311	0.080	0.176
-128.297	-32.529	0.174	0.096
-127.283	55.656	0.168	0.161
-126.268	800.000	-0.123	-0.357
-125.253	112.015	0.130	0.155
-124.239	-60.694	-0.083	-0.035
-123.224	800.000	0.040	0.125
-122.210	-87.526	-0.168	0.050
