DTS Sentinel unit serial number:	SN413079Multiplexer serial number:	ORYXHardware model number:	OX4-SRSoftware version number:	ORYX F/W v4.00 Oryx Data Collector v3.7.2.0data status	okinstallation	princeton_trtdifferential loss correction	single-endedforward channel	channel 2reverse channel	N/Adate	2019/09/11time	15:25:11forward acquisition time	60.00reverse acquisition time	0.00gamma	496.2192k internal	0.2289k external	0.2289temperature offset calibration	1.0015default loss term (dB/km)	0.3790temperature slope calibration	1.0000multiplexer offset coefficient	1.0000multiplexer slope coefficient	1.0000fibre end	0.00T internal ref (°C)	42.86T ext. ref 1 (°C)	0.99T ext. ref 2 (°C)	37.85length (m)	temperature (°C)	Stokes	anti-Stokes-747.200	61.603	-0.085	-0.086
-746.185	191.731	-0.188	0.290
-745.171	247.360	0.206	-0.357
-744.156	-200.000	-0.079	0.390
-743.142	260.891	-0.134	0.238
-742.127	-200.000	0.003	0.359
-741.112	-139.771	-0.248	0.027
-740.098	-200.000	0.019	0.153
-739.083	13.766	-0.212	-0.169
-738.069	-26.471	0.235	-0.141
-737.054	450.510	-0.098	-0.222
-736.039	-88.425	-0.295	-0.090
-735.025	-200.000	0.070	0.341
-734.010	110.223	-0.143	0.176
-732.996	-200.000	0.008	-0.248
-731.981	-108.965	0.227	0.050
-730.966	-200.000	0.019	0.166
-729.952	187.155	-0.122	0.187
-728.937	66.553	-0.158	-0.165
-727.923	-79.697	-0.192	0.066
-726.908	-73.368	-0.094	0.035
-725.894	-200.000	-0.031	-0.512
-724.879	-181.330	-0.229	0.005
-723.864	-24.239	0.087	0.053
-722.850	-145.934	-0.321	-0.029
-721.835	126.043	-0.169	0.219
-720.821	123.755	-0.062	0.079
-719.806	23.580	-0.218	-0.184
-718.791	-12.557	-0.361	-0.241
-717.777	800.000	0.072	-0.238
-716.762	-200.000	0.051	-0.231
-715.748	-200.000	0.000	-0.144
-714.733	-200.000	0.003	0.323
-713.718	-66.677	0.070	-0.028
-712.704	37.278	-0.334	-0.303
-711.689	4.881	-0.201	-0.152
-710.675	31.515	0.246	0.217
-709.660	488.682	-0.126	0.294
-708.645	-200.000	-0.008	0.110
-707.631	392.936	-0.122	-0.259
-706.616	366.869	-0.055	0.114
-705.602	149.278	0.047	0.065
-704.587	-200.000	-0.046	-0.347
-703.572	180.070	0.134	0.201
-702.558	-186.307	0.199	-0.003
-701.543	304.233	0.050	0.094
-700.529	800.000	0.037	-0.110
-699.514	282.913	-0.044	0.082
-698.499	-116.627	0.117	-0.022
-697.485	-93.621	0.387	-0.109
-696.470	800.000	0.086	-0.338
-695.456	-123.587	0.084	-0.014
-694.441	-100.126	-0.071	-0.018
-693.426	15.819	-0.174	-0.140
-692.412	-48.412	-0.234	0.115
-691.397	287.027	-0.196	-0.363
-690.383	-200.000	-0.041	0.263
-689.368	-110.267	-0.402	-0.086
-688.354	-73.646	-0.344	0.128
-687.339	299.321	-0.085	-0.160
-686.324	800.000	-0.111	0.406
-685.310	525.000	0.030	-0.072
-684.295	53.535	-0.041	0.040
-683.281	-176.615	0.054	-0.001
-682.266	800.000	-0.052	0.153
-681.251	178.127	-0.052	-0.077
-680.237	113.964	-0.095	0.119
-679.222	-60.070	-0.176	-0.077
-678.208	117.721	-0.110	-0.138
-677.193	57.815	-0.216	-0.216
-676.178	-63.951	0.420	-0.176
-675.164	-200.000	0.045	-0.306
-674.149	-28.681	-0.114	-0.067
-673.135	351.332	0.076	-0.154
-672.120	118.842	0.127	0.161
-671.105	-200.000	-0.012	-0.279
-670.091	82.351	-0.236	-0.262
-669.076	-200.000	0.002	-0.144
-668.062	800.000	0.060	-0.250
-667.047	16.285	-0.173	-0.140
-666.032	53.422	0.165	0.162
-665.018	241.569	-0.023	0.040
-664.003	57.362	0.176	-0.176
-662.989	-12.842	0.358	-0.238
-661.974	-96.081	-0.280	-0.076
-660.959	-75.451	0.207	-0.075
-659.945	-65.621	0.082	-0.034
-658.930	-200.000	-0.095	-0.434
-657.916	-26.784	0.165	0.099
-656.901	-200.000	-0.070	0.473
-655.886	-55.642	-0.157	-0.072
-654.872	206.740	0.105	-0.167
-653.857	-38.167	-0.301	-0.163
-652.843	-36.590	0.148	-0.081
-651.828	-78.557	-0.283	0.099
-650.814	-200.000	-0.038	0.219
-649.799	-200.000	0.027	0.191
-648.784	-12.732	-0.190	0.126
-647.770	-86.785	-0.282	0.088
-646.755	-200.000	0.035	0.331
-645.741	-109.336	-0.144	0.031
-644.726	-22.073	0.151	0.094
-643.711	-142.818	-0.224	0.022
-642.697	186.823	0.101	-0.154
-641.682	800.000	-0.081	-0.254
-640.668	-200.000	-0.026	0.124
-639.653	100.264	-0.041	-0.049
-638.638	74.814	-0.080	0.086
-637.624	-60.536	0.350	0.152
-636.609	198.962	-0.167	0.262
-635.595	253.595	0.130	-0.227
-634.580	359.452	0.159	-0.324
-633.565	158.175	-0.169	0.239
-632.551	-122.468	-0.244	-0.041
-631.536	-100.689	-0.242	-0.061
-630.522	-75.130	-0.055	-0.020
-629.507	800.000	-0.037	0.118
-628.492	79.697	0.135	-0.147
-627.478	-9.772	0.233	-0.158
-626.463	-12.574	-0.175	0.117
-625.449	-27.791	-0.114	0.067
-624.434	189.527	-0.058	0.089
-623.419	-0.389	0.038	-0.027
-622.405	-200.000	0.010	-0.331
-621.390	-47.104	0.344	-0.171
-620.376	-54.012	0.220	0.102
-619.361	-200.000	-0.042	0.249
-618.346	141.775	-0.115	0.155
-617.332	-36.593	-0.081	0.044
-616.317	-18.881	0.178	-0.113
-615.303	-14.294	-0.151	-0.099
-614.288	142.492	-0.049	-0.066
-613.273	62.024	0.117	-0.119
-612.259	-184.485	0.201	-0.003
-611.244	-16.952	-0.042	0.027
-610.230	-200.000	0.013	-0.419
-609.215	-0.857	-0.253	0.183
-608.201	-200.000	-0.012	0.173
-607.186	61.711	-0.163	-0.165
-606.171	21.962	0.094	-0.078
-605.157	-56.550	0.035	-0.016
-604.142	33.941	-0.048	0.043
-603.128	165.065	-0.054	0.077
-602.113	-86.677	0.203	-0.063
-601.098	-157.774	0.248	0.015
-600.084	-168.902	0.219	0.008
-599.069	-6.096	0.401	-0.279
-598.055	53.416	0.281	0.275
-597.040	-126.001	-0.473	-0.072
-596.025	51.518	-0.337	0.327
-595.011	-14.921	0.082	0.054
-593.996	-200.000	0.052	-0.248
-592.982	-28.138	0.405	0.239
-591.967	236.524	0.046	0.078
-590.952	406.164	0.118	0.254
-589.938	32.325	0.105	-0.092
-588.923	313.648	-0.039	-0.074
-587.909	800.000	0.097	-0.283
-586.894	37.209	-0.101	-0.091
-585.879	800.000	0.099	0.291
-584.865	-122.694	0.308	-0.051
-583.850	-200.000	0.042	0.250
-582.836	-96.286	0.218	0.059
-581.821	7.096	-0.272	0.207
-580.806	86.164	0.274	0.307
-579.792	-200.000	0.058	-0.389
-578.777	-57.104	-0.220	-0.099
-577.763	-200.000	-0.005	0.293
-576.748	17.817	0.089	0.072
-575.733	24.367	0.253	0.213
-574.719	800.000	0.079	-0.238
-573.704	-15.452	-0.100	-0.065
-572.690	533.991	-0.163	0.393
-571.675	-51.199	0.218	0.104
-570.661	-146.855	0.215	0.019
-569.646	-66.764	-0.195	-0.079
-568.631	-144.823	0.198	-0.019
-567.617	9.076	0.207	0.159
-566.602	-110.329	0.120	-0.025
-565.588	-200.000	0.022	0.343
-564.573	441.570	0.090	0.202
-563.558	-61.861	0.318	-0.135
-562.544	800.000	0.030	0.120
-561.529	52.020	-0.110	0.107
-560.515	-151.388	0.219	-0.017
-559.500	-170.269	-0.230	-0.008
-558.485	-103.009	-0.093	0.022
-557.471	143.048	-0.122	0.165
-556.456	-88.282	-0.210	-0.064
-555.442	-109.723	0.347	0.074
-554.427	296.450	-0.054	-0.100
-553.412	-5.154	-0.189	-0.133
-552.398	-44.413	-0.274	-0.140
-551.383	650.732	0.033	-0.085
-550.369	24.865	0.254	0.214
-549.354	-62.175	0.168	-0.071
-548.339	7.908	0.090	-0.068
-547.325	800.000	-0.070	0.205
-546.310	-200.000	0.003	0.171
-545.296	13.738	-0.238	0.188
-544.281	-200.000	-0.005	-0.215
-543.266	-44.241	-0.251	0.128
-542.252	218.638	0.091	0.148
-541.237	-147.904	-0.251	-0.021
-540.223	800.000	-0.050	-0.220
-539.208	370.487	-0.168	0.346
-538.193	101.669	-0.104	-0.124
-537.179	690.064	-0.137	0.365
-536.164	-130.306	0.034	-0.005
-535.150	22.961	0.203	-0.169
-534.135	155.917	-0.084	-0.118
-533.121	394.318	-0.030	-0.064
-532.106	-200.000	0.065	0.349
-531.091	92.154	0.049	0.056
-530.077	800.000	-0.110	-0.326
-529.062	-50.172	0.061	-0.030
-528.048	800.000	-0.134	0.426
-527.033	-35.243	0.295	-0.163
-526.018	800.000	0.022	0.070
-525.004	-82.628	-0.176	-0.058
-523.989	91.010	-0.293	0.334
-522.975	800.000	0.112	-0.383
-521.960	38.940	-0.123	-0.112
-520.945	-184.016	-0.266	-0.005
-519.931	-84.511	-0.125	-0.040
-518.916	76.213	-0.132	-0.142
-517.902	800.000	0.041	-0.121
-516.887	177.113	0.154	-0.228
-515.872	-200.000	-0.047	-0.340
-514.858	-30.375	0.334	0.193
-513.843	131.877	-0.061	-0.079
-512.829	-200.000	0.015	-0.322
-511.814	353.563	0.114	-0.230
-510.799	173.256	-0.184	-0.270
-509.785	254.647	0.078	-0.136
-508.770	279.892	-0.163	-0.297
-507.756	800.000	-0.031	-0.093
-506.741	315.199	0.137	0.262
-505.726	-152.891	0.091	0.007
-504.712	-177.625	-0.207	0.005
-503.697	-63.520	-0.259	-0.108
-502.683	-69.693	-0.378	-0.147
-501.668	-103.516	-0.170	0.040
-500.653	-93.302	-0.192	0.054
-499.639	800.000	0.065	-0.229
-498.624	-154.376	-0.249	0.017
-497.610	595.678	-0.017	-0.043
-496.595	-114.347	-0.056	-0.011
-495.581	800.000	0.117	0.397
-494.566	-200.000	0.001	0.280
-493.551	-200.000	0.029	0.191
-492.537	-200.000	-0.001	-0.136
-491.522	-61.803	-0.477	-0.203
-490.508	-170.672	-0.407	0.014
-489.493	-190.965	0.431	-0.005
-488.478	571.918	0.107	-0.265
-487.464	-157.062	-0.239	-0.015
-486.449	61.735	0.053	0.053
-485.435	-79.460	0.137	-0.047
-484.420	800.000	-0.089	-0.259
-483.405	15.380	0.352	0.280
-482.391	162.961	0.085	-0.121
-481.376	86.075	-0.121	-0.135
-480.362	45.776	-0.260	0.244
-479.347	-37.895	0.200	-0.108
-478.332	-132.928	0.180	0.023
-477.318	-200.000	0.057	0.388
-476.303	46.926	0.303	0.285
-475.289	564.004	0.089	0.219
-474.274	-53.737	-0.036	-0.017
-473.259	424.723	0.088	-0.192
-472.245	634.428	0.065	0.166
-471.230	-31.091	-0.257	-0.147
-470.216	-200.000	0.030	0.315
-469.201	175.406	0.117	0.172
-468.186	-198.305	0.165	-0.001
-467.172	-41.280	-0.151	-0.079
-466.157	-200.000	0.022	0.130
-465.143	-14.649	0.225	0.147
-464.128	264.546	0.052	0.091
-463.113	800.000	-0.036	0.156
-462.099	512.158	-0.023	-0.054
-461.084	103.712	-0.158	-0.188
-460.070	-3.958	0.045	0.031
-459.055	418.290	-0.125	-0.271
-458.040	-200.000	-0.015	-0.098
-457.026	800.000	-0.063	-0.263
-456.011	-14.285	0.252	0.164
-454.997	155.366	-0.109	0.152
-453.982	-64.446	-0.030	-0.013
-452.968	615.715	-0.089	-0.226
-451.953	-99.222	-0.433	-0.111
-450.938	800.000	0.091	-0.336
-449.924	52.186	-0.016	-0.015
-448.909	-20.597	0.197	0.123
-447.895	315.668	0.177	-0.339
-446.880	-95.608	0.371	-0.101
-445.865	107.906	0.295	-0.356
-444.851	-200.000	-0.034	-0.378
-443.836	-200.000	0.017	0.120
-442.822	-145.304	-0.178	0.016
-441.807	-185.454	0.436	-0.007
-440.792	800.000	-0.058	0.173
-439.778	8.377	0.082	0.062
-438.763	49.599	0.242	0.231
-437.749	800.000	-0.107	0.357
-436.734	-200.000	0.020	0.152
-435.719	220.837	0.147	0.238
-434.705	-4.887	-0.049	0.034
-433.690	79.102	0.169	-0.184
-432.676	800.000	-0.051	0.196
-431.661	170.141	-0.130	-0.189
-430.646	-200.000	-0.032	-0.351
-429.632	-200.000	-0.079	0.505
-428.617	-200.000	-0.019	-0.186
-427.603	800.000	0.072	-0.244
-426.588	-200.000	0.009	0.333
-425.573	800.000	-0.077	0.230
-424.559	-138.999	0.139	0.015
-423.544	-103.106	-0.347	-0.083
-422.530	69.280	0.135	0.140
-421.515	357.124	-0.187	0.378
-420.500	-95.080	0.133	0.036
-419.486	236.301	0.044	-0.073
-418.471	193.372	-0.181	0.278
-417.457	800.000	-0.107	0.396
-416.442	-200.000	-0.014	-0.417
-415.428	512.280	0.083	0.194
-414.413	-31.906	0.155	-0.088
-413.398	635.347	-0.092	-0.236
-412.384	-12.727	-0.125	-0.083
-411.369	800.000	-0.083	-0.285
-410.355	800.000	0.122	-0.440
-409.340	-8.573	-0.069	0.047
-408.325	353.672	0.015	0.030
-407.311	181.604	0.072	-0.108
-406.296	-17.211	0.133	0.085
-405.282	-39.594	0.053	0.028
-404.267	-30.450	-0.063	0.036
-403.252	188.444	-0.286	-0.433
-402.238	222.819	-0.166	-0.271
-401.223	800.000	0.103	-0.317
-400.209	67.941	-0.064	0.066
-399.194	42.028	-0.151	0.139
-398.179	-53.768	0.200	-0.092
-397.165	-82.312	0.059	-0.019
-396.150	-200.000	-0.005	-0.144
-395.136	-29.084	0.255	-0.148
-394.121	-129.826	-0.078	-0.011
-393.106	800.000	0.035	-0.133
-392.092	-148.691	0.418	-0.034
-391.077	-137.029	0.258	0.030
-390.063	-59.355	0.078	0.034
-389.048	-35.608	-0.048	0.027
-388.033	800.000	0.082	0.250
-387.019	-85.520	0.079	-0.025
-386.004	123.977	0.130	0.165
-384.990	-200.000	0.017	-0.123
-383.975	3.291	0.079	-0.058
-382.960	-104.801	-0.313	0.073
-381.946	679.820	-0.124	-0.326
-380.931	-173.119	0.198	-0.006
-379.917	-54.960	0.147	0.067
-378.902	9.976	-0.135	-0.104
-377.888	-82.860	0.233	-0.076
-376.873	388.045	-0.066	-0.138
-375.858	-200.000	-0.012	-0.114
-374.844	-83.449	0.296	-0.096
-373.829	21.607	-0.331	0.272
-372.815	363.691	0.086	0.175
-371.800	-100.770	0.157	0.039
-370.785	-200.000	-0.091	0.522
-369.771	37.769	0.070	-0.063
-368.756	-200.000	-0.023	-0.286
-367.742	90.197	0.138	-0.155
-366.727	144.727	0.131	-0.177
-365.712	-200.000	0.038	0.212
-364.698	167.512	0.132	0.189
-363.683	100.920	0.149	0.175
-362.669	183.679	-0.197	0.293
-361.654	512.039	-0.014	-0.032
-360.639	508.377	-0.117	-0.273
-359.625	22.311	-0.325	0.268
-358.610	-177.827	-0.223	0.005
-357.596	-26.750	0.173	-0.102
-356.581	192.811	0.038	-0.058
-355.566	119.206	-0.037	0.047
-354.552	259.473	-0.128	-0.223
-353.537	-80.548	-0.245	0.083
-352.523	17.325	0.170	-0.136
-351.508	-170.448	-0.261	0.009
-350.493	92.665	-0.074	-0.084
-349.479	40.949	-0.033	-0.030
-348.464	-200.000	-0.041	0.485
-347.450	-183.702	-0.300	-0.005
-346.435	58.039	-0.187	-0.185
-345.420	44.513	0.272	-0.253
-344.406	150.296	-0.074	0.101
-343.391	277.302	-0.132	0.237
-342.377	91.474	0.101	-0.114
-341.362	186.681	-0.228	0.343
-340.348	630.591	-0.060	-0.153
-339.333	-119.827	0.287	0.050
-338.318	-112.357	0.306	-0.062
-337.304	475.909	-0.097	0.222
-336.289	290.211	-0.031	0.057
-335.275	233.139	0.073	0.121
-334.260	-147.052	0.243	-0.021
-333.245	161.405	-0.072	0.102
-332.231	-45.656	-0.238	0.119
-331.216	29.396	-0.122	0.104
-330.202	158.589	-0.023	-0.032
-329.187	88.905	-0.185	-0.207
-328.172	800.000	-0.084	-0.294
-327.158	-200.000	0.045	-0.267
-326.143	-86.817	-0.164	0.051
-325.129	-44.106	-0.094	0.048
-324.114	800.000	-0.074	0.212
-323.099	-200.000	-0.014	-0.300
-322.085	-200.000	0.008	-0.325
-321.070	-58.603	-0.100	-0.044
-320.056	-172.376	-0.109	-0.003
-319.041	-200.000	-0.003	0.251
-318.026	800.000	-0.056	-0.207
-317.012	54.682	-0.178	-0.173
-315.997	-72.261	0.291	-0.109
-314.983	52.777	-0.436	0.420
-313.968	-99.881	-0.145	0.037
-312.953	690.948	0.112	-0.295
-311.939	-200.000	0.037	0.165
-310.924	124.767	-0.286	0.363
-309.910	-43.656	-0.118	-0.060
-308.895	165.832	0.095	-0.136
-307.880	-66.430	-0.344	-0.138
-306.866	177.123	-0.092	-0.135
-305.851	-39.087	0.367	-0.195
-304.837	-41.452	0.320	-0.166
-303.822	-48.554	-0.212	-0.103
-302.807	-39.919	-0.080	0.042
-301.793	126.143	0.105	0.134
-300.778	-100.927	0.132	0.033
-299.764	-66.336	-0.143	-0.057
-298.749	100.682	0.029	0.034
-297.735	51.326	-0.097	-0.093
-296.720	-200.000	-0.009	0.179
-295.705	800.000	0.031	0.119
-294.691	621.601	-0.067	-0.169
-293.676	-200.000	0.029	-0.227
-292.662	88.898	-0.123	0.137
-291.647	-34.147	-0.254	0.140
-290.632	18.735	-0.110	0.089
-289.618	-200.000	0.045	0.267
-288.603	-136.896	0.101	0.012
-287.589	146.765	0.114	0.155
-286.574	755.084	0.094	0.257
-285.559	163.806	-0.119	0.169
-284.545	-200.000	-0.054	0.251
-283.530	214.598	-0.132	-0.210
-282.516	-200.000	0.016	-0.110
-281.501	-77.136	0.251	-0.088
-280.486	-81.679	-0.178	-0.059
-279.472	-101.518	-0.175	0.043
-278.457	-200.000	0.006	-0.181
-277.443	800.000	-0.091	-0.385
-276.428	-80.355	-0.191	-0.064
-275.413	-162.377	-0.203	0.010
-274.399	144.263	0.142	-0.190
-273.384	73.955	0.018	-0.019
-272.370	-99.513	-0.218	-0.055
-271.355	531.997	0.143	-0.339
-270.340	110.964	-0.149	-0.180
-269.326	800.000	0.071	0.276
-268.311	800.000	0.094	0.264
-267.297	15.870	-0.104	0.082
-266.282	800.000	0.083	0.240
-265.267	-131.006	-0.088	-0.012
-264.253	-38.681	0.415	0.220
-263.238	34.274	-0.137	-0.121
-262.224	800.000	0.059	-0.176
-261.209	277.477	-0.163	0.293
-260.195	475.983	0.088	0.199
-259.180	-94.845	-0.154	0.042
-258.165	-160.944	-0.280	-0.015
-257.151	800.000	0.051	-0.177
-256.136	421.291	0.098	0.212
-255.122	80.441	-0.152	0.165
-254.107	709.938	-0.052	0.139
-253.092	232.310	0.163	0.268
-252.078	-31.649	0.377	-0.213
-251.063	-200.000	0.002	-0.214
-250.049	-66.888	-0.250	-0.099
-249.034	24.436	0.051	0.043
-248.019	-124.466	0.128	-0.020
-247.005	71.629	0.159	-0.166
-245.990	-63.729	-0.367	0.151
-244.976	-178.025	-0.468	0.011
-243.961	-132.096	-0.113	-0.015
-242.946	800.000	0.066	-0.189
-241.932	270.353	-0.055	-0.098
-240.917	-153.897	0.146	-0.010
-239.903	-103.079	0.140	0.033
-238.888	123.796	-0.074	-0.094
-237.873	-131.534	-0.253	-0.033
-236.859	382.125	-0.099	-0.204
-235.844	96.729	0.092	-0.106
-234.830	145.348	0.094	-0.127
-233.815	346.648	0.142	0.281
-232.800	-59.223	-0.212	0.092
-231.786	34.002	-0.211	0.185
-230.771	-200.000	0.080	0.352
-229.757	87.125	0.154	0.171
-228.742	800.000	-0.094	-0.267
-227.727	30.724	0.191	-0.164
-226.713	800.000	-0.006	0.024
-225.698	800.000	0.047	-0.144
-224.684	-43.792	-0.138	0.070
-223.669	800.000	0.029	-0.093
-222.655	-200.000	-0.016	0.106
-221.640	-200.000	-0.032	0.258
-220.625	-168.519	-0.230	0.009
-219.611	93.353	-0.127	-0.144
-218.596	-135.982	0.315	0.037
-217.582	-108.455	0.419	-0.091
-216.567	-200.000	-0.037	-0.183
-215.552	800.000	-0.141	-0.477
-214.538	-26.146	0.213	-0.126
-213.523	-200.000	0.038	-0.280
-212.509	577.613	0.006	0.016
-211.494	468.825	0.131	-0.294
-210.479	-200.000	0.002	0.227
-209.465	-104.031	0.161	0.038
-208.450	-53.940	0.159	0.073
-207.436	800.000	-0.060	0.167
-206.421	800.000	0.124	-0.417
-205.406	-74.235	-0.095	-0.035
-204.392	-89.705	0.087	-0.026
-203.377	-132.071	-0.224	-0.029
-202.363	-52.507	0.160	-0.074
-201.348	-21.056	-0.260	-0.160
-200.333	572.561	-0.185	0.453
-199.319	-200.000	0.006	0.028
-198.304	668.953	0.129	-0.334
-197.290	11.516	-0.146	0.112
-196.275	-200.000	-0.025	0.198
-195.260	286.595	-0.081	0.147
-194.246	-200.000	-0.001	-0.148
-193.231	17.900	0.041	-0.033
-192.217	-77.703	0.320	-0.111
-191.202	478.790	0.052	0.119
-190.187	800.000	0.054	-0.236
-189.173	-83.601	0.308	0.099
-188.158	-200.000	0.019	0.278
-187.144	-11.218	0.093	0.062
-186.129	800.000	0.101	0.291
-185.114	-200.000	0.019	-0.123
-184.100	-169.012	0.319	-0.012
-183.085	-64.763	-0.034	0.014
-182.071	-200.000	0.024	0.146
-181.056	-155.444	-0.256	0.017
-180.042	-60.318	0.324	0.138
-179.027	-82.311	-0.138	-0.045
-178.012	282.938	-0.155	-0.280
-176.998	-77.320	-0.176	0.061
-175.983	800.000	0.072	0.239
-174.969	-145.566	-0.077	-0.007
-173.954	208.964	0.279	0.438
-172.939	-134.030	0.447	-0.055
-171.925	82.557	-0.026	0.028
-170.910	800.000	-0.032	-0.098
-169.896	752.503	0.069	0.186
-168.881	-32.479	0.250	-0.140
-167.866	-173.336	-0.119	-0.004
-166.852	-83.664	-0.245	0.079
-165.837	-200.000	0.023	-0.308
-164.823	800.000	0.083	-0.259
-163.808	-109.845	0.241	-0.051
-162.793	-74.113	-0.049	0.018
-161.779	81.966	-0.096	0.104
-160.764	27.841	-0.113	0.096
-159.750	-10.769	0.125	-0.083
-158.735	-200.000	0.036	-0.231
-157.720	51.150	0.031	0.029
-156.706	-200.000	-0.005	0.033
-155.691	57.418	-0.053	0.052
-154.677	323.324	0.041	0.079
-153.662	800.000	0.027	-0.099
-152.647	483.366	0.075	0.171
-151.633	116.997	-0.108	-0.133
-150.618	122.982	0.108	0.136
-149.604	333.250	0.099	-0.192
-148.589	221.334	0.056	-0.090
-147.574	-104.892	0.310	-0.071
-146.560	-200.000	-0.097	-0.506
-145.545	10.017	0.100	0.076
-144.531	10.711	0.283	-0.216
-143.516	129.537	-0.138	-0.176
-142.502	800.000	0.102	-0.361
-141.487	-200.000	0.019	0.092
-140.472	-93.058	0.160	-0.045
-139.458	-162.746	-0.192	0.009
-138.443	228.900	-0.211	-0.344
-137.429	-158.634	0.274	-0.016
-136.414	-85.501	0.171	-0.053
-135.399	-100.395	-0.161	0.040
-134.385	-28.466	0.222	0.128
-133.370	-155.360	-0.273	-0.018
-132.356	62.591	0.139	-0.139
-131.341	-3.704	0.128	-0.089
-130.326	-200.000	0.032	0.273
-129.312	-86.714	0.290	-0.089
-128.297	-74.237	-0.191	0.069
-127.283	183.418	-0.058	-0.085
-126.268	-28.671	0.040	0.023
-125.253	-96.533	0.290	0.077
-124.239	-200.000	-0.157	-0.000
-123.224	103.010	-0.143	-0.168
-122.210	-200.000	0.045	0.344
