DTS Sentinel unit serial number:	SN413079Multiplexer serial number:	ORYXHardware model number:	OX4-SRSoftware version number:	ORYX F/W v4.00 Oryx Data Collector v3.7.2.0data status	okinstallation	princeton_trtdifferential loss correction	single-endedforward channel	channel 2reverse channel	N/Adate	2019/09/11time	00:41:11forward acquisition time	60.00reverse acquisition time	0.00gamma	496.2192k internal	0.2332k external	0.2332temperature offset calibration	0.9948default loss term (dB/km)	0.3790temperature slope calibration	1.0000multiplexer offset coefficient	1.0000multiplexer slope coefficient	1.0000fibre end	0.00T internal ref (°C)	29.19T ext. ref 1 (°C)	-0.29T ext. ref 2 (°C)	22.90length (m)	temperature (°C)	Stokes	anti-Stokes-747.200	12.734	0.281	0.218
-746.185	-200.000	0.039	0.491
-745.171	-200.000	0.014	0.120
-744.156	-130.004	-0.189	-0.026
-743.142	800.000	0.012	-0.048
-742.127	-97.234	-0.251	-0.066
-741.112	-100.756	-0.161	-0.040
-740.098	-50.158	-0.237	-0.113
-739.083	800.000	0.065	0.231
-738.069	-71.994	0.039	-0.014
-737.054	-148.176	-0.092	0.008
-736.039	-57.051	-0.150	0.067
-735.025	105.460	0.286	0.340
-734.010	710.414	0.032	-0.086
-732.996	-89.509	-0.438	-0.129
-731.981	-32.450	0.066	-0.037
-730.966	-156.077	-0.461	-0.029
-729.952	-200.000	0.014	0.160
-728.937	-117.935	-0.297	-0.053
-727.923	-200.000	0.044	-0.438
-726.908	37.436	-0.181	-0.161
-725.894	402.864	0.135	0.285
-724.879	-200.000	0.002	-0.072
-723.864	800.000	0.053	-0.150
-722.850	-138.710	-0.199	0.022
-721.835	-71.867	-0.188	0.071
-720.821	-188.005	-0.178	-0.002
-719.806	61.662	-0.084	0.084
-718.791	491.788	0.141	0.324
-717.777	638.328	0.081	0.206
-716.762	36.285	0.243	-0.215
-715.748	-96.632	-0.238	-0.063
-714.733	-101.995	-0.233	-0.057
-713.718	-43.472	-0.225	-0.114
-712.704	54.852	0.147	-0.142
-711.689	129.088	-0.179	0.230
-710.675	-24.563	-0.177	-0.106
-709.660	800.000	-0.143	-0.402
-708.645	179.222	-0.215	0.316
-707.631	-51.673	-0.186	-0.087
-706.616	800.000	0.048	-0.201
-705.602	-134.710	-0.432	-0.053
-704.587	-200.000	0.029	0.206
-703.572	-140.299	-0.238	-0.025
-702.558	170.186	-0.205	-0.294
-701.543	49.548	0.045	0.042
-700.529	677.614	0.044	0.115
-699.514	33.932	-0.414	-0.362
-698.499	-200.000	0.030	-0.141
-697.485	-200.000	-0.024	-0.347
-696.470	14.010	-0.180	0.141
-695.456	71.381	0.125	0.131
-694.441	190.229	-0.205	0.310
-693.426	-45.462	-0.166	0.083
-692.412	800.000	0.031	0.119
-691.397	-200.000	-0.012	-0.058
-690.383	-200.000	0.008	0.058
-689.368	38.536	0.118	-0.106
-688.354	800.000	-0.085	-0.319
-687.339	-51.748	0.344	-0.161
-686.324	79.083	-0.124	-0.133
-685.310	110.226	0.010	-0.012
-684.295	-82.063	0.220	0.072
-683.281	-200.000	0.034	-0.417
-682.266	-43.977	0.194	-0.098
-681.251	800.000	0.079	0.341
-680.237	-77.696	0.103	0.036
-679.222	391.611	0.035	-0.073
-678.208	800.000	0.066	-0.225
-677.193	44.340	-0.169	-0.155
-676.178	392.261	0.071	-0.148
-675.164	-200.000	0.018	-0.125
-674.149	800.000	0.048	-0.155
-673.135	-13.049	0.132	-0.086
-672.120	-78.182	-0.148	0.051
-671.105	56.955	0.215	-0.210
-670.091	-200.000	-0.003	0.143
-669.076	-124.667	-0.230	0.036
-668.062	439.952	-0.194	0.426
-667.047	318.451	-0.139	-0.264
-666.032	17.855	0.026	0.021
-665.018	212.107	0.009	-0.014
-664.003	-200.000	-0.005	0.132
-662.989	90.210	-0.201	-0.225
-661.974	-200.000	0.051	-0.314
-660.959	-61.961	0.162	-0.068
-659.945	120.465	0.168	-0.209
-658.930	21.716	-0.237	-0.193
-657.916	185.291	0.294	-0.438
-656.901	-200.000	0.011	0.076
-655.886	34.467	0.057	-0.050
-654.872	149.913	-0.104	-0.141
-653.857	-136.796	-0.207	0.024
-652.843	-53.723	0.254	-0.116
-651.828	-200.000	0.015	-0.407
-650.814	31.563	0.175	0.151
-649.799	26.405	0.083	-0.070
-648.784	-135.326	0.296	-0.036
-647.770	-118.250	-0.320	-0.057
-646.755	-80.162	0.226	-0.076
-645.741	214.107	-0.259	-0.411
-644.726	266.014	0.158	-0.277
-643.711	265.281	-0.097	-0.170
-642.697	-58.819	-0.142	0.062
-641.682	-189.529	0.120	0.001
-640.668	16.061	-0.153	-0.121
-639.653	-113.244	-0.082	-0.016
-638.638	-200.000	-0.093	0.000
-637.624	61.000	0.050	0.049
-636.609	393.240	0.138	0.287
-635.595	-89.573	-0.307	0.090
-634.580	16.057	0.192	0.151
-633.565	-200.000	-0.066	-0.320
-632.551	522.647	-0.043	0.102
-631.536	-89.497	-0.187	0.055
-630.522	-54.020	0.118	0.054
-629.507	-200.000	-0.083	-0.363
-628.492	-159.385	-0.224	-0.013
-627.478	-60.870	-0.220	0.093
-626.463	-200.000	0.046	0.271
-625.449	-50.396	0.190	-0.090
-624.434	391.100	0.043	-0.090
-623.419	142.118	0.146	0.193
-622.405	800.000	0.042	-0.126
-621.390	800.000	-0.025	0.071
-620.376	-200.000	0.016	0.290
-619.361	-128.079	0.247	0.035
-618.346	182.527	0.127	-0.187
-617.332	172.455	-0.123	-0.177
-616.317	15.647	-0.032	-0.025
-615.303	-98.811	0.234	0.060
-614.288	28.718	0.196	0.166
-613.273	380.576	0.030	0.062
-612.259	-144.486	0.023	-0.002
-611.244	-200.000	0.040	-0.185
-610.230	-200.000	-0.032	-0.220
-609.215	-200.000	-0.047	-0.304
-608.201	3.380	0.022	0.016
-607.186	-108.588	-0.153	0.033
-606.171	800.000	-0.058	-0.206
-605.157	-200.000	0.010	-0.123
-604.142	-62.078	-0.365	-0.153
-603.128	-62.762	0.155	-0.064
-602.113	-200.000	0.013	-0.148
-601.098	800.000	-0.022	-0.087
-600.084	93.223	-0.068	-0.077
-599.069	-62.450	0.328	-0.137
-598.055	-138.426	0.229	0.025
-597.040	26.480	0.112	0.093
-596.025	-155.677	-0.040	0.003
-595.011	-200.000	0.001	0.387
-593.996	93.787	-0.104	-0.118
-592.982	187.325	0.107	-0.159
-591.967	800.000	-0.070	0.251
-590.952	-200.000	0.031	0.311
-589.938	-43.213	0.353	0.179
-588.923	-53.201	-0.508	0.233
-587.909	60.185	0.083	-0.082
-586.894	-98.585	-0.195	0.050
-585.879	-39.940	0.177	0.092
-584.865	-93.453	0.537	0.149
-583.850	38.817	-0.249	-0.222
-582.836	800.000	-0.071	0.217
-581.821	-68.155	-0.216	0.084
-580.806	800.000	0.026	0.083
-579.792	-37.731	0.109	-0.058
-578.777	-117.506	-0.334	0.060
-577.763	-200.000	0.001	0.357
-576.748	-27.593	-0.140	-0.081
-575.733	64.393	0.059	-0.059
-574.719	-119.928	-0.310	0.053
-573.704	800.000	-0.064	0.272
-572.690	800.000	-0.045	-0.181
-571.675	15.166	-0.165	-0.129
-570.661	-103.491	-0.077	0.018
-569.646	-31.545	0.346	-0.194
-568.631	-200.000	-0.010	-0.256
-567.617	-52.575	0.208	0.096
-566.602	-200.000	-0.004	0.377
-565.588	-200.000	0.013	-0.078
-564.573	-200.000	0.029	-0.148
-563.558	-200.000	-0.003	-0.151
-562.544	142.392	-0.158	-0.209
-561.529	-200.000	0.016	-0.164
-560.515	-33.642	0.126	-0.069
-559.500	800.000	-0.081	0.333
-558.485	227.747	-0.101	-0.164
-557.471	165.274	-0.064	0.090
-556.456	14.688	0.285	0.223
-555.442	-85.314	-0.040	-0.013
-554.427	-177.885	0.083	0.002
-553.412	41.545	0.205	-0.185
-552.398	-106.451	-0.232	0.052
-551.383	139.023	-0.142	-0.186
-550.369	800.000	0.035	-0.139
-549.354	800.000	0.055	-0.156
-548.339	117.016	0.313	0.384
-547.325	-200.000	-0.012	-0.061
-546.310	-200.000	-0.032	0.166
-545.296	125.836	-0.150	-0.189
-544.281	-82.881	-0.421	-0.136
-543.266	800.000	0.020	-0.074
-542.252	-200.000	0.095	-0.442
-541.237	6.507	-0.021	0.016
-540.223	-125.693	-0.088	-0.013
-539.208	0.135	-0.229	-0.163
-538.193	-84.520	-0.414	0.130
-537.179	-125.362	0.197	0.030
-536.164	-126.289	0.286	-0.043
-535.150	-200.000	0.005	0.045
-534.135	205.400	0.026	0.041
-533.121	179.294	-0.203	-0.297
-532.106	149.727	0.091	0.124
-531.091	588.246	0.033	-0.081
-530.077	800.000	-0.047	0.138
-529.062	21.199	-0.207	-0.168
-528.048	-106.688	0.183	-0.041
-527.033	-52.241	0.268	-0.124
-526.018	-52.877	-0.084	0.038
-525.004	-139.671	0.172	0.018
-523.989	-31.439	0.159	-0.089
-522.975	-200.000	-0.044	-0.388
-521.960	-200.000	-0.006	-0.092
-520.945	-52.020	-0.130	0.060
-519.931	95.450	-0.161	-0.183
-518.916	336.482	0.040	-0.077
-517.902	123.389	-0.183	-0.228
-516.887	5.452	0.059	-0.044
-515.872	-43.015	-0.284	0.144
-514.858	-50.800	-0.117	-0.055
-513.843	-200.000	0.050	0.298
-512.829	14.741	0.298	-0.232
-511.814	-200.000	-0.032	-0.146
-510.799	33.175	0.172	0.149
-509.785	-93.791	0.294	0.081
-508.770	542.960	0.109	-0.260
-507.756	800.000	-0.079	-0.220
-506.741	303.215	0.055	-0.102
-505.726	10.467	0.142	-0.107
-504.712	800.000	-0.048	0.137
-503.697	-10.063	-0.200	-0.132
-502.683	68.379	0.157	0.161
-501.668	630.311	-0.020	-0.050
-500.653	29.190	0.115	0.097
-499.639	-75.450	-0.160	0.057
-498.624	800.000	-0.039	0.111
-497.610	-86.094	-0.016	0.005
-496.595	-200.000	0.032	-0.157
-495.581	-55.886	-0.212	-0.094
-494.566	322.064	0.096	-0.182
-493.551	-200.000	-0.002	-0.032
-492.537	610.584	0.050	-0.125
-491.522	-200.000	0.028	-0.262
-490.508	71.852	0.123	-0.127
-489.493	-38.539	-0.378	0.199
-488.478	-200.000	-0.013	0.095
-487.464	800.000	0.026	-0.086
-486.449	198.368	0.181	-0.277
-485.435	708.486	0.060	0.157
-484.420	-200.000	-0.011	-0.074
-483.405	199.614	-0.067	-0.103
-482.391	284.889	0.119	0.214
-481.376	-200.000	0.095	0.462
-480.362	-75.462	-0.283	-0.100
-479.347	-76.029	-0.358	-0.126
-478.332	-41.699	-0.091	-0.047
-477.318	-200.000	0.029	-0.130
-476.303	-0.487	-0.282	-0.199
-475.289	-41.147	0.149	-0.077
-474.274	329.406	0.118	-0.226
-473.259	-26.647	0.152	0.089
-472.245	-116.659	-0.314	-0.057
-471.230	800.000	0.046	0.154
-470.216	-200.000	-0.011	0.074
-469.201	39.059	-0.155	-0.138
-468.186	-100.511	-0.247	0.061
-467.172	99.299	-0.191	-0.220
-466.157	800.000	-0.101	-0.296
-465.143	43.379	0.274	-0.249
-464.128	-120.768	0.130	0.022
-463.113	65.780	-0.275	0.278
-462.099	-52.407	0.075	-0.034
-461.084	-51.923	0.120	0.056
-460.070	10.206	-0.307	0.232
-459.055	46.739	-0.264	-0.244
-458.040	-120.287	0.291	-0.049
-457.026	-200.000	-0.025	0.137
-456.011	-70.777	0.178	-0.067
-454.997	101.029	0.330	-0.382
-453.982	-200.000	0.001	0.165
-452.968	366.180	0.051	-0.102
-451.953	62.531	-0.138	0.137
-450.938	29.636	0.263	-0.223
-449.924	-70.727	0.133	-0.050
-448.909	128.454	-0.138	-0.175
-447.895	3.876	0.142	-0.103
-446.880	731.183	-0.081	0.214
-445.865	-200.000	-0.020	0.183
-444.851	-93.131	-0.227	0.063
-443.836	800.000	0.057	-0.232
-442.822	-177.810	0.146	-0.003
-441.807	-91.344	-0.318	0.091
-440.792	641.626	0.122	-0.310
-439.778	478.727	-0.074	0.166
-438.763	130.047	0.266	0.338
-437.749	-28.110	-0.173	0.099
-436.734	413.711	-0.098	0.208
-435.719	-67.713	-0.148	-0.058
-434.705	-108.216	-0.242	0.052
-433.690	-13.180	-0.325	-0.210
-432.676	554.219	-0.105	0.251
-431.661	81.828	-0.219	0.235
-430.646	-50.972	-0.097	-0.045
-429.632	800.000	-0.026	0.073
-428.617	65.208	-0.056	0.056
-427.603	-61.028	-0.229	-0.096
-426.588	115.128	-0.029	-0.035
-425.573	49.360	-0.158	0.148
-424.559	-48.842	-0.248	-0.118
-423.544	417.628	0.129	0.274
-422.530	-200.000	0.088	0.449
-421.515	-55.082	-0.255	0.114
-420.500	157.162	-0.194	0.267
-419.486	-200.000	0.026	0.163
-418.471	-200.000	-0.021	-0.099
-417.457	31.196	0.152	-0.130
-416.442	-200.000	-0.005	-0.142
-415.428	130.920	0.182	0.232
-414.413	-200.000	-0.049	-0.263
-413.398	-19.888	0.077	0.047
-412.384	-167.837	-0.290	-0.011
-411.369	97.762	-0.048	0.055
-410.355	149.440	-0.078	-0.105
-409.340	-78.363	0.133	0.045
-408.325	-146.843	0.349	-0.030
-407.311	-85.327	0.051	0.016
-406.296	162.813	0.266	0.371
-405.282	-60.643	0.248	0.104
-404.267	277.465	-0.060	-0.105
-403.252	471.410	-0.162	0.363
-402.238	-59.502	-0.394	0.168
-401.223	800.000	-0.095	0.297
-400.209	11.612	0.112	0.086
-399.194	34.813	0.141	-0.122
-398.179	-106.976	0.219	-0.048
-397.165	-200.000	0.070	0.405
-396.150	372.643	-0.020	-0.039
-395.136	-85.251	-0.161	0.050
-394.121	66.342	0.147	0.148
-393.106	28.093	-0.261	0.218
-392.092	-123.830	0.096	0.015
-391.077	-61.534	-0.184	0.077
-390.063	81.429	0.386	-0.414
-389.048	-90.100	-0.216	0.063
-388.033	-63.664	-0.354	-0.144
-387.019	303.945	0.178	0.327
-386.004	144.010	0.338	0.448
-384.990	800.000	0.054	-0.178
-383.975	800.000	0.030	0.097
-382.960	-7.351	-0.297	0.200
-381.946	-69.112	-0.317	-0.121
-380.931	800.000	-0.068	0.267
-379.917	33.438	0.449	-0.387
-378.902	-58.129	-0.310	-0.134
-377.888	-200.000	0.017	0.111
-376.873	-45.488	0.058	-0.029
-375.858	-200.000	-0.023	-0.153
-374.844	-114.980	-0.254	0.048
-373.829	-45.352	0.279	-0.137
-372.815	3.236	-0.352	0.254
-371.800	-17.164	0.182	-0.114
-370.785	800.000	-0.029	0.098
-369.771	48.053	-0.071	-0.066
-368.756	-39.944	-0.413	0.214
-367.742	-48.701	0.311	-0.148
-366.727	21.987	0.255	0.206
-365.712	-159.154	0.131	0.007
-364.698	-200.000	-0.061	-0.492
-363.683	-200.000	-0.052	0.288
-362.669	267.795	0.042	-0.073
-361.654	70.425	0.207	-0.212
-360.639	746.756	-0.018	-0.047
-359.625	61.161	-0.114	-0.112
-358.610	-200.000	-0.040	-0.201
-357.596	-117.079	-0.266	0.048
-356.581	-162.213	-0.366	0.018
-355.566	-68.660	0.053	0.020
-354.552	139.384	0.100	-0.131
-353.537	-97.353	0.162	0.042
-352.523	800.000	-0.135	0.415
-351.508	-177.555	0.114	-0.003
-350.493	-91.302	0.244	-0.069
-349.479	-7.866	0.262	0.175
-348.464	-200.000	-0.038	-0.209
-347.450	-200.000	0.003	-0.079
-346.435	-110.818	0.049	-0.010
-345.420	70.287	-0.157	0.161
-344.406	-3.580	0.230	0.159
-343.391	-84.935	0.041	-0.013
-342.377	770.967	0.164	0.441
-341.362	800.000	-0.020	-0.065
-340.348	255.039	-0.197	-0.334
-339.333	676.560	0.071	-0.184
-338.318	45.227	0.289	0.264
-337.304	-64.244	-0.300	0.121
-336.289	-200.000	-0.016	0.316
-335.275	22.239	0.225	0.182
-334.260	-200.000	0.033	-0.145
-333.245	-200.000	0.032	-0.365
-332.231	-3.439	-0.157	-0.108
-331.216	-200.000	-0.019	0.195
-330.202	-51.583	-0.131	-0.060
-329.187	191.949	0.183	-0.273
-328.172	-72.634	0.385	0.141
-327.158	362.783	-0.188	-0.373
-326.143	145.653	0.177	-0.235
-325.129	-58.187	-0.204	-0.088
-324.114	-200.000	0.022	-0.110
-323.099	800.000	0.123	0.381
-322.085	513.860	0.099	0.229
-321.070	123.697	-0.138	0.172
-320.056	110.111	-0.114	-0.135
-319.041	30.588	-0.187	0.158
-318.026	648.215	0.184	0.466
-317.012	-116.663	-0.123	-0.022
-315.997	-92.921	-0.097	-0.027
-314.983	173.642	0.159	-0.227
-313.968	15.720	-0.159	-0.123
-312.953	-120.489	0.411	-0.069
-311.939	7.814	0.107	0.080
-310.924	722.903	-0.067	-0.176
-309.910	-64.643	-0.200	0.080
-308.895	-200.000	0.027	0.291
-307.880	-79.833	-0.147	0.049
-306.866	-7.076	0.200	0.134
-305.851	27.214	-0.134	0.111
-304.837	83.961	-0.158	-0.170
-303.822	-38.647	0.224	0.117
-302.807	-200.000	0.026	0.228
-301.793	20.402	-0.122	0.097
-300.778	-166.727	-0.227	-0.009
-299.764	705.779	-0.061	0.159
-298.749	82.756	-0.093	0.100
-297.735	39.271	0.306	-0.271
-296.720	-3.171	0.157	-0.108
-295.705	485.286	0.040	-0.090
-294.691	-111.025	0.116	-0.024
-293.676	-103.739	0.071	-0.017
-292.662	-29.196	-0.059	0.034
-291.647	-200.000	-0.012	0.229
-290.632	-200.000	0.001	0.015
-289.618	-200.000	-0.012	0.157
-288.603	-58.472	0.066	0.029
-287.589	-200.000	-0.009	-0.253
-286.574	-200.000	-0.070	0.331
-285.559	-27.192	-0.094	0.054
-284.545	800.000	0.123	0.428
-283.530	582.631	0.074	-0.179
-282.516	-73.751	-0.149	0.053
-281.501	57.417	0.259	-0.250
-280.486	-92.796	0.267	-0.074
-279.472	-97.913	-0.560	-0.143
-278.457	-120.314	0.116	-0.020
-277.443	195.243	-0.066	-0.098
-276.428	-120.526	-0.459	-0.077
-275.413	32.019	-0.191	0.163
-274.399	-200.000	-0.011	0.111
-273.384	-84.808	0.247	-0.077
-272.370	-127.282	-0.134	-0.019
-271.355	-200.000	0.020	-0.157
-270.340	52.275	-0.151	0.142
-269.326	346.595	-0.117	-0.227
-268.311	-32.271	-0.179	-0.099
-267.297	421.681	0.021	-0.045
-266.282	800.000	0.055	-0.213
-265.267	79.701	0.073	-0.078
-264.253	-123.745	-0.069	0.011
-263.238	-200.000	0.027	0.222
-262.224	-33.851	-0.085	-0.046
-261.209	134.047	-0.143	-0.182
-260.195	103.697	0.213	0.247
-259.180	-200.000	-0.021	-0.123
-258.165	202.541	0.065	0.098
-257.151	-74.418	-0.265	-0.095
-256.136	-68.493	0.234	0.089
-255.122	800.000	0.086	0.265
-254.107	-20.591	-0.113	-0.068
-253.092	448.531	0.048	-0.103
-252.078	65.986	-0.123	-0.124
-251.063	-88.919	0.208	0.061
-250.049	-200.000	-0.021	-0.173
-249.034	-200.000	-0.008	0.335
-248.019	6.376	0.267	0.196
-247.005	-200.000	0.008	-0.044
-245.990	23.950	-0.205	0.167
-244.976	-143.143	0.143	0.014
-243.961	-34.588	0.368	-0.199
-242.946	-200.000	0.006	0.026
-241.932	50.574	0.057	-0.053
-240.917	-121.459	0.277	0.045
-239.903	116.971	0.192	0.233
-238.888	428.306	0.044	0.094
-237.873	-147.026	0.357	-0.030
-236.859	-183.701	0.146	-0.002
-235.844	-62.508	-0.256	-0.105
-234.830	258.193	0.124	-0.211
-233.815	370.650	0.042	0.085
-232.800	-7.206	0.162	0.108
-231.786	-134.171	-0.410	0.050
-230.771	-85.094	0.389	0.120
-229.757	10.625	0.189	-0.142
-228.742	-178.173	-0.227	-0.005
-227.727	-74.369	-0.257	0.092
-226.713	-200.000	-0.002	-0.022
-225.698	-200.000	0.006	0.222
-224.684	331.001	-0.107	-0.202
-223.669	-99.721	0.147	0.036
-222.655	-2.420	0.202	-0.140
-221.640	72.499	0.208	0.214
-220.625	361.918	-0.097	0.192
-219.611	-62.021	-0.398	0.164
-218.596	-80.213	-0.138	-0.045
-217.582	800.000	-0.099	0.377
-216.567	-200.000	-0.007	-0.081
-215.552	-143.667	0.527	0.049
-214.538	-64.983	-0.138	-0.055
-213.523	-200.000	-0.017	-0.153
-212.509	-72.342	0.230	0.084
-211.494	-81.544	-0.079	-0.026
-210.479	-1.243	0.060	0.042
-209.465	17.444	-0.142	-0.111
-208.450	220.774	-0.231	-0.365
-207.436	-81.451	-0.077	-0.025
-206.421	-32.608	0.370	0.203
-205.406	-58.091	0.502	0.216
-204.392	245.268	-0.135	0.224
-203.377	-34.739	0.253	0.136
-202.363	-5.255	0.132	0.089
-201.348	127.017	-0.102	-0.128
-200.333	-68.041	-0.172	-0.066
-199.319	-123.246	0.357	-0.056
-198.304	-16.304	0.106	0.066
-197.290	3.511	-0.199	-0.143
-196.275	454.202	0.109	-0.237
-195.260	169.641	-0.087	-0.122
-194.246	800.000	0.031	0.113
-193.231	142.853	-0.152	0.199
-192.217	-78.625	-0.065	0.022
-191.202	800.000	-0.035	0.098
-190.187	139.796	-0.208	0.270
-189.173	89.676	0.141	0.155
-188.158	-8.400	-0.084	0.056
-187.144	-116.195	0.130	-0.024
-186.129	208.413	-0.181	-0.278
-185.114	800.000	-0.042	-0.138
-184.100	475.255	-0.049	0.110
-183.085	57.717	-0.103	-0.099
-182.071	800.000	-0.024	0.085
-181.056	527.313	-0.067	-0.155
-180.042	-18.665	0.286	0.176
-179.027	-200.000	-0.013	0.332
-178.012	-200.000	0.005	0.092
-176.998	-200.000	-0.031	-0.315
-175.983	-200.000	0.045	-0.353
-174.969	-102.105	-0.251	-0.060
-173.954	-92.355	0.252	-0.070
-172.939	285.773	-0.147	0.261
-171.925	-200.000	0.009	0.228
-170.910	-183.145	-0.166	0.003
-169.896	-47.693	-0.280	-0.133
-168.881	-110.348	0.441	-0.090
-167.866	-111.390	-0.275	0.055
-166.852	464.176	-0.084	0.184
-165.837	164.317	0.110	-0.152
-164.823	800.000	-0.024	-0.078
-163.808	-115.098	0.359	-0.067
-162.793	-200.000	-0.012	0.291
-161.779	33.039	0.117	-0.099
-160.764	-151.935	-0.156	0.011
-159.750	-133.082	0.086	-0.011
-158.735	-200.000	0.056	-0.290
-157.720	799.197	-0.120	-0.326
-156.706	-19.300	0.497	-0.303
-155.691	29.549	0.154	-0.129
-154.677	95.415	0.208	0.233
-153.662	48.920	0.125	-0.116
-152.647	-55.535	0.214	0.094
-151.633	-66.302	-0.141	0.055
-150.618	-45.711	0.369	0.179
-149.604	-20.275	0.235	0.142
-148.589	-200.000	0.012	0.186
-147.574	384.795	0.114	0.231
-146.560	273.015	0.068	0.117
-145.545	16.287	-0.256	-0.198
-144.531	-93.804	-0.068	0.018
-143.516	800.000	0.037	-0.126
-142.502	-200.000	0.008	0.112
-141.487	3.535	-0.148	-0.106
-140.472	52.751	-0.020	0.019
-139.458	82.107	0.024	-0.026
-138.443	4.697	0.087	0.063
-137.429	8.846	-0.169	-0.125
-136.414	-200.000	0.036	-0.294
-135.399	-200.000	0.011	0.266
-134.385	-123.258	-0.166	0.026
-133.370	-149.657	0.097	-0.007
-132.356	-161.540	-0.122	-0.006
-131.341	123.909	-0.206	0.254
-130.326	-51.610	0.201	0.092
-129.312	-25.632	-0.207	0.120
-128.297	224.889	0.232	0.368
-127.283	94.340	0.060	0.067
-126.268	447.639	-0.081	0.175
-125.253	-133.841	0.123	0.015
-124.239	84.423	-0.168	-0.180
-123.224	-89.119	-0.094	0.027
-122.210	11.900	0.027	-0.020
-121.195	168.824	-0.297	0.415
