DTS Sentinel unit serial number:	SN413079Multiplexer serial number:	ORYXHardware model number:	OX4-SRSoftware version number:	ORYX F/W v4.00 Oryx Data Collector v3.7.2.0data status	okinstallation	princeton_trtdifferential loss correction	single-endedforward channel	channel 2reverse channel	N/Adate	2019/09/11time	14:37:11forward acquisition time	60.00reverse acquisition time	0.00gamma	496.2192k internal	0.2290k external	0.2290temperature offset calibration	1.0009default loss term (dB/km)	0.3790temperature slope calibration	1.0000multiplexer offset coefficient	1.0000multiplexer slope coefficient	1.0000fibre end	0.00T internal ref (°C)	42.31T ext. ref 1 (°C)	0.93T ext. ref 2 (°C)	37.55length (m)	temperature (°C)	Stokes	anti-Stokes-747.200	-11.024	0.071	0.048
-746.185	-7.785	-0.059	-0.041
-745.171	-106.513	0.297	0.068
-744.156	-200.000	-0.082	0.407
-743.142	462.861	0.099	0.226
-742.127	12.533	-0.112	0.089
-741.112	296.707	0.245	0.460
-740.098	-85.724	-0.220	0.070
-739.083	-147.709	0.111	-0.010
-738.069	-200.000	0.038	0.214
-737.054	27.578	0.080	-0.069
-736.039	-200.000	0.067	0.370
-735.025	392.454	0.097	-0.206
-734.010	-88.880	0.231	-0.070
-732.996	-147.782	-0.435	-0.037
-731.981	59.865	0.298	0.301
-730.966	76.465	-0.148	-0.160
-729.952	172.508	0.192	-0.284
-728.937	97.559	-0.097	-0.114
-727.923	-53.617	-0.379	-0.177
-726.908	-62.726	-0.156	0.066
-725.894	-200.000	-0.002	-0.022
-724.879	30.122	-0.288	0.252
-723.864	800.000	-0.038	-0.154
-722.850	800.000	-0.031	-0.096
-721.835	-47.434	-0.226	0.113
-720.821	-200.000	0.021	0.162
-719.806	-151.752	-0.187	-0.014
-718.791	-111.598	-0.304	-0.063
-717.777	163.604	0.182	-0.262
-716.762	-172.518	0.301	0.010
-715.748	-0.990	-0.062	-0.045
-714.733	-200.000	-0.012	-0.344
-713.718	-200.000	-0.026	0.277
-712.704	-200.000	-0.018	-0.259
-711.689	15.887	0.011	-0.009
-710.675	-58.288	-0.348	-0.155
-709.660	-200.000	-0.028	-0.317
-708.645	-103.991	0.172	0.041
-707.631	800.000	-0.064	-0.210
-706.616	-51.280	0.199	-0.095
-705.602	-194.620	-0.095	0.001
-704.587	23.776	-0.135	0.114
-703.572	90.266	-0.057	-0.066
-702.558	800.000	-0.036	0.142
-701.543	-29.483	0.349	0.204
-700.529	114.250	-0.130	0.162
-699.514	-119.916	0.106	-0.019
-698.499	-149.812	0.508	0.041
-697.485	-62.608	-0.313	0.133
-696.470	614.388	-0.101	0.258
-695.456	800.000	-0.027	-0.121
-694.441	-40.050	0.164	-0.088
-693.426	15.191	-0.141	0.113
-692.412	-30.817	-0.156	-0.090
-691.397	-18.576	-0.080	-0.051
-690.383	-44.098	0.068	-0.035
-689.368	245.655	-0.112	-0.193
-688.354	-200.000	0.041	0.203
-687.339	-120.793	0.239	0.041
-686.324	245.538	-0.055	0.095
-685.310	-27.326	-0.163	0.097
-684.295	58.150	0.086	-0.086
-683.281	40.480	0.116	-0.106
-682.266	800.000	0.027	-0.084
-681.251	311.524	0.088	-0.169
-680.237	-95.710	0.316	0.086
-679.222	800.000	-0.064	0.222
-678.208	186.222	-0.095	0.144
-677.193	-70.510	-0.206	-0.080
-676.178	800.000	0.023	-0.085
-675.164	-174.667	-0.164	0.005
-674.149	-112.687	-0.403	-0.082
-673.135	364.800	-0.167	0.344
-672.120	-98.228	0.191	0.050
-671.105	-200.000	-0.041	-0.232
-670.091	-132.982	-0.224	0.029
-669.076	393.787	-0.082	-0.175
-668.062	800.000	-0.036	-0.107
-667.047	16.274	-0.066	0.054
-666.032	-91.234	-0.208	-0.061
-665.018	800.000	-0.090	0.352
-664.003	-32.298	-0.140	-0.080
-662.989	-134.733	-0.242	-0.030
-661.974	-144.123	-0.046	-0.004
-660.959	-153.612	0.093	0.007
-659.945	124.041	-0.154	-0.198
-658.930	-79.043	-0.267	0.093
-657.916	-137.347	-0.130	-0.015
-656.901	180.959	-0.206	-0.310
-655.886	-55.500	-0.048	-0.022
-654.872	30.758	-0.296	-0.259
-653.857	-200.000	-0.006	0.086
-652.843	-19.750	-0.022	0.014
-651.828	531.816	-0.116	0.280
-650.814	-97.694	-0.288	-0.076
-649.799	-166.198	0.152	-0.007
-648.784	-200.000	-0.146	-0.001
-647.770	198.071	-0.252	-0.393
-646.755	593.278	-0.023	-0.057
-645.741	-171.868	0.190	0.006
-644.726	-19.981	-0.109	0.068
-643.711	-93.045	0.204	0.058
-642.697	-59.691	-0.182	0.080
-641.682	105.153	0.272	-0.328
-640.668	-34.895	-0.051	-0.029
-639.653	-200.000	-0.016	-0.076
-638.638	-91.497	0.528	0.154
-637.624	458.946	0.112	-0.255
-636.609	-26.952	0.316	-0.188
-635.595	-65.195	-0.064	-0.026
-634.580	81.301	-0.186	0.205
-633.565	264.212	0.063	0.112
-632.551	377.427	0.081	-0.169
-631.536	-200.000	-0.015	-0.175
-630.522	-111.099	0.111	0.023
-629.507	-19.706	-0.153	-0.096
-628.492	27.932	0.149	-0.128
-627.478	-200.000	0.017	0.230
-626.463	-200.000	-0.009	-0.230
-625.449	389.140	0.139	-0.294
-624.434	69.572	0.115	-0.121
-623.419	-155.871	-0.307	0.020
-622.405	-200.000	-0.024	-0.409
-621.390	-33.765	-0.091	-0.051
-620.376	137.202	-0.329	-0.439
-619.361	-141.919	0.142	0.014
-618.346	759.313	0.119	0.328
-617.332	-170.285	0.040	0.001
-616.317	88.064	0.166	-0.187
-615.303	-58.512	0.057	0.025
-614.288	385.175	-0.055	0.116
-613.273	28.031	0.117	-0.100
-612.259	800.000	0.040	-0.169
-611.244	-200.000	0.066	-0.462
-610.230	800.000	-0.005	0.018
-609.215	692.492	-0.028	-0.074
-608.201	-108.919	-0.192	0.042
-607.186	-32.909	0.190	0.107
-606.171	-92.714	0.185	-0.053
-605.157	-77.699	0.207	0.073
-604.142	202.108	0.038	0.060
-603.128	-162.327	0.510	-0.026
-602.113	78.574	-0.215	0.234
-601.098	79.030	0.082	0.089
-600.084	-200.000	-0.016	-0.197
-599.069	139.111	0.101	0.136
-598.055	351.902	0.118	-0.238
-597.040	-24.881	-0.127	-0.077
-596.025	-200.000	-0.017	-0.099
-595.011	800.000	-0.084	-0.263
-593.996	-107.382	0.218	0.049
-592.982	-77.381	-0.105	0.037
-591.967	37.596	-0.228	0.206
-590.952	-0.669	0.180	-0.130
-589.938	-200.000	-0.017	0.153
-588.923	707.716	0.022	0.059
-587.909	-56.764	-0.283	-0.128
-586.894	-117.583	-0.209	0.038
-585.879	-200.000	-0.006	0.112
-584.865	53.730	0.185	0.181
-583.850	800.000	0.116	-0.383
-582.836	-159.974	0.329	-0.018
-581.821	205.454	0.249	0.393
-580.806	-84.077	-0.080	-0.026
-579.792	-28.068	-0.202	-0.119
-578.777	-200.000	0.019	-0.126
-577.763	-44.144	0.143	-0.073
-576.748	348.205	-0.082	0.164
-575.733	800.000	-0.057	-0.220
-574.719	-200.000	-0.023	0.229
-573.704	-194.743	-0.258	-0.002
-572.690	76.535	0.277	0.299
-571.675	-200.000	-0.025	0.216
-570.661	-68.795	0.145	0.057
-569.646	295.959	0.072	-0.134
-568.631	-128.827	0.287	0.041
-567.617	-200.000	-0.042	0.257
-566.602	195.517	-0.021	-0.033
-565.588	-13.975	0.181	0.119
-564.573	76.639	0.081	0.087
-563.558	79.906	0.218	-0.239
-562.544	-36.680	-0.109	0.060
-561.529	-7.812	-0.204	0.140
-560.515	800.000	-0.068	-0.219
-559.500	-144.700	0.112	-0.011
-558.485	-200.000	0.036	0.315
-557.471	-200.000	-0.052	0.252
-556.456	-49.715	-0.191	0.092
-555.442	800.000	0.161	-0.510
-554.427	-89.601	-0.238	-0.071
-553.412	332.330	-0.138	0.272
-552.398	800.000	-0.145	-0.409
-551.383	800.000	-0.037	0.150
-550.369	-61.059	0.221	0.095
-549.354	-31.012	0.151	-0.087
-548.339	-200.000	0.028	0.285
-547.325	-65.548	-0.193	0.079
-546.310	800.000	-0.111	-0.322
-545.296	114.960	0.097	0.120
-544.281	208.593	-0.044	-0.070
-543.266	-200.000	-0.078	0.448
-542.252	-27.097	-0.235	0.139
-541.237	575.419	-0.098	-0.243
-540.223	-7.670	-0.218	-0.149
-539.208	800.000	0.041	-0.120
-538.193	56.321	-0.037	-0.036
-537.179	75.239	0.114	-0.122
-536.164	476.569	-0.064	-0.147
-535.150	-200.000	-0.051	0.229
-534.135	-200.000	-0.009	0.165
-533.121	-156.876	-0.508	-0.032
-532.106	-111.255	0.287	-0.060
-531.091	-200.000	-0.001	0.079
-530.077	305.812	-0.208	0.393
-529.062	-25.977	-0.188	-0.112
-528.048	641.987	-0.038	0.098
-527.033	-39.914	-0.202	-0.107
-526.018	800.000	0.079	0.239
-525.004	-23.073	-0.296	-0.181
-523.989	-114.072	-0.270	0.053
-522.975	83.313	-0.162	0.179
-521.960	27.676	-0.199	0.171
-520.945	228.398	-0.136	-0.226
-519.931	31.854	-0.083	-0.072
-518.916	207.588	0.112	-0.177
-517.902	177.733	-0.224	-0.332
-516.887	-35.993	0.115	-0.063
-515.872	33.472	0.213	-0.187
-514.858	-59.871	-0.172	0.075
-513.843	800.000	-0.060	-0.207
-512.829	-200.000	0.019	0.259
-511.814	139.929	0.120	0.161
-510.799	-150.146	0.134	0.011
-509.785	-74.115	0.051	-0.019
-508.770	117.458	0.236	-0.295
-507.756	-200.000	0.017	-0.177
-506.741	-200.000	-0.080	0.436
-505.726	800.000	-0.044	0.181
-504.712	800.000	0.036	0.128
-503.697	82.577	-0.122	-0.134
-502.683	118.461	0.159	-0.199
-501.668	-200.000	0.013	0.130
-500.653	126.125	-0.046	0.058
-499.639	352.614	0.079	-0.159
-498.624	800.000	-0.016	-0.071
-497.610	-48.032	0.144	0.070
-496.595	-50.900	-0.059	-0.028
-495.581	-43.830	0.140	-0.072
-494.566	145.427	0.038	0.051
-493.551	687.223	-0.093	-0.247
-492.537	129.722	0.126	-0.164
-491.522	-96.448	-0.211	0.057
-490.508	194.860	-0.081	-0.125
-489.493	-200.000	0.065	-0.312
-488.478	259.448	0.110	-0.192
-487.464	131.591	0.160	0.209
-486.449	-200.000	-0.017	0.120
-485.435	282.485	0.094	-0.171
-484.420	-130.408	-0.149	-0.020
-483.405	800.000	-0.078	0.262
-482.391	-175.107	0.248	0.007
-481.376	-200.000	0.001	0.170
-480.362	-116.488	-0.114	0.021
-479.347	225.388	-0.067	0.110
-478.332	248.896	0.051	-0.088
-477.318	-133.304	-0.136	-0.017
-476.303	6.307	0.123	-0.092
-475.289	274.159	-0.046	-0.082
-474.274	-42.054	0.330	-0.171
-473.259	-155.086	-0.323	0.021
-472.245	18.848	-0.181	-0.147
-471.230	2.623	0.311	0.229
-470.216	-167.258	0.113	0.005
-469.201	-31.856	0.334	0.190
-468.186	-68.029	-0.214	0.085
-467.172	509.813	-0.149	0.350
-466.157	41.648	0.139	0.127
-465.143	120.944	0.083	0.105
-464.128	316.746	0.069	0.131
-463.113	-51.079	0.107	-0.051
-462.099	-199.985	-0.270	0.001
-461.084	-158.615	-0.141	0.008
-460.070	287.339	-0.100	-0.183
-459.055	385.714	-0.083	-0.173
-458.040	195.408	-0.088	0.135
-457.026	229.129	-0.116	0.192
-456.011	21.706	0.056	0.046
-454.997	-200.000	0.041	0.217
-453.982	800.000	-0.085	0.246
-452.968	-200.000	0.021	-0.203
-451.953	540.884	-0.111	0.269
-450.938	6.161	-0.235	0.177
-449.924	-56.633	-0.183	0.082
-448.909	-43.318	0.137	0.070
-447.895	800.000	0.081	-0.264
-446.880	-200.000	-0.015	-0.109
-445.865	384.638	-0.162	0.338
-444.851	800.000	0.034	0.125
-443.836	-200.000	-0.008	-0.280
-442.822	11.840	0.127	-0.099
-441.807	18.215	0.391	0.316
-440.792	28.429	-0.243	0.208
-439.778	-200.000	-0.052	-0.283
-438.763	23.187	0.333	0.277
-437.749	-12.102	-0.127	-0.084
-436.734	800.000	0.077	-0.295
-435.719	-122.092	0.237	-0.039
-434.705	86.330	0.201	-0.224
-433.690	800.000	-0.028	0.116
-432.676	625.784	-0.087	-0.221
-431.661	-200.000	0.062	0.455
-430.646	97.446	0.136	0.158
-429.632	263.214	-0.084	-0.147
-428.617	-200.000	-0.012	-0.204
-427.603	-200.000	-0.010	-0.239
-426.588	724.170	0.022	-0.059
-425.573	794.405	0.035	0.099
-424.559	-200.000	0.001	-0.197
-423.544	251.886	0.065	-0.111
-422.530	-44.785	-0.180	-0.091
-421.515	279.788	0.112	-0.202
-420.500	159.622	-0.089	-0.125
-419.486	-190.441	-0.421	0.005
-418.471	-167.476	-0.350	-0.014
-417.457	111.624	0.125	0.152
-416.442	-200.000	0.030	-0.358
-415.428	-140.548	0.061	-0.006
-414.413	-36.299	0.197	0.108
-413.398	-100.036	0.204	0.052
-412.384	-47.081	0.128	0.063
-411.369	26.250	-0.159	-0.134
-410.355	-71.503	-0.102	-0.039
-409.340	-127.839	0.303	0.044
-408.325	-102.620	-0.266	-0.064
-407.311	370.068	0.192	0.394
-406.296	-131.382	0.213	-0.029
-405.282	-185.881	0.150	0.002
-404.267	111.997	0.194	0.237
-403.252	-171.130	-0.195	-0.007
-402.238	800.000	0.015	-0.053
-401.223	-155.185	-0.113	0.007
-400.209	-36.654	0.043	-0.024
-399.194	-200.000	-0.010	0.190
-398.179	273.270	-0.147	0.262
-397.165	119.305	-0.099	0.124
-396.150	165.809	0.246	0.351
-395.136	-132.583	0.185	0.024
-394.121	-135.684	-0.140	-0.017
-393.106	-95.458	-0.187	-0.051
-392.092	-101.046	-0.181	0.045
-391.077	10.753	-0.083	-0.064
-390.063	88.167	0.078	0.088
-389.048	44.676	-0.191	-0.178
-388.033	-113.530	-0.301	0.060
-387.019	-166.169	0.295	0.013
-386.004	-200.000	-0.045	-0.267
-384.990	-200.000	-0.026	0.241
-383.975	-200.000	0.018	0.154
-382.960	-65.905	0.135	0.054
-381.946	-200.000	-0.016	0.129
-380.931	-96.698	0.084	0.022
-379.917	-82.929	-0.201	-0.065
-378.902	-200.000	-0.005	0.183
-377.888	-159.335	0.209	0.012
-376.873	-200.000	0.002	0.202
-375.858	-200.000	-0.007	0.461
-374.844	-52.626	-0.169	0.079
-373.829	-182.064	0.346	-0.007
-372.815	-129.629	0.078	0.011
-371.800	236.848	-0.241	0.403
-370.785	-200.000	-0.039	-0.308
-369.771	4.690	0.163	-0.121
-368.756	800.000	0.011	-0.044
-367.742	-159.621	-0.131	-0.007
-366.727	-200.000	-0.002	0.049
-365.712	114.954	0.070	-0.087
-364.698	-4.202	0.230	0.161
-363.683	-71.653	0.267	-0.101
-362.669	-120.417	-0.385	-0.066
-361.654	259.937	0.086	0.150
-360.639	131.281	0.131	0.170
-359.625	74.640	-0.231	-0.245
-358.610	351.949	-0.037	0.074
-357.596	800.000	-0.052	0.157
-356.581	49.103	0.207	0.197
-355.566	-102.525	0.264	0.064
-354.552	24.168	-0.213	0.178
-353.537	800.000	-0.032	-0.137
-352.523	135.705	0.076	0.100
-351.508	-67.203	-0.270	0.107
-350.493	90.567	-0.145	0.164
-349.479	800.000	-0.098	0.279
-348.464	81.492	-0.080	0.087
-347.450	132.887	-0.298	-0.387
-346.435	-35.465	0.148	0.081
-345.420	-123.096	-0.149	0.024
-344.406	-200.000	0.021	0.155
-343.391	-19.800	0.116	-0.072
-342.377	-128.084	0.097	0.014
-341.362	800.000	0.135	0.382
-340.348	-28.240	0.306	0.178
-339.333	-17.906	-0.312	-0.198
-338.318	-200.000	-0.002	0.134
-337.304	-148.031	-0.169	-0.014
-336.289	133.298	0.042	0.055
-335.275	-145.708	-0.291	0.026
-334.260	709.697	-0.160	-0.428
-333.245	137.082	0.138	0.182
-332.231	-118.293	-0.170	-0.031
-331.216	-150.897	-0.127	-0.010
-330.202	-87.080	0.100	-0.031
-329.187	-145.439	0.078	-0.007
-328.172	-128.271	-0.594	0.085
-327.158	-79.933	-0.110	-0.037
-326.143	757.905	0.104	-0.285
-325.129	74.386	0.053	0.056
-324.114	-200.000	-0.001	-0.109
-323.099	-146.653	-0.201	0.018
-322.085	-131.141	0.140	0.019
-321.070	-193.188	-0.273	-0.002
-320.056	-91.937	0.108	-0.031
-319.041	-200.000	-0.014	0.297
-318.026	9.889	-0.101	0.077
-317.012	-30.262	-0.167	-0.095
-315.997	174.025	0.112	-0.164
-314.983	800.000	0.099	-0.346
-313.968	-64.170	0.204	0.084
-312.953	-139.007	-0.260	-0.028
-311.939	-28.044	0.151	-0.088
-310.924	800.000	-0.057	0.197
-309.910	711.761	0.034	0.089
-308.895	-200.000	0.014	0.232
-307.880	-200.000	-0.308	-0.000
-306.866	260.739	0.183	-0.319
-305.851	-200.000	-0.017	0.130
-304.837	-102.500	-0.286	0.069
-303.822	800.000	0.109	0.303
-302.807	357.904	0.051	-0.102
-301.793	122.902	-0.074	0.093
-300.778	800.000	0.083	-0.305
-299.764	195.193	-0.166	-0.253
-298.749	-200.000	-0.045	-0.220
-297.735	-200.000	0.044	-0.249
-296.720	-21.133	-0.244	-0.150
-295.705	-131.951	-0.195	0.026
-294.691	-200.000	-0.052	0.309
-293.676	432.845	0.042	-0.092
-292.662	-74.972	-0.422	-0.152
-291.647	-200.000	-0.078	-0.000
-290.632	800.000	0.098	0.405
-289.618	800.000	-0.069	0.286
-288.603	648.180	-0.096	0.247
-287.589	534.959	0.068	-0.162
-286.574	-200.000	0.008	0.103
-285.559	-159.669	0.123	0.007
-284.545	-42.194	0.262	0.135
-283.530	-200.000	-0.001	0.094
-282.516	-26.000	0.174	-0.103
-281.501	-7.465	0.031	0.021
-280.486	223.586	-0.050	0.081
-279.472	-99.332	-0.054	0.014
-278.457	21.646	0.178	0.145
-277.443	800.000	-0.086	-0.244
-276.428	16.324	0.169	0.134
-275.413	-200.000	-0.025	0.497
-274.399	-107.669	0.267	-0.059
-273.384	-200.000	0.185	-0.000
-272.370	-29.532	0.129	-0.074
-271.355	105.809	0.025	-0.030
-270.340	51.005	-0.290	-0.276
-269.326	-200.000	0.069	0.338
-268.311	-15.707	-0.141	-0.090
-267.297	-150.925	-0.316	-0.024
-266.282	-107.948	-0.222	0.048
-265.267	-200.000	-0.001	0.183
-264.253	239.612	-0.109	-0.183
-263.238	128.608	-0.217	0.278
-262.224	368.012	0.106	0.215
-261.209	-90.002	-0.265	-0.078
-260.195	123.108	0.186	0.234
-259.180	-129.917	0.244	-0.034
-258.165	-75.550	-0.385	0.138
-257.151	-200.000	-0.000	0.131
-256.136	47.556	0.183	-0.171
-255.122	12.750	0.176	-0.136
-254.107	208.216	-0.068	0.107
-253.092	-46.618	-0.119	0.058
-252.078	800.000	0.092	0.285
-251.063	-200.000	-0.025	0.141
-250.049	-130.370	0.276	-0.038
-249.034	-79.453	0.113	-0.039
-248.019	800.000	-0.050	0.196
-247.005	53.139	0.192	-0.185
-245.990	-154.615	0.167	-0.011
-244.976	328.829	0.067	0.130
-243.961	352.450	0.151	-0.300
-242.946	-150.346	-0.278	-0.021
-241.932	-200.000	0.032	0.200
-240.917	-22.651	-0.181	-0.110
-239.903	104.470	0.124	-0.147
-238.888	-133.671	0.182	0.023
-237.873	-94.890	0.120	-0.033
-236.859	-5.040	-0.328	-0.227
-235.844	40.061	-0.163	-0.147
-234.830	312.007	0.058	0.110
-233.815	-33.525	-0.147	-0.081
-232.800	-65.476	0.236	0.095
-231.786	-131.538	-0.255	-0.034
-230.771	131.970	0.167	-0.216
-229.757	-67.629	-0.395	-0.155
-228.742	800.000	-0.084	-0.289
-227.727	173.982	0.034	-0.049
-226.713	-200.000	0.008	-0.158
-225.698	-79.602	-0.326	-0.110
-224.684	-37.793	-0.240	-0.128
-223.669	-19.356	0.132	-0.082
-222.655	-126.986	-0.190	0.028
-221.640	800.000	0.053	-0.182
-220.625	-16.145	0.059	-0.037
-219.611	386.395	0.124	-0.256
-218.596	-10.279	-0.311	-0.207
-217.582	-136.908	0.355	0.041
-216.567	20.415	-0.262	0.212
-215.552	303.678	-0.063	0.117
-214.538	800.000	0.054	0.192
-213.523	-200.000	0.013	0.420
-212.509	-19.195	0.316	-0.197
-211.494	80.420	-0.109	0.118
-210.479	23.357	-0.028	-0.023
-209.465	66.754	0.198	0.202
-208.450	-65.396	0.202	0.082
-207.436	-143.970	0.036	0.003
-206.421	-200.000	0.020	-0.176
-205.406	-98.057	-0.361	-0.093
-204.392	621.991	0.031	0.077
-203.377	-10.804	0.447	0.297
-202.363	77.254	-0.093	-0.099
-201.348	-200.000	-0.013	-0.102
-200.333	-169.368	0.299	0.011
-199.319	73.351	-0.036	-0.038
-198.304	-97.913	0.128	-0.033
-197.290	540.770	-0.070	0.167
-196.275	-84.460	0.284	0.090
-195.260	-200.000	-0.027	0.136
-194.246	34.204	0.100	-0.088
-193.231	341.302	0.028	-0.055
-192.217	129.733	0.182	-0.233
-191.202	-68.546	-0.117	0.045
-190.187	-43.383	0.247	0.125
-189.173	-144.844	0.101	0.009
-188.158	182.982	-0.067	0.100
-187.144	18.462	-0.309	-0.247
-186.129	247.073	0.087	-0.147
-185.114	-37.697	-0.201	-0.107
-184.100	23.897	-0.035	0.029
-183.085	376.873	0.156	-0.320
-182.071	-125.852	-0.429	-0.065
-181.056	709.021	0.078	-0.207
-180.042	-26.887	0.412	0.241
-179.027	44.539	0.157	0.145
-178.012	203.545	0.208	-0.322
-176.998	-200.000	0.013	-0.289
-175.983	-108.754	0.134	0.029
-174.969	-101.642	0.228	-0.056
-173.954	-49.149	-0.147	-0.070
-172.939	-41.920	-0.253	0.130
-171.925	231.154	0.161	-0.264
-170.910	-184.076	0.360	0.006
-169.896	800.000	0.044	0.171
-168.881	313.355	0.136	-0.256
-167.866	-78.806	-0.218	0.075
-166.852	180.191	0.079	0.117
-165.837	-122.751	-0.380	-0.062
-164.823	-104.589	0.157	-0.036
-163.808	-140.766	0.077	-0.008
-162.793	-59.375	-0.143	-0.062
-161.779	-129.943	0.071	-0.010
-160.764	-109.304	0.320	-0.068
-159.750	39.758	0.145	-0.130
-158.735	32.626	-0.059	-0.051
-157.720	66.145	0.164	-0.167
-156.706	-200.000	0.076	0.335
-155.691	-88.739	-0.373	0.111
-154.677	16.585	0.041	-0.033
-153.662	800.000	-0.069	-0.240
-152.647	-200.000	-0.038	-0.287
-151.633	137.868	0.133	-0.174
-150.618	-125.964	-0.233	-0.035
-149.604	71.562	-0.197	-0.205
-148.589	661.196	0.054	-0.139
-147.574	-82.261	-0.270	0.088
-146.560	242.933	-0.102	0.172
-145.545	276.740	-0.176	0.312
-144.531	-200.000	-0.000	0.383
-143.516	439.840	-0.134	0.292
-142.502	-69.404	-0.208	-0.080
-141.487	19.242	-0.104	-0.083
-140.472	71.013	0.020	0.021
-139.458	195.524	0.137	-0.208
-138.443	-158.934	0.218	0.012
-137.429	70.196	0.341	0.353
-136.414	217.821	0.106	0.169
-135.399	-85.345	0.059	0.018
-134.385	-88.502	0.217	-0.065
-133.370	241.882	0.194	-0.324
-132.356	-11.674	0.312	-0.205
-131.341	-105.532	-0.321	-0.073
-130.326	413.430	-0.049	-0.105
-129.312	-109.755	0.224	-0.047
-128.297	-126.603	-0.424	0.063
-127.283	13.876	0.129	-0.101
-126.268	567.310	-0.124	0.300
-125.253	-82.170	0.346	-0.113
-124.239	-13.707	-0.253	0.164
-123.224	-34.856	0.384	0.210
