DTS Sentinel unit serial number:	SN413079Multiplexer serial number:	ORYXHardware model number:	OX4-SRSoftware version number:	ORYX F/W v4.00 Oryx Data Collector v3.7.2.0data status	okinstallation	princeton_trtdifferential loss correction	single-endedforward channel	channel 2reverse channel	N/Adate	2019/09/11time	03:13:10forward acquisition time	60.00reverse acquisition time	0.00gamma	496.2192k internal	0.2330k external	0.2330temperature offset calibration	0.9936default loss term (dB/km)	0.3790temperature slope calibration	1.0000multiplexer offset coefficient	1.0000multiplexer slope coefficient	1.0000fibre end	0.00T internal ref (°C)	29.34T ext. ref 1 (°C)	-0.29T ext. ref 2 (°C)	24.08length (m)	temperature (°C)	Stokes	anti-Stokes-747.200	-200.000	0.002	0.057
-746.185	-71.879	0.238	-0.089
-745.171	141.431	-0.143	-0.191
-744.156	-45.059	-0.194	-0.097
-743.142	-177.263	0.160	-0.004
-742.127	99.022	0.098	0.114
-741.112	-148.927	0.126	0.010
-740.098	101.781	0.108	0.126
-739.083	-131.933	0.269	0.035
-738.069	524.069	0.104	0.246
-737.054	-137.687	0.266	-0.030
-736.039	-153.701	-0.450	-0.031
-735.025	-59.551	0.141	0.061
-734.010	-137.947	-0.176	0.020
-732.996	-14.570	0.218	-0.141
-731.981	-200.000	0.004	-0.398
-730.966	85.176	-0.051	0.056
-729.952	-200.000	-0.029	-0.158
-728.937	-200.000	0.015	0.157
-727.923	523.873	-0.097	-0.231
-726.908	97.958	-0.141	-0.163
-725.894	800.000	0.048	-0.183
-724.879	-200.000	-0.028	-0.293
-723.864	-142.311	0.230	-0.023
-722.850	-163.455	0.047	0.002
-721.835	-200.000	0.010	-0.073
-720.821	-200.000	0.011	-0.431
-719.806	-31.143	0.296	-0.168
-718.791	-47.327	-0.281	0.137
-717.777	34.714	0.171	-0.150
-716.762	-159.545	0.286	-0.016
-715.748	331.698	0.016	-0.032
-714.733	-200.000	-0.017	-0.181
-713.718	-39.651	-0.035	-0.019
-712.704	-67.969	-0.166	0.065
-711.689	-57.794	-0.464	0.204
-710.675	-200.000	0.021	-0.173
-709.660	-200.000	0.015	-0.263
-708.645	144.617	-0.224	-0.301
-707.631	9.948	-0.534	-0.407
-706.616	800.000	-0.088	0.250
-705.602	800.000	0.185	0.529
-704.587	82.974	0.112	-0.122
-703.572	197.036	0.099	0.152
-702.558	150.063	-0.062	-0.084
-701.543	-200.000	-0.003	-0.106
-700.529	86.898	-0.154	-0.171
-699.514	-140.637	0.172	-0.018
-698.499	-200.000	-0.014	-0.100
-697.485	255.341	-0.051	-0.088
-696.470	-180.488	0.170	-0.004
-695.456	158.544	-0.210	-0.294
-694.441	-200.000	0.027	-0.316
-693.426	73.278	0.183	-0.192
-692.412	-119.485	0.237	0.041
-691.397	800.000	-0.037	-0.124
-690.383	92.040	-0.248	-0.280
-689.368	484.477	0.072	-0.164
-688.354	-200.000	-0.010	0.049
-687.339	-200.000	0.043	0.322
-686.324	-100.996	-0.400	-0.099
-685.310	212.519	-0.067	-0.106
-684.295	-105.637	0.276	-0.063
-683.281	126.252	0.153	-0.194
-682.266	48.891	-0.115	0.108
-681.251	23.826	-0.203	-0.168
-680.237	-53.978	-0.234	-0.107
-679.222	-68.614	0.122	0.048
-678.208	800.000	0.036	0.134
-677.193	128.713	-0.252	-0.323
-676.178	-200.000	-0.003	0.023
-675.164	-200.000	-0.005	0.462
-674.149	214.870	-0.201	-0.320
-673.135	800.000	-0.063	-0.183
-672.120	800.000	-0.097	0.381
-671.105	-178.862	-0.268	0.006
-670.091	-200.000	0.015	0.198
-669.076	-200.000	0.008	0.254
-668.062	-200.000	0.015	-0.157
-667.047	-117.544	-0.250	0.045
-666.032	800.000	0.093	-0.337
-665.018	36.521	-0.283	0.251
-664.003	-137.402	0.239	0.027
-662.989	-106.554	-0.418	-0.094
-661.974	136.521	0.308	-0.403
-660.959	-4.092	-0.306	-0.213
-659.945	800.000	-0.116	-0.491
-658.930	94.784	-0.293	-0.335
-657.916	97.391	0.103	0.119
-656.901	-86.021	-0.185	0.057
-655.886	498.665	0.074	-0.172
-654.872	249.824	0.118	-0.201
-653.857	37.450	0.077	0.069
-652.843	13.816	0.141	-0.110
-651.828	-114.510	0.315	-0.061
-650.814	-178.631	0.308	-0.007
-649.799	-200.000	0.014	0.153
-648.784	-1.483	0.356	0.252
-647.770	-89.176	0.197	0.058
-646.755	42.796	0.182	0.166
-645.741	746.305	-0.112	-0.302
-644.726	20.793	0.272	-0.221
-643.711	-24.960	0.212	-0.126
-642.697	-200.000	-0.052	-0.263
-641.682	-25.387	-0.254	-0.151
-640.668	-107.922	0.056	0.012
-639.653	-13.515	-0.127	-0.082
-638.638	-160.809	-0.068	0.004
-637.624	159.633	-0.077	-0.108
-636.609	-90.450	-0.256	-0.074
-635.595	463.911	-0.034	-0.077
-634.580	-0.956	-0.097	0.069
-633.565	-186.321	-0.052	0.001
-632.551	-200.000	-0.014	-0.454
-631.536	-13.973	-0.076	0.049
-630.522	310.893	0.104	0.195
-629.507	-95.587	0.239	-0.064
-628.492	-37.664	-0.126	-0.067
-627.478	-46.294	-0.346	-0.170
-626.463	242.668	0.130	-0.218
-625.449	-200.000	0.066	0.000
-624.434	800.000	0.071	-0.274
-623.419	-95.462	0.272	-0.073
-622.405	104.247	0.032	-0.038
-621.390	354.174	0.081	-0.161
-620.376	-137.834	0.257	0.029
-619.361	267.771	0.122	0.214
-618.346	-200.000	-0.076	-0.515
-617.332	-20.100	-0.378	0.233
-616.317	-109.429	-0.137	-0.029
-615.303	800.000	0.055	-0.179
-614.288	297.906	-0.053	-0.097
-613.273	-146.242	-0.116	-0.010
-612.259	16.852	0.043	0.034
-611.244	179.739	0.250	0.366
-610.230	-195.488	-0.204	0.002
-609.215	8.887	-0.403	-0.304
-608.201	-54.283	-0.206	0.094
-607.186	384.609	0.124	0.255
-606.171	-27.426	-0.171	-0.100
-605.157	800.000	0.091	-0.295
-604.142	-123.699	-0.165	-0.026
-603.128	84.276	0.046	0.051
-602.113	-200.000	-0.011	-0.071
-601.098	800.000	0.103	0.391
-600.084	292.644	-0.057	0.104
-599.069	-118.714	-0.048	0.008
-598.055	-200.000	-0.009	0.065
-597.040	-200.000	-0.041	0.198
-596.025	-102.479	0.129	-0.031
-595.011	76.671	0.039	-0.042
-593.996	-37.065	0.320	0.171
-592.982	800.000	0.059	-0.185
-591.967	800.000	-0.044	-0.169
-590.952	51.609	-0.182	-0.173
-589.938	-56.698	-0.236	-0.105
-588.923	144.557	0.237	0.317
-587.909	7.963	0.273	0.205
-586.894	110.496	0.152	-0.183
-585.879	-15.248	-0.160	-0.103
-584.865	-200.000	0.000	0.246
-583.850	-114.951	0.068	0.013
-582.836	-200.000	-0.033	0.293
-581.821	-137.441	0.233	0.026
-580.806	583.017	-0.065	0.160
-579.792	-200.000	0.038	0.245
-578.777	-58.902	0.077	0.033
-577.763	-149.131	-0.128	0.010
-576.748	587.604	-0.119	0.294
-575.733	-200.000	0.056	0.286
-574.719	-200.000	-0.002	-0.013
-573.704	-200.000	-0.014	-0.130
-572.690	-200.000	0.058	-0.283
-571.675	-70.156	-0.128	-0.049
-570.661	-67.666	-0.247	0.097
-569.646	-52.869	0.098	-0.045
-568.631	-77.283	0.061	0.021
-567.617	-200.000	-0.002	0.104
-566.602	-50.457	-0.189	-0.089
-565.588	25.323	0.226	-0.188
-564.573	800.000	-0.105	-0.336
-563.558	-1.378	0.268	0.189
-562.544	-0.378	0.203	0.144
-561.529	-200.000	0.021	0.147
-560.515	-74.281	0.120	0.043
-559.500	-200.000	0.006	-0.253
-558.485	800.000	-0.116	-0.421
-557.471	-200.000	-0.004	0.236
-556.456	-200.000	0.038	0.168
-555.442	800.000	0.049	-0.185
-554.427	800.000	0.062	-0.191
-553.412	283.425	0.121	0.216
-552.398	-32.460	-0.131	-0.073
-551.383	-148.044	-0.280	-0.023
-550.369	463.253	0.063	-0.141
-549.354	307.067	-0.190	-0.354
-548.339	-65.426	0.136	0.055
-547.325	135.099	-0.300	0.390
-546.310	40.946	-0.063	-0.057
-545.296	-200.000	0.002	0.010
-544.281	-153.889	-0.265	0.018
-543.266	63.454	-0.174	-0.174
-542.252	-144.429	-0.126	-0.012
-541.237	-112.079	0.089	0.018
-540.223	-89.509	-0.371	-0.109
-539.208	-200.000	0.019	0.486
-538.193	-200.000	0.034	-0.202
-537.179	6.951	0.242	-0.180
-536.164	39.983	0.132	0.118
-535.150	96.188	-0.135	0.154
-534.135	-18.314	0.198	0.124
-533.121	-200.000	-0.035	0.198
-532.106	174.271	-0.096	-0.139
-531.091	-71.905	-0.147	0.055
-530.077	-200.000	-0.010	-0.145
-529.062	-200.000	-0.005	0.040
-528.048	-2.920	-0.074	-0.051
-527.033	-169.390	0.242	-0.009
-526.018	-95.617	-0.307	-0.082
-525.004	-115.212	-0.338	0.064
-523.989	-140.085	0.311	0.033
-522.975	-153.062	-0.302	-0.021
-521.960	-57.458	-0.207	0.091
-520.945	-200.000	-0.019	0.246
-519.931	207.009	-0.168	0.262
-518.916	-57.644	0.148	-0.065
-517.902	800.000	0.035	0.152
-516.887	-200.000	0.008	-0.287
-515.872	260.721	0.108	-0.187
-514.858	-92.492	-0.134	0.038
-513.843	-57.774	0.145	-0.063
-512.829	800.000	-0.084	-0.265
-511.814	-48.938	-0.200	0.096
-510.799	222.271	0.215	-0.344
-509.785	219.894	-0.031	-0.050
-508.770	-49.025	0.044	0.021
-507.756	259.666	0.120	0.206
-506.741	-68.581	0.294	-0.114
-505.726	-200.000	-0.092	0.479
-504.712	102.346	0.168	0.195
-503.697	39.761	-0.110	-0.098
-502.683	79.370	0.091	0.097
-501.668	-62.626	0.220	0.091
-500.653	800.000	-0.037	0.145
-499.639	-138.970	0.233	0.025
-498.624	800.000	0.075	-0.277
-497.610	-115.862	-0.245	0.046
-496.595	-65.242	0.375	-0.150
-495.581	-64.222	0.222	-0.090
-494.566	14.220	0.125	0.097
-493.551	-200.000	0.010	-0.198
-492.537	723.739	0.143	0.380
-491.522	-200.000	0.011	0.086
-490.508	-200.000	0.009	-0.228
-489.493	83.312	-0.361	-0.392
-488.478	-103.520	0.244	-0.057
-487.464	-200.000	-0.436	0.001
-486.449	-92.835	0.112	-0.031
-485.435	800.000	-0.033	-0.113
-484.420	-86.515	0.105	0.032
-483.405	-200.000	0.024	-0.469
-482.391	-7.518	0.150	-0.101
-481.376	-22.073	0.262	0.159
-480.362	-126.348	0.049	-0.007
-479.347	-122.858	0.176	-0.028
-478.332	12.588	-0.168	-0.129
-477.318	16.646	-0.093	-0.074
-476.303	-95.240	-0.196	-0.053
-475.289	52.700	0.032	0.031
-474.274	34.223	0.217	-0.188
-473.259	800.000	0.126	-0.354
-472.245	85.734	0.075	0.083
-471.230	-119.437	0.008	-0.001
-470.216	-200.000	-0.017	0.159
-469.201	-142.819	-0.277	0.027
-468.186	10.683	0.238	-0.181
-467.172	-200.000	-0.008	0.158
-466.157	202.983	-0.176	-0.271
-465.143	41.975	0.333	0.301
-464.128	47.737	-0.175	0.163
-463.113	19.288	0.051	0.041
-462.099	138.404	0.127	0.166
-461.084	-76.739	0.172	0.060
-460.070	173.964	-0.150	-0.215
-459.055	624.912	0.053	0.133
-458.040	-119.757	-0.208	0.036
-457.026	-39.729	-0.453	0.236
-456.011	-137.369	0.193	0.022
-454.997	102.985	0.136	0.159
-453.982	-189.742	0.132	0.002
-452.968	-20.287	0.041	0.025
-451.953	-200.000	-0.001	-0.174
-450.938	-40.185	-0.076	0.039
-449.924	288.072	0.049	0.088
-448.909	-10.061	0.208	-0.138
-447.895	-118.095	-0.351	-0.062
-446.880	191.937	0.149	0.224
-445.865	-83.829	0.278	0.088
-444.851	60.651	-0.272	-0.268
-443.836	100.239	-0.295	-0.340
-442.822	287.040	0.146	-0.263
-441.807	-81.006	-0.309	0.102
-440.792	800.000	0.122	0.363
-439.778	584.663	-0.068	-0.166
-438.763	-46.509	-0.223	-0.109
-437.749	-127.153	0.162	-0.024
-436.734	98.700	0.212	0.244
-435.719	-118.394	0.232	-0.041
-434.705	-12.567	-0.132	0.085
-433.690	800.000	0.012	0.035
-432.676	-60.968	0.184	-0.077
-431.661	-61.025	-0.115	-0.048
-430.646	-200.000	-0.005	-0.127
-429.632	-156.421	0.170	0.011
-428.617	-200.000	-0.011	-0.469
-427.603	313.001	0.094	0.176
-426.588	-44.667	0.255	-0.126
-425.573	-43.510	-0.255	0.128
-424.559	-200.000	0.011	-0.196
-423.544	111.269	0.204	-0.245
-422.530	164.217	0.096	0.135
-421.515	-200.000	-0.061	-0.391
-420.500	52.611	-0.048	0.046
-419.486	-200.000	0.066	0.358
-418.471	800.000	-0.060	-0.260
-417.457	73.826	0.043	-0.044
-416.442	-200.000	-0.021	-0.212
-415.428	-4.759	-0.125	0.086
-414.413	-67.488	0.139	-0.054
-413.398	108.997	0.141	-0.167
-412.384	-25.006	0.153	-0.090
-411.369	30.358	0.162	0.137
-410.355	732.163	0.100	-0.265
-409.340	313.215	0.110	0.206
-408.325	355.774	-0.075	-0.148
-407.311	22.869	-0.126	0.103
-406.296	-81.795	0.050	-0.016
-405.282	-28.532	-0.232	0.133
-404.267	148.006	0.046	0.061
-403.252	800.000	0.080	0.339
-402.238	514.613	0.045	0.104
-401.223	-117.243	0.225	0.041
-400.209	-200.000	-0.046	-0.251
-399.194	-180.895	0.191	-0.004
-398.179	-200.000	0.012	-0.228
-397.165	-163.779	0.280	-0.013
-396.150	-26.888	-0.333	0.193
-395.136	611.964	0.100	0.249
-394.121	-29.715	-0.507	0.288
-393.106	51.098	-0.120	0.113
-392.092	49.661	0.178	-0.167
-391.077	-164.297	-0.147	0.007
-390.063	800.000	-0.049	-0.192
-389.048	-200.000	-0.057	0.251
-388.033	-200.000	0.033	0.156
-387.019	-118.746	0.226	-0.040
-386.004	160.349	-0.232	0.321
-384.990	39.591	0.272	-0.242
-383.975	46.354	0.094	0.086
-382.960	-14.866	-0.279	0.178
-381.946	67.674	-0.098	-0.100
-380.931	-89.548	-0.100	-0.029
-379.917	-165.218	0.288	0.013
-378.902	-200.000	-0.028	0.258
-377.888	430.513	-0.124	0.267
-376.873	22.094	-0.077	0.062
-375.858	-75.747	0.086	0.030
-374.844	-46.170	-0.220	0.107
-373.829	800.000	0.071	0.214
-372.815	154.479	-0.140	-0.190
-371.800	-139.325	0.253	0.027
-370.785	800.000	-0.050	-0.202
-369.771	-56.340	0.263	-0.116
-368.756	-118.530	-0.041	-0.007
-367.742	-58.383	0.194	-0.084
-366.727	-36.631	-0.148	-0.079
-365.712	103.155	0.227	0.263
-364.698	226.687	0.094	-0.151
-363.683	-200.000	0.006	0.163
-362.669	22.263	-0.200	-0.162
-361.654	800.000	-0.087	0.279
-360.639	-117.925	-0.109	0.019
-359.625	-33.558	-0.240	-0.131
-358.610	-198.246	-0.235	0.001
-357.596	457.967	-0.050	-0.110
-356.581	-30.473	0.183	-0.103
-355.566	-127.217	-0.504	0.073
-354.552	336.675	-0.113	-0.218
-353.537	-33.323	0.266	0.146
-352.523	21.495	-0.296	0.238
-351.508	-67.580	0.119	0.046
-350.493	6.418	-0.033	0.024
-349.479	800.000	0.095	-0.316
-348.464	87.447	0.159	-0.175
-347.450	370.352	-0.132	-0.265
-346.435	-145.022	-0.278	0.025
-345.420	431.444	0.017	0.037
-344.406	37.105	-0.084	-0.074
-343.391	177.823	-0.034	0.049
-342.377	800.000	-0.052	-0.220
-341.362	-107.162	-0.367	0.080
-340.348	-200.000	-0.001	-0.288
-339.333	-147.092	-0.161	-0.014
-338.318	-103.509	0.111	0.026
-337.304	-114.941	-0.102	0.019
-336.289	-194.098	0.125	-0.001
-335.275	48.617	0.253	-0.235
-334.260	45.819	-0.135	-0.124
-333.245	-200.000	-0.017	0.084
-332.231	401.503	0.136	0.283
-331.216	758.547	-0.137	0.366
-330.202	-200.000	-0.077	0.336
-329.187	800.000	0.088	-0.243
-328.172	-32.107	0.328	-0.182
-327.158	-0.245	0.155	0.109
-326.143	-200.000	0.006	-0.032
-325.129	-200.000	0.018	-0.227
-324.114	81.935	0.141	0.152
-323.099	-200.000	0.029	0.458
-322.085	800.000	-0.065	-0.207
-321.070	-200.000	0.072	-0.337
-320.056	111.861	-0.141	0.168
-319.041	579.244	0.105	0.254
-318.026	-70.562	-0.134	0.050
-317.012	-144.391	-0.261	0.024
-315.997	266.137	0.057	-0.098
-314.983	-170.248	-0.153	-0.005
-313.968	-37.239	-0.131	0.069
-312.953	-141.953	-0.260	-0.026
-311.939	661.018	0.022	0.055
-310.924	222.804	-0.150	-0.240
-309.910	161.299	-0.046	-0.064
-308.895	-200.000	0.090	0.516
-307.880	-20.123	0.349	-0.213
-306.866	-69.086	-0.289	-0.110
-305.851	290.196	0.212	0.380
-304.837	240.326	0.165	0.272
-303.822	134.408	-0.148	0.190
-302.807	-172.270	0.327	-0.010
-301.793	-39.561	-0.244	0.127
-300.778	-200.000	0.001	0.141
-299.764	-129.013	-0.213	-0.029
-298.749	-135.689	-0.257	0.030
-297.735	-200.000	0.047	-0.230
-296.720	-200.000	-0.017	0.096
-295.705	49.415	0.203	-0.189
-294.691	24.989	0.153	-0.126
-293.676	296.343	-0.102	-0.186
-292.662	209.920	-0.097	-0.150
-291.647	-80.927	0.075	-0.024
-290.632	43.325	-0.302	0.273
-289.618	-200.000	0.028	0.221
-288.603	-24.154	0.147	0.087
-287.589	-200.000	-0.004	0.390
-286.574	-200.000	0.007	-0.374
-285.559	270.438	0.078	-0.135
-284.545	-200.000	-0.021	-0.265
-283.530	19.812	0.197	-0.157
-282.516	169.420	0.114	0.161
-281.501	-200.000	0.004	-0.167
-280.486	366.378	0.103	-0.206
-279.472	800.000	0.063	0.217
-278.457	-129.365	0.278	-0.038
-277.443	81.948	0.156	0.167
-276.428	37.672	0.174	-0.153
-275.413	800.000	-0.006	-0.016
-274.399	-22.592	-0.315	0.188
-273.384	55.791	0.159	-0.152
-272.370	800.000	0.058	0.215
-271.355	-131.708	0.301	-0.039
-270.340	-159.270	-0.123	-0.007
-269.326	-127.844	-0.099	0.014
-268.311	-73.681	0.224	-0.081
-267.297	-78.656	0.214	0.072
-266.282	-139.052	0.118	-0.013
-265.267	-1.015	-0.247	0.172
-264.253	177.814	0.090	-0.129
-263.238	-18.329	-0.249	0.154
-262.224	239.358	-0.125	0.205
-261.209	-200.000	-0.047	0.253
-260.195	24.155	-0.232	-0.189
-259.180	45.278	0.068	-0.062
-258.165	-200.000	-0.042	-0.225
-257.151	341.254	0.113	0.218
-256.136	-24.352	-0.246	0.145
-255.122	800.000	-0.067	-0.215
-254.107	13.989	0.419	-0.322
-253.092	-57.820	-0.264	0.114
-252.078	51.751	-0.046	-0.043
-251.063	67.010	0.106	0.107
-250.049	-200.000	0.037	0.272
-249.034	396.645	-0.109	-0.226
-248.019	470.452	0.093	0.207
-247.005	-200.000	-0.046	-0.207
-245.990	352.962	0.072	-0.141
-244.976	71.221	0.063	-0.064
-243.961	-2.823	0.208	-0.144
-242.946	-149.481	0.010	0.001
-241.932	657.461	0.077	-0.194
-240.917	-112.769	0.195	0.038
-239.903	-39.392	0.162	0.084
-238.888	-146.956	-0.158	0.013
-237.873	146.775	0.115	-0.153
-236.859	-34.775	0.062	-0.033
-235.844	-140.091	0.157	-0.016
-234.830	-55.395	0.204	0.090
-233.815	10.417	0.099	-0.075
-232.800	-138.042	-0.290	0.032
-231.786	-13.444	-0.064	0.041
-230.771	-200.000	-0.081	-0.396
-229.757	-87.105	-0.417	0.125
-228.742	163.521	-0.087	-0.120
-227.727	-155.849	0.236	-0.015
-226.713	396.891	0.088	-0.181
-225.698	-112.347	-0.204	0.040
-224.684	-115.504	0.070	0.013
-223.669	-178.710	0.250	0.006
-222.655	-200.000	0.011	0.057
-221.640	-2.748	0.223	0.153
-220.625	800.000	-0.071	-0.288
-219.611	-38.226	-0.404	-0.211
-218.596	39.538	-0.241	0.213
-217.582	-200.000	-0.023	0.297
-216.567	-4.366	0.102	0.070
-215.552	32.241	-0.112	0.095
-214.538	241.615	0.339	0.558
-213.523	-111.419	-0.061	0.012
-212.509	24.115	-0.118	0.096
-211.494	-200.000	-0.063	-0.293
-210.479	300.189	0.303	0.551
-209.465	-200.000	0.056	0.297
-208.450	157.228	0.059	0.081
-207.436	209.067	0.108	0.167
-206.421	-200.000	-0.003	0.058
-205.406	53.125	-0.126	-0.119
-204.392	-200.000	0.003	0.214
-203.377	478.080	-0.110	0.246
-202.363	-51.536	-0.093	0.043
-201.348	-200.000	0.006	-0.046
-200.333	-200.000	0.003	-0.059
-199.319	247.169	0.128	-0.213
-198.304	-81.550	-0.401	-0.130
-197.290	628.969	0.122	0.304
-196.275	213.883	-0.024	-0.037
-195.260	66.631	0.162	0.162
-194.246	329.217	0.102	-0.193
-193.231	-106.621	-0.400	-0.088
-192.217	403.909	-0.152	0.316
-191.202	43.443	-0.077	-0.069
-190.187	-18.907	0.043	-0.027
-189.173	-73.520	-0.180	-0.065
-188.158	-200.000	0.007	-0.091
-187.144	-158.409	-0.171	-0.010
-186.129	133.273	-0.051	-0.065
-185.114	648.344	0.169	-0.425
-184.100	-133.368	-0.348	0.043
-183.085	-27.548	-0.061	-0.035
-182.071	-122.463	-0.152	-0.024
-181.056	161.960	0.041	0.056
-180.042	65.595	0.157	-0.156
-179.027	488.862	-0.091	0.204
-178.012	-200.000	-0.073	-0.388
-176.998	122.911	-0.061	-0.076
-175.983	-4.405	-0.279	-0.190
-174.969	225.985	0.158	0.252
-173.954	-200.000	-0.031	0.170
-172.939	-200.000	0.028	-0.260
-171.925	-94.257	-0.135	-0.036
-170.910	52.493	-0.351	0.330
-169.896	-200.000	-0.001	-0.247
-168.881	-200.000	-0.001	-0.180
-167.866	-110.409	0.247	0.050
-166.852	-200.000	-0.024	0.330
-165.837	-88.879	-0.203	0.059
-164.823	-174.057	0.216	0.006
-163.808	-56.393	-0.271	0.118
-162.793	538.473	0.073	0.171
-161.779	50.069	-0.046	0.043
-160.764	9.915	0.229	0.171
-159.750	107.354	0.189	0.222
-158.735	-82.161	0.270	0.087
-157.720	800.000	-0.068	0.284
-156.706	800.000	-0.099	0.269
-155.691	-6.140	-0.027	-0.018
-154.677	-200.000	0.014	-0.104
-153.662	-200.000	-0.001	-0.011
-152.647	236.290	0.271	-0.441
-151.633	-200.000	-0.011	-0.057
-150.618	45.254	-0.103	-0.094
-149.604	-157.075	0.106	-0.006
-148.589	604.465	0.093	0.227
-147.574	-127.845	-0.223	0.032
-146.560	-79.147	0.107	-0.036
-145.545	16.173	-0.059	-0.046
-144.531	-23.974	-0.136	-0.080
-143.516	39.112	0.177	0.155
-142.502	800.000	-0.140	0.432
-141.487	27.663	-0.327	0.270
-140.472	-78.459	-0.243	-0.082
-139.458	-133.655	0.086	-0.011
-138.443	697.685	0.059	0.152
-137.429	-116.520	-0.156	0.028
-136.414	88.403	0.073	-0.080
-135.399	800.000	0.154	-0.599
-134.385	-39.979	-0.181	-0.093
-133.370	381.084	-0.056	0.112
-132.356	800.000	0.044	0.178
-131.341	-112.756	0.127	-0.025
-130.326	-72.248	0.079	-0.029
-129.312	-50.817	-0.172	-0.079
-128.297	128.195	0.233	0.292
-127.283	-60.325	0.410	0.171
-126.268	201.832	-0.058	0.088
-125.253	-200.000	0.037	-0.362
-124.239	-158.787	0.222	0.012
-123.224	800.000	-0.079	0.266
-122.210	-200.000	0.037	0.276
