DTS Sentinel unit serial number:	SN413079Multiplexer serial number:	ORYXHardware model number:	OX4-SRSoftware version number:	ORYX F/W v4.00 Oryx Data Collector v3.7.2.0data status	okinstallation	princeton_trtdifferential loss correction	single-endedforward channel	channel 2reverse channel	N/Adate	2019/09/11time	07:01:11forward acquisition time	60.00reverse acquisition time	0.00gamma	496.2192k internal	0.2327k external	0.2327temperature offset calibration	0.9939default loss term (dB/km)	0.3790temperature slope calibration	1.0000multiplexer offset coefficient	1.0000multiplexer slope coefficient	1.0000fibre end	0.00T internal ref (°C)	30.16T ext. ref 1 (°C)	-0.10T ext. ref 2 (°C)	25.96length (m)	temperature (°C)	Stokes	anti-Stokes-747.200	-30.134	-0.157	0.090
-746.185	-29.708	0.154	0.088
-745.171	-200.000	-0.027	-0.570
-744.156	141.721	-0.192	0.257
-743.142	-109.853	0.500	-0.106
-742.127	-4.911	-0.340	0.236
-741.112	800.000	0.035	-0.111
-740.098	191.604	-0.122	0.185
-739.083	-180.973	0.036	-0.001
-738.069	0.541	-0.146	0.105
-737.054	-126.261	0.098	-0.015
-736.039	141.937	-0.082	0.110
-735.025	-66.412	-0.231	-0.093
-734.010	800.000	-0.056	0.183
-732.996	-118.601	-0.324	-0.058
-731.981	35.782	-0.133	-0.118
-730.966	55.875	-0.080	0.078
-729.952	-200.000	0.002	-0.113
-728.937	-200.000	-0.010	0.270
-727.923	800.000	0.048	-0.180
-726.908	405.956	-0.044	0.093
-725.894	694.642	0.083	-0.218
-724.879	-186.008	-0.320	0.005
-723.864	234.016	0.066	0.110
-722.850	800.000	0.091	-0.265
-721.835	800.000	0.115	-0.354
-720.821	246.342	-0.165	0.281
-719.806	-200.000	0.012	0.190
-718.791	-142.349	-0.119	0.012
-717.777	26.549	-0.194	-0.164
-716.762	118.446	-0.024	0.029
-715.748	-43.714	0.320	-0.163
-714.733	-34.722	0.249	-0.137
-713.718	184.001	-0.094	-0.140
-712.704	-27.219	-0.305	-0.179
-711.689	-200.000	0.028	-0.163
-710.675	-96.510	0.197	0.052
-709.660	117.588	0.199	0.246
-708.645	-121.216	-0.303	-0.051
-707.631	69.273	-0.049	-0.051
-706.616	1.176	0.238	-0.172
-705.602	-144.273	-0.330	-0.031
-704.587	-3.754	-0.110	0.077
-703.572	13.949	0.140	-0.110
-702.558	-200.000	0.040	0.342
-701.543	-171.090	-0.112	-0.004
-700.529	420.333	0.168	-0.361
-699.514	-124.044	0.299	0.047
-698.499	-16.174	0.104	-0.067
-697.485	-125.029	0.081	-0.013
-696.470	-142.893	-0.411	-0.040
-695.456	-92.598	0.421	-0.119
-694.441	124.611	0.006	-0.007
-693.426	-131.316	-0.274	-0.037
-692.412	-200.000	-0.030	0.190
-691.397	-200.000	-0.011	0.473
-690.383	-16.460	0.250	0.159
-689.368	-11.275	-0.104	0.069
-688.354	800.000	0.038	0.132
-687.339	156.640	0.147	-0.205
-686.324	-91.368	0.133	-0.038
-685.310	800.000	-0.023	-0.082
-684.295	114.627	0.231	0.284
-683.281	149.258	-0.107	-0.145
-682.266	2.908	0.311	-0.227
-681.251	-147.946	-0.110	0.009
-680.237	-0.079	-0.247	0.177
-679.222	398.337	-0.053	0.111
-678.208	96.301	0.151	0.174
-677.193	-95.450	0.297	-0.080
-676.178	-93.891	-0.157	0.043
-675.164	-200.000	0.025	-0.224
-674.149	414.774	-0.013	0.028
-673.135	-186.256	0.171	-0.002
-672.120	-200.000	0.029	0.143
-671.105	0.647	-0.264	0.190
-670.091	303.047	0.127	0.237
-669.076	778.012	-0.107	0.293
-668.062	229.326	0.119	-0.195
-667.047	-200.000	-0.016	-0.268
-666.032	-68.861	0.203	0.079
-665.018	54.562	0.247	0.239
-664.003	-134.459	-0.209	0.026
-662.989	116.125	0.082	-0.101
-661.974	1.977	-0.051	0.037
-660.959	137.494	-0.047	0.061
-659.945	-39.082	-0.119	0.063
-658.930	-154.527	-0.223	-0.015
-657.916	-140.174	-0.217	0.023
-656.901	301.660	0.074	-0.137
-655.886	-144.182	0.186	0.018
-654.872	99.812	-0.188	-0.219
-653.857	7.460	-0.172	0.129
-652.843	-51.709	0.048	0.023
-651.828	525.240	-0.042	-0.100
-650.814	-102.850	0.190	-0.045
-649.799	-200.000	-0.120	-0.000
-648.784	246.360	-0.047	-0.080
-647.770	-94.982	-0.224	0.061
-646.755	-2.949	-0.150	0.105
-645.741	-118.877	-0.163	-0.029
-644.726	-21.423	-0.426	-0.261
-643.711	-45.615	-0.134	-0.066
-642.697	-180.121	0.138	-0.003
-641.682	-48.427	-0.024	0.012
-640.668	-200.000	-0.048	0.230
-639.653	-128.193	-0.235	0.034
-638.638	539.807	-0.104	0.248
-637.624	-66.721	0.092	-0.036
-636.609	732.130	-0.066	0.178
-635.595	210.400	0.048	0.076
-634.580	404.072	0.113	-0.238
-633.565	145.940	-0.095	0.128
-632.551	347.684	-0.054	-0.107
-631.536	13.829	-0.243	0.190
-630.522	341.926	0.016	0.031
-629.507	-72.592	-0.082	-0.030
-628.492	-31.328	0.281	-0.159
-627.478	245.053	0.097	0.163
-626.463	-88.271	-0.306	0.092
-625.449	-200.000	0.005	-0.159
-624.434	731.644	0.052	-0.140
-623.419	319.432	-0.142	0.270
-622.405	282.089	0.157	0.283
-621.390	30.493	-0.037	0.032
-620.376	570.364	-0.039	-0.096
-619.361	29.732	0.250	-0.214
-618.346	800.000	0.032	0.128
-617.332	800.000	0.034	-0.134
-616.317	63.212	-0.297	-0.298
-615.303	-112.232	0.148	0.030
-614.288	-200.000	-0.020	-0.232
-613.273	-65.741	-0.089	-0.036
-612.259	43.976	-0.074	-0.068
-611.244	-200.000	0.036	-0.234
-610.230	-27.079	0.163	-0.095
-609.215	239.234	-0.065	0.109
-608.201	-97.096	-0.117	0.031
-607.186	800.000	0.051	-0.176
-606.171	59.355	0.312	-0.308
-605.157	-200.000	-0.022	-0.199
-604.142	121.422	0.026	0.033
-603.128	-67.164	0.145	-0.057
-602.113	-90.874	0.031	-0.009
-601.098	11.393	-0.080	0.062
-600.084	800.000	0.108	0.439
-599.069	31.307	0.200	-0.172
-598.055	-95.816	0.105	0.028
-597.040	-9.533	-0.203	-0.136
-596.025	-200.000	-0.044	0.273
-595.011	-169.480	0.182	0.007
-593.996	-12.299	-0.072	-0.047
-592.982	494.899	-0.071	-0.163
-591.967	210.233	-0.164	-0.258
-590.952	-38.481	0.253	0.134
-589.938	-124.535	0.163	0.025
-588.923	259.025	0.164	-0.283
-587.909	-92.839	-0.222	-0.062
-586.894	483.104	0.020	-0.044
-585.879	800.000	-0.091	-0.380
-584.865	-200.000	0.014	-0.111
-583.850	-60.643	-0.233	-0.099
-582.836	-66.224	0.039	0.016
-581.821	4.368	-0.114	0.084
-580.806	-118.756	0.162	-0.029
-579.792	-142.056	-0.429	0.043
-578.777	-200.000	0.050	-0.349
-577.763	-6.160	0.161	-0.110
-576.748	130.608	0.155	-0.199
-575.733	-179.766	0.143	-0.003
-574.719	149.370	0.042	-0.057
-573.704	200.900	-0.029	-0.044
-572.690	800.000	-0.024	-0.084
-571.675	-11.903	-0.365	-0.240
-570.661	-2.995	-0.036	0.025
-569.646	-112.065	-0.211	0.042
-568.631	-200.000	-0.004	-0.253
-567.617	91.430	-0.187	-0.211
-566.602	122.085	-0.130	-0.163
-565.588	-114.935	0.425	-0.081
-564.573	99.036	-0.032	0.037
-563.558	295.342	0.151	0.276
-562.544	469.992	0.175	0.394
-561.529	-200.000	-0.001	0.122
-560.515	429.875	0.167	-0.362
-559.500	-35.662	0.072	0.039
-558.485	-35.716	-0.339	0.184
-557.471	-16.867	-0.160	0.101
-556.456	-52.451	0.338	-0.156
-555.442	291.002	-0.232	-0.422
-554.427	137.246	0.145	-0.189
-553.412	-64.653	0.400	-0.162
-552.398	-145.390	-0.159	-0.014
-551.383	106.630	-0.294	-0.349
-550.369	123.145	-0.047	0.059
-549.354	-29.641	-0.074	0.042
-548.339	-23.269	-0.068	0.041
-547.325	-68.626	0.187	-0.072
-546.310	-103.413	-0.106	0.025
-545.296	214.668	-0.013	0.020
-544.281	452.395	-0.060	0.134
-543.266	-92.181	-0.257	0.073
-542.252	-15.416	0.107	0.068
-541.237	-75.815	0.194	-0.069
-540.223	-200.000	0.008	-0.358
-539.208	683.527	-0.029	-0.076
-538.193	-200.000	0.016	-0.157
-537.179	-73.755	0.140	0.051
-536.164	-36.935	-0.190	0.102
-535.150	-200.000	-0.034	-0.367
-534.135	33.882	-0.258	0.225
-533.121	248.222	0.127	-0.215
-532.106	-81.878	-0.183	-0.060
-531.091	-139.277	-0.071	0.008
-530.077	-43.403	-0.260	-0.131
-529.062	-55.085	0.175	-0.079
-528.048	-200.000	-0.015	-0.197
-527.033	277.904	-0.042	0.075
-526.018	449.155	-0.171	-0.378
-525.004	589.504	0.111	-0.274
-523.989	173.188	0.108	-0.156
-522.975	-200.000	0.019	-0.104
-521.960	-200.000	-0.013	-0.121
-520.945	-58.634	0.148	-0.064
-519.931	-44.352	0.156	-0.078
-518.916	-21.937	-0.334	-0.203
-517.902	800.000	-0.070	-0.268
-516.887	800.000	0.088	0.273
-515.872	-116.295	-0.148	-0.027
-514.858	-31.439	0.355	-0.199
-513.843	-68.272	0.094	-0.037
-512.829	-99.870	0.176	-0.044
-511.814	-200.000	0.025	-0.308
-510.799	-200.000	-0.039	0.299
-509.785	800.000	0.065	0.246
-508.770	281.501	0.090	-0.162
-507.756	306.560	-0.105	0.196
-506.741	351.469	0.036	-0.070
-505.726	-200.000	-0.026	-0.319
-504.712	-106.596	0.279	-0.062
-503.697	576.233	0.049	0.119
-502.683	-63.033	-0.447	-0.184
-501.668	-151.706	0.385	-0.028
-500.653	480.254	-0.069	-0.157
-499.639	800.000	0.080	0.225
-498.624	123.706	-0.146	-0.183
-497.610	-200.000	0.056	-0.289
-496.595	-37.348	-0.130	-0.069
-495.581	-74.017	0.064	0.023
-494.566	-200.000	0.104	0.467
-493.551	-83.214	-0.244	-0.078
-492.537	-152.536	-0.195	0.014
-491.522	86.885	-0.111	-0.122
-490.508	615.274	-0.057	0.144
-489.493	166.462	-0.116	0.165
-488.478	305.364	0.035	0.064
-487.464	800.000	-0.035	-0.136
-486.449	-200.000	-0.030	-0.257
-485.435	-156.898	-0.232	-0.014
-484.420	644.765	-0.120	-0.305
-483.405	-200.000	-0.039	0.277
-482.391	284.474	-0.091	0.163
-481.376	105.033	0.169	-0.199
-480.362	-54.151	0.087	0.040
-479.347	176.106	0.222	0.321
-478.332	517.952	-0.121	0.284
-477.318	800.000	-0.061	-0.207
-476.303	444.362	0.141	-0.310
-475.289	-200.000	-0.006	0.043
-474.274	-200.000	-0.012	0.199
-473.259	-200.000	0.036	0.233
-472.245	-200.000	-0.005	-0.022
-471.230	-83.823	0.137	0.043
-470.216	529.265	-0.132	-0.311
-469.201	-196.689	0.178	-0.001
-468.186	-81.740	0.187	-0.061
-467.172	-200.000	0.018	-0.357
-466.157	117.181	-0.036	0.045
-465.143	-200.000	-0.015	-0.145
-464.128	68.651	-0.063	-0.064
-463.113	692.531	-0.101	0.263
-462.099	-14.430	0.029	0.019
-461.084	-24.881	0.142	0.084
-460.070	114.868	0.062	-0.075
-459.055	-149.602	0.143	0.011
-458.040	572.184	-0.145	0.353
-457.026	800.000	-0.015	0.060
-456.011	171.262	-0.042	-0.060
-454.997	-51.332	0.300	-0.140
-453.982	-141.735	0.453	-0.045
-452.968	158.675	0.135	-0.187
-451.953	414.964	-0.015	0.031
-450.938	-200.000	0.008	0.510
-449.924	800.000	-0.051	0.143
-448.909	-45.080	-0.075	0.037
-447.895	-29.982	-0.349	-0.198
-446.880	150.752	-0.072	0.097
-445.865	-39.253	-0.176	0.092
-444.851	3.158	-0.057	-0.042
-443.836	-106.879	-0.160	-0.035
-442.822	218.929	0.047	-0.075
-441.807	-88.450	-0.145	0.043
-440.792	800.000	0.099	0.276
-439.778	800.000	0.052	0.157
-438.763	-137.059	0.422	-0.048
-437.749	-104.326	-0.031	-0.007
-436.734	-66.764	-0.148	0.058
-435.719	-200.000	0.017	0.151
-434.705	240.379	0.162	-0.270
-433.690	231.465	0.117	0.191
-432.676	-65.204	0.228	0.092
-431.661	-65.288	0.207	0.083
-430.646	-200.000	-0.012	0.099
-429.632	238.648	0.042	-0.070
-428.617	-156.804	0.058	0.004
-427.603	-181.651	0.217	0.004
-426.588	129.946	0.133	-0.170
-425.573	79.130	-0.122	-0.130
-424.559	-5.739	0.254	0.173
-423.544	800.000	-0.141	0.406
-422.530	-114.338	-0.210	-0.040
-421.515	-47.439	0.283	0.137
-420.500	554.513	-0.134	0.321
-419.486	-110.703	0.200	-0.041
-418.471	-78.322	0.026	0.009
-417.457	-43.904	-0.268	-0.134
-416.442	156.835	-0.099	0.137
-415.428	86.848	0.369	0.405
-414.413	358.136	-0.146	0.290
-413.398	800.000	-0.068	0.194
-412.384	259.391	-0.111	-0.191
-411.369	-200.000	0.009	-0.049
-410.355	800.000	-0.023	-0.069
-409.340	40.592	-0.073	0.065
-408.325	-200.000	0.004	-0.077
-407.311	85.059	0.156	0.171
-406.296	278.474	-0.095	-0.168
-405.282	-130.865	-0.012	-0.002
-404.267	44.957	-0.135	0.124
-403.252	107.491	0.103	-0.122
-402.238	491.374	-0.063	-0.143
-401.223	-200.000	-0.018	-0.302
-400.209	128.901	0.138	0.175
-399.194	800.000	-0.058	-0.159
-398.179	-5.442	-0.273	0.186
-397.165	-111.542	-0.536	-0.108
-396.150	171.191	0.117	-0.167
-395.136	-89.247	0.310	-0.091
-394.121	13.875	0.243	0.188
-393.106	-200.000	-0.083	0.376
-392.092	-200.000	0.006	0.101
-391.077	210.859	0.033	-0.052
-390.063	181.641	0.142	0.207
-389.048	-200.000	0.067	0.311
-388.033	-47.847	-0.239	-0.115
-387.019	-13.622	-0.116	-0.075
-386.004	287.538	-0.097	0.175
-384.990	-200.000	0.009	-0.393
-383.975	-200.000	-0.017	0.091
-382.960	-84.209	0.275	0.087
-381.946	-45.927	0.138	0.067
-380.931	343.891	0.043	0.084
-379.917	5.217	-0.264	0.193
-378.902	-200.000	-0.032	-0.182
-377.888	-120.040	-0.229	-0.039
-376.873	-71.246	0.289	0.108
-375.858	-108.952	0.217	-0.046
-374.844	-54.096	-0.164	-0.074
-373.829	426.302	-0.120	-0.258
-372.815	118.483	0.151	-0.185
-371.800	53.806	0.084	0.080
-370.785	-146.699	0.402	0.035
-369.771	-11.572	0.235	0.153
-368.756	-200.000	0.016	0.324
-367.742	223.527	0.156	0.250
-366.727	-15.953	0.115	-0.072
-365.712	-200.000	0.044	0.329
-364.698	-200.000	-0.015	-0.180
-363.683	-71.280	-0.410	0.153
-362.669	91.932	0.101	-0.113
-361.654	800.000	-0.080	0.319
-360.639	-169.727	-0.030	0.001
-359.625	190.375	-0.110	0.164
-358.610	-49.747	0.076	0.036
-357.596	98.912	0.053	-0.061
-356.581	17.641	0.088	-0.070
-355.566	-77.604	-0.156	-0.054
-354.552	-147.234	0.136	-0.012
-353.537	-20.501	0.243	-0.148
-352.523	117.467	0.113	-0.138
-351.508	-131.438	-0.068	-0.009
-350.493	10.150	0.190	0.144
-349.479	80.252	-0.125	0.134
-348.464	121.327	-0.147	-0.181
-347.450	-21.187	-0.094	0.057
-346.435	-200.000	0.043	0.397
-345.420	211.098	0.162	0.252
-344.406	480.351	-0.166	0.374
-343.391	800.000	-0.023	-0.075
-342.377	373.069	-0.190	-0.383
-341.362	-99.231	0.213	0.054
-340.348	-100.589	0.186	0.046
-339.333	175.693	-0.046	0.067
-338.318	-67.310	0.079	0.031
-337.304	128.778	-0.276	0.349
-336.289	-14.983	-0.099	-0.063
-335.275	143.146	-0.091	-0.120
-334.260	87.828	-0.175	-0.193
-333.245	-40.672	-0.065	-0.034
-332.231	85.002	-0.123	-0.134
-331.216	-94.662	0.308	-0.083
-330.202	-87.529	-0.112	0.034
-329.187	-200.000	0.080	0.456
-328.172	-79.438	0.292	0.098
-327.158	344.333	-0.098	-0.190
-326.143	57.003	-0.129	0.124
-325.129	800.000	-0.057	-0.217
-324.114	529.824	0.188	0.440
-323.099	-59.932	-0.280	0.119
-322.085	-200.000	0.029	-0.411
-321.070	93.136	0.084	-0.094
-320.056	-46.244	0.144	0.070
-319.041	-62.493	-0.252	0.104
-318.026	-44.471	-0.312	-0.155
-317.012	29.645	0.219	0.185
-315.997	800.000	-0.038	0.133
-314.983	-200.000	-0.056	-0.447
-313.968	-36.048	-0.151	-0.081
-312.953	-104.505	-0.151	-0.035
-311.939	800.000	-0.030	0.113
-310.924	800.000	-0.108	0.384
-309.910	-13.386	0.164	0.105
-308.895	-200.000	-0.052	0.278
-307.880	-200.000	0.046	-0.276
-306.866	800.000	0.119	-0.443
-305.851	-56.317	0.186	-0.082
-304.837	8.358	-0.083	-0.062
-303.822	-2.943	-0.153	0.106
-302.807	369.462	-0.033	0.067
-301.793	111.332	0.203	-0.242
-300.778	-200.000	0.002	0.108
-299.764	622.989	-0.123	0.307
-298.749	198.527	0.114	0.174
-297.735	-64.250	0.258	-0.104
-296.720	49.537	-0.285	-0.266
-295.705	60.174	0.166	0.163
-294.691	651.245	0.050	0.128
-293.676	236.623	0.081	0.132
-292.662	98.849	0.152	-0.174
-291.647	612.626	-0.122	-0.303
-290.632	27.902	-0.398	-0.333
-289.618	-187.468	-0.125	0.002
-288.603	-79.886	0.084	0.028
-287.589	-200.000	-0.027	0.203
-286.574	30.616	0.137	0.116
-285.559	352.103	0.072	-0.141
-284.545	-200.000	0.021	0.220
-283.530	113.666	-0.142	-0.171
-282.516	-46.937	-0.061	-0.030
-281.501	93.945	-0.093	-0.104
-280.486	335.032	0.126	-0.243
-279.472	-9.899	0.098	-0.064
-278.457	77.342	-0.086	-0.090
-277.443	311.046	-0.007	0.013
-276.428	-22.162	0.083	-0.050
-275.413	-122.706	0.178	-0.029
-274.399	-200.000	-0.016	-0.143
-273.384	672.858	0.027	-0.069
-272.370	-120.435	-0.177	-0.030
-271.355	296.839	0.137	0.249
-270.340	-129.670	0.282	0.039
-269.326	88.643	-0.054	0.059
-268.311	143.612	-0.123	-0.163
-267.297	385.859	-0.191	0.390
-266.282	93.673	0.200	-0.224
-265.267	-25.384	-0.108	0.063
-264.253	230.819	-0.025	0.040
-263.238	-84.721	-0.174	0.054
-262.224	-116.772	0.187	0.034
-261.209	-108.089	0.413	-0.089
-260.195	291.928	-0.062	-0.113
-259.180	-49.162	-0.372	0.176
-258.165	-97.319	0.097	0.025
-257.151	-132.061	0.132	-0.017
-256.136	253.723	0.071	-0.120
-255.122	-200.000	0.004	0.090
-254.107	-200.000	0.009	0.189
-253.092	-55.387	-0.045	-0.020
-252.078	112.841	0.300	0.360
-251.063	-200.000	0.001	-0.011
-250.049	-93.453	-0.167	0.046
-249.034	224.289	0.125	0.200
-248.019	771.034	-0.033	0.090
-247.005	322.742	0.060	0.113
-245.990	-182.410	0.284	-0.005
-244.976	800.000	-0.010	-0.040
-243.961	-96.140	-0.123	0.032
-242.946	118.996	-0.155	-0.190
-241.932	800.000	-0.059	0.221
-240.917	-200.000	0.014	-0.099
-239.903	70.483	-0.078	0.080
-238.888	-200.000	0.125	-0.000
-237.873	35.283	-0.156	-0.135
-236.859	800.000	-0.083	0.241
-235.844	122.372	-0.136	0.168
-234.830	173.239	-0.103	0.147
-233.815	-93.660	0.234	-0.064
-232.800	91.174	-0.045	-0.049
-231.786	265.477	-0.146	0.251
-230.771	800.000	0.027	0.110
-229.757	800.000	0.100	-0.314
-228.742	800.000	0.049	0.145
-227.727	266.851	-0.212	-0.367
-226.713	562.560	0.051	-0.123
-225.698	-88.872	0.083	0.024
-224.684	518.721	-0.109	0.251
-223.669	-136.109	-0.239	-0.028
-222.655	-200.000	0.037	0.234
-221.640	59.280	-0.188	0.183
-220.625	46.804	-0.297	0.273
-219.611	800.000	0.051	-0.211
-218.596	-15.193	-0.048	-0.030
-217.582	-200.000	-0.001	0.184
-216.567	-170.673	-0.027	0.001
-215.552	-104.702	0.207	-0.047
-214.538	-90.045	-0.131	0.038
-213.523	-18.172	0.472	-0.292
-212.509	-200.000	0.008	-0.210
-211.494	-123.347	0.182	0.029
-210.479	800.000	0.054	0.192
-209.465	-146.222	-0.063	-0.005
-208.450	245.446	-0.080	0.133
-207.436	157.291	0.146	0.199
-206.421	800.000	-0.069	0.258
-205.406	331.153	-0.033	-0.063
-204.392	-200.000	-0.043	0.198
-203.377	-200.000	0.026	0.214
-202.363	-200.000	-0.009	-0.200
-201.348	527.974	-0.115	-0.267
-200.333	-114.891	0.312	0.059
-199.319	29.274	-0.189	0.159
-198.304	-94.582	0.080	-0.021
-197.290	219.528	-0.181	0.286
-196.275	-200.000	0.001	-0.376
-195.260	271.027	0.133	-0.232
-194.246	-200.000	-0.060	0.271
-193.231	-157.725	-0.136	-0.008
-192.217	-200.000	-0.008	-0.285
-191.202	-34.872	-0.216	-0.116
-190.187	800.000	-0.068	-0.191
-189.173	-62.683	0.142	-0.058
-188.158	-200.000	0.003	0.245
-187.144	800.000	0.094	0.260
-186.129	561.093	0.082	0.196
-185.114	-200.000	-0.010	0.541
-184.100	-124.827	-0.315	0.048
-183.085	-48.391	0.080	0.038
-182.071	-59.601	-0.087	-0.037
-181.056	191.392	0.099	-0.148
-180.042	-46.307	-0.109	-0.053
-179.027	276.595	0.101	-0.177
-178.012	-37.643	-0.235	-0.123
-176.998	285.092	-0.094	0.167
-175.983	-200.000	0.066	-0.356
-174.969	-23.893	-0.138	0.081
-173.954	-200.000	0.027	-0.192
-172.939	-70.449	0.202	0.075
-171.925	-94.921	0.154	-0.041
-170.910	-55.252	0.231	0.102
-169.896	75.652	-0.205	0.214
-168.881	-1.249	0.109	0.076
-167.866	-146.719	0.287	0.025
-166.852	-56.766	0.177	-0.077
-165.837	-103.414	-0.075	0.017
-164.823	-200.000	-0.016	-0.153
-163.808	800.000	0.087	0.260
-162.793	309.501	0.109	-0.200
-161.779	-119.131	0.227	0.039
-160.764	93.932	-0.186	-0.208
-159.750	1.823	0.233	0.166
-158.735	-87.918	-0.142	0.042
-157.720	191.713	0.023	-0.033
-156.706	-55.337	-0.447	0.198
-155.691	-200.000	0.008	0.291
-154.677	-61.607	0.114	0.047
-153.662	343.694	0.050	-0.097
-152.647	-76.292	0.088	0.030
-151.633	-200.000	-0.004	0.219
-150.618	-171.225	0.067	0.002
-149.604	285.999	0.027	0.047
-148.589	73.736	-0.090	0.093
-147.574	-200.000	-0.022	0.295
-146.560	-49.803	-0.324	0.152
-145.545	100.087	0.211	-0.241
-144.531	95.949	0.030	0.034
-143.516	800.000	0.068	0.274
-142.502	-129.129	0.083	0.011
-141.487	-6.008	0.222	-0.150
-140.472	-200.000	-0.031	0.372
-139.458	112.246	-0.276	-0.329
-138.443	18.945	-0.148	-0.117
-137.429	-57.796	0.141	-0.061
-136.414	-51.138	-0.107	-0.049
-135.399	800.000	0.102	-0.291
-134.385	-200.000	-0.051	0.323
-133.370	49.973	-0.251	0.233
-132.356	-175.078	0.271	-0.007
-131.341	312.493	-0.053	-0.098
-130.326	-16.622	-0.082	0.051
-129.312	614.293	-0.070	0.171
-128.297	-200.000	-0.002	0.082
-127.283	342.017	-0.142	-0.274
-126.268	-16.799	-0.203	-0.126
-125.253	-47.416	0.322	0.154
-124.239	209.960	-0.139	-0.214
-123.224	149.454	0.212	-0.282
-122.210	149.921	0.066	0.088
