DTS Sentinel unit serial number:	SN413079Multiplexer serial number:	ORYXHardware model number:	OX4-SRSoftware version number:	ORYX F/W v4.00 Oryx Data Collector v3.7.2.0data status	okinstallation	princeton_trtdifferential loss correction	single-endedforward channel	channel 2reverse channel	N/Adate	2019/09/11time	08:57:11forward acquisition time	60.00reverse acquisition time	0.00gamma	496.2192k internal	0.2318k external	0.2318temperature offset calibration	0.9967default loss term (dB/km)	0.3790temperature slope calibration	1.0000multiplexer offset coefficient	1.0000multiplexer slope coefficient	1.0000fibre end	0.00T internal ref (°C)	34.00T ext. ref 1 (°C)	0.08T ext. ref 2 (°C)	30.50length (m)	temperature (°C)	Stokes	anti-Stokes-747.200	199.875	0.186	-0.288
-746.185	-47.952	-0.087	0.043
-745.171	800.000	0.081	-0.280
-744.156	-200.000	-0.002	0.294
-743.142	-87.394	-0.188	0.058
-742.127	-200.000	0.037	0.235
-741.112	485.677	0.153	-0.353
-740.098	-200.000	-0.003	0.188
-739.083	-61.968	0.111	-0.047
-738.069	-45.713	-0.299	-0.150
-737.054	800.000	-0.096	-0.379
-736.039	-3.986	-0.090	0.063
-735.025	684.645	-0.045	-0.118
-734.010	-119.234	0.313	-0.055
-732.996	56.812	-0.198	-0.195
-731.981	-87.117	-0.501	-0.154
-730.966	98.447	-0.182	-0.212
-729.952	-41.016	-0.213	-0.111
-728.937	800.000	0.099	0.290
-727.923	369.021	-0.054	-0.111
-726.908	-41.838	-0.133	-0.069
-725.894	-163.172	-0.205	0.010
-724.879	-5.496	0.140	-0.097
-723.864	191.548	-0.135	-0.206
-722.850	-200.000	-0.000	0.097
-721.835	29.199	0.126	-0.108
-720.821	-200.000	0.010	-0.138
-719.806	800.000	0.063	-0.195
-718.791	800.000	0.078	-0.217
-717.777	-119.426	0.106	-0.019
-716.762	-200.000	0.003	0.033
-715.748	37.263	0.125	-0.112
-714.733	-63.662	-0.298	0.124
-713.718	252.859	0.058	-0.101
-712.704	-20.537	-0.284	-0.176
-711.689	18.382	-0.146	-0.118
-710.675	-126.365	-0.135	-0.020
-709.660	-200.000	0.012	-0.136
-708.645	58.281	0.135	-0.133
-707.631	-77.888	-0.211	0.074
-706.616	-200.000	0.015	-0.347
-705.602	34.482	-0.128	0.113
-704.587	439.717	0.075	-0.166
-703.572	-108.198	-0.060	-0.013
-702.558	389.730	-0.051	0.107
-701.543	-61.440	0.153	0.065
-700.529	71.392	-0.195	0.205
-699.514	-58.376	0.210	-0.092
-698.499	-200.000	-0.040	-0.188
-697.485	692.203	-0.058	0.155
-696.470	106.439	0.237	0.284
-695.456	800.000	-0.070	0.265
-694.441	-136.425	-0.274	0.032
-693.426	-22.963	0.083	-0.051
-692.412	33.193	-0.142	0.125
-691.397	-200.000	-0.020	0.271
-690.383	-167.039	0.162	0.007
-689.368	738.674	0.105	0.285
-688.354	58.268	-0.193	0.191
-687.339	230.400	0.152	0.251
-686.324	800.000	-0.013	-0.037
-685.310	96.069	-0.339	-0.392
-684.295	27.168	0.245	-0.207
-683.281	800.000	0.060	0.208
-682.266	-88.905	-0.346	0.104
-681.251	-7.993	-0.169	0.115
-680.237	692.362	-0.099	-0.263
-679.222	77.177	-0.144	0.154
-678.208	635.837	-0.155	-0.396
-677.193	-176.819	0.591	0.015
-676.178	-42.892	-0.208	-0.107
-675.164	-108.546	-0.380	-0.082
-674.149	-200.000	0.049	-0.252
-673.135	14.070	0.365	-0.287
-672.120	-82.951	0.190	-0.062
-671.105	192.013	-0.053	-0.081
-670.091	800.000	0.070	0.300
-669.076	-96.491	0.253	-0.067
-668.062	69.919	-0.070	-0.073
-667.047	800.000	-0.063	-0.235
-666.032	-91.649	0.143	-0.041
-665.018	45.280	-0.232	-0.216
-664.003	172.217	-0.248	-0.359
-662.989	-200.000	0.007	0.340
-661.974	-42.523	0.094	-0.048
-660.959	12.941	0.142	0.111
-659.945	800.000	0.069	0.215
-658.930	-118.790	-0.310	0.055
-657.916	68.751	0.137	-0.142
-656.901	-91.067	-0.266	-0.077
-655.886	270.745	0.107	0.189
-654.872	148.311	0.206	-0.281
-653.857	52.084	-0.144	0.138
-652.843	-113.125	-0.207	0.041
-651.828	459.117	-0.018	-0.040
-650.814	-148.246	-0.160	-0.013
-649.799	-101.620	0.201	-0.049
-648.784	-200.000	-0.006	0.429
-647.770	-10.136	0.228	0.153
-646.755	-115.479	0.215	-0.041
-645.741	-200.000	0.018	0.099
-644.726	448.323	0.023	-0.052
-643.711	305.559	0.120	-0.224
-642.697	-200.000	-0.033	-0.356
-641.682	106.487	-0.068	0.082
-640.668	38.864	-0.078	0.070
-639.653	307.984	0.069	0.130
-638.638	7.943	0.036	0.027
-637.624	-49.365	-0.210	0.101
-636.609	8.996	0.153	-0.116
-635.595	16.633	-0.078	-0.062
-634.580	233.736	0.220	-0.366
-633.565	125.876	-0.113	0.144
-632.551	5.226	0.120	-0.089
-631.536	41.885	-0.142	-0.130
-630.522	-86.255	0.181	-0.056
-629.507	800.000	-0.071	0.208
-628.492	201.470	0.101	-0.157
-627.478	679.149	-0.041	-0.108
-626.463	-60.114	0.304	0.131
-625.449	-0.722	0.206	-0.147
-624.434	298.109	0.167	-0.309
-623.419	-32.566	0.248	-0.139
-622.405	-200.000	-0.038	0.249
-621.390	-156.288	-0.186	-0.012
-620.376	62.352	0.144	0.145
-619.361	13.068	-0.179	-0.139
-618.346	20.175	-0.202	0.164
-617.332	227.072	0.042	0.069
-616.317	-31.415	-0.179	0.102
-615.303	-200.000	-0.019	-0.228
-614.288	-200.000	-0.005	-0.150
-613.273	36.452	0.112	-0.099
-612.259	-26.865	-0.145	-0.085
-611.244	-123.375	0.118	0.019
-610.230	424.496	-0.122	0.264
-609.215	-37.257	-0.191	-0.103
-608.201	800.000	0.092	-0.258
-607.186	-123.182	-0.060	-0.010
-606.171	60.311	0.142	-0.142
-605.157	-105.545	0.177	0.040
-604.142	-200.000	-0.014	-0.171
-603.128	-54.707	0.012	0.006
-602.113	-105.687	-0.461	-0.105
-601.098	-133.777	-0.317	0.040
-600.084	-89.912	0.201	0.059
-599.069	-28.228	-0.158	-0.092
-598.055	269.072	0.135	-0.239
-597.040	-28.371	0.138	-0.080
-596.025	-200.000	-0.044	0.259
-595.011	85.040	-0.174	0.192
-593.996	-200.000	-0.011	-0.256
-592.982	1.526	0.332	-0.240
-591.967	80.143	-0.062	-0.067
-590.952	800.000	0.027	0.098
-589.938	34.646	-0.079	-0.070
-588.923	328.532	0.141	-0.273
-587.909	280.906	0.036	0.064
-586.894	-200.000	-0.061	0.295
-585.879	-25.107	-0.119	0.071
-584.865	-200.000	-0.000	-0.212
-583.850	-166.666	-0.264	0.011
-582.836	319.716	-0.065	-0.124
-581.821	130.305	0.054	0.069
-580.806	800.000	-0.061	-0.219
-579.792	-108.162	-0.185	0.040
-578.777	254.819	-0.033	-0.057
-577.763	-117.796	-0.298	-0.054
-576.748	105.756	-0.071	0.085
-575.733	-200.000	0.003	0.335
-574.719	-28.513	-0.398	-0.231
-573.704	800.000	0.129	-0.385
-572.690	-137.602	0.128	0.015
-571.675	64.920	0.064	0.065
-570.661	-200.000	-0.002	-0.399
-569.646	33.609	0.203	0.177
-568.631	800.000	0.045	0.132
-567.617	-27.835	0.103	0.060
-566.602	800.000	-0.076	0.284
-565.588	-62.563	-0.161	0.067
-564.573	-200.000	-0.020	-0.137
-563.558	-145.197	0.332	0.030
-562.544	393.880	0.188	-0.393
-561.529	800.000	0.099	-0.358
-560.515	79.567	-0.110	-0.119
-559.500	-81.683	0.251	-0.083
-558.485	-200.000	0.036	-0.378
-557.471	65.880	0.231	-0.235
-556.456	-200.000	-0.021	0.394
-555.442	-200.000	-0.019	0.245
-554.427	-200.000	-0.039	0.476
-553.412	-200.000	0.017	0.083
-552.398	51.166	-0.242	-0.231
-551.383	82.966	0.069	-0.076
-550.369	-123.055	0.176	-0.028
-549.354	-86.479	0.199	0.061
-548.339	-200.000	0.001	-0.196
-547.325	-25.400	0.132	0.078
-546.310	-118.754	0.503	-0.089
-545.296	21.393	-0.062	0.051
-544.281	-200.000	0.054	-0.315
-543.266	-100.690	0.275	-0.068
-542.252	7.609	0.170	-0.128
-541.237	-17.099	0.071	0.045
-540.223	-200.000	-0.033	-0.328
-539.208	37.615	-0.259	0.231
-538.193	118.187	-0.077	0.095
-537.179	471.931	0.032	0.073
-536.164	-79.128	0.074	0.025
-535.150	-200.000	-0.007	-0.244
-534.135	-200.000	-0.007	-0.082
-533.121	-200.000	0.018	-0.172
-532.106	-200.000	0.032	-0.181
-531.091	-106.327	0.106	-0.024
-530.077	800.000	-0.091	-0.256
-529.062	-200.000	-0.046	0.231
-528.048	-200.000	0.026	0.136
-527.033	236.169	-0.083	0.138
-526.018	738.436	-0.069	0.186
-525.004	97.669	0.175	0.202
-523.989	141.673	0.118	0.157
-522.975	0.525	-0.227	-0.163
-521.960	800.000	0.043	0.188
-520.945	-200.000	0.031	0.159
-519.931	-4.499	0.055	-0.038
-518.916	239.922	-0.147	0.246
-517.902	800.000	-0.095	-0.355
-516.887	-200.000	0.044	-0.339
-515.872	-200.000	-0.014	0.087
-514.858	-200.000	0.026	-0.173
-513.843	-13.392	-0.055	0.036
-512.829	-200.000	0.021	-0.198
-511.814	159.275	0.260	-0.362
-510.799	321.970	0.172	-0.328
-509.785	-76.537	-0.164	-0.058
-508.770	800.000	-0.015	0.057
-507.756	-192.189	0.342	-0.003
-506.741	136.506	-0.050	-0.065
-505.726	4.653	0.118	-0.087
-504.712	-24.278	0.063	-0.037
-503.697	-200.000	-0.015	0.133
-502.683	10.628	0.199	0.152
-501.668	74.496	0.065	0.068
-500.653	-165.961	-0.138	-0.006
-499.639	-200.000	0.009	0.120
-498.624	17.323	0.069	0.055
-497.610	111.425	0.135	0.163
-496.595	74.638	-0.121	-0.128
-495.581	800.000	-0.054	-0.163
-494.566	-182.144	-0.369	-0.007
-493.551	-115.910	-0.244	-0.046
-492.537	-26.966	-0.092	0.054
-491.522	-159.272	-0.343	-0.019
-490.508	295.123	-0.207	-0.379
-489.493	-116.555	0.129	0.024
-488.478	150.153	-0.354	-0.482
-487.464	800.000	-0.057	-0.204
-486.449	799.018	-0.049	-0.136
-485.435	301.789	0.022	-0.040
-484.420	-154.996	0.271	0.018
-483.405	-150.886	0.174	0.013
-482.391	-133.926	-0.398	-0.050
-481.376	-21.811	0.279	0.170
-480.362	800.000	-0.011	0.039
-479.347	-200.000	-0.038	-0.210
-478.332	101.735	-0.069	0.081
-477.318	-159.863	-0.275	-0.015
-476.303	-56.174	0.158	0.070
-475.289	578.929	-0.122	-0.300
-474.274	120.402	-0.091	-0.113
-473.259	-68.643	0.063	0.024
-472.245	-138.216	-0.324	0.036
-471.230	-200.000	-0.012	-0.075
-470.216	798.647	0.116	-0.320
-469.201	800.000	0.032	-0.135
-468.186	100.483	-0.045	-0.052
-467.172	800.000	-0.062	-0.259
-466.157	58.957	0.236	0.232
-465.143	-47.201	0.169	0.083
-464.128	-161.285	0.168	-0.009
-463.113	149.045	0.094	0.127
-462.099	318.121	-0.016	0.031
-461.084	-5.349	-0.125	-0.086
-460.070	209.657	-0.100	0.156
-459.055	-169.401	-0.044	0.002
-458.040	800.000	0.041	-0.165
-457.026	-108.055	0.070	-0.015
-456.011	-49.265	0.209	-0.100
-454.997	-4.384	0.193	0.133
-453.982	800.000	0.093	0.298
-452.968	111.054	0.212	0.256
-451.953	51.984	0.034	-0.032
-450.938	69.721	-0.021	-0.022
-449.924	9.308	0.203	0.153
-448.909	209.381	-0.099	0.156
-447.895	800.000	-0.102	-0.315
-446.880	800.000	-0.017	0.057
-445.865	396.780	-0.219	-0.459
-444.851	800.000	0.076	-0.245
-443.836	168.912	-0.154	0.220
-442.822	-92.380	-0.163	-0.046
-441.807	-144.306	-0.285	0.027
-440.792	800.000	-0.047	0.205
-439.778	184.002	0.174	0.258
-438.763	-67.448	-0.085	0.033
-437.749	-200.000	0.031	-0.184
-436.734	111.122	-0.110	0.133
-435.719	165.648	-0.115	0.162
-434.705	-200.000	0.015	0.164
-433.690	155.681	-0.300	-0.414
-432.676	-19.751	0.299	0.185
-431.661	-99.596	-0.108	0.027
-430.646	800.000	0.037	-0.110
-429.632	477.370	0.051	0.115
-428.617	-81.288	-0.198	0.065
-427.603	378.691	-0.159	0.326
-426.588	-159.347	0.368	0.021
-425.573	-118.345	0.053	0.009
-424.559	428.656	0.065	-0.139
-423.544	53.994	0.028	0.027
-422.530	800.000	0.124	-0.420
-421.515	800.000	-0.096	0.271
-420.500	533.569	-0.083	0.195
-419.486	436.337	0.099	-0.216
-418.471	201.466	0.102	0.157
-417.457	-46.562	-0.132	-0.065
-416.442	-200.000	-0.045	0.440
-415.428	269.909	-0.089	-0.156
-414.413	800.000	0.036	0.141
-413.398	108.681	0.266	0.318
-412.384	-89.012	-0.077	-0.023
-411.369	4.753	0.066	0.049
-410.355	-85.306	-0.120	0.037
-409.340	310.608	-0.095	0.177
-408.325	-170.499	-0.052	-0.002
-407.311	-200.000	0.001	-0.015
-406.296	-200.000	0.007	0.319
-405.282	-80.833	-0.360	0.119
-404.267	800.000	-0.016	0.047
-403.252	398.415	0.020	0.041
-402.238	73.725	-0.086	0.090
-401.223	-200.000	-0.017	-0.130
-400.209	-71.967	-0.315	0.117
-399.194	-200.000	0.015	-0.344
-398.179	95.986	-0.198	0.226
-397.165	253.432	0.183	0.312
-396.150	-145.058	0.163	-0.015
-395.136	800.000	-0.093	0.399
-394.121	-8.397	0.155	-0.104
-393.106	-106.054	-0.180	-0.040
-392.092	-103.707	0.108	0.025
-391.077	-44.977	0.276	-0.137
-390.063	-157.554	0.126	0.008
-389.048	-106.573	0.287	0.064
-388.033	-60.701	0.074	-0.031
-387.019	45.812	-0.041	0.038
-386.004	-106.695	-0.169	-0.038
-384.990	691.702	0.104	-0.273
-383.975	-200.000	-0.066	0.340
-382.960	-111.710	0.359	0.073
-381.946	-200.000	0.002	-0.018
-380.931	147.819	0.050	-0.067
-379.917	-114.370	-0.053	0.010
-378.902	27.810	0.158	-0.133
-377.888	-32.188	0.255	-0.142
-376.873	38.144	0.074	-0.066
-375.858	155.259	0.212	-0.291
-374.844	-79.665	0.111	0.037
-373.829	461.396	0.181	0.403
-372.815	-80.819	-0.089	-0.029
-371.800	800.000	-0.062	0.263
-370.785	-200.000	0.096	0.499
-369.771	-200.000	0.012	-0.103
-368.756	229.866	0.174	-0.284
-367.742	-200.000	-0.025	-0.212
-366.727	-200.000	-0.002	0.037
-365.712	-200.000	0.011	0.335
-364.698	-0.133	-0.097	-0.069
-363.683	187.168	-0.165	0.246
-362.669	-132.076	0.245	0.032
-361.654	22.753	-0.129	0.105
-360.639	-56.331	0.119	0.053
-359.625	568.039	-0.227	0.549
-358.610	-119.596	-0.155	-0.027
-357.596	-112.691	0.152	0.030
-356.581	800.000	0.197	0.584
-355.566	-186.054	-0.373	0.005
-354.552	-116.596	0.134	-0.025
-353.537	-200.000	0.042	-0.199
-352.523	34.336	0.162	0.141
-351.508	182.204	0.132	-0.194
-350.493	252.103	-0.083	-0.142
-349.479	144.237	-0.092	0.123
-348.464	-200.000	-0.083	0.412
-347.450	58.909	-0.293	0.287
-346.435	-200.000	0.032	-0.147
-345.420	107.993	0.104	-0.124
-344.406	800.000	-0.038	0.127
-343.391	-146.012	-0.229	-0.020
-342.377	-106.467	-0.053	0.012
-341.362	-165.630	0.120	0.005
-340.348	279.189	-0.143	0.254
-339.333	36.722	0.166	0.146
-338.318	224.943	-0.074	0.120
-337.304	-200.000	0.041	0.194
-336.289	-93.900	-0.277	0.076
-335.275	62.295	0.005	-0.005
-334.260	800.000	-0.048	-0.189
-333.245	800.000	0.063	-0.177
-332.231	-115.904	0.164	0.031
-331.216	602.590	0.104	-0.257
-330.202	-134.953	0.191	-0.023
-329.187	-69.791	-0.168	0.064
-328.172	-200.000	-0.090	0.428
-327.158	132.056	0.091	-0.116
-326.143	49.881	0.126	-0.118
-325.129	-125.810	0.308	0.046
-324.114	-59.594	0.200	-0.085
-323.099	-200.000	-0.009	0.057
-322.085	800.000	-0.058	-0.199
-321.070	-200.000	-0.027	-0.174
-320.056	-89.625	-0.098	-0.029
-319.041	12.964	-0.200	-0.154
-318.026	61.195	-0.240	0.238
-317.012	42.546	-0.258	0.233
-315.997	232.324	0.082	0.133
-314.983	-99.848	0.163	0.041
-313.968	-200.000	0.037	-0.420
-312.953	-56.983	0.304	-0.133
-311.939	800.000	-0.081	-0.317
-310.924	117.134	0.048	-0.058
-309.910	-17.539	0.159	-0.100
-308.895	-200.000	0.025	0.250
-307.880	96.752	-0.274	0.313
-306.866	-97.473	-0.029	-0.007
-305.851	-100.568	-0.052	0.013
-304.837	407.903	0.062	-0.131
-303.822	147.686	0.256	-0.343
-302.807	158.112	0.286	-0.394
-301.793	2.275	-0.186	0.133
-300.778	-200.000	0.003	0.198
-299.764	-14.664	-0.202	0.129
-298.749	-200.000	0.014	0.156
-297.735	-115.681	-0.217	0.041
-296.720	-80.412	-0.226	0.075
-295.705	-38.072	0.064	-0.034
-294.691	-106.341	0.081	-0.018
-293.676	-200.000	0.034	-0.270
-292.662	303.857	0.099	-0.183
-291.647	-109.116	-0.163	0.034
-290.632	-57.366	0.217	0.095
-289.618	-0.948	0.346	0.244
-288.603	348.648	0.083	0.164
-287.589	-200.000	-0.014	-0.132
-286.574	800.000	0.036	0.124
-285.559	154.535	-0.082	-0.112
-284.545	-91.874	-0.235	0.066
-283.530	158.728	-0.153	0.211
-282.516	800.000	-0.066	-0.250
-281.501	-128.007	-0.140	-0.020
-280.486	18.627	0.373	0.297
-279.472	79.937	-0.045	-0.048
-278.457	770.066	-0.067	-0.180
-277.443	-76.771	-0.220	-0.076
-276.428	262.562	0.071	-0.122
-275.413	-200.000	-0.009	-0.276
-274.399	-178.309	0.154	-0.004
-273.384	-200.000	0.041	-0.211
-272.370	19.128	0.070	-0.055
-271.355	152.469	0.276	-0.374
-270.340	50.517	0.077	0.073
-269.326	105.821	-0.084	0.098
-268.311	657.714	-0.017	0.043
-267.297	436.867	-0.037	0.079
-266.282	-61.038	-0.282	-0.119
-265.267	-64.335	0.058	0.024
-264.253	-170.157	-0.325	-0.011
-263.238	123.455	0.039	-0.049
-262.224	37.874	-0.342	0.302
-261.209	-200.000	0.010	0.101
-260.195	-72.540	0.269	-0.099
-259.180	368.104	-0.050	0.100
-258.165	-200.000	0.003	0.123
-257.151	613.165	-0.055	0.137
-256.136	-200.000	0.056	0.280
-255.122	105.832	-0.145	0.170
-254.107	233.244	0.159	-0.260
-253.092	-174.963	-0.193	0.005
-252.078	355.969	-0.042	0.083
-251.063	111.605	0.132	-0.158
-250.049	-91.405	0.186	0.053
-249.034	-143.987	0.045	0.004
-248.019	-200.000	0.012	-0.115
-247.005	387.121	-0.068	0.139
-245.990	-151.177	-0.145	0.011
-244.976	-200.000	0.007	0.192
-243.961	-200.000	0.011	-0.076
-242.946	765.383	0.114	-0.306
-241.932	-166.227	-0.247	0.010
-240.917	-79.261	-0.146	0.049
-239.903	22.687	0.053	0.043
-238.888	6.223	-0.241	-0.178
-237.873	800.000	0.059	0.221
-236.859	-103.013	0.131	0.031
-235.844	267.908	-0.252	0.438
-234.830	-134.572	-0.283	-0.034
-233.815	12.350	-0.183	0.140
-232.800	120.809	-0.053	0.065
-231.786	-126.925	0.204	-0.030
-230.771	-200.000	0.007	-0.113
-229.757	-149.862	-0.073	-0.006
-228.742	73.962	0.082	0.086
-227.727	-62.022	0.262	0.109
-226.713	-27.660	-0.027	0.016
-225.698	-13.755	0.286	0.184
-224.684	-94.478	-0.044	-0.012
-223.669	38.246	0.320	0.283
-222.655	163.222	-0.098	0.137
-221.640	-141.573	-0.147	-0.015
-220.625	73.952	0.245	0.255
-219.611	108.562	0.081	0.096
-218.596	208.699	0.104	0.162
-217.582	-167.050	-0.429	0.017
-216.567	137.926	0.468	0.608
-215.552	376.383	-0.160	0.324
-214.538	5.669	-0.182	-0.134
-213.523	-200.000	-0.050	0.241
-212.509	-28.380	-0.334	-0.191
-211.494	12.473	0.186	-0.143
-210.479	242.044	-0.108	0.179
-209.465	-20.030	-0.148	0.090
-208.450	-156.548	-0.471	-0.029
-207.436	800.000	-0.130	-0.368
-206.421	800.000	0.041	-0.169
-205.406	32.429	-0.205	-0.175
-204.392	800.000	-0.110	0.334
-203.377	188.953	0.067	-0.099
-202.363	-29.715	0.126	0.071
-201.348	-200.000	0.016	-0.176
-200.333	800.000	0.069	-0.240
-199.319	146.749	0.056	-0.075
-198.304	291.900	0.195	0.352
-197.290	-137.449	-0.262	0.029
-196.275	-200.000	0.033	0.146
-195.260	800.000	-0.085	0.314
-194.246	-200.000	-0.005	0.089
-193.231	-81.443	-0.185	0.060
-192.217	107.536	0.234	0.276
-191.202	315.541	0.086	-0.161
-190.187	-145.168	-0.126	0.011
-189.173	-19.167	-0.054	-0.033
-188.158	-61.643	-0.104	0.043
-187.144	343.810	0.161	-0.312
-186.129	-109.742	0.293	-0.061
-185.114	-200.000	-0.009	-0.063
-184.100	-200.000	0.038	-0.440
-183.085	-130.094	-0.284	-0.038
-182.071	284.399	-0.076	-0.135
-181.056	-116.062	0.201	-0.037
-180.042	238.045	-0.118	0.193
-179.027	50.893	0.132	-0.124
-178.012	-200.000	-0.018	-0.186
-176.998	-109.788	-0.525	0.109
-175.983	-124.509	-0.335	-0.052
-174.969	-200.000	0.035	-0.208
-173.954	35.398	0.030	-0.026
-172.939	193.635	-0.106	-0.159
-171.925	126.519	-0.058	0.073
-170.910	800.000	0.026	-0.108
-169.896	-200.000	-0.062	-0.391
-168.881	526.174	-0.103	0.240
-167.866	800.000	-0.060	0.249
-166.852	95.501	0.101	-0.114
-165.837	-30.531	0.243	-0.136
-164.823	800.000	0.067	-0.252
-163.808	108.516	-0.164	-0.194
-162.793	-181.861	-0.095	-0.002
-161.779	-27.148	0.274	0.158
-160.764	-80.501	-0.228	0.075
-159.750	36.435	0.209	0.182
-158.735	-59.169	0.080	-0.034
-157.720	-45.143	0.057	0.028
-156.706	-200.000	0.013	0.087
-155.691	-200.000	-0.020	-0.133
-154.677	-200.000	-0.019	-0.181
-153.662	219.698	-0.039	-0.061
-152.647	260.947	-0.074	0.127
-151.633	773.534	-0.085	0.229
-150.618	-65.508	0.250	0.099
-149.604	40.670	-0.265	0.236
-148.589	87.639	0.140	-0.153
-147.574	-99.552	-0.369	0.092
-146.560	800.000	0.096	0.295
-145.545	626.041	0.094	-0.235
-144.531	800.000	-0.024	-0.083
-143.516	-41.555	0.317	0.161
-142.502	69.174	0.149	0.151
-141.487	800.000	-0.054	-0.178
-140.472	495.923	-0.049	-0.111
-139.458	77.154	0.128	0.134
-138.443	-100.967	0.195	0.047
-137.429	-120.327	-0.078	0.013
-136.414	68.413	0.325	0.329
-135.399	-135.268	0.174	0.021
-134.385	52.320	0.195	-0.184
-133.370	375.444	-0.104	0.209
-132.356	-200.000	-0.009	-0.114
-131.341	484.518	0.175	-0.393
-130.326	-200.000	0.031	0.138
-129.312	53.382	-0.237	0.224
-128.297	-54.873	0.109	0.048
-127.283	-56.220	-0.244	-0.107
-126.268	166.922	0.073	-0.102
-125.253	-11.376	0.157	0.102
-124.239	-102.932	-0.106	0.025
-123.224	-124.770	0.117	0.018
-122.210	-200.000	-0.009	-0.172
