DTS Sentinel unit serial number:	SN413079Multiplexer serial number:	ORYXHardware model number:	OX4-SRSoftware version number:	ORYX F/W v4.00 Oryx Data Collector v3.7.2.0data status	okinstallation	princeton_trtdifferential loss correction	single-endedforward channel	channel 2reverse channel	N/Adate	2019/09/12time	06:01:11forward acquisition time	60.00reverse acquisition time	0.00gamma	496.2192k internal	0.2325k external	0.2325temperature offset calibration	1.0062default loss term (dB/km)	0.3790temperature slope calibration	1.0000multiplexer offset coefficient	1.0000multiplexer slope coefficient	1.0000fibre end	0.00T internal ref (°C)	32.08T ext. ref 1 (°C)	1.55T ext. ref 2 (°C)	27.39length (m)	temperature (°C)	Stokes	anti-Stokes-747.200	96.572	-0.186	-0.215
-746.185	-137.427	-0.056	0.006
-745.171	-78.634	-0.050	-0.017
-744.156	-154.980	0.199	0.013
-743.142	800.000	-0.097	0.354
-742.127	693.440	-0.100	0.265
-741.112	800.000	-0.015	-0.057
-740.098	55.287	-0.033	0.032
-739.083	537.548	0.110	0.263
-738.069	8.415	-0.310	0.235
-737.054	-133.407	0.170	-0.022
-736.039	-114.082	0.065	0.013
-735.025	-198.846	0.354	-0.002
-734.010	-200.000	0.018	0.312
-732.996	-71.804	-0.091	0.034
-731.981	-200.000	-0.038	-0.376
-730.966	-35.667	-0.314	-0.172
-729.952	-153.578	-0.411	0.029
-728.937	-49.441	-0.185	-0.089
-727.923	66.667	-0.141	0.144
-726.908	-100.852	-0.118	-0.029
-725.894	-200.000	-0.049	-0.286
-724.879	-139.031	-0.129	0.014
-723.864	-200.000	0.006	-0.126
-722.850	-0.700	-0.161	-0.115
-721.835	-75.625	-0.205	0.073
-720.821	105.692	0.074	-0.088
-719.806	111.405	0.205	-0.250
-718.791	266.710	0.067	-0.118
-717.777	800.000	-0.025	-0.105
-716.762	800.000	-0.035	-0.116
-715.748	293.559	-0.162	-0.297
-714.733	-30.362	0.212	-0.121
-713.718	210.621	-0.071	-0.112
-712.704	-47.155	0.178	-0.088
-711.689	-200.000	0.042	-0.507
-710.675	-55.303	0.443	0.201
-709.660	-65.613	-0.086	-0.035
-708.645	-133.353	0.332	0.042
-707.631	800.000	-0.053	-0.150
-706.616	206.302	0.242	-0.380
-705.602	95.186	0.144	0.166
-704.587	145.736	-0.132	0.178
-703.572	800.000	-0.052	0.174
-702.558	71.727	-0.164	-0.172
-701.543	11.702	-0.251	-0.194
-700.529	-200.000	0.052	-0.277
-699.514	422.215	0.067	0.146
-698.499	136.812	-0.173	0.228
-697.485	-42.653	-0.172	-0.088
-696.470	-132.848	-0.459	0.059
-695.456	-200.000	-0.005	-0.065
-694.441	-80.678	-0.247	-0.083
-693.426	134.064	-0.116	0.152
-692.412	-200.000	-0.004	-0.213
-691.397	-9.431	0.078	-0.052
-690.383	-2.386	-0.133	-0.094
-689.368	178.270	-0.150	0.221
-688.354	90.884	0.051	-0.058
-687.339	-93.591	0.345	-0.096
-686.324	-200.000	-0.004	-0.191
-685.310	800.000	0.059	0.174
-684.295	134.800	0.227	-0.297
-683.281	152.691	0.130	0.179
-682.266	-14.349	-0.050	-0.033
-681.251	-80.318	0.169	-0.057
-680.237	-104.211	-0.370	0.087
-679.222	-66.781	-0.175	-0.070
-678.208	-88.623	0.232	0.069
-677.193	30.358	0.041	0.035
-676.178	800.000	-0.004	0.014
-675.164	237.205	-0.134	-0.223
-674.149	105.728	0.107	-0.128
-673.135	144.409	-0.084	-0.113
-672.120	-29.297	0.036	-0.021
-671.105	486.768	-0.064	-0.147
-670.091	-23.031	0.058	-0.035
-669.076	800.000	0.090	-0.339
-668.062	800.000	-0.093	-0.334
-667.047	-119.750	0.088	-0.015
-666.032	-62.029	0.039	0.017
-665.018	2.375	-0.125	-0.091
-664.003	-55.967	0.344	-0.154
-662.989	-93.758	-0.292	0.081
-661.974	-48.095	-0.205	-0.100
-660.959	554.198	-0.056	-0.135
-659.945	-118.880	0.201	-0.036
-658.930	254.725	0.027	0.047
-657.916	343.069	-0.168	-0.331
-656.901	-102.935	0.046	-0.011
-655.886	-126.819	-0.075	-0.011
-654.872	157.356	-0.034	0.047
-653.857	-60.765	-0.104	-0.044
-652.843	800.000	-0.061	-0.229
-651.828	327.795	-0.090	0.173
-650.814	150.001	0.024	-0.033
-649.799	-132.621	-0.280	0.036
-648.784	59.315	-0.167	-0.165
-647.770	-200.000	-0.005	0.079
-646.755	-106.400	-0.056	-0.013
-645.741	-124.866	-0.181	-0.028
-644.726	237.705	0.069	0.116
-643.711	-200.000	-0.002	0.096
-642.697	800.000	-0.113	-0.362
-641.682	-200.000	0.075	-0.357
-640.668	102.134	0.143	-0.168
-639.653	260.551	0.022	-0.039
-638.638	-157.524	0.270	0.016
-637.624	367.073	0.028	-0.058
-636.609	437.929	0.211	-0.463
-635.595	800.000	0.095	-0.294
-634.580	-44.047	0.424	0.214
-633.565	-60.160	-0.171	-0.073
-632.551	-47.463	0.267	-0.131
-631.536	144.295	0.039	-0.053
-630.522	708.895	0.123	-0.327
-629.507	25.922	0.354	-0.297
-628.492	-122.894	0.198	0.032
-627.478	572.323	0.165	-0.403
-626.463	800.000	0.060	0.167
-625.449	-200.000	-0.051	-0.286
-624.434	-47.248	-0.038	-0.019
-623.419	226.775	0.049	0.080
-622.405	-83.578	0.213	-0.068
-621.390	-80.404	-0.127	0.043
-620.376	301.580	-0.112	0.207
-619.361	-28.893	0.087	-0.050
-618.346	-85.372	0.136	-0.043
-617.332	-29.094	0.051	-0.030
-616.317	341.915	-0.102	-0.200
-615.303	-99.111	0.398	-0.101
-614.288	-69.389	0.314	0.121
-613.273	188.547	-0.083	0.125
-612.259	-200.000	-0.032	0.147
-611.244	742.772	-0.012	-0.032
-610.230	-103.523	0.021	-0.005
-609.215	-200.000	0.014	0.101
-608.201	346.402	-0.057	-0.113
-607.186	-69.316	-0.298	-0.115
-606.171	21.855	-0.123	0.100
-605.157	26.883	-0.067	-0.057
-604.142	-169.779	-0.108	-0.004
-603.128	-200.000	-0.016	0.271
-602.113	-88.175	0.342	-0.103
-601.098	170.659	-0.196	0.282
-600.084	49.976	0.196	0.186
-599.069	-14.747	0.117	0.075
-598.055	-74.514	-0.126	0.046
-597.040	-34.537	-0.112	0.061
-596.025	711.763	-0.183	-0.486
-595.011	-108.561	-0.266	-0.057
-593.996	-200.000	-0.001	-0.261
-592.982	800.000	-0.058	0.250
-591.967	-111.638	0.053	-0.011
-590.952	800.000	0.076	0.251
-589.938	-200.000	-0.026	0.165
-588.923	800.000	-0.068	-0.282
-587.909	625.897	-0.128	0.324
-586.894	213.900	-0.190	0.302
-585.879	-78.373	0.401	0.138
-584.865	-200.000	-0.035	0.220
-583.850	-161.007	-0.228	0.012
-582.836	35.415	0.188	0.166
-581.821	725.710	-0.111	0.296
-580.806	-192.026	-0.088	0.001
-579.792	-110.596	-0.184	0.038
-578.777	-200.000	0.047	0.264
-577.763	241.038	-0.182	0.304
-576.748	-200.000	0.016	0.278
-575.733	800.000	-0.032	-0.113
-574.719	76.297	0.265	-0.282
-573.704	-28.514	0.027	0.016
-572.690	22.367	-0.128	0.105
-571.675	-142.488	0.232	0.023
-570.661	30.027	-0.258	0.221
-569.646	800.000	0.203	-0.568
-568.631	800.000	-0.044	-0.186
-567.617	-200.000	0.013	0.232
-566.602	31.716	0.179	0.155
-565.588	-23.913	0.026	0.016
-564.573	333.627	0.120	0.233
-563.558	-200.000	0.049	-0.250
-562.544	-147.840	0.235	-0.020
-561.529	-200.000	-0.017	0.176
-560.515	154.210	-0.132	-0.181
-559.500	-200.000	0.052	0.416
-558.485	-72.755	0.195	-0.072
-557.471	738.293	0.134	-0.359
-556.456	369.959	-0.107	-0.216
-555.442	-200.000	-0.038	-0.204
-554.427	-12.416	-0.154	0.101
-553.412	56.208	-0.155	0.151
-552.398	-132.803	0.180	-0.023
-551.383	800.000	0.088	0.323
-550.369	-200.000	-0.008	-0.072
-549.354	66.988	0.035	0.035
-548.339	191.467	0.187	0.282
-547.325	110.942	0.141	0.170
-546.310	800.000	-0.066	-0.203
-545.296	-63.657	-0.353	0.145
-544.281	-200.000	-0.005	-0.207
-543.266	55.706	-0.046	0.045
-542.252	-145.995	0.146	-0.013
-541.237	695.259	-0.130	0.342
-540.223	-116.856	0.296	-0.054
-539.208	-80.685	0.320	-0.107
-538.193	23.970	-0.276	-0.228
-537.179	348.317	-0.065	0.128
-536.164	-200.000	0.035	-0.177
-535.150	34.515	-0.107	0.093
-534.135	-90.814	0.300	0.087
-533.121	-113.934	0.111	0.022
-532.106	800.000	-0.053	0.151
-531.091	800.000	-0.042	0.168
-530.077	800.000	-0.049	-0.159
-529.062	-200.000	0.047	0.254
-528.048	622.549	0.045	-0.114
-527.033	800.000	-0.090	-0.344
-526.018	-168.897	0.238	-0.009
-525.004	255.195	-0.021	0.036
-523.989	105.833	-0.220	-0.260
-522.975	-55.106	-0.416	-0.187
-521.960	-200.000	-0.039	0.176
-520.945	-120.955	0.218	-0.037
-519.931	-200.000	0.007	0.031
-518.916	726.636	-0.138	0.367
-517.902	-131.563	0.124	-0.016
-516.887	800.000	-0.050	0.219
-515.872	-111.046	-0.189	0.039
-514.858	-200.000	-0.008	0.131
-513.843	-200.000	0.014	0.312
-512.829	48.246	-0.107	0.100
-511.814	-47.467	0.104	0.051
-510.799	33.885	-0.233	-0.202
-509.785	41.730	0.132	0.119
-508.770	-9.963	0.110	0.073
-507.756	63.678	0.137	0.138
-506.741	-139.560	-0.176	0.019
-505.726	800.000	0.053	0.165
-504.712	-97.898	0.469	0.121
-503.697	-23.372	-0.154	0.093
-502.683	-70.169	-0.394	-0.150
-501.668	144.005	-0.123	0.164
-500.653	-200.000	0.034	0.171
-499.639	-28.502	0.182	-0.105
-498.624	8.780	0.108	-0.082
-497.610	18.582	-0.125	0.100
-496.595	-200.000	-0.000	-0.019
-495.581	800.000	0.047	0.162
-494.566	-126.027	-0.263	-0.040
-493.551	-200.000	0.003	0.057
-492.537	82.988	-0.168	0.183
-491.522	506.433	-0.054	-0.126
-490.508	272.954	0.093	-0.165
-489.493	327.002	-0.154	-0.295
-488.478	63.540	0.145	0.146
-487.464	-200.000	0.046	0.349
-486.449	-200.000	0.045	0.326
-485.435	-108.420	-0.310	0.067
-484.420	77.837	0.068	0.073
-483.405	-200.000	0.024	-0.129
-482.391	254.411	0.046	-0.078
-481.376	54.653	0.162	0.156
-480.362	-28.159	-0.116	-0.067
-479.347	-200.000	-0.024	-0.238
-478.332	285.402	0.217	-0.390
-477.318	-200.000	-0.066	0.312
-476.303	-152.073	0.129	-0.009
-475.289	98.589	0.339	-0.391
-474.274	-22.940	0.327	-0.197
-473.259	-137.002	-0.134	-0.015
-472.245	500.248	-0.153	-0.352
-471.230	94.855	0.119	-0.136
-470.216	-136.040	0.106	0.012
-469.201	353.791	-0.093	-0.185
-468.186	-37.900	0.117	-0.062
-467.172	-113.808	0.420	-0.082
-466.157	800.000	-0.020	-0.070
-465.143	16.120	0.340	-0.267
-464.128	-173.622	0.297	0.009
-463.113	288.539	-0.154	-0.278
-462.099	92.164	-0.258	-0.290
-461.084	69.193	0.173	0.178
-460.070	-200.000	0.017	0.340
-459.055	-101.507	-0.449	-0.109
-458.040	101.196	-0.063	-0.073
-457.026	234.828	0.061	0.101
-456.011	-22.683	0.073	-0.044
-454.997	94.947	0.099	-0.112
-453.982	-111.674	-0.181	-0.037
-452.968	-200.000	0.027	0.206
-451.953	246.590	-0.083	0.140
-450.938	101.797	0.199	-0.231
-449.924	-200.000	-0.202	0.000
-448.909	19.322	0.541	0.434
-447.895	352.908	-0.121	0.239
-446.880	-200.000	0.037	0.236
-445.865	-42.088	0.133	-0.068
-444.851	86.053	0.157	-0.172
-443.836	-159.977	-0.092	0.005
-442.822	12.445	-0.204	-0.157
-441.807	-9.229	0.209	0.139
-440.792	800.000	-0.063	0.201
-439.778	800.000	-0.036	-0.120
-438.763	-87.277	-0.390	-0.118
-437.749	408.144	-0.138	-0.290
-436.734	380.156	0.020	0.041
-435.719	-167.013	-0.189	0.008
-434.705	-112.529	0.155	-0.031
-433.690	-200.000	-0.017	-0.220
-432.676	-126.339	0.234	-0.035
-431.661	-19.116	0.123	0.076
-430.646	-97.110	-0.163	0.042
-429.632	-111.777	-0.213	0.043
-428.617	109.585	0.096	0.115
-427.603	-200.000	0.007	0.045
-426.588	197.682	-0.183	-0.278
-425.573	-87.516	-0.084	-0.025
-424.559	-200.000	-0.008	0.188
-423.544	-200.000	-0.017	-0.178
-422.530	767.307	-0.013	-0.036
-421.515	-97.210	-0.244	-0.064
-420.500	-111.596	0.415	-0.084
-419.486	-187.896	-0.421	0.005
-418.471	-16.981	0.185	0.116
-417.457	8.076	-0.235	-0.176
-416.442	-117.406	-0.089	0.016
-415.428	-4.925	-0.146	0.100
-414.413	-200.000	0.079	-0.356
-413.398	360.297	-0.258	-0.515
-412.384	-110.401	-0.446	-0.092
-411.369	-92.177	-0.318	-0.089
-410.355	29.247	0.085	0.072
-409.340	477.500	-0.124	0.279
-408.325	-179.249	-0.096	-0.002
-407.311	-81.390	0.241	-0.079
-406.296	-200.000	-0.015	0.068
-405.282	142.868	0.182	0.241
-404.267	-133.771	-0.343	-0.043
-403.252	137.042	0.091	0.119
-402.238	-164.311	0.222	-0.010
-401.223	-133.024	0.089	0.011
-400.209	14.216	-0.311	-0.241
-399.194	-135.855	-0.176	-0.021
-398.179	800.000	0.054	0.190
-397.165	-116.908	-0.200	0.036
-396.150	-200.000	-0.000	-0.234
-395.136	-162.142	0.139	0.007
-394.121	-10.750	0.035	-0.023
-393.106	800.000	0.019	-0.081
-392.092	151.991	0.098	0.132
-391.077	113.391	0.115	-0.139
-390.063	-84.564	0.118	-0.037
-389.048	-25.322	-0.177	0.105
-388.033	150.860	-0.036	-0.048
-387.019	576.923	0.126	-0.306
-386.004	800.000	0.047	0.179
-384.990	800.000	0.038	-0.105
-383.975	-57.083	0.321	0.141
-382.960	800.000	0.151	0.495
-381.946	125.183	-0.161	0.202
-380.931	-90.098	-0.456	-0.132
-379.917	-61.020	-0.375	-0.158
-378.902	-26.466	-0.382	-0.223
-377.888	86.502	0.314	0.344
-376.873	-200.000	0.016	0.154
-375.858	209.476	-0.056	-0.087
-374.844	-200.000	0.007	0.069
-373.829	-200.000	0.020	-0.203
-372.815	-15.006	-0.182	-0.116
-371.800	-64.335	-0.086	-0.035
-370.785	-200.000	-0.037	-0.302
-369.771	17.742	0.059	0.046
-368.756	179.915	0.067	0.098
-367.742	800.000	-0.080	-0.219
-366.727	747.199	-0.086	0.231
-365.712	-114.970	-0.212	0.040
-364.698	-39.416	-0.224	0.117
-363.683	-16.904	0.020	0.013
-362.669	-56.209	0.042	0.019
-361.654	-55.575	0.227	-0.101
-360.639	-200.000	0.008	0.214
-359.625	76.574	-0.084	0.089
-358.610	-99.436	-0.118	-0.030
-357.596	-94.034	-0.296	-0.081
-356.581	-91.780	0.281	-0.079
-355.566	800.000	0.076	-0.242
-354.552	-74.788	-0.123	-0.044
-353.537	800.000	-0.105	-0.340
-352.523	316.004	0.006	0.012
-351.508	-82.763	-0.302	0.097
-350.493	124.543	-0.081	-0.101
-349.479	418.796	0.090	0.191
-348.464	-71.427	0.275	-0.102
-347.450	342.915	-0.092	0.178
-346.435	-144.596	-0.132	0.012
-345.420	303.236	0.063	0.117
-344.406	-200.000	0.032	-0.170
-343.391	52.273	-0.196	0.186
-342.377	-200.000	0.032	0.193
-341.362	-66.405	-0.262	0.103
-340.348	386.980	0.063	-0.129
-339.333	293.807	-0.106	-0.193
-338.318	800.000	-0.045	0.133
-337.304	-200.000	-0.006	-0.298
-336.289	71.515	-0.015	-0.016
-335.275	345.989	0.072	0.141
-334.260	498.072	-0.008	-0.018
-333.245	28.655	0.160	-0.134
-332.231	-9.010	0.106	0.070
-331.216	13.745	0.331	0.255
-330.202	800.000	-0.085	0.241
-329.187	-20.161	0.138	-0.084
-328.172	27.824	-0.114	0.095
-327.158	800.000	0.051	0.142
-326.143	-149.514	-0.322	-0.025
-325.129	-97.307	0.136	-0.035
-324.114	61.769	-0.442	-0.437
-323.099	23.298	0.194	0.158
-322.085	780.834	0.064	-0.173
-321.070	3.245	-0.069	-0.050
-320.056	33.365	0.047	-0.040
-319.041	800.000	0.097	-0.302
-318.026	71.145	0.239	0.245
-317.012	-60.864	0.201	0.084
-315.997	-93.367	0.256	0.071
-314.983	41.840	-0.056	-0.051
-313.968	707.635	-0.049	-0.129
-312.953	119.006	-0.092	0.113
-311.939	114.006	0.099	0.119
-310.924	-147.356	0.195	0.016
-309.910	77.007	-0.174	-0.184
-308.895	160.944	-0.110	-0.153
-307.880	9.436	0.277	0.208
-306.866	-73.548	-0.176	0.064
-305.851	-132.436	0.099	-0.013
-304.837	77.227	-0.267	-0.281
-303.822	-134.789	0.097	0.012
-302.807	800.000	-0.057	-0.233
-301.793	-92.293	-0.157	-0.044
-300.778	-51.142	0.069	0.032
-299.764	192.024	0.174	-0.260
-298.749	-115.521	-0.291	0.054
-297.735	-53.480	-0.207	0.094
-296.720	-200.000	0.016	-0.430
-295.705	268.648	0.079	-0.137
-294.691	-64.335	0.078	-0.032
-293.676	-200.000	0.021	-0.127
-292.662	800.000	0.044	0.125
-291.647	-200.000	-0.031	0.154
-290.632	-144.011	-0.040	-0.004
-289.618	-200.000	0.061	-0.275
-288.603	12.446	-0.216	0.165
-287.589	-108.840	0.227	-0.048
-286.574	-160.418	-0.273	0.015
-285.559	-192.801	0.235	-0.002
-284.545	134.630	0.118	0.152
-283.530	218.962	0.121	0.192
-282.516	-200.000	-0.063	0.345
-281.501	-200.000	-0.025	0.213
-280.486	223.664	0.138	0.221
-279.472	228.769	0.093	-0.151
-278.457	343.825	0.123	-0.240
-277.443	800.000	-0.136	-0.400
-276.428	-110.961	-0.279	0.057
-275.413	163.264	-0.247	0.344
-274.399	800.000	-0.135	0.446
-273.384	-5.971	0.172	0.116
-272.370	-200.000	-0.088	0.635
-271.355	-200.000	0.027	0.247
-270.340	169.430	0.119	0.168
-269.326	-128.866	-0.405	0.056
-268.311	-72.423	0.449	-0.165
-267.297	793.554	-0.076	-0.206
-266.282	347.903	0.118	0.230
-265.267	-47.557	-0.179	-0.086
-264.253	-200.000	-0.094	-0.464
-263.238	-192.681	0.216	-0.002
-262.224	13.296	0.157	0.121
-261.209	-24.991	-0.225	-0.132
-260.195	-90.104	0.278	-0.080
-259.180	124.045	0.135	-0.168
-258.165	-79.618	0.193	-0.064
-257.151	309.518	0.029	-0.053
-256.136	-1.540	0.199	0.139
-255.122	-44.786	-0.042	-0.021
-254.107	-39.001	-0.202	-0.105
-253.092	-43.883	0.176	0.088
-252.078	-62.542	-0.242	-0.100
-251.063	-83.630	-0.071	-0.022
-250.049	-200.000	0.038	-0.504
-249.034	800.000	0.009	0.026
-248.019	-87.709	-0.125	0.037
-247.005	-200.000	0.009	0.214
-245.990	-151.916	0.231	0.017
-244.976	-200.000	0.033	0.146
-243.961	101.293	0.256	0.295
-242.946	156.306	-0.166	0.227
-241.932	96.930	0.150	-0.170
-240.917	-200.000	-0.022	-0.212
-239.903	-5.680	-0.333	-0.226
-238.888	160.962	0.157	-0.218
-237.873	-84.670	-0.156	-0.049
-236.859	6.411	-0.144	-0.106
-235.844	-131.158	-0.329	-0.043
-234.830	314.504	-0.017	0.031
-233.815	-179.988	0.322	0.007
-232.800	483.764	0.048	-0.109
-231.786	-93.136	-0.198	-0.055
-230.771	601.111	-0.077	0.190
-229.757	86.081	0.077	0.083
-228.742	625.558	0.066	0.165
-227.727	-200.000	-0.019	0.132
-226.713	-200.000	0.053	0.320
-225.698	-158.367	-0.436	0.025
-224.684	-200.000	0.011	-0.170
-223.669	-146.195	-0.088	0.008
-222.655	-182.563	-0.236	0.004
-221.640	-55.674	-0.195	-0.086
-220.625	800.000	0.028	-0.091
-219.611	3.146	-0.314	-0.226
-218.596	91.206	-0.036	-0.039
-217.582	18.470	-0.241	-0.191
-216.567	-1.554	0.162	0.113
-215.552	-43.890	-0.184	0.092
-214.538	-79.858	0.210	0.070
-213.523	800.000	0.022	-0.069
-212.509	-200.000	0.025	0.190
-211.494	449.017	0.067	0.145
-210.479	-35.207	0.360	-0.194
-209.465	-152.053	-0.154	0.011
-208.450	800.000	0.090	0.277
-207.436	-73.209	0.319	0.115
-206.421	500.329	-0.143	-0.327
-205.406	144.748	-0.071	0.094
-204.392	-80.387	0.203	0.067
-203.377	800.000	-0.060	0.245
-202.363	767.002	0.064	-0.172
-201.348	1.002	0.114	0.081
-200.333	-161.274	0.347	0.018
-199.319	80.304	-0.091	0.096
-198.304	-200.000	-0.028	0.218
-197.290	800.000	0.043	-0.127
-196.275	130.616	0.111	-0.141
-195.260	-200.000	-0.032	0.344
-194.246	255.834	-0.182	0.308
-193.231	519.863	0.104	0.241
-192.217	202.130	0.068	-0.104
-191.202	800.000	-0.082	-0.278
-190.187	336.775	0.072	-0.138
-189.173	286.424	0.116	0.206
-188.158	-3.712	-0.113	0.077
-187.144	-19.730	-0.326	-0.199
-186.129	-36.516	-0.292	-0.155
-185.114	-93.961	0.295	-0.080
-184.100	589.774	0.153	0.373
-183.085	-130.906	-0.184	0.024
-182.071	457.981	0.129	0.283
-181.056	-139.095	0.431	0.046
-180.042	4.378	-0.158	-0.114
-179.027	41.531	0.093	-0.083
-178.012	327.209	-0.174	-0.329
-176.998	-150.251	0.239	0.018
-175.983	-14.126	0.296	0.189
-174.969	-13.472	-0.297	0.190
-173.954	49.116	-0.200	-0.185
-172.939	-200.000	-0.032	-0.140
-171.925	-188.944	-0.315	-0.004
-170.910	-103.821	0.079	0.018
-169.896	-21.443	0.370	0.223
-168.881	-200.000	0.042	0.220
-167.866	-82.317	0.206	-0.066
-166.852	-149.680	-0.150	-0.012
-165.837	387.173	0.081	-0.165
-164.823	50.439	-0.117	-0.109
-163.808	-200.000	-0.000	0.259
-162.793	-141.643	-0.338	-0.034
-161.779	800.000	-0.015	-0.066
-160.764	-77.276	0.211	-0.072
-159.750	21.136	0.090	0.072
-158.735	-200.000	0.030	-0.129
-157.720	-110.732	0.167	-0.034
-156.706	-10.474	0.195	-0.128
-155.691	14.180	-0.040	0.031
-154.677	-200.000	0.022	0.117
-153.662	-163.542	-0.042	-0.002
-152.647	588.389	-0.034	-0.082
-151.633	800.000	-0.019	-0.058
-150.618	-200.000	0.024	0.147
-149.604	-200.000	0.052	0.505
-148.589	-18.627	0.236	-0.145
-147.574	-41.698	0.172	-0.087
-146.560	-200.000	-0.012	-0.167
-145.545	259.747	-0.181	-0.308
-144.531	80.537	0.335	0.356
-143.516	462.320	0.015	0.034
-142.502	60.197	-0.188	-0.183
-141.487	-115.234	-0.187	-0.035
-140.472	-37.684	0.240	0.126
-139.458	-144.908	-0.332	0.030
-138.443	-97.389	0.204	-0.052
-137.429	800.000	-0.052	0.185
-136.414	70.211	-0.055	0.056
-135.399	-200.000	0.085	0.384
-134.385	143.239	-0.027	0.036
-133.370	-74.130	-0.121	0.043
-132.356	17.969	0.026	0.020
-131.341	-200.000	-0.031	0.269
-130.326	-200.000	-0.056	0.256
-129.312	-167.878	0.362	-0.014
-128.297	-200.000	-0.010	0.119
-127.283	50.029	-0.155	0.144
-126.268	560.483	-0.141	0.335
-125.253	537.280	-0.042	-0.098
-124.239	261.565	-0.204	0.348
-123.224	111.354	-0.247	0.293
-122.210	-143.856	-0.436	0.041
