DTS Sentinel unit serial number:	SN413079Multiplexer serial number:	ORYXHardware model number:	OX4-SRSoftware version number:	ORYX F/W v4.00 Oryx Data Collector v3.7.2.0data status	okinstallation	princeton_trtdifferential loss correction	single-endedforward channel	channel 2reverse channel	N/Adate	2019/09/11time	03:49:11forward acquisition time	60.00reverse acquisition time	0.00gamma	496.2192k internal	0.2329k external	0.2329temperature offset calibration	0.9936default loss term (dB/km)	0.3790temperature slope calibration	1.0000multiplexer offset coefficient	1.0000multiplexer slope coefficient	1.0000fibre end	0.00T internal ref (°C)	29.56T ext. ref 1 (°C)	-0.30T ext. ref 2 (°C)	23.76length (m)	temperature (°C)	Stokes	anti-Stokes-747.200	-200.000	0.009	0.135
-746.185	396.849	-0.050	-0.105
-745.171	299.540	0.057	-0.105
-744.156	38.897	-0.409	0.368
-743.142	-200.000	-0.047	0.401
-742.127	277.326	-0.161	0.289
-741.112	-200.000	0.016	-0.179
-740.098	22.081	0.121	-0.100
-739.083	244.924	0.091	0.154
-738.069	214.838	0.167	0.267
-737.054	800.000	0.072	0.283
-736.039	24.406	-0.232	-0.193
-735.025	230.726	-0.081	0.133
-734.010	575.289	-0.013	0.031
-732.996	-57.584	0.245	0.108
-731.981	319.559	-0.131	-0.250
-730.966	-13.501	-0.216	-0.141
-729.952	525.400	-0.137	-0.324
-728.937	-82.894	-0.133	0.043
-727.923	-200.000	0.013	-0.117
-726.908	-200.000	0.004	-0.171
-725.894	800.000	0.080	-0.304
-724.879	-200.000	-0.032	-0.371
-723.864	-20.254	-0.091	-0.056
-722.850	-44.792	0.081	0.041
-721.835	-53.055	-0.188	-0.087
-720.821	-26.178	0.210	0.124
-719.806	-200.000	0.033	-0.187
-718.791	412.729	0.073	0.157
-717.777	-15.395	0.248	0.160
-716.762	173.259	-0.120	0.174
-715.748	86.383	-0.154	0.171
-714.733	-49.550	0.107	-0.051
-713.718	33.514	0.234	-0.205
-712.704	0.945	0.179	-0.129
-711.689	-111.932	-0.177	0.036
-710.675	-200.000	-0.031	-0.169
-709.660	-200.000	-0.018	-0.241
-708.645	-125.798	0.316	-0.048
-707.631	280.422	0.068	0.122
-706.616	63.376	0.295	-0.297
-705.602	167.568	0.158	-0.226
-704.587	-171.375	-0.359	0.012
-703.572	-91.406	-0.644	-0.185
-702.558	-95.528	0.261	-0.070
-701.543	800.000	0.027	-0.110
-700.529	-123.185	0.147	-0.024
-699.514	-168.902	0.219	-0.008
-698.499	800.000	0.091	-0.257
-697.485	63.239	0.213	-0.215
-696.470	94.345	-0.063	-0.072
-695.456	-46.813	0.337	0.166
-694.441	-69.730	0.085	-0.033
-693.426	-32.244	0.132	0.074
-692.412	-35.293	-0.188	-0.103
-691.397	160.557	0.043	-0.060
-690.383	-0.983	-0.060	0.042
-689.368	8.180	0.170	0.128
-688.354	-200.000	0.000	0.162
-687.339	17.940	0.235	0.189
-686.324	537.253	-0.147	-0.350
-685.310	-2.996	0.246	0.172
-684.295	-128.674	-0.110	-0.016
-683.281	-131.489	-0.041	-0.005
-682.266	800.000	-0.101	-0.345
-681.251	800.000	0.055	0.213
-680.237	602.465	0.056	0.141
-679.222	167.504	0.027	0.039
-678.208	800.000	0.018	0.076
-677.193	52.860	-0.004	0.004
-676.178	-35.392	0.090	-0.049
-675.164	266.632	0.247	-0.434
-674.149	-35.532	-0.239	0.130
-673.135	-200.000	0.037	0.357
-672.120	-200.000	0.015	-0.328
-671.105	-102.888	-0.338	-0.081
-670.091	-120.133	-0.294	-0.051
-669.076	-200.000	0.008	-0.079
-668.062	-30.678	-0.109	-0.062
-667.047	202.849	0.250	-0.389
-666.032	800.000	0.016	-0.059
-665.018	800.000	0.074	-0.220
-664.003	418.730	-0.127	-0.273
-662.989	-110.721	0.107	0.022
-661.974	-111.282	0.134	0.027
-660.959	-12.635	0.176	-0.115
-659.945	224.228	0.170	0.275
-658.930	-200.000	0.018	0.119
-657.916	-200.000	0.080	0.412
-656.901	151.741	0.044	-0.060
-655.886	-92.701	-0.201	0.056
-654.872	-150.548	-0.027	0.002
-653.857	48.354	-0.233	-0.219
-652.843	108.960	-0.231	-0.277
-651.828	-78.439	0.294	-0.101
-650.814	-200.000	-0.043	0.232
-649.799	-200.000	0.020	-0.258
-648.784	197.211	0.154	-0.236
-647.770	3.279	0.250	-0.183
-646.755	328.023	-0.130	-0.250
-645.741	-90.093	0.398	-0.116
-644.726	-89.141	0.180	-0.053
-643.711	125.689	0.108	0.136
-642.697	-200.000	-0.036	-0.294
-641.682	-200.000	0.016	0.173
-640.668	-200.000	0.050	0.411
-639.653	246.253	0.022	0.037
-638.638	-68.568	0.207	0.081
-637.624	43.404	0.178	0.163
-636.609	-125.730	-0.074	-0.011
-635.595	-200.000	-0.014	0.252
-634.580	-200.000	0.045	-0.265
-633.565	-200.000	-0.001	0.014
-632.551	-3.157	-0.429	-0.300
-631.536	-102.237	0.237	-0.057
-630.522	209.095	-0.134	0.210
-629.507	311.687	0.060	-0.113
-628.492	-109.415	-0.166	0.035
-627.478	-0.212	0.060	0.042
-626.463	-200.000	-0.042	-0.217
-625.449	-1.431	0.252	-0.178
-624.434	800.000	0.040	0.174
-623.419	-27.181	0.193	0.113
-622.405	-142.091	-0.262	-0.026
-621.390	613.260	0.128	-0.321
-620.376	433.889	-0.137	0.298
-619.361	-49.664	0.102	0.049
-618.346	800.000	0.114	-0.473
-617.332	-90.749	-0.273	0.079
-616.317	-48.458	0.255	0.123
-615.303	-200.000	-0.021	-0.131
-614.288	142.892	-0.128	-0.171
-613.273	-200.000	-0.053	0.333
-612.259	-45.283	0.095	0.047
-611.244	17.655	-0.358	0.285
-610.230	32.770	-0.040	0.035
-609.215	-56.594	0.154	-0.068
-608.201	-200.000	-0.011	-0.215
-607.186	121.962	-0.135	-0.168
-606.171	15.640	0.179	-0.141
-605.157	800.000	-0.038	-0.168
-604.142	-86.991	0.306	-0.093
-603.128	800.000	-0.042	-0.144
-602.113	125.421	-0.109	0.138
-601.098	-58.125	-0.156	-0.068
-600.084	167.773	-0.088	0.126
-599.069	30.851	-0.385	-0.330
-598.055	-44.791	-0.286	-0.143
-597.040	-199.119	-0.367	0.002
-596.025	-200.000	-0.002	-0.132
-595.011	800.000	-0.087	0.256
-593.996	64.915	-0.350	0.354
-592.982	22.498	0.074	-0.061
-591.967	-8.982	0.076	-0.051
-590.952	-63.955	-0.373	-0.153
-589.938	456.499	0.099	-0.220
-588.923	396.146	0.072	-0.151
-587.909	358.418	0.033	0.066
-586.894	800.000	-0.046	-0.134
-585.879	-23.437	-0.147	0.089
-584.865	-127.036	0.434	0.064
-583.850	-44.192	0.344	0.173
-582.836	53.328	0.134	-0.128
-581.821	-43.411	0.292	0.148
-580.806	-23.076	-0.227	0.137
-579.792	-33.052	0.062	-0.034
-578.777	-26.675	0.136	-0.080
-577.763	61.849	-0.145	0.145
-576.748	-200.000	0.011	-0.254
-575.733	-110.164	0.210	-0.044
-574.719	193.727	-0.061	0.092
-573.704	134.676	-0.086	0.112
-572.690	-52.839	-0.220	0.101
-571.675	-91.594	0.355	-0.101
-570.661	-149.667	-0.161	0.013
-569.646	175.358	0.118	0.170
-568.631	800.000	-0.030	0.100
-567.617	-162.073	0.306	-0.015
-566.602	254.442	0.115	0.197
-565.588	-102.251	0.121	0.029
-564.573	-200.000	-0.009	0.108
-563.558	800.000	-0.048	0.134
-562.544	-200.000	0.002	0.196
-561.529	-139.547	-0.150	0.016
-560.515	179.253	-0.033	-0.048
-559.500	711.495	0.042	0.112
-558.485	456.327	0.193	-0.428
-557.471	134.966	0.314	-0.408
-556.456	-200.000	0.007	-0.122
-555.442	58.851	0.137	-0.135
-554.427	515.987	-0.061	0.144
-553.412	-121.690	-0.140	0.023
-552.398	10.314	-0.107	-0.082
-551.383	-69.525	0.168	-0.064
-550.369	800.000	0.023	0.072
-549.354	191.289	0.038	0.057
-548.339	36.774	0.142	-0.125
-547.325	-81.751	0.144	-0.047
-546.310	320.252	-0.088	-0.166
-545.296	-96.414	-0.142	-0.038
-544.281	-161.211	0.069	0.004
-543.266	-17.621	-0.106	0.067
-542.252	-200.000	0.369	-0.001
-541.237	-150.477	-0.573	0.044
-540.223	376.938	-0.057	-0.116
-539.208	-200.000	-0.088	-0.389
-538.193	58.243	0.157	-0.154
-537.179	800.000	0.102	0.320
-536.164	74.724	0.132	0.139
-535.150	-200.000	-0.003	0.043
-534.135	110.648	-0.240	0.288
-533.121	-43.357	-0.119	0.060
-532.106	-193.513	0.305	-0.003
-531.091	-55.809	-0.269	-0.120
-530.077	-124.329	-0.242	0.038
-529.062	-138.861	0.206	-0.022
-528.048	-40.118	-0.113	0.059
-527.033	-121.494	0.335	0.056
-526.018	-13.068	-0.223	0.144
-525.004	800.000	-0.029	-0.095
-523.989	183.254	0.179	-0.264
-522.975	-14.183	-0.288	-0.185
-521.960	50.167	0.204	-0.193
-520.945	-191.917	-0.217	0.002
-519.931	243.160	-0.078	-0.130
-518.916	20.661	-0.202	0.163
-517.902	281.281	0.138	-0.247
-516.887	-93.855	-0.211	0.058
-515.872	122.410	-0.161	0.201
-514.858	253.926	-0.091	-0.156
-513.843	-200.000	-0.006	-0.067
-512.829	-77.386	0.205	-0.071
-511.814	101.318	-0.101	0.118
-510.799	800.000	0.063	0.184
-509.785	-20.402	-0.057	0.035
-508.770	-180.740	-0.461	0.009
-507.756	345.839	-0.061	0.119
-506.741	98.615	-0.268	0.309
-505.726	36.507	-0.052	0.046
-504.712	176.353	-0.123	-0.178
-503.697	-63.773	-0.138	0.056
-502.683	800.000	0.048	0.196
-501.668	124.746	0.051	-0.064
-500.653	800.000	0.028	-0.091
-499.639	-2.376	-0.171	-0.119
-498.624	136.905	0.196	0.255
-497.610	-91.835	-0.159	-0.045
-496.595	123.307	-0.096	-0.120
-495.581	215.901	-0.032	-0.051
-494.566	-200.000	-0.024	-0.138
-493.551	-80.836	0.249	-0.082
-492.537	-26.100	-0.174	0.102
-491.522	-200.000	0.052	0.342
-490.508	-71.765	-0.040	-0.015
-489.493	-49.932	-0.141	-0.067
-488.478	-82.043	-0.435	0.142
-487.464	-200.000	0.003	0.127
-486.449	-200.000	0.015	-0.242
-485.435	-200.000	-0.014	0.105
-484.420	721.767	-0.102	-0.271
-483.405	21.412	-0.027	0.022
-482.391	-29.491	0.060	0.034
-481.376	58.974	-0.082	-0.081
-480.362	-128.914	0.246	0.034
-479.347	15.426	-0.159	-0.124
-478.332	-14.313	0.155	0.099
-477.318	-200.000	-0.013	-0.150
-476.303	-32.549	0.220	-0.122
-475.289	-120.375	-0.145	-0.025
-474.274	24.943	-0.227	-0.188
-473.259	251.464	-0.148	0.251
-472.245	800.000	0.044	0.148
-471.230	-200.000	0.014	-0.080
-470.216	-200.000	-0.018	0.304
-469.201	88.369	-0.111	0.123
-468.186	147.662	-0.240	-0.322
-467.172	123.409	0.291	-0.363
-466.157	-200.000	0.032	-0.478
-465.143	800.000	0.016	0.057
-464.128	-30.578	0.161	-0.091
-463.113	288.488	0.067	0.121
-462.099	-44.716	-0.238	0.118
-461.084	-81.761	0.513	-0.168
-460.070	-61.572	-0.224	-0.094
-459.055	244.790	0.114	0.191
-458.040	160.821	-0.116	-0.161
-457.026	-110.254	-0.262	-0.054
-456.011	-80.511	-0.286	0.095
-454.997	-200.000	0.005	-0.087
-453.982	-4.064	0.332	-0.229
-452.968	191.106	0.046	-0.069
-451.953	-200.000	0.004	-0.174
-450.938	93.098	-0.187	-0.210
-449.924	58.430	0.035	0.034
-448.909	262.609	0.066	-0.114
-447.895	-25.187	0.228	-0.134
-446.880	332.083	-0.150	-0.288
-445.865	37.834	-0.089	-0.079
-444.851	-51.778	-0.238	0.111
-443.836	34.972	0.104	0.091
-442.822	80.055	-0.135	-0.145
-441.807	24.426	-0.096	-0.079
-440.792	326.341	-0.017	0.032
-439.778	82.306	-0.288	0.311
-438.763	800.000	0.068	0.281
-437.749	-118.659	-0.188	0.033
-436.734	-96.846	0.134	0.035
-435.719	-200.000	0.004	-0.059
-434.705	247.627	-0.118	0.198
-433.690	8.923	-0.103	0.077
-432.676	-130.861	0.163	0.022
-431.661	800.000	-0.080	0.246
-430.646	-160.842	0.134	0.007
-429.632	800.000	-0.078	0.337
-428.617	142.146	-0.251	0.332
-427.603	-200.000	-0.019	-0.104
-426.588	49.470	-0.059	0.055
-425.573	-72.269	-0.148	0.054
-424.559	129.809	-0.288	0.366
-423.544	800.000	0.126	0.425
-422.530	726.334	0.062	-0.165
-421.515	800.000	-0.037	0.121
-420.500	71.466	0.088	-0.090
-419.486	247.488	0.010	-0.018
-418.471	274.111	-0.095	-0.168
-417.457	4.195	0.313	-0.228
-416.442	-48.002	0.209	0.100
-415.428	447.449	0.118	0.258
-414.413	601.538	0.053	-0.130
-413.398	-103.996	-0.198	-0.046
-412.384	-103.206	0.034	-0.008
-411.369	483.006	0.129	0.291
-410.355	163.288	0.086	0.120
-409.340	198.914	-0.193	-0.294
-408.325	-67.079	0.354	-0.139
-407.311	452.607	0.153	0.337
-406.296	-200.000	-0.006	0.325
-405.282	280.009	-0.175	-0.310
-404.267	128.929	-0.136	-0.173
-403.252	-18.776	-0.204	0.126
-402.238	54.195	-0.262	0.251
-401.223	-88.041	0.267	0.080
-400.209	-125.347	-0.215	-0.033
-399.194	-49.840	-0.203	-0.096
-398.179	-200.000	-0.013	0.294
-397.165	3.405	0.187	-0.135
-396.150	-200.000	0.001	-0.381
-395.136	238.782	-0.165	0.273
-394.121	-57.827	0.304	0.132
-393.106	-2.310	-0.049	-0.034
-392.092	-28.186	-0.183	-0.105
-391.077	-126.910	0.324	0.047
-390.063	85.097	-0.027	-0.029
-389.048	38.158	0.107	0.094
-388.033	800.000	0.145	-0.419
-387.019	-200.000	-0.005	0.130
-386.004	-64.462	-0.118	0.048
-384.990	-3.634	-0.126	0.087
-383.975	-200.000	-0.065	-0.378
-382.960	-28.235	0.109	0.063
-381.946	800.000	0.014	-0.040
-380.931	-200.000	0.137	-0.779
-379.917	800.000	0.025	-0.107
-378.902	-108.208	-0.389	0.084
-377.888	626.946	0.124	0.311
-376.873	11.363	-0.426	0.324
-375.858	800.000	0.055	0.222
-374.844	211.898	0.090	-0.141
-373.829	-86.463	-0.157	0.048
-372.815	-200.000	0.006	0.155
-371.800	143.412	-0.102	0.135
-370.785	705.433	0.065	0.169
-369.771	-200.000	0.010	0.087
-368.756	259.577	-0.025	0.042
-367.742	-200.000	-0.017	0.208
-366.727	-111.801	-0.173	-0.035
-365.712	800.000	0.043	-0.171
-364.698	-38.635	0.160	-0.084
-363.683	-200.000	0.006	0.037
-362.669	99.043	-0.052	0.059
-361.654	207.673	-0.170	-0.264
-360.639	337.112	-0.088	-0.170
-359.625	-38.419	-0.124	-0.065
-358.610	10.045	0.187	-0.141
-357.596	57.839	-0.258	-0.250
-356.581	157.745	0.106	0.146
-355.566	115.024	0.163	0.197
-354.552	-200.000	-0.021	-0.192
-353.537	800.000	0.044	0.144
-352.523	788.922	-0.084	-0.230
-351.508	176.419	0.026	0.038
-350.493	-21.190	0.258	-0.157
-349.479	87.388	-0.059	0.065
-348.464	275.042	-0.068	-0.119
-347.450	122.577	0.300	-0.372
-346.435	-3.331	-0.236	-0.163
-345.420	-200.000	0.053	0.401
-344.406	354.459	0.223	0.439
-343.391	800.000	0.059	0.239
-342.377	182.984	0.249	-0.364
-341.362	-200.000	-0.051	0.296
-340.348	156.589	-0.226	0.310
-339.333	-68.358	0.233	0.090
-338.318	-172.623	-0.332	-0.010
-337.304	-16.629	0.105	0.066
-336.289	-57.268	0.185	0.081
-335.275	-22.492	0.217	-0.130
-334.260	48.043	-0.114	-0.106
-333.245	168.402	-0.201	-0.283
-332.231	-200.000	-0.027	0.143
-331.216	-47.972	0.244	0.117
-330.202	-164.890	-0.233	-0.010
-329.187	-24.320	0.042	0.025
-328.172	122.896	0.283	-0.351
-327.158	-4.076	-0.104	-0.071
-326.143	-200.000	-0.070	0.604
-325.129	-200.000	-0.069	0.420
-324.114	-200.000	0.005	-0.200
-323.099	61.169	0.261	0.257
-322.085	279.541	0.119	0.210
-321.070	-145.671	-0.221	-0.020
-320.056	800.000	-0.174	-0.516
-319.041	90.312	0.115	-0.128
-318.026	-200.000	0.025	-0.253
-317.012	-165.556	0.257	-0.011
-315.997	-68.339	0.183	-0.070
-314.983	-155.319	-0.519	0.033
-313.968	-200.000	0.000	-0.013
-312.953	-200.000	-0.018	-0.296
-311.939	-88.133	-0.285	-0.085
-310.924	800.000	-0.071	-0.224
-309.910	-168.608	0.200	-0.008
-308.895	186.550	-0.067	-0.099
-307.880	-105.299	0.172	0.039
-306.866	244.836	0.123	0.204
-305.851	-22.892	-0.085	0.051
-304.837	489.579	-0.069	-0.156
-303.822	300.084	0.062	0.113
-302.807	-46.440	0.149	-0.073
-301.793	357.913	0.044	0.087
-300.778	-34.323	-0.153	0.083
-299.764	-35.105	-0.256	-0.138
-298.749	-200.000	0.002	0.170
-297.735	-200.000	-0.045	0.253
-296.720	-16.148	0.282	-0.177
-295.705	-200.000	-0.003	-0.124
-294.691	-51.448	-0.119	-0.055
-293.676	-51.489	-0.019	0.009
-292.662	-14.918	0.173	0.110
-291.647	10.040	0.123	0.093
-290.632	220.522	-0.060	-0.096
-289.618	-70.469	-0.229	-0.086
-288.603	-135.768	0.168	0.020
-287.589	-83.297	-0.192	-0.061
-286.574	-200.000	0.056	-0.321
-285.559	-55.917	-0.047	-0.021
-284.545	-200.000	-0.050	-0.326
-283.530	-200.000	-0.011	-0.098
-282.516	81.459	0.209	0.223
-281.501	-169.199	-0.181	-0.007
-280.486	-116.439	-0.099	0.018
-279.472	70.401	0.077	0.078
-278.457	800.000	0.055	0.202
-277.443	116.579	0.021	0.025
-276.428	-61.120	-0.083	0.035
-275.413	800.000	0.026	-0.104
-274.399	685.460	0.054	0.138
-273.384	346.704	0.103	-0.200
-272.370	141.886	0.168	-0.220
-271.355	-179.020	0.218	-0.005
-270.340	-200.000	-0.066	-0.303
-269.326	-52.827	0.196	-0.089
-268.311	-200.000	0.011	-0.079
-267.297	29.342	0.094	0.079
-266.282	176.541	0.193	0.278
-265.267	-200.000	-0.032	0.203
-264.253	800.000	0.074	0.230
-263.238	-38.332	-0.093	-0.048
-262.224	126.780	-0.128	-0.161
-261.209	-128.700	0.420	0.059
-260.195	275.445	0.097	0.170
-259.180	330.845	0.184	-0.350
-258.165	-200.000	-0.008	-0.202
-257.151	10.178	0.423	0.318
-256.136	118.583	-0.188	0.229
-255.122	9.660	0.108	0.081
-254.107	-200.000	-0.012	-0.117
-253.092	228.855	0.170	0.273
-252.078	7.632	-0.059	-0.044
-251.063	115.919	0.145	-0.175
-250.049	-200.000	0.007	0.107
-249.034	-55.428	0.384	0.170
-248.019	-105.695	-0.108	0.024
-247.005	-16.211	-0.459	0.288
-245.990	-116.898	0.334	0.060
-244.976	-2.398	-0.038	-0.026
-243.961	45.031	0.163	0.148
-242.946	88.956	-0.161	0.177
-241.932	-46.041	0.129	-0.063
-240.917	34.828	0.199	0.172
-239.903	-159.239	-0.360	-0.020
-238.888	-200.000	0.047	0.304
-237.873	800.000	-0.049	0.190
-236.859	-71.634	0.359	0.132
-235.844	-200.000	0.029	0.191
-234.830	-143.926	0.149	0.014
-233.815	-46.612	0.088	-0.043
-232.800	-200.000	0.051	-0.343
-231.786	0.373	-0.218	-0.154
-230.771	-200.000	-0.017	0.278
-229.757	-59.557	0.210	0.089
-228.742	36.142	-0.084	0.073
-227.727	800.000	-0.083	-0.357
-226.713	-147.613	-0.445	0.037
-225.698	-21.837	-0.073	0.044
-224.684	69.980	0.094	0.095
-223.669	562.834	0.116	0.278
-222.655	-108.999	-0.238	-0.050
-221.640	800.000	-0.042	0.143
-220.625	662.950	-0.084	-0.215
-219.611	354.238	-0.074	0.145
-218.596	78.542	0.117	-0.123
-217.582	-121.955	-0.146	-0.024
-216.567	-43.230	-0.112	0.056
-215.552	-200.000	0.006	-0.212
-214.538	215.876	-0.126	-0.197
-213.523	-200.000	0.002	-0.073
-212.509	-78.928	0.012	-0.004
-211.494	-69.824	-0.360	-0.135
-210.479	199.517	-0.114	0.172
-209.465	-144.712	-0.318	0.029
-208.450	4.938	0.178	0.129
-207.436	800.000	0.074	-0.268
-206.421	81.233	0.128	0.137
-205.406	-44.535	0.357	-0.176
-204.392	-200.000	0.027	0.125
-203.377	593.763	-0.036	-0.088
-202.363	800.000	-0.007	0.020
-201.348	800.000	-0.032	-0.110
-200.333	57.915	0.231	0.223
-199.319	-21.674	-0.274	0.164
-198.304	-200.000	0.005	-0.268
-197.290	-107.164	0.192	-0.042
-196.275	424.002	-0.090	0.190
-195.260	-147.102	-0.256	-0.022
-194.246	313.121	-0.081	-0.151
-193.231	611.772	0.013	-0.031
-192.217	86.344	0.059	0.065
-191.202	-67.987	-0.151	-0.058
-190.187	-161.954	-0.138	0.007
-189.173	-200.000	0.018	0.124
-188.158	545.638	-0.057	0.133
-187.144	-157.288	-0.168	-0.010
-186.129	355.996	0.103	0.201
-185.114	334.286	-0.097	-0.185
-184.100	-143.717	0.408	-0.038
-183.085	71.189	-0.157	-0.161
-182.071	-200.000	-0.053	-0.441
-181.056	-200.000	0.001	-0.011
-180.042	-123.738	0.064	-0.010
-179.027	424.926	0.117	0.249
-178.012	194.023	-0.215	-0.320
-176.998	398.288	-0.116	0.240
-175.983	81.815	-0.142	0.152
-174.969	-200.000	0.067	0.317
-173.954	172.958	0.221	-0.314
-172.939	68.079	0.224	-0.226
-171.925	-60.316	0.392	0.164
-170.910	69.749	-0.177	-0.180
-169.896	146.979	0.286	0.379
-168.881	-155.088	0.081	0.005
-167.866	200.320	0.112	-0.169
-166.852	-41.636	0.152	0.077
-165.837	800.000	0.132	-0.436
-164.823	336.881	0.074	0.142
-163.808	-200.000	0.017	0.163
-162.793	-33.818	0.335	0.182
-161.779	-109.807	-0.221	-0.046
-160.764	-166.450	0.154	-0.006
-159.750	-117.456	0.374	-0.067
-158.735	71.137	-0.185	0.189
-157.720	-50.604	-0.203	0.094
-156.706	-200.000	-0.002	0.186
-155.691	-200.000	0.057	0.367
-154.677	51.502	0.195	0.182
-153.662	-99.939	-0.188	0.046
-152.647	-52.225	-0.052	0.024
-151.633	185.750	0.060	-0.088
-150.618	-199.331	-0.495	0.003
-149.604	-60.408	0.258	-0.108
-148.589	119.711	0.117	0.143
-147.574	800.000	0.031	-0.113
-146.560	310.526	-0.054	0.100
-145.545	72.989	-0.209	-0.215
-144.531	13.620	0.199	0.152
-143.516	35.740	0.186	0.161
-142.502	36.252	-0.144	0.125
-141.487	-121.019	-0.181	0.030
-140.472	-119.523	-0.183	0.031
-139.458	441.315	-0.068	-0.147
-138.443	800.000	0.048	-0.169
-137.429	-200.000	0.003	0.235
-136.414	-4.872	0.066	0.045
-135.399	-200.000	0.037	0.192
-134.385	-152.336	0.239	0.017
-133.370	-169.400	0.013	0.000
-132.356	399.388	-0.075	-0.155
-131.341	107.927	0.081	0.095
-130.326	80.345	-0.216	-0.228
-129.312	683.138	0.080	-0.204
-128.297	98.987	0.140	0.159
-127.283	800.000	-0.077	-0.313
-126.268	203.732	0.071	-0.109
-125.253	-102.054	0.304	0.072
-124.239	678.910	0.140	0.359
-123.224	-83.476	0.388	-0.122
-122.210	-200.000	0.031	0.254
-121.195	-54.788	0.105	0.046
