DTS Sentinel unit serial number:	SN413079Multiplexer serial number:	ORYXHardware model number:	OX4-SRSoftware version number:	ORYX F/W v4.00 Oryx Data Collector v3.7.2.0data status	okinstallation	princeton_trtdifferential loss correction	single-endedforward channel	channel 2reverse channel	N/Adate	2019/09/12time	02:57:11forward acquisition time	60.00reverse acquisition time	0.00gamma	496.2192k internal	0.2326k external	0.2326temperature offset calibration	1.0096default loss term (dB/km)	0.3790temperature slope calibration	1.0000multiplexer offset coefficient	1.0000multiplexer slope coefficient	1.0000fibre end	0.00T internal ref (°C)	32.31T ext. ref 1 (°C)	2.10T ext. ref 2 (°C)	27.16length (m)	temperature (°C)	Stokes	anti-Stokes-747.200	-101.249	0.104	-0.026
-746.185	484.685	-0.067	0.155
-745.171	33.702	0.109	0.096
-744.156	800.000	-0.114	0.395
-743.142	-200.000	0.009	0.389
-742.127	-56.834	-0.283	-0.126
-741.112	167.639	-0.128	0.183
-740.098	722.637	0.021	0.057
-739.083	-200.000	0.001	0.061
-738.069	-200.000	-0.072	0.345
-737.054	98.715	-0.251	0.292
-736.039	-124.064	-0.420	0.066
-735.025	800.000	-0.060	-0.211
-734.010	-200.000	0.008	-0.326
-732.996	131.258	0.027	-0.035
-731.981	-43.670	0.258	-0.131
-730.966	61.436	0.256	-0.257
-729.952	86.925	-0.195	-0.217
-728.937	-98.217	0.358	-0.093
-727.923	9.593	0.121	0.092
-726.908	-58.276	0.142	-0.062
-725.894	-200.000	-0.066	-0.354
-724.879	-119.796	-0.139	-0.024
-723.864	-138.673	0.192	-0.021
-722.850	20.505	-0.375	0.306
-721.835	792.432	-0.143	0.397
-720.821	800.000	0.017	0.053
-719.806	106.751	0.104	-0.124
-718.791	398.513	-0.102	-0.215
-717.777	102.849	-0.252	0.297
-716.762	103.514	0.101	0.120
-715.748	-150.054	-0.013	-0.001
-714.733	-200.000	0.015	0.179
-713.718	78.429	-0.082	0.089
-712.704	-62.238	-0.168	0.070
-711.689	231.688	0.181	-0.299
-710.675	19.536	0.194	0.157
-709.660	148.454	0.136	-0.185
-708.645	-200.000	-0.022	-0.183
-707.631	-67.795	-0.148	0.058
-706.616	172.001	-0.087	0.126
-705.602	-89.710	0.162	-0.048
-704.587	155.202	-0.112	-0.155
-703.572	167.761	0.093	0.134
-702.558	-53.128	0.199	-0.092
-701.543	800.000	-0.095	-0.342
-700.529	66.585	-0.035	-0.036
-699.514	-200.000	0.026	-0.123
-698.499	800.000	-0.106	-0.338
-697.485	-24.440	-0.135	-0.081
-696.470	142.497	0.158	0.211
-695.456	130.128	-0.085	-0.110
-694.441	149.831	-0.111	-0.151
-693.426	4.101	0.194	0.143
-692.412	97.788	0.123	-0.142
-691.397	256.970	0.186	-0.321
-690.383	-107.330	0.105	-0.023
-689.368	-141.315	-0.105	0.011
-688.354	309.493	-0.075	0.141
-687.339	-16.643	0.183	0.117
-686.324	800.000	0.062	-0.222
-685.310	-142.925	-0.302	-0.029
-684.295	-200.000	0.020	0.181
-683.281	217.584	-0.131	0.210
-682.266	404.443	0.066	0.140
-681.251	-116.237	-0.429	0.080
-680.237	800.000	0.032	0.122
-679.222	-90.755	-0.236	-0.068
-678.208	800.000	-0.101	0.442
-677.193	-88.969	0.205	0.061
-676.178	220.708	0.029	-0.047
-675.164	0.163	-0.078	0.056
-674.149	13.160	-0.232	-0.180
-673.135	73.966	-0.213	-0.224
-672.120	-174.453	0.327	0.009
-671.105	685.393	-0.042	-0.110
-670.091	2.104	-0.177	-0.128
-669.076	-200.000	-0.045	0.270
-668.062	-200.000	0.006	-0.070
-667.047	-100.004	-0.283	-0.071
-666.032	98.973	0.282	0.327
-665.018	-15.801	0.210	-0.135
-664.003	-52.047	0.100	-0.047
-662.989	223.553	-0.039	-0.063
-661.974	165.244	0.018	0.026
-660.959	123.847	-0.148	0.187
-659.945	2.901	-0.062	-0.045
-658.930	215.535	0.053	0.084
-657.916	-8.587	-0.063	0.042
-656.901	800.000	-0.158	-0.446
-655.886	-95.743	-0.330	-0.089
-654.872	43.797	-0.028	-0.026
-653.857	800.000	-0.042	-0.146
-652.843	-108.408	-0.201	-0.043
-651.828	302.692	0.022	0.041
-650.814	-57.966	-0.078	0.034
-649.799	800.000	0.026	-0.104
-648.784	425.610	0.130	-0.281
-647.770	-149.703	0.423	0.033
-646.755	224.404	0.099	0.161
-645.741	30.184	-0.138	-0.118
-644.726	732.950	0.086	-0.232
-643.711	-78.350	0.187	0.064
-642.697	-200.000	0.006	-0.076
-641.682	-99.705	-0.262	0.066
-640.668	-200.000	0.010	-0.247
-639.653	-136.282	-0.065	0.008
-638.638	-189.079	-0.175	0.002
-637.624	269.368	-0.057	-0.101
-636.609	65.375	-0.280	0.285
-635.595	40.393	-0.260	0.235
-634.580	2.549	0.085	0.062
-633.565	-124.634	-0.144	-0.022
-632.551	-70.613	-0.233	-0.089
-631.536	208.558	-0.062	-0.097
-630.522	-92.729	0.251	0.070
-629.507	43.315	0.404	-0.371
-628.492	439.989	0.082	0.180
-627.478	-200.000	0.022	0.157
-626.463	227.903	-0.116	-0.190
-625.449	474.360	-0.123	-0.278
-624.434	22.428	0.480	0.394
-623.419	-200.000	-0.041	-0.282
-622.405	-51.934	0.380	-0.178
-621.390	-164.143	0.126	-0.006
-620.376	-131.855	0.043	-0.006
-619.361	-137.889	-0.202	0.023
-618.346	-200.000	-0.014	0.104
-617.332	-197.957	-0.182	-0.001
-616.317	452.442	0.185	-0.411
-615.303	-200.000	-0.066	-0.343
-614.288	-62.163	0.451	0.189
-613.273	-200.000	0.021	0.306
-612.259	220.220	-0.029	-0.047
-611.244	-55.312	-0.300	-0.135
-610.230	153.897	-0.186	-0.255
-609.215	-94.859	-0.205	-0.056
-608.201	-193.873	-0.286	0.002
-607.186	-19.043	-0.246	0.154
-606.171	41.993	-0.141	-0.128
-605.157	-139.340	0.247	-0.027
-604.142	622.006	0.060	-0.152
-603.128	-120.714	0.041	0.007
-602.113	-20.645	0.067	-0.041
-601.098	-200.000	-0.013	0.143
-600.084	-5.227	0.096	-0.066
-599.069	198.089	-0.091	-0.139
-598.055	-200.000	-0.011	0.116
-597.040	64.746	-0.025	0.025
-596.025	-200.000	-0.001	-0.063
-595.011	19.720	-0.103	-0.083
-593.996	-190.836	0.213	0.002
-592.982	-65.737	-0.194	-0.078
-591.967	26.184	-0.199	0.167
-590.952	-200.000	0.013	0.208
-589.938	800.000	-0.048	-0.170
-588.923	-200.000	-0.001	-0.144
-587.909	-37.864	0.367	0.195
-586.894	-43.659	-0.124	-0.062
-585.879	-30.873	0.217	0.123
-584.865	88.948	0.080	-0.089
-583.850	82.771	0.142	-0.155
-582.836	-51.604	-0.279	-0.131
-581.821	96.360	-0.160	0.184
-580.806	389.248	-0.059	0.122
-579.792	-200.000	0.003	-0.268
-578.777	-200.000	0.023	0.232
-577.763	336.842	-0.116	-0.226
-576.748	254.714	0.108	-0.186
-575.733	-200.000	-0.018	0.087
-574.719	-197.950	0.207	-0.001
-573.704	614.471	-0.137	-0.343
-572.690	-200.000	0.006	-0.133
-571.675	-153.775	-0.369	0.025
-570.661	-44.538	0.034	-0.017
-569.646	-200.000	0.053	0.410
-568.631	-21.573	0.125	0.076
-567.617	302.570	0.186	0.346
-566.602	800.000	0.082	-0.279
-565.588	-54.336	-0.386	-0.175
-564.573	13.713	-0.045	0.035
-563.558	-200.000	0.031	0.316
-562.544	-200.000	0.035	-0.218
-561.529	-77.083	0.082	-0.029
-560.515	-72.382	-0.314	0.116
-559.500	-67.772	-0.166	-0.065
-558.485	769.620	-0.081	-0.221
-557.471	127.268	-0.289	0.367
-556.456	100.735	0.177	-0.206
-555.442	-74.207	0.122	-0.044
-554.427	800.000	0.029	-0.096
-553.412	29.683	-0.098	-0.084
-552.398	-42.679	0.114	-0.058
-551.383	-7.060	-0.158	0.107
-550.369	659.712	0.131	-0.338
-549.354	183.855	0.218	-0.323
-548.339	42.855	0.103	-0.094
-547.325	194.315	0.118	0.179
-546.310	-49.599	0.320	0.153
-545.296	413.712	0.096	-0.204
-544.281	192.151	-0.152	0.229
-543.266	800.000	-0.097	0.307
-542.252	-104.117	-0.278	0.065
-541.237	-153.161	0.311	0.022
-540.223	49.929	-0.116	0.110
-539.208	-41.093	-0.427	-0.221
-538.193	-200.000	-0.026	-0.236
-537.179	128.554	-0.140	-0.179
-536.164	-37.264	0.098	0.052
-535.150	-98.561	-0.147	0.038
-534.135	-16.797	0.275	-0.174
-533.121	-200.000	-0.043	0.238
-532.106	-200.000	0.023	0.146
-531.091	586.660	-0.027	0.065
-530.077	-200.000	-0.025	0.168
-529.062	19.302	-0.117	0.094
-528.048	-31.382	0.250	-0.141
-527.033	63.826	-0.161	0.162
-526.018	463.332	-0.097	0.217
-525.004	-155.014	-0.100	0.007
-523.989	-54.754	0.184	0.083
-522.975	44.264	-0.145	0.133
-521.960	658.311	-0.088	0.226
-520.945	-52.906	0.227	-0.105
-519.931	91.738	0.086	-0.097
-518.916	-18.738	0.135	-0.084
-517.902	-133.557	-0.248	-0.031
-516.887	644.571	-0.079	0.202
-515.872	46.039	0.163	-0.151
-514.858	-94.257	-0.233	0.064
-513.843	-200.000	-0.012	0.124
-512.829	211.591	-0.149	0.235
-511.814	-120.323	-0.130	0.022
-510.799	-200.000	0.010	-0.106
-509.785	553.049	0.106	0.254
-508.770	-152.511	0.268	0.019
-507.756	800.000	0.088	0.281
-506.741	-61.274	0.380	-0.160
-505.726	4.290	-0.059	-0.044
-504.712	22.948	0.093	-0.076
-503.697	-200.000	0.049	0.265
-502.683	-102.682	0.063	-0.015
-501.668	403.173	-0.038	0.080
-500.653	91.191	0.221	-0.248
-499.639	-65.859	0.079	0.032
-498.624	-200.000	0.057	0.421
-497.610	30.635	0.068	-0.058
-496.595	-28.813	-0.208	-0.120
-495.581	-60.523	0.090	-0.038
-494.566	-37.427	-0.418	-0.223
-493.551	-58.331	0.258	0.112
-492.537	-33.625	0.259	0.143
-491.522	-110.499	0.177	0.037
-490.508	59.194	0.043	0.042
-489.493	-120.045	-0.161	-0.027
-488.478	124.515	-0.115	0.145
-487.464	192.818	0.219	0.330
-486.449	-200.000	-0.007	0.270
-485.435	186.063	0.093	-0.138
-484.420	-151.874	-0.186	-0.014
-483.405	329.743	0.150	-0.288
-482.391	-65.345	-0.385	-0.155
-481.376	-81.981	0.317	0.103
-480.362	326.217	-0.080	-0.153
-479.347	-19.089	-0.293	0.181
-478.332	19.058	0.250	0.200
-477.318	800.000	0.033	-0.093
-476.303	-123.578	0.294	-0.047
-475.289	605.818	0.022	0.055
-474.274	7.966	-0.057	-0.042
-473.259	-200.000	-0.008	-0.115
-472.245	212.367	0.085	0.134
-471.230	78.696	0.201	-0.215
-470.216	69.201	-0.187	-0.192
-469.201	-200.000	-0.049	-0.323
-468.186	-42.254	0.096	-0.049
-467.172	108.538	0.140	-0.166
-466.157	-10.821	-0.110	-0.073
-465.143	-130.061	0.152	-0.021
-464.128	-200.000	0.029	0.347
-463.113	-200.000	0.028	-0.204
-462.099	120.159	0.037	-0.046
-461.084	800.000	-0.043	0.171
-460.070	41.942	0.082	0.075
-459.055	-8.891	0.103	-0.069
-458.040	-37.957	0.095	0.050
-457.026	-18.171	-0.112	0.070
-456.011	53.682	0.243	0.233
-454.997	143.834	-0.083	-0.111
-453.982	800.000	0.054	-0.182
-452.968	83.667	-0.130	-0.141
-451.953	337.489	0.072	0.140
-450.938	-23.478	-0.237	-0.142
-449.924	599.387	0.181	-0.447
-448.909	363.647	0.066	-0.132
-447.895	-136.550	0.193	0.022
-446.880	28.304	0.267	0.225
-445.865	-76.597	0.208	0.073
-444.851	49.868	-0.255	-0.240
-443.836	800.000	0.010	-0.030
-442.822	-190.155	-0.183	0.002
-441.807	-149.893	0.362	0.028
-440.792	69.883	-0.260	0.268
-439.778	-200.000	0.006	0.100
-438.763	800.000	0.085	0.351
-437.749	428.134	0.053	0.113
-436.734	-36.712	0.131	-0.070
-435.719	418.697	0.047	-0.100
-434.705	695.132	-0.087	0.228
-433.690	800.000	-0.057	-0.174
-432.676	-200.000	-0.013	-0.258
-431.661	-200.000	0.069	-0.326
-430.646	-90.086	0.344	-0.100
-429.632	-37.312	0.225	0.120
-428.617	87.291	0.147	-0.162
-427.603	366.150	0.098	-0.196
-426.588	23.303	0.139	0.113
-425.573	-136.381	-0.210	-0.024
-424.559	-27.116	0.301	-0.175
-423.544	800.000	0.109	-0.317
-422.530	341.720	0.101	-0.198
-421.515	352.533	-0.092	-0.182
-420.500	225.077	0.067	-0.108
-419.486	32.160	-0.169	-0.145
-418.471	-91.163	0.302	0.086
-417.457	-64.827	-0.229	0.092
-416.442	-98.855	-0.209	-0.053
-415.428	-151.337	-0.218	0.016
-414.413	-200.000	0.031	0.346
-413.398	-200.000	-0.003	0.039
-412.384	-2.227	0.101	0.071
-411.369	510.601	0.106	-0.245
-410.355	230.753	-0.182	0.296
-409.340	-65.976	-0.330	0.131
-408.325	800.000	0.005	-0.020
-407.311	-200.000	0.013	-0.229
-406.296	246.156	0.073	-0.122
-405.282	800.000	0.030	-0.109
-404.267	-200.000	-0.005	-0.298
-403.252	-135.365	0.236	0.028
-402.238	-200.000	0.009	0.106
-401.223	260.078	-0.045	0.078
-400.209	-119.377	-0.075	0.013
-399.194	308.217	0.075	-0.139
-398.179	-19.021	-0.150	0.093
-397.165	-80.471	-0.248	0.082
-396.150	76.090	0.209	0.220
-395.136	29.102	0.134	0.113
-394.121	-86.451	0.132	-0.040
-393.106	229.969	-0.165	-0.269
-392.092	-26.956	-0.391	-0.227
-391.077	549.497	-0.126	0.301
-390.063	-50.589	0.087	-0.041
-389.048	-200.000	-0.006	-0.110
-388.033	800.000	0.060	0.247
-387.019	800.000	0.103	0.326
-386.004	-36.531	-0.223	-0.120
-384.990	43.056	0.116	-0.105
-383.975	175.443	-0.042	0.060
-382.960	26.461	-0.222	-0.185
-381.946	-58.793	0.316	-0.136
-380.931	-200.000	0.015	-0.269
-379.917	-200.000	0.030	0.202
-378.902	668.789	0.140	-0.361
-377.888	-200.000	-0.005	0.153
-376.873	-200.000	0.007	-0.070
-375.858	-124.474	0.320	-0.049
-374.844	96.595	0.175	0.199
-373.829	-200.000	0.021	0.127
-372.815	-148.445	0.437	-0.036
-371.800	25.918	-0.143	-0.119
-370.785	46.166	-0.113	0.104
-369.771	280.691	-0.191	0.339
-368.756	800.000	-0.078	0.223
-367.742	-1.423	-0.164	-0.115
-366.727	-50.448	-0.171	0.080
-365.712	230.813	-0.038	-0.061
-364.698	-200.000	-0.040	0.177
-363.683	137.271	0.167	-0.217
-362.669	-1.209	-0.064	-0.045
-361.654	27.833	0.253	-0.212
-360.639	-17.196	0.131	-0.082
-359.625	-69.513	0.215	0.082
-358.610	800.000	-0.026	0.092
-357.596	800.000	-0.104	0.332
-356.581	18.717	-0.123	0.098
-355.566	-54.725	0.265	0.119
-354.552	-49.082	-0.438	-0.208
-353.537	-11.377	-0.071	-0.046
-352.523	-118.454	-0.207	0.036
-351.508	23.116	0.114	0.093
-350.493	-181.416	-0.227	-0.004
-349.479	236.846	-0.066	-0.109
-348.464	-200.000	-0.039	0.435
-347.450	24.280	0.194	-0.159
-346.435	213.808	-0.044	-0.069
-345.420	-60.598	-0.185	-0.078
-344.406	63.933	0.159	0.159
-343.391	800.000	-0.092	0.281
-342.377	-106.404	-0.189	0.042
-341.362	-200.000	-0.004	-0.110
-340.348	100.657	-0.131	-0.151
-339.333	-164.261	-0.284	-0.013
-338.318	-200.000	0.050	0.350
-337.304	229.457	-0.139	-0.225
-336.289	-104.638	0.230	0.053
-335.275	-200.000	0.014	-0.115
-334.260	412.493	0.034	0.072
-333.245	-77.717	-0.136	0.047
-332.231	-56.108	-0.268	0.118
-331.216	-200.000	-0.062	0.341
-330.202	-20.834	0.228	0.139
-329.187	104.880	0.218	0.256
-328.172	106.251	0.090	0.105
-327.158	-6.600	-0.260	-0.176
-326.143	-146.547	0.577	-0.050
-325.129	-9.017	0.215	0.142
-324.114	-111.711	0.109	0.022
-323.099	-35.404	-0.197	-0.106
-322.085	-26.164	0.454	0.265
-321.070	800.000	0.051	-0.160
-320.056	396.190	-0.143	0.296
-319.041	-90.741	0.166	-0.048
-318.026	-46.772	0.232	-0.112
-317.012	-103.796	-0.498	0.115
-315.997	172.870	-0.211	0.301
-314.983	502.032	-0.059	-0.134
-313.968	-200.000	0.015	0.261
-312.953	65.039	-0.078	0.078
-311.939	-161.410	-0.118	-0.006
-310.924	-73.773	0.146	-0.053
-309.910	209.900	0.142	0.221
-308.895	36.533	-0.051	0.045
-307.880	-200.000	-0.192	-0.000
-306.866	-26.908	-0.241	0.139
-305.851	4.875	-0.295	-0.215
-304.837	-37.210	-0.044	-0.023
-303.822	-19.098	-0.082	0.051
-302.807	86.208	0.325	-0.355
-301.793	-34.793	0.118	0.064
-300.778	-44.299	0.135	0.067
-299.764	125.503	0.206	-0.257
-298.749	603.146	0.046	-0.114
-297.735	-151.995	-0.323	0.023
-296.720	-23.305	0.197	-0.117
-295.705	11.624	-0.035	-0.026
-294.691	100.105	-0.072	0.082
-293.676	-200.000	0.014	0.299
-292.662	-134.956	0.076	-0.009
-291.647	-83.309	-0.253	0.080
-290.632	-171.833	0.140	0.005
-289.618	800.000	0.106	0.360
-288.603	107.745	-0.145	-0.171
-287.589	45.289	0.315	-0.288
-286.574	347.095	0.122	0.238
-285.559	-127.301	0.185	-0.027
-284.545	-138.737	0.154	0.017
-283.530	-46.049	0.105	0.051
-282.516	87.289	-0.175	-0.192
-281.501	-200.000	-0.009	-0.194
-280.486	-26.334	-0.075	0.044
-279.472	52.551	-0.237	0.224
-278.457	-132.895	0.081	0.010
-277.443	472.506	0.136	-0.304
-276.428	317.873	-0.073	-0.137
-275.413	-173.693	-0.147	0.004
-274.399	-118.765	-0.184	-0.032
-273.384	-200.000	-0.015	-0.102
-272.370	112.118	-0.167	0.199
-271.355	800.000	0.123	-0.351
-270.340	631.562	-0.053	0.133
-269.326	-200.000	0.005	-0.065
-268.311	-200.000	-0.024	0.180
-267.297	10.642	-0.246	0.186
-266.282	210.087	-0.183	-0.284
-265.267	-200.000	-0.004	0.105
-264.253	800.000	0.025	0.085
-263.238	-113.342	-0.062	-0.012
-262.224	-164.729	-0.338	0.015
-261.209	477.318	0.022	-0.050
-260.195	50.128	0.196	-0.183
-259.180	-200.000	0.018	0.081
-258.165	212.518	-0.150	0.234
-257.151	-64.916	-0.078	0.031
-256.136	-179.927	-0.040	0.001
-255.122	-56.658	-0.118	-0.052
-254.107	800.000	0.042	0.159
-253.092	-2.766	-0.303	-0.209
-252.078	729.558	-0.080	-0.212
-251.063	-156.321	-0.070	0.004
-250.049	-65.458	0.085	0.034
-249.034	-171.465	-0.130	-0.004
-248.019	-200.000	0.015	0.341
-247.005	-200.000	-0.048	0.359
-245.990	-150.858	0.228	-0.017
-244.976	-45.770	0.110	0.054
-243.961	184.605	0.105	0.154
-242.946	-80.589	-0.093	-0.031
-241.932	-200.000	0.004	0.070
-240.917	-104.378	0.241	0.055
-239.903	-137.438	-0.280	-0.031
-238.888	-200.000	-0.010	0.154
-237.873	-53.879	0.328	0.148
-236.859	-22.407	-0.038	-0.023
-235.844	63.418	-0.133	-0.131
-234.830	800.000	-0.087	0.275
-233.815	455.389	0.014	0.031
-232.800	-200.000	0.033	0.259
-231.786	152.583	-0.190	0.256
-230.771	-23.367	-0.158	-0.094
-229.757	-117.585	0.171	-0.030
-228.742	-200.000	-0.065	-0.295
-227.727	146.458	0.157	0.208
-226.713	63.953	0.172	-0.171
-225.698	-200.000	0.037	-0.190
-224.684	-200.000	-0.025	0.142
-223.669	-200.000	0.020	0.274
-222.655	25.908	0.040	0.033
-221.640	74.125	-0.042	-0.044
-220.625	-200.000	0.021	0.162
-219.611	-115.929	-0.215	0.040
-218.596	93.450	0.223	-0.249
-217.582	-200.000	-0.059	-0.261
-216.567	-68.050	-0.319	-0.123
-215.552	-20.416	-0.179	0.109
-214.538	436.335	0.102	-0.219
-213.523	-132.947	-0.406	0.051
-212.509	-138.733	0.167	0.018
-211.494	800.000	0.040	-0.156
-210.479	-200.000	0.013	-0.095
-209.465	-200.000	0.013	-0.091
-208.450	-100.616	-0.291	0.071
-207.436	-93.276	-0.099	0.027
-206.421	-58.432	-0.366	0.157
-205.406	800.000	0.088	-0.263
-204.392	800.000	0.026	-0.112
-203.377	-67.821	0.404	-0.156
-202.363	248.615	0.101	-0.169
-201.348	-139.944	0.114	-0.012
-200.333	-56.071	-0.131	-0.058
-199.319	457.009	0.144	0.316
-198.304	-200.000	0.020	0.359
-197.290	-172.081	-0.243	-0.008
-196.275	-137.977	-0.090	-0.010
-195.260	800.000	0.066	0.235
-194.246	-200.000	0.126	-0.001
-193.231	-55.789	-0.146	-0.064
-192.217	-200.000	-0.017	0.140
-191.202	95.454	-0.096	0.108
-190.187	-69.332	0.381	-0.144
-189.173	-40.757	-0.212	-0.108
-188.158	14.133	-0.188	-0.144
-187.144	-56.275	-0.164	0.072
-186.129	140.085	-0.082	-0.106
-185.114	211.897	0.064	-0.099
-184.100	-24.246	-0.414	-0.244
-183.085	61.698	0.164	0.161
-182.071	-200.000	0.012	-0.255
-181.056	47.275	-0.083	-0.076
-180.042	447.969	0.024	-0.052
-179.027	235.759	-0.134	-0.219
-178.012	-168.973	0.121	0.004
-176.998	267.394	0.167	0.288
-175.983	-200.000	-0.007	0.139
-174.969	95.886	0.261	0.294
-173.954	800.000	-0.051	-0.155
-172.939	800.000	0.058	-0.194
-171.925	-6.387	0.127	-0.085
-170.910	-9.827	-0.205	0.135
-169.896	168.389	-0.033	-0.046
-168.881	-64.906	-0.089	-0.035
-167.866	64.055	0.188	-0.186
-166.852	800.000	-0.044	-0.180
-165.837	-200.000	-0.022	-0.201
-164.823	-112.247	-0.350	0.069
-163.808	54.484	0.121	0.115
-162.793	800.000	0.124	0.493
-161.779	800.000	-0.077	-0.229
-160.764	-124.292	0.044	-0.007
-159.750	293.912	-0.085	-0.152
-158.735	35.222	-0.190	-0.164
-157.720	-177.456	0.183	-0.004
-156.706	-200.000	-0.024	-0.154
-155.691	-2.514	-0.077	-0.053
-154.677	2.428	0.313	0.223
-153.662	-68.614	0.081	0.031
-152.647	33.354	-0.070	0.060
-151.633	-200.000	0.010	0.235
-150.618	800.000	0.057	0.201
-149.604	-151.704	-0.268	0.019
-148.589	-40.529	0.519	0.265
-147.574	-48.806	-0.237	-0.112
-146.560	-62.739	-0.236	0.096
-145.545	-200.000	0.017	-0.082
-144.531	-4.811	-0.198	0.135
-143.516	-48.809	-0.114	-0.054
-142.502	800.000	0.026	-0.077
-141.487	-200.000	0.047	0.218
-140.472	-200.000	-0.041	0.224
-139.458	381.956	0.031	0.063
-138.443	-106.312	-0.014	0.003
-137.429	-136.859	0.302	-0.034
-136.414	800.000	0.008	-0.033
-135.399	532.224	-0.074	0.173
-134.385	800.000	0.037	0.123
-133.370	165.531	0.113	0.158
-132.356	74.323	-0.129	0.133
-131.341	-186.515	0.178	-0.002
-130.326	-42.292	0.159	0.080
-129.312	-100.373	-0.385	0.094
-128.297	-200.000	0.000	0.292
-127.283	767.289	0.144	-0.386
-126.268	-28.620	0.304	0.172
-125.253	121.886	0.070	0.085
-124.239	101.067	-0.205	-0.235
-123.224	-57.444	-0.238	-0.103
-122.210	18.239	-0.129	0.101
-121.195	53.076	0.231	0.217
