DTS Sentinel unit serial number:	SN413079Multiplexer serial number:	ORYXHardware model number:	OX4-SRSoftware version number:	ORYX F/W v4.00 Oryx Data Collector v3.7.2.0data status	okinstallation	princeton_trtdifferential loss correction	single-endedforward channel	channel 2reverse channel	N/Adate	2019/09/11time	01:29:11forward acquisition time	60.00reverse acquisition time	0.00gamma	496.2192k internal	0.2332k external	0.2332temperature offset calibration	0.9942default loss term (dB/km)	0.3790temperature slope calibration	1.0000multiplexer offset coefficient	1.0000multiplexer slope coefficient	1.0000fibre end	0.00T internal ref (°C)	29.12T ext. ref 1 (°C)	-0.31T ext. ref 2 (°C)	23.47length (m)	temperature (°C)	Stokes	anti-Stokes-747.200	-165.856	0.255	-0.011
-746.185	-200.000	0.004	-0.103
-745.171	21.666	0.326	0.267
-744.156	-43.335	-0.322	0.164
-743.142	-111.133	-0.161	-0.033
-742.127	-200.000	-0.019	0.092
-741.112	-200.000	0.013	0.142
-740.098	686.812	0.110	0.289
-739.083	354.680	0.157	-0.314
-738.069	160.232	-0.060	0.084
-737.054	-127.219	0.103	-0.015
-736.039	429.771	-0.054	-0.118
-735.025	800.000	0.059	0.165
-734.010	-9.891	0.064	-0.043
-732.996	53.125	-0.018	0.017
-731.981	515.802	-0.084	-0.197
-730.966	197.550	0.241	-0.370
-729.952	12.021	-0.293	-0.226
-728.937	-3.164	-0.296	0.208
-727.923	-136.420	-0.291	-0.034
-726.908	473.385	-0.087	-0.198
-725.894	95.368	0.153	0.175
-724.879	221.827	-0.217	0.351
-723.864	-200.000	0.006	-0.253
-722.850	-19.009	-0.237	-0.148
-721.835	12.167	-0.087	-0.068
-720.821	800.000	-0.071	-0.245
-719.806	143.367	-0.050	0.067
-718.791	192.980	-0.082	0.124
-717.777	379.332	0.182	-0.375
-716.762	-54.192	-0.214	0.098
-715.748	-24.515	0.161	0.096
-714.733	11.873	0.190	-0.147
-713.718	90.379	0.181	0.204
-712.704	-200.000	0.014	0.208
-711.689	800.000	-0.032	0.112
-710.675	-7.324	-0.222	-0.151
-709.660	-200.000	-0.003	-0.252
-708.645	56.084	0.069	-0.067
-707.631	-85.272	0.106	0.033
-706.616	243.704	0.152	-0.257
-705.602	-9.366	-0.272	-0.182
-704.587	-58.630	-0.120	-0.052
-703.572	-200.000	-0.029	-0.219
-702.558	-62.689	0.145	0.060
-701.543	93.256	0.262	-0.298
-700.529	-128.718	-0.019	-0.003
-699.514	131.263	-0.177	-0.229
-698.499	23.814	0.196	-0.162
-697.485	-24.706	0.189	-0.113
-696.470	785.693	-0.160	-0.442
-695.456	-200.000	-0.012	0.055
-694.441	-89.382	-0.307	-0.091
-693.426	-119.102	-0.307	0.054
-692.412	555.436	-0.096	0.233
-691.397	800.000	0.002	-0.007
-690.383	13.986	0.103	0.081
-689.368	39.424	0.149	-0.134
-688.354	263.686	0.160	-0.280
-687.339	-82.303	0.185	0.060
-686.324	-86.503	-0.198	0.061
-685.310	-182.798	-0.302	0.005
-684.295	-200.000	0.003	-0.295
-683.281	151.654	0.105	0.143
-682.266	-200.000	-0.002	-0.076
-681.251	-200.000	0.001	-0.230
-680.237	-160.895	-0.235	0.012
-679.222	-27.433	0.174	-0.102
-678.208	-36.932	-0.230	-0.124
-677.193	-200.000	0.022	0.133
-676.178	-87.756	-0.144	0.044
-675.164	-139.620	-0.304	-0.032
-674.149	104.364	-0.066	-0.078
-673.135	167.341	0.093	0.132
-672.120	-76.364	0.397	-0.140
-671.105	-200.000	-0.036	0.343
-670.091	-200.000	-0.007	0.099
-669.076	46.324	0.073	0.068
-668.062	-123.992	-0.457	-0.072
-667.047	261.476	-0.052	-0.091
-666.032	162.671	0.073	-0.103
-665.018	22.304	-0.162	-0.133
-664.003	63.318	0.223	-0.224
-662.989	-147.674	0.315	-0.027
-661.974	162.487	0.131	-0.184
-660.959	-130.451	0.233	0.032
-659.945	-63.328	-0.264	0.109
-658.930	-31.598	0.199	0.112
-657.916	800.000	0.046	-0.201
-656.901	163.515	-0.140	-0.197
-655.886	800.000	-0.048	0.191
-654.872	800.000	-0.076	0.274
-653.857	-57.447	0.157	0.069
-652.843	120.957	-0.115	0.143
-651.828	347.432	0.113	-0.222
-650.814	800.000	-0.090	-0.257
-649.799	189.617	-0.072	-0.108
-648.784	-89.359	-0.116	-0.034
-647.770	-200.000	-0.074	0.327
-646.755	-35.049	-0.182	-0.099
-645.741	800.000	-0.094	-0.325
-644.726	-19.402	-0.102	0.063
-643.711	-60.064	0.209	0.089
-642.697	775.107	-0.039	-0.108
-641.682	-151.793	0.504	-0.037
-640.668	-200.000	-0.029	0.202
-639.653	43.411	-0.260	-0.238
-638.638	80.571	-0.142	0.154
-637.624	-180.893	0.054	-0.001
-636.609	659.665	-0.068	-0.176
-635.595	-200.000	-0.017	0.139
-634.580	40.323	-0.138	-0.124
-633.565	116.289	-0.075	0.092
-632.551	65.977	-0.061	-0.062
-631.536	-161.838	0.104	0.005
-630.522	273.011	-0.014	0.025
-629.507	-11.779	-0.114	0.075
-628.492	-200.000	-0.070	0.326
-627.478	-200.000	0.024	0.227
-626.463	-200.000	-0.001	-0.123
-625.449	719.234	0.052	0.140
-624.434	-187.026	0.117	0.002
-623.419	800.000	0.060	0.223
-622.405	-6.779	-0.115	-0.078
-621.390	288.294	-0.066	0.120
-620.376	-79.138	0.307	0.105
-619.361	-39.632	-0.146	0.076
-618.346	257.240	-0.134	-0.231
-617.332	-109.748	0.228	-0.048
-616.317	398.233	0.103	-0.216
-615.303	10.632	-0.013	-0.010
-614.288	470.261	-0.068	-0.154
-613.273	30.045	-0.244	-0.208
-612.259	148.908	-0.241	-0.327
-611.244	15.499	-0.177	-0.139
-610.230	253.626	-0.186	0.319
-609.215	40.803	0.136	0.123
-608.201	-71.647	0.189	0.071
-607.186	-200.000	-0.000	-0.349
-606.171	167.090	0.047	0.067
-605.157	-145.676	-0.175	0.016
-604.142	-200.000	-0.003	-0.132
-603.128	-183.039	0.139	0.002
-602.113	-200.000	-0.046	-0.298
-601.098	-159.503	-0.316	0.018
-600.084	21.407	0.106	-0.086
-599.069	621.565	-0.075	-0.189
-598.055	36.792	0.080	0.071
-597.040	-31.716	0.320	-0.180
-596.025	-200.000	0.011	-0.116
-595.011	-200.000	-0.005	-0.259
-593.996	-200.000	-0.018	-0.110
-592.982	184.668	0.179	0.265
-591.967	2.516	-0.078	0.056
-590.952	800.000	0.041	-0.132
-589.938	780.773	0.076	-0.207
-588.923	-86.709	-0.412	-0.126
-587.909	14.191	-0.196	0.153
-586.894	218.747	0.161	-0.257
-585.879	-180.426	-0.213	0.004
-584.865	188.880	-0.230	-0.344
-583.850	-80.357	0.056	-0.019
-582.836	-146.406	-0.211	-0.018
-581.821	-54.966	0.026	-0.012
-580.806	100.275	0.148	0.172
-579.792	-200.000	-0.055	-0.287
-578.777	-6.157	0.148	0.101
-577.763	94.529	-0.128	-0.146
-576.748	-200.000	-0.001	-0.017
-575.733	-1.576	-0.150	0.106
-574.719	329.494	-0.066	0.127
-573.704	211.105	0.193	-0.303
-572.690	94.607	0.126	0.144
-571.675	-98.287	0.347	0.089
-570.661	-85.012	-0.175	0.055
-569.646	-136.414	0.185	-0.022
-568.631	800.000	0.015	-0.065
-567.617	-200.000	-0.005	-0.492
-566.602	-125.267	-0.383	-0.058
-565.588	8.041	-0.107	-0.080
-564.573	606.332	-0.047	-0.117
-563.558	-200.000	-0.009	-0.060
-562.544	-51.673	0.148	0.069
-561.529	73.488	0.247	-0.259
-560.515	-200.000	0.012	-0.060
-559.500	-200.000	-0.105	-0.493
-558.485	-129.104	0.304	0.043
-557.471	178.227	-0.073	0.106
-556.456	-0.249	-0.189	-0.134
-555.442	71.274	0.051	0.053
-554.427	800.000	-0.075	-0.214
-553.412	753.850	0.141	0.380
-552.398	-154.255	0.208	-0.014
-551.383	-73.701	-0.082	-0.030
-550.369	301.436	0.056	-0.103
-549.354	21.665	0.174	0.141
-548.339	7.996	0.219	-0.164
-547.325	-49.729	-0.557	-0.264
-546.310	-68.200	-0.114	0.044
-545.296	-70.495	0.075	-0.028
-544.281	107.944	-0.167	-0.199
-543.266	-53.291	-0.139	-0.064
-542.252	81.709	-0.217	0.234
-541.237	94.627	-0.191	0.217
-540.223	-90.757	0.158	-0.045
-539.208	-37.910	0.222	0.118
-538.193	800.000	-0.114	-0.356
-537.179	565.654	-0.042	0.102
-536.164	-68.239	-0.286	-0.111
-535.150	-136.793	-0.164	0.019
-534.135	186.826	0.112	0.166
-533.121	713.730	-0.016	0.041
-532.106	-39.448	0.378	0.198
-531.091	-31.638	-0.260	0.146
-530.077	416.489	-0.039	0.084
-529.062	-155.751	0.195	0.012
-528.048	761.160	-0.074	-0.201
-527.033	686.809	0.098	-0.254
-526.018	-72.866	-0.150	-0.055
-525.004	302.516	0.119	0.219
-523.989	-200.000	0.022	-0.137
-522.975	-146.654	0.099	0.009
-521.960	171.076	-0.031	-0.044
-520.945	-200.000	-0.097	0.519
-519.931	38.835	-0.197	0.176
-518.916	-90.341	0.164	0.048
-517.902	-200.000	0.024	0.423
-516.887	-74.280	0.272	0.098
-515.872	-57.034	0.264	-0.116
-514.858	-61.269	0.157	0.066
-513.843	3.240	-0.203	0.147
-512.829	106.707	-0.062	-0.073
-511.814	524.130	0.094	-0.220
-510.799	-72.529	-0.193	0.071
-509.785	-106.241	-0.343	-0.077
-508.770	95.838	0.214	0.243
-507.756	-8.001	-0.014	-0.009
-506.741	800.000	0.064	0.263
-505.726	77.366	-0.122	0.129
-504.712	-200.000	-0.050	0.272
-503.697	116.450	-0.373	-0.456
-502.683	-169.647	-0.029	-0.001
-501.668	-114.611	0.145	-0.028
-500.653	800.000	-0.018	0.077
-499.639	-200.000	-0.031	0.252
-498.624	555.970	-0.099	0.238
-497.610	505.073	0.063	-0.146
-496.595	296.021	0.163	-0.297
-495.581	-9.786	-0.251	-0.167
-494.566	-55.055	0.178	-0.080
-493.551	-0.616	-0.159	0.112
-492.537	-200.000	0.024	-0.228
-491.522	-184.858	0.059	-0.001
-490.508	702.043	0.059	-0.156
-489.493	10.140	0.152	-0.115
-488.478	-64.930	-0.293	0.118
-487.464	-8.124	0.216	0.145
-486.449	349.073	0.004	-0.008
-485.435	337.619	-0.098	0.189
-484.420	-200.000	-0.029	0.132
-483.405	-26.408	0.344	0.201
-482.391	735.938	-0.075	0.201
-481.376	-30.044	-0.247	0.140
-480.362	-140.269	0.327	0.034
-479.347	0.276	-0.110	0.078
-478.332	-77.258	-0.191	-0.066
-477.318	-200.000	-0.001	0.456
-476.303	-200.000	-0.033	-0.183
-475.289	551.555	0.061	0.146
-474.274	-200.000	0.021	0.313
-473.259	-98.312	0.233	-0.059
-472.245	-189.285	0.102	-0.001
-471.230	49.787	0.102	-0.096
-470.216	-65.719	0.158	-0.063
-469.201	7.054	0.220	-0.163
-468.186	800.000	-0.027	-0.088
-467.172	-162.849	-0.353	-0.017
-466.157	202.575	-0.041	0.063
-465.143	307.477	-0.050	0.092
-464.128	800.000	-0.014	-0.050
-463.113	-23.974	-0.099	0.059
-462.099	-75.353	0.118	0.042
-461.084	-159.426	-0.177	-0.010
-460.070	34.531	-0.233	-0.202
-459.055	-200.000	0.009	-0.060
-458.040	-39.830	-0.104	-0.054
-457.026	209.038	0.276	-0.431
-456.011	-200.000	-0.037	0.204
-454.997	455.468	0.135	0.297
-453.982	-142.495	0.088	0.009
-452.968	280.695	0.056	0.099
-451.953	266.146	0.104	0.180
-450.938	-131.216	0.181	0.024
-449.924	246.798	0.229	0.384
-448.909	438.325	-0.046	-0.100
-447.895	0.194	-0.015	-0.011
-446.880	800.000	0.051	-0.194
-445.865	141.011	0.126	-0.165
-444.851	-56.202	-0.140	-0.062
-443.836	-30.882	-0.227	-0.128
-442.822	-200.000	0.025	0.119
-441.807	-154.886	-0.251	0.016
-440.792	98.750	-0.179	0.205
-439.778	796.113	0.049	-0.133
-438.763	-195.374	-0.134	0.001
-437.749	-200.000	0.011	0.051
-436.734	16.177	-0.246	-0.193
-435.719	96.573	-0.120	-0.136
-434.705	-200.000	0.001	0.283
-433.690	-200.000	-0.053	0.265
-432.676	-200.000	0.064	0.438
-431.661	-42.695	-0.206	-0.104
-430.646	-82.315	0.069	-0.022
-429.632	225.358	-0.063	0.101
-428.617	-200.000	-0.016	-0.176
-427.603	800.000	-0.073	-0.250
-426.588	800.000	0.075	-0.210
-425.573	-200.000	0.013	-0.175
-424.559	299.318	0.156	0.285
-423.544	-200.000	-0.255	0.000
-422.530	-200.000	0.008	0.258
-421.515	200.984	-0.105	0.160
-420.500	-155.592	-0.182	-0.012
-419.486	800.000	0.046	-0.148
-418.471	216.698	-0.125	-0.198
-417.457	-57.944	-0.268	0.116
-416.442	534.623	0.068	0.160
-415.428	42.668	0.130	0.117
-414.413	-11.502	0.222	0.145
-413.398	198.248	0.182	0.276
-412.384	-200.000	0.035	0.346
-411.369	-160.374	0.183	0.010
-410.355	800.000	0.108	0.358
-409.340	295.400	0.084	0.153
-408.325	800.000	0.017	-0.072
-407.311	-200.000	0.012	-0.087
-406.296	-48.239	0.263	-0.126
-405.282	125.357	0.087	-0.109
-404.267	-111.340	0.052	0.011
-403.252	-79.796	-0.377	0.126
-402.238	-45.753	0.200	-0.098
-401.223	267.112	-0.221	0.383
-400.209	-83.787	0.117	-0.037
-399.194	170.114	-0.221	0.314
-398.179	57.618	0.130	0.126
-397.165	800.000	0.065	-0.184
-396.150	800.000	-0.088	0.280
-395.136	-200.000	-0.003	0.335
-394.121	-23.060	0.171	0.102
-393.106	-147.503	-0.009	0.001
-392.092	125.182	-0.095	0.119
-391.077	-89.209	0.191	-0.056
-390.063	-78.564	-0.095	-0.032
-389.048	-200.000	-0.033	0.184
-388.033	-174.629	0.403	0.011
-387.019	359.699	-0.086	-0.170
-386.004	-4.419	-0.099	0.068
-384.990	247.858	-0.047	-0.079
-383.975	80.704	0.255	-0.273
-382.960	-188.739	-0.108	0.001
-381.946	-39.019	0.181	-0.095
-380.931	442.025	-0.057	-0.124
-379.917	-200.000	-0.084	-0.412
-378.902	564.306	-0.156	-0.375
-377.888	-79.610	0.236	0.079
-376.873	-154.545	-0.363	0.024
-375.858	-200.000	0.028	0.274
-374.844	800.000	-0.059	-0.219
-373.829	-25.782	-0.353	-0.206
-372.815	-200.000	0.001	-0.086
-371.800	52.265	0.108	-0.102
-370.785	14.358	-0.076	-0.059
-369.771	-74.483	0.121	-0.043
-368.756	-118.593	0.239	0.042
-367.742	145.233	0.071	-0.094
-366.727	-107.906	0.173	0.037
-365.712	-24.902	0.093	-0.055
-364.698	103.856	-0.190	0.222
-363.683	-7.033	-0.263	0.177
-362.669	132.040	-0.044	-0.056
-361.654	-103.968	-0.118	-0.027
-360.639	313.895	-0.092	0.172
-359.625	-62.529	-0.244	-0.100
-358.610	131.453	-0.126	0.161
-357.596	-200.000	0.046	0.242
-356.581	-67.214	-0.372	-0.145
-355.566	800.000	-0.016	-0.061
-354.552	800.000	0.016	-0.048
-353.537	-200.000	0.016	0.184
-352.523	800.000	0.053	-0.182
-351.508	800.000	-0.091	-0.347
-350.493	-24.997	-0.142	0.084
-349.479	800.000	-0.050	0.207
-348.464	119.719	0.071	-0.088
-347.450	-137.641	0.369	0.041
-346.435	-120.476	-0.141	-0.024
-345.420	800.000	0.051	-0.192
-344.406	440.136	0.067	0.144
-343.391	59.365	0.130	0.127
-342.377	-106.804	-0.248	-0.054
-341.362	7.695	-0.095	0.070
-340.348	800.000	-0.076	-0.213
-339.333	784.659	-0.041	0.111
-338.318	-191.721	0.138	-0.001
-337.304	-155.347	-0.444	-0.029
-336.289	455.686	-0.132	-0.289
-335.275	-83.199	-0.125	0.040
-334.260	258.930	-0.128	0.219
-333.245	-105.438	-0.077	-0.017
-332.231	83.570	0.103	0.112
-331.216	-200.000	0.054	0.239
-330.202	-153.664	0.320	-0.022
-329.187	800.000	0.061	-0.255
-328.172	431.624	-0.209	0.449
-327.158	-157.669	-0.152	0.009
-326.143	-5.151	-0.044	0.030
-325.129	281.368	0.037	-0.066
-324.114	99.398	0.290	-0.331
-323.099	383.152	0.155	-0.316
-322.085	687.914	0.063	-0.163
-321.070	-88.339	0.381	-0.113
-320.056	-94.492	0.126	-0.034
-319.041	-200.000	0.056	0.260
-318.026	-81.678	0.042	-0.014
-317.012	271.017	-0.187	-0.325
-315.997	-200.000	-0.065	-0.329
-314.983	407.142	-0.043	-0.089
-313.968	109.703	0.157	0.186
-312.953	-52.738	0.369	0.168
-311.939	419.265	0.171	0.362
-310.924	-35.306	-0.100	-0.054
-309.910	417.730	-0.064	-0.136
-308.895	122.393	0.010	-0.013
-307.880	-123.830	0.030	-0.005
-306.866	65.531	-0.059	0.059
-305.851	-197.046	0.211	-0.001
-304.837	101.932	-0.110	-0.127
-303.822	-96.421	0.168	0.044
-302.807	226.604	-0.133	-0.214
-301.793	21.333	-0.168	-0.135
-300.778	-32.216	-0.297	0.164
-299.764	-83.577	0.341	-0.108
-298.749	-8.373	-0.245	0.163
-297.735	800.000	-0.054	-0.211
-296.720	65.131	-0.086	0.086
-295.705	540.919	-0.098	0.230
-294.691	431.754	-0.119	-0.254
-293.676	-200.000	0.004	0.113
-292.662	-112.505	-0.228	0.045
-291.647	-77.806	-0.116	0.040
-290.632	-138.707	-0.245	-0.026
-289.618	-200.000	0.025	-0.240
-288.603	-200.000	0.020	0.124
-287.589	319.441	-0.106	-0.199
-286.574	800.000	-0.052	-0.192
-285.559	-200.000	0.021	0.141
-284.545	750.104	-0.124	0.331
-283.530	-105.451	-0.257	-0.058
-282.516	-149.232	0.226	-0.018
-281.501	-200.000	-0.002	0.031
-280.486	-172.018	0.295	0.009
-279.472	269.985	0.096	-0.166
-278.457	-54.718	-0.139	-0.062
-277.443	172.197	0.186	0.264
-276.428	-200.000	0.000	0.328
-275.413	3.227	-0.314	-0.226
-274.399	800.000	0.013	0.042
-273.384	39.729	0.268	0.237
-272.370	-18.005	0.072	-0.045
-271.355	-14.387	0.191	-0.122
-270.340	-200.000	-0.024	-0.119
-269.326	800.000	0.043	0.161
-268.311	-57.976	-0.188	0.081
-267.297	-200.000	-0.033	0.234
-266.282	134.102	0.196	-0.250
-265.267	78.446	-0.040	-0.042
-264.253	-24.659	-0.059	0.035
-263.238	800.000	0.063	-0.217
-262.224	55.587	0.024	0.023
-261.209	-200.000	-0.044	0.390
-260.195	325.086	0.070	0.131
-259.180	-132.109	-0.328	0.042
-258.165	-111.733	0.241	-0.048
-257.151	-51.325	0.332	0.153
-256.136	-133.898	-0.273	0.033
-255.122	-133.937	-0.296	-0.036
-254.107	-60.102	-0.115	-0.049
-253.092	-170.773	0.337	-0.011
-252.078	-143.572	-0.086	-0.008
-251.063	-121.585	-0.182	-0.030
-250.049	-90.720	0.333	0.095
-249.034	-133.738	0.298	0.037
-248.019	-139.909	0.369	0.039
-247.005	59.704	-0.234	0.228
-245.990	72.212	0.096	0.099
-244.976	452.171	-0.067	-0.147
-243.961	-148.950	-0.121	0.010
-242.946	300.211	0.165	-0.300
-241.932	31.413	0.161	-0.136
-240.917	324.970	-0.089	-0.168
-239.903	97.542	0.204	-0.231
-238.888	-200.000	0.038	-0.367
-237.873	-195.873	-0.352	0.002
-236.859	301.539	-0.100	0.183
-235.844	533.651	0.134	0.312
-234.830	800.000	-0.056	0.180
-233.815	286.468	-0.100	0.179
-232.800	191.338	0.203	0.301
-231.786	-39.587	0.116	0.060
-230.771	-200.000	-0.019	0.093
-229.757	126.720	0.148	0.184
-228.742	-14.743	-0.134	-0.085
-227.727	-50.697	-0.117	-0.054
-226.713	-13.464	-0.089	0.057
-225.698	-200.000	-0.004	-0.069
-224.684	-96.378	0.394	0.103
-223.669	25.274	-0.059	-0.048
-222.655	647.282	-0.038	-0.095
-221.640	800.000	-0.092	-0.385
-220.625	376.442	-0.088	-0.177
-219.611	-133.279	0.266	-0.033
-218.596	-106.907	0.420	-0.092
-217.582	-200.000	-0.001	-0.130
-216.567	52.016	0.208	0.195
-215.552	198.807	0.082	0.123
-214.538	668.935	-0.088	0.225
-213.523	-200.000	-0.030	-0.142
-212.509	-120.870	0.332	0.055
-211.494	153.153	-0.098	0.132
-210.479	209.447	-0.080	0.123
-209.465	-125.311	-0.130	-0.020
-208.450	-200.000	0.027	0.166
-207.436	216.176	-0.173	0.271
-206.421	235.892	0.147	0.239
-205.406	-18.163	0.303	-0.187
-204.392	-123.087	-0.119	0.019
-203.377	-200.000	-0.030	0.134
-202.363	800.000	0.034	0.137
-201.348	783.153	-0.021	-0.057
-200.333	18.163	0.193	0.152
-199.319	800.000	0.091	-0.356
-198.304	-200.000	0.035	-0.191
-197.290	-110.905	0.434	-0.088
-196.275	800.000	-0.070	-0.210
-195.260	-200.000	-0.008	0.115
-194.246	-112.341	0.439	-0.087
-193.231	-200.000	0.044	-0.266
-192.217	-200.000	0.031	-0.174
-191.202	166.752	-0.023	0.032
-190.187	-7.385	-0.138	-0.092
-189.173	800.000	-0.091	-0.378
-188.158	203.719	-0.032	0.049
-187.144	-200.000	0.017	0.088
-186.129	800.000	0.064	0.245
-185.114	105.994	-0.023	-0.027
-184.100	689.907	-0.038	0.099
-183.085	179.490	0.297	0.427
-182.071	800.000	0.115	-0.356
-181.056	-200.000	0.008	-0.087
-180.042	172.224	0.052	-0.074
-179.027	-200.000	0.053	0.261
-178.012	-45.714	0.087	0.042
-176.998	-99.468	-0.237	-0.059
-175.983	66.604	-0.081	0.081
-174.969	-189.523	-0.230	0.003
-173.954	-66.045	-0.103	-0.041
-172.939	-51.593	0.215	0.099
-171.925	-200.000	0.008	-0.057
-170.910	-149.990	0.191	0.015
-169.896	686.984	0.079	-0.203
-168.881	-93.102	0.140	0.038
-167.866	-116.507	0.427	-0.077
-166.852	-129.195	-0.363	0.050
-165.837	244.344	-0.085	-0.140
-164.823	-167.929	-0.190	-0.007
-163.808	-52.937	0.121	-0.055
-162.793	-41.459	-0.186	-0.094
-161.779	98.264	0.340	-0.385
-160.764	800.000	0.099	-0.357
-159.750	10.308	0.027	-0.020
-158.735	-200.000	-0.012	0.257
-157.720	-1.157	-0.156	0.109
-156.706	-88.277	0.019	-0.006
-155.691	-11.093	-0.107	0.069
-154.677	-105.594	-0.131	-0.029
-153.662	112.594	-0.112	0.133
-152.647	-54.721	0.129	-0.057
-151.633	116.447	0.143	0.172
-150.618	194.968	0.085	-0.127
-149.604	184.397	0.298	-0.434
-148.589	800.000	0.056	-0.225
-147.574	-126.814	0.186	-0.027
-146.560	800.000	0.054	0.147
-145.545	64.219	0.201	-0.199
-144.531	-72.729	-0.180	-0.065
-143.516	-50.679	-0.358	0.166
-142.502	-27.022	0.079	0.045
-141.487	-184.705	0.123	-0.002
-140.472	59.183	-0.070	0.068
-139.458	-144.501	0.367	-0.033
-138.443	-75.120	-0.063	0.022
-137.429	128.860	-0.093	0.116
-136.414	261.060	0.066	0.112
-135.399	-107.057	-0.293	-0.064
-134.385	-200.000	-0.045	-0.385
-133.370	-131.390	0.080	-0.010
-132.356	-200.000	0.038	-0.204
-131.341	-200.000	-0.061	0.361
-130.326	47.328	-0.057	0.052
-129.312	-114.206	-0.181	-0.034
-128.297	171.616	0.072	-0.101
-127.283	-200.000	0.037	-0.178
-126.268	371.354	-0.054	0.107
-125.253	92.393	0.087	-0.096
-124.239	162.220	0.206	-0.283
-123.224	192.483	-0.132	0.196
