DTS Sentinel unit serial number:	SN413079Multiplexer serial number:	ORYXHardware model number:	OX4-SRSoftware version number:	ORYX F/W v4.00 Oryx Data Collector v3.7.2.0data status	okinstallation	princeton_trtdifferential loss correction	single-endedforward channel	channel 2reverse channel	N/Adate	2019/09/12time	05:09:10forward acquisition time	60.00reverse acquisition time	0.00gamma	496.2192k internal	0.2325k external	0.2325temperature offset calibration	1.0068default loss term (dB/km)	0.3790temperature slope calibration	1.0000multiplexer offset coefficient	1.0000multiplexer slope coefficient	1.0000fibre end	0.00T internal ref (°C)	31.80T ext. ref 1 (°C)	1.67T ext. ref 2 (°C)	27.15length (m)	temperature (°C)	Stokes	anti-Stokes-747.200	-200.000	0.033	-0.179
-746.185	558.233	0.070	0.171
-745.171	514.166	-0.075	-0.177
-744.156	76.715	-0.351	0.376
-743.142	-1.766	0.138	0.098
-742.127	-200.000	0.046	0.531
-741.112	-58.980	0.093	-0.040
-740.098	76.735	-0.096	0.103
-739.083	-200.000	-0.069	0.432
-738.069	-88.000	-0.361	0.109
-737.054	8.523	0.201	0.153
-736.039	-117.921	-0.039	-0.007
-735.025	-79.306	0.566	-0.194
-734.010	-123.525	-0.202	0.032
-732.996	-200.000	-0.042	-0.215
-731.981	173.403	0.199	-0.290
-730.966	-8.904	0.100	0.068
-729.952	576.358	-0.099	-0.245
-728.937	15.789	-0.222	-0.176
-727.923	798.464	0.121	0.336
-726.908	-161.029	-0.222	-0.012
-725.894	103.265	-0.172	0.204
-724.879	9.616	-0.143	-0.109
-723.864	-20.458	-0.164	-0.102
-722.850	-74.864	-0.247	0.089
-721.835	153.857	0.095	-0.131
-720.821	161.686	0.036	0.051
-719.806	47.633	0.203	-0.191
-718.791	79.751	-0.145	-0.157
-717.777	103.227	-0.080	-0.094
-716.762	800.000	0.054	-0.193
-715.748	800.000	0.081	0.259
-714.733	-66.975	-0.406	0.162
-713.718	80.311	-0.078	0.085
-712.704	593.442	-0.059	0.146
-711.689	-173.797	0.521	-0.016
-710.675	-91.916	0.307	-0.088
-709.660	-159.422	-0.240	-0.014
-708.645	-33.526	0.254	0.141
-707.631	8.004	-0.065	0.049
-706.616	-16.676	-0.235	0.150
-705.602	-189.910	0.090	0.001
-704.587	-86.751	-0.117	-0.036
-703.572	-14.158	-0.174	0.113
-702.558	800.000	0.022	-0.066
-701.543	-142.200	-0.146	-0.015
-700.529	-200.000	0.013	-0.102
-699.514	-170.659	-0.038	0.001
-698.499	800.000	-0.052	-0.178
-697.485	-35.558	0.131	-0.072
-696.470	168.725	-0.080	-0.115
-695.456	800.000	0.046	-0.150
-694.441	-4.656	0.247	-0.172
-693.426	-180.490	-0.291	0.006
-692.412	-49.504	0.167	-0.080
-691.397	37.615	0.277	0.248
-690.383	-169.012	-0.276	-0.010
-689.368	-25.752	0.217	-0.129
-688.354	74.995	-0.200	0.212
-687.339	-109.494	0.224	-0.048
-686.324	-200.000	-0.046	-0.425
-685.310	-176.977	0.106	-0.003
-684.295	204.902	-0.082	0.129
-683.281	681.987	-0.107	-0.281
-682.266	800.000	0.063	0.186
-681.251	102.071	-0.163	0.192
-680.237	448.860	-0.019	0.043
-679.222	-75.570	-0.224	-0.080
-678.208	528.183	0.038	-0.090
-677.193	-200.000	0.026	0.294
-676.178	-196.410	-0.326	-0.002
-675.164	-109.208	0.437	-0.093
-674.149	-200.000	-0.001	-0.093
-673.135	-57.817	-0.202	-0.089
-672.120	-98.058	0.060	-0.015
-671.105	199.889	0.086	0.133
-670.091	800.000	-0.124	0.425
-669.076	345.978	-0.022	-0.043
-668.062	-200.000	-0.075	-0.378
-667.047	-59.932	-0.151	-0.065
-666.032	-170.154	-0.245	0.009
-665.018	170.479	0.143	-0.205
-664.003	133.820	0.306	-0.398
-662.989	-116.487	0.095	-0.018
-661.974	192.446	-0.097	-0.147
-660.959	-36.962	0.104	0.056
-659.945	800.000	-0.033	-0.146
-658.930	482.056	0.113	0.259
-657.916	-200.000	-0.010	-0.249
-656.901	790.503	0.052	0.143
-655.886	800.000	-0.055	0.213
-654.872	-60.161	-0.172	-0.074
-653.857	-52.611	-0.081	-0.038
-652.843	-182.269	-0.389	-0.007
-651.828	800.000	-0.061	-0.225
-650.814	630.344	-0.171	0.435
-649.799	161.710	0.051	-0.072
-648.784	-200.000	0.000	-0.165
-647.770	44.781	0.224	-0.207
-646.755	383.704	-0.091	0.189
-645.741	2.139	0.162	0.118
-644.726	64.682	-0.140	-0.142
-643.711	800.000	-0.050	-0.213
-642.697	24.619	-0.144	0.120
-641.682	109.466	0.367	0.442
-640.668	320.685	-0.077	-0.147
-639.653	-200.000	-0.016	-0.186
-638.638	-80.632	0.514	-0.172
-637.624	-200.000	-0.098	-0.630
-636.609	-24.194	0.195	-0.117
-635.595	800.000	-0.078	-0.256
-634.580	-45.627	0.093	-0.046
-633.565	693.616	-0.105	-0.276
-632.551	800.000	-0.113	-0.387
-631.536	-200.000	-0.024	0.257
-630.522	800.000	0.074	0.278
-629.507	383.229	-0.095	0.195
-628.492	-200.000	-0.050	0.242
-627.478	800.000	-0.058	-0.196
-626.463	164.835	0.141	0.200
-625.449	-49.122	-0.166	-0.080
-624.434	-145.024	0.276	-0.025
-623.419	112.089	-0.072	-0.088
-622.405	-33.255	-0.306	0.170
-621.390	9.855	-0.436	0.332
-620.376	42.230	0.173	-0.158
-619.361	-89.343	-0.097	-0.029
-618.346	23.185	0.096	0.079
-617.332	43.442	0.026	-0.024
-616.317	24.894	0.019	0.015
-615.303	225.741	0.076	0.123
-614.288	-147.913	-0.397	0.033
-613.273	-50.255	-0.224	0.106
-612.259	-32.745	0.339	-0.189
-611.244	-88.137	-0.265	0.080
-610.230	71.115	-0.043	0.045
-609.215	-123.085	-0.338	0.054
-608.201	-103.772	-0.127	-0.030
-607.186	149.883	0.169	-0.230
-606.171	-145.331	0.292	-0.026
-605.157	86.469	0.142	0.158
-604.142	304.783	0.069	0.129
-603.128	108.836	-0.185	-0.222
-602.113	-161.203	-0.286	0.015
-601.098	130.756	-0.043	-0.056
-600.084	800.000	-0.023	0.090
-599.069	-200.000	-0.033	-0.268
-598.055	558.488	-0.076	-0.184
-597.040	259.219	-0.144	-0.250
-596.025	-200.000	-0.006	-0.367
-595.011	-46.778	-0.020	0.010
-593.996	-104.228	-0.123	0.029
-592.982	-46.190	0.197	0.097
-591.967	486.048	-0.040	0.092
-590.952	216.266	-0.087	-0.138
-589.938	213.132	0.083	-0.131
-588.923	-200.000	0.016	-0.203
-587.909	-109.021	0.185	0.040
-586.894	-131.392	0.206	0.027
-585.879	87.523	-0.126	0.140
-584.865	-200.000	-0.037	0.208
-583.850	800.000	0.067	-0.219
-582.836	162.464	-0.104	0.146
-581.821	-133.223	-0.190	0.024
-580.806	-200.000	0.079	0.358
-579.792	97.577	0.216	-0.249
-578.777	188.925	0.250	0.375
-577.763	800.000	-0.133	-0.437
-576.748	195.329	0.159	-0.242
-575.733	82.755	-0.126	0.137
-574.719	53.730	0.286	-0.276
-573.704	-59.195	0.177	0.077
-572.690	-200.000	-0.006	0.233
-571.675	387.666	-0.123	-0.254
-570.661	-40.237	0.132	-0.069
-569.646	26.196	-0.188	0.158
-568.631	-165.729	-0.383	0.017
-567.617	9.637	-0.389	-0.295
-566.602	252.886	0.103	-0.176
-565.588	221.545	0.118	-0.190
-564.573	2.952	-0.238	-0.173
-563.558	-124.062	-0.326	-0.051
-562.544	-118.853	0.225	0.040
-561.529	-39.860	0.093	0.048
-560.515	166.448	0.228	-0.323
-559.500	57.629	0.098	-0.096
-558.485	-119.597	0.110	-0.019
-557.471	800.000	0.146	-0.578
-556.456	-78.106	0.159	-0.055
-555.442	9.878	0.246	0.187
-554.427	-59.996	0.164	0.070
-553.412	-89.608	-0.250	0.073
-552.398	-33.799	-0.105	0.058
-551.383	102.364	-0.227	-0.266
-550.369	-39.208	0.252	-0.132
-549.354	-77.718	-0.150	0.052
-548.339	16.801	0.165	-0.131
-547.325	38.041	-0.046	-0.041
-546.310	53.620	-0.122	-0.117
-545.296	176.655	0.109	-0.158
-544.281	504.287	0.144	-0.335
-543.266	-69.469	0.351	-0.135
-542.252	24.770	-0.109	-0.090
-541.237	800.000	0.130	-0.405
-540.223	800.000	-0.014	0.047
-539.208	-27.494	-0.135	-0.079
-538.193	-64.341	0.247	0.101
-537.179	56.634	-0.144	0.140
-536.164	800.000	-0.109	0.335
-535.150	127.150	0.087	-0.110
-534.135	-136.209	-0.013	-0.001
-533.121	-102.700	0.147	0.035
-532.106	69.502	0.167	0.172
-531.091	-85.067	0.296	-0.093
-530.077	-200.000	0.020	-0.152
-529.062	211.616	-0.031	0.049
-528.048	800.000	-0.017	0.056
-527.033	-200.000	-0.028	0.186
-526.018	252.366	0.049	0.084
-525.004	161.360	0.068	0.095
-523.989	306.337	0.115	-0.214
-522.975	-109.035	-0.145	0.031
-521.960	-200.000	-0.039	0.186
-520.945	-200.000	0.037	-0.234
-519.931	-31.871	0.045	0.025
-518.916	-52.691	0.103	-0.048
-517.902	-114.879	0.249	0.047
-516.887	-200.000	0.013	0.294
-515.872	-200.000	-0.010	-0.169
-514.858	323.289	0.066	0.127
-513.843	95.685	0.169	-0.192
-512.829	155.635	-0.302	0.416
-511.814	-200.000	0.005	0.048
-510.799	182.690	0.091	0.134
-509.785	-200.000	0.014	0.263
-508.770	-200.000	-0.029	0.214
-507.756	82.988	-0.152	-0.166
-506.741	800.000	-0.109	-0.378
-505.726	-104.863	-0.159	0.036
-504.712	52.817	-0.087	-0.083
-503.697	-200.000	0.006	0.280
-502.683	-19.016	-0.329	-0.205
-501.668	-33.486	0.300	-0.166
-500.653	22.703	-0.085	0.070
-499.639	-5.323	0.132	0.091
-498.624	800.000	-0.079	-0.266
-497.610	-110.442	0.251	-0.052
-496.595	-160.397	-0.428	0.023
-495.581	216.700	-0.074	0.118
-494.566	-42.704	-0.099	-0.050
-493.551	-200.000	0.004	0.319
-492.537	351.575	-0.063	-0.124
-491.522	-93.988	-0.140	-0.038
-490.508	2.201	0.066	0.048
-489.493	475.081	-0.029	-0.066
-488.478	324.801	-0.176	0.337
-487.464	-200.000	-0.033	0.210
-486.449	-200.000	-0.012	0.126
-485.435	-20.506	-0.131	-0.081
-484.420	800.000	-0.087	-0.247
-483.405	562.899	0.154	-0.373
-482.391	682.949	0.128	-0.334
-481.376	-59.030	-0.293	-0.126
-480.362	-24.753	0.193	0.114
-479.347	138.122	0.054	0.070
-478.332	-33.705	-0.127	-0.070
-477.318	51.909	0.207	0.196
-476.303	-3.098	0.119	-0.083
-475.289	566.085	0.092	-0.222
-474.274	-152.422	-0.361	0.026
-473.259	-81.443	0.212	0.070
-472.245	800.000	-0.136	0.448
-471.230	-101.524	0.231	0.056
-470.216	7.457	-0.283	0.211
-469.201	-30.621	0.273	-0.154
-468.186	-12.685	0.115	0.075
-467.172	-8.344	-0.054	0.036
-466.157	-87.351	0.076	0.023
-465.143	66.917	-0.180	-0.183
-464.128	-200.000	0.017	-0.168
-463.113	-200.000	-0.023	-0.140
-462.099	322.896	0.146	-0.277
-461.084	709.330	0.126	-0.331
-460.070	37.561	0.215	0.190
-459.055	-21.557	0.219	-0.133
-458.040	800.000	0.014	0.043
-457.026	99.268	-0.181	-0.208
-456.011	-52.181	0.195	0.090
-454.997	-200.000	0.017	0.081
-453.982	-27.114	-0.213	-0.124
-452.968	200.641	-0.016	-0.025
-451.953	-200.000	0.026	0.326
-450.938	-43.318	-0.328	-0.166
-449.924	-200.000	-0.083	0.455
-448.909	-200.000	-0.032	0.331
-447.895	-150.289	-0.071	0.005
-446.880	-12.233	-0.242	0.158
-445.865	-85.635	-0.146	0.045
-444.851	-57.471	0.232	-0.101
-443.836	148.556	0.145	-0.195
-442.822	-145.723	-0.230	0.020
-441.807	732.047	0.047	0.124
-440.792	-72.734	0.262	-0.096
-439.778	26.260	-0.115	-0.096
-438.763	800.000	0.028	-0.115
-437.749	800.000	-0.102	-0.303
-436.734	-85.237	0.380	0.118
-435.719	-44.385	0.091	0.046
-434.705	465.717	-0.039	0.088
-433.690	-110.086	-0.238	-0.050
-432.676	-179.389	-0.148	0.003
-431.661	124.950	-0.261	0.328
-430.646	-78.221	0.232	0.080
-429.632	-65.232	0.098	-0.039
-428.617	-30.690	-0.234	-0.132
-427.603	-144.895	-0.241	0.022
-426.588	800.000	0.127	0.362
-425.573	-200.000	-0.013	0.184
-424.559	195.930	0.103	-0.156
-423.544	-66.188	0.278	0.110
-422.530	-56.353	0.099	-0.044
-421.515	134.096	0.089	-0.115
-420.500	800.000	0.024	-0.098
-419.486	29.144	-0.287	-0.243
-418.471	15.231	0.176	0.137
-417.457	-87.136	0.082	0.025
-416.442	22.213	-0.103	-0.084
-415.428	800.000	0.087	-0.373
-414.413	-9.371	-0.123	0.082
-413.398	-28.256	-0.115	-0.066
-412.384	-157.412	0.267	-0.016
-411.369	-3.004	-0.078	0.055
-410.355	-163.863	-0.319	-0.015
-409.340	1.159	0.228	-0.163
-408.325	-63.089	-0.268	-0.110
-407.311	113.170	0.060	0.073
-406.296	-24.947	-0.112	-0.066
-405.282	176.989	0.131	-0.189
-404.267	800.000	-0.058	0.168
-403.252	-200.000	0.239	0.001
-402.238	-136.979	-0.121	-0.014
-401.223	52.573	-0.085	0.081
-400.209	-69.955	-0.127	-0.048
-399.194	800.000	0.040	-0.128
-398.179	463.605	0.118	0.263
-397.165	800.000	-0.096	0.323
-396.150	-72.730	-0.245	0.090
-395.136	-26.341	-0.232	0.135
-394.121	-200.000	-0.000	-0.137
-393.106	-3.636	-0.280	-0.194
-392.092	-80.579	-0.014	0.005
-391.077	643.533	0.125	-0.316
-390.063	-98.148	-0.101	-0.026
-389.048	-161.700	0.190	-0.010
-388.033	800.000	0.032	0.089
-387.019	173.044	0.170	0.243
-386.004	-78.793	-0.165	-0.056
-384.990	-69.508	0.279	-0.106
-383.975	-200.000	0.027	0.201
-382.960	616.307	0.065	0.163
-381.946	800.000	0.070	0.231
-380.931	160.844	-0.016	0.022
-379.917	248.133	0.037	-0.062
-378.902	-200.000	0.023	0.120
-377.888	133.645	-0.114	0.147
-376.873	395.229	-0.096	-0.198
-375.858	-200.000	-0.009	-0.157
-374.844	-77.030	-0.182	0.063
-373.829	-167.394	0.438	0.017
-372.815	-107.994	0.128	0.028
-371.800	347.528	-0.048	-0.094
-370.785	800.000	0.070	0.297
-369.771	79.845	-0.121	0.129
-368.756	294.296	0.164	0.299
-367.742	-200.000	0.012	0.103
-366.727	800.000	-0.039	-0.116
-365.712	164.848	0.103	0.144
-364.698	340.854	-0.057	0.110
-363.683	64.902	-0.117	-0.118
-362.669	-121.655	-0.083	0.014
-361.654	473.709	0.151	-0.339
-360.639	265.663	0.201	0.349
-359.625	-82.964	0.239	0.077
-358.610	618.196	0.057	0.142
-357.596	142.845	-0.129	0.171
-356.581	-72.794	0.084	-0.031
-355.566	-57.747	-0.331	0.144
-354.552	594.650	-0.062	0.152
-353.537	-14.584	-0.276	-0.176
-352.523	-200.000	0.028	0.499
-351.508	800.000	-0.030	0.106
-350.493	-9.630	0.015	-0.010
-349.479	38.294	0.073	-0.065
-348.464	480.303	0.037	-0.084
-347.450	-182.602	-0.253	0.005
-346.435	518.292	-0.070	0.163
-345.420	-11.852	0.150	0.098
-344.406	800.000	-0.069	0.230
-343.391	39.575	-0.133	0.118
-342.377	207.909	0.142	0.220
-341.362	512.463	-0.045	-0.103
-340.348	-110.482	0.107	0.022
-339.333	-75.362	-0.142	0.050
-338.318	800.000	-0.056	0.198
-337.304	-104.255	-0.138	-0.032
-336.289	-132.675	0.256	0.033
-335.275	-47.204	-0.222	-0.107
-334.260	800.000	0.036	-0.124
-333.245	-59.494	0.126	-0.054
-332.231	-38.310	0.100	0.053
-331.216	590.711	-0.129	-0.315
-330.202	435.015	-0.108	-0.234
-329.187	-97.412	-0.349	0.090
-328.172	-144.891	0.165	0.015
-327.158	-200.000	-0.001	-0.118
-326.143	-101.129	0.331	-0.080
-325.129	800.000	0.126	0.373
-324.114	800.000	-0.169	-0.545
-323.099	-71.344	-0.158	-0.059
-322.085	154.548	-0.070	0.096
-321.070	56.024	-0.077	-0.074
-320.056	-111.034	-0.436	0.089
-319.041	-200.000	-0.014	-0.350
-318.026	-177.231	0.308	-0.008
-317.012	-59.898	-0.400	0.170
-315.997	-3.280	-0.335	0.232
-314.983	450.288	0.086	-0.188
-313.968	-104.009	-0.330	-0.076
-312.953	-104.632	0.130	-0.030
-311.939	-142.598	-0.256	0.025
-310.924	38.080	0.029	-0.025
-309.910	490.835	-0.101	0.230
-308.895	-107.775	0.228	0.049
-307.880	-149.678	0.209	0.016
-306.866	36.508	-0.254	0.222
-305.851	0.258	-0.159	0.113
-304.837	-59.127	-0.081	0.035
-303.822	-155.412	0.256	0.016
-302.807	44.042	0.164	-0.149
-301.793	127.920	0.261	0.329
-300.778	800.000	-0.073	0.233
-299.764	54.080	0.207	-0.197
-298.749	800.000	0.036	0.134
-297.735	-9.970	-0.373	0.246
-296.720	47.184	0.198	0.183
-295.705	-37.917	-0.269	0.142
-294.691	-96.306	0.421	0.111
-293.676	159.166	-0.220	-0.304
-292.662	-200.000	-0.067	-0.478
-291.647	96.390	0.087	-0.098
-290.632	-200.000	0.027	-0.317
-289.618	165.438	0.052	0.073
-288.603	10.596	0.101	-0.076
-287.589	21.944	0.144	0.116
-286.574	800.000	0.031	0.111
-285.559	-51.232	-0.237	-0.110
-284.545	800.000	0.037	0.151
-283.530	-144.947	-0.149	0.013
-282.516	-112.010	0.362	0.072
-281.501	-33.306	0.037	-0.020
-280.486	-200.000	0.028	-0.182
-279.472	146.349	0.076	-0.102
-278.457	800.000	0.160	0.565
-277.443	-125.604	0.226	0.034
-276.428	-38.183	-0.304	0.160
-275.413	-91.625	0.063	-0.018
-274.399	800.000	-0.064	-0.212
-273.384	-200.000	-0.004	-0.179
-272.370	375.734	-0.165	0.334
-271.355	259.133	0.126	0.215
-270.340	574.637	0.126	0.304
-269.326	44.798	0.165	0.151
-268.311	200.965	0.146	0.223
-267.297	60.803	-0.304	-0.299
-266.282	-58.968	0.252	-0.108
-265.267	-200.000	-0.053	-0.279
-264.253	-133.861	-0.053	-0.007
-263.238	15.685	0.082	0.064
-262.224	-15.765	0.056	-0.035
-261.209	9.939	0.024	0.018
-260.195	-5.643	0.013	0.009
-259.180	-36.215	-0.048	-0.026
-258.165	800.000	0.085	0.276
-257.151	-200.000	0.019	0.085
-256.136	-20.098	-0.234	-0.143
-255.122	37.354	-0.072	0.063
-254.107	-79.632	0.239	-0.080
-253.092	800.000	-0.053	-0.190
-252.078	-200.000	-0.134	0.000
-251.063	-111.260	0.374	-0.076
-250.049	193.102	0.145	-0.218
-249.034	-106.236	0.503	0.112
-248.019	665.433	-0.027	-0.068
-247.005	51.824	0.198	0.187
-245.990	-21.723	0.077	0.046
-244.976	-116.231	-0.213	-0.039
-243.961	-34.082	-0.158	-0.086
-242.946	-92.619	-0.232	0.064
-241.932	-73.818	0.231	0.083
-240.917	10.393	-0.070	0.053
-239.903	-91.170	-0.082	0.023
-238.888	258.638	-0.154	0.262
-237.873	108.985	-0.142	0.168
-236.859	-87.466	-0.377	0.113
-235.844	-59.496	0.122	-0.052
-234.830	215.875	0.061	-0.096
-233.815	-31.544	-0.171	0.095
-232.800	-200.000	0.001	-0.145
-231.786	-200.000	0.035	-0.202
-230.771	355.513	0.142	0.279
-229.757	369.040	-0.079	0.157
-228.742	508.595	0.017	-0.038
-227.727	-200.000	0.032	0.221
-226.713	-166.631	0.127	-0.005
-225.698	-72.291	0.273	0.100
-224.684	-129.459	0.196	0.027
-223.669	305.359	0.086	0.158
-222.655	-143.601	0.165	0.016
-221.640	-200.000	-0.004	0.110
-220.625	329.772	-0.118	-0.225
-219.611	-20.395	-0.072	0.044
-218.596	-125.501	-0.313	0.047
-217.582	163.434	-0.241	0.336
-216.567	21.244	0.183	0.147
-215.552	-162.529	0.164	0.008
-214.538	62.426	0.111	-0.109
-213.523	800.000	0.050	-0.168
-212.509	-200.000	0.000	0.109
-211.494	-200.000	0.033	0.199
-210.479	-100.292	0.288	-0.071
-209.465	-30.597	-0.258	-0.145
-208.450	800.000	0.030	-0.092
-207.436	-194.936	0.076	0.001
-206.421	800.000	0.023	0.093
-205.406	248.744	0.114	0.191
-204.392	-63.345	0.143	-0.058
-203.377	125.559	-0.140	-0.174
-202.363	-127.759	-0.182	-0.026
-201.348	-54.549	0.293	-0.131
-200.333	-49.640	-0.380	-0.179
-199.319	246.362	-0.062	-0.103
-198.304	152.200	0.381	0.513
-197.290	62.458	-0.179	0.177
-196.275	39.072	-0.099	0.088
-195.260	-23.776	-0.184	-0.109
-194.246	-89.115	-0.181	-0.053
-193.231	-10.030	-0.042	0.028
-192.217	800.000	-0.023	-0.072
-191.202	-77.011	-0.037	0.013
-190.187	-200.000	0.002	0.044
-189.173	-200.000	0.023	-0.110
-188.158	4.011	0.275	-0.199
-187.144	58.827	-0.296	0.287
-186.129	63.703	-0.213	0.211
-185.114	160.291	-0.120	0.165
-184.100	57.737	0.140	-0.135
-183.085	143.139	-0.016	-0.022
-182.071	36.277	0.172	-0.149
-181.056	-1.249	-0.141	0.098
-180.042	-62.116	0.145	0.060
-179.027	5.786	-0.174	0.127
-178.012	124.576	0.238	-0.295
-176.998	-117.347	-0.283	0.051
-175.983	-19.409	-0.099	0.060
-174.969	53.320	0.138	-0.131
-173.954	-101.508	-0.240	0.058
-172.939	-200.000	0.039	0.321
-171.925	-90.001	0.107	0.031
-170.910	-52.357	-0.172	0.079
-169.896	10.245	0.094	0.071
-168.881	-48.670	0.260	-0.123
-167.866	603.999	-0.046	0.113
-166.852	193.340	-0.251	-0.375
-165.837	119.578	-0.110	-0.135
-164.823	207.825	-0.168	-0.259
-163.808	416.198	0.132	0.277
-162.793	401.860	-0.133	-0.276
-161.779	-200.000	0.040	-0.254
-160.764	-122.715	0.260	0.042
-159.750	800.000	0.126	-0.425
-158.735	119.595	0.133	0.163
-157.720	691.522	-0.102	0.262
-156.706	-46.248	0.168	0.081
-155.691	267.440	0.138	-0.239
-154.677	-80.587	-0.025	0.008
-153.662	-200.000	0.010	-0.143
-152.647	393.913	-0.055	-0.112
-151.633	484.577	0.074	0.165
-150.618	142.245	-0.138	0.180
-149.604	-194.909	-0.173	0.001
-148.589	-12.257	-0.034	-0.022
-147.574	-26.793	0.361	0.208
-146.560	41.880	0.120	0.107
-145.545	-200.000	0.032	0.454
-144.531	-200.000	-0.045	-0.217
-143.516	171.155	-0.182	0.257
-142.502	800.000	0.054	0.189
-141.487	-41.162	-0.101	0.051
-140.472	-145.082	0.083	0.007
-139.458	-37.166	0.283	0.149
-138.443	-95.245	-0.442	-0.117
-137.429	-200.000	-0.004	0.177
-136.414	-116.104	-0.044	-0.008
-135.399	-121.291	-0.199	0.033
-134.385	410.841	0.161	-0.337
-133.370	-98.210	-0.160	-0.041
-132.356	-35.808	-0.172	0.092
-131.341	-200.000	-0.027	-0.222
-130.326	-86.555	0.304	0.092
-129.312	-41.394	0.216	0.109
-128.297	49.745	-0.044	0.041
-127.283	-95.309	-0.243	-0.064
-126.268	-32.130	-0.116	-0.064
-125.253	800.000	0.153	-0.521
-124.239	-95.974	-0.156	0.041
-123.224	190.885	0.154	0.229
-122.210	76.140	0.341	0.356
-121.195	-49.970	0.229	0.107
-120.180	-22.523	0.151	-0.090
