DTS Sentinel unit serial number:	SN413079Multiplexer serial number:	ORYXHardware model number:	OX4-SRSoftware version number:	ORYX F/W v4.00 Oryx Data Collector v3.7.2.0data status	okinstallation	princeton_trtdifferential loss correction	single-endedforward channel	channel 2reverse channel	N/Adate	2019/09/10time	17:21:10forward acquisition time	60.00reverse acquisition time	0.00gamma	496.2192k internal	0.2310k external	0.2310temperature offset calibration	0.9938default loss term (dB/km)	0.3790temperature slope calibration	1.0000multiplexer offset coefficient	1.0000multiplexer slope coefficient	1.0000fibre end	0.00T internal ref (°C)	37.64T ext. ref 1 (°C)	-0.32T ext. ref 2 (°C)	32.22length (m)	temperature (°C)	Stokes	anti-Stokes-747.200	29.414	0.035	0.030
-746.185	119.917	0.121	0.153
-745.171	-111.224	0.380	0.079
-744.156	-166.094	-0.233	-0.010
-743.142	117.323	-0.129	0.161
-742.127	-200.000	0.066	0.600
-741.112	-87.077	-0.463	0.143
-740.098	159.853	0.176	0.249
-739.083	-134.697	-0.079	0.010
-738.069	-36.651	-0.148	-0.081
-737.054	-131.260	-0.284	-0.038
-736.039	72.521	0.141	-0.149
-735.025	-132.957	0.234	0.030
-734.010	-101.788	-0.116	-0.029
-732.996	102.217	-0.222	-0.263
-731.981	-6.781	-0.237	0.164
-730.966	-107.753	-0.493	0.109
-729.952	410.742	0.177	0.381
-728.937	-12.868	-0.223	0.148
-727.923	261.303	-0.146	0.256
-726.908	75.523	-0.081	-0.087
-725.894	-112.556	-0.246	-0.050
-724.879	800.000	0.077	-0.273
-723.864	335.877	-0.063	-0.124
-722.850	-100.549	-0.084	-0.021
-721.835	-33.506	-0.272	-0.152
-720.821	-17.557	-0.294	-0.187
-719.806	-8.416	0.172	0.117
-718.791	-152.938	0.092	-0.007
-717.777	34.229	-0.366	-0.324
-716.762	-193.719	0.142	-0.001
-715.748	-78.497	-0.310	0.108
-714.733	600.184	-0.056	-0.141
-713.718	723.087	0.133	-0.360
-712.704	114.134	-0.149	-0.184
-711.689	-200.000	-0.018	-0.359
-710.675	-116.217	-0.142	0.027
-709.660	66.962	-0.118	0.121
-708.645	172.628	0.262	-0.383
-707.631	-200.000	0.042	-0.218
-706.616	334.632	0.070	0.137
-705.602	-69.624	0.194	-0.075
-704.587	326.025	0.117	-0.226
-703.572	188.597	-0.045	-0.069
-702.558	-200.000	-0.007	0.328
-701.543	22.775	0.234	0.195
-700.529	-200.000	0.012	0.344
-699.514	-41.768	-0.247	-0.128
-698.499	498.605	0.058	0.136
-697.485	29.575	-0.040	0.034
-696.470	-161.170	0.366	-0.019
-695.456	694.934	-0.124	-0.330
-694.441	226.704	0.259	-0.426
-693.426	-123.125	0.275	-0.045
-692.412	55.000	0.095	-0.093
-691.397	-200.000	0.004	0.148
-690.383	158.716	-0.073	-0.103
-689.368	-89.473	0.056	-0.017
-688.354	-100.680	-0.238	0.059
-687.339	459.919	-0.113	-0.255
-686.324	-200.000	0.025	0.136
-685.310	-200.000	0.003	0.117
-684.295	-119.159	0.180	-0.032
-683.281	98.610	-0.234	0.274
-682.266	-122.790	0.193	-0.032
-681.251	-75.903	0.228	0.082
-680.237	110.982	-0.092	0.112
-679.222	17.658	0.351	-0.282
-678.208	-162.203	-0.440	-0.022
-677.193	20.905	-0.171	0.141
-676.178	-89.987	-0.182	-0.054
-675.164	-200.000	-0.009	-0.211
-674.149	-34.817	-0.284	-0.157
-673.135	62.142	0.063	0.064
-672.120	-200.000	0.003	-0.117
-671.105	-130.783	0.491	-0.067
-670.091	-80.794	-0.061	-0.020
-669.076	-200.000	-0.001	-0.220
-668.062	-200.000	0.033	0.160
-667.047	-200.000	0.003	-0.196
-666.032	-200.000	0.050	-0.238
-665.018	216.468	0.161	0.259
-664.003	800.000	0.074	-0.229
-662.989	234.645	-0.157	-0.262
-661.974	-10.040	-0.189	-0.127
-660.959	-38.284	-0.179	0.096
-659.945	-124.402	0.316	0.050
-658.930	800.000	0.046	-0.201
-657.916	-200.000	0.008	0.037
-656.901	-69.524	0.395	0.153
-655.886	52.449	-0.041	0.040
-654.872	-187.988	0.462	-0.006
-653.857	161.122	0.077	-0.109
-652.843	-78.705	-0.092	0.032
-651.828	-94.133	-0.314	-0.087
-650.814	800.000	-0.048	0.171
-649.799	-199.524	-0.347	-0.002
-648.784	8.422	0.085	-0.064
-647.770	-21.425	-0.090	-0.056
-646.755	-200.000	0.027	-0.395
-645.741	-200.000	0.003	-0.052
-644.726	800.000	-0.070	-0.196
-643.711	-79.282	0.339	-0.116
-642.697	39.054	-0.188	-0.170
-641.682	85.609	-0.160	-0.178
-640.668	253.321	-0.088	0.153
-639.653	3.073	0.192	0.141
-638.638	238.116	-0.088	-0.148
-637.624	-200.000	-0.020	0.156
-636.609	14.594	0.168	-0.133
-635.595	582.761	-0.081	-0.202
-634.580	-61.205	-0.555	-0.236
-633.565	174.154	0.042	0.062
-632.551	-200.000	-0.036	0.256
-631.536	-106.576	-0.240	0.054
-630.522	-88.197	0.078	0.024
-629.507	-47.856	0.367	0.180
-628.492	153.357	0.269	-0.372
-627.478	-117.400	-0.373	0.068
-626.463	-200.000	-0.390	0.001
-625.449	800.000	-0.021	0.086
-624.434	-124.996	0.183	-0.028
-623.419	-15.305	0.226	0.146
-622.405	-200.000	-0.014	-0.285
-621.390	-200.000	0.001	-0.152
-620.376	-37.868	0.306	-0.165
-619.361	-92.493	-0.005	-0.002
-618.346	-1.917	0.192	-0.137
-617.332	465.226	0.158	-0.356
-616.317	-61.354	-0.174	-0.074
-615.303	-58.436	-0.228	-0.100
-614.288	-200.000	0.010	-0.417
-613.273	-200.000	-0.002	-0.518
-612.259	-91.506	-0.272	0.078
-611.244	-5.406	0.197	-0.137
-610.230	800.000	0.011	0.036
-609.215	-200.000	0.009	0.097
-608.201	800.000	0.033	-0.115
-607.186	150.391	0.076	-0.104
-606.171	-44.915	-0.172	0.086
-605.157	467.185	0.219	-0.497
-604.142	342.269	-0.048	0.096
-603.128	192.345	-0.053	-0.080
-602.113	-143.564	-0.108	0.010
-601.098	46.514	-0.162	-0.152
-600.084	37.197	-0.103	-0.092
-599.069	1.063	-0.076	0.055
-598.055	-126.856	-0.321	0.048
-597.040	800.000	0.075	-0.324
-596.025	-105.773	-0.026	-0.006
-595.011	-173.227	0.422	0.013
-593.996	-140.345	0.346	-0.036
-592.982	73.554	-0.105	0.111
-591.967	-158.763	0.334	0.019
-590.952	237.980	-0.164	-0.275
-589.938	-81.404	-0.237	-0.079
-588.923	-19.625	0.259	-0.162
-587.909	396.959	-0.119	-0.251
-586.894	543.573	-0.069	-0.165
-585.879	-145.713	-0.063	0.006
-584.865	-86.843	0.381	-0.117
-583.850	534.027	0.048	0.115
-582.836	-200.000	0.011	0.101
-581.821	-200.000	-0.002	0.045
-580.806	-96.360	0.146	0.039
-579.792	-72.923	0.050	-0.019
-578.777	-5.736	-0.021	-0.015
-577.763	-100.080	0.408	0.103
-576.748	800.000	-0.095	0.277
-575.733	-200.000	-0.015	-0.095
-574.719	-165.273	-0.299	0.013
-573.704	-108.611	-0.316	0.069
-572.690	-44.463	-0.334	-0.168
-571.675	-200.000	0.049	0.265
-570.661	-62.852	0.280	0.117
-569.646	371.742	-0.129	0.264
-568.631	108.233	0.165	-0.198
-567.617	232.048	0.008	0.013
-566.602	89.240	-0.252	0.284
-565.588	-138.169	0.077	0.009
-564.573	-80.751	0.330	-0.111
-563.558	-23.741	0.214	-0.130
-562.544	339.987	0.105	-0.206
-561.529	-166.916	-0.203	-0.008
-560.515	-200.000	-0.021	0.199
-559.500	-116.625	0.354	0.066
-558.485	50.249	-0.177	-0.169
-557.471	-58.155	-0.122	0.053
-556.456	-80.723	-0.165	0.055
-555.442	633.437	0.125	0.318
-554.427	-148.954	0.521	0.042
-553.412	5.420	0.411	-0.306
-552.398	44.934	-0.027	-0.025
-551.383	9.582	0.227	0.174
-550.369	18.929	0.112	-0.091
-549.354	-192.484	-0.099	0.001
-548.339	19.069	-0.111	-0.089
-547.325	-54.024	-0.261	-0.120
-546.310	53.083	0.154	-0.148
-545.296	-200.000	0.037	-0.219
-544.281	-161.981	-0.262	0.013
-543.266	-200.000	0.004	0.030
-542.252	704.420	0.124	-0.328
-541.237	62.070	-0.103	0.103
-540.223	-200.000	0.056	0.310
-539.208	-200.000	-0.017	0.232
-538.193	-7.011	0.180	0.123
-537.179	202.925	0.052	-0.081
-536.164	-121.710	0.204	-0.034
-535.150	800.000	0.065	-0.278
-534.135	-95.152	0.240	-0.065
-533.121	-200.000	0.020	-0.296
-532.106	11.934	0.133	-0.103
-531.091	223.073	-0.106	-0.173
-530.077	523.984	0.032	0.075
-529.062	144.946	-0.103	0.138
-528.048	-170.701	-0.193	-0.007
-527.033	-78.355	0.271	-0.094
-526.018	-8.095	0.188	-0.127
-525.004	-55.645	0.226	0.102
-523.989	-200.000	-0.014	0.069
-522.975	644.750	0.080	0.206
-521.960	-22.637	0.173	0.105
-520.945	-200.000	0.367	-0.001
-519.931	-153.355	-0.223	-0.016
-518.916	800.000	0.016	0.055
-517.902	-200.000	0.049	0.303
-516.887	39.091	-0.050	0.045
-515.872	-55.939	0.129	0.058
-514.858	-127.120	0.106	0.016
-513.843	800.000	0.058	0.168
-512.829	-200.000	0.021	0.185
-511.814	82.248	-0.186	0.203
-510.799	98.686	-0.042	0.048
-509.785	-36.398	-0.073	0.039
-508.770	749.302	-0.127	-0.344
-507.756	769.730	0.079	-0.217
-506.741	15.345	0.141	-0.111
-505.726	-200.000	0.037	0.344
-504.712	-36.301	0.118	-0.064
-503.697	229.652	0.241	0.396
-502.683	-15.506	-0.330	0.212
-501.668	-200.000	-0.012	-0.202
-500.653	397.892	-0.116	0.243
-499.639	152.286	-0.263	-0.360
-498.624	-200.000	-0.001	-0.288
-497.610	-26.313	0.288	0.170
-496.595	800.000	0.028	0.115
-495.581	-85.686	-0.214	0.067
-494.566	-44.887	0.101	0.051
-493.551	-200.000	0.003	0.190
-492.537	-175.797	0.164	-0.004
-491.522	-158.269	-0.171	0.010
-490.508	371.305	0.072	0.146
-489.493	-6.337	-0.105	0.072
-488.478	-47.195	0.071	-0.035
-487.464	-39.829	-0.139	-0.073
-486.449	-103.244	0.153	0.036
-485.435	-138.482	-0.545	0.060
-484.420	68.850	0.176	0.182
-483.405	-120.069	0.482	-0.083
-482.391	26.117	-0.177	-0.149
-481.376	-156.056	-0.123	0.008
-480.362	800.000	-0.058	-0.202
-479.347	45.395	-0.138	0.128
-478.332	332.133	-0.256	0.497
-477.318	800.000	0.041	0.116
-476.303	628.765	0.088	-0.224
-475.289	233.476	-0.183	0.302
-474.274	228.272	0.065	-0.107
-473.259	-79.846	-0.166	-0.056
-472.245	-126.697	0.120	-0.018
-471.230	-116.221	0.398	-0.074
-470.216	-105.612	0.107	-0.024
-469.201	65.249	-0.192	0.195
-468.186	-66.715	0.117	0.047
-467.172	-66.842	0.155	-0.061
-466.157	103.274	-0.244	0.288
-465.143	-132.221	-0.370	0.048
-464.128	370.653	0.065	-0.131
-463.113	-124.015	0.418	0.066
-462.099	-200.000	-0.004	0.112
-461.084	-8.506	-0.124	-0.083
-460.070	-200.000	0.024	0.133
-459.055	12.640	-0.199	-0.154
-458.040	800.000	-0.079	-0.281
-457.026	233.980	-0.084	0.139
-456.011	732.529	0.069	-0.186
-454.997	144.750	-0.106	0.142
-453.982	-160.702	-0.130	-0.007
-452.968	-73.156	0.070	-0.026
-451.953	87.225	0.068	0.075
-450.938	-200.000	0.009	-0.205
-449.924	-200.000	-0.009	-0.068
-448.909	-90.789	0.228	-0.066
-447.895	541.447	-0.027	0.064
-446.880	-200.000	-0.066	0.442
-445.865	-98.706	-0.263	0.067
-444.851	-200.000	0.011	0.441
-443.836	370.470	0.064	-0.130
-442.822	139.272	-0.140	-0.185
-441.807	161.456	-0.038	0.054
-440.792	-29.744	0.276	0.158
-439.778	14.152	0.066	0.051
-438.763	330.875	-0.109	0.210
-437.749	140.342	-0.109	-0.144
-436.734	-200.000	0.001	-0.017
-435.719	-25.420	0.237	0.140
-434.705	160.985	0.110	0.155
-433.690	12.654	0.144	-0.111
-432.676	-91.126	-0.187	-0.054
-431.661	-127.549	-0.230	-0.033
-430.646	-29.126	-0.040	-0.023
-429.632	-87.414	-0.099	-0.030
-428.617	108.565	-0.201	0.240
-427.603	35.474	0.195	-0.172
-426.588	1.463	0.154	0.111
-425.573	217.265	0.079	-0.126
-424.559	-43.726	0.176	-0.089
-423.544	-177.655	-0.148	0.004
-422.530	58.363	-0.338	0.333
-421.515	-46.552	-0.204	0.100
-420.500	338.517	-0.068	-0.134
-419.486	-200.000	0.044	-0.231
-418.471	244.741	-0.128	0.216
-417.457	242.876	0.113	-0.191
-416.442	-74.427	0.141	-0.051
-415.428	-200.000	0.010	-0.141
-414.413	-200.000	0.049	0.283
-413.398	559.471	-0.175	0.424
-412.384	-140.331	0.299	-0.031
-411.369	44.296	0.098	0.090
-410.355	23.762	-0.115	-0.095
-409.340	-102.040	0.636	-0.154
-408.325	-106.623	-0.116	0.026
-407.311	-200.000	0.011	-0.228
-406.296	37.900	0.405	0.361
-405.282	-5.421	-0.108	0.074
-404.267	-17.357	-0.257	0.162
-403.252	591.038	-0.067	0.166
-402.238	-200.000	-0.036	0.288
-401.223	-58.331	-0.329	-0.143
-400.209	104.067	-0.096	-0.113
-399.194	-38.935	0.309	-0.163
-398.179	29.741	0.260	-0.222
-397.165	43.081	-0.416	-0.381
-396.150	271.021	-0.100	0.177
-395.136	-200.000	-0.022	-0.201
-394.121	85.558	0.191	-0.210
-393.106	-67.409	-0.335	0.132
-392.092	121.610	-0.132	-0.165
-391.077	-200.000	0.029	0.399
-390.063	169.709	-0.218	-0.312
-389.048	-200.000	0.014	0.107
-388.033	-112.350	0.212	-0.042
-387.019	-200.000	-0.047	-0.357
-386.004	-200.000	-0.003	0.021
-384.990	-200.000	0.022	0.000
-383.975	456.140	-0.147	-0.327
-382.960	800.000	0.048	-0.169
-381.946	286.345	0.060	-0.109
-380.931	-62.229	-0.066	-0.028
-379.917	506.961	-0.041	-0.096
-378.902	124.079	0.087	0.109
-377.888	-196.971	-0.280	-0.002
-376.873	-200.000	0.059	0.331
-375.858	-121.126	-0.131	-0.022
-374.844	71.107	-0.135	0.140
-373.829	-123.383	0.043	-0.007
-372.815	800.000	-0.033	-0.145
-371.800	477.989	-0.177	-0.400
-370.785	2.549	0.198	0.144
-369.771	-200.000	0.004	0.510
-368.756	41.374	0.105	-0.095
-367.742	66.219	-0.084	-0.085
-366.727	249.190	0.179	0.303
-365.712	-141.337	-0.093	0.009
-364.698	127.159	-0.115	0.146
-363.683	-200.000	0.063	-0.327
-362.669	800.000	0.077	-0.279
-361.654	-72.727	-0.074	-0.027
-360.639	-102.300	0.136	-0.033
-359.625	-66.863	0.186	-0.074
-358.610	137.025	0.160	0.209
-357.596	445.184	-0.102	-0.225
-356.581	-45.952	-0.051	0.025
-355.566	-69.629	0.201	-0.077
-354.552	98.940	-0.091	-0.105
-353.537	51.191	-0.115	0.109
-352.523	479.714	-0.163	-0.368
-351.508	-79.809	0.159	0.054
-350.493	64.118	-0.183	-0.184
-349.479	13.022	0.099	-0.077
-348.464	-70.552	-0.080	-0.030
-347.450	-56.109	0.300	0.134
-346.435	-200.000	0.016	-0.146
-345.420	-50.179	-0.088	-0.041
-344.406	140.002	0.023	0.030
-343.391	-155.239	-0.046	-0.003
-342.377	146.270	-0.081	-0.109
-341.362	118.611	-0.244	-0.302
-340.348	-2.795	0.149	0.104
-339.333	-163.358	-0.092	0.004
-338.318	103.930	-0.095	-0.111
-337.304	-3.704	0.209	0.145
-336.289	-110.012	-0.232	-0.049
-335.275	-56.504	-0.141	0.062
-334.260	168.403	-0.202	-0.288
-333.245	-184.579	-0.126	0.002
-332.231	-11.174	0.149	-0.098
-331.216	-126.739	0.259	0.038
-330.202	-200.000	0.008	-0.151
-329.187	-98.602	0.257	0.066
-328.172	-56.680	0.227	0.100
-327.158	-140.008	-0.136	0.014
-326.143	-200.000	0.005	0.136
-325.129	443.483	-0.083	0.182
-324.114	435.458	-0.065	0.142
-323.099	110.988	0.134	0.162
-322.085	800.000	0.077	-0.231
-321.070	146.372	0.047	-0.063
-320.056	329.179	0.061	0.116
-319.041	-64.910	-0.100	-0.040
-318.026	800.000	-0.090	0.265
-317.012	379.084	-0.039	-0.081
-315.997	-113.117	0.201	-0.040
-314.983	105.955	-0.109	0.129
-313.968	-64.418	-0.237	-0.096
-312.953	-100.523	-0.135	-0.033
-311.939	-200.000	-0.017	0.446
-310.924	117.340	0.060	-0.074
-309.910	-200.000	0.096	0.438
-308.895	-10.674	0.274	-0.181
-307.880	149.316	0.141	0.191
-306.866	-84.055	-0.215	-0.068
-305.851	-84.721	0.167	-0.053
-304.837	5.165	-0.108	-0.080
-303.822	49.840	0.179	-0.169
-302.807	-131.318	-0.168	0.022
-301.793	649.945	0.008	0.020
-300.778	-70.170	0.394	-0.149
-299.764	-177.895	-0.315	-0.008
-298.749	-14.080	-0.068	0.044
-297.735	553.964	0.088	0.212
-296.720	-200.000	0.028	0.233
-295.705	-200.000	0.008	0.218
-294.691	574.486	-0.025	0.062
-293.676	-200.000	0.004	-0.201
-292.662	-123.295	-0.272	-0.043
-291.647	-178.771	-0.132	0.003
-290.632	800.000	-0.101	0.344
-289.618	-80.297	-0.022	-0.007
-288.603	55.445	0.142	0.138
-287.589	800.000	-0.104	0.295
-286.574	-200.000	0.023	0.110
-285.559	18.876	-0.025	0.020
-284.545	-200.000	-0.005	0.116
-283.530	800.000	-0.089	0.287
-282.516	800.000	0.068	0.296
-281.501	-200.000	-0.002	0.381
-280.486	101.131	-0.149	-0.173
-279.472	-19.055	-0.102	0.063
-278.457	-40.146	-0.135	0.070
-277.443	-200.000	0.018	0.137
-276.428	39.506	-0.057	-0.051
-275.413	-88.933	-0.184	-0.054
-274.399	340.174	-0.072	0.140
-273.384	96.391	-0.103	-0.117
-272.370	-200.000	-0.041	-0.250
-271.355	-59.127	0.348	-0.149
-270.340	800.000	0.034	0.113
-269.326	316.221	0.062	-0.116
-268.311	-75.760	-0.171	0.060
-267.297	-90.916	-0.442	0.127
-266.282	800.000	-0.020	-0.068
-265.267	227.209	-0.267	0.433
-264.253	-63.852	0.127	-0.052
-263.238	-200.000	0.030	0.193
-262.224	-117.179	0.129	-0.023
-261.209	-200.000	-0.005	0.202
-260.195	-10.269	-0.128	0.085
-259.180	-57.290	-0.061	-0.027
-258.165	198.296	-0.170	-0.260
-257.151	-14.152	-0.150	-0.097
-256.136	579.314	0.061	-0.148
-255.122	800.000	-0.133	0.409
-254.107	62.922	0.269	0.268
-253.092	-116.774	0.114	-0.021
-252.078	-22.210	0.139	-0.084
-251.063	-106.512	0.158	0.035
-250.049	178.389	-0.130	0.189
-249.034	-200.000	0.003	-0.355
-248.019	-200.000	-0.067	-0.299
-247.005	733.816	0.074	0.196
-245.990	484.649	0.054	0.123
-244.976	210.889	-0.073	0.114
-243.961	-73.176	0.102	-0.037
-242.946	-200.000	0.021	-0.255
-241.932	800.000	0.014	-0.054
-240.917	256.602	-0.111	0.190
-239.903	93.202	0.099	0.111
-238.888	106.132	0.188	0.222
-237.873	214.368	0.123	-0.194
-236.859	800.000	-0.111	-0.441
-235.844	145.966	0.012	-0.016
-234.830	-136.463	0.225	0.026
-233.815	361.609	-0.059	0.118
-232.800	-45.470	-0.196	-0.096
-231.786	-200.000	0.012	-0.290
-230.771	509.260	0.021	-0.048
-229.757	-107.247	-0.252	-0.055
-228.742	-200.000	-0.006	-0.026
-227.727	800.000	0.159	-0.438
-226.713	-150.721	-0.209	-0.016
-225.698	286.698	0.046	-0.082
-224.684	-200.000	0.004	-0.154
-223.669	9.506	-0.102	-0.077
-222.655	-200.000	-0.026	0.347
-221.640	800.000	0.053	-0.167
-220.625	-75.129	0.113	-0.040
-219.611	-200.000	-0.037	-0.216
-218.596	-27.609	-0.210	0.121
-217.582	-9.586	0.067	0.044
-216.567	181.054	-0.141	-0.207
-215.552	43.796	0.092	0.083
-214.538	800.000	0.098	0.311
-213.523	-129.849	0.261	-0.036
-212.509	152.800	-0.227	-0.308
-211.494	-114.387	0.290	0.055
-210.479	-110.904	0.315	0.065
-209.465	800.000	-0.019	-0.059
-208.450	-97.219	0.290	0.075
-207.436	-113.782	-0.212	0.041
-206.421	-105.570	-0.171	0.039
-205.406	757.537	-0.082	-0.222
-204.392	368.755	-0.109	0.219
-203.377	-200.000	-0.029	0.189
-202.363	-120.061	0.368	-0.063
-201.348	-50.955	-0.243	-0.114
-200.333	-89.263	-0.229	-0.067
-199.319	452.708	0.042	0.092
-198.304	55.687	0.160	0.154
-197.290	239.062	-0.108	0.179
-196.275	607.847	-0.077	-0.190
-195.260	270.510	0.133	0.233
-194.246	-71.688	-0.332	0.123
-193.231	217.747	0.183	-0.290
-192.217	800.000	0.063	0.176
-191.202	-120.954	0.088	0.015
-190.187	-84.918	0.291	0.091
-189.173	-112.011	-0.024	-0.005
-188.158	-33.828	0.272	-0.149
-187.144	800.000	-0.048	-0.183
-186.129	-17.214	0.249	0.156
-185.114	-107.443	0.355	-0.077
-184.100	-77.380	-0.104	0.036
-183.085	63.456	-0.177	-0.177
-182.071	-200.000	0.075	-0.564
-181.056	-92.337	-0.467	-0.131
-180.042	387.328	-0.057	-0.118
-179.027	-200.000	0.014	0.164
-178.012	800.000	0.090	-0.306
-176.998	13.888	-0.055	0.043
-175.983	-200.000	0.014	-0.133
-174.969	-200.000	-0.040	0.225
-173.954	-121.266	0.145	-0.024
-172.939	800.000	0.034	-0.115
-171.925	-200.000	0.024	0.124
-170.910	128.896	-0.262	0.332
-169.896	800.000	-0.035	-0.150
-168.881	800.000	-0.076	0.275
-167.866	-82.373	-0.029	0.009
-166.852	800.000	0.099	0.347
-165.837	-200.000	-0.037	0.248
-164.823	-129.312	0.201	-0.028
-163.808	-46.888	-0.094	-0.046
-162.793	-200.000	0.012	-0.527
-161.779	800.000	-0.099	0.302
-160.764	-200.000	-0.063	0.390
-159.750	-200.000	-0.004	0.082
-158.735	-200.000	-0.047	-0.314
-157.720	800.000	-0.076	0.222
-156.706	160.445	-0.154	-0.214
-155.691	18.812	-0.173	0.138
-154.677	-200.000	-0.008	0.372
-153.662	330.209	0.061	0.116
-152.647	-200.000	-0.016	0.413
-151.633	37.732	0.154	0.136
-150.618	6.658	-0.230	-0.170
-149.604	363.022	0.088	-0.175
-148.589	-33.975	0.124	0.067
-147.574	169.855	0.183	0.260
-146.560	-24.874	-0.071	-0.042
-145.545	-89.448	0.371	-0.108
-144.531	0.812	0.211	0.150
-143.516	-200.000	-0.012	0.127
-142.502	299.956	-0.082	-0.150
-141.487	114.962	-0.120	0.145
-140.472	-200.000	-0.081	0.399
-139.458	10.362	-0.052	0.039
-138.443	-117.263	-0.107	-0.019
-137.429	30.897	0.212	0.180
-136.414	-191.657	-0.185	-0.002
-135.399	-155.616	-0.287	0.018
-134.385	-200.000	-0.074	-0.568
-133.370	-78.793	0.236	-0.080
-132.356	800.000	0.067	-0.202
-131.341	392.586	-0.058	0.120
-130.326	-27.872	-0.174	-0.100
-129.312	210.038	0.078	-0.122
-128.297	-75.042	0.360	-0.128
-127.283	384.638	-0.085	-0.174
-126.268	-200.000	0.079	-0.425
-125.253	-200.000	0.004	0.413
-124.239	-92.814	-0.180	0.050
-123.224	-200.000	0.019	0.129
