DTS Sentinel unit serial number:	SN413079Multiplexer serial number:	ORYXHardware model number:	OX4-SRSoftware version number:	ORYX F/W v4.00 Oryx Data Collector v3.7.2.0data status	okinstallation	princeton_trtdifferential loss correction	single-endedforward channel	channel 2reverse channel	N/Adate	2019/09/11time	07:53:11forward acquisition time	60.00reverse acquisition time	0.00gamma	496.2192k internal	0.2325k external	0.2325temperature offset calibration	0.9921default loss term (dB/km)	0.3790temperature slope calibration	1.0000multiplexer offset coefficient	1.0000multiplexer slope coefficient	1.0000fibre end	0.00T internal ref (°C)	31.87T ext. ref 1 (°C)	0.09T ext. ref 2 (°C)	28.04length (m)	temperature (°C)	Stokes	anti-Stokes-747.200	-74.677	0.183	-0.066
-746.185	-108.101	-0.482	-0.105
-745.171	-173.113	0.246	0.008
-744.156	118.653	0.090	0.112
-743.142	-75.991	0.131	-0.047
-742.127	-200.000	-0.040	0.243
-741.112	-200.000	0.014	0.155
-740.098	79.024	0.256	0.277
-739.083	190.273	0.073	-0.111
-738.069	489.177	0.035	0.082
-737.054	-158.094	-0.121	0.007
-736.039	64.172	-0.114	-0.115
-735.025	-157.694	0.120	0.007
-734.010	-37.160	-0.139	-0.075
-732.996	-31.447	0.133	-0.076
-731.981	314.641	-0.140	-0.267
-730.966	71.189	-0.129	0.135
-729.952	-200.000	0.048	-0.276
-728.937	-200.000	0.024	-0.316
-727.923	-71.271	0.100	-0.038
-726.908	499.741	-0.052	-0.122
-725.894	800.000	0.059	-0.243
-724.879	-200.000	0.037	-0.297
-723.864	391.550	-0.117	-0.245
-722.850	13.556	-0.201	0.157
-721.835	103.567	-0.098	-0.117
-720.821	90.287	-0.177	-0.199
-719.806	241.986	0.133	0.225
-718.791	-138.720	-0.346	-0.038
-717.777	800.000	-0.029	0.118
-716.762	584.928	0.021	0.052
-715.748	800.000	-0.090	0.321
-714.733	22.262	0.247	0.203
-713.718	-23.131	0.184	-0.112
-712.704	-155.343	0.344	-0.023
-711.689	-144.872	-0.216	0.020
-710.675	-113.183	-0.468	-0.093
-709.660	102.042	-0.250	-0.294
-708.645	-128.490	0.164	-0.023
-707.631	-200.000	0.033	0.415
-706.616	-200.000	-0.037	-0.227
-705.602	-200.000	0.002	0.169
-704.587	300.343	0.153	-0.284
-703.572	453.442	0.150	-0.334
-702.558	17.146	-0.156	-0.124
-701.543	800.000	0.089	0.286
-700.529	112.196	0.140	0.170
-699.514	393.111	0.071	-0.149
-698.499	11.731	0.167	0.129
-697.485	140.997	-0.134	0.179
-696.470	-86.813	0.362	0.111
-695.456	-64.030	-0.229	0.094
-694.441	329.790	0.010	-0.020
-693.426	-200.000	-0.010	0.224
-692.412	-65.799	-0.196	-0.079
-691.397	-130.485	-0.274	-0.037
-690.383	-130.457	-0.207	-0.028
-689.368	-200.000	0.075	0.399
-688.354	103.270	-0.209	0.246
-687.339	-174.794	-0.481	-0.014
-686.324	-200.000	-0.015	-0.528
-685.310	-135.193	-0.246	-0.030
-684.295	-120.539	-0.102	0.017
-683.281	157.099	0.059	0.082
-682.266	-54.270	0.412	0.188
-681.251	72.591	-0.296	-0.311
-680.237	-200.000	0.040	0.293
-679.222	123.326	0.201	0.254
-678.208	256.070	-0.131	-0.225
-677.193	-190.113	-0.159	-0.002
-676.178	401.748	-0.052	-0.109
-675.164	-200.000	0.035	-0.300
-674.149	800.000	-0.101	-0.332
-673.135	55.717	-0.211	0.205
-672.120	-131.554	-0.236	0.031
-671.105	190.167	0.184	-0.278
-670.091	-126.453	0.281	-0.042
-669.076	-200.000	0.021	0.106
-668.062	-156.136	0.184	-0.012
-667.047	-43.910	-0.144	-0.073
-666.032	16.697	0.147	0.117
-665.018	53.545	-0.159	0.153
-664.003	355.488	0.067	-0.134
-662.989	-96.483	0.079	-0.021
-661.974	150.566	0.133	0.182
-660.959	800.000	-0.094	0.346
-659.945	-98.255	0.082	0.021
-658.930	709.329	0.089	0.236
-657.916	161.513	-0.174	0.244
-656.901	23.526	-0.061	-0.051
-655.886	-200.000	-0.016	-0.092
-654.872	71.753	0.090	-0.094
-653.857	-35.144	-0.256	0.140
-652.843	-174.024	-0.106	0.003
-651.828	-200.000	-0.020	-0.097
-650.814	-105.732	-0.379	0.086
-649.799	-54.678	-0.015	-0.007
-648.784	-21.716	0.264	0.161
-647.770	-118.562	0.268	0.048
-646.755	-133.729	0.129	-0.016
-645.741	196.158	0.148	0.226
-644.726	-71.005	0.312	0.118
-643.711	-200.000	-0.000	-0.218
-642.697	-23.587	0.083	0.050
-641.682	-200.000	-0.006	-0.346
-640.668	100.797	-0.197	-0.230
-639.653	-200.000	0.022	0.106
-638.638	-147.159	0.222	0.019
-637.624	439.737	0.042	-0.091
-636.609	416.357	0.120	0.257
-635.595	104.737	0.132	0.157
-634.580	148.075	-0.077	0.104
-633.565	-97.949	-0.040	-0.010
-632.551	-81.740	-0.270	-0.089
-631.536	64.336	-0.077	-0.078
-630.522	63.123	0.080	0.081
-629.507	-114.611	-0.339	0.065
-628.492	-128.085	-0.053	0.008
-627.478	352.561	0.128	0.254
-626.463	800.000	0.104	-0.375
-625.449	-89.704	-0.375	-0.110
-624.434	-149.489	0.364	-0.029
-623.419	-100.311	0.042	0.010
-622.405	53.288	-0.135	-0.130
-621.390	-200.000	0.090	-0.464
-620.376	-107.015	0.555	0.123
-619.361	-27.404	-0.154	0.090
-618.346	800.000	0.039	-0.145
-617.332	-127.987	-0.143	-0.021
-616.317	-200.000	-0.031	-0.136
-615.303	51.285	-0.221	-0.210
-614.288	-44.267	0.170	0.086
-613.273	-34.480	0.100	0.055
-612.259	464.805	-0.083	-0.186
-611.244	226.766	0.103	-0.168
-610.230	36.971	0.025	-0.022
-609.215	182.260	0.045	0.066
-608.201	6.247	-0.104	-0.077
-607.186	217.654	-0.231	-0.369
-606.171	800.000	-0.054	-0.233
-605.157	111.422	0.194	0.234
-604.142	800.000	-0.062	0.212
-603.128	12.789	-0.075	-0.058
-602.113	-90.445	0.158	0.046
-601.098	120.223	-0.306	-0.381
-600.084	-16.640	0.252	0.160
-599.069	-200.000	0.030	0.427
-598.055	267.260	-0.226	0.396
-597.040	159.955	0.058	-0.080
-596.025	59.316	-0.230	-0.227
-595.011	-124.687	-0.309	-0.048
-593.996	-71.863	0.314	0.117
-592.982	234.400	-0.102	0.168
-591.967	73.145	-0.231	-0.242
-590.952	-200.000	0.012	-0.201
-589.938	-6.064	0.191	0.131
-588.923	198.212	-0.043	0.065
-587.909	2.175	-0.265	-0.192
-586.894	11.808	-0.165	-0.127
-585.879	-200.000	-0.008	-0.133
-584.865	-200.000	-0.015	-0.309
-583.850	8.795	0.115	0.087
-582.836	19.434	-0.209	-0.169
-581.821	800.000	0.058	-0.174
-580.806	-200.000	-0.031	0.148
-579.792	23.044	-0.138	-0.113
-578.777	800.000	-0.052	0.193
-577.763	-166.284	0.428	0.018
-576.748	57.721	0.052	-0.051
-575.733	-55.736	0.410	0.184
-574.719	-169.607	0.092	-0.003
-573.704	-54.332	-0.122	0.056
-572.690	-200.000	0.002	0.032
-571.675	245.120	0.188	0.316
-570.661	30.114	-0.098	-0.084
-569.646	-24.280	-0.399	0.239
-568.631	796.752	-0.101	0.279
-567.617	-102.787	-0.270	0.064
-566.602	-34.592	0.039	0.021
-565.588	460.156	0.075	0.167
-564.573	-35.181	0.061	0.033
-563.558	35.524	-0.129	0.113
-562.544	-20.909	0.068	-0.042
-561.529	-57.701	0.296	-0.130
-560.515	202.032	0.184	0.285
-559.500	56.478	0.227	-0.221
-558.485	11.063	0.096	-0.074
-557.471	114.823	0.428	-0.523
-556.456	-200.000	0.042	-0.335
-555.442	-200.000	-0.014	-0.107
-554.427	-114.737	0.270	0.052
-553.412	234.252	-0.160	-0.265
-552.398	-119.356	0.379	-0.066
-551.383	-15.195	0.198	-0.127
-550.369	800.000	0.036	-0.149
-549.354	-147.709	-0.182	-0.015
-548.339	-71.469	0.373	-0.140
-547.325	55.645	0.240	0.233
-546.310	236.626	-0.024	0.039
-545.296	800.000	0.053	-0.205
-544.281	-7.646	-0.265	0.179
-543.266	675.859	-0.044	0.115
-542.252	378.624	-0.102	0.209
-541.237	-78.138	-0.353	0.122
-540.223	13.775	-0.290	-0.226
-539.208	-168.862	-0.264	-0.010
-538.193	-135.087	-0.039	0.005
-537.179	5.361	0.085	0.063
-536.164	-156.308	0.193	-0.012
-535.150	-79.099	0.190	-0.065
-534.135	-50.610	0.010	0.005
-533.121	-4.845	-0.250	0.173
-532.106	-155.573	-0.183	0.012
-531.091	113.410	-0.301	-0.366
-530.077	-100.936	0.281	-0.069
-529.062	44.185	-0.142	0.130
-528.048	800.000	0.003	0.010
-527.033	122.832	-0.184	-0.231
-526.018	606.776	-0.093	-0.232
-525.004	33.831	0.075	0.065
-523.989	333.963	0.103	0.199
-522.975	-133.033	0.341	0.043
-521.960	42.244	-0.212	0.192
-520.945	191.018	0.099	0.149
-519.931	800.000	-0.067	0.267
-518.916	-200.000	0.008	0.105
-517.902	33.119	-0.195	-0.169
-516.887	724.005	0.050	0.133
-515.872	147.338	0.154	0.208
-514.858	-115.854	0.069	-0.013
-513.843	55.836	-0.137	0.133
-512.829	106.970	-0.149	0.177
-511.814	72.173	0.104	0.109
-510.799	-118.562	-0.433	0.077
-509.785	44.100	0.107	0.098
-508.770	-174.553	-0.068	-0.002
-507.756	-50.591	0.194	-0.091
-506.741	-104.594	-0.206	-0.048
-505.726	-104.742	0.050	0.011
-504.712	293.843	-0.222	0.405
-503.697	-200.000	0.028	-0.151
-502.683	105.451	0.207	-0.245
-501.668	141.448	0.212	0.281
-500.653	800.000	-0.024	-0.085
-499.639	-200.000	-0.039	0.405
-498.624	-200.000	-0.003	0.059
-497.610	-7.878	-0.298	-0.201
-496.595	-50.242	0.045	-0.021
-495.581	-200.000	-0.023	-0.257
-494.566	800.000	0.025	0.098
-493.551	95.652	-0.041	0.047
-492.537	-200.000	-0.019	-0.195
-491.522	-200.000	0.041	-0.191
-490.508	-200.000	-0.017	-0.215
-489.493	191.505	-0.157	-0.237
-488.478	-52.716	0.166	-0.076
-487.464	-81.374	-0.218	0.072
-486.449	800.000	0.118	-0.365
-485.435	-20.359	-0.108	0.067
-484.420	-64.156	0.363	0.148
-483.405	-200.000	0.054	-0.372
-482.391	128.480	-0.172	-0.218
-481.376	-68.045	0.201	-0.078
-480.362	193.324	0.255	0.385
-479.347	-99.922	0.322	0.080
-478.332	256.416	-0.228	-0.391
-477.318	64.408	-0.172	0.173
-476.303	-200.000	-0.018	0.084
-475.289	147.365	-0.173	0.232
-474.274	-64.212	0.252	0.103
-473.259	-151.120	-0.072	0.005
-472.245	53.122	-0.102	0.098
-471.230	-200.000	0.077	-0.384
-470.216	-200.000	-0.018	-0.380
-469.201	-200.000	-0.018	-0.206
-468.186	149.334	-0.144	-0.195
-467.172	-38.589	0.167	0.088
-466.157	-15.645	0.320	0.204
-465.143	-65.976	-0.174	-0.070
-464.128	-200.000	-0.048	0.262
-463.113	177.818	-0.166	-0.241
-462.099	96.056	0.256	-0.292
-461.084	-25.778	0.195	-0.115
-460.070	-82.687	0.223	0.072
-459.055	72.906	-0.204	-0.213
-458.040	192.301	-0.037	0.056
-457.026	2.431	0.133	0.096
-456.011	61.204	0.225	0.223
-454.997	141.057	0.169	-0.223
-453.982	800.000	-0.049	0.137
-452.968	-200.000	-0.005	-0.167
-451.953	13.480	-0.505	0.391
-450.938	-40.340	-0.162	-0.084
-449.924	-183.989	0.231	-0.004
-448.909	800.000	0.125	-0.430
-447.895	800.000	-0.053	-0.186
-446.880	800.000	-0.083	-0.329
-445.865	800.000	0.058	0.206
-444.851	243.144	0.162	0.271
-443.836	118.549	-0.216	-0.266
-442.822	102.347	-0.185	0.215
-441.807	800.000	0.056	0.157
-440.792	-120.158	0.180	0.031
-439.778	14.490	0.129	0.100
-438.763	-76.673	-0.027	0.009
-437.749	158.802	-0.023	-0.032
-436.734	-200.000	0.019	0.313
-435.719	-45.909	0.227	-0.111
-434.705	180.064	0.111	0.162
-433.690	-200.000	-0.021	-0.154
-432.676	-90.532	0.413	-0.119
-431.661	800.000	0.056	0.193
-430.646	92.075	-0.035	-0.040
-429.632	99.301	0.151	-0.175
-428.617	38.618	-0.219	-0.195
-427.603	124.085	-0.302	-0.379
-426.588	166.960	0.213	0.301
-425.573	356.630	0.168	-0.333
-424.559	-3.267	-0.123	-0.085
-423.544	626.396	0.041	0.102
-422.530	9.062	-0.107	-0.080
-421.515	-159.182	-0.640	-0.036
-420.500	-200.000	0.036	-0.196
-419.486	30.437	-0.120	-0.102
-418.471	-200.000	0.001	-0.013
-417.457	-11.684	0.136	0.089
-416.442	800.000	0.131	0.439
-415.428	-60.585	-0.480	0.203
-414.413	-14.795	0.303	-0.194
-413.398	-43.687	-0.094	0.047
-412.384	17.291	-0.119	-0.094
-411.369	152.160	-0.231	0.315
-410.355	-62.404	0.100	0.041
-409.340	-50.581	0.096	0.045
-408.325	-115.867	-0.020	0.004
-407.311	-93.868	-0.208	0.057
-406.296	-79.730	-0.172	-0.058
-405.282	28.178	0.246	-0.207
-404.267	-33.367	0.211	-0.116
-403.252	-7.773	-0.078	0.053
-402.238	718.963	0.059	0.157
-401.223	50.682	0.177	0.166
-400.209	-200.000	-0.022	-0.248
-399.194	-79.439	-0.340	-0.114
-398.179	270.207	-0.082	0.144
-397.165	-112.890	-0.089	-0.018
-396.150	-13.193	0.224	-0.145
-395.136	-41.849	-0.090	-0.046
-394.121	800.000	0.124	-0.493
-393.106	-60.939	0.100	0.042
-392.092	-156.233	0.322	-0.020
-391.077	4.572	-0.437	-0.319
-390.063	79.040	-0.233	-0.248
-389.048	-45.751	0.277	-0.136
-388.033	69.938	-0.196	0.201
-387.019	14.126	-0.246	-0.191
-386.004	4.289	-0.109	0.079
-384.990	800.000	-0.079	-0.262
-383.975	137.382	-0.202	0.263
-382.960	-39.425	-0.153	0.080
-381.946	63.439	-0.139	-0.139
-380.931	153.282	0.105	-0.143
-379.917	774.412	0.083	0.225
-378.902	160.177	-0.100	-0.139
-377.888	-200.000	-0.007	0.077
-376.873	170.441	-0.136	0.193
-375.858	304.322	-0.022	0.040
-374.844	-200.000	0.027	-0.177
-373.829	-200.000	-0.047	0.298
-372.815	-71.365	-0.148	0.055
-371.800	8.333	-0.058	0.044
-370.785	-58.159	0.172	-0.075
-369.771	38.792	-0.148	-0.131
-368.756	367.983	-0.067	0.135
-367.742	-23.302	0.239	-0.143
-366.727	-200.000	0.517	0.000
-365.712	203.770	0.140	0.215
-364.698	-66.486	-0.219	0.086
-363.683	-200.000	-0.038	-0.306
-362.669	-128.429	-0.213	-0.030
-361.654	785.729	-0.004	-0.010
-360.639	-53.923	0.218	0.099
-359.625	-18.007	0.203	0.126
-358.610	-138.531	-0.166	0.018
-357.596	-200.000	0.088	0.390
-356.581	-200.000	-0.017	-0.294
-355.566	800.000	0.081	-0.232
-354.552	-139.275	-0.081	-0.009
-353.537	40.610	0.274	0.245
-352.523	637.901	-0.149	0.376
-351.508	-200.000	-0.071	0.419
-350.493	192.994	0.164	0.246
-349.479	-148.786	-0.056	0.005
-348.464	-176.734	-0.258	-0.007
-347.450	-200.000	-0.024	-0.108
-346.435	-19.862	0.190	-0.116
-345.420	-200.000	-0.002	0.081
-344.406	-48.323	-0.201	0.096
-343.391	-19.858	0.309	-0.189
-342.377	-200.000	0.035	0.356
-341.362	68.842	-0.023	-0.023
-340.348	800.000	-0.134	0.476
-339.333	-200.000	-0.012	0.195
-338.318	76.925	0.178	-0.188
-337.304	-24.964	0.351	0.207
-336.289	-28.404	0.040	-0.023
-335.275	-200.000	-0.063	0.380
-334.260	186.721	0.119	-0.175
-333.245	47.479	0.129	-0.120
-332.231	800.000	-0.048	-0.143
-331.216	800.000	0.109	-0.441
-330.202	-200.000	0.015	-0.245
-329.187	645.123	0.170	0.430
-328.172	319.338	-0.144	-0.271
-327.158	-200.000	0.064	0.343
-326.143	-200.000	-0.036	0.174
-325.129	-88.470	0.224	-0.066
-324.114	-62.616	0.160	-0.066
-323.099	-200.000	0.036	-0.231
-322.085	147.995	-0.183	-0.245
-321.070	-4.819	-0.196	-0.134
-320.056	-200.000	0.004	0.159
-319.041	-23.259	0.128	-0.077
-318.026	-19.952	-0.252	0.155
-317.012	-77.164	-0.193	-0.067
-315.997	194.273	0.103	-0.154
-314.983	800.000	-0.078	0.221
-313.968	-63.415	0.243	-0.099
-312.953	8.885	0.084	0.063
-311.939	433.349	0.074	0.160
-310.924	-200.000	0.008	0.285
-309.910	800.000	0.037	0.155
-308.895	-200.000	0.022	0.427
-307.880	-200.000	0.000	-0.082
-306.866	414.745	-0.026	-0.054
-305.851	375.743	0.038	0.077
-304.837	-67.384	0.225	0.087
-303.822	-161.518	-0.154	-0.008
-302.807	800.000	0.101	0.335
-301.793	548.533	0.048	0.114
-300.778	-200.000	0.051	0.302
-299.764	-71.825	-0.138	0.051
-298.749	-71.524	0.230	0.085
-297.735	-9.278	0.134	-0.089
-296.720	59.044	-0.158	0.154
-295.705	-85.230	-0.098	0.030
-294.691	187.467	0.024	0.035
-293.676	788.110	0.163	-0.443
-292.662	41.029	-0.074	-0.066
-291.647	137.384	-0.101	-0.131
-290.632	186.619	0.119	0.176
-289.618	-100.836	-0.051	0.012
-288.603	-97.145	0.148	-0.038
-287.589	-87.758	0.369	-0.110
-286.574	-30.268	-0.332	-0.187
-285.559	-165.352	0.259	0.011
-284.545	-156.943	-0.305	-0.018
-283.530	800.000	0.052	-0.173
-282.516	-200.000	-0.013	0.212
-281.501	-89.873	-0.105	-0.030
-280.486	45.152	0.116	-0.106
-279.472	125.578	-0.047	0.059
-278.457	-105.505	-0.236	-0.053
-277.443	-200.000	0.032	0.344
-276.428	-200.000	-0.014	-0.148
-275.413	-59.548	-0.066	0.028
-274.399	-28.873	0.292	-0.166
-273.384	800.000	-0.051	0.212
-272.370	-47.613	-0.156	-0.075
-271.355	-4.039	0.012	-0.008
-270.340	382.208	0.073	0.149
-269.326	800.000	0.046	-0.176
-268.311	129.002	0.039	0.050
-267.297	800.000	0.030	-0.094
-266.282	155.451	0.175	-0.238
-265.267	800.000	-0.073	-0.257
-264.253	-42.741	-0.068	0.034
-263.238	-200.000	0.032	0.242
-262.224	241.332	0.277	-0.457
-261.209	-200.000	-0.012	-0.161
-260.195	-55.121	-0.050	-0.022
-259.180	-200.000	0.030	-0.347
-258.165	191.061	0.166	0.247
-257.151	95.292	-0.231	-0.261
-256.136	427.579	-0.126	0.268
-255.122	-200.000	-0.037	-0.322
-254.107	-117.301	-0.351	-0.063
-253.092	15.903	0.191	0.149
-252.078	800.000	0.047	-0.158
-251.063	156.378	-0.189	0.258
-250.049	349.609	-0.048	0.094
-249.034	800.000	0.020	0.059
-248.019	104.215	0.156	0.182
-247.005	238.283	-0.290	0.476
-245.990	-77.006	-0.383	0.132
-244.976	-122.213	-0.184	0.030
-243.961	136.550	-0.195	0.252
-242.946	800.000	-0.059	-0.228
-241.932	9.006	0.160	0.120
-240.917	-139.047	-0.176	-0.019
-239.903	328.073	0.109	-0.207
-238.888	276.459	-0.010	0.018
-237.873	480.177	-0.087	0.195
-236.859	-200.000	0.017	-0.132
-235.844	-11.845	-0.203	0.131
-234.830	-142.842	-0.207	-0.020
-233.815	-150.904	-0.291	-0.022
-232.800	-156.174	0.069	-0.004
-231.786	-19.470	0.231	-0.142
-230.771	479.243	0.136	0.304
-229.757	-76.659	-0.084	0.029
-228.742	800.000	0.069	-0.205
-227.727	88.915	0.161	0.177
-226.713	-48.453	-0.311	-0.148
-225.698	800.000	0.038	0.105
-224.684	104.519	0.053	-0.061
-223.669	-200.000	0.027	-0.239
-222.655	-159.053	0.231	0.013
-221.640	373.840	-0.083	-0.167
-220.625	529.313	-0.105	-0.245
-219.611	800.000	-0.069	-0.235
-218.596	604.394	-0.077	-0.190
-217.582	32.703	-0.182	0.156
-216.567	168.460	0.109	0.154
-215.552	348.985	-0.064	-0.126
-214.538	-34.300	0.209	0.114
-213.523	-113.462	0.221	0.043
-212.509	-185.861	-0.071	-0.001
-211.494	-24.875	-0.311	0.182
-210.479	-200.000	0.032	0.220
-209.465	220.154	-0.120	-0.190
-208.450	800.000	0.051	-0.144
-207.436	323.690	0.256	-0.483
-206.421	182.764	0.182	-0.266
-205.406	-53.658	-0.174	-0.079
-204.392	611.931	-0.151	0.373
-203.377	800.000	0.089	-0.260
-202.363	-200.000	0.044	-0.292
-201.348	-200.000	-0.025	-0.185
-200.333	-80.171	0.070	0.023
-199.319	-118.303	-0.229	0.040
-198.304	-43.657	0.167	0.083
-197.290	172.493	0.050	-0.071
-196.275	-200.000	0.032	0.138
-195.260	263.396	-0.103	-0.177
-194.246	121.045	-0.237	0.291
-193.231	-109.680	-0.272	-0.057
-192.217	-56.517	-0.376	-0.164
-191.202	-61.581	0.277	0.115
-190.187	-200.000	-0.096	0.418
-189.173	-163.261	0.206	-0.010
-188.158	-122.880	0.168	0.027
-187.144	60.289	-0.211	0.206
-186.129	800.000	0.078	0.219
-185.114	21.112	-0.137	0.110
-184.100	-200.000	0.062	0.316
-183.085	-106.180	0.034	-0.008
-182.071	-39.276	-0.076	0.039
-181.056	-81.054	-0.077	0.025
-180.042	492.590	-0.182	-0.413
-179.027	478.154	-0.033	-0.074
-178.012	-120.775	-0.117	0.019
-176.998	800.000	-0.021	-0.076
-175.983	123.843	-0.104	-0.128
-174.969	103.922	-0.092	-0.107
-173.954	-105.595	0.300	0.067
-172.939	-0.432	0.287	-0.201
-171.925	-200.000	-0.012	-0.182
-170.910	-47.446	0.246	-0.118
-169.896	-200.000	0.001	0.147
-168.881	800.000	0.064	0.228
-167.866	671.458	-0.090	0.229
-166.852	448.443	0.166	-0.361
-165.837	-4.299	0.137	0.093
-164.823	258.329	-0.149	0.254
-163.808	-112.058	0.136	0.027
-162.793	800.000	-0.017	0.053
-161.779	75.148	-0.122	0.127
-160.764	-172.896	-0.512	-0.016
-159.750	-103.187	0.318	-0.074
-158.735	-200.000	-0.036	0.263
-157.720	-200.000	-0.067	0.481
-156.706	34.866	-0.351	0.302
-155.691	356.080	0.094	0.185
-154.677	-152.383	0.156	0.011
-153.662	-40.190	0.175	0.090
-152.647	800.000	-0.068	0.257
-151.633	-200.000	-0.048	0.249
-150.618	-200.000	0.009	0.107
-149.604	-138.950	0.270	0.029
-148.589	51.241	0.168	0.157
-147.574	689.948	-0.045	0.117
-146.560	8.860	0.206	-0.153
-145.545	-6.697	0.119	0.080
-144.531	800.000	0.040	-0.127
-143.516	698.187	0.034	0.089
-142.502	792.524	0.105	0.285
-141.487	264.076	0.117	-0.201
-140.472	-117.769	0.019	0.003
-139.458	60.277	0.039	-0.038
-138.443	176.138	-0.140	0.201
-137.429	-78.347	-0.133	0.045
-136.414	-43.792	-0.428	-0.212
-135.399	114.643	-0.296	-0.356
-134.385	-200.000	0.005	-0.170
-133.370	632.250	0.155	-0.387
-132.356	-200.000	0.047	0.211
-131.341	3.170	-0.155	-0.111
-130.326	800.000	-0.027	-0.107
-129.312	-34.950	-0.078	-0.042
-128.297	-200.000	-0.012	-0.055
-127.283	-200.000	-0.005	-0.026
-126.268	800.000	-0.079	0.295
-125.253	-65.447	0.485	0.192
-124.239	27.064	0.024	-0.020
-123.224	800.000	-0.043	0.123
-122.210	-50.133	-0.017	0.008
-121.195	664.183	0.022	-0.056
