DTS Sentinel unit serial number:	SN413079Multiplexer serial number:	ORYXHardware model number:	OX4-SRSoftware version number:	ORYX F/W v4.00 Oryx Data Collector v3.7.2.0data status	okinstallation	princeton_trtdifferential loss correction	single-endedforward channel	channel 2reverse channel	N/Adate	2019/09/12time	02:45:11forward acquisition time	60.00reverse acquisition time	0.00gamma	496.2192k internal	0.2326k external	0.2326temperature offset calibration	1.0093default loss term (dB/km)	0.3790temperature slope calibration	1.0000multiplexer offset coefficient	1.0000multiplexer slope coefficient	1.0000fibre end	0.00T internal ref (°C)	32.37T ext. ref 1 (°C)	2.10T ext. ref 2 (°C)	26.97length (m)	temperature (°C)	Stokes	anti-Stokes-747.200	157.443	-0.242	0.338
-746.185	-200.000	-0.008	0.164
-745.171	800.000	0.005	0.016
-744.156	-171.372	-0.147	-0.005
-743.142	-147.605	0.298	-0.025
-742.127	-179.047	-0.160	0.004
-741.112	-200.000	0.032	0.253
-740.098	46.001	-0.049	-0.045
-739.083	364.241	0.052	0.106
-738.069	-200.000	0.020	0.365
-737.054	-130.476	0.333	0.045
-736.039	-200.000	0.066	0.341
-735.025	-200.000	0.051	0.374
-734.010	37.423	0.132	0.118
-732.996	-200.000	-0.021	0.146
-731.981	178.701	-0.242	-0.356
-730.966	-156.732	-0.060	-0.004
-729.952	33.932	0.029	-0.026
-728.937	-98.604	-0.375	-0.096
-727.923	240.336	-0.079	-0.133
-726.908	800.000	-0.095	-0.401
-725.894	-60.181	-0.396	-0.170
-724.879	36.827	0.111	0.099
-723.864	-119.319	-0.120	0.021
-722.850	-200.000	-0.015	-0.165
-721.835	-8.139	-0.251	0.170
-720.821	800.000	0.040	0.142
-719.806	77.470	0.086	-0.092
-718.791	-200.000	0.053	0.000
-717.777	130.572	0.063	0.081
-716.762	197.619	-0.121	-0.185
-715.748	296.464	-0.178	-0.329
-714.733	83.986	0.033	-0.036
-713.718	33.483	0.105	0.092
-712.704	3.191	-0.212	0.155
-711.689	55.948	-0.083	-0.081
-710.675	800.000	0.064	0.244
-709.660	-46.130	-0.173	-0.086
-708.645	60.447	-0.312	0.311
-707.631	-15.839	0.135	-0.087
-706.616	-116.693	-0.235	0.044
-705.602	-79.893	0.151	0.051
-704.587	-80.089	0.168	0.057
-703.572	1.053	-0.071	-0.051
-702.558	692.567	0.077	-0.202
-701.543	-177.039	-0.226	0.006
-700.529	-38.707	0.266	-0.141
-699.514	24.178	0.106	0.088
-698.499	-200.000	0.017	0.334
-697.485	-200.000	0.056	0.272
-696.470	350.196	0.106	-0.211
-695.456	-71.406	0.215	-0.081
-694.441	7.028	-0.191	0.143
-693.426	14.884	0.082	0.064
-692.412	-90.348	0.208	-0.061
-691.397	-95.029	0.272	-0.074
-690.383	70.775	0.071	-0.074
-689.368	230.631	-0.244	-0.403
-688.354	593.045	0.093	-0.232
-687.339	-20.566	-0.181	-0.112
-686.324	220.430	0.015	0.024
-685.310	-54.141	-0.429	0.196
-684.295	-75.240	-0.259	0.093
-683.281	800.000	0.051	0.197
-682.266	192.864	-0.082	0.125
-681.251	-129.944	-0.258	0.036
-680.237	-168.772	-0.315	0.012
-679.222	34.787	-0.110	-0.096
-678.208	-136.700	-0.193	-0.022
-677.193	-35.021	0.080	0.044
-676.178	-13.992	-0.187	0.121
-675.164	800.000	0.075	-0.324
-674.149	177.074	-0.150	-0.220
-673.135	-99.364	-0.288	0.073
-672.120	-38.344	-0.107	-0.057
-671.105	147.976	-0.138	-0.187
-670.091	89.829	-0.169	0.189
-669.076	-200.000	-0.005	-0.028
-668.062	54.339	0.103	-0.099
-667.047	-200.000	0.039	-0.352
-666.032	749.507	-0.089	-0.241
-665.018	-2.156	0.175	0.124
-664.003	-200.000	-0.054	0.294
-662.989	-80.664	0.162	0.054
-661.974	28.820	-0.275	-0.235
-660.959	-87.240	-0.282	0.086
-659.945	546.197	0.165	0.397
-658.930	36.227	0.196	-0.174
-657.916	800.000	-0.099	-0.286
-656.901	191.157	0.147	0.222
-655.886	-53.315	0.405	0.187
-654.872	-20.030	0.197	0.122
-653.857	-158.987	-0.323	-0.018
-652.843	-98.668	-0.122	0.031
-651.828	291.320	0.160	0.292
-650.814	121.431	0.085	0.106
-649.799	-200.000	-0.001	-0.096
-648.784	1.916	-0.164	-0.119
-647.770	-34.395	0.151	-0.083
-646.755	605.986	-0.070	-0.175
-645.741	398.958	0.047	0.099
-644.726	-200.000	0.034	-0.195
-643.711	-200.000	-0.036	-0.205
-642.697	-5.617	-0.060	-0.041
-641.682	-44.984	0.206	-0.103
-640.668	-200.000	-0.004	0.037
-639.653	180.598	-0.059	-0.087
-638.638	800.000	0.099	0.295
-637.624	192.185	0.117	-0.178
-636.609	23.310	0.020	-0.016
-635.595	-24.558	-0.166	0.099
-634.580	800.000	0.037	0.117
-633.565	-152.212	0.091	-0.007
-632.551	143.117	-0.044	-0.059
-631.536	-138.766	-0.221	-0.024
-630.522	-149.166	-0.132	0.011
-629.507	421.207	0.062	0.134
-628.492	800.000	-0.085	-0.318
-627.478	-65.200	-0.074	-0.030
-626.463	-52.048	-0.183	-0.085
-625.449	-106.762	-0.269	0.060
-624.434	208.817	-0.105	0.166
-623.419	-87.258	0.092	-0.028
-622.405	-121.041	0.238	0.040
-621.390	94.089	-0.114	-0.130
-620.376	800.000	0.045	0.192
-619.361	-134.019	-0.164	0.020
-618.346	90.331	-0.059	0.067
-617.332	146.907	-0.111	-0.150
-616.317	164.837	0.304	0.430
-615.303	-25.997	0.113	-0.066
-614.288	-159.603	-0.228	-0.013
-613.273	60.124	-0.154	-0.152
-612.259	761.674	-0.074	0.202
-611.244	-200.000	0.059	-0.266
-610.230	-77.468	-0.174	-0.061
-609.215	281.442	-0.084	-0.151
-608.201	-70.351	-0.185	0.070
-607.186	-82.005	0.137	0.045
-606.171	800.000	0.029	0.123
-605.157	-200.000	0.043	-0.253
-604.142	-52.686	-0.192	-0.089
-603.128	157.963	-0.154	-0.214
-602.113	345.883	0.078	-0.153
-601.098	-84.134	-0.429	0.137
-600.084	-200.000	0.043	-0.296
-599.069	-200.000	0.000	0.189
-598.055	113.848	-0.221	-0.269
-597.040	800.000	-0.099	0.403
-596.025	265.076	-0.126	-0.221
-595.011	-200.000	-0.030	0.291
-593.996	564.176	-0.053	-0.128
-592.982	800.000	0.124	-0.349
-591.967	86.565	-0.073	0.081
-590.952	800.000	-0.052	-0.169
-589.938	-0.336	-0.206	0.147
-588.923	-33.900	-0.237	0.131
-587.909	-24.798	-0.239	-0.143
-586.894	33.891	0.178	-0.155
-585.879	-108.890	-0.068	-0.014
-584.865	-82.805	0.265	0.086
-583.850	68.108	0.050	-0.052
-582.836	800.000	-0.034	0.115
-581.821	-71.933	0.097	0.036
-580.806	800.000	0.069	-0.242
-579.792	87.610	0.119	-0.132
-578.777	-121.433	-0.025	0.004
-577.763	-200.000	-0.015	-0.151
-576.748	203.795	0.154	0.239
-575.733	-200.000	-0.015	-0.112
-574.719	-200.000	-0.027	-0.335
-573.704	-200.000	-0.023	0.104
-572.690	800.000	0.063	0.273
-571.675	287.714	-0.053	-0.096
-570.661	-10.709	0.252	0.167
-569.646	291.712	-0.118	-0.215
-568.631	83.018	-0.135	-0.147
-567.617	-52.217	-0.140	0.065
-566.602	-179.429	-0.433	-0.010
-565.588	462.330	-0.097	0.217
-564.573	-200.000	-0.018	0.245
-563.558	-152.148	0.166	0.012
-562.544	-16.457	-0.111	0.071
-561.529	-200.000	0.006	-0.082
-560.515	-88.484	-0.145	0.043
-559.500	-19.389	0.082	-0.051
-558.485	-11.935	-0.064	-0.042
-557.471	-36.658	0.131	-0.070
-556.456	-59.307	0.295	-0.127
-555.442	-67.771	0.116	0.045
-554.427	43.004	0.071	0.065
-553.412	30.396	0.246	-0.211
-552.398	2.261	-0.118	0.086
-551.383	21.382	-0.173	-0.141
-550.369	-200.000	-0.003	0.126
-549.354	54.046	-0.225	0.216
-548.339	14.000	-0.094	0.073
-547.325	208.510	0.120	0.188
-546.310	706.218	0.082	0.216
-545.296	297.287	-0.133	-0.245
-544.281	800.000	-0.068	-0.205
-543.266	-189.513	0.185	0.002
-542.252	102.740	0.070	0.082
-541.237	-8.511	0.185	-0.124
-540.223	22.342	-0.161	-0.132
-539.208	258.683	0.167	0.288
-538.193	-13.427	-0.082	0.053
-537.179	-126.957	-0.080	-0.012
-536.164	347.255	-0.107	0.211
-535.150	800.000	0.047	-0.141
-534.135	-47.541	0.074	0.036
-533.121	694.835	-0.157	-0.412
-532.106	-97.496	-0.122	-0.032
-531.091	12.213	0.290	0.223
-530.077	-163.803	0.485	-0.023
-529.062	-111.497	-0.222	-0.045
-528.048	44.014	0.064	-0.059
-527.033	-66.905	-0.527	-0.208
-526.018	-136.281	-0.243	-0.028
-525.004	79.321	0.063	-0.068
-523.989	-200.000	-0.002	-0.367
-522.975	-22.028	0.346	0.210
-521.960	215.226	0.177	0.281
-520.945	-85.377	-0.087	0.027
-519.931	-157.191	0.033	-0.002
-518.916	206.825	-0.185	0.287
-517.902	-200.000	-0.014	0.114
-516.887	46.226	0.113	-0.105
-515.872	38.666	-0.246	-0.220
-514.858	-143.513	0.135	-0.013
-513.843	29.822	0.237	-0.202
-512.829	68.002	-0.132	0.135
-511.814	525.308	0.015	0.035
-510.799	-172.731	-0.225	-0.007
-509.785	10.613	-0.079	0.060
-508.770	-133.793	-0.271	-0.034
-507.756	173.654	-0.148	-0.213
-506.741	406.518	-0.058	0.122
-505.726	800.000	0.064	0.271
-504.712	152.612	0.236	-0.322
-503.697	-130.477	0.087	-0.012
-502.683	-79.886	0.074	0.025
-501.668	-183.778	0.388	-0.007
-500.653	-200.000	-0.019	0.092
-499.639	-63.364	-0.299	0.123
-498.624	-33.738	-0.056	-0.031
-497.610	-72.264	-0.257	0.095
-496.595	-30.556	-0.237	-0.134
-495.581	67.496	0.256	-0.261
-494.566	-99.468	-0.398	-0.100
-493.551	-51.887	0.082	0.038
-492.537	76.433	-0.158	0.167
-491.522	-200.000	0.039	-0.534
-490.508	257.377	0.116	-0.200
-489.493	-200.000	0.011	-0.067
-488.478	10.825	-0.226	-0.173
-487.464	800.000	0.050	-0.169
-486.449	127.066	-0.054	0.068
-485.435	194.849	-0.135	-0.204
-484.420	800.000	-0.058	0.228
-483.405	-62.576	-0.130	-0.054
-482.391	-121.248	0.244	-0.041
-481.376	-88.996	-0.375	-0.111
-480.362	314.911	0.063	-0.119
-479.347	259.215	-0.225	-0.387
-478.332	800.000	-0.051	0.163
-477.318	30.550	-0.197	-0.168
-476.303	39.725	-0.144	0.129
-475.289	-63.936	-0.261	0.106
-474.274	-48.058	0.150	0.072
-473.259	502.117	0.057	-0.132
-472.245	-2.420	0.189	-0.132
-471.230	-62.040	-0.258	0.107
-470.216	-79.534	-0.325	-0.110
-469.201	35.693	-0.126	0.111
-468.186	-200.000	-0.025	-0.126
-467.172	800.000	0.158	0.437
-466.157	-80.811	0.076	-0.025
-465.143	18.281	-0.154	0.122
-464.128	84.114	0.196	0.214
-463.113	800.000	0.073	0.255
-462.099	-200.000	0.016	0.180
-461.084	-129.814	0.383	0.052
-460.070	800.000	-0.049	-0.163
-459.055	-200.000	-0.008	0.294
-458.040	-133.706	0.264	0.033
-457.026	256.884	-0.076	0.131
-456.011	-90.960	0.099	0.028
-454.997	-200.000	-0.034	-0.331
-453.982	800.000	0.069	0.257
-452.968	227.444	0.069	0.111
-451.953	51.680	-0.364	-0.345
-450.938	-200.000	-0.008	0.359
-449.924	167.501	0.207	0.293
-448.909	-200.000	-0.003	0.314
-447.895	111.633	0.104	-0.126
-446.880	276.788	-0.201	0.357
-445.865	-15.857	-0.089	-0.056
-444.851	-132.023	0.185	0.024
-443.836	-75.721	-0.158	-0.056
-442.822	-200.000	0.002	0.240
-441.807	800.000	0.069	-0.250
-440.792	-69.764	0.337	-0.128
-439.778	-149.592	-0.244	0.019
-438.763	-113.349	-0.068	-0.013
-437.749	445.824	-0.012	-0.025
-436.734	-82.222	0.247	0.080
-435.719	81.408	0.119	0.128
-434.705	-106.701	-0.184	-0.041
-433.690	500.083	-0.120	-0.276
-432.676	201.001	0.228	-0.350
-431.661	310.575	0.137	-0.255
-430.646	-31.703	0.300	0.168
-429.632	-83.169	0.348	0.111
-428.617	-118.754	-0.024	-0.004
-427.603	-144.422	0.280	0.026
-426.588	800.000	0.103	0.330
-425.573	273.392	0.054	-0.095
-424.559	401.198	-0.051	0.107
-423.544	481.052	0.057	-0.129
-422.530	-3.385	0.102	0.071
-421.515	202.942	0.095	-0.146
-420.500	-200.000	0.011	0.270
-419.486	800.000	0.127	0.355
-418.471	-86.051	-0.393	-0.121
-417.457	314.139	-0.051	-0.095
-416.442	-200.000	0.005	-0.122
-415.428	-40.712	0.211	-0.109
-414.413	151.728	-0.080	0.109
-413.398	86.696	-0.092	0.101
-412.384	-29.798	0.073	-0.041
-411.369	-200.000	-0.028	-0.242
-410.355	83.340	0.190	-0.206
-409.340	-152.823	0.295	0.021
-408.325	-200.000	0.025	-0.302
-407.311	43.192	-0.196	-0.178
-406.296	-81.268	-0.189	-0.062
-405.282	184.519	0.170	0.251
-404.267	456.004	-0.032	0.070
-403.252	-200.000	0.023	-0.135
-402.238	-200.000	-0.018	0.220
-401.223	-2.814	-0.058	0.040
-400.209	-82.566	0.140	-0.045
-399.194	800.000	-0.026	-0.083
-398.179	800.000	-0.015	-0.045
-397.165	800.000	0.016	0.063
-396.150	457.122	0.080	-0.178
-395.136	-200.000	0.017	0.311
-394.121	800.000	-0.070	0.199
-393.106	-63.791	-0.320	0.130
-392.092	-56.485	0.146	-0.064
-391.077	22.430	0.160	0.130
-390.063	382.485	0.099	0.203
-389.048	-200.000	-0.006	0.193
-388.033	-200.000	0.012	-0.307
-387.019	44.235	0.129	-0.118
-386.004	-108.252	0.123	0.026
-384.990	-200.000	-0.008	-0.146
-383.975	-15.052	0.311	0.198
-382.960	-68.088	0.118	0.046
-381.946	3.377	0.224	0.162
-380.931	800.000	0.087	-0.281
-379.917	-37.897	-0.218	-0.115
-378.902	539.355	-0.054	-0.128
-377.888	-23.231	0.192	0.115
-376.873	108.958	-0.152	-0.181
-375.858	-53.298	-0.326	-0.149
-374.844	-112.541	0.175	0.035
-373.829	-64.840	-0.319	-0.128
-372.815	-200.000	0.002	-0.337
-371.800	-81.092	-0.137	-0.045
-370.785	-200.000	0.020	0.268
-369.771	-88.232	0.284	0.084
-368.756	-200.000	0.026	0.223
-367.742	249.740	0.115	-0.194
-366.727	-200.000	-0.049	0.319
-365.712	46.827	-0.194	-0.179
-364.698	110.445	0.148	0.177
-363.683	407.393	0.049	-0.102
-362.669	-200.000	-0.014	0.096
-361.654	-47.286	0.069	0.033
-360.639	-200.000	0.002	-0.159
-359.625	-47.032	0.406	0.197
-358.610	111.719	0.219	-0.262
-357.596	174.362	-0.107	-0.154
-356.581	-200.000	0.040	-0.232
-355.566	-44.613	0.173	-0.086
-354.552	800.000	-0.039	-0.162
-353.537	-52.892	0.200	0.092
-352.523	2.734	-0.191	0.138
-351.508	237.738	0.084	-0.139
-350.493	32.704	0.153	-0.131
-349.479	628.621	0.098	-0.246
-348.464	800.000	0.026	0.082
-347.450	105.237	-0.166	-0.194
-346.435	-200.000	-0.006	0.223
-345.420	681.607	0.048	-0.123
-344.406	-50.476	-0.180	-0.084
-343.391	-62.283	0.012	0.005
-342.377	-200.000	0.014	0.290
-341.362	-200.000	0.000	-0.003
-340.348	104.681	0.096	-0.112
-339.333	305.312	0.069	-0.127
-338.318	117.565	-0.158	0.193
-337.304	-38.180	-0.239	-0.126
-336.289	-147.291	0.352	-0.030
-335.275	427.856	0.137	0.294
-334.260	-200.000	0.015	0.297
-333.245	-200.000	0.016	0.277
-332.231	228.425	-0.203	-0.328
-331.216	-200.000	-0.025	-0.123
-330.202	-168.235	-0.106	-0.004
-329.187	800.000	-0.068	0.196
-328.172	91.114	-0.094	0.105
-327.158	-200.000	-0.036	-0.351
-326.143	800.000	-0.029	-0.088
-325.129	-200.000	0.103	0.466
-324.114	800.000	-0.063	0.259
-323.099	104.589	-0.118	-0.137
-322.085	-39.601	0.224	-0.116
-321.070	-200.000	-0.075	0.448
-320.056	503.395	0.109	0.250
-319.041	-53.393	0.334	0.152
-318.026	800.000	0.084	-0.366
-317.012	-11.636	-0.162	-0.106
-315.997	-107.732	0.303	-0.066
-314.983	-163.628	0.360	0.017
-313.968	-174.481	0.070	-0.002
-312.953	-200.000	0.034	0.206
-311.939	-32.361	0.248	0.137
-310.924	-4.833	-0.159	0.109
-309.910	349.956	-0.143	0.280
-308.895	-200.000	0.002	0.071
-307.880	-18.761	0.098	0.060
-306.866	-5.651	-0.372	-0.253
-305.851	-54.536	0.364	-0.163
-304.837	30.167	0.234	0.198
-303.822	-200.000	-0.003	-0.013
-302.807	158.159	-0.084	0.115
-301.793	143.900	-0.231	-0.305
-300.778	484.438	0.089	-0.201
-299.764	66.540	-0.136	0.137
-298.749	27.484	-0.332	0.276
-297.735	316.910	0.198	0.372
-296.720	-90.222	-0.336	0.097
-295.705	69.885	-0.129	0.131
-294.691	-111.108	0.185	-0.038
-293.676	-200.000	0.026	-0.194
-292.662	167.399	-0.021	0.029
-291.647	520.740	0.121	0.282
-290.632	-168.013	-0.178	-0.007
-289.618	-146.930	-0.295	-0.025
-288.603	-58.076	0.069	-0.030
-287.589	70.858	0.102	0.104
-286.574	-200.000	-0.039	0.260
-285.559	185.021	0.103	-0.151
-284.545	-200.000	0.012	0.411
-283.530	77.363	-0.108	-0.114
-282.516	-19.809	0.288	-0.176
-281.501	-47.983	-0.423	0.202
-280.486	409.566	-0.023	0.048
-279.472	191.486	0.220	-0.328
-278.457	-8.744	0.223	-0.148
-277.443	45.175	0.222	-0.202
-276.428	800.000	0.076	-0.230
-275.413	-33.882	0.303	0.165
-274.399	-10.614	0.179	0.117
-273.384	-70.039	0.093	-0.035
-272.370	2.635	-0.260	-0.186
-271.355	-127.405	-0.411	-0.059
-270.340	501.203	-0.086	0.196
-269.326	-200.000	-0.023	0.163
-268.311	-135.125	0.328	-0.039
-267.297	65.971	-0.079	0.080
-266.282	-200.000	-0.055	-0.361
-265.267	200.873	-0.108	-0.165
-264.253	-73.580	0.201	-0.072
-263.238	201.857	-0.141	-0.215
-262.224	-77.827	-0.182	-0.062
-261.209	-21.930	0.212	-0.127
-260.195	389.088	-0.092	-0.189
-259.180	333.599	0.067	0.128
-258.165	-200.000	0.013	-0.184
-257.151	800.000	0.056	0.230
-256.136	-45.772	-0.074	-0.036
-255.122	-42.690	-0.340	-0.171
-254.107	112.160	0.175	0.209
-253.092	291.594	-0.086	0.154
-252.078	-147.718	0.163	-0.014
-251.063	-200.000	0.028	0.277
-250.049	450.677	-0.122	0.266
-249.034	421.358	-0.071	-0.150
-248.019	-38.443	-0.210	-0.110
-247.005	-21.206	0.060	-0.036
-245.990	780.211	-0.104	0.282
-244.976	-200.000	0.045	0.418
-243.961	-15.530	-0.172	-0.108
-242.946	148.986	-0.061	-0.081
-241.932	-188.958	0.216	-0.003
-240.917	-88.593	0.133	0.039
-239.903	-153.689	0.230	0.016
-238.888	510.199	0.110	0.254
-237.873	-120.717	0.165	-0.027
-236.859	-200.000	0.086	-0.471
-235.844	21.446	0.066	-0.053
-234.830	50.257	0.030	0.028
-233.815	-88.892	-0.197	0.058
-232.800	-104.873	-0.062	0.014
-231.786	-138.227	0.098	0.011
-230.771	241.546	-0.228	0.376
-229.757	-105.550	0.065	0.014
-228.742	800.000	-0.093	0.375
-227.727	166.806	0.059	0.082
-226.713	730.119	0.073	0.193
-225.698	175.042	0.209	0.299
-224.684	-78.902	0.286	0.096
-223.669	-74.555	0.137	0.049
-222.655	-137.443	-0.123	-0.014
-221.640	106.359	-0.099	0.116
-220.625	800.000	0.111	-0.350
-219.611	-21.135	0.223	-0.135
-218.596	53.560	0.092	0.087
-217.582	-200.000	0.001	-0.061
-216.567	318.296	-0.156	-0.292
-215.552	-60.865	-0.138	0.058
-214.538	-7.905	-0.132	-0.088
-213.523	70.776	0.028	0.029
-212.509	20.868	-0.137	-0.109
-211.494	-99.015	-0.311	-0.078
-210.479	1.115	0.228	-0.161
-209.465	800.000	-0.104	-0.352
-208.450	350.782	0.156	0.306
-207.436	63.724	0.346	0.344
-206.421	166.603	-0.096	-0.135
-205.406	-18.746	0.122	-0.075
-204.392	-145.458	0.098	0.009
-203.377	-110.216	-0.347	-0.071
-202.363	-200.000	-0.018	-0.086
-201.348	-200.000	0.038	-0.280
-200.333	-20.503	0.036	-0.022
-199.319	249.554	-0.110	-0.184
-198.304	267.957	-0.124	-0.215
-197.290	-94.345	0.285	0.077
-196.275	167.884	0.063	0.088
-195.260	8.865	-0.145	-0.108
-194.246	190.976	0.103	-0.153
-193.231	224.186	-0.176	-0.281
-192.217	-200.000	0.014	-0.391
-191.202	8.864	0.201	0.149
-190.187	-200.000	0.006	-0.237
-189.173	-90.984	-0.064	0.018
-188.158	99.415	-0.154	0.176
-187.144	800.000	-0.048	-0.140
-186.129	627.136	0.031	-0.076
-185.114	754.380	-0.087	-0.232
-184.100	800.000	0.056	0.161
-183.085	248.996	-0.171	0.286
-182.071	-200.000	0.005	0.366
-181.056	-200.000	-0.029	0.340
-180.042	800.000	0.049	-0.162
-179.027	800.000	0.075	-0.240
-178.012	153.016	0.212	-0.286
-176.998	559.642	0.064	0.152
-175.983	36.604	0.401	0.349
-174.969	675.996	-0.048	-0.123
-173.954	800.000	-0.144	0.422
-172.939	42.243	0.107	-0.096
-171.925	30.795	-0.242	-0.204
-170.910	800.000	0.043	-0.181
-169.896	-50.629	0.207	0.096
-168.881	-200.000	0.036	0.179
-167.866	17.332	-0.164	0.128
-166.852	360.615	-0.098	0.194
-165.837	22.604	0.186	0.150
-164.823	402.150	0.012	0.026
-163.808	800.000	-0.011	0.036
-162.793	800.000	0.049	-0.204
-161.779	-200.000	-0.026	0.133
-160.764	800.000	0.019	-0.076
-159.750	116.638	-0.161	0.195
-158.735	800.000	-0.049	0.175
-157.720	-200.000	0.027	0.222
-156.706	-49.219	-0.142	0.067
-155.691	-103.901	-0.333	0.077
-154.677	-94.046	-0.208	0.056
-153.662	-200.000	0.050	0.255
-152.647	146.229	0.065	-0.086
-151.633	628.418	0.087	-0.217
-150.618	-147.712	-0.075	0.006
-149.604	-200.000	-0.032	0.544
-148.589	631.982	0.118	0.294
-147.574	-34.983	-0.171	0.092
-146.560	800.000	-0.071	-0.199
-145.545	-22.821	0.187	0.111
-144.531	155.530	-0.022	0.029
-143.516	117.349	-0.161	0.195
-142.502	-44.540	-0.179	-0.088
-141.487	75.588	0.036	0.038
-140.472	-200.000	0.025	0.219
-139.458	-200.000	0.016	-0.162
-138.443	-65.085	-0.181	-0.072
-137.429	292.108	-0.094	-0.168
-136.414	-200.000	-0.060	0.368
-135.399	-119.479	0.167	-0.029
-134.385	-158.902	0.199	-0.011
-133.370	299.468	0.156	-0.283
-132.356	800.000	0.139	0.471
-131.341	-105.286	-0.257	-0.058
-130.326	245.629	-0.025	0.041
-129.312	23.412	0.105	-0.085
-128.297	11.143	0.282	-0.213
-127.283	321.174	0.100	-0.188
-126.268	684.311	0.101	0.258
-125.253	70.876	0.127	-0.130
-124.239	759.813	-0.052	0.139
-123.224	-200.000	-0.006	0.079
-122.210	317.435	-0.075	-0.140
-121.195	800.000	-0.066	-0.244
