DTS Sentinel unit serial number:	SN413079Multiplexer serial number:	ORYXHardware model number:	OX4-SRSoftware version number:	ORYX F/W v4.00 Oryx Data Collector v3.7.2.0data status	okinstallation	princeton_trtdifferential loss correction	single-endedforward channel	channel 2reverse channel	N/Adate	2019/09/12time	07:25:11forward acquisition time	60.00reverse acquisition time	0.00gamma	496.2192k internal	0.2323k external	0.2323temperature offset calibration	1.0059default loss term (dB/km)	0.3790temperature slope calibration	1.0000multiplexer offset coefficient	1.0000multiplexer slope coefficient	1.0000fibre end	0.00T internal ref (°C)	32.37T ext. ref 1 (°C)	1.62T ext. ref 2 (°C)	28.89length (m)	temperature (°C)	Stokes	anti-Stokes-747.200	-96.088	0.427	0.115
-746.185	591.140	-0.059	-0.147
-745.171	-93.556	0.129	0.036
-744.156	-39.095	0.116	0.062
-743.142	-63.212	0.335	0.139
-742.127	99.708	-0.276	0.323
-741.112	228.265	0.071	0.117
-740.098	-200.000	0.074	0.551
-739.083	90.621	-0.123	0.140
-738.069	37.528	0.168	0.151
-737.054	616.372	0.087	0.222
-736.039	668.096	0.130	-0.339
-735.025	92.356	-0.110	0.125
-734.010	-102.725	0.119	-0.029
-732.996	-200.000	0.035	-0.290
-731.981	260.754	0.112	0.195
-730.966	-29.358	-0.125	-0.072
-729.952	19.058	-0.225	-0.182
-728.937	800.000	-0.109	0.313
-727.923	-142.872	0.277	0.027
-726.908	800.000	-0.025	0.108
-725.894	-200.000	0.018	-0.147
-724.879	-75.647	-0.262	-0.094
-723.864	14.169	-0.257	-0.202
-722.850	800.000	0.043	0.145
-721.835	-94.757	0.601	-0.165
-720.821	-92.870	0.131	0.037
-719.806	-200.000	-0.022	0.121
-718.791	50.428	-0.080	-0.076
-717.777	-30.268	-0.044	-0.025
-716.762	-172.607	-0.193	0.006
-715.748	-138.485	0.063	0.007
-714.733	-200.000	-0.016	-0.297
-713.718	286.492	0.148	-0.270
-712.704	-98.902	-0.116	-0.030
-711.689	124.785	0.029	0.037
-710.675	97.680	0.172	-0.199
-709.660	34.463	0.266	-0.234
-708.645	800.000	-0.093	-0.406
-707.631	201.946	-0.237	-0.369
-706.616	-28.109	0.066	0.039
-705.602	-200.000	0.015	0.266
-704.587	-200.000	-0.046	0.222
-703.572	-143.839	-0.348	0.033
-702.558	-23.634	-0.069	0.042
-701.543	-200.000	0.009	-0.201
-700.529	-200.000	-0.004	-0.085
-699.514	800.000	0.064	0.255
-698.499	800.000	-0.021	-0.081
-697.485	-200.000	-0.008	-0.148
-696.470	800.000	-0.054	-0.164
-695.456	-4.327	-0.366	-0.255
-694.441	-83.394	-0.336	0.109
-693.426	-125.801	-0.047	-0.007
-692.412	-59.216	-0.203	0.088
-691.397	150.970	0.023	0.031
-690.383	-151.121	-0.221	-0.017
-689.368	324.163	-0.039	-0.075
-688.354	-24.490	0.116	-0.069
-687.339	-81.900	0.315	-0.104
-686.324	-81.669	0.227	-0.075
-685.310	-156.872	-0.341	-0.021
-684.295	-200.000	0.002	0.013
-683.281	-119.839	0.116	-0.020
-682.266	-200.000	-0.000	-0.024
-681.251	344.457	0.025	0.050
-680.237	-3.703	-0.133	-0.093
-679.222	27.435	0.177	0.150
-678.208	-200.000	-0.051	0.363
-677.193	-200.000	0.011	-0.127
-676.178	-91.977	0.120	-0.034
-675.164	521.987	-0.077	0.181
-674.149	208.918	0.057	-0.089
-673.135	800.000	0.041	-0.140
-672.120	380.572	-0.025	0.052
-671.105	-46.459	-0.187	-0.092
-670.091	-28.796	0.139	0.081
-669.076	3.648	-0.203	0.149
-668.062	572.406	-0.045	0.110
-667.047	800.000	0.078	-0.226
-666.032	-71.229	0.161	0.061
-665.018	5.370	-0.097	-0.072
-664.003	117.015	0.185	-0.229
-662.989	157.774	-0.123	0.172
-661.974	-200.000	-0.016	-0.146
-660.959	33.917	-0.332	-0.291
-659.945	-14.702	0.313	-0.202
-658.930	75.657	0.281	0.299
-657.916	-132.728	0.343	0.044
-656.901	714.505	0.080	0.213
-655.886	-200.000	-0.018	-0.377
-654.872	212.517	0.037	0.059
-653.857	54.527	-0.014	-0.014
-652.843	-27.197	0.109	-0.064
-651.828	-200.000	0.010	-0.053
-650.814	-143.996	-0.138	0.013
-649.799	-93.147	0.036	0.010
-648.784	-42.720	0.232	-0.119
-647.770	-114.524	0.178	-0.034
-646.755	200.559	-0.091	-0.141
-645.741	23.917	0.094	0.078
-644.726	-141.050	-0.242	-0.025
-643.711	359.692	-0.144	-0.289
-642.697	-6.242	0.219	-0.150
-641.682	-200.000	0.006	-0.071
-640.668	-200.000	-0.023	0.269
-639.653	-1.740	-0.163	-0.115
-638.638	-97.721	-0.295	0.077
-637.624	-71.211	0.377	-0.142
-636.609	-200.000	0.028	-0.236
-635.595	159.280	0.062	0.086
-634.580	458.472	-0.087	-0.194
-633.565	223.734	0.101	-0.164
-632.551	-87.764	-0.278	-0.084
-631.536	390.973	0.083	0.174
-630.522	-88.274	0.429	0.129
-629.507	420.977	-0.056	-0.121
-628.492	259.866	-0.017	0.030
-627.478	94.421	-0.281	-0.321
-626.463	-200.000	-0.051	0.271
-625.449	565.717	-0.117	0.285
-624.434	800.000	-0.030	-0.119
-623.419	76.861	-0.268	0.286
-622.405	800.000	0.097	0.272
-621.390	-58.783	0.132	-0.058
-620.376	291.461	0.175	-0.319
-619.361	-20.669	0.096	-0.059
-618.346	536.887	-0.042	-0.100
-617.332	-200.000	-0.017	-0.124
-616.317	767.551	-0.095	-0.260
-615.303	-187.253	0.460	0.006
-614.288	-200.000	-0.034	0.251
-613.273	500.948	-0.074	-0.172
-612.259	482.602	0.077	-0.175
-611.244	409.016	-0.120	0.255
-610.230	383.386	0.044	0.092
-609.215	-97.431	-0.103	-0.027
-608.201	-36.154	0.175	0.095
-607.186	447.562	0.133	0.294
-606.171	57.760	0.357	0.351
-605.157	-92.738	0.195	-0.055
-604.142	-200.000	0.010	0.239
-603.128	-4.707	-0.098	-0.068
-602.113	-200.000	-0.049	0.444
-601.098	69.313	-0.349	0.360
-600.084	501.509	-0.051	-0.119
-599.069	-105.286	-0.294	0.067
-598.055	745.728	-0.022	0.059
-597.040	122.413	0.247	0.310
-596.025	-36.818	-0.181	-0.097
-595.011	0.034	0.114	0.082
-593.996	-107.052	0.244	0.054
-592.982	-172.321	0.244	-0.008
-591.967	-181.384	0.256	-0.005
-590.952	686.926	0.115	-0.302
-589.938	-41.211	0.258	-0.134
-588.923	-41.318	0.342	-0.177
-587.909	-130.675	-0.132	-0.018
-586.894	87.014	0.065	-0.072
-585.879	-112.156	-0.335	0.068
-584.865	24.236	0.218	-0.181
-583.850	36.401	0.077	0.068
-582.836	166.234	-0.100	0.142
-581.821	-56.098	-0.194	0.087
-580.806	-42.676	-0.063	0.032
-579.792	323.467	0.148	-0.283
-578.777	-200.000	0.047	-0.262
-577.763	153.103	-0.126	0.173
-576.748	-1.274	-0.103	-0.073
-575.733	769.648	-0.138	0.376
-574.719	1.054	-0.524	0.377
-573.704	800.000	0.003	-0.010
-572.690	800.000	-0.079	0.281
-571.675	800.000	0.036	-0.116
-570.661	246.052	0.017	0.029
-569.646	-135.499	0.068	-0.008
-568.631	-101.245	0.183	-0.045
-567.617	216.198	-0.144	-0.230
-566.602	-23.945	0.127	-0.076
-565.588	-46.223	-0.250	-0.123
-564.573	-31.141	-0.311	0.176
-563.558	-1.499	-0.107	-0.075
-562.544	703.495	-0.023	-0.059
-561.529	-50.954	-0.337	0.159
-560.515	-136.748	0.149	-0.017
-559.500	-117.706	-0.168	0.030
-558.485	135.809	-0.072	0.094
-557.471	43.058	0.289	0.264
-556.456	-100.150	0.213	0.053
-555.442	-200.000	-0.014	-0.294
-554.427	630.261	-0.114	-0.288
-553.412	-117.255	0.206	0.038
-552.398	-165.789	0.236	-0.010
-551.383	524.466	0.109	-0.258
-550.369	-49.440	-0.017	-0.008
-549.354	800.000	0.060	0.256
-548.339	-79.452	-0.105	-0.035
-547.325	23.824	-0.151	0.125
-546.310	443.992	-0.172	-0.379
-545.296	-10.896	-0.203	0.135
-544.281	-34.669	-0.244	-0.134
-543.266	-200.000	-0.058	0.361
-542.252	-103.830	-0.161	0.038
-541.237	-9.375	-0.241	-0.161
-540.223	-83.227	-0.090	0.029
-539.208	-7.563	-0.173	0.117
-538.193	-35.028	0.106	-0.058
-537.179	550.353	0.167	-0.401
-536.164	85.415	0.187	0.206
-535.150	1.831	0.385	0.278
-534.135	-166.621	0.072	0.003
-533.121	-120.107	0.205	-0.035
-532.106	800.000	-0.026	0.092
-531.091	-61.287	-0.194	0.082
-530.077	112.849	-0.246	0.299
-529.062	-65.255	-0.065	-0.026
-528.048	-200.000	0.022	-0.206
-527.033	-73.328	0.376	-0.138
-526.018	-102.103	0.047	0.011
-525.004	58.171	0.262	-0.257
-523.989	200.618	-0.173	0.266
-522.975	-112.225	-0.191	-0.038
-521.960	715.379	0.191	0.508
-520.945	-200.000	-0.037	-0.243
-519.931	-177.889	0.184	-0.004
-518.916	800.000	-0.050	-0.214
-517.902	-75.105	-0.194	-0.069
-516.887	-146.882	0.291	0.025
-515.872	-182.937	-0.122	-0.002
-514.858	-26.635	0.233	0.137
-513.843	425.515	-0.164	0.353
-512.829	438.999	0.082	0.179
-511.814	216.605	0.056	0.089
-510.799	800.000	-0.017	-0.059
-509.785	252.652	-0.179	0.306
-508.770	1.080	0.241	-0.173
-507.756	538.173	-0.145	-0.345
-506.741	202.628	0.100	-0.155
-505.726	-88.593	-0.307	0.091
-504.712	-200.000	-0.051	0.224
-503.697	800.000	-0.039	-0.110
-502.683	-26.584	-0.199	-0.116
-501.668	54.157	0.059	0.057
-500.653	118.247	-0.119	-0.147
-499.639	-81.502	-0.294	0.097
-498.624	517.529	0.053	-0.124
-497.610	340.337	0.106	0.206
-496.595	-200.000	0.023	-0.368
-495.581	-171.256	-0.204	0.007
-494.566	-107.813	-0.333	0.073
-493.551	20.035	-0.308	-0.248
-492.537	800.000	-0.064	-0.202
-491.522	-80.008	-0.257	-0.086
-490.508	-200.000	-0.025	-0.114
-489.493	-100.348	0.192	-0.048
-488.478	-100.854	0.158	0.039
-487.464	658.697	-0.089	-0.230
-486.449	-48.935	0.383	-0.183
-485.435	-32.052	-0.091	-0.051
-484.420	159.467	0.141	-0.196
-483.405	104.001	0.168	0.197
-482.391	23.977	0.194	0.160
-481.376	-46.050	-0.040	0.020
-480.362	174.029	-0.219	0.316
-479.347	-54.665	0.074	0.033
-478.332	-200.000	-0.037	0.303
-477.318	800.000	0.049	0.177
-476.303	-55.114	0.135	0.061
-475.289	72.225	0.095	0.098
-474.274	317.557	0.140	0.265
-473.259	246.749	0.087	-0.147
-472.245	800.000	0.048	0.185
-471.230	-150.364	-0.470	0.036
-470.216	800.000	0.049	-0.194
-469.201	-62.498	0.238	0.099
-468.186	-176.211	-0.306	0.008
-467.172	140.607	0.065	0.086
-466.157	-200.000	-0.004	-0.131
-465.143	80.221	0.185	0.199
-464.128	-200.000	0.064	-0.466
-463.113	189.280	0.117	-0.175
-462.099	-200.000	-0.018	-0.208
-461.084	204.422	0.085	-0.132
-460.070	-200.000	0.032	-0.302
-459.055	12.198	-0.454	-0.349
-458.040	290.225	-0.079	0.144
-457.026	-200.000	-0.010	-0.243
-456.011	5.135	0.391	-0.287
-454.997	-156.555	0.274	0.017
-453.982	-26.237	-0.311	0.182
-452.968	-200.000	0.005	-0.031
-451.953	378.999	0.126	-0.257
-450.938	-86.648	-0.322	-0.098
-449.924	28.448	-0.116	0.098
-448.909	308.931	0.020	-0.037
-447.895	98.668	0.125	-0.144
-446.880	-17.140	-0.178	0.112
-445.865	-200.000	0.056	0.282
-444.851	345.673	-0.078	-0.154
-443.836	693.902	0.019	0.050
-442.822	-125.667	-0.332	0.050
-441.807	625.630	-0.101	-0.255
-440.792	122.546	0.138	-0.172
-439.778	49.532	0.229	-0.215
-438.763	-126.821	0.115	0.017
-437.749	-102.610	0.062	0.015
-436.734	-95.260	0.403	-0.108
-435.719	-200.000	-0.024	-0.292
-434.705	140.611	0.079	-0.104
-433.690	800.000	0.008	0.029
-432.676	-30.149	-0.216	0.122
-431.661	-200.000	0.001	-0.225
-430.646	575.488	0.051	0.124
-429.632	-99.796	0.172	0.043
-428.617	-72.287	0.200	-0.074
-427.603	-51.282	-0.156	0.073
-426.588	-46.095	0.185	0.091
-425.573	800.000	0.075	0.279
-424.559	-113.023	-0.193	0.038
-423.544	257.802	-0.226	0.388
-422.530	-200.000	-0.025	0.209
-421.515	16.873	0.227	-0.179
-420.500	18.178	0.247	-0.197
-419.486	-93.635	-0.355	0.098
-418.471	590.204	0.085	0.209
-417.457	800.000	0.110	-0.376
-416.442	-132.534	0.230	0.029
-415.428	9.844	-0.486	0.368
-414.413	-87.857	0.218	0.065
-413.398	5.213	-0.218	0.160
-412.384	-96.440	-0.189	-0.050
-411.369	-200.000	-0.014	0.127
-410.355	462.887	-0.061	-0.136
-409.340	259.119	-0.122	0.209
-408.325	35.046	-0.222	0.194
-407.311	-13.059	0.341	-0.221
-406.296	800.000	-0.070	-0.252
-405.282	-200.000	0.028	-0.192
-404.267	130.053	-0.161	0.205
-403.252	-17.652	0.234	-0.146
-402.238	800.000	0.066	-0.215
-401.223	-157.642	-0.232	0.014
-400.209	-200.000	0.038	0.186
-399.194	477.541	0.095	-0.214
-398.179	800.000	-0.087	0.244
-397.165	-200.000	-0.013	0.064
-396.150	-52.291	-0.266	0.123
-395.136	-200.000	0.032	0.142
-394.121	-98.409	0.330	0.084
-393.106	-200.000	0.075	0.478
-392.092	688.752	0.085	0.220
-391.077	-200.000	0.042	0.412
-390.063	62.131	0.059	-0.058
-389.048	124.064	0.087	0.109
-388.033	48.945	0.077	-0.072
-387.019	323.006	-0.127	0.240
-386.004	108.060	-0.310	0.368
-384.990	-200.000	-0.043	-0.402
-383.975	34.360	0.251	-0.218
-382.960	800.000	-0.118	0.350
-381.946	-200.000	0.022	-0.104
-380.931	-59.924	-0.144	-0.061
-379.917	-111.955	-0.378	-0.076
-378.902	-96.285	0.066	-0.018
-377.888	226.363	0.048	0.078
-376.873	53.539	0.021	0.020
-375.858	-200.000	-0.057	-0.456
-374.844	-200.000	0.032	-0.269
-373.829	-33.771	0.280	0.153
-372.815	-113.132	0.131	0.026
-371.800	130.550	0.211	0.269
-370.785	53.049	0.161	0.153
-369.771	-191.488	0.411	-0.004
-368.756	51.990	-0.098	0.093
-367.742	-81.845	-0.180	-0.059
-366.727	407.726	0.073	-0.154
-365.712	800.000	0.050	-0.149
-364.698	16.073	0.189	0.148
-363.683	-41.090	-0.330	0.170
-362.669	-200.000	-0.062	0.313
-361.654	-80.766	-0.113	-0.037
-360.639	-186.692	0.413	0.006
-359.625	-200.000	0.016	-0.084
-358.610	2.660	-0.181	0.131
-357.596	559.850	0.183	-0.439
-356.581	2.321	-0.304	-0.219
-355.566	784.824	0.086	0.233
-354.552	800.000	-0.103	0.377
-353.537	-34.409	0.067	-0.037
-352.523	-24.659	-0.255	-0.151
-351.508	-200.000	0.002	0.021
-350.493	329.711	0.089	-0.169
-349.479	-51.813	-0.494	-0.229
-348.464	317.530	-0.191	-0.360
-347.450	-94.741	0.199	0.054
-346.435	-200.000	0.005	0.301
-345.420	82.499	0.182	-0.197
-344.406	-73.254	0.229	-0.083
-343.391	16.820	-0.251	-0.197
-342.377	800.000	0.085	0.317
-341.362	-52.527	-0.198	0.091
-340.348	502.548	-0.031	-0.070
-339.333	-26.592	0.120	-0.070
-338.318	-200.000	0.002	-0.247
-337.304	7.649	0.050	-0.037
-336.289	402.149	-0.093	-0.193
-335.275	-200.000	0.015	0.077
-334.260	88.560	0.143	0.158
-333.245	-86.175	-0.295	0.090
-332.231	1.259	0.151	-0.107
-331.216	800.000	0.020	-0.081
-330.202	-152.154	-0.187	0.014
-329.187	-200.000	-0.065	-0.450
-328.172	-200.000	-0.025	-0.144
-327.158	-53.035	0.273	-0.125
-326.143	-79.150	0.327	-0.110
-325.129	248.209	0.231	-0.388
-324.114	-54.377	0.149	-0.067
-323.099	-107.424	-0.114	0.025
-322.085	-200.000	0.021	0.100
-321.070	80.776	0.199	0.213
-320.056	-90.564	-0.296	-0.085
-319.041	800.000	0.077	-0.295
-318.026	-152.211	0.235	0.017
-317.012	-86.344	0.103	-0.032
-315.997	43.671	0.184	0.167
-314.983	632.421	0.042	0.106
-313.968	-65.954	-0.206	0.082
-312.953	535.419	0.175	-0.412
-311.939	-200.000	-0.019	0.285
-310.924	33.997	-0.060	-0.052
-309.910	800.000	0.063	0.202
-308.895	-200.000	0.011	0.163
-307.880	800.000	0.031	-0.129
-306.866	-109.414	-0.119	-0.025
-305.851	106.109	-0.095	0.112
-304.837	258.372	0.077	-0.132
-303.822	-80.813	-0.320	0.105
-302.807	269.593	-0.221	0.384
-301.793	119.304	0.330	-0.405
-300.778	25.883	-0.222	-0.184
-299.764	-106.804	-0.200	-0.044
-298.749	800.000	-0.083	-0.290
-297.735	-200.000	-0.014	0.214
-296.720	2.650	-0.224	0.161
-295.705	204.762	0.169	0.261
-294.691	-200.000	0.036	0.524
-293.676	35.610	0.079	-0.069
-292.662	-145.383	0.078	-0.007
-291.647	-200.000	0.012	-0.081
-290.632	130.076	0.259	0.329
-289.618	-200.000	0.019	0.311
-288.603	219.037	-0.105	-0.167
-287.589	65.030	0.040	-0.040
-286.574	-200.000	-0.043	-0.196
-285.559	224.237	-0.150	-0.240
-284.545	-200.000	0.021	-0.304
-283.530	36.756	0.094	0.083
-282.516	114.582	0.097	-0.117
-281.501	5.475	0.152	-0.111
-280.486	800.000	0.059	0.180
-279.472	-64.990	-0.049	0.020
-278.457	-108.626	-0.226	0.048
-277.443	800.000	0.129	-0.360
-276.428	-15.028	0.189	0.120
-275.413	800.000	-0.083	0.301
-274.399	-127.220	-0.170	-0.025
-273.384	-50.345	-0.255	0.119
-272.370	239.506	-0.036	0.059
-271.355	110.067	0.049	-0.058
-270.340	800.000	0.036	-0.108
-269.326	144.344	-0.226	-0.299
-268.311	71.421	0.061	0.063
-267.297	-86.891	0.115	0.035
-266.282	62.711	-0.114	-0.113
-265.267	-56.778	0.128	0.056
-264.253	-67.455	-0.211	0.082
-263.238	33.076	-0.147	0.126
-262.224	800.000	0.071	0.228
-261.209	164.135	0.214	0.299
-260.195	-12.233	-0.204	0.132
-259.180	106.424	-0.116	-0.136
-258.165	-138.528	0.238	0.026
-257.151	-120.031	0.252	-0.043
-256.136	82.735	-0.122	0.131
-255.122	670.981	0.028	-0.071
-254.107	-21.853	0.185	-0.111
-253.092	44.501	0.073	-0.067
-252.078	235.446	0.135	0.221
-251.063	55.811	0.013	0.013
-250.049	31.564	-0.328	0.280
-249.034	479.469	-0.056	0.125
-248.019	8.987	-0.155	0.116
-247.005	-200.000	-0.042	-0.313
-245.990	-181.066	-0.317	0.006
-244.976	-32.054	-0.056	-0.031
-243.961	-200.000	-0.015	0.080
-242.946	266.817	0.185	-0.321
-241.932	174.693	-0.096	-0.138
-240.917	-31.051	-0.185	-0.104
-239.903	800.000	-0.061	0.187
-238.888	8.888	0.366	-0.273
-237.873	149.650	0.339	-0.455
-236.859	-178.664	-0.163	0.004
-235.844	172.585	0.147	-0.209
-234.830	28.011	-0.109	-0.091
-233.815	-101.326	0.242	0.058
-232.800	73.907	-0.111	0.115
-231.786	84.868	0.097	0.105
-230.771	-127.048	0.315	0.046
-229.757	5.818	-0.033	-0.024
-228.742	-75.355	0.230	0.081
-227.727	93.531	0.146	-0.164
-226.713	65.388	-0.072	-0.072
-225.698	-90.344	0.292	0.084
-224.684	-200.000	0.002	-0.105
-223.669	800.000	0.060	-0.183
-222.655	208.303	-0.152	0.235
-221.640	-126.796	-0.216	0.032
-220.625	-100.876	0.211	0.051
-219.611	31.783	-0.074	0.063
-218.596	-200.000	-0.036	-0.395
-217.582	-19.516	0.148	0.091
-216.567	-109.115	0.263	0.055
-215.552	-170.218	0.320	0.011
-214.538	68.085	-0.260	0.263
-213.523	-0.551	-0.086	-0.060
-212.509	83.361	0.141	-0.152
-211.494	-72.819	0.368	0.134
-210.479	720.007	0.153	-0.403
-209.465	-200.000	0.022	-0.168
-208.450	73.636	-0.292	0.302
-207.436	-28.865	-0.129	-0.073
-206.421	-119.609	-0.177	0.030
-205.406	-31.006	-0.055	-0.031
-204.392	-51.490	-0.395	-0.182
-203.377	-19.184	0.278	0.171
-202.363	26.087	-0.301	-0.248
-201.348	-144.473	-0.289	0.026
-200.333	-11.304	0.060	0.039
-199.319	-141.696	0.196	0.019
-198.304	1.114	-0.235	0.166
-197.290	-106.446	-0.354	0.078
-196.275	185.007	-0.060	-0.088
-195.260	-26.865	0.090	-0.052
-194.246	-133.716	-0.256	0.032
-193.231	42.478	0.217	0.195
-192.217	0.914	-0.103	0.073
-191.202	258.255	-0.153	0.261
-190.187	58.309	0.150	-0.145
-189.173	-52.507	0.183	0.084
-188.158	-200.000	0.004	-0.172
-187.144	461.997	0.198	0.435
-186.129	59.840	-0.063	-0.062
-185.114	-11.359	-0.158	-0.103
-184.100	58.945	-0.335	0.325
-183.085	-16.276	-0.177	0.111
-182.071	77.169	-0.258	0.270
-181.056	-174.454	0.108	-0.003
-180.042	800.000	-0.050	0.184
-179.027	-92.286	0.130	0.036
-178.012	-20.977	-0.121	-0.073
-176.998	18.665	-0.240	-0.190
-175.983	-29.538	0.084	-0.047
-174.969	-60.053	0.203	0.086
-173.954	-43.054	0.159	0.080
-172.939	-100.400	0.149	0.036
-171.925	-116.535	-0.196	0.036
-170.910	-139.221	0.371	0.040
-169.896	549.886	0.061	-0.144
-168.881	-200.000	-0.002	-0.180
-167.866	61.128	-0.086	-0.085
-166.852	-105.208	-0.293	-0.066
-165.837	-72.651	0.201	-0.073
-164.823	784.455	-0.087	-0.236
-163.808	6.864	0.193	-0.142
-162.793	617.346	0.080	-0.197
-161.779	418.899	-0.157	0.332
-160.764	-38.051	0.106	0.056
-159.750	150.545	-0.179	0.239
-158.735	-21.285	-0.261	0.157
-157.720	431.806	-0.224	0.478
-156.706	346.742	0.102	-0.198
-155.691	509.444	0.114	-0.262
-154.677	-200.000	0.062	-0.368
-153.662	-59.639	0.240	0.102
-152.647	-21.977	-0.085	0.051
-151.633	232.006	-0.119	0.193
-150.618	-119.686	0.370	-0.063
-149.604	179.628	-0.162	0.234
-148.589	-66.214	0.627	0.246
-147.574	-200.000	-0.041	0.249
-146.560	30.963	-0.432	-0.365
-145.545	-36.599	-0.104	0.055
-144.531	-103.318	0.170	-0.040
-143.516	-52.513	0.154	-0.070
-142.502	800.000	-0.152	0.428
-141.487	328.139	0.093	0.176
-140.472	-87.833	0.263	-0.078
-139.458	-15.828	-0.120	0.075
-138.443	-104.128	0.170	-0.039
-137.429	-200.000	-0.010	0.052
-136.414	244.114	-0.196	-0.325
-135.399	21.502	0.093	0.075
-134.385	204.354	0.151	0.231
-133.370	121.353	0.171	-0.210
-132.356	23.328	0.155	0.125
-131.341	137.421	-0.081	-0.104
-130.326	249.113	-0.043	-0.072
-129.312	-200.000	-0.020	0.220
-128.297	157.509	0.114	-0.155
-127.283	182.972	0.133	-0.193
-126.268	-162.760	-0.244	0.012
-125.253	-200.000	-0.053	-0.274
-124.239	-138.388	-0.224	0.024
-123.224	-51.680	-0.164	0.075
-122.210	137.584	0.062	-0.080
-121.195	-80.174	0.155	-0.051
-120.180	-85.427	-0.223	-0.069
