DTS Sentinel unit serial number:	SN413079Multiplexer serial number:	ORYXHardware model number:	OX4-SRSoftware version number:	ORYX F/W v4.00 Oryx Data Collector v3.7.2.0data status	okinstallation	princeton_trtdifferential loss correction	single-endedforward channel	channel 2reverse channel	N/Adate	2019/09/11time	04:01:10forward acquisition time	60.00reverse acquisition time	0.00gamma	496.2192k internal	0.2329k external	0.2329temperature offset calibration	0.9937default loss term (dB/km)	0.3790temperature slope calibration	1.0000multiplexer offset coefficient	1.0000multiplexer slope coefficient	1.0000fibre end	0.00T internal ref (°C)	29.56T ext. ref 1 (°C)	-0.28T ext. ref 2 (°C)	23.81length (m)	temperature (°C)	Stokes	anti-Stokes-747.200	217.976	-0.048	-0.078
-746.185	-7.432	0.195	-0.133
-745.171	94.713	0.068	-0.078
-744.156	-200.000	-0.029	-0.202
-743.142	-77.497	-0.202	-0.071
-742.127	-47.161	-0.155	0.076
-741.112	800.000	-0.022	-0.090
-740.098	-36.907	-0.294	-0.159
-739.083	-58.432	0.108	-0.047
-738.069	598.057	0.095	0.237
-737.054	-70.281	-0.339	0.130
-736.039	252.341	0.140	-0.240
-735.025	-84.192	0.376	0.120
-734.010	620.356	0.099	-0.250
-732.996	800.000	-0.049	-0.144
-731.981	-38.343	0.143	-0.076
-730.966	33.059	-0.096	-0.084
-729.952	86.365	0.230	0.256
-728.937	-89.923	-0.157	-0.046
-727.923	134.548	0.108	-0.141
-726.908	-139.383	-0.199	0.021
-725.894	220.458	-0.196	-0.316
-724.879	549.212	-0.245	-0.592
-723.864	56.378	0.060	-0.059
-722.850	-80.155	-0.205	-0.069
-721.835	-98.411	0.172	0.044
-720.821	-200.000	0.011	-0.092
-719.806	-82.656	0.439	-0.143
-718.791	-164.824	-0.243	0.011
-717.777	420.635	0.143	-0.308
-716.762	14.629	-0.362	0.285
-715.748	-96.318	-0.237	-0.063
-714.733	-57.410	0.128	-0.057
-713.718	-99.163	-0.265	-0.068
-712.704	-200.000	-0.025	-0.110
-711.689	156.509	0.023	-0.032
-710.675	-71.028	-0.191	0.072
-709.660	56.987	-0.176	0.173
-708.645	281.447	-0.124	-0.223
-707.631	-102.706	0.091	0.022
-706.616	-200.000	0.045	0.310
-705.602	-80.486	0.149	0.050
-704.587	166.384	-0.140	-0.199
-703.572	800.000	0.097	-0.336
-702.558	-128.127	-0.276	0.040
-701.543	-200.000	0.017	0.141
-700.529	163.055	0.072	-0.102
-699.514	217.914	0.327	-0.524
-698.499	709.098	-0.061	0.163
-697.485	-200.000	0.043	0.334
-696.470	43.589	-0.137	-0.126
-695.456	800.000	0.045	-0.192
-694.441	-200.000	-0.037	-0.236
-693.426	6.317	0.221	-0.165
-692.412	-67.804	0.212	-0.083
-691.397	800.000	-0.049	-0.177
-690.383	8.156	0.023	0.018
-689.368	-200.000	0.002	0.046
-688.354	0.017	-0.170	-0.122
-687.339	-200.000	0.034	0.363
-686.324	20.350	0.201	-0.163
-685.310	65.453	0.175	-0.178
-684.295	-186.989	0.127	0.002
-683.281	303.044	0.067	-0.125
-682.266	-200.000	0.006	-0.271
-681.251	224.476	0.115	-0.186
-680.237	525.790	0.088	-0.207
-679.222	-24.290	-0.149	-0.089
-678.208	800.000	0.068	-0.265
-677.193	-82.352	-0.279	-0.091
-676.178	-10.470	0.281	-0.187
-675.164	190.811	0.063	-0.096
-674.149	-98.941	-0.125	-0.032
-673.135	800.000	0.026	0.107
-672.120	-69.062	-0.094	0.036
-671.105	-79.937	0.281	0.095
-670.091	192.028	-0.121	-0.184
-669.076	-200.000	-0.018	-0.134
-668.062	-200.000	-0.016	-0.196
-667.047	589.899	0.058	-0.143
-666.032	35.131	-0.192	0.169
-665.018	276.431	0.025	0.045
-664.003	800.000	-0.057	0.178
-662.989	-34.876	-0.185	0.101
-661.974	-200.000	-0.156	-0.000
-660.959	-116.173	0.066	-0.012
-659.945	-151.522	-0.243	0.018
-658.930	403.743	-0.037	0.078
-657.916	39.550	-0.131	-0.118
-656.901	4.467	0.086	0.063
-655.886	-200.000	0.018	0.180
-654.872	-200.000	-0.044	-0.238
-653.857	269.703	0.205	-0.361
-652.843	-115.370	0.076	-0.014
-651.828	494.614	-0.057	0.132
-650.814	-200.000	-0.078	-0.367
-649.799	-111.786	-0.134	0.027
-648.784	252.159	-0.277	-0.474
-647.770	-200.000	0.001	-0.279
-646.755	-108.693	-0.150	-0.032
-645.741	-140.802	0.105	-0.011
-644.726	-31.705	0.111	-0.063
-643.711	61.050	0.210	0.209
-642.697	-135.344	-0.119	-0.014
-641.682	-183.409	0.171	-0.003
-640.668	-65.556	-0.221	-0.089
-639.653	-200.000	-0.008	-0.194
-638.638	-49.923	-0.172	-0.082
-637.624	6.342	-0.194	-0.144
-636.609	-49.098	0.399	0.191
-635.595	197.206	0.069	0.105
-634.580	177.177	-0.071	-0.104
-633.565	-200.000	-0.048	0.585
-632.551	-28.978	-0.458	0.264
-631.536	168.363	0.121	0.172
-630.522	40.300	-0.072	-0.065
-629.507	-125.928	0.242	-0.036
-628.492	180.811	0.052	-0.076
-627.478	-68.699	0.476	-0.185
-626.463	55.593	-0.268	0.260
-625.449	-200.000	-0.019	-0.278
-624.434	-36.867	0.295	0.159
-623.419	172.284	0.165	0.237
-622.405	-109.519	0.330	-0.070
-621.390	-85.365	-0.095	0.030
-620.376	-200.000	-0.014	-0.258
-619.361	-71.973	0.147	0.055
-618.346	-200.000	0.021	-0.171
-617.332	4.464	-0.250	0.183
-616.317	-200.000	-0.037	0.295
-615.303	-5.205	-0.050	0.034
-614.288	11.680	-0.242	0.186
-613.273	597.654	0.036	0.089
-612.259	-118.223	0.074	-0.013
-611.244	8.556	0.102	-0.077
-610.230	51.517	-0.150	0.143
-609.215	34.924	0.280	-0.246
-608.201	-164.303	0.108	0.005
-607.186	272.582	-0.109	0.193
-606.171	-34.441	-0.164	0.090
-605.157	800.000	0.020	-0.060
-604.142	-158.977	-0.098	-0.006
-603.128	-16.869	-0.348	-0.220
-602.113	269.171	0.052	0.091
-601.098	-105.104	0.120	0.028
-600.084	-28.284	-0.272	-0.158
-599.069	-200.000	0.058	-0.406
-598.055	800.000	-0.043	-0.144
-597.040	-43.181	0.156	0.079
-596.025	523.672	0.108	-0.253
-595.011	-104.712	0.079	-0.018
-593.996	-75.203	-0.159	-0.057
-592.982	800.000	0.065	0.231
-591.967	-112.318	-0.133	-0.027
-590.952	352.201	0.094	-0.186
-589.938	-200.000	-0.103	0.000
-588.923	-200.000	-0.009	-0.075
-587.909	205.934	-0.070	0.109
-586.894	800.000	-0.152	0.514
-585.879	21.209	0.153	-0.124
-584.865	13.597	-0.135	-0.105
-583.850	190.277	-0.174	0.262
-582.836	800.000	0.058	0.213
-581.821	-24.432	-0.113	0.068
-580.806	-200.000	-0.027	-0.192
-579.792	-200.000	0.009	-0.168
-578.777	-200.000	-0.031	0.172
-577.763	-197.404	0.297	0.002
-576.748	-38.603	-0.192	0.102
-575.733	-73.306	-0.282	-0.103
-574.719	77.172	0.211	-0.225
-573.704	-116.615	0.193	-0.036
-572.690	13.541	0.264	-0.205
-571.675	-86.066	-0.149	-0.046
-570.661	225.240	-0.107	0.174
-569.646	114.120	-0.073	0.089
-568.631	-127.691	-0.122	-0.018
-567.617	166.614	0.210	-0.297
-566.602	134.056	-0.048	0.062
-565.588	160.947	0.108	0.151
-564.573	-52.407	0.087	0.040
-563.558	-200.000	-0.034	0.321
-562.544	402.553	0.101	0.212
-561.529	-200.000	-0.011	0.114
-560.515	-78.619	0.190	-0.065
-559.500	196.129	0.077	-0.118
-558.485	-200.000	0.004	-0.283
-557.471	266.268	0.140	0.245
-556.456	-200.000	0.035	0.247
-555.442	-200.000	0.003	0.044
-554.427	-63.744	-0.060	0.024
-553.412	610.994	0.041	0.102
-552.398	800.000	-0.092	0.378
-551.383	-200.000	-0.015	0.197
-550.369	-46.961	-0.189	0.093
-549.354	-187.911	-0.257	-0.003
-548.339	-51.623	-0.212	-0.099
-547.325	32.746	-0.102	0.088
-546.310	29.931	-0.261	-0.222
-545.296	-200.000	0.005	0.203
-544.281	232.826	0.127	0.208
-543.266	-17.804	-0.283	-0.178
-542.252	59.929	-0.304	-0.300
-541.237	127.119	0.028	-0.036
-540.223	-16.631	0.230	-0.145
-539.208	2.692	-0.068	0.050
-538.193	-138.732	-0.164	0.018
-537.179	-133.619	-0.238	0.030
-536.164	273.129	0.173	-0.305
-535.150	-85.094	0.171	-0.053
-534.135	-200.000	-0.006	-0.053
-533.121	89.391	0.086	0.096
-532.106	37.972	0.030	0.027
-531.091	-68.677	0.102	-0.040
-530.077	155.843	-0.040	-0.056
-529.062	-60.965	-0.174	0.073
-528.048	-200.000	-0.003	-0.326
-527.033	-145.886	0.177	0.016
-526.018	-38.187	0.139	0.073
-525.004	158.938	-0.185	-0.256
-523.989	-108.740	-0.304	0.065
-522.975	800.000	0.054	0.177
-521.960	800.000	-0.040	0.114
-520.945	-121.300	0.183	0.030
-519.931	800.000	0.043	0.179
-518.916	-200.000	-0.012	0.097
-517.902	800.000	-0.118	0.333
-516.887	-200.000	-0.074	-0.337
-515.872	-124.665	-0.292	0.045
-514.858	-12.368	-0.187	0.122
-513.843	-112.013	0.312	-0.063
-512.829	81.128	-0.102	-0.110
-511.814	367.107	-0.049	0.098
-510.799	-10.371	0.114	-0.076
-509.785	800.000	-0.206	0.601
-508.770	117.285	-0.193	-0.237
-507.756	-131.088	-0.154	-0.020
-506.741	-200.000	0.017	0.339
-505.726	800.000	-0.057	-0.195
-504.712	-160.332	-0.385	-0.021
-503.697	-14.373	0.177	0.114
-502.683	-200.000	-0.244	0.000
-501.668	800.000	0.021	-0.088
-500.653	179.631	-0.059	0.087
-499.639	-200.000	-0.043	-0.264
-498.624	-200.000	0.016	0.119
-497.610	121.647	0.182	-0.226
-496.595	-200.000	-0.043	0.216
-495.581	-200.000	-0.019	0.117
-494.566	702.865	0.140	0.367
-493.551	-200.000	-0.112	-0.000
-492.537	-130.455	0.302	-0.041
-491.522	-73.675	0.230	0.084
-490.508	-118.958	-0.079	0.014
-489.493	-147.949	-0.209	-0.017
-488.478	-99.782	0.264	0.066
-487.464	-71.460	-0.234	-0.087
-486.449	-34.489	-0.209	0.114
-485.435	758.981	-0.076	-0.205
-484.420	800.000	-0.057	-0.207
-483.405	-130.476	0.099	0.013
-482.391	119.749	0.196	0.242
-481.376	-25.036	0.183	-0.108
-480.362	259.260	0.154	0.264
-479.347	-175.882	-0.235	-0.006
-478.332	-200.000	-0.005	-0.046
-477.318	-134.905	0.247	0.030
-476.303	70.982	-0.094	-0.097
-475.289	181.448	0.127	0.186
-474.274	-71.793	0.197	-0.073
-473.259	-200.000	-0.057	-0.251
-472.245	177.364	-0.080	0.116
-471.230	800.000	0.044	0.138
-470.216	-200.000	0.031	-0.311
-469.201	22.709	-0.200	-0.163
-468.186	-33.428	-0.320	0.177
-467.172	-200.000	0.022	-0.114
-466.157	291.282	0.089	-0.162
-465.143	-24.886	0.388	-0.230
-464.128	-128.306	-0.311	0.044
-463.113	800.000	0.085	-0.245
-462.099	-82.001	-0.091	-0.030
-461.084	-200.000	-0.002	0.041
-460.070	156.751	0.180	0.248
-459.055	11.842	-0.334	0.255
-458.040	-200.000	0.008	0.316
-457.026	-114.134	0.048	0.009
-456.011	62.566	0.251	-0.250
-454.997	-118.914	-0.584	-0.102
-453.982	-25.640	0.390	0.229
-452.968	128.760	0.181	-0.230
-451.953	96.956	0.115	-0.132
-450.938	-200.000	-0.060	-0.315
-449.924	-50.924	0.236	-0.110
-448.909	-21.839	-0.332	0.201
-447.895	-200.000	0.003	-0.124
-446.880	30.911	0.183	0.156
-445.865	165.827	-0.175	-0.246
-444.851	-17.607	-0.257	-0.161
-443.836	244.609	-0.032	0.053
-442.822	-88.034	0.250	-0.075
-441.807	-27.327	-0.180	0.104
-440.792	-200.000	-0.038	0.310
-439.778	586.818	0.040	-0.099
-438.763	-48.472	0.095	0.046
-437.749	800.000	-0.052	-0.210
-436.734	-4.384	-0.186	-0.128
-435.719	542.020	-0.103	-0.244
-434.705	-4.656	-0.080	0.055
-433.690	-60.217	0.168	-0.071
-432.676	75.401	0.199	0.209
-431.661	800.000	-0.041	-0.142
-430.646	23.305	-0.121	-0.099
-429.632	173.858	-0.090	0.130
-428.617	127.575	-0.059	-0.075
-427.603	0.199	0.355	0.252
-426.588	-53.829	-0.179	0.081
-425.573	-62.450	0.053	0.022
-424.559	-200.000	0.089	0.523
-423.544	-18.075	0.113	0.071
-422.530	204.698	-0.184	-0.284
-421.515	-68.983	-0.142	-0.055
-420.500	-35.440	-0.235	0.127
-419.486	-182.446	-0.287	0.005
-418.471	-43.944	0.196	0.098
-417.457	800.000	-0.085	0.333
-416.442	800.000	-0.071	-0.231
-415.428	-94.290	-0.406	-0.110
-414.413	155.802	-0.116	-0.158
-413.398	99.353	0.099	-0.114
-412.384	-14.774	0.089	-0.057
-411.369	236.987	0.078	0.128
-410.355	-136.944	-0.117	0.013
-409.340	-100.733	-0.185	-0.045
-408.325	-200.000	-0.006	0.110
-407.311	800.000	-0.092	-0.257
-406.296	-140.841	0.022	-0.002
-405.282	-55.079	0.159	0.071
-404.267	54.867	0.098	0.094
-403.252	-3.766	0.088	0.061
-402.238	800.000	0.024	-0.077
-401.223	-200.000	-0.012	-0.345
-400.209	301.916	0.184	-0.339
-399.194	-21.582	-0.255	0.154
-398.179	-80.353	0.270	-0.090
-397.165	-29.263	0.361	0.205
-396.150	-61.571	0.108	-0.045
-395.136	-200.000	0.014	0.068
-394.121	-9.914	-0.092	-0.061
-393.106	166.392	0.122	-0.172
-392.092	351.706	0.165	-0.324
-391.077	-200.000	-0.002	-0.011
-390.063	162.525	0.085	-0.118
-389.048	-89.756	-0.114	-0.033
-388.033	800.000	0.086	-0.268
-387.019	-64.520	-0.266	-0.107
-386.004	-71.500	0.031	-0.011
-384.990	800.000	-0.060	0.196
-383.975	156.279	-0.065	0.089
-382.960	30.018	0.121	-0.102
-381.946	113.014	-0.141	0.170
-380.931	-200.000	0.031	0.193
-379.917	800.000	-0.046	-0.133
-378.902	-27.672	-0.143	-0.082
-377.888	69.928	0.211	-0.216
-376.873	-85.225	-0.200	-0.062
-375.858	60.973	0.024	-0.024
-374.844	718.455	-0.113	-0.298
-373.829	-16.825	-0.316	-0.198
-372.815	470.620	-0.024	0.053
-371.800	-8.275	0.121	0.081
-370.785	-33.570	0.275	-0.151
-369.771	800.000	0.093	0.317
-368.756	-58.005	0.065	-0.028
-367.742	41.341	0.031	-0.028
-366.727	453.072	-0.065	-0.143
-365.712	-98.690	-0.199	0.050
-364.698	-168.779	0.172	-0.006
-363.683	-139.420	-0.259	-0.028
-362.669	-153.836	0.230	-0.016
-361.654	-139.425	-0.365	0.039
-360.639	9.408	-0.317	0.238
-359.625	441.841	0.141	-0.307
-358.610	389.729	0.044	-0.091
-357.596	89.343	-0.079	0.087
-356.581	-26.781	0.312	0.181
-355.566	800.000	-0.078	-0.278
-354.552	161.485	0.100	-0.139
-353.537	-200.000	0.021	0.147
-352.523	88.280	-0.155	0.171
-351.508	800.000	-0.120	-0.348
-350.493	-146.264	-0.229	0.020
-349.479	-177.461	-0.042	0.001
-348.464	-172.572	-0.125	-0.004
-347.450	465.470	0.117	0.259
-346.435	-121.481	0.319	0.053
-345.420	141.840	0.127	0.166
-344.406	68.203	-0.074	-0.075
-343.391	-200.000	0.024	0.145
-342.377	-76.235	0.062	0.022
-341.362	57.897	-0.047	-0.046
-340.348	-0.337	0.174	0.123
-339.333	-163.436	0.075	0.004
-338.318	-80.835	0.195	0.064
-337.304	-43.972	0.014	-0.007
-336.289	518.593	-0.086	0.201
-335.275	-11.174	-0.175	-0.114
-334.260	323.968	0.110	-0.208
-333.245	-200.000	0.008	0.169
-332.231	16.060	-0.224	-0.175
-331.216	82.803	0.103	-0.111
-330.202	800.000	-0.082	-0.254
-329.187	71.103	-0.089	0.091
-328.172	462.728	0.081	-0.179
-327.158	-78.304	0.143	-0.049
-326.143	-130.083	0.141	-0.019
-325.129	-18.496	-0.016	-0.010
-324.114	-154.347	0.072	0.005
-323.099	-200.000	-0.007	0.062
-322.085	326.044	0.181	0.343
-321.070	381.374	0.156	0.317
-320.056	41.824	-0.095	0.085
-319.041	-39.164	-0.117	-0.061
-318.026	65.111	-0.101	-0.101
-317.012	-45.421	-0.157	0.077
-315.997	212.562	-0.136	-0.212
-314.983	-200.000	-0.001	-0.245
-313.968	262.747	-0.066	-0.113
-312.953	-200.000	-0.013	0.135
-311.939	-99.821	-0.282	0.070
-310.924	153.164	-0.172	-0.233
-309.910	-200.000	-0.004	0.062
-308.895	-200.000	0.014	-0.501
-307.880	800.000	0.125	-0.465
-306.866	-200.000	-0.003	0.165
-305.851	800.000	0.020	0.085
-304.837	140.628	0.090	-0.118
-303.822	144.376	0.068	-0.090
-302.807	216.192	-0.165	-0.259
-301.793	73.605	-0.283	0.294
-300.778	208.974	0.200	-0.310
-299.764	-114.231	-0.141	-0.027
-298.749	650.424	0.170	0.430
-297.735	147.091	0.361	-0.481
-296.720	-169.342	-0.134	0.005
-295.705	139.751	-0.101	0.132
-294.691	-12.689	0.261	-0.168
-293.676	800.000	0.095	-0.273
-292.662	11.714	-0.100	0.076
-291.647	-56.871	0.452	-0.197
-290.632	-163.084	-0.224	-0.011
-289.618	-200.000	0.004	0.170
-288.603	32.359	0.194	0.166
-287.589	800.000	-0.049	0.136
-286.574	33.150	-0.049	-0.042
-285.559	-110.717	-0.213	0.044
-284.545	773.241	0.024	-0.064
-283.530	800.000	-0.039	-0.114
-282.516	800.000	-0.086	0.299
-281.501	71.951	-0.090	-0.093
-280.486	-109.234	0.249	-0.052
-279.472	70.056	0.242	-0.247
-278.457	478.837	0.101	-0.227
-277.443	-37.995	-0.027	-0.014
-276.428	-200.000	-0.006	-0.083
-275.413	107.020	0.220	-0.258
-274.399	408.431	-0.137	-0.286
-273.384	-197.652	0.356	0.002
-272.370	188.899	0.244	-0.361
-271.355	-81.343	0.308	0.100
-270.340	-200.000	-0.043	0.193
-269.326	-200.000	-0.032	0.344
-268.311	-78.186	0.224	-0.076
-267.297	57.852	-0.233	0.226
-266.282	-46.716	-0.349	0.169
-265.267	-35.122	0.454	-0.245
-264.253	432.654	0.102	-0.218
-263.238	469.322	0.093	-0.206
-262.224	-121.448	0.099	-0.016
-261.209	124.870	0.172	0.214
-260.195	38.529	0.147	0.130
-259.180	192.081	-0.071	0.106
-258.165	211.929	0.180	0.280
-257.151	7.369	0.085	0.063
-256.136	447.235	0.096	0.208
-255.122	-200.000	-0.002	0.075
-254.107	522.161	0.009	-0.020
-253.092	-200.000	0.038	-0.234
-252.078	-22.204	-0.272	0.163
-251.063	-97.682	-0.107	0.028
-250.049	-81.046	0.014	0.005
-249.034	-27.566	0.248	0.143
-248.019	427.530	0.086	0.184
-247.005	57.733	0.118	-0.114
-245.990	41.573	0.078	-0.070
-244.976	335.904	-0.103	-0.197
-243.961	-49.539	-0.212	-0.100
-242.946	214.885	-0.131	0.205
-241.932	-200.000	-0.039	0.207
-240.917	457.267	0.174	-0.382
-239.903	20.127	-0.353	0.281
-238.888	-27.656	0.227	-0.130
-237.873	66.197	-0.135	0.135
-236.859	-57.837	0.469	0.203
-235.844	237.475	0.104	0.171
-234.830	-10.064	-0.231	-0.151
-233.815	-130.150	0.465	-0.063
-232.800	207.988	0.149	0.229
-231.786	800.000	0.011	0.046
-230.771	-198.662	-0.148	0.001
-229.757	-42.241	0.230	-0.116
-228.742	-46.041	0.190	-0.092
-227.727	-200.000	0.015	0.120
-226.713	-200.000	-0.008	0.138
-225.698	-114.134	-0.267	-0.051
-224.684	-200.000	0.031	0.362
-223.669	240.316	0.107	-0.177
-222.655	800.000	-0.073	-0.245
-221.640	201.965	-0.173	-0.263
-220.625	136.367	-0.092	-0.118
-219.611	-106.342	0.230	-0.051
-218.596	800.000	0.053	0.201
-217.582	31.625	0.234	0.199
-216.567	-169.348	0.071	-0.003
-215.552	800.000	-0.055	-0.162
-214.538	-51.727	-0.150	0.069
-213.523	800.000	0.094	-0.389
-212.509	716.059	-0.096	0.251
-211.494	-175.026	0.361	0.010
-210.479	-200.000	-0.003	0.082
-209.465	-200.000	0.000	0.087
-208.450	-136.718	0.046	0.005
-207.436	-184.471	0.156	0.003
-206.421	1.337	-0.151	0.107
-205.406	-13.408	-0.113	-0.072
-204.392	-89.108	-0.178	-0.052
-203.377	245.415	-0.069	0.115
-202.363	84.841	-0.073	0.079
-201.348	-185.115	-0.317	0.005
-200.333	45.574	0.079	0.072
-199.319	326.986	-0.148	0.280
-198.304	29.538	-0.066	-0.056
-197.290	177.649	-0.154	0.221
-196.275	12.000	0.111	0.084
-195.260	-121.569	0.227	0.037
-194.246	800.000	-0.048	-0.184
-193.231	64.489	0.106	0.105
-192.217	-37.999	-0.095	-0.050
-191.202	35.436	0.083	0.072
-190.187	339.550	0.072	0.138
-189.173	-1.298	0.252	0.175
-188.158	-132.377	0.282	-0.036
-187.144	-121.733	-0.221	0.036
-186.129	-22.567	0.186	-0.111
-185.114	-200.000	-0.006	-0.035
-184.100	-3.597	0.299	-0.205
-183.085	-200.000	0.055	0.254
-182.071	-124.923	-0.428	-0.065
-181.056	800.000	0.056	0.172
-180.042	-131.036	-0.066	-0.009
-179.027	53.144	0.159	-0.150
-178.012	74.572	0.337	0.349
-176.998	548.835	-0.092	0.216
-175.983	-200.000	0.002	0.101
-174.969	-104.293	-0.291	-0.067
-173.954	112.067	0.062	0.073
-172.939	800.000	-0.054	-0.150
-171.925	34.147	0.210	-0.180
-170.910	-162.540	0.158	0.008
-169.896	-108.981	-0.491	-0.103
-168.881	49.399	-0.025	0.024
-167.866	-69.840	0.231	-0.087
-166.852	14.489	0.085	0.065
-165.837	114.207	0.225	-0.270
-164.823	163.087	-0.173	0.240
-163.808	17.182	-0.303	-0.237
-162.793	90.393	-0.084	0.092
-161.779	800.000	-0.007	-0.030
-160.764	159.968	0.265	-0.364
-159.750	800.000	0.024	-0.077
-158.735	23.114	-0.369	0.298
-157.720	-163.893	-0.153	-0.007
-156.706	800.000	-0.008	0.023
-155.691	-200.000	-0.026	0.352
-154.677	170.832	0.100	0.141
-153.662	293.362	-0.149	0.268
-152.647	-30.224	-0.170	0.095
-151.633	233.555	0.145	0.235
-150.618	800.000	0.027	0.101
-149.604	-100.041	0.187	-0.046
-148.589	221.176	-0.127	0.200
-147.574	-168.434	0.446	0.017
-146.560	-89.073	0.452	0.132
-145.545	234.816	0.171	-0.277
-144.531	47.560	-0.118	-0.108
-143.516	-147.594	0.264	-0.022
-142.502	-174.122	-0.206	0.006
-141.487	-171.257	0.280	-0.009
-140.472	-200.000	-0.078	-0.439
-139.458	-181.147	0.231	0.005
-138.443	-97.152	0.299	0.077
-137.429	-200.000	-0.005	-0.227
-136.414	395.240	-0.176	0.360
-135.399	-109.304	0.290	0.060
-134.385	-112.104	0.438	0.087
-133.370	104.886	0.243	0.281
-132.356	9.640	-0.221	0.165
-131.341	223.170	0.039	-0.062
-130.326	473.817	0.027	-0.059
-129.312	379.598	0.100	-0.201
-128.297	82.971	-0.359	0.384
-127.283	-22.755	-0.317	-0.188
-126.268	-161.990	0.496	0.025
-125.253	-68.806	0.493	0.187
-124.239	-13.847	-0.132	0.084
-123.224	552.880	0.179	-0.422
-122.210	13.955	0.218	-0.167
-121.195	743.409	-0.033	-0.088
