DTS Sentinel unit serial number:	SN413079Multiplexer serial number:	ORYXHardware model number:	OX4-SRSoftware version number:	ORYX F/W v4.00 Oryx Data Collector v3.7.2.0data status	okinstallation	princeton_trtdifferential loss correction	single-endedforward channel	channel 2reverse channel	N/Adate	2019/09/11time	22:21:11forward acquisition time	60.00reverse acquisition time	0.00gamma	496.2192k internal	0.2325k external	0.2325temperature offset calibration	1.0075default loss term (dB/km)	0.3790temperature slope calibration	1.0000multiplexer offset coefficient	1.0000multiplexer slope coefficient	1.0000fibre end	0.00T internal ref (°C)	35.19T ext. ref 1 (°C)	1.79T ext. ref 2 (°C)	29.02length (m)	temperature (°C)	Stokes	anti-Stokes-747.200	-81.614	-0.169	0.056
-746.185	238.851	0.035	0.059
-745.171	768.157	-0.103	-0.284
-744.156	-24.297	-0.049	-0.030
-743.142	47.357	-0.082	0.077
-742.127	150.626	-0.197	0.270
-741.112	-200.000	-0.042	0.294
-740.098	281.341	0.131	0.236
-739.083	215.703	0.030	0.047
-738.069	-48.648	-0.192	-0.093
-737.054	-41.627	-0.074	0.038
-736.039	137.222	0.197	0.260
-735.025	-6.181	0.258	-0.178
-734.010	-55.221	-0.149	-0.067
-732.996	176.790	-0.142	-0.208
-731.981	-200.000	0.025	-0.210
-730.966	547.065	-0.095	-0.230
-729.952	-11.366	0.049	0.033
-728.937	-0.583	-0.098	0.070
-727.923	70.037	0.275	-0.286
-726.908	388.057	0.094	0.196
-725.894	121.602	-0.070	0.088
-724.879	152.642	0.132	-0.182
-723.864	-76.658	0.193	-0.068
-722.850	-64.145	0.096	-0.040
-721.835	345.992	0.004	-0.008
-720.821	483.489	0.090	-0.206
-719.806	-54.069	-0.139	0.064
-718.791	800.000	-0.052	0.159
-717.777	-26.369	0.046	0.027
-716.762	-200.000	-0.004	-0.054
-715.748	419.187	-0.044	0.095
-714.733	630.971	0.043	0.110
-713.718	179.098	-0.047	0.069
-712.704	38.742	0.368	0.331
-711.689	-120.386	-0.113	0.019
-710.675	800.000	-0.048	0.187
-709.660	86.682	0.133	-0.148
-708.645	-176.403	0.162	-0.004
-707.631	-62.088	-0.269	-0.113
-706.616	75.480	-0.344	-0.366
-705.602	-68.191	-0.121	0.047
-704.587	-13.505	-0.184	0.120
-703.572	5.029	-0.227	0.168
-702.558	-48.727	0.121	0.058
-701.543	4.893	-0.172	0.128
-700.529	-69.720	0.274	-0.106
-699.514	-28.809	-0.203	0.117
-698.499	800.000	-0.120	-0.341
-697.485	-200.000	0.012	-0.149
-696.470	-200.000	0.012	-0.085
-695.456	75.839	0.158	0.168
-694.441	-135.145	0.313	0.038
-693.426	516.969	-0.117	-0.274
-692.412	800.000	-0.082	0.331
-691.397	8.595	0.258	-0.196
-690.383	-84.566	-0.212	0.067
-689.368	-200.000	-0.064	-0.299
-688.354	311.086	0.137	-0.259
-687.339	-152.603	0.210	-0.015
-686.324	-119.615	0.285	-0.050
-685.310	687.589	-0.144	0.378
-684.295	-163.232	0.302	-0.015
-683.281	-88.909	-0.093	0.028
-682.266	-27.243	-0.197	-0.115
-681.251	-200.000	0.040	0.248
-680.237	781.438	-0.133	0.366
-679.222	475.792	0.043	0.097
-678.208	-0.812	0.239	0.170
-677.193	-21.249	-0.252	-0.155
-676.178	45.413	0.179	-0.166
-675.164	601.246	-0.073	-0.182
-674.149	-200.000	0.022	-0.174
-673.135	58.655	0.132	-0.130
-672.120	449.957	0.100	0.222
-671.105	-126.359	-0.058	0.009
-670.091	-200.000	-0.038	0.289
-669.076	-200.000	0.032	-0.172
-668.062	-61.084	0.214	0.091
-667.047	360.145	-0.054	-0.110
-666.032	-6.449	0.364	-0.250
-665.018	-173.429	0.457	-0.014
-664.003	-200.000	0.012	-0.178
-662.989	5.982	-0.086	-0.064
-661.974	14.412	-0.349	-0.274
-660.959	-200.000	-0.003	0.096
-659.945	-60.096	0.206	-0.088
-658.930	-121.325	-0.375	-0.063
-657.916	-200.000	-0.032	-0.159
-656.901	-2.940	0.252	-0.177
-655.886	-23.531	-0.281	0.170
-654.872	623.259	-0.091	0.231
-653.857	-200.000	0.003	0.033
-652.843	79.162	0.178	0.192
-651.828	-200.000	0.007	0.310
-650.814	-200.000	-0.037	0.279
-649.799	-42.320	0.286	0.147
-648.784	-200.000	0.054	-0.328
-647.770	88.162	-0.070	0.079
-646.755	327.236	-0.118	0.227
-645.741	-153.838	-0.182	0.013
-644.726	-127.402	-0.187	0.027
-643.711	-42.597	0.079	-0.040
-642.697	-150.331	0.272	0.021
-641.682	175.279	-0.141	-0.205
-640.668	-58.150	-0.183	-0.080
-639.653	800.000	-0.066	0.185
-638.638	-89.695	0.232	-0.068
-637.624	-81.010	-0.301	0.100
-636.609	367.717	-0.165	0.334
-635.595	-200.000	-0.022	-0.188
-634.580	-200.000	-0.021	-0.269
-633.565	-32.231	0.345	0.194
-632.551	-120.802	-0.148	-0.025
-631.536	-175.516	0.089	0.002
-630.522	212.084	0.043	-0.068
-629.507	800.000	0.100	0.344
-628.492	189.355	-0.024	0.036
-627.478	-76.652	-0.140	0.049
-626.463	434.933	-0.048	-0.104
-625.449	606.711	0.035	-0.087
-624.434	375.071	0.080	-0.165
-623.419	-200.000	-0.028	-0.192
-622.405	-66.710	0.164	-0.065
-621.390	331.842	-0.085	0.165
-620.376	216.958	-0.101	0.162
-619.361	180.499	-0.104	-0.154
-618.346	-122.738	-0.215	0.035
-617.332	111.479	0.019	-0.023
-616.317	-109.659	0.131	0.028
-615.303	-24.953	0.019	-0.011
-614.288	151.020	-0.159	0.217
-613.273	-50.175	-0.322	-0.153
-612.259	-96.523	0.183	-0.048
-611.244	32.182	-0.125	0.108
-610.230	800.000	-0.123	-0.429
-609.215	434.775	0.052	-0.113
-608.201	127.447	-0.057	-0.073
-607.186	169.886	-0.064	0.091
-606.171	800.000	-0.139	0.528
-605.157	513.027	0.083	0.195
-604.142	405.360	-0.148	-0.313
-603.128	-59.404	-0.172	-0.074
-602.113	247.359	-0.053	0.089
-601.098	-54.972	-0.161	0.073
-600.084	-200.000	-0.012	0.142
-599.069	-176.478	-0.277	-0.007
-598.055	-200.000	-0.001	0.302
-597.040	-90.876	-0.101	-0.029
-596.025	-156.381	-0.229	-0.014
-595.011	-200.000	-0.024	-0.299
-593.996	143.331	0.071	0.095
-592.982	-84.414	0.396	-0.126
-591.967	-66.870	0.097	0.039
-590.952	-200.000	-0.002	-0.028
-589.938	234.726	0.167	0.277
-588.923	265.199	-0.181	-0.316
-587.909	-200.000	-0.023	0.349
-586.894	452.460	-0.078	-0.173
-585.879	87.506	0.165	-0.183
-584.865	800.000	-0.067	-0.254
-583.850	91.826	-0.216	0.244
-582.836	-20.805	-0.411	-0.253
-581.821	-193.792	-0.214	0.002
-580.806	-200.000	0.033	-0.147
-579.792	800.000	0.130	-0.472
-578.777	-96.554	-0.045	-0.012
-577.763	415.941	0.054	0.115
-576.748	-200.000	-0.045	-0.257
-575.733	-173.165	-0.665	-0.020
-574.719	-2.308	-0.084	-0.059
-573.704	-62.333	0.145	-0.060
-572.690	-71.935	0.013	0.005
-571.675	69.529	0.175	0.180
-570.661	547.741	0.132	0.316
-569.646	800.000	-0.074	-0.229
-568.631	-38.604	0.135	0.071
-567.617	-200.000	-0.036	-0.176
-566.602	-200.000	-0.024	0.393
-565.588	-6.154	-0.228	0.156
-564.573	-78.921	-0.075	-0.026
-563.558	-188.688	-0.046	-0.001
-562.544	-200.000	0.018	0.118
-561.529	-53.364	-0.184	-0.084
-560.515	270.795	0.120	0.212
-559.500	170.089	0.154	0.221
-558.485	-51.253	-0.162	0.076
-557.471	106.963	0.207	-0.247
-556.456	-200.000	0.010	-0.062
-555.442	-9.775	0.163	0.109
-554.427	32.231	0.143	0.124
-553.412	-200.000	0.048	-0.236
-552.398	800.000	-0.037	0.139
-551.383	800.000	0.025	0.096
-550.369	283.161	0.091	-0.163
-549.354	-118.510	-0.354	0.063
-548.339	-200.000	-0.029	0.200
-547.325	800.000	-0.022	-0.075
-546.310	3.096	0.152	-0.111
-545.296	800.000	-0.095	0.305
-544.281	-77.016	-0.058	-0.020
-543.266	22.802	0.250	-0.206
-542.252	800.000	0.042	0.138
-541.237	226.973	-0.076	0.124
-540.223	-9.237	-0.103	-0.069
-539.208	273.693	0.204	0.361
-538.193	800.000	-0.066	0.244
-537.179	-174.300	-0.117	-0.003
-536.164	-111.787	-0.023	-0.005
-535.150	485.875	0.128	0.292
-534.135	-128.501	-0.149	0.021
-533.121	203.410	0.257	-0.398
-532.106	14.552	-0.189	-0.148
-531.091	14.749	0.320	0.251
-530.077	-78.495	-0.132	-0.045
-529.062	150.675	0.224	0.304
-528.048	214.843	0.111	0.176
-527.033	-150.112	-0.273	-0.021
-526.018	800.000	-0.064	0.240
-525.004	-41.371	-0.239	0.123
-523.989	-85.369	-0.279	0.087
-522.975	637.553	-0.053	-0.135
-521.960	-87.350	0.105	-0.032
-520.945	-59.534	0.204	-0.087
-519.931	169.939	0.042	-0.060
-518.916	-48.473	0.231	-0.111
-517.902	-43.156	0.216	0.109
-516.887	347.319	0.020	0.039
-515.872	601.031	0.057	0.143
-514.858	-9.402	-0.161	-0.108
-513.843	800.000	0.149	0.523
-512.829	-200.000	-0.034	-0.213
-511.814	25.392	0.051	-0.042
-510.799	378.739	0.158	0.324
-509.785	-103.920	-0.357	-0.083
-508.770	88.390	0.130	-0.144
-507.756	228.866	-0.092	-0.150
-506.741	163.710	-0.140	-0.197
-505.726	-107.645	0.348	0.076
-504.712	708.914	0.207	0.546
-503.697	37.703	0.096	0.085
-502.683	210.187	-0.054	-0.084
-501.668	371.799	-0.103	-0.208
-500.653	760.596	0.032	-0.087
-499.639	-111.819	-0.165	-0.033
-498.624	800.000	0.026	-0.092
-497.610	14.149	0.074	-0.057
-496.595	-56.560	-0.111	0.049
-495.581	19.026	0.222	-0.178
-494.566	800.000	-0.107	-0.438
-493.551	744.444	-0.037	-0.100
-492.537	-200.000	0.018	-0.169
-491.522	103.164	0.102	0.120
-490.508	-51.609	-0.187	-0.087
-489.493	800.000	-0.069	-0.272
-488.478	-64.441	0.147	-0.060
-487.464	-62.932	-0.105	-0.043
-486.449	-102.482	-0.231	0.055
-485.435	-110.822	-0.170	0.035
-484.420	283.520	-0.059	-0.105
-483.405	717.707	-0.065	-0.171
-482.391	89.395	0.191	0.212
-481.376	-7.479	-0.138	0.093
-480.362	-139.772	0.246	-0.026
-479.347	-200.000	0.046	-0.242
-478.332	-21.164	0.004	-0.003
-477.318	240.111	0.173	-0.288
-476.303	800.000	-0.077	0.292
-475.289	-63.795	0.118	-0.048
-474.274	-123.703	0.211	0.033
-473.259	800.000	-0.057	0.180
-472.245	-200.000	-0.016	-0.152
-471.230	-200.000	-0.004	-0.129
-470.216	-152.632	-0.410	-0.029
-469.201	-146.366	0.143	0.013
-468.186	-77.669	-0.153	0.053
-467.172	6.468	-0.061	-0.045
-466.157	-3.551	-0.135	-0.094
-465.143	-7.766	-0.087	-0.059
-464.128	738.672	-0.044	-0.118
-463.113	83.412	0.139	0.151
-462.099	-200.000	0.031	0.404
-461.084	47.209	0.174	0.161
-460.070	54.369	-0.270	0.259
-459.055	-200.000	0.025	-0.190
-458.040	-161.107	0.154	0.008
-457.026	-65.546	0.288	0.115
-456.011	78.657	0.086	0.092
-454.997	800.000	0.035	-0.143
-453.982	800.000	0.107	-0.300
-452.968	-200.000	0.040	-0.184
-451.953	24.836	-0.071	-0.059
-450.938	-200.000	0.007	0.155
-449.924	-88.479	-0.277	-0.083
-448.909	77.143	-0.303	-0.321
-447.895	-96.144	-0.114	0.030
-446.880	-88.798	-0.217	-0.064
-445.865	-200.000	0.048	0.254
-444.851	-98.703	0.112	-0.028
-443.836	800.000	0.032	0.132
-442.822	522.627	-0.136	0.318
-441.807	-113.670	-0.054	0.011
-440.792	188.213	0.065	-0.096
-439.778	160.313	-0.117	-0.162
-438.763	65.267	-0.228	0.230
-437.749	-69.319	-0.114	0.044
-436.734	-21.004	0.235	-0.143
-435.719	85.156	-0.306	0.334
-434.705	-33.802	0.157	-0.086
-433.690	-147.465	0.255	-0.021
-432.676	800.000	0.013	0.045
-431.661	-200.000	0.004	0.155
-430.646	-29.949	-0.203	0.115
-429.632	-200.000	0.019	-0.185
-428.617	70.842	0.217	-0.224
-427.603	14.537	-0.099	-0.077
-426.588	-14.621	0.158	-0.102
-425.573	-200.000	-0.046	0.203
-424.559	-9.787	-0.220	-0.146
-423.544	-29.093	0.162	-0.093
-422.530	-200.000	-0.021	0.221
-421.515	296.117	-0.159	0.291
-420.500	-200.000	-0.046	-0.315
-419.486	-82.728	-0.281	0.091
-418.471	-117.570	0.291	0.052
-417.457	-14.643	0.131	-0.084
-416.442	109.314	0.154	0.184
-415.428	70.542	-0.136	-0.140
-414.413	800.000	-0.137	-0.379
-413.398	-200.000	0.013	-0.240
-412.384	602.264	-0.072	0.178
-411.369	97.974	0.195	0.223
-410.355	-140.746	0.262	-0.027
-409.340	-49.831	0.360	0.170
-408.325	318.771	0.099	0.187
-407.311	-62.518	-0.128	0.053
-406.296	547.360	-0.108	-0.256
-405.282	-2.163	-0.057	-0.040
-404.267	8.893	0.114	0.085
-403.252	2.922	0.244	0.176
-402.238	-51.637	-0.164	0.076
-401.223	-200.000	0.039	0.189
-400.209	800.000	0.036	0.108
-399.194	-200.000	0.004	0.290
-398.179	57.216	0.181	0.176
-397.165	-200.000	0.013	0.214
-396.150	-28.591	0.143	0.082
-395.136	216.799	-0.155	-0.245
-394.121	-200.000	-0.017	-0.097
-393.106	-82.124	0.210	0.068
-392.092	800.000	0.032	0.106
-391.077	63.732	-0.051	-0.051
-390.063	-200.000	-0.046	-0.263
-389.048	-16.212	0.170	0.108
-388.033	-200.000	0.035	-0.231
-387.019	210.539	-0.167	-0.261
-386.004	787.237	0.116	0.316
-384.990	277.145	-0.132	-0.234
-383.975	-73.528	-0.103	-0.037
-382.960	800.000	0.062	-0.258
-381.946	260.048	-0.206	-0.354
-380.931	-111.514	-0.350	-0.071
-379.917	588.047	0.073	0.179
-378.902	53.197	0.064	-0.061
-377.888	153.710	0.156	0.212
-376.873	-43.080	0.264	0.133
-375.858	190.849	0.060	0.089
-374.844	272.785	0.193	0.339
-373.829	-45.755	-0.173	-0.085
-372.815	457.590	-0.143	-0.317
-371.800	141.314	-0.182	0.239
-370.785	-83.365	0.226	0.072
-369.771	410.491	-0.133	0.280
-368.756	-36.358	-0.195	-0.105
-367.742	-54.540	0.185	-0.083
-366.727	107.232	-0.072	-0.085
-365.712	-50.581	-0.125	0.058
-364.698	51.180	0.063	0.059
-363.683	107.474	-0.083	-0.099
-362.669	561.955	0.156	-0.375
-361.654	383.208	0.087	-0.178
-360.639	-200.000	-0.053	-0.260
-359.625	-89.094	-0.223	-0.066
-358.610	-200.000	-0.029	0.368
-357.596	158.858	0.167	0.230
-356.581	-16.417	-0.322	-0.203
-355.566	55.100	-0.109	0.105
-354.552	31.863	-0.137	-0.117
-353.537	800.000	-0.040	0.121
-352.523	448.205	-0.100	-0.218
-351.508	-139.403	-0.152	-0.016
-350.493	7.659	0.044	-0.032
-349.479	164.223	0.106	-0.149
-348.464	-16.802	-0.137	-0.086
-347.450	-119.949	0.317	0.054
-346.435	47.888	0.166	-0.154
-345.420	-70.387	-0.264	-0.100
-344.406	279.491	0.101	-0.178
-343.391	592.017	-0.126	-0.310
-342.377	-89.841	0.218	-0.063
-341.362	-48.940	0.394	0.187
-340.348	800.000	0.100	0.390
-339.333	88.848	-0.220	0.243
-338.318	-145.973	0.079	-0.007
-337.304	-60.533	0.122	0.051
-336.289	172.301	-0.142	-0.203
-335.275	-85.819	0.066	0.020
-334.260	-124.726	0.305	0.047
-333.245	8.334	-0.200	0.149
-332.231	800.000	-0.043	0.131
-331.216	-200.000	-0.020	0.171
-330.202	288.665	-0.098	0.177
-329.187	800.000	-0.090	0.351
-328.172	167.545	-0.234	0.330
-327.158	266.697	-0.173	0.300
-326.143	644.440	0.163	0.412
-325.129	48.949	-0.092	0.086
-324.114	-200.000	0.010	-0.074
-323.099	116.768	-0.158	0.193
-322.085	-193.901	-0.086	-0.001
-321.070	-196.064	0.181	0.001
-320.056	-71.669	-0.332	-0.123
-319.041	33.658	-0.146	-0.126
-318.026	234.364	-0.064	0.104
-317.012	2.524	-0.236	-0.170
-315.997	319.302	-0.058	-0.109
-314.983	-51.334	-0.200	-0.093
-313.968	-6.995	0.016	0.011
-312.953	-200.000	0.015	-0.072
-311.939	302.908	0.121	-0.222
-310.924	-143.423	-0.492	0.047
-309.910	705.788	-0.074	-0.193
-308.895	13.377	0.186	0.143
-307.880	519.130	0.106	0.246
-306.866	-62.563	-0.180	-0.074
-305.851	611.708	0.133	-0.330
-304.837	-24.818	-0.153	-0.090
-303.822	-111.518	0.166	-0.033
-302.807	-174.855	0.199	-0.006
-301.793	273.171	-0.027	0.048
-300.778	-200.000	-0.044	-0.200
-299.764	55.876	0.234	-0.225
-298.749	-200.000	-0.029	-0.238
-297.735	160.061	-0.208	0.288
-296.720	-200.000	0.035	-0.256
-295.705	15.027	-0.121	-0.094
-294.691	-83.120	0.298	-0.095
-293.676	800.000	0.035	0.119
-292.662	143.636	0.184	-0.243
-291.647	188.878	0.094	0.140
-290.632	-94.954	-0.236	0.063
-289.618	-200.000	0.002	-0.095
-288.603	40.837	0.018	0.016
-287.589	-200.000	0.075	-0.355
-286.574	131.822	-0.179	-0.228
-285.559	-200.000	0.033	-0.282
-284.545	59.767	-0.096	-0.094
-283.530	136.617	-0.216	-0.280
-282.516	13.999	0.159	0.123
-281.501	19.440	0.022	-0.018
-280.486	10.101	0.077	0.058
-279.472	-0.528	0.112	-0.079
-278.457	-51.822	-0.214	-0.099
-277.443	134.244	-0.054	0.070
-276.428	150.679	0.089	0.120
-275.413	-200.000	-0.044	-0.324
-274.399	-160.378	0.210	0.011
-273.384	-24.075	0.291	0.172
-272.370	-94.972	0.125	0.033
-271.355	29.198	-0.240	0.202
-270.340	39.869	-0.192	-0.171
-269.326	328.846	-0.040	-0.076
-268.311	-93.542	-0.039	0.011
-267.297	52.470	0.303	-0.287
-266.282	50.877	0.284	0.267
-265.267	-35.204	0.110	0.059
-264.253	86.150	0.107	-0.116
-263.238	-101.243	-0.333	-0.080
-262.224	15.599	0.057	0.045
-261.209	-39.005	0.267	-0.139
-260.195	595.568	0.035	-0.085
-259.180	23.461	0.218	-0.177
-258.165	-200.000	0.011	-0.055
-257.151	1.626	0.253	-0.181
-256.136	-95.861	-0.316	0.084
-255.122	-77.557	0.112	-0.038
-254.107	-107.514	0.065	-0.014
-253.092	-30.831	0.377	0.211
-252.078	-94.614	0.366	0.099
-251.063	800.000	0.024	-0.086
-250.049	498.455	-0.133	0.303
-249.034	-200.000	0.006	0.054
-248.019	759.935	-0.054	0.146
-247.005	800.000	-0.067	0.192
-245.990	-6.401	0.213	0.144
-244.976	325.816	0.088	0.167
-243.961	-178.491	0.178	0.004
-242.946	112.958	-0.103	0.123
-241.932	-69.987	0.278	-0.105
-240.917	34.381	-0.146	-0.126
-239.903	235.062	0.032	-0.052
-238.888	484.685	-0.090	0.202
-237.873	800.000	0.082	0.348
-236.859	-200.000	0.138	0.001
-235.844	7.063	-0.172	0.127
-234.830	-200.000	-0.033	-0.338
-233.815	-88.956	0.123	0.036
-232.800	-117.035	0.212	-0.038
-231.786	160.072	-0.013	-0.018
-230.771	-169.777	0.174	-0.006
-229.757	30.973	0.137	-0.116
-228.742	76.637	0.320	-0.336
-227.727	-10.289	0.185	-0.121
-226.713	131.411	-0.192	0.244
-225.698	-40.388	0.189	0.097
-224.684	392.459	-0.033	0.068
-223.669	40.969	0.221	-0.197
-222.655	276.688	-0.156	-0.274
-221.640	29.140	-0.153	0.128
-220.625	-55.874	-0.294	0.130
-219.611	-118.228	0.220	-0.039
-218.596	800.000	0.037	0.150
-217.582	75.474	-0.153	-0.160
-216.567	-179.439	0.115	-0.002
-215.552	-104.740	0.386	-0.088
-214.538	377.413	-0.188	0.381
-213.523	-200.000	-0.006	-0.430
-212.509	-185.914	-0.392	-0.006
-211.494	199.359	-0.074	-0.112
-210.479	59.837	0.233	0.227
-209.465	-81.462	0.178	-0.058
-208.450	-200.000	-0.068	0.357
-207.436	708.787	-0.093	0.243
-206.421	72.430	0.089	0.092
-205.406	-200.000	-0.010	-0.121
-204.392	-38.562	-0.220	-0.115
-203.377	-200.000	0.000	0.144
-202.363	-80.125	0.233	0.077
-201.348	-16.180	0.274	-0.172
-200.333	800.000	-0.034	0.127
-199.319	-200.000	-0.032	-0.289
-198.304	309.988	-0.062	0.115
-197.290	18.302	0.392	0.309
-196.275	87.868	0.144	0.158
-195.260	71.774	0.144	0.148
-194.246	-200.000	0.027	-0.318
-193.231	800.000	0.076	-0.283
-192.217	-110.791	0.226	0.046
-191.202	55.256	-0.320	0.306
-190.187	284.893	0.177	0.315
-189.173	-200.000	-0.017	0.199
-188.158	-111.573	0.180	0.036
-187.144	-49.364	0.217	0.102
-186.129	224.983	0.108	-0.172
-185.114	-79.138	0.315	0.106
-184.100	99.927	-0.080	-0.092
-183.085	-200.000	-0.025	0.309
-182.071	40.489	0.078	-0.069
-181.056	-90.074	-0.316	-0.091
-180.042	396.308	-0.027	-0.055
-179.027	-200.000	0.004	-0.044
-178.012	239.101	-0.071	-0.117
-176.998	127.049	-0.178	0.223
-175.983	138.598	-0.266	-0.344
-174.969	117.086	0.106	0.129
-173.954	150.999	-0.062	0.083
-172.939	215.825	0.047	-0.074
-171.925	800.000	0.024	-0.092
-170.910	-200.000	-0.010	0.263
-169.896	85.040	-0.105	-0.113
-168.881	113.409	0.063	-0.076
-167.866	203.388	0.054	0.082
-166.852	51.665	0.146	0.137
-165.837	26.203	-0.141	-0.116
-164.823	103.468	-0.145	-0.168
-163.808	800.000	0.082	-0.269
-162.793	-124.440	-0.410	-0.063
-161.779	-36.325	-0.142	-0.075
-160.764	-6.411	0.080	0.054
-159.750	-85.269	0.299	0.092
-158.735	800.000	-0.010	-0.035
-157.720	-100.991	0.109	0.026
-156.706	800.000	-0.043	-0.156
-155.691	-89.996	-0.240	-0.069
-154.677	-200.000	0.086	-0.378
-153.662	-9.572	0.151	0.099
-152.647	155.360	-0.263	-0.357
-151.633	-200.000	0.003	0.083
-150.618	-95.594	0.217	-0.057
-149.604	-147.293	-0.284	0.024
-148.589	645.505	0.142	0.358
-147.574	800.000	0.010	0.045
-146.560	-200.000	0.019	-0.101
-145.545	89.736	0.106	-0.116
-144.531	-134.923	-0.175	-0.021
-143.516	414.873	-0.120	-0.253
-142.502	50.590	-0.132	0.123
-141.487	177.635	0.237	0.341
-140.472	135.305	0.223	0.286
-139.458	-200.000	-0.006	-0.066
-138.443	-22.819	0.115	0.069
-137.429	54.333	-0.258	0.244
-136.414	-200.000	0.034	0.217
-135.399	33.280	0.045	0.038
-134.385	-200.000	0.002	-0.246
-133.370	-200.000	0.001	-0.180
-132.356	5.853	-0.108	-0.079
-131.341	395.985	-0.118	-0.243
-130.326	272.391	0.089	-0.155
-129.312	-53.345	-0.109	0.049
-128.297	-6.348	-0.030	0.020
-127.283	13.589	0.323	0.247
-126.268	-105.303	0.108	-0.024
-125.253	84.019	0.179	-0.193
-124.239	-51.138	0.047	0.022
-123.224	267.041	0.130	0.225
-122.210	-88.064	0.293	-0.087
-121.195	-30.119	0.436	0.244
-120.180	443.856	-0.076	-0.165
