DTS Sentinel unit serial number:	SN413079Multiplexer serial number:	ORYXHardware model number:	OX4-SRSoftware version number:	ORYX F/W v4.00 Oryx Data Collector v3.7.2.0data status	okinstallation	princeton_trtdifferential loss correction	single-endedforward channel	channel 2reverse channel	N/Adate	2019/09/11time	07:49:11forward acquisition time	60.00reverse acquisition time	0.00gamma	496.2192k internal	0.2325k external	0.2325temperature offset calibration	0.9946default loss term (dB/km)	0.3790temperature slope calibration	1.0000multiplexer offset coefficient	1.0000multiplexer slope coefficient	1.0000fibre end	0.00T internal ref (°C)	31.73T ext. ref 1 (°C)	0.12T ext. ref 2 (°C)	28.37length (m)	temperature (°C)	Stokes	anti-Stokes-747.200	1.876	-0.441	-0.321
-746.185	-130.128	-0.247	-0.034
-745.171	-172.629	0.133	0.004
-744.156	-55.812	-0.261	0.118
-743.142	-200.000	-0.018	0.434
-742.127	41.275	-0.225	0.205
-741.112	-103.231	0.303	0.072
-740.098	288.679	-0.024	-0.044
-739.083	492.034	0.079	0.183
-738.069	-92.784	-0.248	0.070
-737.054	170.336	0.055	0.080
-736.039	-49.046	-0.333	0.161
-735.025	-200.000	-0.008	0.215
-734.010	6.825	-0.183	-0.137
-732.996	44.284	0.104	-0.096
-731.981	78.676	-0.056	-0.061
-730.966	-200.000	0.051	-0.251
-729.952	-12.491	-0.389	-0.256
-728.937	245.628	0.210	-0.356
-727.923	-5.572	-0.182	-0.126
-726.908	172.285	0.233	-0.338
-725.894	-200.000	-0.003	-0.116
-724.879	-33.405	0.038	0.021
-723.864	28.321	0.287	-0.244
-722.850	-132.497	0.169	0.022
-721.835	-23.033	-0.167	0.102
-720.821	-56.953	-0.099	0.044
-719.806	428.900	-0.087	-0.190
-718.791	130.009	-0.165	-0.213
-717.777	-65.028	-0.096	0.039
-716.762	-23.077	-0.109	0.066
-715.748	50.491	-0.231	0.220
-714.733	-16.850	-0.317	0.202
-713.718	611.001	-0.083	-0.208
-712.704	140.079	0.097	0.129
-711.689	461.358	0.075	0.168
-710.675	-172.287	-0.191	0.006
-709.660	-200.000	-0.010	-0.072
-708.645	702.403	-0.083	0.221
-707.631	1.507	-0.100	0.072
-706.616	-76.958	0.442	-0.155
-705.602	-64.945	-0.185	-0.075
-704.587	33.611	-0.149	-0.130
-703.572	-111.706	0.371	0.076
-702.558	29.049	-0.158	-0.135
-701.543	-90.346	-0.031	0.009
-700.529	800.000	0.076	0.274
-699.514	800.000	0.023	0.079
-698.499	-168.995	0.112	-0.004
-697.485	46.905	0.093	-0.087
-696.470	-57.075	-0.131	-0.058
-695.456	-89.129	-0.370	0.110
-694.441	-200.000	-0.002	0.092
-693.426	225.332	-0.114	0.186
-692.412	395.914	-0.126	0.264
-691.397	164.431	0.125	0.177
-690.383	800.000	0.078	-0.332
-689.368	69.392	0.244	0.253
-688.354	618.739	-0.151	-0.382
-687.339	53.333	0.108	0.104
-686.324	143.189	-0.259	-0.347
-685.310	375.475	0.105	0.216
-684.295	423.091	0.060	-0.130
-683.281	29.364	-0.175	0.150
-682.266	-200.000	0.011	0.245
-681.251	537.401	0.112	-0.269
-680.237	173.873	0.163	-0.237
-679.222	-1.407	0.175	-0.124
-678.208	344.004	0.155	-0.305
-677.193	-200.000	0.066	-0.296
-676.178	261.846	0.121	-0.211
-675.164	70.661	-0.216	0.225
-674.149	-105.686	-0.289	-0.066
-673.135	-52.417	0.032	0.015
-672.120	-100.125	-0.120	-0.030
-671.105	148.028	-0.135	-0.183
-670.091	59.057	-0.185	-0.183
-669.076	-16.923	-0.189	-0.120
-668.062	-28.584	-0.050	-0.029
-667.047	-200.000	0.047	-0.289
-666.032	-174.687	0.163	-0.005
-665.018	800.000	0.018	-0.058
-664.003	-88.055	-0.354	-0.107
-662.989	42.927	0.121	0.111
-661.974	-119.958	0.273	0.047
-660.959	-13.110	0.287	0.187
-659.945	-200.000	-0.024	0.238
-658.930	-164.869	-0.531	-0.024
-657.916	30.281	-0.256	-0.220
-656.901	-89.278	0.187	0.055
-655.886	92.075	0.037	-0.042
-654.872	42.829	0.044	-0.040
-653.857	-110.596	-0.088	-0.018
-652.843	-200.000	-0.023	0.169
-651.828	47.550	0.209	-0.196
-650.814	51.693	-0.177	-0.169
-649.799	103.604	-0.087	-0.102
-648.784	-60.838	-0.090	-0.038
-647.770	125.041	0.093	0.118
-646.755	-200.000	0.012	0.108
-645.741	-200.000	-0.027	-0.190
-644.726	-200.000	-0.014	0.132
-643.711	800.000	-0.087	-0.250
-642.697	517.784	-0.046	0.108
-641.682	2.205	-0.086	-0.063
-640.668	-150.193	-0.069	-0.005
-639.653	-70.644	0.138	-0.052
-638.638	265.212	0.123	0.216
-637.624	-200.000	0.008	-0.210
-636.609	252.712	0.050	-0.085
-635.595	-200.000	0.006	0.430
-634.580	100.500	-0.259	0.302
-633.565	329.458	0.072	-0.139
-632.551	57.741	-0.104	-0.102
-631.536	-147.928	0.109	0.009
-630.522	51.651	0.111	0.106
-629.507	132.216	0.072	-0.093
-628.492	36.292	0.294	0.261
-627.478	-79.639	-0.380	0.129
-626.463	-200.000	0.024	-0.170
-625.449	-69.299	-0.227	-0.088
-624.434	39.891	-0.263	0.237
-623.419	-46.652	-0.365	-0.180
-622.405	-36.844	-0.089	0.048
-621.390	81.329	0.026	0.028
-620.376	-177.806	0.236	-0.006
-619.361	697.573	0.063	0.166
-618.346	-176.185	-0.234	0.006
-617.332	-25.287	0.122	0.073
-616.317	109.435	-0.161	-0.194
-615.303	-200.000	0.001	-0.159
-614.288	332.288	-0.253	-0.491
-613.273	250.441	-0.192	-0.327
-612.259	800.000	-0.126	0.403
-611.244	-200.000	-0.014	0.192
-610.230	8.118	-0.180	-0.136
-609.215	140.446	-0.097	-0.128
-608.201	-200.000	0.014	0.130
-607.186	15.799	-0.468	0.369
-606.171	35.015	0.318	-0.279
-605.157	106.265	-0.093	0.110
-604.142	-45.151	0.328	-0.163
-603.128	-79.925	-0.097	0.033
-602.113	655.774	-0.150	-0.386
-601.098	289.702	-0.038	0.069
-600.084	-81.732	-0.348	-0.115
-599.069	311.903	0.179	-0.336
-598.055	-119.415	0.170	-0.030
-597.040	-59.189	0.165	0.071
-596.025	-59.897	0.115	-0.049
-595.011	-96.423	-0.346	-0.092
-593.996	-200.000	0.010	-0.122
-592.982	166.944	-0.215	-0.306
-591.967	8.691	-0.076	-0.057
-590.952	-90.152	0.279	0.082
-589.938	-95.477	-0.296	0.080
-588.923	-114.019	0.207	-0.040
-587.909	-44.007	0.152	0.076
-586.894	-121.240	0.324	0.054
-585.879	119.951	-0.189	0.235
-584.865	800.000	0.029	0.096
-583.850	234.673	-0.234	0.388
-582.836	800.000	0.070	-0.289
-581.821	97.618	-0.320	-0.368
-580.806	115.207	-0.053	0.065
-579.792	800.000	0.023	-0.076
-578.777	-94.299	0.129	0.035
-577.763	800.000	-0.019	0.063
-576.748	108.453	0.012	0.014
-575.733	113.685	0.188	0.229
-574.719	-49.878	0.076	-0.036
-573.704	60.825	-0.147	0.146
-572.690	11.506	0.026	-0.020
-571.675	-156.849	-0.257	0.016
-570.661	-80.685	0.368	-0.123
-569.646	237.218	-0.137	0.227
-568.631	-91.492	-0.181	0.052
-567.617	-6.108	0.291	-0.199
-566.602	-127.292	0.217	0.032
-565.588	-145.997	0.240	0.021
-564.573	800.000	0.102	0.329
-563.558	67.858	0.092	-0.095
-562.544	800.000	-0.120	0.334
-561.529	740.192	-0.079	0.213
-560.515	150.018	-0.218	-0.296
-559.500	430.456	-0.168	-0.364
-558.485	-74.294	0.171	-0.062
-557.471	-53.328	0.083	-0.038
-556.456	-84.110	-0.114	0.036
-555.442	-200.000	-0.066	-0.318
-554.427	605.895	0.055	-0.138
-553.412	-186.081	-0.337	-0.005
-552.398	252.581	0.064	-0.110
-551.383	800.000	0.041	0.132
-550.369	492.174	-0.156	0.359
-549.354	-70.353	0.207	0.079
-548.339	-67.584	0.243	0.095
-547.325	-165.787	-0.221	-0.010
-546.310	-93.154	0.119	0.033
-545.296	-135.746	0.208	-0.025
-544.281	-200.000	-0.083	-0.415
-543.266	-83.853	0.261	0.083
-542.252	29.733	-0.140	0.120
-541.237	281.996	-0.137	0.247
-540.223	165.812	-0.025	0.036
-539.208	800.000	-0.036	-0.127
-538.193	800.000	-0.037	0.118
-537.179	-101.241	0.066	-0.016
-536.164	-131.823	0.124	0.016
-535.150	-76.071	0.263	0.093
-534.135	800.000	0.051	0.176
-533.121	120.288	0.149	0.184
-532.106	-78.677	0.270	0.092
-531.091	68.432	-0.040	0.041
-530.077	800.000	0.037	-0.114
-529.062	-200.000	-0.013	0.148
-528.048	155.634	-0.150	0.207
-527.033	-90.861	-0.488	-0.141
-526.018	-7.333	0.059	0.040
-525.004	7.164	-0.149	-0.111
-523.989	-38.641	0.230	-0.121
-522.975	82.653	0.230	0.250
-521.960	-156.794	-0.136	-0.008
-520.945	-15.828	0.355	-0.226
-519.931	53.708	0.128	-0.122
-518.916	333.018	-0.106	-0.204
-517.902	111.822	0.149	-0.180
-516.887	-53.726	0.193	0.088
-515.872	-136.213	-0.036	-0.004
-514.858	-8.577	0.198	0.133
-513.843	210.997	-0.233	0.367
-512.829	614.469	0.046	0.116
-511.814	-27.208	0.298	-0.173
-510.799	800.000	-0.085	0.246
-509.785	-200.000	0.012	0.287
-508.770	104.914	-0.113	0.133
-507.756	657.139	-0.110	0.283
-506.741	90.925	-0.065	0.073
-505.726	-72.553	-0.198	-0.073
-504.712	-200.000	-0.048	-0.297
-503.697	-46.703	-0.050	0.025
-502.683	800.000	-0.026	-0.093
-501.668	-14.726	0.205	0.131
-500.653	-160.044	-0.244	-0.013
-499.639	-126.423	-0.188	0.028
-498.624	-121.100	0.307	-0.051
-497.610	173.068	0.065	0.094
-496.595	-109.229	-0.321	-0.068
-495.581	486.293	0.095	0.217
-494.566	722.725	0.084	-0.224
-493.551	-87.701	0.290	-0.087
-492.537	-52.406	-0.114	-0.053
-491.522	158.735	0.122	0.170
-490.508	407.935	0.053	-0.111
-489.493	-65.083	0.325	-0.131
-488.478	-39.927	-0.073	-0.038
-487.464	-108.274	-0.009	-0.002
-486.449	42.650	-0.103	0.094
-485.435	-200.000	-0.011	-0.327
-484.420	-142.495	-0.185	-0.018
-483.405	800.000	-0.051	-0.146
-482.391	45.468	0.136	-0.126
-481.376	371.922	-0.092	0.187
-480.362	-104.294	-0.162	0.037
-479.347	-200.000	-0.027	-0.257
-478.332	109.601	-0.258	0.309
-477.318	800.000	-0.035	-0.122
-476.303	-70.610	0.181	-0.068
-475.289	259.332	-0.126	0.217
-474.274	-138.657	-0.307	-0.034
-473.259	-110.252	-0.060	-0.012
-472.245	56.164	-0.145	0.141
-471.230	-141.091	-0.672	0.069
-470.216	800.000	0.027	-0.104
-469.201	-19.894	0.226	-0.140
-468.186	128.295	-0.206	0.262
-467.172	-83.414	0.228	0.073
-466.157	109.037	0.114	0.137
-465.143	-124.145	-0.244	-0.038
-464.128	21.213	0.180	-0.146
-463.113	237.898	-0.049	0.081
-462.099	98.827	-0.079	-0.091
-461.084	-92.560	-0.048	0.013
-460.070	-108.918	0.248	0.053
-459.055	177.330	-0.131	-0.190
-458.040	800.000	-0.069	-0.221
-457.026	-62.929	-0.039	-0.016
-456.011	-172.596	0.206	0.006
-454.997	-200.000	-0.018	-0.227
-453.982	55.777	-0.158	-0.153
-452.968	800.000	0.035	-0.107
-451.953	-165.118	0.102	-0.005
-450.938	781.766	0.071	-0.195
-449.924	-114.585	0.269	0.051
-448.909	43.146	0.179	0.163
-447.895	-200.000	-0.021	-0.113
-446.880	-66.919	-0.164	-0.065
-445.865	800.000	-0.075	-0.273
-444.851	140.450	0.220	0.290
-443.836	800.000	0.023	-0.088
-442.822	-200.000	0.034	-0.188
-441.807	-133.217	-0.294	-0.037
-440.792	11.383	-0.046	-0.035
-439.778	-200.000	0.049	0.296
-438.763	84.167	0.114	0.125
-437.749	165.621	-0.089	0.125
-436.734	-160.087	-0.423	-0.023
-435.719	800.000	0.029	-0.109
-434.705	-115.472	0.182	-0.034
-433.690	20.649	0.254	0.205
-432.676	183.901	-0.099	0.145
-431.661	91.776	0.061	-0.069
-430.646	-200.000	-0.019	-0.261
-429.632	20.621	0.172	-0.138
-428.617	36.546	0.093	-0.082
-427.603	-200.000	-0.039	-0.242
-426.588	800.000	0.045	-0.189
-425.573	-68.975	-0.191	0.073
-424.559	545.056	-0.095	0.226
-423.544	-103.627	0.184	-0.043
-422.530	128.135	-0.240	0.304
-421.515	800.000	-0.033	-0.122
-420.500	800.000	0.065	0.209
-419.486	6.067	0.144	-0.107
-418.471	25.311	0.124	0.103
-417.457	-23.466	-0.116	-0.070
-416.442	148.327	0.052	0.070
-415.428	-200.000	0.049	-0.251
-414.413	71.095	0.145	-0.150
-413.398	-50.439	0.070	0.033
-412.384	77.220	-0.046	0.049
-411.369	-200.000	-0.033	0.234
-410.355	-164.842	-0.078	0.003
-409.340	55.130	-0.367	-0.354
-408.325	101.748	-0.139	-0.161
-407.311	800.000	-0.035	-0.096
-406.296	457.870	0.117	0.258
-405.282	-200.000	0.004	0.129
-404.267	-63.617	0.087	-0.035
-403.252	122.445	-0.067	0.083
-402.238	800.000	-0.071	-0.283
-401.223	-143.124	-0.110	-0.011
-400.209	-65.052	-0.150	0.060
-399.194	-200.000	0.021	0.138
-398.179	140.436	-0.105	0.138
-397.165	-11.669	-0.102	0.067
-396.150	-10.723	-0.175	0.115
-395.136	-97.569	0.135	-0.035
-394.121	103.888	0.013	0.015
-393.106	269.228	0.068	0.118
-392.092	170.878	0.112	0.160
-391.077	-60.366	-0.091	-0.038
-390.063	800.000	0.091	-0.388
-389.048	-40.134	-0.261	0.135
-388.033	9.068	0.163	-0.122
-387.019	-200.000	-0.040	0.185
-386.004	152.983	-0.089	0.121
-384.990	189.877	0.116	0.173
-383.975	98.123	-0.086	-0.098
-382.960	15.504	0.125	0.097
-381.946	-98.011	0.047	-0.012
-380.931	-7.002	-0.149	0.100
-379.917	253.695	-0.152	-0.258
-378.902	800.000	-0.032	0.119
-377.888	800.000	0.038	0.139
-376.873	-200.000	0.019	-0.110
-375.858	-200.000	-0.005	-0.163
-374.844	-59.938	0.181	-0.077
-373.829	567.755	0.177	-0.427
-372.815	97.101	0.067	-0.076
-371.800	-6.351	-0.246	-0.167
-370.785	-64.774	-0.411	-0.165
-369.771	-27.928	0.078	-0.045
-368.756	237.067	0.072	0.118
-367.742	800.000	0.035	0.112
-366.727	194.685	-0.088	-0.133
-365.712	-200.000	0.005	0.027
-364.698	86.075	-0.149	0.163
-363.683	800.000	-0.078	0.235
-362.669	-200.000	-0.061	-0.281
-361.654	36.774	-0.122	0.107
-360.639	-29.757	-0.065	0.037
-359.625	269.037	-0.075	0.131
-358.610	341.500	-0.087	0.169
-357.596	83.382	0.104	0.113
-356.581	-27.605	-0.024	0.014
-355.566	103.223	-0.145	-0.169
-354.552	-135.911	0.083	0.010
-353.537	291.913	-0.099	0.179
-352.523	213.532	0.136	0.214
-351.508	-200.000	0.012	-0.087
-350.493	-56.044	0.219	0.097
-349.479	525.879	-0.158	0.370
-348.464	-117.993	-0.172	0.031
-347.450	-37.399	0.125	-0.066
-346.435	61.147	-0.124	-0.122
-345.420	218.406	-0.104	-0.164
-344.406	-33.086	0.351	-0.194
-343.391	-81.250	-0.347	0.114
-342.377	-22.405	0.046	-0.028
-341.362	315.929	-0.083	0.155
-340.348	24.187	0.245	0.201
-339.333	38.354	-0.122	-0.108
-338.318	-149.706	-0.115	0.009
-337.304	-67.032	0.098	-0.038
-336.289	214.686	-0.108	0.171
-335.275	38.782	0.348	-0.308
-334.260	-16.394	0.045	0.028
-333.245	11.014	0.237	0.180
-332.231	-200.000	0.001	0.106
-331.216	176.430	0.093	-0.134
-330.202	57.343	-0.184	-0.178
-329.187	-200.000	-0.002	0.224
-328.172	-29.137	0.245	-0.140
-327.158	52.077	-0.248	-0.235
-326.143	-200.000	0.035	0.200
-325.129	128.430	-0.046	-0.058
-324.114	-200.000	-0.029	-0.198
-323.099	51.081	0.142	-0.133
-322.085	800.000	0.053	-0.218
-321.070	-200.000	0.002	0.174
-320.056	33.465	-0.299	0.257
-319.041	33.358	0.029	0.025
-318.026	194.843	0.117	-0.176
-317.012	205.199	-0.026	-0.039
-315.997	159.600	0.267	0.369
-314.983	-112.182	-0.215	0.043
-313.968	-117.980	-0.076	-0.014
-312.953	-200.000	-0.008	0.119
-311.939	-52.994	0.339	-0.154
-310.924	417.236	-0.048	0.101
-309.910	-200.000	-0.020	-0.113
-308.895	63.007	0.046	0.046
-307.880	-34.221	-0.067	-0.036
-306.866	471.478	-0.060	0.133
-305.851	-56.415	0.320	0.141
-304.837	800.000	0.116	-0.388
-303.822	259.549	0.115	0.196
-302.807	-65.897	-0.177	-0.070
-301.793	-57.447	0.079	0.035
-300.778	800.000	0.063	-0.199
-299.764	13.247	-0.186	0.143
-298.749	800.000	-0.052	-0.209
-297.735	63.936	-0.051	0.051
-296.720	243.585	0.098	0.163
-295.705	-200.000	-0.024	0.203
-294.691	355.173	-0.069	-0.136
-293.676	197.922	-0.144	-0.218
-292.662	-32.787	0.208	0.115
-291.647	60.441	0.092	0.090
-290.632	-71.837	-0.113	-0.042
-289.618	97.852	-0.149	0.170
-288.603	800.000	-0.070	0.298
-287.589	-69.454	0.312	-0.118
-286.574	130.307	0.065	0.082
-285.559	-97.477	-0.042	0.011
-284.545	-200.000	-0.025	-0.227
-283.530	59.538	0.166	-0.163
-282.516	-94.049	0.252	0.068
-281.501	-200.000	-0.005	-0.069
-280.486	-141.145	-0.103	-0.010
-279.472	89.219	0.239	-0.264
-278.457	384.105	0.063	0.129
-277.443	-70.008	-0.525	-0.198
-276.428	-200.000	0.026	-0.218
-275.413	111.016	-0.031	-0.036
-274.399	-200.000	0.008	-0.102
-273.384	-57.291	0.096	-0.042
-272.370	-200.000	-0.009	0.096
-271.355	-112.722	0.548	-0.108
-270.340	183.153	-0.169	-0.247
-269.326	-74.010	-0.296	0.106
-268.311	36.882	0.154	0.135
-267.297	-49.394	0.350	-0.165
-266.282	-2.284	0.199	0.138
-265.267	476.971	0.134	0.299
-264.253	-4.436	-0.240	0.164
-263.238	66.189	-0.140	0.141
-262.224	-15.686	0.026	0.017
-261.209	800.000	0.062	-0.182
-260.195	-90.376	0.568	0.163
-259.180	134.761	0.221	0.284
-258.165	-200.000	0.048	-0.220
-257.151	-9.364	0.314	0.207
-256.136	1.229	0.144	0.102
-255.122	-72.162	0.145	0.053
-254.107	800.000	0.061	-0.189
-253.092	125.497	-0.045	0.056
-252.078	-200.000	-0.004	0.167
-251.063	800.000	0.114	0.321
-250.049	29.701	-0.162	0.136
-249.034	-200.000	-0.018	-0.331
-248.019	306.406	-0.154	-0.283
-247.005	-121.478	0.235	0.039
-245.990	712.114	0.026	0.069
-244.976	-53.626	-0.302	-0.137
-243.961	319.883	-0.120	-0.225
-242.946	7.209	-0.082	-0.060
-241.932	-65.396	-0.277	0.110
-240.917	-145.841	0.235	-0.021
-239.903	9.451	-0.091	-0.068
-238.888	-159.867	0.078	-0.004
-237.873	-200.000	0.001	-0.085
-236.859	-200.000	-0.017	-0.219
-235.844	331.636	-0.039	0.074
-234.830	47.646	0.216	0.199
-233.815	421.702	0.045	-0.096
-232.800	-76.052	-0.100	-0.035
-231.786	104.536	0.240	-0.280
-230.771	-27.645	-0.217	-0.125
-229.757	710.375	0.080	0.209
-228.742	34.509	-0.110	0.095
-227.727	269.707	0.066	0.114
-226.713	161.507	-0.122	0.169
-225.698	-200.000	-0.006	0.057
-224.684	116.094	0.091	-0.110
-223.669	358.804	-0.168	-0.333
-222.655	381.572	0.109	-0.221
-221.640	551.737	0.197	0.467
-220.625	335.005	-0.176	0.338
-219.611	-79.332	0.215	0.072
-218.596	263.658	-0.050	0.086
-217.582	172.176	0.092	-0.131
-216.567	619.560	0.114	0.283
-215.552	800.000	-0.023	0.086
-214.538	198.991	0.057	0.086
-213.523	-21.313	0.209	-0.126
-212.509	-107.563	0.138	-0.030
-211.494	94.026	-0.122	0.137
-210.479	-37.175	-0.149	0.079
-209.465	800.000	-0.004	-0.015
-208.450	800.000	0.181	-0.532
-207.436	-140.343	-0.284	-0.029
-206.421	-46.896	0.251	0.121
-205.406	-0.478	-0.226	0.159
-204.392	77.700	-0.111	0.116
-203.377	-57.411	0.120	-0.052
-202.363	-48.246	0.254	-0.121
-201.348	-200.000	0.015	-0.068
-200.333	800.000	0.100	-0.306
-199.319	-9.584	-0.347	-0.229
-198.304	-77.627	-0.266	-0.091
-197.290	80.151	-0.270	0.287
-196.275	-197.621	0.303	-0.002
-195.260	58.210	0.254	0.246
-194.246	120.608	-0.148	-0.182
-193.231	-200.000	-0.011	-0.049
-192.217	-117.871	0.489	0.087
-191.202	102.087	0.179	0.207
-190.187	-97.177	-0.229	0.059
-189.173	-0.644	-0.121	0.085
-188.158	-38.740	0.207	0.108
-187.144	77.801	0.334	0.352
-186.129	-56.004	0.021	0.009
-185.114	800.000	-0.085	-0.275
-184.100	-1.168	-0.187	-0.130
-183.085	-94.461	0.182	0.049
-182.071	-200.000	0.022	-0.181
-181.056	-200.000	-0.044	-0.461
-180.042	-61.366	-0.061	-0.025
-179.027	101.917	0.057	0.065
-178.012	-103.663	-0.216	0.050
-176.998	14.626	0.062	-0.048
-175.983	142.964	0.168	-0.221
-174.969	-38.268	-0.110	0.058
-173.954	-200.000	-0.043	0.236
-172.939	81.070	-0.094	0.100
-171.925	88.394	0.047	0.052
-170.910	-87.057	-0.181	0.054
-169.896	47.078	0.283	0.259
-168.881	156.705	0.194	-0.264
-167.866	-78.846	-0.199	-0.067
-166.852	-86.625	0.381	0.115
-165.837	89.763	0.247	-0.272
-164.823	8.675	0.241	0.179
-163.808	2.526	-0.161	-0.115
-162.793	521.444	-0.111	0.258
-161.779	143.375	0.118	0.155
-160.764	-83.742	-0.107	0.034
-159.750	-41.901	-0.323	0.163
-158.735	-55.930	0.305	0.134
-157.720	-109.087	-0.232	0.049
-156.706	791.703	-0.084	-0.227
-155.691	-75.294	-0.395	-0.139
-154.677	222.246	0.033	0.052
-153.662	48.619	0.265	-0.245
-152.647	-25.220	-0.298	-0.174
-151.633	-124.087	-0.117	0.018
-150.618	-87.363	0.161	-0.048
-149.604	129.472	0.061	-0.077
-148.589	-200.000	0.037	0.225
-147.574	-138.686	-0.310	0.033
-146.560	543.885	-0.037	0.088
-145.545	-11.030	-0.049	-0.032
-144.531	800.000	0.056	0.212
-143.516	46.352	-0.129	0.118
-142.502	-37.582	-0.151	-0.079
-141.487	269.439	-0.081	0.141
-140.472	800.000	-0.090	0.272
-139.458	-107.125	-0.136	0.029
-138.443	157.336	-0.011	0.015
-137.429	85.836	0.178	0.193
-136.414	-200.000	0.019	0.114
-135.399	8.669	0.397	-0.295
-134.385	-52.121	0.283	0.130
-133.370	800.000	-0.040	0.111
-132.356	-32.755	0.241	-0.132
-131.341	-77.574	-0.176	-0.060
-130.326	-27.419	-0.237	-0.136
-129.312	67.060	0.210	-0.211
-128.297	-24.134	0.345	0.203
-127.283	800.000	0.068	-0.215
-126.268	800.000	-0.050	0.148
-125.253	463.036	-0.092	0.202
-124.239	800.000	0.099	0.313
-123.224	800.000	-0.081	0.225
-122.210	593.985	-0.074	-0.180
-121.195	-200.000	0.015	-0.201
-120.180	-148.676	-0.034	-0.003
-119.166	-0.070	0.240	0.168
