DTS Sentinel unit serial number:	SN413079Multiplexer serial number:	ORYXHardware model number:	OX4-SRSoftware version number:	ORYX F/W v4.00 Oryx Data Collector v3.7.2.0data status	okinstallation	princeton_trtdifferential loss correction	single-endedforward channel	channel 2reverse channel	N/Adate	2019/09/12time	02:17:11forward acquisition time	60.00reverse acquisition time	0.00gamma	496.2192k internal	0.2326k external	0.2326temperature offset calibration	1.0088default loss term (dB/km)	0.3790temperature slope calibration	1.0000multiplexer offset coefficient	1.0000multiplexer slope coefficient	1.0000fibre end	0.00T internal ref (°C)	32.62T ext. ref 1 (°C)	2.05T ext. ref 2 (°C)	26.15length (m)	temperature (°C)	Stokes	anti-Stokes-747.200	466.625	-0.023	-0.051
-746.185	58.919	0.238	0.236
-745.171	-114.910	0.245	0.047
-744.156	-101.769	0.012	0.003
-743.142	-4.470	0.091	0.064
-742.127	-200.000	0.013	0.096
-741.112	-50.766	0.279	0.132
-740.098	-56.414	-0.558	0.250
-739.083	190.588	-0.232	-0.351
-738.069	672.417	0.149	-0.390
-737.054	800.000	0.085	-0.313
-736.039	371.045	0.070	-0.144
-735.025	503.943	0.236	0.551
-734.010	275.827	-0.083	-0.149
-732.996	107.135	-0.033	0.040
-731.981	275.808	-0.067	0.120
-730.966	-135.298	-0.058	-0.007
-729.952	-64.377	-0.121	-0.049
-728.937	-65.056	0.163	0.066
-727.923	351.853	-0.051	-0.102
-726.908	-114.313	0.422	-0.082
-725.894	-25.642	-0.235	-0.139
-724.879	-133.866	-0.342	-0.043
-723.864	-131.079	-0.211	0.028
-722.850	800.000	-0.060	0.168
-721.835	68.669	-0.114	0.118
-720.821	81.664	0.199	-0.217
-719.806	-38.223	-0.258	0.138
-718.791	169.031	0.210	0.302
-717.777	-62.362	0.204	-0.085
-716.762	-68.391	-0.455	-0.178
-715.748	800.000	0.012	0.052
-714.733	-98.569	0.283	-0.073
-713.718	-200.000	0.001	0.097
-712.704	-158.517	0.176	-0.010
-711.689	-59.050	0.207	0.090
-710.675	-200.000	-0.020	0.209
-709.660	-162.349	0.342	-0.017
-708.645	-200.000	0.033	-0.466
-707.631	499.343	0.082	-0.191
-706.616	219.545	0.182	-0.294
-705.602	-95.316	-0.249	-0.068
-704.587	292.622	-0.138	-0.254
-703.572	-200.000	-0.022	-0.151
-702.558	448.851	0.035	0.077
-701.543	62.742	-0.236	-0.237
-700.529	411.542	0.108	-0.230
-699.514	43.860	-0.044	0.040
-698.499	424.870	-0.021	-0.045
-697.485	-50.745	-0.378	0.179
-696.470	-200.000	-0.016	0.201
-695.456	329.451	0.069	0.134
-694.441	-10.332	0.216	0.144
-693.426	-105.778	0.348	0.079
-692.412	25.866	0.103	0.086
-691.397	-200.000	0.029	0.295
-690.383	-29.772	-0.110	-0.063
-689.368	800.000	0.015	0.046
-688.354	241.150	-0.160	-0.268
-687.339	50.176	0.099	0.094
-686.324	107.005	0.076	0.091
-685.310	-200.000	0.042	0.199
-684.295	-67.353	-0.152	-0.060
-683.281	-157.699	-0.125	-0.007
-682.266	-123.463	0.139	0.022
-681.251	-17.598	-0.104	0.066
-680.237	-200.000	-0.000	-0.165
-679.222	-183.185	-0.305	0.005
-678.208	634.990	-0.163	-0.416
-677.193	-200.000	0.007	0.084
-676.178	232.354	0.134	0.221
-675.164	117.961	0.142	-0.176
-674.149	-200.000	-0.039	0.242
-673.135	382.593	0.033	-0.069
-672.120	-200.000	-0.023	-0.145
-671.105	-64.161	-0.088	-0.036
-670.091	114.794	0.085	0.104
-669.076	-36.004	0.126	-0.069
-668.062	-200.000	0.017	0.077
-667.047	-124.306	0.072	0.011
-666.032	164.487	-0.228	0.323
-665.018	-96.480	-0.170	0.045
-664.003	-147.912	0.391	-0.033
-662.989	-4.793	-0.215	-0.149
-661.974	223.779	-0.049	-0.079
-660.959	800.000	0.022	-0.094
-659.945	61.218	-0.126	-0.126
-658.930	-62.382	0.018	0.007
-657.916	800.000	0.090	0.293
-656.901	-98.814	-0.135	-0.035
-655.886	-147.861	-0.201	0.017
-654.872	101.676	-0.310	-0.363
-653.857	-200.000	-0.065	0.399
-652.843	34.607	-0.378	0.332
-651.828	141.691	-0.220	-0.292
-650.814	-6.802	-0.105	0.072
-649.799	107.922	0.099	-0.119
-648.784	34.671	-0.213	-0.187
-647.770	-170.544	0.217	-0.008
-646.755	435.794	-0.027	-0.059
-645.741	89.503	-0.068	0.077
-644.726	-200.000	0.048	0.431
-643.711	-89.930	0.211	-0.062
-642.697	25.917	-0.199	-0.167
-641.682	800.000	0.045	-0.160
-640.668	800.000	0.172	-0.497
-639.653	-200.000	-0.015	-0.191
-638.638	-53.611	-0.171	-0.079
-637.624	65.835	-0.119	0.122
-636.609	-129.942	0.076	-0.010
-635.595	-90.496	0.255	0.074
-634.580	63.002	0.266	-0.267
-633.565	58.526	0.151	-0.149
-632.551	-45.363	-0.173	-0.086
-631.536	-58.172	-0.186	0.081
-630.522	-200.000	0.014	0.085
-629.507	209.723	0.135	-0.212
-628.492	-39.663	-0.216	0.113
-627.478	-184.422	0.300	-0.005
-626.463	-108.398	-0.241	-0.052
-625.449	462.588	-0.114	0.256
-624.434	-166.024	0.071	0.003
-623.419	78.763	-0.100	0.107
-622.405	-25.027	-0.262	-0.156
-621.390	-13.412	-0.107	0.070
-620.376	232.681	-0.074	0.122
-619.361	-103.154	-0.274	-0.065
-618.346	231.599	0.092	0.152
-617.332	57.435	-0.108	0.106
-616.317	-200.000	-0.000	-0.422
-615.303	137.963	0.083	-0.109
-614.288	-59.899	0.165	0.071
-613.273	-50.243	0.299	-0.142
-612.259	-62.604	-0.357	-0.149
-611.244	-145.437	0.230	-0.021
-610.230	109.084	0.112	-0.134
-609.215	3.228	-0.191	0.140
-608.201	-63.886	0.456	0.187
-607.186	-57.879	-0.240	0.105
-606.171	-200.000	0.004	0.160
-605.157	-148.793	-0.246	0.020
-604.142	-137.222	-0.116	-0.013
-603.128	-200.000	-0.043	-0.306
-602.113	6.094	-0.264	0.196
-601.098	57.485	0.085	-0.084
-600.084	138.692	0.120	0.158
-599.069	-200.000	0.014	-0.141
-598.055	198.550	0.193	0.296
-597.040	166.096	0.158	0.224
-596.025	-147.479	-0.454	0.038
-595.011	33.900	-0.088	-0.077
-593.996	43.961	-0.137	-0.126
-592.982	800.000	0.022	-0.088
-591.967	175.526	0.075	0.109
-590.952	102.092	0.120	-0.141
-589.938	196.592	0.092	-0.141
-588.923	-200.000	-0.051	0.405
-587.909	-30.197	-0.105	0.060
-586.894	800.000	-0.029	-0.098
-585.879	-200.000	0.003	-0.232
-584.865	-199.676	0.119	-0.001
-583.850	60.953	0.329	0.327
-582.836	-70.347	-0.287	-0.109
-581.821	-68.461	0.295	0.115
-580.806	248.394	-0.143	-0.242
-579.792	-100.036	-0.146	0.036
-578.777	-27.647	0.427	-0.248
-577.763	719.416	0.034	-0.091
-576.748	-85.596	0.166	0.052
-575.733	-200.000	-0.008	0.097
-574.719	-200.000	-0.004	-0.094
-573.704	-200.000	-0.235	0.001
-572.690	714.913	-0.121	0.321
-571.675	-200.000	0.048	-0.443
-570.661	-200.000	-0.033	0.275
-569.646	-16.548	-0.220	-0.139
-568.631	-200.000	-0.081	0.405
-567.617	0.393	-0.196	-0.140
-566.602	-52.672	-0.170	0.079
-565.588	-200.000	-0.023	-0.193
-564.573	-200.000	-0.039	-0.185
-563.558	-174.144	-0.104	-0.003
-562.544	-39.033	-0.193	-0.101
-561.529	135.624	0.060	0.078
-560.515	-200.000	-0.023	0.199
-559.500	74.892	-0.052	0.055
-558.485	-95.604	0.553	-0.148
-557.471	800.000	0.094	-0.324
-556.456	25.819	0.125	-0.104
-555.442	-57.059	-0.150	0.066
-554.427	-100.390	0.105	-0.026
-553.412	800.000	0.012	0.034
-552.398	-18.508	0.086	0.054
-551.383	-154.810	0.131	0.009
-550.369	229.052	0.053	-0.087
-549.354	-200.000	0.003	0.348
-548.339	-98.190	0.163	-0.042
-547.325	-77.750	-0.052	-0.018
-546.310	-200.000	-0.006	0.152
-545.296	-200.000	0.016	-0.135
-544.281	-93.940	0.251	0.069
-543.266	23.245	-0.020	0.016
-542.252	119.124	0.203	-0.251
-541.237	-128.697	-0.100	-0.014
-540.223	290.658	-0.049	0.089
-539.208	180.313	-0.113	0.166
-538.193	-135.683	-0.094	0.011
-537.179	312.370	0.115	-0.217
-536.164	-200.000	-0.026	-0.238
-535.150	149.810	0.187	0.253
-534.135	-96.409	0.107	-0.028
-533.121	-200.000	-0.027	-0.162
-532.106	800.000	-0.011	-0.048
-531.091	146.918	-0.131	0.176
-530.077	-36.005	-0.180	-0.097
-529.062	-200.000	0.008	-0.252
-528.048	139.999	-0.092	-0.121
-527.033	800.000	-0.117	0.463
-526.018	-57.689	-0.064	0.028
-525.004	3.668	-0.146	0.107
-523.989	-104.020	-0.402	-0.094
-522.975	69.241	0.098	0.101
-521.960	163.930	-0.190	0.267
-520.945	117.080	0.103	0.127
-519.931	266.623	-0.079	-0.139
-518.916	-40.553	-0.223	0.116
-517.902	-113.311	-0.248	-0.049
-516.887	-44.916	0.096	-0.048
-515.872	657.561	-0.058	-0.150
-514.858	-200.000	0.010	0.198
-513.843	-140.057	-0.262	-0.028
-512.829	-46.588	-0.115	0.056
-511.814	800.000	-0.066	0.277
-510.799	800.000	0.092	0.355
-509.785	-11.189	-0.124	0.082
-508.770	87.164	-0.165	-0.182
-507.756	-200.000	0.001	-0.090
-506.741	66.885	-0.229	0.233
-505.726	459.726	-0.074	-0.165
-504.712	81.109	0.150	-0.162
-503.697	-120.287	-0.254	-0.043
-502.683	-200.000	0.012	-0.068
-501.668	800.000	-0.167	0.572
-500.653	800.000	-0.045	-0.152
-499.639	223.830	-0.179	0.289
-498.624	-200.000	-0.010	0.061
-497.610	800.000	-0.130	-0.380
-496.595	-15.794	0.096	-0.061
-495.581	-200.000	-0.023	0.430
-494.566	134.344	-0.087	0.112
-493.551	800.000	-0.094	-0.310
-492.537	101.261	-0.269	-0.313
-491.522	-200.000	-0.013	-0.247
-490.508	-162.879	0.462	0.022
-489.493	241.942	-0.069	0.116
-488.478	14.631	0.279	-0.217
-487.464	800.000	-0.089	0.266
-486.449	52.521	-0.212	-0.203
-485.435	43.019	-0.253	0.230
-484.420	93.228	0.180	0.203
-483.405	-40.665	-0.154	0.080
-482.391	335.328	-0.131	-0.254
-481.376	-200.000	0.029	0.152
-480.362	-200.000	-0.046	-0.275
-479.347	641.658	-0.018	0.046
-478.332	-200.000	0.024	0.235
-477.318	261.425	0.122	0.211
-476.303	428.647	0.104	0.225
-475.289	43.477	0.273	-0.249
-474.274	-132.789	-0.173	-0.022
-473.259	201.827	0.070	-0.107
-472.245	71.977	-0.179	-0.186
-471.230	-200.000	0.056	-0.360
-470.216	-159.288	-0.269	0.015
-469.201	-34.500	0.051	0.028
-468.186	-1.114	-0.209	-0.147
-467.172	-5.855	0.276	0.189
-466.157	-127.686	-0.194	0.028
-465.143	-85.150	-0.125	0.039
-464.128	309.641	0.080	0.150
-463.113	-20.535	-0.134	-0.082
-462.099	-59.572	0.090	-0.039
-461.084	-57.674	-0.158	0.069
-460.070	415.579	-0.057	-0.122
-459.055	61.317	-0.091	0.091
-458.040	-94.498	0.281	0.076
-457.026	-20.906	0.169	-0.103
-456.011	-55.150	0.096	0.043
-454.997	166.941	0.133	0.188
-453.982	36.554	0.146	-0.129
-452.968	104.327	-0.078	-0.092
-451.953	92.888	0.176	0.198
-450.938	309.092	0.125	-0.233
-449.924	-174.952	-0.151	0.004
-448.909	167.719	-0.103	-0.146
-447.895	167.293	-0.028	-0.040
-446.880	383.618	0.125	-0.256
-445.865	27.124	0.164	0.137
-444.851	-200.000	0.016	0.087
-443.836	-114.186	-0.315	0.061
-442.822	45.191	-0.223	-0.205
-441.807	-200.000	-0.033	-0.206
-440.792	10.349	0.113	0.086
-439.778	-200.000	-0.008	-0.074
-438.763	-169.207	0.165	-0.006
-437.749	-167.918	0.139	-0.005
-436.734	-68.517	0.226	0.087
-435.719	191.395	-0.143	0.214
-434.705	-5.193	0.213	0.146
-433.690	94.077	-0.080	0.090
-432.676	543.905	-0.095	0.226
-431.661	-200.000	-0.022	-0.134
-430.646	-200.000	-0.015	0.147
-429.632	-69.710	-0.119	-0.045
-428.617	-86.995	-0.416	-0.126
-427.603	654.806	0.084	0.215
-426.588	800.000	0.022	0.083
-425.573	-51.497	0.057	-0.026
-424.559	341.750	-0.122	-0.238
-423.544	-105.970	0.203	-0.045
-422.530	-72.672	-0.040	0.015
-421.515	-175.261	0.138	0.004
-420.500	800.000	0.018	-0.059
-419.486	-171.628	-0.156	-0.005
-418.471	-146.367	-0.411	-0.036
-417.457	-200.000	0.018	-0.191
-416.442	181.566	-0.163	0.239
-415.428	-104.073	-0.323	-0.075
-414.413	615.344	0.112	-0.280
-413.398	751.770	0.152	0.408
-412.384	117.706	-0.083	-0.102
-411.369	-99.683	-0.242	-0.060
-410.355	289.862	-0.126	0.228
-409.340	339.729	0.097	-0.189
-408.325	800.000	0.039	0.119
-407.311	171.486	0.111	0.159
-406.296	-117.391	0.052	0.009
-405.282	-41.880	0.343	0.175
-404.267	800.000	-0.119	0.373
-403.252	-5.666	0.425	0.290
-402.238	51.521	0.128	0.121
-401.223	-153.507	0.126	-0.009
-400.209	121.258	0.150	0.186
-399.194	593.452	-0.107	-0.263
-398.179	24.364	-0.139	0.114
-397.165	-165.297	0.148	-0.006
-396.150	-60.140	-0.094	0.040
-395.136	454.059	-0.130	-0.287
-394.121	201.492	0.085	-0.130
-393.106	800.000	-0.076	-0.251
-392.092	-200.000	0.056	0.288
-391.077	-200.000	0.017	0.318
-390.063	-43.202	0.030	-0.015
-389.048	10.734	-0.265	0.201
-388.033	404.852	-0.106	-0.221
-387.019	-200.000	0.028	-0.123
-386.004	182.566	0.045	-0.065
-384.990	-58.519	-0.007	0.003
-383.975	-9.046	-0.092	0.062
-382.960	18.459	0.202	0.161
-381.946	-159.433	-0.118	-0.007
-380.931	-133.625	0.317	-0.039
-379.917	37.196	0.293	0.258
-378.902	-153.009	-0.342	-0.024
-377.888	353.658	-0.095	0.187
-376.873	-30.351	-0.211	-0.119
-375.858	-69.526	0.348	0.133
-374.844	-42.188	0.141	-0.071
-373.829	-35.557	0.110	-0.059
-372.815	-1.113	0.210	-0.147
-371.800	-65.172	0.088	-0.035
-370.785	-173.879	0.159	-0.005
-369.771	178.347	-0.054	-0.078
-368.756	-123.498	-0.087	-0.014
-367.742	151.454	-0.203	-0.275
-366.727	2.905	0.092	-0.067
-365.712	-61.102	-0.232	0.097
-364.698	-96.001	-0.265	0.070
-363.683	21.616	-0.196	0.158
-362.669	135.910	-0.105	0.136
-361.654	-39.714	-0.168	0.087
-360.639	-10.184	0.289	0.190
-359.625	-26.036	0.173	-0.101
-358.610	800.000	0.096	-0.284
-357.596	-117.690	-0.288	0.051
-356.581	391.592	0.087	-0.180
-355.566	-80.238	0.419	0.139
-354.552	-75.157	-0.043	0.015
-353.537	64.067	0.112	-0.112
-352.523	800.000	-0.105	0.294
-351.508	-36.735	-0.130	0.069
-350.493	-121.866	0.160	0.026
-349.479	386.740	0.036	-0.075
-348.464	-200.000	-0.009	0.155
-347.450	-200.000	0.015	-0.076
-346.435	-200.000	-0.030	0.247
-345.420	774.438	0.102	0.276
-344.406	-106.582	0.099	0.022
-343.391	16.166	-0.115	-0.090
-342.377	-118.232	-0.128	0.023
-341.362	-5.988	-0.180	-0.122
-340.348	-23.228	0.310	-0.185
-339.333	-49.680	-0.249	0.118
-338.318	62.072	-0.041	-0.041
-337.304	209.248	0.160	0.249
-336.289	137.201	0.198	-0.257
-335.275	-200.000	0.021	0.140
-334.260	21.529	-0.114	-0.092
-333.245	-179.639	-0.221	-0.005
-332.231	33.780	0.187	0.161
-331.216	47.189	-0.109	-0.101
-330.202	596.824	0.098	0.240
-329.187	-86.479	-0.048	0.015
-328.172	-16.804	-0.153	-0.096
-327.158	204.565	-0.103	0.159
-326.143	-130.223	0.305	0.041
-325.129	51.861	0.100	-0.095
-324.114	-28.042	-0.264	-0.151
-323.099	-117.938	-0.148	0.026
-322.085	-31.331	0.310	-0.173
-321.070	758.073	-0.098	-0.263
-320.056	-50.331	-0.243	0.114
-319.041	64.829	-0.109	-0.109
-318.026	434.479	-0.074	0.160
-317.012	-184.274	0.310	-0.005
-315.997	85.818	0.237	-0.258
-314.983	33.894	-0.304	-0.263
-313.968	222.265	0.013	0.021
-312.953	-50.110	-0.021	0.010
-311.939	-128.937	-0.247	-0.034
-310.924	-70.716	-0.237	0.089
-309.910	-62.061	0.131	0.054
-308.895	-200.000	-0.023	0.182
-307.880	172.888	0.079	-0.113
-306.866	137.784	-0.225	-0.292
-305.851	-200.000	-0.059	-0.403
-304.837	-84.367	-0.179	0.056
-303.822	-111.837	0.117	0.023
-302.807	316.958	0.126	-0.236
-301.793	56.987	-0.096	0.093
-300.778	88.229	-0.264	0.291
-299.764	-32.070	0.080	-0.044
-298.749	-100.757	-0.266	-0.065
-297.735	27.387	-0.063	-0.052
-296.720	208.002	0.207	-0.321
-295.705	81.215	-0.210	0.225
-294.691	282.683	-0.155	-0.276
-293.676	-34.653	-0.058	-0.031
-292.662	-160.941	0.336	-0.018
-291.647	300.322	0.044	0.080
-290.632	568.028	-0.075	-0.180
-289.618	176.547	-0.072	0.104
-288.603	4.487	-0.339	0.246
-287.589	800.000	0.132	0.422
-286.574	800.000	0.128	0.394
-285.559	300.720	0.124	-0.227
-284.545	71.884	-0.195	-0.201
-283.530	297.099	0.073	0.133
-282.516	107.222	0.145	0.170
-281.501	398.328	-0.075	0.155
-280.486	-29.061	0.245	-0.139
-279.472	56.617	0.442	0.426
-278.457	286.358	-0.144	0.257
-277.443	-176.667	0.190	0.005
-276.428	-195.983	0.299	-0.002
-275.413	-28.893	0.153	-0.087
-274.399	106.374	0.253	-0.297
-273.384	478.290	-0.112	-0.250
-272.370	150.581	-0.060	-0.081
-271.355	-200.000	-0.011	-0.269
-270.340	800.000	-0.030	0.101
-269.326	-200.000	-0.046	-0.274
-268.311	110.816	0.146	0.174
-267.297	800.000	-0.076	0.300
-266.282	800.000	0.028	0.106
-265.267	-72.263	-0.312	-0.114
-264.253	-163.001	-0.180	-0.009
-263.238	-87.730	0.269	0.080
-262.224	228.088	-0.050	0.080
-261.209	-54.459	0.405	0.182
-260.195	-200.000	0.009	-0.121
-259.180	500.738	0.105	0.239
-258.165	-16.238	0.168	-0.106
-257.151	800.000	-0.034	0.145
-256.136	-52.629	0.107	-0.049
-255.122	326.331	-0.022	0.041
-254.107	-112.761	0.239	-0.047
-253.092	-200.000	0.001	0.127
-252.078	88.306	-0.036	-0.039
-251.063	137.955	0.057	-0.075
-250.049	-200.000	-0.001	0.095
-249.034	-200.000	0.006	0.106
-248.019	680.931	0.122	-0.313
-247.005	-200.000	0.049	-0.287
-245.990	-55.534	-0.315	-0.139
-244.976	45.944	-0.180	0.165
-243.961	507.254	0.115	-0.263
-242.946	-115.207	-0.312	0.058
-241.932	83.301	-0.071	-0.076
-240.917	-94.383	0.379	0.102
-239.903	180.234	-0.142	0.206
-238.888	-110.328	-0.200	-0.041
-237.873	-200.000	0.009	-0.048
-236.859	9.437	-0.212	0.159
-235.844	52.444	0.360	0.340
-234.830	-84.385	-0.225	0.070
-233.815	-180.125	-0.404	0.008
-232.800	-113.920	-0.198	-0.038
-231.786	83.709	-0.111	-0.120
-230.771	-200.000	-0.045	-0.332
-229.757	800.000	0.142	-0.412
-228.742	-200.000	0.027	0.272
-227.727	291.024	-0.157	-0.282
-226.713	101.047	0.469	0.539
-225.698	79.377	0.228	0.242
-224.684	800.000	0.085	0.307
-223.669	-123.741	0.341	-0.053
-222.655	-102.042	-0.127	-0.030
-221.640	-86.980	0.320	0.097
-220.625	-93.994	0.277	-0.075
-219.611	143.581	0.266	0.350
-218.596	737.253	0.058	-0.154
-217.582	-20.400	0.134	-0.082
-216.567	14.621	-0.179	-0.138
-215.552	-125.178	0.096	0.015
-214.538	-69.674	-0.110	0.042
-213.523	315.937	-0.028	-0.052
-212.509	800.000	0.069	0.219
-211.494	449.708	0.053	0.117
-210.479	-200.000	-0.022	-0.125
-209.465	202.629	0.084	0.128
-208.450	11.295	-0.157	-0.119
-207.436	218.354	0.122	-0.192
-206.421	-134.044	0.212	-0.026
-205.406	11.279	-0.325	-0.246
-204.392	800.000	0.112	0.411
-203.377	5.047	0.051	0.037
-202.363	-156.224	-0.163	0.010
-201.348	14.961	0.204	0.158
-200.333	-64.586	-0.125	-0.050
-199.319	477.493	0.091	-0.202
-198.304	331.861	0.279	-0.531
-197.290	145.242	0.263	0.347
-196.275	-200.000	0.001	-0.075
-195.260	405.892	0.153	-0.319
-194.246	800.000	0.030	0.084
-193.231	416.865	0.024	0.051
-192.217	402.578	0.160	-0.333
-191.202	-117.807	0.265	-0.047
-190.187	-41.694	0.299	-0.151
-189.173	40.333	-0.026	0.023
-188.158	-133.138	-0.249	0.031
-187.144	109.506	-0.102	0.121
-186.129	-200.000	-0.018	0.106
-185.114	5.942	-0.043	0.031
-184.100	800.000	0.059	0.248
-183.085	19.267	0.185	0.146
-182.071	-142.344	-0.228	0.022
-181.056	29.059	0.172	-0.144
-180.042	203.494	-0.084	0.128
-179.027	84.085	0.184	0.198
-178.012	-200.000	0.033	-0.412
-176.998	636.323	-0.045	-0.114
-175.983	-83.850	0.163	-0.051
-174.969	800.000	0.123	-0.342
-173.954	800.000	-0.130	-0.424
-172.939	269.897	0.008	-0.014
-171.925	81.500	0.131	-0.140
-170.910	-200.000	-0.013	0.089
-169.896	-171.674	0.126	-0.004
-168.881	-150.961	-0.091	0.007
-167.866	-69.543	-0.223	-0.084
-166.852	162.000	0.079	0.109
-165.837	-145.471	-0.389	-0.034
-164.823	358.467	0.031	-0.060
-163.808	-65.051	-0.381	0.152
-162.793	659.195	0.038	0.097
-161.779	-117.175	0.151	-0.027
-160.764	123.262	0.064	0.079
-159.750	-76.490	0.090	0.031
-158.735	165.841	-0.092	-0.128
-157.720	753.960	-0.068	-0.181
-156.706	-135.618	0.261	-0.031
-155.691	6.613	0.240	-0.176
-154.677	-78.682	-0.036	0.012
-153.662	443.995	0.020	-0.042
-152.647	-98.364	0.127	-0.032
-151.633	245.183	-0.147	0.244
-150.618	416.237	0.134	0.282
-149.604	-126.151	0.204	-0.030
-148.589	424.344	-0.102	0.216
-147.574	1.785	0.310	0.220
-146.560	2.740	0.163	0.117
-145.545	-6.714	-0.449	-0.301
-144.531	800.000	0.045	0.128
-143.516	-8.922	0.207	0.137
-142.502	800.000	0.064	-0.199
-141.487	-18.606	0.131	-0.081
-140.472	11.953	0.110	0.083
-139.458	357.023	-0.103	-0.203
-138.443	800.000	-0.062	-0.265
-137.429	53.046	-0.406	0.383
-136.414	-114.863	0.194	0.036
-135.399	313.390	-0.216	0.401
-134.385	-101.738	0.190	0.045
-133.370	235.413	0.138	-0.224
-132.356	-71.412	0.128	-0.047
-131.341	312.906	0.178	-0.329
-130.326	800.000	0.085	-0.336
-129.312	273.361	-0.056	0.097
-128.297	800.000	-0.033	-0.117
-127.283	-200.000	-0.029	0.171
-126.268	-41.047	0.341	-0.174
-125.253	175.407	0.018	-0.026
-124.239	105.040	0.079	0.092
-123.224	16.798	-0.097	-0.076
-122.210	692.693	-0.055	-0.143
-121.195	800.000	0.042	0.163
