DTS Sentinel unit serial number:	SN413079Multiplexer serial number:	ORYXHardware model number:	OX4-SRSoftware version number:	ORYX F/W v4.00 Oryx Data Collector v3.7.2.0data status	okinstallation	princeton_trtdifferential loss correction	single-endedforward channel	channel 2reverse channel	N/Adate	2019/09/12time	00:25:10forward acquisition time	60.00reverse acquisition time	0.00gamma	496.2192k internal	0.2325k external	0.2325temperature offset calibration	1.0090default loss term (dB/km)	0.3790temperature slope calibration	1.0000multiplexer offset coefficient	1.0000multiplexer slope coefficient	1.0000fibre end	0.00T internal ref (°C)	33.47T ext. ref 1 (°C)	2.05T ext. ref 2 (°C)	27.49length (m)	temperature (°C)	Stokes	anti-Stokes-747.200	-200.000	0.007	0.166
-746.185	-200.000	-0.024	0.445
-745.171	25.747	0.100	0.084
-744.156	57.754	-0.070	0.069
-743.142	-200.000	-0.023	-0.332
-742.127	-200.000	-0.003	-0.189
-741.112	414.367	0.044	-0.094
-740.098	60.410	-0.118	-0.118
-739.083	-12.241	-0.258	-0.170
-738.069	-18.592	-0.184	0.116
-737.054	-154.187	0.254	0.017
-736.039	800.000	-0.091	-0.401
-735.025	-124.406	0.077	-0.012
-734.010	12.497	-0.084	0.066
-732.996	-45.870	-0.185	-0.092
-731.981	268.151	-0.092	0.162
-730.966	55.848	0.296	0.289
-729.952	1.278	-0.186	-0.135
-728.937	13.898	0.224	-0.175
-727.923	359.235	0.076	-0.153
-726.908	-103.152	-0.166	-0.040
-725.894	800.000	0.082	-0.229
-724.879	800.000	0.056	-0.227
-723.864	101.296	0.061	0.072
-722.850	-147.630	-0.147	-0.012
-721.835	-176.765	0.208	0.005
-720.821	-200.000	0.014	0.129
-719.806	-200.000	-0.002	0.061
-718.791	84.511	-0.262	0.289
-717.777	-130.115	-0.067	-0.009
-716.762	-200.000	-0.015	-0.372
-715.748	-57.723	0.147	0.065
-714.733	-85.404	-0.321	-0.101
-713.718	234.404	0.164	0.272
-712.704	369.601	0.120	-0.245
-711.689	100.239	-0.228	-0.266
-710.675	-72.306	-0.079	-0.030
-709.660	800.000	0.037	0.155
-708.645	-138.491	-0.143	-0.016
-707.631	311.910	-0.122	-0.231
-706.616	-21.869	0.103	0.063
-705.602	-180.278	0.210	0.004
-704.587	62.254	-0.324	-0.326
-703.572	66.423	-0.174	-0.178
-702.558	800.000	0.108	-0.427
-701.543	297.698	-0.205	0.379
-700.529	-127.105	0.090	0.013
-699.514	44.898	-0.100	0.093
-698.499	-200.000	-0.022	-0.136
-697.485	-164.865	0.174	0.008
-696.470	-110.350	0.194	-0.041
-695.456	71.839	0.107	0.112
-694.441	-33.547	0.258	0.144
-693.426	-68.018	0.154	-0.061
-692.412	-200.000	-0.013	0.172
-691.397	194.330	0.057	0.086
-690.383	-9.808	0.149	0.100
-689.368	653.175	-0.139	-0.358
-688.354	-116.650	0.215	0.040
-687.339	75.705	-0.195	-0.208
-686.324	800.000	-0.024	0.095
-685.310	-200.000	-0.010	-0.053
-684.295	431.833	0.196	-0.428
-683.281	-19.215	0.250	-0.156
-682.266	104.822	-0.088	0.105
-681.251	-103.628	0.238	-0.056
-680.237	-128.794	-0.166	0.024
-679.222	-102.341	0.234	0.056
-678.208	-109.213	0.079	-0.017
-677.193	-33.376	0.281	0.156
-676.178	-200.000	-0.010	-0.084
-675.164	260.128	-0.059	-0.102
-674.149	48.304	-0.112	-0.106
-673.135	-200.000	0.007	0.108
-672.120	107.128	-0.101	0.121
-671.105	-200.000	-0.126	-0.000
-670.091	800.000	-0.139	-0.408
-669.076	60.775	0.177	0.176
-668.062	-200.000	-0.004	0.022
-667.047	171.547	-0.162	0.233
-666.032	201.011	-0.189	0.293
-665.018	-41.741	0.168	0.087
-664.003	-22.880	-0.075	0.046
-662.989	-162.144	-0.032	0.002
-661.974	800.000	0.050	0.219
-660.959	-102.074	-0.215	0.052
-659.945	-31.547	0.265	-0.150
-658.930	447.574	0.172	-0.381
-657.916	-18.136	0.176	-0.111
-656.901	-90.283	-0.415	-0.121
-655.886	800.000	0.059	-0.247
-654.872	-31.438	-0.205	0.116
-653.857	-115.433	0.077	-0.015
-652.843	290.501	-0.133	0.243
-651.828	-10.152	0.178	-0.119
-650.814	800.000	0.059	-0.183
-649.799	47.860	-0.146	-0.137
-648.784	-94.745	-0.420	-0.114
-647.770	-128.946	0.126	0.018
-646.755	185.311	0.044	-0.066
-645.741	-105.997	0.206	0.047
-644.726	800.000	0.073	0.260
-643.711	-200.000	0.004	0.162
-642.697	-200.000	0.029	0.233
-641.682	-200.000	-0.018	-0.194
-640.668	-63.654	-0.125	0.052
-639.653	14.209	0.155	0.121
-638.638	-31.653	-0.192	0.108
-637.624	800.000	-0.066	-0.284
-636.609	-89.164	-0.344	0.102
-635.595	-34.068	-0.154	-0.085
-634.580	800.000	0.053	0.230
-633.565	-80.004	0.162	-0.055
-632.551	57.859	-0.220	-0.217
-631.536	-109.645	-0.100	0.021
-630.522	-20.991	0.196	-0.121
-629.507	104.538	-0.090	-0.106
-628.492	-200.000	0.005	0.152
-627.478	-200.000	0.033	0.445
-626.463	42.313	0.143	-0.130
-625.449	-103.756	-0.240	-0.056
-624.434	-200.000	-0.004	0.068
-623.419	13.060	0.243	-0.189
-622.405	-200.000	0.000	0.040
-621.390	-76.833	-0.069	0.024
-620.376	-93.831	0.340	0.094
-619.361	-120.696	-0.347	-0.059
-618.346	800.000	0.021	-0.068
-617.332	-187.005	0.290	0.004
-616.317	-127.161	0.055	0.008
-615.303	800.000	-0.015	0.048
-614.288	-200.000	0.051	-0.337
-613.273	22.346	-0.183	-0.150
-612.259	350.592	0.180	0.357
-611.244	195.843	-0.149	-0.227
-610.230	-164.138	-0.230	0.011
-609.215	-132.695	-0.404	-0.052
-608.201	465.814	-0.164	-0.368
-607.186	-200.000	0.079	-0.494
-606.171	-9.992	-0.158	-0.106
-605.157	-200.000	-0.012	-0.067
-604.142	-120.715	0.309	0.052
-603.128	474.756	-0.125	-0.284
-602.113	94.560	0.141	-0.160
-601.098	754.714	-0.071	-0.194
-600.084	800.000	-0.141	-0.526
-599.069	-88.106	0.238	-0.072
-598.055	178.239	-0.122	0.178
-597.040	-161.367	-0.291	-0.015
-596.025	-200.000	0.000	-0.124
-595.011	800.000	0.091	-0.253
-593.996	-181.581	0.099	0.002
-592.982	-146.591	-0.342	-0.030
-591.967	-52.864	-0.068	-0.032
-590.952	15.814	0.133	-0.105
-589.938	-110.839	0.140	-0.029
-588.923	-200.000	-0.044	0.240
-587.909	-200.000	0.006	-0.105
-586.894	-92.756	0.125	-0.035
-585.879	92.679	-0.097	0.109
-584.865	800.000	-0.012	0.050
-583.850	188.239	-0.092	0.138
-582.836	544.826	-0.071	0.171
-581.821	-105.893	0.472	0.107
-580.806	-200.000	-0.044	-0.212
-579.792	-18.456	0.218	-0.136
-578.777	-200.000	-0.021	-0.201
-577.763	-140.956	-0.388	0.040
-576.748	-200.000	0.009	0.141
-575.733	78.949	0.120	-0.129
-574.719	-91.783	-0.141	0.040
-573.704	108.910	-0.101	-0.121
-572.690	263.273	0.011	-0.019
-571.675	-200.000	-0.011	-0.218
-570.661	759.997	0.071	-0.192
-569.646	155.248	-0.110	0.152
-568.631	449.938	0.058	-0.129
-567.617	74.639	0.159	0.167
-566.602	64.830	-0.144	0.146
-565.588	195.415	-0.120	0.182
-564.573	-73.582	0.190	0.070
-563.558	-200.000	-0.008	-0.342
-562.544	-66.738	0.131	0.052
-561.529	-63.383	0.230	-0.095
-560.515	-138.915	-0.257	-0.028
-559.500	-200.000	-0.009	0.274
-558.485	7.241	0.059	-0.044
-557.471	328.958	-0.096	0.184
-556.456	405.210	-0.038	-0.081
-555.442	-200.000	0.020	0.140
-554.427	-200.000	-0.037	0.222
-553.412	-21.604	0.112	0.068
-552.398	736.954	-0.048	-0.130
-551.383	-140.363	0.165	-0.017
-550.369	-130.877	0.356	0.048
-549.354	399.559	-0.132	-0.278
-548.339	-17.055	0.177	-0.112
-547.325	403.902	0.062	-0.131
-546.310	800.000	0.026	-0.083
-545.296	-21.571	-0.229	-0.140
-544.281	-200.000	0.013	-0.301
-543.266	83.775	-0.141	-0.154
-542.252	242.929	-0.101	0.170
-541.237	-98.108	-0.159	0.041
-540.223	-81.447	-0.272	0.090
-539.208	-186.357	-0.555	0.008
-538.193	-200.000	-0.036	0.354
-537.179	-200.000	0.008	0.342
-536.164	-71.074	0.546	-0.205
-535.150	-56.713	0.400	0.177
-534.135	41.819	0.151	-0.137
-533.121	89.758	-0.195	0.217
-532.106	14.973	0.109	0.085
-531.091	75.741	0.168	-0.178
-530.077	19.621	0.120	-0.096
-529.062	387.637	-0.070	0.145
-528.048	110.689	0.221	0.266
-527.033	150.458	-0.141	0.191
-526.018	20.753	0.038	0.031
-525.004	800.000	0.038	-0.128
-523.989	-96.691	-0.173	0.046
-522.975	323.202	0.067	0.128
-521.960	-16.845	0.227	-0.143
-520.945	31.255	-0.053	-0.045
-519.931	-33.285	-0.358	0.198
-518.916	-135.551	0.292	0.035
-517.902	62.266	0.246	0.246
-516.887	39.277	0.138	-0.124
-515.872	-30.241	0.182	0.103
-514.858	100.550	-0.035	-0.040
-513.843	-103.269	0.098	0.023
-512.829	-35.645	0.047	0.026
-511.814	186.550	0.068	-0.101
-510.799	84.110	-0.201	-0.219
-509.785	53.478	0.094	-0.090
-508.770	-171.840	0.118	0.004
-507.756	-121.742	0.204	-0.034
-506.741	-2.944	-0.067	-0.047
-505.726	4.966	-0.206	-0.152
-504.712	-200.000	-0.046	0.221
-503.697	-200.000	-0.047	0.209
-502.683	93.706	0.264	0.299
-501.668	-42.070	-0.033	0.017
-500.653	10.326	-0.154	0.117
-499.639	201.004	-0.184	-0.283
-498.624	-0.699	0.150	-0.106
-497.610	800.000	-0.069	-0.210
-496.595	-109.907	0.275	-0.058
-495.581	-119.388	-0.312	-0.054
-494.566	-116.373	-0.204	0.038
-493.551	-89.046	-0.354	0.105
-492.537	430.642	0.028	0.061
-491.522	800.000	-0.058	0.211
-490.508	800.000	-0.041	-0.127
-489.493	-120.743	-0.160	0.027
-488.478	-94.852	0.157	0.043
-487.464	44.651	-0.227	0.209
-486.449	-50.964	0.259	-0.121
-485.435	-157.939	0.339	-0.020
-484.420	173.493	-0.093	0.135
-483.405	11.152	0.089	-0.068
-482.391	-12.888	-0.048	-0.031
-481.376	-74.448	-0.275	0.099
-480.362	278.202	0.129	-0.230
-479.347	-48.371	-0.268	0.129
-478.332	-200.000	-0.158	-0.001
-477.318	110.279	0.031	-0.037
-476.303	208.257	0.021	-0.033
-475.289	-200.000	-0.009	-0.071
-474.274	79.372	-0.157	0.168
-473.259	-167.316	-0.431	0.017
-472.245	-48.804	0.095	-0.045
-471.230	-10.797	0.156	-0.103
-470.216	92.950	0.021	-0.024
-469.201	-200.000	0.038	0.393
-468.186	345.122	0.126	-0.247
-467.172	127.191	-0.074	0.093
-466.157	56.580	-0.200	-0.195
-465.143	298.535	-0.281	0.516
-464.128	68.918	-0.140	0.144
-463.113	175.145	-0.015	0.021
-462.099	621.444	0.175	0.439
-461.084	24.555	-0.063	-0.052
-460.070	-146.276	0.093	-0.008
-459.055	136.624	0.301	-0.393
-458.040	-200.000	-0.007	-0.068
-457.026	-9.920	0.149	0.099
-456.011	72.012	0.125	-0.129
-454.997	48.245	0.080	0.075
-453.982	-91.655	0.134	0.038
-452.968	127.374	-0.113	-0.143
-451.953	24.040	0.121	-0.100
-450.938	-200.000	0.022	-0.373
-449.924	-200.000	-0.019	-0.120
-448.909	-200.000	0.069	0.327
-447.895	-34.699	0.189	0.103
-446.880	-41.272	-0.132	0.068
-445.865	446.862	-0.061	-0.134
-444.851	-76.448	-0.099	-0.035
-443.836	628.986	-0.026	0.066
-442.822	45.380	0.396	0.364
-441.807	406.903	0.027	-0.057
-440.792	800.000	-0.112	-0.432
-439.778	-121.424	-0.064	-0.011
-438.763	-90.538	0.211	0.061
-437.749	-31.442	-0.146	0.082
-436.734	98.688	-0.184	0.211
-435.719	203.143	-0.093	0.143
-434.705	640.437	-0.064	0.162
-433.690	-112.000	-0.283	0.057
-432.676	-55.693	0.073	0.032
-431.661	29.529	-0.140	-0.119
-430.646	-87.322	-0.036	0.011
-429.632	-32.168	-0.031	-0.017
-428.617	-156.812	0.080	0.005
-427.603	-29.883	-0.181	0.103
-426.588	20.066	0.123	0.099
-425.573	250.264	0.187	0.317
-424.559	-200.000	0.089	0.440
-423.544	-200.000	-0.021	0.237
-422.530	278.175	-0.066	0.117
-421.515	-200.000	0.008	-0.101
-420.500	800.000	-0.045	-0.131
-419.486	7.436	0.116	-0.086
-418.471	-72.049	-0.098	-0.036
-417.457	19.185	0.147	-0.118
-416.442	-44.589	0.250	-0.125
-415.428	-171.971	0.348	0.011
-414.413	-200.000	0.005	0.055
-413.398	-66.109	-0.350	0.139
-412.384	502.318	-0.086	-0.197
-411.369	-200.000	0.006	-0.071
-410.355	800.000	-0.055	-0.238
-409.340	-200.000	-0.026	0.168
-408.325	353.296	-0.074	0.147
-407.311	-18.838	0.196	-0.121
-406.296	3.167	0.297	-0.215
-405.282	-200.000	0.030	0.291
-404.267	-103.497	-0.299	0.070
-403.252	-99.972	-0.374	-0.093
-402.238	-77.376	-0.180	-0.062
-401.223	-17.853	-0.089	0.055
-400.209	173.950	-0.070	-0.101
-399.194	-97.693	0.198	-0.051
-398.179	-200.000	-0.041	0.233
-397.165	-79.654	-0.079	0.027
-396.150	95.841	0.329	-0.374
-395.136	-79.322	-0.270	0.091
-394.121	800.000	-0.050	-0.162
-393.106	38.086	0.159	-0.141
-392.092	-97.347	-0.179	-0.046
-391.077	-200.000	-0.019	-0.413
-390.063	113.226	0.193	0.233
-389.048	0.486	0.259	-0.184
-388.033	191.428	0.156	-0.234
-387.019	800.000	-0.040	-0.130
-386.004	-97.850	-0.205	0.053
-384.990	-200.000	-0.024	0.271
-383.975	800.000	-0.027	-0.089
-382.960	216.320	0.228	-0.361
-381.946	-5.343	0.136	0.093
-380.931	-41.148	-0.138	-0.071
-379.917	-45.878	0.417	-0.205
-378.902	108.943	0.301	-0.359
-377.888	-118.091	0.321	-0.057
-376.873	257.981	-0.169	-0.289
-375.858	50.147	0.334	0.313
-374.844	-200.000	0.016	0.224
-373.829	-61.987	-0.187	-0.078
-372.815	-168.998	-0.228	-0.008
-371.800	74.192	-0.148	0.154
-370.785	7.245	0.107	0.079
-369.771	540.239	-0.198	-0.468
-368.756	800.000	-0.081	0.248
-367.742	-200.000	0.004	0.238
-366.727	-200.000	-0.016	-0.377
-365.712	-200.000	-0.009	0.367
-364.698	-123.190	0.107	0.017
-363.683	-113.258	-0.283	-0.055
-362.669	19.149	-0.172	0.137
-361.654	-200.000	0.010	0.222
-360.639	15.340	-0.130	-0.101
-359.625	-87.235	0.160	0.048
-358.610	40.249	-0.126	0.113
-357.596	-200.000	0.011	-0.056
-356.581	-146.079	0.157	-0.014
-355.566	22.993	-0.205	-0.167
-354.552	241.689	-0.109	0.182
-353.537	275.491	0.049	-0.086
-352.523	290.772	0.205	0.370
-351.508	20.292	-0.109	0.087
-350.493	-200.000	-0.033	-0.227
-349.479	-18.224	-0.343	0.213
-348.464	164.297	0.056	0.078
-347.450	-1.671	-0.353	-0.247
-346.435	-84.944	0.192	0.060
-345.420	-25.579	-0.138	0.081
-344.406	-6.424	0.154	-0.105
-343.391	195.991	-0.317	-0.479
-342.377	-2.922	0.273	0.190
-341.362	609.936	-0.055	-0.138
-340.348	567.048	-0.036	0.088
-339.333	93.924	0.162	-0.183
-338.318	-14.228	0.357	0.229
-337.304	18.187	0.107	-0.085
-336.289	-200.000	-0.006	0.222
-335.275	800.000	-0.054	0.201
-334.260	-200.000	0.018	0.183
-333.245	515.763	-0.104	-0.242
-332.231	31.208	0.079	0.067
-331.216	-48.438	0.082	-0.039
-330.202	306.026	-0.081	-0.149
-329.187	-200.000	0.034	0.260
-328.172	779.237	-0.077	-0.208
-327.158	-200.000	0.039	0.243
-326.143	332.378	0.087	0.167
-325.129	46.233	-0.085	-0.078
-324.114	-200.000	-0.034	-0.153
-323.099	161.479	0.116	-0.161
-322.085	-41.460	0.228	-0.116
-321.070	-200.000	-0.033	0.401
-320.056	-14.305	0.269	0.172
-319.041	30.155	-0.226	0.191
-318.026	-44.566	0.189	0.094
-317.012	323.971	0.158	0.300
-315.997	-124.182	-0.503	-0.078
-314.983	-200.000	0.027	0.214
-313.968	-200.000	0.033	-0.168
-312.953	-154.760	0.327	-0.021
-311.939	-200.000	0.262	-0.000
-310.924	800.000	0.039	0.157
-309.910	396.495	-0.177	-0.367
-308.895	692.901	-0.034	0.089
-307.880	-124.219	0.179	0.028
-306.866	-69.575	-0.405	-0.154
-305.851	-200.000	0.048	-0.245
-304.837	-200.000	0.009	0.109
-303.822	-200.000	0.060	-0.281
-302.807	-200.000	-0.001	-0.218
-301.793	330.877	-0.100	-0.192
-300.778	-56.097	-0.178	0.079
-299.764	-42.192	0.206	-0.105
-298.749	634.271	-0.030	-0.076
-297.735	-52.162	0.145	0.067
-296.720	3.063	0.163	0.117
-295.705	-100.939	0.193	-0.047
-294.691	-70.645	-0.246	-0.092
-293.676	131.073	0.209	-0.266
-292.662	216.849	0.180	-0.283
-291.647	654.032	-0.023	-0.059
-290.632	52.344	0.251	0.238
-289.618	-69.297	-0.206	0.078
-288.603	800.000	0.039	0.171
-287.589	-17.147	0.118	0.074
-286.574	-200.000	-0.007	0.169
-285.559	-200.000	-0.070	-0.384
-284.545	140.043	0.279	0.365
-283.530	324.892	0.206	0.389
-282.516	-200.000	0.007	-0.065
-281.501	-178.449	-0.148	0.003
-280.486	-144.343	-0.291	-0.027
-279.472	-190.661	-0.393	-0.004
-278.457	642.415	0.053	0.134
-277.443	-200.000	0.001	0.022
-276.428	-144.421	0.393	-0.036
-275.413	77.308	0.039	-0.041
-274.399	-63.442	-0.299	-0.122
-273.384	-99.975	-0.260	0.064
-272.370	-62.627	0.146	0.060
-271.355	125.579	0.299	0.373
-270.340	388.718	0.038	0.078
-269.326	-94.419	-0.280	-0.076
-268.311	171.587	0.139	-0.198
-267.297	-38.425	-0.204	-0.107
-266.282	44.538	-0.035	-0.032
-265.267	35.702	0.149	0.129
-264.253	-200.000	-0.026	0.294
-263.238	72.387	0.037	0.038
-262.224	800.000	-0.034	-0.117
-261.209	-181.539	-0.231	-0.004
-260.195	239.309	-0.244	-0.403
-259.180	41.635	-0.250	0.225
-258.165	160.674	0.062	-0.086
-257.151	-54.068	-0.108	-0.048
-256.136	10.276	-0.178	0.134
-255.122	-78.279	0.032	-0.011
-254.107	499.053	-0.009	0.021
-253.092	679.609	-0.066	0.171
-252.078	-106.460	0.381	-0.084
-251.063	-66.461	0.028	-0.011
-250.049	-200.000	0.001	0.128
-249.034	-62.829	0.207	0.085
-248.019	53.535	-0.182	0.172
-247.005	-73.380	-0.083	0.030
-245.990	309.882	0.094	-0.174
-244.976	-200.000	0.023	0.174
-243.961	-110.083	0.213	-0.044
-242.946	23.718	-0.072	0.059
-241.932	-84.814	0.020	-0.006
-240.917	-68.134	-0.139	0.053
-239.903	800.000	0.058	0.200
-238.888	110.726	0.128	0.152
-237.873	-127.285	0.324	-0.047
-236.859	354.887	0.179	0.352
-235.844	397.500	-0.078	-0.162
-234.830	-200.000	-0.014	0.089
-233.815	800.000	-0.085	0.239
-232.800	-200.000	0.001	-0.305
-231.786	-63.278	0.262	0.107
-230.771	87.263	-0.103	-0.112
-229.757	160.604	0.111	-0.153
-228.742	98.550	-0.195	-0.223
-227.727	342.636	-0.065	-0.125
-226.713	77.035	-0.253	-0.265
-225.698	-200.000	0.036	-0.253
-224.684	-91.166	-0.272	0.077
-223.669	-85.975	-0.082	0.025
-222.655	412.555	0.084	0.176
-221.640	800.000	-0.060	-0.235
-220.625	-106.438	-0.228	-0.050
-219.611	30.500	0.017	0.015
-218.596	-21.431	-0.332	0.200
-217.582	62.342	0.147	0.145
-216.567	226.107	-0.019	0.031
-215.552	-200.000	-0.033	-0.355
-214.538	-200.000	0.055	0.372
-213.523	-67.452	0.116	0.045
-212.509	-120.085	0.093	0.016
-211.494	-200.000	-0.045	0.256
-210.479	75.322	-0.275	0.287
-209.465	-10.520	0.105	0.069
-208.450	-101.555	0.173	-0.042
-207.436	800.000	-0.044	0.168
-206.421	-153.347	0.414	0.028
-205.406	-200.000	0.040	-0.222
-204.392	-115.342	-0.335	-0.062
-203.377	-15.860	-0.118	0.074
-202.363	-94.859	-0.090	-0.024
-201.348	-132.317	0.163	0.021
-200.333	-96.772	-0.243	0.063
-199.319	265.151	-0.085	-0.147
-198.304	-200.000	0.061	0.000
-197.290	-200.000	0.025	0.487
-196.275	35.522	0.042	-0.037
-195.260	165.483	0.204	-0.285
-194.246	-136.518	-0.223	-0.026
-193.231	-128.158	-0.122	-0.017
-192.217	36.566	-0.193	-0.168
-191.202	-200.000	-0.004	0.210
-190.187	-85.830	0.233	-0.071
-189.173	-81.552	-0.069	-0.022
-188.158	800.000	0.052	-0.186
-187.144	-100.043	0.252	-0.062
-186.129	641.286	0.137	0.344
-185.114	-5.655	0.156	-0.105
-184.100	-68.436	0.113	-0.043
-183.085	800.000	0.073	0.238
-182.071	-73.389	-0.079	0.028
-181.056	800.000	0.059	-0.164
-180.042	-13.648	0.370	-0.236
-179.027	-108.205	0.098	-0.021
-178.012	75.559	0.229	-0.239
-176.998	800.000	-0.039	0.125
-175.983	38.934	0.232	0.205
-174.969	-175.421	-0.280	-0.008
-173.954	36.762	0.048	-0.042
-172.939	98.115	-0.163	0.185
-171.925	280.568	0.101	-0.179
-170.910	137.685	-0.100	0.129
-169.896	-65.513	0.156	0.062
-168.881	-200.000	0.001	0.260
-167.866	-200.000	0.016	0.137
-166.852	581.928	0.131	-0.317
-165.837	-97.793	-0.171	0.044
-164.823	167.867	0.206	0.290
-163.808	-200.000	0.004	0.266
-162.793	-19.523	0.259	-0.158
-161.779	81.988	-0.285	-0.304
-160.764	-33.844	-0.105	0.057
-159.750	-56.034	-0.234	-0.103
-158.735	27.522	-0.121	-0.100
-157.720	-64.071	0.074	-0.030
-156.706	-93.559	-0.116	-0.032
-155.691	-68.434	-0.142	-0.054
-154.677	-95.032	0.208	0.055
-153.662	151.814	0.132	-0.177
-152.647	621.539	-0.063	-0.155
-151.633	-81.264	-0.168	-0.055
-150.618	126.167	0.098	-0.122
-149.604	45.644	-0.185	-0.168
-148.589	269.200	-0.035	0.060
-147.574	779.294	-0.120	0.322
-146.560	-115.047	-0.261	-0.049
-145.545	-200.000	0.044	0.194
-144.531	-58.053	-0.215	-0.093
-143.516	212.083	-0.069	0.107
-142.502	-200.000	-0.018	0.158
-141.487	117.101	0.159	0.192
-140.472	-136.219	-0.315	-0.036
-139.458	21.262	-0.064	-0.051
-138.443	-146.630	-0.125	0.011
-137.429	-162.652	0.125	0.006
-136.414	307.272	-0.032	0.058
-135.399	800.000	0.035	0.141
-134.385	142.869	-0.065	-0.085
-133.370	116.427	-0.201	0.243
-132.356	-30.261	0.147	0.082
-131.341	-66.361	-0.208	-0.082
-130.326	-88.260	0.313	0.092
-129.312	-39.333	0.334	-0.172
-128.297	800.000	0.092	0.279
-127.283	8.117	-0.117	0.087
-126.268	76.628	-0.130	0.136
-125.253	528.178	0.047	0.109
-124.239	-116.238	0.319	0.058
-123.224	-72.654	-0.435	-0.158
-122.210	-33.567	0.196	-0.106
-121.195	-128.011	-0.283	-0.040
