DTS Sentinel unit serial number:	SN413079Multiplexer serial number:	ORYXHardware model number:	OX4-SRSoftware version number:	ORYX F/W v4.00 Oryx Data Collector v3.7.2.0data status	okinstallation	princeton_trtdifferential loss correction	single-endedforward channel	channel 2reverse channel	N/Adate	2019/09/11time	10:37:11forward acquisition time	60.00reverse acquisition time	0.00gamma	496.2192k internal	0.2310k external	0.2310temperature offset calibration	0.9967default loss term (dB/km)	0.3790temperature slope calibration	1.0000multiplexer offset coefficient	1.0000multiplexer slope coefficient	1.0000fibre end	0.00T internal ref (°C)	36.56T ext. ref 1 (°C)	0.14T ext. ref 2 (°C)	33.92length (m)	temperature (°C)	Stokes	anti-Stokes-747.200	416.596	-0.056	-0.121
-746.185	-200.000	-0.072	0.356
-745.171	-200.000	-0.069	0.324
-744.156	-40.421	0.204	0.108
-743.142	-67.418	-0.190	-0.076
-742.127	-80.038	-0.477	0.163
-741.112	36.519	0.100	-0.090
-740.098	167.097	-0.154	0.221
-739.083	-200.000	0.032	0.163
-738.069	-200.000	-0.006	0.175
-737.054	374.078	-0.076	-0.157
-736.039	800.000	-0.036	0.148
-735.025	800.000	-0.041	0.123
-734.010	156.164	0.026	0.037
-732.996	-117.676	-0.288	-0.053
-731.981	207.669	-0.174	0.276
-730.966	105.714	-0.160	-0.192
-729.952	-28.059	-0.423	0.249
-728.937	800.000	0.122	-0.359
-727.923	-117.422	-0.329	-0.061
-726.908	800.000	-0.091	-0.267
-725.894	-200.000	-0.018	0.153
-724.879	336.455	0.093	0.184
-723.864	-200.000	-0.012	0.270
-722.850	-50.838	0.113	0.054
-721.835	450.126	0.099	-0.222
-720.821	-96.827	-0.230	-0.061
-719.806	458.641	-0.085	-0.193
-718.791	379.990	-0.067	-0.140
-717.777	618.326	0.080	-0.204
-716.762	800.000	-0.081	-0.269
-715.748	80.542	-0.323	-0.353
-714.733	322.651	0.039	-0.075
-713.718	-200.000	-0.009	0.135
-712.704	2.715	-0.142	-0.104
-711.689	-19.797	0.224	-0.140
-710.675	45.153	-0.057	0.053
-709.660	197.797	0.085	0.132
-708.645	-200.000	-0.048	0.238
-707.631	321.061	0.095	0.184
-706.616	800.000	0.030	-0.084
-705.602	800.000	0.074	0.252
-704.587	-89.361	0.210	0.063
-703.572	-22.633	-0.152	-0.093
-702.558	186.115	-0.026	0.039
-701.543	-79.065	-0.270	-0.093
-700.529	123.070	-0.155	0.197
-699.514	-151.157	0.191	0.015
-698.499	447.197	0.065	-0.144
-697.485	-200.000	0.039	-0.336
-696.470	64.964	-0.077	-0.079
-695.456	29.858	0.193	0.167
-694.441	-8.210	-0.274	-0.187
-693.426	-0.945	0.164	-0.117
-692.412	-69.498	0.115	0.045
-691.397	143.234	0.048	0.064
-690.383	-129.078	-0.632	0.090
-689.368	-15.208	0.378	-0.245
-688.354	73.367	0.229	-0.242
-687.339	154.748	-0.084	-0.116
-686.324	-144.337	0.283	-0.027
-685.310	-181.627	-0.143	0.003
-684.295	153.152	0.069	-0.095
-683.281	563.575	-0.015	0.036
-682.266	10.665	-0.274	-0.211
-681.251	307.734	-0.193	-0.364
-680.237	-65.930	-0.187	0.076
-679.222	127.410	-0.138	-0.177
-678.208	-200.000	-0.033	0.254
-677.193	52.729	0.110	0.107
-676.178	11.615	-0.110	0.085
-675.164	140.666	-0.165	-0.220
-674.149	12.765	0.102	0.080
-673.135	-85.320	-0.127	0.040
-672.120	-146.559	-0.205	-0.018
-671.105	-97.912	0.360	-0.094
-670.091	447.944	0.105	0.234
-669.076	-45.408	0.195	-0.098
-668.062	41.042	-0.207	-0.189
-667.047	-200.000	0.021	0.376
-666.032	522.094	0.081	-0.193
-665.018	216.026	-0.140	-0.225
-664.003	81.285	0.206	-0.225
-662.989	-82.227	-0.370	-0.122
-661.974	795.452	0.089	0.248
-660.959	-76.833	0.177	-0.063
-659.945	-200.000	0.026	-0.234
-658.930	20.393	-0.366	-0.299
-657.916	-54.729	0.067	-0.030
-656.901	-113.712	0.334	0.066
-655.886	29.157	-0.287	-0.246
-654.872	-40.838	-0.175	-0.092
-653.857	-16.495	-0.040	0.026
-652.843	-60.387	0.167	-0.072
-651.828	28.847	-0.041	-0.035
-650.814	98.659	-0.063	0.073
-649.799	-64.771	0.261	0.107
-648.784	22.430	0.293	-0.242
-647.770	231.278	0.120	-0.199
-646.755	287.328	-0.147	-0.270
-645.741	-61.276	0.028	0.012
-644.726	200.771	-0.092	-0.142
-643.711	-56.337	0.043	-0.019
-642.697	800.000	0.081	-0.245
-641.682	-116.660	0.382	-0.071
-640.668	-80.980	-0.319	-0.107
-639.653	532.867	0.105	-0.252
-638.638	-200.000	0.091	-0.519
-637.624	10.511	-0.466	-0.359
-636.609	604.506	-0.154	0.388
-635.595	-200.000	-0.052	0.349
-634.580	339.637	-0.049	0.097
-633.565	-53.062	-0.251	-0.117
-632.551	800.000	0.020	-0.082
-631.536	-90.501	-0.205	0.060
-630.522	89.500	-0.167	0.188
-629.507	-131.928	0.258	0.034
-628.492	-165.977	0.158	0.007
-627.478	800.000	0.030	0.091
-626.463	-200.000	-0.059	-0.265
-625.449	-60.670	-0.403	-0.173
-624.434	-18.357	0.229	-0.145
-623.419	106.052	0.052	0.062
-622.405	47.519	-0.137	0.129
-621.390	578.651	0.067	0.166
-620.376	800.000	0.057	-0.225
-619.361	-200.000	0.035	-0.273
-618.346	52.553	-0.107	0.103
-617.332	175.324	-0.202	0.295
-616.317	-57.245	0.064	-0.028
-615.303	698.832	-0.034	0.089
-614.288	-45.504	-0.089	0.045
-613.273	-65.859	0.151	0.061
-612.259	-64.369	-0.377	-0.155
-611.244	157.191	0.134	0.188
-610.230	0.492	0.196	0.142
-609.215	105.379	0.141	-0.169
-608.201	271.973	0.214	-0.382
-607.186	46.274	0.281	-0.263
-606.171	150.260	0.247	-0.338
-605.157	1.467	0.086	-0.062
-604.142	-83.616	0.199	-0.064
-603.128	10.678	0.201	-0.155
-602.113	-200.000	-0.026	-0.277
-601.098	-112.421	0.227	0.046
-600.084	-29.535	0.279	-0.161
-599.069	108.090	-0.094	-0.113
-598.055	73.708	0.243	-0.258
-597.040	763.772	-0.078	-0.214
-596.025	166.511	0.222	0.317
-595.011	282.061	-0.079	0.143
-593.996	-49.682	0.216	0.104
-592.982	45.088	0.094	0.087
-591.967	-200.000	-0.018	-0.086
-590.952	-7.194	0.069	0.047
-589.938	-66.943	-0.150	0.060
-588.923	800.000	0.148	-0.420
-587.909	-200.000	-0.033	-0.388
-586.894	52.076	-0.065	-0.062
-585.879	-117.123	-0.502	0.092
-584.865	800.000	-0.081	-0.257
-583.850	401.107	-0.126	-0.268
-582.836	231.700	0.021	0.035
-581.821	-139.882	-0.032	-0.003
-580.806	175.129	0.058	0.085
-579.792	-85.661	-0.048	0.015
-578.777	7.559	0.218	-0.164
-577.763	-9.712	0.193	0.130
-576.748	-200.000	-0.031	0.203
-575.733	54.815	0.173	0.168
-574.719	800.000	-0.041	0.170
-573.704	-200.000	-0.006	0.235
-572.690	-29.219	-0.097	-0.056
-571.675	-200.000	0.013	0.165
-570.661	-200.000	0.039	-0.398
-569.646	-200.000	0.006	0.270
-568.631	800.000	-0.083	0.261
-567.617	-91.481	-0.216	0.062
-566.602	-49.358	0.291	0.140
-565.588	205.872	-0.254	0.398
-564.573	-49.899	-0.130	0.062
-563.558	-200.000	-0.004	-0.093
-562.544	34.565	-0.092	0.081
-561.529	92.844	0.213	0.243
-560.515	-140.972	0.078	0.008
-559.500	102.470	-0.215	-0.253
-558.485	800.000	0.013	0.040
-557.471	-60.600	0.132	0.057
-556.456	-131.976	-0.477	-0.063
-555.442	800.000	0.062	-0.216
-554.427	237.314	0.093	-0.156
-553.412	213.445	0.090	0.143
-552.398	-69.739	0.132	0.051
-551.383	-170.111	-0.303	-0.011
-550.369	20.136	0.212	-0.172
-549.354	-111.621	0.220	0.045
-548.339	800.000	0.104	0.290
-547.325	224.274	-0.079	0.128
-546.310	-69.594	-0.271	-0.104
-545.296	-37.237	-0.083	0.045
-544.281	800.000	-0.112	0.379
-543.266	-200.000	0.013	-0.106
-542.252	8.155	0.205	-0.155
-541.237	-126.148	-0.223	0.034
-540.223	-8.922	0.208	-0.140
-539.208	259.049	0.027	-0.047
-538.193	-200.000	0.022	0.109
-537.179	-25.666	-0.177	0.105
-536.164	1.050	-0.287	0.208
-535.150	-200.000	-0.003	0.104
-534.135	125.895	0.073	0.093
-533.121	218.212	0.114	0.183
-532.106	27.067	0.052	-0.044
-531.091	-81.503	0.025	0.008
-530.077	244.318	-0.088	0.148
-529.062	-148.397	0.102	-0.008
-528.048	187.429	0.061	0.092
-527.033	57.129	-0.060	0.059
-526.018	480.268	-0.086	-0.197
-525.004	-200.000	0.022	-0.125
-523.989	566.413	-0.046	-0.112
-522.975	308.068	0.089	0.166
-521.960	204.102	0.052	0.081
-520.945	91.860	-0.183	0.207
-519.931	-11.054	-0.166	0.110
-518.916	439.606	0.061	-0.134
-517.902	-131.934	-0.099	0.013
-516.887	474.552	0.134	0.304
-515.872	196.013	-0.070	0.108
-514.858	16.640	-0.325	-0.259
-513.843	357.254	-0.144	0.289
-512.829	-43.370	0.122	-0.062
-511.814	85.808	0.029	-0.032
-510.799	-65.776	-0.033	0.013
-509.785	-120.616	-0.221	-0.038
-508.770	-101.801	-0.504	0.123
-507.756	106.901	-0.149	-0.178
-506.741	-92.644	0.105	-0.030
-505.726	800.000	-0.099	0.421
-504.712	726.370	-0.120	-0.322
-503.697	-27.649	-0.141	0.082
-502.683	-133.288	0.098	-0.012
-501.668	232.365	0.183	-0.303
-500.653	-200.000	0.026	-0.157
-499.639	-82.623	-0.167	0.054
-498.624	-100.148	0.368	0.092
-497.610	800.000	-0.081	-0.268
-496.595	-4.995	0.281	-0.194
-495.581	-200.000	-0.028	0.164
-494.566	20.632	-0.247	-0.201
-493.551	57.885	-0.156	-0.153
-492.537	-200.000	0.006	0.136
-491.522	23.585	0.347	-0.287
-490.508	-200.000	-0.213	-0.001
-489.493	-200.000	0.286	-0.000
-488.478	235.765	-0.221	0.367
-487.464	131.918	0.134	0.173
-486.449	-200.000	0.020	0.315
-485.435	-131.090	0.245	-0.033
-484.420	202.642	-0.230	-0.356
-483.405	262.218	0.070	0.123
-482.391	-152.261	0.420	0.031
-481.376	-200.000	0.001	0.106
-480.362	-133.613	0.128	-0.016
-479.347	800.000	0.028	-0.101
-478.332	206.309	-0.147	0.230
-477.318	303.929	0.091	0.170
-476.303	-126.829	0.086	-0.013
-475.289	-75.846	0.336	-0.120
-474.274	800.000	-0.091	-0.400
-473.259	109.997	0.142	-0.171
-472.245	-60.331	-0.089	-0.038
-471.230	-126.666	-0.461	0.069
-470.216	-200.000	0.010	-0.103
-469.201	-133.749	-0.060	0.007
-468.186	-10.393	-0.114	0.076
-467.172	65.619	-0.217	-0.221
-466.157	-200.000	0.021	-0.350
-465.143	9.461	0.128	0.097
-464.128	-104.437	-0.345	-0.080
-463.113	287.119	-0.101	-0.183
-462.099	-200.000	0.025	-0.146
-461.084	155.134	0.330	-0.456
-460.070	-200.000	-0.021	0.122
-459.055	272.259	0.104	-0.184
-458.040	-84.545	-0.322	0.102
-457.026	343.395	0.058	-0.113
-456.011	-200.000	0.051	-0.294
-454.997	246.853	-0.034	-0.058
-453.982	-200.000	0.070	0.368
-452.968	60.261	-0.106	0.105
-451.953	-200.000	0.002	-0.172
-450.938	0.443	0.242	-0.174
-449.924	-48.447	0.098	0.047
-448.909	-200.000	0.026	-0.174
-447.895	523.737	-0.103	-0.244
-446.880	142.285	-0.298	0.397
-445.865	194.968	-0.127	0.193
-444.851	-32.691	-0.341	0.190
-443.836	567.738	-0.080	-0.196
-442.822	420.209	0.106	0.228
-441.807	-155.176	-0.199	-0.013
-440.792	-127.457	-0.190	-0.028
-439.778	-91.822	0.397	-0.113
-438.763	-200.000	-0.040	-0.261
-437.749	31.457	0.310	0.267
-436.734	214.506	0.172	-0.273
-435.719	-2.436	-0.099	-0.070
-434.705	-200.000	-0.043	0.215
-433.690	74.502	0.177	-0.187
-432.676	471.708	-0.031	0.070
-431.661	-90.038	-0.374	-0.109
-430.646	22.299	0.320	0.262
-429.632	-200.000	0.039	0.358
-428.617	-67.336	-0.071	-0.028
-427.603	119.258	-0.241	0.299
-426.588	-166.062	-0.130	0.006
-425.573	-122.060	-0.302	0.050
-424.559	215.942	0.172	-0.274
-423.544	-134.589	-0.233	-0.028
-422.530	-200.000	-0.250	-0.000
-421.515	789.388	-0.057	0.156
-420.500	-200.000	-0.025	-0.182
-419.486	-165.850	-0.382	-0.016
-418.471	-42.363	-0.283	0.145
-417.457	-200.000	-0.002	-0.077
-416.442	41.230	0.114	0.104
-415.428	794.726	0.025	-0.069
-414.413	102.167	-0.073	-0.086
-413.398	-153.895	-0.052	0.004
-412.384	-101.585	0.218	0.053
-411.369	-28.375	0.193	-0.112
-410.355	-148.918	0.067	-0.005
-409.340	-93.022	-0.207	0.058
-408.325	771.941	-0.183	-0.501
-407.311	-122.684	0.449	0.073
-406.296	800.000	-0.057	-0.190
-405.282	421.247	0.027	0.059
-404.267	-95.445	0.331	0.089
-403.252	42.126	-0.145	-0.132
-402.238	250.329	0.118	-0.200
-401.223	-145.543	-0.421	-0.038
-400.209	-81.415	-0.238	0.079
-399.194	96.702	0.052	-0.059
-398.179	-143.553	0.211	-0.020
-397.165	800.000	-0.118	-0.377
-396.150	348.919	-0.211	-0.416
-395.136	82.533	0.263	0.286
-394.121	438.079	-0.124	0.270
-393.106	279.483	0.066	0.117
-392.092	-195.047	-0.318	0.002
-391.077	-200.000	-0.024	-0.196
-390.063	-200.000	-0.051	-0.364
-389.048	166.183	-0.225	-0.319
-388.033	-123.400	-0.097	-0.016
-387.019	800.000	-0.086	0.289
-386.004	-68.984	0.069	-0.026
-384.990	-200.000	0.042	0.199
-383.975	410.886	0.100	-0.212
-382.960	-86.414	0.160	0.049
-381.946	800.000	0.065	0.263
-380.931	-31.726	-0.250	-0.140
-379.917	-136.999	-0.269	-0.031
-378.902	-24.592	-0.161	0.096
-377.888	451.198	0.030	-0.066
-376.873	-163.671	0.139	-0.007
-375.858	93.029	0.194	0.220
-374.844	376.777	-0.199	-0.406
-373.829	-143.112	-0.110	0.011
-372.815	-200.000	0.001	0.131
-371.800	-91.016	-0.046	0.013
-370.785	74.683	0.141	0.148
-369.771	-155.382	-0.225	-0.015
-368.756	-161.209	0.208	0.011
-367.742	800.000	-0.042	-0.118
-366.727	11.479	0.165	-0.126
-365.712	149.711	0.134	-0.182
-364.698	24.690	0.089	0.074
-363.683	-0.401	-0.274	0.195
-362.669	-200.000	0.018	-0.220
-361.654	-200.000	-0.040	-0.365
-360.639	-126.695	0.257	0.038
-359.625	-33.072	-0.545	-0.303
-358.610	-45.322	0.445	-0.221
-357.596	-34.107	0.054	0.030
-356.581	417.807	0.031	0.066
-355.566	204.667	-0.149	0.231
-354.552	382.597	0.110	-0.226
-353.537	-200.000	0.035	0.210
-352.523	-200.000	-0.041	0.304
-351.508	-99.099	0.243	0.061
-350.493	800.000	0.022	0.090
-349.479	-200.000	0.011	0.156
-348.464	70.531	0.158	0.163
-347.450	94.958	0.230	0.262
-346.435	-200.000	0.042	0.245
-345.420	-200.000	0.067	0.344
-344.406	-66.557	-0.245	-0.097
-343.391	126.363	0.120	-0.152
-342.377	800.000	0.079	-0.221
-341.362	-155.886	0.127	0.008
-340.348	-145.318	0.040	-0.004
-339.333	155.372	-0.091	-0.125
-338.318	800.000	-0.053	0.177
-337.304	-82.715	-0.344	0.111
-336.289	108.913	-0.119	-0.143
-335.275	-35.272	-0.215	-0.117
-334.260	156.349	-0.168	-0.232
-333.245	315.123	0.070	-0.131
-332.231	75.700	0.171	-0.181
-331.216	-94.104	0.244	-0.067
-330.202	282.653	0.211	0.378
-329.187	800.000	0.064	-0.215
-328.172	-96.436	-0.209	0.055
-327.158	37.484	-0.065	0.058
-326.143	800.000	-0.059	0.244
-325.129	376.914	0.093	0.189
-324.114	-92.820	0.427	-0.119
-323.099	383.800	0.150	0.309
-322.085	-10.205	-0.173	0.114
-321.070	149.096	-0.027	0.037
-320.056	-129.135	0.071	-0.010
-319.041	-93.936	0.270	-0.074
-318.026	-48.866	0.170	-0.082
-317.012	-200.000	0.001	0.081
-315.997	-200.000	0.041	0.250
-314.983	453.579	-0.161	0.356
-313.968	-200.000	-0.033	0.166
-312.953	307.034	-0.031	0.058
-311.939	328.991	0.127	0.244
-310.924	-200.000	0.018	0.109
-309.910	-54.530	0.112	-0.051
-308.895	66.207	-0.243	-0.247
-307.880	-83.496	-0.303	0.097
-306.866	-148.639	0.074	-0.006
-305.851	65.589	-0.178	-0.179
-304.837	-162.331	0.145	-0.007
-303.822	800.000	0.072	0.200
-302.807	402.621	0.176	0.370
-301.793	-30.229	0.275	-0.156
-300.778	-147.402	0.122	-0.010
-299.764	141.804	-0.119	0.157
-298.749	66.830	0.308	-0.313
-297.735	186.268	0.075	0.111
-296.720	-181.997	0.177	-0.003
-295.705	6.605	0.301	-0.224
-294.691	279.492	-0.074	-0.132
-293.676	89.468	0.183	0.204
-292.662	-179.303	0.407	-0.009
-291.647	27.120	0.170	0.143
-290.632	-47.583	-0.212	0.103
-289.618	-200.000	-0.030	0.151
-288.603	-95.630	-0.196	0.052
-287.589	-40.536	0.140	-0.072
-286.574	-155.332	0.234	0.015
-285.559	206.774	-0.040	0.062
-284.545	-200.000	-0.008	-0.129
-283.530	-200.000	-0.017	0.268
-282.516	-67.109	-0.265	-0.104
-281.501	-34.624	0.423	-0.231
-280.486	-30.316	0.159	-0.090
-279.472	-10.974	-0.240	0.158
-278.457	-93.124	0.233	-0.065
-277.443	-143.527	-0.117	-0.011
-276.428	288.521	0.021	0.037
-275.413	156.218	-0.178	-0.245
-274.399	451.873	0.071	-0.156
-273.384	-148.685	0.342	-0.028
-272.370	-200.000	0.023	0.151
-271.355	275.297	-0.113	-0.200
-270.340	800.000	-0.119	0.331
-269.326	800.000	0.013	0.047
-268.311	123.623	-0.237	-0.296
-267.297	-200.000	0.020	-0.180
-266.282	-200.000	-0.020	0.441
-265.267	20.732	0.044	0.036
-264.253	-126.644	-0.453	-0.067
-263.238	-19.370	0.164	0.101
-262.224	106.827	-0.029	-0.035
-261.209	-4.446	0.161	0.111
-260.195	-76.553	-0.089	0.031
-259.180	586.099	0.079	0.195
-258.165	-74.537	0.072	0.026
-257.151	409.128	-0.159	0.336
-256.136	-200.000	-0.014	0.123
-255.122	-67.586	0.041	0.016
-254.107	252.123	0.105	-0.178
-253.092	284.216	-0.070	0.126
-252.078	306.743	-0.165	-0.305
-251.063	-73.520	-0.045	0.016
-250.049	289.661	0.079	0.143
-249.034	269.937	-0.069	0.120
-248.019	44.369	0.114	-0.105
-247.005	-14.200	-0.404	0.260
-245.990	-129.085	0.020	-0.003
-244.976	209.549	-0.129	0.202
-243.961	-43.924	0.200	0.100
-242.946	77.305	-0.113	-0.120
-241.932	-61.546	0.336	-0.141
-240.917	98.141	0.189	0.216
-239.903	155.674	-0.133	0.183
-238.888	125.894	0.013	0.016
-237.873	142.582	0.145	0.192
-236.859	-6.112	-0.149	-0.101
-235.844	-200.000	-0.009	0.339
-234.830	-97.959	0.219	0.056
-233.815	-115.129	0.225	-0.043
-232.800	800.000	-0.124	0.445
-231.786	91.534	0.109	0.121
-230.771	-200.000	0.019	0.324
-229.757	174.623	0.208	0.299
-228.742	-155.351	0.133	0.009
-227.727	-151.452	0.366	0.027
-226.713	-73.714	-0.175	-0.063
-225.698	-189.027	-0.442	-0.005
-224.684	93.068	0.132	0.149
-223.669	-17.495	0.478	0.299
-222.655	228.549	-0.127	-0.207
-221.640	-80.331	-0.373	-0.124
-220.625	-20.166	0.061	-0.038
-219.611	50.080	-0.107	0.100
-218.596	298.688	0.104	0.190
-217.582	-113.412	0.161	0.031
-216.567	-200.000	-0.007	-0.242
-215.552	-90.348	0.067	0.019
-214.538	-8.232	-0.039	0.026
-213.523	-108.402	0.153	0.033
-212.509	800.000	-0.051	0.211
-211.494	-176.460	-0.198	0.005
-210.479	-16.083	0.242	-0.153
-209.465	-200.000	0.046	-0.226
-208.450	-16.462	-0.201	-0.127
-207.436	-24.413	-0.201	0.119
-206.421	-65.753	0.148	-0.059
-205.406	-74.206	-0.307	-0.110
-204.392	-57.603	0.143	0.062
-203.377	86.211	-0.141	-0.154
-202.363	800.000	-0.142	-0.407
-201.348	99.158	0.172	-0.198
-200.333	389.943	0.132	0.273
-199.319	800.000	-0.039	0.122
-198.304	328.855	0.138	-0.263
-197.290	-62.676	-0.315	0.130
-196.275	800.000	-0.064	-0.205
-195.260	-47.772	-0.138	-0.067
-194.246	-200.000	0.009	0.159
-193.231	-82.687	0.322	-0.104
-192.217	-200.000	0.027	0.210
-191.202	81.270	-0.089	0.095
-190.187	800.000	-0.073	0.219
-189.173	-183.250	0.065	-0.001
-188.158	209.384	-0.091	-0.141
-187.144	800.000	0.096	0.306
-186.129	-88.550	0.096	-0.028
-185.114	-107.675	0.229	-0.050
-184.100	-52.562	0.574	-0.264
-183.085	137.603	0.117	-0.152
-182.071	298.493	-0.062	-0.113
-181.056	-141.393	-0.391	-0.039
-180.042	322.553	-0.141	-0.266
-179.027	-106.157	0.144	-0.032
-178.012	800.000	0.038	0.117
-176.998	-191.953	-0.098	0.001
-175.983	-107.033	0.352	0.077
-174.969	800.000	-0.073	0.259
-173.954	70.262	-0.201	-0.206
-172.939	-150.682	-0.185	0.014
-171.925	-200.000	0.020	-0.382
-170.910	337.184	-0.059	-0.114
-169.896	800.000	-0.095	-0.334
-168.881	-125.536	-0.160	0.024
-167.866	-200.000	-0.010	0.134
-166.852	-56.574	-0.044	0.019
-165.837	168.566	-0.031	-0.043
-164.823	246.775	0.091	0.152
-163.808	258.490	-0.090	-0.154
-162.793	-104.195	-0.455	-0.105
-161.779	-133.537	0.137	0.017
-160.764	-81.646	-0.187	0.061
-159.750	-57.174	0.170	-0.074
-158.735	-200.000	-0.005	0.043
-157.720	-31.085	-0.260	0.145
-156.706	299.290	0.121	0.221
-155.691	-52.899	-0.341	0.156
-154.677	-11.667	0.061	-0.040
-153.662	29.578	0.174	0.147
-152.647	-200.000	0.011	0.169
-151.633	150.882	-0.234	0.316
-150.618	41.718	-0.294	0.264
-149.604	201.527	0.131	-0.200
-148.589	-200.000	0.009	-0.074
-147.574	800.000	0.020	0.082
-146.560	-200.000	-0.002	0.110
-145.545	-29.966	-0.030	0.017
-144.531	800.000	-0.025	-0.091
-143.516	-144.084	0.034	-0.003
-142.502	117.581	-0.104	-0.127
-141.487	-200.000	-0.034	-0.167
-140.472	451.590	0.048	-0.104
-139.458	-106.025	-0.181	0.040
-138.443	-184.434	-0.123	0.002
-137.429	-150.697	-0.141	0.011
-136.414	387.576	-0.058	0.119
-135.399	470.711	0.038	-0.084
-134.385	306.901	-0.077	0.142
-133.370	-200.000	0.086	0.412
-132.356	512.849	0.073	-0.169
-131.341	-142.812	0.109	-0.011
-130.326	2.809	0.401	0.288
-129.312	-200.000	0.007	0.184
-128.297	-200.000	0.000	0.484
-127.283	-98.341	-0.094	0.024
-126.268	99.436	0.204	0.234
-125.253	183.715	0.107	0.157
-124.239	-200.000	-0.043	0.568
-123.224	-200.000	-0.033	0.332
-122.210	-200.000	-0.046	0.478
-121.195	-200.000	-0.010	0.119
