DTS Sentinel unit serial number:	SN413079Multiplexer serial number:	ORYXHardware model number:	OX4-SRSoftware version number:	ORYX F/W v4.00 Oryx Data Collector v3.7.2.0data status	okinstallation	princeton_trtdifferential loss correction	single-endedforward channel	channel 2reverse channel	N/Adate	2019/09/12time	07:13:11forward acquisition time	60.00reverse acquisition time	0.00gamma	496.2192k internal	0.2323k external	0.2323temperature offset calibration	1.0064default loss term (dB/km)	0.3790temperature slope calibration	1.0000multiplexer offset coefficient	1.0000multiplexer slope coefficient	1.0000fibre end	0.00T internal ref (°C)	32.20T ext. ref 1 (°C)	1.59T ext. ref 2 (°C)	28.13length (m)	temperature (°C)	Stokes	anti-Stokes-747.200	-200.000	0.042	-0.285
-746.185	111.518	0.149	0.181
-745.171	-200.000	0.010	-0.337
-744.156	78.473	0.219	0.237
-743.142	-33.090	0.147	-0.082
-742.127	-87.572	-0.353	0.108
-741.112	-57.393	-0.326	0.145
-740.098	381.235	-0.178	0.370
-739.083	84.729	0.303	-0.335
-738.069	800.000	-0.092	0.375
-737.054	-200.000	-0.004	-0.114
-736.039	800.000	0.019	-0.052
-735.025	-87.899	-0.095	0.029
-734.010	-113.231	0.217	-0.043
-732.996	-200.000	0.014	0.111
-731.981	-155.769	-0.029	-0.002
-730.966	-15.440	0.187	-0.120
-729.952	-122.328	-0.155	-0.025
-728.937	103.186	0.139	-0.165
-727.923	101.863	-0.124	-0.146
-726.908	28.129	0.138	0.118
-725.894	101.782	-0.229	-0.269
-724.879	120.724	0.187	-0.235
-723.864	-11.090	-0.268	-0.178
-722.850	21.467	0.251	0.206
-721.835	-200.000	0.014	-0.116
-720.821	-58.952	-0.159	-0.069
-719.806	125.447	-0.133	-0.169
-718.791	52.283	0.190	-0.183
-717.777	774.759	0.070	0.191
-716.762	-83.491	0.189	0.061
-715.748	-104.521	0.160	-0.037
-714.733	187.299	0.127	-0.191
-713.718	673.246	-0.090	-0.236
-712.704	-172.720	-0.346	0.011
-711.689	-200.000	0.054	-0.299
-710.675	80.292	0.039	-0.043
-709.660	-200.000	0.014	0.179
-708.645	-120.570	-0.110	0.019
-707.631	350.329	-0.072	-0.144
-706.616	-200.000	0.007	-0.247
-705.602	-77.723	0.046	-0.016
-704.587	65.193	-0.125	-0.128
-703.572	-200.000	0.009	-0.056
-702.558	-200.000	0.014	0.115
-701.543	800.000	-0.023	-0.099
-700.529	535.446	-0.081	0.195
-699.514	-94.243	0.173	0.048
-698.499	734.610	0.097	0.262
-697.485	-200.000	0.002	0.127
-696.470	800.000	-0.137	0.445
-695.456	60.674	0.182	0.182
-694.441	-11.462	-0.099	-0.065
-693.426	311.152	-0.238	-0.449
-692.412	-159.764	0.359	-0.020
-691.397	-41.438	0.123	0.064
-690.383	-134.411	-0.081	0.010
-689.368	-128.006	-0.076	-0.011
-688.354	-20.200	-0.142	-0.088
-687.339	149.347	-0.097	0.133
-686.324	-143.917	0.151	-0.014
-685.310	50.116	0.196	0.186
-684.295	-200.000	-0.027	0.269
-683.281	-51.738	0.288	0.135
-682.266	-57.636	-0.116	0.051
-681.251	-28.202	-0.091	0.053
-680.237	-200.000	0.008	-0.326
-679.222	-52.894	-0.100	-0.047
-678.208	-200.000	0.008	-0.093
-677.193	663.946	-0.021	-0.054
-676.178	361.273	-0.197	0.398
-675.164	-16.084	0.024	-0.016
-674.149	-200.000	0.062	0.320
-673.135	-200.000	-0.036	0.707
-672.120	-127.802	-0.328	-0.048
-671.105	-200.000	-0.017	0.175
-670.091	121.295	0.320	0.401
-669.076	48.759	-0.177	0.167
-668.062	599.456	0.060	0.150
-667.047	1.713	-0.232	-0.168
-666.032	155.695	0.117	0.162
-665.018	-200.000	-0.032	-0.156
-664.003	477.154	0.126	0.286
-662.989	-43.861	0.103	0.052
-661.974	-153.303	-0.321	0.023
-660.959	67.520	0.147	-0.151
-659.945	-25.992	0.175	0.104
-658.930	121.378	-0.020	0.025
-657.916	-45.275	0.242	-0.121
-656.901	-126.746	-0.373	0.055
-655.886	89.767	-0.127	-0.142
-654.872	700.826	0.166	-0.439
-653.857	-152.427	0.465	-0.034
-652.843	-115.762	-0.322	0.061
-651.828	-199.162	-0.256	-0.001
-650.814	279.452	-0.064	0.115
-649.799	-126.511	-0.265	-0.040
-648.784	-61.040	0.200	-0.085
-647.770	-18.813	-0.176	0.110
-646.755	229.984	-0.147	-0.242
-645.741	-139.670	0.257	-0.028
-644.726	-36.071	0.126	-0.069
-643.711	82.614	-0.096	0.104
-642.697	-181.619	-0.058	0.001
-641.682	-2.944	-0.108	-0.076
-640.668	-65.863	-0.272	0.110
-639.653	54.794	0.108	-0.104
-638.638	-200.000	0.011	-0.299
-637.624	242.221	-0.137	-0.231
-636.609	-45.936	0.208	0.103
-635.595	15.998	-0.052	0.042
-634.580	-200.000	0.017	0.078
-633.565	800.000	0.068	-0.190
-632.551	-20.048	-0.140	0.087
-631.536	-200.000	0.017	-0.281
-630.522	155.620	-0.217	0.300
-629.507	-200.000	0.011	0.122
-628.492	524.525	0.090	-0.213
-627.478	-200.000	-0.057	-0.412
-626.463	128.476	-0.067	-0.086
-625.449	800.000	0.073	0.245
-624.434	800.000	0.110	0.358
-623.419	56.542	0.433	-0.423
-622.405	6.100	-0.024	0.018
-621.390	4.554	0.221	0.163
-620.376	316.313	-0.181	-0.344
-619.361	256.688	0.115	-0.199
-618.346	195.336	0.259	-0.396
-617.332	107.047	0.048	-0.057
-616.317	-200.000	0.010	0.180
-615.303	800.000	0.028	-0.105
-614.288	-93.365	-0.234	0.065
-613.273	800.000	-0.053	-0.171
-612.259	-200.000	-0.045	0.233
-611.244	-3.692	0.183	-0.127
-610.230	-200.000	-0.089	-0.419
-609.215	-78.146	-0.113	-0.039
-608.201	448.761	0.027	-0.059
-607.186	-31.921	0.236	-0.133
-606.171	112.901	-0.275	0.335
-605.157	-200.000	0.023	-0.303
-604.142	800.000	0.086	0.256
-603.128	101.515	0.024	0.028
-602.113	609.339	0.075	0.188
-601.098	-59.455	-0.083	0.036
-600.084	247.562	0.154	-0.262
-599.069	24.251	0.343	-0.285
-598.055	800.000	-0.061	-0.175
-597.040	-165.415	0.126	-0.006
-596.025	39.721	-0.251	-0.226
-595.011	25.790	0.096	-0.080
-593.996	800.000	-0.037	0.134
-592.982	312.140	-0.131	-0.246
-591.967	-200.000	0.498	-0.002
-590.952	36.959	-0.165	0.146
-589.938	-112.772	-0.129	0.026
-588.923	-99.823	-0.170	-0.043
-587.909	-47.464	0.276	-0.135
-586.894	-133.800	-0.185	-0.023
-585.879	-92.038	-0.380	-0.108
-584.865	133.266	0.187	-0.243
-583.850	162.207	-0.069	0.096
-582.836	111.724	-0.165	-0.200
-581.821	2.470	0.191	-0.139
-580.806	325.375	0.161	-0.309
-579.792	-182.233	-0.114	-0.002
-578.777	-163.086	-0.188	-0.009
-577.763	-49.589	-0.317	0.151
-576.748	237.240	0.096	-0.160
-575.733	800.000	0.122	0.342
-574.719	-35.451	0.234	-0.128
-573.704	-133.134	-0.397	-0.050
-572.690	-143.961	0.226	0.021
-571.675	-200.000	-0.040	0.200
-570.661	699.724	0.102	-0.268
-569.646	-108.552	-0.225	0.048
-568.631	-200.000	-0.022	0.157
-567.617	-75.774	0.094	-0.033
-566.602	114.012	-0.176	0.214
-565.588	-152.402	-0.359	-0.026
-564.573	302.533	0.179	0.331
-563.558	-19.913	0.211	-0.131
-562.544	-19.019	-0.253	0.158
-561.529	47.366	0.121	0.113
-560.515	57.474	0.147	-0.144
-559.500	244.927	0.044	-0.074
-558.485	-200.000	-0.023	0.266
-557.471	150.260	-0.135	0.184
-556.456	800.000	0.068	-0.210
-555.442	-200.000	0.007	0.142
-554.427	-200.000	0.007	-0.141
-553.412	-200.000	-0.009	-0.096
-552.398	-89.783	-0.225	0.066
-551.383	-200.000	0.023	-0.159
-550.369	800.000	-0.049	-0.138
-549.354	-191.795	-0.278	-0.003
-548.339	105.214	0.255	-0.302
-547.325	189.941	-0.068	-0.103
-546.310	263.501	0.112	0.195
-545.296	394.484	-0.020	0.042
-544.281	-200.000	0.024	0.140
-543.266	800.000	0.029	0.110
-542.252	-154.908	0.367	-0.024
-541.237	-200.000	0.023	-0.177
-540.223	-200.000	-0.025	-0.200
-539.208	-42.267	-0.147	-0.075
-538.193	6.110	-0.099	-0.074
-537.179	-0.895	0.211	0.150
-536.164	76.552	-0.056	-0.059
-535.150	-116.277	-0.234	-0.043
-534.135	-200.000	0.001	0.110
-533.121	47.578	-0.057	-0.053
-532.106	20.509	0.155	0.126
-531.091	-79.718	0.338	0.114
-530.077	-200.000	-0.027	0.122
-529.062	-70.855	0.182	-0.069
-528.048	800.000	-0.087	0.261
-527.033	73.675	-0.226	-0.237
-526.018	800.000	-0.052	0.167
-525.004	144.368	-0.083	0.111
-523.989	-92.820	-0.114	-0.032
-522.975	800.000	-0.032	0.095
-521.960	634.133	-0.048	-0.122
-520.945	89.944	0.258	-0.288
-519.931	66.410	-0.100	0.102
-518.916	337.757	0.080	0.155
-517.902	-103.735	-0.409	-0.096
-516.887	169.786	-0.151	-0.216
-515.872	-3.142	-0.196	0.137
-514.858	800.000	0.079	0.287
-513.843	101.513	0.035	-0.041
-512.829	-200.000	-0.012	0.147
-511.814	-176.581	-0.285	-0.007
-510.799	448.287	0.188	0.413
-509.785	-200.000	-0.002	-0.210
-508.770	5.092	-0.330	-0.243
-507.756	-106.237	-0.455	-0.102
-506.741	219.179	-0.121	-0.193
-505.726	-200.000	-0.034	0.293
-504.712	800.000	0.022	0.076
-503.697	-92.925	0.114	0.032
-502.683	224.187	-0.058	-0.094
-501.668	270.555	-0.149	0.262
-500.653	-86.064	-0.104	0.032
-499.639	-137.877	-0.494	-0.055
-498.624	-19.910	0.115	-0.071
-497.610	-165.661	0.241	-0.010
-496.595	204.645	0.074	0.115
-495.581	-191.273	0.368	-0.004
-494.566	142.426	-0.251	0.333
-493.551	800.000	0.059	-0.218
-492.537	-157.711	-0.218	0.013
-491.522	-34.370	-0.245	0.134
-490.508	62.854	0.188	0.188
-489.493	125.077	-0.037	0.046
-488.478	-38.655	-0.110	0.058
-487.464	-33.119	0.135	-0.075
-486.449	134.002	0.089	0.116
-485.435	369.881	-0.051	0.103
-484.420	-24.689	-0.152	0.090
-483.405	-127.740	0.202	0.029
-482.391	521.269	-0.053	-0.124
-481.376	-164.861	-0.107	-0.005
-480.362	0.149	-0.113	-0.080
-479.347	24.408	-0.023	0.019
-478.332	328.921	0.009	0.017
-477.318	-153.047	-0.225	-0.016
-476.303	109.758	-0.051	0.062
-475.289	197.061	-0.080	0.122
-474.274	-123.888	-0.120	-0.019
-473.259	199.839	0.127	0.195
-472.245	-157.268	-0.173	0.010
-471.230	-132.214	-0.135	0.017
-470.216	335.106	0.064	0.124
-469.201	-200.000	-0.015	0.158
-468.186	-200.000	0.057	-0.283
-467.172	-82.635	0.080	0.026
-466.157	-67.882	0.053	0.021
-465.143	-46.016	-0.377	0.186
-464.128	1.653	0.208	0.149
-463.113	106.635	-0.302	-0.358
-462.099	-154.142	-0.069	-0.005
-461.084	-134.286	-0.072	0.009
-460.070	-72.417	-0.115	-0.042
-459.055	-53.444	0.292	0.134
-458.040	150.304	0.063	0.086
-457.026	-87.055	-0.186	-0.057
-456.011	563.695	-0.062	0.151
-454.997	800.000	-0.055	0.164
-453.982	121.426	-0.187	-0.233
-452.968	87.703	0.069	-0.077
-451.953	800.000	0.100	-0.277
-450.938	-181.524	-0.395	0.008
-449.924	345.248	-0.068	0.134
-448.909	-112.361	0.172	0.034
-447.895	47.412	0.199	-0.185
-446.880	240.610	-0.120	-0.200
-445.865	-167.091	-0.210	-0.009
-444.851	90.689	-0.045	-0.051
-443.836	-173.028	-0.258	0.008
-442.822	-75.356	-0.337	-0.120
-441.807	-200.000	-0.036	-0.167
-440.792	488.391	-0.175	-0.399
-439.778	-38.743	0.158	0.083
-438.763	712.027	0.035	0.092
-437.749	637.144	0.138	-0.351
-436.734	-152.440	-0.502	-0.036
-435.719	-116.161	0.329	-0.061
-434.705	-200.000	0.003	0.183
-433.690	33.191	-0.074	-0.064
-432.676	451.188	0.113	0.248
-431.661	-200.000	-0.000	0.182
-430.646	-13.519	-0.064	0.041
-429.632	-200.000	-0.038	0.208
-428.617	224.944	-0.296	-0.478
-427.603	-84.489	0.195	-0.062
-426.588	-140.044	0.200	0.021
-425.573	-30.281	-0.181	-0.103
-424.559	800.000	0.067	0.194
-423.544	70.413	0.248	-0.256
-422.530	89.399	0.136	0.151
-421.515	-126.304	0.311	-0.046
-420.500	800.000	-0.104	0.316
-419.486	-0.849	-0.308	-0.217
-418.471	514.376	-0.134	0.311
-417.457	-85.413	-0.320	0.099
-416.442	5.830	-0.330	0.243
-415.428	44.933	-0.170	0.156
-414.413	800.000	0.058	-0.234
-413.398	800.000	-0.073	0.304
-412.384	-157.488	0.073	-0.004
-411.369	800.000	-0.031	-0.116
-410.355	-35.144	-0.103	-0.056
-409.340	-4.438	-0.231	-0.159
-408.325	41.104	-0.091	-0.082
-407.311	-72.577	-0.130	-0.048
-406.296	-200.000	-0.015	-0.354
-405.282	-19.917	0.075	0.046
-404.267	38.706	0.204	-0.182
-403.252	37.365	0.180	-0.159
-402.238	-200.000	0.011	-0.145
-401.223	-200.000	-0.002	-0.199
-400.209	-54.008	0.074	-0.033
-399.194	123.660	0.168	0.210
-398.179	91.311	-0.075	-0.084
-397.165	220.707	0.128	-0.205
-396.150	-185.603	0.013	-0.000
-395.136	-79.674	0.126	-0.042
-394.121	196.393	0.031	0.047
-393.106	-116.316	0.160	-0.029
-392.092	585.472	0.081	-0.198
-391.077	800.000	-0.100	0.288
-390.063	-105.316	-0.046	0.010
-389.048	-133.678	0.334	0.042
-388.033	800.000	0.087	-0.249
-387.019	800.000	0.102	-0.349
-386.004	-21.294	0.094	0.057
-384.990	137.701	-0.171	-0.223
-383.975	55.334	-0.096	-0.092
-382.960	-150.876	0.316	0.024
-381.946	467.804	-0.004	0.009
-380.931	-84.225	-0.370	-0.117
-379.917	-163.013	0.207	-0.010
-378.902	21.915	-0.160	-0.130
-377.888	-200.000	0.037	-0.302
-376.873	-131.713	-0.235	-0.031
-375.858	-90.259	0.534	-0.154
-374.844	437.284	-0.228	-0.496
-373.829	278.708	0.025	-0.045
-372.815	-102.385	-0.117	-0.028
-371.800	-153.032	-0.211	0.015
-370.785	36.018	-0.203	-0.177
-369.771	-123.346	-0.045	-0.007
-368.756	800.000	-0.150	0.465
-367.742	-163.575	-0.174	-0.008
-366.727	-35.207	0.130	0.070
-365.712	71.160	0.136	0.140
-364.698	-29.307	-0.385	0.219
-363.683	-200.000	-0.001	-0.085
-362.669	170.029	0.296	0.421
-361.654	138.217	0.123	-0.160
-360.639	-157.775	-0.056	-0.003
-359.625	-35.358	0.435	-0.235
-358.610	-132.390	0.305	-0.039
-357.596	-138.866	0.236	-0.026
-356.581	-80.651	-0.168	0.056
-355.566	786.748	0.085	-0.233
-354.552	-132.956	-0.084	-0.011
-353.537	220.811	0.014	0.022
-352.523	553.495	-0.073	0.175
-351.508	-200.000	0.005	-0.072
-350.493	-91.034	0.286	-0.082
-349.479	101.267	0.076	-0.088
-348.464	87.031	-0.155	-0.170
-347.450	-131.717	0.269	-0.035
-346.435	37.588	-0.242	-0.214
-345.420	479.043	0.124	0.279
-344.406	-55.914	0.030	0.013
-343.391	-200.000	-0.002	0.010
-342.377	231.119	0.111	0.181
-341.362	147.885	-0.090	0.121
-340.348	-118.275	0.054	0.010
-339.333	-200.000	0.030	0.146
-338.318	47.598	-0.224	0.208
-337.304	646.132	-0.025	-0.063
-336.289	62.985	0.078	-0.078
-335.275	97.457	-0.089	0.101
-334.260	-14.692	-0.121	-0.077
-333.245	-17.699	-0.067	0.042
-332.231	-110.054	0.187	0.039
-331.216	-12.467	-0.145	-0.094
-330.202	19.598	0.232	-0.185
-329.187	-84.375	0.088	-0.028
-328.172	287.095	0.198	0.356
-327.158	-200.000	0.016	0.073
-326.143	-101.712	0.270	0.065
-325.129	121.533	0.182	0.225
-324.114	-200.000	0.041	0.458
-323.099	-22.716	-0.153	-0.092
-322.085	-200.000	0.025	0.166
-321.070	10.674	-0.253	-0.191
-320.056	800.000	0.057	0.173
-319.041	-41.803	-0.143	0.073
-318.026	-68.549	-0.188	0.072
-317.012	129.968	-0.098	-0.125
-315.997	28.154	0.127	0.107
-314.983	-149.961	-0.246	-0.019
-313.968	8.825	0.084	0.063
-312.953	-47.364	-0.307	0.148
-311.939	-77.185	0.054	0.019
-310.924	261.368	0.076	0.130
-309.910	-60.999	-0.249	0.105
-308.895	-24.385	0.094	0.055
-307.880	-136.224	-0.071	-0.008
-306.866	-105.134	0.086	-0.019
-305.851	-154.674	0.069	0.005
-304.837	-83.062	-0.044	-0.014
-303.822	226.313	0.088	-0.142
-302.807	587.606	-0.030	-0.074
-301.793	-92.036	0.473	-0.133
-300.778	-82.328	-0.142	-0.046
-299.764	-96.232	0.294	0.077
-298.749	17.633	-0.102	0.080
-297.735	-200.000	0.052	0.339
-296.720	93.306	-0.265	0.297
-295.705	470.474	-0.087	0.194
-294.691	194.856	-0.301	0.453
-293.676	-200.000	0.046	0.268
-292.662	-114.198	0.192	0.037
-291.647	-124.951	-0.281	-0.043
-290.632	-111.964	0.433	0.087
-289.618	-95.057	0.258	-0.069
-288.603	251.393	-0.005	-0.008
-287.589	3.135	0.022	0.016
-286.574	800.000	0.027	-0.109
-285.559	-200.000	0.000	0.131
-284.545	-200.000	-0.005	0.124
-283.530	155.389	-0.070	-0.096
-282.516	800.000	0.031	0.112
-281.501	-200.000	-0.034	0.181
-280.486	-200.000	0.012	-0.295
-279.472	-41.691	-0.188	0.096
-278.457	-78.046	0.226	-0.077
-277.443	46.475	0.129	-0.119
-276.428	-40.451	-0.284	0.146
-275.413	-200.000	-0.015	-0.182
-274.399	-48.871	0.149	0.071
-273.384	405.618	0.089	0.185
-272.370	37.272	-0.060	-0.052
-271.355	-121.887	0.132	0.022
-270.340	-200.000	-0.048	-0.222
-269.326	-170.748	-0.254	-0.009
-268.311	338.708	-0.117	-0.225
-267.297	-7.421	0.289	0.194
-266.282	551.380	0.055	0.131
-265.267	-152.965	-0.447	-0.031
-264.253	-200.000	0.000	0.128
-263.238	313.212	0.124	0.231
-262.224	-156.932	-0.339	0.021
-261.209	800.000	0.039	-0.124
-260.195	-114.396	-0.043	0.008
-259.180	-200.000	-0.005	-0.114
-258.165	-200.000	0.017	0.218
-257.151	-200.000	-0.002	-0.037
-256.136	213.001	0.058	0.091
-255.122	369.705	0.132	-0.265
-254.107	-200.000	-0.002	0.104
-253.092	-183.971	0.111	-0.002
-252.078	-200.000	0.034	0.245
-251.063	-75.954	0.123	0.043
-250.049	-114.951	-0.161	0.030
-249.034	800.000	0.031	0.129
-248.019	-68.619	0.263	0.101
-247.005	47.042	-0.289	-0.266
-245.990	97.394	0.074	-0.084
-244.976	310.493	0.073	0.135
-243.961	739.910	0.021	-0.057
-242.946	-107.118	0.197	0.043
-241.932	800.000	0.097	0.274
-240.917	-36.617	-0.104	0.055
-239.903	40.173	-0.084	-0.074
-238.888	-91.386	-0.267	-0.076
-237.873	507.450	-0.059	-0.135
-236.859	600.872	-0.134	0.330
-235.844	800.000	-0.063	0.235
-234.830	-1.903	-0.212	0.147
-233.815	-20.129	0.302	0.184
-232.800	-144.921	0.101	-0.009
-231.786	-94.228	0.197	-0.053
-230.771	-200.000	0.035	0.175
-229.757	725.330	-0.063	-0.166
-228.742	215.584	-0.189	-0.297
-227.727	-200.000	-0.222	0.000
-226.713	-75.992	0.320	-0.112
-225.698	-68.616	0.243	-0.093
-224.684	140.987	0.180	0.235
-223.669	216.248	0.083	0.130
-222.655	550.479	0.039	-0.093
-221.640	11.999	-0.201	-0.153
-220.625	162.610	0.140	-0.195
-219.611	-193.818	-0.327	-0.003
-218.596	-83.768	0.226	0.071
-217.582	800.000	-0.034	0.131
-216.567	-115.607	0.060	-0.011
-215.552	-200.000	-0.002	0.091
-214.538	-58.585	-0.066	0.028
-213.523	-200.000	-0.031	0.166
-212.509	-43.331	-0.149	0.074
-211.494	-200.000	0.010	-0.092
-210.479	-161.461	-0.226	0.012
-209.465	800.000	-0.067	0.244
-208.450	-158.954	0.131	0.007
-207.436	-0.815	-0.185	-0.130
-206.421	336.055	0.089	0.170
-205.406	-59.493	0.110	-0.047
-204.392	800.000	0.007	-0.030
-203.377	-34.514	-0.121	-0.065
-202.363	-50.782	0.197	0.092
-201.348	-119.587	0.086	0.015
-200.333	-86.504	0.521	0.158
-199.319	-39.350	0.334	0.173
-198.304	-200.000	0.014	-0.344
-197.290	800.000	-0.095	0.408
-196.275	-149.903	-0.132	-0.010
-195.260	52.318	-0.115	0.109
-194.246	-145.852	0.192	0.017
-193.231	94.290	0.168	0.188
-192.217	-178.799	-0.393	0.009
-191.202	16.630	-0.213	0.167
-190.187	12.794	0.236	-0.180
-189.173	701.996	0.033	0.085
-188.158	800.000	-0.077	-0.227
-187.144	59.282	0.363	0.353
-186.129	190.040	-0.171	-0.254
-185.114	263.566	0.201	0.345
-184.100	296.153	-0.089	0.160
-183.085	-88.129	0.180	-0.053
-182.071	550.876	0.149	0.354
-181.056	-180.346	0.348	-0.007
-180.042	-16.700	-0.071	0.045
-179.027	422.376	0.052	0.110
-178.012	293.013	0.097	-0.175
-176.998	322.626	-0.145	-0.273
-175.983	-74.704	0.170	-0.060
-174.969	-69.984	0.433	0.163
-173.954	-12.763	0.121	0.078
-172.939	-57.612	-0.275	-0.119
-171.925	-190.988	0.179	-0.002
-170.910	438.325	0.083	0.179
-169.896	209.590	-0.128	-0.199
-168.881	-200.000	0.004	-0.244
-167.866	-102.567	0.282	-0.067
-166.852	61.983	0.057	0.056
-165.837	-200.000	-0.099	-0.453
-164.823	-7.926	0.386	0.257
-163.808	800.000	0.130	-0.396
-162.793	-164.510	-0.221	0.010
-161.779	-6.665	-0.237	-0.159
-160.764	54.615	0.262	-0.249
-159.750	-105.511	-0.065	0.015
-158.735	46.662	0.351	0.322
-157.720	-126.555	0.210	-0.031
-156.706	-200.000	-0.007	0.079
-155.691	-115.788	0.089	-0.016
-154.677	-134.660	0.135	-0.016
-153.662	800.000	0.037	0.127
-152.647	-200.000	0.002	0.019
-151.633	-35.989	0.384	-0.205
-150.618	-200.000	-0.051	0.408
-149.604	22.835	-0.248	0.201
-148.589	-175.379	0.301	0.008
-147.574	55.148	-0.129	-0.123
-146.560	487.230	0.135	0.303
-145.545	242.308	0.103	0.170
-144.531	108.160	-0.172	0.202
-143.516	800.000	-0.045	-0.160
-142.502	-200.000	0.029	0.309
-141.487	216.023	0.109	-0.171
-140.472	-200.000	0.003	0.037
-139.458	-200.000	0.024	0.288
-138.443	-70.952	0.226	-0.084
-137.429	-67.786	-0.249	-0.096
-136.414	64.086	-0.376	0.373
-135.399	29.506	0.226	-0.189
-134.385	654.682	-0.164	0.416
-133.370	-200.000	-0.015	-0.168
-132.356	-41.492	-0.067	-0.034
-131.341	-129.027	-0.297	0.041
-130.326	174.194	0.219	0.312
-129.312	-200.000	-0.066	0.422
-128.297	-200.000	-0.020	-0.118
-127.283	800.000	-0.073	-0.250
-126.268	800.000	0.030	-0.090
-125.253	4.854	0.242	-0.176
-124.239	-90.227	0.325	-0.093
-123.224	-17.174	-0.222	0.138
-122.210	494.717	0.125	0.283
