DTS Sentinel unit serial number:	SN413079Multiplexer serial number:	ORYXHardware model number:	OX4-SRSoftware version number:	ORYX F/W v4.00 Oryx Data Collector v3.7.2.0data status	okinstallation	princeton_trtdifferential loss correction	single-endedforward channel	channel 2reverse channel	N/Adate	2019/09/11time	22:05:10forward acquisition time	60.00reverse acquisition time	0.00gamma	496.2192k internal	0.2324k external	0.2324temperature offset calibration	1.0069default loss term (dB/km)	0.3790temperature slope calibration	1.0000multiplexer offset coefficient	1.0000multiplexer slope coefficient	1.0000fibre end	0.00T internal ref (°C)	35.44T ext. ref 1 (°C)	1.74T ext. ref 2 (°C)	29.42length (m)	temperature (°C)	Stokes	anti-Stokes-747.200	-127.337	0.176	-0.026
-746.185	800.000	-0.081	0.248
-745.171	-169.854	0.298	-0.011
-744.156	0.109	-0.110	0.079
-743.142	-114.454	-0.073	0.014
-742.127	215.967	-0.142	0.228
-741.112	40.696	0.376	-0.342
-740.098	-53.658	-0.350	-0.161
-739.083	-40.604	-0.046	-0.024
-738.069	-127.057	0.100	-0.015
-737.054	-132.616	-0.049	-0.006
-736.039	-192.580	-0.297	-0.003
-735.025	-19.257	0.147	-0.092
-734.010	-105.689	-0.225	-0.051
-732.996	-157.802	-0.225	-0.013
-731.981	-156.975	0.357	-0.022
-730.966	-200.000	0.016	-0.207
-729.952	76.330	0.068	-0.072
-728.937	-103.210	-0.347	-0.083
-727.923	173.801	-0.253	0.369
-726.908	25.348	-0.263	0.221
-725.894	-42.954	0.137	-0.070
-724.879	102.186	0.101	0.119
-723.864	-11.673	-0.147	-0.098
-722.850	653.341	-0.120	0.312
-721.835	270.159	-0.168	-0.298
-720.821	-96.290	-0.251	0.067
-719.806	-200.000	-0.010	0.115
-718.791	-200.000	-0.011	-0.215
-717.777	-168.509	-0.259	0.010
-716.762	-24.086	0.155	0.093
-715.748	13.785	0.095	0.075
-714.733	-200.000	-0.015	0.206
-713.718	-200.000	0.025	0.137
-712.704	-152.931	0.333	0.024
-711.689	50.238	0.315	-0.300
-710.675	-78.222	-0.195	-0.067
-709.660	-36.936	-0.154	0.083
-708.645	93.139	-0.301	0.343
-707.631	40.169	0.255	0.231
-706.616	460.979	0.067	-0.150
-705.602	127.441	0.381	-0.487
-704.587	277.528	-0.140	0.250
-703.572	-167.374	0.261	0.011
-702.558	800.000	0.046	-0.178
-701.543	349.668	0.187	-0.373
-700.529	-43.288	-0.227	0.116
-699.514	42.828	-0.240	-0.220
-698.499	-131.702	0.256	-0.034
-697.485	-141.245	0.197	0.020
-696.470	77.531	-0.032	-0.034
-695.456	800.000	0.067	-0.226
-694.441	-98.526	-0.190	-0.049
-693.426	-200.000	0.059	-0.000
-692.412	-118.339	-0.229	-0.041
-691.397	45.051	0.165	0.153
-690.383	-200.000	-0.058	-0.350
-689.368	66.789	-0.173	-0.177
-688.354	-120.150	-0.218	0.038
-687.339	-17.270	0.391	0.248
-686.324	-139.503	-0.339	-0.036
-685.310	137.984	-0.080	0.105
-684.295	276.247	-0.252	0.451
-683.281	-200.000	-0.016	-0.101
-682.266	800.000	-0.037	0.139
-681.251	800.000	0.027	0.086
-680.237	-78.672	0.155	-0.053
-679.222	130.503	0.281	-0.362
-678.208	-121.770	-0.348	-0.058
-677.193	800.000	-0.052	0.165
-676.178	800.000	-0.031	0.126
-675.164	-132.949	-0.215	-0.028
-674.149	-200.000	0.009	0.306
-673.135	-98.775	-0.320	-0.082
-672.120	800.000	0.130	0.467
-671.105	-10.610	0.112	0.075
-670.091	-200.000	-0.026	0.229
-669.076	-114.002	-0.315	0.061
-668.062	-115.894	-0.287	0.054
-667.047	438.097	-0.112	0.245
-666.032	193.311	-0.177	-0.269
-665.018	16.976	0.170	0.135
-664.003	-200.000	-0.015	0.246
-662.989	424.418	-0.071	-0.154
-661.974	-142.839	0.215	0.021
-660.959	800.000	0.033	0.096
-659.945	-45.038	0.152	-0.076
-658.930	-73.147	-0.165	0.061
-657.916	-200.000	0.031	0.147
-656.901	-200.000	0.004	0.107
-655.886	-89.318	0.073	0.022
-654.872	-149.659	-0.230	-0.018
-653.857	-200.000	0.039	0.200
-652.843	-67.155	-0.096	-0.038
-651.828	-44.418	-0.272	-0.137
-650.814	-157.567	0.113	-0.007
-649.799	-16.352	-0.230	0.147
-648.784	-81.532	0.301	-0.099
-647.770	-139.296	-0.169	-0.018
-646.755	-64.747	-0.271	-0.110
-645.741	2.427	-0.237	-0.173
-644.726	800.000	0.053	0.223
-643.711	-200.000	0.243	0.001
-642.697	-123.117	-0.334	-0.054
-641.682	-144.876	-0.213	-0.020
-640.668	-130.584	0.340	0.046
-639.653	-69.466	-0.219	-0.084
-638.638	-14.166	-0.065	0.042
-637.624	-55.607	-0.263	0.118
-636.609	-78.521	-0.226	-0.078
-635.595	-102.742	0.183	0.044
-634.580	-73.019	0.084	0.031
-633.565	54.157	0.230	0.222
-632.551	35.088	-0.126	-0.111
-631.536	73.673	-0.232	0.244
-630.522	358.343	-0.189	0.380
-629.507	-175.515	-0.065	-0.002
-628.492	800.000	-0.035	-0.128
-627.478	100.660	0.066	0.077
-626.463	-5.033	0.186	0.128
-625.449	118.116	0.021	0.026
-624.434	-200.000	0.012	-0.459
-623.419	157.524	-0.140	0.194
-622.405	-13.961	-0.349	0.226
-621.390	-200.000	0.018	-0.105
-620.376	-17.776	0.194	-0.122
-619.361	-176.810	-0.036	0.001
-618.346	-114.165	0.205	-0.040
-617.332	45.741	-0.307	-0.285
-616.317	-11.144	0.374	0.247
-615.303	800.000	0.055	0.157
-614.288	24.039	0.041	0.034
-613.273	-200.000	0.030	0.193
-612.259	0.428	-0.098	-0.070
-611.244	6.134	-0.323	-0.240
-610.230	618.775	0.171	0.432
-609.215	7.722	0.249	-0.187
-608.201	95.592	0.157	0.180
-607.186	589.742	-0.118	0.292
-606.171	286.531	-0.066	-0.119
-605.157	273.876	-0.097	-0.172
-604.142	500.611	-0.040	-0.093
-603.128	339.428	0.083	-0.161
-602.113	-200.000	0.090	-0.424
-601.098	241.764	-0.112	-0.187
-600.084	13.262	0.327	-0.254
-599.069	-7.201	0.091	-0.062
-598.055	-200.000	-0.041	0.199
-597.040	800.000	0.069	0.225
-596.025	96.995	-0.053	0.061
-595.011	151.089	0.049	-0.067
-593.996	319.375	0.224	0.426
-592.982	-100.139	0.023	0.006
-591.967	-52.297	0.228	-0.106
-590.952	-16.055	-0.070	0.045
-589.938	-184.129	-0.438	0.007
-588.923	-31.697	-0.263	-0.148
-587.909	-135.243	-0.185	-0.022
-586.894	-62.319	0.175	-0.073
-585.879	74.704	0.184	0.194
-584.865	-89.862	-0.221	0.065
-583.850	342.124	0.110	-0.216
-582.836	-99.037	0.309	-0.079
-581.821	649.976	0.085	-0.218
-580.806	433.845	0.063	0.138
-579.792	800.000	0.047	0.160
-578.777	-176.713	0.312	-0.008
-577.763	-12.222	0.268	-0.176
-576.748	43.947	0.065	0.059
-575.733	517.474	0.055	-0.130
-574.719	40.730	0.139	-0.125
-573.704	-196.728	0.430	0.003
-572.690	-200.000	-0.013	0.332
-571.675	-125.333	-0.313	0.048
-570.661	47.128	0.086	-0.080
-569.646	800.000	-0.108	0.335
-568.631	219.046	-0.027	0.043
-567.617	-123.244	0.102	-0.016
-566.602	800.000	0.030	-0.112
-565.588	-113.781	-0.256	-0.050
-564.573	-145.282	0.082	-0.007
-563.558	116.940	-0.154	-0.189
-562.544	102.084	0.137	-0.160
-561.529	75.459	-0.183	-0.194
-560.515	-57.450	0.230	-0.101
-559.500	-139.197	0.076	0.008
-558.485	-200.000	-0.026	0.128
-557.471	-73.396	0.244	-0.089
-556.456	-200.000	-0.033	-0.269
-555.442	12.580	-0.131	0.102
-554.427	-165.360	0.196	0.009
-553.412	-200.000	0.001	0.123
-552.398	10.539	0.149	0.114
-551.383	-8.087	0.189	-0.128
-550.369	94.178	0.111	0.126
-549.354	108.563	0.012	-0.015
-548.339	97.595	-0.137	-0.158
-547.325	-59.901	-0.235	-0.101
-546.310	-76.624	0.094	-0.033
-545.296	-200.000	0.005	0.046
-544.281	-118.444	-0.454	0.081
-543.266	-139.612	0.034	-0.004
-542.252	-200.000	-0.007	0.085
-541.237	-200.000	0.006	-0.443
-540.223	-26.092	0.035	0.020
-539.208	10.257	0.231	0.176
-538.193	800.000	-0.076	-0.275
-537.179	159.210	-0.059	-0.082
-536.164	104.484	-0.067	0.079
-535.150	14.005	0.095	-0.074
-534.135	-200.000	0.001	-0.140
-533.121	-200.000	0.002	0.123
-532.106	-0.736	-0.262	0.186
-531.091	-83.405	0.433	0.139
-530.077	-31.429	0.241	0.136
-529.062	713.844	0.077	-0.204
-528.048	-53.002	0.093	-0.043
-527.033	-42.821	0.121	-0.062
-526.018	-129.081	-0.108	0.015
-525.004	-109.282	0.235	0.050
-523.989	-56.888	0.156	0.069
-522.975	-200.000	-0.009	0.068
-521.960	583.668	-0.116	0.285
-520.945	215.475	-0.156	-0.248
-519.931	800.000	0.065	-0.246
-518.916	-200.000	0.010	-0.367
-517.902	118.072	-0.179	-0.221
-516.887	800.000	0.048	-0.159
-515.872	-200.000	-0.002	0.029
-514.858	-200.000	0.007	0.275
-513.843	-200.000	0.017	-0.093
-512.829	-60.147	-0.109	0.046
-511.814	-200.000	-0.066	0.359
-510.799	123.989	0.316	-0.397
-509.785	656.754	-0.040	-0.103
-508.770	-200.000	-0.017	-0.094
-507.756	285.840	0.097	0.174
-506.741	-200.000	-0.012	-0.055
-505.726	-128.813	0.273	0.038
-504.712	-56.404	0.235	0.104
-503.697	-200.000	-0.058	-0.408
-502.683	-200.000	0.033	-0.382
-501.668	56.305	-0.158	-0.154
-500.653	-200.000	-0.016	0.348
-499.639	304.074	-0.116	0.214
-498.624	-61.189	0.046	-0.020
-497.610	-37.526	-0.129	0.069
-496.595	-200.000	0.025	0.267
-495.581	11.598	0.291	-0.223
-494.566	-200.000	0.024	-0.250
-493.551	-200.000	0.076	0.449
-492.537	775.087	0.036	-0.099
-491.522	800.000	-0.025	0.070
-490.508	-23.830	0.072	-0.043
-489.493	-98.182	0.168	0.043
-488.478	-200.000	0.038	0.450
-487.464	800.000	-0.056	-0.161
-486.449	-149.863	-0.258	0.020
-485.435	-123.634	-0.053	0.008
-484.420	84.487	-0.184	-0.201
-483.405	4.835	-0.140	-0.103
-482.391	-200.000	0.057	-0.249
-481.376	-111.329	0.409	-0.083
-480.362	282.681	-0.113	0.202
-479.347	-166.628	0.078	-0.003
-478.332	-112.386	0.146	-0.029
-477.318	-147.337	0.187	0.016
-476.303	54.896	0.303	0.292
-475.289	44.070	0.140	-0.128
-474.274	523.226	-0.052	-0.121
-473.259	-200.000	-0.007	-0.046
-472.245	-95.915	-0.203	-0.054
-471.230	-200.000	0.075	0.399
-470.216	-109.752	0.143	0.030
-469.201	-163.279	-0.161	-0.008
-468.186	491.791	-0.092	-0.211
-467.172	-27.019	0.331	0.193
-466.157	-57.580	-0.205	-0.090
-465.143	800.000	0.043	-0.149
-464.128	-37.770	0.149	0.079
-463.113	-200.000	-0.019	0.104
-462.099	-19.227	0.258	0.160
-461.084	-200.000	-0.026	-0.593
-460.070	237.151	-0.155	-0.257
-459.055	118.159	-0.103	-0.127
-458.040	-70.037	0.266	0.101
-457.026	800.000	0.088	0.288
-456.011	25.193	0.128	0.106
-454.997	323.477	0.109	0.208
-453.982	-200.000	-0.081	-0.408
-452.968	611.516	-0.019	-0.046
-451.953	-111.071	0.108	-0.022
-450.938	-200.000	0.019	0.175
-449.924	800.000	-0.043	0.164
-448.909	356.619	0.091	-0.180
-447.895	-55.463	0.048	0.021
-446.880	306.671	-0.110	0.204
-445.865	-104.477	-0.087	-0.020
-444.851	-200.000	0.011	-0.198
-443.836	800.000	0.066	0.264
-442.822	91.994	-0.238	-0.268
-441.807	90.452	-0.065	-0.073
-440.792	-200.000	0.037	-0.197
-439.778	-200.000	-0.042	0.388
-438.763	800.000	-0.056	0.221
-437.749	436.792	-0.067	0.145
-436.734	4.047	0.164	-0.120
-435.719	-200.000	0.034	-0.366
-434.705	37.455	-0.057	-0.050
-433.690	-61.523	0.217	-0.091
-432.676	-200.000	0.060	0.484
-431.661	-200.000	-0.013	0.179
-430.646	-175.409	0.093	0.003
-429.632	-41.990	-0.275	0.141
-428.617	1.008	-0.084	-0.060
-427.603	161.466	-0.321	0.448
-426.588	-200.000	-0.006	-0.098
-425.573	-200.000	0.025	-0.258
-424.559	295.588	-0.202	-0.368
-423.544	136.740	-0.110	0.143
-422.530	20.629	-0.122	-0.099
-421.515	55.141	-0.206	0.199
-420.500	148.428	-0.076	-0.102
-419.486	-42.234	-0.501	-0.255
-418.471	71.778	0.233	0.242
-417.457	-172.916	-0.088	0.003
-416.442	-172.462	-0.107	-0.003
-415.428	228.996	-0.034	0.055
-414.413	69.254	0.139	-0.143
-413.398	-200.000	0.028	0.243
-412.384	353.735	-0.060	-0.119
-411.369	-198.543	-0.124	-0.001
-410.355	-40.314	-0.133	-0.069
-409.340	27.156	-0.198	0.166
-408.325	800.000	0.027	0.085
-407.311	800.000	-0.082	-0.263
-406.296	-144.918	0.114	-0.010
-405.282	-200.000	0.061	0.403
-404.267	43.437	-0.199	-0.181
-403.252	-84.384	0.103	-0.032
-402.238	63.638	-0.348	0.348
-401.223	-60.344	0.263	-0.111
-400.209	-61.213	0.262	-0.110
-399.194	-200.000	-0.046	-0.229
-398.179	800.000	0.030	0.113
-397.165	190.452	-0.105	0.156
-396.150	800.000	0.113	0.339
-395.136	-42.893	-0.175	0.088
-394.121	435.390	0.081	0.175
-393.106	331.199	-0.057	-0.110
-392.092	-200.000	-0.050	-0.376
-391.077	-18.235	0.224	0.139
-390.063	-187.498	0.166	-0.002
-389.048	638.855	0.014	0.035
-388.033	-28.210	0.424	-0.244
-387.019	-125.322	-0.452	0.069
-386.004	334.407	0.035	0.067
-384.990	-100.578	-0.364	0.090
-383.975	-4.153	0.189	-0.130
-382.960	-43.147	0.232	-0.117
-381.946	-103.004	-0.283	-0.067
-380.931	-9.113	-0.106	0.070
-379.917	-200.000	0.002	-0.057
-378.902	77.626	-0.109	0.116
-377.888	-37.246	-0.113	0.060
-376.873	641.342	-0.053	0.135
-375.858	-100.977	-0.057	0.014
-374.844	21.631	-0.131	-0.106
-373.829	-200.000	-0.019	-0.246
-372.815	252.048	-0.085	-0.145
-371.800	127.990	0.162	0.205
-370.785	-200.000	0.069	0.418
-369.771	-111.522	0.181	-0.037
-368.756	14.449	-0.178	-0.138
-367.742	138.636	-0.103	0.135
-366.727	800.000	0.020	-0.066
-365.712	-73.418	-0.203	0.074
-364.698	-77.624	0.016	-0.006
-363.683	-80.499	0.274	-0.091
-362.669	-86.452	-0.181	-0.055
-361.654	-81.089	0.137	0.045
-360.639	189.359	0.075	-0.112
-359.625	147.765	-0.035	0.047
-358.610	167.751	0.041	-0.058
-357.596	34.573	0.032	0.028
-356.581	70.561	-0.131	0.134
-355.566	369.558	0.094	0.189
-354.552	-200.000	-0.032	0.159
-353.537	-119.823	-0.488	0.084
-352.523	17.958	-0.112	0.089
-351.508	225.470	-0.177	0.285
-350.493	-50.667	-0.267	0.125
-349.479	-4.499	0.215	0.148
-348.464	294.934	0.034	-0.063
-347.450	-19.195	-0.203	0.125
-346.435	-47.017	0.225	-0.109
-345.420	-152.426	0.063	0.004
-344.406	-181.658	-0.114	-0.002
-343.391	-74.944	0.204	-0.073
-342.377	-53.922	-0.269	0.122
-341.362	-79.987	0.278	-0.093
-340.348	5.370	0.216	-0.158
-339.333	-81.810	0.212	-0.069
-338.318	4.470	-0.229	0.167
-337.304	-21.092	-0.219	0.133
-336.289	197.304	0.178	-0.270
-335.275	-112.248	-0.110	0.022
-334.260	-75.631	0.170	0.060
-333.245	-41.805	-0.116	0.059
-332.231	262.734	0.095	-0.163
-331.216	-74.705	0.234	-0.084
-330.202	461.589	0.113	-0.250
-329.187	-117.793	-0.233	-0.042
-328.172	81.797	0.267	-0.287
-327.158	-47.691	-0.200	-0.096
-326.143	9.012	-0.317	0.238
-325.129	-200.000	-0.038	-0.224
-324.114	-31.571	-0.251	0.140
-323.099	150.665	0.086	-0.117
-322.085	-200.000	-0.006	0.335
-321.070	-154.055	0.115	0.008
-320.056	-200.000	-0.018	0.334
-319.041	576.600	0.052	0.125
-318.026	-31.356	-0.162	0.091
-317.012	185.097	-0.115	-0.169
-315.997	-124.224	-0.104	0.016
-314.983	173.921	0.058	0.084
-313.968	426.265	-0.054	-0.116
-312.953	403.689	0.211	-0.442
-311.939	-126.811	0.198	-0.029
-310.924	-90.318	0.062	-0.018
-309.910	-200.000	-0.017	-0.167
-308.895	-165.379	0.171	0.007
-307.880	173.516	-0.071	-0.102
-306.866	212.265	0.137	0.214
-305.851	186.176	-0.186	0.275
-304.837	-146.934	-0.256	0.022
-303.822	-117.383	0.182	0.033
-302.807	153.846	0.051	0.069
-301.793	-99.847	0.265	-0.066
-300.778	-40.199	-0.192	-0.099
-299.764	372.735	0.308	-0.621
-298.749	-107.295	-0.301	0.066
-297.735	-37.695	0.223	-0.118
-296.720	-64.402	-0.246	-0.099
-295.705	-81.407	-0.091	-0.030
-294.691	-17.225	0.255	-0.159
-293.676	-53.567	-0.421	-0.191
-292.662	781.530	-0.063	-0.171
-291.647	-98.571	0.179	0.045
-290.632	507.257	0.061	0.141
-289.618	42.256	-0.081	0.073
-288.603	302.406	-0.057	0.105
-287.589	-100.668	-0.345	0.084
-286.574	-8.150	-0.199	0.133
-285.559	70.432	0.244	0.250
-284.545	-47.420	0.155	0.075
-283.530	800.000	0.137	0.394
-282.516	665.341	-0.069	0.176
-281.501	3.251	-0.172	0.124
-280.486	-83.337	0.154	-0.049
-279.472	-82.794	-0.123	-0.039
-278.457	-162.824	0.021	-0.001
-277.443	240.793	0.026	0.042
-276.428	-66.213	-0.193	-0.076
-275.413	700.241	-0.039	0.103
-274.399	-109.415	0.021	-0.004
-273.384	15.533	-0.178	-0.138
-272.370	8.115	-0.104	-0.078
-271.355	768.695	-0.270	0.727
-270.340	403.142	-0.048	0.100
-269.326	214.590	0.041	0.064
-268.311	-52.574	-0.274	0.125
-267.297	-200.000	0.040	0.325
-266.282	181.805	0.117	-0.171
-265.267	-23.675	-0.120	0.071
-264.253	800.000	0.042	0.116
-263.238	187.503	-0.298	-0.441
-262.224	-200.000	-0.012	-0.198
-261.209	-161.249	0.156	0.008
-260.195	756.528	0.028	0.075
-259.180	256.359	0.084	-0.143
-258.165	-136.806	0.320	-0.036
-257.151	-200.000	0.005	-0.153
-256.136	476.938	0.117	-0.261
-255.122	-200.000	0.029	-0.280
-254.107	-130.268	0.292	0.039
-253.092	492.455	-0.058	-0.132
-252.078	-20.869	-0.202	-0.122
-251.063	-126.710	0.133	-0.020
-250.049	800.000	0.065	-0.196
-249.034	-124.216	-0.099	0.015
-248.019	45.884	-0.298	0.272
-247.005	145.310	0.184	0.244
-245.990	800.000	-0.093	0.313
-244.976	-17.839	0.158	0.098
-243.961	-186.960	0.077	0.001
-242.946	-33.964	-0.199	0.109
-241.932	8.349	-0.151	-0.112
-240.917	-80.673	-0.147	-0.048
-239.903	87.380	0.121	-0.132
-238.888	-200.000	0.033	0.175
-237.873	624.632	0.120	0.298
-236.859	-92.218	-0.280	-0.078
-235.844	318.534	0.079	0.148
-234.830	-39.497	-0.044	-0.023
-233.815	239.134	0.165	0.271
-232.800	-155.342	0.102	0.007
-231.786	81.924	-0.161	0.173
-230.771	176.984	-0.076	-0.109
-229.757	-200.000	0.053	0.432
-228.742	-145.446	0.375	0.033
-227.727	-163.990	-0.180	-0.008
-226.713	-42.015	-0.118	0.060
-225.698	784.856	0.040	-0.108
-224.684	412.289	0.195	-0.410
-223.669	269.339	0.345	-0.599
-222.655	696.439	-0.015	-0.040
-221.640	-200.000	-0.059	-0.286
-220.625	-200.000	0.018	-0.186
-219.611	-126.422	-0.426	-0.063
-218.596	55.936	0.151	-0.145
-217.582	-92.112	0.375	-0.105
-216.567	511.534	0.059	0.136
-215.552	252.190	-0.160	0.270
-214.538	796.412	0.033	0.091
-213.523	-12.865	-0.259	0.167
-212.509	240.766	-0.195	-0.322
-211.494	20.523	-0.153	-0.122
-210.479	111.882	-0.044	0.052
-209.465	-105.311	0.209	0.047
-208.450	263.100	0.061	0.104
-207.436	131.140	0.042	-0.053
-206.421	-200.000	0.015	-0.094
-205.406	237.387	-0.034	-0.055
-204.392	-57.867	0.166	-0.072
-203.377	-200.000	-0.036	-0.179
-202.363	449.271	-0.109	-0.237
-201.348	-37.427	0.028	-0.015
-200.333	-47.581	0.289	0.139
-199.319	-111.975	0.262	0.052
-198.304	-136.581	-0.343	0.039
-197.290	-10.056	0.197	-0.129
-196.275	-200.000	0.059	-0.358
-195.260	-111.588	0.366	0.073
-194.246	-8.529	0.132	0.088
-193.231	651.254	0.013	0.032
-192.217	-200.000	-0.001	-0.107
-191.202	84.939	0.161	-0.174
-190.187	-106.235	-0.587	0.130
-189.173	97.350	0.126	-0.142
-188.158	148.131	0.180	0.239
-187.144	-46.883	-0.323	0.156
-186.129	63.841	-0.081	0.080
-185.114	-118.595	0.212	0.037
-184.100	-83.064	0.326	-0.104
-183.085	-200.000	0.002	0.013
-182.071	-200.000	-0.034	0.276
-181.056	337.441	-0.060	-0.116
-180.042	39.387	0.114	-0.101
-179.027	-200.000	-0.005	-0.049
-178.012	280.967	-0.137	-0.241
-176.998	-71.251	-0.304	0.113
-175.983	-61.787	0.129	-0.053
-174.969	-34.285	-0.375	0.203
-173.954	-22.522	0.355	-0.212
-172.939	36.917	-0.147	-0.129
-171.925	-82.926	0.277	-0.088
-170.910	800.000	-0.041	0.112
-169.896	-200.000	-0.032	-0.245
-168.881	-79.592	-0.172	0.057
-167.866	-200.000	0.007	-0.181
-166.852	36.019	-0.029	0.025
-165.837	-66.844	-0.136	-0.053
-164.823	800.000	0.024	0.091
-163.808	-178.449	0.086	0.002
-162.793	-102.576	-0.244	0.057
-161.779	77.770	-0.223	0.234
-160.764	24.149	-0.203	-0.166
-159.750	99.787	0.018	0.021
-158.735	-200.000	-0.002	0.097
-157.720	-75.863	0.152	0.053
-156.706	-170.556	0.065	0.002
-155.691	251.027	0.030	0.050
-154.677	800.000	-0.044	-0.119
-153.662	-140.432	-0.099	0.010
-152.647	187.486	0.121	0.178
-151.633	800.000	0.188	0.532
-150.618	48.516	-0.120	-0.111
-149.604	-30.335	0.266	0.149
-148.589	75.874	0.096	0.100
-147.574	-54.346	0.252	-0.113
-146.560	-200.000	0.026	0.147
-145.545	-65.130	0.044	-0.017
-144.531	-54.922	-0.201	0.089
-143.516	-200.000	0.031	0.215
-142.502	-99.942	0.166	0.041
-141.487	-33.719	0.331	0.180
-140.472	-0.072	0.223	0.156
-139.458	65.381	0.119	0.118
-138.443	-56.498	0.078	-0.034
-137.429	369.210	0.118	-0.235
-136.414	31.759	0.102	0.087
-135.399	-200.000	0.011	0.082
-134.385	-200.000	0.058	0.252
-133.370	68.336	0.180	0.182
-132.356	800.000	-0.054	0.165
-131.341	32.395	0.241	-0.205
-130.326	-67.914	-0.123	0.047
-129.312	7.274	0.224	0.165
-128.297	-118.894	-0.234	0.041
-127.283	-200.000	-0.015	0.329
-126.268	502.171	0.040	-0.091
-125.253	800.000	0.056	0.165
-124.239	800.000	-0.077	-0.274
-123.224	83.721	0.185	-0.199
-122.210	-54.857	-0.254	0.113
-121.195	-1.605	-0.033	-0.023
