DTS Sentinel unit serial number:	SN413079Multiplexer serial number:	ORYXHardware model number:	OX4-SRSoftware version number:	ORYX F/W v4.00 Oryx Data Collector v3.7.2.0data status	okinstallation	princeton_trtdifferential loss correction	single-endedforward channel	channel 2reverse channel	N/Adate	2019/09/11time	17:49:10forward acquisition time	60.00reverse acquisition time	0.00gamma	496.2192k internal	0.2284k external	0.2284temperature offset calibration	1.0022default loss term (dB/km)	0.3790temperature slope calibration	1.0000multiplexer offset coefficient	1.0000multiplexer slope coefficient	1.0000fibre end	0.00T internal ref (°C)	43.94T ext. ref 1 (°C)	1.13T ext. ref 2 (°C)	39.58length (m)	temperature (°C)	Stokes	anti-Stokes-747.200	17.417	-0.132	0.107
-746.185	800.000	-0.163	0.519
-745.171	-39.117	0.151	0.081
-744.156	73.328	-0.273	0.294
-743.142	-200.000	-0.013	0.130
-742.127	200.188	-0.096	0.152
-741.112	440.435	-0.109	-0.245
-740.098	-200.000	0.006	-0.253
-739.083	800.000	0.077	0.273
-738.069	-200.000	0.011	0.064
-737.054	800.000	0.068	-0.210
-736.039	22.117	0.031	-0.026
-735.025	9.819	0.155	-0.120
-734.010	800.000	-0.021	-0.066
-732.996	133.540	-0.115	-0.153
-731.981	-125.594	-0.229	0.036
-730.966	725.742	0.043	0.118
-729.952	73.508	0.303	-0.326
-728.937	-40.197	-0.541	-0.289
-727.923	800.000	-0.032	0.104
-726.908	24.583	-0.171	0.145
-725.894	571.777	0.124	-0.310
-724.879	130.216	-0.023	0.031
-723.864	163.468	0.047	-0.068
-722.850	-102.872	0.223	-0.054
-721.835	-158.810	-0.203	-0.012
-720.821	-86.560	-0.270	0.085
-719.806	-200.000	-0.073	-0.457
-718.791	-137.824	-0.295	0.034
-717.777	-200.000	-0.014	0.130
-716.762	575.422	-0.041	-0.102
-715.748	-55.987	-0.243	-0.111
-714.733	-128.116	-0.296	0.043
-713.718	-200.000	-0.014	-0.366
-712.704	332.953	-0.105	-0.207
-711.689	144.744	0.091	-0.125
-710.675	-100.421	-0.239	-0.061
-709.660	38.693	0.162	-0.148
-708.645	-111.959	-0.170	0.035
-707.631	800.000	0.034	-0.137
-706.616	-200.000	-0.012	-0.337
-705.602	53.112	-0.121	-0.118
-704.587	-200.000	-0.010	0.126
-703.572	-111.438	0.205	-0.043
-702.558	179.756	0.064	-0.097
-701.543	-116.937	-0.228	0.043
-700.529	-134.559	-0.319	-0.040
-699.514	800.000	0.088	0.282
-698.499	13.801	-0.253	-0.202
-697.485	98.062	0.110	-0.130
-696.470	247.167	-0.086	-0.148
-695.456	-200.000	0.037	-0.240
-694.441	377.781	0.144	0.301
-693.426	-200.000	-0.009	0.098
-692.412	-141.534	-0.329	-0.034
-691.397	185.775	-0.052	-0.079
-690.383	473.747	0.215	0.497
-689.368	231.148	-0.276	0.463
-688.354	-107.739	0.315	0.070
-687.339	-134.680	-0.309	0.038
-686.324	23.587	-0.362	0.305
-685.310	-56.661	-0.114	-0.052
-684.295	150.959	-0.146	0.204
-683.281	800.000	-0.041	0.161
-682.266	283.727	-0.029	0.054
-681.251	-200.000	-0.009	0.127
-680.237	21.154	-0.058	0.048
-679.222	143.109	-0.134	-0.182
-678.208	800.000	-0.069	-0.201
-677.193	30.254	-0.289	-0.253
-676.178	-140.199	0.502	0.054
-675.164	9.786	0.118	0.092
-674.149	-200.000	0.025	0.360
-673.135	-200.000	0.013	-0.072
-672.120	-200.000	0.032	-0.323
-671.105	-115.103	0.228	0.044
-670.091	-123.340	0.604	0.099
-669.076	216.493	-0.049	0.079
-668.062	800.000	-0.025	0.104
-667.047	161.362	-0.016	0.023
-666.032	48.533	0.090	-0.086
-665.018	192.202	0.145	-0.223
-664.003	800.000	-0.056	0.245
-662.989	-133.629	-0.328	0.042
-661.974	10.014	0.058	-0.045
-660.959	-110.142	-0.508	-0.108
-659.945	-94.014	-0.183	0.052
-658.930	800.000	0.086	-0.353
-657.916	-59.130	-0.224	-0.099
-656.901	83.424	-0.011	0.012
-655.886	75.646	-0.059	-0.064
-654.872	246.200	-0.177	0.306
-653.857	-34.731	0.077	-0.043
-652.843	-176.287	-0.125	0.003
-651.828	-123.596	-0.372	-0.060
-650.814	2.031	0.115	0.085
-649.799	-42.120	-0.199	-0.104
-648.784	115.434	-0.085	-0.107
-647.770	764.891	0.054	-0.149
-646.755	-17.735	-0.139	-0.089
-645.741	-200.000	0.006	-0.181
-644.726	129.768	0.068	-0.089
-643.711	-200.000	0.031	-0.304
-642.697	87.480	-0.115	0.130
-641.682	-57.426	-0.402	-0.181
-640.668	-137.276	-0.230	-0.027
-639.653	-82.090	-0.219	-0.073
-638.638	49.954	0.102	-0.099
-637.624	188.483	0.124	0.189
-636.609	-200.000	-0.069	0.441
-635.595	-161.604	0.271	0.014
-634.580	-200.000	0.071	0.406
-633.565	152.836	-0.118	0.165
-632.551	-121.728	-0.106	-0.018
-631.536	-156.540	-0.368	0.023
-630.522	42.932	0.173	-0.162
-629.507	-65.346	0.345	-0.142
-628.492	-36.019	0.067	0.037
-627.478	255.517	-0.275	0.482
-626.463	-134.209	-0.103	0.013
-625.449	800.000	0.029	-0.107
-624.434	-7.728	0.278	-0.192
-623.419	413.223	0.129	-0.281
-622.405	-193.962	-0.043	-0.000
-621.390	-109.706	0.188	-0.041
-620.376	-200.000	0.018	-0.246
-619.361	113.612	0.104	0.129
-618.346	-192.645	-0.024	0.000
-617.332	299.873	-0.130	0.245
-616.317	-200.000	-0.025	0.221
-615.303	108.444	0.287	0.350
-614.288	-200.000	0.009	-0.114
-613.273	800.000	-0.067	-0.259
-612.259	320.314	-0.054	0.105
-611.244	284.383	-0.118	0.216
-610.230	-13.187	0.135	-0.090
-609.215	-200.000	0.002	0.025
-608.201	-26.178	0.262	-0.157
-607.186	-92.789	0.191	-0.055
-606.171	189.966	0.083	0.127
-605.157	-200.000	0.030	0.162
-604.142	-88.124	-0.222	0.068
-603.128	-30.410	-0.236	0.137
-602.113	-200.000	-0.038	-0.243
-601.098	-73.056	0.241	-0.090
-600.084	152.301	-0.130	0.182
-599.069	346.992	-0.136	-0.273
-598.055	-10.638	0.120	0.081
-597.040	172.812	-0.169	-0.249
-596.025	104.776	0.114	-0.137
-595.011	50.653	0.129	0.125
-593.996	519.680	0.086	-0.206
-592.982	46.629	0.178	-0.169
-591.967	-78.322	-0.241	-0.085
-590.952	2.974	0.169	-0.125
-589.938	-157.269	-0.263	0.016
-588.923	-108.868	-0.027	-0.006
-587.909	-118.325	-0.147	-0.027
-586.894	122.872	0.128	0.163
-585.879	95.323	-0.009	0.011
-584.865	370.878	0.043	-0.090
-583.850	-48.655	-0.294	0.144
-582.836	-62.370	0.203	0.086
-581.821	-96.026	-0.118	-0.032
-580.806	-48.461	-0.184	0.091
-579.792	128.121	-0.064	0.083
-578.777	800.000	0.031	0.121
-577.763	-48.532	0.192	0.094
-576.748	800.000	-0.121	0.369
-575.733	261.735	0.090	-0.159
-574.719	-5.300	-0.464	0.325
-573.704	115.122	-0.102	0.127
-572.690	-91.998	0.241	-0.070
-571.675	42.922	-0.040	-0.037
-570.661	132.485	-0.043	-0.057
-569.646	245.289	0.053	0.091
-568.631	744.789	0.010	-0.028
-567.617	-100.693	0.024	-0.006
-566.602	163.161	-0.200	-0.286
-565.588	-30.383	-0.313	0.181
-564.573	-40.385	0.212	-0.112
-563.558	35.330	-0.135	-0.120
-562.544	-200.000	0.008	0.072
-561.529	228.276	-0.100	-0.166
-560.515	-76.091	-0.155	-0.056
-559.500	-55.676	-0.141	0.064
-558.485	800.000	0.060	-0.210
-557.471	199.815	0.026	0.041
-556.456	100.789	-0.174	-0.206
-555.442	-49.550	-0.098	0.048
-554.427	-161.462	-0.482	0.025
-553.412	-162.297	-0.273	-0.014
-552.398	466.689	0.128	0.292
-551.383	-112.433	0.243	-0.049
-550.369	15.142	0.280	-0.224
-549.354	372.617	-0.050	0.104
-548.339	-200.000	-0.019	-0.177
-547.325	125.777	0.102	-0.131
-546.310	-200.000	0.002	0.088
-545.296	800.000	-0.084	0.290
-544.281	321.407	0.157	-0.304
-543.266	-184.370	-0.387	0.006
-542.252	-97.258	0.245	0.065
-541.237	-76.743	0.308	-0.110
-540.223	20.485	0.065	0.054
-539.208	-200.000	-0.010	-0.442
-538.193	-88.365	-0.123	-0.037
-537.179	-164.015	-0.130	0.006
-536.164	-163.698	-0.252	-0.012
-535.150	484.446	0.105	0.244
-534.135	-45.077	-0.218	-0.111
-533.121	-151.588	0.529	-0.040
-532.106	-28.854	0.040	0.024
-531.091	800.000	0.015	-0.065
-530.077	12.576	0.171	0.135
-529.062	563.167	-0.017	0.042
-528.048	-198.310	-0.218	0.001
-527.033	-200.000	0.013	0.130
-526.018	800.000	0.012	-0.053
-525.004	800.000	-0.112	0.357
-523.989	800.000	-0.043	-0.122
-522.975	10.449	0.130	-0.101
-521.960	-99.272	-0.123	-0.032
-520.945	-64.675	0.247	0.102
-519.931	-200.000	0.059	0.368
-518.916	-148.613	0.289	-0.024
-517.902	149.969	0.196	0.270
-516.887	-29.838	-0.252	-0.146
-515.872	95.262	0.018	0.021
-514.858	576.475	-0.034	0.086
-513.843	-200.000	0.043	0.202
-512.829	-8.415	0.050	-0.034
-511.814	43.473	0.380	-0.354
-510.799	194.687	0.143	-0.221
-509.785	-83.813	-0.170	-0.055
-508.770	800.000	0.015	-0.058
-507.756	-126.289	-0.057	-0.009
-506.741	-200.000	-0.009	-0.146
-505.726	77.307	0.151	0.164
-504.712	-200.000	-0.059	0.287
-503.697	425.586	0.113	-0.247
-502.683	150.093	0.094	0.129
-501.668	-36.409	-0.152	-0.084
-500.653	-118.986	0.186	0.033
-499.639	-200.000	-0.003	-0.166
-498.624	163.557	0.198	0.284
-497.610	800.000	-0.104	-0.311
-496.595	-135.309	-0.378	-0.046
-495.581	-1.015	-0.130	-0.093
-494.566	-7.000	0.423	0.292
-493.551	-200.000	-0.002	0.031
-492.537	270.243	-0.131	0.234
-491.522	187.632	-0.026	0.039
-490.508	-161.170	-0.228	-0.012
-489.493	785.700	0.061	-0.171
-488.478	54.380	-0.169	0.166
-487.464	91.550	-0.092	0.105
-486.449	140.108	-0.078	0.105
-485.435	-4.171	-0.202	-0.142
-484.420	-143.055	0.186	0.018
-483.405	-135.967	0.193	0.023
-482.391	-92.133	-0.145	0.042
-481.376	-148.859	-0.443	-0.036
-480.362	800.000	0.076	0.318
-479.347	-200.000	-0.001	0.008
-478.332	-78.623	0.062	-0.021
-477.318	100.271	0.180	0.212
-476.303	1.536	0.207	0.151
-475.289	-200.000	0.050	-0.272
-474.274	-167.267	0.132	-0.005
-473.259	-200.000	0.007	0.046
-472.245	-106.762	0.394	-0.089
-471.230	-133.498	0.451	0.057
-470.216	-200.000	-0.039	0.208
-469.201	23.845	-0.129	-0.108
-468.186	639.789	-0.081	-0.209
-467.172	-200.000	-0.014	0.119
-466.157	320.304	0.046	0.089
-465.143	-200.000	0.015	0.088
-464.128	39.494	0.230	0.209
-463.113	-64.842	0.069	-0.029
-462.099	-97.401	0.036	-0.010
-461.084	-200.000	0.035	0.186
-460.070	233.931	0.074	0.123
-459.055	49.548	-0.056	-0.054
-458.040	-80.086	0.220	0.075
-457.026	134.314	0.200	0.264
-456.011	109.374	0.263	0.320
-454.997	483.370	0.073	0.169
-453.982	-200.000	0.023	0.239
-452.968	35.916	-0.268	-0.239
-451.953	795.964	-0.105	-0.292
-450.938	116.451	0.053	-0.066
-449.924	-148.862	-0.035	0.003
-448.909	-200.000	-0.028	-0.153
-447.895	-63.617	-0.094	-0.039
-446.880	-70.837	-0.400	-0.153
-445.865	-5.290	-0.075	-0.052
-444.851	218.440	-0.138	0.224
-443.836	86.541	0.113	-0.126
-442.822	775.600	-0.051	0.141
-441.807	239.247	0.090	0.153
-440.792	7.133	0.367	0.278
-439.778	-175.715	-0.448	-0.012
-438.763	370.552	-0.064	0.132
-437.749	-102.822	-0.304	-0.073
-436.734	-200.000	0.318	-0.001
-435.719	-200.000	0.018	0.256
-434.705	800.000	-0.162	-0.471
-433.690	551.082	-0.203	-0.494
-432.676	426.579	0.042	0.091
-431.661	-200.000	-0.051	-0.226
-430.646	-200.000	-0.005	-0.067
-429.632	-172.863	-0.040	0.001
-428.617	-200.000	-0.089	-0.512
-427.603	-15.852	0.393	-0.254
-426.588	-200.000	0.007	-0.370
-425.573	800.000	0.027	-0.077
-424.559	-67.993	-0.129	0.051
-423.544	214.888	0.100	0.160
-422.530	-20.392	-0.257	0.160
-421.515	86.582	-0.125	0.140
-420.500	427.559	0.059	0.128
-419.486	-79.530	-0.216	-0.074
-418.471	-82.600	0.337	0.111
-417.457	-36.731	0.163	-0.089
-416.442	78.995	-0.243	-0.264
-415.428	-89.891	0.019	-0.006
-414.413	-1.363	0.104	-0.074
-413.398	-11.109	0.096	-0.064
-412.384	181.879	-0.109	0.162
-411.369	506.582	-0.091	-0.214
-410.355	66.671	0.059	-0.061
-409.340	139.523	-0.121	0.162
-408.325	339.875	-0.151	-0.299
-407.311	668.395	0.032	0.085
-406.296	-86.851	-0.116	-0.036
-405.282	-200.000	0.015	0.308
-404.267	-25.511	0.129	0.077
-403.252	212.524	0.175	0.280
-402.238	-90.758	0.265	-0.077
-401.223	53.037	-0.033	-0.032
-400.209	-87.368	-0.181	-0.056
-399.194	172.893	-0.195	0.285
-398.179	800.000	0.018	0.070
-397.165	-200.000	-0.005	-0.103
-396.150	800.000	-0.068	0.244
-395.136	586.267	0.052	0.129
-394.121	-200.000	0.014	-0.220
-393.106	-130.369	-0.191	0.026
-392.092	-40.975	-0.107	0.056
-391.077	-200.000	-0.029	0.328
-390.063	-200.000	-0.004	0.148
-389.048	-43.973	0.269	-0.137
-388.033	380.071	0.101	0.209
-387.019	73.593	-0.259	-0.275
-386.004	-47.723	-0.172	0.084
-384.990	51.456	0.165	-0.159
-383.975	7.123	0.251	0.190
-382.960	41.812	-0.102	0.094
-381.946	-109.956	0.212	0.045
-380.931	800.000	-0.131	-0.475
-379.917	77.573	-0.166	-0.179
-378.902	-200.000	0.013	0.447
-377.888	42.729	-0.314	0.290
-376.873	-200.000	0.277	0.000
-375.858	-200.000	-0.016	-0.169
-374.844	-88.352	-0.221	-0.067
-373.829	-51.645	-0.343	-0.162
-372.815	-99.898	-0.246	-0.062
-371.800	-86.776	-0.416	-0.129
-370.785	-23.430	-0.224	0.136
-369.771	-200.000	-0.009	0.213
-368.756	-123.491	0.146	0.024
-367.742	127.055	0.082	-0.105
-366.727	800.000	-0.020	-0.069
-365.712	-81.465	-0.163	-0.054
-364.698	153.984	0.128	-0.178
-363.683	-66.990	0.138	0.055
-362.669	25.368	-0.168	0.141
-361.654	22.993	-0.250	0.208
-360.639	38.895	0.167	0.151
-359.625	-200.000	-0.068	0.327
-358.610	-86.152	-0.106	0.033
-357.596	-38.923	0.157	0.083
-356.581	-200.000	-0.053	0.350
-355.566	-79.128	-0.186	-0.064
-354.552	309.578	-0.162	0.307
-353.537	12.191	-0.083	-0.065
-352.523	-134.157	0.094	-0.012
-351.508	162.283	-0.125	0.177
-350.493	127.437	0.071	0.092
-349.479	-14.346	0.277	0.181
-348.464	-1.859	-0.184	-0.131
-347.450	800.000	0.045	-0.134
-346.435	54.776	0.227	-0.221
-345.420	-200.000	-0.020	-0.177
-344.406	238.133	0.270	-0.453
-343.391	51.332	0.176	-0.169
-342.377	-54.610	-0.314	-0.143
-341.362	143.072	0.171	-0.230
-340.348	-49.294	0.337	-0.163
-339.333	-26.839	0.073	0.043
-338.318	-69.890	-0.279	-0.108
-337.304	774.473	-0.095	-0.261
-336.289	58.057	0.093	-0.092
-335.275	800.000	-0.047	0.186
-334.260	164.993	-0.251	-0.358
-333.245	-200.000	-0.058	0.273
-332.231	-19.869	0.227	-0.142
-331.216	241.321	0.122	-0.206
-330.202	-198.774	0.276	-0.002
-329.187	-200.000	-0.038	0.305
-328.172	666.219	0.121	0.316
-327.158	-200.000	-0.017	-0.265
-326.143	648.268	-0.071	0.183
-325.129	185.138	-0.116	-0.174
-324.114	-70.989	-0.282	0.107
-323.099	-150.623	0.151	-0.012
-322.085	-77.149	-0.218	0.077
-321.070	-96.612	-0.300	-0.080
-320.056	-71.190	0.114	0.043
-319.041	168.938	-0.173	0.249
-318.026	567.509	0.092	-0.226
-317.012	800.000	-0.072	0.308
-315.997	800.000	-0.085	0.343
-314.983	-200.000	-0.020	0.141
-313.968	-200.000	-0.018	0.269
-312.953	-181.530	0.221	-0.004
-311.939	464.447	0.118	-0.266
-310.924	-174.113	-0.112	-0.003
-309.910	-200.000	-0.003	-0.016
-308.895	-113.252	-0.286	-0.057
-307.880	63.283	-0.137	-0.139
-306.866	127.223	0.107	0.138
-305.851	90.957	0.148	-0.167
-304.837	-1.866	0.115	-0.082
-303.822	-77.208	-0.088	0.031
-302.807	560.646	-0.086	0.210
-301.793	-200.000	-0.016	0.088
-300.778	42.378	0.271	-0.249
-299.764	-18.806	-0.219	-0.138
-298.749	-93.601	0.134	-0.037
-297.735	800.000	0.028	0.078
-296.720	800.000	0.037	-0.116
-295.705	-96.077	0.151	0.041
-294.691	-115.735	-0.091	0.017
-293.676	-119.443	0.127	-0.022
-292.662	-200.000	0.068	-0.334
-291.647	18.236	-0.052	-0.042
-290.632	-200.000	-0.034	-0.262
-289.618	800.000	0.050	0.158
-288.603	800.000	-0.028	-0.082
-287.589	395.626	-0.119	-0.250
-286.574	-81.571	-0.219	-0.073
-285.559	-200.000	-0.011	-0.347
-284.545	-43.064	0.255	0.131
-283.530	800.000	-0.045	0.159
-282.516	800.000	0.045	-0.149
-281.501	2.315	-0.319	0.233
-280.486	636.105	-0.017	-0.043
-279.472	-200.000	0.012	-0.200
-278.457	44.706	-0.116	-0.107
-277.443	800.000	-0.037	-0.124
-276.428	-187.856	0.289	0.004
-275.413	-48.001	0.177	0.087
-274.399	-13.606	-0.163	0.106
-273.384	118.694	0.131	-0.163
-272.370	800.000	0.044	0.137
-271.355	141.591	-0.174	0.233
-270.340	800.000	-0.102	-0.366
-269.326	79.732	0.080	0.087
-268.311	-162.424	0.103	0.005
-267.297	503.825	0.040	-0.093
-266.282	110.452	-0.130	0.158
-265.267	-38.236	0.072	0.039
-264.253	-200.000	0.020	0.169
-263.238	141.814	0.259	-0.346
-262.224	-166.487	0.290	-0.012
-261.209	-148.171	0.189	-0.016
-260.195	-66.312	0.089	-0.036
-259.180	628.557	0.107	-0.271
-258.165	800.000	0.023	-0.074
-257.151	-125.016	-0.151	-0.023
-256.136	29.028	0.093	-0.080
-255.122	236.831	-0.140	-0.234
-254.107	-72.541	0.202	0.075
-253.092	270.727	-0.041	-0.073
-252.078	451.322	0.152	0.338
-251.063	-17.536	-0.154	-0.097
-250.049	144.611	0.052	0.070
-249.034	-124.776	-0.166	-0.026
-248.019	166.947	-0.141	0.202
-247.005	-91.017	0.162	0.047
-245.990	19.540	0.096	0.078
-244.976	162.732	0.113	0.159
-243.961	30.319	0.117	0.101
-242.946	-197.356	0.411	0.003
-241.932	-85.883	0.188	-0.059
-240.917	-80.203	0.323	-0.109
-239.903	-57.501	0.117	0.052
-238.888	634.770	0.144	0.368
-237.873	-40.003	-0.061	-0.032
-236.859	-161.136	0.154	-0.008
-235.844	800.000	0.093	0.311
-234.830	-109.443	-0.200	-0.043
-233.815	6.694	0.053	-0.040
-232.800	-200.000	-0.002	0.256
-231.786	2.107	0.195	-0.142
-230.771	67.633	0.067	0.069
-229.757	-71.633	-0.249	-0.093
-228.742	-200.000	-0.013	-0.362
-227.727	-19.651	-0.075	-0.047
-226.713	213.641	0.102	0.162
-225.698	-43.401	0.364	0.185
-224.684	800.000	-0.082	0.358
-223.669	-59.952	-0.375	-0.161
-222.655	271.142	-0.060	-0.106
-221.640	-16.200	0.244	-0.156
-220.625	-59.942	-0.144	0.062
-219.611	31.045	0.040	0.035
-218.596	6.108	-0.263	0.196
-217.582	-200.000	-0.021	-0.228
-216.567	208.866	0.169	-0.266
-215.552	618.310	-0.091	0.230
-214.538	-200.000	0.032	-0.224
-213.523	-0.320	-0.132	0.094
-212.509	619.998	0.060	-0.151
-211.494	-200.000	-0.011	0.189
-210.479	-94.873	0.166	0.045
-209.465	174.730	0.164	0.238
-208.450	68.833	-0.305	-0.315
-207.436	138.550	0.075	0.099
-206.421	800.000	0.083	-0.244
-205.406	-66.342	-0.111	-0.045
-204.392	286.817	0.044	0.079
-203.377	-139.307	0.328	-0.035
-202.363	66.051	-0.142	0.145
-201.348	160.081	0.174	-0.244
-200.333	-162.614	0.166	-0.008
-199.319	-73.190	0.202	-0.074
-198.304	-134.215	0.051	-0.006
-197.290	-200.000	-0.018	0.159
-196.275	355.371	-0.096	-0.192
-195.260	94.613	0.030	-0.034
-194.246	-55.722	-0.046	-0.021
-193.231	262.836	-0.289	-0.504
-192.217	-167.615	0.455	0.018
-191.202	44.629	-0.106	0.098
-190.187	307.604	0.059	-0.110
-189.173	-48.149	-0.213	-0.103
-188.158	7.784	0.060	-0.045
-187.144	800.000	0.086	0.326
-186.129	800.000	0.098	0.397
-185.114	-200.000	0.036	0.363
-184.100	-53.854	-0.199	-0.091
-183.085	-66.387	-0.299	-0.119
-182.071	-144.375	0.298	-0.028
-181.056	140.458	0.227	-0.301
-180.042	-200.000	-0.024	-0.245
-179.027	-164.360	-0.050	-0.002
-178.012	-129.955	-0.396	0.054
-176.998	800.000	-0.033	0.093
-175.983	791.657	-0.131	-0.363
-174.969	-124.201	0.243	0.038
-173.954	102.299	0.167	0.196
-172.939	800.000	-0.079	0.234
-171.925	688.291	0.067	-0.176
-170.910	20.009	-0.261	-0.211
-169.896	88.031	-0.174	-0.193
-168.881	-200.000	-0.035	0.262
-167.866	122.408	0.038	-0.047
-166.852	-200.000	0.011	0.193
-165.837	-200.000	-0.438	0.001
-164.823	20.328	0.332	-0.270
-163.808	27.053	-0.099	0.084
-162.793	-200.000	0.015	0.212
-161.779	-29.278	-0.150	0.086
-160.764	55.899	0.116	-0.113
-159.750	-200.000	0.003	-0.491
-158.735	97.256	0.089	0.103
-157.720	-200.000	-0.006	-0.111
-156.706	-200.000	-0.064	0.293
-155.691	-200.000	-0.039	0.246
-154.677	45.170	-0.131	0.122
-153.662	341.790	0.145	0.284
-152.647	-125.938	0.117	-0.018
-151.633	421.470	0.040	-0.086
-150.618	391.639	0.103	-0.214
-149.604	-34.785	0.265	0.145
-148.589	243.678	0.118	-0.198
-147.574	800.000	0.052	0.190
-146.560	-1.127	0.285	-0.202
-145.545	69.616	0.047	-0.049
-144.531	-95.467	0.147	-0.040
-143.516	209.338	0.079	-0.125
-142.502	-13.930	0.175	-0.113
-141.487	-200.000	0.019	-0.220
-140.472	800.000	0.096	-0.337
-139.458	-62.436	0.060	0.025
-138.443	23.972	0.196	-0.162
-137.429	-7.293	-0.123	0.083
-136.414	247.548	0.054	0.091
-135.399	800.000	0.031	-0.130
-134.385	38.034	-0.127	-0.113
-133.370	-78.108	-0.093	-0.032
-132.356	-200.000	-0.003	0.146
-131.341	35.391	-0.043	0.038
-130.326	218.608	-0.033	-0.052
-129.312	-109.008	-0.185	0.040
-128.297	44.027	0.220	0.202
-127.283	-55.886	-0.166	-0.074
-126.268	-10.677	0.156	-0.103
-125.253	-73.473	0.129	0.047
-124.239	-112.390	-0.105	-0.021
-123.224	800.000	-0.117	0.352
-122.210	-200.000	0.007	0.306
