DTS Sentinel unit serial number:	SN413079Multiplexer serial number:	ORYXHardware model number:	OX4-SRSoftware version number:	ORYX F/W v4.00 Oryx Data Collector v3.7.2.0data status	okinstallation	princeton_trtdifferential loss correction	single-endedforward channel	channel 2reverse channel	N/Adate	2019/09/12time	06:53:10forward acquisition time	60.00reverse acquisition time	0.00gamma	496.2192k internal	0.2324k external	0.2324temperature offset calibration	1.0070default loss term (dB/km)	0.3790temperature slope calibration	1.0000multiplexer offset coefficient	1.0000multiplexer slope coefficient	1.0000fibre end	0.00T internal ref (°C)	32.12T ext. ref 1 (°C)	1.59T ext. ref 2 (°C)	27.23length (m)	temperature (°C)	Stokes	anti-Stokes-747.200	242.359	-0.085	0.143
-746.185	14.506	0.162	-0.128
-745.171	-83.687	-0.093	0.030
-744.156	800.000	-0.129	0.425
-743.142	-69.810	-0.195	-0.075
-742.127	73.950	-0.139	0.148
-741.112	103.962	-0.177	-0.210
-740.098	-200.000	-0.005	0.106
-739.083	89.522	0.195	0.219
-738.069	-66.243	-0.286	0.115
-737.054	-111.601	0.446	0.091
-736.039	503.736	-0.197	-0.460
-735.025	-200.000	0.056	0.454
-734.010	800.000	-0.049	0.157
-732.996	0.867	-0.245	0.177
-731.981	162.006	0.158	-0.224
-730.966	131.136	0.057	0.074
-729.952	-161.293	-0.096	0.005
-728.937	-182.873	0.161	-0.003
-727.923	122.457	-0.049	-0.061
-726.908	20.762	-0.225	0.183
-725.894	-200.000	0.008	-0.255
-724.879	-135.173	-0.318	0.039
-723.864	25.046	-0.082	0.068
-722.850	19.813	-0.258	-0.210
-721.835	800.000	0.041	-0.154
-720.821	-200.000	-0.033	0.179
-719.806	800.000	-0.102	0.321
-718.791	50.531	-0.266	-0.254
-717.777	123.661	-0.176	0.223
-716.762	-135.331	0.352	-0.043
-715.748	-9.206	-0.164	-0.111
-714.733	17.332	0.204	0.164
-713.718	-200.000	0.006	0.186
-712.704	-40.396	0.177	-0.093
-711.689	98.326	0.131	-0.152
-710.675	9.704	0.148	-0.113
-709.660	-67.787	-0.449	-0.177
-708.645	203.949	0.039	-0.061
-707.631	-200.000	-0.003	0.092
-706.616	212.892	0.062	0.099
-705.602	800.000	-0.037	0.105
-704.587	234.948	0.109	0.182
-703.572	800.000	0.120	-0.413
-702.558	-200.000	0.018	0.112
-701.543	17.550	0.085	0.068
-700.529	-200.000	0.039	0.260
-699.514	-200.000	0.019	-0.100
-698.499	158.053	-0.129	0.180
-697.485	800.000	0.112	-0.327
-696.470	-200.000	0.005	0.178
-695.456	800.000	-0.047	0.198
-694.441	-65.789	-0.123	-0.049
-693.426	72.795	-0.091	-0.096
-692.412	800.000	0.052	-0.228
-691.397	-131.689	0.198	0.026
-690.383	-200.000	-0.017	-0.178
-689.368	-97.746	-0.053	0.014
-688.354	-25.749	0.360	0.214
-687.339	-19.974	-0.306	0.190
-686.324	26.212	-0.242	0.204
-685.310	766.046	-0.079	-0.215
-684.295	-81.086	0.152	0.051
-683.281	-42.202	-0.419	0.216
-682.266	-62.786	-0.134	0.056
-681.251	219.919	0.004	-0.007
-680.237	800.000	0.038	0.153
-679.222	-37.344	-0.397	-0.214
-678.208	484.175	0.099	0.227
-677.193	226.026	0.158	-0.258
-676.178	268.598	-0.086	0.152
-675.164	-26.649	-0.099	0.058
-674.149	800.000	0.090	0.362
-673.135	63.237	0.114	-0.115
-672.120	423.383	-0.042	0.091
-671.105	-200.000	0.027	-0.164
-670.091	9.019	0.124	-0.094
-669.076	655.224	0.104	-0.270
-668.062	-88.327	0.295	0.089
-667.047	91.608	-0.098	-0.111
-666.032	29.547	-0.109	-0.093
-665.018	-115.200	-0.313	0.060
-664.003	151.054	-0.048	0.066
-662.989	203.004	-0.168	0.262
-661.974	800.000	0.075	0.213
-660.959	-107.208	0.306	0.068
-659.945	800.000	0.109	-0.386
-658.930	104.243	0.189	-0.224
-657.916	-105.091	0.098	-0.023
-656.901	-2.673	-0.147	-0.104
-655.886	-200.000	-0.029	-0.175
-654.872	39.300	-0.292	0.263
-653.857	82.246	-0.065	-0.071
-652.843	-145.674	0.146	0.013
-651.828	160.278	0.115	-0.161
-650.814	152.738	-0.055	-0.076
-649.799	-116.240	-0.224	0.042
-648.784	-76.107	-0.265	0.094
-647.770	14.200	0.033	0.026
-646.755	-121.939	0.065	0.011
-645.741	19.812	0.183	0.148
-644.726	-131.518	0.217	-0.029
-643.711	756.136	0.033	-0.090
-642.697	800.000	0.053	0.191
-641.682	-78.571	0.247	-0.085
-640.668	-200.000	-0.007	0.245
-639.653	-33.496	0.139	-0.077
-638.638	-53.490	-0.099	0.045
-637.624	83.893	0.039	-0.042
-636.609	-55.433	-0.068	0.031
-635.595	123.259	0.272	-0.343
-634.580	-200.000	0.046	-0.217
-633.565	800.000	-0.084	-0.244
-632.551	-84.289	-0.205	-0.065
-631.536	800.000	0.045	-0.167
-630.522	-49.602	0.253	-0.121
-629.507	-200.000	0.011	-0.165
-628.492	342.926	-0.013	-0.026
-627.478	-200.000	-0.045	-0.304
-626.463	-81.480	0.176	-0.058
-625.449	32.812	0.093	-0.081
-624.434	84.749	0.160	0.176
-623.419	127.240	-0.087	0.111
-622.405	-34.450	0.355	-0.195
-621.390	101.643	0.252	-0.295
-620.376	33.431	0.055	-0.048
-619.361	-200.000	-0.066	-0.338
-618.346	800.000	-0.044	0.150
-617.332	-4.346	0.192	0.133
-616.317	34.549	0.097	-0.085
-615.303	138.921	-0.299	0.395
-614.288	129.092	-0.081	-0.104
-613.273	28.546	0.294	-0.250
-612.259	-26.345	0.259	-0.152
-611.244	800.000	0.071	0.223
-610.230	-52.964	-0.186	-0.086
-609.215	-200.000	0.006	0.050
-608.201	-76.276	0.060	0.021
-607.186	-74.725	-0.054	0.020
-606.171	302.514	0.046	0.086
-605.157	-143.845	-0.403	0.038
-604.142	-40.776	-0.235	-0.122
-603.128	-200.000	-0.022	-0.106
-602.113	-54.282	0.167	0.076
-601.098	660.197	0.074	0.192
-600.084	-102.491	0.073	0.018
-599.069	244.631	0.109	-0.184
-598.055	28.345	-0.147	0.125
-597.040	-200.000	0.030	0.302
-596.025	-200.000	0.009	0.135
-595.011	800.000	-0.027	0.095
-593.996	-134.282	-0.238	0.029
-592.982	-65.285	-0.135	0.055
-591.967	-139.600	-0.494	0.053
-590.952	-141.641	-0.054	-0.005
-589.938	-200.000	0.005	0.093
-588.923	14.654	-0.197	0.155
-587.909	-115.348	0.120	0.023
-586.894	-200.000	-0.000	0.272
-585.879	-200.000	0.023	0.128
-584.865	-200.000	-0.006	-0.079
-583.850	-41.648	-0.251	0.130
-582.836	-113.487	0.233	0.046
-581.821	800.000	-0.068	0.250
-580.806	-200.000	0.005	0.160
-579.792	177.385	0.113	-0.165
-578.777	-200.000	-0.012	0.233
-577.763	-200.000	0.056	0.264
-576.748	800.000	0.064	-0.242
-575.733	28.368	0.060	0.051
-574.719	-28.529	-0.268	-0.155
-573.704	-200.000	-0.022	0.132
-572.690	-200.000	0.015	-0.105
-571.675	20.744	0.141	-0.115
-570.661	-200.000	-0.005	0.298
-569.646	11.780	-0.100	0.077
-568.631	319.124	-0.071	-0.134
-567.617	-34.736	-0.300	-0.164
-566.602	501.629	-0.179	-0.415
-565.588	800.000	0.059	0.243
-564.573	-112.194	0.029	-0.006
-563.558	169.776	0.123	-0.176
-562.544	-100.325	0.183	-0.045
-561.529	7.325	-0.145	-0.109
-560.515	-145.760	0.180	0.016
-559.500	44.832	-0.317	-0.292
-558.485	-148.865	-0.245	-0.020
-557.471	-102.180	-0.460	-0.111
-556.456	235.414	0.196	-0.324
-555.442	800.000	-0.074	-0.283
-554.427	-200.000	-0.076	0.380
-553.412	-127.273	0.073	0.011
-552.398	-84.678	-0.101	-0.032
-551.383	-200.000	0.030	-0.207
-550.369	-47.455	-0.137	0.067
-549.354	-102.087	0.216	0.052
-548.339	-105.022	0.105	0.024
-547.325	66.363	-0.212	0.215
-546.310	800.000	0.025	0.079
-545.296	3.679	-0.385	-0.281
-544.281	-141.785	0.211	-0.021
-543.266	-82.713	-0.119	0.039
-542.252	46.818	-0.193	0.179
-541.237	-59.023	0.219	0.095
-540.223	-0.855	-0.113	0.080
-539.208	132.902	0.149	-0.193
-538.193	800.000	0.023	-0.094
-537.179	-66.154	-0.046	0.018
-536.164	534.555	0.027	0.065
-535.150	-58.943	-0.122	-0.053
-534.135	8.017	0.133	-0.100
-533.121	-85.860	-0.265	-0.082
-532.106	-37.353	0.293	-0.156
-531.091	-200.000	-0.026	0.125
-530.077	-200.000	0.031	-0.150
-529.062	46.792	0.126	0.118
-528.048	-42.830	-0.033	-0.017
-527.033	606.437	0.064	-0.160
-526.018	367.739	-0.188	-0.380
-525.004	-92.962	-0.164	-0.046
-523.989	-200.000	0.009	0.225
-522.975	38.355	0.241	0.215
-521.960	279.524	-0.149	0.265
-520.945	135.023	-0.210	0.273
-519.931	222.049	0.184	0.297
-518.916	-200.000	0.088	0.410
-517.902	30.746	0.234	0.200
-516.887	-165.871	-0.129	-0.006
-515.872	-51.897	-0.062	-0.029
-514.858	-110.108	0.240	0.050
-513.843	796.779	0.168	-0.462
-512.829	-142.023	0.030	-0.003
-511.814	-200.000	0.021	0.127
-510.799	418.262	-0.079	-0.168
-509.785	-84.321	0.395	-0.125
-508.770	-93.882	0.255	-0.070
-507.756	65.750	-0.229	0.232
-506.741	-200.000	-0.018	-0.248
-505.726	-200.000	0.013	0.114
-504.712	459.430	-0.085	0.190
-503.697	520.655	-0.127	0.298
-502.683	-123.811	0.351	-0.056
-501.668	399.522	-0.017	0.036
-500.653	489.248	-0.030	-0.068
-499.639	-85.358	0.224	-0.070
-498.624	3.885	0.157	0.114
-497.610	800.000	0.083	0.251
-496.595	-49.655	-0.532	0.253
-495.581	166.589	-0.171	-0.242
-494.566	157.489	-0.086	0.118
-493.551	-110.740	-0.047	-0.010
-492.537	-32.146	0.155	-0.087
-491.522	49.901	-0.126	-0.119
-490.508	-200.000	0.010	0.638
-489.493	138.180	-0.131	0.172
-488.478	134.970	0.149	-0.193
-487.464	-29.184	-0.040	0.023
-486.449	517.112	0.073	0.172
-485.435	1.235	0.186	-0.133
-484.420	290.623	0.130	0.237
-483.405	437.289	-0.183	0.399
-482.391	-200.000	0.013	0.124
-481.376	176.031	-0.166	-0.241
-480.362	-200.000	0.037	-0.206
-479.347	-30.259	-0.103	-0.059
-478.332	-55.556	-0.023	-0.010
-477.318	-113.607	-0.098	-0.019
-476.303	33.521	-0.051	0.045
-475.289	73.446	0.112	-0.117
-474.274	-200.000	0.009	0.176
-473.259	64.570	0.235	0.236
-472.245	-155.966	-0.210	0.013
-471.230	64.500	0.053	-0.053
-470.216	800.000	-0.090	-0.332
-469.201	-167.118	0.505	0.021
-468.186	-200.000	-0.014	-0.170
-467.172	96.525	-0.310	-0.355
-466.157	-93.949	0.255	-0.070
-465.143	800.000	-0.084	-0.246
-464.128	323.989	0.095	0.180
-463.113	-200.000	0.065	0.462
-462.099	81.287	-0.111	-0.119
-461.084	800.000	0.053	0.190
-460.070	269.938	0.108	-0.190
-459.055	-95.020	-0.274	0.074
-458.040	-160.637	-0.129	-0.007
-457.026	-200.000	-0.023	-0.160
-456.011	152.034	0.146	0.199
-454.997	-135.235	-0.185	-0.022
-453.982	353.503	0.059	-0.117
-452.968	-78.805	0.240	-0.082
-451.953	-20.072	-0.027	0.017
-450.938	-200.000	0.141	0.631
-449.924	-74.235	0.257	0.093
-448.909	140.363	0.208	-0.273
-447.895	247.609	0.180	0.303
-446.880	800.000	-0.093	0.388
-445.865	-139.639	-0.212	-0.023
-444.851	160.432	-0.024	-0.033
-443.836	617.708	0.040	-0.100
-442.822	-14.280	-0.133	0.086
-441.807	180.447	0.043	0.062
-440.792	-80.232	0.087	-0.029
-439.778	800.000	-0.115	-0.322
-438.763	-200.000	-0.001	0.059
-437.749	-200.000	-0.005	0.097
-436.734	54.110	-0.204	-0.195
-435.719	800.000	-0.021	-0.059
-434.705	-51.149	-0.187	0.087
-433.690	800.000	0.084	0.330
-432.676	83.113	-0.031	0.033
-431.661	-79.622	0.419	0.141
-430.646	140.742	-0.162	0.213
-429.632	584.159	-0.108	-0.264
-428.617	800.000	0.047	-0.133
-427.603	800.000	-0.110	0.401
-426.588	-200.000	-0.022	0.135
-425.573	123.876	-0.233	-0.291
-424.559	94.260	0.116	0.131
-423.544	-38.205	-0.102	-0.054
-422.530	-130.516	0.243	0.033
-421.515	-170.614	-0.083	-0.003
-420.500	39.647	-0.114	0.101
-419.486	15.905	0.222	-0.174
-418.471	-13.726	0.247	0.159
-417.457	-179.340	-0.211	-0.005
-416.442	-95.169	0.273	0.073
-415.428	289.797	0.157	-0.284
-414.413	70.708	-0.276	-0.285
-413.398	-48.765	-0.314	-0.150
-412.384	-67.991	-0.138	-0.054
-411.369	-200.000	-0.040	-0.263
-410.355	-200.000	-0.021	0.142
-409.340	-110.404	0.099	0.021
-408.325	-200.000	0.036	-0.408
-407.311	-121.745	-0.185	-0.030
-406.296	-23.035	0.297	-0.178
-405.282	42.720	0.315	-0.286
-404.267	-44.555	0.250	-0.125
-403.252	-80.602	0.270	0.090
-402.238	265.911	0.207	-0.360
-401.223	-92.591	-0.213	0.060
-400.209	16.658	-0.257	-0.203
-399.194	102.970	0.272	-0.317
-398.179	800.000	0.030	-0.123
-397.165	-102.691	0.167	0.040
-396.150	682.521	-0.123	0.321
-395.136	-140.988	-0.391	-0.040
-394.121	800.000	0.134	0.396
-393.106	25.014	0.026	0.022
-392.092	-31.287	0.306	0.171
-391.077	-200.000	0.033	0.206
-390.063	800.000	-0.054	-0.178
-389.048	495.576	0.150	0.343
-388.033	-134.605	0.247	0.030
-387.019	-116.220	0.427	-0.079
-386.004	-200.000	-0.038	0.174
-384.990	-200.000	0.016	0.220
-383.975	726.014	-0.091	-0.242
-382.960	448.992	-0.092	0.203
-381.946	210.543	-0.155	0.242
-380.931	-134.912	-0.565	0.068
-379.917	218.429	0.131	0.208
-378.902	264.581	0.099	0.171
-377.888	123.451	-0.173	-0.216
-376.873	161.551	0.343	0.478
-375.858	133.331	-0.284	0.365
-374.844	-109.468	0.089	-0.019
-373.829	-0.242	-0.072	0.051
-372.815	-69.204	-0.101	0.039
-371.800	-151.339	0.095	0.007
-370.785	417.970	0.052	0.110
-369.771	128.722	0.346	0.439
-368.756	800.000	0.076	0.227
-367.742	127.197	0.267	0.337
-366.727	-200.000	0.020	0.100
-365.712	90.430	0.037	0.041
-364.698	156.899	0.034	0.047
-363.683	255.753	0.067	-0.114
-362.669	-72.974	0.092	0.034
-361.654	-120.955	-0.226	-0.038
-360.639	774.571	0.126	0.342
-359.625	54.578	0.170	-0.163
-358.610	800.000	0.125	-0.387
-357.596	-146.713	-0.234	-0.020
-356.581	-200.000	0.003	-0.181
-355.566	-4.739	-0.065	-0.044
-354.552	800.000	0.030	0.114
-353.537	-24.130	0.277	0.164
-352.523	-85.397	-0.476	-0.148
-351.508	-70.255	-0.101	0.038
-350.493	161.335	0.120	-0.167
-349.479	-148.157	-0.177	0.015
-348.464	-200.000	-0.026	0.226
-347.450	306.297	0.044	-0.082
-346.435	-61.398	0.159	0.067
-345.420	-200.000	0.001	-0.434
-344.406	3.027	0.173	-0.125
-343.391	503.026	-0.141	0.323
-342.377	-200.000	-0.042	-0.227
-341.362	-200.000	-0.019	-0.284
-340.348	330.828	-0.162	-0.311
-339.333	800.000	0.087	-0.258
-338.318	169.493	-0.123	-0.175
-337.304	-126.147	0.246	-0.037
-336.289	-46.619	-0.221	0.108
-335.275	-200.000	0.004	0.163
-334.260	128.975	-0.217	-0.276
-333.245	-100.667	-0.396	-0.097
-332.231	-41.464	0.267	-0.136
-331.216	-200.000	-0.008	-0.047
-330.202	-63.242	-0.092	0.037
-329.187	11.087	-0.179	-0.136
-328.172	42.883	0.281	0.254
-327.158	-179.883	-0.204	0.004
-326.143	-58.242	-0.075	-0.032
-325.129	49.242	0.073	-0.068
-324.114	-8.063	-0.250	0.167
-323.099	-200.000	-0.004	-0.020
-322.085	-200.000	-0.010	0.119
-321.070	31.257	0.350	-0.298
-320.056	67.750	-0.184	0.187
-319.041	-12.798	0.160	-0.104
-318.026	221.046	0.098	-0.157
-317.012	231.111	0.036	-0.059
-315.997	-6.406	0.150	-0.101
-314.983	-46.819	-0.216	0.105
-313.968	89.554	-0.315	-0.349
-312.953	800.000	-0.051	-0.157
-311.939	379.033	-0.098	-0.200
-310.924	-115.358	0.332	-0.062
-309.910	-64.785	-0.220	0.088
-308.895	1.440	-0.193	0.138
-307.880	34.088	0.083	0.072
-306.866	156.875	0.159	0.218
-305.851	286.746	0.187	0.335
-304.837	-62.154	-0.131	0.054
-303.822	-38.433	-0.063	-0.033
-302.807	-126.291	-0.248	0.037
-301.793	188.365	0.083	-0.124
-300.778	-23.244	-0.408	0.244
-299.764	745.011	-0.139	0.370
-298.749	53.352	-0.126	-0.120
-297.735	-200.000	0.022	0.147
-296.720	557.127	-0.110	-0.264
-295.705	-63.268	0.385	-0.157
-294.691	-95.147	0.187	-0.050
-293.676	46.977	-0.126	0.116
-292.662	-4.082	-0.217	-0.149
-291.647	-113.801	-0.154	-0.030
-290.632	-24.898	0.105	0.062
-289.618	-6.751	-0.117	-0.079
-288.603	-112.913	-0.300	-0.059
-287.589	-200.000	-0.011	0.151
-286.574	-51.135	-0.183	-0.085
-285.559	-17.860	0.085	-0.053
-284.545	800.000	-0.170	-0.654
-283.530	204.297	0.215	-0.330
-282.516	800.000	0.036	-0.149
-281.501	394.046	0.061	-0.125
-280.486	-24.264	-0.087	-0.052
-279.472	-200.000	0.010	0.134
-278.457	-55.035	0.458	0.204
-277.443	-107.998	0.107	-0.023
-276.428	32.612	0.116	-0.099
-275.413	800.000	-0.074	-0.273
-274.399	-200.000	-0.014	0.395
-273.384	97.189	-0.049	-0.056
-272.370	-200.000	-0.028	-0.195
-271.355	-97.382	-0.067	-0.017
-270.340	-100.722	-0.365	-0.089
-269.326	43.380	-0.108	-0.098
-268.311	80.643	-0.113	0.121
-267.297	-200.000	-0.046	-0.202
-266.282	332.808	0.068	0.130
-265.267	-41.763	-0.079	-0.040
-264.253	289.605	0.108	0.194
-263.238	-82.230	0.140	0.045
-262.224	-182.656	-0.356	0.006
-261.209	-61.980	0.157	0.065
-260.195	-200.000	0.045	-0.258
-259.180	800.000	-0.054	0.148
-258.165	-15.493	0.286	-0.181
-257.151	-25.939	0.295	-0.172
-256.136	286.256	0.146	0.261
-255.122	-88.718	-0.366	-0.108
-254.107	-59.433	0.088	0.037
-253.092	-200.000	0.062	0.344
-252.078	-100.504	-0.387	-0.095
-251.063	8.250	-0.232	-0.173
-250.049	800.000	-0.009	0.031
-249.034	102.423	-0.137	0.158
-248.019	-110.483	-0.116	0.024
-247.005	-200.000	0.043	-0.407
-245.990	7.807	0.214	-0.159
-244.976	152.227	-0.211	-0.285
-243.961	158.352	0.100	0.138
-242.946	-200.000	0.039	0.252
-241.932	2.749	0.046	0.033
-240.917	85.104	0.131	0.142
-239.903	-45.299	-0.417	-0.205
-238.888	5.797	0.207	-0.152
-237.873	-200.000	-0.028	-0.191
-236.859	560.831	0.131	0.313
-235.844	18.532	-0.153	0.121
-234.830	78.979	-0.132	-0.140
-233.815	-200.000	0.035	0.240
-232.800	37.870	0.241	-0.212
-231.786	9.283	0.313	0.234
-230.771	-51.926	0.256	0.118
-229.757	574.812	0.057	0.137
-228.742	172.675	0.198	-0.282
-227.727	-200.000	0.053	0.262
-226.713	-200.000	0.009	0.053
-225.698	-34.720	-0.305	0.165
-224.684	-136.002	0.220	0.026
-223.669	-200.000	0.015	-0.240
-222.655	-200.000	-0.010	0.088
-221.640	84.537	-0.099	-0.108
-220.625	-6.470	0.243	0.164
-219.611	174.050	0.303	0.434
-218.596	-2.641	-0.225	0.156
-217.582	369.669	-0.107	-0.215
-216.567	-110.923	0.423	0.086
-215.552	-200.000	-0.038	-0.185
-214.538	760.624	-0.067	0.179
-213.523	34.194	-0.138	0.119
-212.509	-80.280	-0.158	-0.052
-211.494	456.559	0.046	-0.102
-210.479	-200.000	0.035	0.215
-209.465	-200.000	0.000	-0.016
-208.450	313.961	0.080	-0.149
-207.436	-32.582	0.135	0.074
-206.421	-85.620	-0.275	0.084
-205.406	54.907	-0.130	0.124
-204.392	-68.812	0.273	0.104
-203.377	-200.000	0.049	-0.302
-202.363	-0.727	-0.168	-0.117
-201.348	-200.000	-0.007	-0.151
-200.333	800.000	-0.061	-0.198
-199.319	129.007	0.169	0.213
-198.304	158.505	0.025	-0.034
-197.290	59.917	-0.315	0.307
-196.275	-200.000	0.011	-0.117
-195.260	39.357	-0.113	-0.100
-194.246	156.615	-0.143	-0.195
-193.231	-200.000	-0.047	0.397
-192.217	302.609	0.116	-0.212
-191.202	264.484	-0.168	-0.289
-190.187	-111.093	0.167	0.034
-189.173	416.408	0.123	-0.259
-188.158	-200.000	-0.012	-0.054
-187.144	-200.000	-0.057	0.257
-186.129	88.340	-0.242	-0.265
-185.114	-149.749	0.275	-0.021
-184.100	-168.593	-0.153	0.006
-183.085	421.817	0.172	0.364
-182.071	-15.343	-0.198	0.125
-181.056	725.983	0.003	-0.008
-180.042	69.343	0.100	-0.102
-179.027	27.932	0.094	-0.079
-178.012	-92.103	0.050	0.014
-176.998	-159.337	-0.251	-0.014
-175.983	-200.000	0.009	0.075
-174.969	297.910	0.059	0.106
-173.954	676.639	0.118	-0.302
-172.939	800.000	-0.072	-0.309
-171.925	35.455	0.138	0.120
-170.910	-200.000	-0.002	0.083
-169.896	92.009	-0.098	0.109
-168.881	35.095	0.297	-0.257
-167.866	98.981	-0.097	-0.111
-166.852	-56.317	-0.056	0.024
-165.837	-121.054	-0.156	-0.026
-164.823	44.529	-0.329	-0.298
-163.808	800.000	-0.045	0.139
-162.793	-155.659	-0.304	-0.019
-161.779	47.730	0.220	-0.202
-160.764	19.096	-0.110	0.087
-159.750	800.000	-0.043	-0.135
-158.735	11.092	0.229	0.173
-157.720	-153.255	0.139	0.010
-156.706	-94.829	0.338	0.090
-155.691	168.537	-0.047	-0.066
-154.677	800.000	-0.071	-0.271
-153.662	115.711	-0.307	0.370
-152.647	-92.590	0.233	-0.065
-151.633	800.000	-0.039	-0.143
-150.618	25.853	0.129	0.106
-149.604	105.158	-0.195	0.227
-148.589	27.753	0.182	0.151
-147.574	1.698	0.188	0.134
-146.560	-99.937	-0.234	-0.058
-145.545	-118.489	0.255	-0.045
-144.531	-200.000	-0.032	-0.221
-143.516	-132.429	0.129	0.016
-142.502	-200.000	0.262	-0.000
-141.487	800.000	-0.087	-0.268
-140.472	107.722	0.022	-0.026
-139.458	-57.998	0.218	0.094
-138.443	-134.352	-0.108	0.013
-137.429	-44.963	0.454	0.223
-136.414	-88.907	-0.352	0.103
-135.399	-147.654	0.174	-0.014
-134.385	37.985	-0.095	0.083
-133.370	-101.706	-0.213	-0.051
-132.356	375.308	0.049	-0.098
-131.341	-200.000	-0.008	0.049
-130.326	-149.245	-0.192	-0.015
-129.312	-200.000	-0.048	0.333
-128.297	1.697	-0.255	0.181
-127.283	117.061	0.328	0.397
-126.268	-22.362	0.204	-0.122
-125.253	-200.000	0.039	-0.197
-124.239	563.676	-0.110	0.262
-123.224	-200.000	0.014	-0.204
-122.210	-81.043	-0.128	0.042
-121.195	256.415	-0.078	0.132
-120.180	667.675	-0.179	0.456
