DTS Sentinel unit serial number:	SN413079Multiplexer serial number:	ORYXHardware model number:	OX4-SRSoftware version number:	ORYX F/W v4.00 Oryx Data Collector v3.7.2.0data status	okinstallation	princeton_trtdifferential loss correction	single-endedforward channel	channel 2reverse channel	N/Adate	2019/09/11time	12:57:11forward acquisition time	60.00reverse acquisition time	0.00gamma	496.2192k internal	0.2293k external	0.2293temperature offset calibration	0.9968default loss term (dB/km)	0.3790temperature slope calibration	1.0000multiplexer offset coefficient	1.0000multiplexer slope coefficient	1.0000fibre end	0.00T internal ref (°C)	41.45T ext. ref 1 (°C)	0.21T ext. ref 2 (°C)	38.78length (m)	temperature (°C)	Stokes	anti-Stokes-747.200	111.810	0.068	-0.084
-746.185	-200.000	-0.035	-0.274
-745.171	-61.784	-0.191	0.082
-744.156	297.218	-0.047	-0.088
-743.142	229.189	0.088	-0.147
-742.127	109.117	-0.028	-0.034
-741.112	-200.000	-0.032	-0.438
-740.098	-200.000	0.039	0.323
-739.083	-137.214	-0.556	0.065
-738.069	-89.940	-0.218	0.065
-737.054	-62.896	-0.123	-0.052
-736.039	-16.836	-0.170	0.110
-735.025	-200.000	-0.014	-0.065
-734.010	-200.000	-0.020	-0.362
-732.996	-200.000	-0.014	-0.159
-731.981	109.648	-0.109	0.133
-730.966	-200.000	0.029	0.141
-729.952	-39.663	-0.213	-0.114
-728.937	96.535	-0.188	0.220
-727.923	-200.000	0.005	0.051
-726.908	153.592	-0.208	0.291
-725.894	288.358	0.138	0.255
-724.879	-50.715	0.289	-0.139
-723.864	28.321	0.014	-0.012
-722.850	34.932	-0.189	-0.169
-721.835	-82.409	-0.266	0.088
-720.821	-72.364	0.206	-0.078
-719.806	47.284	0.398	0.379
-718.791	-200.000	-0.051	-0.376
-717.777	93.865	-0.112	-0.130
-716.762	800.000	-0.028	-0.121
-715.748	109.031	0.157	0.191
-714.733	8.406	-0.077	0.059
-713.718	-186.204	-0.177	-0.003
-712.704	73.210	-0.233	-0.249
-711.689	-168.135	0.034	0.001
-710.675	97.894	-0.144	-0.170
-709.660	-200.000	0.004	-0.109
-708.645	262.676	-0.159	-0.281
-707.631	-200.000	-0.003	0.079
-706.616	-157.348	0.150	-0.009
-705.602	-135.617	0.216	0.026
-704.587	-156.724	0.216	0.014
-703.572	181.641	-0.144	-0.216
-702.558	-22.638	-0.276	-0.171
-701.543	800.000	0.055	-0.192
-700.529	-200.000	-0.025	0.228
-699.514	75.529	-0.093	0.101
-698.499	-200.000	-0.029	-0.137
-697.485	-115.154	0.116	0.023
-696.470	511.001	-0.149	-0.355
-695.456	-87.176	0.377	-0.117
-694.441	303.028	0.157	0.297
-693.426	-200.000	-0.219	0.001
-692.412	-136.382	-0.125	-0.015
-691.397	-200.000	0.004	-0.032
-690.383	0.724	-0.219	-0.160
-689.368	-77.017	0.226	-0.080
-688.354	-100.740	0.198	0.050
-687.339	800.000	0.085	0.293
-686.324	-143.853	-0.203	0.020
-685.310	108.779	-0.105	0.128
-684.295	800.000	-0.066	0.284
-683.281	33.353	-0.170	-0.151
-682.266	-200.000	0.000	-0.174
-681.251	175.897	0.252	-0.373
-680.237	-145.830	-0.242	-0.022
-679.222	192.967	0.051	-0.078
-678.208	-6.487	-0.078	0.054
-677.193	358.404	-0.200	-0.407
-676.178	-200.000	0.032	0.269
-675.164	-200.000	-0.038	0.262
-674.149	-110.043	-0.207	0.044
-673.135	746.905	-0.106	-0.292
-672.120	464.974	0.022	-0.049
-671.105	256.878	0.013	0.022
-670.091	800.000	0.042	0.130
-669.076	144.908	-0.236	-0.321
-668.062	-177.835	0.382	-0.009
-667.047	-120.449	-0.045	0.008
-666.032	-35.567	-0.154	0.085
-665.018	-42.792	0.150	-0.078
-664.003	-200.000	0.033	-0.179
-662.989	88.259	0.099	0.112
-661.974	-77.740	0.161	-0.057
-660.959	-89.752	0.116	0.035
-659.945	-200.000	-0.029	-0.161
-658.930	800.000	-0.046	-0.137
-657.916	-200.000	-0.026	-0.167
-656.901	-138.092	-0.253	-0.029
-655.886	-200.000	-0.023	0.117
-654.872	-14.188	-0.194	-0.127
-653.857	-124.734	-0.286	-0.045
-652.843	-151.712	-0.264	-0.020
-651.828	800.000	-0.008	0.032
-650.814	-200.000	0.029	-0.188
-649.799	-19.435	-0.116	-0.074
-648.784	89.190	-0.198	-0.225
-647.770	94.169	0.139	-0.160
-646.755	81.165	-0.105	0.116
-645.741	15.768	-0.305	-0.245
-644.726	800.000	0.046	-0.155
-643.711	112.658	0.150	0.185
-642.697	-104.046	-0.257	-0.061
-641.682	-103.394	0.215	-0.052
-640.668	131.016	-0.128	-0.167
-639.653	-54.707	-0.163	-0.075
-638.638	144.130	-0.067	0.092
-637.624	-200.000	-0.070	0.412
-636.609	6.562	-0.060	-0.046
-635.595	800.000	-0.033	-0.120
-634.580	-79.335	0.098	-0.034
-633.565	-60.087	0.067	0.029
-632.551	65.259	0.091	-0.094
-631.536	-82.936	0.177	-0.058
-630.522	136.269	0.142	-0.189
-629.507	-85.320	-0.180	0.057
-628.492	800.000	0.147	0.470
-627.478	-64.273	-0.270	-0.112
-626.463	-200.000	0.026	-0.217
-625.449	-200.000	0.010	0.184
-624.434	-200.000	0.029	-0.232
-623.419	-63.417	-0.131	-0.055
-622.405	223.014	0.299	-0.491
-621.390	51.791	-0.091	-0.089
-620.376	800.000	0.054	0.204
-619.361	800.000	-0.011	-0.040
-618.346	-23.262	-0.212	-0.130
-617.332	-200.000	0.008	0.071
-616.317	173.840	-0.139	-0.205
-615.303	162.165	0.165	0.235
-614.288	-62.462	0.333	-0.141
-613.273	800.000	-0.031	0.117
-612.259	800.000	-0.042	0.148
-611.244	-34.795	-0.045	0.025
-610.230	-161.075	-0.108	-0.006
-609.215	339.931	0.108	-0.215
-608.201	800.000	0.052	0.198
-607.186	-200.000	0.013	-0.062
-606.171	97.042	0.144	0.168
-605.157	-109.884	0.326	-0.070
-604.142	-200.000	-0.018	-0.324
-603.128	-200.000	0.027	0.305
-602.113	-68.831	-0.019	-0.007
-601.098	542.748	-0.094	0.227
-600.084	305.948	-0.041	-0.077
-599.069	98.218	-0.071	-0.083
-598.055	-38.650	-0.181	-0.097
-597.040	601.953	-0.022	0.055
-596.025	-200.000	0.011	0.157
-595.011	-141.173	0.168	0.017
-593.996	-143.649	-0.117	0.011
-592.982	800.000	-0.032	0.106
-591.967	83.564	0.020	0.023
-590.952	358.417	-0.149	-0.302
-589.938	65.157	0.106	0.109
-588.923	770.054	0.088	0.244
-587.909	-88.250	0.122	0.037
-586.894	-116.722	0.241	0.045
-585.879	320.744	-0.108	-0.209
-584.865	151.567	0.193	0.267
-583.850	-36.449	0.237	0.130
-582.836	400.152	-0.061	0.129
-581.821	-2.483	0.155	0.110
-580.806	-200.000	-0.030	0.272
-579.792	-105.670	0.097	-0.022
-578.777	66.262	0.218	-0.225
-577.763	-200.000	-0.036	-0.242
-576.748	800.000	0.073	0.205
-575.733	800.000	0.055	0.172
-574.719	-200.000	-0.043	0.261
-573.704	23.478	-0.087	-0.072
-572.690	-30.691	-0.165	0.095
-571.675	-34.004	-0.136	-0.076
-570.661	-200.000	0.020	-0.128
-569.646	189.616	-0.141	-0.215
-568.631	-101.463	-0.148	0.037
-567.617	-200.000	0.036	0.193
-566.602	-126.387	-0.057	0.009
-565.588	-200.000	-0.038	0.232
-564.573	40.147	-0.159	-0.146
-563.558	800.000	0.084	0.253
-562.544	72.658	-0.113	-0.120
-561.529	-29.638	0.224	-0.130
-560.515	800.000	-0.128	0.387
-559.500	-103.953	0.164	0.039
-558.485	572.764	0.080	-0.198
-557.471	-200.000	0.004	-0.091
-556.456	-200.000	0.010	-0.152
-555.442	-53.738	-0.162	0.075
-554.427	25.977	0.233	0.198
-553.412	-4.474	0.316	-0.222
-552.398	153.027	0.191	-0.265
-551.383	-200.000	0.016	-0.080
-550.369	800.000	-0.056	0.222
-549.354	-18.289	0.098	0.062
-548.339	767.978	-0.088	0.244
-547.325	237.954	-0.075	0.126
-546.310	800.000	0.021	0.092
-545.296	-38.918	-0.178	0.095
-544.281	256.169	-0.116	-0.203
-543.266	-200.000	-0.010	0.054
-542.252	-102.888	0.171	0.041
-541.237	514.728	-0.025	-0.059
-540.223	-184.833	0.053	0.001
-539.208	-32.745	-0.042	0.024
-538.193	-40.183	-0.229	0.121
-537.179	-89.324	-0.188	-0.056
-536.164	71.737	0.084	0.089
-535.150	800.000	-0.008	0.032
-534.135	14.920	0.109	0.087
-533.121	296.588	-0.115	-0.214
-532.106	49.692	-0.150	0.144
-531.091	51.169	0.068	0.065
-530.077	-113.049	0.166	0.033
-529.062	14.702	0.148	0.118
-528.048	-71.066	0.328	-0.125
-527.033	-91.136	-0.173	-0.050
-526.018	285.497	-0.126	0.231
-525.004	-84.331	-0.189	0.061
-523.989	634.890	0.064	0.165
-522.975	-101.800	-0.241	0.059
-521.960	24.738	-0.034	-0.028
-520.945	-95.225	0.158	-0.043
-519.931	88.150	-0.290	0.326
-518.916	-60.391	-0.295	0.127
-517.902	703.894	0.035	-0.093
-516.887	225.443	-0.078	-0.128
-515.872	-200.000	0.018	-0.222
-514.858	98.979	0.098	0.115
-513.843	410.531	-0.082	-0.177
-512.829	-159.373	-0.368	-0.021
-511.814	-86.645	0.023	-0.007
-510.799	-121.652	0.056	0.009
-509.785	-200.000	-0.037	0.224
-508.770	-75.179	0.263	0.095
-507.756	145.230	-0.105	0.142
-506.741	-36.287	-0.095	0.052
-505.726	-30.659	0.229	-0.131
-504.712	27.200	0.177	0.151
-503.697	-97.336	-0.433	-0.114
-502.683	131.754	-0.199	-0.259
-501.668	26.645	-0.250	-0.213
-500.653	155.892	0.101	-0.141
-499.639	800.000	0.055	0.198
-498.624	361.413	-0.058	-0.118
-497.610	800.000	-0.072	-0.234
-496.595	-42.348	0.338	-0.175
-495.581	-2.271	0.106	-0.075
-494.566	1.866	0.221	0.161
-493.551	800.000	-0.011	-0.044
-492.537	137.610	0.053	-0.071
-491.522	105.963	-0.013	-0.015
-490.508	-21.163	-0.278	-0.172
-489.493	264.606	-0.095	0.167
-488.478	38.855	-0.129	-0.117
-487.464	-91.779	-0.264	0.076
-486.449	-200.000	0.044	0.297
-485.435	-200.000	-0.020	-0.121
-484.420	85.360	0.046	0.051
-483.405	135.082	0.083	0.109
-482.391	-200.000	-0.053	-0.328
-481.376	-10.516	0.055	-0.037
-480.362	-200.000	0.006	-0.133
-479.347	147.458	-0.154	0.210
-478.332	-3.533	-0.077	0.055
-477.318	-119.267	-0.356	-0.063
-476.303	88.973	-0.128	-0.145
-475.289	50.382	-0.080	-0.076
-474.274	-200.000	0.357	-0.001
-473.259	400.536	0.008	0.017
-472.245	125.333	0.083	-0.106
-471.230	-200.000	0.021	0.151
-470.216	18.813	-0.232	-0.188
-469.201	-200.000	0.002	0.128
-468.186	116.939	0.134	0.166
-467.172	46.790	-0.333	-0.314
-466.157	800.000	-0.055	-0.220
-465.143	800.000	-0.069	-0.238
-464.128	-33.792	-0.070	-0.039
-463.113	114.858	0.129	-0.159
-462.099	-200.000	-0.078	-0.480
-461.084	0.496	0.158	0.114
-460.070	-90.761	0.211	-0.061
-459.055	216.424	0.011	0.017
-458.040	-169.074	-0.294	-0.011
-457.026	76.802	-0.110	-0.118
-456.011	-200.000	-0.062	0.307
-454.997	-112.252	-0.157	0.032
-453.982	512.433	0.056	0.133
-452.968	-1.253	0.144	-0.103
-451.953	104.012	0.187	0.223
-450.938	322.657	-0.038	-0.073
-449.924	-200.000	-0.011	0.183
-448.909	-92.453	0.217	-0.062
-447.895	-13.074	-0.087	-0.057
-446.880	391.897	-0.049	-0.103
-445.865	5.126	-0.177	0.132
-444.851	-200.000	-0.028	-0.152
-443.836	58.408	-0.029	0.029
-442.822	-75.579	0.385	-0.139
-441.807	475.958	0.098	-0.224
-440.792	84.528	-0.083	0.091
-439.778	50.340	-0.223	-0.213
-438.763	800.000	0.047	-0.140
-437.749	28.936	0.200	0.171
-436.734	-136.637	0.206	0.024
-435.719	262.411	0.020	0.035
-434.705	-200.000	-0.035	0.291
-433.690	132.082	0.138	0.180
-432.676	149.424	-0.173	-0.237
-431.661	302.195	-0.006	0.011
-430.646	60.915	0.204	-0.205
-429.632	223.509	-0.036	-0.059
-428.617	436.453	0.114	-0.251
-427.603	38.168	0.186	-0.168
-426.588	63.331	0.343	-0.347
-425.573	-28.331	-0.065	0.038
-424.559	-117.180	0.108	0.020
-423.544	-200.000	0.013	-0.102
-422.530	800.000	0.014	-0.058
-421.515	2.935	-0.130	-0.095
-420.500	-200.000	0.064	0.401
-419.486	195.912	0.082	0.126
-418.471	484.598	0.091	-0.209
-417.457	-88.108	0.122	-0.037
-416.442	-24.405	-0.242	-0.146
-415.428	199.754	0.128	-0.198
-414.413	-200.000	0.045	-0.293
-413.398	-59.030	-0.046	0.020
-412.384	51.183	-0.129	-0.123
-411.369	-17.453	0.168	-0.107
-410.355	-133.695	-0.185	0.023
-409.340	407.307	0.120	0.257
-408.325	-60.694	-0.284	-0.122
-407.311	-70.224	-0.404	-0.155
-406.296	-70.781	0.204	-0.078
-405.282	-200.000	0.013	0.170
-404.267	436.606	-0.119	0.262
-403.252	-97.980	0.124	0.032
-402.238	-99.474	0.260	0.066
-401.223	-78.918	-0.084	-0.029
-400.209	-200.000	0.013	-0.259
-399.194	-200.000	0.078	-0.350
-398.179	-52.242	-0.258	-0.121
-397.165	68.125	-0.174	-0.180
-396.150	-123.618	0.084	-0.013
-395.136	-200.000	-0.047	0.292
-394.121	362.950	0.152	0.308
-393.106	-200.000	0.016	0.400
-392.092	69.734	0.167	0.173
-391.077	32.870	0.189	-0.165
-390.063	800.000	-0.041	-0.116
-389.048	800.000	-0.019	-0.068
-388.033	303.545	0.106	-0.198
-387.019	-101.390	-0.105	-0.026
-386.004	-200.000	-0.034	0.391
-384.990	-200.000	-0.012	0.316
-383.975	410.891	-0.039	0.084
-382.960	206.431	0.069	0.108
-381.946	800.000	-0.055	-0.242
-380.931	-2.016	0.246	-0.174
-379.917	-43.467	0.054	0.028
-378.902	-193.062	-0.184	0.002
-377.888	-180.286	-0.121	-0.003
-376.873	-31.395	0.211	0.120
-375.858	-189.043	-0.070	0.001
-374.844	-11.229	0.138	0.092
-373.829	-62.902	0.285	-0.119
-372.815	230.725	-0.174	-0.287
-371.800	-79.788	-0.445	0.151
-370.785	-200.000	-0.045	0.241
-369.771	800.000	-0.080	0.235
-368.756	148.670	-0.159	0.216
-367.742	-109.281	0.120	0.026
-366.727	-200.000	-0.003	0.095
-365.712	15.951	-0.065	-0.051
-364.698	-6.555	0.104	0.071
-363.683	371.209	0.073	-0.149
-362.669	186.621	0.066	-0.099
-361.654	445.760	-0.071	-0.158
-360.639	17.178	-0.269	0.215
-359.625	-43.226	0.398	0.203
-358.610	189.390	-0.163	0.247
-357.596	95.640	-0.082	-0.094
-356.581	609.813	0.130	-0.328
-355.566	-105.516	0.266	-0.061
-354.552	23.494	0.063	-0.052
-353.537	14.938	0.076	-0.060
-352.523	-136.524	0.061	-0.007
-351.508	-113.084	-0.241	-0.048
-350.493	-200.000	-0.037	0.289
-349.479	-8.538	0.157	0.106
-348.464	11.912	0.112	0.086
-347.450	91.727	-0.349	-0.395
-346.435	21.939	-0.180	0.148
-345.420	39.209	0.061	0.055
-344.406	48.564	0.090	0.085
-343.391	-200.000	0.036	-0.179
-342.377	-114.604	0.292	-0.056
-341.362	800.000	0.054	-0.188
-340.348	-35.239	-0.022	0.012
-339.333	-143.536	-0.201	-0.019
-338.318	-111.411	-0.262	-0.054
-337.304	-83.435	0.200	0.065
-336.289	-200.000	-0.029	0.336
-335.275	-200.000	0.013	0.248
-334.260	-107.263	-0.180	-0.040
-333.245	-200.000	0.012	-0.149
-332.231	285.021	-0.178	-0.322
-331.216	-200.000	0.046	-0.332
-330.202	-43.167	0.344	0.176
-329.187	-127.041	-0.219	0.032
-328.172	71.274	-0.209	0.218
-327.158	-36.311	0.409	0.222
-326.143	-75.696	0.254	0.091
-325.129	667.325	-0.137	-0.356
-324.114	120.321	0.117	0.146
-323.099	500.672	-0.098	0.228
-322.085	-13.852	-0.071	-0.046
-321.070	-200.000	-0.008	0.122
-320.056	122.651	-0.146	0.183
-319.041	-152.039	-0.160	-0.012
-318.026	159.124	0.137	0.192
-317.012	273.264	0.093	-0.165
-315.997	-160.848	0.239	-0.013
-314.983	378.048	0.067	-0.138
-313.968	-125.349	0.249	-0.038
-312.953	-200.000	-0.012	-0.167
-311.939	335.522	0.067	0.131
-310.924	-200.000	0.059	0.380
-309.910	-200.000	0.007	-0.119
-308.895	-91.120	-0.312	0.090
-307.880	-26.736	-0.313	0.184
-306.866	-200.000	0.006	0.270
-305.851	-41.904	-0.114	-0.059
-304.837	-100.261	-0.083	0.021
-303.822	140.211	-0.085	-0.113
-302.807	459.139	-0.108	0.241
-301.793	800.000	-0.114	0.339
-300.778	-200.000	0.009	-0.272
-299.764	21.002	0.244	-0.199
-298.749	123.087	0.200	0.251
-297.735	70.725	-0.201	-0.209
-296.720	87.037	-0.295	-0.328
-295.705	0.791	-0.007	-0.005
-294.691	-26.982	0.061	0.036
-293.676	-123.202	-0.255	-0.041
-292.662	-200.000	0.009	0.041
-291.647	-200.000	-0.006	-0.030
-290.632	-32.270	0.071	0.040
-289.618	169.026	0.169	0.243
-288.603	176.775	0.134	0.196
-287.589	49.097	0.279	0.263
-286.574	-77.906	0.236	-0.082
-285.559	-124.047	0.204	-0.032
-284.545	-200.000	0.011	-0.258
-283.530	11.155	0.144	-0.111
-282.516	-89.894	0.237	0.069
-281.501	-89.075	-0.205	0.061
-280.486	71.877	-0.022	-0.023
-279.472	-23.489	0.193	0.116
-278.457	-43.748	-0.280	0.141
-277.443	-111.616	0.059	-0.012
-276.428	26.343	-0.135	0.114
-275.413	-200.000	0.040	0.189
-274.399	-200.000	0.000	0.054
-273.384	-109.523	0.131	0.028
-272.370	11.242	-0.175	-0.135
-271.355	166.589	0.159	0.226
-270.340	-200.000	-0.052	-0.308
-269.326	134.789	0.023	-0.030
-268.311	0.790	-0.094	-0.068
-267.297	-56.788	-0.313	0.139
-266.282	-200.000	0.042	-0.209
-265.267	-17.474	-0.256	0.162
-264.253	213.984	-0.141	0.223
-263.238	-18.997	-0.134	-0.084
-262.224	107.441	0.091	-0.109
-261.209	356.152	-0.100	0.200
-260.195	-100.025	0.461	0.116
-259.180	123.735	0.140	0.176
-258.165	-67.171	-0.202	0.080
-257.151	800.000	0.065	-0.274
-256.136	6.729	-0.101	-0.076
-255.122	800.000	-0.054	-0.168
-254.107	-200.000	-0.018	0.082
-253.092	-200.000	-0.002	-0.193
-252.078	-108.794	-0.299	0.064
-251.063	710.021	0.080	0.212
-250.049	-200.000	0.013	0.185
-249.034	-45.350	-0.190	0.095
-248.019	275.881	0.062	0.111
-247.005	800.000	0.098	0.375
-245.990	350.367	-0.174	0.346
-244.976	800.000	0.044	-0.190
-243.961	-65.253	0.164	0.066
-242.946	46.300	-0.222	-0.206
-241.932	76.548	-0.144	-0.153
-240.917	96.210	-0.100	-0.115
-239.903	-143.720	0.234	-0.022
-238.888	296.259	-0.067	0.124
-237.873	59.297	0.139	-0.138
-236.859	-157.398	-0.301	-0.018
-235.844	-118.722	-0.051	-0.009
-234.830	184.957	0.115	-0.171
-233.815	800.000	-0.044	-0.131
-232.800	129.955	-0.216	-0.277
-231.786	-27.425	0.143	0.084
-230.771	124.322	0.039	0.049
-229.757	35.349	-0.125	-0.110
-228.742	12.309	0.084	0.065
-227.727	29.219	0.115	-0.098
-226.713	-79.486	0.137	0.046
-225.698	162.341	0.091	0.128
-224.684	35.812	0.257	-0.227
-223.669	800.000	0.034	-0.132
-222.655	-36.317	-0.340	0.184
-221.640	666.435	0.047	0.123
-220.625	25.409	0.169	-0.141
-219.611	-101.801	-0.214	0.052
-218.596	-49.186	-0.312	-0.150
-217.582	1.722	-0.115	-0.083
-216.567	800.000	0.061	-0.263
-215.552	-116.359	0.317	-0.059
-214.538	-200.000	-0.025	0.146
-213.523	-45.078	0.103	-0.051
-212.509	-84.446	0.153	0.048
-211.494	-200.000	0.022	0.266
-210.479	-114.224	0.222	0.043
-209.465	467.399	-0.020	-0.045
-208.450	-160.268	-0.104	-0.006
-207.436	-78.108	-0.172	0.059
-206.421	253.567	-0.077	-0.132
-205.406	41.198	0.178	-0.161
-204.392	476.861	0.074	-0.168
-203.377	7.621	-0.228	0.171
-202.363	-27.604	0.215	-0.125
-201.348	-29.330	0.036	-0.021
-200.333	63.590	0.476	-0.479
-199.319	-106.083	-0.388	0.087
-198.304	189.970	-0.082	-0.123
-197.290	-60.237	0.117	0.050
-196.275	114.471	-0.129	0.157
-195.260	800.000	0.050	-0.184
-194.246	92.688	-0.261	0.295
-193.231	87.131	0.064	0.071
-192.217	-69.047	-0.378	0.146
-191.202	255.828	-0.046	0.079
-190.187	-151.483	0.145	-0.011
-189.173	800.000	0.039	0.158
-188.158	-72.531	-0.134	0.050
-187.144	800.000	0.139	0.605
-186.129	800.000	0.024	0.073
-185.114	24.111	0.148	-0.122
-184.100	-142.781	-0.158	-0.015
-183.085	99.080	0.298	-0.345
-182.071	800.000	0.108	-0.346
-181.056	-86.414	0.043	0.013
-180.042	-200.000	-0.014	0.218
-179.027	-200.000	0.040	-0.235
-178.012	-98.786	-0.233	-0.059
-176.998	220.239	-0.180	0.289
-175.983	390.771	0.030	-0.062
-174.969	-200.000	0.010	-0.322
-173.954	20.807	0.048	-0.039
-172.939	-200.000	-0.017	0.077
-171.925	-81.744	0.128	0.042
-170.910	-24.988	0.121	-0.072
-169.896	111.084	-0.075	0.090
-168.881	136.265	0.189	-0.247
-167.866	-35.396	-0.174	-0.095
-166.852	117.113	-0.230	-0.283
-165.837	-170.298	0.367	0.013
-164.823	-200.000	-0.070	-0.344
-163.808	265.213	0.197	-0.343
-162.793	-91.930	-0.053	0.015
-161.779	-132.757	-0.188	-0.024
-160.764	-104.195	-0.524	-0.122
-159.750	228.700	0.062	0.101
-158.735	35.515	0.114	-0.100
-157.720	-37.539	-0.133	-0.071
-156.706	-88.197	0.336	0.101
-155.691	-117.223	0.330	-0.060
-154.677	-200.000	0.085	0.392
-153.662	355.978	-0.053	0.105
-152.647	155.499	0.355	0.488
-151.633	-200.000	0.071	0.465
-150.618	-200.000	0.034	0.168
-149.604	-200.000	-0.018	0.108
-148.589	-172.981	0.234	0.007
-147.574	-40.525	0.158	0.082
-146.560	98.852	0.177	-0.204
-145.545	363.903	-0.041	0.082
-144.531	36.118	0.354	-0.312
-143.516	800.000	-0.077	0.265
-142.502	47.331	0.257	0.239
-141.487	-109.842	-0.198	0.042
-140.472	-10.378	-0.181	-0.120
-139.458	95.443	0.222	-0.253
-138.443	-90.438	0.030	-0.009
-137.429	43.317	-0.009	0.009
-136.414	-84.427	0.195	0.061
-135.399	-146.779	-0.130	-0.011
-134.385	-200.000	-0.038	-0.206
-133.370	-200.000	0.014	0.077
-132.356	722.255	0.058	0.155
-131.341	101.408	0.169	-0.197
-130.326	800.000	-0.070	-0.254
-129.312	303.449	0.042	-0.079
-128.297	3.201	0.156	-0.114
-127.283	-200.000	-0.017	0.100
-126.268	-98.792	-0.174	-0.044
-125.253	87.526	-0.085	0.094
-124.239	127.798	0.169	-0.215
-123.224	-19.753	0.258	-0.159
-122.210	-79.830	0.307	-0.103
-121.195	-34.445	-0.191	-0.105
