DTS Sentinel unit serial number:	SN413079Multiplexer serial number:	ORYXHardware model number:	OX4-SRSoftware version number:	ORYX F/W v4.00 Oryx Data Collector v3.7.2.0data status	okinstallation	princeton_trtdifferential loss correction	single-endedforward channel	channel 2reverse channel	N/Adate	2019/09/12time	00:41:11forward acquisition time	60.00reverse acquisition time	0.00gamma	496.2192k internal	0.2325k external	0.2325temperature offset calibration	1.0090default loss term (dB/km)	0.3790temperature slope calibration	1.0000multiplexer offset coefficient	1.0000multiplexer slope coefficient	1.0000fibre end	0.00T internal ref (°C)	33.31T ext. ref 1 (°C)	2.09T ext. ref 2 (°C)	28.02length (m)	temperature (°C)	Stokes	anti-Stokes-747.200	427.481	-0.030	-0.065
-746.185	277.739	0.204	0.366
-745.171	-169.677	0.339	-0.012
-744.156	-163.981	0.089	0.004
-743.142	-200.000	0.013	-0.162
-742.127	-85.531	0.161	0.051
-741.112	692.249	0.103	-0.272
-740.098	23.473	0.220	0.182
-739.083	49.625	0.121	0.115
-738.069	17.847	-0.224	0.180
-737.054	393.783	-0.095	-0.199
-736.039	574.864	0.097	0.239
-735.025	-24.343	0.310	0.186
-734.010	-200.000	0.026	0.298
-732.996	44.370	0.306	-0.283
-731.981	-151.329	0.119	0.009
-730.966	-75.034	-0.124	-0.045
-729.952	-91.295	-0.218	-0.063
-728.937	-60.625	-0.218	0.093
-727.923	757.615	-0.054	-0.149
-726.908	286.377	-0.165	-0.300
-725.894	800.000	0.103	-0.303
-724.879	-37.234	-0.063	-0.034
-723.864	-15.315	-0.092	-0.060
-722.850	-200.000	-0.018	0.307
-721.835	151.327	0.145	-0.199
-720.821	800.000	0.013	-0.053
-719.806	-160.984	0.193	-0.010
-718.791	-126.129	-0.213	-0.032
-717.777	-200.000	0.012	0.160
-716.762	800.000	-0.118	-0.332
-715.748	-91.736	-0.364	-0.104
-714.733	800.000	0.098	-0.413
-713.718	-1.753	0.208	-0.148
-712.704	-200.000	-0.079	0.379
-711.689	532.909	0.095	0.227
-710.675	-95.722	0.203	0.055
-709.660	-113.128	0.067	0.013
-708.645	25.191	-0.250	0.209
-707.631	2.221	0.193	0.141
-706.616	-200.000	-0.013	0.115
-705.602	26.376	0.179	0.151
-704.587	721.063	-0.097	-0.259
-703.572	29.327	0.215	-0.184
-702.558	-200.000	-0.002	-0.153
-701.543	-200.000	0.068	0.689
-700.529	80.477	-0.137	0.149
-699.514	-200.000	-0.027	-0.133
-698.499	800.000	-0.150	-0.469
-697.485	800.000	0.025	0.078
-696.470	44.470	0.174	0.161
-695.456	-147.640	0.184	-0.016
-694.441	142.375	-0.143	0.192
-693.426	-93.804	-0.101	0.028
-692.412	-139.261	-0.067	-0.007
-691.397	-9.811	0.329	0.221
-690.383	103.785	-0.071	-0.084
-689.368	-200.000	0.017	-0.108
-688.354	-200.000	0.005	-0.046
-687.339	-124.300	-0.288	-0.045
-686.324	800.000	0.059	0.189
-685.310	-93.218	0.187	0.052
-684.295	800.000	0.089	0.253
-683.281	522.519	0.168	-0.397
-682.266	-145.077	-0.048	-0.004
-681.251	285.947	-0.117	-0.213
-680.237	-123.263	-0.064	-0.010
-679.222	-107.620	0.219	0.048
-678.208	-200.000	0.027	0.262
-677.193	-60.989	0.095	0.040
-676.178	-103.598	0.470	-0.111
-675.164	24.225	0.170	0.141
-674.149	800.000	-0.083	-0.238
-673.135	-200.000	0.028	-0.213
-672.120	-180.845	-0.208	-0.004
-671.105	184.575	0.141	-0.210
-670.091	-195.925	0.408	-0.003
-669.076	-57.484	0.074	-0.032
-668.062	-200.000	0.000	-0.224
-667.047	-200.000	0.046	0.251
-666.032	-40.945	0.100	-0.052
-665.018	-58.257	0.165	-0.072
-664.003	-200.000	0.037	0.263
-662.989	-114.520	-0.105	0.020
-661.974	800.000	-0.102	0.401
-660.959	-200.000	-0.043	-0.294
-659.945	-91.614	-0.217	-0.062
-658.930	434.458	0.061	0.134
-657.916	800.000	-0.019	0.081
-656.901	-70.544	-0.155	0.059
-655.886	8.769	0.108	0.082
-654.872	125.080	-0.166	0.210
-653.857	114.317	0.065	0.080
-652.843	74.823	0.088	0.093
-651.828	-131.302	0.315	-0.042
-650.814	-5.842	0.237	0.163
-649.799	-165.449	-0.168	-0.007
-648.784	-110.438	-0.224	0.047
-647.770	-85.005	-0.140	0.044
-646.755	62.923	-0.062	-0.062
-645.741	259.055	0.172	-0.298
-644.726	73.238	-0.164	-0.172
-643.711	-200.000	0.014	0.071
-642.697	-162.821	-0.078	-0.004
-641.682	-200.000	-0.024	-0.107
-640.668	-15.446	-0.037	0.023
-639.653	-191.935	0.218	0.002
-638.638	23.499	-0.188	0.156
-637.624	310.913	-0.077	-0.145
-636.609	157.179	-0.089	-0.124
-635.595	-63.570	0.291	0.120
-634.580	-200.000	0.054	0.428
-633.565	-47.361	0.239	-0.117
-632.551	-113.708	-0.130	-0.025
-631.536	-145.276	-0.221	0.020
-630.522	-69.932	-0.247	-0.095
-629.507	-65.179	0.448	-0.181
-628.492	-105.306	0.139	0.032
-627.478	169.861	0.088	-0.126
-626.463	-200.000	-0.019	0.274
-625.449	-122.514	-0.318	-0.052
-624.434	34.133	0.081	-0.071
-623.419	-41.554	-0.161	-0.083
-622.405	-146.480	0.152	-0.013
-621.390	800.000	0.034	-0.115
-620.376	9.330	-0.166	-0.126
-619.361	800.000	-0.016	0.069
-618.346	84.273	0.242	-0.266
-617.332	-54.663	-0.411	0.186
-616.317	-130.583	-0.372	-0.050
-615.303	-68.341	0.216	0.084
-614.288	377.577	0.117	0.240
-613.273	87.346	-0.197	-0.219
-612.259	28.901	-0.202	-0.172
-611.244	87.691	-0.071	0.079
-610.230	-80.440	0.365	0.122
-609.215	-200.000	0.013	-0.122
-608.201	354.735	-0.139	0.278
-607.186	-200.000	0.007	-0.063
-606.171	271.931	0.113	0.200
-605.157	-184.035	-0.200	-0.003
-604.142	-63.321	-0.359	0.148
-603.128	96.424	-0.112	0.128
-602.113	110.489	0.213	-0.257
-601.098	-109.457	0.245	-0.052
-600.084	-46.910	-0.128	-0.063
-599.069	800.000	-0.065	-0.219
-598.055	560.298	0.094	0.228
-597.040	350.657	-0.167	-0.331
-596.025	-92.840	-0.115	-0.032
-595.011	-14.331	0.304	-0.197
-593.996	-200.000	-0.019	-0.200
-592.982	-200.000	-0.089	-0.425
-591.967	-113.225	-0.345	-0.068
-590.952	-57.932	-0.443	-0.194
-589.938	800.000	0.099	-0.338
-588.923	-200.000	-0.008	-0.092
-587.909	23.733	-0.127	0.105
-586.894	-46.990	0.307	0.150
-585.879	-59.212	-0.271	0.117
-584.865	-12.083	0.026	0.017
-583.850	-35.095	0.337	0.184
-582.836	497.721	0.198	0.458
-581.821	657.283	-0.088	-0.228
-580.806	126.079	-0.083	0.106
-579.792	-178.042	0.298	-0.007
-578.777	-200.000	0.006	0.237
-577.763	415.802	0.139	-0.297
-576.748	-141.545	0.464	-0.047
-575.733	21.956	0.255	-0.208
-574.719	-122.010	-0.343	-0.056
-573.704	-163.699	-0.397	0.019
-572.690	-74.078	0.285	0.104
-571.675	800.000	0.033	-0.103
-570.661	-29.222	0.279	-0.160
-569.646	-200.000	0.017	0.000
-568.631	21.215	0.124	0.101
-567.617	800.000	0.051	0.197
-566.602	704.375	0.087	0.231
-565.588	-18.949	-0.130	-0.081
-564.573	-81.801	0.187	-0.061
-563.558	3.426	0.207	-0.151
-562.544	-28.078	-0.333	0.193
-561.529	-59.118	-0.415	0.179
-560.515	-11.526	-0.393	0.259
-559.500	56.611	0.157	-0.153
-558.485	105.275	-0.251	-0.297
-557.471	125.698	-0.187	0.237
-556.456	-128.260	0.281	0.040
-555.442	663.944	-0.054	0.140
-554.427	800.000	-0.096	0.302
-553.412	64.008	0.067	-0.067
-552.398	436.104	0.014	-0.031
-551.383	26.846	0.193	-0.162
-550.369	543.460	-0.026	0.062
-549.354	-99.479	0.245	0.062
-548.339	116.419	0.107	-0.132
-547.325	279.849	0.058	-0.103
-546.310	10.960	0.107	-0.082
-545.296	115.452	0.170	0.207
-544.281	-15.458	0.246	-0.157
-543.266	-200.000	-0.062	-0.553
-542.252	800.000	-0.027	-0.118
-541.237	58.592	-0.073	-0.072
-540.223	21.578	-0.106	0.086
-539.208	-81.284	0.386	0.128
-538.193	-45.332	-0.122	-0.061
-537.179	441.212	0.180	0.394
-536.164	-200.000	-0.009	-0.264
-535.150	-98.335	-0.397	0.102
-534.135	473.760	0.120	0.271
-533.121	-26.640	-0.094	0.055
-532.106	243.124	-0.199	-0.334
-531.091	-90.442	0.177	-0.051
-530.077	800.000	-0.079	-0.234
-529.062	800.000	-0.075	-0.232
-528.048	42.071	-0.268	-0.244
-527.033	-200.000	-0.033	0.161
-526.018	-100.602	0.198	-0.049
-525.004	-200.000	-0.000	0.053
-523.989	294.191	-0.107	-0.195
-522.975	312.052	-0.225	0.423
-521.960	-49.478	0.095	-0.045
-520.945	404.103	-0.015	0.031
-519.931	-41.162	-0.211	0.109
-518.916	-138.419	0.115	0.013
-517.902	-9.800	-0.038	-0.025
-516.887	-60.617	-0.134	-0.057
-515.872	800.000	0.067	0.233
-514.858	-31.349	-0.107	-0.060
-513.843	800.000	-0.139	-0.448
-512.829	16.652	-0.259	-0.205
-511.814	-71.223	-0.248	0.093
-510.799	-57.371	-0.159	0.070
-509.785	-109.018	0.199	0.042
-508.770	800.000	-0.048	-0.185
-507.756	242.536	0.067	-0.111
-506.741	800.000	-0.035	0.112
-505.726	-94.595	0.095	-0.026
-504.712	800.000	0.030	0.130
-503.697	57.579	0.176	-0.172
-502.683	149.163	-0.039	-0.053
-501.668	-96.135	-0.369	0.098
-500.653	-200.000	0.027	-0.180
-499.639	122.926	0.175	-0.219
-498.624	52.532	-0.141	-0.134
-497.610	-162.894	0.161	-0.008
-496.595	-162.558	0.265	0.013
-495.581	-77.627	-0.371	0.128
-494.566	-200.000	0.063	0.490
-493.551	-57.034	-0.265	-0.117
-492.537	25.896	0.195	0.162
-491.522	-39.078	0.322	0.169
-490.508	-200.000	0.031	0.155
-489.493	-183.187	0.062	0.001
-488.478	288.587	-0.141	0.256
-487.464	-35.200	0.066	-0.036
-486.449	230.318	-0.231	-0.377
-485.435	-76.212	-0.220	-0.078
-484.420	-200.000	-0.003	0.239
-483.405	92.690	0.134	0.151
-482.391	-187.874	0.378	0.005
-481.376	-200.000	-0.039	-0.398
-480.362	-136.594	-0.284	0.033
-479.347	800.000	0.085	0.235
-478.332	800.000	-0.039	0.136
-477.318	-20.230	0.405	-0.249
-476.303	153.268	0.028	0.038
-475.289	124.234	0.154	-0.194
-474.274	88.259	0.177	-0.196
-473.259	-9.349	-0.168	0.112
-472.245	-71.264	-0.149	-0.056
-471.230	-200.000	0.057	-0.269
-470.216	-8.088	-0.268	0.180
-469.201	-23.231	-0.181	0.108
-468.186	-200.000	-0.027	0.124
-467.172	-200.000	0.006	-0.095
-466.157	11.192	-0.080	-0.061
-465.143	800.000	0.095	0.315
-464.128	42.437	-0.187	-0.170
-463.113	138.199	0.062	0.081
-462.099	146.536	0.104	0.139
-461.084	-89.176	-0.197	-0.058
-460.070	423.774	0.075	-0.161
-459.055	800.000	0.024	0.075
-458.040	352.934	-0.046	0.091
-457.026	-141.683	0.109	-0.011
-456.011	589.653	-0.099	-0.243
-454.997	800.000	-0.073	0.232
-453.982	-47.581	0.116	0.056
-452.968	-55.717	-0.086	-0.038
-451.953	-200.000	0.022	-0.229
-450.938	127.616	0.110	-0.140
-449.924	-49.237	-0.336	-0.160
-448.909	-49.373	-0.247	-0.118
-447.895	800.000	0.032	-0.131
-446.880	-200.000	-0.024	0.184
-445.865	-200.000	0.004	0.326
-444.851	266.275	-0.015	0.025
-443.836	-33.403	0.172	-0.095
-442.822	800.000	0.111	-0.440
-441.807	52.546	0.173	-0.165
-440.792	-62.140	-0.227	0.094
-439.778	-99.161	-0.256	-0.064
-438.763	-200.000	0.002	0.142
-437.749	-165.372	0.206	-0.009
-436.734	176.431	0.126	-0.182
-435.719	-200.000	0.002	-0.047
-434.705	800.000	-0.117	-0.340
-433.690	800.000	-0.123	-0.483
-432.676	-54.922	0.368	-0.165
-431.661	-67.573	0.137	0.053
-430.646	-200.000	0.010	-0.050
-429.632	-200.000	0.015	-0.150
-428.617	108.900	0.176	-0.210
-427.603	-93.705	0.289	0.079
-426.588	-3.721	0.197	0.136
-425.573	-177.267	-0.311	-0.008
-424.559	191.758	-0.186	-0.279
-423.544	-3.806	-0.102	-0.071
-422.530	454.308	-0.088	0.194
-421.515	108.037	0.023	-0.027
-420.500	71.156	-0.205	0.211
-419.486	-10.871	-0.100	0.066
-418.471	460.417	0.218	-0.484
-417.457	-95.278	0.181	-0.049
-416.442	29.595	-0.228	-0.193
-415.428	-200.000	-0.051	-0.309
-414.413	-200.000	-0.003	0.075
-413.398	98.120	-0.040	0.046
-412.384	208.491	0.147	0.229
-411.369	-132.603	0.175	0.022
-410.355	-76.022	-0.037	-0.013
-409.340	54.990	0.080	0.077
-408.325	-179.600	0.305	-0.007
-407.311	616.088	-0.037	0.093
-406.296	262.410	-0.056	0.097
-405.282	-172.236	-0.055	-0.002
-404.267	190.636	-0.087	-0.130
-403.252	624.470	0.190	0.477
-402.238	-200.000	-0.006	-0.349
-401.223	-103.444	-0.089	0.021
-400.209	-83.532	0.401	0.128
-399.194	-9.720	0.065	-0.043
-398.179	-200.000	0.009	0.081
-397.165	800.000	-0.122	0.351
-396.150	332.167	-0.129	0.247
-395.136	-67.924	0.194	0.075
-394.121	-200.000	-0.004	0.088
-393.106	800.000	-0.050	-0.141
-392.092	-40.535	-0.058	0.030
-391.077	16.805	0.236	-0.186
-390.063	-200.000	-0.011	-0.143
-389.048	138.103	0.072	-0.094
-388.033	-56.502	-0.053	0.023
-387.019	-200.000	-0.002	-0.060
-386.004	-104.828	0.424	-0.097
-384.990	-106.052	-0.110	-0.025
-383.975	18.710	-0.039	-0.031
-382.960	35.422	-0.190	0.166
-381.946	10.542	-0.335	0.254
-380.931	245.443	0.054	0.091
-379.917	76.203	0.217	-0.228
-378.902	1.058	0.113	-0.081
-377.888	-158.077	0.278	-0.016
-376.873	-200.000	0.005	0.522
-375.858	85.016	0.151	0.165
-374.844	-11.820	0.220	0.143
-373.829	-123.531	0.133	0.021
-372.815	800.000	-0.065	0.256
-371.800	-115.366	0.239	0.045
-370.785	-29.668	-0.153	-0.087
-369.771	294.251	0.149	0.271
-368.756	220.470	0.069	0.111
-367.742	-200.000	-0.055	0.317
-366.727	800.000	0.124	0.349
-365.712	-200.000	0.037	0.253
-364.698	-89.087	-0.238	-0.070
-363.683	-63.878	-0.300	-0.122
-362.669	477.671	-0.101	0.227
-361.654	-200.000	0.030	0.318
-360.639	68.737	-0.205	0.209
-359.625	-155.270	-0.173	0.011
-358.610	800.000	-0.093	0.270
-357.596	-200.000	0.002	0.152
-356.581	27.492	-0.174	-0.145
-355.566	127.341	-0.054	0.068
-354.552	282.822	0.207	0.369
-353.537	-200.000	-0.009	0.153
-352.523	90.242	-0.241	-0.267
-351.508	-8.138	0.123	0.083
-350.493	-80.636	0.171	0.057
-349.479	545.969	0.021	0.050
-348.464	88.775	-0.116	0.128
-347.450	160.027	0.048	-0.066
-346.435	131.230	0.246	0.314
-345.420	800.000	0.089	0.322
-344.406	-91.718	-0.017	0.005
-343.391	-45.884	0.091	-0.044
-342.377	337.857	-0.121	0.234
-341.362	-200.000	0.014	-0.138
-340.348	95.538	0.183	0.207
-339.333	-200.000	-0.032	0.303
-338.318	73.327	-0.239	0.248
-337.304	64.723	0.123	-0.124
-336.289	-149.072	-0.241	-0.019
-335.275	800.000	-0.061	0.189
-334.260	-84.325	0.399	-0.125
-333.245	127.030	-0.254	0.320
-332.231	-79.716	0.165	-0.055
-331.216	-71.368	-0.101	0.038
-330.202	-85.780	0.124	-0.038
-329.187	-86.802	0.302	-0.092
-328.172	-200.000	-0.018	0.092
-327.158	521.225	0.123	0.287
-326.143	-200.000	0.010	-0.098
-325.129	-187.280	-0.106	-0.001
-324.114	-154.835	0.348	0.023
-323.099	108.658	-0.076	0.091
-322.085	122.640	0.050	-0.062
-321.070	-200.000	-0.309	0.000
-320.056	115.246	0.182	0.221
-319.041	424.472	-0.135	0.288
-318.026	-77.849	-0.129	-0.044
-317.012	-62.650	-0.307	0.126
-315.997	275.544	0.200	0.351
-314.983	-75.693	-0.058	-0.020
-313.968	44.034	0.196	-0.178
-312.953	800.000	0.038	-0.151
-311.939	800.000	0.109	-0.313
-310.924	-154.236	0.152	-0.010
-309.910	264.117	0.018	0.032
-308.895	734.883	0.046	0.123
-307.880	800.000	0.045	-0.141
-306.866	43.627	-0.158	0.143
-305.851	-62.676	-0.336	0.138
-304.837	-123.733	-0.394	-0.062
-303.822	117.625	-0.034	0.042
-302.807	-200.000	-0.008	0.260
-301.793	40.634	0.159	-0.142
-300.778	22.045	0.139	0.112
-299.764	-122.545	-0.321	0.052
-298.749	-33.564	-0.033	-0.018
-297.735	-160.055	0.308	0.017
-296.720	-200.000	0.013	-0.112
-295.705	-45.326	0.148	-0.073
-294.691	-24.823	-0.273	-0.161
-293.676	-121.015	0.304	-0.051
-292.662	372.042	-0.043	0.086
-291.647	-200.000	0.033	-0.204
-290.632	-200.000	0.008	0.122
-289.618	566.201	0.103	0.248
-288.603	11.691	-0.146	0.111
-287.589	37.077	-0.226	-0.199
-286.574	-67.264	-0.264	-0.103
-285.559	134.343	0.149	-0.191
-284.545	424.812	-0.137	-0.293
-283.530	23.721	-0.122	0.100
-282.516	769.847	-0.132	0.355
-281.501	558.234	-0.072	-0.173
-280.486	-200.000	-0.022	0.207
-279.472	30.616	0.146	-0.124
-278.457	287.258	-0.181	-0.324
-277.443	-178.906	0.384	0.009
-276.428	-134.062	0.163	-0.020
-275.413	-103.456	-0.248	-0.058
-274.399	177.707	-0.076	0.110
-273.384	445.976	0.090	0.197
-272.370	388.304	0.058	-0.118
-271.355	-200.000	-0.019	-0.350
-270.340	125.426	0.212	-0.265
-269.326	223.363	0.186	0.297
-268.311	-26.956	0.337	0.195
-267.297	292.429	0.122	0.221
-266.282	-18.132	-0.091	-0.056
-265.267	648.068	0.073	-0.185
-264.253	-112.612	0.095	-0.019
-263.238	-126.418	-0.151	-0.022
-262.224	-129.767	-0.058	-0.008
-261.209	28.471	-0.138	-0.116
-260.195	-76.170	-0.408	-0.143
-259.180	158.479	0.098	-0.135
-258.165	-102.731	0.091	0.022
-257.151	-148.648	0.232	-0.019
-256.136	115.764	-0.151	-0.183
-255.122	31.372	0.155	-0.132
-254.107	91.997	0.043	0.048
-253.092	-36.951	0.164	0.087
-252.078	-4.450	0.195	0.133
-251.063	-129.707	0.058	0.008
-250.049	227.763	-0.145	0.234
-249.034	241.374	-0.199	0.329
-248.019	-200.000	-0.047	0.305
-247.005	-200.000	-0.030	0.186
-245.990	-7.972	0.048	0.032
-244.976	-75.616	0.100	-0.035
-243.961	753.354	0.172	0.460
-242.946	-7.853	0.137	-0.091
-241.932	-149.611	0.042	0.003
-240.917	-101.599	-0.293	0.070
-239.903	-111.900	-0.243	0.049
-238.888	-200.000	0.004	-0.169
-237.873	-200.000	0.086	-0.486
-236.859	-128.866	0.206	-0.029
-235.844	207.190	-0.159	0.246
-234.830	172.604	0.096	-0.137
-233.815	800.000	-0.140	-0.387
-232.800	-15.736	0.068	0.043
-231.786	-43.617	0.298	-0.149
-230.771	22.345	-0.070	0.057
-229.757	30.738	0.091	0.077
-228.742	-200.000	-0.002	-0.007
-227.727	800.000	-0.034	-0.107
-226.713	-200.000	-0.004	-0.524
-225.698	-129.349	0.088	-0.012
-224.684	-79.065	-0.284	-0.095
-223.669	-5.917	-0.103	-0.069
-222.655	-60.221	-0.209	-0.088
-221.640	123.623	-0.139	0.172
-220.625	204.165	-0.027	-0.042
-219.611	800.000	0.075	-0.309
-218.596	35.295	0.271	-0.235
-217.582	401.971	-0.054	-0.113
-216.567	224.579	0.043	-0.069
-215.552	800.000	0.039	-0.126
-214.538	-22.014	0.121	-0.072
-213.523	200.390	-0.085	0.130
-212.509	333.516	-0.060	-0.114
-211.494	197.763	0.048	0.073
-210.479	-117.004	-0.233	0.042
-209.465	-200.000	-0.029	-0.271
-208.450	91.988	0.089	-0.099
-207.436	26.782	-0.228	0.189
-206.421	-44.634	0.119	0.059
-205.406	-64.115	-0.106	0.043
-204.392	-33.158	-0.076	-0.041
-203.377	-61.245	0.162	0.067
-202.363	-79.088	-0.265	0.089
-201.348	107.645	-0.133	0.156
-200.333	10.701	-0.080	-0.060
-199.319	-89.531	0.125	0.036
-198.304	286.252	0.051	-0.092
-197.290	-151.580	-0.303	0.022
-196.275	-70.850	-0.389	-0.145
-195.260	67.207	0.138	-0.139
-194.246	-81.245	0.183	0.060
-193.231	133.770	0.061	0.079
-192.217	-200.000	0.025	-0.109
-191.202	51.684	0.125	-0.118
-190.187	-110.921	0.274	-0.056
-189.173	-88.133	0.126	-0.037
-188.158	307.089	0.083	-0.152
-187.144	-19.745	0.203	0.124
-186.129	321.748	0.135	0.254
-185.114	-58.135	0.101	-0.043
-184.100	530.016	0.096	0.223
-183.085	-113.907	-0.253	-0.048
-182.071	-200.000	0.044	-0.201
-181.056	-10.031	0.196	-0.129
-180.042	-13.647	-0.136	0.087
-179.027	-200.000	0.026	0.270
-178.012	374.303	-0.083	-0.166
-176.998	142.869	-0.195	0.256
-175.983	800.000	-0.001	0.005
-174.969	500.758	0.042	-0.097
-173.954	-200.000	-0.015	-0.069
-172.939	-200.000	-0.025	-0.164
-171.925	89.651	0.079	0.086
-170.910	-88.905	0.182	0.053
-169.896	-70.007	-0.070	-0.026
-168.881	-200.000	0.038	0.222
-167.866	-46.232	-0.081	0.039
-166.852	0.871	0.206	0.145
-165.837	528.618	-0.102	0.238
-164.823	800.000	0.205	-0.659
-163.808	-200.000	0.071	-0.484
-162.793	-49.832	-0.265	0.124
-161.779	-93.025	0.146	0.040
-160.764	552.067	-0.136	0.322
-159.750	-106.491	-0.282	0.062
-158.735	330.230	-0.087	0.164
-157.720	-8.171	-0.061	-0.040
-156.706	155.573	0.136	0.184
-155.691	315.812	-0.121	-0.225
-154.677	-139.893	-0.130	0.014
-153.662	-200.000	-0.007	-0.039
-152.647	-176.472	0.369	0.009
-151.633	800.000	0.071	-0.205
-150.618	-200.000	-0.031	0.241
-149.604	-3.714	-0.207	-0.142
-148.589	5.525	0.146	-0.106
-147.574	-100.572	-0.270	0.066
-146.560	172.317	0.154	-0.219
-145.545	-200.000	-0.084	0.401
-144.531	-44.419	0.094	0.047
-143.516	-40.909	0.248	0.126
-142.502	-58.350	0.142	0.061
-141.487	800.000	0.053	-0.200
-140.472	-73.137	0.295	-0.107
-139.458	-94.088	0.346	-0.094
-138.443	-200.000	0.019	-0.317
-137.429	651.639	0.091	0.230
-136.414	-200.000	-0.043	-0.364
-135.399	-69.937	-0.336	0.126
-134.385	-119.053	-0.172	-0.030
-133.370	469.964	-0.072	-0.160
-132.356	48.411	-0.109	-0.101
-131.341	-54.690	0.282	-0.125
-130.326	-200.000	0.019	-0.221
-129.312	157.535	-0.208	-0.283
-128.297	-6.431	0.149	-0.100
-127.283	800.000	0.027	-0.110
-126.268	79.132	-0.276	0.291
-125.253	-81.945	-0.078	-0.025
-124.239	310.952	-0.111	-0.205
-123.224	110.775	0.091	-0.108
-122.210	-34.060	0.156	-0.084
-121.195	800.000	0.095	-0.265
