DTS Sentinel unit serial number:	SN413079Multiplexer serial number:	ORYXHardware model number:	OX4-SRSoftware version number:	ORYX F/W v4.00 Oryx Data Collector v3.7.2.0data status	okinstallation	princeton_trtdifferential loss correction	single-endedforward channel	channel 2reverse channel	N/Adate	2019/09/10time	20:33:10forward acquisition time	60.00reverse acquisition time	0.00gamma	496.2192k internal	0.2330k external	0.2330temperature offset calibration	0.9942default loss term (dB/km)	0.3790temperature slope calibration	1.0000multiplexer offset coefficient	1.0000multiplexer slope coefficient	1.0000fibre end	0.00T internal ref (°C)	32.00T ext. ref 1 (°C)	-0.31T ext. ref 2 (°C)	25.34length (m)	temperature (°C)	Stokes	anti-Stokes-747.200	16.861	-0.207	-0.165
-746.185	18.703	-0.077	0.062
-745.171	101.656	-0.277	-0.325
-744.156	385.730	-0.167	0.346
-743.142	-121.280	0.191	0.032
-742.127	37.421	-0.154	0.137
-741.112	175.877	0.211	-0.308
-740.098	800.000	-0.021	0.072
-739.083	800.000	0.123	0.403
-738.069	-187.391	-0.105	-0.001
-737.054	-200.000	0.068	0.374
-736.039	-74.008	-0.376	0.137
-735.025	217.546	-0.126	0.201
-734.010	-200.000	0.045	-0.394
-732.996	345.616	-0.155	-0.307
-731.981	-171.989	0.230	-0.007
-730.966	257.109	-0.072	-0.125
-729.952	-200.000	0.009	-0.122
-728.937	-3.066	-0.444	-0.311
-727.923	-35.828	-0.043	0.023
-726.908	800.000	-0.125	-0.350
-725.894	152.581	-0.062	0.085
-724.879	56.608	-0.256	0.251
-723.864	-200.000	0.013	-0.168
-722.850	-127.512	-0.391	0.057
-721.835	125.763	-0.241	-0.306
-720.821	800.000	-0.028	-0.116
-719.806	13.879	0.231	-0.180
-718.791	38.016	-0.084	0.075
-717.777	-90.844	-0.123	-0.036
-716.762	51.575	0.307	0.294
-715.748	-200.000	-0.062	-0.296
-714.733	800.000	-0.079	-0.230
-713.718	-142.203	-0.135	0.013
-712.704	22.449	-0.190	0.156
-711.689	-81.427	0.279	-0.092
-710.675	-200.000	0.012	-0.134
-709.660	-28.694	-0.111	-0.064
-708.645	375.593	-0.096	-0.196
-707.631	-200.000	-0.008	0.084
-706.616	571.784	0.092	0.226
-705.602	-42.270	-0.128	-0.066
-704.587	800.000	-0.028	0.116
-703.572	800.000	-0.031	0.096
-702.558	-21.175	0.369	0.227
-701.543	40.316	-0.109	-0.099
-700.529	-153.857	-0.296	0.020
-699.514	285.898	0.098	-0.178
-698.499	-200.000	-0.036	-0.189
-697.485	-171.116	-0.168	-0.006
-696.470	-200.000	-0.015	0.153
-695.456	-56.747	0.022	0.010
-694.441	-200.000	-0.022	-0.163
-693.426	106.484	-0.154	0.183
-692.412	-97.800	0.179	0.047
-691.397	156.434	0.196	0.272
-690.383	-200.000	-0.104	-0.459
-689.368	7.628	-0.159	-0.120
-688.354	264.436	-0.188	-0.328
-687.339	-17.631	-0.063	0.040
-686.324	-200.000	0.006	-0.219
-685.310	-58.018	-0.207	-0.091
-684.295	800.000	0.118	-0.344
-683.281	-113.458	0.084	0.017
-682.266	142.956	0.097	-0.130
-681.251	-16.376	0.164	0.105
-680.237	-50.631	-0.197	0.093
-679.222	-59.638	0.257	-0.111
-678.208	-55.715	0.180	-0.081
-677.193	142.644	0.120	0.159
-676.178	45.239	-0.293	0.271
-675.164	-13.784	-0.061	0.040
-674.149	-114.095	0.209	0.041
-673.135	-75.111	-0.077	-0.028
-672.120	-49.396	0.249	0.119
-671.105	-200.000	-0.008	-0.262
-670.091	23.679	0.326	-0.270
-669.076	178.113	-0.052	0.076
-668.062	160.907	-0.083	-0.116
-667.047	98.615	-0.239	0.277
-666.032	180.833	-0.160	-0.235
-665.018	336.451	-0.167	-0.326
-664.003	32.238	0.068	-0.059
-662.989	109.666	-0.263	0.316
-661.974	-72.508	-0.137	0.051
-660.959	109.351	0.088	-0.106
-659.945	-154.486	0.253	-0.017
-658.930	36.990	-0.092	0.081
-657.916	64.326	-0.086	-0.087
-656.901	-69.434	0.172	0.066
-655.886	-36.967	0.181	0.097
-654.872	-200.000	-0.013	0.241
-653.857	-70.801	0.296	-0.112
-652.843	37.995	0.096	-0.085
-651.828	800.000	-0.037	-0.116
-650.814	-200.000	0.042	-0.200
-649.799	-1.400	0.333	-0.236
-648.784	-2.905	-0.279	0.195
-647.770	-200.000	-0.002	-0.007
-646.755	-200.000	-0.006	0.332
-645.741	-200.000	0.027	0.280
-644.726	-131.453	-0.343	0.045
-643.711	52.319	-0.191	-0.183
-642.697	-52.375	-0.211	-0.098
-641.682	498.252	-0.117	0.271
-640.668	-200.000	-0.040	0.218
-639.653	-120.224	-0.216	-0.037
-638.638	-81.628	0.311	-0.102
-637.624	-67.999	-0.108	-0.042
-636.609	-102.714	0.206	0.049
-635.595	-13.412	-0.066	-0.043
-634.580	-130.845	-0.254	-0.034
-633.565	-113.468	-0.236	-0.046
-632.551	-107.953	-0.383	0.083
-631.536	-200.000	0.016	0.116
-630.522	366.945	0.020	0.040
-629.507	-139.408	0.151	0.016
-628.492	-56.129	-0.286	0.127
-627.478	-129.672	0.401	0.055
-626.463	26.643	-0.192	0.161
-625.449	116.572	-0.144	-0.177
-624.434	-103.497	0.481	-0.113
-623.419	120.983	-0.184	0.229
-622.405	-154.327	-0.190	0.013
-621.390	6.752	0.093	-0.069
-620.376	-47.319	-0.331	-0.161
-619.361	-69.782	-0.211	0.081
-618.346	-6.120	-0.088	0.060
-617.332	-200.000	-0.012	-0.088
-616.317	-152.059	-0.160	-0.012
-615.303	-8.666	-0.131	-0.088
-614.288	78.646	-0.200	-0.214
-613.273	-33.921	-0.010	-0.005
-612.259	-53.276	0.488	-0.224
-611.244	32.213	-0.207	0.179
-610.230	-183.697	-0.508	-0.009
-609.215	800.000	0.056	0.187
-608.201	-28.411	0.135	-0.078
-607.186	377.691	0.127	-0.259
-606.171	38.471	-0.078	-0.069
-605.157	177.347	-0.271	-0.395
-604.142	800.000	-0.035	-0.122
-603.128	101.083	-0.023	0.027
-602.113	-6.705	-0.452	-0.308
-601.098	213.081	0.204	-0.322
-600.084	449.413	-0.028	-0.061
-599.069	-136.565	-0.280	-0.032
-598.055	-141.731	-0.393	-0.040
-597.040	-29.471	0.181	-0.103
-596.025	-200.000	-0.034	-0.189
-595.011	1.720	-0.213	-0.154
-593.996	-74.299	0.172	-0.062
-592.982	-54.556	-0.062	-0.028
-591.967	186.796	-0.011	-0.016
-590.952	12.041	0.172	-0.132
-589.938	32.764	-0.224	0.194
-588.923	106.721	0.251	0.298
-587.909	254.745	0.154	0.263
-586.894	-32.606	-0.238	-0.133
-585.879	109.829	0.191	0.229
-584.865	-200.000	0.023	0.233
-583.850	-200.000	-0.002	-0.012
-582.836	-59.723	-0.103	-0.044
-581.821	-78.106	0.079	-0.027
-580.806	86.326	-0.157	0.173
-579.792	519.656	0.154	-0.362
-578.777	-200.000	-0.011	0.355
-577.763	-200.000	0.022	-0.174
-576.748	-139.344	-0.375	-0.040
-575.733	202.285	0.199	0.308
-574.719	800.000	-0.032	-0.121
-573.704	3.172	-0.233	0.169
-572.690	481.585	0.185	-0.420
-571.675	-200.000	0.020	-0.304
-570.661	800.000	-0.060	0.194
-569.646	-68.373	0.377	0.147
-568.631	5.912	0.235	0.174
-567.617	-97.429	-0.318	0.083
-566.602	63.995	-0.002	-0.002
-565.588	-200.000	0.013	0.339
-564.573	-6.095	-0.093	0.064
-563.558	-200.000	0.055	0.284
-562.544	28.878	-0.142	-0.120
-561.529	-200.000	0.092	0.501
-560.515	800.000	-0.110	-0.311
-559.500	-200.000	0.045	0.240
-558.485	800.000	-0.080	-0.270
-557.471	105.700	-0.221	-0.261
-556.456	154.792	0.178	-0.244
-555.442	-200.000	0.019	-0.178
-554.427	-11.626	-0.299	0.196
-553.412	85.448	0.135	-0.148
-552.398	800.000	0.052	-0.150
-551.383	54.873	0.120	-0.115
-550.369	-27.101	-0.098	0.057
-549.354	-74.907	0.201	0.072
-548.339	-50.846	0.242	-0.114
-547.325	-142.929	-0.036	0.003
-546.310	-200.000	-0.000	0.201
-545.296	-119.201	0.208	0.036
-544.281	-200.000	0.078	-0.355
-543.266	-135.236	0.149	-0.018
-542.252	391.255	-0.063	-0.131
-541.237	-112.369	0.253	0.051
-540.223	-87.867	-0.051	0.015
-539.208	-75.294	-0.137	-0.049
-538.193	800.000	-0.064	0.213
-537.179	-83.152	0.308	-0.099
-536.164	393.893	-0.154	-0.319
-535.150	-200.000	-0.120	0.001
-534.135	45.154	0.319	-0.294
-533.121	175.944	-0.120	-0.174
-532.106	-124.091	-0.097	-0.015
-531.091	-123.399	0.279	0.044
-530.077	562.440	-0.079	0.191
-529.062	173.605	0.028	0.041
-528.048	114.875	-0.042	0.051
-527.033	-200.000	-0.009	0.109
-526.018	-55.366	-0.087	0.039
-525.004	80.423	-0.164	0.176
-523.989	37.348	-0.361	0.319
-522.975	0.485	-0.210	0.150
-521.960	279.945	-0.090	-0.160
-520.945	800.000	-0.073	-0.269
-519.931	25.292	0.239	-0.198
-518.916	-200.000	-0.014	-0.211
-517.902	-27.400	0.213	-0.124
-516.887	-177.765	-0.139	-0.003
-515.872	446.335	0.076	0.167
-514.858	-9.567	0.221	-0.147
-513.843	-145.130	-0.161	0.015
-512.829	21.505	0.181	-0.147
-511.814	-56.655	0.508	-0.224
-510.799	327.214	-0.036	0.069
-509.785	1.986	-0.030	0.022
-508.770	-112.680	0.190	0.038
-507.756	50.478	0.177	-0.167
-506.741	11.090	-0.010	0.007
-505.726	90.028	-0.191	0.213
-504.712	-13.501	0.247	0.160
-503.697	-3.892	-0.141	0.097
-502.683	800.000	0.080	-0.244
-501.668	800.000	0.060	0.216
-500.653	-116.876	-0.425	-0.078
-499.639	185.012	-0.052	0.078
-498.624	91.732	0.138	0.155
-497.610	112.704	0.204	0.246
-496.595	-200.000	-0.032	-0.207
-495.581	-46.715	-0.335	-0.163
-494.566	-200.000	0.018	0.108
-493.551	-171.579	-0.201	-0.007
-492.537	182.429	-0.033	0.049
-491.522	-59.075	0.130	0.056
-490.508	-170.127	0.313	-0.011
-489.493	39.101	-0.204	0.182
-488.478	-60.493	0.302	-0.128
-487.464	-40.452	0.093	0.048
-486.449	800.000	0.029	0.088
-485.435	352.571	0.116	-0.229
-484.420	326.493	-0.044	-0.084
-483.405	161.137	-0.254	0.354
-482.391	-83.094	0.132	-0.042
-481.376	64.429	0.146	0.146
-480.362	-200.000	0.017	0.247
-479.347	-11.558	-0.157	-0.103
-478.332	114.547	0.070	0.085
-477.318	-30.096	0.266	-0.151
-476.303	-200.000	-0.026	-0.146
-475.289	1.298	0.070	-0.050
-474.274	-114.728	0.532	-0.101
-473.259	-140.071	-0.081	0.008
-472.245	800.000	0.068	0.231
-471.230	87.572	-0.199	-0.220
-470.216	544.630	0.156	-0.372
-469.201	-200.000	-0.005	-0.081
-468.186	-200.000	0.014	-0.374
-467.172	351.082	-0.107	0.212
-466.157	-149.692	0.056	-0.004
-465.143	-86.794	0.159	-0.048
-464.128	-200.000	-0.047	0.226
-463.113	-200.000	0.023	-0.259
-462.099	241.157	0.146	-0.242
-461.084	-122.966	-0.333	0.053
-460.070	148.248	-0.078	-0.104
-459.055	12.141	0.286	-0.219
-458.040	800.000	-0.105	0.329
-457.026	27.510	-0.068	-0.057
-456.011	-128.316	0.085	0.012
-454.997	-30.674	0.488	0.275
-453.982	-144.916	-0.196	-0.018
-452.968	422.041	-0.123	-0.264
-451.953	-191.597	-0.395	0.004
-450.938	-200.000	-0.015	-0.203
-449.924	-79.657	0.199	0.067
-448.909	-136.958	0.398	0.045
-447.895	-200.000	0.039	0.190
-446.880	-172.746	-0.063	0.002
-445.865	-200.000	0.056	0.331
-444.851	-85.600	-0.293	-0.091
-443.836	217.055	-0.082	0.130
-442.822	-200.000	-0.026	0.116
-441.807	-70.257	0.033	-0.012
-440.792	99.468	-0.065	-0.075
-439.778	43.309	-0.147	0.133
-438.763	-97.993	-0.299	0.077
-437.749	-200.000	-0.019	-0.309
-436.734	294.689	0.056	-0.103
-435.719	102.535	-0.090	0.104
-434.705	135.706	0.110	-0.143
-433.690	5.642	-0.213	-0.157
-432.676	-129.164	0.232	0.032
-431.661	80.395	0.049	0.052
-430.646	22.331	0.194	0.158
-429.632	-120.106	0.195	0.033
-428.617	-200.000	-0.004	0.070
-427.603	-61.205	-0.335	0.140
-426.588	-18.531	0.182	-0.113
-425.573	217.498	0.134	0.213
-424.559	452.258	-0.108	0.237
-423.544	-113.139	-0.403	-0.079
-422.530	653.647	-0.059	-0.151
-421.515	273.720	0.140	0.247
-420.500	-36.249	-0.100	0.053
-419.486	-200.000	0.018	0.151
-418.471	72.276	-0.009	-0.009
-417.457	69.513	0.272	0.279
-416.442	-200.000	0.054	-0.320
-415.428	-94.263	0.072	0.020
-414.413	258.613	-0.198	0.340
-413.398	-200.000	0.001	0.213
-412.384	75.155	-0.076	0.080
-411.369	63.981	0.129	-0.129
-410.355	-200.000	-0.015	0.386
-409.340	199.841	0.131	0.200
-408.325	-103.326	-0.047	0.011
-407.311	519.603	-0.095	-0.221
-406.296	77.538	0.115	-0.121
-405.282	35.506	0.243	-0.212
-404.267	-74.974	-0.249	-0.089
-403.252	-119.429	0.423	0.073
-402.238	-83.196	0.297	-0.095
-401.223	-200.000	-0.014	0.185
-400.209	83.777	0.171	0.186
-399.194	-200.000	-0.021	-0.378
-398.179	7.495	0.141	-0.105
-397.165	72.343	0.128	0.133
-396.150	260.579	-0.114	0.196
-395.136	-200.000	-0.009	-0.135
-394.121	12.788	-0.199	0.153
-393.106	746.229	0.125	-0.334
-392.092	-93.660	-0.312	0.086
-391.077	794.704	-0.029	-0.079
-390.063	203.475	-0.190	-0.292
-389.048	-186.118	0.290	0.004
-388.033	-12.532	0.338	0.219
-387.019	-59.933	-0.297	-0.126
-386.004	7.917	0.131	0.097
-384.990	-200.000	-0.024	-0.401
-383.975	60.425	0.099	-0.097
-382.960	-105.405	-0.167	0.038
-381.946	443.471	0.050	0.109
-380.931	37.084	0.148	-0.130
-379.917	-200.000	0.019	-0.305
-378.902	-116.162	0.210	0.039
-377.888	130.562	-0.056	0.071
-376.873	35.334	-0.078	0.068
-375.858	-179.617	-0.056	0.001
-374.844	75.217	0.103	0.108
-373.829	-86.119	-0.584	0.179
-372.815	130.609	-0.098	0.125
-371.800	-200.000	-0.018	0.249
-370.785	800.000	0.021	-0.078
-369.771	45.222	-0.131	0.120
-368.756	-152.783	0.418	0.029
-367.742	58.628	-0.198	0.193
-366.727	136.051	-0.041	0.053
-365.712	396.796	0.111	-0.230
-364.698	-200.000	-0.061	0.341
-363.683	-102.597	0.304	0.072
-362.669	-48.297	-0.020	0.010
-361.654	-143.479	-0.215	0.020
-360.639	-200.000	-0.002	0.050
-359.625	-200.000	0.030	-0.265
-358.610	800.000	-0.071	-0.285
-357.596	-58.292	0.314	0.135
-356.581	39.031	0.215	-0.191
-355.566	-166.658	-0.082	-0.003
-354.552	-200.000	-0.300	0.001
-353.537	2.245	0.142	-0.102
-352.523	118.191	0.200	-0.245
-351.508	-120.584	-0.164	-0.028
-350.493	-200.000	-0.002	-0.195
-349.479	64.063	0.058	0.058
-348.464	-72.654	-0.280	0.102
-347.450	-126.384	0.187	-0.028
-346.435	17.080	-0.033	0.026
-345.420	-200.000	0.006	0.298
-344.406	-200.000	0.096	0.460
-343.391	365.912	0.159	0.318
-342.377	-62.558	0.107	-0.044
-341.362	-97.136	-0.099	0.026
-340.348	175.638	-0.115	-0.165
-339.333	153.845	-0.070	-0.096
-338.318	0.442	0.153	0.108
-337.304	112.089	-0.106	0.126
-336.289	-152.998	-0.171	-0.012
-335.275	166.315	-0.140	-0.196
-334.260	70.906	-0.236	-0.242
-333.245	303.932	-0.103	-0.188
-332.231	-80.297	0.232	0.077
-331.216	800.000	-0.056	0.159
-330.202	215.572	0.138	-0.216
-329.187	-153.740	-0.209	-0.014
-328.172	224.308	-0.200	-0.320
-327.158	-52.503	-0.196	-0.090
-326.143	-170.987	0.209	-0.007
-325.129	-49.116	0.403	-0.191
-324.114	-5.306	0.342	0.233
-323.099	-56.022	0.073	0.032
-322.085	-79.741	0.119	-0.040
-321.070	689.920	-0.085	-0.220
-320.056	-69.212	-0.161	0.061
-319.041	-68.878	-0.166	-0.064
-318.026	-63.292	-0.329	-0.134
-317.012	19.241	0.184	0.147
-315.997	21.766	-0.160	-0.129
-314.983	166.068	0.018	0.025
-313.968	188.874	-0.120	-0.178
-312.953	223.073	0.038	-0.061
-311.939	800.000	-0.031	0.093
-310.924	-200.000	0.025	0.142
-309.910	103.755	-0.213	-0.248
-308.895	-114.541	0.514	-0.098
-307.880	51.629	-0.207	0.195
-306.866	-174.673	0.286	0.008
-305.851	209.262	0.126	-0.196
-304.837	-58.790	0.116	0.050
-303.822	-183.259	-0.210	-0.004
-302.807	-103.171	-0.259	0.061
-301.793	762.266	0.051	0.137
-300.778	7.468	-0.256	-0.190
-299.764	-18.076	0.272	0.169
-298.749	8.514	0.204	0.152
-297.735	38.794	-0.334	0.295
-296.720	142.446	0.084	-0.111
-295.705	-148.508	0.281	-0.023
-294.691	-200.000	0.078	-0.426
-293.676	779.630	0.082	-0.222
-292.662	144.998	0.132	-0.175
-291.647	800.000	0.072	0.249
-290.632	-55.239	0.136	-0.060
-289.618	236.022	0.199	-0.326
-288.603	-84.976	-0.222	0.069
-287.589	264.275	-0.038	-0.065
-286.574	76.846	-0.204	0.215
-285.559	116.019	0.074	-0.090
-284.545	-107.952	0.328	-0.070
-283.530	800.000	-0.059	-0.229
-282.516	-79.675	-0.217	0.072
-281.501	-26.635	-0.094	-0.055
-280.486	-99.825	0.104	0.026
-279.472	-200.000	-0.026	0.224
-278.457	-113.577	-0.184	-0.036
-277.443	800.000	-0.061	0.183
-276.428	800.000	-0.117	-0.382
-275.413	238.869	-0.102	-0.168
-274.399	800.000	0.093	-0.352
-273.384	230.074	0.211	0.340
-272.370	94.501	0.207	0.233
-271.355	-14.228	0.210	-0.134
-270.340	49.441	0.111	-0.103
-269.326	47.984	0.249	-0.230
-268.311	-200.000	-0.007	-0.053
-267.297	-82.814	-0.117	-0.037
-266.282	-200.000	-0.043	0.186
-265.267	27.385	-0.360	0.299
-264.253	800.000	-0.030	0.103
-263.238	118.635	-0.210	-0.256
-262.224	96.243	0.123	-0.139
-261.209	-106.507	0.227	0.050
-260.195	-9.488	0.061	-0.040
-259.180	128.503	-0.170	-0.214
-258.165	-58.499	-0.031	0.013
-257.151	-200.000	0.030	-0.350
-256.136	149.094	-0.165	0.220
-255.122	-200.000	0.046	0.337
-254.107	-200.000	-0.103	0.453
-253.092	-115.698	0.212	0.039
-252.078	-19.288	-0.016	0.010
-251.063	800.000	-0.082	0.274
-250.049	800.000	0.028	-0.077
-249.034	446.319	-0.041	-0.088
-248.019	500.853	-0.011	0.025
-247.005	218.077	-0.125	0.197
-245.990	-176.940	0.311	0.008
-244.976	-125.251	-0.125	-0.019
-243.961	-200.000	0.074	-0.325
-242.946	-130.847	0.216	0.029
-241.932	-200.000	0.060	0.279
-240.917	214.723	-0.100	0.156
-239.903	171.422	-0.097	0.137
-238.888	800.000	-0.078	-0.264
-237.873	49.208	0.081	-0.075
-236.859	-86.929	-0.180	-0.054
-235.844	-16.497	0.142	0.089
-234.830	175.667	-0.247	-0.353
-233.815	-49.248	0.298	0.140
-232.800	539.667	0.076	0.178
-231.786	-81.416	-0.097	-0.032
-230.771	5.038	-0.112	-0.081
-229.757	263.916	-0.068	0.117
-228.742	-171.429	0.219	-0.007
-227.727	-200.000	-0.014	0.132
-226.713	-192.882	-0.173	0.002
-225.698	-126.840	-0.119	0.017
-224.684	800.000	0.069	0.206
-223.669	-104.868	0.411	0.093
-222.655	-15.352	-0.081	-0.051
-221.640	-200.000	-0.045	0.361
-220.625	43.849	0.043	0.038
-219.611	-97.618	-0.378	-0.097
-218.596	-144.569	-0.312	0.028
-217.582	28.988	0.040	0.033
-216.567	-135.695	0.020	-0.002
-215.552	800.000	-0.058	0.207
-214.538	92.946	-0.204	0.227
-213.523	-200.000	-0.001	0.124
-212.509	37.123	0.043	-0.037
-211.494	-142.009	-0.225	-0.022
-210.479	-117.078	0.204	-0.037
-209.465	-200.000	-0.074	0.330
-208.450	303.094	0.150	-0.274
-207.436	-44.076	-0.032	-0.016
-206.421	199.590	0.100	0.151
-205.406	-101.313	-0.141	0.034
-204.392	800.000	0.071	0.221
-203.377	180.051	-0.176	-0.254
-202.363	-144.896	-0.093	0.008
-201.348	7.117	0.148	-0.109
-200.333	152.442	0.087	-0.117
-199.319	-113.553	-0.346	0.067
-198.304	-200.000	-0.023	-0.221
-197.290	-189.889	-0.216	0.002
-196.275	171.633	-0.153	-0.216
-195.260	582.234	0.091	0.219
-194.246	-200.000	-0.010	0.084
-193.231	-95.073	0.147	-0.039
-192.217	171.522	-0.166	-0.234
-191.202	-15.109	0.327	-0.207
-190.187	-200.000	0.013	0.116
-189.173	38.811	-0.076	-0.067
-188.158	-92.538	-0.181	-0.050
-187.144	-133.187	0.425	-0.053
-186.129	-200.000	0.021	0.198
-185.114	-138.736	-0.186	-0.020
-184.100	-102.284	-0.369	-0.087
-183.085	-107.100	0.206	0.045
-182.071	358.725	-0.051	0.101
-181.056	-94.327	0.091	0.024
-180.042	-200.000	0.019	0.320
-179.027	-4.458	0.251	0.171
-178.012	-157.057	0.564	-0.034
-176.998	131.579	-0.123	0.156
-175.983	-148.497	-0.270	0.022
-174.969	-38.173	0.141	0.074
-173.954	72.994	-0.055	0.056
-172.939	223.993	0.066	-0.106
-171.925	-200.000	0.005	0.070
-170.910	-47.902	0.053	0.025
-169.896	800.000	-0.062	0.176
-168.881	-200.000	0.017	-0.281
-167.866	-117.733	-0.393	-0.070
-166.852	-9.883	0.088	0.058
-165.837	-140.595	0.259	-0.026
-164.823	-200.000	-0.010	0.048
-163.808	-88.803	0.129	-0.038
-162.793	320.671	-0.103	-0.193
-161.779	-85.929	0.291	0.089
-160.764	800.000	0.106	-0.302
-159.750	20.066	0.017	0.014
-158.735	-75.667	0.247	0.086
-157.720	38.334	0.239	0.209
-156.706	-64.189	0.330	0.132
-155.691	24.027	-0.110	-0.090
-154.677	19.201	-0.156	0.123
-153.662	161.727	0.072	-0.099
-152.647	-155.767	0.028	-0.002
-151.633	58.223	-0.176	0.169
-150.618	-123.942	0.391	-0.061
-149.604	-200.000	0.011	-0.383
-148.589	-98.476	-0.004	0.001
-147.574	-200.000	-0.029	-0.336
-146.560	-200.000	0.041	-0.207
-145.545	-85.325	0.077	0.023
-144.531	9.450	-0.068	0.050
-143.516	-185.463	0.252	-0.004
-142.502	-21.163	0.157	0.095
-141.487	-200.000	0.007	0.237
-140.472	-138.058	-0.191	0.021
-139.458	762.811	-0.021	0.057
-138.443	-30.758	-0.067	0.037
-137.429	100.414	0.138	0.157
-136.414	-200.000	-0.016	-0.141
-135.399	213.528	-0.012	-0.019
-134.385	800.000	-0.038	-0.154
-133.370	-28.330	0.079	0.045
-132.356	-66.753	0.244	-0.095
-131.341	628.808	0.080	-0.199
-130.326	-200.000	-0.043	0.191
-129.312	-141.174	-0.079	0.008
-128.297	-1.200	-0.233	0.162
-127.283	-200.000	0.080	0.384
-126.268	-153.768	-0.103	-0.007
-125.253	-147.493	0.181	0.015
-124.239	-112.308	-0.404	0.080
-123.224	-151.263	0.330	-0.024
-122.210	212.146	0.027	0.041
