DTS Sentinel unit serial number:	SN413079Multiplexer serial number:	ORYXHardware model number:	OX4-SRSoftware version number:	ORYX F/W v4.00 Oryx Data Collector v3.7.2.0data status	okinstallation	princeton_trtdifferential loss correction	single-endedforward channel	channel 2reverse channel	N/Adate	2019/09/11time	19:21:10forward acquisition time	60.00reverse acquisition time	0.00gamma	496.2192k internal	0.2302k external	0.2302temperature offset calibration	1.0041default loss term (dB/km)	0.3790temperature slope calibration	1.0000multiplexer offset coefficient	1.0000multiplexer slope coefficient	1.0000fibre end	0.00T internal ref (°C)	40.98T ext. ref 1 (°C)	1.31T ext. ref 2 (°C)	33.22length (m)	temperature (°C)	Stokes	anti-Stokes-747.200	-86.062	-0.106	-0.033
-746.185	-53.351	0.250	0.117
-745.171	800.000	-0.087	0.355
-744.156	11.761	-0.381	0.298
-743.142	-200.000	0.002	-0.067
-742.127	-69.398	-0.143	0.056
-741.112	25.277	-0.211	-0.179
-740.098	-200.000	0.061	0.368
-739.083	685.533	0.118	0.313
-738.069	501.851	-0.084	0.198
-737.054	-46.613	0.230	-0.115
-736.039	139.431	-0.333	0.446
-735.025	-115.697	-0.104	0.020
-734.010	235.504	0.022	0.037
-732.996	-200.000	0.027	-0.203
-731.981	800.000	-0.002	-0.010
-730.966	152.729	-0.261	-0.363
-729.952	146.398	0.157	0.214
-728.937	-32.825	0.062	-0.035
-727.923	-102.745	0.095	-0.023
-726.908	800.000	-0.090	-0.304
-725.894	-49.133	-0.130	0.064
-724.879	800.000	0.032	0.125
-723.864	-114.882	-0.375	0.073
-722.850	-127.700	0.166	-0.024
-721.835	47.048	-0.084	0.080
-720.821	152.250	-0.186	-0.258
-719.806	11.822	-0.046	0.036
-718.791	186.661	0.068	-0.103
-717.777	-132.311	0.416	-0.055
-716.762	-83.205	0.133	0.044
-715.748	91.950	-0.145	0.167
-714.733	-92.702	0.415	-0.118
-713.718	-200.000	0.002	-0.313
-712.704	-71.145	-0.223	-0.085
-711.689	-22.191	0.055	-0.034
-710.675	-200.000	0.038	0.224
-709.660	-36.517	0.082	0.045
-708.645	-157.324	-0.190	-0.012
-707.631	693.209	-0.063	0.169
-706.616	800.000	-0.129	-0.439
-705.602	52.241	-0.253	-0.245
-704.587	194.879	0.140	-0.216
-703.572	-77.504	0.442	-0.156
-702.558	-109.618	0.006	0.001
-701.543	97.683	0.268	-0.314
-700.529	-65.695	0.274	-0.112
-699.514	-142.884	0.409	0.040
-698.499	115.252	-0.149	0.186
-697.485	800.000	0.022	-0.088
-696.470	89.793	0.052	-0.059
-695.456	-200.000	-0.001	-0.084
-694.441	-179.145	0.204	0.005
-693.426	-163.177	-0.340	0.017
-692.412	800.000	0.060	-0.243
-691.397	322.019	0.153	-0.297
-690.383	76.144	-0.224	-0.242
-689.368	800.000	-0.179	-0.610
-688.354	365.267	0.072	-0.147
-687.339	-200.000	0.006	0.062
-686.324	800.000	-0.068	0.256
-685.310	-135.443	-0.272	-0.033
-684.295	31.675	-0.228	-0.199
-683.281	-200.000	-0.036	-0.176
-682.266	-91.267	-0.128	-0.037
-681.251	54.384	0.437	-0.428
-680.237	-200.000	-0.022	0.301
-679.222	-200.000	-0.019	0.191
-678.208	-127.381	0.245	-0.036
-677.193	-200.000	0.003	0.065
-676.178	800.000	-0.059	-0.196
-675.164	800.000	0.099	0.370
-674.149	-200.000	-0.014	0.224
-673.135	-152.227	0.236	0.017
-672.120	-17.729	-0.108	0.069
-671.105	3.009	0.111	-0.082
-670.091	303.864	0.064	0.121
-669.076	-174.888	-0.259	-0.007
-668.062	-9.783	-0.265	-0.179
-667.047	-33.664	-0.145	-0.081
-666.032	374.206	0.112	0.232
-665.018	-24.801	0.058	-0.035
-664.003	-200.000	0.022	-0.208
-662.989	-200.000	0.016	-0.292
-661.974	-21.912	-0.114	-0.071
-660.959	-200.000	-0.050	0.230
-659.945	368.833	-0.096	0.197
-658.930	144.819	-0.223	0.303
-657.916	-102.406	-0.184	0.045
-656.901	161.946	-0.281	-0.400
-655.886	800.000	0.046	-0.168
-654.872	312.615	-0.126	-0.241
-653.857	102.644	0.328	0.390
-652.843	127.380	-0.196	0.253
-651.828	-59.706	-0.235	-0.102
-650.814	800.000	-0.043	-0.188
-649.799	202.021	0.088	-0.137
-648.784	23.790	-0.205	0.172
-647.770	82.520	0.083	0.091
-646.755	-200.000	-0.024	0.433
-645.741	56.547	0.131	0.129
-644.726	-157.900	-0.062	0.004
-643.711	53.482	-0.085	-0.083
-642.697	-9.050	0.114	-0.077
-641.682	-66.589	-0.303	0.122
-640.668	156.283	-0.144	0.202
-639.653	-83.147	-0.030	0.010
-638.638	617.401	-0.121	-0.309
-637.624	84.648	-0.169	-0.188
-636.609	-144.611	-0.115	-0.011
-635.595	39.968	0.112	0.102
-634.580	-86.484	-0.283	0.088
-633.565	518.267	0.090	0.214
-632.551	-40.739	0.146	-0.077
-631.536	86.055	0.185	-0.206
-630.522	800.000	-0.016	-0.054
-629.507	83.080	-0.072	-0.080
-628.492	-122.530	-0.067	0.011
-627.478	800.000	0.044	-0.137
-626.463	-65.889	0.102	0.041
-625.449	-122.155	0.474	0.079
-624.434	-77.504	-0.086	-0.030
-623.419	49.106	0.272	0.259
-622.405	-9.491	0.189	0.128
-621.390	-11.517	-0.146	0.097
-620.376	153.442	0.167	-0.232
-619.361	81.933	-0.113	0.124
-618.346	-133.979	-0.206	0.026
-617.332	212.235	0.118	0.189
-616.317	6.888	-0.256	0.193
-615.303	-200.000	0.018	-0.314
-614.288	-200.000	0.024	-0.245
-613.273	7.661	0.322	-0.245
-612.259	-200.000	0.020	0.364
-611.244	474.620	-0.087	-0.199
-610.230	27.396	0.188	-0.160
-609.215	46.778	0.010	0.009
-608.201	738.539	0.050	-0.137
-607.186	-125.786	0.370	-0.057
-606.171	-27.923	0.212	-0.125
-605.157	-200.000	0.076	0.383
-604.142	-36.772	-0.203	-0.111
-603.128	62.204	-0.227	0.230
-602.113	442.139	0.042	-0.093
-601.098	-133.147	-0.164	0.021
-600.084	33.443	0.078	0.068
-599.069	-113.262	0.358	0.071
-598.055	15.146	0.058	0.046
-597.040	-89.829	-0.300	0.089
-596.025	-60.541	-0.123	0.053
-595.011	39.978	-0.168	0.153
-593.996	-58.754	-0.215	0.094
-592.982	145.591	0.188	-0.255
-591.967	-50.980	0.324	-0.154
-590.952	-200.000	-0.007	-0.192
-589.938	523.336	0.072	-0.172
-588.923	-158.799	-0.125	-0.007
-587.909	-200.000	-0.006	0.037
-586.894	260.939	-0.078	-0.137
-585.879	-200.000	-0.016	-0.090
-584.865	-14.092	-0.191	-0.125
-583.850	187.843	0.076	-0.115
-582.836	-200.000	-0.018	0.111
-581.821	-127.530	-0.120	0.018
-580.806	-116.744	-0.357	0.066
-579.792	69.287	-0.100	0.104
-578.777	84.545	0.102	-0.113
-577.763	559.185	-0.206	-0.503
-576.748	800.000	-0.038	0.155
-575.733	32.316	0.132	0.115
-574.719	-200.000	-0.072	0.542
-573.704	800.000	-0.076	0.327
-572.690	-54.466	0.152	0.070
-571.675	151.272	0.086	-0.119
-570.661	-200.000	0.031	0.178
-569.646	245.208	-0.188	0.320
-568.631	-102.588	0.168	-0.041
-567.617	-102.257	-0.461	0.112
-566.602	-39.522	-0.154	0.081
-565.588	8.240	-0.155	0.118
-564.573	389.800	0.204	0.428
-563.558	173.298	0.073	-0.106
-562.544	-32.689	0.240	0.135
-561.529	-3.238	-0.109	0.077
-560.515	-23.973	0.120	-0.073
-559.500	66.646	0.156	-0.161
-558.485	800.000	-0.016	-0.049
-557.471	180.893	0.223	0.332
-556.456	-5.304	0.158	0.110
-555.442	349.632	-0.190	0.379
-554.427	-151.709	0.281	0.021
-553.412	-113.251	-0.370	0.074
-552.398	-92.561	-0.222	0.063
-551.383	304.213	0.047	-0.088
-550.369	-107.977	0.226	0.050
-549.354	-28.634	0.104	0.061
-548.339	-88.794	-0.420	0.126
-547.325	-88.681	0.145	-0.044
-546.310	-200.000	0.050	-0.452
-545.296	108.972	-0.170	-0.206
-544.281	38.320	0.313	-0.282
-543.266	800.000	0.119	-0.478
-542.252	567.162	-0.125	-0.306
-541.237	-200.000	0.018	0.147
-540.223	450.991	0.087	0.195
-539.208	-77.448	-0.059	-0.021
-538.193	702.317	-0.172	0.457
-537.179	37.599	0.239	0.214
-536.164	310.465	-0.032	0.061
-535.150	-0.271	-0.050	-0.036
-534.135	211.050	-0.077	-0.122
-533.121	-200.000	-0.048	0.327
-532.106	-32.639	-0.268	-0.151
-531.091	199.604	0.300	0.465
-530.077	-200.000	-0.002	0.296
-529.062	-200.000	0.001	0.120
-528.048	3.842	0.043	-0.032
-527.033	-56.487	-0.130	-0.058
-526.018	149.859	0.174	0.238
-525.004	800.000	0.099	0.373
-523.989	-122.435	0.394	-0.065
-522.975	-9.358	-0.159	0.107
-521.960	-200.000	-0.003	0.054
-520.945	-200.000	0.120	0.000
-519.931	800.000	0.062	0.176
-518.916	94.726	0.418	-0.480
-517.902	-16.024	-0.172	0.111
-516.887	-106.500	0.399	0.090
-515.872	138.294	-0.034	0.045
-514.858	-200.000	-0.061	-0.317
-513.843	-200.000	0.032	-0.233
-512.829	-61.533	0.074	0.031
-511.814	-69.630	-0.015	-0.006
-510.799	-42.994	-0.158	-0.081
-509.785	-199.769	0.166	-0.001
-508.770	265.356	0.089	-0.156
-507.756	79.519	0.257	-0.278
-506.741	-135.499	-0.233	-0.028
-505.726	-126.554	0.330	0.049
-504.712	95.109	-0.047	0.054
-503.697	-20.215	-0.152	-0.095
-502.683	-190.836	-0.184	0.002
-501.668	-137.033	-0.212	0.025
-500.653	119.809	-0.090	0.112
-499.639	609.232	-0.090	0.227
-498.624	768.749	0.079	0.217
-497.610	-6.181	-0.264	-0.182
-496.595	26.406	0.044	0.037
-495.581	-73.871	-0.406	0.149
-494.566	-200.000	-0.014	0.121
-493.551	-200.000	0.008	-0.251
-492.537	-37.568	-0.318	-0.171
-491.522	464.658	-0.039	-0.087
-490.508	800.000	-0.078	0.248
-489.493	800.000	0.027	0.076
-488.478	-110.440	-0.113	0.024
-487.464	800.000	0.048	0.162
-486.449	735.512	-0.087	-0.235
-485.435	-10.125	-0.176	-0.118
-484.420	-136.728	-0.204	-0.024
-483.405	155.783	0.018	0.024
-482.391	-200.000	0.053	0.331
-481.376	192.727	-0.056	-0.086
-480.362	-51.195	0.055	0.026
-479.347	-57.283	0.075	0.033
-478.332	-2.834	0.280	-0.197
-477.318	-68.762	-0.225	0.088
-476.303	-33.347	-0.152	-0.085
-475.289	41.570	-0.059	0.054
-474.274	-63.820	-0.080	-0.033
-473.259	-133.083	0.174	-0.022
-472.245	-57.003	0.196	0.087
-471.230	-33.496	-0.137	0.076
-470.216	-180.524	0.262	-0.005
-469.201	760.377	0.088	0.239
-468.186	-200.000	0.012	0.357
-467.172	28.286	0.240	-0.205
-466.157	46.125	-0.139	0.129
-465.143	160.997	-0.211	0.297
-464.128	-65.001	0.071	-0.029
-463.113	-200.000	0.008	-0.361
-462.099	-200.000	0.021	0.120
-461.084	-32.335	0.273	-0.153
-460.070	-130.535	-0.434	-0.059
-459.055	-9.914	0.205	-0.137
-458.040	-128.282	-0.060	0.009
-457.026	85.819	0.188	-0.209
-456.011	-200.000	0.003	-0.397
-454.997	-101.366	-0.200	-0.049
-453.982	800.000	-0.032	0.127
-452.968	539.832	-0.083	0.199
-451.953	37.409	-0.191	-0.171
-450.938	-27.230	0.193	-0.113
-449.924	800.000	-0.097	0.283
-448.909	17.645	0.312	-0.250
-447.895	-200.000	0.034	-0.315
-446.880	-118.085	-0.113	0.020
-445.865	-76.821	-0.361	-0.127
-444.851	278.656	-0.017	0.031
-443.836	219.057	-0.031	0.050
-442.822	161.851	0.109	-0.153
-441.807	800.000	-0.087	-0.334
-440.792	-76.163	0.138	0.049
-439.778	-200.000	0.033	0.193
-438.763	191.879	0.061	-0.093
-437.749	800.000	-0.058	0.227
-436.734	106.743	0.144	0.173
-435.719	127.197	0.204	0.260
-434.705	-149.830	0.227	-0.018
-433.690	186.827	-0.077	-0.115
-432.676	110.558	-0.254	-0.308
-431.661	-200.000	0.016	-0.135
-430.646	-30.199	0.336	-0.192
-429.632	800.000	-0.071	-0.236
-428.617	-200.000	0.028	-0.187
-427.603	92.221	-0.021	0.024
-426.588	206.456	0.013	-0.021
-425.573	-92.516	0.263	-0.074
-424.559	-200.000	-0.023	-0.143
-423.544	-123.574	-0.155	0.025
-422.530	-147.196	-0.231	-0.020
-421.515	-200.000	-0.023	0.236
-420.500	404.218	0.131	0.278
-419.486	-200.000	0.006	0.101
-418.471	-118.889	-0.188	-0.033
-417.457	-200.000	-0.093	0.415
-416.442	-200.000	-0.029	0.138
-415.428	152.681	-0.216	0.296
-414.413	47.409	-0.025	0.024
-413.398	267.773	0.141	-0.249
-412.384	-96.070	0.322	-0.086
-411.369	-34.775	-0.117	0.064
-410.355	-27.638	-0.281	-0.164
-409.340	-125.943	-0.548	-0.083
-408.325	-82.717	-0.038	0.012
-407.311	-200.000	0.032	-0.269
-406.296	-160.401	-0.297	0.016
-405.282	150.591	0.103	0.141
-404.267	-200.000	0.001	-0.007
-403.252	-60.370	0.127	-0.054
-402.238	192.158	-0.166	0.252
-401.223	-3.483	0.195	-0.137
-400.209	349.275	-0.060	-0.120
-399.194	17.500	0.177	0.141
-398.179	-200.000	-0.013	-0.191
-397.165	800.000	0.018	-0.053
-396.150	-156.032	-0.168	0.011
-395.136	3.321	0.190	-0.139
-394.121	-110.558	-0.063	0.013
-393.106	-56.451	0.171	-0.076
-392.092	-8.131	-0.280	0.189
-391.077	-200.000	0.009	-0.173
-390.063	-102.669	-0.119	-0.029
-389.048	58.340	-0.176	0.174
-388.033	199.180	-0.088	0.136
-387.019	-200.000	0.005	-0.074
-386.004	-200.000	-0.014	-0.210
-384.990	449.441	-0.047	0.105
-383.975	238.188	-0.040	0.066
-382.960	-165.696	-0.137	0.006
-381.946	-104.307	0.232	0.054
-380.931	-57.224	-0.164	-0.072
-379.917	42.502	-0.104	-0.095
-378.902	366.327	0.076	0.154
-377.888	-10.588	-0.161	0.107
-376.873	436.685	-0.052	-0.113
-375.858	800.000	-0.012	0.051
-374.844	61.915	-0.224	-0.224
-373.829	-89.736	0.254	-0.075
-372.815	-21.206	0.045	0.028
-371.800	368.733	0.156	-0.318
-370.785	800.000	0.035	0.109
-369.771	-200.000	0.051	0.356
-368.756	-55.483	0.233	0.105
-367.742	-169.271	0.191	-0.007
-366.727	-62.445	0.333	0.139
-365.712	-101.642	0.203	0.049
-364.698	-152.219	0.153	-0.011
-363.683	208.657	-0.148	-0.233
-362.669	-200.000	-0.049	0.250
-361.654	242.959	0.259	0.435
-360.639	402.595	-0.100	0.211
-359.625	45.395	-0.044	0.040
-358.610	142.391	-0.107	-0.142
-357.596	642.697	-0.114	0.291
-356.581	800.000	0.026	-0.091
-355.566	800.000	0.036	0.120
-354.552	77.257	0.115	0.123
-353.537	8.335	-0.151	0.114
-352.523	22.223	0.312	0.256
-351.508	-200.000	0.028	0.286
-350.493	199.342	-0.159	0.245
-349.479	103.447	0.144	-0.170
-348.464	-60.542	0.308	0.131
-347.450	-58.864	-0.079	0.034
-346.435	-77.302	0.090	-0.031
-345.420	-200.000	-0.008	-0.038
-344.406	483.901	-0.085	-0.193
-343.391	-16.263	0.298	-0.190
-342.377	478.091	0.171	-0.389
-341.362	-28.525	-0.192	-0.111
-340.348	-19.963	-0.026	0.016
-339.333	-143.753	-0.246	0.023
-338.318	-198.797	-0.395	-0.002
-337.304	-76.726	0.142	-0.050
-336.289	-148.266	0.228	0.019
-335.275	352.841	-0.055	-0.109
-334.260	-200.000	-0.026	0.138
-333.245	800.000	-0.042	0.142
-332.231	-74.106	0.256	0.093
-331.216	257.664	0.100	0.173
-330.202	-200.000	0.015	-0.116
-329.187	98.276	-0.100	-0.116
-328.172	333.501	0.136	-0.265
-327.158	-130.108	0.095	-0.013
-326.143	321.689	-0.105	-0.201
-325.129	110.892	-0.126	0.153
-324.114	-79.619	-0.113	-0.038
-323.099	270.964	-0.020	-0.036
-322.085	-1.176	0.070	0.049
-321.070	97.055	0.204	0.235
-320.056	180.535	-0.196	0.289
-319.041	62.422	0.076	-0.076
-318.026	-3.242	0.278	0.194
-317.012	33.122	0.037	0.032
-315.997	-156.374	0.080	-0.005
-314.983	-31.548	-0.348	0.196
-313.968	-2.051	-0.178	0.126
-312.953	-176.783	-0.339	0.009
-311.939	-43.163	0.143	-0.072
-310.924	49.334	-0.089	0.084
-309.910	800.000	0.094	0.342
-308.895	256.940	0.086	-0.147
-307.880	-174.867	-0.115	-0.003
-306.866	246.168	0.149	0.252
-305.851	-81.830	-0.150	-0.049
-304.837	-114.151	0.157	-0.030
-303.822	-66.137	0.393	-0.157
-302.807	-111.734	-0.324	-0.066
-301.793	-13.408	0.167	-0.109
-300.778	800.000	-0.066	0.185
-299.764	141.664	-0.045	0.060
-298.749	-89.684	-0.220	-0.064
-297.735	298.311	0.051	-0.093
-296.720	41.534	-0.154	0.139
-295.705	-200.000	0.017	-0.100
-294.691	432.374	0.112	-0.243
-293.676	54.846	-0.024	-0.023
-292.662	-98.814	0.054	0.014
-291.647	-116.469	0.307	0.057
-290.632	-117.376	-0.352	-0.064
-289.618	46.791	0.257	0.239
-288.603	800.000	0.064	0.227
-287.589	179.920	0.093	-0.136
-286.574	-102.916	0.171	-0.041
-285.559	-58.693	0.192	0.083
-284.545	358.612	0.049	0.098
-283.530	-68.135	-0.227	-0.088
-282.516	-75.640	0.140	-0.050
-281.501	800.000	-0.108	-0.309
-280.486	6.677	-0.044	0.033
-279.472	28.156	0.119	-0.100
-278.457	800.000	-0.101	-0.358
-277.443	800.000	-0.115	-0.388
-276.428	578.057	-0.112	0.274
-275.413	31.641	-0.196	0.169
-274.399	253.979	-0.038	-0.066
-273.384	-27.315	-0.172	-0.100
-272.370	-200.000	-0.230	0.001
-271.355	198.974	0.279	0.428
-270.340	35.679	-0.220	-0.193
-269.326	-53.442	0.321	-0.147
-268.311	18.234	0.159	0.127
-267.297	-200.000	0.027	-0.226
-266.282	-106.939	0.331	0.073
-265.267	620.400	0.126	-0.318
-264.253	-30.975	-0.122	-0.069
-263.238	-200.000	0.003	0.207
-262.224	-16.588	0.170	-0.108
-261.209	800.000	0.080	-0.253
-260.195	138.504	-0.114	0.150
-259.180	131.287	-0.153	-0.196
-258.165	4.619	0.107	-0.078
-257.151	800.000	-0.066	0.253
-256.136	800.000	0.103	-0.291
-255.122	-200.000	0.017	-0.112
-254.107	-200.000	-0.023	0.144
-253.092	-54.096	0.199	0.090
-252.078	184.757	0.075	-0.111
-251.063	-15.554	0.034	-0.021
-250.049	-52.507	-0.259	-0.120
-249.034	-165.171	0.009	-0.000
-248.019	-65.637	-0.196	0.079
-247.005	89.724	0.029	-0.033
-245.990	40.070	-0.158	0.142
-244.976	347.493	0.074	0.145
-243.961	-11.436	-0.306	0.201
-242.946	167.481	0.096	-0.136
-241.932	800.000	-0.016	0.065
-240.917	70.734	-0.112	0.116
-239.903	-200.000	-0.011	0.348
-238.888	800.000	-0.051	-0.166
-237.873	188.775	-0.115	0.173
-236.859	-170.848	-0.237	-0.008
-235.844	-97.300	-0.153	0.040
-234.830	244.053	0.161	0.269
-233.815	-89.464	0.236	-0.069
-232.800	-94.538	-0.225	0.061
-231.786	-3.644	-0.217	-0.151
-230.771	17.785	-0.115	-0.091
-229.757	136.695	-0.082	-0.107
-228.742	107.446	-0.101	-0.120
-227.727	-125.926	-0.090	-0.014
-226.713	464.898	0.065	-0.146
-225.698	564.329	0.053	0.128
-224.684	29.964	0.289	-0.246
-223.669	-50.343	0.329	-0.155
-222.655	229.838	-0.011	0.018
-221.640	162.041	-0.203	-0.284
-220.625	-200.000	0.003	-0.035
-219.611	800.000	-0.066	0.278
-218.596	72.029	0.187	0.194
-217.582	-200.000	-0.006	-0.056
-216.567	458.906	0.126	0.279
-215.552	-57.637	-0.210	-0.092
-214.538	79.090	0.025	-0.027
-213.523	7.047	-0.254	-0.189
-212.509	-90.455	-0.097	0.028
-211.494	17.671	0.054	-0.043
-210.479	-19.646	0.095	0.059
-209.465	18.163	0.274	0.218
-208.450	-62.359	-0.042	-0.017
-207.436	27.806	0.104	-0.087
-206.421	-151.876	0.213	-0.016
-205.406	-1.838	0.178	-0.125
-204.392	-11.589	-0.101	-0.066
-203.377	-200.000	-0.054	-0.247
-202.363	-16.485	0.122	0.077
-201.348	-103.944	-0.149	-0.035
-200.333	-200.000	0.023	-0.322
-199.319	49.728	0.317	0.298
-198.304	111.041	0.380	0.457
-197.290	218.916	-0.095	-0.151
-196.275	-4.925	-0.158	-0.109
-195.260	171.584	0.113	-0.161
-194.246	-122.358	-0.322	-0.052
-193.231	129.216	0.100	-0.127
-192.217	-59.290	0.334	-0.144
-191.202	800.000	-0.082	0.337
-190.187	-89.110	-0.096	-0.028
-189.173	-62.749	-0.124	0.051
-188.158	84.802	-0.159	0.174
-187.144	62.527	0.101	-0.100
-186.129	-43.311	-0.306	0.154
-185.114	-52.294	-0.305	-0.141
-184.100	-70.461	-0.275	0.104
-183.085	-29.992	0.042	-0.024
-182.071	26.612	0.109	-0.091
-181.056	-174.498	0.167	0.005
-180.042	-12.875	0.145	-0.094
-179.027	800.000	0.052	-0.151
-178.012	800.000	0.039	-0.127
-176.998	-49.712	-0.301	-0.142
-175.983	800.000	0.066	-0.232
-174.969	83.245	-0.116	-0.126
-173.954	-43.961	-0.153	0.077
-172.939	211.683	0.138	-0.216
-171.925	-36.727	-0.233	-0.125
-170.910	-200.000	0.013	-0.197
-169.896	36.507	0.159	-0.140
-168.881	-29.645	-0.010	-0.006
-167.866	264.145	0.115	-0.200
-166.852	-82.912	-0.122	0.039
-165.837	205.393	0.026	-0.041
-164.823	-39.133	-0.058	0.030
-163.808	-94.424	0.032	0.009
-162.793	94.608	0.152	-0.172
-161.779	-71.999	0.094	-0.035
-160.764	-105.160	0.227	0.052
-159.750	18.141	-0.102	0.081
-158.735	278.425	-0.078	-0.138
-157.720	229.551	-0.127	-0.207
-156.706	-21.833	0.226	-0.137
-155.691	-69.224	-0.175	-0.067
-154.677	-8.208	0.247	-0.166
-153.662	-54.799	0.127	-0.057
-152.647	-110.053	0.168	-0.035
-151.633	127.350	-0.252	-0.319
-150.618	-200.000	0.037	-0.261
-149.604	-10.257	0.223	-0.147
-148.589	-15.171	0.109	0.070
-147.574	-200.000	0.015	-0.164
-146.560	-140.508	0.270	-0.028
-145.545	-73.963	0.262	0.094
-144.531	-200.000	0.065	0.368
-143.516	-74.534	0.138	0.050
-142.502	7.843	0.154	0.115
-141.487	-162.609	0.039	-0.002
-140.472	142.849	-0.144	0.191
-139.458	-200.000	0.015	-0.126
-138.443	40.488	-0.303	0.272
-137.429	-123.641	-0.309	-0.049
-136.414	-109.316	-0.102	-0.022
-135.399	146.271	0.017	-0.023
-134.385	-200.000	0.048	-0.231
-133.370	-42.942	-0.295	-0.149
-132.356	95.924	0.167	-0.189
-131.341	12.710	-0.048	-0.037
-130.326	-200.000	-0.496	-0.002
-129.312	-200.000	-0.002	-0.037
-128.297	328.435	-0.041	-0.079
-127.283	634.868	0.142	-0.359
-126.268	-200.000	-0.035	-0.193
-125.253	109.357	0.089	-0.106
-124.239	458.915	0.068	-0.150
-123.224	595.843	0.061	0.150
-122.210	-192.018	0.220	0.002
-121.195	-37.096	-0.176	-0.094
