DTS Sentinel unit serial number:	SN413079Multiplexer serial number:	ORYXHardware model number:	OX4-SRSoftware version number:	ORYX F/W v4.00 Oryx Data Collector v3.7.2.0data status	okinstallation	princeton_trtdifferential loss correction	single-endedforward channel	channel 2reverse channel	N/Adate	2019/09/12time	01:05:11forward acquisition time	60.00reverse acquisition time	0.00gamma	496.2192k internal	0.2326k external	0.2326temperature offset calibration	1.0092default loss term (dB/km)	0.3790temperature slope calibration	1.0000multiplexer offset coefficient	1.0000multiplexer slope coefficient	1.0000fibre end	0.00T internal ref (°C)	33.12T ext. ref 1 (°C)	2.09T ext. ref 2 (°C)	27.16length (m)	temperature (°C)	Stokes	anti-Stokes-747.200	-200.000	0.037	0.452
-746.185	584.362	0.119	0.296
-745.171	-19.313	-0.095	-0.059
-744.156	7.835	0.302	0.228
-743.142	243.503	-0.043	0.073
-742.127	92.436	0.385	0.438
-741.112	-200.000	0.056	0.259
-740.098	800.000	-0.101	0.313
-739.083	-21.230	0.390	0.240
-738.069	-200.000	0.011	0.254
-737.054	800.000	-0.023	0.095
-736.039	-90.982	-0.174	-0.050
-735.025	-28.990	-0.081	0.047
-734.010	-112.453	-0.283	-0.057
-732.996	439.764	-0.152	-0.336
-731.981	-131.363	-0.167	-0.022
-730.966	96.613	0.210	0.242
-729.952	108.610	-0.231	-0.278
-728.937	91.240	-0.118	-0.133
-727.923	800.000	-0.005	0.015
-726.908	500.663	0.068	-0.158
-725.894	-121.625	0.108	0.018
-724.879	173.428	0.017	0.025
-723.864	15.013	0.106	-0.084
-722.850	503.168	-0.068	-0.159
-721.835	-128.262	-0.117	0.017
-720.821	400.943	-0.050	-0.107
-719.806	-5.370	-0.178	-0.123
-718.791	-200.000	0.024	0.186
-717.777	11.892	0.108	0.084
-716.762	114.005	-0.181	-0.221
-715.748	-142.385	0.537	-0.053
-714.733	-78.509	-0.338	-0.117
-713.718	-77.844	-0.456	0.159
-712.704	800.000	-0.163	-0.498
-711.689	800.000	0.067	0.233
-710.675	2.066	-0.124	0.090
-709.660	676.794	0.064	0.168
-708.645	-200.000	0.007	-0.149
-707.631	-87.119	0.286	-0.088
-706.616	-132.728	0.113	0.015
-705.602	-14.712	-0.154	0.100
-704.587	2.480	0.063	0.046
-703.572	-89.743	0.104	-0.031
-702.558	416.763	0.115	0.247
-701.543	22.258	0.239	-0.196
-700.529	43.372	-0.275	0.253
-699.514	-89.424	-0.225	0.067
-698.499	-138.041	0.395	0.044
-697.485	-45.493	0.136	-0.068
-696.470	108.562	-0.053	-0.064
-695.456	-116.609	0.234	-0.043
-694.441	-51.135	-0.089	-0.042
-693.426	397.104	0.057	0.120
-692.412	-61.978	0.097	-0.041
-691.397	-57.210	-0.162	-0.072
-690.383	-2.632	0.096	0.067
-689.368	20.359	0.028	0.023
-688.354	265.407	-0.122	-0.215
-687.339	-54.178	-0.094	0.043
-686.324	-57.665	-0.228	0.101
-685.310	800.000	-0.090	-0.277
-684.295	-102.616	-0.438	-0.105
-683.281	222.468	-0.060	-0.097
-682.266	157.402	-0.101	-0.141
-681.251	225.377	-0.144	-0.235
-680.237	14.513	0.194	-0.152
-679.222	360.587	0.067	-0.134
-678.208	14.173	-0.149	-0.117
-677.193	0.520	0.301	0.216
-676.178	-200.000	-0.005	0.036
-675.164	800.000	-0.010	-0.036
-674.149	148.301	0.205	-0.278
-673.135	-200.000	0.044	-0.221
-672.120	800.000	-0.028	0.099
-671.105	-101.347	-0.204	-0.050
-670.091	-200.000	-0.024	0.359
-669.076	800.000	0.017	0.058
-668.062	-200.000	0.069	-0.344
-667.047	201.715	-0.102	-0.158
-666.032	-101.801	0.170	0.041
-665.018	-200.000	0.011	-0.137
-664.003	236.397	-0.091	-0.152
-662.989	13.337	0.220	-0.172
-661.974	33.506	0.144	-0.126
-660.959	-74.532	-0.250	-0.091
-659.945	-28.005	-0.136	-0.079
-658.930	-200.000	0.015	0.117
-657.916	159.212	-0.107	-0.150
-656.901	96.095	-0.045	0.052
-655.886	-200.000	0.034	-0.153
-654.872	146.315	0.075	0.101
-653.857	800.000	0.087	-0.284
-652.843	-200.000	-0.092	0.483
-651.828	-104.880	-0.138	0.032
-650.814	800.000	-0.019	0.058
-649.799	85.199	0.036	-0.040
-648.784	103.170	0.240	0.283
-647.770	-9.263	-0.339	-0.227
-646.755	-66.360	-0.097	0.039
-645.741	90.922	-0.097	0.109
-644.726	244.665	-0.194	-0.328
-643.711	-30.313	-0.079	0.045
-642.697	-179.087	-0.248	0.006
-641.682	-141.931	0.179	0.018
-640.668	519.421	-0.140	0.330
-639.653	39.141	0.216	0.194
-638.638	439.382	-0.088	0.192
-637.624	266.130	0.038	-0.066
-636.609	-141.153	0.158	-0.016
-635.595	149.537	0.014	-0.020
-634.580	-200.000	-0.111	0.516
-633.565	4.162	0.335	-0.246
-632.551	518.220	0.103	-0.242
-631.536	-138.339	-0.008	0.001
-630.522	187.586	0.085	0.127
-629.507	55.371	-0.086	-0.084
-628.492	176.216	0.090	-0.132
-627.478	-200.000	0.011	-0.100
-626.463	17.399	-0.157	-0.125
-625.449	357.651	-0.139	-0.279
-624.434	-200.000	-0.021	-0.103
-623.419	-52.928	0.277	0.128
-622.405	-200.000	-0.028	0.270
-621.390	-16.321	0.263	0.167
-620.376	-138.941	-0.075	-0.008
-619.361	800.000	-0.105	0.330
-618.346	-155.039	-0.273	-0.018
-617.332	-133.301	-0.247	0.031
-616.317	-20.538	0.402	-0.248
-615.303	652.095	0.088	-0.226
-614.288	129.724	0.074	-0.095
-613.273	262.517	-0.111	-0.194
-612.259	800.000	0.083	0.258
-611.244	-183.373	-0.247	0.004
-610.230	-50.519	0.113	0.053
-609.215	-68.569	0.281	-0.109
-608.201	175.936	0.111	0.161
-607.186	-200.000	0.011	-0.074
-606.171	42.788	-0.238	-0.217
-605.157	-200.000	-0.081	-0.576
-604.142	-200.000	0.045	-0.385
-603.128	-180.430	0.428	0.009
-602.113	-51.532	0.094	-0.044
-601.098	-163.999	0.204	0.010
-600.084	-23.514	-0.175	-0.106
-599.069	429.461	-0.195	0.424
-598.055	-167.546	-0.251	0.010
-597.040	10.582	-0.137	0.105
-596.025	172.694	-0.047	0.067
-595.011	800.000	-0.149	-0.436
-593.996	545.074	-0.035	0.085
-592.982	-77.206	0.243	0.085
-591.967	44.087	0.146	-0.134
-590.952	70.016	-0.033	0.034
-589.938	-11.568	-0.101	0.067
-588.923	669.263	-0.011	0.027
-587.909	35.051	-0.104	-0.092
-586.894	289.639	-0.061	-0.112
-585.879	-48.006	-0.102	0.049
-584.865	72.624	-0.019	0.020
-583.850	107.703	-0.110	-0.131
-582.836	-200.000	-0.032	0.254
-581.821	189.216	-0.079	0.119
-580.806	421.954	0.091	-0.196
-579.792	-11.961	0.180	-0.119
-578.777	2.154	0.359	0.260
-577.763	237.682	-0.108	-0.180
-576.748	-200.000	-0.037	-0.185
-575.733	-27.147	0.138	0.080
-574.719	-200.000	-0.001	0.136
-573.704	72.914	0.037	0.039
-572.690	-18.905	0.220	0.137
-571.675	-200.000	0.004	-0.177
-570.661	-172.633	0.122	-0.004
-569.646	-39.780	-0.071	-0.037
-568.631	-47.957	0.205	0.099
-567.617	-30.364	0.165	0.094
-566.602	68.043	0.239	0.245
-565.588	-80.479	-0.302	0.101
-564.573	-86.741	-0.242	0.074
-563.558	-7.618	0.124	-0.084
-562.544	-200.000	0.026	0.151
-561.529	800.000	0.104	0.385
-560.515	-34.959	0.187	-0.102
-559.500	97.702	-0.050	0.058
-558.485	360.206	0.085	-0.170
-557.471	4.913	0.097	-0.071
-556.456	672.430	-0.055	-0.142
-555.442	304.586	0.153	-0.285
-554.427	-127.364	0.256	-0.037
-553.412	279.232	0.061	-0.110
-552.398	800.000	-0.078	-0.343
-551.383	-33.393	-0.216	-0.120
-550.369	-127.846	-0.230	-0.033
-549.354	-200.000	0.009	0.263
-548.339	475.625	0.163	0.367
-547.325	-13.548	0.163	0.106
-546.310	229.781	0.146	0.238
-545.296	-200.000	-0.046	0.211
-544.281	55.148	-0.234	-0.226
-543.266	208.696	-0.074	0.116
-542.252	800.000	-0.023	0.094
-541.237	800.000	-0.088	-0.268
-540.223	-144.280	0.332	-0.031
-539.208	800.000	0.013	-0.050
-538.193	-152.485	-0.205	0.015
-537.179	800.000	-0.136	0.403
-536.164	-32.787	-0.090	-0.050
-535.150	-200.000	-0.025	-0.325
-534.135	-35.947	0.117	-0.063
-533.121	-200.000	0.019	-0.162
-532.106	-200.000	0.065	-0.333
-531.091	-200.000	0.007	0.313
-530.077	-111.410	0.184	0.038
-529.062	-200.000	0.002	-0.037
-528.048	-29.125	-0.395	-0.227
-527.033	-55.622	0.285	0.128
-526.018	48.348	-0.194	0.181
-525.004	-149.365	-0.234	-0.019
-523.989	336.342	-0.078	-0.151
-522.975	391.669	0.155	-0.322
-521.960	-169.872	0.067	0.002
-520.945	-68.592	0.063	-0.024
-519.931	-200.000	-0.038	0.213
-518.916	130.314	-0.129	-0.165
-517.902	0.207	0.217	-0.155
-516.887	-36.226	-0.232	-0.125
-515.872	125.181	0.154	0.194
-514.858	274.325	-0.150	0.265
-513.843	-105.452	-0.080	-0.018
-512.829	208.862	-0.144	-0.225
-511.814	800.000	-0.056	0.215
-510.799	-14.601	-0.274	0.176
-509.785	-52.291	0.273	-0.127
-508.770	84.844	-0.149	0.163
-507.756	-88.059	0.300	0.090
-506.741	-98.044	-0.302	-0.078
-505.726	-200.000	-0.096	-0.473
-504.712	-200.000	0.007	-0.267
-503.697	-29.953	0.298	0.170
-502.683	-105.873	-0.367	-0.083
-501.668	-70.633	0.116	-0.044
-500.653	93.870	-0.363	-0.411
-499.639	111.429	-0.198	0.238
-498.624	164.593	-0.167	0.235
-497.610	332.815	-0.065	-0.126
-496.595	161.084	-0.282	-0.394
-495.581	800.000	0.119	-0.349
-494.566	-56.879	0.016	0.007
-493.551	-24.078	0.099	0.059
-492.537	800.000	-0.132	-0.401
-491.522	-200.000	0.026	-0.232
-490.508	52.111	0.032	0.030
-489.493	800.000	-0.100	0.424
-488.478	-120.973	0.266	0.045
-487.464	-60.541	0.291	-0.123
-486.449	-2.616	-0.185	0.129
-485.435	82.465	0.117	-0.127
-484.420	378.425	0.034	-0.068
-483.405	183.995	0.107	-0.158
-482.391	-200.000	0.012	0.096
-481.376	-200.000	0.028	-0.231
-480.362	427.828	-0.075	-0.161
-479.347	-110.683	0.041	-0.008
-478.332	-76.206	0.278	-0.098
-477.318	207.330	-0.279	-0.435
-476.303	389.029	0.052	-0.108
-475.289	170.923	-0.162	0.232
-474.274	94.198	0.245	0.278
-473.259	13.020	-0.147	-0.114
-472.245	800.000	0.082	-0.341
-471.230	-139.561	-0.252	-0.027
-470.216	667.180	-0.116	0.299
-469.201	90.738	0.146	0.163
-468.186	67.351	-0.149	-0.152
-467.172	55.370	-0.217	-0.209
-466.157	44.616	0.191	-0.175
-465.143	72.943	-0.135	-0.141
-464.128	-15.666	-0.351	0.224
-463.113	145.362	0.142	0.190
-462.099	-130.971	-0.251	0.033
-461.084	215.871	-0.115	-0.182
-460.070	-65.400	0.278	-0.111
-459.055	-172.501	0.193	0.006
-458.040	285.746	-0.054	0.098
-457.026	-60.825	0.271	-0.114
-456.011	40.332	0.199	0.178
-454.997	538.074	-0.061	-0.145
-453.982	216.269	0.120	-0.190
-452.968	3.874	-0.074	0.054
-451.953	-159.966	0.189	0.010
-450.938	-200.000	-0.001	-0.103
-449.924	800.000	0.064	-0.203
-448.909	32.225	0.125	-0.108
-447.895	800.000	0.067	0.291
-446.880	387.269	0.004	-0.008
-445.865	-80.260	0.268	0.089
-444.851	730.767	-0.138	-0.368
-443.836	-200.000	0.011	0.139
-442.822	-0.245	-0.150	0.107
-441.807	-34.081	-0.353	-0.193
-440.792	58.311	-0.258	0.252
-439.778	-118.141	0.172	0.031
-438.763	103.689	-0.101	0.118
-437.749	-74.209	-0.383	0.138
-436.734	554.564	-0.035	0.084
-435.719	247.526	-0.110	0.185
-434.705	393.063	-0.173	0.358
-433.690	800.000	-0.110	0.378
-432.676	-72.782	-0.193	-0.071
-431.661	-200.000	0.032	-0.208
-430.646	-200.000	-0.060	-0.297
-429.632	499.314	0.073	0.168
-428.617	498.062	-0.057	-0.130
-427.603	-200.000	0.004	-0.241
-426.588	-69.799	-0.449	-0.171
-425.573	248.103	-0.096	-0.162
-424.559	266.156	0.122	0.212
-423.544	-41.714	0.272	-0.139
-422.530	272.099	0.104	-0.183
-421.515	137.112	-0.057	0.074
-420.500	800.000	0.105	-0.296
-419.486	-159.776	0.109	-0.006
-418.471	800.000	-0.064	-0.231
-417.457	-11.047	0.378	0.248
-416.442	800.000	-0.127	-0.415
-415.428	-43.600	-0.253	0.127
-414.413	-200.000	0.042	0.197
-413.398	-4.721	-0.354	0.243
-412.384	10.756	-0.406	0.309
-411.369	-200.000	0.041	-0.228
-410.355	-200.000	0.017	0.207
-409.340	-12.122	0.098	-0.064
-408.325	108.851	-0.107	-0.127
-407.311	61.220	0.192	0.190
-406.296	384.385	0.151	-0.309
-405.282	-200.000	-0.028	-0.147
-404.267	96.224	0.163	-0.186
-403.252	118.995	0.254	0.313
-402.238	-200.000	0.036	0.249
-401.223	-26.717	0.288	0.168
-400.209	-42.788	0.083	0.042
-399.194	-19.502	-0.129	0.079
-398.179	-123.331	0.225	0.036
-397.165	-58.280	0.547	-0.237
-396.150	57.692	0.080	0.078
-395.136	-66.324	0.505	0.200
-394.121	800.000	0.021	0.089
-393.106	-200.000	0.010	-0.381
-392.092	-119.400	-0.250	-0.043
-391.077	-95.700	-0.123	0.033
-390.063	-35.741	0.077	0.042
-389.048	689.166	-0.055	-0.143
-388.033	-200.000	0.438	-0.000
-387.019	136.788	0.100	-0.130
-386.004	-11.136	0.275	0.180
-384.990	-2.512	-0.161	0.112
-383.975	117.252	0.177	0.216
-382.960	-60.824	-0.114	-0.048
-381.946	800.000	-0.100	-0.275
-380.931	27.282	0.178	0.149
-379.917	569.880	-0.037	-0.088
-378.902	-177.303	0.105	-0.003
-377.888	-200.000	0.050	0.328
-376.873	110.349	-0.104	-0.124
-375.858	6.522	0.095	-0.070
-374.844	98.532	0.020	0.023
-373.829	256.678	-0.117	-0.200
-372.815	-79.836	-0.163	0.055
-371.800	-59.799	-0.256	-0.109
-370.785	800.000	0.054	-0.159
-369.771	36.360	-0.162	-0.142
-368.756	676.686	-0.109	-0.281
-367.742	100.276	-0.137	0.158
-366.727	138.634	-0.130	-0.170
-365.712	80.228	0.104	0.111
-364.698	800.000	0.048	0.140
-363.683	-136.203	-0.320	-0.037
-362.669	38.408	-0.307	-0.272
-361.654	-30.745	-0.221	-0.124
-360.639	-85.693	-0.149	-0.046
-359.625	-116.844	-0.052	0.010
-358.610	-120.853	0.120	0.020
-357.596	-45.932	-0.236	0.116
-356.581	10.110	0.029	-0.022
-355.566	445.998	0.156	-0.340
-354.552	-17.714	0.220	-0.137
-353.537	448.539	0.004	0.008
-352.523	15.969	0.140	0.109
-351.508	224.868	-0.220	0.353
-350.493	-143.677	0.136	-0.013
-349.479	-88.341	-0.400	0.119
-348.464	-200.000	0.075	0.370
-347.450	-124.082	0.276	-0.043
-346.435	-14.871	-0.237	-0.151
-345.420	581.099	0.123	0.299
-344.406	-107.364	0.419	-0.091
-343.391	74.617	0.124	-0.129
-342.377	-200.000	-0.028	0.186
-341.362	800.000	0.092	0.356
-340.348	-200.000	-0.014	-0.115
-339.333	432.533	0.086	0.185
-338.318	54.970	0.146	-0.140
-337.304	800.000	-0.079	-0.277
-336.289	-22.885	-0.094	-0.056
-335.275	-200.000	-0.337	0.000
-334.260	434.471	-0.130	0.279
-333.245	5.214	-0.333	-0.244
-332.231	800.000	-0.047	-0.182
-331.216	-200.000	0.039	-0.297
-330.202	-200.000	0.000	0.422
-329.187	-200.000	0.012	0.114
-328.172	-30.055	-0.126	-0.071
-327.158	125.758	0.133	-0.167
-326.143	-200.000	0.000	-0.165
-325.129	401.666	0.134	0.278
-324.114	-47.361	-0.203	0.098
-323.099	90.507	-0.140	0.156
-322.085	-75.946	-0.128	-0.045
-321.070	72.398	-0.073	0.076
-320.056	-159.736	-0.183	-0.010
-319.041	-3.710	-0.204	-0.140
-318.026	800.000	0.017	0.049
-317.012	6.677	0.232	0.171
-315.997	-181.960	-0.131	0.002
-314.983	-4.861	-0.348	0.238
-313.968	7.145	-0.264	0.196
-312.953	-20.902	0.197	0.120
-311.939	-85.880	0.456	-0.140
-310.924	18.589	0.179	-0.142
-309.910	-154.587	0.492	-0.033
-308.895	352.151	-0.155	0.305
-307.880	-179.561	0.086	0.002
-306.866	-200.000	-0.026	0.272
-305.851	-200.000	-0.024	0.309
-304.837	-200.000	-0.088	-0.411
-303.822	-91.710	-0.346	-0.098
-302.807	383.081	-0.125	-0.254
-301.793	116.054	0.168	-0.204
-300.778	0.822	0.361	-0.256
-299.764	-142.671	-0.281	0.027
-298.749	-161.974	-0.332	0.017
-297.735	-95.778	-0.277	0.073
-296.720	790.829	0.106	0.290
-295.705	-20.976	0.124	0.075
-294.691	69.775	0.029	-0.029
-293.676	4.546	-0.199	0.145
-292.662	-130.450	0.366	-0.049
-291.647	-200.000	0.005	-0.104
-290.632	94.246	-0.091	-0.102
-289.618	-81.699	-0.343	-0.111
-288.603	110.849	0.240	-0.286
-287.589	375.653	-0.095	0.193
-286.574	95.826	0.160	0.181
-285.559	-3.835	0.121	-0.083
-284.545	-77.599	0.239	0.082
-283.530	11.927	0.259	0.197
-282.516	46.785	-0.329	-0.303
-281.501	43.736	0.097	0.088
-280.486	-200.000	-0.000	-0.022
-279.472	460.992	-0.104	-0.229
-278.457	-200.000	-0.028	0.357
-277.443	-27.815	-0.109	-0.062
-276.428	21.391	-0.031	0.025
-275.413	-30.658	-0.082	0.046
-274.399	-98.100	-0.161	-0.041
-273.384	162.066	-0.057	-0.079
-272.370	800.000	0.075	0.264
-271.355	-200.000	-0.040	-0.226
-270.340	-27.887	0.246	-0.141
-269.326	22.414	-0.220	-0.178
-268.311	263.256	-0.122	0.209
-267.297	749.806	-0.084	-0.225
-266.282	-200.000	-0.006	0.161
-265.267	142.156	0.075	-0.098
-264.253	-96.327	-0.123	-0.032
-263.238	119.185	0.073	0.089
-262.224	514.894	-0.092	-0.212
-261.209	-130.302	0.125	0.017
-260.195	800.000	-0.012	0.049
-259.180	373.369	-0.038	0.076
-258.165	32.661	0.071	0.060
-257.151	-81.110	0.276	-0.090
-256.136	-69.841	0.082	-0.031
-255.122	-25.302	0.207	-0.121
-254.107	-84.164	0.222	0.070
-253.092	-200.000	-0.057	0.508
-252.078	-74.509	-0.256	-0.091
-251.063	-200.000	0.023	-0.134
-250.049	8.441	-0.242	-0.180
-249.034	108.091	0.202	0.238
-248.019	193.502	0.203	0.304
-247.005	-200.000	-0.001	0.128
-245.990	-200.000	-0.055	0.256
-244.976	-165.609	0.396	0.017
-243.961	-4.101	0.228	-0.156
-242.946	-95.517	0.449	-0.119
-241.932	-125.450	-0.172	0.026
-240.917	800.000	0.020	0.082
-239.903	-57.645	0.359	0.155
-238.888	-160.531	-0.212	-0.011
-237.873	641.830	0.039	0.097
-236.859	-200.000	0.018	-0.117
-235.844	-96.582	-0.266	-0.069
-234.830	800.000	-0.029	-0.115
-233.815	23.176	0.120	0.098
-232.800	-123.574	0.288	0.045
-231.786	-200.000	0.018	0.188
-230.771	-136.201	-0.119	-0.014
-229.757	609.941	0.122	0.302
-228.742	-200.000	0.000	0.393
-227.727	-200.000	0.025	0.367
-226.713	-178.605	-0.166	-0.004
-225.698	165.818	-0.315	0.440
-224.684	800.000	-0.086	0.285
-223.669	-19.902	-0.276	0.169
-222.655	-78.269	0.374	0.127
-221.640	800.000	-0.081	0.322
-220.625	71.729	-0.144	0.148
-219.611	-200.000	-0.018	0.314
-218.596	364.765	0.167	-0.333
-217.582	202.510	-0.123	0.188
-216.567	151.061	-0.035	-0.047
-215.552	-200.000	-0.057	-0.255
-214.538	2.658	0.184	0.132
-213.523	-200.000	0.001	0.129
-212.509	-200.000	0.008	-0.174
-211.494	104.092	0.141	-0.164
-210.479	-200.000	-0.011	0.311
-209.465	-10.239	0.473	0.310
-208.450	5.177	-0.059	0.043
-207.436	40.532	-0.046	0.041
-206.421	231.688	0.132	-0.214
-205.406	492.021	-0.115	-0.261
-204.392	389.953	0.089	-0.183
-203.377	11.583	-0.161	-0.122
-202.363	122.917	-0.084	-0.103
-201.348	-4.588	-0.096	0.066
-200.333	365.262	0.175	0.348
-199.319	361.061	-0.045	0.090
-198.304	131.060	0.112	0.142
-197.290	50.919	-0.157	0.147
-196.275	609.024	-0.108	-0.266
-195.260	-200.000	0.007	-0.105
-194.246	201.830	0.059	-0.089
-193.231	-200.000	-0.010	-0.105
-192.217	800.000	0.069	0.190
-191.202	-145.990	0.304	-0.027
-190.187	-126.065	-0.187	0.028
-189.173	-148.421	-0.181	-0.015
-188.158	-146.099	0.256	-0.022
-187.144	-61.661	-0.274	0.113
-186.129	-1.494	0.254	0.177
-185.114	39.310	-0.162	-0.143
-184.100	-39.193	-0.168	0.087
-183.085	7.910	0.217	-0.160
-182.071	177.089	0.151	-0.217
-181.056	-66.367	0.031	-0.012
-180.042	-184.888	0.205	0.003
-179.027	-44.150	-0.123	0.061
-178.012	464.392	-0.146	-0.323
-176.998	485.131	-0.066	0.148
-175.983	-165.448	-0.177	0.008
-174.969	174.164	-0.148	0.211
-173.954	713.260	-0.035	0.091
-172.939	3.184	0.202	-0.145
-171.925	800.000	0.022	0.066
-170.910	-24.171	0.284	0.167
-169.896	111.485	-0.068	0.080
-168.881	525.397	0.079	-0.184
-167.866	-200.000	-0.058	-0.259
-166.852	67.558	-0.136	-0.137
-165.837	190.435	-0.151	-0.224
-164.823	794.381	0.051	0.138
-163.808	-200.000	-0.069	0.311
-162.793	-78.239	-0.083	0.028
-161.779	800.000	0.015	0.046
-160.764	157.938	0.191	-0.261
-159.750	132.141	-0.190	0.241
-158.735	132.856	0.116	0.147
-157.720	51.176	0.200	0.187
-156.706	350.916	-0.118	0.230
-155.691	-146.014	0.307	0.027
-154.677	800.000	-0.045	-0.159
-153.662	-52.144	0.226	0.103
-152.647	800.000	-0.107	-0.435
-151.633	42.052	-0.252	-0.225
-150.618	141.617	0.099	-0.129
-149.604	-200.000	-0.026	0.119
-148.589	-14.419	-0.192	-0.122
-147.574	800.000	-0.051	-0.185
-146.560	371.114	0.019	0.039
-145.545	351.780	-0.106	0.208
-144.531	-200.000	-0.014	-0.131
-143.516	-200.000	-0.080	0.513
-142.502	-200.000	0.015	0.189
-141.487	-9.980	-0.154	-0.101
-140.472	-62.907	-0.085	-0.035
-139.458	-112.613	-0.143	0.028
-138.443	800.000	-0.040	0.133
-137.429	564.007	-0.170	0.405
-136.414	62.865	-0.077	-0.076
-135.399	-200.000	0.062	-0.360
-134.385	-184.869	0.340	-0.005
-133.370	798.573	-0.085	0.230
-132.356	-188.272	-0.311	0.004
-131.341	117.139	-0.150	-0.181
-130.326	-53.065	0.005	0.002
-129.312	-200.000	0.023	0.218
-128.297	-200.000	-0.018	-0.120
-127.283	15.322	-0.038	-0.030
-126.268	109.900	0.246	0.291
-125.253	-26.834	0.153	0.088
-124.239	138.920	-0.153	-0.198
-123.224	-42.775	0.049	0.025
-122.210	800.000	-0.049	-0.182
-121.195	99.506	-0.112	-0.128
-120.180	310.089	0.149	0.274
