DTS Sentinel unit serial number:	SN413079Multiplexer serial number:	ORYXHardware model number:	OX4-SRSoftware version number:	ORYX F/W v4.00 Oryx Data Collector v3.7.2.0data status	okinstallation	princeton_trtdifferential loss correction	single-endedforward channel	channel 2reverse channel	N/Adate	2019/09/11time	06:17:11forward acquisition time	60.00reverse acquisition time	0.00gamma	496.2192k internal	0.2329k external	0.2329temperature offset calibration	0.9938default loss term (dB/km)	0.3790temperature slope calibration	1.0000multiplexer offset coefficient	1.0000multiplexer slope coefficient	1.0000fibre end	0.00T internal ref (°C)	29.50T ext. ref 1 (°C)	-0.19T ext. ref 2 (°C)	23.92length (m)	temperature (°C)	Stokes	anti-Stokes-747.200	218.381	-0.023	0.037
-746.185	54.793	-0.065	-0.063
-745.171	47.712	0.229	0.215
-744.156	-116.080	0.132	-0.025
-743.142	-200.000	0.016	-0.076
-742.127	-200.000	-0.024	-0.219
-741.112	131.581	0.125	0.162
-740.098	191.406	-0.374	0.567
-739.083	-43.245	-0.062	-0.032
-738.069	379.857	-0.059	0.122
-737.054	-140.091	-0.223	0.024
-736.039	63.872	-0.212	0.214
-735.025	408.019	-0.174	-0.372
-734.010	-159.273	-0.326	0.018
-732.996	800.000	0.100	-0.387
-731.981	-200.000	0.035	-0.196
-730.966	-52.688	-0.268	-0.125
-729.952	-111.562	-0.259	-0.053
-728.937	54.182	-0.089	-0.086
-727.923	-200.000	0.026	0.124
-726.908	-200.000	0.001	-0.005
-725.894	800.000	-0.081	0.293
-724.879	800.000	-0.086	0.252
-723.864	-200.000	-0.041	0.194
-722.850	143.661	0.093	0.125
-721.835	-38.736	-0.366	-0.195
-720.821	-200.000	-0.057	-0.265
-719.806	-200.000	0.100	0.000
-718.791	-200.000	-0.040	-0.182
-717.777	-55.208	0.292	0.132
-716.762	630.113	-0.144	-0.366
-715.748	170.246	-0.166	-0.239
-714.733	800.000	0.057	-0.170
-713.718	-200.000	-0.037	0.257
-712.704	-200.000	0.032	0.440
-711.689	398.956	-0.138	-0.292
-710.675	-86.166	0.132	-0.041
-709.660	-7.601	-0.236	-0.160
-708.645	-112.294	0.240	-0.048
-707.631	-82.663	-0.058	-0.019
-706.616	-29.516	0.146	-0.084
-705.602	-75.537	-0.291	0.104
-704.587	-200.000	-0.015	0.094
-703.572	-8.954	-0.227	0.153
-702.558	141.744	0.071	-0.095
-701.543	-59.450	-0.280	-0.121
-700.529	3.466	-0.094	0.069
-699.514	-157.941	-0.371	0.022
-698.499	353.174	0.123	-0.246
-697.485	-200.000	0.001	-0.086
-696.470	-139.444	-0.133	-0.014
-695.456	170.928	-0.142	-0.204
-694.441	-52.235	0.375	0.175
-693.426	-106.001	-0.151	0.034
-692.412	189.057	-0.117	-0.177
-691.397	800.000	0.033	0.097
-690.383	-85.106	-0.375	0.118
-689.368	-175.240	0.137	-0.004
-688.354	-85.739	0.235	0.073
-687.339	169.478	0.206	-0.296
-686.324	-95.276	-0.169	0.046
-685.310	477.846	-0.179	-0.408
-684.295	75.280	0.221	-0.234
-683.281	505.343	-0.114	-0.265
-682.266	800.000	0.030	0.100
-681.251	73.018	-0.058	0.061
-680.237	-161.535	0.193	0.010
-679.222	639.158	0.034	0.088
-678.208	-69.957	-0.142	0.054
-677.193	-55.200	-0.162	-0.073
-676.178	123.153	0.071	-0.089
-675.164	-200.000	0.053	-0.244
-674.149	-39.172	-0.173	-0.091
-673.135	-200.000	0.012	-0.180
-672.120	-200.000	-0.036	0.217
-671.105	101.445	-0.187	-0.219
-670.091	-200.000	-0.008	0.199
-669.076	167.204	-0.129	0.183
-668.062	800.000	-0.046	-0.191
-667.047	275.482	0.057	-0.102
-666.032	-32.729	0.195	-0.109
-665.018	385.034	-0.048	0.099
-664.003	157.102	0.098	-0.136
-662.989	-59.925	-0.140	-0.060
-661.974	-148.551	0.155	-0.013
-660.959	-73.551	-0.113	-0.041
-659.945	-77.772	0.237	0.082
-658.930	12.893	-0.282	0.219
-657.916	-120.913	0.313	0.053
-656.901	133.361	-0.175	0.227
-655.886	800.000	0.059	0.195
-654.872	-200.000	-0.035	0.157
-653.857	36.535	-0.246	-0.218
-652.843	-200.000	-0.018	0.333
-651.828	-200.000	-0.019	0.334
-650.814	-8.132	0.205	-0.138
-649.799	-140.733	-0.266	0.028
-648.784	266.531	0.045	0.079
-647.770	99.325	0.138	-0.160
-646.755	41.086	0.084	0.076
-645.741	-117.536	0.508	0.092
-644.726	800.000	0.009	-0.030
-643.711	800.000	0.040	-0.124
-642.697	-89.838	0.127	0.037
-641.682	-200.000	0.008	-0.164
-640.668	50.253	0.027	-0.026
-639.653	-200.000	-0.032	-0.224
-638.638	-140.451	-0.204	-0.021
-637.624	-3.724	0.052	-0.036
-636.609	346.369	0.142	-0.280
-635.595	-133.727	0.275	-0.034
-634.580	-66.527	-0.165	-0.066
-633.565	-200.000	0.017	-0.132
-632.551	82.171	0.075	-0.082
-631.536	-152.459	0.187	-0.013
-630.522	-110.963	-0.180	-0.037
-629.507	-102.871	-0.186	0.044
-628.492	55.126	-0.290	-0.281
-627.478	-16.732	0.065	-0.041
-626.463	235.590	-0.066	0.109
-625.449	312.022	0.092	0.174
-624.434	42.043	0.229	-0.208
-623.419	32.821	-0.148	0.128
-622.405	57.438	-0.204	0.200
-621.390	663.064	0.068	-0.176
-620.376	-66.136	-0.199	0.080
-619.361	-200.000	-0.050	-0.282
-618.346	-140.632	-0.286	0.030
-617.332	-181.602	-0.083	-0.002
-616.317	-200.000	-0.032	0.141
-615.303	-200.000	0.038	-0.212
-614.288	171.678	-0.168	-0.242
-613.273	-53.351	0.395	-0.182
-612.259	-200.000	-0.042	-0.202
-611.244	394.384	-0.089	-0.185
-610.230	38.574	0.283	0.253
-609.215	12.375	-0.161	-0.124
-608.201	-129.979	0.129	-0.018
-607.186	-44.876	-0.234	-0.117
-606.171	-57.559	-0.159	0.070
-605.157	800.000	0.084	-0.262
-604.142	-0.643	-0.290	-0.206
-603.128	-68.339	-0.035	0.014
-602.113	-84.607	0.105	-0.033
-601.098	-112.533	-0.211	0.042
-600.084	-198.199	0.313	0.002
-599.069	352.304	0.098	0.195
-598.055	-99.827	0.329	-0.082
-597.040	-73.689	-0.185	-0.067
-596.025	80.219	0.098	0.105
-595.011	-18.985	-0.088	-0.055
-593.996	-148.221	0.164	0.014
-592.982	800.000	-0.132	-0.427
-591.967	234.291	-0.037	0.061
-590.952	-62.760	-0.146	0.061
-589.938	-200.000	0.024	-0.268
-588.923	87.541	0.090	0.100
-587.909	-156.948	-0.193	-0.012
-586.894	139.323	-0.015	-0.019
-585.879	-0.753	-0.049	-0.035
-584.865	71.673	0.168	0.175
-583.850	539.770	0.088	0.211
-582.836	800.000	-0.105	0.327
-581.821	-144.683	-0.164	-0.015
-580.806	-200.000	-0.081	0.432
-579.792	215.370	-0.017	-0.026
-578.777	800.000	-0.005	0.022
-577.763	189.548	0.097	-0.146
-576.748	-85.229	-0.180	-0.056
-575.733	132.508	-0.182	-0.234
-574.719	185.800	-0.059	-0.087
-573.704	-61.048	-0.099	-0.042
-572.690	170.650	-0.149	0.213
-571.675	-11.859	0.223	-0.146
-570.661	250.803	-0.278	0.474
-569.646	-138.892	-0.359	0.039
-568.631	-29.658	-0.357	-0.204
-567.617	-146.527	-0.384	0.033
-566.602	-200.000	0.010	0.116
-565.588	35.152	0.291	0.255
-564.573	-104.185	-0.093	-0.022
-563.558	-100.678	0.272	0.067
-562.544	-27.845	-0.239	0.139
-561.529	600.923	-0.111	0.277
-560.515	800.000	-0.054	-0.168
-559.500	-200.000	-0.012	0.330
-558.485	359.816	-0.107	-0.214
-557.471	-88.854	0.312	0.093
-556.456	800.000	-0.053	-0.178
-555.442	217.798	-0.066	-0.104
-554.427	-200.000	-0.109	-0.600
-553.412	-53.709	0.091	0.042
-552.398	137.312	0.142	0.186
-551.383	490.581	0.104	-0.239
-550.369	21.929	-0.300	0.244
-549.354	25.387	-0.208	-0.173
-548.339	-61.364	0.180	-0.076
-547.325	-97.838	0.302	0.078
-546.310	-32.630	0.035	-0.019
-545.296	-103.218	-0.235	-0.055
-544.281	0.273	0.283	-0.202
-543.266	796.644	-0.046	-0.126
-542.252	74.695	0.016	-0.017
-541.237	208.226	0.181	-0.283
-540.223	22.528	0.153	0.125
-539.208	126.205	-0.139	-0.175
-538.193	-200.000	0.013	-0.132
-537.179	-47.809	-0.211	0.102
-536.164	188.215	-0.261	0.389
-535.150	-22.600	-0.192	0.116
-534.135	800.000	0.075	0.316
-533.121	157.289	0.046	0.063
-532.106	-38.263	-0.282	0.149
-531.091	-11.563	-0.168	0.110
-530.077	-200.000	0.059	0.279
-529.062	215.322	0.167	0.264
-528.048	40.446	-0.204	0.184
-527.033	-29.213	-0.379	0.217
-526.018	-25.890	-0.241	-0.142
-525.004	-58.058	-0.296	-0.129
-523.989	-57.966	0.158	0.069
-522.975	-150.879	-0.221	-0.017
-521.960	116.205	-0.215	0.263
-520.945	-200.000	-0.001	-0.063
-519.931	54.765	-0.340	-0.328
-518.916	410.535	0.029	0.062
-517.902	800.000	0.040	-0.133
-516.887	275.680	-0.040	0.072
-515.872	-200.000	0.004	0.087
-514.858	-33.346	0.053	-0.029
-513.843	158.320	0.152	-0.210
-512.829	-82.887	-0.125	-0.040
-511.814	-200.000	-0.028	0.189
-510.799	800.000	-0.037	-0.140
-509.785	225.852	0.148	-0.239
-508.770	168.690	-0.119	-0.170
-507.756	-102.507	0.204	-0.049
-506.741	-14.296	-0.171	0.110
-505.726	430.685	-0.070	-0.151
-504.712	333.191	0.137	-0.265
-503.697	-200.000	0.024	0.137
-502.683	132.212	-0.067	0.086
-501.668	-15.705	-0.187	0.119
-500.653	-200.000	0.003	0.112
-499.639	-151.554	-0.253	-0.019
-498.624	800.000	-0.091	0.283
-497.610	-48.307	-0.336	-0.162
-496.595	603.539	-0.056	0.140
-495.581	800.000	-0.016	-0.068
-494.566	-180.658	0.055	-0.001
-493.551	57.161	0.134	0.131
-492.537	-140.054	0.186	-0.020
-491.522	-3.442	-0.351	0.244
-490.508	-200.000	-0.013	0.109
-489.493	800.000	0.036	0.121
-488.478	-197.511	0.104	0.001
-487.464	-200.000	-0.121	-0.000
-486.449	800.000	-0.088	0.338
-485.435	-129.884	0.140	0.019
-484.420	629.678	0.121	0.305
-483.405	-200.000	-0.041	-0.232
-482.391	-161.201	0.307	-0.016
-481.376	-62.836	-0.384	0.158
-480.362	-185.291	-0.129	0.002
-479.347	66.178	0.057	0.058
-478.332	-200.000	-0.006	-0.213
-477.318	-106.637	-0.100	-0.022
-476.303	34.772	0.217	-0.189
-475.289	800.000	-0.131	-0.426
-474.274	46.659	0.334	-0.309
-473.259	37.833	-0.308	0.273
-472.245	144.893	-0.113	-0.151
-471.230	51.727	0.195	0.185
-470.216	307.250	-0.044	-0.081
-469.201	-103.282	-0.325	0.076
-468.186	-132.542	-0.350	-0.045
-467.172	63.333	0.062	0.062
-466.157	-45.623	0.373	0.184
-465.143	401.107	-0.005	0.010
-464.128	800.000	-0.088	-0.336
-463.113	478.142	-0.211	-0.475
-462.099	-83.919	0.055	-0.018
-461.084	800.000	-0.081	-0.322
-460.070	-200.000	-0.010	-0.157
-459.055	-147.703	-0.207	-0.017
-458.040	-55.691	-0.093	0.041
-457.026	-165.989	-0.160	-0.007
-456.011	216.060	-0.082	0.129
-454.997	-8.555	0.154	0.103
-453.982	-125.734	0.039	0.006
-452.968	110.261	0.103	0.124
-451.953	-200.000	0.059	-0.277
-450.938	-44.384	0.150	-0.075
-449.924	-94.928	-0.323	0.087
-448.909	-63.978	-0.239	0.097
-447.895	190.736	-0.136	-0.204
-446.880	284.885	-0.048	-0.085
-445.865	-12.823	0.315	0.204
-444.851	-72.689	-0.236	0.086
-443.836	-15.451	-0.334	-0.212
-442.822	800.000	0.094	-0.382
-441.807	26.350	-0.263	0.219
-440.792	12.903	-0.101	0.078
-439.778	46.661	0.141	0.130
-438.763	800.000	0.031	-0.132
-437.749	-145.332	-0.169	0.015
-436.734	268.523	0.105	-0.183
-435.719	-50.883	0.135	0.063
-434.705	37.742	0.181	0.160
-433.690	-92.784	-0.500	-0.139
-432.676	-75.154	0.298	-0.106
-431.661	275.438	-0.071	0.125
-430.646	-44.999	0.116	0.058
-429.632	-200.000	0.053	-0.430
-428.617	457.479	-0.088	0.194
-427.603	-129.003	0.178	-0.025
-426.588	59.824	0.086	0.085
-425.573	-28.822	-0.219	-0.125
-424.559	-200.000	-0.029	0.230
-423.544	-0.519	-0.068	0.048
-422.530	-200.000	0.022	-0.499
-421.515	-130.927	0.218	-0.029
-420.500	-188.393	0.212	-0.003
-419.486	181.615	0.086	-0.126
-418.471	97.054	0.352	0.401
-417.457	112.834	-0.093	0.112
-416.442	-56.617	-0.139	0.061
-415.428	-14.026	-0.138	0.089
-414.413	259.637	-0.066	0.113
-413.398	12.482	0.208	0.159
-412.384	-105.505	0.199	-0.045
-411.369	-190.993	0.467	-0.005
-410.355	-148.310	-0.205	-0.017
-409.340	-100.369	-0.121	-0.030
-408.325	66.533	-0.197	0.199
-407.311	-6.260	-0.186	-0.126
-406.296	-44.583	0.100	0.050
-405.282	-187.979	0.181	-0.002
-404.267	-200.000	0.014	0.298
-403.252	27.283	0.225	0.188
-402.238	-2.428	-0.143	-0.099
-401.223	331.298	0.106	-0.203
-400.209	-33.864	0.174	0.096
-399.194	-200.000	-0.011	-0.086
-398.179	-200.000	0.016	0.076
-397.165	-41.780	0.232	-0.118
-396.150	24.399	-0.134	-0.110
-395.136	800.000	0.023	-0.092
-394.121	-200.000	0.032	-0.151
-393.106	86.169	-0.189	0.207
-392.092	800.000	0.092	0.289
-391.077	38.428	0.103	0.092
-390.063	-154.485	-0.060	0.004
-389.048	285.018	0.051	-0.092
-388.033	-147.164	0.187	0.016
-387.019	-95.590	0.162	-0.043
-386.004	89.314	0.100	-0.111
-384.990	-61.844	0.242	-0.101
-383.975	-127.438	0.236	-0.034
-382.960	-40.848	0.235	0.121
-381.946	-64.487	-0.169	0.068
-380.931	-94.838	-0.017	-0.005
-379.917	-200.000	0.037	0.217
-378.902	-24.773	0.206	-0.122
-377.888	-200.000	-0.001	-0.198
-376.873	-33.151	-0.382	-0.210
-375.858	800.000	-0.072	0.273
-374.844	-120.624	-0.285	-0.048
-373.829	2.493	0.276	0.199
-372.815	524.642	-0.043	0.101
-371.800	181.302	-0.092	0.134
-370.785	-113.563	-0.142	0.028
-369.771	800.000	0.031	-0.089
-368.756	218.879	-0.365	0.580
-367.742	-200.000	0.001	-0.011
-366.727	-94.225	0.278	-0.076
-365.712	-200.000	0.071	-0.414
-364.698	800.000	0.050	0.171
-363.683	326.264	-0.045	-0.086
-362.669	-200.000	-0.058	0.533
-361.654	-87.171	0.430	-0.130
-360.639	-49.611	0.214	-0.101
-359.625	175.563	0.103	0.149
-358.610	-200.000	0.015	0.128
-357.596	-31.302	0.175	0.098
-356.581	397.261	-0.034	-0.070
-355.566	23.156	0.138	0.112
-354.552	-200.000	-0.055	-0.253
-353.537	-18.106	0.055	0.034
-352.523	-200.000	-0.044	0.244
-351.508	800.000	0.086	-0.295
-350.493	554.800	-0.076	-0.182
-349.479	-131.374	0.182	0.024
-348.464	326.300	-0.074	0.141
-347.450	800.000	-0.068	0.207
-346.435	-156.590	0.144	-0.009
-345.420	-33.475	-0.154	-0.085
-344.406	183.539	-0.117	-0.171
-343.391	87.686	0.257	-0.282
-342.377	-51.441	0.205	-0.095
-341.362	-40.174	-0.188	0.097
-340.348	-1.026	-0.168	-0.118
-339.333	142.643	0.021	-0.028
-338.318	-118.002	0.373	0.066
-337.304	-200.000	-0.022	-0.107
-336.289	-66.285	-0.104	0.041
-335.275	106.636	0.007	0.009
-334.260	105.648	-0.068	0.080
-333.245	80.111	-0.064	0.068
-332.231	407.265	0.195	-0.408
-331.216	78.736	-0.169	0.179
-330.202	377.251	0.037	-0.075
-329.187	800.000	0.125	0.365
-328.172	-200.000	0.032	-0.156
-327.158	-17.873	0.122	-0.076
-326.143	-200.000	-0.032	-0.144
-325.129	322.386	0.033	0.061
-324.114	259.408	0.097	0.165
-323.099	-121.290	0.259	-0.043
-322.085	-200.000	-0.032	0.278
-321.070	89.015	0.169	-0.186
-320.056	-200.000	-0.015	-0.523
-319.041	69.401	0.176	-0.179
-318.026	479.320	0.050	-0.113
-317.012	-11.230	0.083	-0.054
-315.997	602.944	0.054	-0.133
-314.983	-200.000	-0.052	0.000
-313.968	-14.757	0.063	0.040
-312.953	800.000	0.044	0.161
-311.939	-124.686	-0.292	-0.045
-310.924	117.922	-0.235	-0.286
-309.910	-127.203	0.174	0.025
-308.895	-74.807	0.145	-0.052
-307.880	-70.346	-0.399	-0.150
-306.866	-111.534	0.197	0.040
-305.851	-6.374	0.015	0.010
-304.837	153.589	-0.073	0.098
-303.822	60.068	0.172	0.169
-302.807	-200.000	0.013	0.093
-301.793	2.231	0.252	0.181
-300.778	800.000	-0.064	0.260
-299.764	-200.000	-0.053	-0.254
-298.749	-80.149	-0.233	-0.077
-297.735	357.438	0.035	0.069
-296.720	230.800	-0.023	-0.037
-295.705	800.000	0.096	0.319
-294.691	-96.800	0.359	0.093
-293.676	-200.000	0.026	0.298
-292.662	-49.019	0.135	-0.064
-291.647	-81.391	-0.252	-0.082
-290.632	234.620	0.104	0.170
-289.618	157.947	-0.218	0.299
-288.603	-99.704	0.231	-0.057
-287.589	64.987	-0.056	-0.056
-286.574	-13.974	0.303	-0.194
-285.559	410.285	-0.034	0.072
-284.545	800.000	-0.092	0.345
-283.530	-123.778	0.391	0.061
-282.516	-71.098	0.128	0.048
-281.501	8.456	-0.124	0.092
-280.486	22.528	-0.169	-0.136
-279.472	-65.160	-0.169	-0.067
-278.457	469.128	0.039	0.087
-277.443	-200.000	0.022	0.127
-276.428	525.536	-0.088	-0.206
-275.413	-92.059	0.193	0.054
-274.399	-200.000	0.015	0.340
-273.384	131.858	0.139	0.177
-272.370	-200.000	-0.033	0.257
-271.355	201.523	-0.178	0.271
-270.340	775.501	-0.205	0.553
-269.326	-154.374	0.533	-0.035
-268.311	-200.000	-0.011	-0.334
-267.297	-200.000	-0.004	-0.433
-266.282	181.997	0.194	-0.283
-265.267	702.618	-0.112	-0.292
-264.253	-147.351	-0.428	0.036
-263.238	-25.140	0.196	0.115
-262.224	800.000	-0.071	0.238
-261.209	-92.932	0.282	-0.078
-260.195	280.711	0.144	-0.254
-259.180	-200.000	0.023	0.127
-258.165	72.500	-0.070	0.072
-257.151	-72.053	-0.318	-0.117
-256.136	-19.967	0.145	-0.089
-255.122	-52.637	0.049	-0.022
-254.107	634.384	-0.048	0.120
-253.092	800.000	-0.015	0.043
-252.078	-47.956	-0.218	0.104
-251.063	-200.000	-0.038	-0.185
-250.049	4.036	-0.331	-0.239
-249.034	-199.189	0.243	-0.001
-248.019	14.997	0.225	-0.174
-247.005	-200.000	-0.013	-0.126
-245.990	60.427	-0.248	-0.242
-244.976	184.746	-0.147	-0.216
-243.961	-200.000	-0.023	-0.125
-242.946	-103.409	0.211	0.049
-241.932	-63.497	0.064	0.026
-240.917	209.808	0.031	-0.049
-239.903	247.139	-0.037	-0.061
-238.888	647.219	0.066	-0.167
-237.873	-190.620	-0.251	-0.003
-236.859	89.160	0.130	-0.143
-235.844	-10.994	-0.166	-0.108
-234.830	-200.000	-0.046	0.374
-233.815	800.000	0.109	0.419
-232.800	-103.313	-0.177	0.041
-231.786	800.000	0.082	-0.274
-230.771	45.318	-0.210	0.192
-229.757	-140.172	0.214	-0.022
-228.742	775.123	-0.064	-0.171
-227.727	49.147	0.136	-0.127
-226.713	64.865	-0.065	0.065
-225.698	-12.632	-0.151	-0.097
-224.684	-59.121	0.373	0.159
-223.669	-78.319	0.463	0.157
-222.655	-126.345	0.146	0.022
-221.640	25.628	-0.092	0.075
-220.625	-13.270	-0.106	0.068
-219.611	157.836	0.151	-0.206
-218.596	800.000	-0.078	0.271
-217.582	649.992	-0.179	0.452
-216.567	123.816	-0.249	0.308
-215.552	359.716	-0.052	0.103
-214.538	-93.642	0.302	0.082
-213.523	272.774	0.129	-0.224
-212.509	800.000	0.108	-0.306
-211.494	800.000	0.113	0.372
-210.479	-200.000	-0.013	0.337
-209.465	-52.049	-0.120	-0.055
-208.450	-96.698	-0.352	-0.091
-207.436	112.866	0.018	0.022
-206.421	11.352	-0.160	0.121
-205.406	800.000	0.084	-0.335
-204.392	163.195	0.150	0.208
-203.377	63.160	-0.095	0.094
-202.363	800.000	-0.022	0.064
-201.348	201.943	0.103	-0.156
-200.333	-200.000	-0.010	-0.091
-199.319	-200.000	0.017	-0.193
-198.304	665.828	-0.107	-0.272
-197.290	-171.779	0.427	0.014
-196.275	12.038	0.226	-0.172
-195.260	-200.000	-0.028	-0.125
-194.246	315.296	-0.060	0.112
-193.231	73.977	-0.131	-0.135
-192.217	-88.918	-0.344	-0.100
-191.202	5.054	-0.065	-0.047
-190.187	-200.000	0.039	-0.448
-189.173	87.227	0.250	0.272
-188.158	78.591	0.188	0.198
-187.144	800.000	-0.058	0.181
-186.129	14.549	0.377	-0.290
-185.114	800.000	-0.040	0.160
-184.100	469.303	0.024	0.054
-183.085	81.501	0.179	-0.191
-182.071	24.753	-0.180	0.147
-181.056	696.107	0.063	-0.163
-180.042	-200.000	0.001	0.049
-179.027	285.216	-0.012	0.021
-178.012	-75.252	-0.046	0.016
-176.998	-155.217	0.192	0.012
-175.983	254.759	0.041	0.069
-174.969	-86.089	-0.135	-0.041
-173.954	-169.733	0.226	0.008
-172.939	12.333	-0.125	0.095
-171.925	8.798	0.156	-0.116
-170.910	-167.646	0.265	-0.010
-169.896	-8.015	0.146	-0.097
-168.881	66.749	0.225	0.226
-167.866	-84.395	0.113	0.035
-166.852	81.388	-0.166	0.177
-165.837	67.555	-0.090	0.090
-164.823	-91.473	0.393	0.110
-163.808	800.000	-0.132	0.367
-162.793	800.000	-0.091	-0.256
-161.779	525.683	0.080	-0.185
-160.764	741.136	0.068	-0.181
-159.750	-105.258	-0.074	0.017
-158.735	-141.886	-0.176	-0.017
-157.720	-119.145	0.236	0.041
-156.706	-19.973	0.217	0.132
-155.691	-200.000	-0.017	0.306
-154.677	-200.000	-0.030	0.239
-153.662	377.457	-0.109	0.218
-152.647	128.408	-0.195	-0.244
-151.633	-116.008	-0.181	0.033
-150.618	344.516	0.179	-0.346
-149.604	165.542	-0.196	-0.273
-148.589	-200.000	0.053	-0.454
-147.574	121.370	0.076	-0.093
-146.560	-200.000	0.013	-0.284
-145.545	-200.000	-0.013	-0.139
-144.531	-131.209	0.180	-0.024
-143.516	139.714	-0.088	0.115
-142.502	354.763	-0.137	-0.267
-141.487	-200.000	-0.036	-0.227
-140.472	-10.846	0.136	0.089
-139.458	-64.827	-0.098	0.039
-138.443	-200.000	0.001	0.044
-137.429	-10.430	-0.168	-0.110
-136.414	-16.330	0.194	0.121
-135.399	-145.065	-0.468	-0.042
-134.385	-131.611	0.282	-0.036
-133.370	-7.138	0.055	0.037
-132.356	127.004	-0.044	-0.055
-131.341	195.359	-0.096	-0.143
-130.326	113.976	-0.174	0.208
-129.312	-148.868	0.103	0.008
-128.297	-96.037	-0.285	-0.074
-127.283	-200.000	0.019	0.138
-126.268	-200.000	-0.016	0.089
-125.253	1.555	-0.153	-0.109
-124.239	21.613	0.250	0.200
-123.224	595.477	0.052	0.127
-122.210	800.000	0.087	-0.295
