DTS Sentinel unit serial number:	SN413079Multiplexer serial number:	ORYXHardware model number:	OX4-SRSoftware version number:	ORYX F/W v4.00 Oryx Data Collector v3.7.2.0data status	okinstallation	princeton_trtdifferential loss correction	single-endedforward channel	channel 2reverse channel	N/Adate	2019/09/11time	10:17:11forward acquisition time	60.00reverse acquisition time	0.00gamma	496.2192k internal	0.2312k external	0.2312temperature offset calibration	0.9967default loss term (dB/km)	0.3790temperature slope calibration	1.0000multiplexer offset coefficient	1.0000multiplexer slope coefficient	1.0000fibre end	0.00T internal ref (°C)	35.98T ext. ref 1 (°C)	0.16T ext. ref 2 (°C)	33.83length (m)	temperature (°C)	Stokes	anti-Stokes-747.200	-23.856	-0.241	-0.146
-746.185	-200.000	-0.086	0.427
-745.171	92.768	0.123	0.141
-744.156	-44.712	0.362	0.183
-743.142	-25.008	-0.118	0.071
-742.127	285.086	0.128	0.235
-741.112	-200.000	0.045	-0.234
-740.098	25.980	-0.139	0.117
-739.083	-91.028	0.533	0.155
-738.069	-56.331	-0.170	0.077
-737.054	78.184	-0.025	-0.027
-736.039	-64.055	0.100	-0.042
-735.025	39.710	0.145	0.132
-734.010	177.193	-0.170	0.251
-732.996	26.086	0.077	0.065
-731.981	-31.496	0.129	-0.073
-730.966	-107.447	-0.300	0.067
-729.952	76.891	0.175	-0.189
-728.937	-47.750	-0.272	-0.134
-727.923	-4.706	-0.148	-0.104
-726.908	800.000	-0.027	-0.103
-725.894	0.764	-0.120	0.087
-724.879	-66.879	-0.299	-0.120
-723.864	128.410	0.165	-0.213
-722.850	-200.000	-0.023	-0.239
-721.835	123.957	-0.100	-0.127
-720.821	-71.995	0.318	0.120
-719.806	-200.000	-0.015	-0.183
-718.791	-200.000	0.000	-0.156
-717.777	-138.914	-0.206	0.023
-716.762	-43.888	0.123	0.063
-715.748	-200.000	-0.009	0.265
-714.733	532.350	0.061	0.146
-713.718	219.934	0.225	0.365
-712.704	-200.000	0.044	0.211
-711.689	-127.962	0.031	-0.004
-710.675	-127.680	0.167	-0.025
-709.660	670.205	0.205	0.539
-708.645	-50.322	0.135	0.065
-707.631	375.353	0.071	-0.146
-706.616	800.000	0.103	0.320
-705.602	-200.000	-0.025	-0.269
-704.587	800.000	0.024	0.108
-703.572	55.885	-0.246	0.242
-702.558	379.499	0.091	0.189
-701.543	-118.011	0.206	0.037
-700.529	94.507	0.092	0.106
-699.514	-21.035	0.350	-0.217
-698.499	-16.702	-0.050	0.032
-697.485	18.715	-0.088	0.071
-696.470	204.808	0.026	-0.041
-695.456	-49.776	-0.179	-0.086
-694.441	-78.457	-0.143	0.049
-693.426	181.582	-0.040	-0.060
-692.412	-8.888	-0.317	0.215
-691.397	110.840	0.296	-0.361
-690.383	182.393	0.222	-0.332
-689.368	-153.986	0.261	-0.018
-688.354	119.059	0.095	0.119
-687.339	55.032	0.233	-0.228
-686.324	611.036	0.057	0.145
-685.310	9.548	-0.204	-0.157
-684.295	512.487	-0.144	-0.339
-683.281	-200.000	-0.006	-0.217
-682.266	-101.261	0.349	0.086
-681.251	-53.722	0.100	-0.046
-680.237	1.271	0.240	0.174
-679.222	-1.496	-0.240	-0.171
-678.208	-166.435	0.127	-0.005
-677.193	-13.529	-0.187	0.123
-676.178	800.000	0.064	-0.207
-675.164	-5.030	0.288	0.201
-674.149	-104.674	-0.222	-0.052
-673.135	434.269	0.099	-0.219
-672.120	81.310	-0.060	-0.066
-671.105	-15.322	-0.085	-0.055
-670.091	-200.000	-0.030	0.278
-669.076	28.803	-0.132	0.113
-668.062	2.643	-0.106	-0.078
-667.047	72.161	-0.135	-0.142
-666.032	-200.000	-0.019	0.145
-665.018	97.251	-0.090	0.105
-664.003	-72.419	-0.314	-0.118
-662.989	635.194	0.067	0.172
-661.974	123.073	-0.088	0.112
-660.959	175.733	0.036	-0.053
-659.945	661.537	-0.050	0.129
-658.930	525.898	-0.136	0.324
-657.916	160.856	-0.165	0.233
-656.901	433.500	-0.037	-0.082
-655.886	709.281	0.098	0.263
-654.872	-193.613	0.305	0.003
-653.857	-21.285	0.050	0.031
-652.843	-112.154	0.172	-0.035
-651.828	-86.069	0.433	-0.135
-650.814	-73.385	-0.280	0.103
-649.799	373.175	-0.105	0.217
-648.784	800.000	0.048	-0.200
-647.770	800.000	-0.030	0.086
-646.755	-97.137	-0.185	-0.049
-645.741	118.128	-0.190	-0.237
-644.726	-84.887	-0.184	0.058
-643.711	-200.000	0.051	-0.301
-642.697	-200.000	0.006	0.301
-641.682	800.000	-0.068	-0.231
-640.668	-200.000	0.003	-0.022
-639.653	36.022	0.061	-0.054
-638.638	-196.484	0.191	0.001
-637.624	158.148	0.119	0.166
-636.609	319.361	0.087	0.167
-635.595	-36.209	0.143	0.078
-634.580	164.871	-0.244	0.348
-633.565	119.427	-0.071	-0.089
-632.551	-79.511	-0.382	-0.130
-631.536	-84.531	-0.475	-0.151
-630.522	800.000	-0.084	-0.365
-629.507	175.007	0.179	0.262
-628.492	129.236	-0.243	0.313
-627.478	133.428	-0.264	0.345
-626.463	800.000	-0.064	-0.259
-625.449	-91.257	-0.339	-0.098
-624.434	199.224	-0.219	-0.338
-623.419	16.020	0.038	0.030
-622.405	-107.806	0.309	-0.068
-621.390	-144.072	0.273	-0.026
-620.376	134.548	-0.138	-0.181
-619.361	544.611	0.085	-0.206
-618.346	-49.632	0.175	0.084
-617.332	-110.017	-0.149	-0.032
-616.317	79.293	0.227	0.246
-615.303	68.655	0.180	-0.187
-614.288	41.887	0.137	0.125
-613.273	-200.000	-0.026	-0.172
-612.259	800.000	-0.040	0.165
-611.244	-189.967	0.151	0.002
-610.230	-200.000	0.031	0.184
-609.215	122.093	0.069	0.087
-608.201	800.000	0.023	-0.087
-607.186	253.323	-0.173	-0.298
-606.171	-23.908	-0.164	0.099
-605.157	-200.000	-0.001	-0.282
-604.142	360.084	-0.042	0.085
-603.128	144.243	0.198	0.267
-602.113	99.317	-0.171	0.199
-601.098	44.009	-0.136	-0.126
-600.084	-62.051	-0.386	0.163
-599.069	61.015	0.189	0.190
-598.055	268.396	-0.126	-0.222
-597.040	69.472	0.163	-0.170
-596.025	61.933	0.048	-0.048
-595.011	60.475	-0.266	0.265
-593.996	-161.723	0.263	-0.014
-592.982	400.010	0.124	-0.262
-591.967	-200.000	-0.020	-0.137
-590.952	800.000	-0.055	-0.183
-589.938	455.970	-0.061	0.138
-588.923	-50.436	-0.223	-0.106
-587.909	800.000	-0.014	-0.045
-586.894	-200.000	0.007	-0.196
-585.879	680.954	-0.075	-0.197
-584.865	320.630	-0.039	0.075
-583.850	-90.345	-0.058	-0.017
-582.836	-200.000	-0.003	0.172
-581.821	130.261	0.249	-0.322
-580.806	44.467	-0.129	-0.119
-579.792	-200.000	0.008	-0.333
-578.777	800.000	-0.095	0.340
-577.763	78.460	0.235	0.253
-576.748	58.060	0.097	-0.096
-575.733	-47.852	0.158	-0.077
-574.719	355.449	0.129	-0.258
-573.704	104.080	-0.084	0.100
-572.690	-98.278	-0.159	-0.041
-571.675	176.776	-0.083	0.122
-570.661	-200.000	-0.009	0.069
-569.646	354.811	0.124	-0.248
-568.631	-113.781	-0.399	-0.078
-567.617	294.850	0.161	0.297
-566.602	96.262	0.222	0.255
-565.588	-200.000	0.048	0.373
-564.573	-200.000	0.013	0.178
-563.558	82.392	0.089	0.098
-562.544	711.564	-0.035	0.092
-561.529	-200.000	-0.018	-0.080
-560.515	58.143	0.105	0.104
-559.500	71.933	0.113	-0.119
-558.485	-125.614	-0.214	0.033
-557.471	-88.979	-0.186	-0.056
-556.456	-87.460	-0.208	-0.063
-555.442	-116.265	-0.088	-0.016
-554.427	1.758	-0.149	0.108
-553.412	734.863	0.032	0.085
-552.398	10.145	0.213	0.163
-551.383	-87.228	-0.360	0.110
-550.369	46.018	-0.142	-0.133
-549.354	-160.167	0.147	-0.008
-548.339	-135.484	-0.590	-0.071
-547.325	-82.310	0.315	0.103
-546.310	49.281	-0.274	-0.259
-545.296	-155.096	0.142	-0.009
-544.281	-5.969	-0.253	0.174
-543.266	-200.000	0.055	0.268
-542.252	800.000	-0.048	0.199
-541.237	-200.000	-0.059	-0.281
-540.223	-41.979	-0.092	-0.048
-539.208	-200.000	-0.063	0.304
-538.193	-100.879	0.197	0.049
-537.179	800.000	0.103	0.296
-536.164	132.836	-0.045	0.058
-535.150	800.000	0.109	0.320
-534.135	-55.204	-0.077	-0.035
-533.121	-57.282	0.172	-0.076
-532.106	-10.627	-0.135	-0.090
-531.091	-175.589	-0.311	-0.008
-530.077	669.735	0.035	-0.091
-529.062	106.878	-0.100	-0.120
-528.048	-39.971	-0.059	0.031
-527.033	26.897	-0.193	0.163
-526.018	285.545	-0.167	0.304
-525.004	26.871	-0.048	-0.040
-523.989	340.021	-0.072	0.142
-522.975	-112.879	-0.215	0.043
-521.960	-9.338	-0.143	-0.096
-520.945	-158.363	0.188	-0.011
-519.931	-58.280	-0.027	-0.012
-518.916	-4.457	-0.258	-0.179
-517.902	-149.645	-0.149	-0.012
-516.887	-200.000	0.018	0.137
-515.872	-200.000	0.054	0.297
-514.858	67.436	0.027	-0.027
-513.843	64.714	0.102	0.103
-512.829	-29.000	0.203	0.117
-511.814	314.771	0.181	0.343
-510.799	147.078	0.139	-0.188
-509.785	-200.000	0.044	-0.309
-508.770	285.750	-0.183	-0.333
-507.756	-200.000	-0.038	0.185
-506.741	-84.436	-0.108	0.034
-505.726	-7.387	-0.288	0.196
-504.712	800.000	0.008	-0.024
-503.697	800.000	0.055	0.204
-502.683	-136.421	-0.297	-0.035
-501.668	-200.000	-0.078	-0.372
-500.653	-200.000	0.000	-0.049
-499.639	59.947	0.046	-0.046
-498.624	-200.000	-0.016	0.170
-497.610	751.505	0.130	-0.353
-496.595	30.804	-0.284	0.244
-495.581	-200.000	0.021	-0.123
-494.566	369.958	-0.098	0.200
-493.551	-118.575	0.074	0.013
-492.537	-64.563	0.161	0.066
-491.522	522.506	0.121	-0.285
-490.508	-124.798	-0.275	0.043
-489.493	800.000	0.091	0.298
-488.478	254.512	0.046	-0.079
-487.464	116.823	0.239	0.295
-486.449	483.232	-0.128	-0.293
-485.435	-5.082	-0.112	0.077
-484.420	-200.000	-0.022	0.000
-483.405	9.929	0.224	0.171
-482.391	-129.845	-0.117	0.016
-481.376	-76.888	0.286	0.100
-480.362	-74.761	-0.239	-0.086
-479.347	306.373	0.012	-0.023
-478.332	144.301	-0.083	0.111
-477.318	95.249	0.150	-0.171
-476.303	45.009	-0.325	-0.301
-475.289	727.099	0.078	0.208
-474.274	-121.966	-0.107	-0.018
-473.259	17.158	-0.338	-0.269
-472.245	-200.000	0.005	-0.096
-471.230	130.019	0.036	0.047
-470.216	-75.956	0.147	-0.052
-469.201	-165.452	0.201	0.009
-468.186	-200.000	-0.035	0.521
-467.172	110.311	-0.093	-0.112
-466.157	-200.000	-0.013	-0.078
-465.143	83.530	0.099	-0.108
-464.128	327.218	-0.073	-0.140
-463.113	-118.239	-0.235	0.042
-462.099	73.830	0.050	-0.053
-461.084	-200.000	-0.032	-0.185
-460.070	-124.258	-0.422	-0.066
-459.055	-62.945	-0.157	0.065
-458.040	-200.000	0.027	-0.290
-457.026	613.078	-0.101	0.255
-456.011	-61.428	-0.065	0.027
-454.997	271.597	0.103	-0.182
-453.982	13.658	0.242	-0.189
-452.968	-74.786	0.263	-0.095
-451.953	-200.000	0.045	0.367
-450.938	-141.507	0.269	0.027
-449.924	-56.638	-0.057	-0.026
-448.909	-116.737	0.322	0.059
-447.895	60.963	0.118	0.117
-446.880	124.634	0.075	0.095
-445.865	-46.146	-0.206	0.102
-444.851	136.234	-0.066	-0.087
-443.836	-130.401	0.445	-0.061
-442.822	-200.000	-0.011	-0.111
-441.807	64.606	-0.127	-0.128
-440.792	-137.287	0.222	-0.025
-439.778	-65.275	0.102	0.041
-438.763	800.000	-0.053	0.207
-437.749	-54.677	0.082	0.037
-436.734	-97.120	0.409	-0.107
-435.719	-176.979	0.107	-0.003
-434.705	248.307	0.075	0.126
-433.690	-19.179	0.154	0.096
-432.676	136.196	0.226	-0.295
-431.661	-79.999	-0.343	-0.115
-430.646	-200.000	0.021	-0.151
-429.632	401.162	0.148	-0.312
-428.617	-112.782	-0.278	-0.055
-427.603	-35.783	0.194	0.105
-426.588	-62.707	-0.356	0.148
-425.573	-180.791	0.049	0.001
-424.559	-200.000	-0.001	0.048
-423.544	438.069	-0.098	0.214
-422.530	469.790	0.180	-0.406
-421.515	-111.411	-0.297	-0.061
-420.500	-120.760	-0.197	-0.033
-419.486	-200.000	0.034	0.306
-418.471	-18.779	-0.148	-0.093
-417.457	239.906	-0.226	0.376
-416.442	41.885	0.117	0.106
-415.428	-165.266	0.067	0.003
-414.413	45.360	0.057	0.053
-413.398	378.486	-0.081	-0.165
-412.384	-98.475	-0.251	-0.064
-411.369	800.000	-0.048	-0.136
-410.355	90.334	0.214	0.240
-409.340	-120.195	0.123	0.021
-408.325	-123.556	-0.245	-0.039
-407.311	81.464	-0.123	-0.133
-406.296	-61.822	0.079	0.033
-405.282	84.554	-0.228	-0.250
-404.267	-69.466	0.124	-0.048
-403.252	800.000	-0.099	0.288
-402.238	-200.000	-0.064	0.314
-401.223	-139.521	-0.433	0.046
-400.209	-64.057	0.084	-0.034
-399.194	144.266	0.061	0.082
-398.179	800.000	0.051	0.209
-397.165	-180.500	0.288	-0.006
-396.150	-200.000	-0.018	-0.264
-395.136	205.109	-0.071	0.110
-394.121	201.857	0.186	0.287
-393.106	-30.268	0.202	0.115
-392.092	-130.155	0.081	0.011
-391.077	22.623	-0.212	-0.174
-390.063	800.000	-0.088	0.307
-389.048	-5.053	-0.256	0.176
-388.033	-103.201	0.356	0.084
-387.019	145.770	0.147	-0.197
-386.004	-68.582	-0.099	0.038
-384.990	83.121	0.080	-0.087
-383.975	800.000	-0.046	0.155
-382.960	278.863	0.042	-0.074
-381.946	-113.406	-0.130	0.026
-380.931	226.417	-0.055	0.089
-379.917	-200.000	0.010	0.421
-378.902	203.770	-0.226	-0.351
-377.888	-200.000	0.041	0.240
-376.873	31.480	0.008	0.007
-375.858	210.713	0.135	0.212
-374.844	800.000	0.022	-0.065
-373.829	-72.804	0.260	-0.096
-372.815	-13.055	-0.129	-0.084
-371.800	-90.985	-0.396	-0.114
-370.785	25.509	0.165	-0.138
-369.771	800.000	0.018	0.063
-368.756	-116.721	0.161	0.029
-367.742	-26.764	0.214	0.125
-366.727	40.762	0.312	0.281
-365.712	38.106	0.152	0.135
-364.698	16.540	0.281	-0.222
-363.683	-200.000	0.014	-0.367
-362.669	-49.575	-0.254	0.121
-361.654	66.890	0.246	0.250
-360.639	-60.558	0.148	-0.063
-359.625	-72.406	0.286	0.106
-358.610	111.846	0.119	0.144
-357.596	-200.000	0.004	-0.069
-356.581	331.806	-0.046	0.089
-355.566	105.550	-0.160	0.189
-354.552	28.965	0.044	-0.037
-353.537	305.378	0.201	0.374
-352.523	800.000	-0.079	-0.230
-351.508	52.172	-0.062	0.059
-350.493	-64.869	0.070	0.028
-349.479	-34.734	-0.366	0.200
-348.464	-200.000	-0.055	0.311
-347.450	-134.279	0.121	0.015
-346.435	-159.414	0.178	0.010
-345.420	-69.742	-0.222	-0.085
-344.406	-200.000	0.048	0.276
-343.391	800.000	0.012	-0.049
-342.377	-200.000	-0.030	-0.427
-341.362	-3.304	-0.157	0.109
-340.348	-200.000	-0.025	-0.165
-339.333	223.523	0.171	-0.276
-338.318	591.820	-0.189	-0.465
-337.304	308.957	0.222	-0.415
-336.289	505.540	-0.152	-0.351
-335.275	-200.000	0.026	-0.379
-334.260	-200.000	0.005	0.341
-333.245	-20.256	-0.185	0.114
-332.231	-72.291	-0.269	0.099
-331.216	290.378	0.121	0.219
-330.202	-200.000	-0.000	-0.191
-329.187	511.839	-0.112	-0.262
-328.172	286.392	0.130	0.234
-327.158	799.459	0.091	-0.250
-326.143	800.000	0.028	-0.105
-325.129	25.004	0.348	0.288
-324.114	65.120	0.197	-0.199
-323.099	-105.461	0.191	-0.043
-322.085	800.000	-0.049	0.138
-321.070	71.833	-0.157	0.163
-320.056	42.889	-0.010	-0.010
-319.041	-200.000	0.019	0.144
-318.026	17.939	-0.082	0.065
-317.012	-200.000	-0.034	-0.226
-315.997	-80.008	0.250	-0.084
-314.983	125.425	0.121	-0.152
-313.968	-35.020	0.114	0.062
-312.953	47.322	0.297	0.276
-311.939	32.370	0.104	0.089
-310.924	-169.299	0.414	0.015
-309.910	-46.483	0.056	0.028
-308.895	9.688	0.114	0.087
-307.880	-57.393	0.244	0.107
-306.866	2.592	0.133	-0.096
-305.851	141.010	-0.072	0.095
-304.837	-58.697	0.170	-0.074
-303.822	429.440	-0.051	-0.110
-302.807	556.919	-0.048	-0.115
-301.793	-53.370	0.204	-0.093
-300.778	42.298	-0.307	0.278
-299.764	-53.820	0.186	-0.085
-298.749	-173.807	0.157	-0.005
-297.735	-44.310	0.273	-0.137
-296.720	-200.000	-0.021	0.187
-295.705	46.718	0.039	-0.036
-294.691	31.365	0.208	-0.178
-293.676	-79.993	-0.065	0.022
-292.662	206.594	-0.046	0.072
-291.647	522.326	0.129	-0.303
-290.632	18.973	0.250	-0.200
-289.618	-61.033	-0.328	-0.138
-288.603	-85.072	-0.224	0.070
-287.589	-63.400	-0.365	0.150
-286.574	-200.000	0.018	-0.228
-285.559	-63.687	0.127	0.052
-284.545	137.260	0.014	-0.018
-283.530	41.696	0.211	0.190
-282.516	-73.727	0.317	-0.115
-281.501	-112.748	-0.156	0.031
-280.486	-200.000	0.046	-0.367
-279.472	-200.000	-0.001	0.202
-278.457	147.444	0.130	-0.175
-277.443	800.000	-0.160	-0.516
-276.428	80.178	-0.210	-0.225
-275.413	-77.673	-0.077	-0.027
-274.399	800.000	0.068	0.227
-273.384	-200.000	-0.002	0.294
-272.370	-86.528	0.157	0.048
-271.355	41.265	-0.080	-0.072
-270.340	-45.233	0.197	-0.098
-269.326	-131.831	-0.516	-0.067
-268.311	131.390	0.066	-0.085
-267.297	-63.317	0.484	-0.199
-266.282	-20.919	0.110	0.067
-265.267	800.000	0.037	-0.149
-264.253	68.984	-0.141	0.145
-263.238	112.636	0.126	-0.152
-262.224	30.014	-0.294	-0.250
-261.209	162.415	0.226	0.315
-260.195	-110.745	0.281	0.058
-259.180	-63.536	0.020	0.008
-258.165	-87.610	-0.259	-0.078
-257.151	800.000	-0.030	-0.087
-256.136	800.000	0.101	0.289
-255.122	-67.134	0.213	0.083
-254.107	-121.751	0.118	0.019
-253.092	-150.107	-0.091	-0.007
-252.078	-4.278	-0.192	-0.132
-251.063	-200.000	0.011	0.113
-250.049	294.741	-0.065	0.118
-249.034	293.563	-0.042	0.076
-248.019	800.000	0.079	-0.338
-247.005	-200.000	-0.016	0.113
-245.990	-57.288	0.259	0.113
-244.976	405.177	-0.085	-0.178
-243.961	-92.482	-0.134	-0.037
-242.946	800.000	-0.033	0.126
-241.932	800.000	0.154	-0.451
-240.917	345.465	-0.095	-0.186
-239.903	-104.790	-0.101	0.023
-238.888	-130.041	-0.195	-0.027
-237.873	114.336	-0.091	-0.110
-236.859	-99.704	-0.153	0.038
-235.844	-200.000	0.000	0.255
-234.830	250.643	0.189	-0.320
-233.815	70.171	-0.153	-0.157
-232.800	-200.000	0.026	-0.215
-231.786	-200.000	-0.019	0.133
-230.771	18.663	0.275	-0.219
-229.757	212.214	0.074	0.115
-228.742	6.699	0.155	0.115
-227.727	731.015	0.044	0.116
-226.713	-97.632	0.138	-0.036
-225.698	-111.319	-0.142	0.029
-224.684	-61.032	-0.151	0.063
-223.669	-200.000	0.128	-0.000
-222.655	-200.000	0.005	0.128
-221.640	800.000	0.014	0.049
-220.625	-149.042	0.414	-0.033
-219.611	-19.876	-0.223	-0.137
-218.596	-200.000	0.042	-0.375
-217.582	162.563	-0.111	-0.155
-216.567	11.373	0.213	0.162
-215.552	16.275	0.142	0.112
-214.538	-79.163	0.134	0.045
-213.523	586.522	0.061	-0.150
-212.509	-52.169	-0.122	-0.056
-211.494	-18.768	0.146	-0.090
-210.479	388.133	0.060	0.124
-209.465	-72.044	-0.392	-0.145
-208.450	75.463	-0.256	-0.269
-207.436	15.324	-0.217	-0.169
-206.421	707.293	-0.063	0.165
-205.406	332.509	0.129	0.248
-204.392	170.978	0.126	0.180
-203.377	140.156	-0.101	0.133
-202.363	203.088	0.115	0.176
-201.348	89.301	-0.303	-0.335
-200.333	-105.656	0.185	-0.042
-199.319	5.038	0.219	-0.160
-198.304	-160.635	0.250	-0.013
-197.290	-200.000	-0.011	0.085
-196.275	2.700	0.430	0.310
-195.260	-162.606	-0.305	0.015
-194.246	-59.254	0.123	-0.053
-193.231	631.015	-0.101	-0.254
-192.217	-20.331	0.435	-0.266
-191.202	-75.941	-0.361	0.127
-190.187	800.000	0.063	0.206
-189.173	-122.192	0.338	0.055
-188.158	2.623	0.305	0.219
-187.144	-94.584	-0.165	0.045
-186.129	-78.660	0.142	0.048
-185.114	-94.740	0.158	-0.042
-184.100	-200.000	-0.082	-0.364
-183.085	38.063	-0.184	0.162
-182.071	38.197	0.101	-0.089
-181.056	-89.708	-0.375	-0.109
-180.042	-0.641	-0.296	-0.209
-179.027	23.459	-0.111	0.091
-178.012	-146.168	0.185	0.016
-176.998	59.114	-0.248	0.242
-175.983	-135.574	-0.152	0.018
-174.969	36.859	0.034	0.030
-173.954	771.739	-0.102	-0.275
-172.939	158.746	-0.079	0.109
-171.925	-200.000	-0.024	0.162
-170.910	-145.766	0.222	0.020
-169.896	-89.608	0.329	0.096
-168.881	-49.010	-0.102	0.048
-167.866	198.717	-0.144	0.219
-166.852	57.394	0.149	-0.144
-165.837	332.478	0.039	0.075
-164.823	-200.000	0.030	-0.153
-163.808	-137.342	-0.335	-0.038
-162.793	-167.273	-0.217	0.009
-161.779	-86.330	-0.115	0.035
-160.764	-97.068	0.340	0.088
-159.750	67.233	0.395	-0.400
-158.735	471.328	-0.052	-0.117
-157.720	146.734	-0.418	0.558
-156.706	108.143	-0.100	0.118
-155.691	-200.000	0.009	-0.053
-154.677	160.075	0.021	0.028
-153.662	35.878	-0.104	-0.090
-152.647	693.468	-0.067	-0.174
-151.633	-200.000	-0.026	0.371
-150.618	104.874	-0.246	0.287
-149.604	-150.934	-0.041	0.003
-148.589	105.208	-0.104	0.121
-147.574	358.713	-0.077	-0.152
-146.560	800.000	-0.019	0.077
-145.545	-69.864	-0.154	-0.058
-144.531	-76.918	0.329	0.114
-143.516	-94.505	0.018	0.005
-142.502	-148.982	0.246	0.020
-141.487	-95.730	0.209	-0.055
-140.472	118.891	-0.216	-0.264
-139.458	-200.000	0.004	0.067
-138.443	-200.000	0.019	0.085
-137.429	344.631	-0.100	0.195
-136.414	274.066	0.058	-0.102
-135.399	-200.000	0.037	-0.320
-134.385	-200.000	0.005	0.065
-133.370	-138.372	0.085	0.009
-132.356	25.310	-0.125	-0.103
-131.341	800.000	0.049	-0.170
-130.326	247.948	-0.031	-0.052
-129.312	-139.822	-0.217	0.023
-128.297	131.479	-0.134	-0.171
-127.283	103.004	-0.067	-0.078
-126.268	800.000	0.110	0.426
-125.253	-135.713	0.130	-0.015
-124.239	-70.550	0.439	-0.165
-123.224	-107.872	0.218	-0.047
-122.210	800.000	-0.084	0.357
-121.195	-31.735	-0.240	-0.133
-120.180	26.541	0.248	-0.206
-119.166	-182.360	0.443	0.008
