DTS Sentinel unit serial number:	SN413079Multiplexer serial number:	ORYXHardware model number:	OX4-SRSoftware version number:	ORYX F/W v4.00 Oryx Data Collector v3.7.2.0data status	okinstallation	princeton_trtdifferential loss correction	single-endedforward channel	channel 2reverse channel	N/Adate	2019/09/11time	06:45:11forward acquisition time	60.00reverse acquisition time	0.00gamma	496.2192k internal	0.2327k external	0.2327temperature offset calibration	0.9939default loss term (dB/km)	0.3790temperature slope calibration	1.0000multiplexer offset coefficient	1.0000multiplexer slope coefficient	1.0000fibre end	0.00T internal ref (°C)	29.81T ext. ref 1 (°C)	-0.13T ext. ref 2 (°C)	24.91length (m)	temperature (°C)	Stokes	anti-Stokes-747.200	68.954	-0.260	0.269
-746.185	-200.000	0.014	0.473
-745.171	-52.709	-0.223	0.104
-744.156	176.339	-0.159	0.232
-743.142	-153.104	-0.227	0.016
-742.127	507.875	0.122	0.286
-741.112	-100.616	0.195	-0.049
-740.098	-86.634	0.264	0.082
-739.083	-200.000	0.047	-0.217
-738.069	-200.000	-0.036	0.411
-737.054	39.155	-0.212	-0.191
-736.039	-101.446	-0.177	-0.043
-735.025	338.616	0.155	-0.304
-734.010	-200.000	0.016	-0.131
-732.996	-110.066	0.125	0.026
-731.981	-162.378	0.055	0.003
-730.966	66.815	0.156	-0.160
-729.952	-200.000	-0.039	-0.186
-728.937	48.618	-0.360	-0.340
-727.923	-200.000	0.041	0.279
-726.908	800.000	0.031	-0.132
-725.894	-120.866	0.151	-0.026
-724.879	-90.623	-0.220	0.064
-723.864	-200.000	0.009	-0.168
-722.850	-200.000	0.023	0.330
-721.835	-14.965	0.110	-0.071
-720.821	-200.000	0.029	-0.135
-719.806	-89.063	-0.157	-0.047
-718.791	141.874	-0.229	0.305
-717.777	332.889	-0.077	-0.150
-716.762	118.183	-0.109	-0.136
-715.748	-114.976	-0.260	-0.050
-714.733	193.259	0.192	0.292
-713.718	73.954	0.208	0.219
-712.704	248.165	-0.182	-0.311
-711.689	800.000	0.047	-0.153
-710.675	-112.473	-0.332	-0.067
-709.660	-200.000	0.004	-0.131
-708.645	-200.000	-0.001	-0.088
-707.631	-88.013	-0.140	0.042
-706.616	800.000	-0.041	-0.136
-705.602	-200.000	-0.026	-0.503
-704.587	120.666	0.040	-0.050
-703.572	-97.879	-0.157	-0.041
-702.558	552.415	-0.127	0.307
-701.543	58.891	-0.027	-0.026
-700.529	378.727	-0.159	0.328
-699.514	69.622	-0.090	0.093
-698.499	-92.780	-0.138	-0.039
-697.485	-46.823	-0.245	-0.120
-696.470	-200.000	0.036	-0.187
-695.456	148.415	-0.091	-0.124
-694.441	719.806	0.075	0.199
-693.426	380.263	-0.146	0.301
-692.412	-82.889	0.251	-0.082
-691.397	-133.226	-0.344	-0.044
-690.383	342.247	0.020	-0.040
-689.368	-36.688	-0.224	-0.121
-688.354	14.391	-0.296	0.232
-687.339	-109.256	-0.363	0.078
-686.324	115.556	-0.061	-0.075
-685.310	92.691	-0.308	-0.350
-684.295	-116.313	-0.238	0.044
-683.281	-165.764	-0.155	-0.007
-682.266	121.730	0.142	0.178
-681.251	-62.397	0.278	0.117
-680.237	-75.450	-0.134	0.048
-679.222	795.756	-0.055	-0.153
-678.208	-105.122	-0.373	-0.086
-677.193	199.725	-0.114	-0.176
-676.178	-65.294	-0.085	-0.034
-675.164	-140.214	0.307	-0.032
-674.149	-70.766	-0.343	-0.130
-673.135	341.531	-0.047	-0.093
-672.120	40.424	0.151	-0.137
-671.105	-70.457	-0.239	-0.091
-670.091	-134.082	-0.262	-0.033
-669.076	-28.956	-0.181	0.105
-668.062	-6.482	-0.107	0.073
-667.047	-61.534	0.046	0.020
-666.032	31.234	0.067	0.058
-665.018	800.000	0.062	-0.242
-664.003	-11.490	-0.226	-0.149
-662.989	458.362	0.099	-0.222
-661.974	-119.505	0.068	-0.012
-660.959	-23.823	-0.172	0.103
-659.945	-200.000	-0.035	0.214
-658.930	800.000	0.124	0.434
-657.916	800.000	0.007	-0.022
-656.901	-99.123	0.377	-0.096
-655.886	10.154	-0.218	-0.167
-654.872	104.276	-0.374	0.442
-653.857	278.482	-0.118	-0.211
-652.843	-51.367	-0.225	-0.106
-651.828	-41.289	0.208	0.108
-650.814	-161.556	0.165	-0.009
-649.799	-73.920	0.076	0.028
-648.784	18.316	0.264	-0.212
-647.770	126.579	0.128	-0.163
-646.755	-25.910	-0.334	0.198
-645.741	13.184	-0.123	-0.096
-644.726	-200.000	-0.075	-0.496
-643.711	49.824	0.050	-0.047
-642.697	74.056	-0.141	-0.148
-641.682	-123.595	-0.098	0.016
-640.668	253.441	0.151	-0.259
-639.653	29.914	-0.335	-0.286
-638.638	487.888	0.174	-0.398
-637.624	26.203	0.177	-0.148
-636.609	-135.836	-0.142	0.017
-635.595	152.162	-0.093	-0.127
-634.580	-60.049	0.052	0.022
-633.565	-200.000	0.049	0.469
-632.551	162.671	-0.226	-0.318
-631.536	-21.279	-0.098	0.060
-630.522	-200.000	0.007	-0.068
-629.507	-200.000	-0.019	0.310
-628.492	368.027	0.048	0.097
-627.478	-200.000	-0.099	-0.581
-626.463	-200.000	0.010	0.161
-625.449	26.134	0.106	0.089
-624.434	-200.000	-0.003	-0.207
-623.419	-100.357	-0.180	-0.045
-622.405	16.422	0.309	0.245
-621.390	129.143	-0.092	0.118
-620.376	-200.000	-0.004	-0.192
-619.361	-200.000	0.030	0.136
-618.346	-200.000	0.013	0.170
-617.332	-124.299	-0.162	-0.025
-616.317	-120.668	-0.537	-0.091
-615.303	-0.426	0.252	0.179
-614.288	-171.641	-0.257	-0.009
-613.273	245.628	-0.084	0.142
-612.259	-200.000	0.019	0.285
-611.244	315.380	-0.171	-0.323
-610.230	-66.978	0.084	0.033
-609.215	483.741	-0.086	-0.197
-608.201	-152.560	-0.177	0.013
-607.186	-153.840	-0.172	-0.012
-606.171	578.958	-0.202	-0.497
-605.157	800.000	-0.071	0.308
-604.142	112.163	0.169	-0.205
-603.128	-200.000	-0.273	0.001
-602.113	-8.040	0.314	-0.212
-601.098	800.000	0.042	-0.117
-600.084	-139.409	0.165	0.018
-599.069	633.981	0.088	-0.224
-598.055	-174.813	0.129	0.004
-597.040	94.321	-0.063	0.072
-596.025	29.935	0.069	0.059
-595.011	28.788	-0.078	0.066
-593.996	-200.000	0.001	0.039
-592.982	-200.000	0.018	0.102
-591.967	162.565	0.063	-0.088
-590.952	800.000	-0.102	0.428
-589.938	392.679	0.034	0.070
-588.923	-56.925	-0.436	-0.193
-587.909	-200.000	-0.000	-0.302
-586.894	-74.035	-0.305	0.111
-585.879	800.000	0.033	-0.118
-584.865	-19.751	-0.111	0.069
-583.850	250.066	-0.127	-0.216
-582.836	-11.978	0.109	0.072
-581.821	118.699	-0.209	-0.258
-580.806	-116.733	-0.301	-0.055
-579.792	-124.343	-0.223	-0.035
-578.777	-89.940	0.172	0.050
-577.763	-93.600	-0.117	0.032
-576.748	-92.462	0.290	0.082
-575.733	-200.000	-0.008	0.293
-574.719	-200.000	0.029	-0.285
-573.704	-110.503	-0.166	0.034
-572.690	459.301	-0.098	0.217
-571.675	-119.366	-0.193	0.034
-570.661	16.485	0.197	0.156
-569.646	-52.281	-0.132	0.061
-568.631	-82.192	0.137	-0.045
-567.617	452.894	-0.036	0.080
-566.602	800.000	0.067	-0.235
-565.588	-200.000	0.060	-0.354
-564.573	-200.000	-0.011	0.063
-563.558	-8.423	0.181	0.122
-562.544	50.557	0.137	-0.129
-561.529	-135.822	0.329	0.039
-560.515	765.891	0.110	0.298
-559.500	-159.124	0.358	-0.020
-558.485	-200.000	-0.010	0.110
-557.471	-200.000	-0.022	0.158
-556.456	-76.617	0.255	-0.089
-555.442	713.997	0.076	-0.202
-554.427	289.884	-0.196	-0.357
-553.412	-84.805	0.286	-0.090
-552.398	-95.168	0.339	0.092
-551.383	372.784	0.181	0.368
-550.369	380.126	0.147	-0.301
-549.354	-45.464	0.287	-0.142
-548.339	32.696	-0.194	0.168
-547.325	-14.574	0.213	0.137
-546.310	198.746	-0.031	0.047
-545.296	6.405	-0.064	0.048
-544.281	45.828	0.306	-0.284
-543.266	-62.126	-0.274	0.114
-542.252	15.094	-0.263	-0.206
-541.237	251.771	-0.054	0.092
-540.223	92.235	0.046	-0.052
-539.208	-200.000	0.027	-0.149
-538.193	-200.000	-0.013	0.071
-537.179	204.727	0.160	-0.248
-536.164	236.592	0.026	0.043
-535.150	800.000	0.105	0.313
-534.135	264.261	0.022	-0.039
-533.121	-96.287	-0.391	0.103
-532.106	-107.160	0.052	0.011
-531.091	11.912	0.057	-0.044
-530.077	39.722	-0.182	-0.164
-529.062	-9.734	-0.155	-0.103
-528.048	-200.000	-0.007	-0.233
-527.033	-200.000	0.030	-0.265
-526.018	-105.406	0.142	0.032
-525.004	165.177	0.161	-0.228
-523.989	-24.934	-0.442	-0.262
-522.975	-33.916	-0.144	0.079
-521.960	554.724	-0.114	0.273
-520.945	358.583	-0.081	0.161
-519.931	200.366	0.087	0.134
-518.916	149.811	0.076	0.103
-517.902	-46.116	-0.152	-0.075
-516.887	-50.616	-0.125	0.059
-515.872	111.708	0.189	-0.229
-514.858	-12.644	-0.276	0.180
-513.843	100.581	-0.126	0.147
-512.829	361.226	0.057	-0.115
-511.814	-105.592	-0.091	-0.021
-510.799	-4.907	0.086	-0.059
-509.785	55.567	-0.178	0.173
-508.770	60.771	-0.199	-0.197
-507.756	51.064	-0.179	-0.170
-506.741	-9.238	-0.224	-0.150
-505.726	-182.522	0.293	0.005
-504.712	0.791	0.219	0.157
-503.697	68.386	0.174	0.179
-502.683	146.433	-0.144	0.194
-501.668	-200.000	0.013	-0.086
-500.653	0.054	0.170	0.121
-499.639	800.000	-0.020	-0.059
-498.624	260.902	0.061	-0.106
-497.610	-10.808	0.261	0.172
-496.595	25.042	-0.127	-0.105
-495.581	-83.695	0.294	0.094
-494.566	-200.000	-0.010	0.335
-493.551	-11.877	0.125	-0.082
-492.537	-126.018	0.364	0.055
-491.522	800.000	0.052	0.161
-490.508	-98.489	0.048	-0.012
-489.493	-36.893	-0.262	-0.140
-488.478	89.639	-0.241	-0.269
-487.464	-105.180	-0.197	0.045
-486.449	-153.198	0.231	0.016
-485.435	-200.000	-0.002	0.070
-484.420	220.073	-0.206	0.329
-483.405	-9.340	-0.066	0.044
-482.391	800.000	-0.053	-0.209
-481.376	-98.770	0.187	-0.048
-480.362	-26.004	-0.110	-0.065
-479.347	174.093	-0.060	-0.086
-478.332	3.491	0.148	-0.107
-477.318	-95.313	-0.180	0.048
-476.303	-140.932	-0.248	0.025
-475.289	-128.359	0.088	0.012
-474.274	-12.921	0.263	-0.171
-473.259	-200.000	0.008	-0.036
-472.245	313.051	0.063	-0.118
-471.230	233.669	-0.212	0.349
-470.216	-171.918	0.318	0.010
-469.201	88.711	-0.091	0.101
-468.186	512.026	-0.114	0.265
-467.172	-112.976	-0.304	0.060
-466.157	39.910	-0.390	-0.349
-465.143	19.146	-0.119	0.095
-464.128	101.906	0.073	-0.085
-463.113	121.490	0.189	0.235
-462.099	800.000	-0.046	-0.138
-461.084	90.444	0.091	-0.102
-460.070	-62.868	-0.143	0.059
-459.055	-1.572	0.158	-0.111
-458.040	-155.128	0.208	0.014
-457.026	488.672	-0.072	0.164
-456.011	631.657	-0.058	0.146
-454.997	800.000	0.086	-0.283
-453.982	-188.542	-0.053	-0.001
-452.968	8.299	-0.060	-0.045
-451.953	-50.742	-0.020	-0.010
-450.938	41.441	-0.112	0.101
-449.924	800.000	-0.037	-0.130
-448.909	40.412	0.242	-0.217
-447.895	800.000	-0.096	0.323
-446.880	-200.000	0.004	0.364
-445.865	-36.805	0.068	-0.036
-444.851	6.597	0.303	0.224
-443.836	264.803	0.259	0.450
-442.822	800.000	0.072	-0.275
-441.807	206.093	0.070	0.108
-440.792	72.651	-0.206	0.214
-439.778	-200.000	0.018	0.208
-438.763	-124.096	-0.300	0.047
-437.749	130.016	0.167	-0.213
-436.734	800.000	0.051	0.159
-435.719	38.340	0.025	-0.023
-434.705	-151.495	0.075	0.006
-433.690	-110.457	0.112	0.023
-432.676	91.124	0.223	0.249
-431.661	-79.543	0.452	-0.152
-430.646	98.144	-0.130	-0.149
-429.632	800.000	0.053	0.148
-428.617	-4.687	0.140	-0.096
-427.603	173.114	0.165	-0.237
-426.588	-66.206	-0.154	-0.061
-425.573	-200.000	-0.056	0.286
-424.559	800.000	-0.071	-0.232
-423.544	175.152	0.052	-0.075
-422.530	-200.000	-0.019	-0.120
-421.515	88.910	0.243	0.269
-420.500	-200.000	-0.001	-0.190
-419.486	-122.981	-0.352	0.056
-418.471	167.047	-0.151	-0.214
-417.457	156.506	0.199	0.274
-416.442	-70.288	0.093	-0.035
-415.428	51.271	0.062	0.059
-414.413	-61.219	-0.344	-0.144
-413.398	31.430	0.168	0.144
-412.384	-77.077	-0.272	-0.094
-411.369	-40.599	0.226	0.117
-410.355	658.119	-0.063	0.161
-409.340	29.233	0.018	-0.016
-408.325	-200.000	0.007	-0.084
-407.311	800.000	-0.107	-0.372
-406.296	-17.395	-0.239	-0.150
-405.282	-200.000	-0.040	0.322
-404.267	-200.000	0.002	-0.111
-403.252	377.518	0.125	-0.253
-402.238	-68.366	0.224	0.087
-401.223	52.337	0.141	-0.133
-400.209	127.039	0.066	-0.083
-399.194	348.434	0.061	0.120
-398.179	800.000	0.033	-0.097
-397.165	800.000	0.058	-0.185
-396.150	210.487	0.117	0.183
-395.136	-87.410	-0.171	-0.052
-394.121	174.611	0.098	0.141
-393.106	74.937	-0.095	0.099
-392.092	20.500	0.080	0.065
-391.077	3.203	-0.131	-0.095
-390.063	435.160	0.061	-0.132
-389.048	-29.218	-0.068	-0.038
-388.033	-116.603	0.166	-0.030
-387.019	145.155	-0.223	-0.296
-386.004	-122.973	-0.441	-0.071
-384.990	-200.000	-0.069	0.319
-383.975	-200.000	-0.010	0.214
-382.960	-168.132	-0.359	-0.014
-381.946	2.588	0.183	-0.132
-380.931	-200.000	-0.032	-0.150
-379.917	-98.425	-0.239	0.061
-378.902	-25.712	-0.227	0.133
-377.888	-35.749	-0.060	-0.032
-376.873	-200.000	0.016	0.151
-375.858	-200.000	0.001	0.040
-374.844	52.328	-0.074	-0.070
-373.829	241.483	0.004	-0.007
-372.815	-40.161	-0.045	-0.023
-371.800	128.539	-0.156	-0.198
-370.785	-200.000	0.161	0.000
-369.771	-81.577	-0.171	0.056
-368.756	405.621	0.138	-0.289
-367.742	730.580	-0.029	0.078
-366.727	-50.971	0.203	-0.095
-365.712	-103.479	0.333	0.078
-364.698	-88.789	-0.280	0.083
-363.683	-148.310	-0.118	0.010
-362.669	5.015	-0.075	-0.055
-361.654	46.224	0.212	-0.195
-360.639	25.420	-0.141	-0.117
-359.625	-49.404	0.135	-0.064
-358.610	-74.320	-0.141	0.051
-357.596	-140.267	-0.537	0.056
-356.581	-133.170	-0.474	-0.060
-355.566	200.057	0.111	0.169
-354.552	-51.598	-0.126	-0.058
-353.537	-103.003	0.188	-0.044
-352.523	-132.517	-0.227	-0.029
-351.508	-88.331	0.141	-0.042
-350.493	-141.857	-0.186	-0.018
-349.479	-3.652	0.119	-0.082
-348.464	41.166	0.060	-0.053
-347.450	-200.000	-0.016	0.227
-346.435	-25.872	0.179	-0.104
-345.420	-200.000	0.009	0.041
-344.406	800.000	-0.120	0.507
-343.391	-200.000	0.009	0.401
-342.377	82.522	-0.211	0.227
-341.362	118.104	0.052	0.064
-340.348	-13.764	0.187	0.120
-339.333	-91.384	0.339	-0.096
-338.318	-109.016	0.166	0.035
-337.304	-184.895	-0.101	-0.002
-336.289	157.181	0.114	0.156
-335.275	120.636	0.155	-0.191
-334.260	-151.379	-0.188	-0.014
-333.245	89.421	-0.167	0.185
-332.231	-72.610	-0.220	0.080
-331.216	123.985	-0.113	0.141
-330.202	112.805	-0.239	0.288
-329.187	30.283	-0.056	-0.047
-328.172	-178.690	0.050	0.001
-327.158	215.511	0.051	0.080
-326.143	800.000	0.085	-0.237
-325.129	345.593	0.043	0.084
-324.114	216.980	-0.111	0.176
-323.099	-200.000	0.011	0.311
-322.085	190.941	-0.080	-0.119
-321.070	29.350	0.313	-0.264
-320.056	800.000	0.057	-0.176
-319.041	40.171	0.137	-0.122
-318.026	56.493	0.180	-0.173
-317.012	627.446	0.124	-0.311
-315.997	-38.510	-0.229	-0.120
-314.983	-200.000	0.030	0.145
-313.968	-7.749	-0.266	0.178
-312.953	90.176	0.068	0.075
-311.939	-200.000	-0.003	-0.014
-310.924	-59.901	0.297	0.126
-309.910	109.851	0.049	-0.058
-308.895	-185.567	0.151	0.002
-307.880	-138.301	-0.253	0.028
-306.866	-200.000	-0.003	-0.206
-305.851	-200.000	-0.022	0.258
-304.837	18.274	-0.101	-0.080
-303.822	85.040	0.188	-0.204
-302.807	-39.308	0.103	-0.053
-301.793	113.879	-0.092	-0.111
-300.778	-200.000	0.003	-0.082
-299.764	-200.000	-0.011	0.083
-298.749	149.537	0.043	0.058
-297.735	-200.000	0.018	-0.108
-296.720	-127.359	0.278	-0.040
-295.705	800.000	0.097	0.269
-294.691	36.347	0.276	-0.241
-293.676	-118.984	0.666	0.116
-292.662	472.841	-0.104	-0.231
-291.647	-84.230	-0.153	-0.048
-290.632	3.153	-0.094	-0.068
-289.618	460.683	0.136	0.301
-288.603	800.000	-0.117	0.349
-287.589	432.359	0.060	-0.129
-286.574	800.000	0.096	0.272
-285.559	-40.196	0.174	0.090
-284.545	155.728	0.085	-0.116
-283.530	-200.000	-0.027	-0.128
-282.516	140.000	-0.045	-0.059
-281.501	-117.174	-0.235	0.042
-280.486	800.000	-0.063	0.263
-279.472	210.801	0.053	0.083
-278.457	-200.000	0.010	0.116
-277.443	-200.000	-0.026	0.205
-276.428	-124.985	-0.190	-0.029
-275.413	800.000	0.107	0.310
-274.399	31.304	-0.224	0.191
-273.384	-200.000	0.003	-0.043
-272.370	147.088	-0.028	0.037
-271.355	402.594	0.085	0.176
-270.340	-60.817	0.213	-0.089
-269.326	-185.052	-0.118	-0.002
-268.311	-56.797	0.114	0.050
-267.297	-54.893	0.159	-0.071
-266.282	800.000	-0.109	-0.303
-265.267	-73.859	0.233	-0.084
-264.253	-87.184	-0.138	-0.042
-263.238	-3.698	-0.082	-0.057
-262.224	135.477	-0.028	0.036
-261.209	-200.000	0.010	-0.178
-260.195	371.215	0.100	-0.201
-259.180	-85.339	-0.211	-0.065
-258.165	-1.620	-0.155	-0.108
-257.151	-100.204	-0.217	0.053
-256.136	800.000	-0.044	0.173
-255.122	800.000	0.061	0.189
-254.107	-67.950	-0.209	0.081
-253.092	126.408	-0.050	-0.063
-252.078	-79.254	-0.086	0.029
-251.063	-200.000	-0.051	0.240
-250.049	-83.801	0.117	0.037
-249.034	344.853	-0.063	-0.123
-248.019	65.718	0.139	0.139
-247.005	-200.000	0.099	0.430
-245.990	-43.867	-0.237	0.118
-244.976	52.341	0.165	0.156
-243.961	-88.023	0.216	-0.064
-242.946	236.851	-0.092	0.150
-241.932	-130.945	0.313	-0.041
-240.917	-43.488	0.089	-0.045
-239.903	-182.303	-0.301	0.006
-238.888	800.000	-0.028	-0.116
-237.873	-200.000	-0.008	0.149
-236.859	-78.570	0.296	-0.100
-235.844	-200.000	-0.015	0.217
-234.830	-119.816	0.283	0.048
-233.815	574.984	0.037	-0.088
-232.800	422.533	0.128	-0.271
-231.786	740.106	-0.074	0.195
-230.771	800.000	0.052	0.210
-229.757	-200.000	0.033	-0.320
-228.742	-99.789	-0.206	-0.051
-227.727	229.818	-0.121	0.195
-226.713	-89.544	-0.208	0.060
-225.698	-200.000	-0.017	-0.089
-224.684	746.847	0.118	0.315
-223.669	-200.000	-0.002	-0.136
-222.655	190.812	-0.101	-0.151
-221.640	-200.000	0.095	0.416
-220.625	-200.000	0.007	-0.402
-219.611	-184.874	0.537	-0.008
-218.596	-200.000	0.026	0.269
-217.582	-200.000	-0.060	-0.532
-216.567	-200.000	0.035	-0.187
-215.552	-126.338	0.551	-0.081
-214.538	-13.811	-0.131	-0.084
-213.523	172.143	0.082	-0.117
-212.509	-200.000	0.005	-0.119
-211.494	437.715	-0.042	-0.090
-210.479	-61.949	-0.105	0.044
-209.465	-40.918	-0.175	0.089
-208.450	800.000	0.061	-0.240
-207.436	-200.000	0.036	0.173
-206.421	-200.000	0.014	0.351
-205.406	210.302	-0.085	-0.132
-204.392	-200.000	0.056	-0.337
-203.377	-172.494	0.350	-0.011
-202.363	-7.157	0.228	0.153
-201.348	-155.145	0.261	-0.017
-200.333	69.122	0.120	0.122
-199.319	-91.826	0.153	-0.043
-198.304	-200.000	-0.040	0.185
-197.290	340.094	-0.124	0.239
-196.275	-69.534	0.229	-0.086
-195.260	248.223	-0.267	-0.446
-194.246	235.757	-0.014	0.024
-193.231	-125.351	-0.395	-0.059
-192.217	-188.040	-0.121	-0.002
-191.202	-79.818	-0.264	-0.088
-190.187	-115.464	0.196	0.036
-189.173	447.205	0.082	-0.179
-188.158	-86.755	-0.281	-0.085
-187.144	-146.322	0.202	-0.017
-186.129	17.064	-0.120	-0.093
-185.114	3.461	-0.187	0.134
-184.100	-132.700	0.240	-0.030
-183.085	618.762	0.047	0.116
-182.071	149.965	0.199	0.266
-181.056	-123.353	0.043	-0.007
-180.042	-135.989	-0.220	-0.026
-179.027	-200.000	0.043	-0.275
-178.012	-76.564	-0.171	0.059
-176.998	117.444	-0.089	0.108
-175.983	-51.332	0.124	0.057
-174.969	8.307	0.176	0.130
-173.954	-200.000	0.013	-0.203
-172.939	-10.682	-0.088	-0.058
-171.925	427.955	-0.123	-0.262
-170.910	-200.000	-0.039	-0.168
-169.896	734.404	-0.125	0.329
-168.881	-154.780	0.239	0.016
-167.866	-200.000	0.440	0.001
-166.852	-200.000	0.032	0.341
-165.837	527.801	0.112	0.259
-164.823	151.912	-0.118	0.158
-163.808	800.000	0.116	0.333
-162.793	800.000	0.021	0.060
-161.779	-74.183	0.311	0.111
-160.764	-26.280	-0.281	-0.163
-159.750	800.000	0.116	-0.348
-158.735	197.118	0.092	-0.139
-157.720	-40.155	-0.289	-0.149
-156.706	-108.797	0.292	0.062
-155.691	-105.223	-0.334	0.075
-154.677	-200.000	0.057	0.340
-153.662	95.792	-0.138	-0.155
-152.647	-61.975	-0.254	0.104
-151.633	-98.801	-0.074	-0.019
-150.618	-70.319	-0.160	-0.060
-149.604	800.000	0.140	0.498
-148.589	-49.713	-0.058	0.027
-147.574	34.113	0.152	0.130
-146.560	157.736	0.132	0.180
-145.545	-200.000	-0.004	-0.070
-144.531	-200.000	0.056	-0.272
-143.516	-200.000	-0.002	-0.023
-142.502	-148.573	0.245	-0.020
-141.487	-146.410	0.044	0.004
-140.472	-123.009	-0.174	0.028
-139.458	-200.000	0.021	0.181
-138.443	-1.765	-0.105	-0.073
-137.429	332.536	0.012	0.022
-136.414	800.000	0.044	0.179
-135.399	-109.753	0.285	-0.059
-134.385	-36.276	0.204	-0.108
-133.370	-35.704	-0.257	-0.137
-132.356	406.101	0.158	-0.329
-131.341	65.412	-0.208	0.207
-130.326	-200.000	0.049	0.403
-129.312	-36.158	-0.143	-0.076
-128.297	-92.188	-0.154	0.043
-127.283	791.833	0.201	-0.543
-126.268	165.729	-0.106	-0.148
-125.253	-200.000	-0.036	-0.199
-124.239	-79.832	0.059	0.019
-123.224	264.425	-0.096	0.164
-122.210	-9.609	-0.073	-0.048
