DTS Sentinel unit serial number:	SN413079Multiplexer serial number:	ORYXHardware model number:	OX4-SRSoftware version number:	ORYX F/W v4.00 Oryx Data Collector v3.7.2.0data status	okinstallation	princeton_trtdifferential loss correction	single-endedforward channel	channel 2reverse channel	N/Adate	2019/09/11time	01:45:11forward acquisition time	60.00reverse acquisition time	0.00gamma	496.2192k internal	0.2332k external	0.2332temperature offset calibration	0.9939default loss term (dB/km)	0.3790temperature slope calibration	1.0000multiplexer offset coefficient	1.0000multiplexer slope coefficient	1.0000fibre end	0.00T internal ref (°C)	29.19T ext. ref 1 (°C)	-0.30T ext. ref 2 (°C)	23.15length (m)	temperature (°C)	Stokes	anti-Stokes-747.200	-29.206	-0.187	-0.108
-746.185	-200.000	0.034	0.151
-745.171	90.832	0.165	-0.186
-744.156	-22.663	0.162	-0.099
-743.142	-185.081	0.150	0.002
-742.127	-107.776	-0.380	0.083
-741.112	-200.000	0.038	-0.173
-740.098	-191.969	-0.447	-0.004
-739.083	301.115	-0.135	0.251
-738.069	-200.000	0.081	0.370
-737.054	800.000	0.045	0.135
-736.039	-66.174	0.198	-0.079
-735.025	-200.000	-0.030	-0.178
-734.010	-81.464	-0.502	-0.166
-732.996	-200.000	-0.030	-0.138
-731.981	367.557	0.080	-0.162
-730.966	118.389	-0.364	-0.452
-729.952	143.521	0.126	-0.169
-728.937	708.717	0.048	-0.126
-727.923	-76.253	-0.220	0.078
-726.908	177.041	-0.207	0.302
-725.894	-200.000	0.031	0.209
-724.879	-122.456	-0.345	-0.057
-723.864	55.614	-0.126	-0.123
-722.850	417.119	-0.066	-0.141
-721.835	31.068	0.341	0.294
-720.821	-140.354	0.065	-0.007
-719.806	-16.692	0.179	-0.114
-718.791	-200.000	-0.018	0.194
-717.777	-22.741	-0.126	-0.077
-716.762	-71.228	0.177	0.067
-715.748	-146.734	0.397	-0.034
-714.733	-77.787	-0.189	0.066
-713.718	791.338	-0.101	0.279
-712.704	-200.000	-0.011	-0.169
-711.689	408.675	0.142	0.301
-710.675	66.760	0.166	0.170
-709.660	-200.000	0.003	-0.023
-708.645	-200.000	-0.090	-0.399
-707.631	64.235	0.144	-0.146
-706.616	-200.000	-0.058	-0.290
-705.602	-51.122	-0.270	0.127
-704.587	548.585	0.056	0.135
-703.572	-200.000	-0.000	-0.017
-702.558	-91.597	-0.262	-0.075
-701.543	-76.787	-0.112	-0.040
-700.529	-59.487	0.286	0.124
-699.514	-200.000	-0.008	-0.070
-698.499	-60.274	0.354	0.151
-697.485	-156.711	-0.525	0.033
-696.470	-112.870	0.270	0.054
-695.456	-200.000	-0.015	-0.151
-694.441	-101.090	0.379	0.093
-693.426	-111.991	-0.129	-0.026
-692.412	-200.000	-0.011	-0.272
-691.397	-190.202	-0.128	0.001
-690.383	-39.990	-0.070	0.037
-689.368	139.921	0.096	0.128
-688.354	800.000	0.009	-0.032
-687.339	-84.804	-0.270	0.085
-686.324	-200.000	0.042	0.217
-685.310	-200.000	0.012	-0.330
-684.295	-151.398	-0.046	0.003
-683.281	-200.000	-0.024	-0.457
-682.266	72.872	-0.082	-0.086
-681.251	-95.402	-0.158	0.042
-680.237	800.000	0.044	-0.165
-679.222	-151.541	0.105	0.008
-678.208	-36.273	-0.119	0.065
-677.193	800.000	-0.185	0.513
-676.178	-95.330	-0.325	-0.088
-675.164	-98.836	-0.269	0.069
-674.149	238.780	0.049	0.081
-673.135	800.000	0.087	0.259
-672.120	-102.519	-0.071	-0.017
-671.105	800.000	-0.103	0.290
-670.091	185.465	-0.236	-0.352
-669.076	-130.040	0.127	-0.017
-668.062	-200.000	-0.039	-0.284
-667.047	-85.230	-0.319	0.100
-666.032	-200.000	-0.003	0.178
-665.018	-137.707	0.143	-0.016
-664.003	800.000	0.020	0.076
-662.989	-199.798	0.221	0.001
-661.974	75.164	0.244	0.258
-660.959	238.966	-0.070	0.117
-659.945	187.905	-0.082	0.123
-658.930	-32.532	0.198	0.111
-657.916	402.625	-0.174	-0.367
-656.901	-172.837	-0.297	0.009
-655.886	-200.000	0.386	-0.001
-654.872	-200.000	0.010	-0.204
-653.857	-200.000	-0.005	-0.141
-652.843	-159.928	-0.253	-0.014
-651.828	-67.435	0.211	-0.083
-650.814	-76.242	0.163	0.058
-649.799	-156.879	-0.321	-0.020
-648.784	-200.000	0.038	-0.365
-647.770	-78.578	-0.186	-0.064
-646.755	372.291	0.032	-0.066
-645.741	49.077	0.070	-0.066
-644.726	-42.393	0.175	0.090
-643.711	-200.000	-0.006	0.037
-642.697	-200.000	0.062	-0.282
-641.682	755.858	0.060	-0.162
-640.668	-113.040	0.307	-0.061
-639.653	121.701	0.069	0.086
-638.638	-80.968	-0.389	-0.129
-637.624	-37.744	-0.199	-0.106
-636.609	-63.005	0.139	-0.058
-635.595	800.000	0.105	-0.432
-634.580	645.431	-0.050	0.127
-633.565	-147.012	-0.242	-0.021
-632.551	-91.469	-0.273	0.078
-631.536	17.726	0.167	0.133
-630.522	374.610	0.069	-0.141
-629.507	66.461	-0.234	-0.238
-628.492	-48.063	-0.171	-0.083
-627.478	240.765	-0.188	0.315
-626.463	-200.000	-0.002	0.016
-625.449	-182.646	-0.154	0.003
-624.434	-200.000	0.064	-0.509
-623.419	96.225	-0.142	-0.162
-622.405	800.000	0.142	-0.413
-621.390	-200.000	-0.040	-0.270
-620.376	29.782	-0.073	0.062
-619.361	14.171	0.298	-0.232
-618.346	85.722	0.092	0.101
-617.332	-133.616	-0.432	0.054
-616.317	371.470	-0.024	0.050
-615.303	-200.000	-0.005	-0.028
-614.288	-122.376	-0.124	0.020
-613.273	-151.758	0.216	-0.016
-612.259	593.751	-0.138	-0.341
-611.244	-66.930	-0.249	-0.098
-610.230	800.000	0.065	-0.241
-609.215	-184.586	0.192	0.003
-608.201	-16.890	0.209	-0.132
-607.186	-200.000	0.037	-0.194
-606.171	-36.384	0.291	0.157
-605.157	-200.000	-0.011	0.089
-604.142	-87.499	0.173	-0.052
-603.128	-200.000	0.037	-0.265
-602.113	-36.037	-0.135	0.073
-601.098	-200.000	-0.015	0.158
-600.084	32.527	0.245	0.212
-599.069	39.410	0.162	-0.145
-598.055	442.777	0.128	-0.281
-597.040	-60.754	-0.227	-0.096
-596.025	-200.000	-0.012	-0.073
-595.011	-170.573	-0.128	0.004
-593.996	-60.039	0.086	0.037
-592.982	175.205	0.094	-0.136
-591.967	-200.000	-0.001	0.282
-590.952	800.000	0.040	0.147
-589.938	101.030	-0.195	0.227
-588.923	484.395	0.060	0.136
-587.909	-78.619	0.176	0.060
-586.894	-22.911	-0.107	0.065
-585.879	151.642	-0.087	0.118
-584.865	-45.722	-0.308	0.152
-583.850	-200.000	0.002	-0.425
-582.836	35.329	-0.194	-0.171
-581.821	-109.509	-0.309	0.065
-580.806	-180.647	0.181	0.004
-579.792	99.948	0.136	0.157
-578.777	-127.002	0.241	-0.035
-577.763	-40.805	0.189	0.098
-576.748	800.000	-0.134	-0.391
-575.733	182.603	-0.118	0.174
-574.719	122.385	-0.055	0.069
-573.704	-185.001	0.203	0.003
-572.690	-57.517	-0.267	0.117
-571.675	-65.234	-0.089	-0.036
-570.661	67.684	-0.137	0.140
-569.646	477.575	-0.118	-0.266
-568.631	60.258	-0.083	0.082
-567.617	-18.852	-0.172	0.107
-566.602	-129.473	0.168	0.023
-565.588	411.026	-0.107	0.226
-564.573	49.197	0.084	-0.079
-563.558	100.624	0.291	0.338
-562.544	220.903	-0.189	0.303
-561.529	-47.327	-0.188	-0.092
-560.515	296.662	0.073	0.135
-559.500	800.000	-0.070	-0.243
-558.485	-46.350	0.135	0.066
-557.471	37.647	-0.221	0.196
-556.456	-200.000	-0.052	-0.296
-555.442	800.000	-0.030	0.117
-554.427	-39.629	0.195	-0.102
-553.412	-159.811	-0.185	0.010
-552.398	800.000	-0.034	0.121
-551.383	-139.697	-0.302	-0.032
-550.369	210.812	0.166	0.261
-549.354	-200.000	0.001	-0.298
-548.339	-86.430	0.319	-0.098
-547.325	800.000	-0.102	0.417
-546.310	-60.288	0.332	0.141
-545.296	440.337	0.155	0.339
-544.281	55.818	0.053	0.052
-543.266	46.535	-0.176	-0.163
-542.252	-40.232	-0.332	0.172
-541.237	220.478	-0.131	-0.210
-540.223	17.712	-0.136	-0.108
-539.208	-97.573	0.311	0.080
-538.193	5.127	-0.204	0.150
-537.179	171.740	0.129	-0.185
-536.164	-200.000	-0.007	-0.193
-535.150	800.000	0.064	-0.240
-534.135	703.089	0.049	-0.129
-533.121	319.881	-0.032	0.060
-532.106	-200.000	0.053	-0.343
-531.091	-19.930	-0.182	0.112
-530.077	414.682	0.142	-0.302
-529.062	-78.324	0.303	0.104
-528.048	-200.000	-0.037	-0.407
-527.033	74.387	0.258	-0.270
-526.018	-122.676	-0.359	0.058
-525.004	471.797	-0.201	0.451
-523.989	58.221	-0.110	0.107
-522.975	201.734	0.223	0.343
-521.960	203.021	-0.203	0.313
-520.945	164.231	-0.193	0.271
-519.931	-55.897	0.277	0.123
-518.916	-123.269	-0.409	0.065
-517.902	-145.733	0.123	0.011
-516.887	-160.985	-0.225	-0.012
-515.872	200.423	-0.132	-0.203
-514.858	-19.858	-0.503	0.310
-513.843	-51.515	0.359	-0.167
-512.829	285.768	-0.167	-0.300
-511.814	-118.316	-0.291	0.052
-510.799	135.958	0.126	0.163
-509.785	-128.386	-0.263	-0.037
-508.770	24.289	-0.252	0.207
-507.756	-1.818	0.212	0.149
-506.741	-98.050	0.099	0.025
-505.726	658.315	-0.054	0.139
-504.712	-73.007	-0.160	-0.058
-503.697	-121.725	0.199	0.033
-502.683	-36.223	0.374	0.201
-501.668	-69.886	0.254	-0.097
-500.653	-200.000	-0.035	-0.262
-499.639	-69.294	0.257	-0.098
-498.624	-80.854	-0.120	-0.040
-497.610	159.354	-0.121	-0.167
-496.595	-132.074	0.540	-0.070
-495.581	-22.847	-0.243	-0.146
-494.566	201.227	0.191	-0.292
-493.551	192.686	-0.076	-0.114
-492.537	-200.000	0.020	-0.225
-491.522	-200.000	-0.039	0.380
-490.508	43.861	-0.241	0.220
-489.493	660.862	-0.137	0.351
-488.478	-200.000	-0.024	0.119
-487.464	-200.000	-0.001	-0.105
-486.449	-39.128	-0.177	0.093
-485.435	-66.491	-0.144	0.057
-484.420	-200.000	0.005	-0.112
-483.405	-43.729	-0.184	0.092
-482.391	-200.000	0.032	0.396
-481.376	376.508	0.126	0.255
-480.362	76.329	-0.222	0.234
-479.347	-16.445	0.080	-0.050
-478.332	-64.271	-0.068	-0.028
-477.318	-12.082	-0.253	-0.165
-476.303	-200.000	-0.013	-0.062
-475.289	174.903	-0.349	-0.503
-474.274	-164.395	0.256	-0.012
-473.259	156.960	0.061	0.084
-472.245	-200.000	-0.030	-0.398
-471.230	-200.000	-0.009	0.059
-470.216	-37.256	-0.238	-0.126
-469.201	-6.595	0.194	-0.132
-468.186	-191.633	0.156	-0.002
-467.172	-35.718	-0.131	-0.071
-466.157	-200.000	0.023	-0.204
-465.143	-21.929	-0.053	-0.032
-464.128	-50.766	0.145	0.068
-463.113	390.008	0.143	0.294
-462.099	-143.212	-0.188	-0.018
-461.084	493.400	-0.091	-0.208
-460.070	-124.588	-0.347	-0.054
-459.055	-163.282	-0.106	-0.005
-458.040	5.412	-0.091	0.067
-457.026	-72.131	-0.448	-0.165
-456.011	-95.155	-0.325	0.087
-454.997	707.251	-0.026	-0.068
-453.982	-83.188	0.055	-0.018
-452.968	291.043	-0.286	0.518
-451.953	29.041	0.207	0.174
-450.938	-200.000	-0.020	0.158
-449.924	800.000	0.134	0.394
-448.909	-56.416	0.229	0.101
-447.895	149.399	-0.007	0.010
-446.880	64.696	0.253	0.254
-445.865	53.325	-0.200	-0.191
-444.851	-200.000	0.030	-0.168
-443.836	-200.000	0.019	0.100
-442.822	800.000	0.044	0.169
-441.807	430.246	-0.097	0.209
-440.792	51.077	0.139	-0.131
-439.778	-50.004	0.177	0.083
-438.763	269.069	-0.136	0.238
-437.749	-200.000	-0.070	0.354
-436.734	108.944	-0.085	-0.101
-435.719	-31.771	0.264	-0.147
-434.705	-3.237	0.166	-0.115
-433.690	800.000	0.048	-0.143
-432.676	-33.056	-0.276	0.152
-431.661	99.959	-0.109	0.126
-430.646	-31.872	0.248	-0.138
-429.632	-102.311	-0.263	0.063
-428.617	91.833	-0.183	-0.204
-427.603	-129.529	-0.285	-0.039
-426.588	96.725	-0.067	-0.076
-425.573	-104.057	0.203	-0.047
-424.559	520.905	-0.042	0.097
-423.544	-72.928	-0.220	0.080
-422.530	211.190	0.100	-0.156
-421.515	-102.246	0.287	-0.069
-420.500	-79.130	0.217	-0.073
-419.486	779.183	-0.010	-0.026
-418.471	-4.567	0.264	0.181
-417.457	50.905	0.313	-0.295
-416.442	72.348	-0.209	-0.217
-415.428	-178.891	0.299	-0.007
-414.413	-7.132	0.151	-0.102
-413.398	72.316	-0.114	-0.118
-412.384	-31.426	-0.128	-0.072
-411.369	-6.278	0.317	-0.215
-410.355	185.045	0.088	0.130
-409.340	-116.710	0.117	-0.021
-408.325	11.905	0.194	-0.148
-407.311	546.860	0.109	-0.259
-406.296	377.457	-0.194	-0.393
-405.282	181.048	-0.080	-0.117
-404.267	-47.785	-0.064	-0.031
-403.252	-200.000	0.010	0.165
-402.238	-200.000	-0.092	0.000
-401.223	-57.040	0.211	0.092
-400.209	-200.000	0.004	-0.249
-399.194	-110.631	0.401	-0.082
-398.179	-200.000	-0.003	0.140
-397.165	-77.820	0.239	-0.082
-396.150	-132.010	0.114	0.015
-395.136	93.948	-0.014	0.016
-394.121	-200.000	0.024	-0.192
-393.106	0.274	-0.117	0.083
-392.092	-27.619	-0.134	-0.077
-391.077	-177.385	0.161	0.004
-390.063	-200.000	-0.007	-0.277
-389.048	-132.637	-0.324	0.041
-388.033	89.009	0.238	-0.262
-387.019	143.762	-0.179	0.237
-386.004	-50.820	-0.260	-0.121
-384.990	-18.158	-0.183	-0.114
-383.975	-142.309	0.116	0.011
-382.960	-89.317	-0.248	0.073
-381.946	87.685	0.020	-0.022
-380.931	330.641	0.077	0.146
-379.917	800.000	-0.103	0.338
-378.902	-18.167	-0.074	0.046
-377.888	302.892	0.042	-0.077
-376.873	-158.201	0.173	0.010
-375.858	-200.000	-0.002	0.227
-374.844	-149.182	0.117	0.009
-373.829	-129.526	0.031	-0.004
-372.815	-27.680	0.278	0.160
-371.800	-143.738	0.122	0.011
-370.785	272.902	-0.208	-0.365
-369.771	570.078	0.133	-0.320
-368.756	-135.758	-0.452	0.053
-367.742	-56.793	0.186	0.082
-366.727	152.721	-0.275	0.372
-365.712	-63.503	0.240	-0.098
-364.698	-55.556	-0.208	0.092
-363.683	-146.916	0.012	-0.001
-362.669	800.000	0.069	0.202
-361.654	-21.257	0.086	-0.052
-360.639	-132.309	-0.123	0.016
-359.625	-200.000	-0.016	0.078
-358.610	-200.000	-0.035	0.539
-357.596	353.783	-0.106	0.208
-356.581	-200.000	0.008	0.083
-355.566	185.558	0.081	0.120
-354.552	-200.000	-0.013	0.272
-353.537	800.000	0.026	-0.109
-352.523	-67.219	0.390	-0.152
-351.508	-28.110	0.088	0.050
-350.493	-144.071	-0.044	0.004
-349.479	-63.187	-0.259	-0.106
-348.464	800.000	0.015	0.046
-347.450	-21.165	-0.244	-0.148
-346.435	139.468	0.245	-0.320
-345.420	347.977	0.178	0.348
-344.406	-61.740	-0.123	0.051
-343.391	6.847	0.112	-0.083
-342.377	-112.351	0.191	-0.038
-341.362	6.773	-0.369	0.272
-340.348	37.808	0.258	0.227
-339.333	-77.307	0.073	0.025
-338.318	-76.416	-0.134	-0.047
-337.304	-127.826	0.191	-0.027
-336.289	-200.000	-0.065	-0.295
-335.275	800.000	-0.019	0.063
-334.260	96.021	-0.030	-0.034
-333.245	60.481	0.186	0.182
-332.231	123.072	0.232	-0.287
-331.216	61.632	-0.065	0.065
-330.202	710.288	-0.108	-0.283
-329.187	-200.000	0.070	0.308
-328.172	800.000	0.037	-0.121
-327.158	800.000	-0.119	-0.382
-326.143	280.025	-0.095	0.168
-325.129	61.516	-0.110	-0.108
-324.114	116.427	0.142	0.172
-323.099	-199.988	-0.059	0.000
-322.085	-29.806	-0.247	0.139
-321.070	262.184	-0.044	-0.075
-320.056	-200.000	0.057	-0.370
-319.041	-66.458	0.227	0.089
-318.026	185.605	-0.076	0.112
-317.012	639.624	0.078	-0.197
-315.997	26.443	-0.100	0.083
-314.983	-200.000	-0.027	0.133
-313.968	-88.469	-0.361	0.107
-312.953	-106.275	0.404	0.090
-311.939	353.266	0.105	0.205
-310.924	-162.321	0.262	0.013
-309.910	747.021	0.107	0.285
-308.895	-200.000	0.009	-0.089
-307.880	65.146	-0.116	-0.116
-306.866	-103.359	-0.169	0.039
-305.851	-200.000	-0.017	-0.224
-304.837	34.964	-0.171	-0.148
-303.822	268.194	-0.168	-0.290
-302.807	-200.000	0.006	-0.092
-301.793	-25.670	0.075	0.044
-300.778	-76.459	0.317	-0.110
-299.764	-129.052	-0.113	-0.016
-298.749	-40.952	0.353	-0.180
-297.735	54.970	0.111	0.106
-296.720	-141.823	-0.299	0.030
-295.705	700.836	0.078	-0.204
-294.691	-101.438	-0.010	0.003
-293.676	-77.315	0.233	-0.080
-292.662	-165.264	0.099	-0.004
-291.647	-109.962	0.260	0.054
-290.632	-149.790	0.161	0.012
-289.618	-156.547	0.011	0.001
-288.603	-97.267	-0.174	-0.045
-287.589	-200.000	-0.034	-0.259
-286.574	-200.000	-0.025	0.321
-285.559	126.376	0.110	0.137
-284.545	97.469	0.395	-0.448
-283.530	800.000	-0.063	0.185
-282.516	-42.827	-0.375	-0.188
-281.501	-24.513	0.146	-0.086
-280.486	-116.264	0.330	-0.060
-279.472	257.207	0.069	-0.118
-278.457	-179.470	-0.157	0.003
-277.443	39.499	0.318	0.281
-276.428	-52.618	-0.385	-0.176
-275.413	404.910	0.101	-0.210
-274.399	189.828	-0.150	0.222
-273.384	-200.000	0.003	-0.124
-272.370	-51.578	-0.124	-0.057
-271.355	165.551	-0.143	0.200
-270.340	800.000	0.095	-0.269
-269.326	800.000	0.078	-0.227
-268.311	21.615	0.172	0.138
-267.297	-133.283	-0.139	-0.017
-266.282	28.676	0.274	0.229
-265.267	284.058	-0.224	-0.397
-264.253	-91.076	-0.306	0.087
-263.238	-59.146	0.125	-0.053
-262.224	123.700	0.108	0.133
-261.209	800.000	-0.073	-0.306
-260.195	719.374	-0.176	-0.463
-259.180	-92.839	0.223	-0.062
-258.165	571.011	-0.126	-0.302
-257.151	769.460	0.036	0.097
-256.136	-170.191	0.357	-0.012
-255.122	-105.000	-0.360	-0.081
-254.107	-99.126	0.137	0.034
-253.092	-43.767	-0.401	0.199
-252.078	-200.000	0.010	-0.327
-251.063	800.000	0.127	-0.357
-250.049	597.048	0.250	0.611
-249.034	178.984	-0.119	0.172
-248.019	152.040	0.203	0.273
-247.005	-200.000	0.011	0.428
-245.990	-68.304	-0.251	0.096
-244.976	47.260	0.071	0.065
-243.961	143.408	0.093	0.123
-242.946	125.528	0.276	-0.344
-241.932	-200.000	0.036	0.178
-240.917	-200.000	-0.003	0.107
-239.903	-17.906	0.155	-0.096
-238.888	218.242	-0.064	0.100
-237.873	141.893	-0.019	-0.024
-236.859	13.040	0.184	-0.141
-235.844	-144.777	0.197	-0.018
-234.830	-200.000	0.006	0.166
-233.815	-200.000	-0.003	0.099
-232.800	-126.933	0.054	-0.008
-231.786	533.664	0.148	-0.345
-230.771	-97.690	0.155	0.040
-229.757	152.725	0.066	-0.089
-228.742	-35.278	-0.131	0.070
-227.727	-10.542	0.191	-0.125
-226.713	60.640	0.217	0.212
-225.698	-129.221	0.276	-0.038
-224.684	-96.579	0.289	0.075
-223.669	-61.454	-0.304	0.126
-222.655	31.939	-0.125	0.106
-221.640	-60.141	-0.344	-0.145
-220.625	-17.094	0.178	-0.111
-219.611	75.478	-0.258	0.269
-218.596	327.767	0.060	-0.114
-217.582	7.489	0.105	0.077
-216.567	-23.762	0.197	0.116
-215.552	379.770	-0.023	0.047
-214.538	800.000	-0.041	0.121
-213.523	-104.302	-0.112	0.026
-212.509	800.000	-0.072	0.234
-211.494	-156.923	-0.159	0.010
-210.479	-76.748	-0.187	-0.065
-209.465	485.956	-0.083	-0.186
-208.450	27.137	-0.185	0.153
-207.436	11.093	-0.148	0.112
-206.421	22.719	0.095	-0.077
-205.406	-200.000	-0.015	0.285
-204.392	-90.159	-0.057	-0.016
-203.377	108.711	0.115	0.136
-202.363	-165.638	-0.286	-0.012
-201.348	552.563	-0.112	0.264
-200.333	-200.000	0.024	0.258
-199.319	53.267	0.165	0.156
-198.304	800.000	0.023	0.087
-197.290	-73.636	0.298	0.107
-196.275	452.989	0.046	0.099
-195.260	-200.000	0.026	0.125
-194.246	-200.000	-0.048	-0.251
-193.231	524.504	-0.073	0.168
-192.217	16.124	-0.248	0.193
-191.202	77.935	0.120	0.126
-190.187	-200.000	0.072	-0.325
-189.173	-200.000	0.005	0.170
-188.158	800.000	-0.152	-0.447
-187.144	-58.161	-0.228	0.098
-186.129	562.038	0.206	0.491
-185.114	-128.923	0.239	-0.033
-184.100	-70.265	0.036	0.013
-183.085	88.339	0.098	0.107
-182.071	-2.426	0.079	0.055
-181.056	300.631	-0.108	0.196
-180.042	-200.000	0.011	-0.116
-179.027	-103.323	0.208	-0.048
-178.012	-172.961	-0.290	0.009
-176.998	-49.359	0.170	0.080
-175.983	-64.440	0.200	0.080
-174.969	-46.275	-0.269	0.130
-173.954	263.640	-0.127	-0.217
-172.939	276.858	0.105	0.183
-171.925	800.000	0.030	-0.124
-170.910	-200.000	0.031	0.448
-169.896	-139.528	0.356	0.037
-168.881	800.000	0.016	-0.055
-167.866	484.282	-0.047	-0.106
-166.852	-54.270	-0.283	0.126
-165.837	-200.000	-0.017	-0.082
-164.823	196.741	-0.106	-0.158
-163.808	70.332	-0.189	-0.192
-162.793	293.818	-0.120	-0.215
-161.779	-27.069	0.196	0.112
-160.764	-200.000	-0.035	0.229
-159.750	756.488	-0.043	0.115
-158.735	-200.000	0.008	0.190
-157.720	-79.877	0.054	-0.018
-156.706	-20.372	0.261	0.158
-155.691	-103.171	0.148	-0.034
-154.677	103.711	0.208	0.240
-153.662	800.000	-0.044	-0.182
-152.647	-55.375	0.143	-0.063
-151.633	11.417	-0.123	-0.092
-150.618	-155.923	0.380	0.024
-149.604	-200.000	-0.045	0.257
-148.589	348.961	0.104	-0.201
-147.574	-25.380	-0.241	0.140
-146.560	189.799	0.124	0.183
-145.545	-16.624	-0.273	-0.170
-144.531	-134.089	-0.150	0.018
-143.516	800.000	-0.077	-0.275
-142.502	-200.000	-0.048	-0.351
-141.487	1.159	-0.177	-0.125
-140.472	800.000	-0.018	-0.070
-139.458	-31.538	-0.060	0.033
-138.443	-38.518	0.074	0.038
-137.429	122.360	-0.109	0.133
-136.414	46.396	-0.241	-0.219
-135.399	800.000	0.115	0.316
-134.385	-138.184	0.227	0.025
-133.370	-53.785	0.276	-0.124
-132.356	-29.612	-0.210	-0.118
-131.341	-57.096	0.078	0.034
-130.326	-94.882	0.126	-0.034
-129.312	21.700	0.295	0.236
-128.297	27.513	0.181	-0.150
-127.283	-200.000	0.026	0.209
-126.268	252.921	0.123	0.207
-125.253	-50.549	-0.252	0.117
-124.239	-200.000	-0.014	0.205
-123.224	47.861	-0.047	-0.043
-122.210	-67.107	0.298	-0.116
