DTS Sentinel unit serial number:	SN413079Multiplexer serial number:	ORYXHardware model number:	OX4-SRSoftware version number:	ORYX F/W v4.00 Oryx Data Collector v3.7.2.0data status	okinstallation	princeton_trtdifferential loss correction	single-endedforward channel	channel 2reverse channel	N/Adate	2019/09/11time	18:21:11forward acquisition time	60.00reverse acquisition time	0.00gamma	496.2192k internal	0.2285k external	0.2285temperature offset calibration	1.0023default loss term (dB/km)	0.3790temperature slope calibration	1.0000multiplexer offset coefficient	1.0000multiplexer slope coefficient	1.0000fibre end	0.00T internal ref (°C)	43.98T ext. ref 1 (°C)	1.13T ext. ref 2 (°C)	38.70length (m)	temperature (°C)	Stokes	anti-Stokes-747.200	-124.430	-0.104	0.017
-746.185	-58.078	-0.321	0.144
-745.171	330.188	-0.197	0.389
-744.156	147.264	0.079	0.109
-743.142	-200.000	-0.016	0.367
-742.127	82.507	0.044	-0.049
-741.112	800.000	0.018	0.055
-740.098	-124.497	0.354	-0.057
-739.083	183.321	-0.102	-0.155
-738.069	-123.025	-0.038	-0.006
-737.054	378.249	-0.072	-0.152
-736.039	500.240	-0.032	0.076
-735.025	800.000	-0.045	-0.169
-734.010	-111.287	-0.408	-0.086
-732.996	156.767	0.119	0.168
-731.981	-43.854	-0.195	0.101
-730.966	-115.212	-0.392	0.076
-729.952	-181.453	-0.065	-0.001
-728.937	-200.000	-0.004	0.020
-727.923	-54.608	-0.324	-0.150
-726.908	-78.902	-0.236	0.082
-725.894	-99.875	-0.313	0.080
-724.879	791.623	0.020	0.056
-723.864	94.633	-0.199	0.232
-722.850	-10.826	-0.347	0.235
-721.835	-84.758	-0.106	-0.034
-720.821	800.000	0.046	0.167
-719.806	331.271	-0.175	-0.346
-718.791	552.987	-0.121	-0.298
-717.777	-121.554	-0.378	-0.064
-716.762	-200.000	0.048	0.218
-715.748	-28.323	-0.226	-0.134
-714.733	-109.939	0.152	0.033
-713.718	-113.196	-0.044	0.009
-712.704	-85.763	-0.169	0.054
-711.689	-96.090	-0.194	0.053
-710.675	-200.000	0.040	-0.188
-709.660	-72.670	-0.254	-0.096
-708.645	137.844	0.078	-0.105
-707.631	-62.403	-0.379	0.162
-706.616	253.758	0.055	-0.097
-705.602	-104.674	-0.253	0.060
-704.587	-117.284	-0.122	-0.023
-703.572	-13.067	-0.021	-0.014
-702.558	477.513	-0.066	0.153
-701.543	-200.000	0.002	0.015
-700.529	-167.578	-0.486	-0.020
-699.514	87.350	0.050	0.057
-698.499	-200.000	0.000	-0.265
-697.485	-200.000	0.016	0.157
-696.470	-7.016	0.160	-0.111
-695.456	800.000	0.113	-0.446
-694.441	-124.234	0.117	0.019
-693.426	800.000	0.089	-0.280
-692.412	219.938	-0.089	0.146
-691.397	-97.869	0.210	0.056
-690.383	-63.572	-0.506	0.213
-689.368	-158.206	0.149	0.009
-688.354	-123.316	-0.511	-0.084
-687.339	-200.000	0.062	0.373
-686.324	16.685	0.038	0.031
-685.310	800.000	-0.052	-0.184
-684.295	-108.359	-0.150	0.033
-683.281	241.946	-0.184	-0.316
-682.266	-115.700	-0.208	-0.040
-681.251	390.538	-0.066	-0.140
-680.237	800.000	-0.122	-0.465
-679.222	443.264	-0.067	-0.152
-678.208	181.319	-0.028	0.043
-677.193	-200.000	0.021	0.202
-676.178	188.913	0.085	-0.131
-675.164	800.000	0.129	-0.436
-674.149	75.854	-0.229	-0.248
-673.135	-71.695	-0.071	0.027
-672.120	106.149	0.185	-0.224
-671.105	420.506	-0.115	0.252
-670.091	-47.871	-0.356	-0.176
-669.076	800.000	0.074	0.258
-668.062	-200.000	0.012	-0.430
-667.047	-16.225	-0.289	-0.188
-666.032	211.553	0.058	0.094
-665.018	-200.000	-0.040	-0.213
-664.003	174.672	0.134	0.198
-662.989	-180.361	-0.377	0.008
-661.974	-200.000	-0.016	0.160
-660.959	-22.004	-0.282	-0.176
-659.945	-59.717	-0.360	0.158
-658.930	800.000	0.028	-0.116
-657.916	97.254	-0.200	-0.235
-656.901	-43.169	0.243	-0.126
-655.886	-9.931	-0.209	-0.142
-654.872	-109.711	0.146	-0.031
-653.857	-200.000	-0.002	0.035
-652.843	41.260	0.366	0.339
-651.828	-14.100	0.108	0.071
-650.814	800.000	0.095	-0.272
-649.799	-200.000	-0.013	0.110
-648.784	524.172	0.122	-0.294
-647.770	-25.100	0.289	-0.175
-646.755	-131.081	-0.290	0.039
-645.741	800.000	0.071	0.270
-644.726	-116.927	0.212	-0.040
-643.711	800.000	0.052	0.167
-642.697	-130.985	-0.178	0.024
-641.682	800.000	-0.049	0.189
-640.668	-200.000	-0.004	0.309
-639.653	563.897	-0.076	0.188
-638.638	334.042	0.144	-0.284
-637.624	185.453	0.142	-0.215
-636.609	86.099	-0.226	-0.255
-635.595	198.138	0.151	-0.235
-634.580	-57.347	-0.128	0.058
-633.565	800.000	0.049	-0.207
-632.551	13.621	-0.169	0.134
-631.536	164.492	0.269	-0.387
-630.522	-0.933	0.262	-0.190
-629.507	6.848	-0.310	-0.236
-628.492	-176.197	-0.120	-0.003
-627.478	-149.724	0.151	-0.012
-626.463	384.869	0.071	0.149
-625.449	800.000	0.028	0.094
-624.434	84.492	0.160	0.179
-623.419	800.000	0.019	0.073
-622.405	-91.721	0.321	-0.093
-621.390	-200.000	0.002	-0.111
-620.376	70.979	0.221	0.234
-619.361	-62.981	-0.302	0.127
-618.346	-200.000	-0.078	-0.400
-617.332	-71.537	0.182	-0.070
-616.317	-200.000	0.022	-0.417
-615.303	-68.119	-0.069	0.028
-614.288	-68.877	0.061	-0.024
-613.273	-200.000	0.007	0.042
-612.259	-200.000	-0.016	-0.227
-611.244	43.030	0.102	0.095
-610.230	141.965	-0.066	-0.089
-609.215	112.475	0.093	-0.115
-608.201	186.060	-0.171	-0.259
-607.186	184.990	0.076	0.116
-606.171	-1.870	0.192	-0.138
-605.157	6.450	0.156	-0.118
-604.142	-172.082	0.296	-0.010
-603.128	-34.601	0.302	-0.169
-602.113	-74.717	-0.129	0.047
-601.098	-68.396	0.395	-0.156
-600.084	-19.901	-0.401	0.253
-599.069	-76.865	0.437	-0.156
-598.055	-28.887	-0.219	0.129
-597.040	-197.085	0.115	0.001
-596.025	-69.195	-0.405	-0.159
-595.011	-99.474	-0.361	0.093
-593.996	23.312	0.194	-0.163
-592.982	-50.808	0.235	-0.113
-591.967	-140.138	0.228	-0.024
-590.952	261.679	-0.124	0.220
-589.938	174.629	-0.132	0.194
-588.923	-124.856	-0.084	-0.013
-587.909	105.006	-0.207	0.250
-586.894	1.362	0.177	-0.130
-585.879	-57.397	-0.348	0.156
-584.865	800.000	0.081	0.261
-583.850	-200.000	-0.008	0.472
-582.836	62.784	0.214	-0.219
-581.821	-41.022	-0.137	0.072
-580.806	150.280	0.175	0.243
-579.792	17.916	-0.222	0.181
-578.777	800.000	-0.094	-0.372
-577.763	-200.000	-0.009	-0.318
-576.748	-45.375	0.156	-0.079
-575.733	100.862	0.093	-0.111
-574.719	62.766	-0.136	0.139
-573.704	666.126	-0.130	-0.343
-572.690	800.000	0.031	0.099
-571.675	9.905	-0.338	-0.262
-570.661	-133.947	-0.190	0.024
-569.646	800.000	-0.040	0.122
-568.631	444.306	0.143	-0.319
-567.617	800.000	-0.057	-0.166
-566.602	111.060	0.121	0.148
-565.588	800.000	-0.044	0.193
-564.573	-200.000	0.036	0.211
-563.558	-200.000	-0.006	0.139
-562.544	401.750	0.136	-0.291
-561.529	8.654	0.108	0.083
-560.515	95.173	0.065	-0.075
-559.500	47.001	-0.081	-0.077
-558.485	-200.000	0.076	0.574
-557.471	-129.359	0.142	0.020
-556.456	10.848	-0.080	-0.062
-555.442	116.599	-0.112	-0.140
-554.427	-200.000	0.052	0.275
-553.412	55.804	0.183	-0.181
-552.398	-23.839	0.099	-0.060
-551.383	800.000	-0.093	-0.388
-550.369	-23.019	-0.164	-0.101
-549.354	110.960	-0.173	0.212
-548.339	674.259	-0.081	0.214
-547.325	-200.000	-0.018	0.200
-546.310	-11.617	-0.216	0.144
-545.296	800.000	-0.008	-0.028
-544.281	-12.598	-0.204	-0.135
-543.266	-131.720	0.095	0.013
-542.252	-200.000	0.064	0.287
-541.237	-60.178	-0.150	0.065
-540.223	39.986	-0.254	-0.232
-539.208	-15.546	-0.162	-0.105
-538.193	-200.000	-0.183	-0.001
-537.179	452.651	0.111	0.251
-536.164	-99.933	-0.060	-0.015
-535.150	-56.851	-0.245	-0.110
-534.135	-98.418	-0.225	-0.059
-533.121	464.408	-0.018	0.041
-532.106	-138.432	-0.248	-0.028
-531.091	-73.884	-0.390	0.144
-530.077	-4.654	-0.221	-0.156
-529.062	153.901	-0.166	-0.232
-528.048	354.311	-0.090	0.182
-527.033	-200.000	-0.016	0.295
-526.018	161.871	-0.021	0.030
-525.004	67.872	-0.151	-0.157
-523.989	129.462	-0.204	0.265
-522.975	139.052	0.151	0.202
-521.960	774.034	0.117	0.326
-520.945	88.781	0.200	-0.226
-519.931	-195.925	0.306	-0.002
-518.916	3.074	0.414	-0.306
-517.902	213.399	-0.227	0.364
-516.887	800.000	-0.079	0.231
-515.872	26.928	0.097	0.083
-514.858	800.000	-0.053	0.164
-513.843	-54.034	0.213	0.099
-512.829	19.600	0.072	0.059
-511.814	439.993	0.050	0.112
-510.799	18.338	-0.096	0.078
-509.785	257.128	0.144	-0.251
-508.770	-95.773	0.170	-0.046
-507.756	-124.543	-0.069	0.011
-506.741	-200.000	0.026	-0.339
-505.726	559.452	-0.156	0.383
-504.712	-9.151	-0.360	-0.245
-503.697	800.000	0.053	-0.182
-502.683	-52.490	-0.037	-0.017
-501.668	-63.523	0.306	-0.128
-500.653	123.444	0.118	0.151
-499.639	-181.124	0.052	0.001
-498.624	389.145	0.080	-0.168
-497.610	288.791	-0.080	-0.148
-496.595	-200.000	-0.020	-0.283
-495.581	-66.902	0.185	-0.074
-494.566	-136.285	0.274	0.033
-493.551	281.594	-0.088	0.160
-492.537	-49.010	-0.199	-0.097
-491.522	16.847	0.297	0.239
-490.508	-68.130	-0.273	-0.108
-489.493	-16.512	-0.404	0.261
-488.478	270.490	-0.109	-0.194
-487.464	104.332	0.135	-0.161
-486.449	50.792	-0.135	0.129
-485.435	-170.199	-0.322	0.012
-484.420	-200.000	-0.018	0.156
-483.405	206.471	0.030	-0.048
-482.391	355.890	-0.060	-0.122
-481.376	-153.039	0.060	-0.004
-480.362	-28.729	-0.113	-0.066
-479.347	-167.462	-0.193	0.008
-478.332	268.839	0.152	0.271
-477.318	50.484	-0.090	-0.086
-476.303	637.373	-0.071	-0.183
-475.289	-150.763	0.277	0.021
-474.274	-97.653	-0.258	-0.068
-473.259	-165.769	-0.085	0.004
-472.245	-200.000	0.011	0.290
-471.230	6.359	0.097	-0.073
-470.216	-106.014	0.157	0.036
-469.201	-61.126	0.215	-0.092
-468.186	58.112	0.059	-0.059
-467.172	307.920	-0.052	0.099
-466.157	-132.693	0.144	0.019
-465.143	800.000	-0.068	-0.201
-464.128	800.000	-0.004	-0.012
-463.113	66.926	-0.127	-0.131
-462.099	-104.680	0.082	-0.019
-461.084	91.583	-0.116	0.132
-460.070	-142.231	0.090	-0.009
-459.055	-23.155	0.203	0.124
-458.040	13.731	-0.266	-0.210
-457.026	71.751	-0.176	0.185
-456.011	69.230	0.165	-0.172
-454.997	84.166	-0.099	-0.110
-453.982	-160.312	0.249	-0.014
-452.968	800.000	0.058	-0.230
-451.953	47.809	-0.068	0.064
-450.938	-82.982	0.490	-0.160
-449.924	-19.103	-0.108	0.068
-448.909	19.153	-0.428	-0.348
-447.895	204.584	-0.058	0.092
-446.880	-187.297	-0.087	0.001
-445.865	156.559	0.176	0.247
-444.851	-200.000	-0.068	0.000
-443.836	11.258	-0.021	0.016
-442.822	-200.000	0.073	-0.399
-441.807	48.540	0.153	-0.146
-440.792	713.254	0.115	0.309
-439.778	52.009	0.126	0.121
-438.763	-200.000	0.003	0.161
-437.749	-200.000	0.041	-0.208
-436.734	707.298	-0.095	-0.255
-435.719	282.491	-0.160	0.290
-434.705	-118.703	-0.205	-0.037
-433.690	536.093	0.163	-0.392
-432.676	184.609	0.076	0.115
-431.661	-35.314	0.288	0.159
-430.646	-200.000	-0.023	-0.280
-429.632	71.225	-0.151	-0.158
-428.617	54.062	-0.201	0.196
-427.603	-138.483	0.757	0.084
-426.588	-135.502	0.352	-0.043
-425.573	-134.135	0.127	0.016
-424.559	271.939	0.087	-0.156
-423.544	-89.929	0.409	0.121
-422.530	235.276	0.251	0.420
-421.515	-200.000	0.028	0.132
-420.500	128.130	0.222	0.287
-419.486	-200.000	0.079	-0.373
-418.471	7.065	-0.408	-0.308
-417.457	636.189	-0.049	-0.126
-416.442	201.175	-0.080	-0.125
-415.428	-200.000	-0.015	-0.143
-414.413	187.683	0.137	-0.207
-413.398	795.370	0.086	-0.239
-412.384	-39.209	-0.266	-0.142
-411.369	-111.783	-0.092	-0.019
-410.355	-150.595	0.172	0.013
-409.340	800.000	-0.063	-0.243
-408.325	-200.000	0.008	-0.292
-407.311	103.696	-0.198	0.235
-406.296	71.194	0.029	0.030
-405.282	245.708	-0.073	-0.125
-404.267	25.245	0.174	-0.147
-403.252	-79.097	-0.019	-0.006
-402.238	350.781	-0.148	0.297
-401.223	-55.501	-0.119	0.054
-400.209	-140.401	-0.191	-0.020
-399.194	59.827	0.058	-0.058
-398.179	52.789	-0.264	0.256
-397.165	-200.000	-0.017	-0.279
-396.150	169.463	-0.024	-0.034
-395.136	368.246	0.191	0.391
-394.121	800.000	-0.082	-0.286
-393.106	-60.800	0.125	0.054
-392.092	-200.000	0.000	-0.150
-391.077	520.763	-0.111	-0.263
-390.063	-160.339	-0.131	0.007
-389.048	-23.574	-0.291	0.177
-388.033	800.000	-0.045	0.130
-387.019	800.000	-0.198	0.665
-386.004	39.224	-0.158	0.144
-384.990	205.673	0.139	0.219
-383.975	63.132	0.050	0.051
-382.960	-200.000	0.002	-0.170
-381.946	-200.000	-0.025	-0.164
-380.931	-200.000	-0.007	0.117
-379.917	61.629	-0.049	0.050
-378.902	-83.568	0.210	0.068
-377.888	800.000	0.031	-0.097
-376.873	-200.000	0.024	0.116
-375.858	-200.000	0.027	0.299
-374.844	-166.076	-0.192	-0.008
-373.829	38.884	-0.294	-0.266
-372.815	160.940	0.148	-0.209
-371.800	-15.744	-0.158	-0.102
-370.785	-86.823	-0.250	0.077
-369.771	-200.000	0.029	-0.168
-368.756	-0.743	0.028	0.020
-367.742	795.577	-0.109	-0.304
-366.727	-145.125	-0.179	0.016
-365.712	208.598	0.216	0.342
-364.698	-6.481	0.165	-0.114
-363.683	-132.152	-0.201	0.026
-362.669	-200.000	-0.092	0.485
-361.654	106.904	0.082	-0.098
-360.639	677.632	0.099	0.261
-359.625	-200.000	-0.007	0.208
-358.610	-200.000	-0.051	0.256
-357.596	11.400	0.110	0.085
-356.581	169.882	0.041	0.059
-355.566	28.003	-0.135	-0.115
-354.552	116.686	0.114	0.142
-353.537	-200.000	-0.030	0.213
-352.523	80.601	0.081	-0.088
-351.508	-200.000	-0.012	-0.341
-350.493	-58.942	-0.095	0.041
-349.479	-134.275	0.402	0.050
-348.464	-54.876	0.291	0.133
-347.450	368.316	-0.115	0.236
-346.435	543.138	-0.086	-0.207
-345.420	331.901	-0.085	-0.165
-344.406	-95.751	-0.101	-0.027
-343.391	-156.881	-0.289	-0.018
-342.377	-46.803	0.057	-0.028
-341.362	-129.608	-0.138	-0.019
-340.348	276.033	0.207	0.371
-339.333	222.413	-0.110	0.179
-338.318	184.689	-0.074	0.111
-337.304	-200.000	-0.001	-0.141
-336.289	157.617	0.077	0.108
-335.275	-115.618	0.149	-0.028
-334.260	-10.329	0.040	-0.027
-333.245	9.330	-0.275	-0.210
-332.231	-200.000	-0.007	-0.135
-331.216	112.503	-0.141	-0.172
-330.202	-200.000	0.006	-0.055
-329.187	45.690	-0.106	-0.099
-328.172	66.801	0.132	-0.135
-327.158	800.000	0.047	0.138
-326.143	-20.389	0.215	0.133
-325.129	-80.260	0.340	0.115
-324.114	-167.028	-0.321	0.013
-323.099	-29.059	0.093	0.054
-322.085	-200.000	0.009	0.163
-321.070	128.001	0.225	-0.289
-320.056	-106.462	-0.251	0.057
-319.041	304.963	0.174	-0.327
-318.026	62.301	0.179	0.180
-317.012	-50.834	0.101	-0.048
-315.997	-98.899	-0.229	-0.059
-314.983	453.905	0.058	0.129
-313.968	-75.643	0.189	0.068
-312.953	251.129	0.041	0.071
-311.939	800.000	0.042	0.130
-310.924	-200.000	-0.029	-0.177
-309.910	425.238	-0.034	-0.073
-308.895	589.936	-0.134	-0.333
-307.880	-200.000	-0.009	-0.278
-306.866	-200.000	-0.014	0.179
-305.851	-113.857	0.148	-0.029
-304.837	-121.806	0.264	0.044
-303.822	357.109	-0.176	-0.355
-302.807	-95.227	0.184	-0.050
-301.793	-36.072	-0.038	0.021
-300.778	-43.329	0.179	0.091
-299.764	-200.000	0.011	0.207
-298.749	678.233	0.034	-0.088
-297.735	72.440	0.106	-0.112
-296.720	800.000	0.049	0.163
-295.705	800.000	-0.042	0.125
-294.691	-200.000	0.007	0.169
-293.676	-14.364	0.162	0.105
-292.662	-58.024	0.182	-0.080
-291.647	17.329	-0.214	-0.171
-290.632	-48.561	0.315	-0.153
-289.618	-53.686	0.558	-0.257
-288.603	7.380	-0.014	0.011
-287.589	-200.000	-0.001	0.171
-286.574	317.984	0.056	-0.108
-285.559	-151.510	0.166	-0.012
-284.545	-68.905	-0.254	0.099
-283.530	-13.366	-0.206	-0.134
-282.516	106.800	-0.133	-0.159
-281.501	134.865	-0.093	-0.122
-280.486	7.241	-0.136	-0.102
-279.472	258.280	0.036	-0.063
-278.457	-200.000	-0.046	-0.572
-277.443	279.240	-0.102	-0.184
-276.428	-98.127	0.112	0.029
-275.413	-6.109	0.327	0.225
-274.399	111.500	-0.035	-0.043
-273.384	30.579	-0.114	0.098
-272.370	40.170	0.048	-0.044
-271.355	-92.944	-0.214	0.060
-270.340	-34.677	-0.288	-0.159
-269.326	-3.239	-0.207	0.145
-268.311	-117.945	-0.288	0.052
-267.297	63.431	0.225	0.228
-266.282	52.602	-0.256	-0.246
-265.267	72.379	0.289	0.303
-264.253	-177.750	0.293	0.007
-263.238	6.661	0.147	0.110
-262.224	-46.756	0.254	-0.125
-261.209	-200.000	0.008	-0.169
-260.195	-82.894	-0.142	0.046
-259.180	-11.205	-0.109	-0.072
-258.165	-65.622	0.311	0.126
-257.151	-6.312	-0.084	0.058
-256.136	-101.806	0.129	-0.032
-255.122	-200.000	-0.046	0.378
-254.107	268.154	0.050	-0.087
-253.092	113.697	0.188	-0.230
-252.078	-200.000	0.031	-0.242
-251.063	47.307	-0.151	0.141
-250.049	-149.591	-0.181	-0.014
-249.034	-114.039	-0.211	0.041
-248.019	-36.049	-0.154	0.084
-247.005	800.000	-0.025	-0.101
-245.990	-54.947	0.157	-0.071
-244.976	800.000	0.107	0.391
-243.961	-58.061	-0.127	0.056
-242.946	27.011	0.299	0.252
-241.932	199.461	0.063	-0.097
-240.917	335.900	-0.048	0.093
-239.903	-30.546	0.078	0.044
-238.888	139.057	0.236	-0.312
-237.873	-200.000	-0.088	0.443
-236.859	-157.678	0.305	0.018
-235.844	-159.048	-0.214	0.012
-234.830	800.000	0.026	-0.085
-233.815	76.526	-0.085	-0.091
-232.800	90.047	-0.134	-0.151
-231.786	800.000	-0.021	0.065
-230.771	800.000	-0.051	0.162
-229.757	-112.199	0.134	0.027
-228.742	-200.000	-0.016	0.192
-227.727	-70.939	-0.278	0.105
-226.713	-69.922	-0.109	-0.042
-225.698	74.320	-0.043	0.045
-224.684	96.020	-0.164	-0.189
-223.669	400.002	0.271	0.572
-222.655	800.000	0.030	-0.107
-221.640	-200.000	-0.110	0.486
-220.625	-9.739	0.123	0.082
-219.611	-200.000	0.004	0.048
-218.596	23.705	0.288	-0.239
-217.582	-55.527	-0.222	-0.100
-216.567	800.000	-0.055	-0.218
-215.552	296.093	0.111	-0.205
-214.538	371.645	0.051	-0.105
-213.523	-200.000	-0.010	-0.074
-212.509	-169.688	-0.423	-0.015
-211.494	277.145	0.021	0.038
-210.479	-200.000	0.031	-0.254
-209.465	88.334	0.154	-0.172
-208.450	47.939	-0.225	0.211
-207.436	-59.440	-0.046	0.020
-206.421	-200.000	0.001	-0.168
-205.406	-200.000	0.005	-0.164
-204.392	3.643	-0.131	0.096
-203.377	-52.318	-0.201	0.094
-202.363	800.000	-0.047	-0.169
-201.348	-36.234	-0.236	0.128
-200.333	216.403	0.085	-0.135
-199.319	-44.631	-0.296	-0.149
-198.304	-4.955	0.119	-0.083
-197.290	-161.609	-0.205	0.011
-196.275	-60.544	0.155	0.066
-195.260	-84.360	0.211	0.067
-194.246	153.314	0.348	-0.479
-193.231	-66.251	-0.092	0.037
-192.217	-200.000	0.012	0.341
-191.202	800.000	-0.053	-0.206
-190.187	-129.886	0.098	0.014
-189.173	9.223	-0.137	0.104
-188.158	-200.000	0.017	0.234
-187.144	-110.059	-0.352	0.074
-186.129	-111.105	-0.430	-0.089
-185.114	-200.000	0.005	0.097
-184.100	-46.335	0.107	-0.053
-183.085	158.698	-0.130	-0.181
-182.071	577.822	0.052	0.127
-181.056	145.078	0.088	0.118
-180.042	800.000	0.062	-0.244
-179.027	316.769	0.135	0.256
-178.012	-122.804	0.323	0.052
-176.998	-200.000	-0.019	0.184
-175.983	2.613	-0.142	0.103
-174.969	225.767	-0.060	0.098
-173.954	-200.000	-0.009	0.066
-172.939	36.093	0.117	-0.103
-171.925	38.880	-0.277	0.249
-170.910	-117.108	0.213	0.039
-169.896	800.000	-0.113	0.454
-168.881	-61.192	0.266	0.112
-167.866	-49.718	-0.243	-0.116
-166.852	-200.000	-0.014	0.197
-165.837	284.773	0.100	-0.182
-164.823	188.265	-0.061	0.091
-163.808	564.909	-0.060	0.146
-162.793	800.000	0.066	0.220
-161.779	-200.000	0.006	0.116
-160.764	110.060	-0.124	0.150
-159.750	-34.651	-0.055	-0.030
-158.735	64.143	-0.160	0.161
-157.720	-200.000	-0.015	-0.396
-156.706	800.000	0.097	0.331
-155.691	-32.961	0.024	0.014
-154.677	216.044	0.105	-0.168
-153.662	-200.000	0.043	0.204
-152.647	256.319	0.075	0.129
-151.633	-171.830	0.209	0.007
-150.618	-124.321	-0.287	0.045
-149.604	-79.961	0.148	-0.050
-148.589	216.330	0.117	-0.186
-147.574	-200.000	-0.030	-0.148
-146.560	-200.000	0.001	-0.208
-145.545	-200.000	-0.004	-0.241
-144.531	340.274	0.084	0.165
-143.516	-200.000	-0.012	-0.084
-142.502	-120.056	0.020	-0.003
-141.487	6.710	0.192	0.143
-140.472	800.000	-0.036	-0.149
-139.458	32.223	-0.059	0.051
-138.443	-36.587	0.262	0.141
-137.429	-26.648	-0.145	-0.085
-136.414	-113.595	0.136	-0.027
-135.399	-4.061	-0.200	-0.139
-134.385	63.892	-0.164	0.165
-133.370	-200.000	-0.040	-0.261
-132.356	40.284	-0.102	-0.092
-131.341	250.088	-0.125	0.213
-130.326	-200.000	-0.011	-0.285
-129.312	800.000	0.126	-0.471
-128.297	212.697	-0.139	-0.220
-127.283	-143.158	-0.099	0.010
-126.268	-200.000	0.022	0.215
-125.253	-74.620	0.310	0.112
-124.239	-59.040	-0.170	0.073
-123.224	-143.642	-0.397	-0.038
-122.210	109.870	0.091	-0.109
-121.195	252.555	0.104	-0.178
