DTS Sentinel unit serial number:	SN413079Multiplexer serial number:	ORYXHardware model number:	OX4-SRSoftware version number:	ORYX F/W v4.00 Oryx Data Collector v3.7.2.0data status	okinstallation	princeton_trtdifferential loss correction	single-endedforward channel	channel 2reverse channel	N/Adate	2019/09/10time	23:17:10forward acquisition time	60.00reverse acquisition time	0.00gamma	496.2192k internal	0.2330k external	0.2330temperature offset calibration	0.9942default loss term (dB/km)	0.3790temperature slope calibration	1.0000multiplexer offset coefficient	1.0000multiplexer slope coefficient	1.0000fibre end	0.00T internal ref (°C)	29.86T ext. ref 1 (°C)	-0.31T ext. ref 2 (°C)	23.49length (m)	temperature (°C)	Stokes	anti-Stokes-747.200	-69.730	-0.117	0.045
-746.185	224.068	0.151	0.245
-745.171	-48.934	-0.221	-0.107
-744.156	-149.199	0.228	-0.018
-743.142	82.696	0.085	-0.093
-742.127	-9.658	-0.229	-0.154
-741.112	-200.000	-0.008	0.240
-740.098	-52.602	0.120	-0.056
-739.083	800.000	-0.067	-0.201
-738.069	-131.272	-0.180	0.024
-737.054	-151.964	0.211	-0.015
-736.039	-200.000	0.028	-0.282
-735.025	43.827	0.351	0.324
-734.010	68.879	-0.231	0.239
-732.996	800.000	-0.095	0.264
-731.981	-38.394	-0.247	-0.132
-730.966	461.210	0.165	-0.371
-729.952	-43.009	-0.233	-0.119
-728.937	800.000	-0.060	0.217
-727.923	-200.000	-0.050	-0.234
-726.908	24.817	0.080	-0.067
-725.894	-59.560	-0.220	0.095
-724.879	-200.000	-0.037	0.244
-723.864	-200.000	0.030	-0.157
-722.850	-148.823	0.321	-0.026
-721.835	-23.953	0.104	-0.063
-720.821	-200.000	-0.002	-0.050
-719.806	186.638	0.229	0.343
-718.791	172.879	-0.150	0.217
-717.777	-53.579	-0.269	-0.124
-716.762	43.050	-0.310	0.285
-715.748	-200.000	-0.004	0.066
-714.733	147.560	-0.156	-0.212
-713.718	-140.794	-0.093	-0.010
-712.704	231.485	-0.094	0.155
-711.689	-101.095	-0.212	0.052
-710.675	-89.678	-0.202	-0.060
-709.660	-43.349	0.363	-0.185
-708.645	-91.275	-0.307	0.088
-707.631	-200.000	-0.039	0.280
-706.616	-3.771	0.130	0.091
-705.602	-15.823	-0.240	-0.153
-704.587	-65.672	0.189	0.076
-703.572	-110.885	0.127	-0.026
-702.558	498.819	-0.078	-0.182
-701.543	800.000	0.057	0.226
-700.529	79.706	0.061	0.066
-699.514	-200.000	-0.032	-0.193
-698.499	252.883	-0.059	-0.100
-697.485	-87.784	0.100	-0.030
-696.470	-200.000	-0.031	-0.346
-695.456	-133.601	-0.016	-0.002
-694.441	295.107	0.152	0.279
-693.426	60.279	-0.164	0.163
-692.412	216.519	0.157	-0.251
-691.397	21.940	0.253	0.207
-690.383	21.302	-0.318	-0.259
-689.368	-81.929	0.195	0.064
-688.354	539.981	0.095	0.227
-687.339	800.000	-0.013	0.037
-686.324	28.114	-0.130	-0.110
-685.310	22.595	-0.227	-0.186
-684.295	-119.180	-0.096	-0.017
-683.281	-200.000	-0.016	0.281
-682.266	-79.408	-0.262	-0.089
-681.251	800.000	-0.031	-0.117
-680.237	211.013	0.170	-0.268
-679.222	162.443	-0.235	0.331
-678.208	-169.169	-0.161	0.006
-677.193	-200.000	0.034	-0.308
-676.178	235.434	-0.013	-0.022
-675.164	-200.000	0.039	0.281
-674.149	800.000	-0.114	-0.376
-673.135	9.080	-0.390	-0.295
-672.120	-200.000	0.006	-0.317
-671.105	91.353	-0.149	-0.168
-670.091	29.851	-0.212	-0.181
-669.076	-121.956	-0.311	0.051
-668.062	433.240	-0.128	0.279
-667.047	-200.000	0.089	-0.415
-666.032	-134.499	0.105	0.013
-665.018	-126.248	0.147	0.022
-664.003	-102.324	0.186	-0.045
-662.989	-31.259	-0.082	-0.046
-661.974	171.100	-0.182	0.262
-660.959	-137.277	-0.333	-0.038
-659.945	121.221	0.174	-0.217
-658.930	800.000	-0.163	0.463
-657.916	55.799	0.155	0.150
-656.901	73.929	0.186	0.196
-655.886	-136.168	-0.229	-0.027
-654.872	-79.552	-0.295	-0.100
-653.857	-133.323	0.130	-0.016
-652.843	-7.922	-0.313	-0.212
-651.828	-200.000	-0.027	0.192
-650.814	-60.727	-0.325	0.138
-649.799	800.000	-0.042	0.146
-648.784	-118.699	0.333	-0.059
-647.770	78.158	-0.133	-0.143
-646.755	-100.509	-0.157	0.039
-645.741	-140.238	0.111	-0.012
-644.726	-200.000	0.065	-0.449
-643.711	156.832	0.066	0.091
-642.697	417.928	-0.024	-0.052
-641.682	-47.526	-0.175	0.085
-640.668	-200.000	-0.045	-0.289
-639.653	-65.371	-0.216	-0.087
-638.638	-200.000	0.028	0.151
-637.624	-42.898	-0.282	-0.144
-636.609	-83.926	0.155	0.049
-635.595	219.931	-0.143	-0.230
-634.580	166.472	0.131	-0.187
-633.565	116.081	0.131	0.161
-632.551	49.469	-0.173	-0.163
-631.536	-200.000	0.030	-0.322
-630.522	800.000	0.042	0.186
-629.507	-200.000	-0.040	0.251
-628.492	-200.000	-0.015	0.116
-627.478	-139.207	0.268	-0.029
-626.463	355.870	0.085	-0.170
-625.449	-200.000	-0.027	-0.161
-624.434	-176.091	-0.150	-0.004
-623.419	138.541	-0.072	0.095
-622.405	-114.360	-0.581	0.112
-621.390	-19.026	-0.343	-0.214
-620.376	-200.000	0.001	0.047
-619.361	695.831	-0.064	-0.169
-618.346	-113.111	-0.337	-0.067
-617.332	-200.000	0.015	0.221
-616.317	765.467	-0.079	-0.216
-615.303	-53.563	0.205	-0.094
-614.288	-200.000	0.012	0.105
-613.273	90.378	0.250	-0.280
-612.259	-200.000	-0.198	-0.001
-611.244	-76.118	0.191	-0.068
-610.230	65.231	0.210	0.213
-609.215	800.000	0.085	0.334
-608.201	-72.325	-0.271	0.101
-607.186	67.680	-0.015	-0.015
-606.171	260.693	-0.154	-0.266
-605.157	-69.060	-0.389	0.150
-604.142	-49.422	-0.198	-0.095
-603.128	-200.000	-0.052	-0.323
-602.113	-182.139	-0.144	0.003
-601.098	-167.331	0.094	-0.004
-600.084	-151.696	0.208	0.015
-599.069	-106.041	-0.123	-0.028
-598.055	-200.000	0.035	-0.311
-597.040	17.632	-0.239	-0.190
-596.025	390.103	0.061	-0.127
-595.011	-200.000	0.013	-0.215
-593.996	313.105	-0.158	-0.298
-592.982	-49.935	-0.222	-0.105
-591.967	800.000	0.068	0.189
-590.952	-78.454	-0.189	0.065
-589.938	-200.000	0.046	-0.223
-588.923	27.392	-0.120	0.101
-587.909	-153.694	-0.277	-0.019
-586.894	111.970	-0.285	0.345
-585.879	568.077	-0.075	-0.183
-584.865	608.405	0.062	-0.155
-583.850	-112.248	-0.053	0.011
-582.836	-62.603	-0.277	0.115
-581.821	245.465	0.153	0.258
-580.806	800.000	0.074	-0.318
-579.792	213.478	0.119	0.189
-578.777	-200.000	-0.069	0.309
-577.763	-40.374	0.042	-0.022
-576.748	-55.363	-0.292	-0.131
-575.733	800.000	0.070	-0.194
-574.719	-200.000	-0.050	-0.245
-573.704	354.368	0.067	-0.134
-572.690	-65.395	0.243	-0.098
-571.675	46.258	0.109	0.101
-570.661	-155.264	0.379	0.025
-569.646	-200.000	0.014	0.378
-568.631	-120.392	-0.049	0.008
-567.617	-48.402	0.189	0.091
-566.602	150.889	0.066	0.090
-565.588	-200.000	0.050	0.382
-564.573	800.000	-0.073	-0.245
-563.558	780.180	0.102	-0.280
-562.544	155.465	-0.101	-0.139
-561.529	-200.000	-0.017	-0.139
-560.515	-10.018	-0.176	0.117
-559.500	-200.000	0.048	-0.210
-558.485	-200.000	-0.049	0.221
-557.471	13.421	-0.142	-0.110
-556.456	60.483	0.149	0.147
-555.442	11.635	-0.145	0.111
-554.427	-200.000	0.011	-0.365
-553.412	-175.616	0.303	0.008
-552.398	-200.000	0.019	-0.089
-551.383	-200.000	-0.000	0.220
-550.369	800.000	-0.033	0.121
-549.354	-58.482	0.229	0.099
-548.339	79.714	-0.050	-0.053
-547.325	190.238	0.124	0.186
-546.310	-200.000	0.062	0.289
-545.296	800.000	0.053	0.194
-544.281	162.440	-0.124	0.174
-543.266	-111.942	0.187	-0.038
-542.252	20.131	0.161	-0.130
-541.237	23.593	-0.203	-0.167
-540.223	44.928	-0.291	-0.268
-539.208	385.057	-0.153	-0.316
-538.193	34.411	-0.093	-0.081
-537.179	-63.940	0.351	0.143
-536.164	117.866	0.306	0.376
-535.150	-55.932	-0.259	-0.115
-534.135	627.102	-0.077	0.194
-533.121	-200.000	0.027	-0.329
-532.106	-94.394	0.420	0.114
-531.091	147.463	-0.206	-0.277
-530.077	-200.000	0.001	-0.013
-529.062	-136.413	-0.331	-0.038
-528.048	-53.497	0.156	0.071
-527.033	800.000	-0.106	0.463
-526.018	-21.721	-0.148	-0.090
-525.004	-138.085	0.153	-0.017
-523.989	51.531	-0.198	-0.188
-522.975	-40.043	0.230	-0.120
-521.960	-95.375	-0.361	0.097
-520.945	-148.677	0.178	0.014
-519.931	-57.075	0.277	0.122
-518.916	-200.000	0.009	0.108
-517.902	-200.000	0.007	-0.273
-516.887	2.066	-0.156	0.112
-515.872	-101.751	0.468	0.113
-514.858	268.746	-0.069	-0.121
-513.843	-113.703	-0.189	0.037
-512.829	-200.000	0.010	-0.329
-511.814	-38.857	0.081	0.042
-510.799	337.726	-0.051	-0.100
-509.785	-200.000	0.016	-0.229
-508.770	-110.909	-0.272	0.056
-507.756	-139.494	0.124	0.013
-506.741	-53.430	0.111	0.051
-505.726	-135.356	0.088	-0.010
-504.712	-200.000	0.005	-0.044
-503.697	-200.000	-0.012	-0.142
-502.683	-200.000	0.012	0.252
-501.668	-55.198	0.362	0.162
-500.653	526.986	-0.088	0.207
-499.639	398.969	0.100	0.209
-498.624	461.869	-0.076	0.168
-497.610	-200.000	0.037	-0.606
-496.595	-109.453	0.032	-0.007
-495.581	-69.668	0.409	0.156
-494.566	-82.066	-0.419	-0.137
-493.551	-72.097	0.309	0.114
-492.537	-71.405	-0.134	-0.050
-491.522	-200.000	0.017	0.106
-490.508	-200.000	0.018	0.183
-489.493	705.821	-0.165	-0.435
-488.478	800.000	0.093	-0.313
-487.464	-62.600	-0.292	0.121
-486.449	130.268	0.268	0.342
-485.435	291.654	0.073	-0.132
-484.420	121.926	0.154	-0.191
-483.405	37.775	0.224	0.198
-482.391	20.424	0.198	-0.159
-481.376	800.000	-0.046	-0.183
-480.362	679.880	-0.081	0.210
-479.347	-0.865	-0.082	-0.058
-478.332	-200.000	0.016	0.234
-477.318	-30.514	0.038	0.021
-476.303	91.142	-0.168	0.187
-475.289	-200.000	-0.024	0.145
-474.274	-135.928	0.089	-0.010
-473.259	-97.930	0.282	-0.073
-472.245	347.454	0.054	-0.105
-471.230	94.305	-0.057	-0.064
-470.216	-169.265	0.322	-0.012
-469.201	-191.714	0.188	-0.002
-468.186	-91.519	0.053	0.015
-467.172	-200.000	0.038	-0.167
-466.157	-200.000	0.046	-0.237
-465.143	-192.909	0.190	0.002
-464.128	-75.070	0.222	0.079
-463.113	800.000	-0.049	-0.209
-462.099	-89.459	0.074	0.022
-461.084	-92.578	0.215	-0.060
-460.070	-139.537	0.197	0.021
-459.055	66.320	-0.212	0.215
-458.040	-94.998	0.316	0.085
-457.026	436.909	0.074	-0.161
-456.011	-200.000	0.021	-0.230
-454.997	800.000	0.099	0.297
-453.982	712.240	0.095	0.250
-452.968	-46.156	-0.053	0.026
-451.953	26.751	-0.237	0.198
-450.938	-124.557	0.057	0.009
-449.924	569.811	0.103	-0.249
-448.909	800.000	0.067	0.187
-447.895	-13.434	0.186	-0.120
-446.880	-200.000	0.004	-0.041
-445.865	103.335	-0.047	0.054
-444.851	-200.000	0.021	-0.202
-443.836	-200.000	-0.008	-0.072
-442.822	-90.176	-0.323	0.094
-441.807	-23.149	0.240	0.144
-440.792	184.990	0.168	0.248
-439.778	-40.039	0.135	0.070
-438.763	-153.785	-0.449	-0.031
-437.749	44.298	-0.115	0.105
-436.734	40.006	0.076	-0.068
-435.719	-66.200	0.221	0.088
-434.705	-200.000	-0.025	0.124
-433.690	-16.037	-0.212	-0.134
-432.676	-155.504	-0.318	0.020
-431.661	-200.000	0.008	-0.246
-430.646	-200.000	0.042	-0.246
-429.632	119.010	0.167	0.206
-428.617	74.258	0.295	0.308
-427.603	10.228	-0.084	0.064
-426.588	14.195	-0.162	-0.125
-425.573	592.556	0.029	0.070
-424.559	-200.000	0.003	-0.014
-423.544	154.851	-0.097	-0.133
-422.530	412.519	0.079	-0.166
-421.515	-85.581	-0.152	0.047
-420.500	-67.701	-0.291	-0.113
-419.486	-95.064	-0.282	0.076
-418.471	-135.644	-0.254	-0.030
-417.457	800.000	0.056	0.167
-416.442	-110.055	-0.040	0.008
-415.428	79.355	0.339	-0.362
-414.413	267.703	0.138	0.239
-413.398	800.000	-0.067	0.274
-412.384	-200.000	0.024	0.124
-411.369	-77.715	-0.103	-0.035
-410.355	-79.077	-0.346	0.117
-409.340	171.358	-0.163	0.233
-408.325	-75.972	-0.123	0.043
-407.311	32.279	0.249	0.214
-406.296	-82.410	-0.126	0.041
-405.282	-13.492	-0.114	-0.073
-404.267	183.564	0.028	-0.041
-403.252	409.795	-0.053	0.112
-402.238	83.430	-0.074	-0.080
-401.223	404.768	-0.053	-0.110
-400.209	212.151	-0.128	0.201
-399.194	-11.363	0.144	-0.094
-398.179	800.000	-0.017	-0.053
-397.165	-43.721	0.052	-0.026
-396.150	-78.959	0.039	0.013
-395.136	-13.353	0.529	-0.341
-394.121	-150.636	0.157	-0.012
-393.106	-108.990	-0.089	-0.019
-392.092	-35.304	0.126	-0.068
-391.077	90.212	-0.104	0.115
-390.063	-57.588	0.115	-0.050
-389.048	800.000	-0.046	-0.126
-388.033	-200.000	0.012	-0.257
-387.019	-132.762	0.072	0.009
-386.004	800.000	-0.030	0.094
-384.990	122.198	-0.327	-0.405
-383.975	395.443	0.117	-0.241
-382.960	24.469	-0.056	-0.046
-381.946	-185.876	-0.145	-0.002
-380.931	800.000	0.027	0.090
-379.917	-141.138	-0.265	-0.027
-378.902	-106.900	0.176	-0.039
-377.888	-200.000	0.085	0.441
-376.873	-200.000	-0.005	0.080
-375.858	-84.818	0.084	0.026
-374.844	37.143	-0.073	0.064
-373.829	-116.835	-0.089	-0.016
-372.815	-0.072	0.319	-0.225
-371.800	800.000	0.102	-0.324
-370.785	41.199	0.127	-0.114
-369.771	60.187	0.184	0.180
-368.756	-147.548	-0.064	0.005
-367.742	-200.000	-0.085	-0.373
-366.727	157.909	-0.084	0.116
-365.712	800.000	-0.043	0.123
-364.698	-200.000	0.013	0.097
-363.683	169.278	-0.157	0.223
-362.669	134.345	0.225	0.290
-361.654	-74.329	-0.243	0.087
-360.639	-21.908	0.297	0.179
-359.625	-65.596	0.356	-0.142
-358.610	53.414	-0.086	0.082
-357.596	-138.751	-0.121	-0.013
-356.581	628.663	-0.030	0.076
-355.566	-130.728	0.409	0.055
-354.552	16.483	0.298	0.234
-353.537	-80.328	-0.322	-0.107
-352.523	-159.574	0.150	-0.008
-351.508	-21.044	-0.305	-0.185
-350.493	-11.848	0.177	-0.115
-349.479	-156.086	-0.093	-0.006
-348.464	202.466	-0.037	0.057
-347.450	800.000	-0.085	0.325
-346.435	658.372	0.063	0.160
-345.420	12.813	-0.187	-0.143
-344.406	-5.641	-0.115	-0.078
-343.391	-43.720	-0.150	0.075
-342.377	-137.838	-0.263	-0.029
-341.362	-160.947	-0.223	0.012
-340.348	-4.188	0.068	-0.047
-339.333	-38.805	-0.164	-0.086
-338.318	37.625	-0.215	-0.189
-337.304	-200.000	-0.030	-0.177
-336.289	-41.853	0.239	0.121
-335.275	26.703	-0.247	0.205
-334.260	-200.000	-0.014	0.276
-333.245	800.000	0.039	-0.164
-332.231	36.938	-0.105	-0.092
-331.216	152.029	0.107	-0.145
-330.202	-169.085	-0.113	0.004
-329.187	759.405	-0.096	-0.257
-328.172	800.000	-0.026	0.100
-327.158	800.000	-0.103	-0.317
-326.143	67.418	0.035	-0.035
-325.129	-12.088	-0.282	-0.183
-324.114	494.631	0.145	-0.330
-323.099	800.000	0.062	-0.222
-322.085	-24.934	-0.297	0.175
-321.070	27.699	0.126	0.105
-320.056	-4.359	-0.109	0.074
-319.041	98.645	0.087	-0.100
-318.026	-190.653	0.129	0.001
-317.012	-80.157	0.366	0.121
-315.997	-200.000	-0.055	0.276
-314.983	-69.136	0.252	0.096
-313.968	-132.879	0.212	0.027
-312.953	-164.911	-0.136	-0.006
-311.939	220.849	-0.159	0.253
-310.924	481.501	0.056	-0.125
-309.910	53.228	0.202	-0.192
-308.895	263.654	-0.179	0.309
-307.880	383.910	-0.120	0.244
-306.866	140.267	-0.245	-0.320
-305.851	241.020	-0.072	0.119
-304.837	-89.561	0.206	-0.060
-303.822	-70.621	-0.236	0.088
-302.807	-93.998	-0.015	-0.004
-301.793	-73.630	0.115	-0.041
-300.778	556.985	0.085	-0.202
-299.764	-44.509	0.155	-0.076
-298.749	287.039	-0.075	-0.135
-297.735	34.104	0.153	0.132
-296.720	-16.158	0.134	0.084
-295.705	-73.828	0.217	-0.078
-294.691	-73.605	0.397	-0.143
-293.676	-119.002	-0.301	0.052
-292.662	-72.646	0.418	-0.153
-291.647	800.000	-0.020	0.085
-290.632	-200.000	-0.009	-0.162
-289.618	-200.000	0.007	0.055
-288.603	-200.000	0.007	-0.065
-287.589	177.191	-0.196	-0.282
-286.574	800.000	-0.010	-0.039
-285.559	235.236	-0.150	0.245
-284.545	-72.037	0.169	0.062
-283.530	164.321	0.149	-0.208
-282.516	-73.352	0.264	-0.095
-281.501	-185.001	-0.173	0.003
-280.486	50.828	-0.205	-0.192
-279.472	-1.614	0.135	-0.094
-278.457	-200.000	-0.064	0.334
-277.443	531.837	0.091	0.214
-276.428	-200.000	-0.006	0.307
-275.413	111.677	-0.070	-0.083
-274.399	-103.035	-0.324	-0.076
-273.384	383.682	0.065	-0.133
-272.370	-94.846	0.249	-0.067
-271.355	-47.780	0.288	-0.138
-270.340	-54.162	-0.238	0.107
-269.326	-200.000	-0.075	0.473
-268.311	-71.100	0.423	0.157
-267.297	-112.456	-0.390	-0.077
-266.282	330.137	0.198	-0.376
-265.267	-51.725	-0.301	0.139
-264.253	28.951	-0.182	-0.152
-263.238	-32.886	0.320	0.176
-262.224	224.365	0.080	-0.128
-261.209	800.000	0.038	0.128
-260.195	180.842	0.460	-0.668
-259.180	261.768	-0.251	-0.429
-258.165	800.000	0.131	0.508
-257.151	-177.284	-0.195	0.005
-256.136	27.249	-0.290	0.240
-255.122	-81.680	-0.146	0.047
-254.107	-26.265	-0.050	0.029
-253.092	-169.408	0.066	0.002
-252.078	-200.000	-0.043	0.231
-251.063	-59.908	-0.199	0.084
-250.049	800.000	-0.056	0.201
-249.034	147.723	0.094	-0.126
-248.019	-118.219	0.218	0.038
-247.005	-49.349	-0.073	0.034
-245.990	-200.000	-0.036	0.341
-244.976	800.000	-0.016	0.057
-243.961	357.159	0.101	0.199
-242.946	-16.097	-0.194	0.122
-241.932	-55.025	-0.247	0.110
-240.917	159.511	-0.099	0.136
-239.903	-69.628	0.309	-0.117
-238.888	527.761	0.021	-0.049
-237.873	4.695	-0.051	0.037
-236.859	-200.000	-0.074	-0.374
-235.844	-200.000	-0.002	0.166
-234.830	-110.910	-0.147	-0.030
-233.815	-200.000	0.001	0.368
-232.800	217.062	-0.173	-0.271
-231.786	-68.775	-0.128	-0.049
-230.771	-200.000	-0.016	0.120
-229.757	228.964	-0.165	0.266
-228.742	-200.000	0.002	0.097
-227.727	-200.000	-0.008	0.127
-226.713	205.357	0.144	0.221
-225.698	-163.267	-0.086	0.004
-224.684	44.148	-0.140	-0.127
-223.669	-200.000	0.000	-0.003
-222.655	800.000	-0.093	0.300
-221.640	77.121	-0.010	0.011
-220.625	-30.596	-0.166	-0.093
-219.611	-200.000	0.035	-0.246
-218.596	800.000	0.100	-0.352
-217.582	-38.738	-0.210	-0.110
-216.567	447.923	0.105	0.228
-215.552	380.000	-0.077	-0.156
-214.538	-124.186	-0.107	0.016
-213.523	-200.000	0.012	0.068
-212.509	-200.000	0.007	-0.221
-211.494	-116.881	0.107	-0.019
-210.479	591.497	-0.150	-0.366
-209.465	-141.940	0.179	-0.018
-208.450	-34.859	0.116	-0.063
-207.436	-90.354	-0.058	-0.017
-206.421	30.499	-0.255	0.215
-205.406	800.000	-0.076	0.281
-204.392	-65.852	-0.102	-0.040
-203.377	23.672	0.168	0.136
-202.363	800.000	0.093	-0.375
-201.348	415.008	-0.055	-0.116
-200.333	342.232	-0.194	-0.374
-199.319	-0.858	0.138	0.096
-198.304	-83.992	-0.538	-0.169
-197.290	-55.806	-0.297	-0.131
-196.275	800.000	0.058	-0.179
-195.260	-71.843	0.216	0.079
-194.246	134.337	-0.197	0.252
-193.231	-99.778	-0.239	0.059
-192.217	-25.722	0.007	0.004
-191.202	-200.000	0.046	0.404
-190.187	-8.979	0.159	-0.105
-189.173	-53.138	0.281	0.127
-188.158	65.292	0.042	0.042
-187.144	-200.000	0.017	0.327
-186.129	148.363	0.261	0.347
-185.114	706.930	-0.034	-0.088
-184.100	208.418	-0.240	-0.370
-183.085	-170.709	0.447	0.015
-182.071	-200.000	-0.048	-0.372
-181.056	4.747	0.246	0.178
-180.042	-125.245	0.071	0.011
-179.027	111.058	0.148	0.176
-178.012	-28.325	-0.083	-0.047
-176.998	-1.903	-0.224	0.155
-175.983	246.485	0.109	0.181
-174.969	27.888	-0.028	-0.023
-173.954	662.680	0.182	0.461
-172.939	-200.000	-0.000	-0.060
-171.925	-200.000	0.098	0.483
-170.910	-48.669	-0.349	-0.165
-169.896	-139.162	0.247	0.026
-168.881	34.413	0.063	0.054
-167.866	174.718	-0.082	0.117
-166.852	103.146	-0.198	0.229
-165.837	-200.000	-0.023	0.201
-164.823	536.365	-0.122	0.286
-163.808	598.819	0.064	0.156
-162.793	-98.302	0.379	0.096
-161.779	124.139	0.147	0.181
-160.764	-150.125	0.432	-0.033
-159.750	2.453	0.554	-0.395
-158.735	-107.700	-0.178	-0.038
-157.720	35.901	0.098	-0.084
-156.706	26.429	0.078	-0.064
-155.691	-12.596	-0.360	-0.231
-154.677	142.528	-0.102	0.133
-153.662	95.761	-0.031	0.034
-152.647	-152.250	0.109	-0.008
-151.633	-63.895	0.227	0.091
-150.618	56.701	0.096	-0.092
-149.604	-200.000	-0.015	0.283
-148.589	800.000	-0.034	0.095
-147.574	-200.000	-0.024	0.381
-146.560	-152.818	-0.207	0.014
-145.545	606.792	0.075	-0.184
-144.531	181.920	0.150	-0.217
-143.516	-119.262	-0.309	-0.053
-142.502	-0.388	0.350	-0.244
-141.487	15.368	-0.205	-0.158
-140.472	-200.000	0.022	0.163
-139.458	-69.518	-0.154	0.058
-138.443	800.000	0.098	0.380
-137.429	-19.051	-0.290	0.178
-136.414	-200.000	0.078	0.387
-135.399	-72.346	-0.033	-0.012
-134.385	55.734	0.299	0.285
-133.370	-119.267	0.088	-0.015
-132.356	800.000	-0.012	-0.045
-131.341	-44.506	-0.056	0.028
-130.326	800.000	0.050	-0.176
-129.312	-26.349	-0.118	0.068
-128.297	394.312	0.027	0.056
-127.283	-200.000	0.005	0.053
-126.268	268.819	0.020	-0.034
-125.253	-97.893	0.363	-0.092
-124.239	800.000	0.087	-0.284
-123.224	463.594	-0.210	0.461
-122.210	14.218	0.339	0.260
