DTS Sentinel unit serial number:	SN413079Multiplexer serial number:	ORYXHardware model number:	OX4-SRSoftware version number:	ORYX F/W v4.00 Oryx Data Collector v3.7.2.0data status	okinstallation	princeton_trtdifferential loss correction	single-endedforward channel	channel 2reverse channel	N/Adate	2019/09/12time	07:01:11forward acquisition time	60.00reverse acquisition time	0.00gamma	496.2192k internal	0.2324k external	0.2324temperature offset calibration	1.0063default loss term (dB/km)	0.3790temperature slope calibration	1.0000multiplexer offset coefficient	1.0000multiplexer slope coefficient	1.0000fibre end	0.00T internal ref (°C)	32.14T ext. ref 1 (°C)	1.60T ext. ref 2 (°C)	27.41length (m)	temperature (°C)	Stokes	anti-Stokes-747.200	800.000	0.084	0.265
-746.185	3.239	-0.267	0.196
-745.171	-200.000	0.018	0.098
-744.156	-83.422	-0.234	0.076
-743.142	-105.466	0.058	0.013
-742.127	-4.225	-0.327	0.229
-741.112	208.062	-0.107	0.169
-740.098	-103.677	-0.227	0.054
-739.083	312.579	-0.105	-0.198
-738.069	42.639	0.126	0.116
-737.054	60.984	-0.151	-0.151
-736.039	-160.343	-0.037	0.002
-735.025	116.853	-0.193	-0.240
-734.010	800.000	-0.017	0.066
-732.996	-200.000	-0.029	-0.443
-731.981	0.830	-0.235	-0.170
-730.966	-200.000	-0.014	0.297
-729.952	561.727	-0.122	0.298
-728.937	800.000	0.070	-0.287
-727.923	-200.000	-0.065	-0.305
-726.908	-186.810	-0.296	0.004
-725.894	-143.161	0.253	-0.025
-724.879	-133.115	-0.208	0.027
-723.864	-89.077	-0.218	-0.065
-722.850	255.339	-0.092	0.159
-721.835	558.844	0.122	0.296
-720.821	186.700	0.105	-0.157
-719.806	-101.718	0.170	-0.041
-718.791	-200.000	-0.026	0.391
-717.777	-175.399	-0.202	-0.006
-716.762	-130.839	-0.182	0.025
-715.748	-177.689	0.191	0.005
-714.733	-146.614	-0.359	0.031
-713.718	-35.415	-0.430	-0.236
-712.704	172.828	-0.022	0.032
-711.689	-37.956	0.176	-0.094
-710.675	105.353	-0.130	0.155
-709.660	32.100	0.118	-0.102
-708.645	-108.481	-0.172	0.037
-707.631	-200.000	-0.043	-0.362
-706.616	-153.858	0.212	-0.015
-705.602	-75.372	-0.238	-0.085
-704.587	13.609	-0.027	-0.021
-703.572	166.230	-0.273	-0.389
-702.558	-109.556	-0.215	-0.046
-701.543	251.932	-0.029	0.049
-700.529	-103.720	-0.325	-0.077
-699.514	583.907	0.046	-0.114
-698.499	-95.183	0.267	-0.073
-697.485	-130.753	-0.181	-0.025
-696.470	-200.000	0.029	-0.133
-695.456	170.738	-0.037	0.053
-694.441	-146.416	-0.149	0.013
-693.426	52.698	0.147	0.142
-692.412	187.160	-0.205	-0.308
-691.397	-124.671	0.307	-0.048
-690.383	107.214	0.060	0.071
-689.368	297.806	0.082	0.151
-688.354	800.000	-0.112	0.353
-687.339	-92.085	0.009	0.003
-686.324	-182.322	-0.144	0.003
-685.310	-200.000	-0.000	-0.071
-684.295	-190.523	0.125	0.001
-683.281	-93.026	-0.084	-0.024
-682.266	-200.000	-0.049	0.344
-681.251	350.923	-0.097	0.193
-680.237	-200.000	0.051	0.292
-679.222	33.436	-0.094	-0.082
-678.208	800.000	-0.122	0.340
-677.193	100.153	-0.205	0.239
-676.178	-102.288	0.041	0.010
-675.164	155.765	0.113	-0.157
-674.149	227.591	-0.167	0.274
-673.135	85.121	0.390	0.431
-672.120	31.695	-0.054	0.047
-671.105	-38.578	0.113	0.060
-670.091	-66.240	-0.303	-0.122
-669.076	14.952	-0.306	0.241
-668.062	230.665	0.065	-0.107
-667.047	-108.472	-0.316	0.068
-666.032	729.206	-0.074	0.199
-665.018	791.743	0.158	-0.436
-664.003	74.669	0.035	-0.037
-662.989	-200.000	0.055	-0.288
-661.974	-200.000	-0.048	0.364
-660.959	-27.384	-0.137	-0.080
-659.945	-200.000	-0.058	0.428
-658.930	-167.730	-0.106	-0.004
-657.916	111.731	0.045	0.055
-656.901	10.759	0.196	0.150
-655.886	-97.738	0.160	0.042
-654.872	33.576	-0.057	0.050
-653.857	280.099	-0.150	-0.270
-652.843	150.089	-0.031	-0.043
-651.828	60.014	0.236	0.235
-650.814	199.557	0.082	-0.126
-649.799	717.703	0.168	-0.449
-648.784	67.290	-0.262	-0.268
-647.770	-23.115	0.071	0.043
-646.755	-39.415	0.256	0.135
-645.741	549.892	0.052	0.127
-644.726	-200.000	0.006	0.052
-643.711	-105.028	-0.115	0.027
-642.697	-110.605	0.339	-0.071
-641.682	-48.943	-0.137	-0.066
-640.668	-96.730	0.297	0.079
-639.653	-200.000	-0.001	0.145
-638.638	800.000	-0.040	0.114
-637.624	-73.832	-0.233	0.085
-636.609	44.854	-0.040	0.037
-635.595	-104.772	-0.147	0.034
-634.580	20.223	-0.170	0.138
-633.565	669.580	0.096	-0.251
-632.551	496.579	0.128	-0.297
-631.536	630.423	0.028	-0.072
-630.522	139.370	0.104	-0.138
-629.507	-88.575	-0.289	0.087
-628.492	-200.000	0.015	-0.138
-627.478	-99.335	-0.043	-0.011
-626.463	-12.964	0.105	0.069
-625.449	800.000	0.074	-0.288
-624.434	324.462	0.092	-0.177
-623.419	-138.790	-0.227	-0.025
-622.405	-200.000	-0.005	-0.074
-621.390	589.654	0.096	0.237
-620.376	188.264	0.121	0.182
-619.361	-200.000	0.012	0.073
-618.346	-152.562	-0.310	0.022
-617.332	-200.000	0.023	-0.162
-616.317	-200.000	-0.003	-0.166
-615.303	205.369	0.107	0.167
-614.288	-75.840	0.209	-0.074
-613.273	186.403	-0.220	0.329
-612.259	233.507	0.095	-0.157
-611.244	75.989	0.131	-0.139
-610.230	355.058	0.061	-0.121
-609.215	94.176	-0.041	0.047
-608.201	11.129	-0.367	0.282
-607.186	-53.483	-0.271	-0.125
-606.171	-134.006	0.313	-0.039
-605.157	-200.000	0.039	0.348
-604.142	80.530	0.033	-0.036
-603.128	81.620	-0.128	-0.139
-602.113	129.029	-0.086	-0.110
-601.098	126.237	0.152	0.194
-600.084	-93.592	0.233	0.065
-599.069	112.015	0.222	-0.270
-598.055	97.774	0.093	-0.108
-597.040	-38.699	-0.051	-0.027
-596.025	-200.000	-0.034	0.183
-595.011	115.351	0.119	-0.146
-593.996	-200.000	-0.073	0.355
-592.982	-129.155	-0.082	-0.012
-591.967	184.136	0.088	0.131
-590.952	-200.000	0.016	-0.178
-589.938	-200.000	0.006	-0.041
-588.923	129.740	-0.040	-0.051
-587.909	-58.218	0.102	0.044
-586.894	-185.363	0.267	-0.004
-585.879	800.000	0.011	0.032
-584.865	137.619	0.054	0.071
-583.850	-29.645	0.298	0.171
-582.836	800.000	-0.035	-0.122
-581.821	-117.445	0.308	0.056
-580.806	800.000	0.020	0.087
-579.792	348.584	0.132	-0.262
-578.777	46.949	-0.212	-0.198
-577.763	113.520	-0.288	0.351
-576.748	168.390	0.074	-0.106
-575.733	105.699	-0.107	0.127
-574.719	-81.540	-0.133	0.044
-573.704	102.919	-0.068	-0.080
-572.690	-43.098	-0.091	0.046
-571.675	-128.455	0.229	0.033
-570.661	3.463	-0.139	-0.102
-569.646	13.044	-0.176	-0.137
-568.631	221.308	0.095	0.152
-567.617	223.014	-0.104	-0.168
-566.602	51.163	0.173	-0.165
-565.588	207.489	0.101	0.158
-564.573	789.821	-0.078	0.215
-563.558	-60.993	0.342	0.145
-562.544	-61.537	0.039	-0.016
-561.529	-200.000	-0.047	0.267
-560.515	-174.447	0.143	-0.004
-559.500	800.000	-0.046	-0.191
-558.485	209.531	0.133	-0.209
-557.471	-29.983	-0.176	0.100
-556.456	800.000	0.070	0.237
-555.442	-91.032	-0.144	0.041
-554.427	-59.291	0.168	-0.072
-553.412	-92.983	-0.280	0.078
-552.398	-0.510	-0.326	-0.232
-551.383	-16.153	0.140	-0.089
-550.369	281.802	-0.043	0.077
-549.354	800.000	-0.016	-0.053
-548.339	800.000	0.066	0.216
-547.325	800.000	0.060	0.262
-546.310	-200.000	0.029	-0.180
-545.296	-133.053	-0.115	0.015
-544.281	104.385	-0.031	0.037
-543.266	275.837	0.049	0.088
-542.252	-39.772	-0.194	-0.101
-541.237	375.446	0.112	0.229
-540.223	-30.468	-0.231	-0.131
-539.208	73.677	-0.357	-0.375
-538.193	94.485	-0.287	-0.326
-537.179	-153.080	-0.073	0.005
-536.164	-133.409	0.157	0.020
-535.150	525.738	0.168	-0.396
-534.135	100.569	0.265	-0.308
-533.121	-44.132	0.195	-0.098
-532.106	80.934	-0.158	-0.171
-531.091	148.970	0.297	-0.402
-530.077	800.000	-0.051	-0.159
-529.062	-84.049	0.322	-0.103
-528.048	-13.860	-0.167	-0.108
-527.033	414.221	-0.116	0.246
-526.018	-35.214	-0.078	0.042
-525.004	-63.453	-0.377	0.155
-523.989	122.131	0.162	-0.203
-522.975	-31.543	0.251	0.141
-521.960	-28.987	-0.224	0.129
-520.945	-200.000	0.003	-0.147
-519.931	422.778	0.077	-0.165
-518.916	-45.678	-0.288	-0.142
-517.902	26.647	0.111	-0.093
-516.887	800.000	-0.055	0.179
-515.872	549.291	0.075	-0.179
-514.858	504.413	0.062	0.143
-513.843	-200.000	-0.004	-0.308
-512.829	-67.268	-0.143	-0.056
-511.814	-33.143	-0.067	0.037
-510.799	109.635	0.213	-0.256
-509.785	800.000	-0.087	0.269
-508.770	-200.000	-0.006	-0.163
-507.756	-140.110	-0.151	0.016
-506.741	235.136	0.121	0.199
-505.726	800.000	0.043	-0.159
-504.712	-5.772	0.083	0.057
-503.697	-38.533	0.113	0.060
-502.683	18.259	0.129	-0.103
-501.668	-25.491	-0.252	-0.149
-500.653	-85.261	-0.196	-0.061
-499.639	-43.658	0.175	-0.088
-498.624	-96.524	-0.165	0.044
-497.610	220.289	0.127	-0.204
-496.595	46.523	-0.173	-0.160
-495.581	102.939	0.060	0.070
-494.566	64.333	-0.298	0.300
-493.551	133.051	-0.100	0.129
-492.537	-47.002	0.140	0.068
-491.522	-113.880	0.113	0.022
-490.508	159.487	-0.121	0.169
-489.493	756.930	0.027	0.073
-488.478	105.022	-0.163	-0.192
-487.464	800.000	0.046	0.135
-486.449	-200.000	0.020	-0.258
-485.435	-139.636	-0.160	-0.017
-484.420	-42.153	-0.433	0.221
-483.405	507.687	-0.090	0.210
-482.391	-32.642	-0.308	-0.171
-481.376	-200.000	0.024	-0.134
-480.362	800.000	0.056	0.233
-479.347	-22.445	-0.021	0.012
-478.332	-110.202	0.255	-0.053
-477.318	-121.976	0.263	-0.043
-476.303	-23.345	-0.259	-0.156
-475.289	404.024	-0.070	0.147
-474.274	-78.777	0.392	0.134
-473.259	800.000	-0.028	-0.113
-472.245	-47.397	0.259	-0.126
-471.230	75.120	-0.198	-0.209
-470.216	-200.000	0.027	0.277
-469.201	-103.008	-0.028	-0.007
-468.186	20.394	-0.316	-0.255
-467.172	-76.912	0.121	-0.042
-466.157	-200.000	0.014	-0.203
-465.143	267.914	0.121	0.212
-464.128	-200.000	-0.019	-0.152
-463.113	125.562	-0.087	-0.110
-462.099	306.830	0.011	0.020
-461.084	-55.918	0.255	0.114
-460.070	-120.439	-0.295	-0.050
-459.055	157.827	-0.064	-0.089
-458.040	68.269	-0.104	-0.106
-457.026	-200.000	-0.128	0.605
-456.011	800.000	-0.051	0.211
-454.997	-74.031	0.172	-0.062
-453.982	-200.000	-0.065	0.308
-452.968	8.867	0.064	-0.048
-451.953	-92.491	0.160	0.045
-450.938	18.097	-0.092	0.073
-449.924	-82.026	0.262	0.085
-448.909	-3.468	0.122	-0.085
-447.895	-105.726	-0.172	-0.039
-446.880	186.285	-0.078	-0.115
-445.865	-200.000	-0.016	-0.114
-444.851	412.025	-0.132	-0.281
-443.836	195.241	0.172	-0.261
-442.822	-200.000	-0.034	-0.232
-441.807	653.046	-0.047	-0.119
-440.792	-200.000	0.049	0.343
-439.778	-200.000	-0.039	0.192
-438.763	-200.000	0.027	0.309
-437.749	-70.267	0.303	-0.115
-436.734	795.889	-0.060	-0.166
-435.719	-76.973	-0.207	-0.072
-434.705	37.070	-0.223	-0.197
-433.690	800.000	-0.042	-0.118
-432.676	247.220	0.195	-0.328
-431.661	-200.000	-0.211	-0.000
-430.646	-43.044	0.410	0.207
-429.632	-142.817	-0.150	0.015
-428.617	-189.087	0.251	0.003
-427.603	81.063	0.223	0.240
-426.588	165.827	0.086	-0.122
-425.573	8.875	0.182	0.137
-424.559	-200.000	0.007	0.155
-423.544	28.106	-0.070	-0.059
-422.530	-86.366	-0.156	0.048
-421.515	60.419	0.110	-0.108
-420.500	419.552	-0.036	0.078
-419.486	-4.589	0.433	-0.298
-418.471	118.609	0.081	0.100
-417.457	-200.000	0.043	-0.235
-416.442	-71.485	-0.097	0.036
-415.428	-96.082	-0.021	-0.006
-414.413	-27.050	0.266	-0.154
-413.398	681.088	0.096	0.249
-412.384	-200.000	0.004	0.225
-411.369	9.143	-0.118	-0.089
-410.355	443.984	0.077	-0.168
-409.340	-1.976	-0.290	0.203
-408.325	129.480	-0.077	0.098
-407.311	-200.000	0.043	0.232
-406.296	-41.534	-0.236	-0.121
-405.282	93.508	0.055	-0.062
-404.267	-200.000	0.099	-0.445
-403.252	-130.425	-0.436	0.059
-402.238	-66.954	0.223	0.088
-401.223	-200.000	-0.053	-0.281
-400.209	10.904	-0.181	-0.138
-399.194	-96.972	-0.529	-0.138
-398.179	-129.128	0.116	-0.016
-397.165	-7.416	0.223	0.150
-396.150	-139.591	0.254	0.027
-395.136	111.248	0.139	0.167
-394.121	-0.810	-0.200	0.141
-393.106	10.540	-0.071	-0.054
-392.092	-200.000	0.037	-0.437
-391.077	656.229	-0.111	0.283
-390.063	-136.693	-0.110	0.013
-389.048	249.887	-0.039	0.066
-388.033	-200.000	0.002	0.023
-387.019	-44.740	0.193	-0.096
-386.004	-27.483	0.148	0.086
-384.990	-148.832	-0.198	-0.016
-383.975	800.000	-0.086	-0.273
-382.960	-200.000	0.152	-0.000
-381.946	-200.000	-0.019	-0.414
-380.931	95.453	0.082	-0.093
-379.917	255.869	-0.098	0.167
-378.902	-22.024	0.225	0.136
-377.888	-200.000	0.050	-0.223
-376.873	665.587	0.031	-0.080
-375.858	-200.000	0.043	-0.278
-374.844	9.083	-0.143	0.107
-373.829	723.257	-0.137	0.363
-372.815	800.000	-0.075	0.250
-371.800	-104.098	-0.187	-0.043
-370.785	498.495	-0.086	0.197
-369.771	800.000	-0.051	-0.154
-368.756	572.709	0.070	-0.170
-367.742	639.056	-0.115	-0.291
-366.727	-10.189	0.184	0.122
-365.712	-117.640	0.345	-0.062
-364.698	358.618	-0.114	0.226
-363.683	-43.026	-0.136	0.069
-362.669	45.287	0.127	-0.116
-361.654	800.000	-0.123	0.506
-360.639	800.000	0.044	-0.161
-359.625	-94.136	-0.171	-0.047
-358.610	-10.505	0.181	-0.119
-357.596	21.427	0.165	0.133
-356.581	4.703	-0.381	-0.278
-355.566	-93.563	0.351	-0.096
-354.552	-200.000	0.007	-0.115
-353.537	64.132	-0.210	-0.210
-352.523	-200.000	0.031	-0.174
-351.508	10.283	-0.122	0.093
-350.493	-183.253	0.335	0.006
-349.479	80.630	-0.106	0.114
-348.464	237.820	-0.214	0.352
-347.450	-159.924	-0.228	-0.012
-346.435	-152.851	0.330	0.023
-345.420	-200.000	-0.019	-0.154
-344.406	-59.779	-0.063	0.027
-343.391	515.333	-0.062	0.145
-342.377	-147.950	-0.128	-0.011
-341.362	-194.861	0.331	0.003
-340.348	111.589	-0.174	-0.208
-339.333	89.704	0.120	0.133
-338.318	380.755	0.057	-0.117
-337.304	52.318	0.138	0.131
-336.289	-47.518	-0.179	-0.086
-335.275	426.769	-0.094	0.202
-334.260	23.043	0.150	-0.122
-333.245	-200.000	0.028	0.270
-332.231	541.958	0.043	0.102
-331.216	-200.000	-0.007	0.257
-330.202	33.190	-0.190	0.163
-329.187	800.000	-0.086	-0.317
-328.172	71.460	-0.085	-0.087
-327.158	-200.000	0.022	-0.235
-326.143	353.727	-0.164	0.322
-325.129	800.000	-0.106	0.435
-324.114	-105.359	-0.185	-0.042
-323.099	562.390	0.068	0.162
-322.085	-200.000	-0.029	0.334
-321.070	155.721	-0.203	-0.278
-320.056	744.313	-0.122	-0.326
-319.041	-139.853	0.234	-0.025
-318.026	29.117	-0.189	0.160
-317.012	-181.066	-0.245	-0.005
-315.997	-40.772	-0.180	-0.092
-314.983	-96.552	0.242	0.063
-313.968	800.000	-0.058	0.228
-312.953	-165.986	-0.118	-0.005
-311.939	-90.760	-0.270	0.077
-310.924	800.000	-0.082	-0.283
-309.910	1.550	0.201	-0.144
-308.895	-17.635	0.177	0.111
-307.880	83.381	0.166	0.180
-306.866	258.227	-0.074	0.127
-305.851	-200.000	0.007	-0.380
-304.837	-100.740	-0.220	0.054
-303.822	800.000	-0.081	-0.279
-302.807	-200.000	-0.054	0.268
-301.793	482.025	0.051	0.116
-300.778	-107.621	-0.289	0.063
-299.764	128.217	0.211	0.267
-298.749	136.151	0.105	-0.135
-297.735	101.385	-0.203	0.234
-296.720	-43.656	-0.082	0.041
-295.705	-127.081	-0.259	-0.038
-294.691	46.808	-0.241	0.222
-293.676	58.187	-0.304	-0.295
-292.662	166.373	-0.230	0.324
-291.647	111.783	0.218	-0.261
-290.632	-120.387	-0.101	-0.017
-289.618	66.071	0.122	-0.122
-288.603	40.900	-0.195	0.174
-287.589	-1.359	0.138	-0.096
-286.574	92.425	0.189	-0.212
-285.559	-77.551	-0.170	0.058
-284.545	800.000	0.044	-0.178
-283.530	-12.625	0.199	0.129
-282.516	379.279	0.064	-0.130
-281.501	800.000	0.038	-0.122
-280.486	-200.000	-0.082	0.480
-279.472	-200.000	-0.058	0.299
-278.457	453.113	0.100	0.220
-277.443	-133.853	-0.232	0.029
-276.428	324.137	0.101	0.192
-275.413	-200.000	0.019	-0.445
-274.399	8.819	-0.191	0.143
-273.384	157.940	0.110	-0.151
-272.370	-200.000	-0.090	-0.417
-271.355	-200.000	-0.058	0.316
-270.340	-173.913	0.222	-0.006
-269.326	280.569	-0.035	0.062
-268.311	-200.000	-0.000	-0.116
-267.297	-41.644	-0.312	0.159
-266.282	281.668	0.208	0.369
-265.267	-51.480	0.182	0.084
-264.253	394.133	-0.043	-0.089
-263.238	-121.967	-0.164	-0.027
-262.224	5.662	0.276	-0.202
-261.209	-200.000	0.035	-0.306
-260.195	317.856	0.275	0.515
-259.180	-200.000	0.072	0.426
-258.165	233.275	0.132	-0.214
-257.151	523.818	0.089	-0.208
-256.136	-38.381	0.113	-0.059
-255.122	72.154	0.200	-0.207
-254.107	358.036	-0.072	0.143
-253.092	-37.154	-0.179	0.095
-252.078	207.999	-0.074	0.114
-251.063	-183.467	0.134	0.002
-250.049	-25.736	0.063	-0.037
-249.034	-200.000	0.033	-0.256
-248.019	672.133	-0.097	0.250
-247.005	-21.289	0.099	0.060
-245.990	319.991	0.075	0.142
-244.976	-117.465	-0.037	-0.007
-243.961	-107.018	-0.318	0.070
-242.946	-200.000	0.052	-0.229
-241.932	-137.070	-0.249	0.028
-240.917	800.000	-0.079	0.291
-239.903	-22.518	0.283	-0.170
-238.888	-200.000	0.016	-0.248
-237.873	104.155	0.211	0.245
-236.859	-63.129	0.467	0.191
-235.844	-85.932	-0.306	0.094
-234.830	800.000	-0.070	-0.219
-233.815	-84.028	0.284	-0.089
-232.800	-140.450	0.399	0.041
-231.786	-175.604	-0.228	0.006
-230.771	471.284	-0.142	0.317
-229.757	-118.530	0.247	0.043
-228.742	-200.000	-0.229	-0.001
-227.727	-57.616	0.050	0.022
-226.713	262.958	0.079	0.136
-225.698	71.173	0.191	0.196
-224.684	-200.000	-0.014	0.294
-223.669	182.614	0.151	0.220
-222.655	800.000	0.130	-0.405
-221.640	-76.732	0.359	-0.124
-220.625	800.000	-0.042	0.131
-219.611	-108.410	-0.121	0.026
-218.596	-118.063	0.115	-0.020
-217.582	-36.612	0.120	0.064
-216.567	110.342	-0.020	0.023
-215.552	-70.102	-0.060	0.023
-214.538	437.132	0.140	0.301
-213.523	800.000	-0.079	0.220
-212.509	481.172	0.120	0.268
-211.494	247.811	-0.071	0.119
-210.479	758.695	0.038	0.102
-209.465	-57.641	0.188	-0.081
-208.450	-200.000	-0.030	-0.203
-207.436	79.983	0.253	-0.269
-206.421	268.188	0.110	0.190
-205.406	73.131	0.126	0.130
-204.392	-35.493	-0.130	-0.070
-203.377	605.515	-0.115	0.283
-202.363	137.905	0.092	0.119
-201.348	-177.943	-0.332	-0.008
-200.333	800.000	0.036	0.103
-199.319	23.182	-0.275	-0.223
-198.304	-81.249	0.173	0.056
-197.290	-16.145	0.157	0.099
-196.275	-200.000	0.084	-0.367
-195.260	545.656	-0.111	0.263
-194.246	-200.000	-0.003	-0.268
-193.231	22.821	0.209	-0.169
-192.217	485.026	-0.020	-0.044
-191.202	125.367	0.063	0.078
-190.187	482.244	0.155	0.347
-189.173	-80.668	-0.334	0.110
-188.158	-105.380	0.365	-0.082
-187.144	800.000	-0.045	-0.146
-186.129	-42.963	0.103	-0.052
-185.114	-200.000	0.030	-0.150
-184.100	198.342	-0.166	-0.250
-183.085	-151.593	-0.142	-0.010
-182.071	-4.298	0.287	0.196
-181.056	800.000	0.015	0.042
-180.042	265.263	-0.067	0.115
-179.027	-6.759	0.037	-0.025
-178.012	-123.739	-0.499	-0.078
-176.998	723.182	-0.081	0.212
-175.983	-102.388	-0.052	0.012
-174.969	213.220	0.085	-0.132
-173.954	-200.000	-0.074	0.330
-172.939	-200.000	-0.012	0.196
-171.925	-200.000	0.005	0.163
-170.910	-133.827	0.231	0.028
-169.896	800.000	0.043	-0.129
-168.881	70.079	-0.154	-0.157
-167.866	283.591	-0.121	-0.214
-166.852	74.277	0.248	0.257
-165.837	-135.882	-0.255	-0.030
-164.823	-93.931	0.193	0.052
-163.808	345.506	-0.058	-0.112
-162.793	75.997	-0.314	0.328
-161.779	53.749	-0.131	0.124
-160.764	349.265	-0.116	-0.226
-159.750	-73.330	0.142	0.051
-158.735	696.985	0.068	-0.176
-157.720	-118.174	-0.199	0.035
-156.706	85.947	0.182	-0.198
-155.691	218.861	0.170	0.268
-154.677	278.085	0.029	-0.050
-153.662	57.386	-0.247	-0.238
-152.647	-63.172	0.110	0.045
-151.633	-200.000	0.084	-0.371
-150.618	-39.464	-0.111	-0.057
-149.604	800.000	0.045	-0.132
-148.589	-50.321	-0.041	-0.019
-147.574	-107.919	-0.309	0.066
-146.560	470.164	-0.093	-0.206
-145.545	314.301	-0.096	0.179
-144.531	21.551	-0.382	0.307
-143.516	-37.289	0.366	0.193
-142.502	-152.389	-0.124	0.009
-141.487	-200.000	0.058	0.361
-140.472	249.084	0.070	0.117
-139.458	212.240	0.256	-0.398
-138.443	-200.000	0.033	-0.245
-137.429	-88.038	0.161	-0.048
-136.414	-200.000	-0.019	-0.246
-135.399	16.291	0.324	-0.252
-134.385	-200.000	-0.011	0.199
-133.370	-77.640	-0.035	0.012
-132.356	5.857	-0.129	0.094
-131.341	108.189	-0.062	-0.073
-130.326	-109.573	0.289	0.060
-129.312	261.637	-0.037	0.064
-128.297	424.956	-0.100	-0.211
-127.283	52.331	0.017	0.016
-126.268	-200.000	0.013	0.168
-125.253	-92.555	-0.267	0.074
-124.239	-139.349	-0.193	-0.020
-123.224	278.778	0.069	-0.121
-122.210	64.889	-0.084	0.083
-121.195	-200.000	-0.036	-0.380
