DTS Sentinel unit serial number:	SN413079Multiplexer serial number:	ORYXHardware model number:	OX4-SRSoftware version number:	ORYX F/W v4.00 Oryx Data Collector v3.7.2.0data status	okinstallation	princeton_trtdifferential loss correction	single-endedforward channel	channel 2reverse channel	N/Adate	2019/09/10time	15:49:11forward acquisition time	60.00reverse acquisition time	0.00gamma	496.2192k internal	0.2308k external	0.2308temperature offset calibration	0.9936default loss term (dB/km)	0.3790temperature slope calibration	1.0000multiplexer offset coefficient	1.0000multiplexer slope coefficient	1.0000fibre end	0.00T internal ref (°C)	38.06T ext. ref 1 (°C)	-0.28T ext. ref 2 (°C)	32.94length (m)	temperature (°C)	Stokes	anti-Stokes-747.200	-23.291	0.303	0.185
-746.185	-200.000	-0.084	0.442
-745.171	13.290	-0.163	0.128
-744.156	-200.000	0.004	-0.089
-743.142	149.324	0.111	-0.152
-742.127	159.715	0.130	0.183
-741.112	450.244	-0.063	-0.140
-740.098	-0.382	-0.102	-0.074
-739.083	-200.000	-0.028	-0.195
-738.069	46.235	0.158	0.149
-737.054	5.326	-0.160	0.120
-736.039	-187.649	-0.248	-0.003
-735.025	352.761	0.105	-0.212
-734.010	668.897	-0.217	-0.570
-732.996	-200.000	-0.016	-0.104
-731.981	130.186	-0.057	-0.074
-730.966	512.013	0.071	0.167
-729.952	65.128	-0.022	-0.023
-728.937	-57.801	-0.107	-0.047
-727.923	-58.732	-0.328	-0.144
-726.908	-171.093	-0.124	0.004
-725.894	-200.000	-0.038	-0.332
-724.879	335.800	-0.097	-0.192
-723.864	236.071	-0.122	0.204
-722.850	-1.089	-0.295	-0.212
-721.835	-159.929	-0.375	0.021
-720.821	-68.690	0.119	-0.047
-719.806	-6.200	-0.109	-0.076
-718.791	150.611	-0.072	0.100
-717.777	-91.824	-0.103	0.030
-716.762	-152.924	0.061	0.004
-715.748	241.691	-0.136	0.231
-714.733	-98.200	-0.098	0.025
-713.718	4.218	-0.077	0.057
-712.704	62.646	0.192	-0.195
-711.689	288.846	0.064	0.119
-710.675	154.195	-0.177	-0.247
-709.660	137.611	0.078	0.104
-708.645	-200.000	0.014	0.145
-707.631	-118.815	0.289	0.052
-706.616	608.435	-0.082	0.208
-705.602	123.287	-0.115	0.146
-704.587	-200.000	-0.008	-0.071
-703.572	-200.000	-0.032	-0.256
-702.558	106.895	0.167	-0.201
-701.543	-131.127	-0.232	0.031
-700.529	353.042	0.076	-0.153
-699.514	800.000	-0.028	-0.094
-698.499	-67.285	-0.089	-0.035
-697.485	51.618	-0.135	-0.130
-696.470	-115.373	0.193	-0.037
-695.456	-0.164	0.148	0.107
-694.441	-17.233	-0.141	0.090
-693.426	68.791	-0.146	-0.152
-692.412	502.591	0.029	-0.068
-691.397	125.011	0.102	-0.131
-690.383	119.563	-0.038	-0.047
-689.368	-35.631	0.159	0.087
-688.354	392.982	-0.048	-0.101
-687.339	-99.634	-0.149	-0.038
-686.324	800.000	0.036	-0.160
-685.310	168.776	-0.246	-0.356
-684.295	48.214	-0.336	-0.319
-683.281	-66.631	-0.184	-0.074
-682.266	-111.908	-0.259	0.053
-681.251	314.079	-0.038	0.073
-680.237	15.086	-0.165	-0.131
-679.222	800.000	-0.029	0.106
-678.208	800.000	-0.035	-0.106
-677.193	137.083	-0.207	-0.275
-676.178	-200.000	-0.022	-0.268
-675.164	-200.000	0.002	0.285
-674.149	800.000	-0.121	0.355
-673.135	-200.000	0.009	-0.148
-672.120	-79.138	0.160	-0.055
-671.105	-95.601	0.268	-0.073
-670.091	800.000	-0.070	-0.216
-669.076	-200.000	0.034	0.161
-668.062	-200.000	0.008	0.209
-667.047	-200.000	-0.051	0.263
-666.032	-0.760	-0.180	-0.129
-665.018	29.493	0.070	-0.060
-664.003	4.670	-0.103	0.077
-662.989	60.141	0.074	-0.074
-661.974	-200.000	-0.002	0.017
-660.959	-200.000	0.013	0.158
-659.945	-7.144	0.213	-0.146
-658.930	739.654	-0.054	-0.148
-657.916	295.473	0.064	-0.118
-656.901	211.603	0.123	0.196
-655.886	334.101	-0.062	-0.121
-654.872	-144.324	0.144	0.014
-653.857	-200.000	-0.003	0.074
-652.843	800.000	-0.096	0.286
-651.828	98.925	0.098	0.115
-650.814	-51.312	0.295	-0.140
-649.799	296.462	-0.119	0.222
-648.784	-164.551	0.263	-0.012
-647.770	56.635	-0.319	-0.315
-646.755	35.481	0.045	0.040
-645.741	189.626	-0.110	0.167
-644.726	-10.797	0.025	-0.017
-643.711	-200.000	-0.022	0.303
-642.697	-200.000	-0.011	-0.213
-641.682	-90.154	-0.254	-0.075
-640.668	-172.222	0.317	-0.010
-639.653	-200.000	-0.014	-0.101
-638.638	45.888	0.136	0.127
-637.624	625.983	0.071	0.181
-636.609	-200.000	0.016	0.074
-635.595	257.325	0.190	-0.331
-634.580	-114.397	-0.197	0.038
-633.565	207.873	0.104	0.164
-632.551	14.401	0.054	0.042
-631.536	364.373	0.132	0.269
-630.522	-47.647	0.071	0.035
-629.507	-46.198	-0.184	0.092
-628.492	800.000	0.080	0.263
-627.478	-122.806	0.302	-0.049
-626.463	560.313	-0.131	0.319
-625.449	-200.000	0.033	-0.387
-624.434	-200.000	0.026	0.119
-623.419	356.121	0.053	0.106
-622.405	311.907	0.234	-0.445
-621.390	128.549	0.138	0.177
-620.376	-66.839	0.161	-0.065
-619.361	-78.798	0.322	-0.111
-618.346	460.917	0.025	0.056
-617.332	-47.267	0.185	0.091
-616.317	9.792	0.048	-0.037
-615.303	104.143	-0.066	0.079
-614.288	121.556	-0.124	0.156
-613.273	-11.392	0.291	-0.194
-612.259	-200.000	0.011	0.098
-611.244	-93.870	0.227	-0.063
-610.230	-174.282	0.271	0.008
-609.215	128.041	0.225	-0.290
-608.201	364.727	-0.082	-0.167
-607.186	637.520	-0.063	0.162
-606.171	-200.000	-0.010	-0.314
-605.157	-103.034	0.186	-0.045
-604.142	187.140	-0.186	-0.281
-603.128	-34.961	-0.232	-0.128
-602.113	-200.000	-0.019	0.107
-601.098	32.634	-0.072	-0.063
-600.084	-200.000	-0.039	-0.332
-599.069	-200.000	-0.004	-0.177
-598.055	367.436	0.055	0.113
-597.040	800.000	0.039	-0.125
-596.025	800.000	-0.065	0.262
-595.011	-70.515	0.078	0.030
-593.996	-27.257	0.073	0.043
-592.982	-200.000	0.051	-0.269
-591.967	105.306	-0.145	-0.173
-590.952	800.000	0.085	-0.251
-589.938	-71.279	-0.337	0.128
-588.923	-99.697	0.037	0.009
-587.909	-94.500	-0.166	-0.046
-586.894	-16.417	0.785	-0.503
-585.879	241.288	-0.132	-0.223
-584.865	310.552	0.054	0.103
-583.850	-117.395	0.244	0.045
-582.836	-200.000	0.035	-0.331
-581.821	800.000	0.040	0.113
-580.806	432.441	-0.142	-0.311
-579.792	103.436	0.117	-0.139
-578.777	-51.986	-0.414	0.195
-577.763	44.115	-0.153	0.141
-576.748	-200.000	0.008	-0.202
-575.733	-197.028	-0.193	-0.001
-574.719	-37.891	0.100	-0.054
-573.704	-53.940	0.166	0.076
-572.690	-200.000	0.025	0.229
-571.675	36.877	-0.239	-0.214
-570.661	-33.742	-0.163	0.091
-569.646	-164.681	0.246	0.011
-568.631	457.238	-0.130	0.291
-567.617	-50.866	-0.200	0.095
-566.602	-18.047	-0.398	-0.252
-565.588	-71.981	0.195	-0.073
-564.573	145.630	0.304	-0.411
-563.558	484.848	0.061	-0.141
-562.544	402.319	0.060	0.128
-561.529	31.490	0.139	-0.120
-560.515	134.425	0.100	-0.130
-559.500	-200.000	-0.034	-0.458
-558.485	-200.000	-0.038	-0.504
-557.471	766.404	0.087	-0.240
-556.456	-103.232	0.255	0.061
-555.442	-200.000	0.019	0.184
-554.427	-36.166	-0.206	0.112
-553.412	-179.319	-0.335	-0.007
-552.398	800.000	0.013	0.049
-551.383	-99.633	0.143	0.036
-550.369	317.594	-0.065	-0.125
-549.354	-200.000	0.003	0.403
-548.339	629.491	0.088	-0.226
-547.325	-51.754	-0.130	-0.061
-546.310	84.572	-0.092	0.101
-545.296	64.509	-0.062	-0.064
-544.281	59.473	0.102	0.102
-543.266	-171.630	-0.528	0.018
-542.252	31.514	-0.165	0.143
-541.237	-102.216	0.110	0.027
-540.223	57.151	0.223	-0.220
-539.208	-73.317	-0.204	-0.075
-538.193	-200.000	-0.009	0.094
-537.179	73.275	-0.046	-0.049
-536.164	-101.466	-0.142	0.035
-535.150	-72.661	0.121	0.045
-534.135	-101.861	0.263	0.064
-533.121	74.287	-0.131	0.138
-532.106	131.415	0.020	-0.026
-531.091	-12.604	-0.141	-0.093
-530.077	-17.553	0.151	0.096
-529.062	-200.000	-0.030	-0.141
-528.048	-119.488	-0.058	-0.010
-527.033	157.286	-0.245	-0.342
-526.018	800.000	-0.048	0.158
-525.004	-200.000	0.018	-0.138
-523.989	-81.761	-0.297	-0.098
-522.975	-129.544	-0.272	0.038
-521.960	800.000	0.008	-0.027
-520.945	-200.000	0.009	0.158
-519.931	95.860	-0.239	0.274
-518.916	35.773	0.218	-0.193
-517.902	800.000	-0.062	-0.179
-516.887	-137.880	-0.118	0.013
-515.872	293.701	-0.071	0.131
-514.858	-135.575	0.262	0.031
-513.843	-90.792	-0.382	-0.111
-512.829	800.000	-0.034	-0.123
-511.814	-157.947	-0.104	0.006
-510.799	-124.017	0.136	0.022
-509.785	800.000	0.036	0.106
-508.770	77.863	0.091	-0.097
-507.756	-148.923	0.251	0.020
-506.741	62.371	-0.105	-0.106
-505.726	135.364	-0.102	-0.134
-504.712	-97.906	-0.220	-0.057
-503.697	-200.000	-0.290	-0.000
-502.683	-200.000	0.003	-0.279
-501.668	-37.522	0.070	0.037
-500.653	-128.360	-0.094	-0.013
-499.639	-200.000	0.043	0.208
-498.624	-143.371	-0.187	0.018
-497.610	9.710	0.091	-0.070
-496.595	800.000	-0.072	0.248
-495.581	-200.000	-0.021	-0.129
-494.566	-16.864	0.097	0.062
-493.551	-9.709	-0.088	-0.059
-492.537	-81.149	-0.416	-0.138
-491.522	129.629	0.188	-0.241
-490.508	-135.932	0.376	0.045
-489.493	-151.510	-0.020	-0.002
-488.478	800.000	0.101	-0.296
-487.464	-200.000	-0.012	-0.245
-486.449	174.432	-0.060	-0.088
-485.435	800.000	-0.047	0.177
-484.420	14.604	0.148	0.117
-483.405	800.000	-0.030	0.089
-482.391	28.062	0.152	0.129
-481.376	-79.864	-0.265	0.090
-480.362	160.746	-0.038	0.054
-479.347	-0.805	-0.375	0.267
-478.332	-53.532	0.186	0.085
-477.318	-200.000	0.035	0.206
-476.303	333.426	0.085	0.166
-475.289	80.299	-0.217	-0.235
-474.274	-60.091	0.115	-0.049
-473.259	63.147	-0.142	0.143
-472.245	800.000	0.030	0.097
-471.230	-200.000	0.016	-0.104
-470.216	-200.000	0.052	-0.280
-469.201	571.724	-0.041	0.100
-468.186	-109.766	-0.193	-0.041
-467.172	-18.245	0.076	0.048
-466.157	204.430	0.159	-0.248
-465.143	-144.008	-0.238	0.023
-464.128	202.593	-0.149	0.231
-463.113	4.770	-0.241	-0.178
-462.099	12.649	0.056	-0.043
-461.084	-95.099	-0.294	0.080
-460.070	800.000	-0.026	-0.105
-459.055	-110.303	-0.375	0.078
-458.040	-194.950	0.105	-0.001
-457.026	100.312	-0.071	0.083
-456.011	283.697	0.029	-0.052
-454.997	-89.176	-0.469	0.139
-453.982	-46.290	0.097	-0.048
-452.968	627.068	-0.047	-0.119
-451.953	-133.624	-0.418	-0.053
-450.938	17.785	0.137	0.110
-449.924	-200.000	0.039	-0.236
-448.909	-200.000	-0.019	0.193
-447.895	60.643	0.141	-0.140
-446.880	-195.303	-0.608	0.005
-445.865	-200.000	0.000	-0.002
-444.851	-50.322	0.048	-0.023
-443.836	-39.775	-0.131	0.069
-442.822	225.724	-0.077	-0.125
-441.807	-154.383	0.181	-0.012
-440.792	-200.000	0.039	-0.261
-439.778	40.562	-0.395	-0.358
-438.763	175.057	-0.091	0.132
-437.749	-56.328	-0.249	0.111
-436.734	-51.842	0.078	-0.037
-435.719	800.000	0.017	-0.073
-434.705	350.526	0.109	-0.216
-433.690	205.445	0.064	0.100
-432.676	-200.000	0.011	0.093
-431.661	-200.000	-0.003	0.364
-430.646	800.000	0.042	0.116
-429.632	-15.190	0.094	-0.061
-428.617	-200.000	0.007	-0.219
-427.603	-127.794	-0.163	0.024
-426.588	-200.000	0.011	0.111
-425.573	147.471	0.127	0.171
-424.559	800.000	-0.045	0.154
-423.544	800.000	0.020	-0.082
-422.530	35.371	0.209	0.184
-421.515	-88.804	0.044	-0.013
-420.500	800.000	-0.093	0.358
-419.486	-102.954	0.226	-0.054
-418.471	-41.032	-0.399	-0.207
-417.457	74.040	-0.150	-0.158
-416.442	-200.000	0.050	0.236
-415.428	-14.172	0.159	0.103
-414.413	562.171	-0.073	0.177
-413.398	-163.257	-0.298	0.014
-412.384	-22.629	0.190	0.115
-411.369	-8.760	0.151	0.101
-410.355	702.841	0.032	0.084
-409.340	800.000	0.104	0.318
-408.325	78.943	-0.053	0.057
-407.311	-94.654	-0.108	-0.030
-406.296	-107.961	0.212	-0.046
-405.282	-200.000	-0.063	-0.425
-404.267	-123.572	0.297	0.047
-403.252	800.000	0.024	0.083
-402.238	514.210	-0.012	-0.027
-401.223	247.112	-0.082	0.139
-400.209	-122.717	-0.420	-0.068
-399.194	121.245	0.155	0.193
-398.179	12.105	0.256	-0.198
-397.165	34.621	0.151	0.133
-396.150	97.418	0.087	-0.100
-395.136	-200.000	-0.020	0.097
-394.121	800.000	0.033	-0.123
-393.106	-97.553	-0.081	-0.021
-392.092	-200.000	0.004	0.127
-391.077	-44.337	0.015	0.008
-390.063	-57.084	-0.433	0.191
-389.048	-200.000	-0.022	0.168
-388.033	-111.767	0.272	0.055
-387.019	800.000	-0.069	0.245
-386.004	-200.000	-0.329	0.000
-384.990	-115.236	0.095	-0.018
-383.975	-49.540	0.191	-0.091
-382.960	-200.000	0.002	-0.141
-381.946	-101.745	0.045	-0.011
-380.931	-87.454	-0.243	0.074
-379.917	53.907	0.163	-0.157
-378.902	203.934	0.069	0.107
-377.888	-98.762	-0.149	0.038
-376.873	88.854	-0.056	-0.062
-375.858	800.000	-0.071	-0.223
-374.844	-68.121	0.195	-0.076
-373.829	-200.000	0.014	0.305
-372.815	140.746	0.004	-0.005
-371.800	-200.000	-0.026	0.294
-370.785	53.200	-0.191	-0.183
-369.771	800.000	-0.095	0.289
-368.756	-200.000	-0.019	-0.357
-367.742	-194.362	0.409	-0.003
-366.727	229.251	-0.031	-0.050
-365.712	-118.500	0.069	-0.012
-364.698	800.000	-0.075	0.280
-363.683	800.000	0.090	0.344
-362.669	-82.932	-0.271	0.088
-361.654	284.002	0.151	-0.273
-360.639	800.000	0.084	0.260
-359.625	-16.341	0.254	0.161
-358.610	-200.000	0.010	0.080
-357.596	-200.000	0.026	0.163
-356.581	198.164	-0.152	-0.233
-355.566	800.000	-0.085	-0.274
-354.552	425.592	0.047	-0.101
-353.537	67.705	0.052	0.053
-352.523	21.050	-0.204	0.166
-351.508	-200.000	0.016	0.220
-350.493	-33.694	0.215	0.119
-349.479	-35.983	-0.279	-0.151
-348.464	426.118	0.120	0.259
-347.450	-200.000	0.018	0.233
-346.435	-55.265	-0.173	0.078
-345.420	-83.966	0.227	-0.072
-344.406	-101.497	0.347	-0.084
-343.391	-156.339	-0.468	0.029
-342.377	143.480	-0.025	-0.033
-341.362	-117.352	-0.327	0.059
-340.348	-149.001	0.110	-0.009
-339.333	465.372	0.057	0.127
-338.318	-200.000	-0.016	-0.094
-337.304	401.954	0.120	-0.253
-336.289	-48.958	-0.170	0.081
-335.275	27.601	-0.080	0.068
-334.260	325.431	-0.109	-0.208
-333.245	-41.402	-0.138	0.071
-332.231	-4.186	-0.090	-0.063
-331.216	-71.764	-0.136	-0.051
-330.202	205.696	0.083	0.129
-329.187	-200.000	-0.059	-0.363
-328.172	200.378	-0.046	0.070
-327.158	73.845	0.204	0.214
-326.143	-200.000	0.025	-0.111
-325.129	-60.868	0.226	0.096
-324.114	-200.000	0.014	0.216
-323.099	4.661	-0.401	-0.294
-322.085	-31.734	-0.322	-0.180
-321.070	-123.251	-0.205	0.033
-320.056	313.041	-0.046	0.086
-319.041	-21.944	0.133	0.081
-318.026	-40.066	-0.111	0.058
-317.012	-94.805	-0.242	0.066
-315.997	-100.148	0.357	-0.089
-314.983	-144.711	0.174	0.016
-313.968	-80.347	0.144	-0.048
-312.953	-108.601	0.247	-0.053
-311.939	37.986	-0.056	-0.050
-310.924	-127.599	0.335	-0.049
-309.910	651.748	-0.150	0.385
-308.895	13.150	0.338	-0.262
-307.880	-165.158	-0.163	0.007
-306.866	-160.633	-0.161	0.009
-305.851	9.330	0.129	0.097
-304.837	800.000	0.081	0.285
-303.822	-100.563	0.141	0.035
-302.807	-15.116	-0.173	-0.111
-301.793	-57.664	-0.114	-0.050
-300.778	-71.325	0.237	0.089
-299.764	-49.453	0.233	0.111
-298.749	232.655	-0.066	0.109
-297.735	189.060	0.127	-0.190
-296.720	-94.881	0.173	-0.047
-295.705	-200.000	0.116	-0.515
-294.691	-55.760	0.282	-0.126
-293.676	800.000	0.096	0.335
-292.662	-105.407	0.416	0.094
-291.647	-200.000	0.012	0.169
-290.632	-200.000	-0.007	-0.118
-289.618	-200.000	-0.040	-0.291
-288.603	5.939	0.102	0.075
-287.589	38.990	0.024	0.021
-286.574	477.362	0.104	-0.234
-285.559	-200.000	-0.032	-0.314
-284.545	-57.078	-0.581	-0.256
-283.530	-37.121	0.130	-0.069
-282.516	800.000	-0.078	0.250
-281.501	-200.000	-0.029	0.196
-280.486	-75.270	-0.129	0.046
-279.472	-60.867	0.285	0.120
-278.457	105.870	-0.303	-0.358
-277.443	-200.000	-0.035	-0.218
-276.428	-58.264	-0.034	0.015
-275.413	-135.829	-0.204	0.024
-274.399	-129.848	-0.271	0.037
-273.384	8.675	-0.215	0.162
-272.370	-33.753	-0.123	-0.068
-271.355	-63.470	-0.142	0.058
-270.340	311.098	0.072	0.134
-269.326	99.838	-0.088	-0.102
-268.311	32.394	-0.080	0.069
-267.297	-55.776	0.231	-0.103
-266.282	259.613	0.062	-0.107
-265.267	14.455	-0.137	0.106
-264.253	800.000	0.037	-0.118
-263.238	63.135	0.011	0.011
-262.224	-22.179	-0.169	0.102
-261.209	-106.812	0.211	-0.047
-260.195	-130.002	0.173	-0.024
-259.180	-89.933	0.066	-0.019
-258.165	13.013	-0.111	-0.086
-257.151	-77.665	-0.129	0.045
-256.136	27.773	0.087	-0.073
-255.122	522.798	-0.054	0.126
-254.107	-200.000	0.048	-0.368
-253.092	427.230	0.134	0.289
-252.078	-45.762	0.219	-0.108
-251.063	688.570	0.089	0.231
-250.049	211.682	-0.069	-0.109
-249.034	144.610	0.104	0.139
-248.019	358.886	0.003	-0.006
-247.005	1.950	0.189	-0.136
-245.990	-90.907	-0.353	0.101
-244.976	318.651	0.079	-0.150
-243.961	-200.000	-0.068	-0.483
-242.946	-154.958	-0.250	0.016
-241.932	-4.246	0.272	-0.188
-240.917	-200.000	-0.038	0.343
-239.903	-200.000	-0.050	0.316
-238.888	-79.512	0.102	0.034
-237.873	800.000	0.099	0.365
-236.859	-129.261	-0.189	0.026
-235.844	-200.000	0.011	0.099
-234.830	-200.000	-0.035	0.230
-233.815	453.394	-0.048	-0.106
-232.800	-200.000	0.041	-0.223
-231.786	677.935	-0.058	0.150
-230.771	800.000	0.048	0.207
-229.757	156.252	-0.066	-0.091
-228.742	-200.000	0.033	0.284
-227.727	-176.272	0.124	0.003
-226.713	30.231	0.133	-0.113
-225.698	83.176	0.273	-0.296
-224.684	-200.000	-0.046	0.411
-223.669	135.534	-0.115	0.150
-222.655	95.540	-0.070	-0.079
-221.640	-49.386	-0.128	-0.061
-220.625	-200.000	0.015	0.184
-219.611	800.000	0.086	-0.278
-218.596	-97.535	0.096	-0.025
-217.582	760.818	0.134	0.363
-216.567	-83.569	0.316	0.101
-215.552	5.812	0.067	-0.050
-214.538	445.014	0.075	-0.164
-213.523	14.918	0.066	0.051
-212.509	800.000	-0.032	0.109
-211.494	183.519	-0.172	0.253
-210.479	551.621	0.113	-0.269
-209.465	-140.946	0.250	-0.026
-208.450	-10.305	0.202	-0.133
-207.436	-18.079	0.184	0.115
-206.421	240.056	-0.097	0.160
-205.406	-102.528	0.286	0.068
-204.392	76.322	-0.063	0.066
-203.377	-200.000	0.122	0.555
-202.363	-200.000	-0.010	0.243
-201.348	-77.231	0.234	-0.081
-200.333	-138.663	0.363	-0.040
-199.319	-74.718	0.216	0.077
-198.304	280.961	0.059	-0.106
-197.290	-53.000	0.351	0.161
-196.275	310.882	-0.014	-0.025
-195.260	-56.604	0.080	-0.035
-194.246	-17.635	-0.215	-0.135
-193.231	508.889	0.049	0.113
-192.217	-200.000	0.046	-0.213
-191.202	-200.000	-0.069	-0.465
-190.187	6.250	0.064	-0.047
-189.173	38.746	-0.060	-0.053
-188.158	3.606	-0.142	0.103
-187.144	-165.166	-0.267	-0.012
-186.129	-157.042	0.272	-0.017
-185.114	216.630	-0.082	-0.131
-184.100	800.000	-0.050	0.183
-183.085	-29.533	0.407	-0.232
-182.071	483.222	-0.046	0.105
-181.056	-152.788	0.027	0.002
-180.042	111.965	0.127	0.152
-179.027	423.423	-0.151	0.322
-178.012	800.000	-0.042	-0.181
-176.998	-40.803	-0.066	-0.034
-175.983	-27.789	-0.127	0.073
-174.969	-200.000	0.017	0.341
-173.954	469.870	-0.051	-0.114
-172.939	-200.000	0.010	0.280
-171.925	-166.596	0.156	-0.006
-170.910	316.120	0.019	0.035
-169.896	-125.196	-0.360	0.055
-168.881	452.530	0.079	0.173
-167.866	-0.931	0.160	-0.112
-166.852	180.621	-0.283	0.413
-165.837	-200.000	-0.016	-0.071
-164.823	125.726	-0.164	-0.206
-163.808	-105.061	0.090	-0.020
-162.793	49.434	0.025	0.023
-161.779	-63.292	-0.111	-0.045
-160.764	13.807	0.366	-0.283
-159.750	-153.773	-0.295	-0.020
-158.735	145.495	0.218	0.289
-157.720	-61.667	0.194	0.081
-156.706	-56.561	0.255	0.112
-155.691	77.791	-0.134	-0.142
-154.677	228.644	0.043	-0.069
-153.662	101.475	-0.210	0.243
-152.647	34.114	-0.254	-0.220
-151.633	-3.235	0.259	-0.179
-150.618	-157.630	-0.257	0.015
-149.604	284.510	-0.196	-0.351
-148.589	688.727	-0.147	0.382
-147.574	-200.000	0.005	-0.114
-146.560	393.602	-0.032	-0.067
-145.545	11.349	-0.142	-0.108
-144.531	-68.567	-0.218	0.084
-143.516	74.368	0.126	-0.132
-142.502	-72.169	-0.118	-0.043
-141.487	23.523	0.282	-0.230
-140.472	-170.793	0.383	-0.013
-139.458	11.228	-0.210	-0.159
-138.443	6.010	0.193	0.142
-137.429	-20.073	-0.360	0.221
-136.414	-13.275	-0.234	-0.151
-135.399	455.206	-0.096	0.212
-134.385	63.567	-0.125	-0.124
-133.370	-148.619	-0.179	0.014
-132.356	-122.819	0.066	0.011
-131.341	-41.078	0.068	0.035
-130.326	434.168	-0.067	-0.145
-129.312	-100.457	0.082	0.020
-128.297	156.166	-0.064	0.088
-127.283	43.043	-0.255	-0.231
-126.268	319.333	-0.040	0.075
-125.253	-100.726	0.216	-0.053
-124.239	-12.229	-0.143	-0.093
-123.224	-125.612	0.498	0.075
-122.210	-32.834	-0.225	0.124
-121.195	-29.161	0.053	0.030
