DTS Sentinel unit serial number:	SN413079Multiplexer serial number:	ORYXHardware model number:	OX4-SRSoftware version number:	ORYX F/W v4.00 Oryx Data Collector v3.7.2.0data status	okinstallation	princeton_trtdifferential loss correction	single-endedforward channel	channel 2reverse channel	N/Adate	2019/09/10time	16:53:11forward acquisition time	60.00reverse acquisition time	0.00gamma	496.2192k internal	0.2310k external	0.2310temperature offset calibration	0.9934default loss term (dB/km)	0.3790temperature slope calibration	1.0000multiplexer offset coefficient	1.0000multiplexer slope coefficient	1.0000fibre end	0.00T internal ref (°C)	37.62T ext. ref 1 (°C)	-0.34T ext. ref 2 (°C)	32.53length (m)	temperature (°C)	Stokes	anti-Stokes-747.200	33.959	-0.217	-0.192
-746.185	-115.051	0.170	0.033
-745.171	-75.680	-0.183	0.066
-744.156	201.255	-0.224	0.350
-743.142	-200.000	0.013	0.070
-742.127	-93.021	-0.329	0.093
-741.112	-60.393	-0.223	0.096
-740.098	70.164	-0.033	0.035
-739.083	-40.085	-0.196	-0.104
-738.069	81.413	-0.205	0.225
-737.054	-81.662	-0.097	0.032
-736.039	-103.873	-0.338	-0.080
-735.025	67.789	-0.062	0.065
-734.010	800.000	-0.029	-0.124
-732.996	800.000	0.057	-0.163
-731.981	-138.502	0.141	0.016
-730.966	-41.604	0.145	-0.076
-729.952	82.151	-0.049	-0.054
-728.937	47.123	0.053	0.050
-727.923	119.188	0.159	-0.200
-726.908	329.145	0.056	-0.110
-725.894	-200.000	-0.012	-0.199
-724.879	-92.904	-0.175	0.050
-723.864	99.339	0.206	-0.241
-722.850	312.191	0.090	-0.171
-721.835	92.053	-0.181	0.207
-720.821	118.330	-0.168	-0.210
-719.806	-48.774	-0.391	0.190
-718.791	28.881	0.241	-0.207
-717.777	-200.000	-0.042	-0.318
-716.762	-52.295	0.182	0.086
-715.748	93.928	0.114	0.131
-714.733	482.819	0.078	0.179
-713.718	-11.455	-0.153	0.102
-712.704	22.783	-0.216	-0.179
-711.689	-200.000	-0.050	0.241
-710.675	-200.000	0.014	-0.154
-709.660	127.235	0.136	-0.175
-708.645	217.478	0.222	0.359
-707.631	194.565	0.159	-0.245
-706.616	105.269	-0.073	0.087
-705.602	-40.307	0.014	0.007
-704.587	-200.000	-0.043	-0.354
-703.572	-200.000	-0.042	-0.214
-702.558	-6.811	0.238	-0.164
-701.543	-135.006	0.075	-0.009
-700.529	-178.831	-0.322	-0.007
-699.514	369.063	-0.154	-0.315
-698.499	298.434	-0.270	-0.503
-697.485	-36.375	-0.197	-0.108
-696.470	-200.000	-0.024	0.299
-695.456	-106.320	0.301	0.068
-694.441	-13.761	-0.202	-0.132
-693.426	653.721	0.152	-0.396
-692.412	796.573	0.043	-0.119
-691.397	-27.701	0.234	-0.138
-690.383	152.275	-0.048	-0.067
-689.368	-86.981	-0.287	-0.089
-688.354	131.521	0.115	-0.150
-687.339	97.354	-0.129	0.150
-686.324	-21.419	-0.325	0.201
-685.310	-46.518	-0.177	-0.088
-684.295	-200.000	-0.025	-0.206
-683.281	-48.047	0.200	0.098
-682.266	0.677	-0.218	-0.158
-681.251	-163.737	0.346	0.016
-680.237	-102.794	0.191	0.046
-679.222	-5.827	-0.315	-0.219
-678.208	-167.157	0.282	-0.012
-677.193	224.385	0.049	0.080
-676.178	61.148	-0.074	0.074
-675.164	-79.451	0.191	-0.066
-674.149	-86.275	0.312	-0.097
-673.135	-43.711	0.080	-0.041
-672.120	800.000	-0.158	-0.483
-671.105	-200.000	0.006	-0.124
-670.091	19.251	-0.077	0.063
-669.076	-150.815	-0.195	-0.015
-668.062	-200.000	0.010	0.219
-667.047	305.380	-0.092	-0.172
-666.032	-200.000	0.058	-0.265
-665.018	-30.006	0.032	0.019
-664.003	-54.942	-0.186	0.085
-662.989	-118.263	0.068	-0.012
-661.974	-145.030	-0.299	-0.028
-660.959	-135.614	-0.172	0.021
-659.945	-150.498	0.212	-0.016
-658.930	226.570	-0.096	-0.158
-657.916	189.888	-0.087	-0.132
-656.901	50.702	-0.032	0.031
-655.886	63.340	0.041	0.042
-654.872	-71.071	-0.137	0.052
-653.857	15.909	-0.118	0.094
-652.843	83.071	0.127	0.139
-651.828	48.871	0.091	0.086
-650.814	-81.105	-0.303	0.101
-649.799	-3.998	-0.196	-0.137
-648.784	-200.000	0.030	0.137
-647.770	318.291	-0.055	0.105
-646.755	32.317	0.068	0.059
-645.741	226.587	-0.068	0.111
-644.726	-163.964	-0.117	-0.005
-643.711	-200.000	-0.044	0.335
-642.697	143.012	0.179	0.241
-641.682	-96.075	0.221	-0.059
-640.668	692.403	-0.085	-0.227
-639.653	800.000	0.086	0.310
-638.638	-200.000	-0.030	-0.201
-637.624	180.443	0.094	-0.140
-636.609	-138.129	0.055	0.006
-635.595	-44.590	0.156	-0.079
-634.580	461.630	0.082	0.184
-633.565	158.505	-0.198	-0.278
-632.551	2.457	-0.157	0.115
-631.536	-110.542	-0.354	0.074
-630.522	-18.738	-0.220	0.138
-629.507	800.000	0.094	-0.409
-628.492	-42.856	-0.186	0.096
-627.478	-49.266	0.124	0.060
-626.463	-9.014	-0.274	0.186
-625.449	800.000	-0.127	-0.392
-624.434	46.875	0.149	-0.140
-623.419	-25.230	0.231	-0.138
-622.405	-59.241	0.273	0.119
-621.390	-112.084	0.180	-0.037
-620.376	-121.491	0.364	0.061
-619.361	649.127	0.023	0.060
-618.346	-68.024	-0.081	-0.032
-617.332	-121.973	0.054	0.009
-616.317	-20.075	0.134	0.083
-615.303	-200.000	-0.329	0.000
-614.288	-200.000	-0.033	0.157
-613.273	-105.079	-0.301	0.070
-612.259	429.587	0.164	-0.358
-611.244	-79.609	-0.137	0.047
-610.230	80.417	-0.113	-0.123
-609.215	237.437	-0.144	0.242
-608.201	18.034	0.180	0.145
-607.186	407.269	0.115	-0.246
-606.171	800.000	0.042	-0.164
-605.157	34.868	-0.221	0.195
-604.142	-70.846	-0.304	0.116
-603.128	-144.254	-0.052	0.005
-602.113	800.000	-0.057	0.178
-601.098	29.486	-0.187	-0.160
-600.084	-50.221	-0.230	0.110
-599.069	-179.198	-0.204	0.005
-598.055	-200.000	-0.016	-0.203
-597.040	-162.469	-0.157	-0.008
-596.025	227.853	0.026	0.043
-595.011	-145.827	0.043	-0.004
-593.996	759.070	0.059	0.162
-592.982	258.456	-0.106	0.184
-591.967	314.842	-0.099	0.188
-590.952	-124.915	0.184	-0.029
-589.938	-18.198	0.146	0.092
-588.923	-200.000	-0.014	-0.325
-587.909	-21.430	0.015	0.009
-586.894	80.720	0.167	-0.182
-585.879	-200.000	0.060	0.403
-584.865	395.232	-0.092	0.193
-583.850	-42.511	-0.078	-0.040
-582.836	-200.000	0.016	-0.108
-581.821	80.015	0.179	0.194
-580.806	512.783	0.164	0.386
-579.792	-103.057	0.159	-0.038
-578.777	-200.000	0.035	-0.184
-577.763	19.165	-0.108	0.087
-576.748	263.843	0.040	0.071
-575.733	-72.246	0.178	-0.067
-574.719	90.003	-0.104	-0.117
-573.704	-200.000	-0.036	0.174
-572.690	430.545	-0.049	0.107
-571.675	95.014	0.174	0.200
-570.661	800.000	0.045	-0.159
-569.646	-117.968	-0.163	0.030
-568.631	-169.013	-0.217	-0.008
-567.617	-200.000	-0.057	-0.387
-566.602	82.002	0.344	0.376
-565.588	226.622	-0.104	0.171
-564.573	-89.206	-0.184	0.055
-563.558	800.000	-0.023	-0.088
-562.544	-44.483	-0.083	-0.042
-561.529	-90.647	-0.105	0.031
-560.515	-127.294	0.065	0.009
-559.500	-7.398	-0.166	-0.113
-558.485	102.383	0.144	-0.170
-557.471	-104.578	-0.248	-0.058
-556.456	100.721	-0.234	-0.274
-555.442	-74.744	0.242	-0.088
-554.427	-150.915	0.163	0.012
-553.412	321.013	-0.032	-0.061
-552.398	-200.000	0.005	0.025
-551.383	56.412	0.321	-0.314
-550.369	-70.932	-0.166	-0.063
-549.354	-21.101	-0.414	-0.255
-548.339	-200.000	-0.004	-0.190
-547.325	66.267	0.090	-0.092
-546.310	-200.000	-0.072	0.344
-545.296	208.834	-0.054	0.085
-544.281	800.000	-0.082	-0.281
-543.266	558.612	-0.011	-0.027
-542.252	800.000	0.119	-0.419
-541.237	-22.013	0.197	-0.120
-540.223	38.164	0.225	0.202
-539.208	64.539	0.078	0.079
-538.193	-61.290	0.164	0.070
-537.179	149.207	-0.242	-0.330
-536.164	-156.458	0.331	0.021
-535.150	35.954	-0.192	0.170
-534.135	-186.430	0.154	0.002
-533.121	-17.122	-0.341	0.217
-532.106	-157.881	0.296	0.018
-531.091	122.349	-0.164	-0.206
-530.077	-188.601	0.500	-0.006
-529.062	32.736	-0.124	-0.108
-528.048	141.197	0.135	0.179
-527.033	800.000	-0.049	-0.190
-526.018	14.087	-0.136	-0.107
-525.004	-200.000	-0.017	-0.142
-523.989	-200.000	-0.018	0.170
-522.975	255.687	-0.072	0.124
-521.960	-200.000	0.036	0.266
-520.945	-97.171	-0.148	0.039
-519.931	-200.000	-0.074	-0.344
-518.916	-130.848	0.285	-0.038
-517.902	550.398	-0.121	-0.291
-516.887	-99.331	0.222	-0.056
-515.872	-59.970	-0.093	0.040
-514.858	800.000	0.108	0.364
-513.843	-200.000	0.009	-0.231
-512.829	800.000	-0.090	-0.266
-511.814	-62.187	0.341	0.143
-510.799	-32.075	-0.290	0.163
-509.785	800.000	-0.018	0.067
-508.770	95.689	-0.219	0.252
-507.756	-96.946	-0.454	0.120
-506.741	-37.364	0.105	-0.057
-505.726	61.647	0.135	-0.135
-504.712	-200.000	-0.012	-0.091
-503.697	209.912	-0.100	0.157
-502.683	16.168	0.170	0.135
-501.668	80.014	0.294	0.318
-500.653	-200.000	0.041	0.250
-499.639	-200.000	-0.202	-0.000
-498.624	211.318	-0.119	-0.188
-497.610	800.000	0.010	0.039
-496.595	166.320	-0.081	-0.115
-495.581	-121.074	-0.471	0.080
-494.566	-86.782	-0.101	0.031
-493.551	-114.077	-0.312	0.061
-492.537	-9.558	-0.175	-0.117
-491.522	4.423	-0.429	0.316
-490.508	-200.000	0.051	0.247
-489.493	51.943	-0.126	0.120
-488.478	41.407	0.338	-0.307
-487.464	-59.540	-0.158	0.068
-486.449	-200.000	-0.028	-0.301
-485.435	74.680	-0.041	0.043
-484.420	800.000	-0.017	0.059
-483.405	251.086	-0.180	0.307
-482.391	-66.532	-0.318	-0.127
-481.376	800.000	-0.088	-0.301
-480.362	-148.571	-0.094	-0.008
-479.347	116.251	0.050	-0.062
-478.332	-71.250	0.195	-0.073
-477.318	-200.000	-0.029	-0.172
-476.303	-200.000	-0.037	-0.197
-475.289	256.861	-0.183	-0.316
-474.274	800.000	-0.086	-0.297
-473.259	-49.118	0.224	-0.108
-472.245	-172.325	0.333	0.011
-471.230	-200.000	-0.008	-0.175
-470.216	-160.981	0.188	-0.010
-469.201	296.135	-0.117	0.215
-468.186	-200.000	0.019	-0.111
-467.172	-118.852	-0.299	0.053
-466.157	-124.312	0.134	0.021
-465.143	60.923	0.162	-0.161
-464.128	-130.492	-0.043	0.006
-463.113	-200.000	-0.019	0.092
-462.099	-200.000	0.012	0.059
-461.084	-136.099	-0.154	-0.018
-460.070	428.682	0.182	-0.395
-459.055	-106.338	-0.057	0.013
-458.040	-98.614	-0.342	0.088
-457.026	22.340	0.186	-0.153
-456.011	11.582	-0.066	0.051
-454.997	-5.373	0.115	-0.079
-453.982	41.032	0.138	0.125
-452.968	19.318	-0.102	-0.082
-451.953	-121.336	-0.331	-0.055
-450.938	-165.802	0.422	-0.018
-449.924	-140.009	0.046	-0.005
-448.909	-97.941	0.174	-0.045
-447.895	179.922	0.158	-0.232
-446.880	-27.152	0.127	0.074
-445.865	274.537	-0.075	-0.134
-444.851	-200.000	-0.055	-0.335
-443.836	-75.443	0.189	-0.068
-442.822	-174.013	0.101	0.003
-441.807	-200.000	0.007	0.086
-440.792	-99.184	-0.139	-0.035
-439.778	-200.000	-0.009	-0.057
-438.763	-63.397	-0.130	-0.054
-437.749	496.709	0.164	-0.378
-436.734	-188.554	-0.107	-0.001
-435.719	125.036	-0.191	-0.242
-434.705	183.172	0.100	0.148
-433.690	-200.000	0.017	0.653
-432.676	-149.853	0.361	-0.028
-431.661	-200.000	0.012	0.067
-430.646	19.527	-0.255	0.205
-429.632	240.321	-0.152	0.254
-428.617	-200.000	0.021	-0.318
-427.603	30.392	-0.266	0.228
-426.588	123.065	0.115	0.144
-425.573	121.646	0.199	-0.248
-424.559	50.303	-0.292	0.276
-423.544	-98.794	0.245	-0.062
-422.530	-111.647	0.510	-0.104
-421.515	-100.042	-0.203	0.051
-420.500	258.309	0.044	0.076
-419.486	229.851	0.195	0.319
-418.471	-147.041	-0.142	-0.012
-417.457	-140.130	0.217	-0.023
-416.442	38.051	-0.211	-0.188
-415.428	-15.906	-0.186	-0.119
-414.413	-88.355	-0.108	-0.032
-413.398	15.983	-0.085	-0.067
-412.384	-106.307	0.240	-0.054
-411.369	800.000	-0.024	0.091
-410.355	372.904	-0.091	-0.185
-409.340	-21.051	0.133	-0.082
-408.325	800.000	0.143	0.405
-407.311	89.177	-0.155	-0.174
-406.296	84.790	-0.094	0.103
-405.282	82.028	-0.304	0.330
-404.267	-200.000	-0.028	0.184
-403.252	-5.846	0.101	0.069
-402.238	157.881	-0.122	-0.169
-401.223	800.000	0.023	0.076
-400.209	-162.530	-0.216	-0.011
-399.194	800.000	-0.099	-0.358
-398.179	-81.378	0.150	-0.050
-397.165	198.041	0.039	-0.059
-396.150	-59.465	0.143	0.061
-395.136	-196.371	0.065	-0.000
-394.121	14.779	0.149	-0.117
-393.106	-78.950	0.190	0.065
-392.092	31.065	0.145	0.124
-391.077	-155.064	-0.206	-0.014
-390.063	-42.727	0.239	-0.122
-389.048	75.953	0.033	-0.035
-388.033	800.000	0.096	-0.350
-387.019	-200.000	-0.015	-0.148
-386.004	-131.451	0.261	0.035
-384.990	-163.981	0.099	-0.005
-383.975	322.042	0.086	0.165
-382.960	153.157	-0.074	-0.102
-381.946	128.741	0.157	-0.200
-380.931	-86.281	0.323	0.100
-379.917	29.226	-0.100	0.085
-378.902	140.339	-0.274	0.362
-377.888	267.164	-0.063	-0.111
-376.873	-200.000	-0.010	-0.287
-375.858	-130.775	-0.041	0.005
-374.844	26.172	-0.194	0.162
-373.829	-13.753	0.220	-0.143
-372.815	138.785	0.116	-0.152
-371.800	-200.000	-0.001	0.060
-370.785	75.459	0.246	-0.259
-369.771	315.393	-0.088	0.167
-368.756	-72.508	0.250	0.093
-367.742	800.000	0.075	0.227
-366.727	800.000	-0.131	0.445
-365.712	-40.345	-0.205	-0.107
-364.698	131.541	-0.124	-0.160
-363.683	454.606	-0.189	0.420
-362.669	141.993	-0.111	-0.147
-361.654	-104.794	0.267	0.061
-360.639	244.982	0.120	0.202
-359.625	-1.570	0.290	-0.205
-358.610	138.903	0.135	0.177
-357.596	691.605	0.032	-0.084
-356.581	97.618	-0.134	-0.154
-355.566	800.000	-0.042	-0.179
-354.552	43.956	0.207	0.190
-353.537	-81.890	0.478	-0.157
-352.523	-83.485	0.413	0.132
-351.508	-44.357	-0.162	0.081
-350.493	-4.393	0.088	-0.061
-349.479	-22.504	0.074	-0.045
-348.464	-200.000	-0.020	-0.185
-347.450	-200.000	0.008	0.207
-346.435	126.908	-0.199	0.252
-345.420	-135.749	-0.365	0.043
-344.406	27.245	0.073	-0.061
-343.391	92.315	-0.303	0.341
-342.377	-173.366	0.181	0.005
-341.362	-200.000	-0.007	-0.039
-340.348	800.000	-0.029	0.119
-339.333	-200.000	-0.010	-0.061
-338.318	800.000	0.097	-0.281
-337.304	-65.850	-0.289	0.116
-336.289	-102.203	0.225	0.054
-335.275	469.180	-0.106	-0.238
-334.260	39.109	-0.190	0.170
-333.245	-23.980	0.319	0.191
-332.231	-200.000	-0.004	-0.278
-331.216	16.273	-0.266	-0.210
-330.202	-181.181	-0.209	0.004
-329.187	3.870	0.253	-0.184
-328.172	398.709	0.101	-0.211
-327.158	800.000	-0.090	0.253
-326.143	-200.000	-0.028	0.232
-325.129	135.827	-0.225	0.292
-324.114	-113.466	-0.118	-0.023
-323.099	800.000	0.068	-0.279
-322.085	25.222	-0.024	0.020
-321.070	-200.000	-0.014	0.224
-320.056	16.528	0.132	-0.104
-319.041	-9.249	0.188	0.125
-318.026	800.000	0.119	0.389
-317.012	800.000	0.057	0.189
-315.997	71.893	0.250	-0.260
-314.983	145.990	0.191	-0.256
-313.968	226.570	0.064	-0.104
-312.953	-115.149	-0.097	0.018
-311.939	578.897	-0.062	0.153
-310.924	-120.538	-0.055	-0.009
-309.910	102.390	-0.194	-0.227
-308.895	-172.878	0.320	0.010
-307.880	358.030	-0.085	-0.170
-306.866	-103.238	0.615	-0.145
-305.851	108.555	0.079	0.094
-304.837	-0.582	-0.171	0.121
-303.822	800.000	-0.070	-0.238
-302.807	800.000	-0.054	0.184
-301.793	-12.594	0.088	-0.058
-300.778	28.042	-0.190	-0.160
-299.764	333.535	-0.142	0.274
-298.749	204.301	-0.033	0.051
-297.735	188.840	-0.282	0.421
-296.720	-35.934	-0.268	0.145
-295.705	-167.139	0.154	0.006
-294.691	800.000	-0.102	0.333
-293.676	-21.250	0.179	-0.109
-292.662	175.797	0.158	0.228
-291.647	-200.000	0.024	-0.355
-290.632	-105.792	-0.330	-0.074
-289.618	640.814	-0.128	0.325
-288.603	462.785	-0.157	0.349
-287.589	-157.686	-0.100	-0.006
-286.574	-82.216	-0.219	-0.071
-285.559	-4.309	0.072	0.050
-284.545	-90.139	-0.322	0.094
-283.530	-64.647	-0.205	-0.083
-282.516	-8.890	0.259	-0.173
-281.501	210.515	-0.078	-0.122
-280.486	800.000	0.099	0.335
-279.472	800.000	-0.154	0.479
-278.457	180.174	-0.075	-0.110
-277.443	-200.000	0.002	0.192
-276.428	-46.901	0.104	-0.051
-275.413	-122.587	0.122	0.020
-274.399	275.246	-0.190	-0.336
-273.384	-149.553	-0.124	0.010
-272.370	-200.000	-0.030	0.201
-271.355	800.000	-0.088	-0.325
-270.340	401.829	0.032	-0.067
-269.326	353.900	0.100	0.197
-268.311	-31.490	0.252	-0.141
-267.297	61.058	-0.099	0.098
-266.282	-200.000	0.013	-0.217
-265.267	546.375	-0.073	-0.175
-264.253	180.025	-0.093	-0.136
-263.238	617.021	-0.069	0.173
-262.224	-155.320	0.044	-0.003
-261.209	-121.826	0.077	0.013
-260.195	800.000	0.065	-0.254
-259.180	177.884	0.102	-0.148
-258.165	-200.000	0.006	-0.113
-257.151	91.599	0.047	-0.053
-256.136	-200.000	-0.006	0.115
-255.122	126.413	-0.122	0.154
-254.107	83.737	0.170	0.184
-253.092	-92.566	-0.140	0.039
-252.078	251.638	-0.226	-0.383
-251.063	-140.749	-0.104	-0.011
-250.049	-91.233	-0.068	0.019
-249.034	-126.477	0.133	0.020
-248.019	135.305	0.109	-0.141
-247.005	193.561	0.175	-0.264
-245.990	15.304	-0.256	0.200
-244.976	-175.512	-0.104	-0.003
-243.961	-119.298	0.530	-0.092
-242.946	-67.353	0.309	0.121
-241.932	34.695	-0.157	0.137
-240.917	800.000	0.123	0.494
-239.903	-151.814	0.169	0.012
-238.888	634.025	0.038	-0.097
-237.873	-90.894	0.245	0.070
-236.859	-70.713	0.481	0.181
-235.844	27.472	-0.295	0.247
-234.830	4.657	-0.277	0.203
-233.815	-47.291	0.115	-0.056
-232.800	800.000	-0.086	0.284
-231.786	187.810	-0.201	0.298
-230.771	-113.496	-0.434	-0.085
-229.757	-200.000	-0.089	0.423
-228.742	-200.000	0.000	-0.045
-227.727	189.148	-0.136	-0.203
-226.713	73.111	0.248	0.258
-225.698	-90.213	0.238	0.069
-224.684	-77.331	-0.181	-0.063
-223.669	-103.798	-0.114	-0.027
-222.655	643.517	-0.095	0.241
-221.640	-124.713	0.061	0.009
-220.625	203.978	0.128	-0.197
-219.611	-127.439	-0.125	0.018
-218.596	-151.812	0.433	0.032
-217.582	29.598	0.287	0.243
-216.567	253.700	-0.060	-0.102
-215.552	-200.000	-0.004	0.174
-214.538	369.780	0.159	-0.321
-213.523	800.000	0.032	0.098
-212.509	-200.000	-0.036	-0.202
-211.494	67.312	0.134	-0.136
-210.479	-200.000	-0.022	-0.235
-209.465	-130.086	-0.127	0.017
-208.450	-38.525	0.081	0.043
-207.436	278.477	-0.084	-0.149
-206.421	-195.080	0.118	-0.001
-205.406	-64.666	0.202	-0.081
-204.392	-145.181	0.239	0.022
-203.377	238.250	-0.168	0.277
-202.363	8.342	0.064	-0.048
-201.348	-29.539	0.203	0.115
-200.333	-90.048	-0.103	-0.030
-199.319	-69.124	0.078	0.030
-198.304	-163.166	-0.236	0.011
-197.290	379.379	-0.094	-0.192
-196.275	800.000	-0.047	0.204
-195.260	-56.285	-0.348	0.154
-194.246	153.517	0.113	-0.154
-193.231	-200.000	0.023	-0.186
-192.217	-2.837	-0.163	-0.113
-191.202	552.409	0.183	-0.438
-190.187	224.304	0.083	-0.133
-189.173	17.755	-0.179	0.141
-188.158	347.431	-0.132	-0.258
-187.144	23.172	-0.080	0.065
-186.129	89.907	-0.207	0.229
-185.114	45.028	0.202	-0.185
-184.100	22.891	0.173	-0.140
-183.085	-43.610	-0.126	0.063
-182.071	421.298	-0.044	-0.094
-181.056	60.191	-0.177	0.174
-180.042	-200.000	-0.270	-0.000
-179.027	-6.884	0.156	-0.105
-178.012	-96.489	0.151	0.040
-176.998	-48.614	0.377	0.180
-175.983	800.000	-0.054	-0.155
-174.969	-93.799	-0.154	0.042
-173.954	-45.305	0.124	-0.061
-172.939	-133.125	-0.344	-0.043
-171.925	167.403	0.112	-0.158
-170.910	-27.871	0.209	-0.120
-169.896	-77.407	0.056	0.019
-168.881	-9.517	0.235	-0.156
-167.866	228.855	0.132	0.213
-166.852	714.956	0.070	0.183
-165.837	-200.000	0.078	-0.508
-164.823	-66.178	-0.335	-0.133
-163.808	94.465	-0.049	-0.055
-162.793	-12.228	-0.069	-0.045
-161.779	338.354	-0.135	0.262
-160.764	-200.000	0.016	0.081
-159.750	-91.266	0.225	0.064
-158.735	-103.866	0.249	-0.058
-157.720	47.599	-0.154	0.142
-156.706	43.571	0.208	-0.189
-155.691	800.000	-0.089	0.274
-154.677	-200.000	-0.031	-0.249
-153.662	-65.733	-0.084	0.033
-152.647	20.328	0.051	-0.041
-151.633	-98.231	0.164	-0.042
-150.618	-200.000	-0.012	-0.244
-149.604	-132.219	-0.240	0.031
-148.589	198.818	0.134	-0.204
-147.574	-200.000	0.015	-0.324
-146.560	155.889	-0.082	0.113
-145.545	412.660	0.092	0.194
-144.531	-200.000	-0.001	0.095
-143.516	82.816	0.116	0.125
-142.502	161.757	0.113	-0.158
-141.487	-76.308	0.105	0.037
-140.472	-141.465	0.101	-0.010
-139.458	35.700	0.022	-0.019
-138.443	66.148	-0.133	-0.134
-137.429	222.208	0.191	0.305
-136.414	-32.830	0.122	-0.067
-135.399	-200.000	0.017	-0.209
-134.385	212.404	0.015	-0.023
-133.370	-114.883	-0.249	-0.047
-132.356	-52.551	0.294	-0.135
-131.341	-137.469	0.270	0.030
-130.326	-66.536	0.314	0.123
-129.312	-38.515	-0.151	-0.079
-128.297	1.770	0.088	0.063
-127.283	-200.000	0.027	-0.121
-126.268	162.746	-0.111	0.155
-125.253	-138.722	0.164	0.018
-124.239	-6.334	-0.279	0.189
-123.224	118.156	0.118	0.144
-122.210	15.492	0.099	0.077
-121.195	284.647	-0.047	-0.085
