DTS Sentinel unit serial number:	SN413079Multiplexer serial number:	ORYXHardware model number:	OX4-SRSoftware version number:	ORYX F/W v4.00 Oryx Data Collector v3.7.2.0data status	okinstallation	princeton_trtdifferential loss correction	single-endedforward channel	channel 2reverse channel	N/Adate	2019/09/11time	07:09:10forward acquisition time	60.00reverse acquisition time	0.00gamma	496.2192k internal	0.2327k external	0.2327temperature offset calibration	0.9937default loss term (dB/km)	0.3790temperature slope calibration	1.0000multiplexer offset coefficient	1.0000multiplexer slope coefficient	1.0000fibre end	0.00T internal ref (°C)	30.37T ext. ref 1 (°C)	-0.12T ext. ref 2 (°C)	26.29length (m)	temperature (°C)	Stokes	anti-Stokes-747.200	275.739	-0.027	0.048
-746.185	574.386	-0.121	0.297
-745.171	-89.954	-0.275	0.081
-744.156	717.554	-0.117	0.314
-743.142	-90.997	0.044	-0.013
-742.127	65.002	-0.196	0.199
-741.112	258.485	-0.186	0.324
-740.098	204.386	0.083	-0.129
-739.083	-200.000	-0.003	-0.119
-738.069	800.000	-0.130	0.364
-737.054	-34.089	0.424	-0.235
-736.039	-9.676	-0.241	0.162
-735.025	-65.608	-0.210	0.085
-734.010	-174.480	-0.267	-0.008
-732.996	21.592	-0.094	-0.077
-731.981	-200.000	-0.024	-0.228
-730.966	94.630	0.403	-0.461
-729.952	-200.000	-0.006	-0.531
-728.937	-14.227	-0.204	-0.132
-727.923	-4.092	-0.231	-0.162
-726.908	-6.971	0.248	-0.170
-725.894	191.204	-0.135	-0.205
-724.879	79.584	-0.174	-0.188
-723.864	800.000	-0.092	-0.386
-722.850	-139.271	-0.388	0.042
-721.835	-200.000	0.025	0.149
-720.821	337.533	-0.274	-0.536
-719.806	-200.000	-0.071	-0.331
-718.791	799.129	-0.016	-0.044
-717.777	168.814	-0.145	-0.208
-716.762	-86.291	-0.110	0.034
-715.748	10.965	-0.344	0.265
-714.733	-38.655	0.158	-0.084
-713.718	-200.000	0.023	0.137
-712.704	-200.000	-0.033	0.296
-711.689	-157.301	0.375	-0.023
-710.675	143.854	-0.079	-0.107
-709.660	237.785	-0.086	-0.144
-708.645	-76.839	-0.095	0.033
-707.631	199.298	-0.070	0.108
-706.616	67.232	0.036	0.037
-705.602	-96.280	0.315	0.084
-704.587	800.000	0.087	0.263
-703.572	-6.861	-0.307	-0.210
-702.558	518.258	-0.152	-0.358
-701.543	-64.317	0.298	-0.122
-700.529	102.471	-0.252	-0.297
-699.514	-200.000	-0.004	-0.273
-698.499	124.456	0.217	-0.274
-697.485	-5.586	0.180	0.124
-696.470	153.900	-0.165	-0.227
-695.456	-200.000	0.024	-0.175
-694.441	800.000	0.071	0.284
-693.426	-200.000	-0.071	-0.347
-692.412	-52.227	-0.250	-0.116
-691.397	-115.997	-0.353	-0.066
-690.383	39.158	0.255	0.229
-689.368	130.951	-0.188	-0.242
-688.354	800.000	-0.002	0.008
-687.339	-14.431	0.477	-0.309
-686.324	308.373	-0.078	0.147
-685.310	151.317	-0.145	0.199
-684.295	406.841	-0.066	0.141
-683.281	-200.000	-0.008	0.119
-682.266	-128.286	0.246	0.035
-681.251	287.679	-0.152	-0.277
-680.237	-71.591	-0.133	0.050
-679.222	-103.857	-0.291	-0.069
-678.208	457.234	-0.059	-0.131
-677.193	-66.659	-0.132	0.053
-676.178	-200.000	-0.000	0.043
-675.164	134.469	0.033	0.044
-674.149	-200.000	-0.032	-0.255
-673.135	127.614	-0.138	-0.176
-672.120	-142.897	-0.143	0.014
-671.105	177.120	-0.390	-0.571
-670.091	-144.832	-0.227	0.021
-669.076	98.487	-0.121	-0.140
-668.062	800.000	-0.104	-0.352
-667.047	-67.699	-0.244	-0.096
-666.032	123.820	0.207	0.261
-665.018	-119.104	-0.171	0.030
-664.003	320.278	-0.057	-0.109
-662.989	28.332	-0.147	-0.125
-661.974	-118.753	-0.240	-0.042
-660.959	273.228	-0.060	-0.106
-659.945	-87.248	-0.339	0.103
-658.930	-70.210	0.291	0.111
-657.916	100.878	-0.326	-0.381
-656.901	75.396	-0.116	-0.123
-655.886	46.918	-0.245	-0.229
-654.872	800.000	-0.022	-0.073
-653.857	-200.000	0.008	0.093
-652.843	739.533	-0.107	-0.289
-651.828	-67.753	0.260	-0.102
-650.814	51.058	-0.090	0.086
-649.799	-60.029	-0.141	0.060
-648.784	79.007	0.068	-0.073
-647.770	-31.797	-0.024	-0.013
-646.755	-50.239	-0.124	-0.059
-645.741	564.428	0.057	0.139
-644.726	-36.230	-0.186	0.101
-643.711	223.647	0.170	0.275
-642.697	257.119	-0.198	-0.342
-641.682	-135.400	0.161	0.019
-640.668	800.000	-0.020	0.060
-639.653	342.688	-0.049	-0.096
-638.638	-69.164	0.090	-0.035
-637.624	50.392	0.200	0.190
-636.609	-200.000	0.000	0.080
-635.595	-58.271	-0.054	-0.023
-634.580	-145.269	-0.028	0.003
-633.565	-170.218	-0.159	-0.006
-632.551	126.593	0.053	-0.067
-631.536	221.132	0.141	0.227
-630.522	-87.054	0.064	0.019
-629.507	-124.297	-0.164	0.026
-628.492	174.237	-0.063	0.092
-627.478	-79.334	0.140	-0.048
-626.463	-118.196	0.110	0.020
-625.449	-200.000	-0.035	-0.214
-624.434	800.000	-0.154	-0.527
-623.419	-200.000	0.042	0.389
-622.405	35.118	-0.131	-0.115
-621.390	-82.400	0.249	-0.081
-620.376	761.837	-0.091	0.249
-619.361	86.490	0.064	0.070
-618.346	78.834	-0.210	-0.226
-617.332	121.223	-0.060	0.075
-616.317	-200.000	0.033	0.154
-615.303	138.782	-0.053	0.070
-614.288	196.270	-0.114	-0.174
-613.273	-136.487	-0.216	0.025
-612.259	800.000	-0.072	-0.273
-611.244	800.000	-0.088	-0.318
-610.230	-1.104	-0.224	-0.159
-609.215	800.000	0.076	0.219
-608.201	-39.676	0.167	0.087
-607.186	-200.000	-0.002	0.455
-606.171	506.058	0.042	-0.097
-605.157	800.000	0.015	0.052
-604.142	-37.185	-0.117	-0.063
-603.128	-69.692	-0.147	-0.056
-602.113	-161.212	0.222	-0.012
-601.098	800.000	0.013	-0.048
-600.084	102.558	0.090	0.105
-599.069	-200.000	-0.075	-0.328
-598.055	800.000	0.033	-0.106
-597.040	-200.000	0.058	0.275
-596.025	3.217	-0.136	-0.099
-595.011	-81.335	-0.189	0.063
-593.996	-200.000	0.012	-0.133
-592.982	76.006	-0.146	-0.155
-591.967	152.602	-0.083	-0.114
-590.952	-18.734	-0.312	-0.195
-589.938	-200.000	0.011	-0.286
-588.923	-10.991	0.259	-0.171
-587.909	214.915	-0.222	0.353
-586.894	-9.819	-0.073	0.049
-585.879	-146.277	0.035	0.003
-584.865	5.081	-0.080	0.059
-583.850	-200.000	-0.048	0.240
-582.836	800.000	-0.106	0.346
-581.821	-86.260	0.189	0.058
-580.806	-200.000	-0.012	0.222
-579.792	-200.000	-0.042	0.336
-578.777	487.208	0.183	-0.419
-577.763	56.470	0.307	0.299
-576.748	-49.824	-0.201	0.096
-575.733	681.152	0.102	0.267
-574.719	-200.000	-0.007	0.160
-573.704	187.930	0.214	0.321
-572.690	39.871	-0.278	-0.250
-571.675	-200.000	-0.020	0.109
-570.661	146.253	0.188	0.252
-569.646	764.409	0.074	-0.202
-568.631	15.334	0.299	-0.235
-567.617	-104.600	-0.118	-0.027
-566.602	110.690	0.176	0.212
-565.588	28.712	-0.119	0.101
-564.573	-91.460	0.092	-0.026
-563.558	-200.000	0.061	0.303
-562.544	-15.805	0.192	0.123
-561.529	-200.000	-0.009	-0.297
-560.515	-55.566	-0.273	-0.122
-559.500	31.935	0.120	-0.104
-558.485	-176.427	-0.046	-0.001
-557.471	-125.998	-0.245	-0.037
-556.456	357.885	0.123	0.247
-555.442	-113.467	-0.170	-0.033
-554.427	-200.000	-0.012	0.080
-553.412	-200.000	0.011	0.278
-552.398	-28.277	0.007	0.004
-551.383	61.524	0.077	-0.077
-550.369	-61.330	-0.199	-0.084
-549.354	241.822	0.064	0.107
-548.339	-22.800	-0.180	0.109
-547.325	-7.188	0.378	-0.257
-546.310	795.781	0.030	-0.082
-545.296	-13.133	-0.152	0.099
-544.281	199.145	0.098	-0.151
-543.266	-13.372	0.190	0.124
-542.252	-68.826	-0.108	0.042
-541.237	72.437	0.140	0.147
-540.223	-200.000	-0.016	0.105
-539.208	-151.762	0.060	0.004
-538.193	-200.000	-0.082	-0.378
-537.179	-200.000	-0.039	0.234
-536.164	210.018	0.138	-0.217
-535.150	759.892	-0.047	-0.128
-534.135	103.205	0.074	0.086
-533.121	800.000	0.066	-0.195
-532.106	158.739	-0.126	-0.175
-531.091	-200.000	0.001	-0.024
-530.077	102.473	0.059	0.069
-529.062	-1.855	-0.222	0.156
-528.048	-60.575	-0.305	-0.129
-527.033	22.318	0.162	-0.133
-526.018	-17.192	-0.270	-0.170
-525.004	800.000	-0.113	-0.451
-523.989	-38.935	0.063	0.033
-522.975	-74.102	0.025	-0.009
-521.960	754.852	0.080	0.216
-520.945	232.575	0.137	0.226
-519.931	489.255	0.084	-0.191
-518.916	-200.000	0.038	-0.283
-517.902	-66.295	0.270	-0.107
-516.887	-200.000	0.014	0.393
-515.872	-142.478	-0.193	-0.019
-514.858	794.896	-0.050	-0.138
-513.843	-200.000	0.009	-0.204
-512.829	-200.000	0.033	0.172
-511.814	800.000	0.039	-0.111
-510.799	-43.912	-0.272	-0.137
-509.785	-100.884	0.112	-0.028
-508.770	191.035	0.115	0.172
-507.756	89.396	-0.197	0.220
-506.741	-200.000	-0.145	-0.000
-505.726	60.132	-0.176	0.173
-504.712	81.666	0.269	-0.290
-503.697	-197.569	0.434	-0.003
-502.683	800.000	-0.065	0.208
-501.668	69.450	0.029	0.030
-500.653	167.191	0.045	0.063
-499.639	508.689	0.028	-0.065
-498.624	372.198	-0.103	-0.210
-497.610	-54.132	-0.238	-0.108
-496.595	800.000	-0.079	0.251
-495.581	-200.000	-0.040	-0.200
-494.566	-117.237	0.358	0.065
-493.551	-53.650	0.077	0.035
-492.537	69.127	0.210	0.216
-491.522	-15.160	-0.052	-0.034
-490.508	-106.217	0.089	0.020
-489.493	231.121	-0.040	0.065
-488.478	88.804	0.083	0.092
-487.464	-31.095	-0.171	-0.096
-486.449	-200.000	-0.016	-0.157
-485.435	-200.000	0.028	0.132
-484.420	800.000	0.072	0.249
-483.405	31.865	0.151	0.130
-482.391	-200.000	-0.029	-0.344
-481.376	-123.564	-0.108	-0.017
-480.362	-200.000	0.038	-0.262
-479.347	-200.000	-0.005	0.118
-478.332	231.449	0.033	0.054
-477.318	36.298	-0.122	0.107
-476.303	-85.289	0.159	-0.050
-475.289	53.200	0.196	-0.187
-474.274	61.853	-0.088	-0.088
-473.259	800.000	0.136	-0.498
-472.245	800.000	0.134	-0.374
-471.230	51.399	-0.480	-0.454
-470.216	-71.659	0.287	-0.107
-469.201	-200.000	-0.008	0.203
-468.186	-114.125	0.059	-0.011
-467.172	266.719	-0.091	0.158
-466.157	92.520	-0.123	-0.138
-465.143	223.274	0.134	-0.215
-464.128	33.180	0.231	-0.200
-463.113	157.128	-0.139	-0.191
-462.099	-87.672	0.375	0.113
-461.084	73.898	-0.383	0.400
-460.070	46.445	-0.240	0.222
-459.055	8.487	0.224	0.168
-458.040	-91.182	-0.211	-0.060
-457.026	450.048	0.073	0.160
-456.011	-200.000	0.014	-0.065
-454.997	270.781	-0.048	-0.085
-453.982	-76.739	0.121	-0.042
-452.968	5.515	-0.122	-0.090
-451.953	89.838	-0.224	0.250
-450.938	64.914	-0.261	-0.263
-449.924	-65.175	0.379	-0.152
-448.909	-19.486	0.044	-0.027
-447.895	59.235	-0.029	0.029
-446.880	800.000	0.053	-0.207
-445.865	800.000	-0.112	-0.331
-444.851	-20.408	0.140	0.086
-443.836	-122.541	-0.329	-0.053
-442.822	194.966	0.232	-0.351
-441.807	131.172	-0.121	0.154
-440.792	229.013	0.037	0.060
-439.778	27.558	-0.175	0.147
-438.763	800.000	-0.019	-0.070
-437.749	-87.520	0.145	0.044
-436.734	442.037	0.046	-0.100
-435.719	440.555	0.161	0.351
-434.705	800.000	-0.108	0.426
-433.690	-64.318	0.137	-0.055
-432.676	-200.000	-0.012	0.122
-431.661	-49.192	-0.247	0.118
-430.646	-147.088	-0.285	0.024
-429.632	-135.468	-0.161	-0.019
-428.617	797.433	0.059	0.162
-427.603	-200.000	0.031	0.285
-426.588	-200.000	-0.052	-0.350
-425.573	-27.604	-0.143	-0.083
-424.559	-200.000	0.021	-0.190
-423.544	-99.570	0.158	-0.039
-422.530	34.775	-0.118	0.103
-421.515	112.232	0.054	-0.065
-420.500	71.964	-0.035	-0.036
-419.486	800.000	0.073	0.310
-418.471	165.511	0.310	0.436
-417.457	-200.000	0.000	0.002
-416.442	-182.981	-0.234	-0.004
-415.428	-200.000	0.035	-0.188
-414.413	-200.000	0.016	-0.196
-413.398	91.054	0.115	-0.129
-412.384	-48.836	0.257	0.123
-411.369	-11.968	-0.216	0.141
-410.355	800.000	-0.038	0.140
-409.340	-43.019	0.394	0.199
-408.325	-200.000	0.000	0.080
-407.311	-95.791	0.076	0.020
-406.296	-200.000	0.026	-0.175
-405.282	-116.334	0.312	0.058
-404.267	-200.000	-0.008	0.212
-403.252	-118.112	0.324	0.058
-402.238	401.806	0.180	0.376
-401.223	-200.000	-0.034	0.317
-400.209	-116.169	0.100	0.019
-399.194	29.860	-0.205	-0.174
-398.179	-62.224	0.306	0.127
-397.165	74.291	0.276	0.288
-396.150	-52.475	-0.099	-0.046
-395.136	-53.680	-0.115	-0.052
-394.121	39.920	-0.244	0.218
-393.106	69.936	-0.247	0.253
-392.092	-200.000	-0.008	0.181
-391.077	49.787	-0.139	0.130
-390.063	-43.190	0.155	0.078
-389.048	85.002	0.055	0.060
-388.033	-66.801	-0.099	-0.039
-387.019	66.384	0.223	0.225
-386.004	40.218	-0.364	0.326
-384.990	-200.000	-0.001	-0.281
-383.975	-106.930	0.183	-0.040
-382.960	-200.000	-0.300	0.001
-381.946	-9.003	-0.153	-0.102
-380.931	-79.748	-0.376	0.126
-379.917	-21.207	-0.201	-0.122
-378.902	800.000	0.053	0.181
-377.888	-163.720	0.314	0.015
-376.873	800.000	0.084	-0.245
-375.858	319.205	-0.073	0.139
-374.844	128.809	-0.235	-0.298
-373.829	-200.000	0.014	-0.226
-372.815	800.000	0.123	-0.453
-371.800	-165.734	-0.166	0.007
-370.785	274.096	-0.063	0.112
-369.771	800.000	-0.082	-0.307
-368.756	-200.000	0.047	-0.246
-367.742	-32.890	-0.239	0.132
-366.727	158.211	0.078	0.107
-365.712	106.281	-0.189	0.222
-364.698	416.067	-0.103	-0.219
-363.683	-138.099	-0.285	0.031
-362.669	-153.352	0.126	0.009
-361.654	436.314	-0.080	-0.173
-360.639	-15.208	-0.227	-0.144
-359.625	-76.281	0.313	0.110
-358.610	76.907	-0.170	-0.179
-357.596	223.872	0.089	0.142
-356.581	308.719	0.196	-0.363
-355.566	20.815	0.284	-0.229
-354.552	719.929	-0.004	-0.010
-353.537	-31.274	0.107	-0.060
-352.523	800.000	0.044	0.139
-351.508	-40.014	-0.131	-0.068
-350.493	-25.166	-0.106	0.062
-349.479	800.000	-0.010	0.044
-348.464	137.448	-0.127	-0.164
-347.450	-200.000	0.025	-0.543
-346.435	79.223	-0.138	0.146
-345.420	185.723	0.198	0.292
-344.406	-200.000	0.125	-0.000
-343.391	-107.802	-0.180	0.039
-342.377	-88.751	0.236	0.070
-341.362	-39.871	-0.098	0.051
-340.348	277.831	0.081	0.143
-339.333	636.722	0.097	0.243
-338.318	731.518	0.012	0.031
-337.304	-13.475	-0.066	0.043
-336.289	-42.455	0.108	-0.054
-335.275	32.917	0.051	0.044
-334.260	157.633	0.072	0.099
-333.245	-168.912	0.159	-0.006
-332.231	800.000	-0.067	-0.268
-331.216	800.000	-0.078	-0.258
-330.202	-31.926	0.072	-0.040
-329.187	-200.000	0.059	0.385
-328.172	8.286	0.272	-0.203
-327.158	-43.741	-0.183	-0.092
-326.143	-17.486	-0.091	0.057
-325.129	107.622	-0.086	-0.101
-324.114	-35.887	0.209	0.112
-323.099	191.709	0.096	-0.144
-322.085	348.791	-0.122	0.238
-321.070	-164.795	-0.219	0.010
-320.056	12.239	0.135	0.103
-319.041	80.231	-0.162	0.173
-318.026	800.000	-0.095	-0.270
-317.012	159.686	0.027	0.038
-315.997	-111.115	-0.281	-0.057
-314.983	-64.875	0.191	0.077
-313.968	800.000	0.080	0.235
-312.953	-117.570	0.043	0.008
-311.939	800.000	-0.015	-0.048
-310.924	-140.487	-0.315	-0.032
-309.910	-2.783	0.092	-0.064
-308.895	451.022	0.006	-0.012
-307.880	134.031	-0.234	-0.301
-306.866	-200.000	0.004	-0.095
-305.851	-166.658	-0.361	-0.015
-304.837	800.000	-0.083	-0.232
-303.822	-55.443	-0.203	-0.090
-302.807	54.572	0.108	0.103
-301.793	-27.745	-0.023	-0.013
-300.778	323.377	-0.080	0.151
-299.764	243.306	-0.064	-0.106
-298.749	-129.246	-0.121	-0.017
-297.735	64.597	0.230	0.230
-296.720	2.169	-0.133	0.095
-295.705	23.062	0.117	0.095
-294.691	-200.000	-0.019	0.110
-293.676	131.531	0.033	0.042
-292.662	-62.863	0.197	-0.081
-291.647	-2.362	-0.098	0.068
-290.632	36.507	0.169	-0.148
-289.618	797.891	0.039	-0.105
-288.603	800.000	-0.062	0.268
-287.589	32.882	0.232	0.199
-286.574	147.448	0.054	-0.072
-285.559	-200.000	0.400	-0.001
-284.545	-200.000	-0.002	0.101
-283.530	-118.651	-0.126	-0.022
-282.516	3.941	-0.240	0.174
-281.501	-152.728	-0.396	-0.028
-280.486	800.000	0.080	-0.339
-279.472	86.801	-0.061	-0.067
-278.457	800.000	-0.190	-0.630
-277.443	482.832	-0.099	0.222
-276.428	159.267	-0.194	0.267
-275.413	349.338	-0.020	-0.040
-274.399	-125.973	0.468	0.070
-273.384	150.812	0.134	0.180
-272.370	742.955	-0.099	0.262
-271.355	-200.000	-0.020	-0.211
-270.340	-138.039	-0.367	-0.040
-269.326	-42.513	0.163	-0.082
-268.311	-65.590	-0.286	-0.114
-267.297	-82.311	0.010	-0.003
-266.282	-7.254	0.367	-0.246
-265.267	-200.000	0.015	0.120
-264.253	562.035	0.063	-0.152
-263.238	-71.734	-0.123	0.046
-262.224	-200.000	-0.000	-0.265
-261.209	-79.983	0.141	-0.047
-260.195	-200.000	-0.027	0.123
-259.180	-168.063	0.300	-0.012
-258.165	123.812	-0.172	0.213
-257.151	471.288	-0.063	0.140
-256.136	800.000	-0.051	-0.150
-255.122	-44.938	-0.149	-0.073
-254.107	369.930	-0.071	0.143
-253.092	-85.339	0.035	0.011
-252.078	-68.676	0.177	-0.068
-251.063	-200.000	-0.009	-0.067
-250.049	-40.155	0.170	-0.087
-249.034	-65.995	-0.161	0.064
-248.019	-133.866	0.210	0.026
-247.005	60.162	0.156	-0.152
-245.990	-51.182	-0.175	-0.081
-244.976	-97.047	0.134	-0.035
-243.961	526.096	0.103	-0.241
-242.946	-118.753	-0.197	-0.034
-241.932	-41.742	-0.240	0.122
-240.917	218.060	-0.078	0.124
-239.903	781.395	-0.022	-0.058
-238.888	-70.566	-0.255	-0.095
-237.873	79.422	0.046	-0.049
-236.859	-91.810	0.199	0.056
-235.844	-200.000	-0.025	-0.283
-234.830	800.000	0.078	-0.330
-233.815	-57.117	-0.287	-0.125
-232.800	-11.519	-0.140	0.091
-231.786	-183.035	0.228	-0.004
-230.771	-131.334	0.095	0.012
-229.757	800.000	-0.014	-0.054
-228.742	-32.804	0.344	-0.189
-227.727	800.000	-0.064	0.263
-226.713	-200.000	-0.020	-0.127
-225.698	-200.000	0.009	-0.245
-224.684	-154.790	-0.268	-0.018
-223.669	-200.000	-0.028	-0.133
-222.655	-106.620	-0.172	-0.038
-221.640	-59.354	0.231	-0.098
-220.625	-200.000	-0.028	-0.180
-219.611	-200.000	-0.083	-0.415
-218.596	-91.146	-0.243	0.069
-217.582	118.701	0.069	0.084
-216.567	-200.000	-0.004	0.069
-215.552	395.953	0.041	0.085
-214.538	-94.503	-0.181	0.049
-213.523	60.058	-0.196	-0.191
-212.509	-128.120	-0.341	-0.048
-211.494	57.179	-0.160	-0.155
-210.479	-200.000	-0.016	0.124
-209.465	-160.349	0.466	-0.025
-208.450	-137.992	0.267	0.029
-207.436	-79.887	0.229	0.076
-206.421	-97.985	-0.277	0.070
-205.406	-125.477	0.231	0.035
-204.392	-38.153	0.202	0.106
-203.377	355.707	0.207	0.407
-202.363	-200.000	-0.044	-0.213
-201.348	88.667	0.345	0.378
-200.333	59.838	0.236	0.230
-199.319	16.995	-0.082	0.064
-198.304	-39.000	0.094	-0.049
-197.290	-76.009	0.286	-0.100
-196.275	30.372	0.322	-0.271
-195.260	-200.000	0.011	0.253
-194.246	800.000	0.094	0.321
-193.231	800.000	-0.006	0.017
-192.217	-87.189	-0.079	-0.024
-191.202	-38.026	0.067	-0.035
-190.187	-71.694	-0.288	-0.106
-189.173	33.150	0.081	-0.070
-188.158	800.000	0.063	0.173
-187.144	293.581	-0.101	-0.182
-186.129	-23.989	0.189	-0.112
-185.114	-87.481	0.103	-0.031
-184.100	-76.003	-0.359	-0.125
-183.085	-60.353	0.298	-0.125
-182.071	107.093	-0.130	0.152
-181.056	-200.000	0.054	0.285
-180.042	-80.598	-0.321	0.106
-179.027	-49.841	0.397	-0.186
-178.012	-200.000	-0.004	0.087
-176.998	105.231	0.104	0.121
-175.983	234.321	-0.257	0.418
-174.969	-75.283	-0.283	-0.100
-173.954	254.709	0.136	0.230
-172.939	-193.276	-0.154	0.001
-171.925	-52.479	-0.021	0.010
-170.910	-88.337	-0.367	0.108
-169.896	800.000	0.074	-0.239
-168.881	-123.655	0.256	0.040
-167.866	-172.355	-0.146	0.005
-166.852	-200.000	0.010	0.176
-165.837	-184.290	0.310	0.005
-164.823	-9.643	-0.145	0.095
-163.808	143.749	0.216	-0.284
-162.793	-124.421	0.203	-0.031
-161.779	-28.017	-0.288	-0.164
-160.764	-102.558	-0.035	0.008
-159.750	-96.824	0.119	0.031
-158.735	-125.090	-0.173	-0.026
-157.720	173.959	0.196	0.280
-156.706	-19.251	0.239	0.146
-155.691	-20.673	-0.349	0.211
-154.677	-51.231	0.295	-0.136
-153.662	800.000	-0.021	0.062
-152.647	-107.639	0.332	-0.071
-151.633	-100.999	-0.056	-0.014
-150.618	800.000	0.079	0.261
-149.604	304.378	-0.106	0.193
-148.589	-200.000	0.017	0.095
-147.574	-46.440	-0.094	0.046
-146.560	800.000	0.110	-0.318
-145.545	-117.242	-0.294	-0.053
-144.531	70.460	0.248	-0.253
-143.516	44.360	-0.141	0.127
-142.502	-17.568	-0.204	-0.127
-141.487	301.015	-0.061	-0.110
-140.472	440.244	0.041	-0.089
-139.458	-129.923	-0.119	0.016
-138.443	43.171	-0.200	0.180
-137.429	207.793	0.293	0.451
-136.414	134.482	-0.160	-0.204
-135.399	-154.007	0.288	0.019
-134.385	175.322	0.079	-0.113
-133.370	342.006	-0.174	0.335
-132.356	319.438	0.105	0.196
-131.341	334.749	-0.031	0.059
-130.326	-15.669	0.195	0.122
-129.312	37.536	0.100	-0.087
-128.297	-200.000	0.010	-0.339
-127.283	-105.607	-0.134	-0.030
-126.268	-98.004	0.055	0.014
-125.253	-89.066	0.356	-0.104
-124.239	-37.627	0.044	0.023
-123.224	27.216	0.166	0.137
-122.210	17.381	0.065	-0.051
