DTS Sentinel unit serial number:	SN413079Multiplexer serial number:	ORYXHardware model number:	OX4-SRSoftware version number:	ORYX F/W v4.00 Oryx Data Collector v3.7.2.0data status	okinstallation	princeton_trtdifferential loss correction	single-endedforward channel	channel 2reverse channel	N/Adate	2019/09/11time	05:09:10forward acquisition time	60.00reverse acquisition time	0.00gamma	496.2192k internal	0.2329k external	0.2329temperature offset calibration	0.9943default loss term (dB/km)	0.3790temperature slope calibration	1.0000multiplexer offset coefficient	1.0000multiplexer slope coefficient	1.0000fibre end	0.00T internal ref (°C)	29.44T ext. ref 1 (°C)	-0.25T ext. ref 2 (°C)	23.37length (m)	temperature (°C)	Stokes	anti-Stokes-747.200	504.427	-0.109	-0.254
-746.185	-25.437	-0.278	0.166
-745.171	-56.332	0.392	0.176
-744.156	-63.553	-0.059	-0.024
-743.142	728.207	-0.040	-0.107
-742.127	23.037	0.175	0.145
-741.112	-57.293	-0.324	0.144
-740.098	-158.625	0.085	-0.005
-739.083	-52.966	-0.167	0.078
-738.069	-181.613	-0.259	-0.005
-737.054	119.076	-0.091	0.113
-736.039	-200.000	0.024	-0.379
-735.025	-137.798	0.067	0.008
-734.010	-23.203	-0.173	-0.105
-732.996	56.313	-0.283	-0.277
-731.981	15.778	0.111	-0.088
-730.966	119.203	-0.154	-0.192
-729.952	-147.685	-0.326	0.028
-728.937	-200.000	-0.072	-0.362
-727.923	316.418	-0.229	-0.436
-726.908	101.020	-0.226	-0.265
-725.894	-114.758	-0.407	-0.078
-724.879	291.859	-0.198	-0.363
-723.864	-155.078	-0.238	0.016
-722.850	275.230	-0.205	0.367
-721.835	24.858	0.078	-0.065
-720.821	-32.776	0.018	-0.010
-719.806	-134.385	-0.290	0.036
-718.791	151.188	0.106	0.145
-717.777	84.215	-0.308	0.339
-716.762	-109.739	-0.396	-0.084
-715.748	-200.000	0.062	-0.281
-714.733	130.159	-0.161	-0.208
-713.718	134.758	0.167	0.218
-712.704	10.440	-0.101	0.078
-711.689	65.222	0.058	-0.059
-710.675	364.960	0.065	0.132
-709.660	800.000	-0.042	-0.140
-708.645	-200.000	-0.330	-0.001
-707.631	800.000	0.055	-0.182
-706.616	56.825	0.308	0.302
-705.602	-178.457	-0.121	-0.003
-704.587	12.224	-0.220	-0.171
-703.572	103.574	0.076	0.090
-702.558	-109.289	-0.364	-0.078
-701.543	776.708	0.063	0.174
-700.529	800.000	0.071	0.270
-699.514	-1.519	-0.199	-0.141
-698.499	-200.000	-0.017	0.199
-697.485	-86.574	-0.483	0.149
-696.470	-71.567	-0.222	0.083
-695.456	-42.050	0.157	-0.081
-694.441	55.089	0.080	0.078
-693.426	800.000	-0.024	-0.070
-692.412	120.049	0.184	-0.230
-691.397	122.018	-0.056	-0.070
-690.383	-200.000	0.165	0.000
-689.368	50.732	0.108	-0.103
-688.354	-165.259	-0.094	-0.004
-687.339	-63.619	0.142	0.058
-686.324	-200.000	0.032	0.197
-685.310	101.236	-0.226	0.265
-684.295	-74.524	-0.115	-0.042
-683.281	-28.955	0.083	-0.048
-682.266	509.400	0.004	-0.010
-681.251	266.553	0.043	0.075
-680.237	-138.283	-0.340	-0.038
-679.222	46.956	0.138	-0.129
-678.208	-56.261	-0.229	-0.102
-677.193	-77.860	-0.295	-0.102
-676.178	-159.296	0.092	-0.005
-675.164	-88.837	-0.174	0.052
-674.149	19.511	-0.293	-0.236
-673.135	150.946	-0.183	-0.250
-672.120	104.255	0.260	-0.307
-671.105	-84.911	-0.294	-0.093
-670.091	-200.000	0.006	-0.047
-669.076	-200.000	0.033	-0.260
-668.062	-200.000	-0.009	0.380
-667.047	800.000	-0.083	0.255
-666.032	-1.354	-0.114	-0.081
-665.018	41.541	0.071	-0.064
-664.003	-200.000	-0.023	-0.109
-662.989	-92.832	0.192	-0.054
-661.974	205.933	0.071	0.110
-660.959	-96.145	0.254	0.068
-659.945	-134.383	-0.405	0.050
-658.930	631.456	0.026	-0.065
-657.916	146.388	0.134	0.180
-656.901	-60.529	-0.262	0.112
-655.886	-200.000	0.033	0.196
-654.872	-90.694	0.138	-0.040
-653.857	-4.345	-0.135	-0.093
-652.843	800.000	0.043	0.188
-651.828	20.971	0.138	0.112
-650.814	-113.235	0.019	0.004
-649.799	-93.266	-0.111	-0.031
-648.784	456.901	-0.013	0.030
-647.770	-107.518	0.619	-0.136
-646.755	-200.000	0.058	-0.273
-645.741	-200.000	-0.055	-0.288
-644.726	74.382	-0.318	-0.335
-643.711	154.436	0.179	-0.247
-642.697	6.492	-0.119	-0.088
-641.682	53.872	-0.096	-0.093
-640.668	-200.000	-0.017	-0.081
-639.653	-97.558	0.131	-0.034
-638.638	-200.000	0.033	0.297
-637.624	42.740	-0.366	-0.335
-636.609	-48.082	0.050	-0.024
-635.595	29.473	0.081	0.069
-634.580	499.505	-0.151	-0.349
-633.565	-200.000	0.010	0.285
-632.551	229.793	-0.196	-0.322
-631.536	-19.866	0.179	0.111
-630.522	592.072	-0.152	0.377
-629.507	91.350	0.181	-0.203
-628.492	-196.417	-0.196	-0.001
-627.478	265.097	0.125	-0.218
-626.463	234.818	-0.089	-0.148
-625.449	632.704	0.094	0.239
-624.434	-9.201	-0.268	0.180
-623.419	800.000	0.047	0.139
-622.405	20.837	0.082	-0.067
-621.390	-64.084	-0.189	-0.077
-620.376	15.883	-0.021	0.016
-619.361	-32.586	-0.072	0.040
-618.346	-156.607	0.124	-0.008
-617.332	-49.064	-0.405	-0.194
-616.317	-123.112	0.375	-0.060
-615.303	34.098	0.235	0.205
-614.288	-13.136	0.165	-0.108
-613.273	-89.040	0.050	0.015
-612.259	-114.469	0.321	-0.062
-611.244	800.000	0.036	0.122
-610.230	88.058	0.129	0.143
-609.215	-35.038	0.201	-0.110
-608.201	331.855	0.028	-0.054
-607.186	82.957	-0.183	-0.199
-606.171	517.132	0.118	0.276
-605.157	-6.709	0.169	-0.115
-604.142	217.792	-0.250	-0.399
-603.128	-133.271	0.242	-0.031
-602.113	407.172	-0.164	0.347
-601.098	800.000	0.092	-0.333
-600.084	-200.000	-0.020	-0.325
-599.069	-200.000	-0.016	-0.106
-598.055	-200.000	0.006	-0.194
-597.040	581.207	0.110	-0.270
-596.025	17.728	0.394	-0.314
-595.011	165.765	-0.168	-0.237
-593.996	-90.259	-0.243	0.071
-592.982	800.000	0.086	0.327
-591.967	-67.094	-0.130	-0.051
-590.952	-200.000	-0.027	-0.136
-589.938	-164.444	-0.286	-0.013
-588.923	715.488	-0.045	-0.121
-587.909	606.572	0.011	-0.029
-586.894	-200.000	0.027	0.138
-585.879	42.571	-0.279	0.254
-584.865	-15.780	-0.171	-0.109
-583.850	-200.000	-0.037	-0.282
-582.836	-54.517	0.112	0.051
-581.821	-69.222	0.368	-0.141
-580.806	276.050	-0.074	-0.132
-579.792	-200.000	0.012	0.199
-578.777	264.258	0.019	0.033
-577.763	54.013	0.099	0.096
-576.748	-200.000	-0.021	0.227
-575.733	6.078	-0.022	0.016
-574.719	-104.656	0.308	-0.071
-573.704	-80.710	0.164	-0.055
-572.690	231.341	-0.241	0.394
-571.675	-53.007	0.153	0.071
-570.661	-180.904	0.250	-0.005
-569.646	-49.815	-0.384	-0.182
-568.631	404.901	-0.055	-0.115
-567.617	-155.938	0.161	-0.010
-566.602	-31.868	0.027	0.015
-565.588	187.347	0.210	-0.314
-564.573	-64.542	0.250	-0.101
-563.558	800.000	0.007	0.023
-562.544	800.000	0.019	-0.058
-561.529	-200.000	0.085	0.436
-560.515	-200.000	0.015	0.276
-559.500	-96.805	0.266	0.070
-558.485	-97.971	0.060	-0.016
-557.471	-200.000	0.023	0.102
-556.456	-36.481	0.463	-0.249
-555.442	546.126	0.163	0.389
-554.427	-177.876	-0.186	-0.004
-553.412	-56.920	0.185	0.082
-552.398	554.748	-0.043	0.104
-551.383	-176.315	0.398	0.010
-550.369	800.000	-0.045	-0.146
-549.354	-11.849	0.144	0.094
-548.339	-32.045	0.220	0.123
-547.325	222.771	-0.129	-0.208
-546.310	-56.631	-0.339	-0.150
-545.296	-200.000	-0.002	-0.298
-544.281	503.450	-0.141	-0.326
-543.266	50.789	0.076	0.072
-542.252	305.055	-0.186	0.345
-541.237	800.000	0.029	0.104
-540.223	-78.882	-0.170	0.058
-539.208	-200.000	0.013	-0.122
-538.193	-161.200	0.339	-0.018
-537.179	800.000	-0.013	-0.037
-536.164	178.428	0.085	-0.124
-535.150	800.000	0.104	0.348
-534.135	-182.894	-0.264	0.005
-533.121	-144.703	-0.320	-0.029
-532.106	-52.401	-0.104	0.048
-531.091	800.000	-0.079	-0.226
-530.077	238.596	-0.200	-0.332
-529.062	340.710	-0.016	-0.030
-528.048	-127.205	-0.060	0.009
-527.033	246.070	-0.168	0.283
-526.018	-17.251	0.095	-0.060
-525.004	-160.666	0.243	0.013
-523.989	96.117	0.195	-0.222
-522.975	-200.000	-0.025	-0.254
-521.960	324.633	-0.114	-0.217
-520.945	5.579	0.299	0.220
-519.931	800.000	0.052	0.227
-518.916	-200.000	-0.023	0.280
-517.902	-123.678	0.154	0.024
-516.887	-200.000	-0.022	-0.416
-515.872	203.183	-0.093	-0.144
-514.858	110.527	-0.102	0.122
-513.843	309.594	0.013	-0.024
-512.829	227.832	-0.126	-0.205
-511.814	-173.500	0.266	0.008
-510.799	185.170	0.138	0.204
-509.785	98.898	-0.177	0.204
-508.770	-55.331	0.162	-0.073
-507.756	-97.301	-0.421	0.109
-506.741	-137.616	-0.271	-0.030
-505.726	-95.275	0.233	0.063
-504.712	643.008	0.133	0.337
-503.697	27.637	0.252	0.212
-502.683	9.917	0.361	-0.273
-501.668	800.000	0.069	-0.297
-500.653	239.608	-0.173	0.287
-499.639	-86.905	0.408	0.124
-498.624	251.135	0.057	-0.097
-497.610	-200.000	-0.022	-0.256
-496.595	450.694	-0.098	0.216
-495.581	87.301	0.100	0.110
-494.566	-200.000	0.021	-0.151
-493.551	-11.336	0.212	-0.139
-492.537	72.205	-0.109	0.113
-491.522	114.275	-0.158	0.191
-490.508	126.341	0.092	-0.116
-489.493	-173.652	0.319	-0.010
-488.478	-89.690	0.372	-0.109
-487.464	167.012	-0.014	-0.020
-486.449	-64.490	0.212	-0.086
-485.435	40.457	0.226	0.203
-484.420	-129.129	0.066	-0.009
-483.405	-200.000	0.093	-0.528
-482.391	75.884	-0.119	-0.125
-481.376	65.862	-0.132	-0.134
-480.362	-94.385	-0.361	-0.098
-479.347	786.212	0.073	0.199
-478.332	745.004	0.035	-0.093
-477.318	-79.530	-0.084	-0.028
-476.303	-123.100	-0.187	0.030
-475.289	589.070	0.083	0.204
-474.274	-39.759	-0.121	0.063
-473.259	451.027	0.118	0.260
-472.245	123.984	0.121	-0.151
-471.230	-62.502	-0.256	-0.106
-470.216	335.877	0.146	-0.281
-469.201	800.000	0.082	0.244
-468.186	-21.531	0.103	-0.062
-467.172	-111.463	-0.194	-0.039
-466.157	-200.000	-0.030	-0.370
-465.143	10.363	-0.204	0.154
-464.128	-101.134	0.116	-0.028
-463.113	311.436	-0.139	-0.260
-462.099	-38.588	-0.207	0.109
-461.084	-200.000	0.013	-0.092
-460.070	-55.691	-0.204	-0.091
-459.055	341.849	-0.161	-0.314
-458.040	-2.240	-0.225	0.157
-457.026	-1.925	-0.072	-0.050
-456.011	-53.586	-0.089	-0.040
-454.997	-20.384	-0.237	-0.145
-453.982	-86.495	0.158	-0.048
-452.968	131.856	-0.107	0.137
-451.953	103.136	0.232	0.271
-450.938	-135.042	0.161	-0.019
-449.924	48.637	0.239	0.223
-448.909	-200.000	0.030	0.157
-447.895	51.231	-0.222	-0.210
-446.880	793.619	-0.068	-0.185
-445.865	47.943	0.081	0.076
-444.851	26.809	-0.314	0.262
-443.836	-82.527	-0.226	-0.073
-442.822	120.558	-0.394	-0.488
-441.807	96.567	-0.098	0.112
-440.792	310.169	-0.073	0.135
-439.778	-200.000	0.019	-0.191
-438.763	800.000	0.033	0.100
-437.749	-200.000	0.002	-0.222
-436.734	346.063	-0.100	0.195
-435.719	132.669	-0.101	-0.130
-434.705	192.885	-0.091	0.137
-433.690	-70.844	0.058	0.022
-432.676	101.848	-0.180	0.209
-431.661	685.613	0.015	0.039
-430.646	-2.608	-0.151	0.105
-429.632	-128.621	-0.358	-0.050
-428.617	204.531	-0.100	0.154
-427.603	118.706	0.177	0.217
-426.588	146.337	-0.163	-0.218
-425.573	-200.000	0.033	0.296
-424.559	-84.388	-0.308	-0.097
-423.544	84.182	-0.226	0.245
-422.530	287.543	0.118	-0.213
-421.515	35.588	-0.075	-0.065
-420.500	-200.000	0.074	-0.345
-419.486	800.000	-0.013	0.049
-418.471	38.763	0.221	-0.196
-417.457	800.000	0.044	-0.128
-416.442	-118.966	-0.215	0.038
-415.428	132.742	0.153	0.196
-414.413	217.816	-0.085	-0.135
-413.398	428.107	0.036	-0.077
-412.384	177.005	-0.211	0.306
-411.369	-61.696	-0.199	-0.083
-410.355	-200.000	-0.017	0.250
-409.340	-8.086	0.142	-0.095
-408.325	-42.059	-0.192	-0.097
-407.311	42.940	-0.227	-0.206
-406.296	-7.911	0.085	0.057
-405.282	-56.305	-0.319	-0.141
-404.267	303.518	-0.110	-0.202
-403.252	0.233	0.087	-0.062
-402.238	-164.761	0.348	-0.016
-401.223	-78.734	-0.111	0.038
-400.209	137.686	0.072	-0.093
-399.194	-200.000	0.023	-0.253
-398.179	-113.644	0.154	-0.030
-397.165	-120.909	-0.204	-0.034
-396.150	218.428	0.050	0.080
-395.136	-56.234	-0.222	-0.098
-394.121	-200.000	0.001	-0.117
-393.106	-161.502	-0.162	0.008
-392.092	18.720	0.220	-0.175
-391.077	-200.000	0.063	0.422
-390.063	-43.689	-0.171	-0.086
-389.048	165.451	0.053	0.075
-388.033	-200.000	0.042	-0.224
-387.019	37.253	0.034	-0.030
-386.004	63.697	-0.095	0.095
-384.990	-39.915	0.300	0.156
-383.975	-110.101	0.067	-0.014
-382.960	-33.196	0.201	-0.110
-381.946	10.083	0.160	-0.121
-380.931	-157.081	0.267	0.016
-379.917	-76.356	-0.200	-0.070
-378.902	-200.000	-0.010	-0.131
-377.888	82.825	0.226	-0.244
-376.873	-97.597	-0.309	0.079
-375.858	-200.000	0.024	0.313
-374.844	60.364	0.274	0.269
-373.829	172.716	-0.082	-0.118
-372.815	74.210	-0.110	-0.114
-371.800	-131.249	-0.063	-0.008
-370.785	213.131	-0.054	-0.085
-369.771	800.000	0.071	0.218
-368.756	162.864	0.173	0.241
-367.742	-200.000	0.032	-0.296
-366.727	-102.660	-0.344	0.081
-365.712	303.192	-0.128	0.235
-364.698	-200.000	0.002	0.034
-363.683	275.159	0.167	-0.293
-362.669	442.138	0.157	0.342
-361.654	800.000	0.036	0.126
-360.639	800.000	0.037	-0.139
-359.625	-200.000	0.033	0.211
-358.610	-200.000	-0.002	-0.110
-357.596	98.422	0.113	-0.130
-356.581	-200.000	-0.025	-0.186
-355.566	-104.342	0.235	0.054
-354.552	137.899	-0.155	-0.202
-353.537	-49.784	0.053	0.025
-352.523	4.897	0.082	0.060
-351.508	-98.656	0.060	-0.015
-350.493	-18.711	0.277	-0.171
-349.479	79.655	0.148	-0.158
-348.464	800.000	0.022	0.063
-347.450	68.639	0.217	0.221
-346.435	-127.146	-0.124	-0.018
-345.420	-200.000	-0.027	-0.194
-344.406	-200.000	0.071	-0.364
-343.391	-119.407	0.111	0.019
-342.377	-17.706	-0.174	0.108
-341.362	-200.000	-0.007	0.220
-340.348	800.000	-0.101	-0.291
-339.333	-200.000	0.002	-0.069
-338.318	308.009	-0.088	-0.163
-337.304	74.932	0.194	-0.203
-336.289	800.000	0.155	0.490
-335.275	80.020	-0.153	-0.163
-334.260	113.420	-0.156	-0.187
-333.245	16.827	-0.090	-0.070
-332.231	-61.493	-0.343	0.143
-331.216	-28.578	0.055	-0.031
-330.202	-200.000	0.009	-0.085
-329.187	-200.000	0.045	0.209
-328.172	-200.000	-0.040	0.351
-327.158	-132.111	-0.228	0.029
-326.143	-49.104	-0.136	0.065
-325.129	-163.472	-0.192	0.009
-324.114	-200.000	0.006	0.164
-323.099	113.219	0.211	-0.253
-322.085	-200.000	-0.027	0.189
-321.070	-200.000	-0.024	0.170
-320.056	130.816	-0.149	0.190
-319.041	64.110	0.243	0.242
-318.026	-121.083	0.070	0.012
-317.012	207.830	0.058	0.090
-315.997	-103.621	-0.191	-0.044
-314.983	0.214	0.152	-0.107
-313.968	169.819	-0.167	-0.236
-312.953	-106.390	0.474	0.105
-311.939	-15.521	0.328	0.207
-310.924	-54.003	-0.194	0.087
-309.910	95.665	0.177	-0.199
-308.895	6.251	-0.179	-0.132
-307.880	83.822	-0.242	0.261
-306.866	382.254	0.086	0.174
-305.851	-200.000	-0.045	0.201
-304.837	-104.462	-0.368	0.084
-303.822	-91.476	0.173	0.049
-302.807	-148.174	0.223	0.018
-301.793	127.612	0.175	-0.221
-300.778	-74.028	-0.129	-0.046
-299.764	109.016	-0.121	-0.143
-298.749	370.600	0.005	-0.009
-297.735	-127.500	0.080	0.012
-296.720	104.670	-0.115	0.135
-295.705	-162.597	0.347	-0.017
-294.691	-200.000	-0.053	0.370
-293.676	50.932	-0.197	-0.185
-292.662	385.054	0.082	-0.167
-291.647	-6.587	-0.127	0.085
-290.632	-3.129	-0.297	-0.205
-289.618	-187.611	0.158	0.002
-288.603	800.000	-0.073	0.254
-287.589	643.269	-0.131	0.330
-286.574	-113.210	-0.056	0.011
-285.559	-57.992	0.088	0.038
-284.545	373.286	0.140	0.281
-283.530	-200.000	-0.073	-0.415
-282.516	-200.000	-0.049	0.217
-281.501	800.000	-0.059	0.191
-280.486	120.645	0.020	0.025
-279.472	242.593	0.117	-0.193
-278.457	11.802	-0.251	-0.190
-277.443	-200.000	-0.036	-0.326
-276.428	800.000	0.091	-0.253
-275.413	-200.000	-0.023	0.154
-274.399	-76.970	0.201	-0.069
-273.384	-63.778	0.190	0.077
-272.370	-124.658	-0.157	0.024
-271.355	217.449	-0.115	0.181
-270.340	-161.897	-0.109	0.005
-269.326	-200.000	-0.005	0.210
-268.311	-106.641	0.246	-0.054
-267.297	659.804	-0.072	0.184
-266.282	-59.246	-0.338	0.144
-265.267	-37.476	0.375	-0.198
-264.253	-83.618	0.174	-0.055
-263.238	-81.484	0.192	0.063
-262.224	0.561	-0.224	-0.158
-261.209	-200.000	0.043	0.280
-260.195	-200.000	0.021	0.262
-259.180	-40.738	-0.039	0.020
-258.165	-50.227	-0.230	0.107
-257.151	-16.762	-0.271	-0.170
-256.136	170.801	0.264	0.374
-255.122	-111.324	0.232	0.047
-254.107	-93.118	-0.336	0.093
-253.092	-3.616	0.089	-0.061
-252.078	-110.896	0.198	0.040
-251.063	-93.683	0.212	0.058
-250.049	-167.906	-0.474	-0.018
-249.034	15.710	-0.079	0.061
-248.019	-200.000	0.031	-0.179
-247.005	-200.000	0.011	-0.300
-245.990	214.314	0.180	0.281
-244.976	-26.394	0.206	-0.120
-243.961	120.844	0.139	-0.171
-242.946	-75.163	0.014	0.005
-241.932	291.773	0.274	0.492
-240.917	-107.454	0.304	-0.066
-239.903	373.862	-0.105	0.211
-238.888	-200.000	-0.040	-0.383
-237.873	-136.852	0.103	0.012
-236.859	339.211	-0.237	0.456
-235.844	329.518	-0.093	-0.176
-234.830	800.000	0.019	0.070
-233.815	-138.929	-0.214	-0.023
-232.800	-200.000	0.005	0.030
-231.786	-56.383	-0.103	0.045
-230.771	-155.871	-0.262	0.016
-229.757	-56.702	-0.134	-0.059
-228.742	-200.000	-0.031	-0.137
-227.727	-114.322	0.162	0.031
-226.713	-200.000	0.028	0.262
-225.698	86.094	-0.128	-0.139
-224.684	18.783	0.049	-0.039
-223.669	-200.000	-0.012	0.264
-222.655	800.000	0.034	0.101
-221.640	-60.802	0.286	0.119
-220.625	-20.271	0.191	-0.116
-219.611	800.000	0.045	-0.184
-218.596	599.954	0.067	0.164
-217.582	106.156	-0.110	-0.129
-216.567	-132.118	-0.410	-0.053
-215.552	304.224	-0.265	0.485
-214.538	80.623	0.262	0.279
-213.523	-126.501	-0.286	-0.042
-212.509	-200.000	0.016	0.227
-211.494	-144.703	-0.177	-0.016
-210.479	69.822	-0.168	0.171
-209.465	-200.000	0.031	0.239
-208.450	108.361	0.099	0.116
-207.436	-200.000	0.020	0.276
-206.421	50.602	-0.083	-0.078
-205.406	-14.767	-0.297	0.188
-204.392	-126.557	0.086	0.013
-203.377	-82.103	0.279	-0.090
-202.363	96.427	0.090	-0.101
-201.348	-200.000	0.007	0.041
-200.333	-10.348	-0.136	-0.089
-199.319	-26.495	0.315	0.182
-198.304	431.171	-0.024	-0.051
-197.290	-127.239	0.109	0.016
-196.275	468.640	0.086	0.190
-195.260	-44.718	0.124	-0.061
-194.246	800.000	0.072	0.243
-193.231	-200.000	0.024	0.129
-192.217	281.596	-0.077	0.136
-191.202	-76.037	-0.316	0.110
-190.187	272.788	0.082	0.143
-189.173	-77.773	0.147	-0.050
-188.158	-187.829	-0.277	-0.004
-187.144	147.420	0.203	0.269
-186.129	-200.000	0.017	0.107
-185.114	-132.821	0.147	0.019
-184.100	169.588	0.169	0.237
-183.085	9.866	-0.304	-0.227
-182.071	-200.000	0.021	-0.145
-181.056	21.049	-0.266	-0.213
-180.042	-200.000	0.020	-0.136
-179.027	-34.306	0.162	0.087
-178.012	183.010	-0.249	-0.362
-176.998	100.523	-0.219	-0.250
-175.983	-123.123	0.206	-0.032
-174.969	14.215	-0.239	-0.183
-173.954	65.463	-0.216	-0.215
-172.939	-200.000	0.001	0.135
-171.925	-38.365	-0.099	-0.051
-170.910	-49.631	0.079	-0.037
-169.896	-94.384	-0.302	-0.081
-168.881	-52.247	-0.185	0.085
-167.866	352.011	-0.098	0.191
-166.852	71.866	0.121	-0.124
-165.837	-200.000	-0.014	0.093
-164.823	800.000	0.093	0.279
-163.808	-48.263	-0.354	0.168
-162.793	41.521	-0.166	-0.148
-161.779	-113.811	0.252	0.048
-160.764	306.830	-0.093	0.170
-159.750	-2.593	-0.072	-0.050
-158.735	-10.791	0.239	0.155
-157.720	-200.000	0.033	-0.262
-156.706	221.836	-0.132	-0.209
-155.691	-129.065	0.210	0.029
-154.677	-43.665	0.323	0.160
-153.662	-200.000	0.006	0.056
-152.647	-200.000	0.021	0.101
-151.633	-54.032	0.211	0.095
-150.618	48.287	-0.099	0.091
-149.604	800.000	0.041	-0.114
-148.589	800.000	0.073	-0.282
-147.574	800.000	-0.012	-0.034
-146.560	205.854	-0.107	-0.164
-145.545	-121.067	-0.315	0.052
-144.531	-42.762	0.232	-0.116
-143.516	-12.082	-0.223	-0.144
-142.502	-105.311	0.202	0.045
-141.487	86.252	0.029	0.032
-140.472	800.000	-0.014	-0.053
-139.458	-200.000	0.048	0.295
-138.443	-200.000	-0.043	0.201
-137.429	-80.205	-0.308	-0.101
-136.414	-74.904	0.213	0.075
-135.399	235.912	0.129	-0.210
-134.385	546.485	0.079	-0.186
-133.370	129.258	-0.058	0.072
-132.356	-39.823	-0.034	0.017
-131.341	-200.000	-0.000	-0.189
-130.326	102.085	-0.176	-0.202
-129.312	-87.013	0.200	0.060
-128.297	-120.743	0.404	0.067
-127.283	35.453	0.078	-0.067
-126.268	108.157	-0.080	0.094
-125.253	71.724	-0.193	-0.198
-124.239	-157.904	0.104	0.006
-123.224	-101.725	0.052	0.012
-122.210	109.151	0.245	0.289
-121.195	62.537	0.178	0.175
