DTS Sentinel unit serial number:	SN413079Multiplexer serial number:	ORYXHardware model number:	OX4-SRSoftware version number:	ORYX F/W v4.00 Oryx Data Collector v3.7.2.0data status	okinstallation	princeton_trtdifferential loss correction	single-endedforward channel	channel 2reverse channel	N/Adate	2019/09/11time	10:05:11forward acquisition time	60.00reverse acquisition time	0.00gamma	496.2192k internal	0.2313k external	0.2313temperature offset calibration	0.9967default loss term (dB/km)	0.3790temperature slope calibration	1.0000multiplexer offset coefficient	1.0000multiplexer slope coefficient	1.0000fibre end	0.00T internal ref (°C)	35.52T ext. ref 1 (°C)	0.14T ext. ref 2 (°C)	33.01length (m)	temperature (°C)	Stokes	anti-Stokes-747.200	623.594	0.103	-0.263
-746.185	124.517	0.152	0.194
-745.171	-94.966	-0.416	-0.114
-744.156	-200.000	0.008	0.069
-743.142	70.438	0.168	-0.176
-742.127	147.224	-0.292	0.399
-741.112	32.929	-0.133	-0.117
-740.098	-29.692	-0.324	0.187
-739.083	58.488	0.250	-0.249
-738.069	-64.279	-0.321	-0.132
-737.054	-127.239	-0.054	-0.008
-736.039	734.293	0.082	-0.222
-735.025	215.324	-0.053	-0.085
-734.010	800.000	-0.121	0.386
-732.996	85.133	-0.127	-0.141
-731.981	800.000	0.054	-0.232
-730.966	800.000	-0.071	0.250
-729.952	-92.416	-0.097	0.028
-728.937	78.906	0.040	0.044
-727.923	-200.000	0.033	-0.325
-726.908	-200.000	0.012	0.118
-725.894	502.527	-0.143	0.335
-724.879	30.156	-0.409	0.354
-723.864	800.000	0.095	0.312
-722.850	93.318	0.203	0.232
-721.835	-200.000	-0.008	0.195
-720.821	-4.043	0.207	0.146
-719.806	36.432	0.144	0.129
-718.791	141.714	0.170	-0.228
-717.777	-103.488	0.244	-0.058
-716.762	89.013	0.082	-0.093
-715.748	800.000	0.042	-0.117
-714.733	-33.106	0.322	-0.181
-713.718	367.292	-0.112	0.230
-712.704	-82.414	-0.102	-0.033
-711.689	-152.341	0.271	-0.020
-710.675	14.891	0.327	0.259
-709.660	-200.000	0.012	-0.122
-708.645	533.810	0.096	-0.230
-707.631	8.610	0.170	0.129
-706.616	239.742	-0.048	0.080
-705.602	296.803	0.016	0.029
-704.587	173.531	0.100	0.146
-703.572	151.502	-0.164	-0.226
-702.558	29.195	-0.085	-0.073
-701.543	-8.730	0.293	-0.199
-700.529	597.274	0.044	0.111
-699.514	139.046	-0.132	-0.176
-698.499	800.000	-0.020	0.082
-697.485	234.024	-0.103	-0.172
-696.470	-46.102	-0.137	0.068
-695.456	108.754	0.196	0.237
-694.441	-99.733	-0.427	0.108
-693.426	-183.011	-0.283	-0.005
-692.412	121.212	-0.114	-0.144
-691.397	-42.517	0.382	0.197
-690.383	-187.917	-0.381	-0.005
-689.368	5.405	0.216	-0.161
-688.354	-70.259	-0.567	0.218
-687.339	-30.816	-0.303	0.173
-686.324	22.194	0.247	0.204
-685.310	-200.000	-0.007	-0.031
-684.295	-165.760	-0.101	-0.004
-683.281	-159.648	-0.113	0.006
-682.266	71.268	0.065	-0.068
-681.251	-200.000	-0.007	-0.079
-680.237	800.000	-0.028	0.120
-679.222	134.931	0.140	0.184
-678.208	166.793	-0.074	-0.107
-677.193	404.302	0.113	-0.241
-676.178	29.161	-0.271	-0.232
-675.164	2.043	-0.188	0.138
-674.149	800.000	0.016	0.059
-673.135	-200.000	-0.000	0.071
-672.120	-61.627	0.114	-0.048
-671.105	-49.264	-0.324	-0.157
-670.091	-110.810	0.113	0.023
-669.076	217.066	-0.124	0.200
-668.062	-44.638	-0.254	0.128
-667.047	158.629	0.088	0.123
-666.032	232.371	0.072	0.120
-665.018	99.237	0.271	-0.317
-664.003	-184.606	0.238	0.004
-662.989	-9.241	-0.142	-0.096
-661.974	-168.734	0.102	0.004
-660.959	-200.000	0.049	0.235
-659.945	95.115	-0.104	-0.120
-658.930	398.308	-0.018	-0.039
-657.916	800.000	-0.069	-0.263
-656.901	-88.364	0.094	-0.028
-655.886	-200.000	-0.002	-0.200
-654.872	60.844	0.106	0.107
-653.857	16.913	0.141	-0.113
-652.843	46.552	-0.164	-0.154
-651.828	-34.472	-0.178	-0.098
-650.814	-43.142	-0.248	0.127
-649.799	-200.000	0.022	0.203
-648.784	311.576	-0.169	0.320
-647.770	-94.620	-0.135	0.037
-646.755	58.240	0.113	0.112
-645.741	384.086	-0.133	0.277
-644.726	-178.809	-0.113	0.003
-643.711	-200.000	-0.019	-0.169
-642.697	-127.363	-0.318	0.047
-641.682	800.000	-0.026	-0.103
-640.668	-200.000	0.061	-0.543
-639.653	13.738	-0.337	0.264
-638.638	-117.708	-0.176	-0.032
-637.624	-137.171	-0.371	0.043
-636.609	702.073	-0.101	-0.270
-635.595	-31.004	-0.149	-0.085
-634.580	-90.034	-0.324	0.095
-633.565	-84.329	-0.157	-0.050
-632.551	-26.841	-0.057	-0.034
-631.536	-3.955	0.373	-0.261
-630.522	800.000	-0.045	-0.194
-629.507	-43.480	0.183	-0.093
-628.492	-132.375	-0.103	-0.013
-627.478	-59.914	-0.190	0.082
-626.463	-200.000	0.013	-0.119
-625.449	277.241	0.049	0.088
-624.434	800.000	-0.101	0.285
-623.419	69.067	-0.132	0.137
-622.405	-27.951	0.245	0.143
-621.390	-84.304	0.198	0.063
-620.376	-66.810	0.237	0.095
-619.361	-0.223	-0.063	-0.045
-618.346	153.873	-0.141	-0.195
-617.332	-200.000	-0.014	-0.197
-616.317	800.000	0.083	0.353
-615.303	95.383	0.025	-0.029
-614.288	-14.242	0.251	-0.163
-613.273	-200.000	-0.025	-0.310
-612.259	53.518	0.307	-0.297
-611.244	233.872	-0.140	0.233
-610.230	148.682	0.061	-0.083
-609.215	-200.000	-0.013	-0.211
-608.201	-141.988	-0.277	0.028
-607.186	-200.000	0.019	0.400
-606.171	-151.562	-0.152	-0.011
-605.157	-81.461	0.404	-0.134
-604.142	-146.805	-0.241	-0.021
-603.128	-200.000	-0.037	-0.206
-602.113	800.000	0.033	-0.128
-601.098	-200.000	-0.024	-0.126
-600.084	-200.000	0.003	0.090
-599.069	-176.042	-0.232	-0.006
-598.055	-103.434	-0.166	-0.039
-597.040	-200.000	-0.011	-0.256
-596.025	-44.487	0.088	0.044
-595.011	-61.944	0.177	0.075
-593.996	-200.000	0.044	0.278
-592.982	536.436	0.071	-0.169
-591.967	-200.000	-0.021	-0.375
-590.952	-188.508	0.074	0.001
-589.938	-200.000	0.005	-0.467
-588.923	60.229	-0.085	0.085
-587.909	103.374	0.065	0.077
-586.894	-200.000	0.014	0.071
-585.879	-174.113	0.109	0.003
-584.865	-124.067	0.097	0.015
-583.850	290.044	0.030	0.055
-582.836	88.159	-0.104	-0.116
-581.821	56.804	-0.101	0.099
-580.806	800.000	0.049	-0.137
-579.792	266.741	-0.145	-0.256
-578.777	-90.507	-0.374	0.109
-577.763	636.234	-0.030	0.076
-576.748	292.944	-0.143	-0.262
-575.733	731.554	0.098	-0.264
-574.719	800.000	-0.006	0.019
-573.704	385.954	0.013	0.026
-572.690	-200.000	-0.025	-0.187
-571.675	-200.000	0.009	0.143
-570.661	207.073	-0.125	-0.196
-569.646	-146.820	0.003	0.000
-568.631	99.462	0.330	-0.385
-567.617	-200.000	-0.086	-0.418
-566.602	-200.000	0.009	0.050
-565.588	204.522	0.149	0.232
-564.573	-150.668	-0.385	0.030
-563.558	4.969	0.127	-0.094
-562.544	-200.000	0.020	-0.347
-561.529	-84.557	0.355	-0.113
-560.515	800.000	-0.087	0.315
-559.500	-200.000	-0.016	0.123
-558.485	800.000	-0.020	-0.077
-557.471	115.053	-0.080	-0.098
-556.456	637.630	0.027	-0.069
-555.442	-200.000	0.028	-0.325
-554.427	364.028	0.019	0.038
-553.412	-84.787	-0.152	-0.048
-552.398	-154.000	-0.248	-0.017
-551.383	-200.000	0.054	-0.341
-550.369	-200.000	-0.002	-0.233
-549.354	-108.936	-0.255	0.055
-548.339	-200.000	-0.048	0.290
-547.325	-47.219	-0.164	-0.081
-546.310	6.594	-0.184	-0.138
-545.296	-23.799	0.180	-0.109
-544.281	81.197	-0.040	0.043
-543.266	2.711	-0.267	0.195
-542.252	-200.000	0.059	-0.301
-541.237	-57.459	-0.150	0.066
-540.223	-54.931	0.150	0.068
-539.208	-106.484	0.282	0.063
-538.193	-200.000	-0.005	0.169
-537.179	800.000	-0.077	0.233
-536.164	-20.975	-0.055	-0.034
-535.150	-200.000	0.046	0.375
-534.135	122.685	0.143	-0.180
-533.121	800.000	-0.092	0.385
-532.106	-17.264	0.329	0.208
-531.091	-38.513	-0.133	0.071
-530.077	752.683	0.045	-0.123
-529.062	62.128	0.123	-0.123
-528.048	-200.000	-0.014	0.120
-527.033	-138.980	-0.256	-0.028
-526.018	-197.604	0.101	0.001
-525.004	216.112	0.121	0.194
-523.989	-200.000	0.032	0.171
-522.975	-200.000	-0.001	0.155
-521.960	-200.000	-0.052	-0.284
-520.945	-114.347	-0.264	-0.051
-519.931	-5.446	0.125	-0.086
-518.916	-200.000	0.007	0.115
-517.902	-36.194	-0.112	0.061
-516.887	151.562	-0.139	-0.190
-515.872	316.146	-0.166	0.315
-514.858	-171.181	0.107	0.004
-513.843	-138.894	-0.092	-0.010
-512.829	-153.446	0.133	0.009
-511.814	464.123	0.059	-0.132
-510.799	53.382	0.205	-0.197
-509.785	81.282	-0.259	-0.281
-508.770	49.724	-0.217	0.205
-507.756	78.429	-0.248	-0.266
-506.741	-200.000	0.064	-0.381
-505.726	184.940	-0.239	-0.357
-504.712	-41.569	0.367	-0.190
-503.697	130.055	-0.017	0.022
-502.683	800.000	0.118	-0.420
-501.668	40.408	0.080	0.073
-500.653	-175.907	-0.413	-0.011
-499.639	45.255	0.188	-0.174
-498.624	-31.304	0.322	0.182
-497.610	25.680	-0.303	0.254
-496.595	222.874	0.166	-0.269
-495.581	-21.035	0.234	0.144
-494.566	-101.227	-0.151	-0.037
-493.551	468.830	-0.037	-0.084
-492.537	-87.779	-0.186	0.056
-491.522	176.247	0.182	-0.265
-490.508	-200.000	0.011	-0.207
-489.493	-12.891	-0.196	0.128
-488.478	174.293	0.158	0.229
-487.464	-200.000	-0.031	0.215
-486.449	-36.966	0.186	-0.100
-485.435	172.616	0.008	0.011
-484.420	592.560	-0.064	0.160
-483.405	337.430	-0.112	0.219
-482.391	665.725	-0.020	0.053
-481.376	56.461	0.194	-0.189
-480.362	148.027	0.087	0.117
-479.347	800.000	-0.049	0.189
-478.332	12.687	0.322	-0.250
-477.318	800.000	0.060	-0.262
-476.303	-89.280	-0.228	-0.068
-475.289	-94.938	0.093	-0.025
-474.274	500.099	-0.155	-0.358
-473.259	-37.424	0.223	-0.120
-472.245	115.972	0.095	-0.117
-471.230	499.688	-0.196	-0.453
-470.216	800.000	-0.034	0.131
-469.201	-145.077	-0.021	0.002
-468.186	-119.093	0.202	-0.035
-467.172	-31.039	-0.191	-0.108
-466.157	-130.442	0.192	-0.026
-465.143	257.749	-0.268	-0.462
-464.128	-48.369	-0.095	-0.046
-463.113	-200.000	-0.002	0.272
-462.099	74.662	0.173	-0.183
-461.084	774.781	0.072	0.196
-460.070	96.916	0.228	-0.263
-459.055	-200.000	-0.025	-0.153
-458.040	65.333	-0.230	0.234
-457.026	-9.109	-0.376	0.252
-456.011	122.439	-0.114	0.143
-454.997	-38.614	0.261	0.138
-453.982	-61.763	-0.078	-0.033
-452.968	-3.181	-0.210	0.147
-451.953	-56.273	-0.079	0.035
-450.938	-156.108	0.241	-0.015
-449.924	108.135	0.176	0.210
-448.909	125.009	-0.121	0.152
-447.895	-200.000	0.035	-0.173
-446.880	-12.585	-0.178	0.116
-445.865	262.094	0.004	-0.007
-444.851	209.921	0.215	0.339
-443.836	-18.549	0.424	-0.265
-442.822	-75.874	0.154	0.055
-441.807	-102.177	-0.342	-0.083
-440.792	177.197	-0.218	0.318
-439.778	-163.040	0.130	-0.006
-438.763	-112.637	0.136	-0.027
-437.749	-117.422	-0.046	-0.008
-436.734	155.456	-0.063	0.087
-435.719	141.143	-0.049	0.065
-434.705	119.677	0.130	-0.161
-433.690	-200.000	-0.004	0.056
-432.676	800.000	0.038	0.110
-431.661	26.729	0.163	0.136
-430.646	558.338	-0.073	0.177
-429.632	259.745	0.039	0.067
-428.617	57.601	-0.019	0.019
-427.603	-200.000	-0.049	0.340
-426.588	-45.658	-0.107	0.053
-425.573	800.000	0.067	-0.209
-424.559	-87.969	0.458	0.138
-423.544	62.211	-0.128	0.128
-422.530	-125.836	-0.186	0.028
-421.515	-167.000	0.241	0.010
-420.500	800.000	-0.155	-0.505
-419.486	-22.638	0.235	0.142
-418.471	55.194	0.210	-0.203
-417.457	38.362	-0.185	-0.165
-416.442	92.495	0.277	0.312
-415.428	-114.614	-0.081	0.016
-414.413	150.658	-0.173	0.236
-413.398	800.000	0.050	0.159
-412.384	800.000	0.017	-0.063
-411.369	-41.099	0.018	-0.009
-410.355	141.153	0.089	0.118
-409.340	361.215	-0.056	0.112
-408.325	326.260	0.098	0.187
-407.311	-128.288	-0.404	0.058
-406.296	0.721	0.216	0.155
-405.282	144.536	0.246	0.329
-404.267	-101.534	0.207	0.050
-403.252	-87.887	-0.440	-0.133
-402.238	-200.000	-0.026	0.180
-401.223	-200.000	0.015	0.193
-400.209	95.681	0.179	-0.205
-399.194	22.054	-0.164	0.134
-398.179	6.325	0.087	0.065
-397.165	-81.101	-0.140	-0.046
-396.150	-154.090	0.465	-0.032
-395.136	-83.265	0.138	-0.044
-394.121	-69.005	0.210	0.081
-393.106	800.000	0.043	-0.133
-392.092	7.718	0.086	0.065
-391.077	136.533	-0.267	0.348
-390.063	46.513	-0.097	-0.090
-389.048	-33.385	0.266	0.147
-388.033	-157.287	0.417	0.025
-387.019	-151.419	0.366	-0.027
-386.004	-45.593	0.217	-0.107
-384.990	59.959	-0.217	-0.214
-383.975	-65.830	0.317	0.127
-382.960	-149.661	0.142	0.011
-381.946	-118.578	-0.271	-0.048
-380.931	800.000	0.092	0.399
-379.917	56.536	0.034	-0.033
-378.902	800.000	0.047	-0.146
-377.888	221.341	0.142	-0.227
-376.873	151.025	0.175	-0.239
-375.858	161.119	-0.164	0.229
-374.844	-165.598	0.268	0.012
-373.829	-156.227	-0.255	0.016
-372.815	-55.817	-0.020	-0.009
-371.800	-37.072	-0.426	-0.228
-370.785	54.409	-0.181	0.175
-369.771	433.137	-0.072	0.157
-368.756	-200.000	-0.001	-0.023
-367.742	-60.248	0.012	0.005
-366.727	253.390	0.188	0.322
-365.712	23.552	-0.090	0.074
-364.698	599.676	0.137	-0.341
-363.683	-110.589	-0.260	-0.054
-362.669	-200.000	0.017	0.099
-361.654	-200.000	0.005	0.046
-360.639	67.540	-0.164	0.168
-359.625	-200.000	-0.063	-0.278
-358.610	774.130	0.112	0.306
-357.596	800.000	0.063	-0.197
-356.581	6.897	0.226	-0.168
-355.566	-173.208	0.278	0.008
-354.552	11.957	0.081	-0.063
-353.537	8.526	0.280	-0.211
-352.523	-99.611	-0.080	-0.020
-351.508	-70.535	-0.151	-0.057
-350.493	274.774	-0.105	0.186
-349.479	-67.373	-0.089	0.035
-348.464	-200.000	-0.004	0.260
-347.450	-98.933	0.450	0.114
-346.435	7.816	-0.124	0.093
-345.420	206.039	0.095	-0.148
-344.406	80.586	0.120	-0.130
-343.391	-34.918	-0.242	0.132
-342.377	-89.510	0.372	-0.109
-341.362	800.000	-0.049	0.193
-340.348	-111.839	0.317	-0.064
-339.333	-111.924	0.538	-0.108
-338.318	-164.987	0.205	0.009
-337.304	-74.404	0.233	0.084
-336.289	196.342	0.091	0.139
-335.275	424.907	-0.153	0.329
-334.260	-3.376	-0.101	-0.071
-333.245	-77.736	0.212	0.073
-332.231	-103.428	0.267	-0.063
-331.216	-34.428	-0.171	0.094
-330.202	42.389	-0.214	0.194
-329.187	-118.517	-0.235	-0.041
-328.172	-108.911	0.268	-0.057
-327.158	62.539	0.190	0.189
-326.143	-122.187	-0.346	-0.057
-325.129	133.589	-0.145	-0.188
-324.114	241.749	0.283	0.471
-323.099	289.726	0.109	0.197
-322.085	-88.676	-0.318	0.094
-321.070	751.298	-0.183	0.494
-320.056	27.575	-0.095	-0.080
-319.041	-200.000	0.032	0.182
-318.026	33.400	-0.089	-0.077
-317.012	-60.733	-0.252	-0.106
-315.997	34.722	0.095	-0.083
-314.983	290.595	0.055	0.100
-313.968	5.467	-0.221	-0.163
-312.953	-23.709	-0.073	0.044
-311.939	-45.802	0.030	-0.015
-310.924	-200.000	0.015	-0.130
-309.910	20.067	0.191	-0.154
-308.895	-200.000	0.004	0.103
-307.880	42.894	0.310	0.281
-306.866	-66.061	-0.260	-0.103
-305.851	-200.000	0.021	0.180
-304.837	-16.465	0.279	0.176
-303.822	348.684	-0.088	0.172
-302.807	567.850	0.098	-0.238
-301.793	-200.000	-0.026	-0.154
-300.778	-41.313	-0.236	0.121
-299.764	-33.809	-0.352	-0.193
-298.749	176.549	0.102	0.148
-297.735	800.000	0.203	0.599
-296.720	-129.228	-0.385	0.053
-295.705	800.000	0.055	-0.165
-294.691	-74.975	-0.434	0.155
-293.676	-200.000	-0.001	-0.321
-292.662	81.552	0.110	-0.119
-291.647	-65.824	0.180	0.072
-290.632	-2.623	-0.119	0.083
-289.618	-54.105	-0.419	-0.190
-288.603	28.983	-0.170	0.143
-287.589	-99.719	0.132	-0.033
-286.574	302.483	0.108	0.199
-285.559	67.643	-0.280	-0.285
-284.545	-200.000	0.020	-0.257
-283.530	-21.562	0.144	0.087
-282.516	130.730	0.335	-0.428
-281.501	25.773	0.172	-0.143
-280.486	149.373	0.128	-0.172
-279.472	338.268	0.217	0.420
-278.457	139.257	0.115	-0.150
-277.443	744.031	-0.078	-0.208
-276.428	171.866	0.156	-0.223
-275.413	-142.009	0.319	0.032
-274.399	136.891	-0.227	-0.296
-273.384	-58.094	-0.104	0.045
-272.370	61.640	-0.126	0.125
-271.355	-19.214	0.220	-0.136
-270.340	-200.000	0.022	0.173
-269.326	214.364	0.053	0.083
-268.311	165.047	0.086	-0.121
-267.297	800.000	0.018	-0.058
-266.282	-32.253	0.472	0.263
-265.267	217.412	0.090	0.143
-264.253	77.875	-0.121	-0.129
-263.238	-97.522	0.147	-0.038
-262.224	24.619	0.119	-0.098
-261.209	-67.339	-0.297	0.116
-260.195	41.643	0.180	0.163
-259.180	41.266	0.186	-0.167
-258.165	-38.619	-0.071	-0.037
-257.151	473.192	-0.248	0.557
-256.136	-133.746	0.333	0.041
-255.122	-200.000	-0.016	0.173
-254.107	-59.488	0.369	-0.158
-253.092	98.317	0.170	-0.195
-252.078	321.580	0.077	0.146
-251.063	54.281	0.135	-0.129
-250.049	-114.579	0.198	-0.038
-249.034	-3.499	-0.162	-0.112
-248.019	-43.008	-0.107	-0.054
-247.005	-200.000	0.003	-0.190
-245.990	32.579	0.087	-0.075
-244.976	78.069	0.189	-0.200
-243.961	-39.842	0.253	0.131
-242.946	96.236	-0.098	0.111
-241.932	417.787	0.014	0.031
-240.917	396.537	-0.089	0.185
-239.903	-9.359	-0.391	0.260
-238.888	137.389	0.051	-0.066
-237.873	295.356	0.166	0.303
-236.859	63.200	0.059	-0.058
-235.844	385.424	-0.073	-0.149
-234.830	58.230	-0.400	-0.389
-233.815	-74.595	-0.132	-0.047
-232.800	800.000	-0.061	0.185
-231.786	-200.000	-0.013	0.264
-230.771	800.000	-0.077	0.276
-229.757	188.196	-0.043	-0.063
-228.742	17.660	-0.053	0.042
-227.727	58.764	0.268	-0.262
-226.713	-61.032	-0.275	0.116
-225.698	800.000	-0.098	0.358
-224.684	800.000	-0.049	0.180
-223.669	-200.000	-0.004	-0.423
-222.655	-88.749	0.333	-0.098
-221.640	48.406	-0.150	-0.139
-220.625	-101.600	0.174	0.042
-219.611	-105.257	-0.301	-0.068
-218.596	480.384	0.108	-0.242
-217.582	32.310	0.138	0.119
-216.567	-22.114	-0.234	-0.141
-215.552	-92.739	-0.348	-0.097
-214.538	-200.000	0.012	-0.144
-213.523	259.144	-0.136	-0.233
-212.509	18.495	-0.291	-0.231
-211.494	800.000	-0.078	-0.285
-210.479	207.692	0.078	-0.121
-209.465	-200.000	-0.071	0.458
-208.450	18.238	-0.144	0.114
-207.436	-145.181	0.331	0.030
-206.421	-200.000	-0.093	0.425
-205.406	-121.625	0.360	-0.059
-204.392	-45.499	-0.139	0.068
-203.377	634.463	-0.035	-0.089
-202.363	78.497	-0.062	-0.065
-201.348	42.187	-0.087	0.079
-200.333	-51.335	0.135	0.063
-199.319	-44.973	0.126	0.062
-198.304	800.000	0.025	-0.073
-197.290	-132.593	-0.476	-0.061
-196.275	108.766	-0.122	-0.145
-195.260	258.801	0.114	-0.195
-194.246	800.000	-0.035	0.132
-193.231	800.000	0.077	-0.238
-192.217	-123.081	0.295	-0.047
-191.202	0.936	-0.226	0.161
-190.187	-34.668	-0.285	0.155
-189.173	-122.710	0.314	0.050
-188.158	279.863	0.090	0.160
-187.144	800.000	-0.039	0.167
-186.129	85.690	0.116	0.126
-185.114	39.931	0.109	0.097
-184.100	63.088	-0.306	-0.304
-183.085	-200.000	-0.015	0.136
-182.071	-26.033	-0.324	0.189
-181.056	33.154	0.102	-0.088
-180.042	-200.000	0.041	-0.244
-179.027	-79.867	0.466	-0.156
-178.012	161.539	0.096	-0.133
-176.998	800.000	0.042	-0.128
-175.983	-120.607	0.099	0.017
-174.969	-125.509	0.185	-0.028
-173.954	494.278	-0.183	-0.417
-172.939	-148.669	-0.291	0.023
-171.925	578.050	0.163	0.396
-170.910	800.000	-0.092	0.319
-169.896	-117.885	0.050	0.009
-168.881	-200.000	-0.020	-0.094
-167.866	58.856	0.037	0.036
-166.852	102.756	-0.230	-0.267
-165.837	-4.782	-0.203	0.139
-164.823	-128.656	0.106	-0.015
-163.808	78.426	0.092	-0.097
-162.793	800.000	0.085	0.255
-161.779	-84.054	-0.391	0.123
-160.764	-133.370	-0.226	-0.028
-159.750	152.793	-0.168	0.228
-158.735	800.000	-0.074	0.281
-157.720	595.140	-0.080	0.197
-156.706	-181.532	-0.086	0.002
-155.691	-200.000	0.001	-0.199
-154.677	-84.408	-0.147	-0.046
-153.662	-163.562	0.074	-0.003
-152.647	49.737	-0.401	0.374
-151.633	-60.060	-0.105	0.044
-150.618	531.379	-0.100	0.235
-149.604	197.363	0.068	-0.103
-148.589	800.000	0.072	-0.280
-147.574	-135.300	0.092	0.011
-146.560	-200.000	0.015	-0.116
-145.545	800.000	-0.024	0.100
-144.531	-58.689	-0.017	-0.007
-143.516	34.954	0.376	0.326
-142.502	75.933	0.131	0.138
-141.487	-42.418	-0.324	0.164
-140.472	359.554	-0.029	0.057
-139.458	-63.010	-0.105	0.043
-138.443	69.941	-0.138	0.141
-137.429	-200.000	0.018	0.094
-136.414	-70.953	-0.178	0.066
-135.399	97.036	-0.113	0.128
-134.385	-0.255	-0.305	0.215
-133.370	-6.883	-0.182	0.123
-132.356	315.629	-0.099	-0.185
-131.341	230.418	-0.252	-0.408
-130.326	194.055	-0.291	-0.436
-129.312	-59.193	0.094	-0.040
-128.297	-37.281	-0.116	0.061
-127.283	-200.000	-0.038	-0.192
-126.268	58.862	0.289	-0.281
-125.253	227.825	-0.210	-0.338
-124.239	363.626	0.158	0.313
-123.224	-100.218	0.067	-0.016
-122.210	83.046	-0.156	-0.168
-121.195	-111.262	-0.034	0.007
-120.180	43.862	0.156	-0.141
