DTS Sentinel unit serial number:	SN413079Multiplexer serial number:	ORYXHardware model number:	OX4-SRSoftware version number:	ORYX F/W v4.00 Oryx Data Collector v3.7.2.0data status	okinstallation	princeton_trtdifferential loss correction	single-endedforward channel	channel 2reverse channel	N/Adate	2019/09/12time	07:29:11forward acquisition time	60.00reverse acquisition time	0.00gamma	496.2192k internal	0.2323k external	0.2323temperature offset calibration	1.0062default loss term (dB/km)	0.3790temperature slope calibration	1.0000multiplexer offset coefficient	1.0000multiplexer slope coefficient	1.0000fibre end	0.00T internal ref (°C)	32.48T ext. ref 1 (°C)	1.62T ext. ref 2 (°C)	29.06length (m)	temperature (°C)	Stokes	anti-Stokes-747.200	24.227	-0.092	-0.077
-746.185	-46.140	0.075	0.037
-745.171	-28.892	0.249	-0.145
-744.156	99.997	0.058	-0.068
-743.142	-71.849	0.117	-0.044
-742.127	7.329	-0.208	0.157
-741.112	136.122	-0.198	-0.260
-740.098	-95.653	-0.242	0.065
-739.083	131.883	0.158	0.206
-738.069	-200.000	-0.002	-0.134
-737.054	263.962	0.082	0.145
-736.039	26.916	-0.175	-0.148
-735.025	-100.371	-0.052	0.013
-734.010	4.439	-0.102	-0.076
-732.996	-191.797	-0.314	0.003
-731.981	9.890	-0.253	0.194
-730.966	91.746	-0.117	-0.132
-729.952	77.893	-0.017	-0.018
-728.937	45.846	0.370	-0.345
-727.923	73.505	-0.071	0.075
-726.908	117.903	0.102	0.127
-725.894	-62.247	-0.224	-0.094
-724.879	123.652	-0.139	-0.176
-723.864	-67.622	0.135	-0.053
-722.850	80.249	-0.071	0.078
-721.835	-200.000	0.001	-0.181
-720.821	31.793	0.044	0.038
-719.806	205.136	0.092	0.144
-718.791	274.530	-0.254	-0.453
-717.777	-140.330	-0.154	-0.016
-716.762	-3.322	0.066	-0.047
-715.748	-200.000	0.014	-0.451
-714.733	800.000	-0.049	-0.203
-713.718	-86.960	0.132	-0.041
-712.704	-134.966	0.285	-0.035
-711.689	307.145	-0.170	-0.320
-710.675	-74.947	-0.472	-0.171
-709.660	-117.019	0.252	0.046
-708.645	-67.171	-0.317	-0.126
-707.631	-200.000	0.045	-0.252
-706.616	186.533	0.137	-0.206
-705.602	-200.000	-0.045	-0.225
-704.587	85.522	0.282	-0.313
-703.572	-22.348	-0.310	-0.189
-702.558	-200.000	-0.022	0.111
-701.543	-103.824	0.314	-0.074
-700.529	-123.661	-0.240	-0.038
-699.514	-65.905	0.183	0.074
-698.499	-43.963	0.139	-0.070
-697.485	667.620	0.154	0.401
-696.470	-200.000	0.001	-0.008
-695.456	800.000	0.033	-0.140
-694.441	-81.724	0.252	0.083
-693.426	-108.312	-0.383	-0.083
-692.412	58.825	0.160	-0.158
-691.397	-200.000	-0.023	-0.165
-690.383	800.000	-0.010	-0.030
-689.368	163.267	0.050	-0.071
-688.354	72.630	0.141	-0.148
-687.339	356.338	0.194	-0.389
-686.324	-39.934	0.240	-0.126
-685.310	197.882	0.243	0.374
-684.295	-33.207	-0.291	-0.162
-683.281	-71.317	-0.318	-0.120
-682.266	800.000	0.044	-0.133
-681.251	-200.000	-0.025	-0.219
-680.237	542.204	-0.036	-0.086
-679.222	-99.602	0.381	-0.096
-678.208	800.000	-0.097	-0.354
-677.193	-200.000	0.012	-0.056
-676.178	-200.000	0.007	-0.171
-675.164	800.000	0.040	-0.120
-674.149	311.618	0.131	-0.248
-673.135	800.000	-0.031	-0.121
-672.120	-200.000	-0.038	0.182
-671.105	168.426	0.021	-0.031
-670.091	341.029	0.171	0.337
-669.076	64.305	-0.135	-0.137
-668.062	151.857	-0.064	-0.088
-667.047	-68.674	-0.081	-0.031
-666.032	190.055	-0.158	-0.238
-665.018	800.000	-0.102	0.313
-664.003	800.000	-0.036	0.150
-662.989	-106.434	0.162	0.036
-661.974	-152.016	-0.164	0.012
-660.959	22.604	0.205	-0.169
-659.945	140.336	-0.155	-0.205
-658.930	-72.817	0.093	-0.035
-657.916	461.999	-0.044	0.098
-656.901	18.518	-0.085	0.069
-655.886	-200.000	-0.044	0.234
-654.872	-38.411	0.244	-0.130
-653.857	76.095	0.052	-0.055
-652.843	122.001	0.197	-0.248
-651.828	122.167	0.123	-0.154
-650.814	177.835	-0.034	-0.051
-649.799	-22.831	-0.078	0.047
-648.784	-200.000	-0.037	-0.202
-647.770	-79.273	-0.126	0.043
-646.755	-151.456	-0.264	-0.020
-645.741	271.921	-0.152	-0.270
-644.726	448.128	-0.090	0.200
-643.711	12.268	0.107	-0.083
-642.697	87.407	-0.166	0.185
-641.682	647.231	0.064	0.165
-640.668	-200.000	-0.064	-0.378
-639.653	-25.194	-0.061	0.037
-638.638	800.000	0.098	0.307
-637.624	114.071	-0.110	0.135
-636.609	800.000	0.037	0.163
-635.595	97.893	0.058	0.068
-634.580	-15.967	0.345	0.221
-633.565	57.463	0.101	0.099
-632.551	5.215	0.274	-0.203
-631.536	16.234	0.119	-0.094
-630.522	-171.106	0.114	-0.004
-629.507	195.299	-0.090	0.137
-628.492	160.208	0.198	-0.278
-627.478	-200.000	0.053	-0.342
-626.463	21.465	-0.123	0.101
-625.449	6.153	-0.163	0.122
-624.434	-120.317	-0.199	-0.034
-623.419	235.840	0.140	-0.232
-622.405	98.188	0.167	-0.194
-621.390	-142.268	0.131	-0.013
-620.376	124.403	0.194	-0.245
-619.361	-73.032	0.097	-0.036
-618.346	74.456	0.344	0.363
-617.332	100.858	-0.048	0.056
-616.317	-58.422	0.225	0.098
-615.303	279.560	-0.022	0.039
-614.288	-147.562	-0.375	-0.032
-613.273	57.893	0.197	-0.194
-612.259	224.625	-0.127	-0.206
-611.244	-87.373	-0.306	0.093
-610.230	505.987	0.130	0.302
-609.215	800.000	0.033	0.144
-608.201	-6.289	-0.143	0.098
-607.186	131.736	-0.073	-0.095
-606.171	481.104	-0.043	0.099
-605.157	-140.584	0.090	-0.009
-604.142	-139.244	0.258	-0.028
-603.128	90.043	0.028	0.031
-602.113	-152.815	0.087	0.006
-601.098	-40.201	0.188	0.098
-600.084	43.871	-0.077	0.071
-599.069	183.750	-0.146	-0.216
-598.055	-200.000	0.092	-0.496
-597.040	-28.587	-0.126	0.073
-596.025	800.000	-0.073	-0.266
-595.011	360.300	0.130	0.261
-593.996	-197.503	0.115	0.001
-592.982	-15.698	0.068	-0.044
-591.967	-200.000	-0.003	-0.238
-590.952	170.941	-0.129	-0.185
-589.938	-200.000	-0.021	0.202
-588.923	-200.000	-0.045	-0.206
-587.909	198.251	-0.149	0.229
-586.894	-10.383	-0.207	0.138
-585.879	-19.775	0.303	0.188
-584.865	350.944	0.066	0.131
-583.850	-147.378	0.212	0.018
-582.836	467.596	0.161	-0.362
-581.821	84.614	0.095	-0.104
-580.806	-121.327	-0.428	-0.072
-579.792	-79.590	-0.196	0.066
-578.777	394.155	-0.230	-0.481
-577.763	106.894	0.096	0.115
-576.748	-2.574	0.193	-0.136
-575.733	44.144	-0.207	-0.190
-574.719	43.315	-0.021	-0.019
-573.704	-120.551	0.197	-0.034
-572.690	-29.314	-0.313	-0.180
-571.675	-200.000	0.052	0.416
-570.661	378.749	-0.088	-0.181
-569.646	-60.207	-0.161	-0.069
-568.631	20.671	0.151	0.123
-567.617	-200.000	0.076	-0.454
-566.602	129.997	0.064	-0.082
-565.588	-170.246	-0.122	-0.004
-564.573	34.191	-0.098	0.085
-563.558	-91.106	-0.248	0.071
-562.544	44.032	-0.053	-0.048
-561.529	-160.216	-0.036	-0.002
-560.515	211.629	-0.110	0.173
-559.500	-67.047	0.116	0.046
-558.485	-179.421	0.168	0.004
-557.471	625.555	-0.084	-0.212
-556.456	179.474	0.086	-0.126
-555.442	305.185	0.167	-0.310
-554.427	-32.970	-0.361	0.201
-553.412	-177.132	0.244	-0.006
-552.398	-200.000	-0.034	0.233
-551.383	-68.872	0.229	0.088
-550.369	17.888	0.268	-0.214
-549.354	-42.410	0.138	-0.071
-548.339	800.000	0.062	0.237
-547.325	-16.264	0.100	0.063
-546.310	-52.991	0.039	-0.018
-545.296	-96.621	0.180	-0.047
-544.281	71.281	-0.099	-0.102
-543.266	-17.093	0.088	-0.056
-542.252	32.712	0.099	0.086
-541.237	-131.965	0.166	0.022
-540.223	-161.614	0.211	0.011
-539.208	800.000	-0.084	0.256
-538.193	-16.728	-0.072	-0.045
-537.179	325.249	0.159	0.305
-536.164	-56.259	0.163	0.073
-535.150	-119.161	-0.112	-0.020
-534.135	182.787	-0.132	-0.195
-533.121	117.278	0.137	-0.169
-532.106	-200.000	-0.037	-0.422
-531.091	551.576	0.083	-0.199
-530.077	27.597	0.074	0.062
-529.062	409.101	-0.213	0.452
-528.048	266.585	0.159	-0.278
-527.033	440.715	-0.120	-0.262
-526.018	76.574	0.170	0.181
-525.004	800.000	0.071	-0.252
-523.989	233.096	0.039	0.064
-522.975	-67.594	-0.315	0.124
-521.960	-105.181	0.028	0.006
-520.945	800.000	0.039	0.114
-519.931	44.614	0.227	0.209
-518.916	-145.329	0.336	0.030
-517.902	198.572	0.101	0.155
-516.887	-47.625	0.178	-0.086
-515.872	535.622	0.140	-0.332
-514.858	800.000	-0.045	0.135
-513.843	-44.396	-0.094	0.047
-512.829	-200.000	-0.077	0.432
-511.814	-66.453	-0.161	-0.064
-510.799	-200.000	0.016	-0.125
-509.785	3.179	-0.144	-0.105
-508.770	-150.508	0.016	-0.001
-507.756	-200.000	-0.029	-0.223
-506.741	-200.000	0.031	-0.514
-505.726	-104.465	-0.182	0.042
-504.712	194.375	0.098	-0.149
-503.697	-111.639	-0.113	0.023
-502.683	131.223	0.091	-0.117
-501.668	246.385	-0.081	-0.136
-500.653	-85.346	-0.407	-0.127
-499.639	148.683	-0.082	0.110
-498.624	-4.151	-0.135	-0.094
-497.610	-200.000	-0.005	0.034
-496.595	73.366	-0.180	-0.189
-495.581	-122.996	-0.257	0.041
-494.566	-9.813	-0.336	-0.224
-493.551	-60.700	-0.126	0.054
-492.537	117.912	-0.084	-0.103
-491.522	-200.000	0.002	-0.405
-490.508	-106.479	-0.132	-0.030
-489.493	762.953	-0.084	-0.228
-488.478	336.326	0.073	0.141
-487.464	-167.802	0.316	-0.012
-486.449	698.463	-0.151	0.397
-485.435	95.928	-0.309	0.353
-484.420	166.441	-0.297	0.420
-483.405	-165.806	-0.086	0.004
-482.391	-140.840	-0.372	-0.038
-481.376	359.369	-0.251	-0.501
-480.362	218.154	-0.045	-0.072
-479.347	-86.064	0.101	-0.031
-478.332	96.164	-0.167	-0.191
-477.318	242.503	-0.077	0.128
-476.303	58.058	-0.121	-0.119
-475.289	800.000	0.075	-0.316
-474.274	-86.236	0.176	-0.054
-473.259	495.647	0.119	0.272
-472.245	-150.931	-0.108	-0.008
-471.230	6.437	-0.108	0.080
-470.216	70.158	0.091	0.094
-469.201	-177.243	0.305	-0.008
-468.186	173.881	0.136	0.196
-467.172	156.342	0.170	-0.234
-466.157	-79.977	0.242	0.081
-465.143	-200.000	-0.052	-0.268
-464.128	501.231	-0.150	-0.345
-463.113	81.081	-0.186	0.201
-462.099	-200.000	0.028	-0.167
-461.084	769.781	-0.091	0.249
-460.070	560.024	-0.092	0.222
-459.055	-200.000	0.032	0.198
-458.040	-200.000	0.005	-0.206
-457.026	61.701	0.405	0.403
-456.011	-22.231	-0.152	-0.092
-454.997	-143.482	-0.048	0.005
-453.982	-93.869	-0.304	-0.084
-452.968	800.000	0.116	-0.344
-451.953	400.851	-0.092	0.192
-450.938	-200.000	-0.016	-0.106
-449.924	0.143	0.053	0.038
-448.909	241.827	0.111	-0.185
-447.895	753.190	-0.103	-0.278
-446.880	-200.000	-0.019	-0.341
-445.865	-106.213	-0.129	-0.029
-444.851	-6.296	0.057	0.039
-443.836	-60.363	0.156	-0.066
-442.822	-101.454	-0.072	0.018
-441.807	-161.791	-0.202	-0.010
-440.792	-2.413	0.060	0.042
-439.778	-19.191	-0.228	0.141
-438.763	-69.644	-0.232	0.089
-437.749	-98.528	0.327	-0.084
-436.734	14.526	0.334	0.260
-435.719	-53.295	0.338	0.155
-434.705	-8.367	0.087	0.058
-433.690	-131.499	0.223	0.029
-432.676	121.415	-0.061	-0.076
-431.661	337.139	0.116	0.224
-430.646	-0.316	0.178	0.126
-429.632	185.820	-0.234	-0.347
-428.617	407.067	0.026	-0.054
-427.603	-93.853	-0.080	0.022
-426.588	-153.465	0.452	0.031
-425.573	186.830	0.003	0.005
-424.559	-200.000	-0.019	-0.390
-423.544	128.280	-0.252	-0.320
-422.530	191.402	-0.035	-0.052
-421.515	401.760	0.132	-0.277
-420.500	458.733	0.050	-0.111
-419.486	181.719	0.271	0.398
-418.471	-110.818	-0.100	0.020
-417.457	315.161	-0.116	0.218
-416.442	800.000	-0.081	0.225
-415.428	-56.576	0.152	-0.067
-414.413	-63.648	-0.128	-0.052
-413.398	190.654	0.254	0.380
-412.384	-67.129	-0.262	0.103
-411.369	-131.449	0.107	0.014
-410.355	-21.723	-0.173	0.105
-409.340	654.724	-0.086	-0.220
-408.325	-200.000	-0.014	-0.164
-407.311	800.000	0.050	0.156
-406.296	132.093	-0.246	0.316
-405.282	-187.280	0.287	-0.004
-404.267	-53.579	0.039	0.018
-403.252	130.332	-0.034	-0.043
-402.238	321.884	0.014	0.026
-401.223	456.858	-0.061	0.134
-400.209	64.469	-0.232	-0.232
-399.194	-82.025	-0.357	-0.116
-398.179	-66.358	0.499	-0.197
-397.165	158.150	0.262	-0.362
-396.150	83.246	0.078	-0.085
-395.136	-17.104	-0.278	0.174
-394.121	-4.568	0.080	0.055
-393.106	-91.603	0.155	-0.044
-392.092	180.069	0.150	0.219
-391.077	-126.508	-0.225	-0.033
-390.063	-135.580	-0.138	-0.016
-389.048	-126.020	0.057	0.009
-388.033	226.570	0.033	0.053
-387.019	800.000	-0.050	0.215
-386.004	-19.981	0.241	0.148
-384.990	575.117	0.115	0.279
-383.975	-152.855	0.252	0.018
-382.960	-184.464	-0.285	-0.005
-381.946	29.945	-0.117	0.099
-380.931	-79.800	-0.314	0.105
-379.917	87.822	0.109	-0.120
-378.902	196.351	0.187	-0.283
-377.888	-148.457	-0.167	0.014
-376.873	-127.156	0.405	-0.059
-375.858	597.357	-0.105	-0.260
-374.844	464.029	-0.097	-0.216
-373.829	231.607	0.179	-0.291
-372.815	205.035	0.103	0.159
-371.800	55.304	-0.284	0.273
-370.785	-81.899	0.224	-0.073
-369.771	174.443	-0.066	-0.095
-368.756	19.015	-0.286	-0.228
-367.742	7.208	-0.139	-0.103
-366.727	90.262	0.138	-0.153
-365.712	-92.751	0.035	-0.010
-364.698	-200.000	0.021	-0.323
-363.683	-200.000	0.020	-0.090
-362.669	-117.297	0.131	-0.024
-361.654	800.000	0.030	-0.093
-360.639	467.226	-0.170	-0.380
-359.625	-200.000	0.012	-0.082
-358.610	-52.494	0.361	-0.166
-357.596	80.781	0.045	0.048
-356.581	-200.000	0.065	-0.359
-355.566	-200.000	0.036	0.205
-354.552	-52.955	-0.198	-0.091
-353.537	-53.293	-0.094	0.043
-352.523	-200.000	0.019	-0.188
-351.508	130.380	-0.034	-0.044
-350.493	6.747	0.208	0.154
-349.479	-63.994	-0.107	0.044
-348.464	-200.000	0.020	0.139
-347.450	13.417	0.085	0.066
-346.435	-3.936	-0.119	-0.082
-345.420	-64.838	0.111	0.045
-344.406	248.395	0.122	-0.205
-343.391	-69.407	-0.246	-0.094
-342.377	-164.321	-0.198	0.009
-341.362	-164.410	-0.483	0.022
-340.348	800.000	-0.167	0.610
-339.333	-35.371	0.343	0.185
-338.318	-33.721	-0.272	-0.149
-337.304	-59.501	-0.350	-0.150
-336.289	253.741	0.059	-0.100
-335.275	-28.820	0.211	0.120
-334.260	70.491	0.390	0.401
-333.245	520.016	0.116	-0.270
-332.231	442.510	-0.159	0.345
-331.216	-105.285	0.139	-0.032
-330.202	166.937	0.093	-0.131
-329.187	-34.505	-0.068	0.037
-328.172	-125.084	-0.226	0.035
-327.158	154.370	-0.146	-0.200
-326.143	-15.232	0.074	0.047
-325.129	-200.000	-0.027	0.272
-324.114	-14.407	0.039	0.025
-323.099	282.614	-0.046	0.082
-322.085	-191.574	0.057	0.001
-321.070	-86.019	0.175	-0.054
-320.056	-4.415	0.318	0.218
-319.041	-200.000	-0.026	0.301
-318.026	-3.541	-0.138	0.096
-317.012	7.207	0.129	0.096
-315.997	265.224	-0.056	0.097
-314.983	403.062	0.084	0.176
-313.968	-10.971	-0.127	0.083
-312.953	-200.000	0.029	-0.134
-311.939	-95.418	-0.570	0.152
-310.924	6.396	0.255	-0.188
-309.910	-131.134	-0.171	-0.023
-308.895	800.000	-0.098	0.288
-307.880	-56.276	-0.083	0.037
-306.866	80.080	-0.220	-0.235
-305.851	-200.000	0.074	-0.473
-304.837	-19.058	0.231	0.143
-303.822	-21.085	-0.134	-0.081
-302.807	-200.000	0.011	0.245
-301.793	-84.870	-0.204	-0.063
-300.778	-153.124	-0.155	-0.011
-299.764	799.657	-0.120	0.330
-298.749	99.203	-0.193	0.221
-297.735	217.449	0.021	0.034
-296.720	-200.000	0.070	-0.326
-295.705	800.000	0.060	-0.250
-294.691	-57.653	0.419	0.182
-293.676	-103.595	-0.070	0.016
-292.662	271.830	0.192	0.336
-291.647	-34.282	0.251	-0.137
-290.632	800.000	0.091	-0.375
-289.618	800.000	0.067	-0.262
-288.603	187.267	0.031	0.046
-287.589	273.160	-0.068	0.119
-286.574	294.916	0.127	-0.230
-285.559	-173.271	-0.176	0.005
-284.545	42.820	0.293	0.265
-283.530	217.690	0.074	-0.117
-282.516	19.918	-0.073	0.058
-281.501	-163.136	0.094	-0.004
-280.486	-22.181	-0.166	0.100
-279.472	-90.112	0.057	-0.016
-278.457	18.355	-0.023	-0.018
-277.443	-71.129	0.495	-0.184
-276.428	-157.580	0.107	-0.006
-275.413	787.989	0.143	0.389
-274.399	-82.757	0.246	-0.079
-273.384	5.976	0.042	0.031
-272.370	16.465	0.098	-0.077
-271.355	-200.000	-0.033	-0.325
-270.340	-200.000	0.006	-0.035
-269.326	526.741	0.030	-0.070
-268.311	475.158	0.073	0.163
-267.297	675.312	0.082	0.211
-266.282	-77.246	-0.164	0.056
-265.267	-200.000	-0.043	-0.349
-264.253	800.000	0.076	0.289
-263.238	56.810	-0.316	-0.305
-262.224	-47.635	0.277	0.133
-261.209	-83.403	0.226	-0.072
-260.195	800.000	-0.038	0.113
-259.180	190.068	0.129	-0.191
-258.165	337.825	-0.068	0.131
-257.151	-78.269	-0.265	0.090
-256.136	-142.884	0.186	-0.018
-255.122	-17.261	0.353	0.220
-254.107	-121.688	-0.182	-0.030
-253.092	622.616	-0.053	0.133
-252.078	-200.000	-0.001	0.200
-251.063	-104.559	-0.554	-0.127
-250.049	800.000	0.116	-0.393
-249.034	-149.902	0.122	0.009
-248.019	-129.302	0.042	0.006
-247.005	122.029	0.136	-0.168
-245.990	8.558	0.127	0.095
-244.976	-114.910	-0.450	0.085
-243.961	65.555	0.045	0.045
-242.946	-200.000	0.009	0.148
-241.932	645.576	-0.046	0.116
-240.917	619.530	0.171	-0.426
-239.903	-143.136	-0.314	0.030
-238.888	-52.715	0.395	0.181
-237.873	-62.668	0.040	-0.016
-236.859	254.187	0.165	-0.280
-235.844	300.745	0.132	-0.240
-234.830	19.667	-0.161	-0.129
-233.815	-200.000	-0.016	-0.289
-232.800	72.749	-0.235	-0.243
-231.786	69.341	0.038	0.039
-230.771	-200.000	0.065	0.304
-229.757	800.000	0.055	-0.214
-228.742	10.631	0.057	0.043
-227.727	148.559	0.041	-0.055
-226.713	800.000	0.040	-0.141
-225.698	-200.000	-0.016	-0.218
-224.684	234.567	-0.027	0.044
-223.669	-148.612	0.380	-0.031
-222.655	-79.850	0.169	0.056
-221.640	170.784	-0.155	0.220
-220.625	800.000	-0.114	0.341
-219.611	290.130	0.080	0.144
-218.596	-25.674	-0.262	0.153
-217.582	-43.097	-0.286	0.144
-216.567	85.384	0.065	-0.071
-215.552	800.000	0.015	-0.055
-214.538	-30.741	-0.052	-0.029
-213.523	116.541	-0.185	0.224
-212.509	164.283	0.232	0.324
-211.494	333.889	-0.080	0.152
-210.479	800.000	0.045	-0.138
-209.465	562.119	-0.110	-0.263
-208.450	798.214	0.025	0.067
-207.436	-135.808	-0.100	-0.012
-206.421	-70.219	-0.105	-0.039
-205.406	16.026	-0.265	0.207
-204.392	151.891	0.060	0.081
-203.377	251.657	-0.138	-0.232
-202.363	58.202	-0.256	0.248
-201.348	-130.967	-0.187	-0.025
-200.333	-124.529	0.252	-0.039
-199.319	-92.282	-0.209	0.058
-198.304	194.688	-0.162	0.243
-197.290	125.911	0.123	-0.154
-196.275	-92.074	-0.152	0.042
-195.260	-200.000	-0.006	-0.109
-194.246	-122.949	0.306	0.049
-193.231	-185.682	-0.169	-0.003
-192.217	147.597	0.310	0.413
-191.202	800.000	-0.051	0.186
-190.187	-121.260	-0.209	-0.034
-189.173	-116.136	0.141	0.026
-188.158	96.381	-0.129	0.146
-187.144	-200.000	0.020	0.190
-186.129	-32.019	-0.021	-0.011
-185.114	-31.123	-0.187	-0.104
-184.100	720.749	-0.069	0.182
-183.085	-200.000	-0.037	-0.197
-182.071	-145.749	0.219	0.019
-181.056	8.792	-0.125	0.093
-180.042	306.244	0.043	0.079
-179.027	71.851	0.168	-0.172
-178.012	81.907	0.077	0.083
-176.998	219.910	-0.114	0.180
-175.983	-80.405	0.300	-0.099
-174.969	-55.916	0.192	-0.085
-173.954	30.907	-0.043	0.036
-172.939	-200.000	0.006	-0.155
-171.925	-200.000	0.052	0.414
-170.910	-200.000	-0.054	0.308
-169.896	4.952	0.137	0.099
-168.881	266.216	0.139	0.240
-167.866	61.198	-0.310	-0.304
-166.852	253.547	0.086	0.145
-165.837	787.857	-0.022	0.059
-164.823	288.765	-0.073	-0.130
-163.808	-113.254	-0.228	-0.044
-162.793	-115.912	-0.171	0.031
-161.779	211.948	-0.183	0.285
-160.764	-200.000	-0.006	0.203
-159.750	-120.869	-0.153	-0.025
-158.735	-200.000	0.004	0.598
-157.720	146.627	0.176	0.234
-156.706	-101.274	0.125	-0.030
-155.691	33.107	0.070	-0.060
-154.677	-10.067	-0.123	0.081
-153.662	127.397	-0.079	0.099
-152.647	-200.000	0.009	0.288
-151.633	232.191	-0.299	0.485
-150.618	-113.939	-0.171	-0.033
-149.604	106.541	-0.163	0.191
-148.589	296.992	0.153	-0.277
-147.574	98.158	-0.066	0.075
-146.560	-141.908	0.304	-0.030
-145.545	17.149	0.252	0.197
-144.531	248.502	-0.236	-0.394
-143.516	-45.981	-0.127	-0.062
-142.502	800.000	0.038	-0.124
-141.487	41.716	0.027	-0.024
-140.472	-120.671	0.079	-0.013
-139.458	-197.983	-0.147	0.001
-138.443	-31.284	0.162	0.090
-137.429	-140.539	-0.017	0.002
-136.414	-200.000	-0.024	-0.173
-135.399	-105.998	0.269	-0.060
-134.385	153.523	-0.061	0.083
-133.370	50.120	-0.048	-0.045
-132.356	-200.000	0.070	-0.308
-131.341	800.000	-0.070	-0.278
-130.326	-136.314	0.090	0.010
-129.312	-39.641	-0.244	0.126
-128.297	-132.745	0.487	-0.061
-127.283	-200.000	0.046	0.316
-126.268	217.202	0.129	-0.203
-125.253	-99.444	0.263	0.065
-124.239	642.671	0.139	-0.350
-123.224	398.130	-0.086	-0.178
-122.210	-50.783	0.274	-0.127
-121.195	581.766	-0.052	-0.126
