DTS Sentinel unit serial number:	SN413079Multiplexer serial number:	ORYXHardware model number:	OX4-SRSoftware version number:	ORYX F/W v4.00 Oryx Data Collector v3.7.2.0data status	okinstallation	princeton_trtdifferential loss correction	single-endedforward channel	channel 2reverse channel	N/Adate	2019/09/10time	17:57:11forward acquisition time	60.00reverse acquisition time	0.00gamma	496.2192k internal	0.2313k external	0.2313temperature offset calibration	0.9942default loss term (dB/km)	0.3790temperature slope calibration	1.0000multiplexer offset coefficient	1.0000multiplexer slope coefficient	1.0000fibre end	0.00T internal ref (°C)	37.25T ext. ref 1 (°C)	-0.33T ext. ref 2 (°C)	29.69length (m)	temperature (°C)	Stokes	anti-Stokes-747.200	-41.910	-0.216	-0.112
-746.185	281.814	-0.123	0.224
-745.171	321.165	0.063	0.121
-744.156	-186.738	-0.080	0.001
-743.142	-200.000	0.004	0.053
-742.127	250.599	-0.140	0.241
-741.112	34.028	-0.170	-0.150
-740.098	-73.458	0.257	0.095
-739.083	105.726	-0.137	0.164
-738.069	2.594	-0.147	-0.108
-737.054	115.880	-0.111	-0.138
-736.039	800.000	-0.009	0.038
-735.025	57.250	0.187	0.185
-734.010	749.124	-0.168	-0.458
-732.996	-200.000	0.039	-0.238
-731.981	800.000	-0.086	-0.336
-730.966	-200.000	-0.044	-0.229
-729.952	-200.000	-0.027	0.206
-728.937	-54.841	-0.330	-0.151
-727.923	-35.717	-0.237	-0.130
-726.908	-200.000	0.006	0.151
-725.894	-200.000	0.000	-0.284
-724.879	-200.000	0.009	-0.090
-723.864	-114.643	-0.315	0.061
-722.850	800.000	-0.109	-0.333
-721.835	-200.000	0.017	0.272
-720.821	-200.000	0.090	-0.515
-719.806	-200.000	0.021	-0.208
-718.791	800.000	-0.157	-0.513
-717.777	22.504	0.253	0.210
-716.762	-162.736	0.073	-0.004
-715.748	-143.555	0.492	0.047
-714.733	271.989	-0.116	-0.207
-713.718	-138.458	0.179	0.020
-712.704	566.824	0.225	0.553
-711.689	-23.004	-0.244	-0.149
-710.675	-40.744	-0.168	-0.088
-709.660	-127.095	-0.113	0.017
-708.645	561.639	0.058	0.141
-707.631	-84.793	-0.209	-0.067
-706.616	0.965	-0.083	-0.060
-705.602	181.526	-0.068	-0.101
-704.587	0.007	0.276	0.199
-703.572	-109.045	-0.226	-0.049
-702.558	-200.000	0.010	0.258
-701.543	-155.837	0.380	-0.025
-700.529	46.122	-0.063	-0.059
-699.514	54.268	0.057	-0.055
-698.499	8.850	0.084	0.064
-697.485	65.418	0.187	0.191
-696.470	-147.885	0.119	0.010
-695.456	8.930	-0.194	0.148
-694.441	-200.000	0.067	-0.475
-693.426	34.607	-0.178	-0.157
-692.412	-12.558	0.115	0.076
-691.397	-146.733	-0.113	0.010
-690.383	-125.027	0.355	-0.055
-689.368	72.756	-0.196	-0.207
-688.354	-75.686	-0.260	-0.093
-687.339	800.000	0.104	-0.328
-686.324	800.000	-0.026	0.101
-685.310	449.163	0.151	-0.338
-684.295	-77.914	0.184	0.064
-683.281	-200.000	0.002	-0.175
-682.266	127.077	-0.187	0.240
-681.251	800.000	0.051	-0.208
-680.237	-43.281	-0.205	-0.105
-679.222	358.032	0.032	-0.065
-678.208	-61.616	-0.122	0.052
-677.193	800.000	-0.130	-0.391
-676.178	317.645	-0.097	0.186
-675.164	283.566	-0.119	-0.217
-674.149	-123.032	-0.243	-0.040
-673.135	-100.137	-0.293	0.074
-672.120	74.570	0.153	-0.163
-671.105	-200.000	-0.076	-0.375
-670.091	-109.450	-0.136	-0.029
-669.076	-83.374	0.110	-0.036
-668.062	800.000	0.037	-0.117
-667.047	-200.000	0.014	0.070
-666.032	130.892	-0.169	0.219
-665.018	71.278	0.204	-0.214
-664.003	299.588	-0.138	-0.257
-662.989	-200.000	0.013	-0.232
-661.974	-200.000	0.010	0.126
-660.959	146.974	0.100	0.136
-659.945	800.000	-0.061	-0.245
-658.930	-140.726	0.100	-0.010
-657.916	-200.000	0.006	-0.043
-656.901	-200.000	0.036	0.201
-655.886	-93.546	-0.266	-0.074
-654.872	-112.843	0.103	0.021
-653.857	-200.000	-0.037	0.276
-652.843	-94.646	-0.216	-0.059
-651.828	-29.031	0.540	0.313
-650.814	52.599	-0.408	-0.394
-649.799	-25.370	-0.262	-0.157
-648.784	62.114	0.024	-0.024
-647.770	-185.100	-0.268	0.004
-646.755	-200.000	0.041	0.198
-645.741	-118.686	0.164	0.029
-644.726	165.759	0.018	0.025
-643.711	-124.491	-0.130	0.020
-642.697	-98.343	-0.148	0.038
-641.682	16.807	0.138	-0.110
-640.668	77.944	-0.104	0.112
-639.653	800.000	-0.068	-0.277
-638.638	347.654	-0.054	-0.107
-637.624	84.494	0.176	-0.194
-636.609	-73.030	-0.350	-0.130
-635.595	-200.000	-0.079	0.472
-634.580	77.863	0.115	-0.124
-633.565	34.340	-0.193	0.170
-632.551	-89.140	-0.287	0.086
-631.536	-200.000	-0.010	0.089
-630.522	202.520	0.060	0.093
-629.507	-27.443	0.318	-0.186
-628.492	281.511	0.083	-0.149
-627.478	-200.000	-0.037	-0.367
-626.463	-200.000	-0.025	-0.261
-625.449	-29.591	0.138	0.079
-624.434	800.000	0.035	-0.101
-623.419	-40.665	0.153	-0.080
-622.405	76.340	-0.123	-0.131
-621.390	32.676	0.282	0.246
-620.376	247.846	-0.085	-0.145
-619.361	-95.768	0.064	-0.017
-618.346	-121.687	-0.258	-0.043
-617.332	197.919	0.206	0.318
-616.317	-15.863	0.066	-0.043
-615.303	121.502	0.084	-0.106
-614.288	-79.624	-0.314	-0.107
-613.273	199.712	0.138	0.213
-612.259	78.578	0.217	0.234
-611.244	-7.666	-0.163	0.111
-610.230	74.303	0.083	0.088
-609.215	19.499	-0.336	-0.272
-608.201	-113.081	-0.323	-0.064
-607.186	-200.000	0.019	-0.240
-606.171	800.000	-0.013	-0.042
-605.157	-200.000	0.034	0.196
-604.142	-86.294	0.271	0.084
-603.128	-86.482	-0.126	0.039
-602.113	0.089	0.192	0.138
-601.098	-128.021	-0.310	0.045
-600.084	-156.692	-0.114	0.007
-599.069	-141.604	-0.185	0.019
-598.055	-200.000	-0.001	-0.299
-597.040	367.794	-0.053	-0.108
-596.025	800.000	-0.075	0.212
-595.011	-200.000	0.389	0.000
-593.996	60.456	0.198	0.198
-592.982	-200.000	0.030	0.143
-591.967	-33.125	-0.240	-0.134
-590.952	107.974	0.151	-0.182
-589.938	440.579	-0.088	0.194
-588.923	125.796	-0.167	-0.213
-587.909	800.000	-0.014	-0.060
-586.894	46.391	0.087	0.082
-585.879	-127.908	0.180	-0.026
-584.865	800.000	-0.028	0.123
-583.850	-177.173	0.268	-0.007
-582.836	-57.999	0.222	0.098
-581.821	800.000	0.057	0.186
-580.806	800.000	0.049	-0.203
-579.792	-166.426	0.255	0.011
-578.777	40.315	0.263	0.239
-577.763	429.162	-0.076	0.166
-576.748	-77.037	0.383	-0.135
-575.733	139.480	0.192	-0.254
-574.719	126.629	-0.071	-0.090
-573.704	-157.369	-0.339	0.021
-572.690	-33.209	0.198	-0.110
-571.675	-200.000	-0.023	0.146
-570.661	160.217	0.112	0.157
-569.646	406.734	0.071	0.150
-568.631	181.313	-0.045	-0.066
-567.617	93.507	0.333	-0.380
-566.602	-97.103	-0.128	0.034
-565.588	-149.561	0.182	0.014
-564.573	166.637	0.144	0.205
-563.558	-200.000	0.014	0.196
-562.544	-132.715	-0.123	-0.016
-561.529	-17.165	-0.402	0.255
-560.515	-29.097	0.272	0.157
-559.500	-46.646	0.319	-0.158
-558.485	457.702	-0.120	0.268
-557.471	-74.960	0.254	-0.092
-556.456	-9.048	-0.124	-0.084
-555.442	-97.199	-0.202	-0.053
-554.427	192.295	0.048	0.073
-553.412	87.999	-0.091	-0.102
-552.398	575.037	0.076	-0.186
-551.383	800.000	0.119	0.360
-550.369	389.593	-0.114	-0.239
-549.354	775.191	0.089	0.246
-548.339	-200.000	0.010	-0.224
-547.325	-14.555	-0.079	-0.051
-546.310	-137.692	-0.222	0.025
-545.296	41.104	0.279	-0.253
-544.281	-87.337	-0.175	0.053
-543.266	-6.197	0.016	-0.011
-542.252	-27.885	0.081	-0.047
-541.237	-62.673	0.280	0.117
-540.223	118.198	0.169	-0.210
-539.208	-132.930	-0.270	-0.035
-538.193	-200.000	0.015	-0.088
-537.179	52.176	-0.162	-0.155
-536.164	-200.000	-0.011	-0.075
-535.150	-133.768	0.251	0.031
-534.135	800.000	0.106	-0.378
-533.121	357.682	0.130	-0.261
-532.106	144.977	-0.131	0.177
-531.091	-26.344	-0.200	-0.118
-530.077	-200.000	0.247	0.001
-529.062	-35.395	-0.255	-0.140
-528.048	-200.000	0.006	-0.075
-527.033	277.730	-0.100	0.179
-526.018	-45.227	-0.303	0.152
-525.004	-81.411	-0.118	-0.039
-523.989	-148.205	0.055	0.005
-522.975	800.000	0.027	-0.083
-521.960	-127.649	0.199	0.029
-520.945	112.958	-0.113	0.138
-519.931	104.287	-0.167	0.198
-518.916	-173.964	-0.368	-0.011
-517.902	-200.000	-0.005	0.108
-516.887	12.330	-0.111	-0.086
-515.872	-128.307	-0.326	0.047
-514.858	-93.208	-0.266	0.074
-513.843	290.473	0.128	0.234
-512.829	-101.774	0.140	-0.034
-511.814	15.761	-0.056	-0.045
-510.799	340.915	0.053	0.105
-509.785	-5.423	0.466	0.321
-508.770	291.714	-0.134	0.245
-507.756	-53.451	0.227	-0.104
-506.741	-200.000	-0.328	0.001
-505.726	57.308	-0.260	-0.255
-504.712	790.974	0.030	0.082
-503.697	-200.000	-0.033	-0.205
-502.683	56.579	0.301	-0.294
-501.668	-107.423	0.082	0.018
-500.653	765.394	0.157	0.429
-499.639	88.085	-0.231	0.258
-498.624	551.189	0.033	-0.079
-497.610	-86.972	-0.198	0.061
-496.595	-200.000	0.010	-0.095
-495.581	-57.525	0.139	0.061
-494.566	72.884	-0.119	-0.125
-493.551	19.708	0.067	0.054
-492.537	-84.182	0.306	0.097
-491.522	92.661	0.184	0.209
-490.508	-200.000	-0.033	0.222
-489.493	-200.000	0.024	0.210
-488.478	800.000	0.066	0.197
-487.464	-200.000	-0.062	0.500
-486.449	158.725	-0.177	0.247
-485.435	-142.628	0.138	-0.014
-484.420	-162.045	0.296	0.015
-483.405	-35.776	-0.355	0.193
-482.391	70.059	-0.171	0.178
-481.376	-69.314	0.341	0.131
-480.362	800.000	-0.085	0.252
-479.347	43.265	0.193	0.177
-478.332	-30.998	0.066	-0.038
-477.318	455.761	-0.110	0.246
-476.303	-200.000	0.001	-0.368
-475.289	-96.782	-0.108	0.028
-474.274	800.000	-0.051	-0.199
-473.259	-200.000	0.044	-0.275
-472.245	59.956	-0.192	0.190
-471.230	187.288	-0.067	0.101
-470.216	-200.000	0.014	0.230
-469.201	-200.000	0.032	0.195
-468.186	800.000	-0.031	-0.109
-467.172	13.681	0.058	-0.045
-466.157	663.254	0.149	-0.386
-465.143	135.222	-0.157	0.205
-464.128	234.645	0.157	0.259
-463.113	-170.461	-0.282	0.010
-462.099	800.000	0.039	-0.160
-461.084	-200.000	0.034	0.238
-460.070	-78.492	0.161	-0.055
-459.055	-156.630	0.082	0.005
-458.040	56.912	-0.360	0.352
-457.026	357.811	-0.041	0.082
-456.011	-200.000	-0.332	0.001
-454.997	-63.253	-0.234	-0.097
-453.982	168.265	0.202	0.288
-452.968	-148.476	-0.283	0.023
-451.953	240.253	0.010	0.016
-450.938	-95.151	-0.013	0.003
-449.924	-154.010	-0.042	-0.003
-448.909	800.000	-0.050	-0.144
-447.895	4.325	-0.218	0.160
-446.880	-188.439	0.324	-0.004
-445.865	-181.711	-0.074	0.001
-444.851	184.847	-0.209	0.310
-443.836	-114.986	-0.143	-0.027
-442.822	-55.323	-0.162	0.073
-441.807	4.712	0.241	-0.177
-440.792	-114.480	0.349	0.067
-439.778	320.256	0.180	-0.343
-438.763	117.827	-0.112	-0.138
-437.749	800.000	-0.061	-0.211
-436.734	294.193	-0.045	-0.082
-435.719	240.328	0.062	-0.103
-434.705	48.100	-0.178	-0.167
-433.690	36.654	0.201	0.178
-432.676	-111.799	0.130	0.026
-431.661	-11.317	0.144	0.095
-430.646	-55.280	0.214	-0.096
-429.632	345.640	-0.053	0.105
-428.617	800.000	0.059	0.223
-427.603	556.010	0.054	0.131
-426.588	300.566	-0.151	-0.279
-425.573	-119.133	0.194	-0.034
-424.559	146.701	0.054	0.073
-423.544	-145.994	-0.202	0.018
-422.530	-113.608	0.341	-0.067
-421.515	-80.704	-0.166	-0.055
-420.500	328.332	-0.169	0.325
-419.486	-160.668	-0.367	0.020
-418.471	99.364	-0.206	-0.239
-417.457	-9.524	-0.113	-0.076
-416.442	-200.000	-0.002	-0.052
-415.428	-75.764	0.213	0.076
-414.413	169.692	0.070	-0.101
-413.398	-113.310	-0.214	0.042
-412.384	30.702	0.299	-0.256
-411.369	800.000	0.020	-0.063
-410.355	121.352	0.142	-0.176
-409.340	-109.509	0.175	0.037
-408.325	285.977	-0.092	-0.166
-407.311	211.246	0.112	0.176
-406.296	-80.623	-0.141	0.047
-405.282	-143.040	0.151	0.015
-404.267	-81.366	-0.351	-0.116
-403.252	-106.470	-0.323	-0.072
-402.238	324.013	0.054	-0.102
-401.223	-200.000	0.203	0.001
-400.209	6.524	0.327	-0.243
-399.194	-34.877	-0.210	0.115
-398.179	-145.354	0.213	-0.019
-397.165	35.133	0.192	-0.168
-396.150	-50.077	-0.046	-0.022
-395.136	800.000	-0.045	0.123
-394.121	-164.582	-0.188	-0.009
-393.106	-200.000	0.007	0.202
-392.092	-200.000	0.011	-0.080
-391.077	800.000	-0.032	-0.094
-390.063	-6.887	0.141	-0.096
-389.048	122.391	-0.083	0.104
-388.033	7.378	0.230	0.172
-387.019	33.330	-0.057	0.049
-386.004	-200.000	0.015	0.163
-384.990	-200.000	-0.016	-0.143
-383.975	20.710	0.159	-0.128
-382.960	34.416	0.051	-0.045
-381.946	373.067	0.057	0.116
-380.931	317.807	0.082	0.154
-379.917	742.494	-0.047	0.126
-378.902	208.491	0.110	0.172
-377.888	-57.934	-0.176	0.077
-376.873	760.757	-0.118	0.320
-375.858	-73.447	0.329	-0.120
-374.844	47.476	0.204	-0.190
-373.829	81.691	0.175	0.190
-372.815	-66.620	0.141	0.056
-371.800	-51.946	0.237	0.110
-370.785	139.232	-0.184	-0.241
-369.771	54.056	0.242	-0.233
-368.756	-16.165	0.255	-0.162
-367.742	-72.445	-0.291	0.107
-366.727	7.822	0.225	0.169
-365.712	135.527	0.221	0.288
-364.698	134.712	-0.053	0.069
-363.683	-183.307	0.200	0.003
-362.669	793.457	0.012	-0.034
-361.654	-136.700	-0.043	-0.005
-360.639	800.000	0.034	0.116
-359.625	251.330	0.198	0.337
-358.610	-200.000	0.003	-0.158
-357.596	800.000	0.118	-0.332
-356.581	-67.818	-0.277	0.108
-355.566	110.774	-0.061	-0.074
-354.552	-6.793	-0.102	-0.069
-353.537	37.182	0.359	-0.318
-352.523	169.485	0.074	0.106
-351.508	-200.000	-0.266	0.000
-350.493	800.000	-0.011	0.037
-349.479	52.669	-0.109	0.104
-348.464	-200.000	0.011	0.055
-347.450	4.099	-0.364	-0.266
-346.435	-37.369	0.159	-0.085
-345.420	64.973	-0.096	0.097
-344.406	-25.041	0.164	0.097
-343.391	800.000	0.072	0.255
-342.377	-200.000	0.005	-0.042
-341.362	17.380	-0.367	-0.291
-340.348	-200.000	-0.019	-0.123
-339.333	317.864	-0.120	0.227
-338.318	160.585	0.262	0.365
-337.304	-126.676	-0.203	-0.030
-336.289	44.099	0.246	-0.226
-335.275	-8.189	-0.424	-0.285
-334.260	178.249	0.095	-0.139
-333.245	-67.485	-0.078	-0.031
-332.231	800.000	-0.083	-0.279
-331.216	-135.602	-0.256	0.030
-330.202	-200.000	-0.011	0.106
-329.187	30.265	-0.192	-0.164
-328.172	-21.954	0.062	0.037
-327.158	-102.604	0.195	0.047
-326.143	76.164	0.092	0.097
-325.129	-68.759	-0.471	0.182
-324.114	-22.107	-0.347	-0.210
-323.099	-102.513	-0.114	0.027
-322.085	190.277	0.021	-0.031
-321.070	160.027	-0.203	0.282
-320.056	608.029	-0.081	-0.203
-319.041	-120.369	-0.295	-0.050
-318.026	800.000	0.076	0.216
-317.012	-34.655	-0.042	0.023
-315.997	-41.239	-0.396	0.204
-314.983	-200.000	-0.020	0.174
-313.968	-200.000	0.011	0.107
-312.953	-200.000	0.032	0.265
-311.939	-112.455	0.098	0.020
-310.924	51.403	0.164	-0.155
-309.910	90.430	-0.066	0.074
-308.895	-200.000	0.011	-0.226
-307.880	-200.000	-0.020	0.118
-306.866	-65.403	-0.055	0.022
-305.851	-200.000	-0.041	0.247
-304.837	-200.000	0.018	0.345
-303.822	198.714	-0.113	-0.172
-302.807	-173.157	-0.211	-0.006
-301.793	476.231	-0.131	0.295
-300.778	519.837	0.089	-0.209
-299.764	-145.657	0.249	0.022
-298.749	287.770	0.067	-0.121
-297.735	189.713	0.108	-0.161
-296.720	16.776	0.184	-0.145
-295.705	222.210	-0.186	-0.298
-294.691	164.455	-0.088	-0.123
-293.676	-86.855	0.058	0.018
-292.662	496.261	-0.077	-0.177
-291.647	-154.195	0.204	0.014
-290.632	611.763	0.089	-0.223
-289.618	-112.166	0.267	0.053
-288.603	-95.151	0.232	0.062
-287.589	-66.546	-0.180	-0.071
-286.574	-50.417	0.130	0.061
-285.559	158.038	-0.105	-0.145
-284.545	523.091	-0.040	-0.094
-283.530	398.761	0.106	-0.222
-282.516	-161.481	-0.137	-0.007
-281.501	210.229	-0.108	0.169
-280.486	-126.144	-0.062	0.009
-279.472	-200.000	-0.024	0.150
-278.457	800.000	0.061	-0.194
-277.443	616.058	-0.120	-0.300
-276.428	800.000	-0.032	-0.105
-275.413	-148.237	0.243	-0.020
-274.399	-118.117	-0.241	-0.043
-273.384	152.622	-0.103	0.140
-272.370	147.563	-0.071	0.095
-271.355	258.066	0.121	0.207
-270.340	-81.358	-0.303	-0.099
-269.326	-23.542	-0.135	0.081
-268.311	-200.000	-0.010	-0.225
-267.297	-200.000	0.011	-0.482
-266.282	605.726	0.077	-0.191
-265.267	118.824	0.067	0.082
-264.253	22.111	0.107	-0.087
-263.238	-0.917	0.152	-0.107
-262.224	27.261	0.098	0.082
-261.209	249.932	0.142	-0.241
-260.195	-141.545	-0.298	-0.030
-259.180	66.373	-0.130	0.131
-258.165	17.459	-0.262	-0.207
-257.151	800.000	0.053	-0.183
-256.136	34.683	0.206	-0.179
-255.122	95.050	0.286	-0.324
-254.107	110.451	0.044	-0.053
-253.092	164.262	0.034	-0.047
-252.078	-110.737	0.185	-0.038
-251.063	207.170	-0.132	0.205
-250.049	-139.395	-0.116	-0.012
-249.034	-119.806	-0.245	-0.042
-248.019	-200.000	0.012	0.200
-247.005	170.608	0.093	0.133
-245.990	432.172	0.074	-0.161
-244.976	-49.225	-0.145	0.069
-243.961	83.353	-0.150	-0.163
-242.946	-200.000	0.028	0.183
-241.932	800.000	-0.039	-0.134
-240.917	-142.426	0.223	-0.022
-239.903	179.297	-0.212	0.308
-238.888	800.000	0.099	-0.278
-237.873	348.733	-0.084	0.164
-236.859	-200.000	0.015	0.085
-235.844	-158.954	0.248	-0.014
-234.830	69.310	0.095	0.097
-233.815	-200.000	0.037	-0.249
-232.800	180.326	-0.044	0.064
-231.786	800.000	-0.087	0.271
-230.771	176.244	-0.070	-0.102
-229.757	72.241	-0.099	0.102
-228.742	349.872	0.071	0.140
-227.727	-107.758	-0.218	-0.047
-226.713	-191.349	0.093	-0.001
-225.698	108.722	0.162	-0.192
-224.684	-63.474	-0.448	-0.183
-223.669	164.862	-0.009	-0.012
-222.655	-200.000	-0.063	0.351
-221.640	800.000	-0.091	0.347
-220.625	87.200	0.151	0.166
-219.611	424.920	-0.037	0.079
-218.596	552.218	-0.148	-0.354
-217.582	496.831	-0.052	-0.118
-216.567	-40.134	0.053	-0.027
-215.552	-75.041	0.332	0.118
-214.538	-32.994	0.236	-0.130
-213.523	-78.752	0.214	-0.072
-212.509	29.456	-0.045	-0.038
-211.494	-115.839	-0.226	-0.042
-210.479	-69.850	-0.206	0.078
-209.465	392.915	0.087	0.180
-208.450	-45.379	0.238	0.117
-207.436	-60.420	-0.196	-0.083
-206.421	-88.356	-0.258	0.077
-205.406	800.000	-0.049	-0.177
-204.392	-42.174	0.207	0.105
-203.377	-200.000	0.008	-0.071
-202.363	143.459	-0.216	0.285
-201.348	52.184	-0.093	0.088
-200.333	135.793	-0.049	-0.063
-199.319	214.379	-0.127	0.200
-198.304	-200.000	-0.005	0.370
-197.290	-200.000	0.051	-0.372
-196.275	800.000	-0.072	-0.251
-195.260	-41.736	0.225	-0.115
-194.246	238.139	0.069	0.113
-193.231	-146.054	0.344	-0.030
-192.217	227.528	0.188	-0.303
-191.202	341.688	-0.051	0.099
-190.187	143.755	-0.139	-0.183
-189.173	11.799	-0.063	-0.048
-188.158	-200.000	0.012	0.088
-187.144	-101.961	0.128	-0.031
-186.129	799.708	0.071	-0.195
-185.114	260.550	-0.054	0.092
-184.100	-102.980	0.206	-0.048
-183.085	-164.208	-0.128	0.006
-182.071	-188.676	0.142	0.002
-181.056	238.915	0.096	-0.158
-180.042	-200.000	0.012	0.215
-179.027	-87.881	0.053	0.016
-178.012	171.688	0.003	0.004
-176.998	57.026	-0.196	0.189
-175.983	800.000	0.046	0.132
-174.969	-200.000	-0.050	-0.350
-173.954	146.060	-0.120	-0.160
-172.939	-200.000	0.054	-0.262
-171.925	-200.000	0.015	-0.217
-170.910	-175.033	0.115	-0.003
-169.896	-6.676	0.279	-0.188
-168.881	-51.073	0.334	0.155
-167.866	96.770	0.029	-0.033
-166.852	-200.000	0.000	0.256
-165.837	-142.937	-0.200	0.019
-164.823	58.456	0.270	0.263
-163.808	50.306	-0.171	-0.160
-162.793	-94.347	-0.155	-0.042
-161.779	-6.974	0.243	-0.164
-160.764	-200.000	0.074	0.419
-159.750	-200.000	0.033	-0.225
-158.735	42.730	0.166	-0.149
-157.720	-76.359	-0.353	0.123
-156.706	112.817	0.091	0.109
-155.691	36.476	0.172	0.150
-154.677	450.127	-0.047	0.103
-153.662	-200.000	-0.017	-0.194
-152.647	110.654	-0.146	-0.175
-151.633	283.405	-0.264	-0.470
-150.618	-200.000	0.030	0.165
-149.604	115.184	0.179	-0.217
-148.589	403.654	0.044	-0.093
-147.574	-8.657	-0.153	-0.102
-146.560	-88.555	0.045	0.013
-145.545	-103.999	0.273	0.063
-144.531	-116.421	0.133	0.024
-143.516	-38.481	-0.203	0.106
-142.502	-93.830	0.140	-0.038
-141.487	37.390	0.125	-0.110
-140.472	-96.690	-0.173	0.045
-139.458	69.164	0.026	-0.027
-138.443	12.199	-0.212	-0.162
-137.429	-79.554	0.268	-0.090
-136.414	-103.233	-0.024	-0.006
-135.399	-69.750	0.106	-0.040
-134.385	-158.785	0.562	-0.032
-133.370	-146.328	-0.189	-0.016
-132.356	391.788	0.087	0.180
-131.341	-200.000	0.000	0.179
-130.326	89.591	0.096	0.106
-129.312	250.356	0.073	-0.123
-128.297	800.000	0.128	0.418
-127.283	-171.321	-0.137	0.005
-126.268	-5.914	0.265	-0.179
-125.253	800.000	-0.042	-0.158
-124.239	209.900	0.095	0.147
-123.224	-76.923	0.299	0.103
-122.210	67.788	0.070	0.071
-121.195	149.232	-0.262	0.352
