DTS Sentinel unit serial number:	SN413079Multiplexer serial number:	ORYXHardware model number:	OX4-SRSoftware version number:	ORYX F/W v4.00 Oryx Data Collector v3.7.2.0data status	okinstallation	princeton_trtdifferential loss correction	single-endedforward channel	channel 2reverse channel	N/Adate	2019/09/12time	00:53:11forward acquisition time	60.00reverse acquisition time	0.00gamma	496.2192k internal	0.2325k external	0.2325temperature offset calibration	1.0088default loss term (dB/km)	0.3790temperature slope calibration	1.0000multiplexer offset coefficient	1.0000multiplexer slope coefficient	1.0000fibre end	0.00T internal ref (°C)	33.25T ext. ref 1 (°C)	2.08T ext. ref 2 (°C)	28.02length (m)	temperature (°C)	Stokes	anti-Stokes-747.200	-200.000	0.069	0.316
-746.185	-200.000	-0.013	-0.160
-745.171	-62.569	-0.160	0.067
-744.156	36.904	-0.334	0.298
-743.142	-130.028	-0.057	0.008
-742.127	800.000	0.050	0.192
-741.112	-200.000	-0.003	0.315
-740.098	77.031	-0.149	0.160
-739.083	47.018	-0.112	0.105
-738.069	13.408	0.305	0.239
-737.054	-152.966	0.044	-0.003
-736.039	78.191	-0.062	0.067
-735.025	800.000	0.058	-0.204
-734.010	212.072	0.061	0.097
-732.996	-200.000	-0.059	-0.274
-731.981	362.875	-0.096	0.195
-730.966	27.272	-0.140	-0.118
-729.952	54.405	-0.155	-0.151
-728.937	106.710	-0.108	-0.129
-727.923	-200.000	0.003	-0.127
-726.908	-200.000	-0.023	-0.192
-725.894	131.766	-0.129	-0.168
-724.879	-4.848	-0.255	-0.177
-723.864	-89.157	0.050	0.015
-722.850	-200.000	-0.020	-0.176
-721.835	383.002	0.024	-0.049
-720.821	-153.156	-0.314	0.022
-719.806	39.635	0.108	-0.098
-718.791	169.550	0.121	-0.175
-717.777	-32.047	-0.169	-0.095
-716.762	-200.000	-0.022	-0.332
-715.748	367.146	0.037	0.075
-714.733	-102.273	0.393	0.095
-713.718	329.734	-0.069	-0.134
-712.704	439.171	-0.108	0.238
-711.689	125.414	0.120	-0.152
-710.675	32.769	-0.232	-0.202
-709.660	82.006	0.249	0.272
-708.645	119.942	-0.144	0.179
-707.631	-200.000	-0.007	0.115
-706.616	800.000	0.104	0.348
-705.602	-35.633	0.162	0.089
-704.587	15.560	0.184	-0.146
-703.572	147.987	-0.151	0.205
-702.558	-200.000	0.016	-0.369
-701.543	-200.000	0.186	0.000
-700.529	308.612	-0.075	-0.141
-699.514	-200.000	0.041	0.300
-698.499	47.274	0.268	0.251
-697.485	-116.399	-0.079	-0.015
-696.470	800.000	0.029	-0.115
-695.456	13.282	-0.093	-0.073
-694.441	800.000	-0.131	-0.472
-693.426	-113.221	0.267	0.053
-692.412	-71.710	-0.252	-0.095
-691.397	-200.000	-0.013	-0.131
-690.383	-200.000	-0.038	0.227
-689.368	-74.576	-0.210	-0.076
-688.354	-107.915	0.144	0.032
-687.339	-19.417	0.289	-0.180
-686.324	43.741	-0.175	0.161
-685.310	-200.000	0.011	0.058
-684.295	68.370	0.264	0.272
-683.281	-125.872	-0.204	0.031
-682.266	-95.764	-0.325	0.087
-681.251	-28.456	0.236	-0.137
-680.237	68.567	0.122	-0.126
-679.222	1.212	0.011	-0.008
-678.208	-101.022	-0.272	-0.067
-677.193	-30.134	0.335	-0.192
-676.178	-66.504	-0.274	0.110
-675.164	-200.000	-0.029	0.272
-674.149	-130.100	-0.216	0.030
-673.135	-200.000	0.031	0.239
-672.120	64.478	0.075	0.076
-671.105	-175.519	0.431	0.012
-670.091	-45.689	-0.204	-0.101
-669.076	-140.550	0.397	-0.041
-668.062	-200.000	-0.042	-0.210
-667.047	-200.000	0.004	0.124
-666.032	-166.646	0.235	-0.010
-665.018	-13.321	-0.159	-0.103
-664.003	-200.000	0.014	0.086
-662.989	-200.000	-0.028	0.166
-661.974	644.060	-0.112	-0.288
-660.959	134.150	0.130	-0.169
-659.945	-15.608	0.077	0.050
-658.930	-161.633	0.125	-0.006
-657.916	-150.504	-0.226	-0.017
-656.901	-140.252	0.178	-0.019
-655.886	-200.000	-0.010	0.077
-654.872	-51.261	-0.179	0.084
-653.857	800.000	0.049	-0.204
-652.843	-58.882	0.166	0.072
-651.828	-200.000	0.044	0.211
-650.814	-107.435	-0.173	0.038
-649.799	800.000	0.049	-0.153
-648.784	-131.338	0.028	0.004
-647.770	-115.819	-0.231	0.043
-646.755	92.830	-0.146	-0.166
-645.741	-33.610	0.204	0.113
-644.726	800.000	-0.095	0.358
-643.711	656.907	0.151	0.389
-642.697	19.728	-0.329	-0.266
-641.682	-114.447	-0.333	-0.064
-640.668	-200.000	0.017	0.184
-639.653	220.046	-0.094	0.152
-638.638	-111.148	0.199	0.041
-637.624	-200.000	-0.027	-0.231
-636.609	-122.538	0.191	0.031
-635.595	-10.064	0.307	0.205
-634.580	-88.687	0.385	0.115
-633.565	-133.713	0.291	-0.037
-632.551	49.554	0.249	0.235
-631.536	-95.654	0.048	0.013
-630.522	289.086	-0.087	-0.159
-629.507	-129.008	0.378	0.053
-628.492	-32.647	0.196	0.110
-627.478	-34.197	0.152	-0.084
-626.463	-84.399	0.240	-0.076
-625.449	55.964	0.176	-0.171
-624.434	-114.327	-0.128	0.025
-623.419	-200.000	-0.048	-0.274
-622.405	126.737	0.099	-0.126
-621.390	-158.754	-0.017	0.001
-620.376	87.230	-0.149	-0.166
-619.361	-200.000	-0.017	-0.103
-618.346	-144.871	-0.215	-0.020
-617.332	-142.740	-0.332	-0.033
-616.317	-200.000	-0.255	0.001
-615.303	80.197	-0.234	0.253
-614.288	-166.282	-0.412	-0.017
-613.273	-9.311	0.117	-0.079
-612.259	75.470	0.132	0.140
-611.244	-163.808	0.179	0.008
-610.230	-200.000	-0.022	-0.292
-609.215	401.862	0.051	0.108
-608.201	173.903	0.113	-0.164
-607.186	-200.000	0.021	0.147
-606.171	-200.000	0.038	-0.187
-605.157	268.562	-0.184	-0.323
-604.142	-32.818	0.184	-0.103
-603.128	-73.501	0.223	-0.082
-602.113	315.430	-0.075	0.142
-601.098	64.069	-0.239	-0.241
-600.084	800.000	0.096	0.300
-599.069	-200.000	-0.013	0.219
-598.055	336.441	0.092	0.179
-597.040	626.620	-0.050	0.128
-596.025	119.733	0.250	-0.310
-595.011	-58.037	-0.038	0.017
-593.996	555.541	-0.138	0.334
-592.982	63.138	0.261	-0.263
-591.967	115.111	-0.174	-0.213
-590.952	-126.095	-0.445	0.067
-589.938	-24.551	-0.415	0.248
-588.923	800.000	-0.062	0.182
-587.909	87.413	0.324	-0.359
-586.894	-10.412	-0.109	0.073
-585.879	181.298	0.085	-0.125
-584.865	-2.134	0.071	0.050
-583.850	-8.592	0.102	-0.069
-582.836	-200.000	-0.016	0.486
-581.821	-102.454	-0.184	-0.044
-580.806	413.663	0.043	-0.093
-579.792	61.568	0.112	0.112
-578.777	-200.000	0.091	-0.456
-577.763	800.000	-0.052	-0.164
-576.748	-200.000	0.051	-0.261
-575.733	84.294	-0.071	-0.078
-574.719	-200.000	-0.040	-0.184
-573.704	-101.087	-0.438	0.108
-572.690	-180.509	0.038	-0.001
-571.675	-69.597	0.226	-0.087
-570.661	350.525	0.070	0.138
-569.646	79.843	0.076	-0.082
-568.631	-200.000	0.046	0.311
-567.617	486.197	-0.017	-0.040
-566.602	100.747	0.237	0.276
-565.588	-88.305	0.089	-0.027
-564.573	40.365	-0.230	-0.207
-563.558	9.093	0.160	-0.121
-562.544	-200.000	-0.033	-0.230
-561.529	33.176	0.107	0.093
-560.515	122.389	-0.109	0.136
-559.500	-138.734	-0.246	0.027
-558.485	-91.099	-0.104	0.030
-557.471	-94.597	-0.126	-0.034
-556.456	-138.897	0.063	-0.007
-555.442	243.540	0.222	-0.374
-554.427	-56.951	0.341	0.151
-553.412	-58.598	0.225	-0.098
-552.398	47.233	-0.172	0.161
-551.383	800.000	-0.051	0.157
-550.369	33.831	-0.185	-0.161
-549.354	-76.031	-0.362	-0.128
-548.339	-60.597	0.115	0.049
-547.325	-108.509	0.197	0.042
-546.310	-200.000	0.040	-0.197
-545.296	-104.863	-0.237	-0.055
-544.281	204.769	-0.020	-0.032
-543.266	-151.606	0.250	-0.018
-542.252	64.663	-0.077	-0.077
-541.237	134.851	0.055	0.071
-540.223	153.767	-0.225	-0.309
-539.208	175.125	-0.016	0.023
-538.193	209.139	-0.035	-0.054
-537.179	-124.085	-0.019	-0.003
-536.164	-200.000	-0.036	0.197
-535.150	800.000	-0.143	0.491
-534.135	-64.954	-0.417	0.168
-533.121	-200.000	-0.013	-0.150
-532.106	-200.000	0.008	-0.153
-531.091	352.431	0.155	-0.307
-530.077	-160.124	-0.216	-0.012
-529.062	-28.855	0.210	-0.121
-528.048	-200.000	-0.007	-0.156
-527.033	2.879	0.174	0.126
-526.018	432.896	0.086	0.186
-525.004	162.650	-0.260	-0.365
-523.989	800.000	0.041	-0.126
-522.975	-200.000	-0.008	0.110
-521.960	800.000	-0.081	0.313
-520.945	56.352	-0.165	0.160
-519.931	178.762	0.059	-0.086
-518.916	-40.646	-0.178	0.092
-517.902	-22.095	-0.237	0.144
-516.887	-167.553	-0.128	0.005
-515.872	67.981	0.068	-0.070
-514.858	86.128	-0.090	-0.099
-513.843	156.396	-0.112	0.155
-512.829	-16.674	-0.168	-0.106
-511.814	62.106	0.204	0.203
-510.799	-17.307	-0.016	0.010
-509.785	-99.838	0.157	-0.039
-508.770	800.000	0.035	-0.128
-507.756	3.501	-0.154	0.113
-506.741	118.418	0.294	0.362
-505.726	5.445	0.324	-0.239
-504.712	8.132	-0.307	0.231
-503.697	-136.622	-0.099	-0.011
-502.683	800.000	-0.079	0.306
-501.668	800.000	0.055	-0.181
-500.653	111.331	0.044	-0.053
-499.639	800.000	-0.071	-0.222
-498.624	-70.969	0.318	-0.120
-497.610	343.111	-0.081	-0.158
-496.595	-121.571	-0.273	0.045
-495.581	800.000	0.048	0.151
-494.566	-200.000	0.006	-0.128
-493.551	800.000	-0.033	-0.122
-492.537	-140.205	-0.241	-0.025
-491.522	-7.623	-0.082	0.055
-490.508	383.064	-0.090	0.185
-489.493	800.000	0.079	-0.242
-488.478	800.000	0.040	-0.134
-487.464	-200.000	0.011	-0.184
-486.449	49.955	-0.049	-0.046
-485.435	-119.000	-0.104	0.018
-484.420	-200.000	-0.039	-0.277
-483.405	-45.292	-0.155	-0.077
-482.391	-111.206	-0.164	0.033
-481.376	-105.815	0.177	0.040
-480.362	-116.258	-0.068	-0.013
-479.347	800.000	-0.071	-0.239
-478.332	44.767	0.038	0.035
-477.318	-200.000	-0.008	-0.262
-476.303	-200.000	0.009	-0.256
-475.289	-86.687	-0.110	-0.034
-474.274	-200.000	0.020	-0.099
-473.259	-200.000	0.043	-0.294
-472.245	-108.954	-0.066	0.014
-471.230	72.741	0.179	-0.187
-470.216	463.849	-0.138	-0.309
-469.201	40.305	0.052	-0.046
-468.186	-68.826	-0.102	0.039
-467.172	75.160	-0.176	-0.185
-466.157	47.527	0.134	-0.125
-465.143	-200.000	0.005	-0.083
-464.128	112.327	-0.125	-0.150
-463.113	291.316	-0.142	-0.259
-462.099	101.157	-0.214	-0.249
-461.084	121.399	0.248	0.309
-460.070	-25.606	-0.076	0.045
-459.055	-103.776	0.098	0.023
-458.040	-200.000	0.048	-0.356
-457.026	-83.071	-0.160	0.051
-456.011	-154.748	0.041	0.003
-454.997	153.510	0.185	-0.253
-453.982	-66.584	-0.160	-0.063
-452.968	-110.509	0.402	0.083
-451.953	158.212	0.139	0.192
-450.938	-188.153	0.108	-0.001
-449.924	-43.626	0.211	-0.106
-448.909	-200.000	0.021	0.192
-447.895	800.000	-0.085	0.242
-446.880	-200.000	0.003	0.084
-445.865	-200.000	0.088	0.492
-444.851	123.584	0.065	-0.081
-443.836	57.786	-0.169	-0.165
-442.822	70.383	-0.107	-0.110
-441.807	-149.037	-0.175	0.014
-440.792	800.000	-0.061	-0.259
-439.778	-115.972	0.288	-0.053
-438.763	-80.585	0.265	-0.088
-437.749	4.797	-0.126	-0.092
-436.734	727.815	-0.043	0.115
-435.719	-97.167	0.446	0.116
-434.705	98.816	0.126	-0.145
-433.690	288.544	-0.103	-0.185
-432.676	-35.462	-0.190	0.103
-431.661	-35.091	-0.272	0.148
-430.646	-156.325	-0.036	-0.002
-429.632	21.701	-0.068	0.055
-428.617	79.504	-0.020	0.022
-427.603	1.085	0.044	-0.031
-426.588	-200.000	-0.040	0.249
-425.573	800.000	0.042	-0.159
-424.559	-76.046	-0.462	0.163
-423.544	-68.864	-0.054	0.021
-422.530	172.924	0.198	0.284
-421.515	-141.213	-0.305	-0.031
-420.500	800.000	-0.067	-0.291
-419.486	92.992	-0.142	-0.159
-418.471	325.790	0.075	0.144
-417.457	187.754	-0.062	0.093
-416.442	-200.000	0.019	-0.144
-415.428	800.000	0.091	0.301
-414.413	-111.891	-0.154	-0.031
-413.398	752.977	-0.072	-0.194
-412.384	-37.167	-0.192	0.102
-411.369	146.047	0.152	-0.203
-410.355	-30.768	0.139	0.078
-409.340	-59.832	0.129	-0.055
-408.325	800.000	-0.058	-0.192
-407.311	18.757	0.045	0.036
-406.296	172.175	0.098	0.141
-405.282	357.725	-0.086	0.171
-404.267	273.108	-0.092	0.161
-403.252	64.412	-0.194	0.195
-402.238	800.000	-0.127	0.508
-401.223	-153.662	-0.053	-0.004
-400.209	348.446	0.226	-0.444
-399.194	18.558	-0.349	0.278
-398.179	304.738	-0.108	-0.199
-397.165	-105.470	0.237	0.054
-396.150	-200.000	-0.034	-0.183
-395.136	800.000	0.013	0.042
-394.121	-200.000	0.018	-0.131
-393.106	-110.883	0.160	-0.033
-392.092	5.093	-0.170	-0.125
-391.077	217.255	-0.052	-0.082
-390.063	-200.000	-0.015	0.192
-389.048	184.202	0.078	-0.115
-388.033	-87.081	-0.329	-0.100
-387.019	-52.253	0.100	0.046
-386.004	-2.804	0.204	0.142
-384.990	-156.655	0.353	0.022
-383.975	-109.763	0.334	-0.070
-382.960	78.377	0.228	0.242
-381.946	-138.525	-0.232	0.025
-380.931	73.391	-0.188	0.195
-379.917	663.692	-0.038	0.098
-378.902	-141.621	0.210	-0.021
-377.888	386.814	-0.190	0.391
-376.873	-70.427	0.388	0.146
-375.858	41.492	-0.303	0.272
-374.844	-100.101	-0.074	0.018
-373.829	-52.949	0.132	-0.060
-372.815	800.000	0.139	0.405
-371.800	-110.818	-0.150	-0.031
-370.785	58.685	-0.102	-0.099
-369.771	16.994	0.093	-0.073
-368.756	-138.493	0.202	-0.022
-367.742	70.747	0.163	0.168
-366.727	201.425	0.052	0.079
-365.712	50.021	0.161	-0.151
-364.698	-164.444	-0.195	0.009
-363.683	-144.847	0.093	-0.008
-362.669	-12.656	0.181	0.117
-361.654	-200.000	-0.050	0.231
-360.639	800.000	0.076	0.280
-359.625	378.518	0.191	0.389
-358.610	-85.375	0.226	0.070
-357.596	88.862	-0.057	-0.064
-356.581	68.010	0.195	-0.198
-355.566	800.000	0.114	-0.315
-354.552	383.665	0.022	0.044
-353.537	-200.000	0.024	0.189
-352.523	95.918	-0.051	0.057
-351.508	284.955	0.091	0.162
-350.493	262.259	0.025	-0.043
-349.479	-44.640	-0.195	-0.097
-348.464	-200.000	-0.003	0.144
-347.450	226.299	0.163	0.263
-346.435	-41.296	-0.071	0.036
-345.420	-69.464	-0.431	0.164
-344.406	-200.000	0.046	0.289
-343.391	41.012	-0.087	0.078
-342.377	-128.549	-0.336	-0.047
-341.362	-3.999	0.145	-0.100
-340.348	129.731	-0.148	-0.188
-339.333	-42.896	-0.262	0.132
-338.318	5.529	-0.235	0.173
-337.304	-200.000	0.022	-0.139
-336.289	-200.000	-0.025	-0.393
-335.275	-5.115	-0.216	-0.147
-334.260	-49.159	-0.145	0.069
-333.245	-64.408	0.302	0.122
-332.231	-121.354	0.245	0.041
-331.216	-62.407	0.181	-0.075
-330.202	161.982	-0.074	0.103
-329.187	-200.000	0.026	0.211
-328.172	-200.000	-0.019	-0.239
-327.158	-200.000	0.006	-0.136
-326.143	-60.322	-0.155	0.065
-325.129	800.000	-0.007	0.021
-324.114	-102.054	0.129	-0.031
-323.099	-200.000	0.002	0.026
-322.085	-13.684	0.188	0.121
-321.070	9.695	0.095	-0.072
-320.056	-200.000	0.029	-0.248
-319.041	157.175	-0.047	0.064
-318.026	103.472	-0.227	-0.265
-317.012	151.690	0.188	-0.254
-315.997	-15.385	-0.122	-0.078
-314.983	-79.770	0.215	-0.072
-313.968	-63.311	0.376	-0.153
-312.953	-200.000	-0.011	-0.183
-311.939	-200.000	0.030	-0.207
-310.924	-137.889	0.370	0.041
-309.910	147.410	0.080	-0.106
-308.895	-96.024	-0.162	-0.043
-307.880	-113.517	0.110	-0.021
-306.866	-5.058	0.154	0.105
-305.851	-46.589	0.218	-0.106
-304.837	-200.000	-0.028	0.274
-303.822	159.259	0.137	-0.188
-302.807	-10.962	0.257	0.168
-301.793	-200.000	-0.036	-0.162
-300.778	800.000	0.093	-0.271
-299.764	69.743	0.122	-0.124
-298.749	133.860	0.270	0.347
-297.735	14.356	0.187	0.145
-296.720	258.020	-0.061	0.104
-295.705	800.000	0.086	-0.271
-294.691	800.000	-0.141	0.451
-293.676	-55.218	-0.129	-0.057
-292.662	-200.000	0.007	-0.106
-291.647	-173.215	0.228	-0.007
-290.632	-115.511	-0.282	-0.053
-289.618	211.855	0.116	-0.181
-288.603	-200.000	-0.061	0.324
-287.589	-200.000	0.004	0.222
-286.574	-200.000	-0.031	-0.173
-285.559	800.000	0.120	0.378
-284.545	-143.846	0.145	0.014
-283.530	-200.000	0.010	-0.307
-282.516	36.838	0.107	-0.094
-281.501	51.335	0.185	0.174
-280.486	-200.000	-0.010	-0.141
-279.472	-85.062	0.133	-0.041
-278.457	-200.000	-0.004	-0.118
-277.443	-200.000	-0.060	-0.308
-276.428	-132.851	0.102	-0.013
-275.413	-66.298	-0.207	-0.082
-274.399	395.731	0.087	0.180
-273.384	694.151	-0.033	-0.087
-272.370	23.724	0.169	0.138
-271.355	800.000	0.081	-0.235
-270.340	-108.703	-0.056	0.012
-269.326	-200.000	0.017	-0.097
-268.311	-200.000	0.007	-0.359
-267.297	-27.061	0.166	-0.096
-266.282	-200.000	-0.014	0.080
-265.267	366.547	0.141	0.283
-264.253	-168.985	-0.149	-0.006
-263.238	-112.039	0.246	0.049
-262.224	123.749	0.068	-0.084
-261.209	87.768	0.118	0.129
-260.195	-150.359	-0.253	-0.019
-259.180	-34.506	0.187	-0.101
-258.165	-30.240	-0.364	-0.205
-257.151	84.085	0.157	0.170
-256.136	-86.134	-0.158	0.048
-255.122	-137.562	-0.098	-0.011
-254.107	23.692	0.269	-0.219
-253.092	-138.713	-0.316	0.034
-252.078	-24.747	0.335	0.197
-251.063	-200.000	-0.007	-0.201
-250.049	-126.058	0.137	-0.020
-249.034	-200.000	0.025	0.249
-248.019	-85.700	-0.172	0.053
-247.005	25.678	0.067	0.055
-245.990	800.000	-0.054	0.211
-244.976	-180.232	0.389	0.008
-243.961	461.978	-0.101	-0.224
-242.946	-200.000	0.001	-0.101
-241.932	-37.051	0.238	0.126
-240.917	-46.830	-0.214	0.104
-239.903	633.333	-0.091	0.228
-238.888	431.839	0.018	-0.039
-237.873	-157.753	-0.259	0.015
-236.859	-87.244	-0.201	0.060
-235.844	-102.774	0.081	0.019
-234.830	-65.021	-0.277	-0.111
-233.815	-162.175	-0.210	-0.010
-232.800	646.644	0.044	0.111
-231.786	-193.130	-0.283	0.002
-230.771	20.515	-0.386	-0.309
-229.757	-200.000	0.005	0.125
-228.742	45.868	-0.059	-0.054
-227.727	800.000	0.035	0.133
-226.713	800.000	0.110	0.419
-225.698	265.537	0.188	0.325
-224.684	-38.641	-0.169	0.088
-223.669	800.000	-0.057	0.157
-222.655	800.000	0.040	-0.139
-221.640	-89.667	0.132	-0.038
-220.625	-135.480	-0.103	0.012
-219.611	53.241	-0.146	-0.138
-218.596	109.243	-0.026	-0.031
-217.582	-50.187	-0.046	0.021
-216.567	186.531	0.242	0.356
-215.552	-80.198	0.268	0.089
-214.538	-200.000	-0.023	0.273
-213.523	273.129	-0.108	0.188
-212.509	419.051	0.097	0.205
-211.494	-200.000	0.018	-0.172
-210.479	-200.000	0.057	0.295
-209.465	-139.517	-0.462	-0.049
-208.450	24.743	-0.074	0.061
-207.436	-153.886	0.180	0.012
-206.421	436.686	0.192	0.414
-205.406	202.324	-0.138	-0.211
-204.392	-187.546	-0.457	-0.006
-203.377	121.595	-0.142	-0.175
-202.363	-49.908	-0.027	-0.013
-201.348	43.703	0.306	0.276
-200.333	27.305	-0.312	0.259
-199.319	205.341	0.062	-0.095
-198.304	19.068	-0.145	0.115
-197.290	-34.019	-0.269	0.146
-196.275	-200.000	0.033	0.176
-195.260	84.135	0.172	-0.186
-194.246	-200.000	0.031	0.192
-193.231	-4.325	-0.113	0.077
-192.217	-126.603	0.186	-0.027
-191.202	-26.259	0.055	0.032
-190.187	202.453	-0.134	-0.204
-189.173	800.000	0.035	0.109
-188.158	26.170	0.181	-0.149
-187.144	36.568	-0.214	-0.186
-186.129	39.592	-0.008	-0.007
-185.114	-180.517	0.038	-0.001
-184.100	-111.783	-0.238	-0.048
-183.085	-92.243	0.350	0.097
-182.071	9.277	0.224	0.167
-181.056	-74.760	-0.135	0.048
-180.042	64.677	-0.163	-0.163
-179.027	359.348	-0.107	-0.212
-178.012	-56.569	-0.088	0.039
-176.998	-176.871	0.307	0.008
-175.983	350.324	-0.107	0.209
-174.969	-160.037	-0.221	-0.012
-173.954	19.807	0.164	0.130
-172.939	-31.249	0.151	0.084
-171.925	60.950	0.077	-0.075
-170.910	247.368	0.210	-0.350
-169.896	-200.000	-0.043	-0.205
-168.881	-200.000	-0.039	0.253
-167.866	1.765	-0.385	-0.274
-166.852	-200.000	0.015	0.123
-165.837	-148.673	0.149	-0.012
-164.823	-200.000	-0.012	0.118
-163.808	-144.997	-0.111	-0.010
-162.793	-45.060	-0.174	-0.085
-161.779	-21.583	0.188	0.113
-160.764	-200.000	-0.072	-0.344
-159.750	-113.603	-0.207	-0.040
-158.735	2.483	0.204	-0.146
-157.720	84.659	0.177	0.191
-156.706	-145.474	0.267	-0.024
-155.691	-66.043	-0.214	0.084
-154.677	800.000	0.055	-0.157
-153.662	-99.693	-0.075	0.018
-152.647	-16.508	-0.348	0.217
-151.633	-9.394	0.043	-0.028
-150.618	-45.159	0.157	-0.077
-149.604	46.299	-0.096	0.088
-148.589	-16.308	-0.097	0.061
-147.574	-200.000	0.067	0.298
-146.560	-20.638	0.192	0.116
-145.545	250.497	-0.031	0.052
-144.531	-200.000	-0.030	-0.281
-143.516	-99.723	0.497	-0.123
-142.502	-42.472	-0.253	-0.127
-141.487	299.088	0.011	0.021
-140.472	-156.699	0.062	-0.004
-139.458	800.000	-0.097	0.416
-138.443	-37.469	0.117	0.062
-137.429	800.000	-0.074	0.225
-136.414	-200.000	0.012	-0.129
-135.399	24.743	-0.299	0.244
-134.385	55.774	0.133	-0.127
-133.370	541.256	-0.063	0.149
-132.356	212.767	-0.184	-0.286
-131.341	259.613	-0.125	-0.213
-130.326	-65.638	0.507	-0.200
-129.312	-92.547	0.300	-0.083
-128.297	-93.610	-0.238	-0.065
-127.283	59.981	0.126	0.123
-126.268	277.584	0.031	-0.054
-125.253	-72.270	0.133	0.049
-124.239	-200.000	-0.006	-0.177
-123.224	-169.162	0.230	-0.008
-122.210	39.173	0.139	-0.122
