DTS Sentinel unit serial number:	SN413079Multiplexer serial number:	ORYXHardware model number:	OX4-SRSoftware version number:	ORYX F/W v4.00 Oryx Data Collector v3.7.2.0data status	okinstallation	princeton_trtdifferential loss correction	single-endedforward channel	channel 2reverse channel	N/Adate	2019/09/12time	06:41:11forward acquisition time	60.00reverse acquisition time	0.00gamma	496.2192k internal	0.2324k external	0.2324temperature offset calibration	1.0063default loss term (dB/km)	0.3790temperature slope calibration	1.0000multiplexer offset coefficient	1.0000multiplexer slope coefficient	1.0000fibre end	0.00T internal ref (°C)	32.16T ext. ref 1 (°C)	1.59T ext. ref 2 (°C)	27.20length (m)	temperature (°C)	Stokes	anti-Stokes-747.200	72.253	-0.133	0.140
-746.185	127.874	-0.142	0.183
-745.171	-97.082	-0.151	-0.040
-744.156	1.748	0.106	-0.077
-743.142	-127.417	0.384	0.056
-742.127	-81.454	-0.203	0.067
-741.112	800.000	-0.093	-0.374
-740.098	-11.892	-0.184	-0.122
-739.083	-150.541	0.188	0.015
-738.069	434.997	-0.128	0.280
-737.054	-32.010	-0.210	0.118
-736.039	-94.734	-0.350	-0.096
-735.025	800.000	0.027	0.092
-734.010	800.000	-0.038	-0.149
-732.996	-120.073	0.058	0.010
-731.981	-200.000	-0.053	0.275
-730.966	-200.000	-0.032	0.170
-729.952	-200.000	0.022	-0.159
-728.937	-33.078	-0.061	0.034
-727.923	-200.000	0.004	0.092
-726.908	-200.000	-0.031	-0.148
-725.894	125.810	-0.264	-0.336
-724.879	-58.558	-0.418	-0.183
-723.864	-9.852	-0.260	-0.175
-722.850	-200.000	-0.015	-0.239
-721.835	-38.364	0.300	-0.160
-720.821	-41.169	-0.230	0.120
-719.806	-200.000	0.037	-0.318
-718.791	800.000	0.117	-0.356
-717.777	-123.021	0.081	-0.013
-716.762	-43.043	0.214	-0.109
-715.748	800.000	-0.058	-0.209
-714.733	-84.597	-0.261	0.083
-713.718	29.161	-0.197	-0.168
-712.704	67.277	-0.075	-0.077
-711.689	116.900	-0.237	-0.294
-710.675	-200.000	0.014	0.179
-709.660	-9.132	-0.284	-0.192
-708.645	-190.747	-0.249	0.003
-707.631	-107.069	-0.288	-0.064
-706.616	474.949	0.049	0.111
-705.602	194.644	-0.298	-0.456
-704.587	-200.000	-0.011	-0.103
-703.572	-23.598	-0.154	-0.093
-702.558	-58.906	0.268	-0.117
-701.543	-84.063	0.125	-0.040
-700.529	187.284	0.156	0.234
-699.514	-200.000	0.030	0.143
-698.499	-140.727	-0.357	0.037
-697.485	-23.292	-0.139	-0.084
-696.470	-102.392	-0.163	-0.039
-695.456	-10.863	0.194	0.129
-694.441	-200.000	0.020	0.133
-693.426	-200.000	0.018	-0.183
-692.412	-15.826	-0.139	0.089
-691.397	800.000	0.128	-0.407
-690.383	-200.000	-0.027	-0.156
-689.368	800.000	0.084	-0.280
-688.354	800.000	-0.126	-0.380
-687.339	-200.000	0.044	-0.287
-686.324	191.477	0.089	-0.135
-685.310	800.000	0.072	-0.201
-684.295	15.516	0.161	0.128
-683.281	115.298	-0.207	-0.255
-682.266	-73.079	-0.096	0.036
-681.251	-82.352	-0.474	0.155
-680.237	92.684	-0.159	0.181
-679.222	800.000	0.132	0.395
-678.208	166.775	-0.231	0.329
-677.193	-75.224	-0.318	0.114
-676.178	374.336	-0.121	-0.248
-675.164	-82.511	0.034	-0.011
-674.149	-101.767	-0.124	0.030
-673.135	220.452	-0.071	0.115
-672.120	166.457	-0.206	-0.293
-671.105	35.924	-0.281	0.249
-670.091	65.284	-0.194	-0.198
-669.076	126.008	-0.191	0.243
-668.062	-41.899	-0.137	0.071
-667.047	-1.047	-0.267	0.190
-666.032	800.000	0.024	-0.070
-665.018	-63.237	0.246	-0.102
-664.003	-30.734	0.325	0.185
-662.989	-160.414	-0.201	-0.011
-661.974	-57.146	-0.224	0.099
-660.959	-200.000	0.012	0.255
-659.945	-131.980	0.174	0.023
-658.930	-200.000	0.033	-0.338
-657.916	173.519	-0.154	0.223
-656.901	-200.000	-0.001	-0.217
-655.886	0.394	-0.147	0.105
-654.872	156.964	-0.020	-0.028
-653.857	-127.441	0.185	-0.027
-652.843	800.000	0.089	-0.304
-651.828	-22.005	0.043	-0.026
-650.814	10.405	0.412	0.316
-649.799	222.552	-0.094	-0.153
-648.784	-42.378	-0.241	-0.123
-647.770	-200.000	0.003	-0.039
-646.755	178.463	0.172	-0.252
-645.741	0.412	-0.187	0.134
-644.726	93.875	0.197	-0.225
-643.711	-98.533	0.511	0.131
-642.697	236.162	0.060	0.099
-641.682	-120.166	-0.181	-0.031
-640.668	42.784	0.115	-0.105
-639.653	149.871	0.140	-0.190
-638.638	-200.000	-0.001	0.167
-637.624	645.705	-0.113	-0.291
-636.609	54.351	-0.204	0.197
-635.595	-105.256	0.268	0.062
-634.580	245.564	-0.175	-0.297
-633.565	29.159	0.329	0.281
-632.551	146.031	-0.135	0.182
-631.536	-177.911	0.136	-0.003
-630.522	-39.736	0.267	0.140
-629.507	149.104	-0.091	-0.124
-628.492	-97.215	-0.148	-0.039
-627.478	-21.658	-0.243	-0.149
-626.463	56.197	0.101	0.098
-625.449	30.009	-0.135	-0.116
-624.434	-30.742	-0.242	-0.138
-623.419	5.010	-0.231	-0.171
-622.405	-200.000	-0.011	0.058
-621.390	-20.009	-0.170	-0.106
-620.376	31.394	-0.061	-0.053
-619.361	40.138	-0.019	0.017
-618.346	-7.253	-0.427	-0.291
-617.332	2.987	0.193	0.141
-616.317	-31.075	-0.118	-0.067
-615.303	9.378	0.237	-0.180
-614.288	25.148	-0.322	0.269
-613.273	-30.497	-0.076	-0.043
-612.259	107.792	-0.157	0.187
-611.244	422.251	-0.114	0.246
-610.230	-64.474	-0.396	0.162
-609.215	-52.536	-0.123	-0.057
-608.201	-28.524	0.315	-0.182
-607.186	-200.000	-0.036	-0.254
-606.171	-2.164	0.149	-0.105
-605.157	90.357	-0.163	0.183
-604.142	267.462	0.036	-0.063
-603.128	243.650	0.225	0.379
-602.113	-200.000	0.012	0.170
-601.098	28.047	-0.033	-0.028
-600.084	10.197	0.130	0.099
-599.069	-78.852	0.078	-0.027
-598.055	-200.000	0.006	0.211
-597.040	-74.489	-0.255	-0.092
-596.025	-200.000	-0.008	-0.242
-595.011	55.891	-0.203	-0.198
-593.996	-50.786	0.153	0.072
-592.982	69.747	-0.226	-0.234
-591.967	-130.037	0.271	0.037
-590.952	2.392	-0.118	0.086
-589.938	800.000	-0.079	0.259
-588.923	-64.514	-0.370	-0.151
-587.909	287.311	-0.045	0.082
-586.894	187.317	-0.199	-0.298
-585.879	-20.613	0.417	-0.257
-584.865	512.537	-0.105	0.245
-583.850	76.463	-0.172	0.182
-582.836	-189.073	0.037	-0.000
-581.821	792.194	0.078	-0.216
-580.806	-200.000	-0.010	-0.151
-579.792	800.000	-0.053	-0.150
-578.777	148.659	0.088	0.119
-577.763	-140.344	-0.240	0.025
-576.748	316.715	-0.130	-0.246
-575.733	190.499	-0.088	-0.133
-574.719	787.442	0.105	-0.288
-573.704	33.889	0.014	-0.012
-572.690	234.048	-0.099	0.164
-571.675	-200.000	-0.012	-0.115
-570.661	304.004	-0.033	-0.061
-569.646	154.067	-0.154	-0.211
-568.631	-145.421	0.340	-0.031
-567.617	-145.112	-0.257	0.023
-566.602	221.435	-0.172	-0.277
-565.588	107.150	0.071	-0.085
-564.573	45.939	0.197	0.183
-563.558	-200.000	0.003	0.075
-562.544	20.240	-0.338	-0.273
-561.529	-200.000	0.037	0.206
-560.515	193.761	-0.255	-0.387
-559.500	-200.000	-0.001	-0.085
-558.485	-6.146	0.249	-0.171
-557.471	603.793	0.116	0.290
-556.456	686.218	0.042	-0.110
-555.442	-41.400	0.044	0.023
-554.427	800.000	0.045	0.136
-553.412	-200.000	-0.088	0.464
-552.398	228.756	-0.070	-0.114
-551.383	-200.000	0.013	0.307
-550.369	23.659	-0.200	0.165
-549.354	285.778	-0.165	-0.298
-548.339	796.060	0.036	0.100
-547.325	-200.000	0.065	0.301
-546.310	28.095	-0.124	0.105
-545.296	-51.654	0.339	0.158
-544.281	-200.000	-0.017	0.245
-543.266	47.046	0.046	0.043
-542.252	-78.482	0.147	-0.051
-541.237	15.831	-0.104	-0.082
-540.223	-200.000	-0.031	-0.193
-539.208	222.503	-0.086	0.139
-538.193	233.668	0.202	-0.332
-537.179	-200.000	-0.075	-0.347
-536.164	-62.431	-0.047	-0.019
-535.150	61.750	-0.125	-0.124
-534.135	291.528	0.057	0.104
-533.121	373.146	0.074	-0.152
-532.106	-112.009	0.237	-0.048
-531.091	-100.414	0.380	-0.094
-530.077	99.072	-0.009	0.010
-529.062	800.000	-0.050	-0.171
-528.048	-75.903	0.171	-0.061
-527.033	-7.302	0.121	-0.082
-526.018	371.603	0.016	0.032
-525.004	-65.892	-0.121	-0.048
-523.989	-159.182	0.350	0.020
-522.975	-33.453	0.076	0.042
-521.960	107.024	0.076	-0.090
-520.945	213.454	0.071	0.112
-519.931	-1.195	0.169	-0.120
-518.916	369.708	-0.069	0.141
-517.902	-33.565	0.162	-0.089
-516.887	-200.000	-0.036	-0.214
-515.872	-54.912	-0.273	-0.123
-514.858	82.680	0.162	-0.176
-513.843	220.093	0.206	-0.331
-512.829	-94.137	0.480	0.132
-511.814	-200.000	0.035	-0.193
-510.799	-126.029	0.183	0.028
-509.785	52.869	-0.132	0.126
-508.770	35.852	0.097	0.085
-507.756	-123.390	-0.312	0.050
-506.741	433.588	0.035	-0.077
-505.726	-119.910	-0.115	-0.020
-504.712	-132.533	0.347	-0.045
-503.697	-51.221	-0.173	0.081
-502.683	232.162	-0.236	-0.387
-501.668	384.050	-0.150	-0.309
-500.653	512.871	-0.083	0.194
-499.639	-101.371	-0.028	0.007
-498.624	-104.453	0.321	-0.074
-497.610	324.159	0.085	-0.163
-496.595	-149.007	0.330	0.027
-495.581	316.675	-0.127	0.239
-494.566	800.000	0.052	0.199
-493.551	-138.063	0.433	0.048
-492.537	-16.382	-0.042	-0.027
-491.522	-51.417	0.066	0.031
-490.508	119.031	-0.273	0.337
-489.493	124.140	0.224	-0.281
-488.478	-102.123	-0.196	0.047
-487.464	637.849	0.120	-0.305
-486.449	-200.000	-0.017	0.299
-485.435	177.604	-0.122	-0.177
-484.420	800.000	-0.034	0.122
-483.405	800.000	-0.029	0.107
-482.391	77.795	-0.110	0.117
-481.376	607.085	0.048	0.120
-480.362	108.175	-0.194	0.231
-479.347	800.000	-0.085	-0.261
-478.332	-25.675	0.029	-0.017
-477.318	-30.412	-0.240	-0.136
-476.303	168.287	-0.028	0.040
-475.289	-150.823	0.209	0.016
-474.274	80.482	0.258	0.277
-473.259	-139.820	-0.307	-0.032
-472.245	20.594	-0.091	0.074
-471.230	42.394	0.375	0.340
-470.216	-2.628	-0.119	0.083
-469.201	316.315	-0.120	0.226
-468.186	185.089	-0.101	-0.149
-467.172	154.190	-0.118	-0.162
-466.157	419.442	0.071	-0.152
-465.143	136.304	0.105	-0.137
-464.128	-140.335	0.119	0.012
-463.113	42.412	0.237	-0.215
-462.099	-98.463	-0.083	-0.021
-461.084	-178.313	-0.152	-0.004
-460.070	-4.603	-0.229	0.158
-459.055	-19.477	-0.180	0.111
-458.040	-183.483	0.096	-0.002
-457.026	-62.464	-0.254	-0.105
-456.011	158.653	-0.066	-0.092
-454.997	82.669	0.021	0.022
-453.982	-200.000	-0.027	-0.166
-452.968	-48.089	0.093	-0.045
-451.953	-74.437	0.136	-0.049
-450.938	317.120	-0.158	0.299
-449.924	800.000	-0.063	0.181
-448.909	265.328	-0.175	0.305
-447.895	-200.000	0.000	0.098
-446.880	31.485	-0.120	0.103
-445.865	-200.000	-0.070	0.349
-444.851	-200.000	0.021	-0.122
-443.836	-14.044	0.087	0.056
-442.822	432.895	-0.130	-0.282
-441.807	-63.472	0.225	-0.092
-440.792	-114.560	0.069	-0.013
-439.778	-200.000	0.000	-0.219
-438.763	-22.696	0.146	0.088
-437.749	146.038	0.230	-0.308
-436.734	30.731	-0.148	0.126
-435.719	-123.881	0.231	0.036
-434.705	800.000	-0.031	0.098
-433.690	-200.000	0.033	0.226
-432.676	800.000	-0.050	-0.190
-431.661	-125.604	-0.158	0.024
-430.646	-141.614	0.217	-0.022
-429.632	108.943	0.118	-0.141
-428.617	379.320	-0.077	-0.156
-427.603	-93.218	0.213	0.059
-426.588	-51.967	0.157	0.073
-425.573	-107.521	0.168	-0.037
-424.559	-134.595	-0.199	-0.024
-423.544	212.578	-0.075	0.118
-422.530	17.279	0.254	0.201
-421.515	-79.843	0.158	0.053
-420.500	-124.211	-0.314	0.049
-419.486	-140.326	0.124	0.013
-418.471	-65.152	-0.345	0.139
-417.457	-128.769	0.227	0.032
-416.442	800.000	-0.075	0.295
-415.428	-80.358	0.062	-0.020
-414.413	172.016	0.057	-0.081
-413.398	-36.580	0.023	0.013
-412.384	62.717	0.219	0.218
-411.369	-0.782	-0.247	-0.175
-410.355	63.175	-0.146	0.146
-409.340	81.201	0.242	-0.260
-408.325	-100.700	0.301	-0.074
-407.311	-53.921	0.265	-0.120
-406.296	13.377	-0.106	0.082
-405.282	7.136	-0.133	-0.098
-404.267	48.855	0.264	0.247
-403.252	-164.357	-0.240	0.011
-402.238	164.803	0.058	-0.082
-401.223	132.182	0.244	-0.313
-400.209	412.451	0.062	0.131
-399.194	510.342	0.023	0.054
-398.179	343.755	0.126	0.246
-397.165	-200.000	-0.013	0.127
-396.150	-188.972	0.259	0.003
-395.136	800.000	-0.054	-0.168
-394.121	-200.000	-0.065	-0.365
-393.106	800.000	-0.060	-0.209
-392.092	-31.093	-0.109	-0.061
-391.077	-116.375	0.170	-0.031
-390.063	300.262	-0.064	0.117
-389.048	452.909	-0.069	0.152
-388.033	150.627	-0.161	0.218
-387.019	9.688	0.167	0.126
-386.004	171.110	0.145	0.207
-384.990	237.572	-0.176	-0.291
-383.975	267.447	0.063	-0.110
-382.960	-200.000	-0.016	0.109
-381.946	266.944	-0.179	0.312
-380.931	436.282	-0.025	-0.053
-379.917	-58.701	-0.166	0.072
-378.902	800.000	0.018	0.071
-377.888	116.466	-0.215	-0.263
-376.873	800.000	0.156	-0.511
-375.858	65.123	-0.172	0.173
-374.844	-100.854	-0.364	-0.089
-373.829	-93.087	0.122	-0.034
-372.815	-33.066	0.105	-0.058
-371.800	291.787	0.119	0.215
-370.785	-167.584	0.248	-0.010
-369.771	72.512	-0.109	0.113
-368.756	800.000	0.082	0.254
-367.742	-74.102	0.150	0.054
-366.727	800.000	0.083	0.305
-365.712	-200.000	0.022	0.288
-364.698	-108.305	0.078	-0.017
-363.683	66.135	-0.210	0.212
-362.669	137.692	0.104	0.135
-361.654	-52.810	0.138	0.063
-360.639	-114.662	-0.223	0.042
-359.625	-168.073	0.069	0.003
-358.610	3.346	-0.254	0.184
-357.596	-149.084	-0.037	-0.003
-356.581	371.788	0.113	-0.227
-355.566	92.944	0.091	0.102
-354.552	574.706	0.075	-0.181
-353.537	32.260	-0.390	0.335
-352.523	-200.000	0.003	0.059
-351.508	298.999	-0.009	0.016
-350.493	800.000	0.032	0.097
-349.479	27.286	0.063	0.053
-348.464	-72.799	0.256	-0.094
-347.450	-159.966	0.208	-0.011
-346.435	800.000	0.073	0.265
-345.420	30.280	0.325	0.275
-344.406	232.578	-0.084	0.137
-343.391	-200.000	-0.049	-0.230
-342.377	-128.762	0.172	0.024
-341.362	-200.000	0.013	0.116
-340.348	-200.000	0.026	-0.150
-339.333	754.684	-0.158	0.424
-338.318	-69.471	-0.185	-0.070
-337.304	380.855	-0.092	0.187
-336.289	59.986	-0.160	0.157
-335.275	147.495	-0.069	-0.092
-334.260	328.498	-0.060	-0.115
-333.245	-122.034	0.306	0.050
-332.231	-200.000	-0.013	-0.158
-331.216	800.000	0.013	-0.054
-330.202	-200.000	-0.021	0.255
-329.187	-77.591	0.228	0.079
-328.172	406.012	-0.167	-0.350
-327.158	800.000	-0.093	-0.292
-326.143	-200.000	-0.005	-0.058
-325.129	-13.442	-0.076	-0.049
-324.114	212.271	-0.106	-0.165
-323.099	104.429	-0.037	-0.043
-322.085	-200.000	0.019	0.181
-321.070	54.325	0.102	-0.098
-320.056	-149.431	-0.250	0.020
-319.041	-32.477	-0.218	0.121
-318.026	-200.000	0.025	-0.340
-317.012	-147.265	0.098	-0.008
-315.997	-76.889	-0.028	-0.010
-314.983	-13.396	-0.191	-0.123
-313.968	-99.613	-0.449	0.112
-312.953	-100.629	0.122	-0.030
-311.939	-56.356	0.265	0.117
-310.924	800.000	0.066	0.218
-309.910	-200.000	0.004	-0.033
-308.895	28.628	-0.220	-0.185
-307.880	-200.000	0.053	-0.232
-306.866	-200.000	-0.041	-0.357
-305.851	750.255	0.055	0.149
-304.837	408.692	-0.055	-0.114
-303.822	344.983	-0.044	-0.085
-302.807	-64.445	-0.357	0.144
-301.793	-76.661	0.076	-0.027
-300.778	188.034	0.041	-0.061
-299.764	-130.662	-0.195	-0.026
-298.749	29.656	0.108	-0.091
-297.735	800.000	0.060	-0.191
-296.720	-80.143	-0.317	-0.105
-295.705	22.583	-0.076	-0.062
-294.691	306.875	0.161	-0.297
-293.676	-31.165	0.182	-0.102
-292.662	800.000	0.062	0.187
-291.647	-10.932	-0.332	0.218
-290.632	171.064	-0.097	0.138
-289.618	-82.786	-0.117	-0.037
-288.603	800.000	0.141	0.501
-287.589	161.750	-0.193	0.268
-286.574	-101.132	0.369	0.090
-285.559	-149.985	-0.363	-0.028
-284.545	-13.909	0.331	0.212
-283.530	-200.000	-0.026	0.158
-282.516	-150.065	-0.292	0.023
-281.501	39.564	-0.125	0.111
-280.486	-200.000	-0.168	0.000
-279.472	800.000	-0.035	-0.142
-278.457	32.588	-0.082	0.070
-277.443	3.020	-0.207	-0.149
-276.428	-24.183	-0.137	-0.081
-275.413	-175.086	-0.246	0.007
-274.399	-60.054	0.381	-0.161
-273.384	-89.062	-0.197	0.058
-272.370	800.000	0.049	-0.196
-271.355	-200.000	0.043	0.231
-270.340	-118.956	-0.202	0.035
-269.326	-37.475	-0.193	-0.102
-268.311	-31.124	-0.264	-0.148
-267.297	-73.488	0.370	-0.134
-266.282	653.665	-0.080	0.204
-265.267	-115.145	-0.104	0.020
-264.253	110.420	-0.065	-0.077
-263.238	277.636	0.058	-0.103
-262.224	-189.022	0.373	0.004
-261.209	-133.262	0.228	0.028
-260.195	165.351	-0.140	0.196
-259.180	-45.485	-0.227	0.111
-258.165	343.456	0.067	0.129
-257.151	800.000	0.098	0.356
-256.136	800.000	-0.154	0.493
-255.122	-16.023	0.181	-0.114
-254.107	64.313	0.228	0.227
-253.092	215.123	-0.105	0.164
-252.078	-76.334	-0.046	-0.016
-251.063	62.758	0.275	-0.272
-250.049	-20.564	-0.086	0.052
-249.034	800.000	0.152	0.464
-248.019	124.280	0.114	0.142
-247.005	63.387	-0.312	0.310
-245.990	-80.207	-0.367	0.122
-244.976	32.817	0.102	0.087
-243.961	-40.879	0.426	0.218
-242.946	-33.877	-0.109	-0.060
-241.932	229.880	-0.122	0.198
-240.917	-200.000	0.015	-0.187
-239.903	-165.017	0.027	0.001
-238.888	-83.298	-0.079	-0.025
-237.873	-200.000	-0.035	-0.188
-236.859	-57.776	-0.140	0.060
-235.844	76.962	0.171	-0.180
-234.830	241.034	0.134	0.221
-233.815	-30.803	0.132	-0.074
-232.800	84.988	-0.223	0.241
-231.786	-6.652	-0.287	0.193
-230.771	-139.189	-0.258	0.028
-229.757	-200.000	-0.016	0.167
-228.742	745.321	0.063	-0.169
-227.727	-47.283	0.054	0.026
-226.713	13.481	0.095	0.073
-225.698	26.111	-0.410	-0.338
-224.684	-32.696	-0.360	-0.198
-223.669	218.461	-0.127	-0.201
-222.655	-49.413	0.033	-0.016
-221.640	800.000	0.054	-0.151
-220.625	800.000	-0.056	-0.219
-219.611	101.339	-0.228	-0.263
-218.596	-200.000	-0.064	-0.369
-217.582	-77.147	0.307	0.106
-216.567	149.639	-0.195	0.261
-215.552	-200.000	0.021	0.125
-214.538	24.073	0.286	-0.233
-213.523	635.514	0.076	0.190
-212.509	-200.000	-0.036	0.178
-211.494	-200.000	0.032	-0.164
-210.479	-8.660	0.043	-0.028
-209.465	-27.569	0.308	-0.177
-208.450	-200.000	0.007	-0.367
-207.436	-146.623	-0.169	-0.015
-206.421	-16.830	0.194	-0.121
-205.406	800.000	0.072	0.257
-204.392	241.921	-0.103	0.171
-203.377	-21.810	0.047	-0.028
-202.363	-15.624	-0.053	-0.034
-201.348	149.219	0.094	-0.126
-200.333	-117.596	0.254	-0.045
-199.319	800.000	0.100	-0.291
-198.304	-111.364	-0.254	-0.051
-197.290	-200.000	0.013	0.102
-196.275	243.827	0.136	-0.225
-195.260	41.762	0.049	-0.044
-194.246	487.596	0.057	-0.128
-193.231	-200.000	0.066	0.417
-192.217	373.636	-0.141	0.282
-191.202	-87.767	-0.403	-0.120
-190.187	-3.015	0.217	-0.150
-189.173	-45.689	0.311	-0.152
-188.158	-200.000	0.027	0.148
-187.144	-200.000	-0.038	0.174
-186.129	248.894	0.069	0.116
-185.114	347.642	-0.064	-0.124
-184.100	-77.991	0.397	-0.135
-183.085	-200.000	0.033	0.207
-182.071	-54.428	-0.242	0.108
-181.056	-56.465	0.315	0.138
-180.042	-186.209	0.307	0.004
-179.027	71.159	0.267	-0.273
-178.012	800.000	-0.043	0.166
-176.998	597.823	-0.003	-0.008
-175.983	-18.388	-0.047	0.029
-174.969	234.236	-0.196	0.318
-173.954	76.689	-0.160	0.168
-172.939	103.525	-0.215	-0.249
-171.925	-200.000	-0.073	-0.513
-170.910	-153.124	0.525	0.036
-169.896	800.000	-0.107	0.294
-168.881	-81.788	0.206	-0.067
-167.866	358.234	0.124	0.244
-166.852	800.000	-0.078	0.257
-165.837	-53.785	-0.311	-0.140
-164.823	139.693	0.126	-0.163
-163.808	-200.000	-0.031	-0.158
-162.793	-40.562	-0.101	-0.052
-161.779	-117.477	-0.215	-0.038
-160.764	431.529	0.100	-0.215
-159.750	800.000	-0.006	0.023
-158.735	-148.196	0.424	0.035
-157.720	-21.930	0.130	-0.078
-156.706	800.000	0.077	-0.234
-155.691	-59.825	0.503	-0.212
-154.677	66.281	0.138	-0.138
-153.662	-116.967	-0.045	-0.008
-152.647	-90.768	-0.227	0.065
-151.633	-40.075	0.171	0.088
-150.618	-79.891	0.010	0.003
-149.604	-189.625	0.238	-0.003
-148.589	-66.646	0.235	0.092
-147.574	-200.000	-0.000	0.303
-146.560	3.573	-0.220	-0.159
-145.545	-89.791	-0.239	0.069
-144.531	15.965	-0.233	0.181
-143.516	-104.184	0.178	-0.041
-142.502	81.153	-0.198	-0.211
-141.487	190.832	-0.109	0.162
-140.472	1.633	-0.464	-0.330
-139.458	55.719	-0.232	0.222
-138.443	196.444	-0.108	0.162
-137.429	-62.767	-0.175	0.071
-136.414	13.960	-0.144	0.111
-135.399	-116.383	0.412	0.075
-134.385	303.241	-0.253	-0.462
-133.370	72.039	0.168	-0.172
-132.356	-200.000	0.015	0.112
-131.341	-200.000	-0.020	-0.330
-130.326	800.000	0.107	0.355
-129.312	-153.286	0.128	-0.009
-128.297	800.000	0.026	-0.088
-127.283	-92.202	-0.288	0.080
-126.268	-138.706	-0.222	0.024
-125.253	283.270	-0.113	0.199
-124.239	800.000	0.095	0.352
-123.224	-200.000	0.019	0.089
-122.210	244.736	-0.070	-0.115
-121.195	26.941	-0.174	-0.144
