DTS Sentinel unit serial number:	SN413079Multiplexer serial number:	ORYXHardware model number:	OX4-SRSoftware version number:	ORYX F/W v4.00 Oryx Data Collector v3.7.2.0data status	okinstallation	princeton_trtdifferential loss correction	single-endedforward channel	channel 2reverse channel	N/Adate	2019/09/11time	23:13:11forward acquisition time	60.00reverse acquisition time	0.00gamma	496.2192k internal	0.2325k external	0.2325temperature offset calibration	1.0077default loss term (dB/km)	0.3790temperature slope calibration	1.0000multiplexer offset coefficient	1.0000multiplexer slope coefficient	1.0000fibre end	0.00T internal ref (°C)	34.44T ext. ref 1 (°C)	1.86T ext. ref 2 (°C)	28.26length (m)	temperature (°C)	Stokes	anti-Stokes-747.200	23.418	-0.097	0.081
-746.185	800.000	0.161	0.451
-745.171	168.254	-0.051	0.073
-744.156	8.918	0.169	-0.129
-743.142	107.587	-0.060	0.072
-742.127	7.175	-0.211	0.159
-741.112	-200.000	0.006	0.047
-740.098	-125.655	0.359	0.055
-739.083	-156.704	0.142	-0.009
-738.069	-200.000	0.038	0.233
-737.054	-57.774	-0.197	-0.087
-736.039	-200.000	0.038	-0.193
-735.025	584.820	0.117	0.291
-734.010	-153.881	-0.449	-0.031
-732.996	-122.220	-0.301	0.050
-731.981	-74.657	0.030	-0.011
-730.966	-187.802	-0.143	-0.002
-729.952	-2.162	-0.194	0.137
-728.937	95.020	-0.042	-0.048
-727.923	644.392	0.169	-0.435
-726.908	570.786	0.098	-0.241
-725.894	-4.745	0.070	-0.049
-724.879	-127.200	-0.213	0.031
-723.864	-200.000	0.011	0.152
-722.850	800.000	-0.095	-0.295
-721.835	-126.301	0.207	0.031
-720.821	-9.098	0.498	0.336
-719.806	338.579	-0.069	0.136
-718.791	800.000	-0.064	-0.238
-717.777	42.871	0.220	-0.202
-716.762	-200.000	-0.026	-0.210
-715.748	127.296	-0.070	0.089
-714.733	800.000	0.063	0.259
-713.718	22.973	-0.158	-0.131
-712.704	-200.000	-0.004	0.131
-711.689	-7.612	0.304	-0.207
-710.675	-97.335	-0.193	0.051
-709.660	-89.908	-0.136	0.040
-708.645	-117.128	0.279	0.051
-707.631	-67.825	0.182	0.072
-706.616	470.874	-0.066	0.149
-705.602	800.000	0.059	0.215
-704.587	349.661	-0.226	0.450
-703.572	-152.891	-0.469	0.033
-702.558	146.210	0.211	-0.285
-701.543	800.000	0.076	0.251
-700.529	800.000	-0.101	0.408
-699.514	-55.436	0.196	0.089
-698.499	-149.102	-0.131	0.011
-697.485	-21.231	-0.091	-0.056
-696.470	-110.199	0.672	-0.141
-695.456	-200.000	0.024	0.127
-694.441	-183.094	-0.102	0.002
-693.426	800.000	-0.211	0.608
-692.412	-40.198	0.083	0.044
-691.397	359.531	0.112	-0.225
-690.383	-200.000	-0.020	-0.128
-689.368	-93.934	0.150	-0.042
-688.354	-81.811	0.170	-0.056
-687.339	-131.915	0.375	-0.049
-686.324	72.758	-0.031	0.032
-685.310	-103.425	0.276	-0.065
-684.295	-200.000	-0.269	-0.001
-683.281	136.571	0.074	-0.098
-682.266	-200.000	0.018	0.289
-681.251	-102.957	-0.313	0.075
-680.237	3.303	0.216	-0.158
-679.222	-35.357	-0.084	0.046
-678.208	553.963	-0.046	0.111
-677.193	87.215	-0.070	0.078
-676.178	363.277	-0.093	0.188
-675.164	-200.000	0.041	-0.258
-674.149	-200.000	0.032	0.165
-673.135	4.658	-0.255	-0.188
-672.120	-48.468	0.089	0.043
-671.105	160.706	-0.146	-0.205
-670.091	-18.226	-0.246	-0.155
-669.076	-28.929	0.384	-0.222
-668.062	2.775	0.198	0.145
-667.047	28.324	-0.169	0.143
-666.032	800.000	0.110	0.412
-665.018	230.526	-0.083	-0.137
-664.003	194.257	-0.061	-0.094
-662.989	-142.614	0.329	-0.032
-661.974	-68.562	-0.090	0.035
-660.959	234.362	-0.201	0.334
-659.945	-200.000	0.079	0.366
-658.930	238.865	-0.129	-0.215
-657.916	-159.439	0.155	-0.009
-656.901	11.755	-0.197	-0.152
-655.886	17.982	0.270	0.217
-654.872	225.718	0.075	0.123
-653.857	-58.680	-0.208	-0.091
-652.843	-129.355	-0.381	-0.053
-651.828	-30.677	-0.166	0.095
-650.814	-75.773	0.181	0.064
-649.799	10.396	-0.045	0.035
-648.784	17.040	-0.216	0.172
-647.770	-44.542	-0.335	0.169
-646.755	-11.313	0.119	0.079
-645.741	-106.172	-0.159	-0.036
-644.726	-41.888	0.037	0.019
-643.711	-68.794	0.179	-0.069
-642.697	164.621	-0.036	0.051
-641.682	11.911	0.073	-0.057
-640.668	-87.692	-0.278	0.084
-639.653	99.009	0.080	-0.093
-638.638	171.746	0.096	0.139
-637.624	-117.923	0.080	-0.014
-636.609	12.826	-0.209	-0.162
-635.595	-99.144	-0.081	-0.021
-634.580	-118.304	0.341	-0.061
-633.565	9.392	-0.068	-0.052
-632.551	285.335	-0.106	-0.193
-631.536	155.622	-0.212	0.293
-630.522	-200.000	-0.016	0.184
-629.507	-147.670	-0.101	0.008
-628.492	-126.272	0.258	0.039
-627.478	-81.648	-0.077	-0.025
-626.463	-160.348	-0.065	-0.004
-625.449	-40.245	-0.300	0.157
-624.434	-200.000	0.027	-0.381
-623.419	-53.517	-0.224	-0.103
-622.405	428.809	0.171	-0.372
-621.390	800.000	-0.038	-0.118
-620.376	-88.860	0.043	0.013
-619.361	33.776	-0.285	-0.249
-618.346	-200.000	-0.007	-0.122
-617.332	-88.362	-0.188	0.057
-616.317	-52.637	0.202	0.094
-615.303	-74.378	0.410	-0.149
-614.288	208.247	0.118	-0.185
-613.273	556.680	-0.041	0.100
-612.259	-44.877	0.364	0.182
-611.244	-81.716	0.310	0.102
-610.230	116.064	-0.048	0.059
-609.215	422.513	-0.159	-0.343
-608.201	64.225	0.109	-0.110
-607.186	1.341	-0.248	0.179
-606.171	-168.127	0.193	-0.008
-605.157	117.746	0.171	0.211
-604.142	-200.000	-0.019	0.297
-603.128	2.912	0.198	-0.144
-602.113	800.000	-0.045	0.175
-601.098	-96.422	-0.207	0.055
-600.084	-128.925	-0.179	0.025
-599.069	31.617	0.222	-0.192
-598.055	-166.225	0.176	0.007
-597.040	-117.758	0.166	0.030
-596.025	42.249	-0.217	-0.197
-595.011	-73.970	-0.049	-0.018
-593.996	-140.792	0.140	-0.014
-592.982	-50.534	-0.425	-0.201
-591.967	225.644	0.178	0.290
-590.952	-200.000	-0.009	0.183
-589.938	-120.380	0.213	-0.036
-588.923	195.801	-0.083	-0.126
-587.909	273.514	0.033	0.059
-586.894	82.761	0.107	0.117
-585.879	-116.019	-0.246	-0.046
-584.865	-200.000	0.026	0.178
-583.850	-200.000	-0.005	0.296
-582.836	-132.920	-0.169	-0.022
-581.821	-87.808	0.164	-0.050
-580.806	-100.628	-0.057	-0.014
-579.792	162.717	-0.026	-0.036
-578.777	-162.835	0.163	-0.008
-577.763	-61.198	-0.317	-0.134
-576.748	-179.983	0.095	-0.002
-575.733	-8.423	-0.097	-0.065
-574.719	693.726	-0.045	0.118
-573.704	-200.000	-0.078	-0.408
-572.690	-200.000	0.007	-0.141
-571.675	-102.295	0.234	-0.056
-570.661	-111.630	-0.353	0.072
-569.646	386.219	0.110	0.227
-568.631	27.400	-0.342	0.288
-567.617	133.848	-0.193	-0.250
-566.602	-200.000	0.037	0.195
-565.588	156.188	0.225	0.311
-564.573	-115.781	0.112	0.021
-563.558	-7.617	0.311	-0.210
-562.544	55.351	-0.123	0.119
-561.529	180.373	0.093	-0.137
-560.515	800.000	0.042	0.135
-559.500	-50.675	-0.463	0.219
-558.485	16.433	0.347	0.275
-557.471	-158.231	-0.092	0.005
-556.456	295.335	0.105	-0.192
-555.442	-61.247	-0.270	0.114
-554.427	-66.991	-0.193	0.076
-553.412	-200.000	0.035	0.259
-552.398	-142.871	0.367	-0.036
-551.383	-110.692	-0.184	0.038
-550.369	274.385	-0.100	-0.178
-549.354	-130.434	-0.378	0.051
-548.339	-17.454	0.138	0.087
-547.325	800.000	0.037	0.133
-546.310	-98.917	-0.461	-0.117
-545.296	-149.405	0.043	0.003
-544.281	-200.000	-0.028	-0.254
-543.266	38.356	0.027	0.024
-542.252	800.000	-0.031	0.097
-541.237	-99.799	-0.120	-0.030
-540.223	-200.000	0.031	0.298
-539.208	-67.269	-0.093	-0.037
-538.193	101.180	-0.270	-0.314
-537.179	-187.087	0.101	0.001
-536.164	-35.923	0.185	-0.100
-535.150	800.000	0.040	0.131
-534.135	45.406	0.074	0.068
-533.121	387.912	0.092	-0.191
-532.106	-200.000	-0.038	-0.246
-531.091	-125.738	0.230	0.035
-530.077	-20.955	0.146	0.089
-529.062	-149.197	0.114	0.009
-528.048	0.403	0.283	0.202
-527.033	96.693	-0.138	0.158
-526.018	153.631	0.119	0.164
-525.004	-113.199	0.126	-0.025
-523.989	-88.380	-0.268	0.080
-522.975	186.402	-0.108	-0.161
-521.960	747.204	0.142	0.383
-520.945	-133.877	-0.086	0.011
-519.931	153.083	0.108	-0.148
-518.916	-10.222	-0.156	0.104
-517.902	258.016	-0.203	0.349
-516.887	-200.000	-0.000	-0.239
-515.872	33.975	-0.119	0.104
-514.858	139.791	-0.087	0.114
-513.843	63.621	0.205	-0.206
-512.829	-94.706	-0.300	-0.082
-511.814	-50.472	-0.161	0.076
-510.799	-45.537	0.193	0.095
-509.785	22.273	-0.099	-0.081
-508.770	75.850	-0.091	-0.096
-507.756	188.437	0.169	-0.253
-506.741	-131.153	-0.059	0.008
-505.726	-7.300	0.334	-0.226
-504.712	215.567	-0.148	-0.234
-503.697	-32.148	-0.406	-0.227
-502.683	338.046	0.082	-0.159
-501.668	800.000	0.087	-0.307
-500.653	-200.000	0.028	-0.171
-499.639	800.000	0.038	0.114
-498.624	220.423	-0.118	-0.189
-497.610	94.550	0.019	0.021
-496.595	206.156	-0.102	0.159
-495.581	266.200	0.042	-0.074
-494.566	-200.000	0.031	0.182
-493.551	351.437	-0.032	-0.064
-492.537	-123.318	0.352	-0.056
-491.522	-135.597	0.300	-0.036
-490.508	-7.827	-0.140	-0.094
-489.493	684.072	0.097	0.254
-488.478	-16.388	0.138	-0.088
-487.464	188.795	-0.071	0.106
-486.449	38.692	-0.152	0.136
-485.435	-158.640	0.125	0.007
-484.420	-40.633	-0.109	-0.057
-483.405	327.349	-0.100	0.192
-482.391	800.000	-0.088	0.252
-481.376	454.263	-0.099	-0.218
-480.362	800.000	-0.053	-0.212
-479.347	-131.333	-0.200	0.026
-478.332	238.986	-0.188	0.312
-477.318	0.657	-0.021	0.015
-476.303	-145.352	0.242	-0.022
-475.289	276.972	-0.041	0.073
-474.274	-57.837	0.301	0.131
-473.259	3.195	-0.232	0.168
-472.245	90.041	-0.199	0.222
-471.230	149.101	0.165	0.223
-470.216	-129.630	0.220	-0.030
-469.201	32.150	0.023	0.020
-468.186	35.928	-0.179	-0.157
-467.172	800.000	-0.041	-0.172
-466.157	-200.000	0.032	-0.184
-465.143	-153.819	-0.309	0.021
-464.128	-200.000	-0.002	-0.096
-463.113	731.635	0.077	-0.207
-462.099	-92.115	0.101	-0.029
-461.084	59.884	-0.127	0.126
-460.070	292.817	-0.110	0.201
-459.055	-200.000	-0.038	-0.181
-458.040	357.760	0.066	0.131
-457.026	-150.314	-0.281	-0.022
-456.011	-12.787	-0.014	-0.009
-454.997	800.000	0.112	0.330
-453.982	-82.305	-0.096	-0.031
-452.968	-33.334	-0.122	-0.067
-451.953	9.840	0.155	0.117
-450.938	103.731	-0.363	0.425
-449.924	31.794	-0.120	0.103
-448.909	-84.275	0.187	-0.059
-447.895	-200.000	0.010	-0.285
-446.880	-200.000	-0.015	-0.170
-445.865	800.000	-0.067	-0.195
-444.851	-200.000	0.008	-0.122
-443.836	-41.444	0.276	0.142
-442.822	-200.000	0.231	-0.000
-441.807	-1.806	-0.066	0.047
-440.792	-71.598	-0.273	-0.102
-439.778	-21.843	-0.287	0.174
-438.763	-132.529	0.272	-0.035
-437.749	-53.982	-0.122	-0.055
-436.734	-65.894	0.131	0.052
-435.719	135.213	-0.023	0.030
-434.705	800.000	-0.038	0.139
-433.690	74.519	0.026	-0.028
-432.676	-88.160	-0.184	0.055
-431.661	800.000	0.119	0.329
-430.646	152.966	0.211	-0.287
-429.632	-100.595	0.038	0.009
-428.617	800.000	-0.021	0.070
-427.603	-97.994	0.137	-0.035
-426.588	234.442	-0.175	-0.288
-425.573	-3.550	-0.220	-0.152
-424.559	-107.880	-0.211	-0.046
-423.544	486.358	0.058	-0.131
-422.530	-112.175	0.094	-0.019
-421.515	-73.913	0.014	-0.005
-420.500	87.571	0.256	0.282
-419.486	-160.655	-0.169	0.009
-418.471	89.669	-0.233	-0.260
-417.457	-13.329	0.503	0.325
-416.442	167.343	-0.199	0.281
-415.428	800.000	-0.081	-0.314
-414.413	-200.000	0.012	0.057
-413.398	-163.615	0.131	-0.006
-412.384	-200.000	0.035	0.307
-411.369	-133.272	0.148	-0.019
-410.355	-144.401	0.274	-0.025
-409.340	213.129	-0.096	0.150
-408.325	357.198	0.050	-0.100
-407.311	-140.805	-0.096	0.010
-406.296	-183.623	0.185	0.003
-405.282	-10.247	-0.234	-0.155
-404.267	-75.236	0.185	-0.066
-403.252	9.799	0.133	0.100
-402.238	-100.393	0.336	0.083
-401.223	-200.000	0.069	0.000
-400.209	-200.000	0.056	0.251
-399.194	95.910	-0.094	0.106
-398.179	39.383	-0.166	0.148
-397.165	27.654	0.146	0.123
-396.150	800.000	-0.103	-0.309
-395.136	-25.445	0.032	0.019
-394.121	61.483	-0.272	0.269
-393.106	-200.000	-0.073	0.622
-392.092	-92.546	0.080	0.022
-391.077	800.000	0.054	0.194
-390.063	-18.400	-0.213	-0.132
-389.048	167.863	-0.055	-0.077
-388.033	140.022	0.086	0.113
-387.019	259.118	-0.120	0.206
-386.004	-9.086	-0.015	-0.010
-384.990	-74.544	0.162	-0.058
-383.975	222.122	0.141	0.226
-382.960	-200.000	-0.012	0.185
-381.946	378.521	-0.205	-0.418
-380.931	-200.000	0.088	-0.495
-379.917	33.429	0.230	-0.199
-378.902	800.000	-0.064	-0.182
-377.888	-57.153	0.226	0.099
-376.873	16.162	0.240	-0.188
-375.858	800.000	0.068	0.291
-374.844	-200.000	0.075	0.451
-373.829	110.983	0.071	0.085
-372.815	-200.000	0.008	-0.203
-371.800	-68.274	-0.055	-0.021
-370.785	-6.442	-0.238	-0.161
-369.771	77.286	0.025	-0.026
-368.756	295.454	-0.188	-0.343
-367.742	-91.321	-0.076	0.022
-366.727	4.195	0.189	-0.138
-365.712	640.042	0.089	-0.226
-364.698	86.871	-0.316	0.347
-363.683	-55.121	0.263	-0.118
-362.669	231.250	-0.170	0.276
-361.654	-63.783	0.017	-0.007
-360.639	740.157	0.043	0.115
-359.625	248.491	-0.211	-0.356
-358.610	273.403	-0.119	-0.209
-357.596	-27.063	0.422	-0.245
-356.581	-27.940	-0.111	0.064
-355.566	-200.000	-0.016	0.136
-354.552	-31.160	-0.287	0.161
-353.537	97.482	0.094	0.108
-352.523	169.921	0.156	0.222
-351.508	214.933	0.067	0.105
-350.493	27.885	-0.141	-0.118
-349.479	-147.746	-0.397	-0.033
-348.464	800.000	-0.080	0.299
-347.450	360.682	0.156	-0.311
-346.435	-160.928	-0.390	0.020
-345.420	-99.009	-0.296	-0.075
-344.406	22.804	0.322	-0.262
-343.391	-200.000	0.001	0.213
-342.377	-92.292	-0.443	0.124
-341.362	-4.384	0.146	-0.100
-340.348	70.667	-0.266	-0.274
-339.333	92.101	-0.082	0.092
-338.318	-75.053	0.107	0.038
-337.304	-200.000	0.010	0.095
-336.289	-123.241	0.117	-0.019
-335.275	800.000	-0.057	-0.165
-334.260	195.383	-0.143	0.216
-333.245	-36.035	-0.157	0.084
-332.231	37.656	0.092	-0.081
-331.216	177.066	-0.187	-0.270
-330.202	-200.000	0.041	0.207
-329.187	-145.755	0.251	-0.022
-328.172	501.387	0.056	-0.129
-327.158	800.000	0.028	0.095
-326.143	-200.000	-0.013	0.113
-325.129	-200.000	0.031	0.223
-324.114	-152.155	-0.085	0.006
-323.099	-165.616	0.152	0.007
-322.085	119.080	-0.124	0.153
-321.070	126.914	-0.145	0.183
-320.056	-52.869	0.268	-0.122
-319.041	-119.028	-0.110	-0.019
-318.026	-67.722	0.104	-0.040
-317.012	192.739	0.134	-0.201
-315.997	-47.939	0.160	-0.077
-314.983	-57.876	-0.215	-0.093
-313.968	-4.787	-0.200	0.137
-312.953	375.035	-0.202	0.409
-311.939	537.652	0.073	-0.172
-310.924	-200.000	-0.054	0.257
-309.910	507.746	-0.026	-0.060
-308.895	144.308	-0.068	-0.090
-307.880	9.077	0.128	0.096
-306.866	-53.814	0.132	0.060
-305.851	-200.000	0.004	0.096
-304.837	-0.812	0.087	0.061
-303.822	655.890	-0.045	-0.115
-302.807	-154.034	0.167	-0.011
-301.793	800.000	0.013	-0.042
-300.778	800.000	0.042	-0.117
-299.764	800.000	-0.051	-0.175
-298.749	-130.856	0.251	-0.033
-297.735	284.206	0.026	-0.047
-296.720	640.554	-0.092	0.233
-295.705	-200.000	0.001	-0.035
-294.691	-97.075	0.200	0.052
-293.676	66.989	0.196	0.198
-292.662	-200.000	-0.007	0.194
-291.647	-94.110	-0.114	-0.031
-290.632	-78.314	0.172	-0.059
-289.618	800.000	0.035	-0.102
-288.603	-68.289	-0.249	-0.096
-287.589	-200.000	0.006	-0.141
-286.574	-170.806	0.103	-0.004
-285.559	-200.000	0.011	-0.285
-284.545	103.887	-0.150	-0.174
-283.530	-166.893	0.296	0.012
-282.516	-122.783	0.102	-0.016
-281.501	214.430	0.073	-0.114
-280.486	-34.238	0.064	0.035
-279.472	-200.000	-0.012	-0.062
-278.457	735.815	0.079	-0.210
-277.443	43.460	0.166	0.151
-276.428	-200.000	-0.010	-0.139
-275.413	800.000	-0.007	-0.023
-274.399	-126.874	0.099	0.014
-273.384	159.992	0.313	-0.431
-272.370	-200.000	0.034	-0.318
-271.355	188.711	0.112	-0.167
-270.340	800.000	-0.020	0.065
-269.326	575.052	-0.082	0.198
-268.311	-27.621	0.134	-0.077
-267.297	-48.249	0.105	0.050
-266.282	-200.000	-0.007	0.044
-265.267	-140.069	-0.052	-0.005
-264.253	523.647	0.123	0.287
-263.238	398.631	0.153	0.317
-262.224	-200.000	-0.008	-0.124
-261.209	-138.173	-0.284	0.031
-260.195	177.223	0.246	-0.355
-259.180	-49.810	-0.206	-0.097
-258.165	33.865	-0.246	-0.212
-257.151	-94.960	-0.389	-0.104
-256.136	333.075	0.086	0.164
-255.122	800.000	0.062	0.195
-254.107	-86.370	-0.126	-0.038
-253.092	263.128	-0.078	0.135
-252.078	800.000	0.100	-0.289
-251.063	-28.008	-0.112	0.064
-250.049	29.492	-0.108	0.091
-249.034	-200.000	0.104	-0.508
-248.019	-200.000	0.035	-0.168
-247.005	40.667	0.063	0.056
-245.990	-18.848	0.086	0.053
-244.976	-87.898	0.462	0.138
-243.961	-200.000	0.084	-0.389
-242.946	-135.630	0.031	-0.004
-241.932	-125.671	0.165	0.025
-240.917	800.000	-0.047	-0.141
-239.903	800.000	0.077	0.278
-238.888	252.089	0.102	0.172
-237.873	6.899	-0.494	-0.364
-236.859	8.541	-0.424	0.315
-235.844	-132.761	0.386	0.049
-234.830	-84.418	0.320	0.100
-233.815	-121.944	-0.065	0.011
-232.800	-200.000	0.025	0.166
-231.786	-82.881	-0.115	-0.037
-230.771	-200.000	-0.024	-0.229
-229.757	-200.000	0.026	-0.157
-228.742	454.612	0.046	-0.101
-227.727	-28.470	0.206	0.118
-226.713	406.273	0.037	-0.076
-225.698	-49.161	-0.235	-0.111
-224.684	-45.350	0.359	-0.176
-223.669	-200.000	0.029	0.273
-222.655	-183.674	-0.143	0.002
-221.640	223.308	-0.069	-0.111
-220.625	357.790	-0.144	0.285
-219.611	259.312	0.282	0.481
-218.596	-38.278	-0.240	0.126
-217.582	8.804	-0.102	-0.076
-216.567	211.473	-0.290	-0.452
-215.552	-33.091	-0.151	0.083
-214.538	-64.385	0.163	-0.066
-213.523	177.079	0.054	0.078
-212.509	506.134	-0.036	-0.083
-211.494	-48.364	-0.434	0.207
-210.479	170.270	0.189	-0.267
-209.465	-129.552	0.587	-0.080
-208.450	-115.868	-0.124	0.023
-207.436	-106.425	-0.287	0.063
-206.421	-200.000	-0.046	0.245
-205.406	800.000	0.066	0.231
-204.392	-200.000	-0.013	-0.176
-203.377	33.012	0.160	0.137
-202.363	168.097	0.045	0.063
-201.348	-200.000	0.004	0.154
-200.333	39.556	-0.024	-0.021
-199.319	7.421	-0.155	-0.115
-198.304	-98.072	-0.171	-0.043
-197.290	109.068	0.180	0.212
-196.275	800.000	0.042	0.142
-195.260	277.221	0.154	-0.271
-194.246	29.341	0.229	-0.192
-193.231	-82.923	0.125	-0.040
-192.217	50.670	0.149	0.140
-191.202	-200.000	0.029	0.445
-190.187	-141.944	-0.344	0.034
-189.173	-200.000	0.026	-0.254
-188.158	800.000	-0.042	0.138
-187.144	800.000	-0.050	0.178
-186.129	-126.340	0.425	-0.063
-185.114	116.094	-0.077	-0.094
-184.100	-33.118	-0.260	-0.142
-183.085	479.275	-0.105	0.234
-182.071	-113.751	-0.230	-0.044
-181.056	-200.000	0.047	-0.238
-180.042	800.000	-0.051	0.182
-179.027	-200.000	-0.033	0.200
-178.012	618.613	-0.130	0.321
-176.998	-128.185	0.191	0.027
-175.983	663.501	0.070	0.178
-174.969	-200.000	-0.021	0.344
-173.954	-106.639	0.270	-0.059
-172.939	115.705	0.086	0.104
-171.925	-89.677	0.191	-0.055
-170.910	108.970	0.188	-0.222
-169.896	800.000	0.021	0.063
-168.881	800.000	-0.099	-0.373
-167.866	182.888	0.188	-0.273
-166.852	-128.369	0.306	-0.043
-165.837	101.231	-0.087	-0.100
-164.823	-200.000	0.007	-0.076
-163.808	26.575	0.139	-0.115
-162.793	800.000	-0.114	-0.316
-161.779	51.090	0.091	0.085
-160.764	-200.000	0.032	-0.400
-159.750	42.924	0.131	-0.118
-158.735	14.285	-0.055	-0.042
-157.720	-200.000	-0.026	-0.165
-156.706	-200.000	-0.005	-0.239
-155.691	114.519	0.132	-0.159
-154.677	-120.759	-0.295	0.049
-153.662	-106.205	-0.164	0.036
-152.647	800.000	0.044	0.143
-151.633	-74.615	-0.113	-0.040
-150.618	165.790	0.104	0.146
-149.604	23.277	-0.102	0.083
-148.589	-101.123	0.220	-0.053
-147.574	800.000	0.071	0.246
-146.560	11.755	-0.179	0.135
-145.545	-200.000	-0.031	0.163
-144.531	800.000	0.067	0.246
-143.516	800.000	-0.046	-0.136
-142.502	-90.996	-0.224	0.064
-141.487	561.060	0.094	0.225
-140.472	-200.000	-0.013	0.105
-139.458	20.446	0.157	0.125
-138.443	800.000	0.060	-0.249
-137.429	9.740	0.273	-0.204
-136.414	-179.109	-0.143	0.003
-135.399	-66.962	0.479	0.186
-134.385	-32.680	0.246	-0.135
-133.370	223.125	0.213	-0.339
-132.356	-200.000	0.053	0.328
-131.341	-200.000	-0.008	-0.161
-130.326	260.509	-0.054	0.092
-129.312	-84.434	0.254	0.079
-128.297	-172.970	0.218	-0.007
-127.283	-200.000	-0.003	-0.201
-126.268	64.893	-0.118	0.117
-125.253	255.859	0.268	0.452
-124.239	-139.610	0.258	-0.027
-123.224	84.941	-0.128	0.138
-122.210	800.000	0.031	-0.099
-121.195	-106.841	0.308	0.067
-120.180	25.830	0.202	0.166
