DTS Sentinel unit serial number:	SN413079Multiplexer serial number:	ORYXHardware model number:	OX4-SRSoftware version number:	ORYX F/W v4.00 Oryx Data Collector v3.7.2.0data status	okinstallation	princeton_trtdifferential loss correction	single-endedforward channel	channel 2reverse channel	N/Adate	2019/09/11time	01:21:11forward acquisition time	60.00reverse acquisition time	0.00gamma	496.2192k internal	0.2332k external	0.2332temperature offset calibration	0.9939default loss term (dB/km)	0.3790temperature slope calibration	1.0000multiplexer offset coefficient	1.0000multiplexer slope coefficient	1.0000fibre end	0.00T internal ref (°C)	29.12T ext. ref 1 (°C)	-0.30T ext. ref 2 (°C)	23.22length (m)	temperature (°C)	Stokes	anti-Stokes-747.200	130.640	-0.095	-0.123
-746.185	69.656	-0.170	0.177
-745.171	-200.000	0.034	-0.452
-744.156	-27.838	-0.287	0.168
-743.142	-200.000	-0.015	0.301
-742.127	245.813	-0.193	0.328
-741.112	-151.430	-0.256	-0.019
-740.098	149.367	-0.245	-0.334
-739.083	13.204	0.296	-0.231
-738.069	324.575	0.217	0.417
-737.054	236.570	0.015	-0.024
-736.039	85.103	-0.164	-0.181
-735.025	181.034	0.180	0.266
-734.010	800.000	-0.094	-0.328
-732.996	-200.000	0.036	0.172
-731.981	0.413	-0.217	-0.156
-730.966	800.000	-0.046	-0.143
-729.952	-200.000	-0.062	-0.294
-728.937	-102.466	-0.199	-0.048
-727.923	-121.815	-0.371	-0.062
-726.908	478.540	-0.071	-0.162
-725.894	-79.685	-0.189	0.064
-724.879	-168.825	-0.326	-0.012
-723.864	46.217	-0.149	-0.139
-722.850	-53.800	-0.251	-0.115
-721.835	23.003	-0.278	0.229
-720.821	244.226	0.064	-0.108
-719.806	-73.616	-0.125	-0.046
-718.791	-110.328	0.304	-0.063
-717.777	1.620	-0.282	0.204
-716.762	588.276	-0.216	-0.536
-715.748	-200.000	-0.007	0.041
-714.733	-200.000	-0.024	0.176
-713.718	-200.000	-0.069	-0.310
-712.704	-94.738	0.081	-0.022
-711.689	-71.719	0.131	-0.049
-710.675	-71.345	-0.416	-0.157
-709.660	-17.576	0.224	0.142
-708.645	98.435	-0.134	-0.155
-707.631	-200.000	-0.081	-0.359
-706.616	-200.000	0.020	-0.362
-705.602	166.988	-0.260	-0.371
-704.587	-113.227	-0.176	0.035
-703.572	-200.000	-0.017	0.208
-702.558	258.821	0.164	-0.284
-701.543	58.668	0.186	0.183
-700.529	800.000	-0.023	-0.070
-699.514	433.576	0.138	-0.301
-698.499	800.000	0.153	0.485
-697.485	68.475	-0.322	0.332
-696.470	-134.200	-0.236	0.029
-695.456	-68.862	0.268	0.104
-694.441	47.589	-0.049	0.046
-693.426	306.477	-0.051	0.095
-692.412	38.109	-0.057	0.051
-691.397	-200.000	-0.010	0.145
-690.383	-200.000	0.042	-0.215
-689.368	50.927	0.082	0.078
-688.354	-58.098	-0.150	-0.066
-687.339	-38.576	-0.137	0.073
-686.324	67.029	-0.231	-0.236
-685.310	800.000	0.036	0.100
-684.295	116.031	-0.190	0.233
-683.281	800.000	0.055	0.230
-682.266	-200.000	0.035	0.164
-681.251	524.811	-0.088	-0.209
-680.237	800.000	0.066	0.185
-679.222	580.481	-0.010	-0.025
-678.208	-38.146	0.208	0.111
-677.193	800.000	0.072	0.203
-676.178	800.000	-0.073	0.286
-675.164	487.384	-0.078	0.179
-674.149	-100.482	0.163	-0.041
-673.135	49.629	0.318	0.300
-672.120	-148.373	0.488	-0.040
-671.105	-44.063	-0.079	0.040
-670.091	800.000	-0.113	-0.351
-669.076	-200.000	-0.002	0.284
-668.062	9.031	-0.056	0.043
-667.047	800.000	0.072	-0.313
-666.032	-116.455	-0.150	-0.028
-665.018	-200.000	0.013	0.327
-664.003	-79.683	-0.134	-0.045
-662.989	4.744	-0.047	-0.035
-661.974	135.953	0.169	-0.221
-660.959	-92.501	-0.374	0.105
-659.945	-200.000	-0.061	-0.345
-658.930	-80.035	0.095	-0.032
-657.916	-9.289	-0.135	0.090
-656.901	-70.154	-0.225	-0.086
-655.886	509.891	-0.101	0.235
-654.872	138.087	0.149	-0.195
-653.857	46.460	-0.036	0.033
-652.843	25.265	-0.112	0.093
-651.828	-48.636	-0.241	-0.116
-650.814	-135.666	-0.301	-0.036
-649.799	800.000	0.100	-0.325
-648.784	-66.167	-0.204	-0.082
-647.770	-200.000	0.024	-0.347
-646.755	44.615	-0.184	0.170
-645.741	753.897	-0.092	0.250
-644.726	585.246	-0.142	-0.350
-643.711	800.000	0.097	-0.285
-642.697	754.745	0.049	-0.133
-641.682	-1.214	-0.091	0.064
-640.668	-70.660	0.383	0.145
-639.653	698.674	-0.095	-0.250
-638.638	49.855	0.300	-0.284
-637.624	-200.000	0.009	0.083
-636.609	3.577	-0.262	0.192
-635.595	-113.543	-0.093	0.018
-634.580	-111.945	-0.229	0.046
-633.565	800.000	-0.020	-0.058
-632.551	-200.000	0.005	-0.196
-631.536	-200.000	0.014	0.210
-630.522	800.000	0.015	-0.053
-629.507	459.720	0.113	-0.253
-628.492	-178.541	0.167	-0.004
-627.478	-55.522	-0.379	0.170
-626.463	74.841	-0.041	0.043
-625.449	62.972	0.117	-0.117
-624.434	-83.140	0.084	-0.027
-623.419	233.947	0.191	-0.316
-622.405	-82.658	-0.173	0.056
-621.390	-200.000	-0.024	-0.268
-620.376	102.236	-0.164	0.191
-619.361	-200.000	-0.014	0.074
-618.346	371.612	-0.113	0.230
-617.332	581.656	0.027	0.066
-616.317	-102.295	0.077	0.018
-615.303	297.880	0.031	0.057
-614.288	-114.410	-0.332	-0.064
-613.273	-200.000	0.023	0.317
-612.259	50.283	-0.060	-0.056
-611.244	367.773	-0.140	-0.284
-610.230	-200.000	-0.007	-0.068
-609.215	-149.611	-0.244	0.019
-608.201	-12.025	-0.142	0.093
-607.186	-61.307	-0.170	-0.072
-606.171	-90.382	-0.407	0.118
-605.157	-200.000	-0.012	0.150
-604.142	-200.000	-0.017	0.112
-603.128	66.241	0.099	0.100
-602.113	-5.356	0.248	-0.170
-601.098	480.738	0.080	0.181
-600.084	-166.002	-0.031	0.001
-599.069	179.059	0.004	0.006
-598.055	228.764	-0.083	-0.136
-597.040	-200.000	-0.002	-0.110
-596.025	-200.000	-0.051	-0.300
-595.011	-87.419	-0.180	0.054
-593.996	-200.000	0.023	-0.104
-592.982	-82.989	-0.431	-0.139
-591.967	97.406	-0.179	-0.206
-590.952	-159.626	-0.167	-0.009
-589.938	96.376	0.043	-0.049
-588.923	-182.770	0.335	0.006
-587.909	27.623	0.071	0.060
-586.894	548.846	-0.062	-0.149
-585.879	314.510	-0.162	0.305
-584.865	179.361	0.212	-0.310
-583.850	-156.904	0.160	-0.010
-582.836	107.353	-0.092	0.109
-581.821	-155.409	-0.204	0.013
-580.806	-200.000	0.077	-0.338
-579.792	-70.515	-0.286	0.108
-578.777	28.856	0.216	-0.183
-577.763	284.152	-0.068	0.122
-576.748	-126.417	-0.413	-0.061
-575.733	42.228	-0.142	0.129
-574.719	167.725	0.255	-0.362
-573.704	-200.000	-0.001	-0.203
-572.690	-79.470	0.281	-0.095
-571.675	444.953	-0.106	0.234
-570.661	800.000	0.112	0.418
-569.646	-200.000	0.021	-0.094
-568.631	82.601	0.179	0.194
-567.617	-105.206	-0.116	0.027
-566.602	-149.679	0.420	0.033
-565.588	-200.000	0.014	0.073
-564.573	-51.376	-0.107	-0.050
-563.558	177.191	0.049	0.071
-562.544	-118.053	0.087	0.016
-561.529	-76.748	-0.297	0.104
-560.515	43.940	-0.110	0.101
-559.500	-200.000	-0.048	-0.251
-558.485	-37.898	0.047	0.025
-557.471	-88.139	0.077	0.023
-556.456	111.871	-0.162	0.195
-555.442	46.361	0.156	0.145
-554.427	-48.721	0.281	-0.135
-553.412	138.188	0.038	0.050
-552.398	800.000	0.056	-0.197
-551.383	104.519	0.223	0.262
-550.369	-156.441	-0.159	0.010
-549.354	-200.000	0.018	-0.084
-548.339	-76.342	0.314	0.110
-547.325	-59.281	0.190	0.082
-546.310	800.000	0.073	-0.304
-545.296	206.695	0.165	0.257
-544.281	223.192	-0.088	0.142
-543.266	46.452	0.104	0.096
-542.252	42.391	-0.282	0.256
-541.237	208.919	-0.116	-0.181
-540.223	107.561	0.148	-0.176
-539.208	-31.388	-0.183	-0.103
-538.193	-200.000	0.002	-0.149
-537.179	41.890	0.172	0.156
-536.164	42.853	-0.161	-0.147
-535.150	-78.040	-0.359	-0.123
-534.135	-200.000	0.033	-0.182
-533.121	-140.059	0.226	0.024
-532.106	109.515	-0.116	0.139
-531.091	102.916	-0.083	0.097
-530.077	127.527	-0.262	0.332
-529.062	18.395	-0.159	0.127
-528.048	442.451	-0.097	0.211
-527.033	-200.000	-0.039	0.294
-526.018	1.916	-0.062	-0.044
-525.004	159.224	-0.148	0.205
-523.989	-42.610	-0.188	0.096
-522.975	-172.780	-0.138	-0.004
-521.960	160.480	0.093	-0.130
-520.945	88.732	-0.212	0.235
-519.931	-163.415	0.362	0.017
-518.916	17.450	-0.116	0.092
-517.902	-32.378	-0.033	0.018
-516.887	-45.957	-0.063	-0.031
-515.872	-200.000	-0.014	-0.065
-514.858	10.244	-0.072	0.054
-513.843	-200.000	-0.057	-0.310
-512.829	67.882	0.205	-0.209
-511.814	120.485	0.101	0.125
-510.799	121.802	0.065	-0.080
-509.785	674.596	-0.078	-0.203
-508.770	-104.649	-0.053	0.012
-507.756	-90.653	-0.138	-0.040
-506.741	-78.330	-0.177	0.061
-505.726	170.641	0.296	0.422
-504.712	800.000	0.050	0.208
-503.697	-200.000	0.047	0.396
-502.683	-200.000	0.033	0.208
-501.668	199.991	0.047	0.072
-500.653	90.162	-0.174	0.194
-499.639	485.801	-0.059	-0.134
-498.624	800.000	-0.107	-0.377
-497.610	-114.800	-0.433	0.082
-496.595	-128.620	0.285	-0.040
-495.581	800.000	0.046	-0.170
-494.566	2.800	-0.122	0.089
-493.551	120.146	-0.194	-0.240
-492.537	-76.102	0.110	0.039
-491.522	528.323	0.169	-0.398
-490.508	104.337	0.178	0.209
-489.493	-57.152	-0.293	0.129
-488.478	13.975	-0.051	0.039
-487.464	-200.000	0.006	0.206
-486.449	-200.000	0.034	-0.192
-485.435	236.163	-0.150	0.247
-484.420	-74.641	0.327	0.117
-483.405	-8.028	0.285	-0.191
-482.391	-82.130	-0.173	0.056
-481.376	-176.880	0.152	0.004
-480.362	-99.613	0.269	-0.067
-479.347	-65.675	-0.234	0.093
-478.332	599.240	0.063	-0.155
-477.318	-115.073	-0.263	0.050
-476.303	266.675	0.189	-0.329
-475.289	3.672	0.121	-0.088
-474.274	-200.000	-0.057	-0.531
-473.259	9.053	0.084	0.063
-472.245	53.639	-0.152	0.146
-471.230	-200.000	-0.020	0.091
-470.216	-200.000	-0.005	-0.263
-469.201	-143.466	0.183	-0.017
-468.186	38.570	0.220	0.196
-467.172	200.683	0.079	0.121
-466.157	43.663	-0.245	0.223
-465.143	-102.313	0.227	-0.054
-464.128	-200.000	0.000	0.486
-463.113	276.339	-0.132	0.233
-462.099	-164.154	0.174	-0.008
-461.084	-37.339	0.229	0.122
-460.070	-200.000	-0.013	-0.152
-459.055	-142.575	-0.201	-0.020
-458.040	235.148	0.222	0.365
-457.026	-64.208	-0.063	0.025
-456.011	-49.030	0.231	-0.110
-454.997	-83.185	-0.114	-0.037
-453.982	770.446	-0.046	-0.125
-452.968	92.265	0.109	-0.122
-451.953	-200.000	0.043	-0.283
-450.938	-78.239	0.049	0.017
-449.924	8.308	-0.170	-0.127
-448.909	-200.000	0.007	0.077
-447.895	-70.869	-0.406	-0.152
-446.880	215.118	-0.114	-0.179
-445.865	-130.442	0.239	-0.032
-444.851	-200.000	0.007	-0.107
-443.836	-114.721	0.069	0.013
-442.822	-200.000	-0.024	0.110
-441.807	13.801	0.261	0.202
-440.792	99.237	0.194	-0.223
-439.778	-200.000	-0.009	-0.251
-438.763	328.745	0.107	-0.205
-437.749	-109.421	-0.346	-0.073
-436.734	-12.348	0.262	-0.170
-435.719	126.195	-0.144	0.181
-434.705	-177.105	0.311	-0.008
-433.690	242.177	0.064	0.107
-432.676	-200.000	-0.001	-0.056
-431.661	-200.000	0.037	0.167
-430.646	-200.000	0.071	-0.308
-429.632	-200.000	0.002	0.037
-428.617	42.322	-0.067	0.061
-427.603	521.184	0.166	-0.386
-426.588	153.604	-0.228	-0.310
-425.573	241.115	0.176	-0.293
-424.559	446.880	-0.110	-0.241
-423.544	-80.735	0.160	-0.053
-422.530	-147.316	-0.280	-0.024
-421.515	-98.494	-0.074	-0.019
-420.500	-54.361	-0.060	0.027
-419.486	223.764	0.223	-0.357
-418.471	155.175	-0.144	-0.197
-417.457	-137.268	-0.064	-0.007
-416.442	-48.928	-0.312	0.148
-415.428	-200.000	-0.005	-0.405
-414.413	259.750	0.074	0.127
-413.398	246.771	-0.115	-0.193
-412.384	16.580	0.158	0.124
-411.369	-200.000	-0.020	0.188
-410.355	-120.124	0.286	-0.049
-409.340	65.013	0.148	-0.148
-408.325	36.528	-0.191	-0.168
-407.311	-78.513	0.226	-0.077
-406.296	-56.962	0.206	-0.090
-405.282	136.850	-0.078	-0.101
-404.267	-100.034	-0.156	0.039
-403.252	-25.686	0.288	0.169
-402.238	-45.011	0.149	-0.074
-401.223	-133.773	-0.191	0.024
-400.209	-126.618	0.251	0.037
-399.194	-69.807	-0.128	-0.048
-398.179	-16.216	-0.332	-0.210
-397.165	-200.000	0.036	-0.163
-396.150	-3.461	-0.130	0.090
-395.136	-141.657	-0.414	0.041
-394.121	377.172	-0.094	0.191
-393.106	-84.578	-0.293	0.092
-392.092	-200.000	0.028	-0.140
-391.077	-200.000	0.003	-0.349
-390.063	-200.000	0.019	0.134
-389.048	425.377	0.110	-0.234
-388.033	-200.000	-0.058	0.296
-387.019	-60.370	0.452	0.191
-386.004	-128.154	0.202	0.029
-384.990	140.545	0.192	-0.251
-383.975	15.355	0.186	0.144
-382.960	-78.644	0.078	-0.027
-381.946	23.519	-0.037	-0.030
-380.931	116.256	0.161	0.196
-379.917	132.355	0.285	0.365
-378.902	800.000	-0.013	-0.037
-377.888	-200.000	-0.071	-0.315
-376.873	-71.869	-0.303	-0.112
-375.858	534.627	-0.088	0.208
-374.844	-143.474	0.418	-0.040
-373.829	-93.673	0.396	-0.108
-372.815	86.502	0.184	0.202
-371.800	-200.000	0.013	0.261
-370.785	-184.515	0.332	0.005
-369.771	-40.030	0.124	0.064
-368.756	800.000	-0.023	0.069
-367.742	-122.248	-0.155	-0.025
-366.727	-47.978	-0.180	-0.086
-365.712	-88.189	0.451	-0.134
-364.698	27.826	0.130	-0.108
-363.683	15.210	-0.064	0.050
-362.669	-48.416	0.213	0.102
-361.654	-196.041	0.344	-0.002
-360.639	133.579	-0.278	-0.356
-359.625	296.900	-0.086	0.157
-358.610	800.000	0.057	0.157
-357.596	-20.096	-0.206	-0.126
-356.581	128.929	0.074	-0.094
-355.566	-33.156	0.076	0.042
-354.552	241.797	0.196	-0.324
-353.537	87.999	0.333	0.366
-352.523	800.000	-0.079	-0.270
-351.508	259.066	0.065	-0.112
-350.493	-89.087	-0.398	0.117
-349.479	-200.000	-0.023	0.234
-348.464	85.186	-0.096	0.104
-347.450	54.092	0.139	0.133
-346.435	-69.176	-0.358	-0.136
-345.420	-50.332	0.215	0.101
-344.406	576.461	-0.124	-0.299
-343.391	-200.000	-0.010	0.199
-342.377	149.051	-0.018	0.025
-341.362	-110.212	0.091	-0.019
-340.348	-94.995	0.209	0.056
-339.333	-118.019	0.019	-0.003
-338.318	9.921	-0.227	0.171
-337.304	-78.809	-0.181	0.061
-336.289	-200.000	-0.034	-0.176
-335.275	-26.534	0.050	-0.029
-334.260	-134.392	-0.205	-0.025
-333.245	331.435	0.084	0.161
-332.231	800.000	0.035	0.133
-331.216	-176.973	0.416	0.010
-330.202	77.096	-0.230	0.241
-329.187	199.082	-0.087	0.132
-328.172	-200.000	0.002	0.210
-327.158	-19.359	-0.169	-0.104
-326.143	800.000	0.028	0.116
-325.129	-200.000	-0.063	0.343
-324.114	156.424	0.194	0.265
-323.099	800.000	-0.047	0.137
-322.085	-107.549	-0.621	0.135
-321.070	309.851	0.093	0.172
-320.056	-126.233	0.236	-0.035
-319.041	90.400	0.012	0.013
-318.026	407.179	0.077	-0.161
-317.012	113.304	-0.175	0.211
-315.997	-87.690	-0.128	-0.038
-314.983	51.961	-0.173	-0.163
-313.968	31.332	-0.239	-0.203
-312.953	-122.399	-0.338	-0.054
-311.939	293.934	0.051	0.092
-310.924	800.000	0.011	-0.044
-309.910	42.187	0.185	0.167
-308.895	87.672	0.285	0.313
-307.880	800.000	-0.094	-0.258
-306.866	-38.883	0.160	0.083
-305.851	-56.790	0.180	-0.079
-304.837	-87.455	0.387	-0.116
-303.822	536.875	-0.039	0.091
-302.807	-70.539	-0.044	-0.017
-301.793	102.741	0.108	-0.125
-300.778	-200.000	0.007	-0.138
-299.764	800.000	-0.032	-0.096
-298.749	-42.146	0.086	0.043
-297.735	126.565	-0.159	-0.199
-296.720	69.098	0.312	-0.317
-295.705	800.000	-0.034	-0.111
-294.691	-15.464	-0.380	0.240
-293.676	89.712	0.142	0.157
-292.662	-29.340	-0.377	0.214
-291.647	-64.776	0.228	0.091
-290.632	476.099	-0.080	0.179
-289.618	800.000	-0.128	0.369
-288.603	-107.370	-0.258	0.056
-287.589	-13.291	0.147	0.094
-286.574	-130.345	0.197	0.026
-285.559	-11.253	-0.221	-0.144
-284.545	-130.922	-0.236	0.031
-283.530	-126.733	0.436	0.064
-282.516	21.441	0.057	0.046
-281.501	-200.000	0.038	-0.209
-280.486	-191.546	0.182	-0.002
-279.472	800.000	-0.053	0.151
-278.457	76.412	-0.173	-0.181
-277.443	-145.545	0.112	-0.010
-276.428	-80.927	-0.314	-0.103
-275.413	800.000	0.122	0.465
-274.399	-118.795	-0.402	-0.070
-273.384	338.361	0.149	-0.287
-272.370	683.603	-0.041	-0.107
-271.355	145.031	-0.106	0.140
-270.340	92.651	0.012	-0.013
-269.326	427.442	0.005	0.012
-268.311	439.943	0.147	0.318
-267.297	800.000	0.041	-0.120
-266.282	796.691	0.114	0.310
-265.267	-200.000	-0.022	0.220
-264.253	-200.000	0.016	0.101
-263.238	-93.670	0.018	-0.005
-262.224	59.176	0.253	-0.245
-261.209	-200.000	-0.003	0.179
-260.195	742.472	0.140	-0.372
-259.180	-60.456	0.242	-0.102
-258.165	270.542	-0.175	0.304
-257.151	-184.008	0.162	0.003
-256.136	-200.000	0.014	-0.233
-255.122	-25.675	-0.075	-0.044
-254.107	800.000	-0.038	-0.114
-253.092	-40.733	-0.145	-0.074
-252.078	184.503	0.177	-0.259
-251.063	158.171	-0.200	-0.274
-250.049	-6.694	-0.234	-0.157
-249.034	-136.920	0.376	0.043
-248.019	59.306	-0.293	-0.284
-247.005	92.027	-0.078	-0.086
-245.990	-24.625	0.079	0.046
-244.976	-73.706	0.123	0.044
-243.961	-159.900	-0.354	-0.019
-242.946	-200.000	-0.008	-0.136
-241.932	-34.923	-0.268	-0.144
-240.917	155.128	-0.174	-0.236
-239.903	-200.000	-0.012	0.086
-238.888	-79.104	-0.031	-0.010
-237.873	120.486	0.058	0.071
-236.859	800.000	-0.142	0.527
-235.844	800.000	-0.063	-0.194
-234.830	-171.011	0.327	0.011
-233.815	800.000	-0.023	0.065
-232.800	-41.356	0.223	-0.113
-231.786	-200.000	-0.067	0.320
-230.771	-200.000	0.057	0.296
-229.757	-200.000	0.038	0.434
-228.742	-200.000	0.002	-0.011
-227.727	170.029	0.255	-0.360
-226.713	-134.859	0.170	-0.020
-225.698	244.063	0.095	0.157
-224.684	800.000	-0.031	0.122
-223.669	-108.850	0.165	-0.035
-222.655	800.000	0.051	0.217
-221.640	-24.414	0.014	-0.008
-220.625	121.315	0.053	-0.066
-219.611	-200.000	-0.028	0.350
-218.596	-200.000	-0.024	0.186
-217.582	-155.043	0.339	0.022
-216.567	-38.025	-0.102	0.054
-215.552	6.995	-0.304	0.223
-214.538	-200.000	-0.009	-0.200
-213.523	433.261	-0.132	0.282
-212.509	-178.020	0.361	-0.008
-211.494	743.869	0.049	0.130
-210.479	13.424	-0.087	0.067
-209.465	451.915	-0.111	-0.241
-208.450	-88.219	0.258	0.076
-207.436	-69.449	0.107	-0.041
-206.421	355.433	0.090	-0.176
-205.406	58.056	-0.091	-0.088
-204.392	800.000	0.012	-0.042
-203.377	-118.438	-0.261	0.046
-202.363	176.756	0.133	0.190
-201.348	-200.000	0.003	0.206
-200.333	-200.000	-0.023	0.128
-199.319	-30.788	-0.128	0.071
-198.304	-32.253	-0.031	0.017
-197.290	439.835	-0.037	-0.079
-196.275	-61.902	-0.125	0.052
-195.260	-127.273	0.037	0.005
-194.246	-79.605	0.493	-0.164
-193.231	-102.161	0.066	-0.016
-192.217	58.750	0.114	0.110
-191.202	513.390	-0.069	0.158
-190.187	677.329	-0.059	0.152
-189.173	-62.377	0.385	-0.158
-188.158	800.000	-0.056	0.209
-187.144	221.165	0.103	0.163
-186.129	800.000	-0.057	0.208
-185.114	800.000	-0.089	0.356
-184.100	-33.966	0.320	0.174
-183.085	522.559	0.151	-0.349
-182.071	-140.719	-0.486	0.049
-181.056	-20.565	0.021	-0.012
-180.042	-77.302	0.111	-0.038
-179.027	-200.000	-0.041	-0.215
-178.012	-200.000	-0.018	0.136
-176.998	-147.648	-0.359	-0.030
-175.983	-200.000	-0.028	-0.182
-174.969	-57.505	0.212	-0.091
-173.954	191.121	0.163	-0.242
-172.939	457.940	-0.038	0.084
-171.925	433.052	0.087	0.185
-170.910	800.000	-0.079	-0.272
-169.896	-44.002	-0.104	-0.051
-168.881	-16.755	0.185	-0.115
-167.866	-126.566	-0.226	0.033
-166.852	-200.000	-0.007	-0.081
-165.837	72.030	0.138	-0.142
-164.823	-200.000	0.027	-0.360
-163.808	-172.108	-0.304	-0.010
-162.793	-110.919	0.021	-0.004
-161.779	-200.000	-0.041	0.183
-160.764	-127.931	-0.291	-0.041
-159.750	132.842	-0.137	0.174
-158.735	-138.918	-0.191	0.020
-157.720	98.868	-0.050	-0.056
-156.706	297.158	0.111	0.199
-155.691	681.995	-0.118	-0.304
-154.677	800.000	-0.041	0.114
-153.662	-182.447	0.024	-0.000
-152.647	-108.736	-0.146	-0.031
-151.633	243.131	-0.116	-0.191
-150.618	352.661	-0.059	-0.115
-149.604	800.000	0.067	0.209
-148.589	-24.041	-0.188	0.110
-147.574	190.396	-0.106	0.156
-146.560	-20.632	-0.099	-0.059
-145.545	783.057	0.034	-0.092
-144.531	-200.000	-0.069	-0.341
-143.516	52.329	0.076	0.071
-142.502	158.853	0.172	-0.235
-141.487	-179.706	0.265	0.006
-140.472	179.294	-0.165	0.237
-139.458	352.413	-0.121	0.235
-138.443	140.126	0.171	-0.222
-137.429	166.858	0.133	-0.186
-136.414	144.599	-0.220	-0.289
-135.399	-13.273	0.055	0.035
-134.385	558.935	-0.110	-0.260
-133.370	98.097	-0.328	0.371
-132.356	-200.000	0.012	0.264
-131.341	338.341	0.099	0.190
-130.326	-200.000	-0.013	0.166
-129.312	-200.000	0.019	-0.471
-128.297	-112.437	-0.148	0.029
-127.283	154.013	-0.105	0.142
-126.268	-19.834	-0.118	0.072
-125.253	138.157	0.325	0.419
-124.239	-15.019	-0.194	0.122
-123.224	-95.670	0.202	0.053
-122.210	290.483	0.089	0.159
