DTS Sentinel unit serial number:	SN413079Multiplexer serial number:	ORYXHardware model number:	OX4-SRSoftware version number:	ORYX F/W v4.00 Oryx Data Collector v3.7.2.0data status	okinstallation	princeton_trtdifferential loss correction	single-endedforward channel	channel 2reverse channel	N/Adate	2019/09/11time	14:49:11forward acquisition time	60.00reverse acquisition time	0.00gamma	496.2192k internal	0.2290k external	0.2290temperature offset calibration	1.0003default loss term (dB/km)	0.3790temperature slope calibration	1.0000multiplexer offset coefficient	1.0000multiplexer slope coefficient	1.0000fibre end	0.00T internal ref (°C)	42.56T ext. ref 1 (°C)	0.92T ext. ref 2 (°C)	38.40length (m)	temperature (°C)	Stokes	anti-Stokes-747.200	-200.000	-0.004	-0.067
-746.185	462.914	0.119	0.271
-745.171	26.823	-0.100	0.086
-744.156	50.960	0.361	0.351
-743.142	-93.359	0.084	-0.024
-742.127	614.320	0.098	-0.253
-741.112	-82.333	0.271	0.090
-740.098	-146.010	-0.141	0.013
-739.083	-81.939	-0.075	-0.025
-738.069	324.835	0.027	0.053
-737.054	73.330	-0.010	-0.011
-736.039	1.965	0.176	0.130
-735.025	232.740	0.034	-0.057
-734.010	-200.000	-0.075	-0.351
-732.996	282.172	-0.045	0.082
-731.981	800.000	0.030	0.127
-730.966	800.000	0.112	0.345
-729.952	371.190	-0.172	-0.358
-728.937	149.037	-0.098	-0.136
-727.923	-200.000	0.021	-0.140
-726.908	-100.930	0.223	-0.056
-725.894	172.366	-0.147	-0.217
-724.879	463.875	-0.056	-0.127
-723.864	-200.000	-0.007	-0.075
-722.850	-128.540	-0.238	0.035
-721.835	144.922	-0.038	0.053
-720.821	343.778	-0.071	-0.142
-719.806	169.122	-0.066	0.096
-718.791	-138.995	0.176	-0.019
-717.777	-166.768	0.117	0.005
-716.762	-26.641	0.110	-0.066
-715.748	-74.866	-0.428	-0.157
-714.733	-68.432	0.242	-0.096
-713.718	27.018	-0.134	0.115
-712.704	-89.350	0.058	-0.017
-711.689	391.656	-0.129	-0.273
-710.675	-168.617	0.128	0.005
-709.660	-200.000	0.012	0.338
-708.645	-200.000	0.044	-0.256
-707.631	-72.814	0.211	-0.080
-706.616	-147.100	0.472	-0.041
-705.602	586.500	-0.106	0.266
-704.587	-94.082	-0.279	0.078
-703.572	-35.976	0.251	-0.139
-702.558	-65.627	0.097	0.040
-701.543	-200.000	-0.011	0.359
-700.529	-100.315	-0.211	-0.054
-699.514	19.016	0.212	0.174
-698.499	-196.551	-0.396	-0.003
-697.485	347.203	-0.099	0.200
-696.470	-200.000	0.035	0.274
-695.456	293.185	0.109	0.204
-694.441	111.985	0.148	-0.183
-693.426	277.665	-0.159	-0.290
-692.412	-37.726	0.083	0.045
-691.397	-76.043	-0.267	0.096
-690.383	-200.000	-0.011	-0.264
-689.368	-89.857	0.315	-0.094
-688.354	112.938	0.173	0.215
-687.339	113.103	0.251	-0.311
-686.324	-2.374	0.138	-0.099
-685.310	58.020	-0.186	-0.187
-684.295	800.000	0.048	-0.180
-683.281	275.141	0.157	0.285
-682.266	39.292	-0.078	0.072
-681.251	739.461	-0.064	-0.176
-680.237	139.911	0.049	-0.066
-679.222	116.139	-0.191	-0.239
-678.208	-143.581	-0.350	0.034
-677.193	-134.669	0.091	0.011
-676.178	-43.672	-0.077	0.040
-675.164	-45.526	-0.156	0.079
-674.149	93.502	-0.088	0.102
-673.135	-5.303	0.088	-0.062
-672.120	144.949	-0.115	-0.158
-671.105	-19.966	-0.083	0.052
-670.091	-133.134	-0.240	-0.031
-669.076	377.126	-0.111	-0.231
-668.062	-155.846	-0.238	0.016
-667.047	230.426	0.132	0.221
-666.032	-150.272	0.228	-0.018
-665.018	-137.275	0.181	-0.021
-664.003	800.000	0.142	-0.422
-662.989	161.394	0.140	0.200
-661.974	-119.200	0.115	-0.021
-660.959	262.531	-0.028	-0.050
-659.945	-16.250	-0.190	-0.123
-658.930	222.928	-0.026	-0.043
-657.916	-200.000	0.003	0.105
-656.901	800.000	-0.082	-0.363
-655.886	-192.508	-0.057	0.001
-654.872	800.000	0.055	-0.171
-653.857	800.000	0.080	-0.321
-652.843	379.018	0.084	0.176
-651.828	237.463	-0.105	0.177
-650.814	-28.252	0.088	-0.052
-649.799	-115.827	0.346	0.066
-648.784	-51.571	-0.104	0.050
-647.770	-200.000	-0.076	-0.000
-646.755	-92.320	-0.207	0.060
-645.741	262.820	-0.118	-0.208
-644.726	-200.000	0.060	0.348
-643.711	-84.625	0.176	0.056
-642.697	76.159	0.143	-0.154
-641.682	75.726	-0.049	0.053
-640.668	-98.559	-0.114	-0.030
-639.653	-109.062	-0.177	-0.038
-638.638	611.222	0.157	-0.401
-637.624	800.000	-0.055	0.228
-636.609	-122.208	-0.141	0.024
-635.595	148.919	-0.091	-0.125
-634.580	-140.515	0.136	0.014
-633.565	-200.000	-0.025	0.143
-632.551	47.842	-0.115	-0.109
-631.536	-27.883	-0.175	-0.104
-630.522	335.041	-0.096	-0.190
-629.507	800.000	0.044	-0.174
-628.492	-90.562	-0.327	-0.097
-627.478	191.563	0.028	-0.042
-626.463	800.000	-0.059	0.172
-625.449	143.420	-0.094	-0.128
-624.434	433.190	0.163	-0.361
-623.419	101.256	0.181	-0.214
-622.405	201.772	0.096	0.151
-621.390	-200.000	0.014	0.396
-620.376	48.493	0.125	-0.119
-619.361	395.704	-0.067	0.142
-618.346	88.189	-0.103	0.117
-617.332	361.485	-0.056	0.114
-616.317	188.161	-0.114	-0.173
-615.303	-102.305	0.271	0.066
-614.288	-200.000	-0.096	0.435
-613.273	205.885	0.155	-0.246
-612.259	-200.000	0.044	0.219
-611.244	-126.506	-0.219	-0.033
-610.230	228.187	0.129	0.213
-609.215	-156.839	0.366	0.023
-608.201	94.457	0.213	0.247
-607.186	35.032	0.058	0.051
-606.171	-114.720	-0.328	-0.064
-605.157	-115.277	-0.224	0.043
-604.142	-91.523	0.203	-0.059
-603.128	-74.282	-0.134	-0.049
-602.113	-200.000	0.026	0.238
-601.098	-93.481	-0.206	0.058
-600.084	-153.453	-0.317	-0.022
-599.069	-82.765	-0.171	-0.056
-598.055	-148.871	-0.303	0.025
-597.040	53.258	0.062	-0.061
-596.025	170.461	0.087	-0.127
-595.011	-109.205	-0.139	0.030
-593.996	52.911	0.073	-0.071
-592.982	-82.981	-0.125	-0.041
-591.967	800.000	0.093	-0.403
-590.952	201.848	-0.232	0.364
-589.938	-31.801	-0.082	0.047
-588.923	-200.000	0.025	-0.390
-587.909	-200.000	-0.020	-0.203
-586.894	-105.780	0.024	-0.006
-585.879	435.864	0.141	0.312
-584.865	122.842	-0.170	0.217
-583.850	202.989	0.083	0.130
-582.836	348.878	0.046	0.093
-581.821	-192.366	-0.600	-0.006
-580.806	-117.275	0.329	-0.061
-579.792	-109.909	0.264	0.056
-578.777	-43.012	-0.060	-0.031
-577.763	-200.000	-0.003	-0.093
-576.748	192.262	-0.134	0.206
-575.733	-73.595	-0.098	-0.036
-574.719	800.000	-0.101	-0.418
-573.704	800.000	-0.089	-0.317
-572.690	168.967	0.152	0.220
-571.675	159.755	-0.190	0.269
-570.661	-38.161	0.212	-0.114
-569.646	-13.120	-0.333	-0.220
-568.631	14.433	-0.122	-0.097
-567.617	-67.284	0.210	-0.084
-566.602	-2.248	0.148	-0.106
-565.588	-77.006	-0.104	-0.037
-564.573	65.655	0.176	0.181
-563.558	-39.159	-0.100	0.054
-562.544	-54.899	-0.250	-0.115
-561.529	-142.462	0.418	-0.042
-560.515	-200.000	-0.096	0.559
-559.500	37.952	-0.333	-0.301
-558.485	-23.266	0.153	0.094
-557.471	-94.743	-0.341	-0.094
-556.456	-45.900	0.238	-0.120
-555.442	47.939	-0.059	-0.056
-554.427	800.000	0.071	-0.235
-553.412	-185.797	0.105	-0.002
-552.398	51.704	-0.042	-0.040
-551.383	751.279	-0.114	-0.313
-550.369	-138.411	-0.157	0.018
-549.354	179.099	-0.047	0.070
-548.339	50.591	-0.161	-0.155
-547.325	27.165	0.032	-0.027
-546.310	-104.073	-0.168	0.040
-545.296	432.027	0.019	-0.041
-544.281	208.645	-0.011	0.018
-543.266	27.462	-0.252	-0.216
-542.252	-0.472	0.094	-0.068
-541.237	201.503	-0.060	0.093
-540.223	-200.000	0.026	-0.216
-539.208	-109.328	0.142	-0.031
-538.193	-109.097	0.098	0.021
-537.179	229.145	-0.070	-0.117
-536.164	800.000	-0.018	-0.059
-535.150	546.996	-0.023	-0.055
-534.135	-145.603	-0.408	-0.037
-533.121	-200.000	-0.014	-0.483
-532.106	0.217	0.063	0.046
-531.091	188.444	0.102	0.156
-530.077	800.000	-0.062	0.265
-529.062	-200.000	-0.051	0.369
-528.048	-200.000	0.014	-0.203
-527.033	-79.756	-0.130	0.045
-526.018	-3.514	-0.049	0.035
-525.004	-104.407	-0.320	-0.075
-523.989	-29.182	-0.202	0.117
-522.975	-126.430	0.411	-0.062
-521.960	-108.688	0.280	0.061
-520.945	-200.000	-0.048	0.347
-519.931	-80.331	0.177	-0.060
-518.916	2.164	0.089	0.065
-517.902	800.000	-0.062	-0.187
-516.887	800.000	0.005	0.020
-515.872	11.075	-0.226	-0.175
-514.858	89.152	-0.049	-0.055
-513.843	-79.221	-0.244	-0.084
-512.829	168.235	0.053	0.077
-511.814	410.686	0.121	0.260
-510.799	-83.178	-0.201	0.065
-509.785	-146.649	-0.255	-0.022
-508.770	-56.468	-0.380	0.171
-507.756	-65.094	0.186	0.076
-506.741	-125.244	0.172	0.027
-505.726	-200.000	-0.042	-0.223
-504.712	115.022	0.110	0.136
-503.697	-200.000	-0.078	0.375
-502.683	-54.888	-0.128	-0.059
-501.668	-136.692	-0.214	-0.025
-500.653	698.452	-0.076	0.202
-499.639	-200.000	0.012	0.247
-498.624	-106.542	0.193	0.044
-497.610	13.595	0.106	0.084
-496.595	-200.000	-0.034	0.183
-495.581	-70.181	-0.168	0.065
-494.566	380.089	0.180	-0.374
-493.551	-200.000	-0.008	0.327
-492.537	-102.068	-0.213	0.052
-491.522	-162.510	-0.333	-0.017
-490.508	54.201	0.127	0.124
-489.493	800.000	0.079	-0.317
-488.478	303.451	0.174	0.326
-487.464	371.570	-0.114	-0.236
-486.449	89.675	0.151	-0.171
-485.435	-200.000	-0.004	0.133
-484.420	-200.000	0.056	-0.253
-483.405	127.118	-0.276	0.355
-482.391	-99.385	0.088	0.023
-481.376	-32.989	0.252	-0.142
-480.362	53.386	-0.036	-0.035
-479.347	-67.230	-0.457	0.182
-478.332	-200.000	-0.035	0.293
-477.318	461.795	-0.055	0.124
-476.303	-44.939	-0.194	-0.098
-475.289	-200.000	-0.047	0.250
-474.274	117.032	0.117	0.145
-473.259	-93.102	0.309	0.087
-472.245	-4.050	0.189	-0.133
-471.230	271.416	-0.040	0.071
-470.216	-71.843	0.138	0.052
-469.201	76.971	-0.225	0.242
-468.186	800.000	0.027	-0.085
-467.172	-178.755	-0.425	-0.010
-466.157	112.877	-0.129	0.159
-465.143	488.215	-0.140	0.324
-464.128	-200.000	-0.007	0.167
-463.113	800.000	0.055	-0.207
-462.099	178.719	-0.053	-0.079
-461.084	-59.617	-0.118	-0.051
-460.070	189.896	0.047	0.071
-459.055	-47.915	-0.230	-0.113
-458.040	800.000	0.019	0.077
-457.026	800.000	-0.078	0.267
-456.011	-44.123	0.183	-0.093
-454.997	191.973	0.150	-0.230
-453.982	-108.464	-0.071	-0.016
-452.968	-200.000	-0.025	-0.245
-451.953	-83.816	0.348	0.112
-450.938	239.868	-0.104	0.176
-449.924	38.856	0.078	0.071
-448.909	220.299	-0.068	-0.111
-447.895	800.000	-0.063	-0.175
-446.880	202.654	0.040	0.062
-445.865	120.167	0.215	0.270
-444.851	-55.331	0.169	0.077
-443.836	-52.485	0.369	-0.173
-442.822	-159.203	-0.282	-0.016
-441.807	591.862	0.049	0.122
-440.792	-112.300	0.286	0.058
-439.778	61.104	0.121	-0.122
-438.763	-66.755	-0.470	-0.188
-437.749	324.632	0.101	0.195
-436.734	800.000	0.029	0.107
-435.719	-200.000	0.006	-0.281
-434.705	-200.000	0.035	-0.223
-433.690	-163.929	-0.125	-0.006
-432.676	272.279	-0.225	-0.403
-431.661	-200.000	0.049	-0.317
-430.646	800.000	-0.137	-0.384
-429.632	-110.225	-0.183	-0.039
-428.617	-25.334	-0.378	0.226
-427.603	-80.460	-0.384	0.130
-426.588	-200.000	-0.011	-0.132
-425.573	-200.000	-0.007	0.187
-424.559	-168.848	-0.236	0.009
-423.544	-59.295	0.271	0.118
-422.530	800.000	0.045	-0.143
-421.515	269.251	0.138	-0.245
-420.500	54.642	0.194	-0.190
-419.486	-46.768	0.075	-0.037
-418.471	-33.964	-0.226	-0.126
-417.457	-116.296	0.098	0.018
-416.442	-1.889	-0.283	0.202
-415.428	-200.000	-0.017	-0.256
-414.413	-141.268	0.296	-0.030
-413.398	-200.000	-0.007	0.101
-412.384	-63.326	0.147	-0.061
-411.369	-200.000	0.046	0.234
-410.355	128.515	-0.138	-0.178
-409.340	-200.000	0.011	0.088
-408.325	-48.657	0.030	-0.014
-407.311	28.965	0.324	-0.278
-406.296	388.893	0.121	-0.254
-405.282	-93.934	0.217	0.060
-404.267	-200.000	0.026	0.325
-403.252	-56.784	0.181	0.081
-402.238	-200.000	0.045	-0.204
-401.223	57.225	0.112	0.111
-400.209	291.344	-0.179	-0.328
-399.194	344.531	-0.056	-0.110
-398.179	800.000	-0.064	-0.191
-397.165	401.601	0.176	-0.374
-396.150	-61.951	-0.272	-0.115
-395.136	-49.345	-0.092	-0.044
-394.121	-144.935	0.531	-0.049
-393.106	-44.498	0.093	0.047
-392.092	-5.769	-0.273	0.189
-391.077	-200.000	0.010	0.252
-390.063	-200.000	0.037	0.176
-389.048	-129.147	-0.112	0.016
-388.033	257.148	-0.111	0.193
-387.019	-200.000	0.038	-0.280
-386.004	79.524	-0.067	-0.072
-384.990	-39.439	0.413	0.219
-383.975	-114.265	0.059	0.012
-382.960	167.799	-0.022	0.032
-381.946	-140.500	0.182	0.019
-380.931	114.478	0.047	0.058
-379.917	-200.000	-0.006	-0.044
-378.902	45.402	0.346	0.322
-377.888	42.486	-0.130	-0.119
-376.873	118.961	0.084	0.105
-375.858	709.671	-0.098	-0.262
-374.844	800.000	0.055	0.216
-373.829	44.201	-0.172	-0.159
-372.815	104.450	-0.153	-0.181
-371.800	134.281	0.090	-0.118
-370.785	-100.809	0.311	-0.077
-369.771	13.562	-0.134	0.105
-368.756	800.000	-0.163	-0.456
-367.742	-131.876	-0.111	0.015
-366.727	-135.026	0.126	0.015
-365.712	-33.821	0.150	0.083
-364.698	-92.924	0.346	-0.097
-363.683	259.440	-0.102	0.178
-362.669	33.705	0.271	0.238
-361.654	800.000	0.072	0.220
-360.639	-93.090	-0.075	-0.021
-359.625	0.174	0.354	-0.255
-358.610	-79.463	-0.220	-0.075
-357.596	-139.854	0.229	0.024
-356.581	800.000	0.077	0.303
-355.566	20.841	-0.292	-0.239
-354.552	50.731	0.031	0.030
-353.537	-12.032	0.219	0.145
-352.523	37.647	-0.114	0.102
-351.508	494.165	0.067	0.154
-350.493	-39.412	-0.169	-0.089
-349.479	679.974	-0.007	0.019
-348.464	-20.391	0.120	-0.074
-347.450	-200.000	-0.031	-0.323
-346.435	457.044	-0.077	-0.173
-345.420	-112.889	0.106	-0.021
-344.406	800.000	0.061	0.254
-343.391	640.889	0.081	0.208
-342.377	-54.730	0.198	-0.090
-341.362	15.291	0.356	0.282
-340.348	800.000	0.010	-0.042
-339.333	-52.459	0.331	-0.154
-338.318	574.345	0.125	-0.308
-337.304	800.000	-0.081	-0.237
-336.289	800.000	-0.092	-0.371
-335.275	800.000	-0.081	0.232
-334.260	-200.000	0.237	0.001
-333.245	800.000	-0.080	0.227
-332.231	125.137	0.064	0.082
-331.216	800.000	0.067	0.187
-330.202	94.947	0.026	-0.030
-329.187	-119.352	-0.207	-0.036
-328.172	-200.000	0.048	0.321
-327.158	800.000	0.051	-0.170
-326.143	-79.529	0.153	0.052
-325.129	-25.012	-0.218	-0.130
-324.114	-200.000	-0.022	-0.153
-323.099	-60.177	-0.150	-0.064
-322.085	-25.411	-0.474	0.282
-321.070	391.011	0.072	-0.151
-320.056	-72.717	-0.127	-0.047
-319.041	-83.927	0.185	-0.059
-318.026	-76.623	0.105	-0.037
-317.012	65.688	0.136	-0.138
-315.997	-200.000	0.004	0.179
-314.983	100.951	-0.105	0.124
-313.968	349.266	0.124	-0.247
-312.953	-109.964	-0.320	-0.067
-311.939	-52.970	0.187	0.087
-310.924	177.572	0.241	-0.354
-309.910	-26.212	0.173	-0.102
-308.895	800.000	0.052	0.224
-307.880	136.135	0.030	-0.040
-306.866	800.000	-0.047	0.132
-305.851	732.332	0.046	0.125
-304.837	-91.260	0.305	-0.088
-303.822	77.195	-0.205	-0.219
-302.807	216.051	0.119	-0.190
-301.793	-144.644	-0.406	0.038
-300.778	-155.649	-0.545	0.035
-299.764	25.098	0.076	-0.063
-298.749	800.000	0.039	0.127
-297.735	452.503	-0.109	-0.243
-296.720	110.283	0.170	-0.206
-295.705	-136.802	0.284	0.033
-294.691	44.299	0.217	-0.200
-293.676	800.000	0.061	0.257
-292.662	-93.055	-0.246	0.069
-291.647	-111.582	0.202	0.041
-290.632	-7.532	0.190	0.129
-289.618	-200.000	-0.058	-0.270
-288.603	800.000	0.038	-0.125
-287.589	-101.442	-0.336	-0.082
-286.574	-121.729	0.354	0.059
-285.559	-69.660	0.077	-0.029
-284.545	-130.096	0.193	-0.026
-283.530	-200.000	-0.019	0.315
-282.516	355.842	-0.160	0.321
-281.501	-115.386	0.194	-0.037
-280.486	-69.864	-0.136	0.052
-279.472	-200.000	0.081	0.379
-278.457	312.602	0.109	-0.207
-277.443	-179.469	-0.210	0.005
-276.428	-79.097	0.150	0.051
-275.413	-106.808	-0.312	-0.070
-274.399	-124.434	-0.190	-0.030
-273.384	-173.958	0.216	0.006
-272.370	-143.691	0.044	-0.004
-271.355	-51.066	-0.166	0.078
-270.340	-112.413	0.256	-0.052
-269.326	-200.000	-0.010	0.293
-268.311	-150.813	-0.044	0.003
-267.297	-53.349	-0.118	0.054
-266.282	44.764	0.061	-0.057
-265.267	90.399	0.196	0.221
-264.253	-148.779	0.347	0.028
-263.238	-200.000	0.303	-0.001
-262.224	800.000	-0.069	0.268
-261.209	800.000	-0.025	-0.071
-260.195	8.445	-0.046	-0.035
-259.180	87.795	0.067	0.075
-258.165	25.560	0.286	0.239
-257.151	116.697	-0.324	0.400
-256.136	71.365	0.093	-0.097
-255.122	-134.828	0.141	0.017
-254.107	-122.835	0.238	0.039
-253.092	89.891	0.164	-0.184
-252.078	111.353	0.073	-0.088
-251.063	319.488	0.083	-0.157
-250.049	-200.000	-0.007	-0.052
-249.034	32.318	-0.191	-0.166
-248.019	-75.149	-0.276	0.099
-247.005	314.160	0.100	-0.189
-245.990	101.674	0.186	0.218
-244.976	-200.000	0.003	-0.066
-243.961	690.448	-0.150	0.395
-242.946	-124.016	-0.144	-0.023
-241.932	800.000	0.046	-0.127
-240.917	-111.076	-0.248	0.051
-239.903	-124.533	0.086	0.013
-238.888	237.845	0.094	0.157
-237.873	184.157	-0.141	0.209
-236.859	-51.226	-0.188	0.089
-235.844	67.314	0.030	-0.031
-234.830	181.298	0.230	-0.339
-233.815	42.368	-0.092	0.084
-232.800	83.808	0.197	-0.216
-231.786	-200.000	0.006	0.429
-230.771	-158.292	-0.221	0.013
-229.757	148.873	0.222	0.301
-228.742	-49.339	-0.228	-0.109
-227.727	-200.000	-0.010	0.058
-226.713	800.000	-0.038	0.117
-225.698	-30.166	0.389	-0.222
-224.684	138.216	-0.112	-0.147
-223.669	-200.000	-0.060	-0.307
-222.655	-168.470	0.205	0.008
-221.640	33.933	-0.287	0.251
-220.625	-200.000	-0.038	0.467
-219.611	-98.667	-0.230	-0.059
-218.596	800.000	-0.037	-0.150
-217.582	800.000	0.052	-0.185
-216.567	71.746	-0.142	-0.148
-215.552	-113.814	0.291	0.057
-214.538	-200.000	-0.003	0.248
-213.523	132.658	-0.231	-0.299
-212.509	-35.450	0.220	0.120
-211.494	-200.000	0.058	-0.287
-210.479	-200.000	0.017	0.273
-209.465	-132.922	0.106	0.014
-208.450	188.634	0.076	-0.114
-207.436	-94.599	0.273	0.075
-206.421	-94.570	0.091	-0.025
-205.406	117.162	0.234	0.289
-204.392	-81.023	-0.246	0.082
-203.377	-162.196	-0.252	-0.013
-202.363	800.000	-0.093	-0.307
-201.348	204.382	0.237	0.368
-200.333	-200.000	0.025	-0.120
-199.319	474.567	0.121	0.274
-198.304	-87.456	-0.230	0.070
-197.290	-26.033	0.248	0.146
-196.275	45.073	0.081	-0.075
-195.260	25.399	-0.148	-0.124
-194.246	-41.218	-0.280	0.145
-193.231	800.000	0.117	-0.397
-192.217	325.728	-0.102	0.195
-191.202	109.609	-0.360	-0.432
-190.187	-51.926	-0.083	-0.039
-189.173	8.585	0.249	-0.188
-188.158	551.670	-0.124	0.299
-187.144	226.561	0.030	-0.049
-186.129	-200.000	0.075	-0.425
-185.114	110.720	0.150	-0.181
-184.100	-67.538	-0.329	-0.129
-183.085	-60.623	0.400	0.170
-182.071	-93.020	0.186	-0.052
-181.056	33.526	0.082	0.072
-180.042	181.784	-0.039	-0.057
-179.027	792.513	0.075	0.206
-178.012	64.329	-0.246	-0.248
-176.998	77.103	-0.142	0.151
-175.983	-200.000	-0.002	-0.137
-174.969	108.161	0.078	0.093
-173.954	-109.035	-0.413	-0.088
-172.939	800.000	-0.031	0.137
-171.925	625.661	-0.083	0.211
-170.910	-61.030	0.167	0.071
-169.896	270.779	0.088	-0.156
-168.881	-67.591	-0.337	-0.132
-167.866	101.098	0.196	0.228
-166.852	563.503	-0.187	-0.454
-165.837	-159.011	0.228	0.013
-164.823	-103.135	0.142	0.034
-163.808	800.000	-0.042	0.175
-162.793	-200.000	0.013	-0.091
-161.779	251.986	-0.048	-0.082
-160.764	-135.945	0.441	0.052
-159.750	58.461	-0.151	-0.148
-158.735	-51.865	0.260	0.121
-157.720	800.000	-0.084	0.248
-156.706	76.102	-0.159	-0.168
-155.691	799.099	0.024	-0.067
-154.677	10.987	0.330	0.253
-153.662	-60.131	-0.113	0.048
-152.647	51.821	0.115	0.110
-151.633	-194.246	-0.160	-0.001
-150.618	-200.000	-0.014	-0.075
-149.604	590.236	0.145	0.358
-148.589	-22.530	0.094	-0.057
-147.574	-115.703	0.522	-0.098
-146.560	-85.577	0.090	-0.028
-145.545	77.239	-0.091	-0.097
-144.531	800.000	0.049	-0.176
-143.516	-24.539	-0.333	-0.198
-142.502	-200.000	-0.043	0.239
-141.487	138.349	-0.120	-0.158
-140.472	-119.527	-0.484	0.084
-139.458	800.000	-0.065	-0.185
-138.443	-26.124	-0.247	0.145
-137.429	-200.000	0.018	-0.215
-136.414	416.809	-0.126	0.270
-135.399	-26.867	-0.112	0.066
-134.385	-111.350	0.120	0.025
-133.370	368.482	-0.071	-0.143
-132.356	-95.108	0.026	0.007
-131.341	-154.332	-0.304	-0.020
-130.326	190.803	0.240	0.361
-129.312	-13.740	-0.130	0.084
-128.297	-120.606	-0.289	0.049
-127.283	-31.556	-0.318	0.179
-126.268	20.551	0.266	-0.215
-125.253	-144.411	0.349	0.032
-124.239	-82.037	0.364	0.119
-123.224	80.554	0.204	-0.220
-122.210	-200.000	-0.007	-0.086
