DTS Sentinel unit serial number:	SN413079Multiplexer serial number:	ORYXHardware model number:	OX4-SRSoftware version number:	ORYX F/W v4.00 Oryx Data Collector v3.7.2.0data status	okinstallation	princeton_trtdifferential loss correction	single-endedforward channel	channel 2reverse channel	N/Adate	2019/09/12time	04:45:11forward acquisition time	60.00reverse acquisition time	0.00gamma	496.2192k internal	0.2327k external	0.2327temperature offset calibration	1.0111default loss term (dB/km)	0.3790temperature slope calibration	1.0000multiplexer offset coefficient	1.0000multiplexer slope coefficient	1.0000fibre end	0.00T internal ref (°C)	31.62T ext. ref 1 (°C)	2.28T ext. ref 2 (°C)	27.26length (m)	temperature (°C)	Stokes	anti-Stokes-747.200	-98.571	0.058	0.015
-746.185	182.224	-0.225	0.335
-745.171	-127.720	-0.351	0.051
-744.156	60.333	0.237	0.237
-743.142	-45.417	0.154	-0.077
-742.127	800.000	0.022	0.068
-741.112	-34.156	0.443	-0.245
-740.098	-71.892	-0.241	0.091
-739.083	-45.651	0.344	0.172
-738.069	800.000	0.037	0.149
-737.054	-86.800	0.144	-0.044
-736.039	-13.283	-0.307	-0.201
-735.025	-35.176	0.103	0.057
-734.010	800.000	-0.082	-0.320
-732.996	550.279	-0.102	-0.248
-731.981	-85.710	-0.559	-0.175
-730.966	800.000	-0.102	-0.310
-729.952	33.099	-0.042	-0.036
-728.937	-200.000	-0.002	0.022
-727.923	-200.000	-0.046	0.217
-726.908	73.781	0.198	-0.210
-725.894	-200.000	0.017	-0.350
-724.879	-114.615	-0.094	-0.018
-723.864	8.181	-0.215	-0.163
-722.850	-16.510	0.190	0.121
-721.835	87.764	0.029	0.032
-720.821	-200.000	0.034	-0.218
-719.806	-59.421	0.114	0.049
-718.791	-51.112	-0.246	0.116
-717.777	92.316	-0.070	0.080
-716.762	268.500	-0.140	0.247
-715.748	-61.257	-0.020	-0.008
-714.733	-136.438	-0.112	0.013
-713.718	-145.646	-0.202	0.018
-712.704	422.178	0.090	-0.194
-711.689	78.728	-0.067	-0.072
-710.675	558.216	0.061	0.147
-709.660	78.323	-0.149	-0.161
-708.645	123.798	0.118	-0.149
-707.631	-200.000	-0.021	-0.284
-706.616	-22.610	-0.275	-0.167
-705.602	23.488	-0.274	0.227
-704.587	-145.518	-0.458	-0.041
-703.572	421.035	-0.099	-0.213
-702.558	-42.762	-0.189	0.097
-701.543	332.610	0.229	0.445
-700.529	-200.000	-0.021	-0.144
-699.514	-111.589	0.088	0.018
-698.499	-167.172	-0.119	-0.005
-697.485	-189.832	-0.485	-0.006
-696.470	-200.000	-0.059	-0.282
-695.456	800.000	0.176	-0.520
-694.441	-163.127	-0.188	0.009
-693.426	262.799	0.017	-0.030
-692.412	2.965	0.146	0.107
-691.397	-200.000	-0.036	-0.307
-690.383	40.656	-0.190	-0.172
-689.368	379.543	-0.097	-0.200
-688.354	58.002	-0.108	-0.107
-687.339	-65.726	0.135	-0.055
-686.324	-200.000	-0.002	0.092
-685.310	800.000	-0.031	0.091
-684.295	178.061	-0.115	-0.168
-683.281	-88.384	0.094	0.028
-682.266	-200.000	0.029	0.348
-681.251	192.721	-0.224	-0.341
-680.237	-200.000	-0.018	0.090
-679.222	-200.000	0.004	0.223
-678.208	800.000	-0.034	0.136
-677.193	459.621	-0.104	-0.233
-676.178	-200.000	0.040	-0.294
-675.164	-77.739	0.397	-0.138
-674.149	151.420	0.153	0.210
-673.135	800.000	0.045	0.161
-672.120	-83.033	0.319	0.103
-671.105	800.000	-0.039	0.136
-670.091	436.764	-0.087	-0.191
-669.076	290.382	-0.077	-0.140
-668.062	377.151	0.028	0.058
-667.047	-126.097	-0.089	-0.013
-666.032	-200.000	0.012	-0.228
-665.018	-55.947	-0.425	0.191
-664.003	545.511	-0.087	0.208
-662.989	122.914	-0.250	-0.315
-661.974	232.652	0.119	0.197
-660.959	234.277	0.051	0.084
-659.945	800.000	0.057	-0.246
-658.930	-97.173	-0.268	-0.070
-657.916	48.881	0.105	0.099
-656.901	-45.711	-0.237	-0.118
-655.886	278.597	0.156	-0.279
-654.872	504.578	-0.070	0.163
-653.857	-200.000	0.009	-0.207
-652.843	-164.685	-0.466	-0.021
-651.828	-0.327	-0.182	-0.130
-650.814	-84.366	-0.295	-0.094
-649.799	12.266	-0.102	-0.079
-648.784	156.582	0.081	-0.113
-647.770	-200.000	-0.033	0.675
-646.755	-68.347	0.095	0.037
-645.741	68.457	-0.189	0.195
-644.726	133.496	-0.214	-0.278
-643.711	384.519	0.106	-0.220
-642.697	-200.000	0.006	0.077
-641.682	-24.405	-0.102	0.061
-640.668	-52.540	-0.060	0.028
-639.653	163.715	0.084	-0.118
-638.638	-42.859	0.266	-0.136
-637.624	-200.000	0.047	0.258
-636.609	-10.908	-0.058	0.039
-635.595	800.000	-0.076	-0.278
-634.580	24.334	0.153	-0.127
-633.565	225.726	0.133	0.216
-632.551	127.705	-0.140	0.179
-631.536	45.439	0.283	-0.262
-630.522	-200.000	-0.062	-0.514
-629.507	-125.886	0.068	-0.010
-628.492	-153.458	-0.292	0.020
-627.478	88.706	-0.121	-0.134
-626.463	-200.000	-0.070	-0.376
-625.449	143.611	-0.165	-0.220
-624.434	-52.027	-0.097	-0.045
-623.419	-145.398	-0.277	-0.025
-622.405	-74.599	0.349	-0.126
-621.390	65.649	-0.246	-0.250
-620.376	131.519	-0.175	-0.226
-619.361	-131.525	-0.123	0.016
-618.346	-10.397	-0.068	0.045
-617.332	0.766	-0.233	-0.167
-616.317	-110.928	-0.327	0.068
-615.303	-83.399	0.327	-0.105
-614.288	-200.000	0.033	-0.209
-613.273	671.675	0.096	0.250
-612.259	-200.000	0.022	-0.200
-611.244	-85.396	-0.230	0.072
-610.230	-16.646	-0.177	0.112
-609.215	-153.735	-0.328	0.023
-608.201	-130.461	0.271	0.037
-607.186	-200.000	-0.012	0.097
-606.171	-106.315	-0.185	-0.042
-605.157	119.473	-0.140	-0.174
-604.142	12.059	-0.395	0.305
-603.128	565.707	0.157	-0.382
-602.113	366.405	0.110	-0.222
-601.098	-194.019	-0.292	0.002
-600.084	-100.571	0.187	-0.046
-599.069	61.565	0.131	0.131
-598.055	-22.791	0.121	0.073
-597.040	120.003	-0.087	-0.109
-596.025	800.000	0.050	-0.159
-595.011	-200.000	-0.015	0.209
-593.996	-51.438	-0.316	0.148
-592.982	243.794	0.155	-0.261
-591.967	-136.470	-0.203	0.024
-590.952	-53.372	0.085	0.039
-589.938	191.822	0.024	-0.037
-588.923	-200.000	-0.033	-0.247
-587.909	189.768	-0.080	0.120
-586.894	227.378	0.017	0.027
-585.879	194.453	0.097	0.147
-584.865	438.984	0.037	0.082
-583.850	-88.655	0.338	-0.101
-582.836	-103.505	0.430	-0.101
-581.821	-171.996	0.216	-0.007
-580.806	295.937	-0.050	0.092
-579.792	227.350	0.086	-0.140
-578.777	0.893	0.183	0.131
-577.763	421.922	-0.197	-0.423
-576.748	-200.000	0.038	-0.268
-575.733	-133.888	0.115	0.014
-574.719	-200.000	-0.051	-0.334
-573.704	-200.000	0.015	-0.088
-572.690	800.000	-0.027	0.092
-571.675	-158.504	0.247	-0.014
-570.661	-200.000	-0.066	-0.689
-569.646	109.227	0.059	-0.071
-568.631	-200.000	0.062	0.386
-567.617	-200.000	0.001	0.358
-566.602	-97.692	0.380	-0.099
-565.588	245.698	0.175	0.296
-564.573	141.451	-0.101	-0.134
-563.558	2.421	0.283	-0.205
-562.544	-48.407	0.109	-0.053
-561.529	138.155	-0.133	0.175
-560.515	800.000	-0.102	-0.342
-559.500	800.000	-0.013	0.036
-558.485	-200.000	0.074	-0.344
-557.471	91.532	-0.205	0.230
-556.456	93.936	-0.077	0.087
-555.442	237.783	-0.321	0.533
-554.427	96.119	0.118	0.135
-553.412	800.000	-0.098	-0.288
-552.398	-38.149	0.270	-0.143
-551.383	-200.000	0.044	0.234
-550.369	-79.835	-0.187	0.063
-549.354	75.507	-0.079	0.084
-548.339	-76.032	0.356	-0.126
-547.325	155.718	0.044	-0.061
-546.310	-200.000	0.008	0.085
-545.296	88.746	-0.161	0.179
-544.281	437.495	0.066	0.144
-543.266	240.636	0.082	0.137
-542.252	800.000	0.072	-0.305
-541.237	-200.000	-0.121	-0.624
-540.223	-200.000	-0.009	0.197
-539.208	-63.799	-0.190	0.078
-538.193	-59.414	0.079	-0.034
-537.179	529.455	-0.117	0.276
-536.164	-200.000	-0.003	-0.120
-535.150	-200.000	-0.016	0.230
-534.135	134.323	0.183	-0.237
-533.121	-200.000	-0.010	0.156
-532.106	190.548	-0.114	0.172
-531.091	-200.000	0.024	0.223
-530.077	297.707	0.009	0.016
-529.062	800.000	0.088	-0.290
-528.048	-200.000	-0.010	-0.277
-527.033	65.366	0.129	-0.131
-526.018	-27.720	0.204	-0.118
-525.004	-200.000	-0.310	-0.000
-523.989	-198.447	-0.216	0.001
-522.975	-6.525	0.224	-0.152
-521.960	-155.464	0.222	-0.014
-520.945	58.577	-0.213	0.209
-519.931	18.892	-0.145	0.116
-518.916	800.000	0.077	0.285
-517.902	-125.011	0.137	0.021
-516.887	133.571	-0.273	-0.353
-515.872	19.532	0.252	0.202
-514.858	725.402	0.067	0.179
-513.843	-45.602	0.204	0.101
-512.829	9.627	-0.114	0.086
-511.814	-200.000	-0.033	0.236
-510.799	185.574	0.045	0.067
-509.785	-96.037	-0.149	-0.040
-508.770	-5.052	-0.114	-0.079
-507.756	-200.000	-0.024	-0.313
-506.741	-131.828	0.206	0.027
-505.726	-25.569	0.061	0.036
-504.712	800.000	0.051	0.211
-503.697	213.962	0.093	0.146
-502.683	-55.061	0.208	0.094
-501.668	-74.147	-0.576	-0.208
-500.653	800.000	-0.080	-0.269
-499.639	45.862	-0.148	0.137
-498.624	158.892	0.082	-0.113
-497.610	-200.000	0.315	-0.001
-496.595	4.729	0.132	-0.097
-495.581	617.523	0.044	-0.111
-494.566	596.596	0.067	0.165
-493.551	565.795	-0.070	0.169
-492.537	-60.479	0.320	-0.136
-491.522	-89.439	-0.175	-0.051
-490.508	80.892	-0.096	-0.103
-489.493	-96.495	0.092	0.024
-488.478	322.358	-0.024	-0.046
-487.464	800.000	-0.048	0.163
-486.449	-68.894	-0.449	0.173
-485.435	449.097	-0.043	0.094
-484.420	-171.461	-0.207	-0.007
-483.405	-143.744	-0.274	0.026
-482.391	-11.076	0.123	0.081
-481.376	363.171	-0.021	-0.043
-480.362	-16.638	-0.178	0.112
-479.347	56.277	0.045	0.043
-478.332	-200.000	0.019	0.161
-477.318	70.218	-0.346	-0.357
-476.303	150.159	0.137	0.185
-475.289	169.993	-0.189	-0.269
-474.274	287.822	0.037	0.067
-473.259	-200.000	0.046	-0.213
-472.245	508.348	-0.075	0.173
-471.230	-27.535	-0.136	-0.079
-470.216	540.113	0.054	0.127
-469.201	-102.607	0.161	0.038
-468.186	-131.077	0.510	0.068
-467.172	-95.246	0.172	-0.046
-466.157	-80.046	-0.180	0.060
-465.143	-47.840	-0.167	-0.081
-464.128	470.915	0.129	-0.290
-463.113	108.071	0.205	0.244
-462.099	366.886	0.095	0.191
-461.084	-200.000	0.011	-0.159
-460.070	-200.000	-0.001	-0.106
-459.055	-169.091	0.426	0.016
-458.040	42.517	0.081	0.073
-457.026	-200.000	0.006	0.075
-456.011	14.588	0.088	0.068
-454.997	63.115	-0.093	-0.092
-453.982	-200.000	0.003	-0.061
-452.968	-200.000	-0.059	-0.409
-451.953	-68.209	-0.112	0.043
-450.938	-64.110	0.209	-0.085
-449.924	-78.423	0.111	-0.038
-448.909	-97.182	-0.087	-0.023
-447.895	-200.000	0.041	0.384
-446.880	340.873	0.151	0.294
-445.865	-200.000	-0.097	-0.431
-444.851	-21.168	-0.300	-0.183
-443.836	0.485	-0.120	0.085
-442.822	83.310	-0.130	0.141
-441.807	-17.221	0.083	0.052
-440.792	195.298	-0.104	0.157
-439.778	-50.119	0.166	-0.078
-438.763	62.869	-0.107	0.107
-437.749	93.488	-0.136	-0.153
-436.734	-200.000	0.000	0.015
-435.719	-8.862	-0.320	-0.214
-434.705	-116.711	0.319	0.058
-433.690	-96.815	0.132	-0.035
-432.676	19.038	0.128	-0.102
-431.661	207.904	-0.153	-0.238
-430.646	-17.773	-0.086	-0.054
-429.632	107.973	-0.097	-0.115
-428.617	-200.000	-0.009	-0.097
-427.603	800.000	0.051	-0.143
-426.588	-200.000	0.034	-0.191
-425.573	-200.000	0.008	0.150
-424.559	206.310	0.158	0.244
-423.544	-150.826	-0.227	-0.017
-422.530	31.364	0.329	-0.281
-421.515	-40.019	0.318	-0.165
-420.500	-74.202	0.189	-0.068
-419.486	200.277	-0.128	-0.196
-418.471	-200.000	-0.016	0.220
-417.457	-174.300	0.326	-0.009
-416.442	-65.376	-0.283	-0.113
-415.428	-125.768	-0.205	-0.031
-414.413	800.000	0.074	0.254
-413.398	14.404	-0.267	0.207
-412.384	-200.000	-0.049	0.268
-411.369	-48.584	0.145	-0.069
-410.355	705.370	0.092	0.241
-409.340	-116.183	-0.177	0.033
-408.325	-36.580	0.345	-0.185
-407.311	-75.494	-0.172	-0.061
-406.296	-200.000	-0.027	0.134
-405.282	-200.000	0.021	-0.220
-404.267	-200.000	-0.023	-0.164
-403.252	-150.862	0.144	-0.011
-402.238	-16.634	0.067	-0.042
-401.223	-10.342	0.078	-0.052
-400.209	-31.121	0.291	0.163
-399.194	449.373	0.127	-0.279
-398.179	-141.754	0.142	-0.014
-397.165	-200.000	0.032	0.197
-396.150	-15.020	-0.275	0.175
-395.136	-103.114	-0.333	0.079
-394.121	571.139	-0.081	0.196
-393.106	-114.815	-0.163	-0.031
-392.092	439.497	0.161	0.349
-391.077	-200.000	0.000	0.005
-390.063	244.890	-0.110	-0.183
-389.048	135.577	-0.093	-0.120
-388.033	240.607	-0.135	-0.224
-387.019	-20.330	0.129	-0.079
-386.004	-61.183	0.069	0.029
-384.990	197.253	-0.151	-0.229
-383.975	-72.365	-0.058	-0.021
-382.960	-45.332	0.500	0.247
-381.946	153.656	-0.116	-0.158
-380.931	800.000	0.060	-0.187
-379.917	-200.000	0.002	0.148
-378.902	-35.055	0.133	0.072
-377.888	-136.869	0.110	-0.013
-376.873	-200.000	0.063	-0.350
-375.858	-200.000	0.065	0.424
-374.844	-63.086	-0.233	0.095
-373.829	-103.716	0.137	0.032
-372.815	-200.000	-0.079	0.362
-371.800	59.713	-0.238	0.233
-370.785	117.468	-0.099	-0.121
-369.771	-87.295	-0.346	0.104
-368.756	800.000	-0.031	0.116
-367.742	424.185	0.127	0.272
-366.727	-55.079	-0.383	0.171
-365.712	-70.257	0.254	-0.096
-364.698	-147.462	-0.229	0.019
-363.683	-34.837	-0.336	-0.182
-362.669	31.305	-0.175	0.149
-361.654	-27.676	-0.072	0.041
-360.639	-200.000	0.055	-0.481
-359.625	150.051	-0.124	0.167
-358.610	-200.000	0.023	0.258
-357.596	-18.330	0.570	-0.354
-356.581	77.711	0.093	0.099
-355.566	279.816	-0.223	0.396
-354.552	36.709	0.172	-0.151
-353.537	-137.322	-0.137	0.015
-352.523	-55.070	0.119	0.053
-351.508	800.000	-0.079	-0.246
-350.493	-80.515	0.216	0.071
-349.479	-199.275	-0.132	-0.001
-348.464	-117.724	-0.175	0.031
-347.450	-55.365	0.382	-0.170
-346.435	458.750	0.035	0.077
-345.420	265.155	-0.204	0.352
-344.406	-98.280	-0.104	0.027
-343.391	-144.942	0.415	0.038
-342.377	800.000	-0.014	-0.046
-341.362	-200.000	-0.004	0.205
-340.348	134.621	-0.111	-0.143
-339.333	-53.163	-0.170	-0.077
-338.318	-45.939	0.257	0.126
-337.304	160.186	0.197	0.273
-336.289	-145.299	0.146	-0.013
-335.275	-200.000	0.020	0.342
-334.260	14.541	0.342	-0.265
-333.245	590.585	-0.120	0.294
-332.231	-200.000	-0.001	0.373
-331.216	-51.137	-0.126	-0.058
-330.202	61.396	-0.113	-0.111
-329.187	-87.294	0.074	-0.022
-328.172	-115.631	0.135	0.025
-327.158	-87.813	0.250	0.075
-326.143	65.646	0.169	0.170
-325.129	-198.465	-0.297	0.002
-324.114	-48.509	0.016	0.008
-323.099	-153.307	0.154	-0.011
-322.085	110.346	-0.208	0.248
-321.070	-86.018	-0.353	-0.108
-320.056	-136.306	-0.282	0.033
-319.041	-41.301	-0.240	-0.123
-318.026	800.000	-0.101	0.378
-317.012	17.337	-0.226	0.178
-315.997	-87.637	0.126	0.038
-314.983	104.699	-0.337	0.393
-313.968	-98.818	0.313	0.079
-312.953	-200.000	-0.039	-0.295
-311.939	-17.677	0.306	-0.190
-310.924	-200.000	0.024	-0.224
-309.910	-141.474	0.256	0.026
-308.895	-200.000	0.008	0.154
-307.880	329.224	0.054	-0.103
-306.866	266.131	0.123	0.212
-305.851	800.000	0.060	0.168
-304.837	19.785	0.250	0.199
-303.822	68.779	0.353	0.359
-302.807	-200.000	0.055	0.313
-301.793	150.549	-0.091	0.123
-300.778	63.430	0.096	-0.095
-299.764	-51.274	0.287	-0.133
-298.749	-200.000	0.061	-0.376
-297.735	106.936	-0.139	-0.164
-296.720	-200.000	0.025	-0.110
-295.705	19.887	0.180	-0.144
-294.691	-178.407	-0.124	0.003
-293.676	-184.311	-0.212	-0.003
-292.662	800.000	-0.029	0.110
-291.647	599.125	0.067	-0.164
-290.632	3.402	0.195	0.141
-289.618	-30.307	-0.192	0.108
-288.603	-200.000	-0.003	-0.043
-287.589	-200.000	0.024	0.198
-286.574	800.000	0.029	0.081
-285.559	-155.040	0.098	0.006
-284.545	-200.000	-0.006	0.210
-283.530	-56.485	-0.109	0.048
-282.516	55.104	-0.275	-0.263
-281.501	-71.514	0.291	0.108
-280.486	58.378	-0.228	0.221
-279.472	245.992	-0.140	0.234
-278.457	-110.180	-0.528	-0.109
-277.443	58.572	-0.092	-0.089
-276.428	372.289	0.140	0.282
-275.413	253.095	-0.134	-0.226
-274.399	-116.115	0.149	-0.027
-273.384	87.442	-0.090	0.099
-272.370	800.000	0.079	0.234
-271.355	-39.186	-0.210	0.109
-270.340	-200.000	0.002	0.201
-269.326	394.542	0.159	0.328
-268.311	-102.211	-0.205	-0.049
-267.297	-200.000	0.036	-0.191
-266.282	105.351	-0.031	-0.036
-265.267	-38.257	0.284	0.149
-264.253	-137.699	-0.079	0.009
-263.238	71.358	-0.114	-0.117
-262.224	-118.344	-0.110	-0.019
-261.209	-34.875	-0.336	-0.181
-260.195	-200.000	0.018	0.086
-259.180	800.000	0.041	0.146
-258.165	-78.433	0.301	-0.102
-257.151	194.944	-0.121	-0.181
-256.136	-2.539	0.093	0.064
-255.122	-116.181	-0.146	-0.027
-254.107	104.943	-0.118	-0.137
-253.092	-119.275	0.351	-0.060
-252.078	800.000	0.027	0.075
-251.063	-134.499	-0.223	0.027
-250.049	352.187	-0.028	0.055
-249.034	800.000	0.042	-0.171
-248.019	800.000	-0.046	-0.166
-247.005	103.164	-0.123	-0.142
-245.990	289.167	0.107	0.191
-244.976	-81.218	-0.222	0.072
-243.961	338.451	0.155	0.299
-242.946	7.888	0.101	0.075
-241.932	-70.188	0.174	0.066
-240.917	-64.883	-0.204	-0.082
-239.903	-200.000	0.047	0.236
-238.888	6.313	-0.111	0.082
-237.873	257.609	0.160	-0.272
-236.859	-74.636	0.246	0.087
-235.844	-17.656	0.061	0.038
-234.830	-98.205	0.212	0.054
-233.815	800.000	-0.076	0.277
-232.800	302.508	-0.035	-0.063
-231.786	800.000	-0.035	-0.138
-230.771	-111.093	-0.224	-0.045
-229.757	800.000	0.082	-0.258
-228.742	-160.539	-0.044	0.002
-227.727	46.510	0.126	-0.116
-226.713	800.000	0.051	0.196
-225.698	318.010	-0.122	-0.227
-224.684	18.517	0.131	-0.104
-223.669	-30.731	-0.064	0.036
-222.655	-43.275	-0.136	0.068
-221.640	800.000	-0.090	0.308
-220.625	192.329	-0.097	-0.145
-219.611	150.843	-0.125	-0.168
-218.596	77.248	-0.234	0.246
-217.582	289.753	-0.062	-0.112
-216.567	-200.000	0.040	-0.352
-215.552	800.000	-0.037	-0.114
-214.538	12.074	-0.252	-0.192
-213.523	-116.387	0.130	0.024
-212.509	-200.000	0.015	0.071
-211.494	800.000	-0.031	0.091
-210.479	-82.033	0.321	0.104
-209.465	170.355	0.123	-0.173
-208.450	-132.584	-0.148	0.019
-207.436	38.885	0.127	0.112
-206.421	134.019	-0.073	0.093
-205.406	-200.000	-0.012	0.089
-204.392	-200.000	0.048	-0.305
-203.377	65.919	0.112	0.113
-202.363	-55.013	0.244	-0.109
-201.348	62.788	0.002	0.002
-200.333	4.708	0.087	0.063
-199.319	800.000	0.051	-0.209
-198.304	-200.000	-0.097	-0.454
-197.290	-50.233	-0.406	-0.189
-196.275	-24.930	0.287	0.168
-195.260	800.000	0.119	0.339
-194.246	352.987	0.085	-0.167
-193.231	167.054	-0.152	-0.214
-192.217	-92.194	0.234	-0.065
-191.202	42.357	-0.106	-0.095
-190.187	-43.097	0.155	-0.077
-189.173	82.813	0.121	-0.130
-188.158	-2.390	-0.264	0.182
-187.144	-78.999	-0.210	0.070
-186.129	736.752	-0.134	0.355
-185.114	58.967	-0.066	0.064
-184.100	800.000	-0.101	0.326
-183.085	230.405	0.144	0.232
-182.071	-23.282	0.169	-0.100
-181.056	-139.308	0.119	-0.013
-180.042	-36.235	-0.240	0.128
-179.027	-68.867	0.109	0.041
-178.012	17.535	0.092	-0.072
-176.998	-102.257	0.040	0.010
-175.983	-85.421	-0.093	-0.029
-174.969	-120.800	-0.186	-0.031
-173.954	-200.000	-0.009	0.152
-172.939	-22.625	0.098	0.059
-171.925	-200.000	0.006	-0.393
-170.910	-15.995	-0.230	-0.144
-169.896	-124.579	0.198	-0.030
-168.881	35.736	-0.242	-0.210
-167.866	3.468	0.058	0.042
-166.852	-162.380	-0.351	-0.017
-165.837	-13.100	-0.211	-0.135
-164.823	800.000	-0.174	-0.502
-163.808	655.896	-0.055	0.138
-162.793	-0.645	0.102	0.071
-161.779	-43.917	0.359	-0.178
-160.764	124.995	0.204	0.254
-159.750	412.279	0.094	0.196
-158.735	800.000	0.054	0.186
-157.720	246.288	0.050	0.083
-156.706	767.996	-0.081	-0.218
-155.691	-200.000	0.009	0.119
-154.677	-164.272	0.136	0.006
-153.662	154.117	-0.132	-0.178
-152.647	67.661	0.230	-0.231
-151.633	-34.764	0.137	0.074
-150.618	800.000	-0.096	0.307
-149.604	134.019	0.090	0.115
-148.589	346.664	-0.071	0.138
-147.574	-200.000	-0.016	0.107
-146.560	22.168	0.197	0.159
-145.545	-133.113	-0.199	-0.025
-144.531	5.239	0.121	0.088
-143.516	174.640	-0.165	0.236
-142.502	-161.967	-0.404	0.020
-141.487	-36.762	-0.054	0.028
-140.472	800.000	0.073	0.213
-139.458	-168.650	-0.347	-0.013
-138.443	451.797	-0.033	0.072
-137.429	-117.143	-0.044	0.008
-136.414	-200.000	0.012	-0.156
-135.399	-53.556	0.082	-0.037
-134.385	-74.926	-0.226	-0.080
-133.370	44.729	-0.093	0.084
-132.356	-67.150	-0.131	-0.051
-131.341	757.246	0.021	0.055
-130.326	333.812	0.117	-0.223
-129.312	-65.750	-0.249	0.098
-128.297	-138.128	0.077	-0.008
-127.283	-109.790	0.258	-0.053
-126.268	-152.782	0.220	0.015
-125.253	-35.940	-0.204	-0.109
-124.239	294.114	0.077	-0.139
-123.224	-82.184	-0.180	-0.058
-122.210	7.918	0.116	0.086
-121.195	800.000	0.044	-0.183
