DTS Sentinel unit serial number:	SN413079Multiplexer serial number:	ORYXHardware model number:	OX4-SRSoftware version number:	ORYX F/W v4.00 Oryx Data Collector v3.7.2.0data status	okinstallation	princeton_trtdifferential loss correction	single-endedforward channel	channel 2reverse channel	N/Adate	2019/09/10time	22:25:10forward acquisition time	60.00reverse acquisition time	0.00gamma	496.2192k internal	0.2330k external	0.2330temperature offset calibration	0.9942default loss term (dB/km)	0.3790temperature slope calibration	1.0000multiplexer offset coefficient	1.0000multiplexer slope coefficient	1.0000fibre end	0.00T internal ref (°C)	30.41T ext. ref 1 (°C)	-0.32T ext. ref 2 (°C)	23.78length (m)	temperature (°C)	Stokes	anti-Stokes-747.200	786.959	-0.186	-0.513
-746.185	30.970	0.199	0.172
-745.171	122.166	-0.136	-0.172
-744.156	-52.542	-0.089	-0.042
-743.142	158.763	0.219	0.307
-742.127	741.722	0.191	0.517
-741.112	-148.521	-0.270	-0.022
-740.098	-48.722	-0.156	0.075
-739.083	-200.000	-0.016	-0.081
-738.069	800.000	-0.114	0.438
-737.054	-95.131	-0.434	-0.118
-736.039	20.358	-0.099	0.080
-735.025	-17.534	-0.298	-0.189
-734.010	-43.643	0.106	-0.054
-732.996	-200.000	0.006	0.312
-731.981	800.000	0.060	0.233
-730.966	-200.000	-0.022	-0.535
-729.952	-64.597	-0.162	-0.066
-728.937	75.126	-0.195	-0.207
-727.923	-13.250	-0.280	0.183
-726.908	566.458	-0.103	-0.252
-725.894	-200.000	-0.024	0.110
-724.879	-101.492	0.207	-0.051
-723.864	-183.024	0.277	0.005
-722.850	-106.969	-0.111	0.025
-721.835	200.371	-0.124	0.192
-720.821	49.230	0.123	-0.116
-719.806	-200.000	-0.006	0.120
-718.791	-74.217	0.245	0.089
-717.777	800.000	0.073	0.271
-716.762	388.631	-0.030	-0.063
-715.748	2.135	-0.382	0.277
-714.733	-59.752	0.085	0.036
-713.718	-127.155	0.142	-0.021
-712.704	-200.000	0.017	-0.339
-711.689	-51.435	-0.116	0.054
-710.675	790.614	0.046	-0.128
-709.660	800.000	-0.023	-0.079
-708.645	-149.299	-0.244	-0.020
-707.631	-69.557	0.216	-0.083
-706.616	301.038	-0.155	-0.288
-705.602	346.635	-0.014	-0.028
-704.587	800.000	0.065	-0.190
-703.572	-41.181	0.300	-0.156
-702.558	74.026	0.165	0.174
-701.543	-80.386	0.423	0.142
-700.529	76.306	-0.046	0.048
-699.514	800.000	-0.052	0.204
-698.499	-106.529	0.213	-0.048
-697.485	-5.081	0.152	-0.105
-696.470	174.017	-0.093	-0.134
-695.456	-38.347	0.468	0.249
-694.441	41.100	0.232	0.210
-693.426	100.714	0.097	0.113
-692.412	-200.000	-0.003	-0.089
-691.397	446.121	0.044	0.097
-690.383	-52.403	0.301	-0.140
-689.368	15.322	0.140	0.110
-688.354	209.041	-0.009	0.014
-687.339	-153.438	0.027	0.002
-686.324	-71.620	0.195	-0.073
-685.310	-200.000	0.053	-0.289
-684.295	177.275	-0.315	-0.461
-683.281	15.607	0.102	0.080
-682.266	-110.082	-0.307	0.065
-681.251	-55.701	-0.134	-0.060
-680.237	-200.000	0.002	-0.455
-679.222	387.549	0.037	0.076
-678.208	29.002	-0.136	0.116
-677.193	314.940	-0.086	-0.162
-676.178	800.000	-0.026	-0.080
-675.164	-48.982	-0.038	0.018
-674.149	-5.897	-0.023	0.016
-673.135	-22.540	-0.259	-0.157
-672.120	800.000	-0.094	0.265
-671.105	26.182	0.184	0.154
-670.091	-67.804	0.212	0.083
-669.076	-200.000	0.042	-0.203
-668.062	-200.000	-0.045	-0.333
-667.047	-14.572	0.063	-0.041
-666.032	-63.428	0.199	0.082
-665.018	-18.914	-0.324	0.202
-664.003	163.371	0.203	-0.286
-662.989	48.109	0.084	-0.079
-661.974	85.018	-0.320	0.352
-660.959	-13.631	0.194	0.126
-659.945	87.500	0.046	0.051
-658.930	-25.495	-0.231	-0.137
-657.916	800.000	-0.046	-0.156
-656.901	-67.169	-0.196	-0.077
-655.886	-125.069	-0.223	0.034
-654.872	5.604	-0.195	-0.144
-653.857	-200.000	0.009	0.298
-652.843	-200.000	-0.076	-0.387
-651.828	774.922	-0.085	0.233
-650.814	320.264	0.158	0.300
-649.799	17.897	0.277	-0.222
-648.784	-152.901	-0.254	0.018
-647.770	71.333	0.102	0.106
-646.755	-37.827	-0.354	0.189
-645.741	41.493	0.172	-0.156
-644.726	-11.181	0.270	-0.179
-643.711	-200.000	-0.008	0.487
-642.697	10.270	-0.155	-0.119
-641.682	800.000	0.067	0.185
-640.668	-200.000	-0.011	-0.196
-639.653	-63.897	-0.172	-0.070
-638.638	40.329	0.006	-0.005
-637.624	-200.000	-0.053	-0.601
-636.609	-200.000	-0.093	-0.441
-635.595	-2.324	0.093	0.066
-634.580	114.424	0.075	-0.091
-633.565	800.000	0.025	-0.073
-632.551	80.774	-0.354	0.383
-631.536	-67.196	0.114	0.045
-630.522	569.268	-0.079	-0.193
-629.507	800.000	0.054	-0.160
-628.492	283.172	-0.108	0.194
-627.478	-200.000	-0.010	0.093
-626.463	479.602	0.046	-0.104
-625.449	-69.239	-0.325	0.125
-624.434	10.128	0.126	-0.096
-623.419	-45.546	-0.120	-0.060
-622.405	400.960	0.046	0.097
-621.390	-200.000	-0.025	0.243
-620.376	-30.186	0.201	-0.115
-619.361	590.719	0.089	-0.220
-618.346	-67.762	-0.093	0.036
-617.332	132.765	-0.231	0.298
-616.317	-52.829	0.177	-0.081
-615.303	-13.647	0.147	-0.096
-614.288	-36.123	-0.172	-0.093
-613.273	-161.462	0.187	-0.010
-612.259	-200.000	-0.044	-0.268
-611.244	-67.763	0.310	0.121
-610.230	-200.000	0.067	-0.444
-609.215	555.660	-0.084	-0.201
-608.201	508.813	-0.059	0.137
-607.186	88.501	-0.207	0.231
-606.171	-200.000	0.032	-0.223
-605.157	-117.850	-0.398	-0.071
-604.142	-200.000	-0.031	-0.289
-603.128	-44.780	-0.167	-0.083
-602.113	-122.438	0.275	-0.045
-601.098	48.203	0.314	-0.294
-600.084	363.953	-0.121	-0.243
-599.069	-200.000	0.004	-0.061
-598.055	-111.500	-0.390	-0.079
-597.040	20.145	0.439	-0.355
-596.025	-48.001	-0.125	0.061
-595.011	273.600	-0.090	-0.160
-593.996	-191.104	-0.107	0.001
-592.982	800.000	-0.046	-0.199
-591.967	-200.000	0.053	-0.000
-590.952	-113.153	0.413	-0.081
-589.938	-110.541	0.078	-0.016
-588.923	48.215	0.179	-0.168
-587.909	328.235	0.187	-0.359
-586.894	-33.218	-0.274	-0.152
-585.879	-47.530	-0.160	0.078
-584.865	-55.785	0.077	0.035
-583.850	-200.000	-0.036	0.167
-582.836	8.324	-0.122	-0.092
-581.821	238.024	-0.111	0.185
-580.806	-200.000	-0.060	0.359
-579.792	-200.000	-0.019	-0.113
-578.777	800.000	-0.061	0.194
-577.763	-20.160	-0.070	-0.043
-576.748	-33.508	-0.070	-0.039
-575.733	444.557	-0.247	-0.541
-574.719	-200.000	0.003	0.109
-573.704	-124.379	-0.058	-0.009
-572.690	85.173	0.111	0.122
-571.675	258.460	-0.110	0.189
-570.661	800.000	0.064	-0.265
-569.646	-64.665	0.414	0.168
-568.631	106.857	0.120	-0.142
-567.617	-46.518	-0.172	0.084
-566.602	-118.561	0.174	0.031
-565.588	-123.202	-0.078	0.013
-564.573	161.748	-0.056	-0.078
-563.558	-200.000	0.046	-0.250
-562.544	7.234	-0.164	-0.123
-561.529	-132.732	0.314	-0.040
-560.515	27.470	-0.180	-0.151
-559.500	13.507	-0.089	-0.069
-558.485	-50.880	-0.256	0.120
-557.471	8.727	0.265	0.200
-556.456	165.547	0.145	-0.205
-555.442	265.587	0.209	0.365
-554.427	0.199	-0.156	-0.111
-553.412	-147.844	-0.187	-0.016
-552.398	37.827	-0.166	-0.147
-551.383	-110.747	-0.231	-0.048
-550.369	46.532	-0.106	-0.098
-549.354	-200.000	0.073	0.344
-548.339	269.330	0.120	0.210
-547.325	-76.067	0.510	0.180
-546.310	23.379	-0.182	-0.149
-545.296	382.099	-0.176	-0.362
-544.281	-94.807	0.342	-0.093
-543.266	-200.000	0.019	0.287
-542.252	-200.000	0.029	0.240
-541.237	50.452	0.112	-0.106
-540.223	-92.868	0.113	0.032
-539.208	-124.536	-0.088	0.014
-538.193	288.800	0.042	-0.076
-537.179	66.220	0.076	0.077
-536.164	112.335	-0.123	0.149
-535.150	-200.000	-0.009	0.202
-534.135	-61.100	-0.146	-0.062
-533.121	-27.658	0.081	-0.047
-532.106	168.687	0.060	-0.085
-531.091	-138.234	-0.196	-0.022
-530.077	-200.000	0.022	0.171
-529.062	-2.369	0.107	0.075
-528.048	-200.000	-0.017	0.171
-527.033	27.104	-0.167	-0.140
-526.018	-187.711	-0.315	0.004
-525.004	-4.895	-0.090	-0.062
-523.989	-58.807	-0.136	-0.059
-522.975	254.760	-0.041	0.070
-521.960	610.366	0.022	0.055
-520.945	800.000	0.027	0.108
-519.931	-151.095	-0.105	-0.008
-518.916	-164.599	-0.405	0.018
-517.902	-200.000	-0.016	-0.163
-516.887	-136.428	0.118	-0.014
-515.872	-100.702	-0.113	-0.028
-514.858	44.431	-0.208	0.191
-513.843	-35.520	0.148	-0.080
-512.829	-200.000	0.023	0.372
-511.814	132.427	0.145	-0.186
-510.799	44.667	0.007	0.006
-509.785	94.020	-0.237	0.269
-508.770	-57.165	0.152	0.067
-507.756	800.000	-0.031	0.128
-506.741	-5.399	-0.209	0.143
-505.726	-15.839	-0.089	0.057
-504.712	800.000	0.068	0.269
-503.697	-65.994	-0.348	0.139
-502.683	-200.000	0.011	-0.050
-501.668	-200.000	0.038	0.248
-500.653	-49.129	-0.180	0.086
-499.639	-200.000	0.015	0.156
-498.624	353.418	0.093	0.185
-497.610	800.000	-0.059	0.180
-496.595	-200.000	0.018	-0.276
-495.581	-18.818	0.218	0.135
-494.566	-102.983	-0.383	-0.091
-493.551	-200.000	-0.052	0.332
-492.537	-55.606	-0.079	0.035
-491.522	-200.000	-0.033	-0.164
-490.508	-154.882	-0.240	0.016
-489.493	-200.000	-0.057	-0.252
-488.478	-123.403	0.151	0.024
-487.464	-4.736	0.273	0.187
-486.449	-63.311	0.241	0.099
-485.435	176.371	0.189	-0.273
-484.420	47.870	0.210	-0.195
-483.405	-48.416	0.152	-0.073
-482.391	-200.000	0.021	0.097
-481.376	-60.786	-0.078	-0.033
-480.362	-100.218	-0.192	-0.048
-479.347	-109.927	0.110	0.023
-478.332	6.102	0.201	-0.148
-477.318	-160.155	-0.250	-0.014
-476.303	109.035	-0.186	0.222
-475.289	-128.688	-0.152	0.021
-474.274	-200.000	0.039	0.207
-473.259	32.728	-0.219	0.189
-472.245	73.238	-0.115	-0.120
-471.230	-200.000	0.020	-0.406
-470.216	704.004	0.096	0.253
-469.201	353.070	-0.170	0.336
-468.186	37.683	-0.222	0.197
-467.172	95.160	0.111	0.126
-466.157	165.049	-0.138	0.194
-465.143	72.430	-0.252	-0.261
-464.128	-92.969	0.165	0.046
-463.113	211.070	0.117	0.183
-462.099	-57.781	0.129	0.056
-461.084	-200.000	-0.004	-0.141
-460.070	-2.713	0.071	0.050
-459.055	-37.675	0.305	0.162
-458.040	-200.000	0.038	0.218
-457.026	-114.025	-0.016	-0.003
-456.011	25.414	0.257	-0.213
-454.997	-200.000	-0.036	-0.368
-453.982	110.963	-0.172	-0.206
-452.968	100.013	-0.034	-0.039
-451.953	20.486	-0.117	-0.094
-450.938	224.627	0.049	-0.079
-449.924	14.299	0.091	0.071
-448.909	-79.361	-0.124	-0.042
-447.895	-99.855	0.110	-0.027
-446.880	-51.740	-0.197	0.091
-445.865	-200.000	0.034	0.507
-444.851	332.268	0.115	0.221
-443.836	127.011	0.153	0.193
-442.822	-78.744	-0.166	-0.056
-441.807	-3.882	0.112	0.077
-440.792	-200.000	0.026	0.114
-439.778	-15.199	0.111	0.071
-438.763	-200.000	-0.019	0.173
-437.749	258.070	0.089	-0.152
-436.734	57.654	-0.185	0.180
-435.719	-50.173	0.192	-0.090
-434.705	201.651	-0.015	0.023
-433.690	-200.000	-0.015	-0.189
-432.676	-63.639	0.214	-0.088
-431.661	179.911	-0.090	-0.131
-430.646	800.000	-0.045	0.125
-429.632	-188.942	0.216	-0.003
-428.617	800.000	0.066	-0.222
-427.603	34.968	0.088	0.077
-426.588	-200.000	0.057	0.305
-425.573	-139.278	-0.263	-0.028
-424.559	-19.903	-0.318	0.195
-423.544	800.000	0.050	-0.210
-422.530	135.006	-0.086	-0.111
-421.515	493.771	-0.013	-0.030
-420.500	-200.000	0.027	-0.180
-419.486	646.408	0.065	0.165
-418.471	-142.437	0.159	0.016
-417.457	61.516	0.157	-0.155
-416.442	-75.794	-0.142	-0.050
-415.428	800.000	-0.130	0.367
-414.413	800.000	0.025	0.078
-413.398	-200.000	0.021	0.148
-412.384	-200.000	-0.058	-0.291
-411.369	517.310	0.029	-0.068
-410.355	-200.000	0.027	-0.291
-409.340	173.461	-0.189	-0.271
-408.325	381.814	0.122	0.250
-407.311	1.353	-0.212	-0.151
-406.296	-123.530	0.381	0.060
-405.282	-46.472	-0.295	-0.144
-404.267	-21.860	0.219	0.132
-403.252	-200.000	-0.031	0.191
-402.238	-110.769	-0.413	-0.085
-401.223	239.543	0.118	0.195
-400.209	-184.690	-0.066	-0.001
-399.194	457.343	-0.100	-0.220
-398.179	-111.452	-0.227	0.046
-397.165	-24.459	0.088	-0.052
-396.150	-200.000	0.002	0.119
-395.136	-200.000	-0.023	0.291
-394.121	73.209	0.165	-0.172
-393.106	-4.114	-0.069	0.048
-392.092	-67.184	0.238	0.093
-391.077	726.777	-0.039	0.103
-390.063	272.143	-0.053	0.092
-389.048	133.516	0.025	-0.032
-388.033	-42.226	-0.240	-0.122
-387.019	-88.922	0.106	0.031
-386.004	-125.747	-0.265	-0.040
-384.990	-15.245	0.086	-0.055
-383.975	-127.964	0.204	0.029
-382.960	-154.919	-0.178	-0.012
-381.946	337.675	-0.103	-0.198
-380.931	185.837	0.063	-0.093
-379.917	-8.544	-0.276	-0.184
-378.902	85.450	-0.187	-0.204
-377.888	210.891	-0.161	-0.251
-376.873	105.987	0.139	-0.164
-375.858	-200.000	-0.085	-0.410
-374.844	110.749	-0.070	-0.084
-373.829	259.196	-0.062	0.107
-372.815	791.994	0.012	-0.032
-371.800	-200.000	0.003	-0.051
-370.785	-200.000	-0.019	0.272
-369.771	-166.238	0.230	0.010
-368.756	-105.040	-0.243	-0.055
-367.742	165.869	-0.067	0.095
-366.727	-124.014	0.131	0.020
-365.712	-118.539	0.177	-0.031
-364.698	800.000	0.082	-0.238
-363.683	-200.000	-0.027	-0.655
-362.669	421.837	0.037	0.079
-361.654	-94.716	-0.161	-0.043
-360.639	18.725	0.198	-0.157
-359.625	-36.229	0.021	0.011
-358.610	-55.580	0.311	0.138
-357.596	5.481	0.162	-0.118
-356.581	333.492	-0.085	0.163
-355.566	339.055	0.059	0.113
-354.552	-113.396	0.375	0.073
-353.537	-92.436	0.075	0.021
-352.523	42.085	0.297	-0.267
-351.508	800.000	-0.107	0.380
-350.493	-11.416	-0.154	0.100
-349.479	266.507	0.153	-0.265
-348.464	-184.203	-0.267	0.004
-347.450	16.686	0.146	-0.115
-346.435	-68.184	-0.326	-0.126
-345.420	-78.689	-0.340	-0.115
-344.406	-200.000	0.012	-0.092
-343.391	-200.000	0.048	-0.219
-342.377	-45.010	0.272	-0.134
-341.362	119.908	0.095	0.116
-340.348	-171.402	0.087	0.003
-339.333	722.256	-0.042	-0.112
-338.318	-200.000	-0.076	0.359
-337.304	170.500	0.238	0.338
-336.289	-200.000	-0.011	0.076
-335.275	-52.078	0.340	-0.156
-334.260	661.833	-0.011	-0.029
-333.245	-104.143	0.248	0.057
-332.231	-117.888	-0.189	-0.034
-331.216	-52.043	-0.330	0.152
-330.202	-69.303	0.188	0.071
-329.187	-142.558	0.406	-0.039
-328.172	800.000	-0.031	-0.084
-327.158	8.438	-0.194	0.145
-326.143	86.970	-0.347	0.380
-325.129	-107.230	-0.343	0.075
-324.114	580.617	-0.053	0.128
-323.099	-116.861	0.292	0.053
-322.085	5.112	0.231	-0.168
-321.070	-200.000	0.050	0.242
-320.056	-200.000	0.017	0.173
-319.041	189.575	-0.021	0.032
-318.026	41.599	-0.197	0.177
-317.012	22.920	-0.123	0.100
-315.997	201.650	-0.224	0.341
-314.983	-200.000	-0.050	0.332
-313.968	24.834	-0.132	-0.108
-312.953	-80.301	-0.218	0.072
-311.939	182.977	0.135	0.197
-310.924	-56.637	0.108	-0.047
-309.910	-200.000	0.008	0.142
-308.895	71.943	0.065	0.067
-307.880	-200.000	0.035	0.196
-306.866	-123.279	-0.158	-0.025
-305.851	-142.214	-0.051	0.005
-304.837	-42.482	-0.325	-0.164
-303.822	19.211	0.188	0.149
-302.807	-137.540	-0.125	-0.014
-301.793	320.049	0.105	0.197
-300.778	-200.000	0.004	-0.107
-299.764	-69.219	0.312	0.119
-298.749	602.091	0.120	0.296
-297.735	-200.000	-0.009	-0.065
-296.720	-152.676	0.095	-0.007
-295.705	40.223	0.176	-0.157
-294.691	-12.595	-0.143	-0.092
-293.676	126.267	-0.124	0.155
-292.662	-200.000	0.000	-0.055
-291.647	800.000	0.030	-0.121
-290.632	382.008	0.033	-0.067
-289.618	237.364	0.060	0.099
-288.603	-30.797	0.147	0.082
-287.589	-136.709	-0.157	0.018
-286.574	-56.201	0.129	0.057
-285.559	2.629	-0.214	0.153
-284.545	800.000	0.076	0.327
-283.530	574.955	0.151	-0.364
-282.516	-19.552	0.286	-0.175
-281.501	-85.242	0.245	-0.076
-280.486	-200.000	-0.007	-0.030
-279.472	628.490	-0.054	-0.134
-278.457	78.305	-0.247	0.261
-277.443	-81.021	0.139	-0.045
-276.428	-121.107	0.081	0.013
-275.413	-94.722	0.257	-0.069
-274.399	-30.744	0.176	0.099
-273.384	119.577	-0.293	-0.359
-272.370	800.000	-0.059	0.229
-271.355	181.425	-0.058	0.085
-270.340	-162.890	0.031	0.001
-269.326	134.386	0.124	-0.159
-268.311	800.000	0.056	0.169
-267.297	-7.412	0.251	0.168
-266.282	-187.644	0.056	0.001
-265.267	-125.918	0.096	-0.014
-264.253	50.494	-0.145	-0.136
-263.238	-60.298	0.133	0.056
-262.224	800.000	0.066	-0.183
-261.209	102.050	0.107	0.124
-260.195	-85.579	0.157	-0.048
-259.180	-149.509	-0.128	-0.010
-258.165	97.805	0.203	-0.230
-257.151	800.000	0.151	0.496
-256.136	195.198	-0.143	-0.215
-255.122	-23.634	0.224	-0.133
-254.107	-120.355	-0.294	0.050
-253.092	-81.471	-0.206	0.067
-252.078	-200.000	-0.006	0.075
-251.063	-200.000	-0.010	0.186
-250.049	145.510	-0.078	0.103
-249.034	317.268	-0.140	0.261
-248.019	650.095	-0.091	0.230
-247.005	253.615	-0.090	-0.151
-245.990	-36.481	-0.136	0.072
-244.976	53.713	0.411	-0.389
-243.961	68.404	0.211	-0.214
-242.946	68.243	-0.141	-0.142
-241.932	206.882	0.148	0.227
-240.917	149.068	-0.117	-0.156
-239.903	-68.850	0.103	0.039
-238.888	504.094	-0.120	0.275
-237.873	-116.665	0.269	-0.049
-236.859	15.160	0.037	0.028
-235.844	-200.000	-0.002	-0.171
-234.830	800.000	0.135	0.465
-233.815	-25.158	0.279	-0.163
-232.800	-200.000	0.070	-0.332
-231.786	231.229	0.117	0.189
-230.771	-43.096	0.254	0.127
-229.757	-112.686	-0.202	0.040
-228.742	61.809	0.336	-0.330
-227.727	-93.337	-0.237	0.065
-226.713	235.935	0.079	0.129
-225.698	260.044	0.090	-0.154
-224.684	800.000	0.020	0.061
-223.669	-47.643	0.192	-0.092
-222.655	569.360	0.133	-0.318
-221.640	417.478	0.216	0.455
-220.625	64.378	-0.077	0.077
-219.611	800.000	-0.099	0.345
-218.596	-38.389	-0.172	0.090
-217.582	-114.743	0.404	0.076
-216.567	169.308	0.353	0.497
-215.552	-63.051	-0.444	0.181
-214.538	101.174	-0.072	-0.083
-213.523	-32.748	-0.175	0.096
-212.509	800.000	-0.098	-0.286
-211.494	-123.625	-0.205	-0.032
-210.479	-94.978	-0.089	0.024
-209.465	-200.000	0.050	0.300
-208.450	142.496	-0.146	0.191
-207.436	100.627	0.126	0.145
-206.421	129.147	-0.252	0.317
-205.406	-63.272	-0.198	-0.081
-204.392	688.038	-0.077	-0.199
-203.377	-200.000	-0.011	-0.173
-202.363	-77.791	-0.234	-0.080
-201.348	-4.289	0.151	-0.103
-200.333	-100.074	0.120	-0.030
-199.319	-181.715	-0.195	0.004
-198.304	-10.835	0.087	-0.057
-197.290	800.000	-0.051	0.176
-196.275	712.401	-0.092	-0.239
-195.260	48.155	0.045	-0.042
-194.246	800.000	0.088	-0.306
-193.231	33.099	0.036	0.030
-192.217	2.774	0.153	-0.109
-191.202	131.519	0.182	-0.231
-190.187	77.378	0.336	0.353
-189.173	-200.000	-0.001	0.212
-188.158	54.387	-0.181	-0.172
-187.144	-54.024	0.263	-0.118
-186.129	-90.614	-0.141	-0.040
-185.114	-200.000	0.048	-0.261
-184.100	-111.363	0.256	-0.052
-183.085	-55.319	-0.238	-0.105
-182.071	172.663	-0.061	-0.086
-181.056	-45.706	-0.219	0.106
-180.042	-127.224	-0.072	0.010
-179.027	-92.411	-0.196	0.054
-178.012	800.000	-0.095	-0.273
-176.998	-200.000	-0.057	-0.337
-175.983	554.952	0.102	-0.242
-174.969	17.435	0.210	-0.164
-173.954	312.717	-0.114	-0.210
-172.939	790.076	0.080	-0.216
-171.925	800.000	-0.074	-0.227
-170.910	-200.000	-0.030	-0.162
-169.896	-41.796	-0.264	-0.133
-168.881	273.121	-0.103	0.179
-167.866	603.752	0.065	0.159
-166.852	408.813	0.091	0.189
-165.837	7.055	0.013	-0.010
-164.823	-58.152	-0.055	-0.024
-163.808	116.881	-0.191	-0.231
-162.793	142.436	0.247	0.323
-161.779	-123.852	0.313	-0.049
-160.764	-62.543	0.132	0.054
-159.750	-200.000	-0.005	-0.325
-158.735	77.325	0.207	-0.217
-157.720	746.945	-0.091	0.241
-156.706	528.922	-0.031	0.072
-155.691	-30.944	-0.052	0.029
-154.677	-66.523	0.079	0.031
-153.662	281.174	0.063	0.112
-152.647	91.331	-0.062	0.069
-151.633	-68.871	-0.186	-0.071
-150.618	531.208	0.016	-0.036
-149.604	-200.000	-0.009	0.159
-148.589	-40.848	0.066	-0.034
-147.574	0.705	0.164	-0.116
-146.560	-21.002	-0.038	-0.023
-145.545	363.520	0.096	0.190
-144.531	-118.554	0.055	-0.010
-143.516	-200.000	-0.004	-0.200
-142.502	307.568	0.118	0.216
-141.487	558.916	-0.140	0.333
-140.472	-200.000	0.021	-0.136
-139.458	-137.758	-0.173	-0.019
-138.443	800.000	-0.038	0.131
-137.429	76.471	0.159	-0.166
-136.414	152.686	0.243	0.327
-135.399	-59.892	0.090	0.038
-134.385	380.512	0.154	0.310
-133.370	800.000	-0.070	-0.245
-132.356	-200.000	0.025	-0.180
-131.341	81.883	-0.146	0.155
-130.326	-159.763	-0.211	0.011
-129.312	-78.337	0.367	0.124
-128.297	234.915	0.203	0.329
-127.283	-47.432	-0.114	0.054
-126.268	-102.908	-0.119	-0.028
-125.253	-200.000	0.003	0.125
-124.239	-155.760	0.087	0.005
-123.224	-176.445	0.364	-0.009
-122.210	-40.098	-0.182	0.093
-121.195	-200.000	0.019	0.095
