DTS Sentinel unit serial number:	SN413079Multiplexer serial number:	ORYXHardware model number:	OX4-SRSoftware version number:	ORYX F/W v4.00 Oryx Data Collector v3.7.2.0data status	okinstallation	princeton_trtdifferential loss correction	single-endedforward channel	channel 2reverse channel	N/Adate	2019/09/11time	02:53:10forward acquisition time	60.00reverse acquisition time	0.00gamma	496.2192k internal	0.2332k external	0.2332temperature offset calibration	0.9935default loss term (dB/km)	0.3790temperature slope calibration	1.0000multiplexer offset coefficient	1.0000multiplexer slope coefficient	1.0000fibre end	0.00T internal ref (°C)	29.31T ext. ref 1 (°C)	-0.32T ext. ref 2 (°C)	23.67length (m)	temperature (°C)	Stokes	anti-Stokes-747.200	106.233	-0.263	0.313
-746.185	-50.495	-0.345	0.164
-745.171	15.451	0.162	0.128
-744.156	-200.000	-0.021	0.241
-743.142	176.310	-0.060	0.087
-742.127	-63.141	0.206	0.086
-741.112	291.695	-0.169	0.309
-740.098	-107.273	-0.219	0.048
-739.083	73.015	0.155	-0.163
-738.069	156.834	0.180	0.251
-737.054	59.137	0.243	-0.240
-736.039	-1.413	-0.192	0.136
-735.025	-6.535	0.410	0.281
-734.010	606.685	-0.130	0.326
-732.996	-79.602	-0.267	-0.090
-731.981	-78.638	-0.245	-0.084
-730.966	-75.986	-0.193	0.069
-729.952	138.824	0.094	-0.124
-728.937	-82.487	-0.310	-0.101
-727.923	800.000	0.014	-0.043
-726.908	50.193	-0.193	-0.183
-725.894	-200.000	0.006	-0.307
-724.879	82.085	0.178	-0.194
-723.864	-200.000	-0.022	-0.348
-722.850	-133.405	0.172	0.022
-721.835	-68.202	-0.281	0.110
-720.821	108.902	-0.191	-0.229
-719.806	-6.620	0.179	0.122
-718.791	800.000	0.043	-0.126
-717.777	-46.259	-0.157	-0.078
-716.762	-15.678	0.376	-0.241
-715.748	211.850	-0.076	0.120
-714.733	139.003	-0.083	0.109
-713.718	426.284	-0.131	-0.284
-712.704	-38.063	-0.334	-0.178
-711.689	-75.998	-0.079	-0.028
-710.675	-119.143	0.315	0.055
-709.660	800.000	-0.048	0.165
-708.645	-25.743	-0.295	0.175
-707.631	-115.700	-0.183	-0.034
-706.616	56.660	-0.131	0.128
-705.602	-200.000	0.015	0.195
-704.587	-174.399	0.082	0.002
-703.572	-74.877	0.144	0.052
-702.558	-200.000	-0.019	-0.138
-701.543	201.401	0.152	-0.235
-700.529	62.584	-0.052	0.052
-699.514	-81.334	0.118	-0.039
-698.499	-200.000	0.001	-0.200
-697.485	-200.000	-0.006	0.032
-696.470	714.018	0.066	0.177
-695.456	80.564	-0.170	0.184
-694.441	327.579	-0.027	0.051
-693.426	-42.803	0.222	0.113
-692.412	27.612	0.374	0.316
-691.397	-37.279	0.225	-0.121
-690.383	-200.000	-0.015	0.241
-689.368	-78.107	0.100	0.034
-688.354	176.177	0.194	-0.283
-687.339	-147.155	0.133	0.011
-686.324	-6.457	0.250	-0.171
-685.310	-200.000	0.028	-0.201
-684.295	-26.984	0.175	-0.102
-683.281	314.616	-0.111	-0.210
-682.266	-39.474	-0.109	0.057
-681.251	-115.181	-0.560	0.106
-680.237	-174.672	-0.078	0.002
-679.222	-39.021	-0.269	-0.142
-678.208	-15.384	-0.225	-0.144
-677.193	-133.901	-0.083	-0.010
-676.178	-200.000	-0.018	-0.119
-675.164	-103.563	-0.180	-0.042
-674.149	-200.000	-0.009	0.050
-673.135	98.628	-0.188	0.217
-672.120	-11.369	-0.162	0.107
-671.105	-51.133	-0.261	0.123
-670.091	518.473	-0.087	-0.205
-669.076	800.000	-0.078	0.271
-668.062	142.425	0.113	-0.151
-667.047	-111.758	-0.403	-0.082
-666.032	-147.417	0.189	-0.016
-665.018	-200.000	-0.056	0.270
-664.003	160.074	0.104	0.146
-662.989	-200.000	-0.012	-0.139
-661.974	-200.000	0.026	-0.197
-660.959	299.461	0.072	0.133
-659.945	97.266	-0.082	-0.094
-658.930	800.000	-0.035	-0.101
-657.916	36.321	0.081	-0.072
-656.901	39.423	-0.149	0.134
-655.886	-90.681	-0.402	-0.116
-654.872	-200.000	-0.034	-0.153
-653.857	-29.835	-0.148	-0.084
-652.843	31.312	-0.286	0.246
-651.828	-114.368	0.091	0.018
-650.814	199.436	-0.154	0.237
-649.799	-182.675	0.390	0.007
-648.784	-200.000	-0.010	-0.321
-647.770	-81.669	-0.199	-0.066
-646.755	-104.112	0.216	0.050
-645.741	800.000	-0.111	-0.351
-644.726	-200.000	-0.007	-0.451
-643.711	115.693	-0.123	-0.151
-642.697	192.759	0.059	-0.089
-641.682	800.000	0.101	0.349
-640.668	-132.867	-0.131	0.017
-639.653	-5.932	-0.151	0.103
-638.638	-59.739	0.112	0.048
-637.624	-169.888	-0.186	-0.007
-636.609	-30.055	0.156	-0.089
-635.595	-200.000	-0.016	-0.265
-634.580	-200.000	0.023	-0.239
-633.565	-200.000	-0.009	-0.450
-632.551	278.572	0.018	-0.032
-631.536	-200.000	-0.007	0.143
-630.522	-138.649	-0.277	0.030
-629.507	-49.128	-0.285	-0.136
-628.492	-157.465	0.221	0.013
-627.478	800.000	-0.061	0.184
-626.463	206.545	-0.175	-0.272
-625.449	42.794	-0.197	-0.180
-624.434	132.170	-0.110	-0.142
-623.419	-3.497	-0.401	-0.280
-622.405	262.401	-0.209	-0.364
-621.390	-200.000	-0.046	-0.511
-620.376	189.538	-0.162	-0.243
-619.361	214.110	-0.012	0.018
-618.346	-200.000	0.000	0.220
-617.332	-36.237	-0.247	-0.133
-616.317	-132.419	0.058	0.008
-615.303	189.477	0.095	-0.143
-614.288	20.023	0.129	-0.104
-613.273	-73.083	-0.163	-0.060
-612.259	-154.763	-0.185	0.012
-611.244	42.003	-0.286	-0.259
-610.230	-86.048	0.172	-0.053
-609.215	-9.346	0.171	-0.114
-608.201	207.838	-0.161	-0.251
-607.186	-91.701	0.298	0.085
-606.171	-57.006	-0.237	-0.105
-605.157	-42.844	0.200	-0.102
-604.142	-13.075	-0.158	0.103
-603.128	106.240	0.135	-0.160
-602.113	-200.000	0.003	-0.227
-601.098	-105.623	-0.086	0.019
-600.084	564.395	0.083	0.202
-599.069	-200.000	-0.013	-0.093
-598.055	244.045	0.213	-0.357
-597.040	623.418	-0.147	-0.371
-596.025	37.404	-0.367	-0.326
-595.011	-200.000	0.008	-0.173
-593.996	-112.275	0.049	0.010
-592.982	-200.000	-0.029	-0.258
-591.967	6.271	-0.261	0.194
-590.952	-200.000	-0.065	0.319
-589.938	-200.000	0.013	-0.254
-588.923	304.299	-0.162	-0.301
-587.909	-93.716	0.306	-0.084
-586.894	321.694	-0.178	0.340
-585.879	-200.000	0.053	-0.271
-584.865	510.142	0.086	0.199
-583.850	-200.000	0.061	-0.362
-582.836	-25.728	0.147	0.087
-581.821	800.000	0.075	0.221
-580.806	5.515	-0.077	-0.057
-579.792	-12.283	-0.238	-0.156
-578.777	149.546	0.113	-0.153
-577.763	-94.391	-0.321	0.088
-576.748	-108.255	0.033	-0.007
-575.733	800.000	0.054	0.163
-574.719	181.209	-0.280	-0.411
-573.704	800.000	-0.075	0.317
-572.690	-110.415	0.196	-0.041
-571.675	-200.000	0.044	-0.213
-570.661	-179.800	0.213	0.005
-569.646	-200.000	0.009	0.161
-568.631	-68.507	0.198	-0.077
-567.617	-114.505	-0.212	0.041
-566.602	-23.604	-0.335	0.201
-565.588	53.491	-0.111	0.106
-564.573	-200.000	0.007	-0.152
-563.558	48.318	-0.014	0.013
-562.544	-99.795	-0.277	-0.069
-561.529	-143.666	-0.153	0.014
-560.515	-77.952	0.167	-0.058
-559.500	-107.942	-0.472	0.102
-558.485	203.313	-0.048	0.075
-557.471	9.375	0.349	0.264
-556.456	-200.000	0.045	-0.369
-555.442	325.022	0.025	-0.047
-554.427	800.000	-0.041	0.126
-553.412	-120.548	-0.292	0.049
-552.398	-10.417	-0.212	0.140
-551.383	344.305	0.181	-0.355
-550.369	29.286	0.200	-0.169
-549.354	545.425	-0.148	0.354
-548.339	-42.972	-0.050	-0.025
-547.325	-63.855	-0.381	-0.156
-546.310	-17.651	0.148	-0.093
-545.296	-100.151	-0.314	0.078
-544.281	-200.000	0.014	0.075
-543.266	-50.131	-0.114	-0.054
-542.252	105.751	0.088	-0.103
-541.237	-4.016	-0.131	0.091
-540.223	-135.344	-0.079	0.009
-539.208	800.000	-0.028	0.114
-538.193	-92.503	-0.108	-0.030
-537.179	102.235	-0.193	0.225
-536.164	-35.973	-0.141	0.076
-535.150	19.982	0.405	-0.326
-534.135	103.359	-0.215	-0.252
-533.121	445.199	-0.062	-0.136
-532.106	-200.000	0.012	-0.116
-531.091	-171.337	0.149	0.005
-530.077	251.157	-0.022	-0.037
-529.062	-200.000	-0.020	-0.369
-528.048	800.000	-0.128	-0.530
-527.033	-52.758	-0.099	0.046
-526.018	238.904	0.032	0.052
-525.004	-200.000	-0.003	-0.280
-523.989	-84.015	-0.469	-0.149
-522.975	-79.501	-0.056	0.019
-521.960	56.391	0.182	-0.176
-520.945	-67.193	-0.087	0.034
-519.931	800.000	0.031	-0.101
-518.916	266.064	-0.164	-0.285
-517.902	-35.816	0.297	0.160
-516.887	-122.609	-0.503	-0.081
-515.872	-4.404	0.289	-0.199
-514.858	-24.026	-0.349	-0.208
-513.843	-112.057	0.216	0.043
-512.829	800.000	0.030	0.102
-511.814	-200.000	0.006	0.133
-510.799	16.298	0.105	0.082
-509.785	-98.176	0.257	0.066
-508.770	-144.991	-0.089	0.008
-507.756	-176.186	0.199	-0.005
-506.741	426.543	0.054	-0.117
-505.726	-5.295	-0.102	0.070
-504.712	260.636	0.157	-0.271
-503.697	21.694	0.158	-0.129
-502.683	-17.143	0.241	-0.152
-501.668	449.530	0.050	0.109
-500.653	169.880	-0.230	0.328
-499.639	673.898	0.064	0.165
-498.624	77.578	0.081	0.086
-497.610	284.112	0.105	-0.188
-496.595	726.955	-0.017	0.044
-495.581	10.184	0.109	0.083
-494.566	346.333	0.111	-0.218
-493.551	247.218	0.161	-0.272
-492.537	-172.700	0.321	0.010
-491.522	-200.000	-0.016	-0.102
-490.508	-200.000	-0.054	0.460
-489.493	-62.783	0.142	-0.059
-488.478	115.580	-0.116	0.142
-487.464	-200.000	0.051	-0.254
-486.449	800.000	0.018	-0.050
-485.435	-2.236	0.254	0.178
-484.420	-200.000	0.007	0.164
-483.405	529.283	-0.051	0.121
-482.391	-200.000	-0.014	0.074
-481.376	520.469	-0.087	-0.202
-480.362	-89.796	-0.202	-0.059
-479.347	-83.602	0.110	-0.035
-478.332	-200.000	0.009	-0.094
-477.318	800.000	-0.059	0.168
-476.303	79.634	-0.047	0.051
-475.289	-136.521	-0.109	-0.013
-474.274	103.036	-0.116	0.135
-473.259	10.503	0.308	0.234
-472.245	52.055	0.253	-0.240
-471.230	-200.000	0.014	0.118
-470.216	125.042	-0.218	0.273
-469.201	800.000	0.055	0.156
-468.186	20.673	0.172	0.139
-467.172	199.522	0.024	0.037
-466.157	133.213	0.053	0.068
-465.143	323.119	0.107	0.202
-464.128	-130.744	0.173	-0.023
-463.113	61.875	-0.062	-0.061
-462.099	439.742	0.149	0.325
-461.084	800.000	0.036	0.140
-460.070	-169.519	0.100	-0.004
-459.055	-200.000	0.051	0.378
-458.040	11.156	0.213	0.162
-457.026	-102.259	0.152	-0.036
-456.011	13.073	0.255	-0.197
-454.997	-130.052	0.151	-0.020
-453.982	424.999	-0.076	0.162
-452.968	-90.619	0.195	0.056
-451.953	-200.000	0.069	-0.310
-450.938	351.864	-0.160	-0.316
-449.924	-91.646	0.083	0.024
-448.909	-154.048	0.309	0.021
-447.895	337.637	-0.080	0.155
-446.880	-200.000	0.077	0.350
-445.865	-125.351	0.346	0.052
-444.851	800.000	0.025	0.077
-443.836	18.251	0.325	0.258
-442.822	375.502	0.163	-0.331
-441.807	143.046	0.228	0.301
-440.792	355.804	-0.094	-0.186
-439.778	-200.000	0.034	-0.156
-438.763	-200.000	0.005	-0.267
-437.749	-149.612	0.167	-0.013
-436.734	-131.594	0.061	0.008
-435.719	-200.000	0.002	0.098
-434.705	-32.537	0.132	-0.073
-433.690	-115.602	0.139	-0.026
-432.676	-89.171	-0.251	0.074
-431.661	800.000	-0.052	0.199
-430.646	-200.000	-0.037	-0.169
-429.632	20.852	-0.175	0.141
-428.617	-149.910	0.262	-0.020
-427.603	-21.154	0.115	-0.070
-426.588	-62.232	0.135	-0.056
-425.573	115.844	0.176	-0.214
-424.559	97.191	0.156	-0.178
-423.544	487.388	0.028	0.063
-422.530	-43.183	-0.105	-0.053
-421.515	-200.000	-0.002	0.177
-420.500	-109.569	-0.112	0.023
-419.486	-128.210	0.324	0.046
-418.471	-110.192	-0.226	-0.047
-417.457	800.000	-0.094	0.333
-416.442	-21.723	0.155	-0.094
-415.428	-106.671	0.092	-0.020
-414.413	800.000	-0.038	-0.163
-413.398	326.189	-0.039	-0.075
-412.384	-174.206	-0.426	-0.012
-411.369	-134.106	0.137	0.017
-410.355	-200.000	0.051	0.469
-409.340	-11.155	-0.118	0.077
-408.325	-200.000	-0.024	0.147
-407.311	-91.360	0.220	0.063
-406.296	255.331	-0.095	0.162
-405.282	172.822	0.164	-0.235
-404.267	98.694	-0.144	-0.165
-403.252	467.759	0.097	0.216
-402.238	85.181	0.186	0.202
-401.223	800.000	-0.096	-0.271
-400.209	-200.000	-0.030	0.191
-399.194	239.109	0.096	0.159
-398.179	-134.710	0.216	-0.026
-397.165	-47.020	-0.193	-0.093
-396.150	-97.442	-0.273	0.071
-395.136	-200.000	-0.034	0.235
-394.121	44.581	-0.227	-0.207
-393.106	-200.000	-0.019	-0.313
-392.092	265.561	-0.049	-0.084
-391.077	59.187	-0.174	0.170
-390.063	-49.328	0.260	0.123
-389.048	-200.000	-0.055	-0.425
-388.033	800.000	-0.091	-0.251
-387.019	-147.736	-0.149	0.012
-386.004	-5.325	-0.300	-0.204
-384.990	-91.881	-0.132	-0.037
-383.975	31.794	-0.179	-0.153
-382.960	-67.632	-0.244	0.095
-381.946	-147.585	0.369	0.031
-380.931	233.170	0.079	0.129
-379.917	158.172	-0.196	-0.270
-378.902	132.045	0.304	-0.389
-377.888	-200.000	0.012	-0.123
-376.873	-200.000	0.050	0.263
-375.858	-24.285	-0.080	-0.048
-374.844	-6.917	-0.244	0.164
-373.829	0.688	-0.162	-0.115
-372.815	430.249	-0.068	-0.146
-371.800	-38.593	0.101	0.053
-370.785	267.846	0.152	0.265
-369.771	9.875	0.201	0.151
-368.756	73.900	-0.185	-0.192
-367.742	-13.488	-0.175	-0.112
-366.727	-10.059	0.118	0.078
-365.712	20.384	-0.261	-0.209
-364.698	-200.000	0.035	0.285
-363.683	165.686	0.145	0.203
-362.669	-26.977	0.177	0.103
-361.654	-200.000	0.005	-0.085
-360.639	7.686	-0.059	-0.044
-359.625	64.395	0.224	-0.224
-358.610	-91.592	0.264	-0.075
-357.596	-92.851	0.146	0.040
-356.581	11.273	-0.130	-0.099
-355.566	192.727	0.185	0.276
-354.552	-200.000	0.011	0.401
-353.537	-200.000	0.041	0.316
-352.523	800.000	-0.028	0.116
-351.508	-1.387	0.149	0.104
-350.493	160.411	0.067	-0.092
-349.479	90.998	0.090	0.100
-348.464	-123.224	-0.176	0.028
-347.450	-134.740	0.445	0.054
-346.435	29.865	-0.122	-0.103
-345.420	-200.000	0.019	-0.128
-344.406	-80.253	-0.091	-0.030
-343.391	37.581	-0.262	0.230
-342.377	-118.001	0.130	0.023
-341.362	-200.000	0.014	0.343
-340.348	-122.801	-0.213	-0.034
-339.333	-77.637	0.224	0.077
-338.318	238.749	-0.092	-0.151
-337.304	306.777	-0.087	-0.160
-336.289	175.702	-0.143	0.205
-335.275	140.279	0.085	-0.112
-334.260	394.852	0.101	-0.209
-333.245	-66.442	-0.142	-0.056
-332.231	187.483	0.048	0.070
-331.216	-134.788	-0.131	-0.016
-330.202	108.818	-0.290	0.344
-329.187	25.363	0.293	0.241
-328.172	271.119	-0.081	0.142
-327.158	-200.000	-0.007	-0.069
-326.143	-28.335	-0.111	-0.064
-325.129	-141.428	-0.108	-0.011
-324.114	-200.000	-0.023	0.242
-323.099	231.618	-0.103	-0.167
-322.085	145.231	-0.138	-0.183
-321.070	-181.680	0.241	-0.005
-320.056	-200.000	-0.031	0.185
-319.041	-164.019	0.316	0.015
-318.026	-200.000	0.035	-0.413
-317.012	-126.356	-0.090	0.013
-315.997	334.873	0.106	-0.202
-314.983	136.000	-0.045	0.058
-313.968	-98.463	-0.152	0.039
-312.953	-64.084	-0.238	0.096
-311.939	-91.937	-0.134	-0.038
-310.924	-102.681	0.120	0.028
-309.910	800.000	-0.027	-0.081
-308.895	122.409	0.221	0.274
-307.880	71.502	-0.042	-0.043
-306.866	800.000	0.053	-0.229
-305.851	-155.165	-0.256	-0.017
-304.837	19.818	0.226	0.180
-303.822	800.000	0.048	0.168
-302.807	-39.546	-0.253	0.131
-301.793	0.613	0.157	0.111
-300.778	-200.000	-0.071	0.321
-299.764	5.403	-0.139	0.102
-298.749	77.967	-0.042	-0.044
-297.735	-200.000	-0.008	0.103
-296.720	422.427	-0.202	0.428
-295.705	24.884	0.053	-0.043
-294.691	-86.569	0.185	-0.056
-293.676	-78.159	0.250	0.085
-292.662	-58.165	-0.136	0.058
-291.647	71.847	0.048	-0.050
-290.632	32.851	-0.163	0.140
-289.618	-200.000	-0.005	-0.065
-288.603	-185.717	0.199	0.003
-287.589	279.983	0.137	0.243
-286.574	382.652	0.084	0.171
-285.559	-105.330	-0.212	-0.048
-284.545	632.315	0.072	-0.179
-283.530	-111.913	0.237	0.047
-282.516	-61.971	-0.076	0.032
-281.501	0.793	-0.082	-0.058
-280.486	-89.675	0.286	0.083
-279.472	-127.844	-0.293	0.042
-278.457	14.974	0.150	0.116
-277.443	800.000	-0.063	-0.177
-276.428	-73.847	-0.303	0.109
-275.413	-72.612	0.152	0.055
-274.399	234.145	-0.082	0.134
-273.384	-200.000	0.035	0.185
-272.370	-11.901	0.062	0.040
-271.355	-200.000	-0.009	-0.099
-270.340	-104.858	-0.230	-0.052
-269.326	800.000	0.010	0.033
-268.311	-17.538	-0.284	-0.176
-267.297	-108.907	0.369	-0.078
-266.282	-200.000	0.038	-0.217
-265.267	-6.848	-0.221	-0.148
-264.253	-108.380	-0.313	-0.067
-263.238	19.334	0.336	-0.267
-262.224	78.827	0.020	-0.021
-261.209	44.595	-0.209	-0.190
-260.195	-200.000	0.029	-0.156
-259.180	-200.000	-0.028	0.474
-258.165	800.000	0.065	0.223
-257.151	1.002	0.171	-0.121
-256.136	3.949	-0.076	-0.055
-255.122	-129.469	0.318	0.044
-254.107	-200.000	-0.018	0.147
-253.092	58.148	0.121	-0.117
-252.078	212.512	-0.217	0.338
-251.063	588.374	-0.038	0.092
-250.049	174.723	-0.164	0.234
-249.034	-200.000	0.012	-0.331
-248.019	-200.000	-0.029	0.384
-247.005	-74.840	-0.360	0.127
-245.990	10.794	-0.171	-0.129
-244.976	354.681	0.005	-0.009
-243.961	287.098	-0.133	0.238
-242.946	-108.090	0.183	0.039
-241.932	306.908	-0.018	0.034
-240.917	-150.750	0.316	0.024
-239.903	42.649	0.360	0.323
-238.888	-142.678	0.004	0.000
-237.873	-166.086	0.248	-0.010
-236.859	800.000	-0.072	-0.218
-235.844	566.589	0.067	-0.160
-234.830	340.006	0.195	0.375
-233.815	47.182	0.079	0.072
-232.800	-200.000	-0.067	0.320
-231.786	800.000	0.058	-0.206
-230.771	-131.792	-0.167	-0.022
-229.757	-71.655	-0.066	-0.024
-228.742	800.000	0.077	0.274
-227.727	800.000	0.063	0.195
-226.713	151.561	-0.072	-0.097
-225.698	-200.000	0.032	-0.194
-224.684	721.162	0.158	0.414
-223.669	574.127	-0.034	0.081
-222.655	229.252	-0.105	-0.170
-221.640	-93.725	-0.190	0.052
-220.625	-200.000	0.042	0.267
-219.611	373.881	0.053	0.107
-218.596	-82.923	-0.203	0.065
-217.582	-200.000	-0.007	0.181
-216.567	224.041	0.067	-0.107
-215.552	58.123	0.269	-0.259
-214.538	800.000	-0.089	-0.350
-213.523	-120.848	-0.079	0.013
-212.509	-43.130	-0.105	-0.052
-211.494	-33.669	-0.318	0.173
-210.479	86.860	0.095	0.103
-209.465	-67.141	-0.108	-0.042
-208.450	-148.185	-0.027	0.002
-207.436	-200.000	-0.022	0.276
-206.421	-57.304	0.306	-0.133
-205.406	176.440	-0.017	-0.024
-204.392	13.914	-0.035	0.027
-203.377	-133.015	-0.313	-0.039
-202.363	-94.959	0.446	0.119
-201.348	800.000	0.040	0.159
-200.333	60.553	0.309	-0.302
-199.319	29.295	0.204	0.170
-198.304	12.882	-0.229	0.175
-197.290	66.792	0.275	0.275
-196.275	-200.000	-0.002	-0.059
-195.260	193.007	0.059	0.087
-194.246	149.492	-0.139	0.185
-193.231	-5.937	-0.303	-0.204
-192.217	-169.984	0.349	0.012
-191.202	-95.857	0.230	0.060
-190.187	59.719	-0.143	-0.139
-189.173	18.912	-0.088	-0.070
-188.158	-200.000	-0.031	-0.273
-187.144	-55.574	-0.088	-0.039
-186.129	413.176	-0.056	-0.116
-185.114	-47.108	-0.171	0.082
-184.100	-50.013	0.349	0.163
-183.085	556.380	0.110	0.260
-182.071	318.214	-0.127	0.236
-181.056	607.941	0.129	0.316
-180.042	-200.000	0.018	0.141
-179.027	-178.935	0.094	-0.002
-178.012	800.000	0.076	0.266
-176.998	182.322	-0.070	0.102
-175.983	-200.000	-0.004	-0.346
-174.969	247.856	-0.138	0.230
-173.954	695.048	-0.063	0.162
-172.939	-83.174	-0.410	-0.130
-171.925	-127.197	0.190	-0.027
-170.910	-98.279	0.277	0.070
-169.896	603.002	0.073	-0.179
-168.881	326.311	0.066	-0.124
-167.866	-200.000	-0.020	0.141
-166.852	45.113	-0.080	0.073
-165.837	-38.043	-0.229	0.119
-164.823	143.094	-0.092	0.120
-163.808	-71.245	0.136	0.050
-162.793	30.185	0.048	0.040
-161.779	443.897	-0.067	-0.144
-160.764	-116.121	-0.045	0.008
-159.750	-119.621	0.047	0.008
-158.735	-68.928	0.257	-0.098
-157.720	-93.978	0.242	-0.065
-156.706	-118.950	-0.264	0.046
-155.691	-4.241	0.260	0.177
-154.677	328.207	-0.208	0.392
-153.662	-92.642	-0.289	-0.080
-152.647	-200.000	-0.002	-0.074
-151.633	-200.000	0.020	0.296
-150.618	73.376	0.297	0.305
-149.604	105.250	-0.203	-0.235
-148.589	497.712	-0.073	-0.165
-147.574	-29.011	0.261	0.147
-146.560	-157.577	0.224	0.013
-145.545	800.000	0.007	0.025
-144.531	473.918	0.101	-0.224
-143.516	11.541	-0.191	-0.144
-142.502	689.974	0.080	0.205
-141.487	-164.668	-0.212	0.009
-140.472	158.825	0.189	-0.258
-139.458	-200.000	0.002	0.387
-138.443	-200.000	0.005	0.170
-137.429	486.632	-0.015	-0.034
-136.414	358.605	-0.024	-0.048
-135.399	632.897	-0.094	0.233
-134.385	-155.992	-0.300	0.019
-133.370	44.984	0.068	0.061
-132.356	496.351	-0.081	-0.182
-131.341	400.454	0.255	0.526
-130.326	542.492	-0.102	0.239
-129.312	186.479	0.033	0.048
-128.297	92.466	0.132	0.146
-127.283	574.860	-0.069	-0.166
-126.268	-200.000	0.054	-0.316
-125.253	800.000	0.125	0.402
-124.239	800.000	0.055	0.167
-123.224	800.000	-0.037	0.129
-122.210	-83.253	-0.157	0.049
-121.195	-110.672	-0.095	0.019
