DTS Sentinel unit serial number:	SN413079Multiplexer serial number:	ORYXHardware model number:	OX4-SRSoftware version number:	ORYX F/W v4.00 Oryx Data Collector v3.7.2.0data status	okinstallation	princeton_trtdifferential loss correction	single-endedforward channel	channel 2reverse channel	N/Adate	2019/09/11time	13:49:11forward acquisition time	60.00reverse acquisition time	0.00gamma	496.2192k internal	0.2293k external	0.2293temperature offset calibration	1.0004default loss term (dB/km)	0.3790temperature slope calibration	1.0000multiplexer offset coefficient	1.0000multiplexer slope coefficient	1.0000fibre end	0.00T internal ref (°C)	41.92T ext. ref 1 (°C)	0.85T ext. ref 2 (°C)	36.20length (m)	temperature (°C)	Stokes	anti-Stokes-747.200	323.784	0.090	-0.176
-746.185	-39.567	-0.319	-0.171
-745.171	100.192	0.191	-0.226
-744.156	1.280	-0.201	0.148
-743.142	59.435	0.164	-0.166
-742.127	-133.392	0.058	0.007
-741.112	-200.000	-0.018	0.170
-740.098	-200.000	0.006	0.381
-739.083	-132.209	0.034	-0.004
-738.069	800.000	0.018	-0.063
-737.054	-94.741	0.350	0.097
-736.039	-97.779	-0.145	0.038
-735.025	58.900	0.153	0.154
-734.010	128.190	0.097	-0.126
-732.996	92.413	-0.284	-0.327
-731.981	11.703	-0.167	0.131
-730.966	-37.600	-0.218	-0.119
-729.952	128.993	0.150	-0.195
-728.937	215.002	0.222	-0.359
-727.923	-200.000	0.035	-0.209
-726.908	-11.586	0.200	-0.134
-725.894	-200.000	-0.020	-0.226
-724.879	-93.001	-0.057	0.016
-723.864	41.817	-0.304	0.282
-722.850	-77.095	0.223	0.079
-721.835	-139.801	-0.040	-0.004
-720.821	800.000	-0.044	-0.150
-719.806	-67.689	0.200	-0.080
-718.791	-99.900	0.110	0.028
-717.777	167.777	0.076	0.111
-716.762	188.153	-0.169	0.258
-715.748	-120.215	0.265	-0.046
-714.733	2.486	0.097	-0.072
-713.718	89.583	-0.066	-0.075
-712.704	-200.000	0.047	-0.288
-711.689	491.216	0.055	0.128
-710.675	260.100	-0.144	0.255
-709.660	-200.000	-0.002	0.126
-708.645	-92.362	0.196	0.056
-707.631	-113.723	0.590	0.118
-706.616	800.000	0.018	0.075
-705.602	-79.996	0.096	-0.033
-704.587	-200.000	-0.025	0.150
-703.572	-200.000	-0.030	0.415
-702.558	800.000	0.038	-0.162
-701.543	-5.932	0.297	0.207
-700.529	19.893	0.090	0.074
-699.514	-101.298	0.128	-0.032
-698.499	-113.993	-0.258	-0.051
-697.485	-200.000	0.042	0.240
-696.470	338.682	-0.090	-0.178
-695.456	131.041	0.036	0.047
-694.441	288.149	0.193	-0.358
-693.426	-200.000	0.005	-0.147
-692.412	-50.329	-0.236	0.114
-691.397	-72.008	0.236	-0.090
-690.383	-12.821	0.039	-0.026
-689.368	-126.049	-0.114	-0.018
-688.354	-110.079	0.375	-0.080
-687.339	493.613	0.090	0.212
-686.324	-200.000	0.023	-0.130
-685.310	565.798	0.121	-0.300
-684.295	85.460	-0.173	-0.194
-683.281	259.120	0.225	-0.396
-682.266	3.192	0.266	0.198
-681.251	295.383	0.228	0.427
-680.237	70.303	0.168	0.177
-679.222	269.916	0.102	0.184
-678.208	-109.237	0.091	-0.020
-677.193	-46.959	0.120	0.060
-676.178	-19.863	0.233	-0.147
-675.164	436.832	-0.072	-0.161
-674.149	-29.592	-0.243	-0.141
-673.135	203.315	0.108	0.171
-672.120	-200.000	0.033	-0.184
-671.105	-81.881	-0.283	-0.095
-670.091	-162.729	-0.109	0.005
-669.076	10.503	0.264	-0.205
-668.062	-118.945	-0.173	-0.031
-667.047	800.000	-0.041	0.181
-666.032	800.000	-0.038	0.129
-665.018	-83.796	-0.168	-0.055
-664.003	139.538	-0.034	-0.045
-662.989	-118.709	0.195	0.035
-661.974	-200.000	0.018	-0.129
-660.959	-47.644	-0.171	0.085
-659.945	65.129	-0.030	-0.031
-658.930	-200.000	-0.017	-0.286
-657.916	6.009	-0.157	-0.119
-656.901	233.927	-0.147	0.246
-655.886	-11.465	-0.128	-0.086
-654.872	-186.652	-0.052	-0.001
-653.857	194.639	0.130	0.201
-652.843	-115.945	-0.280	-0.053
-651.828	83.156	0.275	-0.305
-650.814	-200.000	0.016	0.184
-649.799	-55.333	-0.247	-0.113
-648.784	328.107	0.170	-0.333
-647.770	489.404	-0.067	-0.157
-646.755	556.780	0.072	0.177
-645.741	-67.468	-0.234	0.094
-644.726	-2.344	-0.278	0.199
-643.711	211.609	-0.097	0.155
-642.697	-156.296	-0.207	-0.013
-641.682	-130.772	0.030	0.004
-640.668	-23.400	-0.145	-0.089
-639.653	-33.977	-0.132	-0.074
-638.638	-200.000	0.047	0.245
-637.624	-200.000	-0.015	-0.277
-636.609	284.442	-0.036	0.066
-635.595	-91.482	0.395	-0.115
-634.580	711.334	-0.045	0.121
-633.565	-148.818	-0.196	-0.016
-632.551	800.000	-0.076	-0.254
-631.536	86.301	0.139	0.156
-630.522	800.000	-0.057	0.190
-629.507	800.000	-0.064	0.225
-628.492	-200.000	0.003	-0.178
-627.478	277.020	0.082	-0.149
-626.463	102.388	-0.025	-0.030
-625.449	-80.981	0.215	-0.073
-624.434	35.674	0.103	0.093
-623.419	22.567	-0.453	-0.378
-622.405	-76.582	-0.068	-0.024
-621.390	233.894	-0.064	0.107
-620.376	306.749	-0.048	0.090
-619.361	800.000	0.078	-0.250
-618.346	-85.078	-0.166	-0.053
-617.332	-200.000	-0.036	-0.218
-616.317	800.000	-0.087	0.282
-615.303	800.000	0.030	0.131
-614.288	-20.013	-0.152	-0.095
-613.273	-200.000	-0.032	0.170
-612.259	-77.519	0.120	0.042
-611.244	-95.965	-0.378	-0.102
-610.230	453.501	-0.009	0.019
-609.215	-200.000	-0.011	0.154
-608.201	-52.591	-0.352	0.165
-607.186	796.766	0.022	0.062
-606.171	800.000	0.066	-0.252
-605.157	159.687	0.086	0.122
-604.142	-76.074	-0.237	-0.085
-603.128	-200.000	0.026	0.168
-602.113	-91.566	-0.207	-0.060
-601.098	-122.314	0.211	-0.035
-600.084	-64.280	-0.146	-0.061
-599.069	-200.000	0.016	0.075
-598.055	10.776	-0.105	-0.082
-597.040	-29.996	0.105	0.061
-596.025	1.403	-0.114	-0.083
-595.011	-29.002	0.109	0.064
-593.996	800.000	0.092	0.292
-592.982	92.134	0.020	0.023
-591.967	-43.252	0.194	0.100
-590.952	-130.100	0.060	-0.008
-589.938	32.440	-0.234	0.206
-588.923	64.073	-0.075	0.077
-587.909	76.942	0.146	-0.158
-586.894	-99.009	0.161	0.041
-585.879	416.380	0.033	0.071
-584.865	800.000	0.071	-0.231
-583.850	800.000	0.088	0.266
-582.836	-28.902	-0.266	0.156
-581.821	-119.962	0.436	-0.076
-580.806	-172.855	0.205	0.006
-579.792	-200.000	0.070	-0.314
-578.777	698.357	-0.019	-0.052
-577.763	800.000	0.033	-0.143
-576.748	19.768	-0.198	0.162
-575.733	-200.000	-0.044	0.206
-574.719	71.971	-0.123	0.130
-573.704	3.694	-0.149	-0.110
-572.690	-22.153	-0.261	-0.161
-571.675	-106.635	-0.365	-0.083
-570.661	-108.667	0.328	0.071
-569.646	-22.242	-0.371	0.228
-568.631	800.000	-0.012	0.037
-567.617	-200.000	-0.022	0.464
-566.602	-200.000	-0.001	0.214
-565.588	800.000	0.037	0.134
-564.573	-58.627	-0.127	-0.056
-563.558	33.244	-0.256	-0.226
-562.544	-200.000	0.022	-0.276
-561.529	-40.435	-0.078	0.041
-560.515	-112.581	-0.266	-0.054
-559.500	14.070	0.184	-0.145
-558.485	-55.338	-0.126	-0.057
-557.471	11.641	-0.143	-0.111
-556.456	-25.122	0.065	-0.039
-555.442	-200.000	-0.012	-0.241
-554.427	800.000	0.092	-0.270
-553.412	185.702	-0.081	0.122
-552.398	206.914	-0.130	0.206
-551.383	800.000	0.029	-0.120
-550.369	-126.557	0.106	-0.016
-549.354	144.063	-0.232	0.315
-548.339	800.000	0.093	0.307
-547.325	-41.018	0.083	0.044
-546.310	-44.608	0.107	0.054
-545.296	32.200	0.095	0.083
-544.281	-98.561	0.187	-0.048
-543.266	38.440	0.236	-0.213
-542.252	75.396	-0.124	0.133
-541.237	156.507	-0.144	0.202
-540.223	26.348	0.204	0.173
-539.208	-200.000	-0.028	0.212
-538.193	-82.269	-0.166	0.055
-537.179	-63.978	-0.301	-0.125
-536.164	363.255	-0.120	0.245
-535.150	-51.823	-0.093	-0.044
-534.135	800.000	0.047	0.146
-533.121	547.328	-0.045	0.110
-532.106	-23.630	-0.207	0.126
-531.091	210.752	0.143	-0.228
-530.077	7.020	-0.150	0.113
-529.062	-100.219	-0.088	0.022
-528.048	9.452	0.080	-0.062
-527.033	260.395	-0.106	0.185
-526.018	115.799	0.075	-0.093
-525.004	1.965	0.281	-0.206
-523.989	800.000	0.107	0.307
-522.975	-200.000	0.016	0.145
-521.960	134.814	0.017	0.022
-520.945	19.827	-0.181	0.148
-519.931	-200.000	-0.055	-0.310
-518.916	-94.438	-0.336	-0.093
-517.902	75.653	-0.032	-0.034
-516.887	-60.435	0.139	0.060
-515.872	105.767	-0.166	-0.199
-514.858	-11.253	-0.294	0.196
-513.843	-31.854	0.144	-0.082
-512.829	-139.283	0.266	0.029
-511.814	-140.515	-0.176	-0.019
-510.799	-31.435	-0.053	0.030
-509.785	284.859	-0.177	-0.323
-508.770	-24.281	-0.481	-0.291
-507.756	800.000	-0.098	0.423
-506.741	40.806	0.089	-0.081
-505.726	-97.420	-0.202	0.053
-504.712	-200.000	0.014	-0.180
-503.697	344.525	0.090	-0.179
-502.683	-58.162	0.225	-0.099
-501.668	-34.164	-0.113	0.063
-500.653	-154.213	-0.331	-0.023
-499.639	119.429	-0.032	0.040
-498.624	-200.000	0.006	0.055
-497.610	-146.662	-0.340	-0.030
-496.595	800.000	0.041	-0.182
-495.581	41.659	-0.215	-0.197
-494.566	218.305	0.216	-0.349
-493.551	55.296	0.253	0.248
-492.537	-64.156	-0.210	0.087
-491.522	-67.283	0.202	-0.081
-490.508	8.379	0.107	0.082
-489.493	800.000	-0.060	0.173
-488.478	-200.000	-0.032	0.231
-487.464	-200.000	-0.019	-0.217
-486.449	800.000	-0.140	-0.409
-485.435	-10.061	-0.120	-0.081
-484.420	-74.644	0.019	-0.007
-483.405	-61.272	0.267	0.114
-482.391	231.207	0.120	-0.200
-481.376	709.524	0.046	0.122
-480.362	-131.156	-0.374	0.050
-479.347	-200.000	-0.020	0.118
-478.332	221.297	0.036	0.059
-477.318	-35.098	0.350	-0.193
-476.303	-129.398	0.103	-0.015
-475.289	394.066	0.046	0.097
-474.274	-81.741	-0.023	-0.008
-473.259	-200.000	0.057	-0.351
-472.245	-110.105	0.253	-0.054
-471.230	247.903	0.098	-0.168
-470.216	115.995	0.015	-0.019
-469.201	149.838	-0.100	-0.137
-468.186	-103.168	0.022	-0.005
-467.172	-157.268	0.333	0.020
-466.157	47.559	0.112	-0.105
-465.143	-95.465	-0.133	-0.036
-464.128	188.095	0.291	0.440
-463.113	800.000	-0.077	-0.249
-462.099	-200.000	0.007	-0.244
-461.084	-115.845	-0.098	-0.019
-460.070	-152.638	0.152	-0.011
-459.055	20.264	-0.099	-0.081
-458.040	-200.000	-0.044	0.212
-457.026	800.000	0.063	0.225
-456.011	-54.366	0.219	0.100
-454.997	800.000	0.026	0.114
-453.982	261.379	-0.203	-0.356
-452.968	800.000	-0.036	-0.130
-451.953	-132.098	-0.109	0.014
-450.938	201.569	0.050	0.079
-449.924	-200.000	-0.022	-0.162
-448.909	32.803	-0.181	0.159
-447.895	-136.616	-0.080	-0.009
-446.880	77.914	-0.125	0.134
-445.865	103.113	0.216	0.256
-444.851	-200.000	0.005	-0.109
-443.836	-151.565	0.125	-0.009
-442.822	-29.943	-0.302	-0.174
-441.807	489.109	0.114	-0.263
-440.792	-200.000	0.019	0.142
-439.778	-120.722	0.212	-0.036
-438.763	-132.510	-0.065	-0.008
-437.749	-151.648	0.064	-0.005
-436.734	545.869	0.170	-0.410
-435.719	-140.581	0.277	0.029
-434.705	32.075	0.024	0.021
-433.690	-200.000	0.013	-0.071
-432.676	35.042	0.062	-0.055
-431.661	-100.863	0.186	-0.046
-430.646	-90.487	-0.239	0.070
-429.632	408.086	0.075	0.160
-428.617	-136.967	0.578	-0.067
-427.603	800.000	0.023	0.083
-426.588	446.780	-0.015	-0.034
-425.573	800.000	0.039	-0.159
-424.559	-97.698	-0.130	0.034
-423.544	-176.125	0.184	0.005
-422.530	91.497	0.179	-0.203
-421.515	299.825	0.110	0.206
-420.500	-200.000	-0.033	0.163
-419.486	180.797	0.013	-0.019
-418.471	800.000	-0.079	-0.235
-417.457	157.641	0.257	0.359
-416.442	-69.028	0.277	0.108
-415.428	50.052	0.109	0.104
-414.413	133.688	0.115	-0.150
-413.398	800.000	0.042	-0.132
-412.384	-96.528	0.156	-0.042
-411.369	56.070	0.032	-0.032
-410.355	376.903	-0.064	-0.133
-409.340	-139.877	0.173	0.019
-408.325	-200.000	0.034	-0.171
-407.311	-200.000	-0.026	0.367
-406.296	800.000	0.097	0.368
-405.282	800.000	0.042	-0.136
-404.267	-200.000	0.005	-0.245
-403.252	-66.706	0.113	-0.045
-402.238	800.000	-0.066	-0.261
-401.223	48.867	-0.188	-0.178
-400.209	-200.000	0.006	0.188
-399.194	322.033	-0.027	0.052
-398.179	-142.361	-0.265	0.026
-397.165	-200.000	0.029	-0.147
-396.150	-200.000	-0.023	0.191
-395.136	800.000	0.025	-0.101
-394.121	-3.533	0.135	-0.095
-393.106	14.128	0.194	-0.153
-392.092	15.588	0.197	-0.156
-391.077	231.994	0.038	-0.063
-390.063	800.000	0.093	0.353
-389.048	-49.121	-0.093	0.045
-388.033	-151.926	-0.364	-0.027
-387.019	19.631	0.272	0.221
-386.004	-10.784	0.059	0.040
-384.990	171.578	-0.082	-0.119
-383.975	-161.197	0.019	0.001
-382.960	478.230	0.117	-0.267
-381.946	797.932	-0.077	-0.213
-380.931	-200.000	-0.046	0.459
-379.917	-86.148	0.149	0.046
-378.902	-79.900	-0.237	0.080
-377.888	-169.480	0.093	-0.003
-376.873	-79.185	-0.236	-0.081
-375.858	800.000	-0.066	-0.209
-374.844	199.791	0.114	-0.176
-373.829	-154.448	-0.072	0.005
-372.815	-72.720	0.126	0.047
-371.800	274.524	0.111	0.198
-370.785	118.034	0.049	0.060
-369.771	261.051	0.119	0.207
-368.756	-111.256	0.061	0.013
-367.742	-84.982	0.050	-0.016
-366.727	71.199	0.139	0.145
-365.712	138.877	-0.039	0.052
-364.698	-89.078	0.175	0.052
-363.683	800.000	-0.003	0.012
-362.669	747.654	0.048	0.131
-361.654	-123.552	-0.132	-0.021
-360.639	-200.000	0.247	-0.000
-359.625	-200.000	0.036	-0.236
-358.610	-200.000	-0.090	0.417
-357.596	-90.895	0.266	0.077
-356.581	250.216	-0.035	0.060
-355.566	-15.910	-0.110	0.070
-354.552	-132.759	-0.375	0.048
-353.537	-94.245	-0.332	0.092
-352.523	800.000	-0.108	0.306
-351.508	36.581	0.088	-0.078
-350.493	156.499	0.280	-0.390
-349.479	92.329	0.218	-0.247
-348.464	-13.637	-0.149	-0.097
-347.450	800.000	0.074	0.213
-346.435	-88.054	0.124	0.037
-345.420	800.000	-0.144	0.506
-344.406	-62.508	0.114	0.048
-343.391	-200.000	-0.008	-0.186
-342.377	800.000	-0.116	0.365
-341.362	800.000	-0.009	0.026
-340.348	-170.452	-0.169	-0.006
-339.333	4.533	-0.243	-0.180
-338.318	709.486	0.117	-0.312
-337.304	-49.111	0.310	0.149
-336.289	-173.406	-0.175	-0.005
-335.275	185.674	-0.125	0.186
-334.260	-200.000	0.031	-0.178
-333.245	-200.000	-0.008	-0.228
-332.231	387.668	-0.111	-0.232
-331.216	120.552	-0.218	0.273
-330.202	471.217	-0.181	-0.410
-329.187	47.495	0.107	0.100
-328.172	800.000	-0.073	-0.237
-327.158	800.000	0.011	0.035
-326.143	271.345	-0.063	0.112
-325.129	21.883	-0.091	-0.075
-324.114	-50.018	0.115	0.055
-323.099	800.000	-0.058	-0.175
-322.085	-39.740	0.033	0.017
-321.070	-200.000	-0.009	-0.081
-320.056	-19.300	-0.156	-0.097
-319.041	-200.000	0.024	-0.252
-318.026	-200.000	0.013	-0.140
-317.012	-67.641	0.128	0.050
-315.997	67.169	0.337	-0.346
-314.983	800.000	-0.042	-0.159
-313.968	-5.825	0.232	0.160
-312.953	-200.000	-0.015	0.160
-311.939	-150.925	-0.174	-0.013
-310.924	-16.765	-0.308	0.196
-309.910	-46.084	0.106	-0.052
-308.895	-200.000	0.037	0.294
-307.880	-200.000	-0.007	0.070
-306.866	-98.057	0.070	0.018
-305.851	456.236	-0.062	0.139
-304.837	25.753	-0.201	0.169
-303.822	-200.000	-0.003	0.125
-302.807	559.457	-0.098	0.237
-301.793	800.000	0.040	0.144
-300.778	-200.000	0.050	-0.344
-299.764	-200.000	0.007	-0.169
-298.749	800.000	0.032	0.095
-297.735	-129.200	0.058	-0.008
-296.720	13.894	0.125	-0.098
-295.705	-200.000	-0.038	-0.269
-294.691	36.665	0.214	-0.190
-293.676	0.448	-0.314	-0.226
-292.662	259.498	-0.015	0.027
-291.647	-51.987	0.218	0.102
-290.632	10.586	-0.192	0.147
-289.618	800.000	0.029	0.103
-288.603	-191.032	-0.159	-0.002
-287.589	-76.282	0.165	0.059
-286.574	-6.303	-0.044	0.031
-285.559	132.417	0.098	-0.127
-284.545	-200.000	0.101	0.477
-283.530	-200.000	-0.028	0.448
-282.516	-22.556	0.064	0.039
-281.501	-3.673	-0.326	0.228
-280.486	800.000	-0.027	-0.097
-279.472	-27.858	-0.196	-0.114
-278.457	10.932	0.383	-0.294
-277.443	152.307	0.087	-0.119
-276.428	137.094	0.091	-0.120
-275.413	87.752	-0.115	-0.128
-274.399	-200.000	0.011	-0.277
-273.384	228.190	0.163	-0.266
-272.370	183.583	0.027	0.039
-271.355	-86.943	0.332	-0.102
-270.340	-200.000	-0.017	-0.136
-269.326	154.552	-0.054	-0.075
-268.311	-51.005	0.089	0.042
-267.297	32.435	0.172	0.149
-266.282	67.312	0.202	-0.206
-265.267	57.995	-0.051	0.050
-264.253	-200.000	-0.060	-0.274
-263.238	131.646	0.020	-0.026
-262.224	-200.000	0.061	0.398
-261.209	800.000	-0.104	0.415
-260.195	-157.913	-0.186	-0.011
-259.180	39.231	0.113	0.101
-258.165	223.183	-0.057	-0.092
-257.151	-193.026	0.231	-0.002
-256.136	-27.600	0.234	0.136
-255.122	-135.659	-0.128	0.015
-254.107	183.946	0.223	0.332
-253.092	209.632	-0.087	-0.136
-252.078	-200.000	-0.002	0.247
-251.063	131.030	-0.013	0.017
-250.049	-74.780	-0.234	0.084
-249.034	388.145	-0.040	0.083
-248.019	454.000	-0.097	-0.215
-247.005	11.223	-0.223	0.171
-245.990	111.382	-0.188	-0.228
-244.976	-51.734	0.482	-0.226
-243.961	-63.317	-0.224	-0.093
-242.946	-146.794	0.187	0.016
-241.932	-173.221	-0.209	-0.006
-240.917	692.535	-0.137	-0.359
-239.903	4.439	-0.098	0.072
-238.888	800.000	-0.026	0.076
-237.873	17.071	-0.256	-0.204
-236.859	-47.059	-0.317	-0.155
-235.844	-86.842	0.164	-0.050
-234.830	-86.943	-0.279	-0.085
-233.815	585.115	0.026	0.064
-232.800	64.647	-0.212	-0.214
-231.786	147.413	0.092	-0.124
-230.771	-117.398	0.186	-0.034
-229.757	10.638	0.162	-0.124
-228.742	771.002	-0.063	0.171
-227.727	-21.201	0.067	-0.041
-226.713	800.000	-0.110	-0.418
-225.698	-200.000	-0.043	-0.216
-224.684	-200.000	0.007	-0.182
-223.669	-200.000	0.010	-0.106
-222.655	-83.782	-0.165	-0.053
-221.640	-54.454	-0.322	0.146
-220.625	-200.000	0.013	-0.316
-219.611	259.585	0.140	-0.242
-218.596	-19.227	0.356	0.221
-217.582	126.500	0.144	-0.182
-216.567	377.171	0.123	0.251
-215.552	-89.657	0.516	0.152
-214.538	476.510	0.116	0.264
-213.523	800.000	0.011	0.048
-212.509	-50.014	-0.091	0.043
-211.494	77.772	-0.117	-0.124
-210.479	-43.280	-0.247	-0.125
-209.465	-141.982	0.383	-0.038
-208.450	239.547	0.105	-0.175
-207.436	-134.398	0.254	0.031
-206.421	-14.717	0.155	0.100
-205.406	-54.639	-0.268	0.121
-204.392	-200.000	0.058	0.315
-203.377	-101.241	0.263	0.064
-202.363	-110.017	0.064	0.013
-201.348	198.783	-0.085	0.130
-200.333	45.218	-0.110	0.102
-199.319	96.866	-0.055	0.063
-198.304	-45.489	0.087	0.043
-197.290	364.704	-0.101	0.203
-196.275	-12.484	0.080	-0.052
-195.260	-129.822	0.204	0.028
-194.246	273.306	-0.067	-0.118
-193.231	-61.299	0.260	0.110
-192.217	-145.638	0.257	0.023
-191.202	800.000	-0.033	-0.098
-190.187	-200.000	-0.008	0.133
-189.173	-145.304	-0.200	0.018
-188.158	800.000	0.026	0.083
-187.144	-169.978	0.300	-0.011
-186.129	-18.562	0.142	0.089
-185.114	800.000	-0.027	-0.079
-184.100	216.687	0.063	0.101
-183.085	738.946	-0.091	0.245
-182.071	-16.402	-0.262	0.166
-181.056	-200.000	-0.010	-0.214
-180.042	-91.662	-0.180	0.051
-179.027	-31.916	0.187	0.105
-178.012	-117.789	-0.025	0.004
-176.998	1.956	-0.109	-0.079
-175.983	303.222	-0.082	0.151
-174.969	-71.417	-0.132	-0.050
-173.954	487.465	-0.084	0.192
-172.939	-103.738	-0.449	0.105
-171.925	-191.112	0.187	-0.002
-170.910	31.795	0.085	0.073
-169.896	-148.938	-0.136	0.011
-168.881	-200.000	-0.022	-0.312
-167.866	51.363	0.200	0.190
-166.852	184.563	-0.066	-0.098
-165.837	-99.228	0.103	0.026
-164.823	-200.000	0.125	0.591
-163.808	-53.388	-0.079	-0.036
-162.793	-120.305	-0.139	0.024
-161.779	40.214	0.099	-0.089
-160.764	172.533	0.043	-0.062
-159.750	-109.720	0.219	-0.046
-158.735	-200.000	-0.001	0.019
-157.720	-89.830	-0.199	0.058
-156.706	-200.000	-0.061	0.318
-155.691	163.100	-0.188	-0.265
-154.677	-145.190	0.244	-0.022
-153.662	-74.875	0.154	-0.055
-152.647	-103.668	0.200	-0.047
-151.633	401.584	0.047	-0.098
-150.618	151.610	-0.047	0.064
-149.604	800.000	0.023	-0.088
-148.589	-200.000	-0.002	0.193
-147.574	-82.141	-0.119	-0.039
-146.560	190.871	-0.034	0.051
-145.545	0.334	0.301	-0.215
-144.531	145.045	-0.115	0.153
-143.516	-142.021	0.267	0.027
-142.502	-63.487	-0.113	0.047
-141.487	-200.000	0.005	0.312
-140.472	186.186	0.096	-0.143
-139.458	-200.000	0.065	0.294
-138.443	52.102	0.064	-0.061
-137.429	-163.890	0.130	0.006
-136.414	15.767	-0.395	-0.311
-135.399	176.342	-0.087	-0.126
-134.385	-200.000	0.039	-0.253
-133.370	-108.996	-0.219	0.047
-132.356	-41.130	0.197	0.101
-131.341	-51.173	0.217	0.102
-130.326	-83.233	-0.121	-0.039
-129.312	-95.457	0.265	0.071
-128.297	-92.647	0.256	0.072
-127.283	248.885	-0.047	-0.079
-126.268	-157.026	0.249	-0.015
-125.253	-200.000	0.009	0.044
-124.239	-200.000	0.020	-0.147
-123.224	-200.000	-0.044	-0.245
-122.210	-200.000	-0.010	0.212
-121.195	21.064	0.040	0.032
