DTS Sentinel unit serial number:	SN413079Multiplexer serial number:	ORYXHardware model number:	OX4-SRSoftware version number:	ORYX F/W v4.00 Oryx Data Collector v3.7.2.0data status	okinstallation	princeton_trtdifferential loss correction	single-endedforward channel	channel 2reverse channel	N/Adate	2019/09/11time	03:53:11forward acquisition time	60.00reverse acquisition time	0.00gamma	496.2192k internal	0.2329k external	0.2329temperature offset calibration	0.9933default loss term (dB/km)	0.3790temperature slope calibration	1.0000multiplexer offset coefficient	1.0000multiplexer slope coefficient	1.0000fibre end	0.00T internal ref (°C)	29.56T ext. ref 1 (°C)	-0.30T ext. ref 2 (°C)	23.67length (m)	temperature (°C)	Stokes	anti-Stokes-747.200	199.208	-0.141	0.218
-746.185	-67.332	-0.396	-0.157
-745.171	4.666	0.334	0.247
-744.156	800.000	0.061	0.258
-743.142	-48.505	-0.250	0.121
-742.127	-62.040	0.192	0.081
-741.112	-77.647	0.177	0.062
-740.098	150.699	0.010	0.014
-739.083	545.028	-0.051	-0.122
-738.069	-75.389	0.238	0.086
-737.054	-118.075	0.153	-0.027
-736.039	-200.000	0.068	-0.328
-735.025	193.767	0.069	0.106
-734.010	-54.674	0.211	0.096
-732.996	762.887	-0.119	-0.325
-731.981	177.576	-0.175	0.257
-730.966	-27.774	0.132	-0.077
-729.952	-157.719	0.101	0.006
-728.937	147.335	-0.204	-0.277
-727.923	501.515	-0.134	-0.311
-726.908	-200.000	-0.049	-0.443
-725.894	-85.788	-0.161	-0.050
-724.879	800.000	-0.023	-0.092
-723.864	-136.418	0.180	-0.021
-722.850	-90.094	-0.371	-0.109
-721.835	800.000	-0.119	-0.395
-720.821	215.239	0.031	0.049
-719.806	31.850	-0.202	-0.175
-718.791	124.737	0.029	-0.036
-717.777	91.742	0.233	-0.264
-716.762	-99.133	0.185	0.047
-715.748	-200.000	0.008	-0.157
-714.733	160.440	-0.005	-0.007
-713.718	472.013	0.056	-0.127
-712.704	13.543	-0.225	0.175
-711.689	38.540	-0.282	-0.253
-710.675	-79.766	0.264	-0.089
-709.660	-103.529	0.470	0.111
-708.645	-104.095	-0.377	0.088
-707.631	-34.376	0.190	-0.105
-706.616	-200.000	0.059	0.313
-705.602	125.022	0.201	0.255
-704.587	-86.930	-0.262	0.080
-703.572	83.332	0.138	0.152
-702.558	-157.253	0.088	0.005
-701.543	-200.000	0.013	-0.182
-700.529	-91.048	-0.060	0.017
-699.514	123.631	0.181	-0.229
-698.499	23.028	-0.306	-0.252
-697.485	222.918	-0.040	0.065
-696.470	-178.006	-0.521	0.012
-695.456	-129.877	0.240	0.033
-694.441	-200.000	-0.039	-0.219
-693.426	-200.000	-0.003	0.050
-692.412	-200.000	-0.023	-0.124
-691.397	-70.922	-0.193	0.073
-690.383	-200.000	0.031	0.222
-689.368	-200.000	0.029	-0.211
-688.354	-52.566	-0.249	0.116
-687.339	526.519	-0.099	-0.235
-686.324	115.228	0.023	0.029
-685.310	-52.025	-0.176	-0.082
-684.295	-186.137	-0.415	0.006
-683.281	-10.602	-0.061	0.040
-682.266	155.829	-0.183	-0.254
-681.251	-200.000	0.020	0.107
-680.237	130.618	0.205	-0.264
-679.222	-34.980	-0.388	-0.213
-678.208	-179.722	-0.491	-0.011
-677.193	-52.198	-0.238	-0.111
-676.178	30.226	0.131	0.113
-675.164	187.294	-0.156	0.234
-674.149	337.070	-0.079	-0.155
-673.135	-18.635	-0.193	-0.121
-672.120	92.268	-0.080	-0.090
-671.105	448.392	-0.073	0.161
-670.091	-46.634	0.181	0.089
-669.076	800.000	-0.088	-0.308
-668.062	410.413	0.137	-0.293
-667.047	-126.530	-0.045	-0.007
-666.032	800.000	-0.092	0.325
-665.018	520.545	-0.048	0.112
-664.003	78.722	0.136	0.146
-662.989	113.812	-0.169	0.206
-661.974	-70.235	-0.247	0.094
-660.959	467.141	0.151	-0.340
-659.945	-21.060	0.142	-0.088
-658.930	-56.972	-0.093	0.041
-657.916	-147.103	0.147	0.013
-656.901	-200.000	-0.026	-0.139
-655.886	-200.000	-0.002	0.208
-654.872	-200.000	-0.028	-0.250
-653.857	289.571	0.079	-0.144
-652.843	800.000	0.006	-0.022
-651.828	355.419	-0.129	0.257
-650.814	170.027	0.147	-0.211
-649.799	-43.796	0.251	0.127
-648.784	83.417	0.133	-0.145
-647.770	587.395	-0.130	-0.321
-646.755	-56.154	0.109	0.049
-645.741	429.939	-0.038	0.082
-644.726	151.945	0.109	-0.149
-643.711	364.620	0.068	0.138
-642.697	-95.659	0.251	0.067
-641.682	-88.730	0.074	-0.022
-640.668	-200.000	0.011	-0.215
-639.653	-23.751	-0.049	0.029
-638.638	-92.237	0.012	-0.003
-637.624	-200.000	-0.029	-0.170
-636.609	-200.000	0.027	0.402
-635.595	-200.000	-0.026	0.195
-634.580	-200.000	-0.041	-0.534
-633.565	-63.077	0.127	0.053
-632.551	101.784	0.087	0.102
-631.536	-113.596	-0.104	-0.020
-630.522	311.000	0.097	0.181
-629.507	337.229	0.128	0.250
-628.492	-31.403	-0.148	0.083
-627.478	493.622	0.105	0.242
-626.463	-200.000	-0.006	0.074
-625.449	-200.000	0.007	-0.139
-624.434	89.833	0.109	0.122
-623.419	-141.930	0.196	-0.020
-622.405	800.000	0.025	0.103
-621.390	-132.530	-0.281	-0.036
-620.376	0.793	0.220	-0.158
-619.361	800.000	-0.133	-0.370
-618.346	-179.298	-0.191	0.004
-617.332	800.000	0.031	0.111
-616.317	29.197	0.014	-0.012
-615.303	503.317	-0.079	-0.184
-614.288	74.428	0.072	-0.075
-613.273	-158.089	-0.164	-0.010
-612.259	-21.201	0.162	0.099
-611.244	45.669	-0.208	-0.193
-610.230	65.082	0.116	-0.118
-609.215	800.000	-0.076	-0.265
-608.201	128.247	0.174	-0.222
-607.186	-200.000	-0.045	-0.199
-606.171	104.627	0.078	0.092
-605.157	-150.289	-0.165	0.013
-604.142	181.712	-0.173	0.256
-603.128	179.988	-0.081	0.118
-602.113	-96.261	0.411	-0.109
-601.098	-200.000	-0.032	0.198
-600.084	292.262	-0.069	0.125
-599.069	800.000	0.060	0.240
-598.055	800.000	0.125	-0.463
-597.040	-200.000	-0.006	-0.196
-596.025	800.000	0.075	0.289
-595.011	313.975	0.097	-0.182
-593.996	133.739	0.182	-0.236
-592.982	-32.035	0.187	-0.105
-591.967	-200.000	-0.011	-0.092
-590.952	161.343	0.228	0.320
-589.938	203.951	0.083	-0.129
-588.923	-144.260	0.157	0.015
-587.909	705.821	-0.121	-0.320
-586.894	-117.634	-0.172	-0.031
-585.879	221.919	-0.043	-0.069
-584.865	69.767	0.251	0.259
-583.850	-99.714	-0.128	0.032
-582.836	800.000	0.014	0.057
-581.821	4.603	0.111	0.081
-580.806	-200.000	-0.014	0.287
-579.792	82.480	0.120	-0.130
-578.777	-200.000	0.064	-0.329
-577.763	-200.000	-0.237	-0.001
-576.748	-55.058	0.185	0.083
-575.733	86.724	-0.292	0.322
-574.719	132.335	0.079	0.102
-573.704	-200.000	0.000	-0.010
-572.690	-200.000	0.087	-0.433
-571.675	800.000	-0.088	-0.254
-570.661	-76.140	0.137	-0.048
-569.646	-142.303	-0.292	-0.029
-568.631	800.000	-0.086	0.267
-567.617	-73.518	-0.104	0.038
-566.602	358.839	0.148	0.296
-565.588	190.338	-0.242	-0.364
-564.573	800.000	-0.044	-0.127
-563.558	-200.000	-0.012	-0.166
-562.544	-200.000	-0.038	0.244
-561.529	481.561	0.113	-0.257
-560.515	-200.000	-0.020	0.236
-559.500	-142.004	0.145	0.014
-558.485	-54.856	-0.129	0.058
-557.471	800.000	0.074	-0.229
-556.456	659.662	-0.119	0.305
-555.442	373.797	0.036	0.072
-554.427	-72.784	-0.351	-0.129
-553.412	122.569	0.031	0.039
-552.398	103.322	0.187	-0.220
-551.383	-28.476	0.207	0.120
-550.369	308.634	-0.197	-0.367
-549.354	187.034	0.149	-0.222
-548.339	64.718	-0.179	-0.180
-547.325	800.000	-0.092	0.302
-546.310	-200.000	-0.011	0.105
-545.296	-51.116	0.139	-0.065
-544.281	-111.976	0.141	0.028
-543.266	45.062	-0.160	0.148
-542.252	-68.296	-0.410	0.159
-541.237	480.378	0.021	0.048
-540.223	-123.152	0.033	0.005
-539.208	124.094	0.111	-0.139
-538.193	-200.000	0.003	0.165
-537.179	800.000	-0.062	-0.226
-536.164	-174.995	-0.452	-0.013
-535.150	44.573	0.151	0.138
-534.135	-200.000	0.004	0.217
-533.121	-22.139	-0.133	0.081
-532.106	177.434	-0.163	0.237
-531.091	-77.185	0.070	-0.024
-530.077	-30.885	0.202	-0.114
-529.062	44.160	-0.163	-0.149
-528.048	189.868	-0.139	-0.208
-527.033	-68.876	-0.300	0.116
-526.018	-104.284	-0.271	-0.063
-525.004	401.719	-0.100	-0.210
-523.989	-86.249	-0.213	0.065
-522.975	105.406	-0.071	0.084
-521.960	-200.000	0.033	0.151
-520.945	202.781	-0.039	0.060
-519.931	-147.085	0.406	-0.035
-518.916	-175.707	0.191	0.005
-517.902	-20.000	-0.243	0.150
-516.887	59.908	0.077	-0.076
-515.872	-200.000	0.009	-0.137
-514.858	69.041	0.120	0.123
-513.843	-130.697	-0.231	-0.031
-512.829	341.080	0.207	-0.403
-511.814	-68.036	-0.108	0.042
-510.799	225.156	-0.056	-0.090
-509.785	131.362	0.121	-0.155
-508.770	-76.791	0.079	-0.028
-507.756	800.000	-0.088	-0.245
-506.741	-200.000	-0.035	-0.231
-505.726	203.187	0.124	0.192
-504.712	-195.936	-0.055	0.000
-503.697	85.042	0.135	-0.148
-502.683	-64.867	-0.092	0.037
-501.668	-24.521	0.370	0.220
-500.653	-72.018	-0.250	0.093
-499.639	800.000	0.077	-0.232
-498.624	-20.002	-0.112	0.069
-497.610	-200.000	0.009	0.083
-496.595	330.038	0.031	-0.060
-495.581	279.534	0.221	-0.393
-494.566	-43.731	0.132	0.066
-493.551	330.103	-0.074	-0.142
-492.537	23.070	-0.300	0.246
-491.522	-121.738	0.146	-0.024
-490.508	74.359	-0.153	0.160
-489.493	94.362	0.312	0.354
-488.478	-14.645	-0.094	0.060
-487.464	-8.117	0.113	0.076
-486.449	277.792	0.039	0.070
-485.435	-200.000	0.007	-0.080
-484.420	348.700	0.053	0.104
-483.405	339.169	0.045	0.086
-482.391	90.582	-0.163	0.182
-481.376	113.864	-0.254	0.308
-480.362	561.783	-0.035	0.085
-479.347	-139.830	-0.155	0.016
-478.332	46.576	0.120	-0.111
-477.318	-1.897	0.282	-0.198
-476.303	800.000	0.070	-0.217
-475.289	-133.884	-0.037	0.005
-474.274	800.000	-0.040	0.138
-473.259	-69.306	0.181	0.069
-472.245	800.000	-0.111	0.310
-471.230	32.746	0.024	-0.021
-470.216	800.000	0.052	0.181
-469.201	513.478	-0.142	-0.331
-468.186	800.000	-0.009	-0.035
-467.172	398.234	0.031	-0.064
-466.157	-78.385	-0.261	-0.089
-465.143	800.000	0.105	0.296
-464.128	101.988	-0.112	-0.130
-463.113	61.233	0.292	-0.289
-462.099	397.895	-0.163	0.340
-461.084	800.000	0.047	0.155
-460.070	-200.000	0.009	-0.060
-459.055	41.655	-0.156	-0.141
-458.040	-58.877	-0.172	0.074
-457.026	12.170	0.038	0.029
-456.011	132.610	0.118	-0.152
-454.997	344.368	-0.041	-0.080
-453.982	-23.555	-0.113	-0.067
-452.968	-200.000	-0.026	-0.236
-451.953	30.963	-0.265	-0.226
-450.938	-77.074	-0.127	-0.044
-449.924	171.960	0.082	-0.117
-448.909	337.889	0.027	-0.051
-447.895	-33.279	-0.149	0.082
-446.880	-163.774	0.159	-0.007
-445.865	51.271	-0.180	0.170
-444.851	800.000	0.149	-0.427
-443.836	-84.453	0.081	0.025
-442.822	-90.483	-0.193	-0.056
-441.807	354.179	-0.054	-0.108
-440.792	102.123	0.176	-0.205
-439.778	-128.658	0.114	-0.016
-438.763	81.235	-0.048	0.051
-437.749	-200.000	-0.079	0.349
-436.734	-128.364	-0.176	-0.025
-435.719	30.962	-0.241	-0.206
-434.705	112.305	0.090	0.109
-433.690	3.696	0.060	0.044
-432.676	-84.977	-0.343	0.107
-431.661	-101.245	0.233	0.057
-430.646	467.286	-0.156	-0.348
-429.632	-46.981	-0.077	-0.037
-428.617	-44.052	0.075	-0.037
-427.603	164.048	-0.255	-0.358
-426.588	-200.000	0.021	-0.194
-425.573	800.000	0.042	0.116
-424.559	338.795	-0.136	0.264
-423.544	95.877	-0.223	-0.253
-422.530	-200.000	0.039	0.220
-421.515	239.742	0.129	-0.213
-420.500	201.906	0.130	-0.200
-419.486	20.668	0.174	0.140
-418.471	335.519	0.036	0.069
-417.457	-200.000	-0.012	-0.423
-416.442	-148.179	-0.130	0.011
-415.428	-84.396	-0.275	0.087
-414.413	-35.431	0.206	0.111
-413.398	800.000	0.037	0.131
-412.384	180.612	-0.100	0.146
-411.369	52.823	-0.078	-0.074
-410.355	273.395	-0.022	0.038
-409.340	96.117	-0.166	0.188
-408.325	-137.289	-0.131	-0.015
-407.311	165.980	-0.117	0.165
-406.296	314.441	-0.021	-0.039
-405.282	159.612	0.140	0.193
-404.267	-30.917	0.277	-0.156
-403.252	-168.026	0.278	0.011
-402.238	15.856	-0.130	0.102
-401.223	-200.000	0.055	-0.279
-400.209	25.293	-0.139	-0.115
-399.194	-76.228	0.216	-0.076
-398.179	61.497	-0.305	-0.302
-397.165	77.529	0.252	0.267
-396.150	-60.956	-0.216	0.091
-395.136	52.962	-0.204	-0.194
-394.121	520.224	0.155	-0.362
-393.106	-200.000	0.202	0.000
-392.092	-74.069	-0.247	0.089
-391.077	-15.384	0.104	0.066
-390.063	114.823	-0.069	-0.083
-389.048	-79.393	0.080	-0.027
-388.033	-102.394	-0.151	0.036
-387.019	44.961	-0.313	-0.286
-386.004	59.565	-0.180	-0.176
-384.990	800.000	-0.046	-0.184
-383.975	213.815	-0.098	0.154
-382.960	134.236	0.332	0.427
-381.946	188.816	-0.135	-0.200
-380.931	-20.235	-0.036	-0.022
-379.917	138.590	0.213	-0.278
-378.902	-43.250	0.149	-0.075
-377.888	-200.000	-0.009	0.060
-376.873	-39.789	0.144	0.075
-375.858	-59.811	0.307	0.130
-374.844	-80.725	0.202	-0.067
-373.829	135.620	0.021	0.027
-372.815	-62.946	-0.314	-0.129
-371.800	363.470	-0.082	-0.164
-370.785	24.739	-0.221	-0.182
-369.771	-11.742	-0.081	0.053
-368.756	92.276	0.072	0.081
-367.742	243.798	0.092	0.154
-366.727	92.614	0.188	-0.210
-365.712	-112.417	-0.011	0.002
-364.698	-71.879	-0.081	0.030
-363.683	-167.502	0.281	0.011
-362.669	-137.448	0.126	0.014
-361.654	72.569	0.233	0.241
-360.639	321.281	-0.071	-0.134
-359.625	437.419	-0.248	-0.535
-358.610	461.915	-0.032	0.071
-357.596	800.000	-0.038	0.113
-356.581	149.433	-0.076	0.102
-355.566	-60.372	0.227	-0.096
-354.552	-105.769	0.176	0.039
-353.537	-75.220	0.157	-0.056
-352.523	-14.825	-0.156	-0.099
-351.508	711.856	-0.070	-0.183
-350.493	800.000	-0.035	-0.112
-349.479	-155.325	0.163	-0.011
-348.464	206.890	0.250	0.387
-347.450	-112.457	0.409	0.081
-346.435	800.000	0.073	-0.256
-345.420	-200.000	-0.042	-0.265
-344.406	800.000	-0.025	-0.070
-343.391	1.173	-0.233	0.166
-342.377	704.915	-0.063	0.165
-341.362	-28.159	0.352	-0.202
-340.348	80.614	0.019	0.021
-339.333	132.633	-0.235	-0.300
-338.318	99.382	-0.055	0.063
-337.304	-78.079	-0.230	-0.078
-336.289	-61.406	0.194	-0.081
-335.275	623.148	0.083	0.208
-334.260	716.936	-0.099	0.260
-333.245	-200.000	-0.001	0.187
-332.231	800.000	-0.077	0.323
-331.216	151.722	0.261	-0.352
-330.202	3.296	0.059	0.043
-329.187	-150.038	-0.212	0.016
-328.172	800.000	0.034	0.137
-327.158	448.923	0.080	0.174
-326.143	91.293	0.096	0.107
-325.129	74.305	0.148	0.154
-324.114	-72.260	0.128	-0.047
-323.099	-163.852	0.173	-0.008
-322.085	37.846	0.106	-0.093
-321.070	125.427	-0.125	0.157
-320.056	-45.948	0.384	0.188
-319.041	-200.000	-0.011	0.053
-318.026	-200.000	0.007	0.033
-317.012	369.141	-0.040	-0.081
-315.997	-118.798	0.401	0.070
-314.983	-200.000	-0.034	0.454
-313.968	-200.000	0.021	-0.219
-312.953	-3.604	-0.109	0.075
-311.939	-168.301	-0.219	-0.008
-310.924	-141.717	0.303	0.030
-309.910	-106.877	-0.433	0.095
-308.895	675.285	-0.037	0.096
-307.880	-7.458	0.294	0.197
-306.866	-118.544	0.056	0.010
-305.851	287.497	-0.123	-0.221
-304.837	-200.000	-0.000	0.220
-303.822	-97.525	-0.197	0.051
-302.807	36.971	0.065	0.057
-301.793	39.261	-0.196	-0.174
-300.778	-98.953	0.197	-0.049
-299.764	-98.665	-0.157	-0.040
-298.749	676.479	0.116	-0.297
-297.735	-115.188	-0.069	0.013
-296.720	800.000	-0.031	-0.124
-295.705	-84.156	-0.469	0.147
-294.691	-200.000	-0.074	0.440
-293.676	15.607	0.207	0.161
-292.662	73.612	-0.187	0.194
-291.647	-120.793	0.165	0.028
-290.632	-20.412	-0.216	-0.131
-289.618	-68.197	0.060	0.023
-288.603	-200.000	-0.026	-0.193
-287.589	-200.000	0.016	0.079
-286.574	470.590	-0.079	-0.175
-285.559	-68.152	0.212	0.082
-284.545	-85.286	0.508	0.157
-283.530	-200.000	0.001	0.102
-282.516	-28.340	-0.051	0.029
-281.501	91.393	0.108	-0.120
-280.486	331.065	-0.092	-0.175
-279.472	407.170	-0.112	0.234
-278.457	-117.810	-0.175	0.031
-277.443	800.000	0.061	0.187
-276.428	-97.016	-0.282	0.073
-275.413	800.000	-0.040	-0.154
-274.399	800.000	0.093	0.284
-273.384	-62.746	-0.177	-0.073
-272.370	800.000	-0.034	0.117
-271.355	-200.000	-0.010	-0.044
-270.340	-200.000	0.019	-0.319
-269.326	800.000	-0.060	0.234
-268.311	138.036	0.067	-0.087
-267.297	-88.300	0.072	0.021
-266.282	29.871	0.350	-0.295
-265.267	-0.771	0.222	-0.155
-264.253	261.117	-0.149	0.255
-263.238	9.178	-0.163	-0.122
-262.224	-200.000	0.012	0.174
-261.209	10.448	0.232	0.174
-260.195	-200.000	-0.013	-0.058
-259.180	-68.334	-0.261	0.100
-258.165	8.616	-0.104	0.078
-257.151	800.000	0.058	0.174
-256.136	-40.736	0.426	-0.218
-255.122	-200.000	0.067	0.375
-254.107	-8.165	-0.068	0.045
-253.092	273.654	0.118	0.206
-252.078	55.725	0.077	-0.074
-251.063	323.026	-0.089	0.168
-250.049	-142.112	-0.320	-0.031
-249.034	-17.834	-0.096	-0.059
-248.019	-38.349	0.119	0.062
-247.005	-200.000	-0.008	-0.222
-245.990	636.712	-0.030	-0.076
-244.976	-200.000	0.043	0.376
-243.961	139.424	0.072	0.093
-242.946	-200.000	-0.004	0.068
-241.932	175.613	-0.108	0.154
-240.917	238.653	-0.058	0.095
-239.903	-22.987	0.191	0.113
-238.888	57.676	0.138	0.133
-237.873	-165.527	-0.107	0.005
-236.859	-100.270	-0.310	-0.076
-235.844	-82.645	0.018	0.006
-234.830	100.673	-0.192	-0.220
-233.815	135.617	0.196	0.251
-232.800	323.644	-0.072	-0.135
-231.786	-13.113	-0.132	-0.085
-230.771	800.000	0.036	0.116
-229.757	800.000	0.037	-0.137
-228.742	-128.513	-0.423	-0.059
-227.727	-59.910	-0.349	0.147
-226.713	800.000	-0.035	-0.096
-225.698	176.224	-0.046	0.066
-224.684	227.388	0.173	-0.278
-223.669	800.000	-0.085	0.267
-222.655	-99.263	-0.516	0.129
-221.640	-200.000	0.056	0.344
-220.625	-22.382	0.091	0.054
-219.611	800.000	-0.017	-0.067
-218.596	11.500	0.280	0.212
-217.582	800.000	-0.153	0.440
-216.567	800.000	0.021	-0.091
-215.552	-200.000	0.034	0.205
-214.538	-200.000	0.018	-0.129
-213.523	10.726	0.095	0.071
-212.509	97.786	-0.095	-0.108
-211.494	-200.000	-0.027	-0.279
-210.479	177.150	0.103	0.148
-209.465	-48.486	-0.231	0.110
-208.450	536.804	-0.129	-0.302
-207.436	800.000	0.061	-0.214
-206.421	637.188	-0.060	0.151
-205.406	757.230	0.034	0.090
-204.392	-174.400	-0.149	0.004
-203.377	-160.838	-0.242	0.013
-202.363	-47.443	-0.161	-0.077
-201.348	-200.000	0.016	0.226
-200.333	-200.000	-0.057	0.345
-199.319	-89.986	0.225	0.065
-198.304	25.008	0.224	0.183
-197.290	-200.000	0.010	0.140
-196.275	-74.404	0.279	-0.099
-195.260	155.089	-0.087	0.118
-194.246	-18.207	-0.127	-0.079
-193.231	-43.614	0.166	-0.083
-192.217	-15.190	0.184	-0.116
-191.202	-7.456	0.223	-0.149
-190.187	-26.979	0.184	-0.106
-189.173	33.338	-0.249	0.213
-188.158	526.799	0.061	-0.141
-187.144	41.484	-0.103	-0.092
-186.129	144.047	-0.224	0.294
-185.114	800.000	-0.059	-0.240
-184.100	697.896	0.189	0.490
-183.085	130.550	-0.108	0.136
-182.071	79.201	0.121	-0.128
-181.056	-149.235	0.239	0.019
-180.042	-159.910	0.310	0.017
-179.027	185.186	-0.046	0.067
-178.012	-200.000	-0.039	-0.241
-176.998	212.397	-0.131	-0.203
-175.983	-135.136	0.329	-0.039
-174.969	800.000	0.053	0.203
-173.954	-200.000	0.015	-0.092
-172.939	-105.049	0.042	0.010
-171.925	305.621	-0.101	-0.185
-170.910	562.885	-0.076	-0.182
-169.896	521.431	-0.142	-0.328
-168.881	-200.000	0.016	0.226
-167.866	-3.142	0.117	0.080
-166.852	676.682	0.063	-0.161
-165.837	-107.672	0.203	0.044
-164.823	-139.272	0.083	-0.009
-163.808	-102.940	-0.228	-0.053
-162.793	-141.314	0.377	0.038
-161.779	140.728	0.153	0.199
-160.764	83.509	-0.207	-0.222
-159.750	-32.663	-0.067	-0.037
-158.735	123.852	-0.174	0.215
-157.720	-190.495	-0.173	-0.002
-156.706	-50.451	0.183	-0.085
-155.691	-200.000	-0.063	-0.273
-154.677	292.762	-0.098	-0.176
-153.662	395.490	-0.136	0.280
-152.647	15.365	0.056	-0.043
-151.633	-31.668	0.099	-0.055
-150.618	-200.000	0.008	-0.194
-149.604	-73.860	-0.216	0.077
-148.589	-114.880	-0.365	0.068
-147.574	-200.000	-0.003	-0.129
-146.560	-163.405	0.364	-0.017
-145.545	-21.759	0.161	0.096
-144.531	538.554	-0.089	-0.208
-143.516	90.848	0.284	0.313
-142.502	-59.874	0.235	0.099
-141.487	6.420	0.165	-0.121
-140.472	-22.552	-0.326	0.194
-139.458	800.000	0.056	0.224
-138.443	-99.380	0.141	0.035
-137.429	103.921	-0.217	-0.251
-136.414	-103.131	0.340	0.079
-135.399	117.287	-0.085	0.102
-134.385	-95.935	0.144	-0.038
-133.370	-8.964	0.053	0.035
-132.356	40.203	0.086	0.076
-131.341	-200.000	-0.005	-0.117
-130.326	67.973	0.144	-0.145
-129.312	-52.600	0.275	-0.125
-128.297	338.170	-0.078	0.150
-127.283	-115.874	0.174	-0.032
-126.268	-200.000	0.092	-0.442
-125.253	-200.000	-0.089	-0.419
-124.239	74.001	0.113	0.116
-123.224	3.266	-0.318	0.228
-122.210	20.427	0.472	0.375
-121.195	0.547	0.249	-0.175
-120.180	453.671	0.144	0.313
