DTS Sentinel unit serial number:	SN413079Multiplexer serial number:	ORYXHardware model number:	OX4-SRSoftware version number:	ORYX F/W v4.00 Oryx Data Collector v3.7.2.0data status	okinstallation	princeton_trtdifferential loss correction	single-endedforward channel	channel 2reverse channel	N/Adate	2019/09/11time	06:09:11forward acquisition time	60.00reverse acquisition time	0.00gamma	496.2192k internal	0.2329k external	0.2329temperature offset calibration	0.9935default loss term (dB/km)	0.3790temperature slope calibration	1.0000multiplexer offset coefficient	1.0000multiplexer slope coefficient	1.0000fibre end	0.00T internal ref (°C)	29.47T ext. ref 1 (°C)	-0.20T ext. ref 2 (°C)	23.82length (m)	temperature (°C)	Stokes	anti-Stokes-747.200	-200.000	0.021	0.099
-746.185	-71.616	-0.173	-0.065
-745.171	-96.625	0.346	-0.092
-744.156	-68.302	-0.149	-0.058
-743.142	-200.000	-0.018	-0.114
-742.127	800.000	-0.107	0.422
-741.112	-61.665	0.218	0.092
-740.098	-27.364	-0.162	-0.095
-739.083	4.369	-0.313	-0.231
-738.069	-109.421	-0.358	0.076
-737.054	130.707	-0.112	0.144
-736.039	69.463	-0.265	-0.275
-735.025	-117.332	0.202	0.037
-734.010	119.648	-0.198	-0.247
-732.996	-182.767	-0.323	-0.006
-731.981	702.682	-0.066	0.175
-730.966	228.917	-0.051	0.084
-729.952	-200.000	-0.016	0.197
-728.937	-2.992	-0.321	-0.226
-727.923	-47.002	0.027	0.013
-726.908	-191.133	0.265	-0.003
-725.894	-59.359	-0.065	-0.028
-724.879	-143.840	-0.233	0.022
-723.864	-2.374	-0.134	0.094
-722.850	-200.000	-0.032	0.184
-721.835	-200.000	0.006	-0.127
-720.821	20.339	0.200	-0.162
-719.806	-139.134	0.214	0.023
-718.791	31.641	-0.181	-0.157
-717.777	379.240	-0.063	-0.130
-716.762	-200.000	-0.041	-0.239
-715.748	255.830	-0.082	0.141
-714.733	-200.000	-0.033	-0.170
-713.718	31.951	0.128	0.111
-712.704	16.185	-0.132	0.105
-711.689	800.000	0.063	0.203
-710.675	789.155	-0.025	-0.070
-709.660	-193.041	-0.043	0.000
-708.645	800.000	0.082	0.280
-707.631	229.205	-0.088	0.144
-706.616	210.425	0.119	0.188
-705.602	24.090	-0.192	0.160
-704.587	681.245	-0.059	-0.156
-703.572	-183.154	0.164	0.003
-702.558	-100.482	-0.086	-0.021
-701.543	213.986	0.024	-0.038
-700.529	-200.000	0.024	0.276
-699.514	-26.601	0.081	-0.048
-698.499	-170.203	0.382	0.014
-697.485	-200.000	0.047	-0.286
-696.470	383.402	0.186	-0.385
-695.456	-142.480	-0.256	0.025
-694.441	-200.000	0.001	-0.130
-693.426	-200.000	-0.014	-0.269
-692.412	-23.856	0.161	-0.097
-691.397	800.000	-0.039	0.123
-690.383	-200.000	-0.011	0.331
-689.368	-61.408	-0.180	-0.076
-688.354	-166.032	0.278	0.012
-687.339	25.629	0.180	0.150
-686.324	-17.790	-0.144	-0.091
-685.310	-83.436	0.258	-0.083
-684.295	454.252	0.122	0.271
-683.281	-100.780	0.083	-0.021
-682.266	302.842	0.076	-0.141
-681.251	-94.013	0.170	-0.047
-680.237	7.845	0.143	0.107
-679.222	117.549	0.180	-0.223
-678.208	-117.658	0.092	-0.017
-677.193	0.339	0.089	-0.064
-676.178	149.716	-0.228	-0.310
-675.164	-74.307	0.126	0.046
-674.149	35.368	-0.236	0.208
-673.135	485.528	-0.046	-0.106
-672.120	-108.545	-0.067	-0.014
-671.105	-47.996	-0.216	0.105
-670.091	-94.990	0.186	-0.051
-669.076	-135.541	0.122	-0.015
-668.062	478.022	0.058	-0.132
-667.047	-113.791	-0.368	-0.072
-666.032	-49.234	0.254	0.122
-665.018	252.392	-0.084	0.143
-664.003	-87.947	0.133	0.040
-662.989	40.584	-0.170	-0.154
-661.974	564.257	0.062	-0.150
-660.959	800.000	-0.043	0.155
-659.945	525.225	0.118	-0.279
-658.930	-77.748	0.213	0.074
-657.916	62.500	0.068	0.068
-656.901	-73.776	-0.244	0.089
-655.886	-200.000	-0.022	-0.260
-654.872	-36.163	0.127	-0.069
-653.857	85.472	0.083	-0.092
-652.843	64.612	0.200	0.203
-651.828	-101.459	-0.109	-0.027
-650.814	-101.484	0.193	0.047
-649.799	-38.456	-0.190	0.101
-648.784	-200.000	-0.021	0.355
-647.770	600.279	-0.120	0.300
-646.755	17.665	0.216	0.172
-645.741	-82.228	-0.338	-0.110
-644.726	800.000	0.132	-0.566
-643.711	490.043	-0.186	-0.426
-642.697	-47.955	-0.135	0.066
-641.682	72.609	-0.027	0.028
-640.668	23.447	0.127	0.105
-639.653	275.376	-0.135	0.239
-638.638	30.776	-0.125	-0.108
-637.624	800.000	0.150	-0.532
-636.609	-43.792	-0.321	-0.162
-635.595	229.024	0.193	0.315
-634.580	66.207	-0.193	0.196
-633.565	-114.302	-0.089	0.017
-632.551	-129.468	0.111	0.015
-631.536	-80.204	-0.171	0.057
-630.522	405.393	-0.281	-0.595
-629.507	122.797	0.072	0.091
-628.492	5.908	0.251	-0.187
-627.478	-200.000	0.087	0.435
-626.463	-167.560	-0.232	0.009
-625.449	-200.000	-0.002	-0.175
-624.434	137.052	-0.097	0.128
-623.419	151.571	0.150	0.205
-622.405	77.980	-0.139	-0.149
-621.390	566.508	0.125	-0.305
-620.376	-136.563	0.168	0.020
-619.361	-200.000	-0.029	-0.309
-618.346	424.011	-0.042	0.091
-617.332	-200.000	0.017	0.121
-616.317	232.305	-0.036	-0.059
-615.303	-118.270	0.268	0.048
-614.288	40.303	-0.148	0.134
-613.273	283.614	0.078	0.141
-612.259	-200.000	-0.013	-0.219
-611.244	6.510	-0.196	0.146
-610.230	253.565	0.084	0.144
-609.215	68.916	0.323	-0.332
-608.201	549.688	0.110	-0.265
-607.186	-200.000	-0.038	-0.289
-606.171	-200.000	0.003	-0.139
-605.157	-44.258	0.169	-0.085
-604.142	277.212	-0.035	0.063
-603.128	310.610	0.129	-0.241
-602.113	-74.582	-0.364	0.131
-601.098	-128.015	0.078	-0.011
-600.084	-200.000	0.000	0.241
-599.069	136.782	0.036	-0.047
-598.055	-64.406	-0.184	0.075
-597.040	-153.408	-0.257	-0.018
-596.025	-76.933	-0.140	0.049
-595.011	115.508	-0.182	-0.223
-593.996	501.261	-0.156	0.360
-592.982	2.246	-0.270	0.195
-591.967	570.865	0.025	-0.062
-590.952	283.391	0.107	-0.192
-589.938	52.562	-0.105	0.101
-588.923	-152.750	-0.176	0.013
-587.909	-96.915	-0.232	-0.061
-586.894	-36.854	-0.219	0.118
-585.879	444.923	-0.154	-0.339
-584.865	-200.000	-0.018	0.230
-583.850	-176.434	-0.117	-0.003
-582.836	364.688	-0.136	0.275
-581.821	236.976	0.018	-0.030
-580.806	800.000	0.081	-0.257
-579.792	694.142	-0.157	-0.413
-578.777	-31.611	0.183	-0.103
-577.763	584.572	0.114	-0.281
-576.748	-127.548	0.608	-0.088
-575.733	-200.000	-0.023	0.221
-574.719	-34.215	0.084	-0.046
-573.704	-27.278	-0.148	0.086
-572.690	350.317	-0.124	-0.245
-571.675	-15.520	-0.237	0.152
-570.661	-134.798	0.263	-0.032
-569.646	-200.000	-0.012	0.075
-568.631	-134.290	0.220	0.027
-567.617	-139.882	-0.107	-0.011
-566.602	-77.746	-0.267	-0.093
-565.588	368.397	0.093	0.189
-564.573	-82.768	0.184	0.060
-563.558	800.000	0.017	-0.047
-562.544	-88.179	-0.398	-0.119
-561.529	800.000	0.012	0.053
-560.515	77.907	-0.174	-0.186
-559.500	26.446	-0.208	-0.174
-558.485	5.276	-0.331	0.244
-557.471	297.335	0.061	0.113
-556.456	-89.273	0.119	-0.035
-555.442	-200.000	0.314	0.001
-554.427	-77.539	-0.304	-0.105
-553.412	16.428	0.116	-0.092
-552.398	-200.000	-0.051	0.411
-551.383	-200.000	0.049	-0.402
-550.369	192.425	-0.095	-0.144
-549.354	156.031	0.181	0.249
-548.339	-100.671	0.333	0.082
-547.325	58.839	-0.206	-0.203
-546.310	-64.005	-0.501	0.205
-545.296	-19.138	-0.099	0.061
-544.281	-56.582	-0.123	-0.055
-543.266	-62.179	-0.406	0.169
-542.252	800.000	-0.098	0.312
-541.237	52.221	0.094	-0.090
-540.223	-72.630	-0.024	-0.009
-539.208	414.223	-0.096	0.204
-538.193	-64.424	-0.100	-0.040
-537.179	29.802	0.178	0.151
-536.164	368.792	-0.203	-0.409
-535.150	-24.683	-0.118	-0.070
-534.135	-79.478	0.339	-0.114
-533.121	-200.000	0.022	-0.115
-532.106	-164.410	0.151	-0.007
-531.091	-200.000	-0.044	-0.212
-530.077	50.411	0.289	-0.273
-529.062	-107.875	0.102	-0.022
-528.048	-37.130	0.150	-0.080
-527.033	-200.000	-0.039	0.235
-526.018	166.161	-0.106	-0.150
-525.004	474.341	0.096	0.217
-523.989	-134.112	0.154	0.019
-522.975	-37.259	-0.207	0.110
-521.960	-200.000	-0.067	0.327
-520.945	800.000	0.123	-0.362
-519.931	95.306	-0.101	-0.115
-518.916	-200.000	-0.017	0.145
-517.902	546.501	-0.031	0.074
-516.887	225.261	0.131	0.213
-515.872	-154.563	0.270	0.018
-514.858	800.000	0.106	0.448
-513.843	-200.000	-0.025	0.269
-512.829	-155.610	-0.142	0.009
-511.814	-129.486	-0.407	-0.056
-510.799	322.281	-0.043	0.082
-509.785	117.838	-0.035	-0.043
-508.770	-97.544	0.324	0.084
-507.756	-200.000	-0.030	-0.147
-506.741	346.846	-0.112	-0.220
-505.726	800.000	0.089	-0.323
-504.712	-200.000	0.016	-0.111
-503.697	-200.000	-0.034	0.410
-502.683	122.512	0.055	-0.068
-501.668	496.698	0.152	-0.349
-500.653	-52.201	-0.125	-0.058
-499.639	345.318	-0.174	-0.342
-498.624	-121.566	0.327	0.054
-497.610	-4.716	0.059	-0.040
-496.595	-104.351	0.131	-0.030
-495.581	-200.000	0.009	0.085
-494.566	-22.889	0.269	0.162
-493.551	271.450	0.103	-0.181
-492.537	-200.000	0.027	0.287
-491.522	223.034	0.197	0.316
-490.508	148.246	0.219	0.295
-489.493	-55.120	0.077	-0.034
-488.478	7.258	0.159	-0.118
-487.464	-28.268	-0.011	-0.006
-486.449	31.110	0.262	0.224
-485.435	-200.000	-0.060	0.315
-484.420	523.688	0.137	-0.321
-483.405	109.940	-0.205	-0.246
-482.391	-38.109	0.305	-0.162
-481.376	800.000	-0.092	-0.287
-480.362	-200.000	0.016	0.101
-479.347	-121.868	0.240	-0.039
-478.332	-200.000	0.089	-0.491
-477.318	112.609	0.104	-0.126
-476.303	-92.471	0.404	-0.113
-475.289	125.943	-0.175	-0.221
-474.274	-141.814	-0.372	0.037
-473.259	-200.000	-0.115	0.520
-472.245	-145.910	0.338	0.030
-471.230	-200.000	0.021	-0.170
-470.216	366.998	-0.181	-0.364
-469.201	-41.177	0.213	0.110
-468.186	644.804	0.010	0.026
-467.172	35.138	0.179	-0.157
-466.157	-60.608	-0.158	0.067
-465.143	-200.000	0.161	-0.001
-464.128	800.000	-0.075	-0.268
-463.113	-112.337	0.061	-0.012
-462.099	-167.068	-0.122	-0.005
-461.084	800.000	-0.128	-0.371
-460.070	-200.000	-0.042	0.213
-459.055	342.972	0.170	0.332
-458.040	343.804	0.013	-0.025
-457.026	263.987	-0.136	-0.235
-456.011	179.676	0.118	0.172
-454.997	67.509	-0.197	0.200
-453.982	535.303	-0.117	-0.276
-452.968	800.000	0.083	-0.269
-451.953	6.883	0.164	0.122
-450.938	-113.146	-0.281	0.055
-449.924	-25.121	0.155	0.092
-448.909	-200.000	0.049	0.233
-447.895	800.000	-0.010	-0.028
-446.880	-19.094	0.258	-0.160
-445.865	556.035	-0.098	0.236
-444.851	800.000	0.127	0.367
-443.836	-36.442	-0.191	-0.102
-442.822	-140.884	0.092	-0.009
-441.807	800.000	0.034	-0.132
-440.792	64.623	-0.175	0.175
-439.778	-6.352	-0.113	0.077
-438.763	11.042	-0.080	-0.061
-437.749	601.104	0.066	-0.162
-436.734	201.764	-0.064	-0.098
-435.719	514.163	0.137	-0.318
-434.705	310.265	-0.061	0.114
-433.690	-84.965	0.202	0.063
-432.676	223.108	0.012	-0.020
-431.661	-72.784	0.106	0.039
-430.646	789.207	-0.080	0.219
-429.632	-65.404	0.303	-0.121
-428.617	-170.939	0.369	0.013
-427.603	-100.000	-0.188	-0.047
-426.588	-111.332	0.193	0.039
-425.573	-165.338	0.086	-0.004
-424.559	16.536	0.160	-0.126
-423.544	-22.848	0.113	0.068
-422.530	800.000	-0.065	-0.234
-421.515	36.803	0.151	-0.133
-420.500	262.678	0.070	-0.121
-419.486	73.862	-0.244	-0.255
-418.471	-200.000	0.013	0.099
-417.457	800.000	-0.032	0.134
-416.442	12.101	-0.105	0.080
-415.428	145.656	-0.152	-0.203
-414.413	-93.739	0.105	0.029
-413.398	-62.327	-0.209	0.087
-412.384	-19.656	0.440	-0.271
-411.369	-200.000	0.088	0.428
-410.355	60.929	-0.257	0.254
-409.340	-200.000	-0.039	0.244
-408.325	-16.018	0.193	0.122
-407.311	-200.000	-0.062	0.272
-406.296	579.400	-0.139	0.338
-405.282	-158.202	-0.170	-0.010
-404.267	-123.151	-0.106	-0.017
-403.252	-121.302	-0.041	-0.007
-402.238	-169.957	-0.178	-0.006
-401.223	22.048	-0.074	-0.060
-400.209	-143.493	0.040	-0.004
-399.194	219.972	-0.275	0.438
-398.179	-116.541	0.233	0.043
-397.165	208.382	0.128	0.198
-396.150	-23.706	-0.195	0.116
-395.136	-86.429	-0.215	0.066
-394.121	-200.000	-0.001	-0.184
-393.106	-22.519	-0.302	0.181
-392.092	-85.661	-0.117	0.036
-391.077	401.051	-0.156	-0.326
-390.063	24.657	0.107	-0.088
-389.048	-59.506	0.313	0.134
-388.033	-57.431	-0.137	0.060
-387.019	-19.778	0.117	-0.072
-386.004	181.809	0.061	-0.089
-384.990	-176.288	0.432	0.011
-383.975	-69.047	0.265	-0.102
-382.960	97.886	-0.207	0.237
-381.946	354.838	0.155	-0.306
-380.931	91.924	0.117	-0.131
-379.917	533.773	0.092	0.217
-378.902	107.913	0.194	-0.229
-377.888	35.362	0.311	0.271
-376.873	164.380	-0.175	-0.246
-375.858	48.470	-0.311	0.289
-374.844	800.000	-0.089	-0.278
-373.829	362.384	-0.167	-0.333
-372.815	548.533	0.068	-0.161
-371.800	45.711	-0.281	-0.258
-370.785	-200.000	0.046	0.334
-369.771	-200.000	-0.002	-0.057
-368.756	13.048	0.128	-0.099
-367.742	-102.322	0.256	-0.061
-366.727	-68.209	0.070	-0.027
-365.712	-104.360	-0.262	-0.060
-364.698	-56.960	0.046	0.020
-363.683	22.224	-0.275	0.223
-362.669	-200.000	-0.010	-0.246
-361.654	44.370	0.111	0.101
-360.639	-162.393	-0.149	0.007
-359.625	473.421	-0.056	0.125
-358.610	800.000	-0.080	-0.232
-357.596	-93.126	-0.104	0.029
-356.581	-64.966	0.307	0.123
-355.566	-48.712	0.066	-0.031
-354.552	108.551	0.142	-0.169
-353.537	492.650	-0.065	0.148
-352.523	41.554	-0.225	-0.202
-351.508	-200.000	0.005	0.156
-350.493	-200.000	0.033	0.258
-349.479	-30.176	-0.125	-0.070
-348.464	106.127	-0.188	-0.221
-347.450	166.862	0.096	-0.136
-346.435	170.726	0.163	0.231
-345.420	1.259	-0.196	0.140
-344.406	-200.000	0.054	0.267
-343.391	-198.143	-0.245	-0.001
-342.377	133.913	0.114	0.146
-341.362	-116.673	-0.219	0.040
-340.348	-200.000	-0.002	0.229
-339.333	101.065	0.069	-0.080
-338.318	573.588	0.137	-0.332
-337.304	-109.053	0.213	-0.045
-336.289	-200.000	-0.063	0.541
-335.275	280.372	-0.053	0.094
-334.260	800.000	0.074	-0.234
-333.245	511.062	0.031	-0.071
-332.231	125.276	0.170	0.213
-331.216	757.412	0.038	0.103
-330.202	-115.468	-0.108	-0.020
-329.187	257.941	0.140	0.238
-328.172	355.161	0.083	-0.164
-327.158	106.849	-0.089	0.105
-326.143	28.000	0.174	0.145
-325.129	800.000	-0.049	0.137
-324.114	285.847	0.137	0.244
-323.099	192.139	-0.183	-0.274
-322.085	-29.963	-0.042	-0.023
-321.070	24.655	0.225	-0.184
-320.056	121.978	0.121	0.149
-319.041	-65.031	-0.081	-0.032
-318.026	-131.069	-0.198	-0.026
-317.012	-46.696	-0.206	0.100
-315.997	9.466	0.126	0.094
-314.983	-22.937	-0.099	-0.059
-313.968	-101.756	-0.178	-0.043
-312.953	26.921	0.234	-0.194
-311.939	215.345	-0.115	0.181
-310.924	-200.000	0.057	0.255
-309.910	41.133	-0.161	-0.144
-308.895	-200.000	0.021	0.112
-307.880	800.000	0.058	0.161
-306.866	800.000	-0.057	0.220
-305.851	-70.099	0.064	0.024
-304.837	-200.000	0.026	0.132
-303.822	200.163	0.070	0.106
-302.807	-200.000	-0.020	0.211
-301.793	-90.566	-0.083	0.024
-300.778	800.000	-0.055	-0.150
-299.764	261.989	-0.128	-0.219
-298.749	143.419	-0.005	0.007
-297.735	-200.000	0.023	-0.158
-296.720	-200.000	0.013	-0.139
-295.705	83.599	0.158	-0.170
-294.691	346.753	-0.109	-0.212
-293.676	800.000	-0.029	0.109
-292.662	485.973	0.101	-0.229
-291.647	-200.000	0.000	-0.293
-290.632	-178.498	-0.353	-0.008
-289.618	800.000	0.055	0.204
-288.603	-5.887	-0.173	-0.117
-287.589	-62.174	-0.168	0.069
-286.574	-90.753	-0.209	-0.060
-285.559	540.044	0.114	0.268
-284.545	304.087	0.172	-0.316
-283.530	-36.678	-0.398	-0.212
-282.516	-200.000	-0.039	-0.463
-281.501	345.531	0.061	-0.118
-280.486	-167.031	0.314	0.013
-279.472	-113.428	-0.224	0.043
-278.457	186.453	0.070	0.104
-277.443	-27.950	0.186	-0.107
-276.428	-200.000	0.084	-0.000
-275.413	800.000	-0.058	0.163
-274.399	78.185	0.205	-0.216
-273.384	-200.000	-0.008	-0.223
-272.370	588.064	0.169	-0.410
-271.355	-29.459	-0.096	0.054
-270.340	-135.525	0.310	0.037
-269.326	-120.447	0.183	0.031
-268.311	-83.493	0.170	0.054
-267.297	5.708	-0.046	-0.034
-266.282	7.430	-0.163	-0.120
-265.267	-149.875	0.145	0.011
-264.253	464.698	0.113	0.249
-263.238	72.340	-0.197	0.203
-262.224	-139.608	-0.148	0.016
-261.209	-55.749	-0.165	0.073
-260.195	-141.708	0.175	0.017
-259.180	-200.000	0.092	0.460
-258.165	-125.836	0.071	-0.011
-257.151	37.134	-0.178	0.156
-256.136	-157.605	0.199	0.012
-255.122	-126.792	-0.154	-0.022
-254.107	-141.758	0.158	-0.016
-253.092	116.058	-0.047	0.056
-252.078	605.693	-0.213	0.524
-251.063	-148.938	0.364	0.029
-250.049	-200.000	0.004	-0.057
-249.034	-200.000	-0.004	-0.084
-248.019	356.196	0.044	0.087
-247.005	-43.870	0.394	-0.196
-245.990	800.000	0.024	-0.085
-244.976	-137.223	-0.324	-0.036
-243.961	-165.412	0.208	-0.009
-242.946	284.579	0.046	0.082
-241.932	-115.388	0.289	0.054
-240.917	-124.177	0.417	0.064
-239.903	-177.028	-0.158	0.004
-238.888	243.958	0.039	-0.064
-237.873	-164.595	-0.386	0.017
-236.859	148.527	0.066	0.088
-235.844	-161.431	-0.062	0.003
-234.830	354.029	0.199	0.390
-233.815	341.619	-0.071	-0.137
-232.800	84.338	0.069	-0.075
-231.786	-200.000	0.039	0.331
-230.771	800.000	0.015	0.063
-229.757	-200.000	-0.001	0.067
-228.742	-81.421	-0.280	-0.091
-227.727	576.025	-0.085	0.206
-226.713	718.934	-0.042	0.110
-225.698	103.991	-0.075	0.087
-224.684	334.402	-0.285	-0.545
-223.669	-95.639	0.237	0.063
-222.655	-96.322	-0.052	-0.014
-221.640	-65.493	0.083	-0.033
-220.625	-200.000	-0.047	-0.224
-219.611	-122.777	-0.139	-0.022
-218.596	-96.913	-0.318	-0.082
-217.582	-75.895	0.279	-0.098
-216.567	282.110	0.132	-0.234
-215.552	242.255	0.081	0.134
-214.538	173.341	0.146	-0.208
-213.523	-83.188	-0.116	0.037
-212.509	800.000	0.098	-0.406
-211.494	76.636	-0.156	-0.163
-210.479	-94.656	0.166	0.044
-209.465	-161.276	0.201	0.010
-208.450	111.638	-0.059	0.070
-207.436	373.634	0.117	0.235
-206.421	800.000	0.107	-0.318
-205.406	205.053	0.126	0.193
-204.392	144.252	-0.129	-0.170
-203.377	108.503	0.252	0.297
-202.363	156.999	0.107	-0.146
-201.348	-124.825	0.331	-0.050
-200.333	57.719	-0.218	-0.210
-199.319	-14.477	0.129	0.082
-198.304	-70.212	-0.050	-0.019
-197.290	-200.000	0.035	0.231
-196.275	-200.000	-0.020	0.173
-195.260	-42.073	-0.458	0.231
-194.246	96.012	0.125	0.141
-193.231	800.000	-0.058	0.192
-192.217	-200.000	-0.059	0.447
-191.202	215.195	-0.084	-0.132
-190.187	-52.489	-0.283	0.129
-189.173	-127.565	-0.258	0.037
-188.158	585.296	-0.056	0.136
-187.144	-116.180	-0.272	-0.050
-186.129	-139.314	-0.237	0.025
-185.114	-100.393	0.224	-0.055
-184.100	800.000	0.021	-0.082
-183.085	-74.888	-0.234	0.083
-182.071	-20.936	0.260	0.157
-181.056	-67.824	0.326	0.126
-180.042	-52.829	0.281	-0.128
-179.027	-187.640	-0.326	-0.004
-178.012	800.000	0.048	0.192
-176.998	-200.000	0.001	0.275
-175.983	58.681	0.100	-0.097
-174.969	629.567	-0.093	0.231
-173.954	-200.000	-0.030	0.140
-172.939	25.353	-0.217	-0.178
-171.925	108.546	-0.190	-0.223
-170.910	340.429	0.244	-0.468
-169.896	-81.640	0.150	-0.048
-168.881	48.743	0.133	-0.123
-167.866	165.089	0.070	0.098
-166.852	-99.732	-0.179	-0.044
-165.837	-200.000	0.014	-0.187
-164.823	-67.897	0.297	-0.114
-163.808	-120.053	0.178	-0.030
-162.793	781.412	-0.084	0.227
-161.779	-119.306	0.147	0.025
-160.764	-200.000	0.026	-0.190
-159.750	800.000	0.038	-0.130
-158.735	-200.000	-0.007	0.038
-157.720	48.677	0.171	-0.158
-156.706	58.294	-0.156	0.150
-155.691	795.889	-0.099	0.269
-154.677	-200.000	0.014	-0.150
-153.662	128.348	-0.090	0.112
-152.647	-68.110	-0.301	0.115
-151.633	-35.498	-0.253	0.135
-150.618	-37.310	0.248	0.130
-149.604	-141.106	-0.079	0.008
-148.589	1.920	0.190	-0.135
-147.574	747.445	-0.082	0.219
-146.560	-123.841	0.115	0.018
-145.545	-59.087	-0.366	0.155
-144.531	138.982	-0.246	-0.318
-143.516	35.199	-0.054	-0.047
-142.502	196.838	-0.046	0.069
-141.487	-200.000	0.003	-0.103
-140.472	-115.523	-0.056	0.010
-139.458	269.794	-0.074	-0.128
-138.443	-94.559	0.294	-0.079
-137.429	-3.712	0.017	-0.011
-136.414	489.508	-0.085	-0.190
-135.399	-164.998	0.269	-0.012
-134.385	370.747	-0.140	0.279
-133.370	-137.702	-0.192	-0.021
-132.356	-56.540	-0.159	0.069
-131.341	183.773	0.071	0.104
-130.326	-200.000	-0.014	-0.072
-129.312	24.016	0.082	-0.066
-128.297	-200.000	0.026	-0.148
-127.283	-102.671	-0.135	0.032
-126.268	630.484	-0.037	0.091
-125.253	90.746	0.234	0.258
-124.239	-176.662	-0.251	-0.006
-123.224	-92.376	0.029	0.008
-122.210	372.470	0.092	0.183
