DTS Sentinel unit serial number:	SN413079Multiplexer serial number:	ORYXHardware model number:	OX4-SRSoftware version number:	ORYX F/W v4.00 Oryx Data Collector v3.7.2.0data status	okinstallation	princeton_trtdifferential loss correction	single-endedforward channel	channel 2reverse channel	N/Adate	2019/09/11time	11:25:11forward acquisition time	60.00reverse acquisition time	0.00gamma	496.2192k internal	0.2305k external	0.2305temperature offset calibration	0.9968default loss term (dB/km)	0.3790temperature slope calibration	1.0000multiplexer offset coefficient	1.0000multiplexer slope coefficient	1.0000fibre end	0.00T internal ref (°C)	37.87T ext. ref 1 (°C)	0.18T ext. ref 2 (°C)	35.52length (m)	temperature (°C)	Stokes	anti-Stokes-747.200	-47.805	-0.146	-0.072
-746.185	92.984	-0.132	0.152
-745.171	-200.000	-0.005	0.573
-744.156	-200.000	-0.054	0.353
-743.142	800.000	0.100	0.347
-742.127	-200.000	-0.023	0.283
-741.112	11.660	0.124	0.097
-740.098	493.924	0.137	0.321
-739.083	-200.000	0.020	0.305
-738.069	-154.151	0.318	0.022
-737.054	800.000	-0.048	0.161
-736.039	-135.655	-0.358	0.043
-735.025	594.899	0.179	-0.451
-734.010	-47.816	-0.404	-0.199
-732.996	-82.174	-0.129	0.043
-731.981	216.236	0.026	-0.043
-730.966	-40.605	-0.476	0.251
-729.952	-154.885	0.532	-0.036
-728.937	249.138	-0.023	0.040
-727.923	-200.000	0.014	0.190
-726.908	-200.000	0.013	-0.357
-725.894	78.275	-0.093	0.101
-724.879	500.319	0.003	-0.006
-723.864	5.352	-0.123	-0.092
-722.850	-179.219	0.303	0.007
-721.835	-200.000	0.014	0.585
-720.821	-5.863	-0.358	0.249
-719.806	73.732	0.075	0.080
-718.791	-12.721	0.105	0.070
-717.777	-12.640	-0.099	0.066
-716.762	-57.780	0.057	-0.025
-715.748	800.000	-0.064	-0.206
-714.733	135.078	-0.043	-0.057
-713.718	-99.927	-0.153	-0.039
-712.704	78.944	-0.186	0.202
-711.689	-200.000	-0.030	0.228
-710.675	-200.000	-0.000	-0.090
-709.660	13.813	-0.352	-0.279
-708.645	92.036	-0.245	0.280
-707.631	-34.880	0.209	-0.116
-706.616	146.043	0.107	-0.146
-705.602	-200.000	-0.011	-0.069
-704.587	800.000	-0.093	-0.387
-703.572	62.949	0.279	-0.284
-702.558	-136.841	0.208	-0.024
-701.543	-15.928	0.335	-0.217
-700.529	-76.994	-0.167	-0.059
-699.514	-131.336	-0.269	0.036
-698.499	-149.249	0.389	-0.032
-697.485	46.901	0.290	0.274
-696.470	29.135	-0.224	0.193
-695.456	-98.699	0.229	0.059
-694.441	-102.981	-0.271	-0.065
-693.426	546.811	-0.096	-0.232
-692.412	-2.796	0.162	0.115
-691.397	68.273	0.108	-0.112
-690.383	-79.672	-0.259	-0.089
-689.368	-200.000	0.021	0.196
-688.354	163.620	-0.050	-0.072
-687.339	-152.958	-0.131	-0.009
-686.324	456.424	0.122	-0.275
-685.310	-122.654	-0.055	0.009
-684.295	-200.000	-0.018	-0.138
-683.281	800.000	0.052	0.152
-682.266	-107.634	-0.181	0.040
-681.251	-127.919	-0.065	-0.009
-680.237	-184.173	-0.284	0.005
-679.222	337.849	0.139	0.274
-678.208	83.738	-0.083	0.092
-677.193	35.874	0.185	0.165
-676.178	-200.000	-0.007	0.256
-675.164	143.027	-0.117	0.158
-674.149	-11.980	-0.256	-0.170
-673.135	85.167	-0.265	0.295
-672.120	47.064	0.084	0.080
-671.105	-121.448	0.111	-0.019
-670.091	80.765	-0.237	-0.260
-669.076	-135.844	-0.110	0.013
-668.062	185.860	-0.217	0.327
-667.047	110.695	-0.138	0.169
-666.032	-109.761	0.147	-0.031
-665.018	543.292	0.093	-0.225
-664.003	-89.590	0.420	-0.125
-662.989	125.870	0.065	-0.084
-661.974	-200.000	-0.000	-0.239
-660.959	-200.000	0.012	-0.060
-659.945	13.296	0.364	0.286
-658.930	800.000	-0.014	0.048
-657.916	267.437	0.066	0.117
-656.901	-54.383	0.369	0.170
-655.886	-78.486	0.281	-0.098
-654.872	-63.163	-0.212	0.089
-653.857	-200.000	-0.075	-0.451
-652.843	415.739	-0.088	0.190
-651.828	-64.670	-0.098	-0.040
-650.814	77.246	0.080	0.087
-649.799	-68.430	-0.364	0.143
-648.784	238.699	0.042	-0.071
-647.770	-200.000	0.007	-0.071
-646.755	-142.159	0.370	0.037
-645.741	205.105	-0.108	0.169
-644.726	-116.879	-0.093	0.017
-643.711	259.055	0.131	-0.229
-642.697	52.497	-0.186	0.180
-641.682	-200.000	-0.022	-0.274
-640.668	-98.359	0.223	-0.058
-639.653	-200.000	-0.056	0.269
-638.638	69.016	0.069	0.072
-637.624	140.769	-0.096	-0.128
-636.609	-12.881	-0.067	-0.044
-635.595	114.077	0.123	0.152
-634.580	6.184	-0.363	0.273
-633.565	161.841	0.022	-0.032
-632.551	-41.032	0.400	-0.209
-631.536	12.099	0.176	-0.137
-630.522	-63.114	-0.254	0.106
-629.507	-200.000	0.030	-0.249
-628.492	-84.209	0.474	-0.152
-627.478	-137.731	-0.227	-0.026
-626.463	50.578	-0.216	0.207
-625.449	-168.409	0.153	0.006
-624.434	489.778	-0.047	-0.110
-623.419	-172.888	-0.249	-0.008
-622.405	-55.441	0.082	-0.037
-621.390	-200.000	0.004	-0.172
-620.376	-81.260	-0.241	-0.081
-619.361	320.492	-0.103	0.198
-618.346	-83.764	-0.423	0.137
-617.332	-44.484	0.164	-0.083
-616.317	480.709	-0.065	-0.150
-615.303	27.285	-0.045	-0.038
-614.288	272.656	-0.045	0.080
-613.273	-17.576	-0.347	0.221
-612.259	-88.787	-0.436	-0.131
-611.244	-200.000	-0.094	-0.548
-610.230	-124.503	0.251	-0.040
-609.215	295.336	-0.137	0.254
-608.201	-19.499	-0.154	-0.097
-607.186	-164.006	0.215	0.010
-606.171	103.562	0.224	-0.266
-605.157	800.000	-0.030	0.124
-604.142	119.796	-0.057	0.071
-603.128	11.731	-0.292	-0.227
-602.113	16.786	-0.296	-0.237
-601.098	165.792	-0.145	-0.208
-600.084	-200.000	-0.007	0.039
-599.069	225.042	-0.080	-0.131
-598.055	-200.000	0.018	0.314
-597.040	-199.776	0.139	-0.001
-596.025	-145.455	-0.236	0.021
-595.011	-62.356	-0.204	0.086
-593.996	68.736	-0.072	0.075
-592.982	-65.039	-0.269	-0.110
-591.967	-25.489	-0.065	0.039
-590.952	31.720	0.052	-0.045
-589.938	-161.885	-0.291	0.015
-588.923	-43.456	0.065	-0.033
-587.909	-79.079	-0.166	0.057
-586.894	-111.728	-0.272	0.056
-585.879	45.449	-0.068	0.063
-584.865	65.469	-0.180	-0.185
-583.850	81.444	0.170	-0.186
-582.836	42.443	-0.155	0.143
-581.821	-78.640	-0.168	0.058
-580.806	345.211	0.072	0.142
-579.792	20.818	-0.076	-0.062
-578.777	-36.685	0.173	0.094
-577.763	-13.753	-0.028	-0.019
-576.748	148.032	0.019	-0.025
-575.733	71.017	-0.195	0.204
-574.719	292.738	0.064	0.118
-573.704	-29.279	0.130	-0.075
-572.690	-62.911	-0.237	0.099
-571.675	-160.967	-0.094	0.005
-570.661	80.023	0.094	-0.102
-569.646	-5.969	-0.116	-0.080
-568.631	-200.000	-0.015	0.193
-567.617	485.732	-0.107	0.246
-566.602	73.729	0.023	0.025
-565.588	121.851	-0.215	0.271
-564.573	-127.863	0.300	-0.044
-563.558	-69.303	-0.174	-0.067
-562.544	31.653	-0.104	-0.090
-561.529	15.141	0.223	0.177
-560.515	116.200	-0.154	0.190
-559.500	800.000	0.067	-0.257
-558.485	-7.105	-0.205	0.140
-557.471	-200.000	0.068	0.506
-556.456	800.000	0.085	0.364
-555.442	153.919	-0.290	0.402
-554.427	-30.528	-0.270	-0.154
-553.412	410.076	-0.047	-0.101
-552.398	-200.000	0.118	0.000
-551.383	793.531	0.061	0.168
-550.369	192.267	-0.141	-0.215
-549.354	127.494	-0.162	-0.207
-548.339	154.344	0.112	-0.155
-547.325	551.287	-0.106	0.256
-546.310	-64.467	0.202	-0.083
-545.296	-94.114	0.131	-0.036
-544.281	-200.000	0.004	0.179
-543.266	271.066	0.111	0.197
-542.252	9.202	0.117	-0.089
-541.237	-200.000	0.039	0.234
-540.223	218.269	0.006	-0.009
-539.208	214.787	0.049	-0.079
-538.193	-28.325	0.152	-0.089
-537.179	800.000	-0.050	-0.193
-536.164	800.000	-0.050	0.149
-535.150	364.865	0.111	-0.227
-534.135	-33.758	-0.263	0.146
-533.121	-98.091	-0.242	-0.063
-532.106	-122.454	0.216	0.036
-531.091	-94.177	0.282	-0.078
-530.077	-200.000	0.061	-0.324
-529.062	800.000	0.058	0.170
-528.048	-17.632	0.258	-0.164
-527.033	-99.163	-0.164	0.042
-526.018	800.000	-0.096	-0.298
-525.004	-8.184	-0.283	-0.192
-523.989	89.265	-0.114	-0.129
-522.975	345.123	-0.280	0.555
-521.960	-86.598	-0.295	-0.091
-520.945	-200.000	0.020	0.093
-519.931	-11.047	-0.122	0.081
-518.916	10.747	-0.072	0.056
-517.902	-161.505	-0.191	-0.010
-516.887	-200.000	-0.021	-0.233
-515.872	-20.134	0.305	-0.190
-514.858	42.078	-0.222	0.204
-513.843	-104.342	0.159	-0.037
-512.829	-142.713	0.326	-0.032
-511.814	-6.458	0.320	0.220
-510.799	-29.617	0.138	-0.080
-509.785	37.862	-0.078	0.070
-508.770	-200.000	0.003	-0.150
-507.756	-42.484	-0.277	0.142
-506.741	800.000	0.113	-0.331
-505.726	-89.810	-0.187	-0.055
-504.712	-200.000	-0.010	-0.244
-503.697	800.000	0.024	-0.088
-502.683	800.000	0.068	-0.259
-501.668	800.000	0.045	-0.144
-500.653	-158.729	-0.564	0.033
-499.639	-184.595	0.239	0.004
-498.624	-82.564	-0.147	0.048
-497.610	-200.000	-0.028	-0.224
-496.595	-200.000	-0.027	0.219
-495.581	-47.623	0.161	-0.079
-494.566	-133.820	-0.151	0.019
-493.551	23.028	0.336	0.278
-492.537	107.848	-0.089	0.106
-491.522	-200.000	-0.015	0.137
-490.508	72.372	0.261	-0.274
-489.493	137.443	0.145	-0.192
-488.478	31.741	-0.104	-0.090
-487.464	-200.000	0.004	-0.066
-486.449	800.000	-0.058	-0.169
-485.435	-42.273	-0.048	0.025
-484.420	-65.383	-0.235	-0.095
-483.405	-114.894	-0.129	0.025
-482.391	-183.758	-0.126	0.002
-481.376	-57.259	-0.203	0.090
-480.362	-152.622	-0.274	0.020
-479.347	-124.890	-0.043	0.007
-478.332	-200.000	0.011	-0.107
-477.318	30.801	0.227	-0.196
-476.303	-200.000	-0.039	-0.290
-475.289	333.622	0.151	-0.294
-474.274	349.954	0.056	0.112
-473.259	-9.305	-0.165	0.111
-472.245	148.967	0.272	-0.371
-471.230	-135.844	-0.441	0.052
-470.216	94.764	0.093	0.107
-469.201	-64.951	-0.205	0.084
-468.186	-73.355	0.120	-0.044
-467.172	89.797	-0.062	-0.070
-466.157	155.217	0.107	-0.148
-465.143	387.404	0.097	-0.201
-464.128	79.622	-0.281	-0.304
-463.113	178.471	-0.283	-0.417
-462.099	329.218	0.167	-0.323
-461.084	106.160	0.097	-0.116
-460.070	579.097	0.081	0.200
-459.055	-200.000	0.045	0.357
-458.040	-84.344	0.314	-0.100
-457.026	-51.411	0.267	-0.126
-456.011	202.094	0.033	-0.052
-454.997	-23.119	-0.129	-0.078
-453.982	349.309	-0.069	0.136
-452.968	-64.391	0.423	0.173
-451.953	428.145	-0.073	-0.158
-450.938	166.610	0.110	0.158
-449.924	639.101	0.102	-0.262
-448.909	-66.347	-0.231	-0.093
-447.895	-200.000	-0.031	0.392
-446.880	-148.054	-0.233	-0.019
-445.865	-200.000	0.044	0.234
-444.851	-65.730	-0.019	-0.008
-443.836	-64.117	-0.088	-0.036
-442.822	150.933	0.112	0.153
-441.807	-19.059	0.217	-0.136
-440.792	141.594	0.047	0.063
-439.778	-8.532	0.023	-0.015
-438.763	140.971	0.133	0.177
-437.749	800.000	-0.047	-0.138
-436.734	-200.000	0.443	-0.001
-435.719	198.639	0.140	0.215
-434.705	-200.000	0.007	0.106
-433.690	-200.000	-0.033	0.294
-432.676	-200.000	0.005	0.195
-431.661	2.253	-0.115	-0.083
-430.646	-200.000	0.065	-0.369
-429.632	29.961	-0.044	0.038
-428.617	470.981	-0.080	-0.181
-427.603	15.869	-0.134	-0.106
-426.588	-22.006	0.112	-0.068
-425.573	-79.124	-0.091	0.031
-424.559	154.522	0.199	0.275
-423.544	-27.454	0.255	0.149
-422.530	800.000	0.087	0.283
-421.515	-47.761	0.111	-0.054
-420.500	339.161	0.126	0.248
-419.486	-105.317	0.217	0.050
-418.471	-99.099	-0.278	-0.071
-417.457	506.887	0.134	0.313
-416.442	211.358	0.077	0.122
-415.428	-132.693	-0.163	-0.021
-414.413	-79.292	0.340	0.116
-413.398	-128.508	0.265	-0.038
-412.384	-109.143	0.140	-0.030
-411.369	563.170	0.139	0.339
-410.355	-48.008	-0.278	-0.135
-409.340	-143.726	0.246	0.023
-408.325	800.000	0.044	-0.143
-407.311	82.031	-0.216	0.235
-406.296	-91.356	0.143	-0.041
-405.282	75.167	-0.143	0.151
-404.267	130.242	0.210	0.270
-403.252	53.608	-0.354	-0.341
-402.238	800.000	-0.054	-0.207
-401.223	800.000	0.041	0.174
-400.209	-27.523	-0.256	0.149
-399.194	-80.348	-0.270	0.091
-398.179	-59.044	0.170	0.074
-397.165	-200.000	-0.079	0.368
-396.150	-17.503	0.221	0.140
-395.136	44.406	-0.157	0.144
-394.121	134.662	0.086	0.113
-393.106	-145.955	0.189	-0.017
-392.092	-200.000	0.014	-0.274
-391.077	800.000	-0.106	-0.361
-390.063	143.163	0.138	0.184
-389.048	800.000	0.097	-0.342
-388.033	-116.739	0.049	-0.009
-387.019	187.673	0.143	-0.214
-386.004	800.000	-0.011	-0.039
-384.990	-97.545	0.160	-0.042
-383.975	-117.028	-0.255	0.047
-382.960	212.684	0.176	-0.279
-381.946	73.409	0.023	-0.024
-380.931	-95.637	0.245	-0.066
-379.917	-109.450	-0.208	-0.044
-378.902	668.645	0.074	-0.192
-377.888	343.985	0.144	0.283
-376.873	78.203	0.080	0.086
-375.858	800.000	0.020	0.079
-374.844	34.606	-0.077	0.068
-373.829	195.668	-0.119	-0.182
-372.815	374.736	-0.116	0.237
-371.800	-98.622	-0.069	-0.018
-370.785	212.918	-0.148	-0.235
-369.771	152.491	0.201	0.276
-368.756	-200.000	0.005	0.157
-367.742	80.988	0.180	-0.195
-366.727	-20.434	0.053	0.033
-365.712	144.121	-0.172	0.230
-364.698	211.424	-0.099	0.155
-363.683	-120.202	-0.043	0.007
-362.669	-177.818	0.095	-0.002
-361.654	-18.246	0.251	-0.157
-360.639	389.057	-0.110	-0.229
-359.625	-130.225	-0.137	-0.019
-358.610	202.867	0.054	-0.083
-357.596	48.161	0.225	0.211
-356.581	800.000	0.036	0.112
-355.566	-123.093	-0.279	-0.045
-354.552	22.723	-0.257	-0.211
-353.537	-65.685	-0.350	-0.141
-352.523	-34.210	0.288	-0.159
-351.508	14.583	-0.283	0.221
-350.493	-88.063	0.319	0.096
-349.479	800.000	0.064	0.190
-348.464	4.807	-0.198	0.146
-347.450	-46.266	0.337	0.166
-346.435	-200.000	0.089	0.431
-345.420	-160.380	0.298	0.016
-344.406	239.431	0.038	-0.064
-343.391	-200.000	0.031	-0.291
-342.377	-79.369	-0.305	-0.103
-341.362	242.417	0.082	-0.138
-340.348	-165.233	-0.542	0.024
-339.333	800.000	-0.081	-0.311
-338.318	113.900	0.072	0.088
-337.304	-49.087	-0.052	-0.025
-336.289	800.000	0.069	-0.192
-335.275	225.738	-0.162	-0.264
-334.260	-129.755	0.326	-0.045
-333.245	296.250	-0.115	-0.211
-332.231	344.472	-0.170	0.334
-331.216	127.466	-0.196	0.249
-330.202	-200.000	-0.017	0.085
-329.187	-70.675	-0.092	0.035
-328.172	1.638	-0.190	0.137
-327.158	370.536	0.095	-0.192
-326.143	-200.000	-0.003	-0.031
-325.129	-200.000	-0.071	-0.357
-324.114	316.321	-0.038	0.072
-323.099	309.746	0.103	-0.192
-322.085	-169.921	0.130	0.005
-321.070	-26.736	0.141	0.083
-320.056	-200.000	0.024	0.262
-319.041	-148.177	-0.152	-0.013
-318.026	217.386	-0.151	-0.240
-317.012	-200.000	0.021	0.481
-315.997	126.666	0.251	0.318
-314.983	-108.288	0.114	-0.025
-313.968	123.271	-0.052	-0.065
-312.953	369.426	-0.237	0.481
-311.939	-18.975	0.271	-0.169
-310.924	-200.000	0.002	0.312
-309.910	-200.000	0.058	0.563
-308.895	-69.081	0.407	0.157
-307.880	-75.719	-0.218	-0.077
-306.866	-152.890	-0.116	0.008
-305.851	349.993	0.076	-0.151
-304.837	65.284	0.023	-0.024
-303.822	800.000	-0.035	0.138
-302.807	800.000	-0.053	0.162
-301.793	-200.000	0.053	-0.432
-300.778	735.740	-0.085	-0.229
-299.764	598.238	0.161	0.399
-298.749	737.588	-0.087	0.233
-297.735	166.131	0.072	-0.102
-296.720	82.181	0.104	0.113
-295.705	189.132	0.193	0.289
-294.691	-72.941	-0.202	-0.074
-293.676	-158.073	-0.267	-0.016
-292.662	-140.306	0.401	0.042
-291.647	633.153	-0.113	-0.287
-290.632	-31.038	0.154	-0.087
-289.618	319.155	0.170	0.322
-288.603	800.000	-0.037	0.127
-287.589	200.201	0.133	0.204
-286.574	-83.262	0.301	-0.097
-285.559	186.150	0.179	-0.266
-284.545	-32.926	0.204	-0.113
-283.530	-112.810	0.263	-0.052
-282.516	-200.000	-0.013	-0.121
-281.501	76.373	-0.168	-0.178
-280.486	-14.386	-0.179	0.115
-279.472	179.049	0.206	-0.300
-278.457	-200.000	-0.023	0.133
-277.443	242.363	0.041	-0.068
-276.428	25.283	0.081	-0.067
-275.413	-16.974	0.242	-0.152
-274.399	-100.200	0.195	0.049
-273.384	-121.954	0.420	-0.069
-272.370	187.408	-0.092	0.137
-271.355	-200.000	0.031	-0.161
-270.340	-168.339	-0.213	0.008
-269.326	-34.906	-0.172	-0.094
-268.311	-200.000	0.020	0.144
-267.297	-72.804	0.281	0.103
-266.282	-157.508	-0.154	0.009
-265.267	800.000	0.089	-0.295
-264.253	-164.515	0.130	-0.006
-263.238	-35.885	-0.550	-0.297
-262.224	-29.536	-0.052	-0.030
-261.209	800.000	-0.136	-0.485
-260.195	173.744	0.163	0.235
-259.180	800.000	-0.078	0.223
-258.165	-139.872	0.107	0.011
-257.151	314.974	-0.160	0.300
-256.136	-13.670	-0.254	0.164
-255.122	800.000	0.112	0.337
-254.107	60.558	-0.185	0.183
-253.092	-200.000	-0.029	-0.230
-252.078	458.559	-0.098	0.217
-251.063	363.300	0.081	0.162
-250.049	-161.292	0.157	-0.008
-249.034	38.752	0.114	0.102
-248.019	800.000	-0.062	0.177
-247.005	-120.071	0.478	0.082
-245.990	246.323	0.152	-0.255
-244.976	800.000	0.090	0.264
-243.961	141.606	0.278	-0.367
-242.946	800.000	0.081	0.258
-241.932	800.000	-0.053	-0.165
-240.917	172.930	0.104	0.149
-239.903	-70.221	0.011	-0.004
-238.888	-66.505	0.144	-0.057
-237.873	-129.987	0.437	0.060
-236.859	-21.674	-0.274	0.166
-235.844	-22.622	-0.102	-0.061
-234.830	424.808	-0.089	-0.190
-233.815	-200.000	0.022	-0.229
-232.800	-13.356	-0.173	0.112
-231.786	668.624	-0.118	0.304
-230.771	325.854	0.084	-0.161
-229.757	399.428	0.078	0.163
-228.742	26.990	0.162	0.136
-227.727	39.684	0.013	-0.012
-226.713	671.474	-0.061	-0.159
-225.698	181.223	-0.359	0.526
-224.684	-81.832	0.197	-0.064
-223.669	262.219	-0.126	-0.218
-222.655	6.000	-0.197	-0.146
-221.640	-87.912	0.157	0.047
-220.625	-200.000	-0.028	0.123
-219.611	8.446	-0.241	-0.180
-218.596	-4.145	-0.180	0.124
-217.582	-100.454	-0.069	-0.017
-216.567	-167.298	0.190	-0.008
-215.552	-200.000	0.083	0.417
-214.538	-200.000	-0.015	0.273
-213.523	-20.746	0.313	-0.191
-212.509	415.194	0.059	-0.125
-211.494	-65.240	-0.351	-0.141
-210.479	287.436	0.125	-0.226
-209.465	86.841	-0.059	0.065
-208.450	34.382	-0.088	0.077
-207.436	592.509	-0.102	-0.250
-206.421	159.603	0.148	-0.206
-205.406	-75.672	0.252	0.089
-204.392	-60.159	0.052	0.022
-203.377	-62.882	0.150	0.062
-202.363	1.687	0.141	0.101
-201.348	-200.000	-0.017	-0.290
-200.333	-139.596	-0.097	-0.010
-199.319	308.494	-0.089	0.165
-198.304	-111.105	0.178	-0.036
-197.290	340.115	0.098	-0.190
-196.275	126.311	0.116	0.146
-195.260	565.640	0.064	-0.153
-194.246	-200.000	-0.009	-0.366
-193.231	286.317	0.086	0.155
-192.217	-7.788	-0.264	0.178
-191.202	32.838	-0.065	-0.056
-190.187	671.722	0.145	-0.374
-189.173	70.173	0.036	-0.037
-188.158	28.991	0.268	0.226
-187.144	800.000	-0.027	0.118
-186.129	-200.000	0.093	-0.462
-185.114	88.100	-0.037	0.041
-184.100	-200.000	-0.002	0.181
-183.085	-112.379	0.296	0.059
-182.071	800.000	-0.110	0.427
-181.056	-130.003	-0.072	-0.010
-180.042	24.944	-0.258	0.213
-179.027	57.678	-0.155	0.151
-178.012	-200.000	-0.058	-0.536
-176.998	800.000	0.087	0.273
-175.983	398.164	-0.134	-0.280
-174.969	74.428	-0.155	0.162
-173.954	58.081	0.105	-0.102
-172.939	-200.000	0.001	-0.217
-171.925	-144.494	0.473	0.044
-170.910	-200.000	-0.069	-0.405
-169.896	170.195	0.089	-0.127
-168.881	-107.268	-0.141	-0.031
-167.866	184.512	0.071	0.104
-166.852	427.351	-0.035	0.076
-165.837	-200.000	0.068	0.448
-164.823	-200.000	-0.009	-0.296
-163.808	-77.389	0.130	-0.045
-162.793	310.614	0.125	-0.233
-161.779	359.951	-0.098	-0.195
-160.764	-60.445	0.169	0.071
-159.750	-200.000	0.018	0.139
-158.735	-108.664	-0.262	0.056
-157.720	87.724	-0.055	0.060
-156.706	232.375	0.140	-0.229
-155.691	-200.000	-0.015	0.200
-154.677	-114.009	-0.391	0.075
-153.662	693.171	0.060	-0.157
-152.647	-46.474	0.239	-0.117
-151.633	-200.000	-0.025	-0.363
-150.618	800.000	0.063	0.220
-149.604	108.006	0.087	0.103
-148.589	265.640	-0.175	-0.304
-147.574	800.000	-0.103	-0.292
-146.560	338.188	-0.153	-0.296
-145.545	-67.952	-0.385	0.149
-144.531	-200.000	-0.005	-0.216
-143.516	-98.112	0.217	0.056
-142.502	-156.626	-0.246	0.015
-141.487	-45.399	0.244	-0.120
-140.472	105.810	0.066	0.078
-139.458	555.296	-0.135	-0.323
-138.443	141.857	-0.104	0.137
-137.429	800.000	-0.096	-0.271
-136.414	-200.000	0.016	0.086
-135.399	-167.150	-0.035	0.001
-134.385	-101.043	0.297	-0.072
-133.370	279.364	-0.063	-0.112
-132.356	-101.353	-0.072	-0.017
-131.341	800.000	0.103	0.322
-130.326	302.010	-0.130	-0.238
-129.312	-116.468	-0.068	0.013
-128.297	155.155	-0.136	-0.185
-127.283	-154.778	-0.132	-0.009
-126.268	717.685	-0.062	-0.164
-125.253	-200.000	-0.004	0.153
-124.239	151.068	-0.059	0.080
-123.224	168.046	-0.099	0.140
-122.210	21.249	0.139	0.112
-121.195	800.000	-0.084	-0.360
