DTS Sentinel unit serial number:	SN413079Multiplexer serial number:	ORYXHardware model number:	OX4-SRSoftware version number:	ORYX F/W v4.00 Oryx Data Collector v3.7.2.0data status	okinstallation	princeton_trtdifferential loss correction	single-endedforward channel	channel 2reverse channel	N/Adate	2019/09/10time	21:33:11forward acquisition time	60.00reverse acquisition time	0.00gamma	496.2192k internal	0.2330k external	0.2330temperature offset calibration	0.9944default loss term (dB/km)	0.3790temperature slope calibration	1.0000multiplexer offset coefficient	1.0000multiplexer slope coefficient	1.0000fibre end	0.00T internal ref (°C)	31.08T ext. ref 1 (°C)	-0.32T ext. ref 2 (°C)	24.53length (m)	temperature (°C)	Stokes	anti-Stokes-747.200	-136.480	0.317	0.037
-746.185	549.755	-0.142	-0.344
-745.171	800.000	-0.001	-0.003
-744.156	238.522	0.138	0.232
-743.142	21.606	-0.240	0.197
-742.127	104.688	-0.207	0.246
-741.112	799.141	-0.185	-0.513
-740.098	228.709	-0.207	0.340
-739.083	-157.193	-0.138	0.008
-738.069	64.257	-0.288	-0.292
-737.054	-200.000	-0.000	-0.154
-736.039	26.010	-0.188	-0.158
-735.025	-30.506	0.147	-0.084
-734.010	-200.000	-0.040	0.204
-732.996	-36.246	-0.603	-0.327
-731.981	-93.139	0.186	-0.052
-730.966	-64.866	0.215	-0.087
-729.952	-51.962	-0.454	-0.212
-728.937	-200.000	0.015	-0.294
-727.923	-43.211	-0.281	-0.143
-726.908	69.201	-0.209	-0.216
-725.894	-115.982	-0.277	0.052
-724.879	-200.000	-0.004	-0.368
-723.864	-71.573	-0.044	0.017
-722.850	425.314	-0.137	0.297
-721.835	-200.000	-0.026	-0.172
-720.821	-120.476	-0.280	-0.048
-719.806	-200.000	-0.020	-0.325
-718.791	-200.000	-0.027	0.161
-717.777	-87.578	0.327	-0.099
-716.762	23.986	0.086	0.071
-715.748	14.471	-0.190	0.149
-714.733	-159.903	-0.294	-0.016
-713.718	551.429	0.037	-0.088
-712.704	-119.865	0.273	-0.047
-711.689	-141.147	0.082	-0.008
-710.675	273.141	-0.118	-0.210
-709.660	23.353	0.072	0.059
-708.645	260.802	0.045	-0.078
-707.631	-21.484	0.083	0.051
-706.616	131.092	0.046	-0.059
-705.602	-33.683	0.132	0.073
-704.587	-46.451	-0.116	0.057
-703.572	-100.215	0.077	0.019
-702.558	-22.616	0.251	0.153
-701.543	-200.000	-0.041	0.279
-700.529	99.625	-0.185	0.216
-699.514	800.000	0.068	-0.205
-698.499	622.508	0.060	-0.151
-697.485	-200.000	-0.100	-0.529
-696.470	-70.760	0.197	-0.075
-695.456	139.563	-0.101	0.133
-694.441	-200.000	0.026	-0.338
-693.426	-127.466	-0.129	-0.019
-692.412	248.701	-0.103	0.175
-691.397	-103.242	-0.315	-0.075
-690.383	-62.440	-0.157	-0.065
-689.368	-156.106	-0.340	0.022
-688.354	800.000	0.104	-0.358
-687.339	-77.071	-0.305	-0.107
-686.324	-118.839	0.465	0.082
-685.310	229.984	0.118	-0.194
-684.295	-200.000	-0.042	-0.431
-683.281	331.234	-0.013	-0.025
-682.266	388.410	0.084	0.174
-681.251	15.662	0.189	-0.149
-680.237	333.663	-0.112	-0.218
-679.222	800.000	-0.102	-0.354
-678.208	-109.926	-0.413	0.087
-677.193	66.322	-0.189	0.193
-676.178	123.604	-0.203	-0.255
-675.164	-194.093	-0.210	-0.002
-674.149	-87.660	0.174	-0.053
-673.135	190.297	0.283	0.427
-672.120	302.397	-0.142	-0.264
-671.105	107.645	-0.217	-0.260
-670.091	43.493	0.197	0.180
-669.076	-110.273	-0.466	-0.097
-668.062	-64.801	-0.235	-0.096
-667.047	800.000	-0.097	0.409
-666.032	-88.665	-0.150	-0.045
-665.018	10.743	0.049	-0.037
-664.003	-200.000	-0.024	-0.227
-662.989	59.924	0.045	-0.045
-661.974	-128.445	-0.118	0.017
-660.959	-15.867	-0.164	-0.105
-659.945	3.745	0.219	-0.160
-658.930	-200.000	-0.002	0.154
-657.916	42.215	-0.072	0.065
-656.901	99.529	-0.276	-0.321
-655.886	-200.000	0.033	-0.205
-654.872	-193.562	0.435	0.004
-653.857	-191.297	-0.241	0.002
-652.843	-200.000	0.063	0.388
-651.828	31.141	-0.147	0.126
-650.814	-76.624	-0.336	0.118
-649.799	131.159	-0.099	-0.128
-648.784	42.439	-0.226	-0.207
-647.770	-200.000	-0.034	-0.177
-646.755	80.467	-0.088	0.095
-645.741	-110.870	0.126	0.026
-644.726	-71.438	-0.183	0.069
-643.711	-82.549	0.286	-0.093
-642.697	-38.138	0.146	-0.078
-641.682	800.000	-0.044	0.130
-640.668	405.184	-0.060	0.126
-639.653	-200.000	0.015	-0.085
-638.638	140.656	0.109	0.144
-637.624	206.598	0.120	-0.187
-636.609	94.146	0.253	0.288
-635.595	305.192	-0.101	0.187
-634.580	-94.038	0.062	0.017
-633.565	-66.735	0.178	-0.070
-632.551	800.000	0.066	-0.245
-631.536	-60.846	-0.352	-0.149
-630.522	236.042	-0.131	0.217
-629.507	28.916	0.144	-0.123
-628.492	89.896	-0.119	-0.133
-627.478	-158.839	-0.154	-0.009
-626.463	431.698	0.063	-0.137
-625.449	212.477	-0.090	-0.142
-624.434	387.852	-0.091	-0.188
-623.419	86.736	-0.164	-0.181
-622.405	-200.000	0.002	-0.146
-621.390	640.896	0.068	-0.172
-620.376	-101.887	-0.178	0.043
-619.361	-200.000	-0.011	0.161
-618.346	-48.882	-0.178	-0.086
-617.332	500.557	0.028	-0.064
-616.317	-34.057	-0.013	0.007
-615.303	-115.888	0.400	-0.075
-614.288	-200.000	0.000	-0.241
-613.273	630.114	-0.117	-0.297
-612.259	-92.996	0.268	-0.075
-611.244	203.188	0.128	-0.198
-610.230	-132.520	-0.198	0.026
-609.215	87.492	0.348	0.386
-608.201	0.751	0.167	-0.120
-607.186	-110.427	0.090	-0.019
-606.171	-8.797	0.226	0.152
-605.157	-128.073	-0.177	0.025
-604.142	-164.182	-0.102	-0.005
-603.128	-32.134	-0.119	-0.067
-602.113	-10.226	0.115	0.077
-601.098	-129.053	-0.155	0.022
-600.084	133.210	-0.131	0.169
-599.069	74.170	-0.198	0.208
-598.055	758.668	-0.168	-0.457
-597.040	-14.461	0.095	-0.061
-596.025	284.185	-0.078	0.141
-595.011	800.000	0.017	-0.069
-593.996	334.810	-0.057	-0.111
-592.982	6.307	0.204	-0.151
-591.967	800.000	-0.120	-0.504
-590.952	-94.332	-0.252	0.069
-589.938	-140.222	-0.212	0.022
-588.923	-114.914	0.196	0.037
-587.909	116.681	-0.089	-0.110
-586.894	277.309	0.083	-0.147
-585.879	-43.928	-0.067	0.034
-584.865	-91.615	0.218	-0.062
-583.850	-11.591	-0.208	-0.137
-582.836	329.700	-0.061	0.118
-581.821	-52.872	0.242	0.111
-580.806	-83.774	0.165	-0.053
-579.792	-200.000	0.032	0.144
-578.777	-100.725	0.187	-0.046
-577.763	41.877	0.289	-0.262
-576.748	-1.995	-0.163	0.115
-575.733	-190.736	0.205	-0.002
-574.719	-200.000	0.029	-0.203
-573.704	638.293	-0.088	0.223
-572.690	80.470	-0.102	0.110
-571.675	-200.000	-0.006	-0.057
-570.661	222.140	0.039	-0.063
-569.646	-49.368	0.184	0.088
-568.631	-4.781	0.013	-0.009
-567.617	-66.004	0.454	0.181
-566.602	232.463	-0.092	-0.151
-565.588	800.000	0.026	0.098
-564.573	77.271	0.071	0.075
-563.558	-200.000	0.006	-0.160
-562.544	-18.812	-0.206	0.128
-561.529	673.423	-0.047	-0.122
-560.515	759.099	0.032	-0.087
-559.500	-129.102	0.311	0.043
-558.485	-72.355	0.289	-0.107
-557.471	58.133	0.165	0.162
-556.456	24.427	0.309	0.256
-555.442	-74.194	-0.157	-0.057
-554.427	-7.495	0.239	-0.162
-553.412	800.000	-0.061	-0.203
-552.398	800.000	-0.037	0.159
-551.383	-131.785	-0.123	-0.016
-550.369	-145.959	-0.262	-0.023
-549.354	-164.037	0.183	0.008
-548.339	115.069	0.075	-0.091
-547.325	-200.000	-0.097	-0.627
-546.310	591.046	0.217	-0.534
-545.296	-200.000	-0.024	-0.251
-544.281	793.239	0.025	0.068
-543.266	-80.096	0.143	0.048
-542.252	65.723	-0.293	-0.296
-541.237	800.000	-0.056	0.174
-540.223	-73.040	-0.338	0.124
-539.208	61.083	0.214	0.212
-538.193	-200.000	-0.037	0.234
-537.179	-86.356	-0.306	0.094
-536.164	94.124	0.011	0.013
-535.150	800.000	-0.051	0.146
-534.135	248.197	-0.085	0.144
-533.121	56.279	0.219	0.213
-532.106	381.419	-0.189	0.387
-531.091	-19.156	-0.115	0.072
-530.077	40.055	-0.136	-0.122
-529.062	7.360	0.063	0.047
-528.048	-200.000	0.038	0.266
-527.033	-85.137	0.445	0.139
-526.018	-161.706	0.153	0.008
-525.004	60.593	0.143	-0.141
-523.989	-42.562	0.068	0.034
-522.975	800.000	-0.060	-0.195
-521.960	-187.400	-0.092	-0.001
-520.945	332.450	-0.038	-0.073
-519.931	800.000	-0.054	-0.211
-518.916	324.574	-0.138	0.263
-517.902	-15.582	0.238	-0.151
-516.887	12.310	-0.148	0.114
-515.872	-200.000	-0.002	-0.112
-514.858	3.924	0.172	0.126
-513.843	-200.000	-0.016	-0.132
-512.829	4.152	-0.253	-0.185
-511.814	24.726	0.114	-0.094
-510.799	117.502	0.151	-0.185
-509.785	-200.000	-0.043	0.191
-508.770	800.000	0.066	0.275
-507.756	147.686	-0.155	-0.208
-506.741	-106.940	-0.218	-0.048
-505.726	-61.516	-0.155	-0.065
-504.712	-25.315	0.050	0.030
-503.697	411.941	-0.052	-0.110
-502.683	-47.922	-0.357	-0.172
-501.668	-200.000	0.001	0.003
-500.653	-200.000	-0.026	0.135
-499.639	-169.685	-0.055	-0.002
-498.624	800.000	0.090	-0.277
-497.610	8.723	-0.215	-0.161
-496.595	-147.058	0.232	-0.020
-495.581	294.809	0.078	-0.142
-494.566	103.179	0.045	-0.053
-493.551	800.000	0.080	0.283
-492.537	648.636	0.154	0.392
-491.522	-200.000	-0.005	0.259
-490.508	-200.000	0.054	-0.319
-489.493	-5.594	0.262	-0.179
-488.478	152.120	-0.060	0.082
-487.464	-120.974	0.384	0.064
-486.449	350.561	0.062	-0.121
-485.435	-118.848	-0.149	-0.026
-484.420	-73.975	-0.226	0.082
-483.405	-200.000	-0.058	-0.334
-482.391	-200.000	-0.043	0.380
-481.376	800.000	0.083	0.232
-480.362	126.997	-0.005	-0.006
-479.347	144.520	0.210	0.279
-478.332	-91.840	-0.206	0.058
-477.318	479.324	-0.081	0.183
-476.303	139.863	-0.035	-0.046
-475.289	-200.000	-0.052	0.242
-474.274	68.720	0.194	-0.198
-473.259	34.334	-0.018	0.016
-472.245	-200.000	-0.043	-0.280
-471.230	-123.712	0.316	-0.050
-470.216	96.063	-0.169	0.192
-469.201	-5.745	-0.114	0.078
-468.186	-200.000	-0.059	-0.396
-467.172	84.964	-0.086	0.094
-466.157	0.351	-0.275	-0.195
-465.143	-153.208	-0.110	0.008
-464.128	68.469	-0.174	0.178
-463.113	-124.547	0.435	0.067
-462.099	344.904	0.023	-0.045
-461.084	-200.000	0.052	-0.344
-460.070	408.769	0.104	0.220
-459.055	50.310	-0.381	-0.359
-458.040	-200.000	0.005	0.051
-457.026	36.050	-0.208	-0.182
-456.011	-200.000	-0.036	0.293
-454.997	-85.337	-0.197	-0.061
-453.982	-121.717	-0.446	-0.074
-452.968	-200.000	-0.025	-0.373
-451.953	40.873	0.066	-0.060
-450.938	15.459	0.274	0.214
-449.924	-137.423	0.127	-0.014
-448.909	-200.000	0.011	-0.064
-447.895	162.630	0.222	0.311
-446.880	60.184	-0.131	-0.129
-445.865	292.826	0.027	-0.049
-444.851	-30.611	-0.024	0.014
-443.836	-137.523	-0.213	0.024
-442.822	-92.684	0.260	0.072
-441.807	-87.468	-0.307	0.093
-440.792	-132.219	0.074	0.010
-439.778	-59.598	-0.061	-0.026
-438.763	311.931	0.037	0.070
-437.749	0.901	0.151	0.108
-436.734	59.872	0.145	-0.142
-435.719	139.160	0.249	-0.326
-434.705	173.360	0.209	0.300
-433.690	38.248	0.141	-0.125
-432.676	7.348	0.200	-0.148
-431.661	59.642	0.134	0.132
-430.646	-65.471	-0.430	-0.172
-429.632	-200.000	0.021	-0.287
-428.617	-200.000	-0.001	0.193
-427.603	32.128	0.211	-0.181
-426.588	-78.204	-0.091	-0.031
-425.573	23.447	0.156	-0.127
-424.559	-94.483	-0.083	-0.022
-423.544	5.753	-0.146	0.107
-422.530	346.445	-0.202	0.395
-421.515	-23.934	-0.157	-0.093
-420.500	-78.101	0.097	0.033
-419.486	351.772	-0.153	0.301
-418.471	65.818	0.176	0.177
-417.457	-33.287	0.105	-0.058
-416.442	-200.000	0.077	0.407
-415.428	63.403	-0.067	0.067
-414.413	184.143	-0.194	0.286
-413.398	-60.973	0.207	0.087
-412.384	29.489	-0.188	-0.159
-411.369	75.204	-0.330	0.346
-410.355	800.000	0.145	0.508
-409.340	-200.000	0.021	0.311
-408.325	-134.357	-0.189	0.023
-407.311	353.643	0.179	-0.354
-406.296	-200.000	0.056	-0.307
-405.282	-200.000	-0.022	-0.131
-404.267	-128.611	0.260	-0.037
-403.252	-34.699	-0.244	-0.133
-402.238	-102.407	0.103	-0.025
-401.223	-200.000	0.011	-0.168
-400.209	73.791	-0.129	-0.134
-399.194	19.229	-0.127	0.101
-398.179	14.294	0.075	-0.058
-397.165	-200.000	-0.048	0.219
-396.150	-101.713	0.104	0.025
-395.136	-200.000	0.050	-0.262
-394.121	-137.959	0.199	0.022
-393.106	-200.000	-0.034	0.268
-392.092	-200.000	-0.039	0.474
-391.077	-47.430	0.459	0.222
-390.063	10.261	-0.338	0.255
-389.048	-2.817	-0.265	-0.184
-388.033	-48.363	-0.326	-0.156
-387.019	-15.190	-0.289	0.184
-386.004	-1.196	-0.285	0.200
-384.990	-37.993	-0.163	0.086
-383.975	-200.000	0.008	0.137
-382.960	117.514	-0.232	0.283
-381.946	6.487	-0.172	-0.127
-380.931	-200.000	-0.018	0.325
-379.917	-169.741	0.284	0.010
-378.902	-51.129	0.145	-0.068
-377.888	800.000	-0.033	-0.119
-376.873	70.937	-0.093	0.096
-375.858	800.000	-0.062	0.211
-374.844	-125.430	0.251	0.038
-373.829	365.098	-0.102	0.203
-372.815	81.034	-0.060	0.064
-371.800	-110.673	-0.142	-0.029
-370.785	800.000	0.047	-0.139
-369.771	-58.316	0.040	0.017
-368.756	-200.000	0.059	-0.460
-367.742	-200.000	0.042	-0.231
-366.727	800.000	0.055	-0.152
-365.712	123.766	0.059	-0.073
-364.698	-150.288	-0.432	0.033
-363.683	800.000	-0.068	0.188
-362.669	62.981	0.088	0.087
-361.654	-200.000	0.017	-0.074
-360.639	-92.013	0.179	-0.050
-359.625	395.067	0.138	-0.284
-358.610	-200.000	0.025	-0.111
-357.596	25.367	0.036	-0.029
-356.581	800.000	0.077	-0.260
-355.566	-200.000	0.010	-0.180
-354.552	20.017	0.167	0.133
-353.537	-133.847	0.086	-0.011
-352.523	70.971	-0.248	0.255
-351.508	800.000	-0.072	-0.210
-350.493	-200.000	0.015	0.213
-349.479	88.309	-0.193	-0.212
-348.464	-200.000	-0.001	-0.008
-347.450	-200.000	-0.014	0.281
-346.435	-200.000	-0.012	-0.056
-345.420	-17.619	-0.104	-0.065
-344.406	-131.178	-0.237	0.031
-343.391	135.526	-0.170	-0.220
-342.377	-108.307	0.081	-0.017
-341.362	458.362	-0.049	-0.108
-340.348	59.736	0.109	0.106
-339.333	198.026	-0.027	-0.041
-338.318	-83.375	-0.097	-0.031
-337.304	121.967	0.275	-0.341
-336.289	28.288	0.070	-0.058
-335.275	244.703	-0.192	0.320
-334.260	180.447	0.127	-0.184
-333.245	-84.931	0.145	-0.045
-332.231	-23.394	0.598	-0.356
-331.216	29.437	0.230	-0.194
-330.202	-200.000	-0.071	-0.377
-329.187	800.000	-0.095	0.397
-328.172	168.895	0.075	0.106
-327.158	-31.258	0.137	0.076
-326.143	-94.513	0.436	-0.118
-325.129	-178.633	0.265	0.006
-324.114	0.210	0.125	-0.088
-323.099	2.668	-0.192	0.138
-322.085	-12.850	-0.204	0.131
-321.070	-20.129	0.323	0.197
-320.056	-3.587	-0.187	-0.129
-319.041	-8.024	-0.414	-0.276
-318.026	-14.793	0.260	0.165
-317.012	501.529	-0.088	0.202
-315.997	-81.472	0.116	0.038
-314.983	197.433	-0.275	0.416
-313.968	-85.096	0.136	0.042
-312.953	240.431	0.012	-0.020
-311.939	800.000	0.077	0.292
-310.924	-99.136	-0.217	-0.054
-309.910	625.417	0.077	0.191
-308.895	800.000	-0.083	0.331
-307.880	-200.000	0.008	-0.117
-306.866	-200.000	-0.002	0.128
-305.851	346.899	-0.159	-0.309
-304.837	-85.127	-0.015	-0.005
-303.822	-169.056	-0.142	0.005
-302.807	-49.432	0.034	-0.016
-301.793	18.705	-0.280	0.222
-300.778	-86.760	0.376	0.114
-299.764	399.424	-0.014	0.029
-298.749	76.961	0.085	0.089
-297.735	91.552	0.036	0.040
-296.720	-166.520	-0.329	0.014
-295.705	-120.708	0.307	-0.051
-294.691	479.907	0.057	-0.128
-293.676	-137.614	0.225	-0.025
-292.662	-25.558	0.178	-0.104
-291.647	354.046	-0.017	0.033
-290.632	-131.846	0.090	-0.012
-289.618	170.456	-0.231	-0.327
-288.603	-116.506	-0.173	-0.032
-287.589	800.000	0.067	-0.288
-286.574	235.176	-0.142	-0.232
-285.559	-12.671	-0.028	-0.018
-284.545	572.919	0.063	0.153
-283.530	108.382	-0.110	-0.129
-282.516	-200.000	-0.004	0.263
-281.501	28.411	-0.144	0.120
-280.486	-200.000	0.010	-0.129
-279.472	-89.803	-0.177	-0.051
-278.457	-98.384	0.258	-0.065
-277.443	-45.846	-0.302	0.147
-276.428	-168.804	-0.082	0.003
-275.413	-81.213	-0.193	0.063
-274.399	195.800	-0.046	0.069
-273.384	-200.000	-0.031	-0.323
-272.370	47.796	0.259	0.239
-271.355	-184.973	0.212	0.003
-270.340	180.345	-0.059	0.086
-269.326	-65.782	-0.529	0.209
-268.311	800.000	-0.049	0.169
-267.297	-120.008	0.283	-0.048
-266.282	13.252	-0.244	-0.187
-265.267	-90.196	0.236	0.068
-264.253	171.047	0.121	-0.172
-263.238	-39.714	-0.106	-0.055
-262.224	7.154	0.129	-0.095
-261.209	-172.769	0.018	-0.001
-260.195	13.155	0.126	0.096
-259.180	800.000	-0.025	-0.068
-258.165	264.492	-0.006	-0.010
-257.151	-38.338	-0.057	-0.030
-256.136	-16.089	-0.106	0.067
-255.122	-97.229	-0.188	0.048
-254.107	800.000	-0.027	0.094
-253.092	-200.000	0.044	0.350
-252.078	-200.000	0.018	-0.104
-251.063	31.891	-0.039	-0.033
-250.049	148.244	0.161	-0.215
-249.034	193.974	-0.130	-0.194
-248.019	26.052	-0.309	0.255
-247.005	0.557	-0.266	-0.188
-245.990	-49.891	-0.144	-0.067
-244.976	347.773	0.038	-0.074
-243.961	-106.950	0.386	0.084
-242.946	-200.000	0.012	0.195
-241.932	-200.000	-0.011	-0.281
-240.917	97.239	0.163	0.184
-239.903	-76.499	-0.225	-0.078
-238.888	-20.912	-0.138	-0.084
-237.873	-116.171	0.255	0.047
-236.859	800.000	-0.030	-0.104
-235.844	-200.000	0.001	0.252
-234.830	800.000	0.017	0.071
-233.815	-102.906	0.301	-0.071
-232.800	-129.203	-0.072	-0.010
-231.786	55.298	-0.013	-0.013
-230.771	650.493	-0.045	0.115
-229.757	247.392	0.033	-0.055
-228.742	381.401	0.015	0.030
-227.727	277.245	-0.114	-0.200
-226.713	329.701	-0.058	-0.109
-225.698	-62.215	-0.073	-0.030
-224.684	-200.000	-0.002	0.042
-223.669	-50.906	-0.161	0.075
-222.655	130.585	0.142	-0.180
-221.640	-200.000	0.003	0.059
-220.625	3.772	-0.144	0.104
-219.611	10.245	0.097	0.073
-218.596	-200.000	-0.022	-0.218
-217.582	22.175	-0.079	-0.064
-216.567	-97.221	0.207	-0.053
-215.552	526.085	0.214	0.497
-214.538	-200.000	-0.026	0.339
-213.523	800.000	0.055	-0.150
-212.509	-200.000	-0.011	-0.207
-211.494	-15.321	0.132	0.083
-210.479	-74.137	-0.092	0.033
-209.465	800.000	-0.049	0.146
-208.450	201.123	0.232	0.351
-207.436	800.000	0.032	0.092
-206.421	-69.197	-0.064	0.024
-205.406	15.923	-0.304	0.236
-204.392	-200.000	0.033	-0.166
-203.377	-94.004	-0.131	0.036
-202.363	-176.947	0.097	0.002
-201.348	-67.261	0.146	0.057
-200.333	800.000	0.090	0.367
-199.319	34.899	-0.086	-0.074
-198.304	-200.000	-0.004	-0.089
-197.290	76.035	0.209	0.218
-196.275	-102.498	-0.218	-0.051
-195.260	109.674	0.073	-0.086
-194.246	-70.464	0.206	-0.077
-193.231	756.774	-0.179	-0.477
-192.217	-102.953	-0.052	-0.012
-191.202	-200.000	0.014	0.238
-190.187	255.658	0.062	0.104
-189.173	477.450	0.010	-0.023
-188.158	-200.000	0.041	0.555
-187.144	-56.025	0.539	0.237
-186.129	236.328	-0.177	0.289
-185.114	317.657	-0.023	-0.044
-184.100	-154.811	0.237	0.015
-183.085	-200.000	0.015	-0.250
-182.071	-200.000	-0.014	-0.169
-181.056	4.491	-0.257	0.186
-180.042	-115.872	0.187	-0.034
-179.027	800.000	-0.015	-0.048
-178.012	-200.000	0.034	0.186
-176.998	-186.853	-0.382	-0.005
-175.983	73.841	0.132	0.136
-174.969	-159.836	-0.205	0.011
-173.954	-22.573	0.201	-0.120
-172.939	69.789	-0.157	-0.159
-171.925	-32.741	0.117	-0.064
-170.910	-39.824	-0.082	0.042
-169.896	422.556	-0.073	0.154
-168.881	261.611	-0.233	0.398
-167.866	-200.000	0.051	0.439
-166.852	800.000	0.085	-0.245
-165.837	-186.232	-0.194	-0.003
-164.823	69.677	-0.238	-0.242
-163.808	-72.264	-0.019	0.007
-162.793	800.000	-0.048	-0.151
-161.779	-35.758	-0.125	-0.066
-160.764	-200.000	0.034	-0.274
-159.750	0.143	0.265	-0.186
-158.735	-75.590	0.373	0.131
-157.720	-200.000	0.035	0.297
-156.706	-76.436	0.255	0.088
-155.691	-131.888	-0.192	0.025
-154.677	-21.619	-0.292	-0.175
-153.662	518.508	0.053	-0.123
-152.647	149.324	0.112	-0.149
-151.633	800.000	0.067	-0.244
-150.618	74.048	-0.192	-0.198
-149.604	-5.936	-0.272	-0.183
-148.589	516.295	-0.050	-0.115
-147.574	190.497	0.194	-0.287
-146.560	-15.358	0.215	-0.135
-145.545	117.393	-0.309	0.374
-144.531	426.499	0.078	0.166
-143.516	198.957	-0.169	-0.255
-142.502	-199.029	-0.371	-0.002
-141.487	485.614	-0.093	-0.209
-140.472	76.901	-0.202	-0.211
-139.458	1.255	0.320	0.226
-138.443	196.333	-0.024	0.036
-137.429	800.000	0.065	-0.254
-136.414	412.883	-0.129	-0.270
-135.399	-123.589	0.128	0.020
-134.385	800.000	0.065	-0.190
-133.370	-200.000	0.076	-0.431
-132.356	-200.000	-0.043	0.196
-131.341	800.000	0.019	0.052
-130.326	-131.082	-0.316	-0.041
-129.312	49.289	0.029	-0.027
-128.297	-41.858	-0.298	0.150
-127.283	-81.590	0.034	-0.011
-126.268	-128.544	-0.024	-0.003
-125.253	-98.867	-0.261	0.065
-124.239	-72.440	0.295	-0.107
-123.224	480.496	-0.123	-0.275
-122.210	209.341	0.187	-0.288
