DTS Sentinel unit serial number:	SN413079Multiplexer serial number:	ORYXHardware model number:	OX4-SRSoftware version number:	ORYX F/W v4.00 Oryx Data Collector v3.7.2.0data status	okinstallation	princeton_trtdifferential loss correction	single-endedforward channel	channel 2reverse channel	N/Adate	2019/09/11time	06:21:10forward acquisition time	60.00reverse acquisition time	0.00gamma	496.2192k internal	0.2329k external	0.2329temperature offset calibration	0.9939default loss term (dB/km)	0.3790temperature slope calibration	1.0000multiplexer offset coefficient	1.0000multiplexer slope coefficient	1.0000fibre end	0.00T internal ref (°C)	29.55T ext. ref 1 (°C)	-0.19T ext. ref 2 (°C)	24.00length (m)	temperature (°C)	Stokes	anti-Stokes-747.200	6.531	-0.230	0.172
-746.185	-200.000	0.067	0.324
-745.171	453.357	0.143	0.320
-744.156	-16.886	0.240	-0.153
-743.142	800.000	-0.023	0.085
-742.127	-14.698	-0.122	-0.079
-741.112	3.829	0.088	0.065
-740.098	-200.000	-0.029	0.349
-739.083	-118.356	-0.103	-0.018
-738.069	-103.170	-0.198	-0.047
-737.054	-50.257	0.172	0.082
-736.039	185.776	0.068	-0.102
-735.025	496.377	0.022	-0.050
-734.010	467.425	-0.072	-0.163
-732.996	2.172	-0.029	-0.021
-731.981	753.857	-0.040	0.110
-730.966	-113.363	0.139	0.027
-729.952	-61.217	0.281	0.119
-728.937	-113.062	-0.435	0.087
-727.923	800.000	0.042	-0.153
-726.908	-94.926	-0.069	0.019
-725.894	-40.617	-0.204	0.106
-724.879	342.995	-0.103	-0.203
-723.864	-64.850	-0.025	-0.010
-722.850	88.395	-0.060	0.068
-721.835	163.172	-0.019	0.027
-720.821	59.122	0.209	0.207
-719.806	-200.000	-0.027	-0.167
-718.791	800.000	-0.108	-0.418
-717.777	-200.000	0.000	-0.103
-716.762	-182.644	0.197	0.004
-715.748	629.631	0.122	-0.310
-714.733	-158.519	-0.326	-0.019
-713.718	-200.000	-0.026	-0.284
-712.704	-72.654	0.256	0.095
-711.689	-71.966	0.323	0.121
-710.675	238.540	-0.147	-0.246
-709.660	12.486	0.109	0.084
-708.645	62.145	-0.186	-0.186
-707.631	800.000	0.111	0.311
-706.616	499.175	-0.096	0.222
-705.602	-200.000	0.042	-0.341
-704.587	189.962	0.033	-0.050
-703.572	59.818	-0.253	0.251
-702.558	-87.046	-0.162	-0.049
-701.543	-2.091	-0.155	0.110
-700.529	253.042	0.131	-0.226
-699.514	-185.431	-0.143	0.002
-698.499	614.645	-0.080	0.202
-697.485	113.354	0.184	0.225
-696.470	-36.802	-0.209	0.113
-695.456	344.062	-0.108	-0.213
-694.441	-200.000	0.006	-0.237
-693.426	-200.000	0.019	-0.246
-692.412	-178.811	-0.225	-0.005
-691.397	-60.201	0.325	-0.139
-690.383	50.960	-0.031	0.030
-689.368	40.733	-0.094	0.085
-688.354	575.152	-0.102	-0.249
-687.339	-200.000	0.019	-0.343
-686.324	-194.268	-0.170	0.001
-685.310	91.786	-0.145	-0.163
-684.295	-146.671	-0.161	0.014
-683.281	57.034	0.176	-0.172
-682.266	800.000	0.116	-0.357
-681.251	-86.178	-0.405	-0.125
-680.237	174.823	-0.126	0.183
-679.222	-26.422	0.302	-0.178
-678.208	800.000	-0.066	-0.266
-677.193	-92.815	-0.197	0.055
-676.178	-200.000	-0.038	-0.278
-675.164	800.000	-0.072	-0.259
-674.149	-118.728	0.087	0.015
-673.135	-99.661	-0.107	-0.027
-672.120	544.222	-0.009	-0.021
-671.105	84.447	0.345	-0.379
-670.091	535.744	-0.147	-0.351
-669.076	-168.205	0.248	-0.010
-668.062	18.548	-0.178	0.143
-667.047	173.090	0.063	0.091
-666.032	-90.080	-0.070	0.020
-665.018	800.000	-0.034	0.101
-664.003	-200.000	-0.054	-0.256
-662.989	103.671	0.240	-0.283
-661.974	-200.000	0.017	-0.376
-660.959	5.594	0.205	0.152
-659.945	-200.000	0.017	-0.113
-658.930	800.000	-0.023	-0.096
-657.916	42.799	-0.206	-0.189
-656.901	72.144	0.314	-0.329
-655.886	-48.550	0.225	0.109
-654.872	146.306	-0.063	0.085
-653.857	-137.157	0.435	-0.050
-652.843	-78.272	0.302	-0.104
-651.828	-200.000	0.040	-0.336
-650.814	-103.630	0.188	-0.044
-649.799	-26.566	0.087	-0.051
-648.784	10.161	0.094	-0.072
-647.770	-142.048	-0.078	-0.008
-646.755	800.000	0.025	0.070
-645.741	-200.000	0.024	-0.144
-644.726	-52.154	0.168	-0.078
-643.711	-200.000	0.002	-0.450
-642.697	-32.140	0.325	-0.182
-641.682	800.000	0.108	-0.319
-640.668	83.901	-0.099	-0.108
-639.653	-96.270	-0.271	-0.072
-638.638	-41.529	0.210	-0.108
-637.624	515.498	0.098	-0.229
-636.609	277.423	0.122	0.217
-635.595	-95.083	-0.153	0.041
-634.580	-31.088	-0.082	0.046
-633.565	-122.557	-0.271	0.044
-632.551	-200.000	0.002	-0.454
-631.536	-200.000	-0.026	0.211
-630.522	-3.886	-0.101	0.070
-629.507	800.000	-0.035	-0.133
-628.492	553.413	0.053	-0.127
-627.478	-62.954	-0.132	0.055
-626.463	-139.889	-0.320	0.034
-625.449	59.179	0.096	0.095
-624.434	-200.000	0.001	-0.019
-623.419	85.521	0.095	-0.105
-622.405	-157.647	-0.173	0.010
-621.390	-145.102	-0.392	-0.036
-620.376	37.256	0.140	-0.125
-619.361	-25.150	0.066	0.039
-618.346	-112.181	0.128	-0.026
-617.332	51.676	0.083	-0.079
-616.317	250.324	0.068	0.116
-615.303	33.012	0.344	0.299
-614.288	-170.763	-0.095	-0.003
-613.273	133.806	0.177	-0.230
-612.259	-200.000	0.019	0.345
-611.244	-109.213	0.216	-0.046
-610.230	324.339	0.014	-0.027
-609.215	-124.770	-0.207	0.032
-608.201	65.116	-0.129	0.131
-607.186	800.000	-0.027	0.116
-606.171	289.299	0.087	0.158
-605.157	-109.582	0.125	-0.026
-604.142	-167.197	0.262	0.011
-603.128	-112.642	-0.031	0.006
-602.113	509.308	0.053	0.124
-601.098	124.424	-0.144	0.182
-600.084	354.325	0.017	-0.035
-599.069	800.000	-0.128	-0.500
-598.055	800.000	-0.026	-0.105
-597.040	-200.000	0.046	-0.435
-596.025	-200.000	0.032	0.156
-595.011	-138.468	0.157	0.017
-593.996	-61.902	0.028	0.012
-592.982	-65.131	-0.346	-0.140
-591.967	-69.807	-0.248	0.095
-590.952	40.404	0.268	0.242
-589.938	800.000	0.060	0.186
-588.923	46.530	0.034	0.032
-587.909	528.181	0.082	0.194
-586.894	-181.054	0.365	0.007
-585.879	120.675	-0.157	0.196
-584.865	-190.753	0.260	-0.003
-583.850	-86.717	-0.314	0.096
-582.836	41.607	0.135	-0.122
-581.821	34.936	-0.087	-0.076
-580.806	41.188	0.151	-0.137
-579.792	-200.000	0.002	0.295
-578.777	-99.829	-0.122	-0.030
-577.763	184.921	-0.139	-0.206
-576.748	329.785	0.253	-0.487
-575.733	-6.348	-0.061	-0.042
-574.719	-200.000	-0.026	-0.191
-573.704	-48.650	-0.295	0.142
-572.690	-200.000	-0.047	-0.209
-571.675	214.243	-0.094	-0.149
-570.661	-154.480	0.209	0.014
-569.646	39.730	0.113	0.102
-568.631	65.469	-0.106	0.108
-567.617	10.147	0.215	-0.163
-566.602	-171.042	0.172	0.006
-565.588	185.309	-0.180	-0.267
-564.573	46.071	0.310	0.287
-563.558	614.171	-0.095	-0.238
-562.544	81.713	-0.019	-0.020
-561.529	-200.000	-0.064	-0.303
-560.515	163.695	0.169	0.238
-559.500	-66.826	0.103	-0.041
-558.485	-200.000	-0.048	-0.395
-557.471	615.238	0.032	0.081
-556.456	-200.000	0.011	0.110
-555.442	6.818	0.123	0.092
-554.427	-154.155	-0.111	-0.008
-553.412	-200.000	0.030	0.137
-552.398	-200.000	-0.029	0.449
-551.383	-103.778	0.284	0.067
-550.369	15.185	0.269	0.211
-549.354	120.799	0.056	0.070
-548.339	-129.881	0.233	0.032
-547.325	309.695	-0.056	0.104
-546.310	-200.000	-0.031	0.250
-545.296	124.021	0.158	-0.198
-544.281	29.151	0.230	0.195
-543.266	778.560	-0.028	-0.078
-542.252	-54.493	0.164	-0.074
-541.237	800.000	-0.027	-0.096
-540.223	5.807	-0.315	0.233
-539.208	453.501	-0.074	0.163
-538.193	-157.716	-0.261	-0.016
-537.179	-129.805	-0.169	-0.023
-536.164	115.819	-0.027	-0.033
-535.150	59.123	-0.273	-0.269
-534.135	-200.000	0.006	0.234
-533.121	-89.639	0.174	-0.051
-532.106	-5.047	0.229	-0.157
-531.091	800.000	-0.051	-0.218
-530.077	60.061	-0.303	0.299
-529.062	-195.667	-0.045	-0.000
-528.048	286.102	0.123	0.222
-527.033	-200.000	0.049	-0.257
-526.018	206.804	0.044	-0.068
-525.004	89.930	0.050	-0.056
-523.989	17.178	-0.159	-0.126
-522.975	-200.000	-0.013	-0.237
-521.960	557.209	0.130	-0.312
-520.945	-28.291	-0.363	-0.209
-519.931	-96.136	-0.171	-0.045
-518.916	-149.689	-0.125	-0.010
-517.902	-40.157	-0.146	0.076
-516.887	-123.120	-0.185	-0.030
-515.872	625.980	0.069	-0.173
-514.858	-200.000	-0.041	0.254
-513.843	514.221	-0.113	-0.262
-512.829	-85.244	0.279	0.087
-511.814	404.774	-0.063	-0.132
-510.799	-38.987	-0.010	-0.005
-509.785	-10.212	0.102	0.067
-508.770	-146.260	0.220	-0.019
-507.756	800.000	0.104	0.302
-506.741	772.141	0.084	-0.228
-505.726	-174.999	0.071	0.002
-504.712	-200.000	0.005	-0.030
-503.697	-40.052	-0.298	0.155
-502.683	-117.940	-0.223	-0.040
-501.668	-58.199	-0.197	-0.086
-500.653	-57.956	0.257	0.112
-499.639	212.224	-0.152	-0.239
-498.624	-200.000	-0.029	-0.453
-497.610	-34.293	0.256	0.140
-496.595	192.578	-0.095	0.144
-495.581	-23.246	-0.145	0.087
-494.566	158.953	-0.161	-0.223
-493.551	-2.215	0.073	0.051
-492.537	-200.000	-0.023	0.174
-491.522	-200.000	-0.037	0.282
-490.508	-87.758	0.104	0.031
-489.493	800.000	0.052	0.176
-488.478	-36.984	-0.319	-0.170
-487.464	-71.100	-0.097	-0.036
-486.449	104.721	-0.215	-0.253
-485.435	13.816	-0.174	-0.135
-484.420	-200.000	0.064	-0.387
-483.405	-53.997	0.461	0.209
-482.391	572.313	0.057	0.138
-481.376	-127.914	0.144	0.021
-480.362	-200.000	0.008	0.073
-479.347	800.000	-0.140	0.403
-478.332	217.528	0.135	0.215
-477.318	-200.000	-0.070	-0.000
-476.303	421.396	-0.116	-0.247
-475.289	459.376	-0.115	-0.254
-474.274	-146.248	-0.261	-0.023
-473.259	-76.260	0.130	0.046
-472.245	800.000	0.094	0.267
-471.230	-30.406	-0.102	-0.058
-470.216	-1.788	-0.072	0.051
-469.201	-131.950	0.386	0.050
-468.186	800.000	-0.055	-0.163
-467.172	506.013	-0.193	-0.445
-466.157	-185.461	-0.388	0.006
-465.143	54.719	0.219	0.211
-464.128	-125.067	0.149	0.023
-463.113	-200.000	-0.030	0.371
-462.099	-50.878	0.057	0.027
-461.084	-24.199	-0.127	0.076
-460.070	-200.000	0.008	-0.208
-459.055	10.909	-0.206	-0.157
-458.040	-40.156	0.018	0.009
-457.026	563.865	0.064	0.155
-456.011	-64.851	-0.490	-0.197
-454.997	-200.000	-0.041	0.233
-453.982	800.000	-0.073	0.275
-452.968	-200.000	-0.013	-0.062
-451.953	-200.000	-0.011	-0.068
-450.938	800.000	0.132	-0.402
-449.924	115.789	0.068	0.083
-448.909	125.091	-0.108	0.135
-447.895	721.730	-0.059	0.157
-446.880	-39.365	-0.286	0.150
-445.865	-200.000	0.009	-0.228
-444.851	-177.827	-0.271	-0.006
-443.836	76.352	-0.236	0.249
-442.822	-17.009	-0.061	-0.038
-441.807	-200.000	0.009	-0.305
-440.792	37.055	-0.257	-0.227
-439.778	12.863	0.187	-0.144
-438.763	340.726	-0.043	0.083
-437.749	-71.476	-0.131	-0.049
-436.734	-85.894	0.017	0.005
-435.719	29.546	0.079	-0.067
-434.705	205.925	-0.123	0.191
-433.690	329.177	-0.097	0.186
-432.676	-0.479	-0.059	0.041
-431.661	509.039	0.116	0.267
-430.646	53.468	-0.338	0.322
-429.632	254.091	-0.059	0.100
-428.617	70.033	-0.118	-0.121
-427.603	-200.000	-0.074	0.381
-426.588	-131.434	-0.291	0.038
-425.573	-200.000	-0.027	0.243
-424.559	224.959	-0.209	-0.336
-423.544	253.354	-0.064	0.109
-422.530	252.027	0.241	0.409
-421.515	191.162	0.224	-0.335
-420.500	-200.000	-0.021	-0.253
-419.486	62.900	0.229	-0.228
-418.471	436.874	-0.079	-0.172
-417.457	-200.000	-0.012	0.150
-416.442	129.135	-0.135	-0.171
-415.428	800.000	-0.131	-0.379
-414.413	-142.648	0.044	-0.004
-413.398	547.838	-0.113	0.269
-412.384	131.193	-0.064	-0.082
-411.369	307.064	-0.130	0.240
-410.355	-6.918	-0.184	-0.124
-409.340	-139.562	0.362	0.038
-408.325	-200.000	0.013	0.341
-407.311	-15.211	0.237	0.151
-406.296	800.000	-0.050	0.169
-405.282	30.056	0.031	-0.026
-404.267	-166.489	-0.188	-0.008
-403.252	-104.701	-0.179	0.041
-402.238	172.099	0.147	-0.210
-401.223	7.907	0.062	0.047
-400.209	-110.013	-0.273	0.057
-399.194	-43.954	0.128	0.064
-398.179	-24.758	-0.201	0.119
-397.165	-200.000	0.007	-0.059
-396.150	-116.686	0.138	0.025
-395.136	62.440	-0.192	-0.190
-394.121	-118.414	0.349	0.061
-393.106	800.000	0.057	-0.241
-392.092	-140.471	-0.178	0.018
-391.077	52.206	0.104	-0.098
-390.063	-118.814	0.309	-0.054
-389.048	49.481	0.405	0.379
-388.033	-25.553	0.163	0.096
-387.019	415.190	-0.062	-0.130
-386.004	-124.430	-0.121	0.019
-384.990	-200.000	-0.007	0.074
-383.975	449.672	0.077	-0.169
-382.960	-200.000	-0.003	0.146
-381.946	63.339	0.220	-0.219
-380.931	116.057	0.105	0.128
-379.917	-6.216	-0.174	0.118
-378.902	661.627	-0.115	0.293
-377.888	714.653	0.093	0.245
-376.873	273.498	-0.272	0.477
-375.858	800.000	0.102	-0.325
-374.844	74.715	0.175	-0.183
-373.829	-200.000	0.016	0.143
-372.815	73.635	-0.018	0.019
-371.800	-16.011	-0.253	-0.160
-370.785	-200.000	-0.007	0.126
-369.771	112.817	0.074	0.089
-368.756	43.816	-0.207	0.188
-367.742	-152.752	-0.175	0.012
-366.727	726.432	0.025	0.066
-365.712	0.681	-0.283	-0.201
-364.698	-79.863	0.273	-0.091
-363.683	-93.027	-0.101	-0.028
-362.669	-160.066	0.337	0.018
-361.654	303.721	0.140	-0.257
-360.639	-46.632	-0.155	-0.075
-359.625	72.902	-0.033	0.034
-358.610	-116.376	0.348	-0.064
-357.596	-57.128	0.188	0.082
-356.581	-123.041	-0.147	0.023
-355.566	129.359	-0.045	0.057
-354.552	38.149	0.125	0.110
-353.537	-75.734	0.199	-0.070
-352.523	-200.000	-0.070	0.348
-351.508	-23.692	0.066	-0.039
-350.493	-64.786	0.403	0.162
-349.479	188.368	0.134	0.198
-348.464	800.000	-0.048	-0.193
-347.450	800.000	0.044	-0.164
-346.435	800.000	0.089	0.310
-345.420	47.987	-0.292	0.270
-344.406	324.173	0.067	0.128
-343.391	-79.714	-0.165	0.055
-342.377	800.000	-0.096	-0.272
-341.362	-134.648	0.138	-0.017
-340.348	-167.626	-0.496	0.020
-339.333	2.308	0.127	-0.091
-338.318	99.105	0.121	0.138
-337.304	50.039	0.145	-0.136
-336.289	-12.170	0.291	0.189
-335.275	800.000	-0.022	-0.062
-334.260	-200.000	-0.018	-0.240
-333.245	-112.601	-0.268	0.053
-332.231	60.911	0.289	0.284
-331.216	800.000	-0.015	-0.058
-330.202	-200.000	0.016	-0.114
-329.187	-141.772	-0.351	0.035
-328.172	52.895	-0.331	0.314
-327.158	478.152	-0.132	0.296
-326.143	-154.945	0.262	-0.017
-325.129	-200.000	-0.090	-0.453
-324.114	33.297	-0.244	-0.210
-323.099	800.000	0.130	0.430
-322.085	197.540	-0.173	0.261
-321.070	-89.206	0.302	-0.088
-320.056	-200.000	-0.014	0.254
-319.041	249.183	-0.103	0.172
-318.026	-66.562	-0.136	-0.053
-317.012	-132.815	0.071	-0.009
-315.997	-97.214	-0.092	0.024
-314.983	-92.828	-0.385	-0.107
-313.968	256.736	0.082	-0.140
-312.953	-200.000	-0.026	-0.116
-311.939	-200.000	-0.017	-0.166
-310.924	800.000	-0.074	0.232
-309.910	287.039	0.070	-0.125
-308.895	-143.562	0.130	-0.012
-307.880	73.940	0.141	-0.147
-306.866	-91.282	0.260	0.074
-305.851	800.000	0.033	0.107
-304.837	-40.691	0.205	-0.105
-303.822	44.583	-0.059	0.054
-302.807	-117.839	-0.133	-0.024
-301.793	21.389	-0.197	-0.159
-300.778	170.278	0.204	-0.289
-299.764	309.849	-0.172	-0.318
-298.749	-79.596	0.219	0.073
-297.735	-121.510	-0.360	0.059
-296.720	-58.017	-0.052	0.022
-295.705	2.432	-0.263	0.188
-294.691	-18.149	0.030	0.018
-293.676	800.000	0.052	0.212
-292.662	-188.777	-0.127	0.002
-291.647	-147.200	-0.121	0.010
-290.632	800.000	0.147	-0.437
-289.618	118.055	0.161	-0.197
-288.603	236.241	-0.051	0.083
-287.589	-116.902	-0.210	-0.038
-286.574	-17.852	0.233	-0.145
-285.559	18.084	0.374	-0.295
-284.545	800.000	-0.023	-0.063
-283.530	-167.448	-0.057	-0.002
-282.516	147.147	0.111	0.148
-281.501	-106.036	0.213	0.047
-280.486	149.668	0.222	0.298
-279.472	-115.099	-0.132	0.025
-278.457	382.230	-0.193	0.392
-277.443	-34.980	-0.118	0.063
-276.428	-12.720	-0.089	0.058
-275.413	18.825	0.313	0.248
-274.399	-200.000	0.012	0.085
-273.384	800.000	0.123	0.480
-272.370	117.150	0.120	0.145
-271.355	80.313	-0.201	-0.214
-270.340	379.186	-0.129	0.261
-269.326	562.721	-0.235	0.562
-268.311	-95.321	-0.274	-0.073
-267.297	-179.181	0.324	-0.007
-266.282	-200.000	-0.018	0.133
-265.267	800.000	0.088	-0.263
-264.253	35.195	-0.187	0.162
-263.238	800.000	-0.084	-0.349
-262.224	-200.000	0.001	0.031
-261.209	-12.825	0.106	-0.068
-260.195	-81.128	0.347	-0.114
-259.180	77.698	0.096	-0.101
-258.165	-69.580	0.178	0.067
-257.151	800.000	0.053	0.218
-256.136	-131.016	-0.095	0.013
-255.122	9.026	0.159	-0.119
-254.107	-69.636	-0.461	0.174
-253.092	-135.257	-0.160	-0.019
-252.078	171.284	-0.083	0.118
-251.063	-170.217	-0.434	-0.015
-250.049	-149.357	0.320	-0.025
-249.034	-200.000	0.009	-0.072
-248.019	95.225	0.134	0.151
-247.005	431.628	-0.091	0.194
-245.990	118.819	-0.115	0.140
-244.976	30.694	-0.148	-0.125
-243.961	-200.000	-0.042	-0.377
-242.946	-131.436	0.254	-0.033
-241.932	-26.213	-0.080	-0.047
-240.917	-41.349	-0.107	0.055
-239.903	522.675	-0.130	0.301
-238.888	260.126	0.031	0.052
-237.873	-95.810	-0.175	-0.046
-236.859	-195.231	0.323	-0.002
-235.844	-200.000	-0.072	-0.394
-234.830	-200.000	0.006	-0.396
-233.815	-67.540	0.153	0.059
-232.800	-200.000	0.025	0.120
-231.786	-80.375	0.232	0.076
-230.771	-110.998	0.272	-0.055
-229.757	-146.967	0.183	-0.016
-228.742	-99.147	-0.197	-0.049
-227.727	8.757	-0.070	-0.052
-226.713	-147.428	0.399	0.033
-225.698	-31.264	0.334	-0.186
-224.684	-17.280	0.093	0.058
-223.669	-25.470	-0.032	0.019
-222.655	320.575	0.164	-0.307
-221.640	-200.000	0.007	0.209
-220.625	-200.000	0.032	0.208
-219.611	26.916	0.190	0.157
-218.596	-54.455	0.084	-0.038
-217.582	176.583	-0.148	-0.212
-216.567	38.408	-0.227	0.200
-215.552	47.677	0.243	-0.224
-214.538	800.000	0.028	-0.105
-213.523	15.753	-0.133	0.103
-212.509	139.811	0.171	0.222
-211.494	226.349	0.150	0.240
-210.479	319.530	-0.027	-0.051
-209.465	356.822	-0.092	-0.182
-208.450	191.603	-0.182	-0.270
-207.436	800.000	0.043	-0.185
-206.421	-200.000	-0.007	0.193
-205.406	198.922	-0.068	0.102
-204.392	25.261	-0.038	0.031
-203.377	-200.000	-0.028	-0.278
-202.363	800.000	-0.137	0.391
-201.348	-2.219	-0.088	0.061
-200.333	-200.000	0.023	-0.353
-199.319	-200.000	0.020	-0.189
-198.304	43.779	0.040	-0.036
-197.290	-200.000	0.044	-0.298
-196.275	-102.008	-0.248	-0.059
-195.260	-33.447	-0.257	0.140
-194.246	204.300	0.055	-0.085
-193.231	-64.652	0.115	0.046
-192.217	-66.017	0.126	0.050
-191.202	-13.196	-0.106	0.068
-190.187	800.000	0.033	-0.094
-189.173	-94.043	0.358	-0.097
-188.158	800.000	-0.059	-0.186
-187.144	-200.000	0.040	0.279
-186.129	317.805	-0.045	0.084
-185.114	-169.430	0.064	-0.002
-184.100	-200.000	0.019	0.141
-183.085	800.000	-0.035	-0.130
-182.071	33.723	0.059	0.051
-181.056	-200.000	0.003	-0.020
-180.042	-3.576	0.208	0.143
-179.027	800.000	-0.015	0.059
-178.012	-111.855	0.306	0.061
-176.998	800.000	-0.079	-0.238
-175.983	-30.242	-0.343	-0.192
-174.969	51.208	0.255	-0.239
-173.954	223.912	0.148	-0.235
-172.939	-200.000	-0.011	0.090
-171.925	206.532	0.096	-0.147
-170.910	70.955	0.130	-0.133
-169.896	-29.902	0.334	0.187
-168.881	-140.120	-0.127	-0.013
-167.866	82.130	-0.144	0.154
-166.852	-87.031	0.412	0.124
-165.837	-171.273	-0.050	-0.002
-164.823	84.032	-0.177	-0.191
-163.808	-200.000	0.006	-0.177
-162.793	-200.000	-0.036	0.171
-161.779	-38.623	-0.261	-0.136
-160.764	800.000	0.039	0.160
-159.750	-200.000	0.014	-0.084
-158.735	26.107	-0.142	0.117
-157.720	-200.000	-0.013	-0.132
-156.706	-78.058	-0.327	-0.111
-155.691	148.554	0.144	0.192
-154.677	-200.000	0.009	0.103
-153.662	113.438	0.106	-0.126
-152.647	-125.851	0.284	0.042
-151.633	156.987	-0.049	-0.067
-150.618	678.899	0.080	-0.205
-149.604	800.000	0.027	-0.104
-148.589	388.499	-0.092	-0.188
-147.574	-200.000	0.042	-0.351
-146.560	-127.368	0.166	-0.024
-145.545	-200.000	0.066	-0.307
-144.531	232.666	-0.038	0.061
-143.516	-18.862	-0.147	-0.090
-142.502	800.000	-0.067	-0.264
-141.487	121.505	-0.207	-0.254
-140.472	127.698	0.049	-0.061
-139.458	-162.996	0.183	0.009
-138.443	-61.307	0.156	-0.065
-137.429	416.431	0.124	-0.261
-136.414	-12.222	0.382	0.246
-135.399	-21.527	0.286	-0.172
-134.385	-176.168	-0.392	0.010
-133.370	332.865	0.033	-0.063
-132.356	-200.000	0.007	0.265
-131.341	518.183	0.064	-0.147
-130.326	62.563	-0.023	-0.022
-129.312	800.000	-0.107	-0.292
-128.297	-82.394	0.125	-0.040
-127.283	215.155	-0.059	-0.093
-126.268	340.567	0.143	-0.275
-125.253	191.077	0.255	0.378
-124.239	-71.002	-0.148	-0.055
-123.224	-74.384	0.122	0.043
-122.210	167.911	-0.017	-0.024
