DTS Sentinel unit serial number:	SN413079Multiplexer serial number:	ORYXHardware model number:	OX4-SRSoftware version number:	ORYX F/W v4.00 Oryx Data Collector v3.7.2.0data status	okinstallation	princeton_trtdifferential loss correction	single-endedforward channel	channel 2reverse channel	N/Adate	2019/09/11time	22:29:10forward acquisition time	60.00reverse acquisition time	0.00gamma	496.2192k internal	0.2325k external	0.2325temperature offset calibration	1.0071default loss term (dB/km)	0.3790temperature slope calibration	1.0000multiplexer offset coefficient	1.0000multiplexer slope coefficient	1.0000fibre end	0.00T internal ref (°C)	35.08T ext. ref 1 (°C)	1.76T ext. ref 2 (°C)	29.57length (m)	temperature (°C)	Stokes	anti-Stokes-747.200	659.532	-0.054	-0.140
-746.185	46.920	-0.145	0.136
-745.171	-85.404	-0.075	0.023
-744.156	-3.100	-0.420	0.296
-743.142	37.203	-0.037	0.033
-742.127	-200.000	-0.006	-0.242
-741.112	-200.000	0.031	-0.280
-740.098	89.773	-0.098	0.111
-739.083	0.188	0.189	-0.136
-738.069	-200.000	0.002	0.298
-737.054	266.879	-0.060	-0.105
-736.039	299.796	0.200	0.372
-735.025	-44.366	0.292	0.148
-734.010	-200.000	-0.037	0.295
-732.996	14.775	0.049	-0.039
-731.981	-200.000	0.077	-0.454
-730.966	-31.412	0.184	-0.104
-729.952	800.000	-0.139	-0.540
-728.937	-84.682	-0.531	-0.169
-727.923	-200.000	-0.040	-0.325
-726.908	-141.706	-0.314	-0.032
-725.894	-200.000	-0.019	0.199
-724.879	311.116	-0.101	0.191
-723.864	97.056	-0.191	0.221
-722.850	-32.014	0.364	-0.206
-721.835	-83.521	-0.212	0.068
-720.821	-102.721	0.095	-0.023
-719.806	-45.284	0.248	-0.124
-718.791	-57.495	-0.377	0.167
-717.777	-30.186	-0.187	0.107
-716.762	490.656	0.056	-0.128
-715.748	-200.000	-0.005	-0.108
-714.733	-45.853	-0.207	0.103
-713.718	-200.000	0.016	-0.136
-712.704	46.171	-0.124	0.116
-711.689	-5.661	0.135	-0.093
-710.675	87.933	0.131	-0.146
-709.660	-61.412	-0.204	0.087
-708.645	0.711	0.182	0.131
-707.631	-10.830	-0.147	0.098
-706.616	-200.000	0.032	0.141
-705.602	800.000	-0.111	-0.354
-704.587	-200.000	-0.022	-0.206
-703.572	343.494	0.083	-0.165
-702.558	800.000	0.083	0.239
-701.543	84.500	0.150	0.166
-700.529	54.393	-0.142	0.138
-699.514	1.489	0.343	-0.249
-698.499	-27.819	-0.067	0.039
-697.485	557.142	-0.097	0.235
-696.470	-200.000	0.002	0.011
-695.456	-2.746	-0.218	-0.153
-694.441	-200.000	-0.008	0.239
-693.426	-45.094	0.145	-0.073
-692.412	800.000	0.010	-0.043
-691.397	-12.933	-0.155	0.101
-690.383	47.837	0.145	0.137
-689.368	800.000	-0.060	-0.181
-688.354	800.000	-0.022	0.064
-687.339	-200.000	0.027	0.350
-686.324	-200.000	-0.009	-0.339
-685.310	-52.827	0.309	-0.143
-684.295	800.000	0.018	-0.076
-683.281	-200.000	0.011	0.049
-682.266	-169.871	-0.140	0.005
-681.251	324.302	-0.083	0.160
-680.237	16.143	0.289	-0.230
-679.222	56.071	0.342	-0.334
-678.208	800.000	0.118	0.445
-677.193	-200.000	0.027	0.218
-676.178	-170.629	0.256	0.009
-675.164	272.724	-0.100	-0.177
-674.149	25.808	0.237	0.199
-673.135	-7.689	0.264	-0.180
-672.120	-134.651	0.258	0.032
-671.105	214.120	-0.062	-0.098
-670.091	-84.878	0.211	-0.067
-669.076	-193.630	-0.167	-0.001
-668.062	-31.546	-0.410	-0.232
-667.047	-59.074	-0.189	0.082
-666.032	-143.781	0.192	-0.018
-665.018	53.851	-0.190	-0.184
-664.003	66.206	0.169	-0.172
-662.989	89.180	-0.310	0.347
-661.974	177.062	-0.036	0.052
-660.959	800.000	-0.029	0.118
-659.945	-200.000	0.023	-0.145
-658.930	213.966	0.092	-0.146
-657.916	38.322	-0.132	-0.118
-656.901	-200.000	0.048	-0.283
-655.886	-150.644	-0.137	0.011
-654.872	-200.000	-0.002	-0.124
-653.857	800.000	-0.004	0.012
-652.843	-121.304	-0.036	-0.006
-651.828	551.292	0.077	0.187
-650.814	-96.905	-0.067	0.018
-649.799	-186.321	0.205	0.003
-648.784	800.000	-0.065	-0.243
-647.770	49.109	0.057	0.054
-646.755	-200.000	0.020	0.369
-645.741	-200.000	0.004	0.033
-644.726	697.665	-0.004	0.010
-643.711	-136.469	0.312	-0.036
-642.697	-200.000	0.002	0.154
-641.682	-35.563	0.166	0.090
-640.668	-200.000	-0.001	-0.249
-639.653	-200.000	0.045	-0.472
-638.638	363.982	-0.181	-0.366
-637.624	59.160	0.091	-0.090
-636.609	-38.863	-0.258	0.137
-635.595	-64.280	0.171	0.070
-634.580	-37.399	-0.123	-0.066
-633.565	132.762	0.224	-0.291
-632.551	53.665	0.158	-0.153
-631.536	800.000	-0.042	-0.153
-630.522	-175.176	-0.244	-0.007
-629.507	-15.344	-0.173	-0.111
-628.492	-79.167	0.106	0.036
-627.478	17.233	0.309	-0.246
-626.463	-200.000	0.018	0.121
-625.449	-200.000	-0.050	-0.329
-624.434	-68.925	-0.218	-0.085
-623.419	141.217	-0.036	-0.048
-622.405	-198.853	-0.357	0.002
-621.390	324.580	-0.115	-0.221
-620.376	-36.914	-0.208	0.112
-619.361	-50.823	0.106	-0.050
-618.346	53.066	-0.119	0.115
-617.332	24.654	-0.205	0.171
-616.317	800.000	-0.030	0.112
-615.303	167.890	0.089	0.127
-614.288	-200.000	0.002	0.078
-613.273	-200.000	-0.038	0.228
-612.259	52.168	0.080	0.077
-611.244	-3.998	0.109	-0.076
-610.230	129.140	-0.039	0.050
-609.215	-200.000	-0.014	-0.066
-608.201	-200.000	-0.032	-0.355
-607.186	-200.000	-0.027	-0.253
-606.171	178.573	0.163	-0.239
-605.157	-200.000	-0.005	0.276
-604.142	-21.957	-0.152	-0.092
-603.128	84.705	-0.193	0.212
-602.113	-200.000	0.011	-0.058
-601.098	-156.682	0.406	-0.025
-600.084	-200.000	0.001	-0.207
-599.069	-29.111	-0.050	0.029
-598.055	-103.214	-0.102	0.024
-597.040	-200.000	0.017	-0.173
-596.025	16.470	-0.104	0.083
-595.011	-200.000	0.014	0.326
-593.996	7.703	-0.136	-0.102
-592.982	800.000	0.049	-0.153
-591.967	800.000	0.034	-0.133
-590.952	143.775	0.091	-0.121
-589.938	-28.554	0.105	-0.061
-588.923	-58.759	0.214	-0.093
-587.909	68.244	-0.224	-0.230
-586.894	-200.000	0.011	-0.090
-585.879	28.672	0.152	-0.129
-584.865	169.835	-0.045	0.065
-583.850	-200.000	0.017	0.161
-582.836	800.000	-0.038	0.111
-581.821	26.356	0.262	0.220
-580.806	800.000	0.037	-0.120
-579.792	147.628	0.047	-0.064
-578.777	800.000	-0.020	-0.084
-577.763	-200.000	0.003	-0.215
-576.748	-200.000	0.007	-0.039
-575.733	800.000	0.039	-0.110
-574.719	32.700	0.033	0.028
-573.704	105.343	-0.206	0.244
-572.690	-118.901	-0.156	0.027
-571.675	-29.517	0.133	-0.076
-570.661	357.590	-0.100	-0.199
-569.646	800.000	0.084	-0.342
-568.631	145.802	-0.217	-0.291
-567.617	-200.000	0.013	-0.154
-566.602	-22.901	-0.410	0.248
-565.588	136.999	0.117	0.154
-564.573	200.101	0.136	-0.209
-563.558	-42.889	0.124	-0.063
-562.544	40.300	0.070	-0.063
-561.529	-78.449	-0.326	-0.112
-560.515	-131.043	-0.073	0.010
-559.500	0.452	-0.465	-0.333
-558.485	-31.309	0.184	-0.104
-557.471	259.277	-0.045	0.078
-556.456	-39.133	0.137	-0.072
-555.442	-26.789	-0.281	0.165
-554.427	-39.660	-0.179	-0.094
-553.412	420.253	0.140	0.300
-552.398	-103.335	0.365	-0.086
-551.383	-200.000	-0.010	-0.204
-550.369	-84.141	-0.216	-0.068
-549.354	-4.847	0.094	0.065
-548.339	425.213	-0.090	0.195
-547.325	-28.597	0.263	0.151
-546.310	-85.727	-0.170	-0.053
-545.296	-102.951	0.223	-0.053
-544.281	-102.991	-0.322	0.076
-543.266	55.465	0.112	0.108
-542.252	-147.944	-0.242	0.020
-541.237	-200.000	0.006	-0.180
-540.223	-200.000	-0.038	-0.205
-539.208	102.214	0.081	-0.095
-538.193	-129.357	0.243	0.034
-537.179	-200.000	-0.011	-0.053
-536.164	-158.738	0.266	-0.015
-535.150	-102.827	-0.336	-0.080
-534.135	379.108	-0.066	-0.134
-533.121	-42.542	-0.292	0.149
-532.106	-1.268	0.221	0.156
-531.091	689.391	-0.056	0.146
-530.077	-33.292	-0.279	-0.155
-529.062	-200.000	-0.009	-0.209
-528.048	-58.932	0.279	0.121
-527.033	-101.142	0.149	0.036
-526.018	-200.000	-0.013	0.104
-525.004	-177.603	-0.169	-0.004
-523.989	-1.040	-0.104	0.073
-522.975	-48.147	-0.232	0.112
-521.960	-162.449	-0.111	0.006
-520.945	-104.681	-0.214	-0.049
-519.931	800.000	-0.055	0.205
-518.916	-141.382	0.308	-0.031
-517.902	-200.000	-0.085	0.422
-516.887	-119.527	0.219	0.038
-515.872	-92.789	0.142	0.040
-514.858	-45.103	-0.232	-0.115
-513.843	12.575	-0.227	-0.175
-512.829	89.842	-0.147	-0.165
-511.814	-3.554	-0.147	-0.102
-510.799	61.999	-0.103	0.103
-509.785	-104.134	0.134	-0.031
-508.770	-200.000	-0.003	-0.157
-507.756	-200.000	0.008	-0.211
-506.741	-89.964	0.297	0.087
-505.726	770.724	0.057	-0.156
-504.712	-54.473	-0.117	-0.053
-503.697	176.682	0.105	-0.153
-502.683	168.800	-0.247	0.352
-501.668	-104.999	0.133	0.030
-500.653	12.624	-0.158	0.122
-499.639	800.000	-0.080	-0.348
-498.624	-163.353	-0.212	0.010
-497.610	11.953	-0.123	0.095
-496.595	-17.321	-0.102	-0.064
-495.581	-23.285	0.112	0.067
-494.566	-189.412	-0.110	-0.001
-493.551	-105.354	-0.173	0.039
-492.537	-35.472	0.201	0.109
-491.522	169.467	-0.088	0.125
-490.508	23.932	-0.124	-0.103
-489.493	-200.000	-0.009	0.100
-488.478	-71.835	0.127	-0.047
-487.464	366.163	0.042	0.084
-486.449	-200.000	-0.069	0.301
-485.435	-9.518	-0.175	0.117
-484.420	-162.142	-0.122	0.006
-483.405	100.040	0.152	0.176
-482.391	-32.863	0.270	0.150
-481.376	-127.610	-0.369	-0.053
-480.362	49.913	0.337	-0.318
-479.347	177.413	-0.090	-0.131
-478.332	84.708	-0.139	0.152
-477.318	-162.943	-0.208	-0.010
-476.303	345.722	0.224	-0.439
-475.289	651.389	-0.026	0.067
-474.274	-120.133	-0.186	-0.032
-473.259	-89.419	-0.090	-0.026
-472.245	-200.000	0.030	0.140
-471.230	41.247	-0.103	0.093
-470.216	136.870	-0.100	0.131
-469.201	261.047	-0.133	0.230
-468.186	-159.627	0.184	-0.010
-467.172	40.809	0.180	-0.162
-466.157	-122.996	0.307	0.049
-465.143	84.159	0.127	0.138
-464.128	-150.924	-0.416	-0.031
-463.113	800.000	0.029	0.126
-462.099	29.776	0.093	-0.079
-461.084	-10.868	0.121	0.080
-460.070	77.053	0.113	0.119
-459.055	102.856	-0.229	0.268
-458.040	767.203	-0.146	0.397
-457.026	642.832	0.118	-0.299
-456.011	-107.455	-0.329	-0.072
-454.997	-58.027	0.419	-0.182
-453.982	-17.056	0.225	-0.142
-452.968	-72.878	-0.150	-0.055
-451.953	246.720	0.079	0.133
-450.938	-117.099	0.116	0.021
-449.924	800.000	-0.037	0.147
-448.909	249.107	-0.097	-0.164
-447.895	-25.974	0.108	0.064
-446.880	-94.213	-0.111	-0.030
-445.865	-6.066	-0.173	-0.118
-444.851	64.616	-0.267	-0.269
-443.836	-171.756	0.316	-0.010
-442.822	457.026	-0.066	0.145
-441.807	800.000	-0.071	0.269
-440.792	-125.055	0.147	-0.023
-439.778	655.000	-0.064	0.165
-438.763	-30.485	0.192	-0.109
-437.749	386.793	-0.065	0.134
-436.734	-200.000	-0.043	0.201
-435.719	-139.570	-0.400	0.043
-434.705	-93.589	0.242	0.067
-433.690	-126.848	-0.147	0.022
-432.676	167.104	-0.168	-0.237
-431.661	215.767	-0.059	-0.093
-430.646	-17.197	-0.149	0.093
-429.632	184.347	-0.305	0.450
-428.617	-86.700	0.264	-0.081
-427.603	-101.520	0.271	0.066
-426.588	-105.245	-0.455	-0.103
-425.573	41.781	0.057	0.052
-424.559	-14.448	-0.134	-0.086
-423.544	-58.490	-0.383	-0.166
-422.530	-137.910	-0.120	-0.013
-421.515	72.894	-0.032	0.033
-420.500	800.000	0.044	-0.177
-419.486	550.319	-0.111	-0.264
-418.471	21.035	-0.171	-0.138
-417.457	146.711	-0.314	-0.420
-416.442	-180.162	0.085	0.002
-415.428	-43.487	0.281	-0.141
-414.413	-70.980	-0.243	0.091
-413.398	104.238	0.057	-0.067
-412.384	-8.642	-0.031	0.021
-411.369	-124.133	0.186	-0.029
-410.355	116.062	-0.126	-0.153
-409.340	800.000	-0.095	-0.286
-408.325	-200.000	-0.005	0.043
-407.311	-200.000	0.003	0.035
-406.296	297.467	0.198	0.363
-405.282	74.702	-0.047	-0.049
-404.267	-146.515	-0.152	0.013
-403.252	-91.766	0.221	0.063
-402.238	126.197	0.165	0.208
-401.223	-200.000	-0.027	-0.415
-400.209	-118.171	0.210	0.037
-399.194	-112.695	-0.266	0.053
-398.179	257.619	0.113	-0.193
-397.165	800.000	-0.108	-0.342
-396.150	159.321	0.039	-0.054
-395.136	59.409	0.251	0.247
-394.121	-122.037	-0.212	-0.035
-393.106	91.413	0.028	-0.031
-392.092	10.519	0.201	0.152
-391.077	153.003	-0.186	0.254
-390.063	567.322	0.069	-0.167
-389.048	-89.706	-0.112	0.033
-388.033	459.890	-0.030	0.066
-387.019	-118.628	-0.099	0.017
-386.004	479.090	0.122	0.276
-384.990	-16.504	0.345	-0.218
-383.975	800.000	-0.146	0.443
-382.960	-145.888	0.142	0.013
-381.946	-8.120	-0.057	0.038
-380.931	-76.703	0.082	0.029
-379.917	130.044	0.253	0.322
-378.902	-192.866	-0.176	-0.002
-377.888	-79.609	0.122	0.041
-376.873	666.348	-0.108	0.277
-375.858	373.347	0.110	0.222
-374.844	156.990	0.139	0.192
-373.829	-46.300	-0.144	0.070
-372.815	-200.000	0.008	-0.169
-371.800	800.000	0.037	-0.112
-370.785	53.058	0.205	0.195
-369.771	-22.954	-0.271	0.162
-368.756	-37.456	-0.058	0.031
-367.742	-92.880	0.147	-0.041
-366.727	-66.997	-0.132	-0.052
-365.712	-76.030	0.578	-0.203
-364.698	-75.899	0.424	-0.149
-363.683	191.557	-0.211	-0.315
-362.669	-200.000	-0.007	-0.031
-361.654	159.690	0.144	0.199
-360.639	-33.938	0.032	0.017
-359.625	-200.000	0.010	0.084
-358.610	800.000	0.144	0.408
-357.596	254.652	0.083	-0.142
-356.581	-200.000	-0.002	-0.242
-355.566	-200.000	-0.014	-0.140
-354.552	-155.468	0.125	0.008
-353.537	-92.902	0.074	0.020
-352.523	-114.707	0.200	-0.038
-351.508	-149.325	-0.090	0.007
-350.493	-151.600	0.067	0.005
-349.479	-38.643	0.415	-0.218
-348.464	-200.000	0.006	0.063
-347.450	-200.000	0.330	-0.001
-346.435	-48.482	-0.365	-0.174
-345.420	800.000	-0.025	0.096
-344.406	663.949	-0.070	-0.179
-343.391	-39.910	0.524	0.272
-342.377	67.640	0.077	0.079
-341.362	36.656	-0.253	-0.222
-340.348	-23.530	-0.134	-0.080
-339.333	-68.402	0.309	-0.119
-338.318	800.000	-0.015	0.061
-337.304	-135.177	0.091	0.011
-336.289	-175.579	-0.103	-0.003
-335.275	-8.279	-0.121	0.081
-334.260	800.000	-0.108	0.334
-333.245	-103.589	0.146	0.034
-332.231	-200.000	-0.041	0.317
-331.216	800.000	-0.093	0.259
-330.202	790.999	-0.058	-0.160
-329.187	-200.000	0.036	0.284
-328.172	800.000	0.065	-0.216
-327.158	296.962	0.173	0.315
-326.143	318.506	-0.092	-0.173
-325.129	83.138	0.222	0.240
-324.114	-52.223	0.173	0.080
-323.099	-145.747	-0.255	-0.023
-322.085	563.884	-0.124	0.298
-321.070	-40.834	-0.385	0.198
-320.056	-173.566	-0.230	0.007
-319.041	265.785	0.176	-0.305
-318.026	213.049	-0.012	-0.019
-317.012	-107.550	0.249	-0.054
-315.997	69.784	0.245	-0.250
-314.983	96.594	-0.153	-0.174
-313.968	468.886	-0.069	-0.155
-312.953	800.000	-0.166	0.503
-311.939	53.093	-0.047	-0.044
-310.924	-113.302	-0.095	-0.019
-309.910	-127.223	0.114	0.017
-308.895	-116.254	-0.185	0.034
-307.880	-191.093	0.414	-0.004
-306.866	-200.000	-0.000	-0.241
-305.851	800.000	-0.040	-0.146
-304.837	-200.000	0.012	-0.074
-303.822	-157.359	0.204	0.012
-302.807	107.491	-0.095	0.112
-301.793	-200.000	0.010	0.221
-300.778	154.304	-0.086	0.117
-299.764	-149.285	-0.128	0.010
-298.749	-101.677	-0.178	0.043
-297.735	267.821	0.092	0.159
-296.720	180.846	0.139	-0.203
-295.705	64.947	0.235	-0.236
-294.691	253.621	0.030	0.052
-293.676	-200.000	0.035	0.202
-292.662	-65.127	-0.205	0.082
-291.647	713.481	0.167	0.439
-290.632	-174.401	0.219	0.006
-289.618	-200.000	0.030	-0.325
-288.603	13.698	0.123	0.095
-287.589	-31.926	-0.082	0.046
-286.574	-83.313	0.120	-0.038
-285.559	107.683	0.308	0.363
-284.545	-124.251	-0.083	-0.013
-283.530	-105.168	-0.273	-0.062
-282.516	-200.000	-0.016	0.397
-281.501	-200.000	-0.003	0.181
-280.486	-107.227	-0.182	0.040
-279.472	107.425	-0.198	-0.234
-278.457	448.381	-0.078	-0.170
-277.443	-101.716	0.348	-0.084
-276.428	-107.543	-0.122	0.027
-275.413	-76.565	0.314	0.109
-274.399	-12.802	0.078	-0.050
-273.384	-113.150	0.208	0.041
-272.370	688.026	-0.100	-0.260
-271.355	-137.433	0.102	0.011
-270.340	-81.810	0.100	-0.032
-269.326	-84.807	0.193	0.060
-268.311	76.883	-0.234	0.246
-267.297	-122.672	-0.074	0.012
-266.282	800.000	-0.058	0.196
-265.267	800.000	-0.136	-0.372
-264.253	-200.000	0.000	-0.136
-263.238	274.575	0.194	-0.340
-262.224	-142.676	0.194	-0.019
-261.209	-12.364	0.175	-0.113
-260.195	246.482	-0.082	-0.137
-259.180	-46.484	0.149	-0.072
-258.165	-200.000	-0.008	-0.048
-257.151	0.097	0.225	0.159
-256.136	-139.438	-0.050	-0.005
-255.122	-200.000	0.015	0.425
-254.107	15.462	-0.129	0.100
-253.092	49.377	-0.168	-0.156
-252.078	24.840	-0.104	0.085
-251.063	182.212	-0.196	-0.286
-250.049	-83.044	0.286	-0.091
-249.034	-55.021	-0.112	0.050
-248.019	-200.000	0.016	-0.296
-247.005	-54.978	0.032	-0.014
-245.990	82.813	-0.290	-0.312
-244.976	-200.000	0.025	0.322
-243.961	-113.452	-0.147	0.028
-242.946	26.989	0.058	0.048
-241.932	11.154	-0.319	0.241
-240.917	-25.439	0.218	-0.128
-239.903	-78.429	0.084	0.028
-238.888	156.117	0.166	-0.227
-237.873	504.441	-0.046	0.105
-236.859	-166.130	-0.382	0.016
-235.844	140.469	-0.119	0.155
-234.830	-122.949	0.373	-0.059
-233.815	263.676	-0.156	-0.269
-232.800	-17.671	-0.353	0.219
-231.786	-89.085	-0.470	-0.138
-230.771	-86.994	-0.238	-0.072
-229.757	97.501	0.190	-0.216
-228.742	732.655	0.073	0.192
-227.727	-200.000	-0.004	0.123
-226.713	7.697	-0.158	-0.117
-225.698	-105.811	-0.042	0.009
-224.684	-81.367	-0.416	0.136
-223.669	800.000	-0.181	0.522
-222.655	147.000	0.117	-0.156
-221.640	201.462	0.189	-0.287
-220.625	-200.000	-0.018	0.121
-219.611	163.534	0.322	-0.447
-218.596	-200.000	0.070	0.325
-217.582	-125.026	-0.258	-0.039
-216.567	-200.000	0.005	0.082
-215.552	96.594	-0.251	-0.284
-214.538	96.030	0.235	-0.265
-213.523	-200.000	0.020	0.246
-212.509	-103.197	0.224	-0.052
-211.494	-47.762	0.271	0.130
-210.479	188.854	-0.122	0.180
-209.465	-143.842	0.447	0.042
-208.450	-37.556	0.143	-0.075
-207.436	303.356	0.126	0.231
-206.421	341.086	0.068	0.130
-205.406	343.145	-0.159	-0.307
-204.392	145.319	0.205	0.272
-203.377	391.832	0.084	0.173
-202.363	800.000	0.165	0.465
-201.348	800.000	-0.162	0.449
-200.333	-168.803	0.360	0.013
-199.319	-200.000	-0.029	0.133
-198.304	-79.444	-0.308	0.103
-197.290	-123.307	-0.148	0.023
-196.275	87.814	0.155	0.169
-195.260	800.000	0.061	0.232
-194.246	-92.567	0.160	0.044
-193.231	-200.000	-0.014	-0.245
-192.217	84.932	-0.250	-0.271
-191.202	-200.000	0.005	-0.061
-190.187	56.341	0.228	-0.219
-189.173	52.684	0.170	-0.160
-188.158	196.688	0.154	0.232
-187.144	-71.074	0.161	-0.060
-186.129	60.333	-0.298	0.291
-185.114	-60.592	0.309	-0.130
-184.100	-200.000	0.015	0.085
-183.085	-16.955	-0.162	-0.101
-182.071	-65.772	-0.103	0.041
-181.056	-200.000	-0.046	-0.210
-180.042	717.178	-0.111	-0.290
-179.027	139.493	-0.145	-0.188
-178.012	-81.846	0.252	0.081
-176.998	-43.703	-0.415	0.206
-175.983	-2.852	-0.266	-0.184
-174.969	-59.434	0.106	0.045
-173.954	302.612	-0.125	0.229
-172.939	285.340	-0.121	0.215
-171.925	-119.466	0.223	0.038
-170.910	39.650	0.117	-0.103
-169.896	170.497	0.152	-0.214
-168.881	152.894	0.220	-0.297
-167.866	-110.022	-0.319	0.066
-166.852	800.000	0.070	0.291
-165.837	800.000	0.020	0.067
-164.823	296.874	-0.199	0.360
-163.808	-79.573	0.232	-0.077
-162.793	694.668	0.055	0.142
-161.779	113.188	0.225	-0.269
-160.764	175.998	-0.115	0.164
-159.750	-26.588	-0.162	0.093
-158.735	150.854	-0.106	0.142
-157.720	-106.638	0.207	0.045
-156.706	-92.472	0.380	-0.105
-155.691	-150.734	-0.039	-0.003
-154.677	-200.000	-0.011	-0.136
-153.662	49.717	0.215	-0.200
-152.647	-67.112	-0.122	0.047
-151.633	-149.783	0.109	-0.008
-150.618	-65.909	0.099	0.039
-149.604	-58.450	0.198	0.085
-148.589	-177.074	-0.168	-0.004
-147.574	-166.410	-0.080	0.003
-146.560	-102.420	0.568	-0.134
-145.545	-96.214	-0.156	-0.041
-144.531	489.564	0.122	0.274
-143.516	148.307	0.188	-0.250
-142.502	800.000	-0.024	-0.082
-141.487	-109.566	0.182	-0.038
-140.472	800.000	-0.046	-0.125
-139.458	250.879	0.208	-0.349
-138.443	53.920	0.130	0.123
-137.429	477.783	0.089	-0.199
-136.414	33.142	0.296	0.253
-135.399	800.000	-0.068	0.245
-134.385	109.611	0.085	0.100
-133.370	-200.000	0.033	-0.165
-132.356	132.184	-0.046	-0.059
-131.341	-200.000	-0.019	0.180
-130.326	609.407	-0.100	-0.247
-129.312	-12.120	0.523	-0.337
-128.297	535.658	-0.061	0.142
-127.283	-50.075	-0.196	0.091
-126.268	217.819	0.163	-0.256
-125.253	-61.794	-0.252	-0.104
-124.239	477.632	-0.082	0.182
-123.224	-200.000	0.008	-0.151
-122.210	294.307	-0.148	-0.266
