DTS Sentinel unit serial number:	SN413079Multiplexer serial number:	ORYXHardware model number:	OX4-SRSoftware version number:	ORYX F/W v4.00 Oryx Data Collector v3.7.2.0data status	okinstallation	princeton_trtdifferential loss correction	single-endedforward channel	channel 2reverse channel	N/Adate	2019/09/11time	01:13:11forward acquisition time	60.00reverse acquisition time	0.00gamma	496.2192k internal	0.2332k external	0.2332temperature offset calibration	0.9940default loss term (dB/km)	0.3790temperature slope calibration	1.0000multiplexer offset coefficient	1.0000multiplexer slope coefficient	1.0000fibre end	0.00T internal ref (°C)	29.12T ext. ref 1 (°C)	-0.31T ext. ref 2 (°C)	22.99length (m)	temperature (°C)	Stokes	anti-Stokes-747.200	-72.458	0.228	0.085
-746.185	-200.000	0.008	-0.048
-745.171	-65.398	0.078	0.031
-744.156	800.000	-0.079	0.255
-743.142	-32.776	0.117	-0.066
-742.127	728.627	0.036	0.097
-741.112	142.110	-0.155	0.206
-740.098	-5.191	-0.275	0.190
-739.083	-182.733	0.191	-0.003
-738.069	17.525	-0.254	-0.203
-737.054	-47.695	-0.151	0.074
-736.039	-43.098	-0.449	0.229
-735.025	-27.119	0.233	0.137
-734.010	-200.000	0.030	-0.313
-732.996	800.000	-0.019	0.067
-731.981	-157.022	-0.040	0.002
-730.966	800.000	0.028	-0.111
-729.952	-200.000	0.044	-0.219
-728.937	264.167	0.148	-0.260
-727.923	66.686	0.265	-0.271
-726.908	535.275	-0.069	0.163
-725.894	-200.000	-0.019	-0.254
-724.879	-56.213	-0.209	0.094
-723.864	126.523	-0.103	-0.131
-722.850	-200.000	-0.001	0.414
-721.835	15.171	-0.098	0.078
-720.821	151.951	0.147	0.202
-719.806	299.496	-0.129	-0.239
-718.791	42.986	0.109	-0.100
-717.777	-200.000	0.008	-0.041
-716.762	800.000	-0.042	-0.120
-715.748	778.615	-0.047	0.130
-714.733	800.000	0.042	0.185
-713.718	-40.748	-0.305	-0.159
-712.704	-196.585	0.186	-0.001
-711.689	465.133	0.073	0.163
-710.675	800.000	-0.067	-0.212
-709.660	312.395	0.049	-0.093
-708.645	800.000	-0.034	0.098
-707.631	-47.275	-0.091	0.044
-706.616	410.662	-0.162	0.346
-705.602	101.578	-0.119	0.140
-704.587	799.745	-0.044	0.121
-703.572	3.192	0.324	-0.237
-702.558	-200.000	-0.019	0.165
-701.543	16.496	0.159	0.126
-700.529	69.615	0.114	0.118
-699.514	-200.000	0.063	-0.320
-698.499	135.941	-0.157	-0.205
-697.485	445.861	-0.161	-0.356
-696.470	180.184	-0.081	-0.120
-695.456	-73.227	-0.076	-0.028
-694.441	71.078	-0.016	-0.017
-693.426	63.572	-0.214	0.216
-692.412	-55.621	0.268	0.121
-691.397	-200.000	-0.017	-0.311
-690.383	-1.076	0.225	-0.160
-689.368	800.000	-0.038	-0.124
-688.354	-177.566	0.222	0.005
-687.339	800.000	0.063	0.267
-686.324	-117.591	0.145	0.026
-685.310	-112.883	-0.273	-0.054
-684.295	496.993	0.083	0.193
-683.281	-200.000	-0.020	0.125
-682.266	223.387	-0.146	0.236
-681.251	-200.000	0.020	0.216
-680.237	-8.275	-0.377	-0.255
-679.222	800.000	0.025	-0.078
-678.208	-200.000	0.039	-0.224
-677.193	-12.010	-0.273	0.179
-676.178	-96.790	0.349	-0.092
-675.164	76.000	0.169	-0.179
-674.149	-26.298	-0.208	-0.122
-673.135	-15.631	-0.089	0.057
-672.120	218.033	-0.068	-0.109
-671.105	-200.000	-0.063	0.293
-670.091	202.257	-0.131	0.203
-669.076	121.999	-0.127	-0.159
-668.062	701.589	0.064	0.168
-667.047	-66.970	0.098	-0.039
-666.032	-182.062	0.317	-0.006
-665.018	800.000	-0.083	-0.297
-664.003	-200.000	-0.041	-0.228
-662.989	-200.000	-0.002	0.047
-661.974	-102.896	0.096	-0.023
-660.959	-200.000	0.018	0.264
-659.945	-111.095	-0.230	-0.047
-658.930	-180.693	0.205	-0.004
-657.916	128.481	-0.202	0.258
-656.901	300.388	0.173	-0.320
-655.886	-41.685	-0.294	-0.151
-654.872	-138.329	0.262	-0.029
-653.857	146.804	0.107	0.144
-652.843	800.000	0.053	0.151
-651.828	16.131	-0.399	-0.315
-650.814	185.797	0.076	0.113
-649.799	291.080	0.050	0.091
-648.784	-200.000	0.045	-0.205
-647.770	334.853	0.106	-0.205
-646.755	800.000	-0.054	0.231
-645.741	-7.397	0.218	0.148
-644.726	107.030	-0.196	0.233
-643.711	-76.804	-0.092	-0.032
-642.697	-200.000	-0.014	0.312
-641.682	800.000	0.150	0.575
-640.668	800.000	0.082	-0.276
-639.653	127.682	0.169	-0.216
-638.638	-200.000	-0.022	-0.204
-637.624	-137.453	0.060	-0.007
-636.609	75.786	-0.328	-0.348
-635.595	-200.000	0.001	-0.157
-634.580	106.287	-0.229	-0.272
-633.565	173.879	-0.018	0.026
-632.551	-200.000	-0.021	0.162
-631.536	163.866	-0.110	0.155
-630.522	-200.000	-0.000	-0.190
-629.507	-54.704	-0.415	0.188
-628.492	-21.474	0.259	0.158
-627.478	-144.555	0.097	-0.009
-626.463	-142.040	0.200	0.020
-625.449	243.690	-0.103	-0.173
-624.434	-38.549	0.187	0.099
-623.419	-125.160	0.066	-0.010
-622.405	-32.356	-0.149	0.083
-621.390	483.632	0.098	-0.224
-620.376	152.059	-0.187	-0.255
-619.361	-200.000	-0.056	-0.507
-618.346	-133.054	0.107	-0.014
-617.332	-111.668	-0.303	0.062
-616.317	800.000	0.041	0.167
-615.303	35.432	-0.462	-0.406
-614.288	-142.821	0.270	-0.026
-613.273	314.860	0.126	-0.237
-612.259	-200.000	-0.037	-0.402
-611.244	-112.179	-0.143	0.029
-610.230	-169.123	0.142	0.005
-609.215	-152.423	0.125	0.009
-608.201	-15.234	0.249	-0.160
-607.186	800.000	-0.062	0.273
-606.171	-140.134	0.102	0.011
-605.157	-162.677	0.089	0.004
-604.142	445.648	0.026	0.057
-603.128	243.131	0.158	0.266
-602.113	-14.116	-0.184	0.119
-601.098	-86.857	-0.169	0.052
-600.084	23.910	-0.234	0.193
-599.069	800.000	0.043	-0.124
-598.055	-23.515	-0.394	-0.237
-597.040	522.309	-0.080	0.187
-596.025	-138.167	-0.316	-0.035
-595.011	102.255	-0.115	-0.134
-593.996	-8.790	0.187	-0.125
-592.982	-200.000	0.023	-0.301
-591.967	800.000	0.053	0.147
-590.952	800.000	0.017	0.050
-589.938	-200.000	-0.061	-0.321
-588.923	800.000	-0.099	0.274
-587.909	158.227	0.164	0.228
-586.894	269.069	-0.041	-0.072
-585.879	-51.207	0.171	-0.080
-584.865	-105.150	-0.202	-0.046
-583.850	-36.507	-0.161	-0.086
-582.836	-200.000	0.015	-0.251
-581.821	723.267	-0.066	0.175
-580.806	-141.203	0.206	-0.021
-579.792	-74.376	-0.425	-0.153
-578.777	42.231	-0.049	0.045
-577.763	-27.943	-0.328	-0.190
-576.748	-119.240	-0.286	-0.050
-575.733	800.000	-0.029	0.084
-574.719	-36.058	0.300	-0.162
-573.704	17.802	0.122	-0.097
-572.690	-200.000	0.007	-0.067
-571.675	-200.000	0.014	-0.085
-570.661	-5.849	-0.088	0.060
-569.646	-200.000	0.011	0.170
-568.631	224.165	-0.091	0.146
-567.617	66.170	-0.105	-0.106
-566.602	-90.782	0.135	-0.039
-565.588	-144.567	0.331	0.031
-564.573	-79.559	-0.034	0.011
-563.558	1.320	0.295	-0.212
-562.544	-200.000	0.012	0.222
-561.529	-33.663	-0.458	0.252
-560.515	-172.144	-0.482	-0.015
-559.500	-200.000	0.007	0.117
-558.485	-200.000	-0.016	-0.137
-557.471	78.606	0.132	0.141
-556.456	-137.065	0.414	0.047
-555.442	800.000	-0.044	0.155
-554.427	-165.313	0.329	-0.014
-553.412	-86.878	0.130	0.040
-552.398	800.000	0.064	0.195
-551.383	-79.665	-0.217	0.073
-550.369	-25.914	-0.156	-0.092
-549.354	722.227	0.045	-0.120
-548.339	8.964	-0.118	-0.089
-547.325	800.000	-0.057	-0.161
-546.310	-80.952	-0.263	0.087
-545.296	-52.556	0.396	-0.183
-544.281	309.103	-0.146	-0.272
-543.266	131.979	0.180	-0.231
-542.252	-148.692	-0.213	-0.017
-541.237	-200.000	-0.011	-0.083
-540.223	78.347	-0.094	0.100
-539.208	328.380	0.062	-0.118
-538.193	66.925	-0.304	-0.309
-537.179	-200.000	0.013	0.303
-536.164	-5.586	0.503	0.344
-535.150	657.477	0.087	0.223
-534.135	-122.746	0.282	-0.045
-533.121	-158.658	-0.351	0.020
-532.106	-14.132	-0.168	0.108
-531.091	205.105	-0.027	-0.041
-530.077	-59.759	0.047	-0.020
-529.062	-29.793	-0.223	-0.127
-528.048	136.927	0.138	-0.179
-527.033	199.609	-0.137	-0.210
-526.018	-200.000	0.013	-0.086
-525.004	-148.219	-0.228	-0.019
-523.989	-82.635	-0.552	0.178
-522.975	137.074	0.104	0.136
-521.960	374.610	-0.135	-0.274
-520.945	-49.415	-0.222	0.106
-519.931	626.995	-0.013	0.033
-518.916	251.109	0.158	0.268
-517.902	122.211	-0.147	-0.183
-516.887	-200.000	-0.005	-0.371
-515.872	-81.809	0.241	-0.079
-514.858	116.922	-0.248	0.304
-513.843	-200.000	0.024	0.177
-512.829	569.813	0.057	-0.139
-511.814	49.949	0.059	-0.055
-510.799	-100.603	-0.536	-0.132
-509.785	800.000	0.059	-0.225
-508.770	800.000	0.021	-0.077
-507.756	-113.588	0.093	0.018
-506.741	-45.519	0.198	-0.098
-505.726	321.552	0.009	-0.018
-504.712	-91.599	0.330	-0.094
-503.697	409.292	0.046	-0.098
-502.683	-200.000	0.071	-0.324
-501.668	-167.265	-0.301	0.012
-500.653	49.202	0.005	0.004
-499.639	-130.299	0.330	-0.045
-498.624	202.723	0.196	0.301
-497.610	39.410	-0.263	-0.235
-496.595	586.316	0.048	0.117
-495.581	311.949	-0.057	0.107
-494.566	10.919	0.192	0.146
-493.551	-121.955	0.114	0.019
-492.537	-138.080	0.107	0.012
-491.522	-73.686	0.255	-0.093
-490.508	-135.601	0.125	0.015
-489.493	-200.000	0.023	0.255
-488.478	391.340	-0.034	0.071
-487.464	311.996	-0.183	-0.342
-486.449	247.346	-0.190	0.320
-485.435	-52.416	-0.231	0.106
-484.420	191.488	0.154	0.231
-483.405	-14.534	-0.152	0.097
-482.391	7.009	0.098	0.073
-481.376	76.056	-0.101	-0.106
-480.362	152.406	0.085	-0.116
-479.347	-200.000	-0.050	-0.228
-478.332	353.723	0.050	-0.098
-477.318	-69.850	-0.138	-0.053
-476.303	386.105	-0.229	0.471
-475.289	-114.776	-0.234	0.044
-474.274	-200.000	-0.022	-0.108
-473.259	86.949	0.219	0.240
-472.245	35.704	-0.291	0.255
-471.230	160.481	0.145	0.202
-470.216	5.929	-0.055	-0.041
-469.201	800.000	-0.015	-0.055
-468.186	-158.569	0.138	-0.008
-467.172	-200.000	-0.008	0.348
-466.157	56.947	0.270	0.262
-465.143	-200.000	-0.068	0.433
-464.128	5.333	-0.287	-0.210
-463.113	11.718	0.277	-0.212
-462.099	51.275	0.166	-0.157
-461.084	388.734	-0.128	0.263
-460.070	-25.681	0.081	-0.048
-459.055	346.273	-0.125	-0.244
-458.040	-200.000	-0.040	0.184
-457.026	390.077	0.082	-0.168
-456.011	-200.000	0.016	0.151
-454.997	800.000	0.022	0.078
-453.982	800.000	0.060	-0.194
-452.968	-169.898	0.326	-0.012
-451.953	14.110	-0.257	-0.199
-450.938	236.313	-0.127	-0.208
-449.924	49.750	0.163	0.153
-448.909	-164.701	0.051	-0.002
-447.895	20.286	-0.118	-0.095
-446.880	-24.781	0.081	-0.048
-445.865	166.037	0.081	-0.114
-444.851	-200.000	-0.011	-0.179
-443.836	-92.009	0.351	-0.099
-442.822	-200.000	0.048	0.455
-441.807	-29.709	-0.155	-0.088
-440.792	-101.157	-0.316	-0.077
-439.778	39.826	0.082	-0.073
-438.763	15.983	0.217	0.170
-437.749	-199.151	-0.122	-0.001
-436.734	58.891	0.140	-0.137
-435.719	47.041	0.242	0.224
-434.705	-200.000	-0.022	-0.101
-433.690	348.165	-0.045	-0.088
-432.676	-32.710	0.143	-0.079
-431.661	-200.000	0.005	0.075
-430.646	800.000	-0.065	-0.209
-429.632	67.535	0.231	-0.234
-428.617	-17.852	-0.299	-0.186
-427.603	-200.000	-0.005	-0.107
-426.588	-5.171	-0.278	0.190
-425.573	-73.537	-0.333	-0.121
-424.559	-155.551	-0.129	0.008
-423.544	-200.000	-0.014	0.143
-422.530	-57.841	-0.234	0.102
-421.515	-9.417	0.344	0.228
-420.500	117.639	-0.148	0.181
-419.486	-103.937	0.298	-0.069
-418.471	517.011	-0.136	-0.316
-417.457	-135.577	0.061	0.007
-416.442	83.796	-0.105	-0.114
-415.428	-142.645	0.369	0.036
-414.413	-26.951	-0.437	-0.253
-413.398	57.485	-0.138	0.134
-412.384	-200.000	0.012	0.074
-411.369	-122.517	0.240	0.039
-410.355	-31.814	0.060	0.034
-409.340	26.991	0.119	-0.099
-408.325	-136.276	0.052	0.006
-407.311	49.816	-0.109	-0.102
-406.296	-126.274	0.244	0.036
-405.282	375.847	-0.289	-0.585
-404.267	-89.750	-0.283	-0.082
-403.252	-25.971	-0.049	0.029
-402.238	-200.000	0.070	0.314
-401.223	-121.351	-0.182	0.030
-400.209	800.000	0.083	0.299
-399.194	-200.000	-0.012	-0.170
-398.179	75.768	0.050	0.053
-397.165	6.011	-0.086	-0.063
-396.150	-101.056	0.326	-0.079
-395.136	-60.838	-0.155	-0.065
-394.121	99.507	0.197	0.226
-393.106	-200.000	0.003	-0.213
-392.092	-156.156	-0.371	-0.023
-391.077	20.371	-0.111	0.089
-390.063	800.000	-0.064	0.187
-389.048	-24.910	0.045	-0.027
-388.033	434.759	0.116	0.251
-387.019	-200.000	-0.024	0.229
-386.004	-200.000	0.015	0.176
-384.990	151.920	0.108	-0.146
-383.975	555.787	-0.217	-0.519
-382.960	101.089	0.132	-0.152
-381.946	-200.000	0.030	0.151
-380.931	473.999	0.109	-0.244
-379.917	288.774	0.056	-0.101
-378.902	800.000	-0.069	-0.218
-377.888	-200.000	0.007	0.045
-376.873	263.405	0.238	-0.410
-375.858	-200.000	0.027	0.177
-374.844	-105.305	0.312	-0.070
-373.829	-139.757	0.572	0.060
-372.815	63.440	-0.077	0.077
-371.800	-80.183	0.230	0.076
-370.785	800.000	-0.085	-0.234
-369.771	161.166	0.127	0.176
-368.756	223.329	0.165	0.263
-367.742	-200.000	-0.010	0.078
-366.727	-135.457	0.174	-0.021
-365.712	303.912	-0.099	-0.181
-364.698	93.407	0.249	0.279
-363.683	111.342	-0.151	-0.181
-362.669	138.327	-0.062	-0.080
-361.654	185.263	-0.051	0.075
-360.639	414.285	0.260	0.549
-359.625	426.194	0.160	-0.342
-358.610	413.449	0.116	0.245
-357.596	-200.000	-0.026	0.117
-356.581	-58.751	0.392	0.168
-355.566	-91.830	-0.180	-0.051
-354.552	193.852	0.151	0.227
-353.537	800.000	0.064	-0.244
-352.523	-53.196	0.035	0.016
-351.508	213.538	-0.049	-0.077
-350.493	-191.159	0.314	0.003
-349.479	-30.952	0.355	0.198
-348.464	55.170	-0.293	-0.281
-347.450	6.529	0.415	-0.305
-346.435	-19.658	0.200	0.122
-345.420	800.000	0.063	-0.190
-344.406	-136.681	-0.396	-0.045
-343.391	42.306	0.115	-0.104
-342.377	85.401	0.207	-0.225
-341.362	133.074	-0.212	0.272
-340.348	800.000	0.122	-0.351
-339.333	-200.000	0.020	0.153
-338.318	-147.993	0.318	0.026
-337.304	78.469	0.040	0.042
-336.289	800.000	-0.056	-0.209
-335.275	580.536	-0.038	0.092
-334.260	800.000	-0.100	0.291
-333.245	800.000	0.064	-0.229
-332.231	-178.943	-0.387	-0.009
-331.216	-200.000	-0.008	-0.407
-330.202	334.220	-0.038	-0.072
-329.187	156.183	-0.026	0.035
-328.172	-200.000	0.062	0.274
-327.158	155.930	0.287	0.392
-326.143	193.908	-0.113	0.169
-325.129	84.129	-0.171	-0.185
-324.114	-116.094	-0.187	0.034
-323.099	21.847	-0.259	0.209
-322.085	800.000	-0.083	0.257
-321.070	132.652	0.066	-0.084
-320.056	447.937	-0.090	-0.197
-319.041	66.146	-0.054	0.054
-318.026	174.595	-0.157	-0.224
-317.012	538.305	-0.085	0.200
-315.997	800.000	-0.200	0.600
-314.983	144.725	-0.199	-0.263
-313.968	-170.245	0.326	0.011
-312.953	-200.000	0.003	0.180
-311.939	32.097	0.067	0.057
-310.924	-113.725	0.298	0.057
-309.910	176.812	0.209	0.301
-308.895	663.627	-0.076	-0.195
-307.880	-152.823	-0.137	0.010
-306.866	11.630	0.153	-0.116
-305.851	182.729	-0.300	0.438
-304.837	-52.061	-0.171	0.078
-303.822	-84.097	-0.113	-0.035
-302.807	-179.046	-0.384	0.009
-301.793	800.000	-0.069	-0.258
-300.778	130.976	-0.081	0.103
-299.764	800.000	0.035	0.123
-298.749	-200.000	-0.008	0.077
-297.735	-114.914	0.148	0.028
-296.720	101.869	0.258	-0.297
-295.705	-102.825	-0.077	0.018
-294.691	410.047	-0.157	0.329
-293.676	754.724	0.088	-0.234
-292.662	217.593	-0.182	0.287
-291.647	172.488	-0.194	0.277
-290.632	800.000	0.036	0.104
-289.618	593.872	-0.140	-0.342
-288.603	-62.744	0.191	-0.078
-287.589	800.000	0.036	-0.130
-286.574	86.747	0.158	0.173
-285.559	-200.000	-0.003	0.246
-284.545	-107.389	-0.209	-0.045
-283.530	-200.000	-0.028	0.199
-282.516	800.000	0.019	0.079
-281.501	-73.869	0.137	-0.049
-280.486	800.000	0.081	0.221
-279.472	525.031	0.070	0.163
-278.457	178.813	-0.047	0.068
-277.443	65.783	0.138	0.138
-276.428	-24.095	-0.436	0.257
-275.413	215.531	-0.221	-0.346
-274.399	-34.738	-0.143	0.077
-273.384	-200.000	-0.057	0.304
-272.370	77.666	0.182	0.192
-271.355	-48.765	0.279	-0.132
-270.340	-200.000	-0.011	-0.091
-269.326	147.862	0.065	0.086
-268.311	768.087	-0.086	-0.231
-267.297	640.575	0.109	-0.273
-266.282	-116.687	0.176	0.032
-265.267	-200.000	0.014	0.125
-264.253	-10.765	0.349	0.228
-263.238	95.523	-0.072	-0.081
-262.224	256.674	0.071	-0.120
-261.209	-9.265	-0.349	0.230
-260.195	-54.563	0.275	0.123
-259.180	-200.000	0.050	0.306
-258.165	310.862	-0.061	-0.112
-257.151	-4.779	-0.222	0.151
-256.136	-45.397	-0.281	0.137
-255.122	-57.281	-0.308	-0.134
-254.107	-200.000	-0.049	0.330
-253.092	162.400	0.059	-0.082
-252.078	12.330	0.161	-0.123
-251.063	-16.981	-0.078	-0.049
-250.049	539.554	0.050	0.118
-249.034	-93.615	-0.316	-0.086
-248.019	197.694	-0.076	0.114
-247.005	-82.168	0.376	0.121
-245.990	800.000	0.043	0.159
-244.976	800.000	0.097	0.271
-243.961	93.235	0.188	0.210
-242.946	276.849	-0.042	-0.073
-241.932	-200.000	0.000	0.294
-240.917	-114.301	0.131	0.025
-239.903	71.887	-0.043	-0.044
-238.888	-33.009	0.087	0.048
-237.873	-52.430	-0.336	-0.153
-236.859	9.103	-0.027	0.020
-235.844	681.651	0.137	0.353
-234.830	-132.568	0.148	0.019
-233.815	-97.533	-0.278	-0.071
-232.800	-132.445	-0.253	-0.032
-231.786	-97.190	0.278	0.072
-230.771	226.334	0.106	-0.169
-229.757	-89.333	-0.219	-0.064
-228.742	260.052	0.096	-0.163
-227.727	-200.000	-0.008	-0.082
-226.713	-185.984	-0.391	-0.006
-225.698	800.000	0.035	-0.102
-224.684	-200.000	0.023	-0.356
-223.669	767.986	0.011	-0.029
-222.655	104.125	0.254	-0.295
-221.640	113.367	0.048	0.058
-220.625	-88.870	0.131	0.038
-219.611	-107.928	0.205	0.044
-218.596	-8.257	-0.337	-0.224
-217.582	57.360	0.171	-0.164
-216.567	-55.735	-0.331	0.146
-215.552	-67.119	-0.166	-0.064
-214.538	71.080	0.082	-0.084
-213.523	-86.785	0.318	0.096
-212.509	657.269	0.073	0.185
-211.494	-115.393	0.273	0.051
-210.479	26.203	0.101	0.083
-209.465	-21.954	-0.205	-0.123
-208.450	800.000	0.047	0.163
-207.436	253.513	-0.103	0.173
-206.421	-101.868	-0.480	0.114
-205.406	800.000	0.029	-0.079
-204.392	-130.813	-0.395	-0.052
-203.377	-45.405	0.180	-0.088
-202.363	-66.901	0.247	0.096
-201.348	-104.483	-0.196	-0.045
-200.333	169.070	-0.116	0.162
-199.319	-188.503	-0.090	-0.001
-198.304	-41.133	-0.043	0.022
-197.290	138.436	-0.016	0.021
-196.275	-200.000	0.040	-0.308
-195.260	307.046	0.061	0.112
-194.246	-188.565	-0.138	-0.002
-193.231	-200.000	-0.056	-0.331
-192.217	75.447	0.102	-0.106
-191.202	-146.309	0.362	0.031
-190.187	68.779	0.239	0.242
-189.173	-109.837	0.305	-0.063
-188.158	-200.000	-0.013	-0.106
-187.144	-84.645	0.144	-0.045
-186.129	91.037	0.088	0.098
-185.114	-70.622	0.201	0.075
-184.100	179.026	0.108	0.156
-183.085	179.437	0.042	0.061
-182.071	-200.000	0.001	-0.196
-181.056	300.779	0.137	0.248
-180.042	-84.541	-0.219	-0.068
-179.027	-56.218	-0.327	-0.143
-178.012	686.951	0.102	0.263
-176.998	800.000	0.075	-0.214
-175.983	101.859	-0.017	0.020
-174.969	68.260	0.162	-0.164
-173.954	800.000	-0.026	0.099
-172.939	800.000	0.165	-0.591
-171.925	-49.131	0.321	-0.151
-170.910	800.000	-0.004	-0.018
-169.896	-151.997	0.173	0.012
-168.881	-10.191	-0.240	0.157
-167.866	262.612	-0.090	0.153
-166.852	-200.000	-0.010	0.063
-165.837	-65.613	-0.272	-0.107
-164.823	55.172	0.095	-0.090
-163.808	557.104	-0.025	-0.059
-162.793	-22.460	0.133	0.079
-161.779	-200.000	-0.060	0.303
-160.764	-140.918	0.146	-0.015
-159.750	39.789	0.360	-0.317
-158.735	347.305	-0.113	-0.219
-157.720	0.029	-0.203	0.143
-156.706	24.165	-0.108	0.088
-155.691	-51.480	-0.097	0.044
-154.677	-98.308	0.239	-0.060
-153.662	-131.573	-0.174	0.022
-152.647	46.853	0.078	-0.071
-151.633	-200.000	-0.011	-0.238
-150.618	-38.425	0.218	-0.113
-149.604	-55.123	0.045	-0.020
-148.589	-121.388	-0.232	0.038
-147.574	-91.369	0.194	0.055
-146.560	177.718	0.334	-0.479
-145.545	-175.770	-0.205	-0.005
-144.531	-117.952	0.097	0.017
-143.516	198.547	0.170	0.255
-142.502	19.221	0.249	-0.196
-141.487	101.286	0.042	0.048
-140.472	145.106	0.231	0.303
-139.458	41.963	-0.095	0.085
-138.443	-104.059	-0.126	0.029
-137.429	-9.940	0.231	-0.151
-136.414	-200.000	0.006	-0.243
-135.399	800.000	-0.071	0.270
-134.385	800.000	-0.047	0.154
-133.370	-8.151	-0.114	-0.075
-132.356	800.000	0.048	0.157
-131.341	112.185	0.316	0.375
-130.326	800.000	0.099	-0.273
-129.312	-200.000	-0.022	0.167
-128.297	-14.196	0.399	-0.252
-127.283	-200.000	-0.022	0.156
-126.268	-200.000	-0.001	0.085
-125.253	677.950	0.028	0.071
-124.239	-63.298	0.158	-0.064
-123.224	800.000	-0.036	0.148
-122.210	25.101	0.144	-0.117
-121.195	-107.920	-0.274	0.059
