DTS Sentinel unit serial number:	SN413079Multiplexer serial number:	ORYXHardware model number:	OX4-SRSoftware version number:	ORYX F/W v4.00 Oryx Data Collector v3.7.2.0data status	okinstallation	princeton_trtdifferential loss correction	single-endedforward channel	channel 2reverse channel	N/Adate	2019/09/10time	23:37:10forward acquisition time	60.00reverse acquisition time	0.00gamma	496.2192k internal	0.2330k external	0.2330temperature offset calibration	0.9948default loss term (dB/km)	0.3790temperature slope calibration	1.0000multiplexer offset coefficient	1.0000multiplexer slope coefficient	1.0000fibre end	0.00T internal ref (°C)	29.62T ext. ref 1 (°C)	-0.32T ext. ref 2 (°C)	23.06length (m)	temperature (°C)	Stokes	anti-Stokes-747.200	-115.182	0.213	-0.041
-746.185	-66.764	0.319	0.127
-745.171	-200.000	0.019	-0.128
-744.156	800.000	0.016	0.053
-743.142	93.849	0.075	-0.085
-742.127	-200.000	-0.019	0.210
-741.112	153.278	0.193	-0.266
-740.098	-117.111	-0.571	0.105
-739.083	534.506	0.010	0.025
-738.069	236.300	0.160	0.266
-737.054	461.814	0.131	0.294
-736.039	-185.315	-0.133	0.002
-735.025	-200.000	-0.021	0.240
-734.010	443.684	0.119	0.262
-732.996	151.892	0.092	0.126
-731.981	-168.970	0.169	0.006
-730.966	-43.450	-0.139	-0.071
-729.952	-174.210	-0.197	0.006
-728.937	-193.993	-0.114	0.001
-727.923	14.113	-0.029	-0.022
-726.908	29.944	0.153	-0.131
-725.894	297.986	-0.041	0.076
-724.879	-70.155	-0.200	0.076
-723.864	293.935	0.057	-0.105
-722.850	578.042	0.105	-0.259
-721.835	71.997	-0.144	-0.150
-720.821	3.701	0.291	0.213
-719.806	-78.613	0.354	0.122
-718.791	-200.000	0.048	-0.266
-717.777	52.438	-0.381	0.366
-716.762	-115.913	-0.151	-0.028
-715.748	-112.849	-0.123	-0.025
-714.733	-29.070	-0.100	0.057
-713.718	-200.000	0.001	0.032
-712.704	800.000	-0.041	0.118
-711.689	-148.356	-0.258	0.021
-710.675	377.628	0.106	-0.217
-709.660	-182.395	0.184	-0.003
-708.645	-73.616	0.327	0.120
-707.631	183.686	0.076	-0.114
-706.616	180.478	-0.024	-0.036
-705.602	-73.679	-0.290	-0.106
-704.587	71.075	0.275	0.286
-703.572	488.946	-0.101	-0.231
-702.558	305.634	0.117	-0.219
-701.543	198.593	0.211	0.324
-700.529	371.756	0.078	0.159
-699.514	62.247	-0.063	-0.064
-698.499	35.956	-0.127	0.112
-697.485	368.848	0.182	-0.371
-696.470	316.212	-0.135	-0.256
-695.456	-200.000	0.006	0.039
-694.441	800.000	-0.117	-0.355
-693.426	163.834	0.066	0.093
-692.412	800.000	0.028	0.120
-691.397	-200.000	-0.001	0.194
-690.383	-153.397	-0.496	-0.035
-689.368	-129.515	0.049	0.007
-688.354	-200.000	0.006	0.514
-687.339	27.625	0.203	0.172
-686.324	-200.000	0.019	-0.160
-685.310	157.615	0.153	-0.213
-684.295	90.132	-0.069	0.077
-683.281	800.000	-0.021	0.061
-682.266	23.445	-0.187	0.154
-681.251	-69.814	0.175	0.067
-680.237	-179.164	0.241	0.005
-679.222	9.806	0.136	-0.104
-678.208	-200.000	0.052	-0.332
-677.193	13.777	0.052	0.041
-676.178	-112.728	-0.230	0.046
-675.164	-44.554	0.144	-0.072
-674.149	106.129	0.067	0.079
-673.135	-117.461	-0.356	-0.065
-672.120	-4.212	-0.104	-0.072
-671.105	-42.415	-0.125	-0.064
-670.091	6.429	-0.312	0.233
-669.076	-85.613	-0.397	0.124
-668.062	32.976	0.221	0.192
-667.047	-42.949	-0.081	-0.041
-666.032	329.129	0.063	0.121
-665.018	140.218	0.060	0.079
-664.003	-145.919	-0.178	-0.016
-662.989	-200.000	-0.005	0.091
-661.974	-22.518	-0.289	-0.175
-660.959	800.000	0.049	-0.141
-659.945	122.617	-0.061	-0.076
-658.930	61.600	0.333	-0.333
-657.916	15.787	0.073	0.058
-656.901	-48.046	-0.039	0.019
-655.886	-200.000	-0.024	-0.244
-654.872	-7.113	0.245	0.167
-653.857	-200.000	0.057	-0.323
-652.843	-200.000	-0.018	-0.091
-651.828	185.933	0.057	-0.086
-650.814	-97.631	-0.161	0.042
-649.799	732.837	-0.058	-0.156
-648.784	-48.824	-0.097	-0.047
-647.770	800.000	-0.067	-0.246
-646.755	-6.814	0.446	-0.304
-645.741	240.829	-0.111	-0.186
-644.726	78.719	-0.072	-0.077
-643.711	428.109	-0.099	0.214
-642.697	235.373	-0.187	-0.309
-641.682	206.693	-0.048	-0.074
-640.668	-200.000	0.013	-0.217
-639.653	800.000	-0.111	-0.350
-638.638	73.337	0.159	-0.167
-637.624	-200.000	-0.007	0.343
-636.609	24.452	-0.175	-0.145
-635.595	-113.249	0.254	0.050
-634.580	-165.172	-0.094	-0.004
-633.565	30.646	0.225	0.193
-632.551	78.305	-0.125	0.133
-631.536	18.523	0.338	0.271
-630.522	34.593	0.042	0.037
-629.507	800.000	-0.053	0.210
-628.492	168.682	-0.159	-0.227
-627.478	17.338	-0.177	0.141
-626.463	-155.263	-0.193	0.013
-625.449	-36.915	-0.209	-0.112
-624.434	592.379	0.075	0.187
-623.419	-78.957	0.017	0.006
-622.405	69.683	-0.201	0.207
-621.390	-200.000	-0.032	0.181
-620.376	-122.255	0.465	-0.076
-619.361	800.000	-0.037	-0.136
-618.346	190.668	0.042	-0.063
-617.332	-167.744	-0.140	0.006
-616.317	145.702	-0.049	-0.066
-615.303	16.039	-0.120	0.095
-614.288	-200.000	-0.002	0.051
-613.273	-200.000	0.024	0.191
-612.259	-91.123	-0.331	0.095
-611.244	169.004	-0.205	0.294
-610.230	113.816	0.116	0.142
-609.215	-200.000	0.016	0.092
-608.201	-87.936	-0.254	-0.077
-607.186	-200.000	-0.008	0.175
-606.171	-122.744	0.146	0.024
-605.157	1.287	-0.073	0.053
-604.142	-200.000	0.032	-0.236
-603.128	-179.735	0.189	-0.004
-602.113	-158.039	-0.174	-0.010
-601.098	404.442	-0.152	-0.320
-600.084	698.009	-0.118	-0.310
-599.069	506.902	0.133	-0.309
-598.055	-29.693	0.349	0.199
-597.040	-200.000	-0.011	0.228
-596.025	179.453	0.117	-0.171
-595.011	-200.000	0.063	0.309
-593.996	-200.000	-0.006	-0.222
-592.982	-98.688	0.085	-0.022
-591.967	165.790	0.077	-0.109
-590.952	-107.431	-0.424	0.093
-589.938	-200.000	0.018	0.219
-588.923	-186.784	-0.438	0.006
-587.909	-200.000	0.002	-0.130
-586.894	-172.219	0.330	0.011
-585.879	-200.000	-0.022	-0.181
-584.865	355.234	-0.082	-0.163
-583.850	-200.000	-0.055	-0.283
-582.836	-22.162	0.173	0.105
-581.821	525.824	0.052	-0.122
-580.806	800.000	-0.038	0.158
-579.792	800.000	0.005	0.013
-578.777	800.000	-0.023	0.096
-577.763	147.516	-0.105	0.141
-576.748	138.217	-0.067	-0.087
-575.733	236.951	0.045	-0.075
-574.719	-82.177	-0.374	0.122
-573.704	179.470	-0.177	0.259
-572.690	57.171	-0.055	0.053
-571.675	800.000	0.058	-0.225
-570.661	99.474	0.065	-0.075
-569.646	25.478	-0.085	-0.071
-568.631	-9.984	0.204	-0.136
-567.617	60.249	-0.064	-0.063
-566.602	234.938	-0.116	-0.191
-565.588	354.371	0.038	-0.076
-564.573	-59.999	-0.248	0.106
-563.558	-105.950	0.350	0.079
-562.544	84.231	0.123	0.134
-561.529	-75.067	-0.074	-0.026
-560.515	-85.466	-0.314	-0.098
-559.500	174.515	-0.085	0.123
-558.485	-83.712	0.157	0.050
-557.471	-104.077	-0.185	-0.043
-556.456	800.000	0.052	-0.150
-555.442	-31.084	-0.043	0.024
-554.427	21.785	-0.238	0.194
-553.412	-24.139	-0.261	-0.156
-552.398	498.497	0.132	-0.305
-551.383	72.180	-0.085	0.088
-550.369	0.769	0.077	-0.055
-549.354	-84.141	0.220	0.070
-548.339	219.176	0.096	-0.154
-547.325	-60.908	-0.341	-0.144
-546.310	-54.387	0.183	0.083
-545.296	708.961	-0.138	-0.364
-544.281	109.520	0.157	0.187
-543.266	26.360	-0.147	0.123
-542.252	36.206	0.105	0.093
-541.237	-42.646	0.296	0.150
-540.223	-90.268	0.439	-0.127
-539.208	-148.676	0.186	-0.015
-538.193	-200.000	-0.087	-0.388
-537.179	67.765	-0.172	0.176
-536.164	301.693	-0.020	0.036
-535.150	-94.577	0.411	0.112
-534.135	-200.000	-0.047	0.250
-533.121	126.709	-0.095	-0.121
-532.106	-102.092	0.212	-0.051
-531.091	265.101	0.156	0.271
-530.077	-25.489	-0.131	-0.077
-529.062	9.007	-0.273	-0.205
-528.048	549.880	-0.150	-0.359
-527.033	-124.568	0.125	-0.019
-526.018	-200.000	-0.029	-0.222
-525.004	-36.812	-0.071	0.038
-523.989	800.000	0.043	0.157
-522.975	-49.212	-0.035	0.017
-521.960	0.362	-0.081	-0.058
-520.945	532.845	-0.064	0.152
-519.931	25.131	-0.420	0.348
-518.916	-45.047	-0.167	-0.083
-517.902	123.885	-0.135	-0.169
-516.887	-122.346	0.280	0.046
-515.872	-68.223	-0.161	0.062
-514.858	-68.018	0.402	0.157
-513.843	265.503	-0.223	-0.389
-512.829	-200.000	-0.009	-0.084
-511.814	-200.000	-0.007	0.035
-510.799	-40.814	0.245	0.127
-509.785	-2.147	0.195	-0.137
-508.770	800.000	-0.121	-0.467
-507.756	130.535	0.106	0.135
-506.741	800.000	0.025	0.091
-505.726	-200.000	0.044	0.000
-504.712	531.903	0.197	0.465
-503.697	-200.000	0.014	-0.174
-502.683	127.793	-0.063	0.079
-501.668	112.545	-0.173	-0.208
-500.653	-200.000	0.019	0.085
-499.639	-122.882	0.059	0.010
-498.624	298.648	0.091	-0.167
-497.610	-76.557	0.092	-0.032
-496.595	-200.000	0.020	0.131
-495.581	800.000	-0.091	0.256
-494.566	258.676	-0.082	0.141
-493.551	-5.433	-0.248	0.170
-492.537	29.144	-0.117	0.099
-491.522	45.128	-0.095	0.087
-490.508	-200.000	-0.010	0.183
-489.493	-200.000	-0.048	0.224
-488.478	-46.496	0.103	-0.051
-487.464	800.000	0.089	-0.300
-486.449	-0.560	-0.151	-0.107
-485.435	-139.753	-0.254	-0.027
-484.420	265.195	0.098	-0.170
-483.405	-89.175	-0.176	-0.052
-482.391	142.403	0.080	-0.106
-481.376	-90.181	-0.216	0.062
-480.362	-81.605	-0.157	0.051
-479.347	-134.189	0.317	0.039
-478.332	72.319	-0.152	0.158
-477.318	800.000	0.032	-0.102
-476.303	-166.574	0.171	0.007
-475.289	103.110	0.092	-0.107
-474.274	-63.768	-0.030	0.012
-473.259	74.693	0.277	-0.290
-472.245	-152.316	0.211	-0.015
-471.230	-119.333	0.569	0.099
-470.216	107.110	-0.120	0.142
-469.201	800.000	-0.033	-0.139
-468.186	13.102	0.081	0.063
-467.172	-124.384	-0.310	0.048
-466.157	-149.647	0.427	-0.034
-465.143	-200.000	-0.058	-0.260
-464.128	-92.884	-0.172	0.048
-463.113	-200.000	0.017	0.106
-462.099	91.692	-0.058	0.065
-461.084	112.242	-0.295	0.355
-460.070	-185.048	0.208	0.003
-459.055	-157.472	-0.383	-0.023
-458.040	-1.701	0.194	0.136
-457.026	233.843	0.263	-0.430
-456.011	13.984	0.133	0.103
-454.997	20.105	0.033	-0.027
-453.982	-200.000	-0.192	0.000
-452.968	81.042	0.171	0.184
-451.953	-200.000	0.010	0.241
-450.938	-130.212	0.137	0.019
-449.924	-200.000	0.038	-0.249
-448.909	72.160	-0.262	-0.271
-447.895	760.679	-0.050	-0.134
-446.880	-108.562	-0.119	0.025
-445.865	-98.433	0.286	0.073
-444.851	800.000	-0.025	0.074
-443.836	-48.456	-0.048	-0.023
-442.822	800.000	-0.092	0.273
-441.807	683.899	-0.156	0.405
-440.792	135.907	0.227	0.294
-439.778	-32.726	-0.049	-0.027
-438.763	-96.586	-0.184	0.048
-437.749	632.519	0.010	0.025
-436.734	108.473	0.162	-0.192
-435.719	108.208	-0.024	0.028
-434.705	-15.114	-0.071	0.045
-433.690	-127.923	-0.097	0.014
-432.676	800.000	-0.034	0.103
-431.661	19.688	-0.144	0.115
-430.646	-37.739	-0.051	0.027
-429.632	54.562	-0.189	0.182
-428.617	-200.000	0.046	-0.207
-427.603	350.744	-0.052	0.103
-426.588	-200.000	0.086	-0.411
-425.573	62.454	0.201	-0.200
-424.559	35.589	0.146	-0.128
-423.544	60.624	0.093	0.091
-422.530	378.066	0.103	0.210
-421.515	-3.143	-0.337	0.234
-420.500	-200.000	0.052	0.618
-419.486	-55.402	0.148	0.066
-418.471	-51.731	0.054	0.025
-417.457	583.226	0.102	-0.248
-416.442	-74.773	-0.114	0.041
-415.428	-73.174	-0.153	-0.056
-414.413	-200.000	0.005	0.058
-413.398	-200.000	-0.041	-0.344
-412.384	-108.985	-0.056	0.012
-411.369	501.845	0.202	-0.464
-410.355	116.827	-0.017	-0.021
-409.340	-63.686	0.299	0.122
-408.325	-104.712	-0.348	0.080
-407.311	265.216	-0.033	-0.058
-406.296	-200.000	0.102	0.488
-405.282	-117.057	0.201	-0.036
-404.267	-93.894	-0.129	0.035
-403.252	96.650	-0.078	-0.089
-402.238	-20.692	0.334	-0.204
-401.223	21.580	-0.198	0.160
-400.209	268.915	0.143	0.249
-399.194	-31.684	-0.181	0.101
-398.179	-200.000	0.019	0.297
-397.165	29.334	0.121	0.102
-396.150	-61.197	-0.143	0.060
-395.136	168.781	-0.144	0.204
-394.121	689.541	-0.040	0.105
-393.106	-138.438	0.290	-0.032
-392.092	-200.000	-0.050	0.235
-391.077	-10.391	0.067	-0.044
-390.063	349.112	-0.091	0.178
-389.048	84.184	-0.173	0.187
-388.033	-200.000	0.042	-0.193
-387.019	-200.000	0.047	-0.398
-386.004	-91.136	-0.341	0.097
-384.990	-3.627	-0.161	0.111
-383.975	8.923	-0.134	0.100
-382.960	-55.591	0.079	0.035
-381.946	40.511	-0.189	-0.169
-380.931	-200.000	-0.061	0.379
-379.917	157.707	0.106	0.146
-378.902	-200.000	0.003	-0.035
-377.888	84.436	0.178	0.193
-376.873	-153.461	-0.215	0.015
-375.858	800.000	0.028	-0.108
-374.844	-96.027	-0.090	0.024
-373.829	331.238	-0.214	-0.409
-372.815	126.795	-0.103	-0.129
-371.800	-74.991	0.062	0.022
-370.785	351.600	0.019	-0.036
-369.771	369.301	-0.065	0.130
-368.756	-200.000	-0.011	0.066
-367.742	-62.121	0.241	-0.100
-366.727	242.958	-0.107	0.178
-365.712	163.032	-0.036	0.050
-364.698	-45.508	0.428	0.210
-363.683	-200.000	0.019	-0.414
-362.669	96.922	0.208	-0.236
-361.654	800.000	0.032	0.105
-360.639	27.236	-0.291	-0.242
-359.625	-15.062	-0.255	-0.162
-358.610	-200.000	-0.025	0.132
-357.596	-106.932	-0.231	-0.051
-356.581	800.000	0.029	-0.090
-355.566	-129.788	0.110	0.015
-354.552	612.537	-0.024	0.058
-353.537	-18.504	0.196	0.121
-352.523	-165.887	0.150	0.006
-351.508	800.000	0.038	0.124
-350.493	483.566	-0.089	0.201
-349.479	81.515	0.226	-0.242
-348.464	268.284	-0.010	0.018
-347.450	-83.188	-0.092	0.029
-346.435	-102.059	-0.161	0.038
-345.420	-93.573	-0.172	0.047
-344.406	800.000	0.040	-0.114
-343.391	-200.000	-0.017	0.327
-342.377	294.037	0.183	0.331
-341.362	-172.870	0.055	0.002
-340.348	245.012	-0.134	0.224
-339.333	595.420	-0.093	0.227
-338.318	4.054	-0.169	-0.122
-337.304	-14.174	0.365	0.233
-336.289	-22.047	-0.254	0.153
-335.275	208.427	-0.042	-0.065
-334.260	33.199	0.256	-0.220
-333.245	-50.638	-0.111	0.052
-332.231	346.594	0.101	0.197
-331.216	-138.428	0.032	0.003
-330.202	-172.987	-0.198	0.006
-329.187	800.000	0.099	-0.309
-328.172	91.034	0.181	0.201
-327.158	-200.000	0.057	0.273
-326.143	-200.000	-0.034	0.220
-325.129	-59.884	-0.301	-0.128
-324.114	-200.000	0.010	-0.332
-323.099	-192.862	-0.139	0.001
-322.085	-66.014	0.082	0.033
-321.070	-79.276	-0.158	-0.053
-320.056	-80.746	0.075	0.025
-319.041	-83.376	0.230	0.073
-318.026	360.908	-0.042	0.083
-317.012	23.597	-0.175	0.143
-315.997	-26.155	0.198	0.115
-314.983	-45.696	0.305	0.149
-313.968	145.239	-0.053	-0.070
-312.953	800.000	0.062	-0.216
-311.939	-151.816	0.131	0.009
-310.924	-139.002	0.235	0.025
-309.910	-32.161	-0.099	0.055
-308.895	32.838	0.046	0.039
-307.880	78.971	-0.112	0.119
-306.866	-200.000	0.006	-0.161
-305.851	161.935	0.122	-0.169
-304.837	522.662	0.067	0.155
-303.822	96.787	-0.101	0.114
-302.807	-200.000	-0.036	0.221
-301.793	-2.874	0.128	0.089
-300.778	-91.178	0.218	-0.062
-299.764	-54.955	-0.272	-0.121
-298.749	-59.739	0.359	-0.152
-297.735	-20.457	0.150	-0.092
-296.720	198.064	-0.159	0.240
-295.705	-115.362	0.129	0.024
-294.691	159.003	-0.226	0.311
-293.676	99.762	0.020	0.023
-292.662	-200.000	-0.046	-0.297
-291.647	-74.834	0.121	-0.043
-290.632	800.000	-0.051	-0.149
-289.618	-50.563	-0.315	0.147
-288.603	-142.064	0.258	0.025
-287.589	-45.749	-0.238	0.117
-286.574	41.357	0.297	-0.266
-285.559	-96.331	0.348	-0.091
-284.545	800.000	-0.069	0.197
-283.530	-200.000	-0.028	-0.174
-282.516	-102.937	0.352	-0.083
-281.501	-200.000	-0.002	0.260
-280.486	-200.000	-0.033	0.349
-279.472	-99.511	-0.208	-0.052
-278.457	107.898	0.049	0.058
-277.443	508.987	-0.038	-0.088
-276.428	-200.000	-0.010	-0.054
-275.413	-34.188	0.227	0.123
-274.399	-200.000	-0.076	-0.384
-273.384	-78.959	-0.097	0.033
-272.370	-64.979	-0.219	0.087
-271.355	371.398	-0.145	0.291
-270.340	800.000	0.012	0.051
-269.326	428.231	-0.085	0.182
-268.311	-62.543	0.274	-0.113
-267.297	-29.780	-0.325	-0.183
-266.282	-65.502	0.181	0.072
-265.267	-112.893	0.202	-0.040
-264.253	-200.000	-0.061	0.290
-263.238	124.739	-0.145	-0.181
-262.224	13.300	0.152	-0.116
-261.209	-39.034	-0.168	0.087
-260.195	266.684	0.012	-0.021
-259.180	424.206	0.091	-0.193
-258.165	161.740	-0.209	0.289
-257.151	616.892	0.039	0.097
-256.136	-15.290	-0.184	-0.116
-255.122	-200.000	-0.033	-0.256
-254.107	403.042	0.043	-0.089
-253.092	-200.000	-0.036	0.396
-252.078	-69.606	-0.180	0.068
-251.063	-122.982	-0.154	-0.024
-250.049	115.233	0.217	0.261
-249.034	-38.559	0.190	-0.099
-248.019	-200.000	0.022	0.099
-247.005	-200.000	0.010	-0.104
-245.990	172.390	0.221	-0.314
-244.976	160.907	-0.162	0.224
-243.961	614.306	-0.076	0.187
-242.946	-200.000	0.027	0.415
-241.932	800.000	-0.036	0.111
-240.917	-79.034	0.042	-0.014
-239.903	-200.000	-0.041	-0.329
-238.888	-147.056	-0.193	0.016
-237.873	-41.520	0.419	-0.213
-236.859	-7.559	0.084	-0.056
-235.844	-71.482	-0.136	0.050
-234.830	-200.000	0.031	-0.289
-233.815	-92.246	0.021	-0.006
-232.800	-200.000	-0.014	0.073
-231.786	-39.163	-0.289	-0.150
-230.771	-32.130	0.163	-0.090
-229.757	-106.656	-0.194	-0.042
-228.742	800.000	-0.057	-0.191
-227.727	-92.112	-0.304	0.085
-226.713	-79.809	-0.226	0.075
-225.698	756.678	0.072	-0.192
-224.684	-13.942	0.387	0.247
-223.669	-106.714	0.393	-0.086
-222.655	193.022	0.220	0.328
-221.640	56.926	0.264	-0.254
-220.625	-19.968	-0.282	0.172
-219.611	177.693	0.129	-0.186
-218.596	-55.979	0.125	0.055
-217.582	-200.000	-0.069	0.336
-216.567	-200.000	-0.015	0.223
-215.552	-200.000	-0.021	-0.160
-214.538	397.913	0.206	0.426
-213.523	-200.000	0.016	0.122
-212.509	-10.547	0.053	0.035
-211.494	-53.556	0.150	-0.068
-210.479	47.924	0.138	-0.127
-209.465	-200.000	0.056	-0.370
-208.450	189.651	0.120	-0.177
-207.436	-200.000	-0.020	0.111
-206.421	-86.074	-0.285	-0.087
-205.406	247.047	-0.007	-0.011
-204.392	-200.000	-0.000	0.117
-203.377	-29.201	0.201	0.114
-202.363	-83.131	-0.072	-0.023
-201.348	-180.186	0.240	-0.005
-200.333	-21.359	-0.087	0.052
-199.319	11.462	0.156	-0.118
-198.304	-47.185	-0.286	-0.138
-197.290	9.221	-0.209	0.156
-196.275	131.842	0.108	-0.137
-195.260	409.214	0.119	-0.248
-194.246	210.829	0.182	-0.281
-193.231	-200.000	-0.000	-0.514
-192.217	109.381	-0.084	0.099
-191.202	1.073	0.054	0.038
-190.187	265.187	-0.042	-0.073
-189.173	-41.278	0.316	-0.160
-188.158	77.974	-0.104	-0.109
-187.144	27.729	-0.333	0.276
-186.129	-55.368	-0.178	0.079
-185.114	129.307	0.143	-0.180
-184.100	-15.717	0.119	-0.075
-183.085	800.000	-0.101	0.326
-182.071	-28.778	-0.263	0.149
-181.056	38.263	-0.286	0.251
-180.042	-86.680	-0.257	-0.078
-179.027	-157.665	-0.256	-0.015
-178.012	86.929	0.142	-0.154
-176.998	-200.000	-0.072	-0.321
-175.983	-200.000	0.005	-0.055
-174.969	-9.870	-0.147	-0.097
-173.954	-21.964	0.438	0.262
-172.939	-132.753	-0.381	0.048
-171.925	-84.078	0.273	-0.085
-170.910	-98.786	0.203	0.051
-169.896	507.507	0.059	-0.135
-168.881	-200.000	0.035	-0.299
-167.866	459.913	-0.178	-0.390
-166.852	219.260	-0.161	-0.254
-165.837	-110.472	0.312	-0.064
-164.823	30.080	0.228	0.191
-163.808	166.932	-0.086	-0.120
-162.793	-37.636	0.157	-0.082
-161.779	-112.425	-0.301	0.059
-160.764	140.082	0.116	-0.151
-159.750	116.119	0.318	-0.383
-158.735	7.404	0.098	-0.072
-157.720	-200.000	0.053	-0.393
-156.706	-55.697	0.090	0.040
-155.691	-174.884	0.107	0.003
-154.677	-92.922	0.271	-0.075
-153.662	405.378	-0.189	-0.393
-152.647	-200.000	-0.029	-0.234
-151.633	800.000	-0.042	0.176
-150.618	8.586	0.333	0.247
-149.604	-108.379	0.116	0.025
-148.589	-100.323	-0.032	-0.008
-147.574	-72.893	-0.178	0.064
-146.560	-5.236	0.122	-0.083
-145.545	800.000	-0.050	0.157
-144.531	-128.148	-0.266	0.037
-143.516	116.357	-0.125	-0.151
-142.502	800.000	-0.021	-0.088
-141.487	-150.796	-0.231	-0.017
-140.472	-190.588	0.357	0.004
-139.458	345.303	-0.187	-0.361
-138.443	-109.243	-0.524	0.109
-137.429	-22.706	0.090	0.053
-136.414	-130.550	-0.009	0.001
-135.399	-140.044	0.052	-0.005
-134.385	-61.488	0.273	-0.113
-133.370	68.892	0.103	0.104
-132.356	-118.538	-0.381	0.066
-131.341	-77.502	0.244	0.083
-130.326	-0.987	-0.228	0.159
-129.312	38.166	0.127	0.111
-128.297	244.373	0.107	-0.177
-127.283	800.000	0.171	-0.495
-126.268	93.464	-0.135	-0.150
-125.253	-200.000	-0.005	-0.238
-124.239	19.813	-0.090	0.071
-123.224	-133.209	0.201	0.025
-122.210	-200.000	-0.015	-0.240
-121.195	-105.878	0.112	-0.025
-120.180	-200.000	-0.009	0.354
