DTS Sentinel unit serial number:	SN413079Multiplexer serial number:	ORYXHardware model number:	OX4-SRSoftware version number:	ORYX F/W v4.00 Oryx Data Collector v3.7.2.0data status	okinstallation	princeton_trtdifferential loss correction	single-endedforward channel	channel 2reverse channel	N/Adate	2019/09/11time	19:01:11forward acquisition time	60.00reverse acquisition time	0.00gamma	496.2192k internal	0.2295k external	0.2295temperature offset calibration	1.0035default loss term (dB/km)	0.3790temperature slope calibration	1.0000multiplexer offset coefficient	1.0000multiplexer slope coefficient	1.0000fibre end	0.00T internal ref (°C)	42.23T ext. ref 1 (°C)	1.25T ext. ref 2 (°C)	34.45length (m)	temperature (°C)	Stokes	anti-Stokes-747.200	-200.000	-0.057	0.437
-746.185	-200.000	-0.081	0.498
-745.171	-200.000	-0.010	0.236
-744.156	-200.000	-0.051	0.400
-743.142	-122.248	-0.321	0.054
-742.127	-0.562	-0.185	0.134
-741.112	800.000	-0.069	-0.233
-740.098	205.431	-0.082	0.130
-739.083	6.305	0.321	-0.243
-738.069	350.580	0.005	0.011
-737.054	-134.745	0.062	-0.008
-736.039	255.729	0.202	0.355
-735.025	7.645	-0.104	-0.080
-734.010	-136.766	-0.100	-0.012
-732.996	51.861	0.116	0.113
-731.981	8.557	0.079	-0.061
-730.966	572.170	-0.045	-0.112
-729.952	78.302	0.121	0.132
-728.937	723.396	-0.083	0.225
-727.923	800.000	0.096	0.291
-726.908	65.448	0.147	0.152
-725.894	-12.882	-0.309	-0.206
-724.879	407.968	-0.147	-0.318
-723.864	11.604	-0.102	-0.080
-722.850	133.178	0.232	-0.306
-721.835	312.863	-0.105	0.201
-720.821	-92.368	0.263	-0.075
-719.806	-120.986	0.079	0.014
-718.791	69.028	0.128	0.134
-717.777	-200.000	0.002	0.258
-716.762	-127.335	0.265	0.039
-715.748	92.026	-0.031	0.036
-714.733	-200.000	0.001	-0.524
-713.718	-200.000	-0.013	-0.117
-712.704	800.000	0.015	0.047
-711.689	-134.602	0.117	-0.015
-710.675	786.546	-0.091	0.256
-709.660	-153.145	0.251	-0.018
-708.645	-200.000	0.005	-0.190
-707.631	800.000	0.147	-0.474
-706.616	334.935	-0.160	0.317
-705.602	800.000	-0.103	0.381
-704.587	-98.613	-0.053	0.014
-703.572	-200.000	0.056	0.443
-702.558	-200.000	0.018	-0.081
-701.543	-200.000	-0.004	-0.118
-700.529	556.442	0.105	-0.259
-699.514	-200.000	-0.023	-0.197
-698.499	211.921	-0.108	0.174
-697.485	-120.616	0.263	-0.045
-696.470	-11.503	-0.127	-0.085
-695.456	800.000	0.063	0.216
-694.441	-200.000	-0.004	0.164
-693.426	-13.851	0.214	-0.141
-692.412	-105.644	-0.164	0.038
-691.397	800.000	-0.116	0.367
-690.383	393.775	0.027	-0.057
-689.368	470.065	-0.172	-0.395
-688.354	-126.378	0.187	0.028
-687.339	-32.367	-0.155	0.088
-686.324	800.000	-0.026	0.114
-685.310	-20.445	0.008	-0.005
-684.295	203.865	-0.087	0.138
-683.281	-31.624	-0.229	0.131
-682.266	46.362	0.273	0.258
-681.251	-85.574	-0.144	0.046
-680.237	-129.267	-0.125	-0.018
-679.222	28.550	0.119	-0.103
-678.208	-45.455	0.149	-0.075
-677.193	-200.000	-0.031	-0.204
-676.178	-200.000	-0.004	0.230
-675.164	379.804	0.046	0.096
-674.149	-124.520	-0.151	0.024
-673.135	800.000	-0.105	0.450
-672.120	-122.555	-0.047	-0.008
-671.105	-61.129	-0.181	-0.078
-670.091	-92.350	0.106	-0.030
-669.076	-117.381	0.174	0.032
-668.062	-127.786	0.424	-0.062
-667.047	45.297	0.344	-0.323
-666.032	-126.078	-0.306	-0.047
-665.018	782.680	0.043	-0.119
-664.003	-167.394	0.036	0.001
-662.989	-40.960	0.105	-0.056
-661.974	-200.000	0.096	-0.496
-660.959	-200.000	0.040	0.181
-659.945	-68.014	-0.223	-0.089
-658.930	343.850	-0.128	0.255
-657.916	800.000	0.021	-0.092
-656.901	55.349	-0.070	0.069
-655.886	-200.000	-0.034	-0.167
-654.872	-7.377	0.239	0.165
-653.857	320.380	0.063	-0.121
-652.843	800.000	0.060	0.187
-651.828	10.340	0.305	0.237
-650.814	-172.507	-0.107	-0.003
-649.799	94.561	0.183	0.212
-648.784	8.662	0.091	-0.069
-647.770	213.974	0.104	0.168
-646.755	-108.050	0.444	-0.098
-645.741	800.000	0.022	-0.085
-644.726	-55.722	0.305	-0.139
-643.711	29.813	-0.076	0.066
-642.697	-69.187	-0.118	0.046
-641.682	-200.000	-0.022	0.195
-640.668	-200.000	0.002	0.117
-639.653	144.580	0.174	-0.237
-638.638	-74.061	-0.490	0.181
-637.624	390.121	-0.174	-0.367
-636.609	738.386	0.167	0.457
-635.595	207.580	0.041	0.066
-634.580	77.979	-0.073	0.080
-633.565	800.000	-0.111	-0.336
-632.551	-83.344	0.221	-0.072
-631.536	-29.882	0.273	-0.159
-630.522	800.000	0.124	-0.465
-629.507	800.000	0.006	0.024
-628.492	-78.569	-0.109	0.038
-627.478	-93.775	-0.317	0.089
-626.463	-60.426	0.102	0.044
-625.449	-16.582	0.165	0.106
-624.434	138.057	-0.109	-0.145
-623.419	203.852	-0.165	0.260
-622.405	-95.334	0.096	0.026
-621.390	-50.797	0.123	0.059
-620.376	-78.209	-0.147	-0.051
-619.361	32.506	0.146	-0.129
-618.346	-21.526	0.335	0.208
-617.332	-55.609	-0.182	0.083
-616.317	-0.896	-0.099	-0.071
-615.303	-35.286	-0.292	0.162
-614.288	323.718	-0.099	-0.192
-613.273	26.936	-0.133	-0.114
-612.259	169.012	0.119	0.172
-611.244	-182.748	-0.120	0.002
-610.230	-200.000	0.001	-0.352
-609.215	-36.721	0.097	0.053
-608.201	-153.599	0.165	-0.012
-607.186	313.082	0.075	-0.142
-606.171	387.089	-0.182	-0.383
-605.157	-200.000	-0.019	-0.336
-604.142	800.000	0.060	-0.185
-603.128	-200.000	-0.091	-0.000
-602.113	-200.000	-0.153	-0.001
-601.098	-6.579	0.228	-0.158
-600.084	-200.000	-0.040	0.468
-599.069	213.104	-0.087	0.139
-598.055	2.256	0.238	-0.175
-597.040	800.000	-0.086	0.261
-596.025	505.065	-0.057	-0.134
-595.011	-200.000	0.002	-0.046
-593.996	445.380	0.062	-0.139
-592.982	-39.388	-0.147	-0.079
-591.967	-19.694	0.138	0.087
-590.952	53.916	0.224	0.219
-589.938	290.910	-0.065	-0.120
-588.923	-200.000	-0.009	0.220
-587.909	114.971	-0.221	-0.275
-586.894	-56.278	-0.554	-0.250
-585.879	-75.641	-0.078	-0.028
-584.865	158.461	-0.174	0.246
-583.850	110.064	-0.084	0.102
-582.836	31.186	0.085	0.074
-581.821	-7.705	0.154	0.105
-580.806	302.177	0.068	0.128
-579.792	-91.326	-0.208	0.060
-578.777	-200.000	0.021	-0.109
-577.763	93.872	-0.088	-0.101
-576.748	-200.000	0.015	-0.231
-575.733	-72.519	-0.022	0.008
-574.719	662.177	0.046	0.120
-573.704	162.143	0.173	-0.246
-572.690	177.147	0.055	0.082
-571.675	409.463	-0.134	-0.289
-570.661	-62.539	-0.397	0.168
-569.646	475.107	0.038	0.088
-568.631	3.458	-0.221	0.163
-567.617	34.550	-0.219	-0.194
-566.602	-200.000	-0.001	-0.207
-565.588	-118.083	-0.151	-0.027
-564.573	800.000	0.054	-0.234
-563.558	145.085	-0.069	0.094
-562.544	-159.239	0.050	-0.003
-561.529	800.000	-0.052	0.153
-560.515	252.495	0.152	-0.263
-559.500	5.734	0.251	-0.189
-558.485	22.051	0.272	0.225
-557.471	-114.005	-0.262	0.052
-556.456	157.094	0.197	0.276
-555.442	-98.371	-0.229	-0.060
-554.427	249.476	0.101	-0.173
-553.412	-200.000	0.036	0.169
-552.398	24.938	0.169	0.142
-551.383	364.471	0.177	-0.361
-550.369	-200.000	-0.040	-0.270
-549.354	800.000	0.076	0.317
-548.339	-176.772	-0.367	0.009
-547.325	199.604	-0.121	-0.188
-546.310	106.633	-0.210	0.252
-545.296	-50.762	-0.348	-0.166
-544.281	16.144	0.149	-0.119
-543.266	97.204	0.219	-0.255
-542.252	54.539	-0.036	-0.035
-541.237	-109.926	0.244	0.052
-540.223	-31.999	-0.177	0.100
-539.208	800.000	0.084	-0.256
-538.193	96.787	0.195	-0.226
-537.179	-149.359	0.098	-0.008
-536.164	800.000	-0.084	0.237
-535.150	-153.621	0.152	0.011
-534.135	-20.135	0.358	0.224
-533.121	-200.000	0.037	0.260
-532.106	294.049	0.150	-0.278
-531.091	-200.000	-0.012	0.183
-530.077	302.912	0.079	0.149
-529.062	207.371	-0.090	-0.143
-528.048	26.419	-0.076	0.065
-527.033	227.447	-0.087	-0.144
-526.018	239.632	0.170	-0.287
-525.004	-200.000	-0.007	0.282
-523.989	123.164	-0.086	-0.109
-522.975	54.404	-0.185	0.180
-521.960	-20.213	-0.245	0.153
-520.945	-12.769	-0.169	0.112
-519.931	-139.706	-0.249	-0.027
-518.916	399.480	0.064	-0.136
-517.902	800.000	0.056	0.161
-516.887	-124.211	-0.075	0.012
-515.872	33.201	0.124	-0.109
-514.858	-85.492	0.111	0.035
-513.843	-200.000	0.008	0.369
-512.829	247.911	-0.126	-0.216
-511.814	-200.000	-0.036	0.274
-510.799	2.290	-0.168	-0.123
-509.785	61.966	-0.195	-0.197
-508.770	17.570	-0.168	-0.136
-507.756	-17.665	-0.023	-0.014
-506.741	800.000	-0.071	0.216
-505.726	-115.578	0.097	0.019
-504.712	764.636	0.081	0.222
-503.697	32.289	-0.336	0.294
-502.683	109.145	-0.167	-0.203
-501.668	-20.133	0.169	-0.106
-500.653	121.880	-0.088	-0.112
-499.639	28.032	0.185	-0.158
-498.624	87.826	0.072	0.081
-497.610	129.707	-0.122	-0.157
-496.595	-26.997	-0.240	-0.142
-495.581	-91.770	0.186	0.053
-494.566	3.476	0.070	-0.052
-493.551	-53.398	-0.151	0.070
-492.537	-124.820	0.054	-0.008
-491.522	431.289	-0.095	-0.209
-490.508	710.653	0.118	-0.316
-489.493	-8.618	-0.147	-0.100
-488.478	-66.408	-0.601	0.242
-487.464	-129.261	0.244	-0.034
-486.449	-1.311	-0.376	0.269
-485.435	26.872	-0.198	-0.168
-484.420	-143.500	-0.222	0.021
-483.405	250.740	-0.246	-0.423
-482.391	156.481	0.127	-0.177
-481.376	-57.404	-0.066	0.029
-480.362	159.169	0.134	0.188
-479.347	93.212	0.020	-0.023
-478.332	-200.000	0.018	-0.217
-477.318	-200.000	0.006	-0.307
-476.303	-34.879	0.070	-0.038
-475.289	30.396	0.071	-0.062
-474.274	800.000	0.116	0.392
-473.259	90.478	0.234	0.265
-472.245	800.000	0.004	-0.017
-471.230	504.700	-0.081	-0.189
-470.216	-97.808	0.215	-0.056
-469.201	800.000	-0.021	-0.084
-468.186	-200.000	-0.004	-0.079
-467.172	30.013	-0.231	-0.199
-466.157	118.911	-0.135	-0.168
-465.143	99.785	0.128	0.150
-464.128	374.030	-0.176	0.362
-463.113	314.434	-0.210	0.400
-462.099	-113.820	-0.171	-0.034
-461.084	-155.748	-0.133	0.009
-460.070	32.776	0.189	-0.165
-459.055	190.507	-0.259	0.394
-458.040	-200.000	0.001	-0.047
-457.026	800.000	-0.070	-0.276
-456.011	400.307	0.129	-0.274
-454.997	161.453	0.117	0.166
-453.982	800.000	0.033	0.116
-452.968	-87.839	-0.128	-0.039
-451.953	-185.951	-0.360	-0.005
-450.938	-194.854	-0.302	0.002
-449.924	274.891	0.166	-0.297
-448.909	800.000	0.118	-0.416
-447.895	255.936	0.115	0.200
-446.880	-87.580	-0.402	-0.123
-445.865	201.198	0.285	0.443
-444.851	-200.000	0.179	0.000
-443.836	800.000	-0.015	-0.063
-442.822	-200.000	0.018	0.095
-441.807	-200.000	0.038	0.426
-440.792	96.480	-0.099	-0.115
-439.778	76.720	0.157	-0.168
-438.763	-98.818	0.087	0.022
-437.749	800.000	0.084	-0.355
-436.734	203.381	0.103	-0.160
-435.719	79.272	0.057	-0.062
-434.705	-18.629	-0.102	0.064
-433.690	18.493	0.242	-0.196
-432.676	311.546	0.201	0.380
-431.661	219.322	-0.018	-0.029
-430.646	166.369	-0.019	-0.027
-429.632	-200.000	0.038	0.243
-428.617	-145.947	0.282	0.025
-427.603	-35.207	0.045	0.025
-426.588	717.010	-0.058	-0.156
-425.573	156.617	-0.123	-0.171
-424.559	10.803	0.208	-0.160
-423.544	800.000	0.021	-0.078
-422.530	-65.776	0.590	0.239
-421.515	243.151	0.180	-0.304
-420.500	-57.109	-0.019	-0.009
-419.486	80.130	0.097	-0.105
-418.471	-133.186	0.157	-0.020
-417.457	152.454	0.178	0.246
-416.442	105.729	0.208	0.248
-415.428	69.499	0.088	0.092
-414.413	-200.000	-0.058	0.315
-413.398	34.476	0.129	0.114
-412.384	148.741	-0.090	0.123
-411.369	368.203	-0.063	0.128
-410.355	-200.000	0.345	0.000
-409.340	-200.000	0.008	0.127
-408.325	-200.000	-0.053	-0.376
-407.311	-200.000	0.041	-0.212
-406.296	-63.667	-0.161	0.067
-405.282	129.947	-0.023	-0.030
-404.267	-174.463	0.282	-0.008
-403.252	-200.000	0.016	0.130
-402.238	-200.000	0.046	-0.364
-401.223	-200.000	-0.026	0.234
-400.209	259.405	0.057	-0.099
-399.194	-200.000	-0.006	0.138
-398.179	-142.540	-0.217	-0.022
-397.165	-200.000	0.000	-0.036
-396.150	800.000	0.037	-0.141
-395.136	-200.000	-0.032	-0.199
-394.121	800.000	-0.039	0.131
-393.106	274.695	-0.222	0.396
-392.092	800.000	0.072	0.223
-391.077	800.000	0.079	-0.221
-390.063	800.000	0.121	-0.406
-389.048	-172.584	0.176	0.006
-388.033	-51.591	-0.214	-0.101
-387.019	33.671	-0.073	-0.064
-386.004	-200.000	-0.009	0.255
-384.990	-46.932	0.169	0.083
-383.975	-200.000	0.018	-0.147
-382.960	-30.307	0.352	-0.201
-381.946	-65.395	-0.307	-0.124
-380.931	-69.789	-0.034	0.013
-379.917	-79.932	-0.224	-0.076
-378.902	-197.051	0.336	0.002
-377.888	30.080	-0.118	-0.101
-376.873	-147.651	-0.295	-0.025
-375.858	59.710	-0.068	0.067
-374.844	-38.984	-0.058	0.031
-373.829	45.757	-0.371	0.345
-372.815	333.251	0.165	0.320
-371.800	152.382	-0.118	0.163
-370.785	-103.621	-0.469	-0.111
-369.771	-200.000	0.016	-0.156
-368.756	131.093	0.086	0.111
-367.742	619.510	-0.043	-0.109
-366.727	499.295	0.147	0.341
-365.712	597.394	0.056	0.140
-364.698	-200.000	-0.148	-0.001
-363.683	-200.000	0.007	0.274
-362.669	130.244	-0.051	0.066
-361.654	-36.560	0.310	0.168
-360.639	216.148	0.218	-0.349
-359.625	443.054	0.199	-0.439
-358.610	-200.000	0.073	-0.407
-357.596	91.469	0.124	-0.140
-356.581	314.435	0.153	0.290
-355.566	-69.192	0.092	-0.035
-354.552	-65.136	0.234	-0.095
-353.537	-138.434	0.190	-0.021
-352.523	562.166	0.103	-0.250
-351.508	-200.000	-0.002	0.106
-350.493	111.892	0.250	-0.304
-349.479	-112.143	-0.166	-0.034
-348.464	23.520	0.267	-0.221
-347.450	31.475	-0.087	-0.075
-346.435	234.209	0.231	0.383
-345.420	200.456	0.122	0.189
-344.406	335.992	0.071	-0.138
-343.391	-29.100	0.241	0.139
-342.377	800.000	-0.072	0.252
-341.362	103.978	-0.084	0.099
-340.348	-122.182	-0.183	0.030
-339.333	12.702	0.307	0.239
-338.318	800.000	0.071	0.207
-337.304	303.608	0.174	-0.324
-336.289	-42.266	-0.492	-0.253
-335.275	536.833	0.156	0.373
-334.260	546.556	-0.159	0.384
-333.245	-63.774	-0.359	-0.148
-332.231	132.226	-0.095	0.123
-331.216	-143.393	0.288	0.028
-330.202	-119.668	-0.037	0.006
-329.187	-25.019	0.149	0.089
-328.172	162.085	-0.094	0.132
-327.158	104.978	-0.047	-0.056
-326.143	614.650	-0.037	0.094
-325.129	800.000	0.005	0.014
-324.114	104.831	0.099	0.117
-323.099	-50.233	0.309	0.147
-322.085	557.621	-0.104	-0.252
-321.070	69.463	-0.116	0.120
-320.056	175.251	-0.209	0.304
-319.041	800.000	-0.010	0.031
-318.026	117.456	-0.289	0.357
-317.012	502.962	0.187	0.434
-315.997	-85.698	0.233	0.073
-314.983	-159.560	0.239	0.013
-313.968	-5.046	0.259	0.179
-312.953	6.067	0.234	-0.174
-311.939	-200.000	0.013	-0.310
-310.924	317.606	0.159	0.302
-309.910	-62.422	-0.125	-0.052
-308.895	127.112	-0.233	-0.297
-307.880	-200.000	0.059	0.369
-306.866	131.924	0.071	-0.092
-305.851	358.473	-0.177	-0.355
-304.837	-200.000	0.260	0.001
-303.822	96.877	-0.124	-0.143
-302.807	32.777	0.162	0.141
-301.793	51.038	0.051	-0.048
-300.778	125.168	-0.192	-0.244
-299.764	-106.092	-0.129	-0.029
-298.749	-200.000	0.088	-0.438
-297.735	-200.000	0.011	-0.224
-296.720	173.771	-0.087	-0.126
-295.705	-147.229	0.220	0.019
-294.691	62.280	-0.213	-0.214
-293.676	423.866	0.160	0.345
-292.662	-127.592	-0.206	-0.030
-291.647	-200.000	-0.036	0.324
-290.632	723.329	0.107	0.286
-289.618	79.031	-0.028	0.030
-288.603	355.728	0.088	-0.176
-287.589	-170.673	-0.087	-0.003
-286.574	111.335	0.141	0.171
-285.559	-200.000	-0.015	-0.233
-284.545	129.381	0.144	-0.184
-283.530	-59.026	0.217	0.094
-282.516	160.513	0.059	0.082
-281.501	116.587	-0.223	0.275
-280.486	800.000	0.099	-0.380
-279.472	-200.000	-0.019	-0.097
-278.457	46.989	0.070	0.066
-277.443	800.000	0.125	0.361
-276.428	-48.675	0.077	0.037
-275.413	-200.000	-0.001	0.059
-274.399	-200.000	-0.066	0.380
-273.384	800.000	0.037	0.103
-272.370	366.747	0.024	0.049
-271.355	15.517	-0.263	0.207
-270.340	81.487	-0.107	0.116
-269.326	108.189	0.083	0.099
-268.311	-29.764	-0.149	-0.085
-267.297	-117.912	-0.251	0.045
-266.282	-24.939	0.127	0.076
-265.267	625.007	-0.062	0.156
-264.253	-50.183	-0.233	-0.111
-263.238	6.781	0.329	-0.246
-262.224	-173.895	-0.141	-0.004
-261.209	328.606	-0.190	-0.366
-260.195	3.540	-0.127	0.093
-259.180	3.607	-0.135	-0.099
-258.165	-50.755	-0.380	0.179
-257.151	41.752	0.061	-0.055
-256.136	-24.742	-0.131	0.078
-255.122	165.222	-0.092	-0.131
-254.107	-122.237	0.240	0.039
-253.092	376.138	-0.108	0.222
-252.078	121.669	0.112	0.140
-251.063	-89.848	-0.262	-0.077
-250.049	80.793	0.112	0.121
-249.034	416.190	-0.048	-0.104
-248.019	-181.872	-0.162	0.003
-247.005	-55.684	0.137	0.061
-245.990	283.786	-0.229	0.412
-244.976	100.087	0.218	0.253
-243.961	800.000	0.110	-0.304
-242.946	-52.929	0.050	0.023
-241.932	780.120	0.018	0.049
-240.917	355.910	-0.186	-0.371
-239.903	251.790	0.018	-0.030
-238.888	-200.000	0.037	-0.298
-237.873	572.919	0.194	-0.473
-236.859	-138.048	0.113	0.013
-235.844	-49.491	-0.351	-0.168
-234.830	68.956	-0.137	0.141
-233.815	-200.000	-0.046	-0.255
-232.800	-65.705	-0.193	-0.078
-231.786	74.347	0.145	0.153
-230.771	-135.804	-0.091	-0.011
-229.757	235.714	0.176	-0.292
-228.742	-42.341	0.196	0.100
-227.727	447.041	-0.080	-0.176
-226.713	91.035	-0.169	-0.190
-225.698	800.000	0.080	0.335
-224.684	-25.536	-0.120	0.071
-223.669	87.963	0.089	0.099
-222.655	206.760	-0.162	0.252
-221.640	308.078	0.087	0.162
-220.625	-111.853	-0.334	-0.068
-219.611	-150.782	0.098	-0.007
-218.596	-200.000	-0.004	0.304
-217.582	-83.663	0.145	0.046
-216.567	-104.583	-0.269	-0.062
-215.552	309.189	0.083	0.155
-214.538	123.864	-0.124	-0.156
-213.523	-34.584	0.149	0.082
-212.509	800.000	0.096	-0.305
-211.494	220.250	0.217	-0.348
-210.479	-8.708	0.071	0.048
-209.465	-22.060	-0.230	0.140
-208.450	233.127	-0.084	0.139
-207.436	85.193	0.226	0.248
-206.421	-123.058	-0.190	0.031
-205.406	144.442	0.279	-0.373
-204.392	130.187	0.135	0.173
-203.377	26.107	-0.159	0.133
-202.363	132.151	0.147	0.189
-201.348	-158.489	0.092	-0.005
-200.333	196.392	0.115	-0.175
-199.319	75.506	0.086	-0.091
-198.304	800.000	0.025	-0.103
-197.290	800.000	-0.115	0.432
-196.275	174.395	0.182	0.263
-195.260	800.000	-0.108	0.461
-194.246	-42.618	-0.182	0.093
-193.231	-200.000	0.019	-0.162
-192.217	-84.483	0.432	0.136
-191.202	22.601	-0.113	0.093
-190.187	-20.707	0.208	0.127
-189.173	-119.573	-0.106	0.018
-188.158	4.581	0.162	-0.119
-187.144	84.147	-0.113	-0.123
-186.129	107.720	-0.148	-0.177
-185.114	-36.661	-0.170	0.092
-184.100	209.320	0.189	0.296
-183.085	203.013	0.043	0.067
-182.071	-35.421	-0.181	-0.099
-181.056	-45.971	0.122	-0.060
-180.042	-22.515	0.101	-0.061
-179.027	800.000	-0.097	0.270
-178.012	-200.000	-0.070	0.362
-176.998	513.055	-0.129	-0.301
-175.983	-134.115	0.218	-0.027
-174.969	-86.036	-0.260	0.080
-173.954	180.936	0.205	0.301
-172.939	31.832	-0.132	0.113
-171.925	-200.000	-0.045	-0.303
-170.910	-120.209	-0.248	-0.042
-169.896	4.074	-0.048	-0.035
-168.881	-18.895	-0.288	0.179
-167.866	101.631	-0.061	-0.071
-166.852	-48.310	-0.174	0.084
-165.837	22.207	0.053	0.043
-164.823	172.363	0.205	-0.295
-163.808	-200.000	0.012	-0.221
-162.793	-200.000	-0.057	-0.375
-161.779	-9.918	0.294	-0.195
-160.764	-200.000	-0.016	-0.167
-159.750	163.859	0.131	-0.184
-158.735	-138.437	-0.307	0.034
-157.720	178.795	0.022	0.033
-156.706	117.400	0.178	-0.218
-155.691	-145.344	-0.380	-0.034
-154.677	-12.771	0.171	-0.111
-153.662	-62.913	-0.331	0.137
-152.647	427.871	0.014	-0.031
-151.633	-82.196	0.355	0.115
-150.618	-57.327	0.135	-0.059
-149.604	-99.355	0.294	0.074
-148.589	159.043	-0.048	0.067
-147.574	-186.784	0.304	0.004
-146.560	324.214	-0.167	-0.318
-145.545	-158.011	0.100	0.006
-144.531	-148.393	-0.230	-0.019
-143.516	78.230	0.161	0.171
-142.502	682.373	0.066	-0.173
-141.487	-200.000	0.009	0.141
-140.472	-184.939	0.151	-0.002
-139.458	-200.000	-0.045	0.209
-138.443	-96.765	0.053	-0.014
-137.429	30.140	-0.090	-0.077
-136.414	92.183	0.089	0.100
-135.399	800.000	0.118	0.361
-134.385	-107.679	-0.361	0.079
-133.370	405.273	-0.169	0.355
-132.356	269.759	0.272	-0.477
-131.341	-200.000	-0.031	-0.202
-130.326	-163.140	0.244	-0.012
-129.312	83.478	-0.159	-0.173
-128.297	56.746	0.106	-0.103
-127.283	-200.000	0.051	0.232
-126.268	80.492	0.086	0.093
-125.253	501.761	0.037	-0.085
-124.239	196.069	-0.119	-0.181
-123.224	800.000	0.056	-0.157
-122.210	-73.330	-0.189	0.069
-121.195	-62.587	-0.068	-0.028
-120.180	217.815	0.132	0.210
