DTS Sentinel unit serial number:	SN413079Multiplexer serial number:	ORYXHardware model number:	OX4-SRSoftware version number:	ORYX F/W v4.00 Oryx Data Collector v3.7.2.0data status	okinstallation	princeton_trtdifferential loss correction	single-endedforward channel	channel 2reverse channel	N/Adate	2019/09/11time	03:45:11forward acquisition time	60.00reverse acquisition time	0.00gamma	496.2192k internal	0.2329k external	0.2329temperature offset calibration	0.9936default loss term (dB/km)	0.3790temperature slope calibration	1.0000multiplexer offset coefficient	1.0000multiplexer slope coefficient	1.0000fibre end	0.00T internal ref (°C)	29.55T ext. ref 1 (°C)	-0.31T ext. ref 2 (°C)	23.87length (m)	temperature (°C)	Stokes	anti-Stokes-747.200	326.323	0.126	0.244
-746.185	-127.750	0.191	-0.028
-745.171	120.646	-0.160	0.200
-744.156	-200.000	0.020	0.337
-743.142	-112.722	0.044	0.009
-742.127	-3.227	-0.372	0.261
-741.112	38.659	0.215	-0.193
-740.098	75.987	0.040	-0.043
-739.083	-74.672	-0.397	0.144
-738.069	-200.000	-0.039	0.250
-737.054	349.689	0.057	-0.113
-736.039	416.798	-0.140	0.302
-735.025	-200.000	-0.000	-0.005
-734.010	-137.799	-0.282	-0.032
-732.996	81.375	-0.076	0.082
-731.981	-153.012	-0.202	0.014
-730.966	-88.841	0.174	0.052
-729.952	38.937	0.091	-0.082
-728.937	800.000	-0.115	-0.385
-727.923	-45.022	0.307	-0.154
-726.908	800.000	-0.078	-0.222
-725.894	140.008	0.182	-0.241
-724.879	800.000	-0.132	-0.429
-723.864	495.247	0.091	-0.209
-722.850	-200.000	0.001	-0.060
-721.835	800.000	0.023	0.101
-720.821	217.249	0.149	-0.238
-719.806	37.605	0.167	-0.149
-718.791	194.555	-0.217	-0.331
-717.777	-123.900	-0.314	0.050
-716.762	520.351	0.060	-0.142
-715.748	-200.000	0.001	-0.361
-714.733	-200.000	-0.043	-0.189
-713.718	197.229	0.052	0.081
-712.704	-97.732	0.164	0.043
-711.689	800.000	0.114	-0.356
-710.675	-142.054	0.304	0.030
-709.660	-200.000	-0.067	-0.310
-708.645	-155.797	-0.686	-0.044
-707.631	-58.606	-0.089	-0.039
-706.616	76.774	0.105	0.112
-705.602	-170.757	-0.319	0.011
-704.587	-49.178	0.229	0.110
-703.572	-75.768	-0.159	0.057
-702.558	6.826	-0.189	0.141
-701.543	126.120	0.056	-0.071
-700.529	-103.361	-0.113	-0.027
-699.514	138.789	0.147	0.194
-698.499	-21.025	0.031	0.019
-697.485	84.307	0.234	-0.257
-696.470	-200.000	0.031	0.213
-695.456	-53.370	0.259	0.119
-694.441	-156.733	0.070	-0.004
-693.426	68.007	-0.153	-0.158
-692.412	800.000	0.036	-0.150
-691.397	-112.329	0.363	-0.073
-690.383	800.000	-0.046	0.189
-689.368	-200.000	-0.022	0.149
-688.354	58.648	-0.146	-0.144
-687.339	-56.422	0.286	-0.128
-686.324	127.509	0.121	0.155
-685.310	-96.982	-0.023	-0.006
-684.295	800.000	0.090	0.253
-683.281	419.428	0.119	-0.255
-682.266	31.973	-0.293	0.254
-681.251	-200.000	0.006	-0.049
-680.237	-113.917	-0.355	-0.069
-679.222	13.732	0.215	0.168
-678.208	53.106	0.214	-0.206
-677.193	-17.347	-0.197	-0.125
-676.178	106.755	-0.288	-0.343
-675.164	752.175	0.063	0.172
-674.149	91.810	-0.123	-0.139
-673.135	150.337	0.162	0.220
-672.120	-84.130	-0.168	-0.054
-671.105	268.748	0.215	0.380
-670.091	-115.345	-0.284	-0.054
-669.076	495.392	-0.103	0.237
-668.062	-165.854	-0.282	-0.012
-667.047	-48.713	-0.162	-0.078
-666.032	173.230	0.186	-0.269
-665.018	188.972	-0.077	0.116
-664.003	-200.000	0.014	-0.328
-662.989	-40.217	0.218	0.114
-661.974	93.792	0.237	-0.269
-660.959	-105.309	-0.155	0.035
-659.945	267.757	0.203	-0.357
-658.930	-200.000	-0.013	-0.129
-657.916	-53.617	0.091	0.042
-656.901	800.000	0.135	-0.399
-655.886	5.088	-0.310	-0.229
-654.872	-200.000	-0.068	-0.307
-653.857	-200.000	0.025	-0.160
-652.843	223.307	0.067	-0.108
-651.828	-132.587	-0.260	-0.034
-650.814	45.476	-0.062	0.057
-649.799	-156.631	-0.294	-0.018
-648.784	787.781	-0.042	-0.116
-647.770	-200.000	-0.017	0.095
-646.755	115.370	-0.117	-0.143
-645.741	-159.618	0.237	0.013
-644.726	114.602	-0.072	-0.088
-643.711	2.984	-0.253	-0.184
-642.697	-200.000	-0.031	0.349
-641.682	191.774	0.092	-0.139
-640.668	415.056	-0.044	-0.094
-639.653	28.328	0.211	-0.179
-638.638	382.290	-0.073	0.150
-637.624	200.479	0.028	-0.043
-636.609	-200.000	0.025	-0.120
-635.595	71.240	-0.210	-0.219
-634.580	-169.058	-0.200	0.007
-633.565	318.397	-0.141	0.268
-632.551	-200.000	0.003	-0.052
-631.536	440.720	0.070	0.155
-630.522	249.823	0.169	-0.288
-629.507	225.530	-0.214	-0.348
-628.492	-31.302	-0.133	-0.075
-627.478	-44.954	0.350	-0.175
-626.463	49.537	-0.094	-0.088
-625.449	203.992	0.157	-0.244
-624.434	205.576	-0.039	0.061
-623.419	-200.000	0.029	-0.401
-622.405	31.637	-0.066	-0.057
-621.390	159.455	-0.268	-0.374
-620.376	483.478	-0.120	-0.274
-619.361	424.789	-0.050	0.108
-618.346	73.426	0.231	-0.242
-617.332	393.481	-0.129	0.269
-616.317	-200.000	0.001	-0.218
-615.303	-200.000	-0.022	-0.425
-614.288	-129.596	-0.212	-0.029
-613.273	800.000	-0.029	0.096
-612.259	-33.424	-0.384	-0.213
-611.244	-157.060	-0.206	0.013
-610.230	-63.165	-0.094	-0.039
-609.215	-109.668	-0.339	-0.071
-608.201	-200.000	0.034	-0.202
-607.186	-61.277	0.154	-0.065
-606.171	800.000	-0.034	0.094
-605.157	-69.700	0.071	0.027
-604.142	-152.746	0.168	-0.012
-603.128	32.113	-0.153	-0.132
-602.113	133.496	-0.179	0.232
-601.098	-11.316	0.260	-0.172
-600.084	71.001	0.182	-0.189
-599.069	579.856	0.102	0.251
-598.055	3.513	-0.189	-0.138
-597.040	-24.773	-0.259	-0.154
-596.025	83.494	-0.111	0.121
-595.011	125.378	0.078	0.098
-593.996	296.974	-0.054	-0.100
-592.982	199.641	0.117	-0.179
-591.967	97.094	0.055	0.064
-590.952	433.141	0.064	0.139
-589.938	800.000	0.138	-0.447
-588.923	65.845	-0.171	-0.174
-587.909	-19.391	-0.126	0.078
-586.894	-30.149	-0.166	0.094
-585.879	26.332	-0.236	0.197
-584.865	763.444	0.092	0.249
-583.850	-82.428	0.333	0.108
-582.836	-200.000	-0.025	0.243
-581.821	158.601	-0.178	0.248
-580.806	-18.066	-0.096	0.060
-579.792	615.693	-0.017	-0.042
-578.777	-200.000	-0.014	-0.129
-577.763	415.133	-0.064	0.137
-576.748	267.262	0.106	0.186
-575.733	126.070	-0.296	0.374
-574.719	-138.453	-0.463	0.051
-573.704	-106.905	0.228	-0.051
-572.690	114.042	-0.161	-0.196
-571.675	112.827	-0.343	0.416
-570.661	800.000	-0.105	-0.302
-569.646	800.000	0.037	0.145
-568.631	-200.000	-0.002	0.212
-567.617	14.343	0.141	0.110
-566.602	71.814	0.258	0.268
-565.588	-200.000	0.048	-0.359
-564.573	-200.000	0.003	-0.033
-563.558	-57.885	-0.188	-0.082
-562.544	-12.394	-0.032	-0.021
-561.529	-159.284	0.311	-0.017
-560.515	800.000	0.045	-0.190
-559.500	-17.500	-0.154	-0.097
-558.485	184.546	0.150	0.222
-557.471	-60.507	0.071	-0.030
-556.456	800.000	-0.044	-0.184
-555.442	160.332	-0.110	-0.154
-554.427	116.807	-0.122	-0.150
-553.412	-72.093	-0.305	-0.113
-552.398	-104.161	0.421	0.098
-551.383	445.786	0.034	0.075
-550.369	30.588	-0.082	0.070
-549.354	-200.000	0.013	-0.297
-548.339	433.929	-0.117	-0.255
-547.325	31.739	-0.153	0.132
-546.310	-200.000	-0.000	0.075
-545.296	7.224	0.403	-0.300
-544.281	293.233	-0.243	0.443
-543.266	-196.483	0.430	-0.003
-542.252	-152.075	-0.141	-0.010
-541.237	-61.236	0.168	0.071
-540.223	800.000	0.022	-0.077
-539.208	87.757	-0.285	-0.315
-538.193	109.656	0.158	0.189
-537.179	82.238	-0.050	0.054
-536.164	-61.208	-0.322	0.136
-535.150	-127.399	0.211	0.031
-534.135	800.000	0.109	-0.409
-533.121	127.941	0.200	0.254
-532.106	-200.000	-0.016	-0.153
-531.091	-200.000	0.038	-0.287
-530.077	28.019	-0.089	-0.075
-529.062	-166.521	0.408	-0.017
-528.048	800.000	-0.107	0.349
-527.033	321.502	0.030	-0.057
-526.018	-110.089	0.073	-0.015
-525.004	-200.000	0.018	-0.096
-523.989	38.554	-0.135	-0.120
-522.975	-20.314	-0.181	-0.111
-521.960	-33.522	-0.176	0.097
-520.945	85.697	-0.160	0.176
-519.931	289.182	-0.197	0.356
-518.916	-25.082	0.204	-0.121
-517.902	439.888	0.109	-0.239
-516.887	-39.783	-0.334	-0.174
-515.872	-66.689	0.405	0.160
-514.858	-200.000	-0.006	-0.113
-513.843	53.358	-0.076	0.072
-512.829	800.000	-0.022	0.080
-511.814	-42.990	-0.287	0.145
-510.799	-96.042	0.348	-0.092
-509.785	427.557	-0.051	0.110
-508.770	-26.724	-0.037	0.022
-507.756	103.449	-0.191	0.223
-506.741	-89.498	0.370	0.109
-505.726	-194.690	-0.130	0.001
-504.712	800.000	-0.084	0.356
-503.697	184.471	0.229	0.338
-502.683	220.657	-0.043	-0.069
-501.668	-17.466	0.055	-0.034
-500.653	800.000	-0.024	0.105
-499.639	-200.000	-0.058	0.262
-498.624	-136.404	-0.101	0.012
-497.610	255.614	-0.048	0.082
-496.595	-200.000	0.001	-0.201
-495.581	-20.144	0.130	-0.080
-494.566	165.436	0.066	0.093
-493.551	-200.000	0.035	0.230
-492.537	-87.103	-0.197	0.060
-491.522	-200.000	-0.027	0.192
-490.508	-74.166	-0.267	0.096
-489.493	136.182	-0.078	-0.101
-488.478	-70.421	0.145	0.055
-487.464	318.657	-0.095	0.179
-486.449	-85.884	0.044	0.014
-485.435	-160.661	-0.367	-0.019
-484.420	-200.000	0.034	0.186
-483.405	31.513	0.172	0.148
-482.391	258.000	0.169	0.290
-481.376	-155.303	0.215	-0.014
-480.362	-200.000	0.016	0.080
-479.347	12.272	0.104	-0.080
-478.332	-200.000	-0.022	-0.114
-477.318	800.000	0.027	0.103
-476.303	146.202	0.151	0.202
-475.289	522.944	-0.104	0.243
-474.274	800.000	0.092	0.258
-473.259	-106.114	-0.151	0.034
-472.245	-200.000	-0.001	-0.059
-471.230	75.918	0.253	-0.267
-470.216	-200.000	0.026	-0.214
-469.201	-162.788	-0.170	0.008
-468.186	615.235	-0.092	-0.229
-467.172	-200.000	0.017	-0.202
-466.157	-200.000	0.025	0.306
-465.143	-19.921	0.107	0.066
-464.128	100.849	0.134	-0.155
-463.113	-145.910	0.356	-0.031
-462.099	-107.181	-0.053	0.012
-461.084	-200.000	0.034	-0.345
-460.070	-24.593	0.103	-0.061
-459.055	-60.892	-0.255	-0.108
-458.040	-95.733	-0.156	-0.042
-457.026	22.030	0.120	0.098
-456.011	164.626	0.148	-0.208
-454.997	-61.847	0.408	-0.170
-453.982	-200.000	-0.011	-0.303
-452.968	800.000	-0.084	0.360
-451.953	-51.283	0.142	-0.066
-450.938	-157.666	-0.170	-0.010
-449.924	-62.964	-0.219	0.090
-448.909	-183.472	0.154	0.003
-447.895	-200.000	0.033	-0.225
-446.880	800.000	-0.093	0.326
-445.865	800.000	-0.018	0.054
-444.851	182.213	0.080	0.118
-443.836	306.584	-0.079	-0.147
-442.822	-39.062	-0.216	0.113
-441.807	-94.687	0.298	-0.081
-440.792	-130.111	0.217	0.029
-439.778	-106.950	0.393	0.087
-438.763	192.379	0.138	-0.207
-437.749	-200.000	0.050	-0.298
-436.734	-200.000	0.020	-0.490
-435.719	-200.000	-0.001	-0.138
-434.705	-138.432	-0.263	-0.029
-433.690	-89.680	0.242	-0.071
-432.676	283.776	0.226	-0.405
-431.661	-57.527	-0.072	-0.032
-430.646	77.296	0.357	0.377
-429.632	-200.000	-0.055	0.262
-428.617	16.760	-0.169	0.133
-427.603	-99.251	-0.157	-0.039
-426.588	-61.824	-0.141	0.059
-425.573	78.055	0.244	-0.259
-424.559	191.079	-0.100	-0.150
-423.544	-97.570	0.106	0.027
-422.530	-200.000	-0.010	-0.245
-421.515	-129.622	0.174	0.024
-420.500	-200.000	0.047	0.214
-419.486	-148.467	-0.194	-0.016
-418.471	96.625	-0.064	-0.073
-417.457	1.889	-0.242	0.174
-416.442	-161.840	-0.044	0.002
-415.428	225.248	0.060	-0.097
-414.413	-131.276	0.164	0.022
-413.398	-2.056	-0.150	-0.105
-412.384	190.679	-0.151	0.225
-411.369	506.282	-0.139	0.321
-410.355	492.228	-0.068	0.156
-409.340	-200.000	0.020	0.351
-408.325	800.000	-0.058	0.190
-407.311	800.000	0.063	-0.242
-406.296	43.714	-0.337	-0.306
-405.282	201.617	0.009	0.014
-404.267	36.320	-0.251	-0.220
-403.252	-200.000	0.017	-0.203
-402.238	-200.000	-0.015	-0.069
-401.223	-46.938	-0.149	-0.072
-400.209	-151.784	-0.213	0.016
-399.194	800.000	-0.039	0.108
-398.179	-33.187	-0.201	-0.111
-397.165	800.000	0.036	-0.138
-396.150	19.267	0.191	-0.152
-395.136	-174.291	0.266	-0.008
-394.121	-200.000	-0.010	0.280
-393.106	-76.388	-0.148	-0.052
-392.092	800.000	0.101	0.332
-391.077	217.837	0.177	0.281
-390.063	-34.414	0.210	0.115
-389.048	-200.000	-0.092	0.458
-388.033	207.075	-0.032	0.050
-387.019	20.951	-0.088	0.071
-386.004	384.210	0.164	-0.336
-384.990	201.410	0.254	-0.388
-383.975	-9.412	0.316	-0.209
-382.960	-72.408	-0.277	0.102
-381.946	203.038	-0.161	-0.246
-380.931	172.846	-0.305	-0.437
-379.917	800.000	-0.152	-0.486
-378.902	-200.000	-0.029	0.352
-377.888	170.070	0.200	0.285
-376.873	686.026	-0.042	-0.109
-375.858	633.118	0.110	0.277
-374.844	198.791	-0.122	-0.185
-373.829	800.000	0.020	0.057
-372.815	148.075	-0.166	0.223
-371.800	-20.914	-0.193	0.117
-370.785	-48.224	-0.040	0.019
-369.771	-65.139	-0.168	-0.067
-368.756	139.046	-0.136	0.177
-367.742	-200.000	-0.010	0.186
-366.727	-102.480	-0.233	-0.055
-365.712	-113.201	0.316	-0.062
-364.698	-200.000	-0.036	0.240
-363.683	-80.384	0.252	-0.084
-362.669	262.473	0.058	-0.100
-361.654	800.000	0.070	0.232
-360.639	-26.137	0.056	-0.033
-359.625	64.755	-0.160	-0.160
-358.610	-22.737	-0.129	-0.078
-357.596	0.766	0.207	0.147
-356.581	31.406	-0.180	-0.154
-355.566	293.382	-0.143	-0.259
-354.552	143.182	-0.114	0.151
-353.537	-159.210	0.186	-0.010
-352.523	25.169	-0.347	0.286
-351.508	-200.000	0.003	-0.071
-350.493	463.600	-0.082	0.181
-349.479	690.707	-0.084	0.219
-348.464	800.000	-0.080	0.295
-347.450	800.000	0.096	0.324
-346.435	283.096	-0.115	0.204
-345.420	221.708	0.043	-0.069
-344.406	55.671	-0.176	0.169
-343.391	33.748	0.330	0.285
-342.377	-77.614	-0.249	-0.085
-341.362	-200.000	-0.062	-0.456
-340.348	263.564	0.146	-0.252
-339.333	-149.968	0.144	-0.011
-338.318	-200.000	0.024	0.135
-337.304	-92.030	-0.188	0.053
-336.289	-147.223	0.207	-0.017
-335.275	-97.680	-0.268	-0.069
-334.260	-139.133	0.092	-0.010
-333.245	-71.550	0.205	0.076
-332.231	433.307	-0.063	-0.136
-331.216	53.860	0.221	0.211
-330.202	-58.997	0.159	0.068
-329.187	-42.593	0.262	0.132
-328.172	800.000	0.063	0.219
-327.158	-200.000	0.013	0.222
-326.143	-17.223	0.204	0.128
-325.129	-200.000	0.008	-0.193
-324.114	142.503	0.150	-0.197
-323.099	-18.733	0.197	0.122
-322.085	800.000	-0.088	0.283
-321.070	-200.000	-0.010	0.000
-320.056	12.119	0.134	-0.102
-319.041	-110.667	0.090	-0.018
-318.026	-200.000	0.039	-0.301
-317.012	-29.191	-0.114	-0.065
-315.997	-148.140	0.256	0.021
-314.983	87.853	0.155	-0.170
-313.968	127.529	0.111	0.140
-312.953	160.585	0.115	-0.159
-311.939	-200.000	-0.013	-0.508
-310.924	800.000	-0.104	0.336
-309.910	-38.611	0.134	0.070
-308.895	37.446	0.041	-0.036
-307.880	800.000	0.061	-0.171
-306.866	-13.018	0.286	-0.184
-305.851	-29.292	-0.207	-0.117
-304.837	119.524	-0.091	0.112
-303.822	-122.417	-0.293	0.047
-302.807	-200.000	0.012	-0.067
-301.793	90.811	0.179	-0.199
-300.778	-152.918	0.244	0.017
-299.764	-3.971	-0.127	-0.087
-298.749	430.584	0.118	0.253
-297.735	61.102	0.100	0.098
-296.720	-200.000	-0.019	-0.101
-295.705	255.880	0.051	-0.087
-294.691	199.262	-0.247	-0.375
-293.676	106.719	0.143	-0.167
-292.662	800.000	-0.119	-0.345
-291.647	-36.538	0.260	0.138
-290.632	-200.000	-0.003	-0.188
-289.618	139.198	-0.054	0.071
-288.603	241.941	0.118	0.196
-287.589	-151.645	0.225	-0.016
-286.574	263.760	-0.099	0.170
-285.559	-71.247	-0.142	0.053
-284.545	-10.747	-0.144	-0.094
-283.530	-200.000	-0.007	-0.216
-282.516	8.946	0.294	-0.219
-281.501	-130.043	-0.151	0.020
-280.486	-200.000	0.016	0.201
-279.472	-200.000	-0.033	0.166
-278.457	97.413	-0.166	0.188
-277.443	800.000	-0.045	0.151
-276.428	-200.000	-0.014	-0.070
-275.413	-154.418	-0.055	-0.004
-274.399	-126.755	-0.233	-0.034
-273.384	-200.000	0.054	-0.269
-272.370	17.047	0.155	0.122
-271.355	-17.087	-0.197	0.123
-270.340	-200.000	0.003	-0.116
-269.326	242.677	-0.129	0.214
-268.311	154.093	-0.201	-0.273
-267.297	-28.968	0.106	-0.060
-266.282	-80.167	-0.345	-0.114
-265.267	343.539	0.091	-0.176
-264.253	-200.000	0.013	-0.088
-263.238	214.048	0.089	-0.140
-262.224	-85.464	-0.356	-0.110
-261.209	-162.689	0.146	-0.007
-260.195	-43.142	0.010	-0.005
-259.180	-28.946	-0.187	0.106
-258.165	-49.076	0.034	0.016
-257.151	-121.162	0.173	0.029
-256.136	56.588	-0.091	-0.088
-255.122	196.747	0.167	0.251
-254.107	-79.567	-0.146	0.049
-253.092	800.000	-0.021	-0.073
-252.078	-49.508	0.176	0.083
-251.063	-82.261	0.213	-0.069
-250.049	-200.000	-0.018	0.265
-249.034	-200.000	0.018	-0.146
-248.019	-86.116	-0.183	-0.056
-247.005	548.488	0.086	0.204
-245.990	-73.218	-0.078	0.028
-244.976	337.126	-0.104	0.200
-243.961	-13.295	0.217	-0.139
-242.946	800.000	-0.010	-0.041
-241.932	424.001	-0.069	-0.146
-240.917	739.514	0.056	0.149
-239.903	-42.288	-0.168	0.085
-238.888	-101.917	0.284	0.068
-237.873	800.000	0.051	0.141
-236.859	183.239	0.023	-0.033
-235.844	-103.092	-0.171	0.040
-234.830	-12.652	-0.146	-0.094
-233.815	163.290	0.092	0.127
-232.800	800.000	-0.030	0.088
-231.786	72.314	0.050	0.052
-230.771	-50.566	0.082	0.038
-229.757	-200.000	0.064	-0.450
-228.742	68.206	0.168	0.170
-227.727	-158.439	0.226	-0.013
-226.713	-54.055	0.097	0.043
-225.698	-116.417	-0.328	0.060
-224.684	-85.444	0.059	0.018
-223.669	-200.000	-0.018	0.135
-222.655	134.838	-0.080	-0.103
-221.640	-12.198	0.124	0.080
-220.625	-80.539	0.246	-0.081
-219.611	-108.599	0.150	0.032
-218.596	-121.327	-0.056	0.009
-217.582	58.268	0.237	-0.229
-216.567	181.016	0.170	-0.246
-215.552	-200.000	0.040	0.224
-214.538	494.431	-0.061	0.137
-213.523	404.143	0.040	-0.083
-212.509	-38.382	-0.205	-0.107
-211.494	-200.000	-0.035	0.318
-210.479	29.379	0.159	-0.133
-209.465	-14.754	-0.191	0.121
-208.450	-42.724	0.141	-0.071
-207.436	-97.808	0.289	0.074
-206.421	61.525	0.186	0.182
-205.406	-200.000	-0.013	-0.091
-204.392	161.853	-0.079	0.109
-203.377	338.839	-0.188	-0.362
-202.363	158.320	0.161	0.220
-201.348	800.000	0.092	-0.284
-200.333	90.455	-0.161	0.177
-199.319	244.300	0.074	0.123
-198.304	-49.717	-0.083	-0.039
-197.290	-138.687	0.248	-0.027
-196.275	-102.493	-0.393	0.093
-195.260	-11.422	-0.146	0.095
-194.246	-179.951	0.270	0.006
-193.231	-1.834	0.206	0.143
-192.217	339.415	0.110	0.212
-191.202	800.000	-0.097	0.398
-190.187	384.423	-0.143	-0.289
-189.173	-74.392	-0.059	0.021
-188.158	-200.000	0.011	-0.201
-187.144	127.492	-0.051	-0.064
-186.129	-200.000	0.012	-0.114
-185.114	180.889	0.135	0.196
-184.100	107.378	0.123	-0.144
-183.085	-200.000	0.023	-0.235
-182.071	-200.000	0.055	0.254
-181.056	43.700	-0.190	-0.171
-180.042	-5.115	-0.338	0.229
-179.027	-60.476	-0.270	-0.113
-178.012	800.000	-0.073	0.312
-176.998	-200.000	-0.017	-0.140
-175.983	800.000	-0.022	-0.091
-174.969	-120.964	-0.199	0.033
-173.954	-136.593	-0.359	0.041
-172.939	-99.099	-0.337	0.084
-171.925	-200.000	0.029	0.382
-170.910	117.448	0.252	0.305
-169.896	-200.000	-0.031	0.190
-168.881	-16.282	0.395	-0.247
-167.866	125.684	-0.044	-0.055
-166.852	29.971	0.222	0.186
-165.837	800.000	0.082	0.250
-164.823	-200.000	0.001	0.223
-163.808	39.399	0.308	-0.272
-162.793	-200.000	0.024	-0.237
-161.779	-82.620	0.070	-0.022
-160.764	106.569	-0.165	0.193
-159.750	82.459	0.027	-0.029
-158.735	800.000	0.116	-0.314
-157.720	18.417	0.088	0.069
-156.706	-142.078	0.385	0.038
-155.691	-54.765	-0.130	0.058
-154.677	11.933	0.215	-0.163
-153.662	-39.533	-0.151	0.078
-152.647	232.253	0.120	0.194
-151.633	-200.000	-0.004	0.156
-150.618	-143.434	-0.167	0.016
-149.604	114.606	-0.092	0.110
-148.589	800.000	-0.066	0.258
-147.574	-200.000	0.057	0.255
-146.560	-32.143	0.323	0.178
-145.545	97.645	-0.140	-0.158
-144.531	-32.708	-0.185	-0.101
-143.516	-62.464	-0.122	-0.050
-142.502	161.040	-0.136	0.187
-141.487	-51.793	-0.269	-0.123
-140.472	-127.705	-0.285	-0.041
-139.458	-67.468	-0.073	0.028
-138.443	-200.000	0.022	0.150
-137.429	134.793	-0.102	0.130
-136.414	-47.417	-0.198	-0.095
-135.399	171.460	-0.035	-0.050
-134.385	-64.834	-0.186	0.074
-133.370	-200.000	-0.021	0.229
-132.356	-20.209	0.257	-0.156
-131.341	-111.348	0.004	-0.001
-130.326	-83.181	0.360	-0.114
-129.312	800.000	-0.048	0.134
-128.297	400.723	0.095	0.197
-127.283	-28.859	-0.174	-0.099
-126.268	800.000	0.123	0.373
-125.253	449.574	0.097	-0.210
-124.239	800.000	0.035	-0.138
-123.224	166.834	0.082	0.114
-122.210	800.000	-0.045	0.187
