DTS Sentinel unit serial number:	SN413079Multiplexer serial number:	ORYXHardware model number:	OX4-SRSoftware version number:	ORYX F/W v4.00 Oryx Data Collector v3.7.2.0data status	okinstallation	princeton_trtdifferential loss correction	single-endedforward channel	channel 2reverse channel	N/Adate	2019/09/11time	05:45:11forward acquisition time	60.00reverse acquisition time	0.00gamma	496.2192k internal	0.2329k external	0.2329temperature offset calibration	0.9938default loss term (dB/km)	0.3790temperature slope calibration	1.0000multiplexer offset coefficient	1.0000multiplexer slope coefficient	1.0000fibre end	0.00T internal ref (°C)	29.39T ext. ref 1 (°C)	-0.23T ext. ref 2 (°C)	23.35length (m)	temperature (°C)	Stokes	anti-Stokes-747.200	247.105	-0.129	0.220
-746.185	-92.352	-0.116	0.033
-745.171	800.000	0.088	-0.281
-744.156	9.095	0.214	-0.163
-743.142	-127.355	0.365	-0.054
-742.127	-42.922	-0.193	-0.099
-741.112	162.257	0.126	-0.178
-740.098	108.568	-0.324	0.389
-739.083	-93.053	0.146	0.041
-738.069	-200.000	0.033	0.261
-737.054	-124.923	0.299	0.046
-736.039	71.727	0.063	-0.066
-735.025	-100.854	-0.161	0.040
-734.010	17.052	-0.228	-0.182
-732.996	800.000	-0.033	-0.109
-731.981	-64.673	0.406	-0.166
-730.966	31.013	0.034	-0.029
-729.952	-50.847	0.240	0.114
-728.937	-66.273	-0.347	-0.139
-727.923	-200.000	-0.027	-0.223
-726.908	129.445	-0.280	-0.360
-725.894	-200.000	0.006	0.387
-724.879	-92.075	-0.246	0.070
-723.864	-116.492	-0.111	0.021
-722.850	-200.000	-0.058	0.460
-721.835	-50.684	0.164	0.078
-720.821	361.361	-0.034	0.069
-719.806	15.914	0.111	-0.088
-718.791	545.242	-0.211	-0.508
-717.777	-200.000	0.015	-0.215
-716.762	800.000	0.142	-0.473
-715.748	-130.108	-0.209	0.029
-714.733	-70.775	-0.209	0.079
-713.718	303.907	-0.220	0.410
-712.704	109.159	-0.103	-0.124
-711.689	-42.354	-0.124	-0.064
-710.675	-188.131	-0.403	0.005
-709.660	43.290	-0.166	-0.152
-708.645	800.000	-0.018	-0.061
-707.631	321.658	-0.080	-0.152
-706.616	-200.000	-0.051	-0.239
-705.602	800.000	-0.140	-0.396
-704.587	-64.138	-0.232	-0.095
-703.572	73.314	0.284	-0.299
-702.558	72.429	0.218	-0.229
-701.543	207.848	-0.068	-0.107
-700.529	-117.929	0.069	0.012
-699.514	69.879	-0.165	-0.171
-698.499	265.974	-0.134	-0.236
-697.485	57.665	-0.208	0.205
-696.470	-200.000	-0.017	0.119
-695.456	-200.000	0.010	-0.060
-694.441	-200.000	0.009	-0.143
-693.426	-200.000	-0.034	-0.324
-692.412	93.261	0.035	-0.039
-691.397	652.345	-0.141	-0.364
-690.383	412.632	0.070	0.149
-689.368	37.583	-0.222	0.198
-688.354	5.229	0.277	-0.205
-687.339	-122.221	0.148	0.024
-686.324	56.443	-0.169	0.165
-685.310	38.838	0.355	-0.318
-684.295	800.000	0.049	-0.140
-683.281	612.012	0.093	-0.233
-682.266	-131.711	0.224	0.030
-681.251	-55.082	0.093	0.042
-680.237	800.000	0.052	-0.202
-679.222	-173.810	-0.172	-0.005
-678.208	66.010	-0.131	0.134
-677.193	-152.922	0.264	-0.019
-676.178	-105.925	-0.104	-0.023
-675.164	152.426	0.122	0.167
-674.149	223.546	0.158	0.257
-673.135	-17.818	0.545	0.344
-672.120	12.822	-0.101	-0.078
-671.105	-200.000	-0.345	-0.000
-670.091	104.694	0.268	0.318
-669.076	-71.870	0.271	-0.101
-668.062	800.000	0.096	-0.298
-667.047	-58.013	-0.160	0.070
-666.032	-6.095	-0.282	0.194
-665.018	-200.000	-0.330	-0.001
-664.003	586.379	0.111	0.275
-662.989	-155.564	-0.185	0.012
-661.974	44.045	-0.130	-0.120
-660.959	-15.334	0.247	-0.159
-659.945	323.609	0.187	-0.359
-658.930	90.706	0.121	-0.136
-657.916	-200.000	0.025	0.137
-656.901	10.168	0.188	-0.144
-655.886	30.148	0.302	-0.259
-654.872	-19.149	0.254	0.158
-653.857	37.177	0.101	-0.090
-652.843	13.925	0.175	-0.136
-651.828	-135.299	-0.055	0.007
-650.814	-34.996	0.196	0.107
-649.799	732.087	0.125	-0.336
-648.784	-1.282	-0.295	0.209
-647.770	-140.370	0.227	-0.024
-646.755	800.000	0.035	0.101
-645.741	-18.863	0.130	-0.081
-644.726	-137.415	0.163	-0.018
-643.711	-200.000	0.006	-0.111
-642.697	-86.985	0.257	-0.079
-641.682	223.760	-0.237	-0.384
-640.668	-200.000	-0.009	-0.232
-639.653	168.870	-0.237	0.339
-638.638	800.000	-0.076	0.234
-637.624	84.590	0.096	-0.105
-636.609	-200.000	0.026	-0.357
-635.595	-116.854	-0.318	-0.058
-634.580	800.000	0.129	0.411
-633.565	-200.000	-0.004	0.064
-632.551	800.000	-0.021	0.083
-631.536	-119.984	-0.171	0.029
-630.522	-47.450	0.075	0.036
-629.507	-34.997	-0.150	0.082
-628.492	800.000	-0.103	0.351
-627.478	-106.740	-0.312	0.069
-626.463	-200.000	0.034	0.203
-625.449	-29.552	-0.251	0.144
-624.434	42.555	0.054	0.049
-623.419	-123.461	0.151	0.024
-622.405	-121.652	0.269	-0.045
-621.390	230.427	0.126	-0.207
-620.376	-103.501	-0.177	0.042
-619.361	69.974	0.052	0.054
-618.346	800.000	0.042	0.161
-617.332	347.503	0.133	0.262
-616.317	70.838	0.098	-0.101
-615.303	-200.000	0.047	-0.342
-614.288	713.373	0.129	-0.342
-613.273	-41.897	0.343	-0.176
-612.259	348.809	-0.061	-0.120
-611.244	-118.620	-0.350	-0.062
-610.230	82.608	0.062	-0.067
-609.215	800.000	0.095	-0.373
-608.201	-200.000	-0.021	-0.131
-607.186	800.000	0.078	0.332
-606.171	800.000	-0.103	-0.434
-605.157	160.158	-0.235	-0.328
-604.142	-6.662	0.192	-0.131
-603.128	-200.000	0.196	0.000
-602.113	800.000	0.026	0.106
-601.098	800.000	-0.037	0.142
-600.084	-48.183	-0.110	-0.053
-599.069	-200.000	0.004	0.047
-598.055	800.000	0.168	-0.470
-597.040	-200.000	0.026	0.293
-596.025	304.902	-0.069	0.128
-595.011	103.000	0.285	0.334
-593.996	-154.729	-0.535	-0.036
-592.982	-200.000	-0.042	-0.248
-591.967	402.159	-0.021	0.044
-590.952	-81.936	0.377	-0.123
-589.938	112.409	0.092	-0.111
-588.923	-20.537	0.118	0.073
-587.909	-62.076	0.111	-0.046
-586.894	-143.922	-0.098	-0.009
-585.879	261.777	0.212	-0.367
-584.865	386.480	0.122	-0.251
-583.850	-20.809	0.143	-0.088
-582.836	292.544	0.192	-0.351
-581.821	-200.000	0.022	-0.258
-580.806	-200.000	0.005	0.256
-579.792	530.222	0.180	-0.425
-578.777	800.000	-0.070	0.203
-577.763	115.761	0.234	0.286
-576.748	315.583	-0.139	0.262
-575.733	-118.681	0.211	-0.037
-574.719	11.223	-0.328	-0.251
-573.704	-73.843	-0.229	0.083
-572.690	288.777	0.150	0.272
-571.675	800.000	-0.037	0.158
-570.661	-29.569	0.280	-0.160
-569.646	-42.932	0.137	0.070
-568.631	-176.058	0.315	-0.008
-567.617	800.000	-0.067	0.268
-566.602	-111.519	-0.252	-0.051
-565.588	160.046	-0.142	-0.197
-564.573	-200.000	-0.016	-0.271
-563.558	84.596	0.161	-0.176
-562.544	-31.755	0.181	0.102
-561.529	-8.373	-0.264	0.178
-560.515	-200.000	-0.000	0.195
-559.500	64.034	0.201	-0.202
-558.485	243.606	0.131	0.219
-557.471	-200.000	0.007	-0.327
-556.456	15.165	0.251	0.197
-555.442	15.555	-0.163	0.128
-554.427	-144.862	0.467	-0.043
-553.412	-42.935	-0.035	-0.018
-552.398	-156.703	0.094	-0.006
-551.383	-55.473	-0.145	0.065
-550.369	-31.825	0.128	-0.072
-549.354	-60.309	0.123	-0.052
-548.339	99.344	-0.266	0.308
-547.325	15.369	-0.239	0.187
-546.310	485.132	-0.055	0.125
-545.296	800.000	0.070	0.273
-544.281	-100.295	-0.213	-0.053
-543.266	-154.626	-0.035	0.002
-542.252	-200.000	0.016	0.164
-541.237	296.701	0.167	0.306
-540.223	249.835	0.147	-0.249
-539.208	84.419	-0.225	-0.246
-538.193	7.751	-0.130	-0.097
-537.179	-143.224	0.246	0.024
-536.164	3.807	0.194	0.141
-535.150	87.709	0.322	0.357
-534.135	256.957	-0.038	-0.065
-533.121	-82.688	-0.327	0.106
-532.106	76.428	0.314	-0.333
-531.091	-7.673	-0.353	-0.239
-530.077	-200.000	-0.015	-0.193
-529.062	-19.065	0.105	0.065
-528.048	-68.985	-0.104	0.040
-527.033	800.000	-0.089	-0.272
-526.018	-64.997	-0.197	0.080
-525.004	30.441	0.191	0.163
-523.989	-49.877	-0.043	0.020
-522.975	-131.819	0.146	0.019
-521.960	217.577	0.188	-0.299
-520.945	66.158	-0.209	0.212
-519.931	-121.093	-0.198	0.033
-518.916	-72.110	0.082	-0.030
-517.902	-192.326	0.142	-0.001
-516.887	-200.000	-0.010	0.080
-515.872	619.072	0.073	-0.184
-514.858	556.621	0.079	-0.190
-513.843	-102.012	0.442	-0.106
-512.829	800.000	-0.057	0.171
-511.814	-200.000	-0.100	0.462
-510.799	800.000	0.014	-0.047
-509.785	-81.358	0.217	0.071
-508.770	800.000	0.141	0.416
-507.756	-137.168	0.179	0.020
-506.741	19.450	-0.193	-0.155
-505.726	-108.104	0.121	-0.026
-504.712	-91.019	0.169	-0.048
-503.697	627.495	-0.089	-0.224
-502.683	800.000	-0.043	0.127
-501.668	800.000	0.040	0.157
-500.653	173.545	0.121	-0.174
-499.639	-32.990	-0.149	-0.083
-498.624	800.000	0.079	-0.344
-497.610	692.662	0.054	-0.142
-496.595	-100.945	-0.373	-0.091
-495.581	-136.744	-0.134	0.015
-494.566	157.139	-0.129	0.178
-493.551	-66.563	0.122	-0.048
-492.537	663.068	0.024	0.061
-491.522	-44.035	0.286	-0.143
-490.508	77.983	-0.148	0.157
-489.493	-38.690	0.028	0.015
-488.478	-108.519	-0.213	0.046
-487.464	136.192	-0.160	-0.208
-486.449	800.000	-0.049	-0.190
-485.435	800.000	-0.062	-0.190
-484.420	800.000	-0.040	0.140
-483.405	-194.601	0.037	0.000
-482.391	-175.516	-0.424	0.012
-481.376	105.434	-0.204	-0.241
-480.362	742.561	0.062	-0.166
-479.347	-90.172	0.086	0.025
-478.332	-171.095	-0.297	0.010
-477.318	26.750	-0.302	0.252
-476.303	-123.938	0.139	0.022
-475.289	-175.325	0.157	0.004
-474.274	-200.000	0.137	0.620
-473.259	115.447	-0.231	-0.281
-472.245	247.353	-0.044	0.074
-471.230	435.204	0.035	0.075
-470.216	800.000	0.026	0.109
-469.201	747.887	0.034	-0.092
-468.186	353.770	-0.119	0.236
-467.172	-177.809	-0.019	-0.000
-466.157	49.459	-0.076	-0.071
-465.143	-132.959	-0.310	0.039
-464.128	87.652	0.237	-0.261
-463.113	-200.000	0.010	-0.422
-462.099	-139.122	0.327	-0.035
-461.084	-56.839	0.143	0.063
-460.070	800.000	-0.041	-0.160
-459.055	-146.755	-0.155	-0.013
-458.040	59.559	-0.249	-0.245
-457.026	81.000	0.125	0.134
-456.011	800.000	-0.022	0.088
-454.997	800.000	0.043	-0.181
-453.982	347.175	0.044	-0.087
-452.968	8.439	0.229	-0.172
-451.953	-170.989	-0.304	0.010
-450.938	-181.227	-0.308	-0.006
-449.924	-200.000	-0.022	-0.420
-448.909	-64.128	0.037	0.015
-447.895	428.153	0.078	0.169
-446.880	16.419	-0.257	-0.202
-445.865	-200.000	0.008	-0.128
-444.851	25.992	-0.175	-0.145
-443.836	-200.000	-0.006	0.136
-442.822	-200.000	0.005	0.074
-441.807	552.221	0.158	-0.377
-440.792	170.604	-0.231	-0.329
-439.778	-98.691	0.073	-0.018
-438.763	602.608	0.114	-0.282
-437.749	-200.000	0.057	-0.358
-436.734	-200.000	-0.007	0.173
-435.719	63.507	-0.102	-0.102
-434.705	51.714	-0.111	-0.105
-433.690	-10.179	0.239	-0.158
-432.676	800.000	0.078	-0.313
-431.661	596.006	-0.134	-0.329
-430.646	-174.343	-0.460	-0.013
-429.632	-65.025	0.220	-0.088
-428.617	28.430	0.189	-0.159
-427.603	474.397	-0.073	-0.163
-426.588	-65.873	0.460	-0.183
-425.573	12.132	-0.018	-0.014
-424.559	66.060	0.096	-0.097
-423.544	-72.216	-0.297	0.110
-422.530	-95.064	0.306	-0.082
-421.515	-200.000	0.013	0.103
-420.500	201.556	0.055	0.085
-419.486	107.270	0.053	-0.062
-418.471	22.105	0.028	0.022
-417.457	-95.990	-0.094	-0.025
-416.442	559.326	-0.087	-0.210
-415.428	14.877	0.184	0.144
-414.413	-94.988	-0.121	0.033
-413.398	141.201	-0.166	-0.218
-412.384	-12.512	0.312	-0.203
-411.369	404.305	0.071	-0.149
-410.355	-200.000	-0.003	-0.022
-409.340	589.981	0.044	0.108
-408.325	205.440	-0.190	-0.294
-407.311	800.000	0.131	-0.437
-406.296	-200.000	0.004	-0.223
-405.282	70.426	0.064	-0.066
-404.267	-118.013	-0.152	-0.027
-403.252	14.971	0.364	0.283
-402.238	-59.253	-0.253	-0.108
-401.223	158.016	-0.146	0.201
-400.209	-71.353	-0.238	0.089
-399.194	-200.000	-0.006	-0.091
-398.179	-115.668	-0.181	-0.034
-397.165	110.996	0.060	-0.072
-396.150	-43.359	0.091	0.046
-395.136	-52.858	-0.222	0.101
-394.121	-65.350	0.081	-0.032
-393.106	800.000	0.082	0.285
-392.092	-2.434	0.139	0.097
-391.077	15.153	-0.327	-0.254
-390.063	326.707	-0.160	0.304
-389.048	308.322	-0.014	-0.025
-388.033	-87.169	0.131	-0.039
-387.019	-7.783	0.193	-0.129
-386.004	-73.336	0.175	0.064
-384.990	30.266	-0.300	0.254
-383.975	407.606	-0.139	0.291
-382.960	-17.697	-0.057	0.035
-381.946	-200.000	-0.055	0.331
-380.931	-97.733	0.212	0.055
-379.917	-124.754	0.114	0.017
-378.902	218.480	0.275	-0.437
-377.888	800.000	0.016	-0.060
-376.873	-67.460	0.177	-0.069
-375.858	81.037	0.058	0.062
-374.844	138.655	-0.045	-0.059
-373.829	715.260	0.103	-0.270
-372.815	-43.373	0.133	-0.067
-371.800	-105.383	-0.191	0.043
-370.785	300.088	0.116	-0.212
-369.771	-148.522	0.431	0.035
-368.756	8.527	-0.026	0.019
-367.742	-200.000	-0.001	-0.036
-366.727	-200.000	-0.008	0.196
-365.712	214.669	-0.157	0.246
-364.698	-12.850	0.254	0.164
-363.683	-56.071	-0.333	0.147
-362.669	-103.430	0.296	-0.069
-361.654	297.895	-0.124	0.225
-360.639	-11.332	-0.083	0.054
-359.625	55.249	0.223	0.214
-358.610	-77.418	-0.203	-0.070
-357.596	169.550	0.015	0.022
-356.581	-200.000	0.054	0.374
-355.566	-168.299	-0.054	-0.002
-354.552	-140.311	0.182	0.019
-353.537	-200.000	-0.036	-0.344
-352.523	3.316	-0.092	-0.067
-351.508	277.644	-0.110	0.194
-350.493	800.000	-0.141	0.463
-349.479	-200.000	0.013	0.231
-348.464	-186.470	-0.257	0.004
-347.450	257.478	0.199	0.339
-346.435	-200.000	-0.041	0.289
-345.420	36.830	-0.137	0.120
-344.406	-86.374	-0.142	0.043
-343.391	-133.380	0.191	0.024
-342.377	800.000	-0.094	-0.381
-341.362	-34.872	-0.270	0.146
-340.348	-200.000	0.041	0.240
-339.333	393.404	-0.079	0.164
-338.318	338.039	0.156	0.300
-337.304	-33.009	0.247	-0.136
-336.289	-200.000	0.008	-0.075
-335.275	-146.404	0.293	0.025
-334.260	-109.624	-0.476	-0.099
-333.245	-174.233	-0.288	0.008
-332.231	-99.530	0.310	-0.077
-331.216	-200.000	-0.008	-0.097
-330.202	22.392	0.091	0.074
-329.187	-89.480	0.172	0.050
-328.172	-200.000	-0.002	0.170
-327.158	38.041	-0.268	0.236
-326.143	17.143	-0.142	0.111
-325.129	20.419	0.208	-0.166
-324.114	105.563	-0.056	-0.065
-323.099	216.246	0.135	0.213
-322.085	-200.000	0.060	0.349
-321.070	800.000	-0.078	0.322
-320.056	-200.000	0.032	-0.191
-319.041	751.620	-0.036	0.096
-318.026	-200.000	-0.013	0.282
-317.012	-26.477	-0.364	0.212
-315.997	349.108	0.045	0.088
-314.983	96.489	-0.267	0.303
-313.968	-22.327	0.145	0.087
-312.953	-22.085	0.188	-0.113
-311.939	18.580	0.251	0.199
-310.924	86.179	-0.269	-0.293
-309.910	42.200	-0.106	0.095
-308.895	-49.308	-0.449	0.212
-307.880	61.084	0.097	0.095
-306.866	274.960	0.140	-0.245
-305.851	-31.771	-0.207	0.115
-304.837	800.000	0.030	-0.087
-303.822	186.239	0.208	0.306
-302.807	800.000	-0.064	-0.182
-301.793	-200.000	0.016	-0.144
-300.778	778.461	-0.050	-0.136
-299.764	-200.000	0.005	-0.112
-298.749	-121.837	-0.068	0.011
-297.735	-200.000	0.008	0.120
-296.720	56.652	0.283	0.272
-295.705	44.596	-0.355	0.323
-294.691	-63.895	0.158	0.064
-293.676	12.017	0.138	-0.105
-292.662	-4.837	-0.283	-0.193
-291.647	-188.930	-0.391	0.005
-290.632	119.170	-0.299	0.366
-289.618	48.825	-0.300	0.279
-288.603	-200.000	-0.021	-0.282
-287.589	299.791	0.036	0.065
-286.574	110.026	0.043	0.051
-285.559	310.410	0.011	-0.020
-284.545	800.000	-0.104	-0.341
-283.530	-200.000	0.011	-0.205
-282.516	-200.000	0.011	0.168
-281.501	-18.549	-0.355	0.219
-280.486	277.520	0.238	-0.419
-279.472	40.936	0.162	-0.145
-278.457	-200.000	0.002	-0.390
-277.443	-76.425	-0.170	-0.059
-276.428	-200.000	-0.024	0.342
-275.413	96.963	0.156	-0.177
-274.399	-60.352	-0.163	-0.069
-273.384	-66.052	-0.205	0.081
-272.370	167.960	0.226	-0.318
-271.355	-83.351	0.080	-0.025
-270.340	-72.735	0.242	-0.088
-269.326	-81.757	0.290	0.094
-268.311	721.574	-0.025	0.066
-267.297	800.000	0.023	-0.063
-266.282	-35.418	0.199	0.107
-265.267	800.000	-0.072	-0.197
-264.253	-200.000	-0.013	0.416
-263.238	-78.291	-0.084	0.028
-262.224	-200.000	-0.009	0.236
-261.209	-200.000	0.010	0.242
-260.195	-200.000	0.004	-0.234
-259.180	-200.000	0.049	0.236
-258.165	-167.468	0.221	0.009
-257.151	-200.000	0.031	-0.170
-256.136	2.934	0.242	-0.173
-255.122	209.045	-0.116	0.180
-254.107	743.125	-0.108	-0.286
-253.092	302.342	-0.194	0.355
-252.078	4.762	-0.275	0.199
-251.063	-142.405	0.161	0.016
-250.049	-200.000	0.039	-0.186
-249.034	800.000	-0.089	-0.289
-248.019	-77.410	-0.416	0.143
-247.005	-67.023	0.167	0.065
-245.990	-15.565	0.194	-0.122
-244.976	-152.889	0.334	-0.023
-243.961	-8.726	-0.186	0.124
-242.946	414.591	0.107	-0.224
-241.932	-54.737	-0.410	-0.183
-240.917	154.193	-0.164	-0.222
-239.903	352.930	-0.152	0.297
-238.888	133.795	-0.054	0.069
-237.873	91.133	-0.318	0.353
-236.859	394.343	0.076	-0.156
-235.844	800.000	-0.032	-0.131
-234.830	-200.000	0.007	0.134
-233.815	-92.324	-0.098	-0.027
-232.800	14.237	0.039	0.030
-231.786	800.000	0.052	-0.150
-230.771	-62.117	0.033	-0.013
-229.757	-60.411	0.030	0.012
-228.742	-136.914	-0.120	-0.014
-227.727	18.844	-0.263	0.208
-226.713	800.000	0.091	0.368
-225.698	-73.149	-0.193	-0.070
-224.684	-145.654	0.347	0.031
-223.669	-200.000	-0.020	0.192
-222.655	311.874	0.052	-0.096
-221.640	28.351	0.032	0.027
-220.625	-200.000	-0.003	-0.217
-219.611	32.882	0.096	0.082
-218.596	127.466	0.079	0.098
-217.582	-7.655	0.132	0.088
-216.567	-164.909	-0.096	0.004
-215.552	350.780	-0.070	-0.138
-214.538	-84.021	0.223	-0.070
-213.523	-94.404	-0.279	0.075
-212.509	-31.475	0.144	-0.080
-211.494	328.281	-0.118	0.223
-210.479	-70.923	0.334	0.124
-209.465	-58.514	-0.211	-0.090
-208.450	-34.280	-0.197	0.106
-207.436	-200.000	-0.012	-0.099
-206.421	45.287	0.136	0.124
-205.406	-107.292	-0.328	0.071
-204.392	-2.695	-0.325	-0.224
-203.377	-21.053	-0.056	0.034
-202.363	488.427	0.213	-0.479
-201.348	407.572	-0.051	0.106
-200.333	219.126	0.158	-0.249
-199.319	191.292	-0.133	0.197
-198.304	-200.000	0.017	-0.115
-197.290	-126.333	0.221	-0.032
-196.275	131.468	-0.318	-0.403
-195.260	582.325	0.033	-0.079
-194.246	-42.912	-0.234	0.117
-193.231	-200.000	-0.002	0.050
-192.217	394.276	-0.110	0.226
-191.202	-49.175	-0.031	0.015
-190.187	196.609	-0.242	0.363
-189.173	-112.986	-0.065	0.013
-188.158	168.290	0.040	0.057
-187.144	3.563	0.266	0.191
-186.129	631.272	-0.153	0.383
-185.114	-200.000	-0.011	-0.053
-184.100	112.218	0.039	-0.046
-183.085	-81.130	0.360	-0.117
-182.071	-104.161	-0.445	0.102
-181.056	800.000	0.009	0.035
-180.042	-157.771	0.318	-0.019
-179.027	474.908	0.198	0.441
-178.012	32.728	-0.239	-0.204
-176.998	-114.187	0.160	0.030
-175.983	-61.612	0.218	0.090
-174.969	-200.000	0.009	0.119
-173.954	220.885	0.067	-0.106
-172.939	366.834	0.120	0.239
-171.925	-121.749	0.303	0.049
-170.910	-183.018	0.373	-0.007
-169.896	82.389	-0.054	0.058
-168.881	800.000	0.033	0.111
-167.866	186.245	-0.156	0.228
-166.852	373.321	-0.112	-0.223
-165.837	40.159	-0.191	-0.169
-164.823	-42.889	0.129	-0.064
-163.808	-84.562	-0.100	0.031
-162.793	125.770	-0.111	0.139
-161.779	-158.856	0.250	0.014
-160.764	11.992	-0.307	0.232
-159.750	158.974	0.137	0.187
-158.735	-96.866	0.074	0.019
-157.720	-200.000	-0.009	0.114
-156.706	800.000	0.073	0.233
-155.691	800.000	0.118	-0.407
-154.677	82.065	0.040	0.043
-153.662	-40.768	-0.133	-0.068
-152.647	-114.376	0.553	0.105
-151.633	152.249	-0.211	-0.283
-150.618	509.648	0.041	0.094
-149.604	-200.000	0.066	0.341
-148.589	201.717	0.077	-0.117
-147.574	800.000	0.152	-0.513
-146.560	12.357	0.112	0.085
-145.545	-51.238	-0.141	0.065
-144.531	800.000	-0.053	0.188
-143.516	74.016	0.220	0.227
-142.502	-200.000	-0.043	0.242
-141.487	24.788	0.212	-0.173
-140.472	-200.000	0.019	0.365
-139.458	-158.570	0.114	0.006
-138.443	-113.741	0.035	-0.007
-137.429	-115.764	-0.116	0.021
-136.414	41.731	-0.109	-0.097
-135.399	729.311	-0.109	0.287
-134.385	23.210	0.107	0.087
-133.370	-16.685	0.086	0.053
-132.356	51.900	-0.133	0.124
-131.341	-200.000	0.010	-0.180
-130.326	-200.000	0.026	-0.169
-129.312	-1.485	0.052	0.036
-128.297	35.016	0.145	-0.125
-127.283	253.080	-0.138	-0.231
-126.268	30.604	-0.050	0.042
-125.253	800.000	0.028	-0.082
-124.239	172.885	-0.184	0.261
-123.224	8.538	-0.283	0.210
-122.210	218.217	0.222	0.349
-121.195	800.000	0.080	0.249
-120.180	-200.000	-0.033	-0.237
