DTS Sentinel unit serial number:	SN413079Multiplexer serial number:	ORYXHardware model number:	OX4-SRSoftware version number:	ORYX F/W v4.00 Oryx Data Collector v3.7.2.0data status	okinstallation	princeton_trtdifferential loss correction	single-endedforward channel	channel 2reverse channel	N/Adate	2019/09/10time	21:17:10forward acquisition time	60.00reverse acquisition time	0.00gamma	496.2192k internal	0.2330k external	0.2330temperature offset calibration	0.9945default loss term (dB/km)	0.3790temperature slope calibration	1.0000multiplexer offset coefficient	1.0000multiplexer slope coefficient	1.0000fibre end	0.00T internal ref (°C)	31.33T ext. ref 1 (°C)	-0.31T ext. ref 2 (°C)	24.48length (m)	temperature (°C)	Stokes	anti-Stokes-747.200	164.816	-0.144	-0.205
-746.185	800.000	-0.103	0.311
-745.171	-200.000	0.015	0.445
-744.156	231.906	-0.145	0.239
-743.142	695.098	-0.012	-0.032
-742.127	447.357	0.079	0.175
-741.112	800.000	-0.133	0.497
-740.098	-62.694	-0.272	0.113
-739.083	-36.251	0.190	-0.103
-738.069	-200.000	0.007	0.221
-737.054	-200.000	-0.030	-0.237
-736.039	-77.081	-0.436	-0.153
-735.025	62.483	-0.181	-0.182
-734.010	32.972	-0.051	-0.044
-732.996	390.643	0.149	-0.312
-731.981	252.557	-0.076	-0.131
-730.966	-22.134	-0.296	0.181
-729.952	493.101	0.057	0.131
-728.937	-89.118	-0.192	-0.057
-727.923	71.938	-0.026	-0.027
-726.908	800.000	0.062	0.225
-725.894	63.155	-0.297	0.299
-724.879	86.714	0.045	-0.050
-723.864	112.324	-0.181	-0.220
-722.850	-5.725	-0.234	-0.161
-721.835	-200.000	0.007	0.159
-720.821	-114.084	-0.260	-0.051
-719.806	-114.823	-0.145	0.028
-718.791	138.330	0.053	-0.070
-717.777	-200.000	-0.021	0.156
-716.762	59.554	-0.294	-0.292
-715.748	47.348	0.172	0.161
-714.733	-100.494	-0.229	-0.057
-713.718	-45.355	-0.269	-0.134
-712.704	-200.000	-0.042	-0.334
-711.689	64.970	-0.069	-0.070
-710.675	-81.936	0.263	-0.087
-709.660	-200.000	-0.017	-0.117
-708.645	800.000	-0.120	0.344
-707.631	-200.000	-0.013	0.332
-706.616	-200.000	-0.015	0.088
-705.602	-99.420	0.226	-0.057
-704.587	-56.653	0.039	-0.017
-703.572	-43.010	0.058	-0.029
-702.558	-200.000	-0.006	-0.048
-701.543	-143.445	0.168	0.016
-700.529	-117.373	-0.342	0.062
-699.514	459.757	0.052	0.117
-698.499	-200.000	0.040	0.305
-697.485	-200.000	-0.024	-0.178
-696.470	-200.000	0.021	-0.262
-695.456	396.740	-0.071	0.149
-694.441	303.370	-0.024	0.046
-693.426	-200.000	0.016	0.086
-692.412	-200.000	0.023	0.235
-691.397	9.686	-0.208	0.159
-690.383	-165.447	-0.170	0.007
-689.368	-57.377	0.263	0.116
-688.354	309.347	0.104	-0.195
-687.339	22.952	0.180	0.149
-686.324	315.519	-0.084	0.160
-685.310	114.694	0.201	0.246
-684.295	356.238	-0.129	-0.258
-683.281	-155.587	-0.273	-0.018
-682.266	-71.023	-0.159	0.060
-681.251	-72.050	-0.247	0.092
-680.237	-31.070	-0.031	-0.017
-679.222	137.145	-0.200	-0.263
-678.208	-153.738	-0.314	0.022
-677.193	-161.014	0.220	-0.012
-676.178	-102.420	0.220	-0.053
-675.164	124.836	-0.276	-0.350
-674.149	8.639	-0.189	-0.143
-673.135	-200.000	0.055	-0.264
-672.120	7.251	0.097	-0.073
-671.105	800.000	-0.039	-0.142
-670.091	-53.409	0.091	-0.042
-669.076	-200.000	0.010	-0.196
-668.062	-19.536	0.118	0.073
-667.047	-169.072	-0.107	-0.004
-666.032	64.571	-0.164	0.166
-665.018	-200.000	0.012	-0.137
-664.003	209.298	-0.125	-0.197
-662.989	-200.000	-0.031	-0.263
-661.974	146.045	0.119	-0.161
-660.959	-200.000	-0.012	0.054
-659.945	300.487	-0.138	-0.256
-658.930	118.906	0.133	0.165
-657.916	51.146	-0.175	0.167
-656.901	-29.814	-0.314	-0.179
-655.886	800.000	-0.069	0.213
-654.872	193.450	0.113	0.172
-653.857	102.697	0.182	0.213
-652.843	-200.000	0.004	0.139
-651.828	104.691	0.103	0.121
-650.814	-68.389	-0.197	0.077
-649.799	221.708	0.145	-0.234
-648.784	-5.387	-0.159	-0.109
-647.770	-200.000	-0.042	-0.240
-646.755	-27.339	0.254	0.148
-645.741	-200.000	0.012	-0.213
-644.726	50.166	-0.055	-0.052
-643.711	182.043	0.110	-0.162
-642.697	77.143	0.220	0.235
-641.682	-53.827	0.090	0.041
-640.668	-200.000	-0.000	0.343
-639.653	800.000	0.071	-0.290
-638.638	800.000	0.059	-0.251
-637.624	-200.000	-0.009	0.059
-636.609	102.316	0.196	-0.229
-635.595	-70.018	0.141	0.054
-634.580	278.346	0.044	0.079
-633.565	236.259	-0.245	-0.407
-632.551	-42.412	0.356	-0.182
-631.536	-158.812	-0.165	-0.009
-630.522	34.995	0.244	-0.214
-629.507	-200.000	-0.069	-0.431
-628.492	-88.426	-0.042	0.012
-627.478	-143.140	-0.238	0.023
-626.463	27.380	-0.103	-0.087
-625.449	390.720	0.096	-0.200
-624.434	271.526	-0.126	0.223
-623.419	47.803	0.170	0.159
-622.405	-95.296	-0.014	0.004
-621.390	177.242	0.113	-0.165
-620.376	800.000	-0.018	0.070
-619.361	-130.538	-0.287	0.039
-618.346	-24.007	0.060	-0.036
-617.332	-125.452	0.143	-0.022
-616.317	-200.000	-0.003	-0.109
-615.303	177.237	-0.164	-0.239
-614.288	800.000	-0.091	-0.270
-613.273	-200.000	-0.044	-0.326
-612.259	297.274	-0.063	-0.116
-611.244	-178.430	0.116	0.003
-610.230	388.589	-0.060	0.124
-609.215	-147.145	-0.233	0.020
-608.201	647.090	0.140	-0.357
-607.186	-14.756	0.320	-0.206
-606.171	-130.988	0.096	-0.013
-605.157	-114.932	-0.157	0.030
-604.142	-36.360	0.080	0.043
-603.128	800.000	0.009	-0.029
-602.113	43.989	-0.196	0.180
-601.098	58.401	-0.136	-0.133
-600.084	-21.280	-0.272	-0.167
-599.069	-61.420	-0.234	0.099
-598.055	-200.000	-0.011	0.098
-597.040	-26.994	0.265	-0.155
-596.025	-181.399	0.287	-0.006
-595.011	311.506	0.082	0.153
-593.996	416.406	0.064	0.137
-592.982	179.022	-0.032	0.046
-591.967	276.809	-0.144	0.256
-590.952	319.020	0.064	-0.121
-589.938	530.073	0.058	0.137
-588.923	312.573	-0.128	-0.241
-587.909	800.000	0.041	0.150
-586.894	192.456	-0.124	-0.187
-585.879	800.000	-0.047	0.140
-584.865	-108.495	-0.088	0.019
-583.850	-177.368	-0.229	0.006
-582.836	-119.648	0.163	0.028
-581.821	-56.755	0.156	0.069
-580.806	285.701	0.014	-0.025
-579.792	-200.000	0.005	0.071
-578.777	800.000	0.040	-0.159
-577.763	-120.648	0.261	0.044
-576.748	-10.042	0.193	0.128
-575.733	85.284	-0.017	-0.019
-574.719	443.871	0.086	-0.189
-573.704	382.511	0.110	0.226
-572.690	13.435	-0.144	-0.111
-571.675	98.036	-0.259	-0.299
-570.661	-180.799	0.126	0.003
-569.646	233.077	-0.066	-0.108
-568.631	-200.000	0.051	0.267
-567.617	800.000	0.092	-0.374
-566.602	800.000	-0.058	0.184
-565.588	800.000	0.033	0.113
-564.573	-25.530	0.279	0.165
-563.558	67.481	0.235	0.240
-562.544	800.000	-0.021	0.079
-561.529	800.000	0.071	-0.215
-560.515	-170.837	-0.440	-0.015
-559.500	-200.000	0.051	-0.278
-558.485	-200.000	0.026	-0.139
-557.471	-200.000	0.066	-0.333
-556.456	-86.425	-0.153	0.047
-555.442	-165.943	-0.031	0.001
-554.427	132.471	0.099	-0.128
-553.412	60.990	0.095	-0.094
-552.398	-83.762	-0.410	-0.131
-551.383	800.000	-0.013	-0.059
-550.369	179.717	-0.146	-0.214
-549.354	-88.788	-0.101	0.030
-548.339	800.000	0.024	0.099
-547.325	-200.000	0.012	0.269
-546.310	24.968	-0.427	0.353
-545.296	-59.504	-0.117	0.050
-544.281	32.579	-0.136	0.117
-543.266	800.000	0.068	0.233
-542.252	-90.179	-0.226	0.066
-541.237	-200.000	-0.023	-0.193
-540.223	176.935	0.031	0.045
-539.208	100.802	0.105	-0.122
-538.193	167.952	-0.081	0.115
-537.179	554.977	0.033	-0.078
-536.164	800.000	-0.049	0.151
-535.150	1.643	-0.100	-0.072
-534.135	-69.338	-0.372	0.143
-533.121	800.000	-0.158	0.462
-532.106	73.037	0.309	-0.323
-531.091	19.987	-0.151	-0.122
-530.077	97.607	-0.153	-0.175
-529.062	-200.000	0.080	0.392
-528.048	-186.383	-0.132	-0.002
-527.033	-27.994	-0.202	0.117
-526.018	424.524	0.097	-0.208
-525.004	-20.771	-0.273	-0.167
-523.989	-137.301	-0.412	-0.047
-522.975	-133.657	0.075	0.009
-521.960	-115.343	-0.104	-0.020
-520.945	-154.638	-0.279	0.019
-519.931	-125.370	-0.510	0.078
-518.916	-149.598	-0.512	0.040
-517.902	-2.027	0.129	-0.090
-516.887	800.000	-0.017	-0.060
-515.872	-200.000	0.003	-0.021
-514.858	139.699	-0.139	-0.182
-513.843	362.788	-0.089	0.178
-512.829	-179.351	-0.350	-0.008
-511.814	-79.618	0.283	0.095
-510.799	227.406	-0.149	0.242
-509.785	90.997	0.132	0.148
-508.770	233.779	-0.038	0.063
-507.756	-200.000	-0.171	-0.001
-506.741	139.793	-0.188	-0.247
-505.726	196.073	0.117	-0.178
-504.712	-42.758	0.265	-0.135
-503.697	-135.384	-0.358	-0.043
-502.683	687.977	-0.135	0.351
-501.668	-93.646	-0.440	0.121
-500.653	-200.000	-0.043	0.241
-499.639	-73.444	0.144	-0.053
-498.624	163.653	-0.140	-0.197
-497.610	450.245	0.103	-0.227
-496.595	173.960	-0.147	0.211
-495.581	-106.213	0.196	0.044
-494.566	22.565	0.053	0.043
-493.551	-10.817	-0.092	0.060
-492.537	-83.404	0.080	0.026
-491.522	265.334	0.019	0.032
-490.508	48.412	-0.149	-0.139
-489.493	-56.419	-0.307	-0.136
-488.478	319.881	-0.156	-0.295
-487.464	-200.000	0.027	0.398
-486.449	34.700	-0.315	0.274
-485.435	-127.349	0.169	-0.025
-484.420	177.676	-0.242	-0.352
-483.405	468.218	-0.027	0.061
-482.391	800.000	-0.029	-0.083
-481.376	-32.363	-0.187	0.104
-480.362	-1.493	-0.162	0.114
-479.347	-177.882	0.054	-0.001
-478.332	58.906	-0.167	-0.163
-477.318	203.496	-0.151	0.232
-476.303	-138.835	-0.179	-0.019
-475.289	179.641	0.137	0.200
-474.274	30.286	0.068	0.058
-473.259	693.692	0.050	-0.131
-472.245	504.669	0.077	-0.177
-471.230	8.327	-0.186	0.139
-470.216	540.549	-0.023	-0.053
-469.201	223.834	0.196	-0.315
-468.186	34.206	-0.133	-0.115
-467.172	-86.540	0.221	0.068
-466.157	86.609	0.073	0.081
-465.143	-200.000	0.353	-0.001
-464.128	468.122	0.088	0.196
-463.113	-200.000	-0.055	-0.344
-462.099	-200.000	-0.026	-0.357
-461.084	-33.278	0.141	-0.078
-460.070	72.813	0.044	-0.046
-459.055	-13.188	0.206	-0.133
-458.040	-200.000	-0.031	0.152
-457.026	-25.436	0.193	0.114
-456.011	-200.000	0.042	0.334
-454.997	35.199	-0.263	-0.230
-453.982	-18.900	-0.241	0.149
-452.968	-18.808	-0.162	0.101
-451.953	-109.182	0.255	0.054
-450.938	-74.113	-0.219	-0.079
-449.924	-200.000	0.014	0.188
-448.909	-2.148	0.291	0.204
-447.895	725.260	-0.134	0.356
-446.880	93.359	-0.063	-0.071
-445.865	80.408	0.116	0.124
-444.851	-31.969	-0.377	0.210
-443.836	-54.267	0.150	-0.068
-442.822	322.498	0.165	0.314
-441.807	152.788	-0.098	-0.133
-440.792	50.826	-0.113	0.106
-439.778	175.492	0.135	-0.195
-438.763	-137.797	-0.312	0.035
-437.749	38.827	0.031	0.027
-436.734	-115.005	0.192	0.036
-435.719	124.958	0.209	-0.262
-434.705	-200.000	-0.009	0.216
-433.690	207.239	-0.136	-0.212
-432.676	36.726	0.335	0.294
-431.661	745.996	-0.089	0.239
-430.646	-200.000	-0.016	-0.108
-429.632	65.055	0.055	0.055
-428.617	-1.901	-0.161	-0.113
-427.603	-168.976	-0.124	0.005
-426.588	-200.000	0.030	0.250
-425.573	-53.025	0.179	-0.082
-424.559	129.493	0.083	0.106
-423.544	9.074	-0.151	-0.113
-422.530	-102.327	0.117	-0.028
-421.515	800.000	-0.066	-0.247
-420.500	-39.511	0.112	0.058
-419.486	-40.693	0.246	-0.127
-418.471	-91.450	0.165	-0.047
-417.457	-200.000	0.006	-0.134
-416.442	22.251	-0.299	0.243
-415.428	-91.952	0.295	-0.083
-414.413	-21.636	0.060	0.036
-413.398	94.406	-0.192	0.217
-412.384	-80.124	0.327	-0.109
-411.369	-200.000	0.041	-0.236
-410.355	-143.220	0.433	0.041
-409.340	-200.000	-0.039	0.217
-408.325	12.528	-0.118	-0.091
-407.311	56.381	0.149	0.144
-406.296	15.756	-0.080	0.062
-405.282	-200.000	0.013	-0.187
-404.267	-200.000	0.010	0.197
-403.252	288.945	0.033	-0.060
-402.238	9.917	-0.132	0.100
-401.223	-40.209	0.107	0.055
-400.209	-28.531	0.236	-0.135
-399.194	90.590	-0.043	0.047
-398.179	43.246	0.155	-0.141
-397.165	121.270	-0.170	-0.210
-396.150	-50.380	-0.242	-0.113
-395.136	514.817	-0.014	0.033
-394.121	-182.897	-0.244	0.004
-393.106	41.840	-0.207	0.186
-392.092	269.898	0.118	0.206
-391.077	-79.624	-0.215	0.072
-390.063	-200.000	0.064	-0.292
-389.048	46.976	0.173	0.160
-388.033	-81.473	0.168	0.055
-387.019	-3.350	-0.158	-0.109
-386.004	-132.098	0.073	-0.009
-384.990	8.791	0.445	0.333
-383.975	-159.054	0.108	-0.006
-382.960	-113.172	-0.127	-0.025
-381.946	800.000	0.063	0.177
-380.931	-121.563	-0.098	0.016
-379.917	-72.909	0.138	-0.050
-378.902	-64.377	-0.075	0.030
-377.888	-19.458	0.164	0.101
-376.873	-81.035	0.314	0.103
-375.858	14.237	-0.123	-0.095
-374.844	242.467	0.082	-0.136
-373.829	38.889	0.198	-0.175
-372.815	178.909	-0.100	0.145
-371.800	6.149	0.101	-0.074
-370.785	228.321	-0.199	-0.322
-369.771	-146.412	0.134	0.012
-368.756	46.666	0.095	0.087
-367.742	800.000	-0.096	0.401
-366.727	48.217	-0.507	0.471
-365.712	285.140	-0.082	-0.147
-364.698	82.588	0.199	-0.214
-363.683	45.230	0.075	-0.069
-362.669	144.689	0.044	0.058
-361.654	-200.000	0.011	0.210
-360.639	-163.089	0.350	-0.017
-359.625	-200.000	-0.043	0.300
-358.610	-61.874	-0.052	-0.022
-357.596	-115.828	0.044	0.008
-356.581	-3.455	-0.146	-0.101
-355.566	-91.899	0.194	0.054
-354.552	-161.276	0.426	-0.022
-353.537	800.000	0.018	0.060
-352.523	313.763	-0.127	-0.238
-351.508	800.000	0.032	-0.109
-350.493	-162.866	0.138	0.007
-349.479	64.709	0.280	0.280
-348.464	-200.000	0.005	0.043
-347.450	119.881	-0.037	-0.046
-346.435	800.000	0.003	0.010
-345.420	147.413	-0.089	0.119
-344.406	98.121	0.251	-0.286
-343.391	-121.349	0.080	-0.013
-342.377	116.530	-0.121	0.147
-341.362	74.766	0.191	-0.200
-340.348	-17.854	0.115	0.071
-339.333	78.203	0.183	0.194
-338.318	798.078	-0.123	0.337
-337.304	800.000	-0.064	0.232
-336.289	-200.000	0.357	0.001
-335.275	55.243	-0.279	0.267
-334.260	-200.000	-0.040	-0.178
-333.245	6.635	-0.212	0.156
-332.231	-200.000	-0.002	0.019
-331.216	80.857	-0.127	-0.136
-330.202	52.940	0.219	0.208
-329.187	-147.366	0.183	-0.015
-328.172	-200.000	0.024	-0.142
-327.158	-200.000	-0.029	-0.269
-326.143	-54.732	0.084	-0.038
-325.129	499.376	-0.051	-0.117
-324.114	-69.430	-0.075	-0.028
-323.099	101.914	0.096	0.111
-322.085	-200.000	-0.019	-0.322
-321.070	-61.109	-0.018	-0.007
-320.056	-134.547	0.375	0.045
-319.041	-78.075	-0.287	-0.098
-318.026	527.949	-0.063	0.148
-317.012	-179.128	-0.316	0.007
-315.997	-17.415	0.162	-0.101
-314.983	-200.000	0.148	0.696
-313.968	800.000	0.025	-0.089
-312.953	304.887	-0.116	0.212
-311.939	-200.000	0.005	0.344
-310.924	-200.000	0.007	0.103
-309.910	388.787	0.052	0.107
-308.895	-47.015	-0.194	-0.094
-307.880	800.000	0.016	0.055
-306.866	39.230	0.176	0.156
-305.851	-200.000	-0.025	0.161
-304.837	146.941	-0.110	0.146
-303.822	37.895	0.142	0.125
-302.807	134.830	0.078	-0.101
-301.793	-33.820	-0.040	0.022
-300.778	270.426	0.234	-0.407
-299.764	101.154	-0.142	0.164
-298.749	-126.389	0.133	0.020
-297.735	8.037	0.140	-0.104
-296.720	-165.089	0.345	0.015
-295.705	800.000	0.048	0.191
-294.691	-200.000	-0.018	0.183
-293.676	800.000	0.144	-0.463
-292.662	-200.000	0.025	-0.330
-291.647	-16.112	0.344	-0.216
-290.632	90.969	-0.156	0.173
-289.618	-28.667	-0.307	-0.175
-288.603	-200.000	-0.012	0.284
-287.589	77.899	0.177	0.186
-286.574	-143.618	-0.123	-0.012
-285.559	-77.578	-0.254	-0.087
-284.545	-80.577	-0.078	0.026
-283.530	-41.185	0.173	0.088
-282.516	-15.441	0.192	-0.121
-281.501	-170.699	0.369	-0.013
-280.486	-200.000	0.021	0.193
-279.472	800.000	-0.016	0.066
-278.457	120.329	0.328	-0.402
-277.443	-125.899	0.140	-0.021
-276.428	800.000	-0.048	0.167
-275.413	-200.000	0.037	0.213
-274.399	-32.375	0.258	0.142
-273.384	-83.250	0.167	-0.053
-272.370	52.602	-0.057	-0.053
-271.355	180.452	-0.047	-0.068
-270.340	800.000	-0.077	0.280
-269.326	-37.322	0.131	-0.069
-268.311	800.000	-0.028	-0.095
-267.297	800.000	-0.064	0.225
-266.282	52.232	-0.134	-0.127
-265.267	73.045	-0.291	-0.300
-264.253	-200.000	0.010	-0.359
-263.238	-26.189	-0.090	-0.052
-262.224	-54.080	0.101	-0.045
-261.209	-76.500	0.171	0.059
-260.195	-105.821	-0.353	-0.079
-259.180	-129.813	-0.462	-0.063
-258.165	43.930	0.150	0.135
-257.151	-200.000	-0.027	-0.158
-256.136	-27.544	-0.118	-0.068
-255.122	-34.314	-0.158	0.085
-254.107	-111.413	-0.324	0.065
-253.092	800.000	0.028	-0.114
-252.078	800.000	0.081	-0.310
-251.063	339.008	-0.097	-0.186
-250.049	-81.755	0.136	0.044
-249.034	800.000	0.076	0.209
-248.019	800.000	-0.024	0.086
-247.005	-200.000	-0.002	0.043
-245.990	140.054	-0.062	0.081
-244.976	-85.177	0.240	0.074
-243.961	163.836	-0.195	0.271
-242.946	102.550	-0.071	0.082
-241.932	92.683	-0.162	-0.180
-240.917	-81.966	-0.143	0.046
-239.903	102.413	-0.066	-0.076
-238.888	305.983	0.037	-0.067
-237.873	-120.769	0.323	0.054
-236.859	-107.753	-0.349	-0.075
-235.844	378.186	-0.068	-0.138
-234.830	69.413	0.082	0.083
-233.815	-200.000	-0.023	0.219
-232.800	-44.080	0.258	0.128
-231.786	195.898	0.033	0.049
-230.771	-63.667	0.059	-0.024
-229.757	186.304	0.118	-0.174
-228.742	-135.257	-0.437	-0.052
-227.727	-200.000	0.010	-0.175
-226.713	-119.468	0.221	-0.038
-225.698	63.106	0.137	0.135
-224.684	63.632	0.146	0.144
-223.669	80.281	0.264	-0.280
-222.655	40.536	-0.105	-0.093
-221.640	-162.224	-0.052	0.003
-220.625	-200.000	0.053	-0.233
-219.611	-46.375	0.484	0.235
-218.596	101.160	-0.053	0.061
-217.582	-80.277	-0.083	-0.027
-216.567	19.919	0.116	0.092
-215.552	-81.959	-0.196	0.063
-214.538	-50.349	-0.248	0.116
-213.523	-45.481	-0.233	-0.114
-212.509	-68.218	-0.196	0.075
-211.494	-7.722	0.152	0.101
-210.479	-200.000	-0.027	0.196
-209.465	-65.887	-0.440	-0.173
-208.450	-96.280	-0.033	-0.009
-207.436	800.000	-0.067	0.217
-206.421	-200.000	-0.039	0.295
-205.406	235.570	-0.089	0.145
-204.392	-120.890	-0.279	0.046
-203.377	7.263	-0.149	-0.110
-202.363	27.154	0.184	0.152
-201.348	385.629	0.129	0.263
-200.333	-200.000	-0.032	-0.184
-199.319	-98.993	-0.215	0.054
-198.304	-168.286	-0.113	0.004
-197.290	800.000	0.042	-0.152
-196.275	-125.043	-0.386	0.058
-195.260	13.323	-0.051	0.039
-194.246	-200.000	-0.013	0.149
-193.231	-89.998	0.290	-0.083
-192.217	-200.000	0.043	-0.258
-191.202	-53.919	-0.075	-0.034
-190.187	-102.123	0.221	-0.052
-189.173	800.000	-0.052	0.169
-188.158	-59.525	0.293	0.124
-187.144	-200.000	-0.007	-0.127
-186.129	-103.778	-0.211	0.049
-185.114	86.803	0.067	0.072
-184.100	-52.905	0.345	-0.157
-183.085	30.540	0.131	-0.110
-182.071	33.018	0.327	-0.279
-181.056	672.845	0.121	0.310
-180.042	-200.000	0.017	-0.098
-179.027	-33.830	0.192	-0.104
-178.012	-182.258	0.186	0.003
-176.998	-200.000	-0.002	-0.470
-175.983	-73.720	-0.186	-0.067
-174.969	-179.471	0.396	-0.009
-173.954	24.288	0.096	0.078
-172.939	28.595	0.063	-0.053
-171.925	256.962	0.084	0.142
-170.910	205.369	-0.049	0.075
-169.896	-200.000	0.031	-0.145
-168.881	-159.870	-0.034	0.002
-167.866	-200.000	-0.013	-0.170
-166.852	82.414	-0.068	0.072
-165.837	800.000	-0.016	0.055
-164.823	-200.000	0.013	-0.066
-163.808	128.184	-0.177	-0.222
-162.793	-15.976	0.132	0.083
-161.779	800.000	0.032	-0.106
-160.764	43.502	-0.037	0.033
-159.750	118.496	0.198	0.241
-158.735	56.498	-0.094	-0.090
-157.720	-29.699	-0.054	-0.031
-156.706	546.767	-0.023	0.054
-155.691	-200.000	-0.012	0.104
-154.677	43.940	0.211	-0.190
-153.662	65.869	0.132	0.132
-152.647	23.130	0.134	0.108
-151.633	210.855	-0.153	-0.237
-150.618	42.813	0.132	-0.118
-149.604	-103.568	0.298	0.069
-148.589	-200.000	-0.032	-0.210
-147.574	-200.000	-0.047	0.248
-146.560	-90.576	0.260	-0.074
-145.545	-200.000	-0.043	-0.238
-144.531	-191.086	0.243	-0.002
-143.516	-100.582	0.192	-0.047
-142.502	-200.000	-0.007	-0.095
-141.487	66.774	0.284	0.284
-140.472	800.000	-0.034	-0.101
-139.458	-79.959	-0.268	0.089
-138.443	368.869	0.085	-0.169
-137.429	-200.000	-0.030	-0.198
-136.414	658.101	-0.123	0.311
-135.399	-80.393	0.041	0.013
-134.385	-61.117	0.168	0.070
-133.370	264.444	-0.032	-0.055
-132.356	800.000	-0.077	-0.234
-131.341	-33.314	-0.222	-0.121
-130.326	-200.000	-0.029	0.160
-129.312	-19.399	0.241	0.147
-128.297	-116.954	-0.425	0.076
-127.283	800.000	-0.038	-0.107
-126.268	-200.000	-0.092	-0.537
-125.253	-66.617	0.033	-0.013
-124.239	247.840	0.093	0.155
-123.224	161.720	-0.078	0.108
-122.210	-46.138	0.103	0.050
-121.195	-29.704	0.150	-0.084
