DTS Sentinel unit serial number:	SN413079Multiplexer serial number:	ORYXHardware model number:	OX4-SRSoftware version number:	ORYX F/W v4.00 Oryx Data Collector v3.7.2.0data status	okinstallation	princeton_trtdifferential loss correction	single-endedforward channel	channel 2reverse channel	N/Adate	2019/09/11time	02:57:11forward acquisition time	60.00reverse acquisition time	0.00gamma	496.2192k internal	0.2331k external	0.2331temperature offset calibration	0.9941default loss term (dB/km)	0.3790temperature slope calibration	1.0000multiplexer offset coefficient	1.0000multiplexer slope coefficient	1.0000fibre end	0.00T internal ref (°C)	29.27T ext. ref 1 (°C)	-0.29T ext. ref 2 (°C)	23.85length (m)	temperature (°C)	Stokes	anti-Stokes-747.200	-97.429	0.197	0.052
-746.185	14.311	-0.167	0.131
-745.171	169.775	0.051	-0.073
-744.156	163.957	-0.137	0.194
-743.142	-200.000	0.010	-0.211
-742.127	-96.208	0.367	-0.098
-741.112	-16.639	0.085	-0.054
-740.098	-161.369	-0.305	-0.016
-739.083	301.172	-0.145	0.269
-738.069	-200.000	0.158	0.001
-737.054	-200.000	0.025	-0.146
-736.039	800.000	-0.032	0.137
-735.025	131.053	-0.163	0.210
-734.010	-129.244	-0.355	0.050
-732.996	-120.063	0.111	0.019
-731.981	-125.420	-0.342	-0.052
-730.966	-1.687	0.238	0.169
-729.952	-28.249	-0.172	-0.100
-728.937	14.501	0.179	0.141
-727.923	32.307	-0.281	-0.244
-726.908	55.867	0.043	-0.042
-725.894	-200.000	-0.019	-0.267
-724.879	-200.000	-0.004	-0.245
-723.864	-200.000	-0.020	0.120
-722.850	-7.128	0.159	-0.109
-721.835	-18.339	-0.013	-0.008
-720.821	182.529	-0.027	-0.040
-719.806	-33.054	-0.150	-0.084
-718.791	-20.389	-0.240	-0.149
-717.777	-200.000	-0.005	0.139
-716.762	-102.886	0.220	0.053
-715.748	351.664	-0.171	-0.340
-714.733	-64.337	-0.075	-0.031
-713.718	42.905	-0.123	0.113
-712.704	-92.389	0.197	-0.056
-711.689	-118.181	0.354	-0.063
-710.675	800.000	-0.051	-0.150
-709.660	51.787	0.105	-0.100
-708.645	-200.000	-0.256	0.001
-707.631	-82.192	0.163	0.053
-706.616	359.741	-0.074	-0.149
-705.602	57.527	0.148	0.145
-704.587	800.000	0.112	0.372
-703.572	106.125	0.139	0.165
-702.558	-164.454	-0.086	-0.004
-701.543	33.883	-0.113	-0.098
-700.529	-142.994	-0.438	0.043
-699.514	586.755	0.103	0.254
-698.499	-200.000	0.028	-0.178
-697.485	-200.000	-0.023	-0.163
-696.470	-25.521	0.099	-0.059
-695.456	57.597	-0.042	-0.041
-694.441	-200.000	-0.447	-0.002
-693.426	-55.770	-0.217	0.097
-692.412	-66.714	0.230	-0.091
-691.397	800.000	-0.148	0.436
-690.383	21.009	-0.136	-0.110
-689.368	-68.954	0.263	-0.102
-688.354	-128.332	-0.087	0.012
-687.339	-83.827	0.238	0.076
-686.324	-32.604	0.047	-0.026
-685.310	-113.214	0.437	-0.086
-684.295	677.977	-0.103	-0.270
-683.281	-18.646	-0.121	-0.076
-682.266	-200.000	0.028	0.332
-681.251	-129.273	0.346	-0.048
-680.237	-54.437	-0.211	0.096
-679.222	-179.545	0.217	-0.005
-678.208	800.000	-0.011	0.037
-677.193	-200.000	-0.069	0.531
-676.178	153.059	0.103	0.141
-675.164	-123.385	-0.302	0.048
-674.149	-50.790	-0.223	0.105
-673.135	68.843	0.165	-0.170
-672.120	256.322	-0.163	-0.281
-671.105	800.000	-0.128	-0.357
-670.091	-200.000	-0.008	-0.150
-669.076	139.038	-0.070	0.092
-668.062	800.000	0.080	0.277
-667.047	5.500	-0.194	-0.143
-666.032	-21.949	-0.306	-0.187
-665.018	-41.592	0.457	-0.236
-664.003	207.221	-0.070	0.109
-662.989	-127.778	-0.350	0.051
-661.974	-200.000	0.048	-0.234
-660.959	2.704	0.039	-0.028
-659.945	94.001	-0.163	-0.185
-658.930	800.000	0.069	-0.207
-657.916	-32.423	0.220	-0.123
-656.901	-44.531	-0.174	0.087
-655.886	163.506	-0.252	-0.355
-654.872	-200.000	-0.275	0.001
-653.857	-183.152	0.086	0.002
-652.843	800.000	0.043	0.147
-651.828	-47.286	-0.062	0.030
-650.814	-163.513	0.461	0.022
-649.799	-102.739	0.193	0.046
-648.784	-45.000	0.261	-0.130
-647.770	800.000	-0.079	0.234
-646.755	79.402	0.164	-0.176
-645.741	-75.901	0.124	-0.044
-644.726	188.919	-0.043	-0.064
-643.711	-176.393	-0.190	0.005
-642.697	131.915	-0.184	-0.237
-641.682	-128.361	-0.125	-0.018
-640.668	800.000	0.097	-0.378
-639.653	718.650	-0.026	0.070
-638.638	-153.486	0.186	0.013
-637.624	-185.392	0.080	0.001
-636.609	464.926	0.064	-0.143
-635.595	133.045	-0.104	0.135
-634.580	-98.890	0.178	-0.045
-633.565	351.490	-0.072	-0.143
-632.551	-67.794	0.356	-0.140
-631.536	-68.249	-0.171	0.067
-630.522	800.000	-0.087	0.267
-629.507	235.571	-0.162	-0.268
-628.492	252.009	-0.073	0.125
-627.478	-121.545	-0.196	0.033
-626.463	-123.340	0.247	0.039
-625.449	-80.763	-0.266	0.089
-624.434	-200.000	-0.029	-0.166
-623.419	-100.721	-0.354	0.087
-622.405	-68.480	-0.140	-0.055
-621.390	174.040	-0.144	-0.209
-620.376	99.699	-0.104	-0.120
-619.361	0.647	0.147	0.105
-618.346	-148.542	-0.464	0.038
-617.332	800.000	0.030	-0.088
-616.317	510.933	0.036	0.085
-615.303	-122.481	-0.236	-0.039
-614.288	7.067	0.171	0.128
-613.273	-200.000	-0.008	-0.075
-612.259	-84.627	-0.104	0.033
-611.244	-117.288	0.248	-0.045
-610.230	151.453	0.133	0.182
-609.215	724.334	-0.120	-0.321
-608.201	-48.237	0.262	-0.126
-607.186	-69.400	-0.512	0.197
-606.171	-31.937	-0.121	-0.068
-605.157	148.808	0.150	0.203
-604.142	800.000	0.103	0.316
-603.128	-200.000	-0.001	0.062
-602.113	-200.000	0.018	0.110
-601.098	800.000	-0.044	0.146
-600.084	-93.583	0.100	0.028
-599.069	-68.759	0.243	0.094
-598.055	266.584	-0.094	0.164
-597.040	-65.790	0.088	0.035
-596.025	47.622	-0.069	-0.065
-595.011	558.832	0.041	-0.100
-593.996	-200.000	-0.023	-0.324
-592.982	-136.166	-0.138	-0.016
-591.967	213.969	-0.224	-0.354
-590.952	800.000	0.093	-0.257
-589.938	800.000	0.109	-0.364
-588.923	230.516	0.023	-0.037
-587.909	145.511	0.139	0.186
-586.894	171.758	-0.051	0.073
-585.879	382.938	-0.082	0.168
-584.865	-154.218	0.363	0.025
-583.850	66.163	-0.191	0.194
-582.836	17.092	0.200	-0.158
-581.821	52.079	-0.120	-0.115
-580.806	-34.976	0.271	-0.148
-579.792	-79.686	0.237	0.080
-578.777	-154.838	0.257	-0.017
-577.763	-60.481	-0.222	-0.094
-576.748	60.780	-0.286	-0.284
-575.733	-200.000	0.045	-0.362
-574.719	-27.924	-0.107	0.062
-573.704	253.455	0.133	-0.227
-572.690	90.247	0.366	0.409
-571.675	82.938	-0.095	-0.103
-570.661	-200.000	-0.039	-0.391
-569.646	22.012	-0.103	-0.084
-568.631	412.128	-0.092	0.196
-567.617	184.473	0.127	-0.188
-566.602	-60.356	0.082	0.035
-565.588	-100.082	-0.126	0.031
-564.573	-200.000	-0.007	0.066
-563.558	28.827	-0.236	-0.200
-562.544	79.241	-0.249	-0.267
-561.529	395.359	-0.057	0.119
-560.515	28.663	-0.083	-0.070
-559.500	800.000	0.015	0.059
-558.485	-102.895	0.318	-0.076
-557.471	-102.333	-0.124	0.030
-556.456	75.815	-0.096	-0.102
-555.442	329.714	-0.168	0.324
-554.427	127.588	0.167	-0.212
-553.412	220.972	-0.098	-0.157
-552.398	8.910	-0.217	0.163
-551.383	314.669	-0.094	-0.178
-550.369	-200.000	0.031	0.217
-549.354	-186.933	-0.075	-0.001
-548.339	190.674	0.150	-0.225
-547.325	-127.151	0.084	-0.012
-546.310	-155.638	-0.410	0.026
-545.296	800.000	0.057	-0.197
-544.281	-11.886	0.063	0.041
-543.266	280.667	0.025	0.046
-542.252	800.000	0.054	0.228
-541.237	147.083	-0.061	-0.082
-540.223	-10.582	-0.152	-0.101
-539.208	-43.978	0.125	-0.063
-538.193	-64.374	-0.159	-0.064
-537.179	110.593	0.116	-0.139
-536.164	800.000	0.049	-0.210
-535.150	-107.638	0.194	-0.042
-534.135	313.397	0.016	-0.029
-533.121	-200.000	-0.005	0.087
-532.106	-37.899	-0.264	0.140
-531.091	382.687	-0.067	0.137
-530.077	338.981	0.030	0.059
-529.062	-95.862	0.091	0.024
-528.048	-200.000	0.021	-0.240
-527.033	-200.000	-0.022	-0.144
-526.018	27.707	0.117	-0.098
-525.004	-84.221	0.211	-0.067
-523.989	-81.768	0.373	0.122
-522.975	-200.000	0.011	0.271
-521.960	162.013	-0.199	0.278
-520.945	-35.582	-0.227	0.123
-519.931	-158.599	0.265	-0.015
-518.916	326.310	-0.059	0.112
-517.902	63.635	-0.217	-0.218
-516.887	800.000	-0.073	-0.203
-515.872	-40.375	0.175	0.091
-514.858	800.000	0.009	-0.029
-513.843	800.000	0.056	0.221
-512.829	60.361	0.229	0.226
-511.814	-21.392	0.421	0.256
-510.799	-54.890	-0.249	-0.112
-509.785	8.860	0.280	-0.211
-508.770	-64.386	-0.088	-0.036
-507.756	-78.642	0.419	-0.143
-506.741	-50.944	-0.249	0.117
-505.726	467.376	0.216	0.482
-504.712	294.582	-0.129	0.234
-503.697	-200.000	0.059	0.260
-502.683	288.352	-0.108	-0.196
-501.668	103.821	-0.191	0.224
-500.653	-57.523	-0.099	0.043
-499.639	-200.000	0.055	-0.283
-498.624	-111.996	-0.244	0.049
-497.610	-10.605	-0.147	-0.097
-496.595	-74.071	-0.218	-0.079
-495.581	-200.000	0.008	0.472
-494.566	-149.078	0.050	-0.004
-493.551	-71.550	-0.223	-0.083
-492.537	-200.000	-0.243	0.001
-491.522	-16.638	-0.274	0.173
-490.508	-138.122	0.454	0.050
-489.493	-200.000	0.036	0.319
-488.478	27.146	0.434	0.363
-487.464	155.028	-0.209	0.286
-486.449	557.685	-0.084	0.201
-485.435	406.036	-0.089	0.188
-484.420	800.000	-0.030	0.104
-483.405	22.985	0.208	-0.170
-482.391	-200.000	-0.017	-0.178
-481.376	-109.602	0.188	-0.040
-480.362	800.000	0.043	-0.163
-479.347	7.754	-0.157	0.117
-478.332	800.000	0.047	-0.143
-477.318	10.784	0.064	0.049
-476.303	62.349	-0.083	-0.083
-475.289	-200.000	0.017	-0.111
-474.274	-182.498	-0.186	0.003
-473.259	227.486	0.109	-0.177
-472.245	-95.973	0.284	-0.075
-471.230	19.929	-0.196	0.157
-470.216	-72.242	0.214	0.079
-469.201	-51.402	-0.163	-0.076
-468.186	26.040	-0.274	0.227
-467.172	-93.930	0.238	-0.065
-466.157	347.112	-0.053	-0.104
-465.143	-165.942	0.109	0.005
-464.128	23.216	-0.174	-0.142
-463.113	-200.000	0.057	-0.341
-462.099	-130.047	-0.215	-0.029
-461.084	643.697	0.039	-0.099
-460.070	-200.000	-0.034	-0.282
-459.055	533.121	0.127	-0.299
-458.040	-127.365	-0.090	-0.013
-457.026	123.752	0.051	-0.064
-456.011	800.000	0.111	0.376
-454.997	84.829	0.134	0.146
-453.982	102.363	-0.138	0.160
-452.968	5.676	-0.109	0.080
-451.953	-124.938	-0.158	0.024
-450.938	118.682	-0.028	0.034
-449.924	-161.605	-0.087	-0.004
-448.909	-120.824	-0.234	0.039
-447.895	-115.230	0.156	-0.029
-446.880	-106.058	-0.267	-0.060
-445.865	-200.000	0.093	0.468
-444.851	-200.000	-0.062	-0.387
-443.836	-200.000	-0.032	0.256
-442.822	182.302	-0.134	0.196
-441.807	-12.639	-0.247	-0.160
-440.792	-200.000	0.042	-0.308
-439.778	57.826	0.204	0.198
-438.763	-112.221	-0.210	0.042
-437.749	226.049	-0.148	0.238
-436.734	-165.800	0.105	0.004
-435.719	114.824	-0.203	-0.246
-434.705	39.020	0.036	-0.032
-433.690	-200.000	0.031	0.311
-432.676	-121.794	0.414	-0.068
-431.661	-17.760	-0.123	0.077
-430.646	800.000	0.071	0.252
-429.632	-148.649	-0.262	-0.021
-428.617	-168.679	-0.210	0.008
-427.603	216.608	0.176	-0.278
-426.588	224.449	-0.039	-0.062
-425.573	-129.637	0.254	-0.035
-424.559	168.428	-0.221	-0.313
-423.544	-200.000	0.010	-0.048
-422.530	173.227	0.199	-0.285
-421.515	292.699	0.105	0.190
-420.500	259.058	0.136	0.233
-419.486	170.663	-0.285	0.406
-418.471	-117.055	0.115	0.021
-417.457	20.905	0.172	-0.139
-416.442	92.403	-0.065	-0.072
-415.428	-200.000	0.029	-0.178
-414.413	-90.766	-0.446	-0.128
-413.398	37.519	-0.015	-0.013
-412.384	113.075	-0.096	0.116
-411.369	711.376	0.087	0.229
-410.355	-59.803	-0.056	0.024
-409.340	-165.270	0.183	0.008
-408.325	-185.042	-0.311	-0.005
-407.311	261.919	0.088	0.152
-406.296	-108.154	0.261	-0.056
-405.282	-22.974	-0.094	0.056
-404.267	-200.000	0.001	-0.471
-403.252	105.135	-0.139	-0.163
-402.238	78.213	0.183	-0.193
-401.223	69.650	-0.069	0.070
-400.209	-110.285	0.227	0.047
-399.194	120.159	-0.094	0.116
-398.179	157.694	0.055	-0.076
-397.165	-200.000	-0.011	-0.109
-396.150	120.140	0.227	-0.280
-395.136	698.419	0.048	-0.126
-394.121	-60.936	0.047	-0.020
-393.106	800.000	0.036	-0.106
-392.092	-79.986	-0.027	-0.009
-391.077	-114.724	-0.095	-0.018
-390.063	-93.218	0.168	0.046
-389.048	450.418	0.005	0.011
-388.033	291.015	0.136	0.245
-387.019	167.974	-0.131	0.185
-386.004	-166.397	0.188	-0.008
-384.990	-64.890	0.221	-0.089
-383.975	621.076	0.055	0.138
-382.960	-3.531	-0.183	0.126
-381.946	48.974	-0.291	0.271
-380.931	-200.000	0.036	0.177
-379.917	-200.000	0.053	0.323
-378.902	800.000	-0.074	0.293
-377.888	357.993	0.014	-0.028
-376.873	66.489	0.174	0.175
-375.858	-146.890	0.102	-0.009
-374.844	317.000	-0.044	0.083
-373.829	800.000	-0.023	0.073
-372.815	-129.865	-0.022	-0.003
-371.800	12.595	-0.147	0.112
-370.785	-42.483	-0.143	-0.072
-369.771	-31.059	-0.102	-0.057
-368.756	-160.154	0.171	-0.009
-367.742	358.699	0.039	-0.078
-366.727	287.821	0.041	0.073
-365.712	219.907	-0.126	-0.200
-364.698	-169.435	0.290	-0.011
-363.683	800.000	-0.116	-0.498
-362.669	489.476	-0.024	-0.054
-361.654	606.558	0.138	-0.341
-360.639	69.438	-0.049	0.050
-359.625	-200.000	-0.054	0.433
-358.610	-94.904	0.165	0.044
-357.596	-58.185	0.232	-0.100
-356.581	-200.000	-0.037	-0.240
-355.566	285.213	0.186	0.332
-354.552	756.363	0.042	-0.112
-353.537	355.580	-0.058	-0.115
-352.523	800.000	-0.005	-0.014
-351.508	-200.000	-0.058	0.255
-350.493	-21.497	0.148	-0.089
-349.479	800.000	0.048	-0.174
-348.464	83.739	-0.097	-0.104
-347.450	-52.654	0.409	-0.187
-346.435	-60.532	0.107	0.045
-345.420	-92.374	0.305	0.085
-344.406	-42.896	-0.068	-0.034
-343.391	52.410	0.164	-0.155
-342.377	17.606	-0.126	-0.099
-341.362	-64.415	0.202	0.081
-340.348	35.733	0.113	-0.099
-339.333	30.857	0.261	0.222
-338.318	-75.066	-0.320	-0.113
-337.304	-200.000	-0.028	0.292
-336.289	-59.668	0.444	-0.188
-335.275	81.507	0.106	-0.114
-334.260	125.742	0.134	0.168
-333.245	280.171	-0.058	0.103
-332.231	0.762	0.284	0.202
-331.216	800.000	0.050	0.178
-330.202	-200.000	-0.007	0.545
-329.187	8.983	-0.255	0.191
-328.172	-83.415	0.015	0.005
-327.158	800.000	0.037	0.113
-326.143	-200.000	0.019	0.143
-325.129	84.026	-0.189	-0.204
-324.114	362.378	-0.074	0.147
-323.099	800.000	-0.077	0.282
-322.085	-93.002	0.309	-0.085
-321.070	-200.000	-0.020	-0.209
-320.056	-200.000	-0.014	0.091
-319.041	-200.000	-0.061	-0.286
-318.026	500.044	0.098	-0.224
-317.012	-200.000	-0.037	-0.375
-315.997	-60.365	-0.093	0.039
-314.983	-200.000	-0.025	0.162
-313.968	170.058	0.157	-0.222
-312.953	596.412	0.035	0.087
-311.939	-200.000	-0.065	-0.342
-310.924	39.557	0.198	-0.176
-309.910	422.936	-0.129	0.275
-308.895	31.720	-0.274	0.233
-307.880	-112.137	0.379	0.075
-306.866	-112.710	-0.330	-0.065
-305.851	389.385	-0.127	-0.260
-304.837	-200.000	0.038	0.244
-303.822	66.113	0.076	0.077
-302.807	800.000	0.133	0.392
-301.793	137.788	-0.175	0.227
-300.778	-106.303	-0.348	0.077
-299.764	53.440	0.187	-0.177
-298.749	165.613	-0.115	-0.161
-297.735	300.714	-0.101	-0.185
-296.720	28.562	0.183	-0.153
-295.705	800.000	0.025	-0.082
-294.691	-46.745	-0.242	-0.117
-293.676	800.000	-0.056	-0.187
-292.662	-126.005	-0.476	0.071
-291.647	34.583	0.126	0.109
-290.632	-108.104	-0.256	-0.055
-289.618	-28.605	0.207	0.118
-288.603	112.000	0.285	0.341
-287.589	202.438	0.171	0.262
-286.574	-187.713	0.094	0.001
-285.559	445.372	-0.050	0.108
-284.545	-32.520	0.151	0.083
-283.530	-63.625	-0.100	-0.040
-282.516	-36.521	-0.330	-0.175
-281.501	95.949	0.170	0.192
-280.486	192.756	0.231	0.344
-279.472	-138.441	-0.376	-0.041
-278.457	-119.572	-0.268	0.046
-277.443	-200.000	-0.025	0.186
-276.428	-117.643	-0.133	0.024
-275.413	158.836	-0.134	0.184
-274.399	-70.568	-0.337	-0.126
-273.384	-160.951	-0.117	0.006
-272.370	-14.608	-0.358	0.227
-271.355	161.188	0.037	0.051
-270.340	202.523	-0.049	-0.075
-269.326	249.242	-0.110	-0.184
-268.311	-200.000	-0.030	0.194
-267.297	54.575	-0.063	-0.060
-266.282	165.222	0.134	-0.187
-265.267	469.413	-0.072	-0.159
-264.253	-78.302	0.046	-0.016
-263.238	800.000	-0.048	0.203
-262.224	23.533	0.230	0.187
-261.209	343.070	-0.116	0.225
-260.195	-90.908	0.465	0.132
-259.180	358.866	0.139	0.274
-258.165	-19.316	0.193	-0.118
-257.151	714.234	-0.038	0.099
-256.136	140.339	-0.209	-0.273
-255.122	-200.000	-0.094	-0.434
-254.107	-200.000	-0.003	-0.107
-253.092	800.000	0.058	0.238
-252.078	21.072	0.173	0.139
-251.063	-28.025	-0.209	-0.119
-250.049	-106.147	0.144	-0.032
-249.034	-200.000	-0.007	-0.373
-248.019	800.000	-0.019	-0.060
-247.005	363.866	-0.033	0.065
-245.990	61.346	0.379	-0.372
-244.976	-111.753	0.240	0.048
-243.961	729.081	0.145	0.381
-242.946	800.000	0.107	-0.385
-241.932	-200.000	-0.046	0.397
-240.917	-141.317	0.090	0.009
-239.903	46.446	0.180	0.165
-238.888	103.152	-0.058	0.067
-237.873	70.156	-0.220	0.224
-236.859	-97.711	-0.445	0.114
-235.844	-78.908	0.191	-0.064
-234.830	176.810	-0.039	0.057
-233.815	-200.000	-0.048	0.391
-232.800	-200.000	0.014	0.095
-231.786	-152.697	-0.165	0.012
-230.771	-154.397	-0.325	-0.022
-229.757	-149.609	-0.041	0.003
-228.742	-68.705	0.246	-0.094
-227.727	800.000	-0.065	-0.267
-226.713	-21.139	0.158	-0.095
-225.698	-35.471	-0.088	0.047
-224.684	426.664	0.058	0.123
-223.669	59.139	0.215	0.209
-222.655	-146.757	0.200	0.017
-221.640	-134.938	0.773	-0.092
-220.625	22.040	-0.192	0.155
-219.611	-90.008	-0.216	-0.062
-218.596	31.547	-0.056	-0.047
-217.582	-200.000	-0.020	-0.254
-216.567	-150.172	0.161	-0.012
-215.552	-79.790	-0.440	-0.146
-214.538	-200.000	0.067	0.445
-213.523	-26.372	-0.356	-0.206
-212.509	-98.137	0.368	-0.093
-211.494	800.000	0.068	0.189
-210.479	-78.680	0.426	0.143
-209.465	24.958	0.063	0.051
-208.450	-200.000	0.030	0.136
-207.436	800.000	-0.019	-0.079
-206.421	746.066	0.100	-0.266
-205.406	605.342	-0.035	-0.087
-204.392	-151.328	-0.042	0.003
-203.377	800.000	-0.059	0.197
-202.363	-89.807	-0.208	0.060
-201.348	-200.000	-0.043	-0.275
-200.333	212.028	0.074	0.115
-199.319	-200.000	0.024	-0.395
-198.304	-200.000	0.031	-0.335
-197.290	-200.000	-0.004	-0.345
-196.275	-176.499	0.228	-0.006
-195.260	-145.695	0.100	0.009
-194.246	64.443	0.138	0.137
-193.231	-185.425	-0.273	-0.004
-192.217	190.309	-0.099	-0.146
-191.202	12.351	0.212	-0.161
-190.187	63.886	0.191	-0.189
-189.173	86.709	-0.146	-0.159
-188.158	-200.000	0.332	-0.001
-187.144	89.493	0.257	0.282
-186.129	219.219	0.127	-0.200
-185.114	-13.293	-0.163	-0.104
-184.100	71.865	-0.239	-0.245
-183.085	-115.532	0.113	-0.021
-182.071	148.519	-0.278	0.370
-181.056	395.738	0.074	-0.151
-180.042	-51.747	-0.022	0.010
-179.027	-200.000	-0.028	0.202
-178.012	800.000	0.126	-0.414
-176.998	-56.778	-0.254	-0.111
-175.983	-120.018	-0.193	-0.033
-174.969	-39.647	-0.104	-0.054
-173.954	175.510	-0.194	-0.276
-172.939	71.607	0.144	-0.148
-171.925	374.343	-0.098	-0.197
-170.910	-6.233	0.099	-0.066
-169.896	33.442	-0.084	-0.072
-168.881	-73.590	0.241	0.086
-167.866	32.034	-0.058	0.049
-166.852	-20.035	0.234	0.142
-165.837	2.399	-0.113	-0.080
-164.823	269.629	-0.018	0.030
-163.808	800.000	0.080	0.304
-162.793	-74.987	-0.137	-0.048
-161.779	800.000	-0.032	-0.120
-160.764	252.788	-0.138	0.231
-159.750	656.804	-0.140	0.353
-158.735	-155.514	-0.288	0.018
-157.720	-99.443	0.288	0.071
-156.706	-200.000	0.024	-0.113
-155.691	54.824	-0.369	-0.350
-154.677	22.483	-0.097	0.078
-153.662	-26.817	0.344	0.198
-152.647	-70.518	-0.237	0.088
-151.633	-97.530	-0.245	-0.063
-150.618	-17.733	-0.106	0.066
-149.604	-170.795	0.237	-0.008
-148.589	-65.898	-0.315	0.124
-147.574	55.703	-0.356	0.339
-146.560	150.595	-0.178	0.238
-145.545	61.051	0.073	-0.071
-144.531	611.134	-0.065	-0.159
-143.516	386.149	0.092	0.186
-142.502	800.000	0.070	0.281
-141.487	-58.692	-0.357	-0.152
-140.472	-200.000	0.069	0.377
-139.458	343.344	0.138	0.265
-138.443	-169.347	0.083	0.003
-137.429	-147.958	-0.288	0.024
-136.414	6.924	0.229	0.168
-135.399	291.268	-0.197	-0.353
-134.385	-61.361	0.196	0.081
-133.370	588.671	-0.040	0.098
-132.356	-200.000	0.004	-0.356
-131.341	-91.257	0.265	-0.075
-130.326	227.382	-0.003	0.005
-129.312	800.000	0.041	0.156
-128.297	800.000	0.039	0.140
-127.283	-138.909	0.269	0.029
-126.268	-59.950	0.094	-0.039
-125.253	-157.798	0.313	0.018
-124.239	249.808	0.273	-0.454
-123.224	-5.820	0.258	0.173
-122.210	-162.298	-0.219	0.011
