DTS Sentinel unit serial number:	SN413079Multiplexer serial number:	ORYXHardware model number:	OX4-SRSoftware version number:	ORYX F/W v4.00 Oryx Data Collector v3.7.2.0data status	okinstallation	princeton_trtdifferential loss correction	single-endedforward channel	channel 2reverse channel	N/Adate	2019/09/12time	01:53:11forward acquisition time	60.00reverse acquisition time	0.00gamma	496.2192k internal	0.2326k external	0.2326temperature offset calibration	1.0088default loss term (dB/km)	0.3790temperature slope calibration	1.0000multiplexer offset coefficient	1.0000multiplexer slope coefficient	1.0000fibre end	0.00T internal ref (°C)	32.81T ext. ref 1 (°C)	2.05T ext. ref 2 (°C)	27.35length (m)	temperature (°C)	Stokes	anti-Stokes-747.200	-51.376	-0.122	-0.057
-746.185	-47.557	-0.375	-0.184
-745.171	-21.205	-0.319	-0.197
-744.156	-200.000	0.012	0.206
-743.142	-18.933	-0.163	0.102
-742.127	-200.000	0.009	0.148
-741.112	800.000	0.047	0.139
-740.098	36.313	-0.217	0.193
-739.083	-177.992	-0.268	0.006
-738.069	-200.000	0.021	0.169
-737.054	88.493	-0.074	-0.083
-736.039	241.474	-0.257	-0.433
-735.025	-200.000	0.020	-0.113
-734.010	-164.897	-0.259	0.012
-732.996	71.320	-0.174	-0.182
-731.981	183.711	-0.170	-0.254
-730.966	-66.603	-0.128	0.051
-729.952	-37.529	-0.175	0.094
-728.937	-97.427	-0.169	-0.044
-727.923	-200.000	-0.053	0.324
-726.908	-85.043	-0.326	0.103
-725.894	562.046	0.168	-0.409
-724.879	81.972	-0.131	-0.143
-723.864	167.981	0.226	0.324
-722.850	360.728	-0.052	0.104
-721.835	-39.695	-0.342	-0.180
-720.821	293.319	0.018	-0.033
-719.806	800.000	-0.133	0.558
-718.791	764.322	0.011	0.030
-717.777	-71.448	0.265	0.100
-716.762	-23.244	-0.156	-0.095
-715.748	-46.678	-0.320	-0.158
-714.733	-102.486	0.084	-0.020
-713.718	-19.706	0.188	-0.117
-712.704	800.000	-0.083	-0.262
-711.689	34.624	-0.320	-0.281
-710.675	-2.862	0.015	0.010
-709.660	-62.172	-0.152	0.064
-708.645	-101.409	0.139	0.034
-707.631	3.045	-0.283	-0.207
-706.616	337.882	-0.077	-0.152
-705.602	128.654	0.309	0.397
-704.587	-111.684	-0.187	0.038
-703.572	-111.685	0.367	0.075
-702.558	-200.000	-0.060	-0.412
-701.543	-200.000	-0.130	0.657
-700.529	-112.731	0.098	-0.020
-699.514	800.000	-0.078	-0.257
-698.499	-53.634	-0.163	0.075
-697.485	-72.921	-0.447	-0.165
-696.470	55.683	0.153	0.149
-695.456	-24.612	-0.300	-0.179
-694.441	666.699	0.068	0.176
-693.426	-64.279	-0.062	-0.026
-692.412	26.220	0.306	0.257
-691.397	13.076	0.316	-0.246
-690.383	-9.152	-0.062	0.042
-689.368	800.000	-0.041	0.140
-688.354	95.227	0.143	-0.165
-687.339	-127.728	-0.194	-0.028
-686.324	455.054	-0.130	-0.290
-685.310	-66.145	0.061	-0.024
-684.295	-200.000	0.052	-0.291
-683.281	113.644	-0.309	0.377
-682.266	-86.186	-0.147	-0.046
-681.251	7.080	-0.156	-0.117
-680.237	-143.106	0.100	0.010
-679.222	635.850	0.082	0.210
-678.208	-200.000	0.027	-0.235
-677.193	-163.061	-0.116	-0.006
-676.178	-94.592	-0.145	0.040
-675.164	-50.804	0.098	0.046
-674.149	-200.000	0.014	-0.085
-673.135	30.156	-0.337	0.290
-672.120	-200.000	-0.044	-0.257
-671.105	265.712	-0.131	-0.230
-670.091	800.000	0.061	0.180
-669.076	469.665	-0.060	0.136
-668.062	22.038	-0.159	0.131
-667.047	69.641	-0.364	0.378
-666.032	213.793	-0.026	-0.042
-665.018	-200.000	0.004	-0.058
-664.003	-76.942	0.243	0.085
-662.989	-119.824	-0.231	-0.040
-661.974	-200.000	0.006	-0.285
-660.959	-109.137	-0.315	-0.067
-659.945	447.866	-0.061	0.136
-658.930	-200.000	0.006	-0.118
-657.916	-200.000	-0.025	0.318
-656.901	118.195	0.033	0.041
-655.886	13.452	0.146	-0.114
-654.872	-200.000	0.003	-0.270
-653.857	-200.000	0.084	-0.390
-652.843	219.376	0.062	0.099
-651.828	-200.000	0.019	-0.297
-650.814	292.383	0.084	0.154
-649.799	463.043	-0.149	-0.335
-648.784	183.991	0.053	-0.079
-647.770	490.470	0.127	0.293
-646.755	-17.403	0.268	0.170
-645.741	123.339	0.087	-0.109
-644.726	508.876	-0.067	-0.156
-643.711	676.627	0.094	-0.246
-642.697	-4.110	0.356	0.248
-641.682	-6.954	0.089	-0.061
-640.668	39.424	-0.084	-0.076
-639.653	-89.666	0.255	-0.075
-638.638	-103.773	-0.108	0.025
-637.624	-9.100	0.266	-0.179
-636.609	-4.456	0.111	0.077
-635.595	222.738	-0.096	-0.155
-634.580	292.941	0.176	-0.323
-633.565	-139.399	-0.418	0.045
-632.551	-30.558	-0.168	-0.096
-631.536	-200.000	-0.008	-0.059
-630.522	29.188	-0.115	-0.098
-629.507	-74.008	-0.115	0.042
-628.492	-174.451	-0.134	-0.004
-627.478	316.528	-0.058	0.110
-626.463	170.961	0.116	-0.168
-625.449	166.204	0.270	0.384
-624.434	-128.882	0.260	0.037
-623.419	-46.069	-0.312	-0.154
-622.405	-122.508	-0.258	-0.042
-621.390	12.472	0.263	0.204
-620.376	83.122	-0.028	-0.030
-619.361	-155.930	0.126	0.008
-618.346	-76.915	0.300	0.105
-617.332	-146.207	0.253	0.022
-616.317	36.836	-0.179	-0.158
-615.303	-200.000	-0.037	-0.356
-614.288	-50.850	-0.262	-0.124
-613.273	-107.060	0.311	0.069
-612.259	24.509	-0.145	0.120
-611.244	-46.029	0.150	0.074
-610.230	800.000	-0.064	0.188
-609.215	9.459	-0.198	0.150
-608.201	-11.181	-0.172	0.114
-607.186	-200.000	-0.033	-0.157
-606.171	-169.917	0.346	0.012
-605.157	800.000	-0.026	-0.112
-604.142	440.706	0.213	0.466
-603.128	641.808	-0.117	0.298
-602.113	1.676	-0.050	0.036
-601.098	-38.877	-0.276	0.146
-600.084	148.941	0.162	-0.219
-599.069	800.000	-0.056	0.200
-598.055	-64.905	-0.050	0.020
-597.040	-151.420	-0.229	0.017
-596.025	49.533	0.147	0.139
-595.011	-133.443	-0.368	0.046
-593.996	34.977	-0.300	-0.263
-592.982	9.934	0.065	0.049
-591.967	-200.000	-0.018	-0.091
-590.952	655.804	-0.120	-0.309
-589.938	221.480	-0.164	0.263
-588.923	-38.667	0.123	-0.065
-587.909	394.766	0.049	-0.103
-586.894	800.000	0.023	-0.096
-585.879	-99.323	-0.337	0.085
-584.865	-128.482	-0.200	0.028
-583.850	313.977	-0.050	-0.095
-582.836	800.000	0.161	-0.463
-581.821	-200.000	0.009	-0.192
-580.806	-200.000	-0.017	0.209
-579.792	-135.174	0.129	-0.016
-578.777	-200.000	-0.017	0.400
-577.763	74.759	-0.149	0.157
-576.748	392.299	0.063	-0.131
-575.733	104.594	0.271	-0.320
-574.719	800.000	-0.088	-0.380
-573.704	-157.301	0.365	-0.022
-572.690	-112.350	-0.328	0.066
-571.675	31.618	0.197	0.169
-570.661	105.052	0.150	0.178
-569.646	145.877	0.148	-0.199
-568.631	-97.919	0.422	-0.109
-567.617	800.000	0.058	0.221
-566.602	-116.565	0.045	0.008
-565.588	642.569	0.071	0.182
-564.573	15.938	-0.309	-0.244
-563.558	643.199	0.133	-0.340
-562.544	455.986	-0.169	0.374
-561.529	213.023	0.125	0.197
-560.515	8.132	0.265	-0.200
-559.500	-2.132	-0.160	-0.113
-558.485	-200.000	0.011	-0.313
-557.471	-123.076	0.077	-0.012
-556.456	-23.139	0.235	-0.142
-555.442	355.264	-0.091	0.181
-554.427	-200.000	0.048	-0.250
-553.412	-118.157	0.155	-0.028
-552.398	-144.333	0.450	-0.042
-551.383	-44.114	-0.222	0.111
-550.369	-90.100	0.338	0.099
-549.354	-200.000	-0.053	0.322
-548.339	352.861	-0.168	0.333
-547.325	720.834	0.125	0.333
-546.310	240.164	0.139	0.232
-545.296	-142.466	-0.208	0.020
-544.281	-101.582	0.207	0.050
-543.266	15.310	0.066	0.052
-542.252	-52.792	-0.082	0.038
-541.237	17.595	-0.102	-0.081
-540.223	800.000	0.042	0.148
-539.208	-152.157	0.276	-0.020
-538.193	-37.560	0.180	-0.096
-537.179	132.427	-0.247	0.319
-536.164	-200.000	0.017	0.114
-535.150	65.392	0.093	0.094
-534.135	88.878	0.173	-0.192
-533.121	241.636	0.175	-0.293
-532.106	800.000	-0.015	-0.046
-531.091	-8.419	-0.123	-0.082
-530.077	49.443	0.309	-0.290
-529.062	44.436	0.089	-0.082
-528.048	-71.043	-0.276	-0.104
-527.033	-96.330	0.034	-0.009
-526.018	-142.472	0.286	-0.028
-525.004	400.949	0.100	-0.210
-523.989	-81.698	-0.253	-0.083
-522.975	296.584	-0.111	-0.204
-521.960	-77.561	0.194	-0.067
-520.945	-200.000	0.010	0.188
-519.931	249.206	-0.143	-0.242
-518.916	74.427	0.047	-0.049
-517.902	33.662	-0.105	-0.092
-516.887	428.393	0.066	0.144
-515.872	-22.361	0.189	0.114
-514.858	412.860	-0.109	0.232
-513.843	-200.000	-0.009	0.114
-512.829	133.676	0.148	-0.191
-511.814	-142.863	0.164	0.016
-510.799	254.357	-0.086	0.148
-509.785	433.540	-0.084	-0.183
-508.770	-113.981	0.111	0.021
-507.756	-10.924	0.078	-0.051
-506.741	605.822	0.068	0.169
-505.726	-200.000	-0.023	-0.215
-504.712	-17.437	0.200	-0.126
-503.697	29.447	-0.107	0.091
-502.683	20.593	0.182	-0.147
-501.668	800.000	0.062	0.246
-500.653	-200.000	-0.012	-0.103
-499.639	-200.000	0.011	0.440
-498.624	130.315	-0.110	0.140
-497.610	35.294	0.035	0.031
-496.595	77.374	-0.197	-0.209
-495.581	85.172	-0.068	0.074
-494.566	538.408	-0.173	0.411
-493.551	-26.066	0.269	-0.158
-492.537	-200.000	0.026	-0.335
-491.522	24.519	-0.052	0.043
-490.508	-142.147	-0.204	-0.020
-489.493	-132.658	0.202	0.026
-488.478	602.655	0.116	0.287
-487.464	521.433	0.064	0.150
-486.449	88.215	-0.140	0.155
-485.435	230.757	-0.134	-0.219
-484.420	279.309	0.238	-0.425
-483.405	800.000	-0.129	-0.461
-482.391	87.961	-0.046	0.051
-481.376	688.081	-0.128	0.333
-480.362	-200.000	-0.070	-0.328
-479.347	-115.963	-0.040	-0.007
-478.332	-116.434	0.177	0.033
-477.318	420.705	-0.083	-0.177
-476.303	800.000	0.054	-0.183
-475.289	48.578	0.129	-0.120
-474.274	358.510	0.082	0.164
-473.259	800.000	-0.148	0.454
-472.245	-2.984	0.007	-0.005
-471.230	-200.000	-0.019	-0.445
-470.216	307.772	0.119	-0.221
-469.201	-114.990	-0.247	0.047
-468.186	-180.117	0.303	-0.006
-467.172	-182.055	-0.139	-0.003
-466.157	800.000	-0.141	0.407
-465.143	690.365	0.085	0.222
-464.128	-162.560	0.103	-0.005
-463.113	-200.000	-0.052	-0.275
-462.099	-20.122	-0.231	0.142
-461.084	79.481	-0.127	-0.136
-460.070	-29.533	-0.328	0.187
-459.055	186.493	0.193	0.287
-458.040	-106.762	-0.163	0.036
-457.026	0.351	-0.122	-0.087
-456.011	26.671	0.182	0.152
-454.997	800.000	-0.090	0.324
-453.982	283.578	0.228	0.409
-452.968	-166.688	0.310	0.013
-451.953	-119.186	-0.193	-0.034
-450.938	664.786	-0.009	0.022
-449.924	97.473	0.261	0.299
-448.909	-171.956	-0.176	0.006
-447.895	121.108	-0.236	0.293
-446.880	-38.497	0.492	-0.259
-445.865	350.394	0.085	0.168
-444.851	468.743	-0.075	0.168
-443.836	-121.717	-0.293	-0.048
-442.822	800.000	-0.066	-0.267
-441.807	131.972	-0.258	-0.331
-440.792	-200.000	0.004	-0.113
-439.778	142.795	-0.156	0.207
-438.763	168.771	0.165	0.235
-437.749	-96.672	0.203	-0.053
-436.734	443.728	0.074	0.161
-435.719	21.532	0.118	0.095
-434.705	-1.049	-0.191	-0.135
-433.690	-144.110	0.086	-0.008
-432.676	-109.654	0.303	-0.064
-431.661	699.238	-0.080	0.209
-430.646	-22.127	-0.184	0.111
-429.632	14.810	0.082	0.064
-428.617	-67.230	0.077	0.030
-427.603	-25.709	-0.360	-0.211
-426.588	32.812	-0.173	-0.149
-425.573	800.000	0.070	0.234
-424.559	107.126	0.205	-0.243
-423.544	716.368	-0.082	0.218
-422.530	-200.000	-0.027	0.216
-421.515	290.719	0.146	0.264
-420.500	-200.000	-0.021	0.111
-419.486	-114.664	-0.122	0.023
-418.471	-200.000	0.043	-0.301
-417.457	-124.536	-0.325	0.050
-416.442	-126.779	0.124	-0.018
-415.428	26.854	-0.160	-0.134
-414.413	-200.000	-0.003	-0.023
-413.398	-3.588	0.354	-0.245
-412.384	800.000	-0.023	-0.096
-411.369	-29.130	0.024	-0.014
-410.355	-85.758	-0.212	0.066
-409.340	800.000	0.047	-0.148
-408.325	136.142	-0.197	0.255
-407.311	800.000	0.040	0.131
-406.296	-31.702	-0.167	-0.093
-405.282	-21.996	0.150	-0.091
-404.267	30.758	-0.334	0.285
-403.252	82.967	-0.227	-0.245
-402.238	11.275	-0.066	0.050
-401.223	800.000	-0.048	-0.176
-400.209	-21.437	0.150	-0.091
-399.194	67.756	0.207	-0.210
-398.179	-42.690	-0.068	-0.034
-397.165	118.833	0.051	-0.063
-396.150	38.312	0.158	-0.140
-395.136	-200.000	0.051	0.235
-394.121	-200.000	-0.046	-0.420
-393.106	-121.469	-0.037	0.006
-392.092	-22.066	0.052	-0.031
-391.077	800.000	-0.054	-0.157
-390.063	800.000	-0.089	0.298
-389.048	-200.000	0.047	-0.207
-388.033	-106.738	0.222	0.049
-387.019	118.400	0.156	-0.191
-386.004	10.505	-0.160	-0.122
-384.990	36.350	-0.267	0.234
-383.975	-200.000	0.009	0.107
-382.960	5.640	0.274	-0.202
-381.946	-16.914	0.099	0.062
-380.931	800.000	0.055	0.213
-379.917	-200.000	0.005	-0.126
-378.902	800.000	0.017	0.053
-377.888	-26.942	0.101	-0.059
-376.873	-160.095	-0.309	0.017
-375.858	-8.640	0.122	0.081
-374.844	88.620	0.202	0.224
-373.829	-200.000	0.020	0.101
-372.815	772.748	0.098	-0.266
-371.800	78.536	-0.223	0.237
-370.785	85.776	-0.039	-0.042
-369.771	-62.932	0.182	0.075
-368.756	-31.406	-0.430	-0.240
-367.742	-200.000	-0.029	-0.146
-366.727	-123.663	0.320	-0.050
-365.712	-200.000	-0.034	-0.231
-364.698	3.282	-0.428	-0.310
-363.683	244.200	0.142	0.237
-362.669	38.578	-0.195	-0.173
-361.654	-80.074	0.236	0.079
-360.639	800.000	-0.059	0.181
-359.625	800.000	-0.031	-0.120
-358.610	428.187	0.083	-0.179
-357.596	97.977	-0.196	-0.224
-356.581	98.393	0.077	-0.088
-355.566	105.814	-0.079	-0.093
-354.552	543.951	0.046	0.108
-353.537	-9.736	0.310	0.205
-352.523	276.179	0.164	0.289
-351.508	-200.000	0.008	-0.193
-350.493	30.215	-0.131	-0.111
-349.479	45.103	-0.264	-0.242
-348.464	307.313	0.060	0.111
-347.450	-200.000	0.073	0.402
-346.435	-109.763	0.463	0.097
-345.420	-148.647	0.082	-0.007
-344.406	-200.000	-0.027	0.126
-343.391	-125.348	0.121	-0.018
-342.377	142.829	-0.217	-0.287
-341.362	-200.000	-0.020	0.093
-340.348	-18.986	-0.206	0.127
-339.333	-101.998	-0.223	0.053
-338.318	-40.036	0.149	0.077
-337.304	-65.488	0.103	0.041
-336.289	-200.000	0.034	0.192
-335.275	-95.808	0.111	-0.029
-334.260	-15.304	0.335	-0.213
-333.245	800.000	-0.124	-0.346
-332.231	506.258	-0.036	0.083
-331.216	-200.000	0.005	-0.058
-330.202	46.451	-0.158	-0.146
-329.187	-27.822	-0.271	-0.156
-328.172	-200.000	0.018	-0.330
-327.158	231.317	0.026	0.043
-326.143	16.666	-0.107	0.084
-325.129	70.576	-0.330	0.339
-324.114	-123.503	0.051	0.008
-323.099	78.919	-0.060	-0.064
-322.085	130.818	0.131	-0.167
-321.070	-200.000	-0.004	0.169
-320.056	160.375	-0.099	-0.136
-319.041	-86.310	0.153	-0.047
-318.026	-199.483	0.197	0.001
-317.012	-200.000	0.024	0.200
-315.997	2.089	0.287	-0.206
-314.983	527.647	-0.069	-0.160
-313.968	-200.000	-0.014	-0.279
-312.953	20.305	-0.057	0.046
-311.939	720.429	-0.063	0.167
-310.924	-101.896	0.170	-0.041
-309.910	-200.000	-0.024	-0.200
-308.895	-200.000	0.036	0.292
-307.880	-52.345	-0.390	-0.179
-306.866	142.959	0.306	-0.404
-305.851	-200.000	0.005	-0.105
-304.837	14.325	0.432	0.334
-303.822	154.018	-0.210	0.285
-302.807	-36.662	0.159	-0.085
-301.793	-95.576	-0.212	0.056
-300.778	-200.000	-0.001	-0.452
-299.764	800.000	-0.034	0.109
-298.749	-30.624	-0.072	0.040
-297.735	253.669	0.191	-0.324
-296.720	42.705	0.163	0.147
-295.705	-200.000	-0.023	0.160
-294.691	82.182	-0.077	0.083
-293.676	24.684	0.105	0.086
-292.662	47.584	0.051	-0.047
-291.647	-63.460	-0.117	-0.047
-290.632	248.849	-0.013	0.022
-289.618	-167.372	-0.231	-0.009
-288.603	-200.000	-0.035	0.395
-287.589	80.349	-0.145	-0.155
-286.574	-42.928	-0.230	0.116
-285.559	-57.589	-0.140	-0.061
-284.545	668.216	-0.009	0.023
-283.530	-200.000	-0.003	-0.064
-282.516	-43.233	-0.186	-0.093
-281.501	-200.000	-0.031	-0.153
-280.486	-200.000	0.001	0.190
-279.472	-26.543	-0.066	-0.038
-278.457	-200.000	-0.016	0.287
-277.443	114.360	0.199	-0.240
-276.428	-99.977	-0.143	0.035
-275.413	377.650	-0.128	0.258
-274.399	-149.310	-0.110	-0.009
-273.384	-200.000	-0.113	0.507
-272.370	-200.000	0.013	0.065
-271.355	489.559	0.108	-0.244
-270.340	306.390	-0.127	0.234
-269.326	216.859	0.038	0.060
-268.311	-120.399	0.316	-0.053
-267.297	-67.717	-0.132	0.051
-266.282	-98.137	0.191	0.049
-265.267	145.998	-0.135	-0.179
-264.253	579.563	0.086	0.209
-263.238	105.330	-0.198	-0.232
-262.224	-200.000	-0.004	-0.180
-261.209	-19.349	-0.211	-0.130
-260.195	543.376	-0.086	-0.203
-259.180	756.720	0.067	0.179
-258.165	800.000	-0.011	0.035
-257.151	54.229	-0.046	-0.044
-256.136	222.584	-0.097	0.154
-255.122	-62.343	0.125	-0.052
-254.107	49.123	0.133	-0.124
-253.092	-74.616	0.152	-0.054
-252.078	-66.267	0.118	-0.046
-251.063	-133.458	0.073	-0.009
-250.049	800.000	0.039	0.161
-249.034	72.801	-0.099	0.102
-248.019	-116.737	-0.035	0.006
-247.005	-200.000	-0.019	-0.156
-245.990	110.444	-0.047	0.056
-244.976	36.778	0.065	-0.057
-243.961	800.000	0.044	0.154
-242.946	476.868	0.094	0.210
-241.932	13.129	0.159	0.122
-240.917	-12.697	-0.154	0.100
-239.903	130.863	0.183	0.232
-238.888	392.842	0.085	-0.175
-237.873	101.578	-0.370	-0.427
-236.859	800.000	-0.068	-0.236
-235.844	-47.847	-0.219	-0.105
-234.830	-200.000	-0.014	0.370
-233.815	-131.671	-0.549	-0.071
-232.800	-42.290	-0.087	0.044
-231.786	-23.557	0.231	0.137
-230.771	-108.890	0.139	-0.029
-229.757	-149.432	-0.254	0.020
-228.742	-200.000	0.001	0.103
-227.727	-200.000	-0.014	0.136
-226.713	76.742	0.270	-0.283
-225.698	800.000	0.120	0.431
-224.684	-31.663	0.253	-0.140
-223.669	13.618	0.192	0.147
-222.655	-35.435	0.144	-0.078
-221.640	800.000	-0.076	0.209
-220.625	-200.000	0.037	-0.225
-219.611	-88.024	0.105	0.031
-218.596	-94.966	0.189	-0.051
-217.582	293.321	-0.057	0.103
-216.567	-200.000	0.010	-0.177
-215.552	-91.332	-0.345	-0.097
-214.538	38.345	0.077	0.068
-213.523	-57.894	-0.208	0.090
-212.509	-105.271	-0.259	0.058
-211.494	633.367	-0.128	-0.319
-210.479	800.000	-0.009	0.035
-209.465	23.533	0.104	-0.084
-208.450	-200.000	0.005	-0.035
-207.436	-3.994	-0.281	-0.193
-206.421	82.132	-0.174	-0.187
-205.406	335.976	0.152	-0.291
-204.392	-200.000	0.005	0.115
-203.377	-51.525	0.083	-0.038
-202.363	88.085	0.068	0.074
-201.348	-153.410	-0.048	0.003
-200.333	800.000	0.028	-0.106
-199.319	23.543	0.286	0.233
-198.304	251.720	0.109	-0.184
-197.290	800.000	-0.074	-0.256
-196.275	-113.665	0.225	-0.043
-195.260	-49.730	0.108	0.051
-194.246	18.675	-0.187	0.148
-193.231	-200.000	0.046	-0.200
-192.217	535.184	-0.215	0.503
-191.202	-156.450	-0.360	0.022
-190.187	-200.000	0.001	-0.073
-189.173	-123.058	0.010	0.002
-188.158	800.000	0.079	-0.242
-187.144	-107.635	-0.146	-0.032
-186.129	-200.000	0.068	0.477
-185.114	-3.683	0.054	0.037
-184.100	-73.965	-0.201	-0.072
-183.085	-40.177	-0.029	0.015
-182.071	-120.660	-0.328	-0.055
-181.056	252.169	-0.216	-0.363
-180.042	-42.037	0.313	0.158
-179.027	-200.000	-0.008	-0.115
-178.012	800.000	-0.018	-0.056
-176.998	102.744	0.095	0.109
-175.983	38.693	-0.089	-0.078
-174.969	-200.000	-0.014	0.126
-173.954	-200.000	-0.021	-0.252
-172.939	-35.894	-0.367	0.196
-171.925	99.451	-0.207	0.236
-170.910	-200.000	0.036	-0.165
-169.896	800.000	0.059	0.203
-168.881	-200.000	-0.030	0.190
-167.866	-79.454	-0.257	0.086
-166.852	-173.818	0.159	0.005
-165.837	-16.181	-0.017	0.011
-164.823	-133.515	-0.142	0.018
-163.808	12.593	-0.152	-0.116
-162.793	-38.558	-0.089	0.046
-161.779	169.626	0.164	0.231
-160.764	77.359	-0.152	0.159
-159.750	-50.159	0.228	0.107
-158.735	-32.955	-0.210	0.115
-157.720	-122.824	0.186	-0.030
-156.706	-85.253	-0.165	-0.051
-155.691	-98.013	-0.215	0.055
-154.677	-46.824	0.181	-0.087
-153.662	800.000	-0.020	0.066
-152.647	2.645	0.144	-0.103
-151.633	293.821	0.117	0.211
-150.618	48.384	0.202	0.186
-149.604	-102.473	-0.197	-0.047
-148.589	119.444	-0.262	0.320
-147.574	-73.953	0.330	0.118
-146.560	-27.569	0.059	-0.034
-145.545	-200.000	0.031	-0.324
-144.531	105.579	0.325	-0.379
-143.516	-63.750	-0.044	0.018
-142.502	59.836	0.153	-0.148
-141.487	-74.714	-0.132	0.047
-140.472	330.274	-0.052	-0.099
-139.458	-200.000	-0.048	-0.338
-138.443	-141.252	-0.181	0.018
-137.429	-128.210	0.196	-0.028
-136.414	1.048	-0.115	-0.081
-135.399	175.715	-0.028	0.040
-134.385	800.000	0.094	-0.265
-133.370	545.930	0.107	0.253
-132.356	745.362	-0.040	-0.107
-131.341	167.432	0.199	-0.278
-130.326	-7.629	0.119	0.079
-129.312	-51.005	0.163	-0.075
-128.297	800.000	-0.040	0.152
-127.283	186.671	-0.153	-0.225
-126.268	-47.810	0.176	-0.084
-125.253	338.338	-0.148	-0.284
-124.239	-76.453	0.201	-0.070
-123.224	-85.047	0.125	-0.038
-122.210	800.000	0.131	0.414
-121.195	-64.560	0.451	0.180
