DTS Sentinel unit serial number:	SN413079Multiplexer serial number:	ORYXHardware model number:	OX4-SRSoftware version number:	ORYX F/W v4.00 Oryx Data Collector v3.7.2.0data status	okinstallation	princeton_trtdifferential loss correction	single-endedforward channel	channel 2reverse channel	N/Adate	2019/09/11time	20:33:11forward acquisition time	60.00reverse acquisition time	0.00gamma	496.2192k internal	0.2320k external	0.2320temperature offset calibration	1.0060default loss term (dB/km)	0.3790temperature slope calibration	1.0000multiplexer offset coefficient	1.0000multiplexer slope coefficient	1.0000fibre end	0.00T internal ref (°C)	37.52T ext. ref 1 (°C)	1.52T ext. ref 2 (°C)	30.81length (m)	temperature (°C)	Stokes	anti-Stokes-747.200	-116.718	-0.131	0.024
-746.185	61.913	-0.063	-0.063
-745.171	-68.057	0.331	0.130
-744.156	-200.000	0.003	-0.056
-743.142	-50.461	-0.130	-0.062
-742.127	393.714	0.185	0.389
-741.112	-200.000	0.006	0.060
-740.098	90.886	0.073	0.083
-739.083	200.566	-0.088	0.136
-738.069	466.559	0.051	-0.115
-737.054	-138.942	0.325	0.036
-736.039	122.375	-0.125	0.159
-735.025	1.147	0.292	0.212
-734.010	-200.000	0.058	-0.435
-732.996	-113.716	-0.326	0.064
-731.981	438.069	0.049	-0.108
-730.966	25.608	0.143	-0.120
-729.952	-200.000	-0.014	-0.194
-728.937	-34.364	-0.097	-0.054
-727.923	-114.154	0.214	-0.042
-726.908	227.621	0.053	-0.086
-725.894	54.649	0.132	-0.129
-724.879	-138.697	-0.446	-0.049
-723.864	800.000	-0.031	0.103
-722.850	-65.074	-0.130	0.053
-721.835	-16.507	0.186	-0.119
-720.821	0.554	-0.178	-0.128
-719.806	78.400	-0.072	0.078
-718.791	-200.000	0.036	-0.182
-717.777	131.378	0.171	-0.222
-716.762	-200.000	-0.033	-0.424
-715.748	800.000	0.062	-0.236
-714.733	-54.078	0.289	-0.133
-713.718	64.152	0.168	0.171
-712.704	30.163	-0.141	-0.122
-711.689	800.000	0.080	0.288
-710.675	138.095	0.159	0.211
-709.660	-188.574	-0.358	0.004
-708.645	-1.247	0.129	-0.092
-707.631	-0.115	-0.182	0.131
-706.616	800.000	0.042	0.155
-705.602	103.913	0.123	-0.146
-704.587	-133.126	-0.010	0.001
-703.572	-84.152	-0.049	0.016
-702.558	-43.328	0.159	0.081
-701.543	-99.112	-0.254	0.065
-700.529	33.737	0.148	0.130
-699.514	-177.973	0.400	-0.010
-698.499	-200.000	0.014	0.089
-697.485	89.470	0.149	-0.168
-696.470	25.569	-0.180	0.151
-695.456	-86.919	-0.515	-0.159
-694.441	-122.997	0.272	-0.044
-693.426	-200.000	0.025	-0.230
-692.412	521.509	0.043	-0.101
-691.397	157.289	0.044	-0.061
-690.383	-113.771	-0.363	-0.071
-689.368	141.922	0.017	0.023
-688.354	800.000	-0.078	-0.316
-687.339	99.337	0.052	-0.061
-686.324	690.334	0.071	0.187
-685.310	-200.000	0.040	0.253
-684.295	197.632	-0.098	-0.151
-683.281	-9.193	-0.252	-0.170
-682.266	145.494	0.109	0.147
-681.251	800.000	-0.031	0.102
-680.237	607.595	0.015	-0.039
-679.222	-7.750	0.189	-0.129
-678.208	503.934	0.106	-0.247
-677.193	-8.343	-0.273	-0.185
-676.178	251.644	0.121	-0.208
-675.164	97.640	-0.227	-0.263
-674.149	-82.042	0.333	0.110
-673.135	45.180	0.122	-0.113
-672.120	-133.724	0.280	0.035
-671.105	54.558	-0.097	0.094
-670.091	-169.004	0.112	0.004
-669.076	478.899	-0.090	-0.206
-668.062	-79.836	-0.159	0.054
-667.047	199.573	-0.075	0.116
-666.032	163.558	-0.205	-0.291
-665.018	-24.559	-0.410	0.246
-664.003	-41.232	0.137	0.071
-662.989	382.399	-0.156	-0.323
-661.974	174.350	0.214	-0.312
-660.959	30.866	0.021	0.018
-659.945	-86.896	0.025	-0.008
-658.930	62.128	0.120	-0.120
-657.916	800.000	-0.096	0.282
-656.901	-60.731	-0.126	-0.054
-655.886	332.732	-0.176	0.342
-654.872	-114.141	-0.315	0.061
-653.857	155.263	-0.205	0.284
-652.843	-200.000	-0.004	0.077
-651.828	800.000	-0.044	0.150
-650.814	800.000	0.052	-0.174
-649.799	-96.817	0.078	0.021
-648.784	163.043	-0.139	0.196
-647.770	-10.887	-0.256	0.170
-646.755	314.602	0.060	-0.113
-645.741	-93.130	-0.352	0.099
-644.726	-16.602	0.267	-0.170
-643.711	-64.932	-0.124	0.051
-642.697	220.066	-0.143	0.231
-641.682	48.742	-0.218	0.206
-640.668	-120.649	-0.191	-0.033
-639.653	-12.907	0.064	-0.042
-638.638	-200.000	-0.060	-0.390
-637.624	2.483	-0.315	-0.229
-636.609	5.980	0.127	-0.095
-635.595	374.587	0.096	0.196
-634.580	-174.314	-0.284	-0.008
-633.565	10.510	0.211	0.162
-632.551	-80.243	0.194	-0.065
-631.536	270.351	0.155	0.275
-630.522	-143.464	-0.324	0.031
-629.507	-43.039	-0.114	-0.058
-628.492	176.657	0.151	-0.221
-627.478	115.914	0.045	-0.055
-626.463	71.499	-0.058	0.061
-625.449	41.604	-0.017	-0.016
-624.434	35.467	0.155	-0.137
-623.419	13.454	-0.251	-0.196
-622.405	111.929	0.104	-0.127
-621.390	800.000	0.022	0.066
-620.376	206.031	0.208	-0.326
-619.361	-77.721	0.185	-0.064
-618.346	-109.066	0.117	0.025
-617.332	7.728	-0.206	-0.155
-616.317	-83.690	-0.225	0.072
-615.303	270.533	-0.110	0.195
-614.288	749.316	0.043	0.116
-613.273	-200.000	0.025	-0.222
-612.259	34.009	0.259	-0.227
-611.244	258.052	-0.066	0.114
-610.230	800.000	-0.019	0.067
-609.215	-94.588	0.409	0.112
-608.201	-10.503	0.072	0.048
-607.186	346.164	-0.100	0.198
-606.171	-200.000	0.061	-0.270
-605.157	41.682	0.184	-0.167
-604.142	253.928	-0.240	-0.412
-603.128	53.349	0.222	-0.214
-602.113	-21.023	-0.058	-0.036
-601.098	-75.889	0.252	-0.090
-600.084	161.665	0.124	-0.175
-599.069	-80.580	0.250	-0.084
-598.055	187.393	0.119	-0.179
-597.040	-101.403	0.166	0.041
-596.025	800.000	-0.084	0.278
-595.011	-39.639	-0.179	-0.094
-593.996	-200.000	-0.009	-0.088
-592.982	-61.085	0.154	-0.066
-591.967	202.749	0.004	-0.007
-590.952	33.278	0.212	-0.185
-589.938	659.826	-0.110	-0.285
-588.923	241.359	0.136	-0.229
-587.909	-200.000	0.012	-0.091
-586.894	-124.879	0.199	-0.031
-585.879	-200.000	-0.002	0.079
-584.865	-48.327	-0.343	-0.166
-583.850	-200.000	-0.005	0.134
-582.836	70.005	-0.168	0.174
-581.821	112.142	0.211	-0.256
-580.806	-104.379	-0.244	0.057
-579.792	-200.000	0.010	-0.142
-578.777	359.926	-0.044	0.089
-577.763	335.423	-0.163	-0.318
-576.748	-200.000	0.022	0.241
-575.733	-200.000	-0.026	0.165
-574.719	-124.202	0.248	-0.039
-573.704	-32.772	0.101	-0.057
-572.690	-200.000	0.020	0.290
-571.675	-200.000	-0.002	-0.209
-570.661	-200.000	-0.035	0.189
-569.646	-73.454	-0.133	-0.049
-568.631	-200.000	-0.039	0.310
-567.617	-200.000	0.008	-0.100
-566.602	-103.735	-0.295	0.069
-565.588	3.851	-0.272	0.200
-564.573	142.196	0.186	0.248
-563.558	-116.573	0.171	-0.032
-562.544	1.834	-0.229	-0.166
-561.529	274.244	-0.017	-0.031
-560.515	36.870	-0.230	-0.204
-559.500	394.515	-0.114	-0.238
-558.485	12.799	-0.340	-0.263
-557.471	-35.137	-0.138	-0.075
-556.456	-52.678	-0.194	-0.090
-555.442	184.953	0.262	-0.391
-554.427	-101.265	0.220	-0.054
-553.412	-200.000	-0.008	-0.124
-552.398	652.209	-0.066	-0.169
-551.383	117.694	-0.103	-0.128
-550.369	-200.000	-0.068	-0.400
-549.354	-7.924	0.115	-0.078
-548.339	40.676	-0.105	0.095
-547.325	1.291	-0.174	-0.126
-546.310	-200.000	-0.080	-0.424
-545.296	800.000	-0.042	-0.135
-544.281	-142.591	-0.099	0.010
-543.266	-200.000	-0.050	-0.220
-542.252	12.581	0.198	0.153
-541.237	-135.762	0.162	-0.019
-540.223	14.979	-0.080	-0.063
-539.208	789.589	-0.027	0.074
-538.193	800.000	-0.084	0.346
-537.179	55.829	-0.020	-0.019
-536.164	-200.000	0.023	-0.163
-535.150	89.802	0.108	-0.121
-534.135	-200.000	0.044	-0.379
-533.121	16.424	0.197	0.156
-532.106	-89.788	0.152	0.045
-531.091	-81.729	0.100	0.033
-530.077	81.609	0.386	-0.419
-529.062	9.288	-0.344	0.261
-528.048	-116.316	0.175	0.033
-527.033	-200.000	-0.052	0.252
-526.018	267.099	-0.190	0.332
-525.004	-24.324	-0.126	-0.076
-523.989	40.974	0.070	0.063
-522.975	42.015	-0.051	-0.046
-521.960	-200.000	-0.077	0.401
-520.945	-200.000	0.009	-0.072
-519.931	-190.499	-0.294	0.003
-518.916	47.976	-0.065	-0.061
-517.902	-200.000	0.020	-0.199
-516.887	-102.326	-0.249	0.060
-515.872	-37.696	0.201	0.108
-514.858	-143.791	-0.120	-0.011
-513.843	59.183	0.087	-0.086
-512.829	-135.757	-0.130	0.015
-511.814	43.654	-0.050	-0.046
-510.799	-200.000	0.004	-0.126
-509.785	93.300	-0.082	0.093
-508.770	-200.000	0.019	0.100
-507.756	-28.285	-0.148	-0.086
-506.741	229.351	-0.029	-0.047
-505.726	-200.000	-0.007	0.155
-504.712	-37.412	-0.151	-0.081
-503.697	-163.572	0.302	-0.014
-502.683	167.855	0.207	0.295
-501.668	-200.000	-0.019	0.142
-500.653	-200.000	0.006	0.292
-499.639	306.217	0.121	-0.226
-498.624	51.979	0.120	0.115
-497.610	-60.537	-0.134	0.057
-496.595	55.732	0.089	-0.087
-495.581	369.889	-0.074	0.150
-494.566	-142.112	-0.185	0.018
-493.551	-200.000	0.039	-0.372
-492.537	408.704	0.144	-0.305
-491.522	-127.432	0.117	0.017
-490.508	-173.999	0.288	0.008
-489.493	-200.000	-0.022	-0.128
-488.478	-80.065	-0.120	-0.040
-487.464	-200.000	0.009	0.218
-486.449	800.000	0.069	0.211
-485.435	105.939	-0.269	0.319
-484.420	-200.000	-0.031	-0.140
-483.405	800.000	-0.075	0.298
-482.391	22.087	0.157	0.128
-481.376	295.652	0.064	-0.118
-480.362	800.000	0.059	-0.258
-479.347	800.000	-0.055	-0.190
-478.332	-43.586	0.387	0.196
-477.318	196.553	0.111	-0.170
-476.303	646.685	0.145	-0.371
-475.289	478.893	-0.077	-0.174
-474.274	-31.888	-0.164	-0.092
-473.259	50.593	-0.282	-0.267
-472.245	-76.748	-0.349	-0.122
-471.230	800.000	-0.100	0.349
-470.216	586.613	-0.091	0.224
-469.201	23.303	0.104	0.086
-468.186	94.244	0.199	-0.226
-467.172	-100.442	-0.109	0.027
-466.157	388.721	0.105	0.217
-465.143	-32.173	-0.373	0.209
-464.128	800.000	-0.072	-0.244
-463.113	-104.483	0.297	-0.069
-462.099	-57.699	0.099	-0.043
-461.084	-200.000	-0.013	0.346
-460.070	-53.808	-0.012	-0.005
-459.055	-30.227	0.218	0.124
-458.040	-200.000	-0.009	0.245
-457.026	238.588	-0.176	-0.293
-456.011	800.000	-0.039	0.149
-454.997	-80.291	-0.133	-0.045
-453.982	-62.163	-0.090	0.038
-452.968	-74.789	0.106	-0.038
-451.953	288.874	-0.132	-0.239
-450.938	-8.780	0.026	0.017
-449.924	-200.000	-0.008	0.151
-448.909	-162.891	0.261	-0.013
-447.895	-200.000	0.021	0.158
-446.880	-36.448	0.369	-0.199
-445.865	-105.723	-0.313	0.071
-444.851	-63.349	-0.159	-0.065
-443.836	-200.000	0.027	-0.169
-442.822	5.246	-0.204	0.150
-441.807	-85.634	0.126	-0.039
-440.792	61.824	0.126	-0.125
-439.778	-200.000	-0.004	0.092
-438.763	-200.000	0.040	-0.363
-437.749	-72.271	0.102	0.038
-436.734	-200.000	0.030	-0.380
-435.719	74.856	-0.072	-0.076
-434.705	-161.658	-0.115	0.006
-433.690	204.828	-0.110	-0.170
-432.676	-200.000	0.115	-0.579
-431.661	-51.235	0.162	0.076
-430.646	-200.000	-0.008	-0.065
-429.632	25.349	-0.132	0.110
-428.617	-10.974	0.144	0.095
-427.603	-156.294	0.149	-0.009
-426.588	9.404	0.254	-0.192
-425.573	800.000	-0.055	-0.168
-424.559	-200.000	0.036	0.329
-423.544	-157.071	0.124	-0.008
-422.530	-10.625	-0.164	-0.109
-421.515	-200.000	0.012	0.096
-420.500	-63.121	-0.217	-0.089
-419.486	-42.314	-0.173	0.088
-418.471	-116.596	-0.252	-0.046
-417.457	-200.000	0.047	0.218
-416.442	-200.000	-0.016	-0.110
-415.428	-42.649	-0.208	0.106
-414.413	-200.000	-0.080	0.469
-413.398	254.059	-0.146	0.249
-412.384	800.000	0.074	-0.241
-411.369	62.927	0.234	0.233
-410.355	-106.879	0.433	-0.096
-409.340	271.978	-0.153	0.270
-408.325	57.213	-0.262	0.255
-407.311	136.089	0.030	-0.039
-406.296	-122.026	0.041	-0.007
-405.282	800.000	0.052	-0.192
-404.267	-10.915	-0.202	-0.133
-403.252	800.000	-0.049	0.140
-402.238	-200.000	-0.002	0.087
-401.223	-200.000	0.034	0.201
-400.209	404.776	0.121	0.255
-399.194	131.837	-0.258	-0.331
-398.179	366.691	0.090	0.182
-397.165	-41.113	0.124	-0.064
-396.150	79.651	0.092	-0.099
-395.136	42.444	0.217	0.196
-394.121	-135.111	-0.075	-0.009
-393.106	800.000	0.007	0.021
-392.092	-200.000	-0.013	-0.122
-391.077	173.809	0.034	-0.050
-390.063	197.139	0.128	0.195
-389.048	800.000	0.066	0.267
-388.033	800.000	0.096	0.335
-387.019	-65.555	-0.102	0.041
-386.004	362.417	0.081	-0.163
-384.990	-1.314	-0.085	-0.060
-383.975	-37.139	0.257	0.137
-382.960	-200.000	0.019	0.303
-381.946	-6.144	0.296	-0.202
-380.931	-14.421	0.102	0.066
-379.917	108.643	0.210	0.250
-378.902	539.014	-0.108	-0.257
-377.888	424.014	-0.130	-0.279
-376.873	-117.191	-0.196	-0.036
-375.858	132.416	-0.252	0.324
-374.844	800.000	0.133	0.500
-373.829	-200.000	-0.056	-0.347
-372.815	107.851	0.045	-0.053
-371.800	-127.486	-0.424	-0.061
-370.785	134.108	-0.096	-0.124
-369.771	800.000	-0.079	-0.235
-368.756	-177.637	-0.042	-0.001
-367.742	-200.000	0.003	0.486
-366.727	288.781	-0.163	0.295
-365.712	-91.033	0.157	0.045
-364.698	-115.541	0.293	-0.055
-363.683	800.000	-0.083	0.260
-362.669	-49.064	-0.163	-0.078
-361.654	-109.774	0.118	0.025
-360.639	276.629	-0.127	0.225
-359.625	-115.883	-0.173	0.032
-358.610	-69.270	-0.062	-0.024
-357.596	-97.039	-0.094	-0.024
-356.581	-113.942	0.217	0.042
-355.566	800.000	-0.074	-0.302
-354.552	-43.601	-0.178	0.090
-353.537	-165.233	-0.130	0.006
-352.523	-95.470	0.312	0.083
-351.508	-108.088	0.075	0.016
-350.493	-20.404	0.220	-0.135
-349.479	-91.418	0.230	0.066
-348.464	-200.000	0.001	-0.030
-347.450	132.155	0.232	-0.297
-346.435	41.072	0.108	0.097
-345.420	-179.668	0.162	0.003
-344.406	53.112	0.186	-0.178
-343.391	-93.075	-0.264	0.073
-342.377	-107.521	0.573	-0.125
-341.362	-77.954	-0.267	-0.092
-340.348	194.116	-0.107	0.162
-339.333	77.370	0.159	-0.169
-338.318	-6.559	0.371	-0.252
-337.304	-55.418	0.052	0.023
-336.289	332.848	-0.118	-0.227
-335.275	-200.000	0.007	0.200
-334.260	67.670	-0.170	-0.173
-333.245	185.365	-0.248	-0.367
-332.231	108.715	-0.078	-0.093
-331.216	192.825	0.140	0.211
-330.202	-116.932	-0.193	0.035
-329.187	-174.997	-0.099	-0.003
-328.172	-20.725	0.223	0.136
-327.158	-200.000	0.044	0.202
-326.143	-44.339	-0.284	0.142
-325.129	49.779	0.042	-0.040
-324.114	-19.982	-0.256	-0.157
-323.099	-89.746	-0.178	-0.052
-322.085	-166.145	-0.298	-0.013
-321.070	-49.866	0.207	-0.098
-320.056	-124.386	-0.361	0.056
-319.041	-200.000	0.015	0.350
-318.026	-200.000	-0.014	0.222
-317.012	-57.680	0.191	-0.083
-315.997	-155.512	-0.347	0.022
-314.983	800.000	-0.038	0.127
-313.968	286.547	0.056	0.101
-312.953	183.018	-0.268	-0.394
-311.939	800.000	-0.035	0.109
-310.924	210.160	-0.103	0.161
-309.910	203.680	-0.015	0.023
-308.895	-58.399	0.100	0.043
-307.880	-64.818	0.146	0.059
-306.866	-40.491	-0.258	0.133
-305.851	303.091	0.086	-0.159
-304.837	21.571	0.341	-0.275
-303.822	115.615	0.056	-0.068
-302.807	-200.000	0.070	-0.341
-301.793	611.252	-0.030	0.075
-300.778	-200.000	-0.039	0.458
-299.764	150.631	0.117	-0.159
-298.749	56.232	-0.296	0.286
-297.735	-49.415	-0.214	0.101
-296.720	-200.000	-0.046	0.245
-295.705	-51.432	0.194	0.090
-294.691	119.238	0.186	0.228
-293.676	-97.505	0.146	0.038
-292.662	229.419	-0.140	0.228
-291.647	-140.483	0.226	0.023
-290.632	-18.604	-0.180	0.112
-289.618	-31.916	0.277	-0.154
-288.603	-174.336	0.339	-0.010
-287.589	800.000	-0.107	0.464
-286.574	-141.871	-0.434	-0.043
-285.559	800.000	0.005	-0.019
-284.545	-200.000	-0.033	0.193
-283.530	31.315	0.341	0.291
-282.516	-94.778	-0.202	-0.055
-281.501	-191.557	-0.451	0.004
-280.486	-200.000	-0.056	0.267
-279.472	-33.301	0.235	-0.129
-278.457	-105.963	0.178	-0.040
-277.443	20.028	-0.221	-0.177
-276.428	-200.000	0.018	-0.151
-275.413	-96.228	-0.198	0.052
-274.399	16.110	0.482	-0.377
-273.384	382.574	0.112	0.229
-272.370	-109.146	0.188	0.040
-271.355	76.499	0.189	0.199
-270.340	-151.354	-0.091	-0.007
-269.326	-200.000	0.089	0.396
-268.311	-173.948	-0.175	-0.005
-267.297	-29.012	0.171	-0.098
-266.282	-100.316	0.275	0.068
-265.267	-57.344	0.228	-0.100
-264.253	-142.150	-0.343	0.034
-263.238	215.316	-0.200	0.315
-262.224	399.893	-0.096	0.200
-261.209	-139.714	-0.244	0.026
-260.195	800.000	-0.071	0.286
-259.180	10.151	-0.074	-0.056
-258.165	-145.733	0.118	-0.010
-257.151	168.899	0.017	0.024
-256.136	-200.000	0.025	0.302
-255.122	800.000	0.074	0.202
-254.107	-200.000	0.019	-0.205
-253.092	-200.000	0.019	0.193
-252.078	-122.052	-0.233	0.038
-251.063	-123.760	0.069	0.011
-250.049	-20.875	0.076	-0.046
-249.034	-200.000	-0.009	-0.446
-248.019	514.135	-0.086	-0.198
-247.005	120.562	0.191	-0.236
-245.990	-185.667	0.283	-0.004
-244.976	88.813	-0.176	0.195
-243.961	-181.099	-0.048	-0.001
-242.946	-170.872	-0.167	0.006
-241.932	-69.576	0.199	-0.075
-240.917	-132.522	-0.126	0.016
-239.903	34.635	-0.199	-0.173
-238.888	-192.643	0.127	-0.001
-237.873	800.000	-0.018	0.061
-236.859	-66.091	0.125	0.049
-235.844	-131.642	-0.201	0.026
-234.830	-200.000	0.030	0.355
-233.815	17.883	-0.210	0.166
-232.800	-125.713	-0.384	0.058
-231.786	54.763	0.152	-0.146
-230.771	-81.013	-0.253	-0.083
-229.757	-200.000	0.045	0.527
-228.742	800.000	0.008	0.024
-227.727	800.000	-0.190	-0.572
-226.713	119.285	-0.164	0.201
-225.698	34.594	-0.318	0.275
-224.684	-41.960	0.244	-0.124
-223.669	800.000	-0.049	-0.165
-222.655	4.793	-0.251	0.183
-221.640	47.799	-0.050	-0.046
-220.625	10.391	0.202	-0.152
-219.611	101.586	0.149	0.172
-218.596	-139.811	-0.164	-0.017
-217.582	-98.463	-0.248	-0.063
-216.567	166.954	-0.216	0.303
-215.552	-117.678	-0.054	0.010
-214.538	-58.740	-0.152	0.065
-213.523	592.782	-0.073	0.180
-212.509	-77.618	-0.219	-0.075
-211.494	-190.449	-0.089	-0.001
-210.479	375.664	0.211	0.427
-209.465	163.240	0.145	0.201
-208.450	-200.000	-0.003	0.175
-207.436	-200.000	0.008	0.385
-206.421	-137.693	0.300	0.033
-205.406	-49.088	-0.177	0.084
-204.392	800.000	0.097	0.348
-203.377	-200.000	0.029	0.309
-202.363	139.232	0.058	0.076
-201.348	-200.000	0.001	-0.307
-200.333	-27.908	-0.262	-0.150
-199.319	-69.248	-0.293	0.112
-198.304	-73.144	0.268	-0.097
-197.290	237.070	0.013	-0.022
-196.275	-200.000	0.220	0.001
-195.260	133.146	0.062	-0.080
-194.246	800.000	0.009	0.037
-193.231	32.382	0.197	-0.168
-192.217	-141.143	0.563	-0.057
-191.202	-12.159	0.045	-0.029
-190.187	800.000	0.123	-0.341
-189.173	-90.661	0.486	-0.139
-188.158	45.557	-0.121	0.111
-187.144	-200.000	-0.017	-0.303
-186.129	800.000	0.045	-0.142
-185.114	459.871	0.028	-0.063
-184.100	-14.514	0.205	0.131
-183.085	-178.849	0.181	-0.004
-182.071	800.000	-0.110	-0.419
-181.056	-150.295	0.403	-0.031
-180.042	67.264	-0.237	-0.239
-179.027	31.557	-0.130	-0.111
-178.012	-200.000	0.007	-0.036
-176.998	-46.271	0.368	-0.179
-175.983	800.000	-0.047	0.194
-174.969	26.038	-0.101	0.083
-173.954	-157.343	0.183	-0.011
-172.939	96.361	-0.089	-0.101
-171.925	-45.056	0.194	-0.096
-170.910	-200.000	-0.042	0.240
-169.896	211.623	0.214	0.333
-168.881	-158.794	0.104	0.006
-167.866	-104.008	-0.197	0.045
-166.852	-156.359	0.351	-0.022
-165.837	462.492	-0.143	-0.316
-164.823	-153.615	0.184	0.013
-163.808	-200.000	-0.059	-0.332
-162.793	129.712	0.142	-0.180
-161.779	378.219	-0.163	0.330
-160.764	-0.019	0.145	-0.102
-159.750	-200.000	-0.047	-0.242
-158.735	152.479	0.088	0.119
-157.720	-200.000	-0.014	0.109
-156.706	398.870	0.138	-0.287
-155.691	-200.000	0.019	-0.135
-154.677	-147.175	-0.077	-0.006
-153.662	-200.000	0.053	0.297
-152.647	82.095	-0.129	-0.138
-151.633	-200.000	0.003	0.046
-150.618	128.023	-0.134	-0.168
-149.604	426.476	0.091	-0.194
-148.589	-36.375	-0.058	-0.031
-147.574	-70.169	-0.131	-0.049
-146.560	-31.339	0.170	-0.095
-145.545	30.146	-0.050	-0.042
-144.531	15.162	0.150	0.116
-143.516	-200.000	-0.024	0.367
-142.502	-141.302	0.070	0.007
-141.487	-200.000	0.006	0.232
-140.472	34.211	0.209	-0.180
-139.458	-66.504	-0.214	0.084
-138.443	290.813	-0.110	-0.198
-137.429	-34.220	0.443	0.240
-136.414	-200.000	0.005	0.131
-135.399	-110.199	-0.033	-0.007
-134.385	606.741	-0.055	-0.136
-133.370	690.898	0.052	0.134
-132.356	-84.166	-0.204	0.064
-131.341	51.684	0.069	0.065
-130.326	-73.293	-0.310	0.112
-129.312	-200.000	-0.034	-0.237
-128.297	-19.856	0.161	0.098
-127.283	136.883	0.055	-0.071
-126.268	479.727	0.155	0.346
-125.253	-98.342	-0.113	0.029
-124.239	-4.934	-0.216	0.147
-123.224	-200.000	0.012	-0.080
-122.210	154.024	0.145	0.197
