DTS Sentinel unit serial number:	SN413079Multiplexer serial number:	ORYXHardware model number:	OX4-SRSoftware version number:	ORYX F/W v4.00 Oryx Data Collector v3.7.2.0data status	okinstallation	princeton_trtdifferential loss correction	single-endedforward channel	channel 2reverse channel	N/Adate	2019/09/11time	17:57:11forward acquisition time	60.00reverse acquisition time	0.00gamma	496.2192k internal	0.2284k external	0.2284temperature offset calibration	1.0023default loss term (dB/km)	0.3790temperature slope calibration	1.0000multiplexer offset coefficient	1.0000multiplexer slope coefficient	1.0000fibre end	0.00T internal ref (°C)	44.00T ext. ref 1 (°C)	1.15T ext. ref 2 (°C)	39.14length (m)	temperature (°C)	Stokes	anti-Stokes-747.200	203.040	0.083	0.132
-746.185	326.072	0.031	0.061
-745.171	85.554	-0.315	-0.355
-744.156	-200.000	0.011	-0.202
-743.142	28.015	-0.221	-0.192
-742.127	-126.884	0.347	-0.052
-741.112	-200.000	0.062	0.281
-740.098	-200.000	0.023	0.334
-739.083	89.542	-0.168	-0.192
-738.069	-200.000	0.103	0.000
-737.054	-24.455	0.345	-0.211
-736.039	800.000	-0.045	-0.170
-735.025	-84.381	0.328	-0.107
-734.010	-42.588	-0.471	-0.246
-732.996	739.258	-0.096	0.265
-731.981	-200.000	-0.074	-0.461
-730.966	-200.000	-0.014	-0.215
-729.952	353.589	-0.090	-0.183
-728.937	39.318	0.071	0.065
-727.923	40.329	-0.150	-0.139
-726.908	117.032	-0.137	-0.173
-725.894	75.611	0.058	0.063
-724.879	-17.505	0.148	0.096
-723.864	-200.000	-0.007	0.115
-722.850	-45.353	0.311	0.158
-721.835	99.280	-0.054	-0.064
-720.821	-88.760	0.033	-0.010
-719.806	78.785	0.196	-0.215
-718.791	89.243	-0.267	-0.305
-717.777	179.269	-0.253	-0.380
-716.762	-143.102	-0.052	-0.005
-715.748	-64.430	-0.080	0.033
-714.733	-77.976	-0.185	0.065
-713.718	-87.515	-0.309	0.096
-712.704	800.000	-0.016	0.056
-711.689	-118.564	0.306	-0.056
-710.675	800.000	-0.119	-0.386
-709.660	-127.684	-0.162	-0.024
-708.645	-200.000	-0.016	-0.233
-707.631	-184.468	-0.190	0.003
-706.616	92.415	0.165	-0.191
-705.602	326.608	-0.111	0.217
-704.587	-87.590	0.093	0.029
-703.572	-78.738	-0.090	0.031
-702.558	800.000	-0.077	-0.224
-701.543	37.233	-0.123	-0.112
-700.529	448.040	0.089	0.200
-699.514	-74.525	0.063	0.023
-698.499	-74.249	-0.064	0.024
-697.485	35.055	-0.264	0.237
-696.470	-50.193	0.094	-0.046
-695.456	-55.157	-0.270	-0.125
-694.441	56.321	-0.126	-0.126
-693.426	-167.414	-0.179	-0.007
-692.412	-200.000	-0.050	0.251
-691.397	800.000	-0.049	-0.185
-690.383	800.000	0.060	0.231
-689.368	-200.000	0.019	-0.115
-688.354	-148.867	0.064	-0.005
-687.339	-200.000	0.266	-0.001
-686.324	-161.288	0.283	-0.015
-685.310	-103.289	-0.321	0.078
-684.295	300.884	0.079	-0.149
-683.281	-200.000	-0.017	-0.140
-682.266	183.737	-0.106	0.160
-681.251	-167.298	0.383	-0.016
-680.237	318.458	0.112	0.218
-679.222	168.788	0.018	-0.026
-678.208	-79.115	0.283	-0.099
-677.193	-106.637	-0.292	-0.067
-676.178	512.452	0.049	0.117
-675.164	-57.936	-0.221	-0.099
-674.149	-81.837	0.204	-0.068
-673.135	-200.000	0.018	-0.108
-672.120	-200.000	-0.079	-0.355
-671.105	197.762	0.127	0.199
-670.091	-66.244	0.235	-0.096
-669.076	-85.375	-0.276	0.088
-668.062	24.011	-0.229	0.193
-667.047	141.302	-0.287	0.388
-666.032	-29.283	-0.329	0.193
-665.018	-83.407	-0.318	-0.104
-664.003	-200.000	0.006	-0.236
-662.989	9.117	0.207	0.160
-661.974	-200.000	0.055	0.588
-660.959	243.581	-0.115	-0.198
-659.945	28.202	0.095	0.082
-658.930	-60.925	0.161	0.070
-657.916	6.607	0.077	-0.058
-656.901	25.567	-0.005	0.005
-655.886	42.144	-0.123	0.115
-654.872	23.899	0.140	-0.118
-653.857	-35.751	-0.175	0.097
-652.843	-109.394	0.290	0.063
-651.828	331.738	0.091	-0.179
-650.814	-200.000	-0.025	0.230
-649.799	31.899	-0.176	0.155
-648.784	-152.895	-0.126	-0.009
-647.770	68.080	-0.246	0.257
-646.755	-200.000	-0.008	-0.147
-645.741	-105.659	0.208	0.048
-644.726	-43.839	0.208	-0.107
-643.711	70.480	-0.025	-0.026
-642.697	154.671	-0.103	0.144
-641.682	800.000	-0.095	-0.311
-640.668	131.735	-0.101	-0.133
-639.653	-200.000	0.044	-0.209
-638.638	8.200	-0.043	0.033
-637.624	-200.000	0.011	-0.272
-636.609	-122.129	0.359	-0.060
-635.595	14.688	-0.078	0.062
-634.580	474.217	0.031	0.071
-633.565	302.215	-0.047	-0.088
-632.551	-151.034	0.475	-0.037
-631.536	-18.947	-0.108	0.069
-630.522	-63.762	-0.121	0.051
-629.507	-121.488	0.560	0.095
-628.492	124.192	-0.142	-0.182
-627.478	27.615	0.208	0.179
-626.463	524.185	0.036	0.086
-625.449	173.107	0.198	0.292
-624.434	24.994	-0.199	-0.169
-623.419	-51.866	0.134	-0.064
-622.405	188.569	0.116	-0.177
-621.390	-200.000	0.033	-0.224
-620.376	27.485	0.315	0.271
-619.361	-74.304	0.274	-0.101
-618.346	-28.605	-0.219	-0.129
-617.332	31.040	0.163	0.143
-616.317	104.071	-0.066	0.079
-615.303	800.000	-0.047	-0.170
-614.288	-121.598	-0.204	-0.034
-613.273	10.845	0.328	0.256
-612.259	-63.197	-0.207	-0.087
-611.244	217.264	-0.037	0.061
-610.230	-84.100	-0.176	0.057
-609.215	240.562	0.185	-0.316
-608.201	-200.000	-0.069	-0.459
-607.186	-200.000	0.008	-0.219
-606.171	-120.944	-0.173	-0.030
-605.157	-54.814	-0.271	-0.125
-604.142	-200.000	0.026	-0.357
-603.128	-200.000	-0.097	0.461
-602.113	-8.139	-0.164	-0.113
-601.098	-95.825	0.056	0.015
-600.084	-200.000	0.044	-0.240
-599.069	429.603	-0.146	-0.323
-598.055	-18.512	0.208	-0.132
-597.040	128.601	0.135	0.176
-596.025	112.466	0.100	0.124
-595.011	438.970	-0.169	0.377
-593.996	-200.000	-0.066	0.494
-592.982	-43.904	0.264	0.136
-591.967	-200.000	0.020	-0.415
-590.952	-7.840	-0.127	-0.088
-589.938	-70.254	0.171	0.066
-588.923	800.000	0.123	0.388
-587.909	-7.054	-0.019	-0.013
-586.894	646.284	0.069	-0.179
-585.879	-200.000	0.007	0.113
-584.865	-38.894	-0.341	0.183
-583.850	80.267	-0.218	0.239
-582.836	124.543	-0.108	-0.139
-581.821	-19.710	-0.100	0.063
-580.806	158.985	0.069	0.098
-579.792	-200.000	-0.025	-0.351
-578.777	14.582	-0.236	-0.188
-577.763	800.000	-0.125	-0.394
-576.748	-33.908	-0.289	-0.162
-575.733	79.790	0.096	-0.106
-574.719	335.345	-0.145	0.287
-573.704	149.730	0.138	0.191
-572.690	246.582	-0.153	-0.263
-571.675	460.968	-0.108	0.246
-570.661	-107.612	-0.133	-0.030
-569.646	394.103	0.125	-0.265
-568.631	-140.765	0.289	0.030
-567.617	114.147	-0.185	0.229
-566.602	-124.162	-0.189	0.030
-565.588	138.824	-0.151	0.202
-564.573	-119.314	-0.155	0.027
-563.558	214.522	0.248	0.401
-562.544	53.750	0.085	0.083
-561.529	-69.095	-0.292	0.115
-560.515	55.868	-0.101	0.100
-559.500	-49.941	-0.268	-0.130
-558.485	-62.648	0.206	-0.087
-557.471	49.377	-0.151	0.145
-556.456	39.544	-0.135	-0.123
-555.442	-154.209	0.098	0.007
-554.427	800.000	0.081	0.284
-553.412	800.000	-0.123	-0.426
-552.398	-84.708	-0.127	0.041
-551.383	-98.380	0.204	-0.053
-550.369	-85.570	0.231	-0.073
-549.354	65.957	-0.139	-0.144
-548.339	-60.899	0.116	0.050
-547.325	556.435	0.006	0.014
-546.310	-42.155	-0.064	-0.034
-545.296	-73.438	0.086	0.032
-544.281	-200.000	0.015	0.186
-543.266	234.437	-0.122	0.206
-542.252	-72.965	0.070	-0.026
-541.237	-33.808	-0.144	-0.081
-540.223	-200.000	-0.027	0.201
-539.208	-49.690	-0.191	-0.092
-538.193	-147.858	-0.191	-0.016
-537.179	-181.880	0.209	0.004
-536.164	147.443	-0.053	-0.073
-535.150	167.743	-0.165	0.240
-534.135	2.186	-0.065	-0.048
-533.121	-52.370	-0.333	-0.157
-532.106	-106.086	-0.571	-0.131
-531.091	401.690	0.190	-0.407
-530.077	184.560	0.038	-0.058
-529.062	434.014	0.032	0.071
-528.048	-124.632	0.180	-0.028
-527.033	-101.335	-0.153	-0.038
-526.018	-55.497	-0.217	-0.099
-525.004	280.482	-0.120	-0.219
-523.989	-200.000	-0.020	-0.202
-522.975	103.532	-0.214	0.256
-521.960	13.081	0.093	-0.074
-520.945	-71.690	0.266	-0.101
-519.931	-14.058	0.133	-0.087
-518.916	76.165	-0.112	0.120
-517.902	115.293	-0.120	0.149
-516.887	576.199	0.169	0.420
-515.872	295.949	0.148	0.277
-514.858	-130.665	-0.143	-0.020
-513.843	-1.343	0.305	-0.219
-512.829	45.665	0.169	0.159
-511.814	-200.000	-0.044	-0.253
-510.799	-59.093	0.036	0.016
-509.785	-116.349	0.260	0.049
-508.770	110.881	-0.032	0.039
-507.756	-64.548	-0.167	-0.069
-506.741	-15.691	-0.116	0.075
-505.726	-115.036	-0.211	-0.041
-504.712	-124.584	0.374	0.059
-503.697	-167.876	-0.243	-0.010
-502.683	-69.246	-0.335	-0.131
-501.668	68.084	-0.228	-0.238
-500.653	-69.962	-0.166	0.065
-499.639	-200.000	0.008	-0.329
-498.624	762.475	0.063	0.173
-497.610	509.429	0.077	0.181
-496.595	-200.000	-0.094	0.000
-495.581	147.420	0.098	0.135
-494.566	71.653	-0.121	0.128
-493.551	-65.617	-0.266	-0.109
-492.537	7.104	0.163	-0.123
-491.522	-19.626	0.273	-0.172
-490.508	-43.441	-0.343	0.176
-489.493	-99.428	0.202	-0.052
-488.478	-83.525	-0.149	0.048
-487.464	573.879	-0.044	0.108
-486.449	-156.664	-0.211	0.013
-485.435	800.000	0.044	0.125
-484.420	136.216	-0.170	-0.225
-483.405	-180.117	-0.127	0.003
-482.391	-126.966	0.141	-0.021
-481.376	-75.907	-0.324	0.116
-480.362	-95.279	0.218	0.060
-479.347	30.092	-0.186	0.161
-478.332	163.358	-0.172	-0.245
-477.318	426.243	-0.107	0.234
-476.303	266.421	0.128	0.226
-475.289	-87.969	-0.113	-0.035
-474.274	146.819	0.041	-0.056
-473.259	490.466	0.116	-0.271
-472.245	-11.218	0.169	-0.113
-471.230	-200.000	0.003	0.030
-470.216	-71.373	-0.121	0.046
-469.201	-200.000	0.038	0.175
-468.186	-152.968	0.520	0.037
-467.172	-127.850	0.341	-0.050
-466.157	40.807	0.235	-0.216
-465.143	-179.593	-0.029	0.001
-464.128	269.624	-0.153	0.273
-463.113	610.675	0.050	-0.128
-462.099	-109.515	0.136	0.029
-461.084	800.000	-0.120	0.343
-460.070	-46.998	0.179	0.089
-459.055	47.293	0.178	0.168
-458.040	142.074	0.187	0.252
-457.026	661.268	0.090	-0.237
-456.011	-172.261	-0.076	-0.002
-454.997	800.000	-0.079	0.224
-453.982	-64.995	0.416	-0.171
-452.968	64.349	0.079	0.081
-451.953	-148.385	0.294	0.025
-450.938	-200.000	0.017	-0.080
-449.924	-138.000	-0.024	-0.003
-448.909	-164.374	-0.216	-0.010
-447.895	597.353	-0.048	-0.121
-446.880	-200.000	0.042	-0.279
-445.865	-90.315	-0.063	0.018
-444.851	374.280	-0.166	-0.343
-443.836	800.000	-0.099	-0.324
-442.822	-51.107	-0.162	-0.077
-441.807	-200.000	0.027	-0.485
-440.792	-76.167	-0.261	-0.093
-439.778	84.223	-0.261	0.289
-438.763	-123.527	-0.195	-0.032
-437.749	389.083	-0.019	0.039
-436.734	-7.190	-0.177	0.122
-435.719	-69.751	0.200	0.077
-434.705	-105.040	0.358	-0.083
-433.690	-62.205	0.281	0.119
-432.676	51.219	-0.337	-0.325
-431.661	-64.969	0.072	0.030
-430.646	151.523	0.230	-0.318
-429.632	414.510	0.114	0.247
-428.617	-200.000	0.011	-0.140
-427.603	800.000	0.127	-0.382
-426.588	202.390	0.304	-0.477
-425.573	-110.231	-0.287	-0.061
-424.559	-200.000	-0.006	-0.190
-423.544	-56.280	0.056	-0.025
-422.530	-200.000	0.031	-0.209
-421.515	-90.997	-0.203	-0.059
-420.500	242.875	-0.082	0.140
-419.486	214.993	0.207	0.333
-418.471	77.284	-0.201	0.217
-417.457	-15.986	0.204	-0.132
-416.442	-68.163	-0.307	-0.121
-415.428	472.122	0.022	-0.051
-414.413	-200.000	0.004	-0.234
-413.398	59.350	-0.201	0.201
-412.384	80.028	-0.105	-0.114
-411.369	-52.046	0.213	0.100
-410.355	212.094	-0.035	-0.057
-409.340	800.000	-0.027	-0.080
-408.325	-200.000	-0.007	0.108
-407.311	71.788	-0.088	-0.092
-406.296	800.000	-0.033	0.129
-405.282	-113.718	0.310	-0.061
-404.267	-140.646	-0.237	-0.025
-403.252	-34.208	0.092	0.051
-402.238	664.572	0.075	0.197
-401.223	-8.957	0.226	-0.153
-400.209	-139.953	0.294	0.031
-399.194	21.255	-0.060	0.049
-398.179	-200.000	0.035	0.353
-397.165	-200.000	0.005	-0.302
-396.150	-109.259	-0.286	0.062
-395.136	433.536	-0.026	0.057
-394.121	-76.465	-0.156	-0.056
-393.106	594.395	0.043	-0.109
-392.092	-200.000	-0.035	0.504
-391.077	800.000	0.053	0.164
-390.063	-200.000	0.029	0.154
-389.048	-80.965	-0.088	-0.029
-388.033	132.998	-0.208	0.272
-387.019	-200.000	-0.026	0.250
-386.004	-34.572	-0.160	0.089
-384.990	-57.996	0.268	0.119
-383.975	30.798	0.209	0.181
-382.960	-25.454	-0.159	0.095
-381.946	721.340	-0.018	-0.048
-380.931	7.148	-0.093	0.070
-379.917	134.664	0.133	-0.175
-378.902	73.787	0.240	-0.255
-377.888	713.704	0.021	0.055
-376.873	622.508	-0.073	0.186
-375.858	-174.592	0.445	-0.013
-374.844	-91.985	0.171	-0.049
-373.829	-72.076	0.300	-0.113
-372.815	-72.998	0.280	0.104
-371.800	201.335	-0.179	-0.279
-370.785	800.000	-0.033	0.114
-369.771	-24.243	-0.019	-0.011
-368.756	800.000	0.134	-0.407
-367.742	-33.469	0.127	-0.071
-366.727	54.556	0.157	0.153
-365.712	-161.908	-0.149	-0.008
-364.698	-70.624	0.242	0.092
-363.683	-99.241	0.226	-0.058
-362.669	641.617	0.061	0.157
-361.654	-66.107	0.312	0.126
-360.639	32.891	0.136	-0.119
-359.625	269.579	-0.063	-0.111
-358.610	-200.000	0.006	-0.153
-357.596	-136.136	0.204	0.024
-356.581	-200.000	-0.079	-0.386
-355.566	800.000	0.039	0.137
-354.552	1.071	-0.102	0.074
-353.537	-21.061	0.163	-0.101
-352.523	-158.799	0.261	-0.015
-351.508	-131.311	0.251	0.034
-350.493	-179.987	-0.264	0.006
-349.479	800.000	-0.065	-0.182
-348.464	-65.124	0.273	0.112
-347.450	-72.191	-0.042	0.016
-346.435	70.674	-0.104	0.109
-345.420	127.302	-0.076	-0.097
-344.406	-91.473	0.125	0.036
-343.391	-200.000	0.024	-0.312
-342.377	74.387	0.202	0.214
-341.362	-131.790	-0.423	0.056
-340.348	313.831	-0.110	0.209
-339.333	-200.000	-0.004	-0.067
-338.318	-31.822	-0.153	0.087
-337.304	-181.030	0.105	0.002
-336.289	43.316	-0.179	0.165
-335.275	35.336	-0.134	-0.119
-334.260	-57.710	-0.234	0.104
-333.245	-9.735	0.028	0.019
-332.231	800.000	0.072	-0.243
-331.216	800.000	-0.060	-0.238
-330.202	746.883	0.055	0.150
-329.187	163.245	0.116	0.165
-328.172	9.029	0.243	-0.185
-327.158	-85.091	-0.207	0.065
-326.143	53.807	0.104	-0.101
-325.129	800.000	-0.089	-0.274
-324.114	-129.130	0.048	0.007
-323.099	-163.673	-0.163	0.008
-322.085	59.656	0.206	-0.206
-321.070	-165.510	-0.082	0.004
-320.056	-64.127	-0.376	0.155
-319.041	-200.000	0.007	0.356
-318.026	128.207	-0.351	0.452
-317.012	724.676	0.037	-0.099
-315.997	23.008	-0.141	0.116
-314.983	-62.959	0.167	-0.070
-313.968	-58.667	-0.301	-0.132
-312.953	327.805	-0.043	-0.084
-311.939	-200.000	0.032	0.300
-310.924	169.718	-0.045	-0.065
-309.910	-192.627	-0.201	-0.002
-308.895	800.000	-0.012	0.042
-307.880	98.977	-0.035	-0.040
-306.866	-102.105	-0.035	0.009
-305.851	105.801	-0.120	-0.143
-304.837	56.130	0.066	0.065
-303.822	31.187	-0.147	-0.127
-302.807	120.142	0.290	-0.363
-301.793	31.777	-0.188	0.164
-300.778	41.841	-0.173	0.158
-299.764	800.000	-0.076	-0.215
-298.749	800.000	0.073	-0.287
-297.735	-200.000	0.007	-0.176
-296.720	-97.502	0.228	-0.060
-295.705	10.973	-0.198	-0.153
-294.691	-79.187	-0.071	-0.024
-293.676	-16.309	0.372	0.238
-292.662	-176.531	-0.093	0.002
-291.647	-89.974	0.392	0.116
-290.632	-99.998	0.154	0.039
-289.618	281.761	-0.124	0.224
-288.603	287.449	0.162	0.296
-287.589	-100.266	-0.036	0.009
-286.574	-84.417	-0.054	0.017
-285.559	-200.000	-0.011	0.155
-284.545	800.000	0.036	0.114
-283.530	-60.806	-0.267	0.114
-282.516	130.662	-0.059	-0.076
-281.501	-126.164	-0.200	0.030
-280.486	-26.252	0.196	0.116
-279.472	-200.000	-0.212	0.000
-278.457	213.998	0.135	-0.216
-277.443	75.329	0.284	-0.302
-276.428	800.000	-0.094	-0.263
-275.413	55.643	-0.156	-0.152
-274.399	-130.468	0.141	0.019
-273.384	-200.000	0.008	-0.111
-272.370	800.000	0.040	0.119
-271.355	-58.035	-0.338	-0.149
-270.340	134.042	-0.148	0.193
-269.326	800.000	-0.061	0.244
-268.311	374.746	0.012	-0.025
-267.297	-59.755	0.235	-0.101
-266.282	47.521	0.090	-0.085
-265.267	-135.304	-0.143	0.017
-264.253	-110.826	-0.080	0.017
-263.238	-200.000	-0.008	0.064
-262.224	-200.000	-0.012	-0.266
-261.209	-200.000	-0.011	-0.197
-260.195	-124.697	0.244	-0.038
-259.180	-107.521	-0.053	-0.012
-258.165	-89.570	-0.062	-0.018
-257.151	-200.000	0.001	0.071
-256.136	-200.000	0.053	0.453
-255.122	800.000	0.051	-0.184
-254.107	-42.996	-0.029	-0.015
-253.092	800.000	-0.075	0.220
-252.078	171.703	0.088	-0.128
-251.063	328.780	-0.107	0.207
-250.049	800.000	-0.031	-0.124
-249.034	291.666	0.062	0.113
-248.019	32.289	-0.256	0.223
-247.005	-4.158	0.149	0.104
-245.990	304.848	-0.041	-0.077
-244.976	-128.205	0.401	-0.058
-243.961	-199.048	-0.091	0.000
-242.946	-122.285	0.284	-0.047
-241.932	592.388	-0.113	-0.282
-240.917	77.328	0.259	-0.278
-239.903	-49.812	-0.146	-0.070
-238.888	800.000	-0.028	-0.103
-237.873	-17.432	0.188	0.119
-236.859	456.510	0.071	0.159
-235.844	-73.444	0.294	-0.108
-234.830	800.000	0.073	0.280
-233.815	413.191	0.123	0.264
-232.800	-74.240	0.162	0.059
-231.786	-200.000	-0.046	-0.259
-230.771	179.246	-0.069	-0.102
-229.757	-75.539	-0.208	0.074
-228.742	-200.000	0.007	-0.239
-227.727	800.000	0.052	-0.225
-226.713	-23.169	0.229	-0.139
-225.698	482.487	-0.072	0.164
-224.684	494.254	0.082	0.189
-223.669	-181.815	0.220	-0.004
-222.655	323.690	-0.222	0.426
-221.640	57.236	-0.266	-0.261
-220.625	-67.655	-0.259	0.102
-219.611	800.000	-0.026	-0.072
-218.596	71.071	0.208	-0.217
-217.582	-200.000	-0.008	0.115
-216.567	-20.129	0.135	0.084
-215.552	-200.000	-0.069	0.476
-214.538	83.566	0.207	0.227
-213.523	-138.871	0.162	0.018
-212.509	-185.500	-0.190	-0.003
-211.494	-55.388	-0.175	-0.079
-210.479	-103.453	-0.605	0.143
-209.465	83.440	-0.191	-0.209
-208.450	140.630	0.038	0.051
-207.436	12.343	-0.071	0.055
-206.421	588.104	0.028	-0.069
-205.406	800.000	0.037	-0.116
-204.392	228.502	0.064	-0.105
-203.377	800.000	0.027	-0.097
-202.363	-67.920	-0.080	0.031
-201.348	-119.409	0.547	0.096
-200.333	-127.719	-0.103	-0.015
-199.319	33.867	0.122	-0.107
-198.304	-200.000	0.008	-0.192
-197.290	-134.159	0.038	-0.005
-196.275	-71.827	0.190	-0.071
-195.260	-88.896	0.148	-0.044
-194.246	-89.352	0.251	-0.074
-193.231	-200.000	0.060	0.299
-192.217	-200.000	0.028	0.250
-191.202	318.229	0.112	0.213
-190.187	800.000	0.018	-0.057
-189.173	3.606	0.237	0.174
-188.158	-25.802	-0.322	-0.191
-187.144	164.268	-0.236	0.335
-186.129	497.352	-0.054	0.125
-185.114	-121.720	0.486	0.081
-184.100	-148.803	-0.055	0.005
-183.085	-89.512	-0.323	0.095
-182.071	-200.000	0.008	-0.244
-181.056	-10.321	-0.196	-0.130
-180.042	-200.000	0.049	-0.369
-179.027	156.401	0.110	0.152
-178.012	-119.593	-0.227	0.039
-176.998	-5.230	-0.206	0.143
-175.983	-32.900	0.188	-0.105
-174.969	800.000	0.051	0.143
-173.954	-110.037	0.234	0.049
-172.939	-70.354	-0.475	-0.181
-171.925	281.890	-0.163	0.294
-170.910	800.000	-0.102	0.422
-169.896	-125.795	0.364	0.055
-168.881	-76.477	0.050	0.018
-167.866	-200.000	0.049	-0.289
-166.852	155.885	0.119	-0.165
-165.837	631.697	-0.081	0.206
-164.823	587.108	-0.043	0.106
-163.808	509.153	0.170	-0.396
-162.793	240.960	-0.171	0.287
-161.779	-146.962	-0.379	0.033
-160.764	3.455	0.318	0.233
-159.750	-200.000	-0.027	-0.172
-158.735	-149.747	0.182	-0.014
-157.720	-200.000	-0.017	0.175
-156.706	-67.865	-0.128	-0.050
-155.691	-58.403	0.385	0.168
-154.677	53.637	-0.229	0.221
-153.662	-109.464	-0.573	0.121
-152.647	-99.281	0.519	0.131
-151.633	-75.756	-0.236	0.084
-150.618	149.959	0.118	-0.161
-149.604	-6.385	-0.240	0.164
-148.589	-86.015	0.348	-0.108
-147.574	198.656	0.214	-0.328
-146.560	60.940	0.084	-0.084
-145.545	54.487	-0.086	-0.083
-144.531	-200.000	0.019	0.216
-143.516	99.841	-0.385	0.448
-142.502	776.024	-0.078	0.212
-141.487	321.372	0.132	0.252
-140.472	-200.000	0.027	-0.119
-139.458	-200.000	-0.023	-0.234
-138.443	800.000	-0.025	0.102
-137.429	-200.000	-0.006	-0.072
-136.414	-39.450	0.273	-0.144
-135.399	157.346	-0.067	-0.093
-134.385	333.573	0.125	0.243
-133.370	-200.000	0.012	0.172
-132.356	-200.000	0.020	0.238
-131.341	-182.666	-0.100	0.002
-130.326	-110.312	-0.257	0.054
-129.312	70.042	0.121	-0.125
-128.297	-126.886	0.289	0.043
-127.283	-108.272	0.491	0.106
-126.268	43.631	-0.149	-0.137
-125.253	174.846	-0.097	0.140
-124.239	518.764	0.069	-0.163
-123.224	257.838	-0.099	-0.171
-122.210	417.239	-0.147	0.315
-121.195	-178.508	-0.279	-0.006
