DTS Sentinel unit serial number:	SN413079Multiplexer serial number:	ORYXHardware model number:	OX4-SRSoftware version number:	ORYX F/W v4.00 Oryx Data Collector v3.7.2.0data status	okinstallation	princeton_trtdifferential loss correction	single-endedforward channel	channel 2reverse channel	N/Adate	2019/09/12time	03:25:11forward acquisition time	60.00reverse acquisition time	0.00gamma	496.2192k internal	0.2326k external	0.2326temperature offset calibration	1.0094default loss term (dB/km)	0.3790temperature slope calibration	1.0000multiplexer offset coefficient	1.0000multiplexer slope coefficient	1.0000fibre end	0.00T internal ref (°C)	32.19T ext. ref 1 (°C)	2.16T ext. ref 2 (°C)	26.92length (m)	temperature (°C)	Stokes	anti-Stokes-747.200	206.367	0.273	-0.429
-746.185	800.000	-0.053	0.170
-745.171	-96.496	-0.208	0.055
-744.156	202.129	0.154	0.239
-743.142	-36.739	0.189	0.102
-742.127	800.000	0.085	0.324
-741.112	3.737	-0.025	0.019
-740.098	800.000	0.069	-0.239
-739.083	160.179	0.151	-0.212
-738.069	3.018	0.226	-0.166
-737.054	-11.696	0.102	-0.068
-736.039	-8.875	-0.160	0.108
-735.025	-67.106	-0.108	-0.043
-734.010	-200.000	0.000	-0.035
-732.996	-58.059	-0.368	0.162
-731.981	-89.652	-0.227	-0.067
-730.966	84.982	-0.169	-0.187
-729.952	-1.498	-0.188	-0.134
-728.937	-134.516	-0.288	0.035
-727.923	-95.683	-0.187	-0.050
-726.908	-114.534	-0.341	0.066
-725.894	9.899	-0.314	-0.240
-724.879	564.538	-0.166	-0.405
-723.864	-200.000	-0.006	-0.182
-722.850	-87.646	-0.081	0.025
-721.835	-131.329	-0.380	-0.051
-720.821	82.129	-0.112	-0.123
-719.806	-200.000	0.004	-0.254
-718.791	-21.307	0.303	0.186
-717.777	-157.990	0.186	-0.011
-716.762	-9.699	0.357	-0.239
-715.748	129.346	0.187	-0.240
-714.733	-104.786	-0.259	-0.060
-713.718	-200.000	-0.015	-0.255
-712.704	800.000	0.007	0.019
-711.689	-95.762	-0.050	-0.013
-710.675	10.753	-0.243	-0.187
-709.660	-200.000	0.009	-0.189
-708.645	-200.000	0.002	-0.080
-707.631	-200.000	-0.017	-0.136
-706.616	-139.782	-0.143	-0.015
-705.602	-200.000	0.020	-0.149
-704.587	-200.000	-0.041	-0.303
-703.572	763.409	-0.112	-0.306
-702.558	5.434	-0.092	-0.069
-701.543	800.000	0.076	-0.264
-700.529	-70.208	-0.153	-0.059
-699.514	460.554	0.081	0.182
-698.499	129.360	-0.194	-0.250
-697.485	-120.046	0.184	0.032
-696.470	98.490	0.130	0.151
-695.456	194.798	-0.084	-0.128
-694.441	800.000	0.027	-0.080
-693.426	-107.789	0.113	0.025
-692.412	-2.401	-0.297	-0.209
-691.397	-200.000	0.043	-0.215
-690.383	-200.000	-0.003	0.104
-689.368	-19.755	-0.350	-0.218
-688.354	649.135	0.104	-0.268
-687.339	412.425	-0.127	-0.272
-686.324	186.002	0.238	-0.357
-685.310	-200.000	-0.253	0.000
-684.295	-200.000	-0.003	-0.074
-683.281	-77.437	-0.287	0.100
-682.266	-200.000	0.043	-0.256
-681.251	-200.000	0.006	0.039
-680.237	-3.327	0.265	0.185
-679.222	-89.576	-0.106	0.031
-678.208	24.804	-0.122	0.102
-677.193	37.946	0.188	0.168
-676.178	68.900	-0.247	-0.255
-675.164	132.248	-0.101	-0.130
-674.149	800.000	-0.059	0.203
-673.135	-91.133	-0.565	-0.163
-672.120	-76.302	0.160	-0.057
-671.105	-157.013	0.299	0.018
-670.091	96.123	-0.104	0.120
-669.076	52.575	-0.156	0.150
-668.062	800.000	-0.024	0.068
-667.047	-71.793	0.152	-0.057
-666.032	-6.527	-0.273	0.187
-665.018	-107.198	-0.152	0.034
-664.003	-200.000	0.035	-0.270
-662.989	89.013	0.066	-0.074
-661.974	-200.000	0.013	-0.083
-660.959	-44.384	-0.263	0.132
-659.945	14.659	-0.068	-0.053
-658.930	-121.984	0.057	0.009
-657.916	22.976	0.214	-0.176
-656.901	117.593	-0.232	-0.287
-655.886	800.000	-0.080	-0.234
-654.872	74.919	0.152	-0.161
-653.857	57.383	-0.238	-0.233
-652.843	697.245	-0.072	0.191
-651.828	438.803	0.094	-0.207
-650.814	-200.000	0.031	-0.318
-649.799	68.391	-0.056	0.057
-648.784	100.042	0.076	0.088
-647.770	800.000	0.055	0.191
-646.755	-124.048	0.284	0.045
-645.741	800.000	-0.008	0.022
-644.726	112.752	0.049	0.060
-643.711	297.921	-0.091	-0.169
-642.697	-200.000	0.007	-0.381
-641.682	-200.000	-0.013	0.095
-640.668	-200.000	-0.045	-0.207
-639.653	-5.352	0.182	-0.125
-638.638	800.000	-0.111	-0.406
-637.624	800.000	-0.032	0.135
-636.609	430.238	0.163	0.355
-635.595	28.384	-0.176	0.150
-634.580	-151.478	-0.331	-0.025
-633.565	-144.424	0.072	0.007
-632.551	-26.379	0.280	0.165
-631.536	108.320	-0.033	-0.039
-630.522	-23.230	0.279	0.168
-629.507	516.106	-0.058	0.135
-628.492	578.926	-0.073	0.180
-627.478	-200.000	0.001	0.288
-626.463	44.502	0.071	-0.065
-625.449	612.773	0.089	-0.223
-624.434	167.624	0.053	-0.076
-623.419	-92.084	-0.272	0.077
-622.405	-81.611	-0.145	-0.048
-621.390	800.000	0.053	0.170
-620.376	19.074	-0.231	-0.186
-619.361	-98.347	0.207	-0.053
-618.346	-87.229	0.235	-0.072
-617.332	84.452	0.071	-0.078
-616.317	-42.340	0.133	0.068
-615.303	-21.682	-0.271	-0.165
-614.288	297.096	-0.217	0.399
-613.273	-97.058	-0.391	-0.103
-612.259	-11.363	0.136	-0.090
-611.244	800.000	0.103	-0.377
-610.230	-13.888	-0.100	-0.065
-609.215	-200.000	-0.006	0.151
-608.201	-151.286	-0.050	-0.004
-607.186	-179.537	-0.400	0.009
-606.171	-106.480	0.037	-0.008
-605.157	-200.000	-0.023	-0.277
-604.142	-173.016	0.289	-0.009
-603.128	126.403	0.105	-0.133
-602.113	-65.729	0.183	0.074
-601.098	-56.680	-0.394	-0.175
-600.084	800.000	0.161	0.670
-599.069	-145.597	0.195	0.018
-598.055	99.168	0.236	0.273
-597.040	-51.552	0.163	-0.076
-596.025	-200.000	-0.003	0.149
-595.011	-200.000	-0.051	0.275
-593.996	16.746	0.306	-0.243
-592.982	37.156	-0.318	-0.282
-591.967	12.321	-0.162	-0.125
-590.952	101.667	0.138	-0.161
-589.938	-101.288	-0.413	-0.101
-588.923	-50.993	0.054	-0.025
-587.909	-49.396	-0.098	-0.047
-586.894	9.752	0.134	-0.102
-585.879	29.274	-0.062	0.052
-584.865	-139.322	0.248	-0.027
-583.850	328.675	-0.156	0.300
-582.836	416.903	0.078	0.166
-581.821	-177.338	0.322	0.008
-580.806	-200.000	0.011	-0.219
-579.792	273.003	0.043	-0.076
-578.777	615.047	0.173	0.433
-577.763	-76.873	-0.282	-0.099
-576.748	72.465	0.196	-0.205
-575.733	-2.479	0.234	-0.165
-574.719	52.979	0.075	0.072
-573.704	5.923	-0.144	-0.107
-572.690	29.508	0.186	0.159
-571.675	-161.883	-0.255	-0.013
-570.661	234.840	-0.122	-0.202
-569.646	388.382	-0.072	0.150
-568.631	88.940	0.145	-0.161
-567.617	209.718	-0.082	-0.129
-566.602	-200.000	0.003	0.193
-565.588	243.832	0.179	0.300
-564.573	26.547	0.257	0.215
-563.558	-123.722	-0.101	0.016
-562.544	-8.673	0.407	0.273
-561.529	-129.371	-0.127	-0.018
-560.515	-145.130	-0.343	0.031
-559.500	-86.789	-0.097	0.030
-558.485	-131.918	-0.061	0.008
-557.471	-105.823	-0.118	-0.027
-556.456	-200.000	0.022	0.130
-555.442	800.000	0.048	0.146
-554.427	800.000	-0.010	0.028
-553.412	-101.994	-0.303	-0.073
-552.398	58.010	-0.163	0.160
-551.383	422.794	-0.055	0.118
-550.369	-124.079	-0.139	0.022
-549.354	-42.167	-0.121	-0.062
-548.339	136.699	-0.186	-0.243
-547.325	-183.176	-0.485	0.009
-546.310	-87.266	-0.203	-0.062
-545.296	152.482	-0.056	-0.077
-544.281	63.454	0.338	-0.339
-543.266	161.147	0.075	0.105
-542.252	207.381	-0.120	0.187
-541.237	-151.514	0.553	0.041
-540.223	800.000	0.023	0.084
-539.208	391.289	0.085	-0.177
-538.193	369.268	0.036	0.073
-537.179	-200.000	0.027	0.136
-536.164	13.353	0.075	-0.058
-535.150	16.671	-0.276	0.218
-534.135	-200.000	-0.054	-0.266
-533.121	-200.000	-0.053	0.339
-532.106	0.191	-0.180	0.129
-531.091	485.855	-0.034	0.078
-530.077	800.000	-0.054	-0.209
-529.062	-21.637	0.252	-0.154
-528.048	-200.000	-0.014	-0.389
-527.033	800.000	-0.030	-0.089
-526.018	6.059	-0.026	0.019
-525.004	264.502	-0.170	0.296
-523.989	226.271	0.168	0.273
-522.975	-124.374	0.303	0.047
-521.960	-200.000	0.013	0.076
-520.945	134.412	-0.285	-0.369
-519.931	-51.481	0.277	-0.129
-518.916	-21.436	0.178	-0.109
-517.902	800.000	-0.048	0.142
-516.887	-200.000	0.019	-0.155
-515.872	-129.115	0.335	-0.047
-514.858	465.485	-0.139	0.312
-513.843	-200.000	0.010	0.099
-512.829	280.833	-0.107	0.192
-511.814	-18.068	-0.130	-0.081
-510.799	-6.080	-0.211	-0.144
-509.785	800.000	0.046	-0.178
-508.770	800.000	0.020	-0.068
-507.756	19.776	0.156	0.125
-506.741	-16.475	-0.305	0.193
-505.726	131.002	0.153	0.197
-504.712	800.000	0.121	-0.375
-503.697	184.175	-0.016	0.024
-502.683	-125.390	-0.270	-0.041
-501.668	-179.911	0.235	-0.005
-500.653	-35.426	-0.250	-0.135
-499.639	-128.241	-0.187	-0.027
-498.624	800.000	-0.060	-0.196
-497.610	-200.000	0.023	-0.224
-496.595	103.416	-0.199	0.233
-495.581	-42.503	0.075	0.038
-494.566	-156.520	0.046	-0.003
-493.551	-200.000	0.078	0.389
-492.537	-200.000	-0.002	0.207
-491.522	-123.503	-0.093	0.015
-490.508	800.000	-0.083	-0.272
-489.493	24.392	-0.132	0.109
-488.478	-141.598	0.107	0.011
-487.464	0.062	-0.159	0.113
-486.449	240.775	0.164	0.273
-485.435	-33.895	0.117	-0.064
-484.420	800.000	0.092	-0.271
-483.405	380.012	0.080	-0.163
-482.391	83.604	0.099	-0.107
-481.376	-200.000	-0.029	-0.135
-480.362	7.716	0.149	0.111
-479.347	-200.000	-0.013	-0.089
-478.332	-59.251	-0.159	-0.069
-477.318	132.361	-0.177	-0.227
-476.303	-32.660	0.286	-0.159
-475.289	-200.000	0.070	-0.368
-474.274	-28.811	0.129	-0.074
-473.259	-96.645	-0.270	-0.071
-472.245	216.677	-0.112	0.177
-471.230	73.558	0.122	0.128
-470.216	-55.842	-0.258	0.115
-469.201	22.316	-0.210	0.171
-468.186	-200.000	0.060	0.288
-467.172	-200.000	0.077	-0.403
-466.157	800.000	-0.066	-0.253
-465.143	800.000	0.049	0.144
-464.128	-200.000	-0.004	-0.164
-463.113	-25.621	0.049	-0.029
-462.099	-57.042	-0.132	0.058
-461.084	800.000	-0.112	-0.382
-460.070	-31.052	0.217	0.122
-459.055	-28.165	-0.225	0.130
-458.040	-200.000	0.025	-0.214
-457.026	747.376	-0.089	0.240
-456.011	-84.333	0.107	0.034
-454.997	507.343	0.083	0.191
-453.982	11.616	-0.220	-0.169
-452.968	-53.836	0.242	0.110
-451.953	199.320	-0.033	0.051
-450.938	38.475	-0.173	-0.154
-449.924	-0.211	0.265	-0.188
-448.909	-74.542	-0.172	-0.062
-447.895	132.346	0.090	0.116
-446.880	-70.277	-0.167	0.063
-445.865	-8.277	-0.036	0.024
-444.851	-153.000	-0.201	0.014
-443.836	21.401	-0.109	-0.088
-442.822	-101.104	-0.098	0.024
-441.807	-200.000	-0.116	-0.512
-440.792	-200.000	-0.026	0.303
-439.778	-6.777	-0.244	0.166
-438.763	-113.571	0.290	0.057
-437.749	-200.000	-0.026	0.120
-436.734	-101.586	0.214	0.052
-435.719	72.605	-0.339	0.353
-434.705	-105.951	0.168	0.038
-433.690	14.623	0.161	-0.125
-432.676	-100.430	-0.386	0.095
-431.661	306.569	-0.171	0.317
-430.646	-49.695	0.153	-0.073
-429.632	-200.000	0.020	0.243
-428.617	-62.253	0.095	-0.040
-427.603	-20.766	0.111	0.068
-426.588	59.533	-0.230	0.226
-425.573	287.922	-0.143	0.259
-424.559	409.665	0.167	-0.352
-423.544	-74.137	0.073	-0.026
-422.530	2.303	0.231	-0.167
-421.515	594.329	-0.034	-0.084
-420.500	800.000	0.055	0.190
-419.486	149.061	0.174	0.235
-418.471	48.727	0.446	0.416
-417.457	-59.187	0.108	-0.046
-416.442	800.000	0.011	-0.037
-415.428	-200.000	0.026	-0.317
-414.413	-73.054	0.155	-0.057
-413.398	-58.305	-0.239	0.103
-412.384	-200.000	-0.005	0.092
-411.369	420.820	-0.111	0.236
-410.355	-120.343	-0.200	-0.034
-409.340	2.886	0.068	-0.049
-408.325	0.207	-0.066	-0.047
-407.311	-200.000	0.064	-0.421
-406.296	-29.566	-0.179	-0.102
-405.282	800.000	-0.070	0.266
-404.267	800.000	-0.002	-0.007
-403.252	-200.000	-0.013	-0.298
-402.238	-200.000	-0.008	0.122
-401.223	800.000	0.091	-0.378
-400.209	-46.851	-0.045	-0.022
-399.194	144.497	-0.307	-0.408
-398.179	-200.000	0.036	-0.168
-397.165	-107.425	-0.157	-0.034
-396.150	-200.000	-0.019	-0.228
-395.136	529.913	0.089	-0.210
-394.121	-118.469	-0.205	0.036
-393.106	-81.214	0.229	0.075
-392.092	334.864	0.191	-0.369
-391.077	-200.000	-0.060	-0.323
-390.063	172.633	-0.139	-0.199
-389.048	-197.565	0.128	-0.001
-388.033	-200.000	-0.018	0.090
-387.019	-164.726	-0.100	-0.004
-386.004	-15.806	-0.216	0.137
-384.990	1.052	-0.187	-0.134
-383.975	-200.000	0.008	-0.129
-382.960	28.919	0.130	0.110
-381.946	19.932	0.197	-0.157
-380.931	244.194	-0.091	-0.151
-379.917	-65.965	0.121	0.048
-378.902	-200.000	-0.002	-0.107
-377.888	270.240	0.152	0.265
-376.873	-26.889	-0.157	0.091
-375.858	45.149	-0.018	-0.016
-374.844	-122.987	0.147	0.024
-373.829	-118.064	0.198	0.035
-372.815	-108.986	0.216	0.046
-371.800	-99.955	-0.349	0.087
-370.785	50.547	-0.068	-0.064
-369.771	-56.048	-0.178	-0.079
-368.756	-11.420	0.201	0.132
-367.742	139.086	0.223	-0.291
-366.727	628.608	0.145	-0.364
-365.712	800.000	-0.072	-0.234
-364.698	-5.631	-0.318	-0.217
-363.683	-200.000	0.010	0.103
-362.669	371.321	0.167	0.338
-361.654	161.536	-0.195	0.271
-360.639	-65.189	0.107	-0.043
-359.625	800.000	0.085	-0.281
-358.610	-200.000	0.053	0.263
-357.596	-200.000	-0.003	-0.136
-356.581	-135.045	-0.319	-0.038
-355.566	50.847	-0.070	-0.066
-354.552	-200.000	0.013	0.215
-353.537	-200.000	0.004	0.104
-352.523	439.675	0.081	-0.175
-351.508	-53.613	-0.155	-0.070
-350.493	-155.081	0.036	0.002
-349.479	-200.000	-0.027	0.367
-348.464	-200.000	-0.014	0.263
-347.450	324.326	-0.043	0.081
-346.435	9.424	-0.260	0.195
-345.420	-200.000	0.004	0.223
-344.406	110.584	0.182	0.217
-343.391	-200.000	0.063	-0.331
-342.377	717.646	0.082	-0.217
-341.362	-200.000	-0.040	-0.326
-340.348	-183.274	0.091	0.002
-339.333	244.088	-0.089	0.149
-338.318	-6.626	0.216	-0.146
-337.304	-139.358	0.273	0.029
-336.289	131.944	-0.258	0.330
-335.275	-200.000	-0.007	-0.128
-334.260	46.443	0.133	-0.122
-333.245	241.134	-0.056	-0.092
-332.231	296.398	0.117	0.212
-331.216	-130.417	0.187	0.025
-330.202	-200.000	-0.018	0.114
-329.187	-78.392	0.434	0.148
-328.172	-94.857	-0.145	-0.039
-327.158	58.021	0.063	-0.062
-326.143	-58.999	0.218	0.093
-325.129	-62.329	-0.386	-0.160
-324.114	227.726	0.084	-0.136
-323.099	233.239	-0.025	-0.041
-322.085	-55.966	0.128	0.056
-321.070	283.076	-0.199	0.354
-320.056	-7.621	0.176	0.118
-319.041	800.000	-0.013	-0.049
-318.026	-23.132	0.284	-0.170
-317.012	-112.508	0.238	-0.047
-315.997	281.901	0.112	0.199
-314.983	134.188	0.187	0.240
-313.968	53.281	0.169	0.161
-312.953	800.000	0.103	-0.379
-311.939	74.593	-0.218	0.228
-310.924	129.549	0.311	-0.395
-309.910	567.998	0.145	-0.348
-308.895	-110.503	0.131	-0.027
-307.880	-61.655	0.224	-0.093
-306.866	-2.832	0.246	-0.171
-305.851	113.736	-0.267	0.321
-304.837	800.000	0.139	0.394
-303.822	18.140	0.179	-0.142
-302.807	-43.144	0.128	-0.064
-301.793	-60.053	0.201	0.085
-300.778	-81.094	0.039	-0.013
-299.764	22.857	0.062	-0.050
-298.749	-157.620	-0.040	0.002
-297.735	-200.000	-0.030	-0.438
-296.720	-116.406	-0.284	0.052
-295.705	800.000	0.026	-0.092
-294.691	-99.514	-0.431	-0.107
-293.676	-10.629	0.032	-0.021
-292.662	52.517	-0.151	-0.143
-291.647	-200.000	-0.016	0.317
-290.632	-200.000	0.016	-0.302
-289.618	-129.578	0.152	0.021
-288.603	250.513	-0.113	-0.190
-287.589	-121.942	-0.050	0.008
-286.574	800.000	0.038	-0.118
-285.559	-200.000	0.004	-0.022
-284.545	-161.859	-0.183	-0.009
-283.530	1.369	-0.453	-0.322
-282.516	31.341	-0.168	0.143
-281.501	-87.340	-0.178	-0.053
-280.486	-156.504	0.277	0.017
-279.472	292.075	0.061	0.111
-278.457	-95.335	0.141	0.038
-277.443	-174.658	-0.044	-0.001
-276.428	66.158	0.255	-0.256
-275.413	753.501	-0.130	0.349
-274.399	-53.378	-0.211	0.096
-273.384	-200.000	-0.043	-0.310
-272.370	-200.000	0.007	-0.038
-271.355	-94.052	-0.167	-0.045
-270.340	-23.982	0.215	0.127
-269.326	-96.665	-0.179	-0.047
-268.311	800.000	0.054	-0.186
-267.297	-121.257	0.466	-0.077
-266.282	-60.783	-0.267	0.112
-265.267	-200.000	-0.024	-0.259
-264.253	-152.579	-0.465	-0.033
-263.238	-63.927	0.169	0.068
-262.224	755.733	-0.043	-0.116
-261.209	-92.124	0.255	0.071
-260.195	-200.000	-0.037	-0.238
-259.180	-200.000	-0.034	0.304
-258.165	273.074	0.105	0.184
-257.151	-40.544	0.121	-0.062
-256.136	-200.000	-0.058	-0.268
-255.122	-200.000	-0.008	0.091
-254.107	-93.441	-0.063	-0.017
-253.092	-22.951	-0.274	0.164
-252.078	-190.870	0.241	-0.003
-251.063	-20.002	0.302	0.184
-250.049	693.748	-0.147	0.380
-249.034	24.884	0.075	-0.062
-248.019	800.000	0.073	0.294
-247.005	-54.171	0.241	-0.108
-245.990	-3.203	-0.262	-0.180
-244.976	13.807	0.149	0.114
-243.961	-146.587	-0.207	0.018
-242.946	800.000	0.085	-0.345
-241.932	800.000	-0.032	-0.099
-240.917	640.112	-0.039	0.099
-239.903	-200.000	0.000	-0.053
-238.888	-28.515	-0.210	-0.120
-237.873	35.987	-0.072	0.062
-236.859	-88.441	-0.126	-0.037
-235.844	264.958	-0.095	0.164
-234.830	21.128	-0.055	-0.044
-233.815	800.000	-0.019	-0.052
-232.800	97.137	0.220	-0.249
-231.786	-200.000	0.044	0.362
-230.771	22.542	0.204	0.165
-229.757	-145.994	-0.163	0.014
-228.742	702.070	-0.028	-0.072
-227.727	-162.912	0.235	0.011
-226.713	-47.806	-0.178	-0.085
-225.698	85.125	0.226	0.245
-224.684	769.881	0.048	0.130
-223.669	-23.296	-0.299	-0.178
-222.655	-60.585	0.451	0.189
-221.640	20.210	0.314	0.251
-220.625	-140.477	0.244	-0.025
-219.611	-200.000	-0.057	-0.262
-218.596	15.092	0.172	0.133
-217.582	779.428	0.079	0.214
-216.567	-63.460	0.100	-0.041
-215.552	-54.565	-0.112	0.050
-214.538	-43.289	0.010	0.005
-213.523	-200.000	0.006	0.111
-212.509	-152.453	-0.179	0.013
-211.494	62.418	-0.120	-0.119
-210.479	-148.811	-0.166	0.013
-209.465	-87.243	0.245	-0.073
-208.450	-200.000	0.004	-0.102
-207.436	800.000	-0.114	0.344
-206.421	-49.112	0.120	-0.057
-205.406	-31.735	-0.141	-0.078
-204.392	-184.885	0.092	0.001
-203.377	-144.073	0.256	-0.024
-202.363	24.247	0.228	-0.186
-201.348	89.515	-0.082	-0.090
-200.333	-111.427	-0.360	-0.072
-199.319	-39.216	0.280	0.145
-198.304	9.728	-0.145	0.109
-197.290	119.695	0.147	0.180
-196.275	82.781	-0.331	-0.356
-195.260	103.383	-0.104	0.120
-194.246	-118.744	-0.194	0.034
-193.231	22.425	-0.302	-0.244
-192.217	249.235	-0.062	0.103
-191.202	-127.618	-0.245	0.035
-190.187	-175.804	-0.254	-0.007
-189.173	307.332	-0.067	-0.124
-188.158	-26.484	-0.045	0.026
-187.144	800.000	-0.055	-0.216
-186.129	-200.000	-0.068	0.374
-185.114	474.121	0.248	0.552
-184.100	-169.092	-0.147	-0.005
-183.085	-15.289	-0.444	0.280
-182.071	16.006	0.281	0.219
-181.056	111.174	0.198	0.236
-180.042	17.102	0.216	0.169
-179.027	56.880	-0.094	0.091
-178.012	96.661	-0.137	-0.155
-176.998	127.012	0.127	0.158
-175.983	800.000	-0.037	-0.158
-174.969	232.935	0.080	0.130
-173.954	-200.000	-0.021	-0.140
-172.939	-49.313	-0.206	-0.097
-171.925	800.000	0.078	0.251
-170.910	-200.000	-0.017	-0.084
-169.896	-1.984	0.161	-0.111
-168.881	-153.035	0.327	-0.023
-167.866	-106.698	-0.416	-0.091
-166.852	-200.000	0.093	0.418
-165.837	800.000	-0.059	-0.208
-164.823	-24.335	-0.220	-0.129
-163.808	-125.381	0.098	-0.015
-162.793	-55.959	-0.202	-0.089
-161.779	-200.000	-0.228	-0.001
-160.764	-133.776	0.077	0.010
-159.750	88.316	0.271	0.296
-158.735	-45.339	0.178	-0.087
-157.720	261.016	-0.130	0.221
-156.706	800.000	0.050	0.189
-155.691	-200.000	-0.023	-0.262
-154.677	414.121	0.156	0.328
-153.662	-117.934	0.202	0.036
-152.647	111.461	0.137	-0.163
-151.633	180.299	-0.236	-0.342
-150.618	-116.038	-0.198	0.036
-149.604	-189.796	-0.374	-0.004
-148.589	-61.985	0.082	-0.034
-147.574	221.002	-0.112	0.177
-146.560	101.849	-0.048	-0.055
-145.545	-102.274	-0.128	-0.030
-144.531	-125.982	0.110	0.016
-143.516	376.430	0.116	-0.234
-142.502	-200.000	0.033	0.486
-141.487	227.533	0.182	0.291
-140.472	-101.953	-0.218	0.052
-139.458	800.000	0.039	0.111
-138.443	260.437	0.105	-0.179
-137.429	-200.000	0.013	-0.325
-136.414	-59.918	-0.350	-0.148
-135.399	-97.103	-0.120	0.031
-134.385	-200.000	-0.043	-0.219
-133.370	-200.000	-0.028	-0.249
-132.356	-132.259	-0.244	-0.031
-131.341	-200.000	-0.070	-0.304
-130.326	-200.000	-0.040	-0.446
-129.312	-200.000	0.014	0.316
-128.297	800.000	-0.102	0.362
-127.283	-123.801	-0.300	-0.047
-126.268	84.384	-0.105	0.113
-125.253	800.000	-0.071	0.206
-124.239	-85.826	0.209	0.064
-123.224	-78.290	-0.219	-0.074
-122.210	454.132	0.016	-0.036
