DTS Sentinel unit serial number:	SN413079Multiplexer serial number:	ORYXHardware model number:	OX4-SRSoftware version number:	ORYX F/W v4.00 Oryx Data Collector v3.7.2.0data status	okinstallation	princeton_trtdifferential loss correction	single-endedforward channel	channel 2reverse channel	N/Adate	2019/09/11time	08:21:10forward acquisition time	60.00reverse acquisition time	0.00gamma	496.2192k internal	0.2323k external	0.2323temperature offset calibration	0.9962default loss term (dB/km)	0.3790temperature slope calibration	1.0000multiplexer offset coefficient	1.0000multiplexer slope coefficient	1.0000fibre end	0.00T internal ref (°C)	32.78T ext. ref 1 (°C)	0.05T ext. ref 2 (°C)	30.20length (m)	temperature (°C)	Stokes	anti-Stokes-747.200	-60.159	0.134	-0.058
-746.185	-55.957	-0.139	0.063
-745.171	-200.000	0.012	-0.076
-744.156	393.530	0.096	0.202
-743.142	21.128	-0.081	-0.067
-742.127	-200.000	-0.010	0.213
-741.112	-56.129	-0.119	0.053
-740.098	800.000	-0.119	0.507
-739.083	-200.000	-0.046	-0.403
-738.069	530.968	0.127	-0.304
-737.054	-117.771	-0.354	-0.064
-736.039	-30.582	-0.349	0.200
-735.025	252.331	-0.068	-0.117
-734.010	75.658	-0.260	-0.277
-732.996	-107.533	-0.354	0.078
-731.981	-200.000	-0.008	-0.043
-730.966	800.000	0.044	-0.160
-729.952	-161.281	0.322	0.017
-728.937	201.278	0.158	0.245
-727.923	-117.867	-0.303	-0.055
-726.908	-200.000	0.061	-0.348
-725.894	-80.590	-0.464	-0.156
-724.879	-51.609	0.299	0.141
-723.864	23.560	-0.156	-0.130
-722.850	40.784	-0.102	-0.093
-721.835	-200.000	0.026	-0.149
-720.821	179.699	-0.305	-0.451
-719.806	-200.000	-0.046	-0.268
-718.791	-200.000	-0.075	-0.476
-717.777	-200.000	-0.017	-0.177
-716.762	115.586	-0.133	0.164
-715.748	-55.702	0.363	-0.164
-714.733	3.862	-0.213	0.157
-713.718	-58.426	-0.152	-0.066
-712.704	97.965	0.059	-0.068
-711.689	-38.987	-0.094	0.050
-710.675	-200.000	-0.018	0.130
-709.660	-94.018	0.043	0.012
-708.645	-10.211	0.280	0.188
-707.631	-162.288	-0.214	0.011
-706.616	800.000	0.107	-0.349
-705.602	-200.000	-0.013	0.085
-704.587	-82.125	-0.249	0.082
-703.572	212.391	0.093	0.148
-702.558	192.290	0.087	-0.133
-701.543	532.838	0.100	-0.238
-700.529	-50.787	-0.079	0.038
-699.514	-169.981	-0.040	0.001
-698.499	171.787	0.080	0.116
-697.485	-115.124	0.307	-0.059
-696.470	-200.000	0.005	-0.367
-695.456	-71.002	-0.132	0.050
-694.441	-122.927	-0.482	-0.078
-693.426	800.000	0.022	-0.073
-692.412	-36.906	0.072	-0.039
-691.397	-200.000	0.016	-0.526
-690.383	-200.000	0.008	-0.087
-689.368	163.142	-0.104	-0.148
-688.354	695.792	-0.069	0.184
-687.339	11.090	0.157	0.121
-686.324	800.000	-0.079	-0.277
-685.310	800.000	-0.046	0.180
-684.295	247.008	-0.164	0.279
-683.281	800.000	-0.146	-0.428
-682.266	150.454	-0.054	-0.073
-681.251	65.108	0.133	-0.136
-680.237	-34.452	-0.163	0.090
-679.222	800.000	0.022	0.075
-678.208	240.542	-0.160	-0.269
-677.193	-14.277	-0.361	-0.234
-676.178	800.000	0.059	-0.168
-675.164	-145.661	-0.111	0.010
-674.149	-200.000	0.054	0.384
-673.135	800.000	-0.050	-0.169
-672.120	-200.000	0.010	-0.318
-671.105	-200.000	0.046	-0.252
-670.091	-28.193	0.166	0.096
-669.076	232.274	-0.063	-0.105
-668.062	60.379	-0.217	-0.217
-667.047	-48.456	-0.213	0.103
-666.032	-62.821	-0.343	0.143
-665.018	507.512	-0.085	0.197
-664.003	194.837	-0.060	-0.092
-662.989	25.337	0.296	0.247
-661.974	-56.365	-0.263	0.118
-660.959	595.932	0.084	-0.209
-659.945	123.621	-0.259	0.328
-658.930	-200.000	0.057	-0.486
-657.916	-151.445	-0.366	-0.027
-656.901	-57.701	-0.231	-0.102
-655.886	-200.000	-0.016	0.096
-654.872	16.605	-0.323	-0.257
-653.857	-39.736	0.233	0.123
-652.843	-89.604	0.506	-0.149
-651.828	53.373	-0.252	0.243
-650.814	405.523	-0.055	0.118
-649.799	-200.000	-0.052	0.393
-648.784	612.388	0.047	-0.119
-647.770	-73.103	0.148	-0.055
-646.755	294.937	0.096	0.177
-645.741	86.288	0.131	0.145
-644.726	-95.481	-0.279	0.075
-643.711	-200.000	-0.016	-0.117
-642.697	92.581	0.234	0.266
-641.682	-198.551	0.039	0.000
-640.668	-67.764	0.211	-0.083
-639.653	800.000	0.048	-0.134
-638.638	-154.716	0.270	-0.018
-637.624	-111.125	0.257	-0.053
-636.609	-200.000	-0.027	-0.182
-635.595	10.800	-0.064	0.049
-634.580	214.455	0.069	0.109
-633.565	-16.214	0.076	-0.048
-632.551	35.253	-0.011	-0.009
-631.536	-59.802	-0.102	0.044
-630.522	321.910	0.128	0.246
-629.507	-200.000	0.028	0.332
-628.492	-95.037	0.131	-0.036
-627.478	-75.177	0.044	0.016
-626.463	391.756	-0.080	-0.166
-625.449	-200.000	-0.007	-0.207
-624.434	-51.721	-0.244	0.114
-623.419	-129.089	-0.423	0.060
-622.405	-200.000	0.030	0.190
-621.390	-200.000	-0.012	0.311
-620.376	800.000	0.082	-0.290
-619.361	-200.000	-0.039	-0.385
-618.346	314.981	0.234	-0.443
-617.332	-25.994	-0.196	0.116
-616.317	800.000	0.099	0.354
-615.303	-41.761	-0.106	0.055
-614.288	-49.895	0.130	-0.062
-613.273	-7.007	0.042	-0.029
-612.259	-31.892	-0.173	0.098
-611.244	-147.546	-0.132	-0.011
-610.230	-200.000	0.029	-0.171
-609.215	-48.891	-0.167	-0.080
-608.201	-134.167	0.257	0.032
-607.186	-126.577	-0.201	0.030
-606.171	800.000	0.039	-0.155
-605.157	-200.000	0.012	-0.340
-604.142	-119.519	-0.387	0.067
-603.128	-200.000	0.046	0.252
-602.113	-200.000	-0.006	-0.096
-601.098	800.000	0.081	-0.238
-600.084	58.189	-0.069	0.068
-599.069	33.003	-0.225	-0.196
-598.055	647.113	-0.056	-0.144
-597.040	153.240	0.137	0.188
-596.025	135.353	-0.219	0.287
-595.011	-117.412	0.102	0.018
-593.996	-90.924	0.089	-0.026
-592.982	495.854	-0.137	-0.317
-591.967	-200.000	0.058	-0.457
-590.952	92.442	0.141	0.160
-589.938	800.000	-0.043	-0.177
-588.923	-116.163	0.268	0.050
-587.909	-9.222	0.140	0.094
-586.894	-144.007	-0.142	0.013
-585.879	-18.951	0.195	0.122
-584.865	-200.000	0.010	0.470
-583.850	187.759	0.135	-0.202
-582.836	-144.317	-0.199	-0.019
-581.821	33.062	0.250	-0.218
-580.806	-200.000	0.002	0.133
-579.792	-4.737	0.167	0.116
-578.777	-38.047	0.060	0.032
-577.763	-84.415	-0.140	-0.044
-576.748	-137.857	0.129	-0.014
-575.733	394.143	-0.064	0.134
-574.719	14.695	-0.229	-0.179
-573.704	-148.200	-0.137	-0.011
-572.690	24.193	0.260	-0.216
-571.675	472.546	-0.048	-0.108
-570.661	-106.916	0.112	-0.025
-569.646	-102.436	-0.123	0.030
-568.631	-200.000	0.022	0.105
-567.617	-46.349	-0.143	0.071
-566.602	570.860	0.066	-0.160
-565.588	42.274	0.152	-0.138
-564.573	127.300	-0.219	0.279
-563.558	-104.391	-0.080	0.019
-562.544	-145.052	-0.274	-0.025
-561.529	22.020	0.106	0.087
-560.515	-69.646	-0.268	0.103
-559.500	-76.724	-0.199	-0.070
-558.485	-200.000	-0.031	-0.196
-557.471	116.981	0.124	0.153
-556.456	-140.533	0.367	0.038
-555.442	321.370	0.073	-0.139
-554.427	-114.867	0.166	-0.032
-553.412	-63.498	-0.291	-0.120
-552.398	-33.248	0.177	-0.098
-551.383	-200.000	-0.019	-0.155
-550.369	-200.000	0.033	-0.173
-549.354	499.604	-0.036	-0.082
-548.339	203.469	0.125	-0.194
-547.325	393.536	-0.032	0.067
-546.310	607.996	-0.126	-0.315
-545.296	114.493	-0.160	-0.196
-544.281	-62.656	0.129	0.054
-543.266	84.499	0.056	-0.061
-542.252	37.083	0.155	0.137
-541.237	94.853	-0.210	0.240
-540.223	221.545	0.168	0.270
-539.208	5.266	-0.246	-0.182
-538.193	-200.000	-0.025	-0.229
-537.179	348.262	-0.196	-0.386
-536.164	-146.557	0.079	0.007
-535.150	21.441	0.183	0.149
-534.135	140.769	0.229	0.303
-533.121	-36.643	0.090	-0.048
-532.106	800.000	-0.029	-0.103
-531.091	75.977	0.061	0.065
-530.077	-109.361	-0.177	-0.037
-529.062	120.741	0.159	0.199
-528.048	-200.000	0.056	-0.290
-527.033	-114.360	-0.408	-0.079
-526.018	-150.313	-0.082	-0.006
-525.004	-200.000	0.040	-0.247
-523.989	-94.225	-0.240	0.066
-522.975	60.865	0.233	-0.231
-521.960	69.966	-0.122	0.126
-520.945	-112.049	0.148	0.030
-519.931	143.198	-0.130	-0.174
-518.916	800.000	0.044	-0.140
-517.902	-200.000	0.000	-0.178
-516.887	-84.954	-0.139	0.044
-515.872	-160.150	0.089	-0.005
-514.858	800.000	0.045	0.123
-513.843	78.065	0.173	0.184
-512.829	-150.462	-0.333	-0.026
-511.814	-165.471	0.304	-0.013
-510.799	-145.606	0.247	-0.022
-509.785	-200.000	0.043	0.000
-508.770	-9.041	-0.215	0.144
-507.756	800.000	-0.136	0.382
-506.741	-72.543	-0.064	0.024
-505.726	8.264	0.066	-0.049
-504.712	270.994	-0.030	-0.053
-503.697	267.431	-0.149	-0.261
-502.683	-200.000	0.005	-0.130
-501.668	9.289	-0.107	-0.081
-500.653	800.000	0.073	-0.208
-499.639	-33.458	-0.325	-0.180
-498.624	-110.009	0.111	-0.023
-497.610	20.772	0.234	-0.189
-496.595	238.934	0.173	-0.288
-495.581	116.421	0.341	0.419
-494.566	102.262	-0.162	-0.190
-493.551	504.585	-0.061	-0.142
-492.537	-76.338	0.076	-0.027
-491.522	-146.855	-0.405	-0.035
-490.508	103.600	-0.215	0.252
-489.493	24.244	0.213	-0.176
-488.478	-150.252	0.314	-0.024
-487.464	-200.000	0.048	0.223
-486.449	-200.000	-0.032	-0.314
-485.435	-200.000	0.028	-0.435
-484.420	340.949	0.090	-0.176
-483.405	-200.000	0.022	-0.128
-482.391	800.000	0.094	0.334
-481.376	6.003	0.081	0.060
-480.362	157.841	-0.072	-0.100
-479.347	-116.814	-0.157	0.029
-478.332	481.948	-0.173	0.394
-477.318	380.351	0.091	0.186
-476.303	-200.000	0.027	0.128
-475.289	800.000	0.052	0.169
-474.274	800.000	0.080	0.279
-473.259	-137.548	-0.093	-0.010
-472.245	-92.093	-0.201	-0.057
-471.230	-47.351	-0.279	-0.135
-470.216	-108.028	-0.253	-0.055
-469.201	25.316	-0.184	0.152
-468.186	131.055	0.033	0.042
-467.172	210.729	0.091	0.143
-466.157	-64.786	-0.288	0.117
-465.143	800.000	0.012	-0.033
-464.128	-200.000	0.020	0.373
-463.113	800.000	-0.060	-0.180
-462.099	-89.815	0.230	-0.067
-461.084	83.037	-0.270	-0.294
-460.070	-200.000	0.018	-0.084
-459.055	156.475	0.248	-0.342
-458.040	-98.546	0.210	0.053
-457.026	224.103	0.109	0.176
-456.011	232.614	0.131	-0.215
-454.997	-79.967	-0.174	-0.058
-453.982	-7.125	0.057	0.039
-452.968	-1.690	-0.184	-0.130
-451.953	-150.554	0.045	-0.003
-450.938	87.264	-0.125	-0.138
-449.924	191.350	0.103	-0.154
-448.909	-46.425	-0.186	0.091
-447.895	393.602	-0.075	0.157
-446.880	-200.000	0.018	0.153
-445.865	341.037	0.056	-0.109
-444.851	260.801	0.118	-0.203
-443.836	64.598	0.217	0.219
-442.822	551.788	-0.021	-0.050
-441.807	-64.139	-0.303	0.123
-440.792	88.234	-0.094	-0.104
-439.778	-200.000	-0.001	-0.068
-438.763	-200.000	-0.073	0.331
-437.749	30.623	0.269	-0.230
-436.734	-100.048	-0.314	0.078
-435.719	-24.386	0.182	-0.108
-434.705	-110.508	0.263	0.054
-433.690	-200.000	-0.026	-0.233
-432.676	-200.000	-0.048	0.338
-431.661	800.000	0.064	0.267
-430.646	55.087	0.099	-0.096
-429.632	-76.292	-0.052	-0.018
-428.617	-30.182	0.316	-0.179
-427.603	-150.971	-0.301	0.023
-426.588	800.000	0.031	-0.119
-425.573	209.702	0.189	0.295
-424.559	-124.496	-0.167	0.026
-423.544	-200.000	-0.008	-0.442
-422.530	-60.260	0.184	0.078
-421.515	65.312	0.128	0.129
-420.500	-200.000	0.091	-0.439
-419.486	23.075	-0.249	0.204
-418.471	-7.970	-0.039	-0.026
-417.457	-24.615	0.297	-0.176
-416.442	42.085	0.064	-0.058
-415.428	-78.411	-0.128	0.044
-414.413	15.581	0.352	0.276
-413.398	-200.000	0.014	0.083
-412.384	603.234	-0.159	-0.394
-411.369	-76.406	-0.097	-0.034
-410.355	575.316	0.034	-0.082
-409.340	-200.000	0.090	-0.424
-408.325	22.469	0.108	-0.088
-407.311	-155.574	-0.246	-0.016
-406.296	151.082	0.094	0.128
-405.282	-39.651	-0.363	0.189
-404.267	-59.277	0.307	-0.132
-403.252	-169.439	-0.177	0.006
-402.238	-200.000	0.028	0.164
-401.223	-200.000	0.013	0.276
-400.209	74.017	-0.088	0.092
-399.194	-44.444	0.050	0.025
-398.179	651.296	-0.083	0.212
-397.165	-154.438	0.221	-0.015
-396.150	554.377	-0.078	-0.188
-395.136	-97.166	-0.208	-0.054
-394.121	194.486	0.146	0.221
-393.106	133.106	-0.324	0.418
-392.092	-54.872	0.341	0.153
-391.077	224.136	0.065	0.105
-390.063	320.573	0.064	0.122
-389.048	-200.000	-0.007	0.125
-388.033	-7.495	-0.212	-0.143
-387.019	800.000	0.117	-0.376
-386.004	761.526	-0.067	0.181
-384.990	-37.558	0.050	0.027
-383.975	-120.141	0.163	-0.028
-382.960	45.360	0.178	0.164
-381.946	-139.821	0.214	0.023
-380.931	642.331	-0.079	0.199
-379.917	-28.359	-0.103	0.059
-378.902	51.122	-0.220	0.208
-377.888	-10.550	0.106	0.070
-376.873	430.614	0.039	0.083
-375.858	36.983	-0.149	0.131
-374.844	-22.357	-0.079	0.048
-373.829	289.895	0.146	0.265
-372.815	513.126	-0.089	-0.207
-371.800	150.778	-0.145	0.197
-370.785	-162.669	-0.050	0.002
-369.771	-40.335	-0.125	-0.065
-368.756	-62.780	-0.121	0.050
-367.742	58.640	0.079	-0.077
-366.727	-179.001	-0.077	0.002
-365.712	-150.270	0.188	-0.014
-364.698	467.523	0.176	-0.392
-363.683	-126.482	-0.328	-0.049
-362.669	-85.860	0.123	0.038
-361.654	800.000	0.017	-0.068
-360.639	800.000	-0.071	0.215
-359.625	-1.522	-0.242	-0.170
-358.610	220.243	-0.066	0.106
-357.596	-36.420	0.278	0.149
-356.581	388.192	0.128	0.263
-355.566	357.777	-0.093	0.186
-354.552	-200.000	0.003	0.224
-353.537	-19.876	-0.206	-0.127
-352.523	-8.171	0.297	0.199
-351.508	-88.275	-0.278	-0.083
-350.493	800.000	-0.095	0.353
-349.479	-43.443	-0.531	0.267
-348.464	-187.930	0.085	-0.001
-347.450	482.313	0.111	-0.250
-346.435	-80.523	-0.161	0.053
-345.420	151.963	-0.122	0.165
-344.406	-10.664	0.132	0.087
-343.391	-113.265	-0.326	-0.064
-342.377	-161.579	-0.150	0.008
-341.362	28.398	0.253	0.212
-340.348	-200.000	0.034	0.281
-339.333	343.234	0.070	-0.136
-338.318	-130.735	-0.047	0.006
-337.304	268.588	0.068	-0.118
-336.289	-200.000	0.016	0.284
-335.275	-13.449	-0.043	-0.028
-334.260	-184.318	-0.105	0.002
-333.245	296.867	0.222	-0.404
-332.231	-200.000	0.048	0.216
-331.216	-138.168	-0.097	0.011
-330.202	-22.202	0.250	-0.151
-329.187	-200.000	0.044	0.213
-328.172	49.402	0.035	0.033
-327.158	-34.133	0.195	-0.107
-326.143	8.244	-0.140	0.104
-325.129	-80.823	-0.056	0.019
-324.114	-103.133	0.348	0.082
-323.099	-106.541	0.659	-0.146
-322.085	9.680	-0.263	-0.198
-321.070	-130.458	-0.400	0.054
-320.056	-179.257	0.171	-0.004
-319.041	75.912	-0.071	0.074
-318.026	-133.992	-0.198	-0.024
-317.012	-102.206	0.181	0.043
-315.997	-39.412	0.390	-0.203
-314.983	-165.274	-0.320	-0.014
-313.968	-86.687	-0.127	0.038
-312.953	-110.527	-0.332	0.068
-311.939	-53.140	0.209	-0.095
-310.924	-200.000	-0.003	0.028
-309.910	142.897	-0.126	0.167
-308.895	800.000	-0.023	0.067
-307.880	-104.922	-0.470	0.107
-306.866	-35.164	-0.156	0.084
-305.851	-77.641	-0.370	0.127
-304.837	39.231	0.126	0.112
-303.822	86.742	-0.179	-0.196
-302.807	-200.000	0.021	0.346
-301.793	24.322	0.200	-0.164
-300.778	800.000	0.080	-0.228
-299.764	-109.182	-0.220	0.047
-298.749	21.207	-0.195	0.157
-297.735	-200.000	0.005	-0.340
-296.720	800.000	-0.070	0.287
-295.705	-124.438	0.298	0.046
-294.691	-72.738	0.315	-0.115
-293.676	-200.000	0.027	-0.138
-292.662	-40.164	0.262	0.135
-291.647	2.319	-0.134	0.096
-290.632	34.140	0.167	-0.144
-289.618	800.000	-0.067	-0.256
-288.603	315.858	-0.040	-0.075
-287.589	800.000	0.056	-0.233
-286.574	-200.000	-0.064	0.422
-285.559	-200.000	0.056	0.290
-284.545	609.822	-0.047	0.117
-283.530	-164.686	-0.342	-0.015
-282.516	-151.091	-0.403	0.030
-281.501	-143.222	0.293	-0.028
-280.486	18.611	0.093	-0.073
-279.472	84.547	0.238	-0.259
-278.457	513.950	-0.063	0.146
-277.443	-200.000	0.008	-0.115
-276.428	26.821	0.182	0.151
-275.413	-200.000	0.006	-0.307
-274.399	675.403	-0.040	0.104
-273.384	800.000	0.120	0.363
-272.370	4.708	0.096	-0.070
-271.355	116.225	-0.247	-0.300
-270.340	-64.371	-0.270	-0.109
-269.326	-200.000	-0.038	0.449
-268.311	-49.643	0.321	-0.152
-267.297	-18.094	0.157	0.097
-266.282	-15.264	0.320	-0.203
-265.267	-135.429	-0.125	0.015
-264.253	130.386	0.056	-0.071
-263.238	30.662	0.103	-0.088
-262.224	-143.198	0.033	-0.003
-261.209	137.723	0.237	-0.307
-260.195	21.125	0.179	0.144
-259.180	-153.528	0.073	0.005
-258.165	718.476	0.118	-0.311
-257.151	-200.000	0.003	0.041
-256.136	160.672	0.070	-0.097
-255.122	-200.000	-0.000	-0.134
-254.107	-200.000	0.008	-0.371
-253.092	-200.000	-0.023	-0.245
-252.078	144.635	0.128	0.169
-251.063	529.010	-0.113	-0.265
-250.049	800.000	-0.103	-0.286
-249.034	285.515	-0.108	-0.193
-248.019	78.428	-0.296	0.313
-247.005	800.000	0.084	0.262
-245.990	-62.004	-0.213	0.088
-244.976	-200.000	-0.022	0.110
-243.961	200.499	-0.149	0.227
-242.946	-50.722	0.040	-0.019
-241.932	-200.000	0.003	0.096
-240.917	-24.393	0.207	-0.122
-239.903	-200.000	0.018	-0.173
-238.888	-139.103	0.440	-0.047
-237.873	342.487	0.076	-0.146
-236.859	-200.000	-0.052	0.407
-235.844	-42.476	0.209	-0.105
-234.830	96.848	-0.211	-0.239
-233.815	-135.970	-0.150	0.017
-232.800	291.739	-0.167	0.300
-231.786	445.745	-0.060	0.130
-230.771	286.857	-0.076	0.135
-229.757	800.000	0.072	-0.209
-228.742	115.864	0.022	-0.027
-227.727	-172.072	-0.155	0.005
-226.713	-110.878	-0.008	-0.002
-225.698	-114.070	0.064	-0.012
-224.684	-86.152	-0.149	-0.046
-223.669	236.534	0.080	0.131
-222.655	-200.000	0.001	0.189
-221.640	-138.072	0.063	-0.007
-220.625	35.535	-0.187	-0.163
-219.611	44.307	-0.153	-0.139
-218.596	-43.315	-0.201	0.101
-217.582	218.345	-0.085	-0.135
-216.567	-85.959	0.140	0.043
-215.552	-119.098	-0.204	0.035
-214.538	-29.380	0.089	0.050
-213.523	-90.042	0.371	-0.107
-212.509	80.055	0.206	-0.219
-211.494	800.000	0.018	-0.065
-210.479	393.285	0.132	-0.273
-209.465	800.000	-0.014	-0.051
-208.450	800.000	-0.081	-0.299
-207.436	-26.170	0.115	0.067
-206.421	789.045	-0.042	-0.114
-205.406	-200.000	0.004	-0.052
-204.392	-181.850	-0.138	0.003
-203.377	434.670	-0.036	0.078
-202.363	99.220	0.099	0.113
-201.348	-99.789	0.204	-0.050
-200.333	800.000	-0.011	0.035
-199.319	-200.000	0.003	-0.486
-198.304	438.860	-0.239	0.516
-197.290	43.659	-0.098	0.088
-196.275	-48.675	0.224	0.107
-195.260	-109.477	-0.070	0.015
-194.246	10.812	0.187	0.141
-193.231	-54.982	0.160	0.071
-192.217	800.000	-0.090	0.356
-191.202	-78.170	0.189	-0.064
-190.187	-68.737	0.135	0.052
-189.173	-128.350	0.332	-0.047
-188.158	-113.000	-0.096	-0.019
-187.144	124.596	-0.135	0.167
-186.129	-200.000	0.046	0.302
-185.114	80.241	0.147	0.157
-184.100	-77.302	-0.093	-0.032
-183.085	-164.903	-0.153	-0.007
-182.071	43.739	-0.044	0.040
-181.056	403.506	-0.089	-0.185
-180.042	23.808	-0.379	-0.309
-179.027	25.823	0.187	0.154
-178.012	51.854	-0.148	-0.139
-176.998	-159.525	-0.177	0.010
-175.983	-110.780	-0.501	0.102
-174.969	-68.384	-0.257	-0.099
-173.954	-104.975	-0.046	0.010
-172.939	-163.288	0.202	-0.010
-171.925	-200.000	0.036	-0.179
-170.910	-106.399	0.031	0.007
-169.896	140.070	0.077	-0.100
-168.881	-93.554	0.103	0.028
-167.866	-200.000	-0.023	-0.444
-166.852	277.701	-0.092	0.162
-165.837	-36.995	0.149	-0.079
-164.823	377.817	0.192	0.388
-163.808	-159.161	0.390	-0.022
-162.793	180.964	-0.074	-0.107
-161.779	112.156	0.096	0.115
-160.764	46.339	-0.175	-0.160
-159.750	-70.327	0.393	0.147
-158.735	-96.158	-0.291	-0.076
-157.720	222.225	-0.083	0.131
-156.706	-120.678	0.114	0.019
-155.691	1.384	0.055	0.039
-154.677	-28.567	-0.109	0.062
-153.662	65.903	0.056	-0.056
-152.647	800.000	-0.178	0.538
-151.633	-200.000	0.022	0.094
-150.618	800.000	-0.102	0.279
-149.604	41.939	0.229	-0.205
-148.589	-91.034	-0.108	0.031
-147.574	-112.180	0.148	-0.029
-146.560	-200.000	-0.002	-0.053
-145.545	-33.799	0.088	0.048
-144.531	-200.000	-0.023	-0.191
-143.516	-112.412	0.034	-0.007
-142.502	-19.574	-0.119	0.073
-141.487	-200.000	0.015	-0.144
-140.472	158.999	-0.052	-0.072
-139.458	152.795	-0.072	-0.097
-138.443	-149.308	0.108	-0.009
-137.429	707.804	0.053	0.138
-136.414	578.886	-0.080	0.193
-135.399	-143.575	0.227	0.021
-134.385	-62.855	-0.213	-0.087
-133.370	-72.194	0.135	0.049
-132.356	78.077	-0.151	0.159
-131.341	-77.198	0.182	-0.063
-130.326	518.449	-0.019	0.043
-129.312	89.406	-0.237	-0.260
-128.297	800.000	-0.078	0.242
-127.283	-131.481	0.322	0.042
-126.268	164.684	0.041	-0.056
-125.253	276.495	0.128	0.224
-124.239	800.000	0.051	-0.209
-123.224	-171.790	0.199	-0.006
-122.210	800.000	-0.068	0.289
