DTS Sentinel unit serial number:	SN413079Multiplexer serial number:	ORYXHardware model number:	OX4-SRSoftware version number:	ORYX F/W v4.00 Oryx Data Collector v3.7.2.0data status	okinstallation	princeton_trtdifferential loss correction	single-endedforward channel	channel 2reverse channel	N/Adate	2019/09/11time	12:25:11forward acquisition time	60.00reverse acquisition time	0.00gamma	496.2192k internal	0.2297k external	0.2297temperature offset calibration	0.9964default loss term (dB/km)	0.3790temperature slope calibration	1.0000multiplexer offset coefficient	1.0000multiplexer slope coefficient	1.0000fibre end	0.00T internal ref (°C)	40.30T ext. ref 1 (°C)	0.19T ext. ref 2 (°C)	38.43length (m)	temperature (°C)	Stokes	anti-Stokes-747.200	-41.263	-0.120	-0.063
-746.185	411.024	0.186	0.403
-745.171	175.173	0.129	0.190
-744.156	502.942	-0.042	-0.098
-743.142	-63.906	-0.054	-0.023
-742.127	800.000	-0.111	0.397
-741.112	-77.962	-0.200	0.071
-740.098	-150.977	0.199	-0.015
-739.083	800.000	-0.118	-0.346
-738.069	565.618	-0.072	0.178
-737.054	48.354	-0.146	-0.139
-736.039	-101.795	-0.234	-0.058
-735.025	657.707	-0.028	0.074
-734.010	-53.786	0.180	0.084
-732.996	-200.000	-0.012	-0.176
-731.981	138.226	-0.021	-0.028
-730.966	-178.120	-0.262	0.006
-729.952	-117.549	-0.170	0.031
-728.937	-90.863	-0.395	-0.116
-727.923	7.100	-0.108	-0.082
-726.908	-17.000	-0.232	-0.149
-725.894	723.401	-0.058	-0.157
-724.879	22.679	-0.136	0.114
-723.864	-1.342	0.063	0.045
-722.850	-86.264	-0.356	-0.112
-721.835	-200.000	0.015	-0.167
-720.821	800.000	0.063	-0.201
-719.806	-120.195	-0.135	0.024
-718.791	-19.403	0.109	0.069
-717.777	-168.499	-0.200	0.008
-716.762	-200.000	-0.001	-0.353
-715.748	-200.000	-0.017	-0.093
-714.733	6.209	0.106	-0.080
-713.718	-91.215	-0.063	-0.018
-712.704	800.000	0.051	0.169
-711.689	-186.107	-0.165	0.002
-710.675	-135.597	0.157	0.019
-709.660	-5.541	-0.329	0.230
-708.645	48.862	-0.119	-0.114
-707.631	-41.137	0.173	-0.091
-706.616	-200.000	-0.040	-0.254
-705.602	6.763	-0.118	0.089
-704.587	-173.152	-0.239	-0.007
-703.572	-200.000	0.013	-0.309
-702.558	-200.000	0.033	0.160
-701.543	363.792	0.153	0.314
-700.529	-190.382	0.086	-0.001
-699.514	-90.613	0.228	0.067
-698.499	-128.042	0.084	0.012
-697.485	3.188	-0.168	0.125
-696.470	-77.322	0.091	0.032
-695.456	-71.104	0.248	0.095
-694.441	-74.247	-0.177	0.065
-693.426	138.166	-0.036	-0.049
-692.412	-108.865	-0.133	0.029
-691.397	144.948	0.073	-0.099
-690.383	-134.021	0.108	0.014
-689.368	6.010	-0.242	0.183
-688.354	32.457	0.044	0.039
-687.339	240.504	0.083	0.141
-686.324	-82.880	-0.233	-0.077
-685.310	377.901	-0.032	0.067
-684.295	-43.412	0.281	0.145
-683.281	-144.200	-0.094	0.009
-682.266	173.593	-0.099	-0.145
-681.251	-86.276	0.139	0.044
-680.237	-40.349	-0.225	-0.119
-679.222	-0.447	-0.154	-0.111
-678.208	-200.000	0.003	0.064
-677.193	763.196	0.105	0.291
-676.178	5.167	0.177	-0.133
-675.164	275.262	-0.230	-0.415
-674.149	-169.649	-0.444	-0.016
-673.135	403.198	-0.043	0.092
-672.120	-49.781	0.258	-0.125
-671.105	43.626	0.114	-0.107
-670.091	430.486	0.134	0.294
-669.076	800.000	0.066	0.233
-668.062	-88.842	0.198	-0.060
-667.047	411.517	0.021	-0.046
-666.032	269.871	-0.088	-0.158
-665.018	-200.000	0.014	0.090
-664.003	-153.959	-0.255	-0.018
-662.989	-75.441	-0.236	0.085
-661.974	11.224	0.107	-0.083
-660.959	800.000	0.085	0.298
-659.945	-28.495	0.287	0.168
-658.930	-19.734	0.077	-0.049
-657.916	-200.000	0.025	0.166
-656.901	800.000	-0.055	-0.232
-655.886	-61.678	-0.207	-0.088
-654.872	-120.215	0.150	0.026
-653.857	10.882	-0.160	-0.124
-652.843	-124.667	-0.224	0.035
-651.828	-200.000	-0.053	-0.394
-650.814	18.894	0.302	-0.246
-649.799	-41.305	0.158	-0.083
-648.784	287.939	0.032	-0.059
-647.770	563.753	0.120	0.297
-646.755	165.949	-0.218	0.314
-645.741	-200.000	0.020	-0.103
-644.726	9.878	-0.169	-0.131
-643.711	-200.000	0.023	0.409
-642.697	24.706	0.191	0.161
-641.682	-88.041	-0.481	0.147
-640.668	75.674	0.100	-0.107
-639.653	-118.674	0.088	0.016
-638.638	-123.893	-0.099	0.016
-637.624	800.000	-0.065	-0.184
-636.609	112.767	0.050	0.062
-635.595	103.322	-0.114	0.136
-634.580	-74.672	-0.070	0.026
-633.565	41.189	0.081	0.075
-632.551	-200.000	0.040	-0.206
-631.536	-115.772	-0.156	0.030
-630.522	-57.985	0.302	-0.134
-629.507	-33.616	-0.361	-0.203
-628.492	-4.071	0.247	-0.174
-627.478	-191.402	0.239	0.002
-626.463	61.307	0.163	-0.165
-625.449	-87.218	0.118	-0.037
-624.434	-11.423	0.286	0.191
-623.419	-135.312	0.026	-0.003
-622.405	223.354	-0.191	-0.313
-621.390	490.547	-0.094	-0.218
-620.376	28.256	-0.290	-0.249
-619.361	725.502	0.074	0.201
-618.346	800.000	0.080	-0.247
-617.332	800.000	0.083	-0.248
-616.317	-12.806	0.131	0.087
-615.303	-124.896	-0.268	0.042
-614.288	-35.572	0.254	0.140
-613.273	46.540	0.214	0.201
-612.259	-164.531	-0.114	-0.005
-611.244	-28.850	0.328	0.192
-610.230	-80.692	0.231	-0.078
-609.215	-46.686	-0.295	0.147
-608.201	522.685	-0.067	0.159
-607.186	-145.089	-0.325	0.030
-606.171	156.042	0.084	0.117
-605.157	267.418	0.118	0.210
-604.142	294.447	-0.161	-0.299
-603.128	800.000	0.098	-0.336
-602.113	800.000	0.048	-0.152
-601.098	319.441	-0.059	0.113
-600.084	106.781	0.140	-0.169
-599.069	-200.000	-0.059	-0.404
-598.055	281.016	0.134	-0.243
-597.040	800.000	-0.031	-0.113
-596.025	209.479	-0.136	-0.216
-595.011	-71.187	0.289	-0.110
-593.996	-200.000	0.049	-0.333
-592.982	800.000	-0.020	-0.057
-591.967	-92.211	-0.120	-0.034
-590.952	33.149	0.138	-0.122
-589.938	286.982	0.129	-0.236
-588.923	-139.624	0.080	-0.009
-587.909	45.559	-0.036	-0.034
-586.894	234.487	-0.210	-0.352
-585.879	-132.486	0.329	0.043
-584.865	288.630	-0.075	0.137
-583.850	16.708	0.169	0.136
-582.836	0.429	-0.169	-0.122
-581.821	-122.077	-0.369	0.062
-580.806	198.430	0.123	-0.191
-579.792	1.116	-0.260	0.190
-578.777	61.042	-0.265	0.267
-577.763	241.544	-0.156	-0.264
-576.748	-37.674	0.301	-0.163
-575.733	697.074	-0.098	-0.262
-574.719	118.132	0.194	-0.242
-573.704	15.859	0.051	-0.041
-572.690	-200.000	-0.034	0.382
-571.675	28.683	0.195	0.167
-570.661	800.000	0.078	0.278
-569.646	-60.658	-0.146	-0.063
-568.631	234.047	-0.115	0.192
-567.617	-47.985	0.211	0.103
-566.602	773.359	-0.134	-0.370
-565.588	-81.620	0.359	-0.120
-564.573	-200.000	0.009	0.139
-563.558	22.721	0.292	-0.242
-562.544	7.279	-0.028	0.021
-561.529	800.000	-0.051	-0.148
-560.515	-62.349	-0.070	0.030
-559.500	-200.000	0.005	0.149
-558.485	704.220	-0.055	-0.146
-557.471	70.039	-0.112	0.117
-556.456	-200.000	-0.054	0.367
-555.442	73.484	-0.177	0.187
-554.427	-189.284	-0.206	0.002
-553.412	-200.000	-0.028	0.216
-552.398	800.000	-0.065	0.253
-551.383	-200.000	0.030	0.226
-550.369	-200.000	-0.003	0.234
-549.354	120.093	-0.056	-0.071
-548.339	-200.000	0.016	-0.164
-547.325	-200.000	-0.047	0.224
-546.310	-103.729	0.253	-0.060
-545.296	-131.145	-0.110	-0.015
-544.281	154.107	0.055	-0.077
-543.266	-67.130	0.182	-0.073
-542.252	-200.000	0.002	-0.090
-541.237	-200.000	-0.014	0.240
-540.223	185.527	-0.064	-0.096
-539.208	62.580	0.170	-0.172
-538.193	-165.628	0.046	0.002
-537.179	-200.000	0.014	-0.372
-536.164	800.000	0.029	0.113
-535.150	-200.000	-0.006	0.282
-534.135	213.098	0.066	0.105
-533.121	310.551	-0.104	0.198
-532.106	-169.039	-0.174	-0.007
-531.091	-200.000	-0.004	0.151
-530.077	-200.000	-0.048	-0.223
-529.062	-102.251	-0.485	-0.118
-528.048	519.906	-0.065	0.153
-527.033	44.773	0.234	-0.218
-526.018	368.925	-0.189	-0.387
-525.004	-5.696	0.057	0.040
-523.989	-200.000	-0.003	0.048
-522.975	-160.734	0.150	-0.008
-521.960	-115.911	-0.476	0.090
-520.945	289.127	-0.130	-0.238
-519.931	-57.289	0.014	-0.006
-518.916	269.385	-0.193	0.343
-517.902	76.106	0.149	0.160
-516.887	-121.711	0.239	0.040
-515.872	-20.988	-0.245	-0.152
-514.858	7.887	-0.235	-0.178
-513.843	16.221	0.222	-0.178
-512.829	-27.351	0.085	-0.050
-511.814	734.192	-0.152	-0.411
-510.799	-41.798	-0.156	-0.081
-509.785	30.754	0.215	-0.186
-508.770	-200.000	-0.054	0.306
-507.756	-39.610	0.083	0.044
-506.741	428.626	0.039	-0.085
-505.726	-22.530	-0.203	-0.124
-504.712	800.000	0.053	-0.154
-503.697	-66.706	-0.196	-0.078
-502.683	235.613	0.049	0.082
-501.668	3.707	-0.103	0.076
-500.653	148.608	0.209	-0.286
-499.639	-177.814	-0.065	0.002
-498.624	-89.680	0.296	0.088
-497.610	15.015	0.110	-0.087
-496.595	178.680	0.250	0.370
-495.581	339.685	-0.071	-0.140
-494.566	-200.000	0.037	0.304
-493.551	-200.000	0.037	-0.222
-492.537	-200.000	-0.007	0.125
-491.522	-80.088	0.203	-0.069
-490.508	-55.486	-0.086	-0.039
-489.493	-200.000	-0.084	0.462
-488.478	-77.080	0.179	0.063
-487.464	-106.006	-0.279	-0.064
-486.449	-85.483	-0.199	-0.063
-485.435	-55.951	-0.234	0.106
-484.420	-112.201	-0.448	-0.091
-483.405	-51.958	-0.109	-0.051
-482.391	800.000	-0.015	-0.060
-481.376	-200.000	0.034	0.244
-480.362	-200.000	0.057	-0.253
-479.347	112.191	-0.279	-0.341
-478.332	16.425	0.147	-0.117
-477.318	24.280	-0.122	-0.102
-476.303	-42.105	0.081	-0.042
-475.289	-78.159	0.174	0.060
-474.274	-106.185	0.354	0.080
-473.259	29.398	-0.114	-0.098
-472.245	-78.170	-0.300	-0.104
-471.230	-96.563	-0.124	0.033
-470.216	-200.000	0.023	0.247
-469.201	418.347	0.160	0.346
-468.186	-104.064	0.308	-0.072
-467.172	164.535	-0.081	-0.115
-466.157	29.839	0.130	-0.111
-465.143	20.471	0.093	-0.076
-464.128	132.335	-0.211	0.275
-463.113	-3.281	0.235	0.165
-462.099	-133.592	-0.531	0.067
-461.084	268.712	0.045	-0.080
-460.070	-200.000	0.021	0.133
-459.055	209.826	0.145	0.229
-458.040	-87.842	-0.254	-0.077
-457.026	-99.339	0.132	-0.034
-456.011	240.364	-0.120	-0.203
-454.997	-83.418	0.042	0.014
-453.982	-147.275	-0.017	0.001
-452.968	-78.218	-0.196	0.068
-451.953	110.423	-0.247	-0.299
-450.938	50.754	-0.338	-0.323
-449.924	-78.935	-0.293	0.101
-448.909	79.450	-0.132	-0.143
-447.895	183.387	-0.212	0.316
-446.880	-91.233	0.238	0.069
-445.865	-200.000	0.098	0.468
-444.851	368.456	-0.178	0.363
-443.836	97.981	-0.132	0.154
-442.822	-200.000	0.000	-0.443
-441.807	-77.189	0.259	-0.091
-440.792	-105.517	0.450	0.103
-439.778	-53.412	0.181	0.083
-438.763	-71.544	-0.121	-0.046
-437.749	403.690	-0.156	0.331
-436.734	24.062	-0.168	-0.140
-435.719	-153.244	-0.279	0.020
-434.705	320.033	0.107	0.205
-433.690	-186.322	-0.200	0.003
-432.676	159.901	-0.217	0.305
-431.661	-42.766	0.230	0.118
-430.646	146.440	-0.115	-0.156
-429.632	-200.000	-0.076	-0.370
-428.617	-81.864	0.294	-0.097
-427.603	-14.017	0.074	-0.048
-426.588	-94.448	0.242	0.067
-425.573	-37.722	0.098	0.053
-424.559	37.522	-0.122	-0.109
-423.544	-99.803	-0.320	0.081
-422.530	519.597	0.091	-0.215
-421.515	-135.280	0.153	0.018
-420.500	-200.000	-0.020	-0.201
-419.486	46.465	-0.141	-0.132
-418.471	-200.000	0.010	-0.058
-417.457	3.210	0.259	0.190
-416.442	800.000	-0.015	0.042
-415.428	-15.991	0.129	0.082
-414.413	157.737	-0.117	-0.164
-413.398	-1.899	-0.106	0.075
-412.384	-200.000	-0.008	-0.093
-411.369	11.476	0.347	0.268
-410.355	-123.199	-0.387	0.062
-409.340	204.326	-0.420	-0.657
-408.325	8.403	-0.209	0.159
-407.311	227.243	-0.185	0.303
-406.296	130.584	0.121	0.156
-405.282	-45.383	-0.348	-0.174
-404.267	-29.215	-0.156	0.090
-403.252	-200.000	0.081	0.447
-402.238	360.254	0.084	0.169
-401.223	-6.780	0.146	-0.100
-400.209	-97.826	-0.154	0.040
-399.194	-172.382	0.077	0.002
-398.179	87.939	0.153	0.171
-397.165	800.000	-0.074	-0.250
-396.150	462.264	0.167	-0.375
-395.136	77.245	0.114	0.122
-394.121	-134.843	0.414	0.051
-393.106	388.330	-0.165	-0.344
-392.092	800.000	0.101	-0.334
-391.077	-125.397	0.220	-0.034
-390.063	-121.783	0.337	0.056
-389.048	150.078	0.020	-0.027
-388.033	19.868	0.254	-0.206
-387.019	201.812	0.159	0.246
-386.004	-114.974	-0.517	-0.099
-384.990	-52.556	0.139	0.065
-383.975	-166.997	0.340	-0.014
-382.960	49.656	0.082	0.078
-381.946	-200.000	-0.032	-0.235
-380.931	-38.887	-0.133	0.070
-379.917	345.055	-0.105	-0.208
-378.902	-200.000	-0.020	0.126
-377.888	734.146	-0.041	-0.111
-376.873	115.175	0.100	0.123
-375.858	-200.000	0.048	0.311
-374.844	-124.964	0.316	0.049
-373.829	-37.035	0.137	0.074
-372.815	-4.739	0.237	0.165
-371.800	-54.260	-0.286	-0.131
-370.785	440.576	0.107	0.235
-369.771	-40.244	-0.225	-0.118
-368.756	150.234	0.058	-0.080
-367.742	205.081	-0.176	-0.274
-366.727	-106.120	-0.298	-0.067
-365.712	-105.576	-0.160	-0.037
-364.698	-111.927	0.036	0.007
-363.683	800.000	0.058	0.177
-362.669	-41.109	0.241	0.125
-361.654	362.495	0.103	-0.208
-360.639	-200.000	0.009	-0.196
-359.625	800.000	0.074	0.207
-358.610	-128.430	-0.171	0.024
-357.596	-72.852	0.111	-0.041
-356.581	800.000	0.141	-0.430
-355.566	78.820	0.196	0.211
-354.552	15.910	-0.089	-0.071
-353.537	157.802	-0.121	-0.168
-352.523	800.000	0.045	0.154
-351.508	800.000	-0.015	-0.045
-350.493	400.622	-0.081	0.172
-349.479	116.964	-0.147	-0.181
-348.464	800.000	0.088	0.306
-347.450	800.000	-0.030	0.098
-346.435	334.327	0.114	-0.221
-345.420	41.720	-0.056	-0.051
-344.406	-112.348	-0.195	0.039
-343.391	-200.000	0.042	0.245
-342.377	80.084	-0.227	-0.245
-341.362	472.657	0.077	-0.173
-340.348	-77.920	0.052	-0.018
-339.333	6.191	0.294	0.219
-338.318	-51.751	-0.236	-0.110
-337.304	137.417	-0.152	-0.200
-336.289	-91.817	-0.310	-0.088
-335.275	88.274	0.215	-0.240
-334.260	-200.000	0.027	0.320
-333.245	800.000	-0.130	0.422
-332.231	55.699	0.229	0.223
-331.216	-67.353	-0.088	0.035
-330.202	-125.548	-0.265	-0.040
-329.187	-124.797	0.378	-0.059
-328.172	323.296	0.146	-0.280
-327.158	163.557	0.077	-0.109
-326.143	128.991	-0.023	0.030
-325.129	-82.329	0.164	-0.054
-324.114	-123.197	0.318	0.051
-323.099	-131.812	-0.380	-0.050
-322.085	-161.845	-0.458	-0.023
-321.070	-200.000	-0.001	0.242
-320.056	-116.308	-0.330	0.061
-319.041	-200.000	0.016	-0.183
-318.026	-200.000	-0.020	-0.188
-317.012	-49.433	-0.136	0.065
-315.997	415.897	0.107	0.229
-314.983	-29.905	0.157	0.090
-313.968	-200.000	-0.013	-0.225
-312.953	-71.715	-0.290	-0.109
-311.939	-200.000	0.003	-0.143
-310.924	-2.230	0.113	0.080
-309.910	-200.000	0.081	0.407
-308.895	318.557	0.058	0.110
-307.880	82.351	-0.146	-0.159
-306.866	103.275	0.239	0.282
-305.851	217.187	-0.045	-0.072
-304.837	152.470	0.043	-0.058
-303.822	-200.000	-0.026	0.147
-302.807	426.948	-0.115	0.249
-301.793	-192.773	-0.236	0.002
-300.778	-200.000	-0.032	0.157
-299.764	-99.677	0.134	0.034
-298.749	-176.492	0.078	0.002
-297.735	579.405	-0.143	0.352
-296.720	-77.022	0.188	-0.066
-295.705	-159.899	0.366	0.020
-294.691	-200.000	0.041	-0.242
-293.676	109.758	-0.185	-0.223
-292.662	-142.341	-0.119	0.012
-291.647	-128.041	0.212	0.031
-290.632	438.912	0.115	0.253
-289.618	-200.000	-0.061	0.284
-288.603	-145.671	-0.395	-0.035
-287.589	-114.963	-0.093	0.018
-286.574	-200.000	-0.017	-0.221
-285.559	-52.957	-0.227	0.105
-284.545	80.924	0.024	0.026
-283.530	-147.327	0.177	0.015
-282.516	-60.553	0.245	-0.104
-281.501	60.993	0.330	0.328
-280.486	-43.421	-0.419	-0.212
-279.472	-51.316	-0.164	-0.077
-278.457	-131.361	-0.090	-0.012
-277.443	515.174	-0.074	0.172
-276.428	-109.201	0.048	0.010
-275.413	800.000	-0.115	-0.400
-274.399	-34.898	-0.028	-0.015
-273.384	-98.743	0.685	0.175
-272.370	-44.984	0.183	-0.091
-271.355	-127.630	-0.262	-0.038
-270.340	73.446	0.034	-0.036
-269.326	-200.000	-0.009	-0.122
-268.311	642.661	0.084	-0.214
-267.297	800.000	-0.057	0.242
-266.282	-200.000	-0.031	-0.242
-265.267	-51.174	-0.204	0.096
-264.253	800.000	-0.024	-0.085
-263.238	252.421	0.137	-0.234
-262.224	-200.000	0.012	0.285
-261.209	-5.113	0.294	0.202
-260.195	-8.352	0.221	0.149
-259.180	144.927	-0.161	0.216
-258.165	800.000	0.041	0.148
-257.151	405.726	0.080	0.169
-256.136	-200.000	-0.036	-0.180
-255.122	-63.805	-0.118	-0.048
-254.107	272.101	0.205	0.362
-253.092	84.871	-0.070	0.076
-252.078	-145.268	0.109	-0.010
-251.063	-28.508	0.022	0.013
-250.049	-85.413	0.161	-0.050
-249.034	-87.566	-0.220	0.067
-248.019	800.000	0.070	0.248
-247.005	-9.384	-0.224	0.150
-245.990	-134.948	0.479	0.058
-244.976	360.470	0.056	-0.113
-243.961	-56.421	-0.284	-0.126
-242.946	-79.398	0.235	-0.080
-241.932	-126.085	-0.201	0.030
-240.917	-102.272	0.465	0.112
-239.903	2.364	-0.146	0.105
-238.888	-121.610	-0.149	0.025
-237.873	180.737	0.055	-0.081
-236.859	382.677	-0.081	-0.167
-235.844	-128.060	0.135	-0.019
-234.830	800.000	-0.091	0.298
-233.815	-200.000	0.012	0.193
-232.800	437.124	0.048	0.104
-231.786	-180.096	0.192	-0.004
-230.771	447.579	-0.091	-0.201
-229.757	-59.997	-0.116	0.050
-228.742	23.683	0.127	-0.105
-227.727	-30.032	0.191	0.109
-226.713	94.373	0.176	-0.200
-225.698	117.423	0.256	-0.315
-224.684	-200.000	0.009	-0.094
-223.669	-113.872	0.252	-0.049
-222.655	-148.806	-0.473	0.038
-221.640	-92.160	-0.142	-0.040
-220.625	74.690	-0.143	-0.150
-219.611	-36.366	0.327	0.176
-218.596	-200.000	-0.054	-0.393
-217.582	640.734	0.018	0.045
-216.567	-14.708	0.352	0.226
-215.552	24.163	-0.258	0.213
-214.538	6.378	0.312	-0.232
-213.523	140.035	-0.095	0.125
-212.509	-200.000	-0.023	0.216
-211.494	-67.782	-0.287	0.112
-210.479	2.627	-0.132	0.096
-209.465	-57.767	0.049	-0.021
-208.450	-158.621	-0.277	-0.016
-207.436	-94.612	0.372	-0.101
-206.421	-170.938	0.284	-0.010
-205.406	53.205	-0.254	0.243
-204.392	131.240	0.100	0.128
-203.377	192.078	-0.109	0.164
-202.363	17.273	0.134	-0.106
-201.348	153.650	-0.230	0.314
-200.333	186.666	0.137	-0.204
-199.319	131.440	-0.100	0.128
-198.304	356.546	-0.140	0.279
-197.290	-200.000	0.280	0.001
-196.275	-36.213	0.077	0.042
-195.260	253.506	-0.213	0.363
-194.246	16.286	-0.028	-0.022
-193.231	-66.297	0.386	0.153
-192.217	81.915	0.114	-0.123
-191.202	800.000	0.062	0.250
-190.187	-31.419	-0.313	-0.176
-189.173	-200.000	0.004	-0.066
-188.158	800.000	-0.067	-0.210
-187.144	-137.786	0.236	-0.026
-186.129	8.754	-0.189	0.143
-185.114	2.244	0.037	-0.026
-184.100	4.051	-0.215	-0.157
-183.085	-89.537	-0.198	-0.058
-182.071	13.209	-0.135	0.104
-181.056	87.750	-0.109	0.121
-180.042	800.000	-0.114	-0.413
-179.027	110.844	0.191	0.229
-178.012	-200.000	0.069	0.376
-176.998	28.089	-0.283	0.239
-175.983	-200.000	-0.000	-0.079
-174.969	-149.616	-0.027	-0.002
-173.954	-6.539	0.126	-0.086
-172.939	-200.000	-0.015	-0.149
-171.925	-61.350	0.269	0.113
-170.910	-200.000	0.026	-0.255
-169.896	-200.000	0.006	0.038
-168.881	446.958	0.112	-0.246
-167.866	195.955	-0.175	-0.266
-166.852	-104.586	-0.183	0.042
-165.837	-149.982	-0.193	-0.015
-164.823	-113.706	0.250	-0.049
-163.808	-34.539	0.252	-0.138
-162.793	800.000	0.035	-0.115
-161.779	-119.820	0.274	-0.047
-160.764	-200.000	0.063	0.324
-159.750	-135.730	-0.155	0.018
-158.735	800.000	-0.021	0.081
-157.720	321.721	0.147	-0.279
-156.706	58.109	0.123	-0.121
-155.691	-108.325	-0.299	-0.064
-154.677	-200.000	-0.002	-0.111
-153.662	765.616	-0.024	0.065
-152.647	-200.000	0.048	-0.224
-151.633	-26.258	0.253	0.148
-150.618	511.555	0.047	-0.108
-149.604	43.752	-0.241	0.220
-148.589	-155.536	0.165	0.011
-147.574	152.195	0.184	0.251
-146.560	143.968	0.218	-0.290
-145.545	-200.000	0.046	0.448
-144.531	467.431	-0.085	0.190
-143.516	120.453	-0.073	-0.091
-142.502	-135.862	0.190	-0.022
-141.487	-93.331	0.192	-0.053
-140.472	-167.089	0.320	0.013
-139.458	468.086	0.139	0.311
-138.443	800.000	0.143	0.491
-137.429	-94.812	0.077	0.021
-136.414	-50.920	0.254	0.119
-135.399	361.201	-0.092	-0.185
-134.385	-3.802	0.135	0.093
-133.370	419.980	-0.133	-0.283
-132.356	-45.070	-0.186	-0.092
-131.341	-5.530	0.432	0.296
-130.326	-168.786	-0.349	0.013
-129.312	109.699	-0.045	0.053
-128.297	800.000	0.080	0.242
-127.283	-200.000	-0.051	0.319
-126.268	-200.000	-0.022	0.310
-125.253	-200.000	0.009	0.190
-124.239	-144.575	-0.183	-0.017
-123.224	248.401	0.106	0.179
-122.210	800.000	0.043	0.141
-121.195	66.472	0.082	-0.083
