DTS Sentinel unit serial number:	SN413079Multiplexer serial number:	ORYXHardware model number:	OX4-SRSoftware version number:	ORYX F/W v4.00 Oryx Data Collector v3.7.2.0data status	okinstallation	princeton_trtdifferential loss correction	single-endedforward channel	channel 2reverse channel	N/Adate	2019/09/11time	07:29:11forward acquisition time	60.00reverse acquisition time	0.00gamma	496.2192k internal	0.2327k external	0.2327temperature offset calibration	0.9940default loss term (dB/km)	0.3790temperature slope calibration	1.0000multiplexer offset coefficient	1.0000multiplexer slope coefficient	1.0000fibre end	0.00T internal ref (°C)	31.05T ext. ref 1 (°C)	-0.05T ext. ref 2 (°C)	27.48length (m)	temperature (°C)	Stokes	anti-Stokes-747.200	304.189	0.064	-0.120
-746.185	800.000	0.125	0.369
-745.171	6.531	0.192	0.144
-744.156	487.792	-0.095	0.218
-743.142	-200.000	-0.006	0.131
-742.127	-200.000	-0.021	0.214
-741.112	170.933	0.109	0.158
-740.098	-200.000	-0.014	0.190
-739.083	-124.640	0.324	0.051
-738.069	48.807	-0.088	-0.083
-737.054	81.159	0.204	0.222
-736.039	230.627	-0.073	-0.120
-735.025	-96.697	-0.248	-0.066
-734.010	115.147	-0.036	-0.044
-732.996	24.855	-0.242	0.202
-731.981	612.604	-0.105	0.264
-730.966	800.000	0.056	-0.202
-729.952	219.720	-0.234	-0.377
-728.937	-200.000	-0.003	0.203
-727.923	255.351	0.134	0.232
-726.908	800.000	-0.106	0.391
-725.894	800.000	-0.107	0.363
-724.879	789.998	0.067	-0.186
-723.864	-14.157	-0.166	-0.108
-722.850	-160.004	0.430	0.024
-721.835	7.776	-0.189	-0.143
-720.821	-52.957	-0.290	0.134
-719.806	-132.138	-0.268	-0.035
-718.791	461.465	-0.113	-0.255
-717.777	-17.104	-0.389	-0.247
-716.762	-84.289	0.194	-0.062
-715.748	7.885	-0.129	0.098
-714.733	644.746	0.017	0.044
-713.718	-200.000	0.020	-0.201
-712.704	-82.154	-0.141	0.046
-711.689	336.708	0.092	0.180
-710.675	-180.666	0.230	-0.005
-709.660	66.965	0.287	0.294
-708.645	389.917	-0.120	-0.251
-707.631	19.466	-0.284	0.230
-706.616	-31.377	-0.144	0.081
-705.602	64.567	-0.027	-0.028
-704.587	113.268	-0.269	0.328
-703.572	633.584	0.033	0.083
-702.558	-200.000	0.013	0.237
-701.543	50.460	-0.262	-0.249
-700.529	800.000	-0.025	-0.070
-699.514	62.508	0.103	-0.104
-698.499	-173.657	0.390	0.012
-697.485	-200.000	-0.033	0.229
-696.470	-23.417	-0.208	-0.126
-695.456	-200.000	0.054	0.369
-694.441	-200.000	-0.066	0.302
-693.426	157.984	-0.137	0.191
-692.412	-59.185	0.051	-0.022
-691.397	800.000	-0.014	0.052
-690.383	-200.000	-0.032	-0.438
-689.368	-46.633	-0.217	-0.107
-688.354	-19.700	-0.239	0.149
-687.339	-49.393	0.428	0.205
-686.324	67.033	-0.188	0.193
-685.310	157.469	0.097	0.136
-684.295	71.919	-0.226	-0.236
-683.281	-200.000	0.025	-0.443
-682.266	-200.000	0.021	-0.170
-681.251	161.476	-0.059	-0.083
-680.237	-16.354	0.407	0.260
-679.222	366.968	0.195	-0.396
-678.208	-25.710	0.208	-0.124
-677.193	-200.000	0.008	0.206
-676.178	800.000	-0.108	-0.436
-675.164	28.136	-0.195	0.165
-674.149	-87.099	-0.230	0.070
-673.135	37.006	0.092	-0.081
-672.120	-95.027	-0.229	0.062
-671.105	-200.000	0.041	0.203
-670.091	-200.000	0.003	0.129
-669.076	126.920	-0.203	0.258
-668.062	-200.000	0.022	-0.137
-667.047	259.292	-0.064	0.111
-666.032	-78.223	0.116	-0.040
-665.018	57.675	0.203	0.199
-664.003	127.351	0.012	0.016
-662.989	-42.207	-0.281	0.144
-661.974	456.568	-0.129	0.287
-660.959	-200.000	-0.073	-0.340
-659.945	137.564	-0.047	0.062
-658.930	348.687	0.068	-0.135
-657.916	-150.030	0.114	0.009
-656.901	-200.000	0.008	0.167
-655.886	201.980	0.130	0.201
-654.872	249.850	0.177	0.301
-653.857	35.335	-0.114	0.101
-652.843	-44.119	-0.216	0.109
-651.828	78.716	0.087	-0.093
-650.814	44.175	-0.137	0.127
-649.799	58.177	-0.345	0.340
-648.784	-200.000	0.008	0.177
-647.770	220.725	0.140	-0.226
-646.755	-95.597	-0.223	0.060
-645.741	-200.000	0.041	0.327
-644.726	7.456	-0.359	0.269
-643.711	-109.257	0.314	0.067
-642.697	800.000	-0.120	-0.337
-641.682	57.830	0.045	0.044
-640.668	324.275	-0.027	-0.053
-639.653	-76.301	-0.109	0.038
-638.638	19.549	0.061	0.050
-637.624	147.142	0.173	-0.234
-636.609	79.284	0.061	0.066
-635.595	-75.213	0.086	0.031
-634.580	-21.608	0.036	0.022
-633.565	-187.453	-0.187	-0.003
-632.551	203.404	-0.163	-0.253
-631.536	372.849	0.112	0.229
-630.522	-200.000	0.021	-0.127
-629.507	800.000	0.021	-0.068
-628.492	-195.660	-0.219	-0.002
-627.478	-128.878	0.079	0.011
-626.463	-64.055	0.180	-0.074
-625.449	-93.383	-0.042	-0.012
-624.434	800.000	0.031	0.111
-623.419	589.540	0.150	0.372
-622.405	237.251	0.198	0.329
-621.390	8.006	-0.138	-0.104
-620.376	96.886	-0.144	-0.166
-619.361	-67.688	0.265	0.104
-618.346	-133.529	-0.318	0.040
-617.332	38.351	0.079	0.070
-616.317	-147.808	-0.200	0.017
-615.303	-144.096	0.085	-0.008
-614.288	-9.229	0.108	-0.072
-613.273	65.718	0.254	0.258
-612.259	-106.498	-0.130	0.029
-611.244	247.728	-0.039	0.066
-610.230	61.229	0.048	-0.048
-609.215	-153.576	0.315	-0.022
-608.201	-111.974	-0.092	-0.019
-607.186	-200.000	0.018	-0.239
-606.171	105.960	-0.245	-0.291
-605.157	-146.590	0.121	0.011
-604.142	372.884	0.027	-0.054
-603.128	800.000	-0.114	0.413
-602.113	800.000	-0.026	-0.101
-601.098	-29.902	0.164	0.093
-600.084	17.085	-0.134	0.106
-599.069	169.968	0.203	0.291
-598.055	-14.966	0.178	0.114
-597.040	197.622	0.119	0.181
-596.025	-200.000	-0.012	-0.120
-595.011	-102.220	0.052	-0.013
-593.996	123.376	-0.185	-0.233
-592.982	4.212	-0.168	-0.123
-591.967	800.000	-0.060	0.219
-590.952	95.844	0.130	0.149
-589.938	800.000	-0.076	-0.279
-588.923	-48.952	-0.150	0.072
-587.909	800.000	0.030	0.083
-586.894	125.398	0.057	-0.072
-585.879	72.121	0.266	0.278
-584.865	234.504	0.171	0.283
-583.850	149.240	-0.080	0.109
-582.836	281.277	0.157	0.282
-581.821	-148.082	0.385	0.032
-580.806	-127.867	-0.219	0.032
-579.792	-46.971	0.204	-0.100
-578.777	800.000	0.081	-0.288
-577.763	-127.201	-0.137	-0.020
-576.748	460.278	-0.078	0.173
-575.733	-200.000	-0.046	0.226
-574.719	315.724	-0.263	0.497
-573.704	800.000	0.038	-0.123
-572.690	800.000	0.063	0.257
-571.675	-12.923	0.153	0.100
-570.661	-147.541	-0.091	-0.008
-569.646	245.532	-0.067	0.114
-568.631	214.632	-0.040	-0.063
-567.617	-153.001	-0.368	-0.026
-566.602	4.411	0.227	-0.167
-565.588	-106.399	0.230	0.052
-564.573	-98.847	-0.024	-0.006
-563.558	581.408	-0.050	0.122
-562.544	-200.000	-0.098	-0.590
-561.529	-173.970	0.309	0.009
-560.515	342.329	-0.040	0.078
-559.500	311.586	0.142	0.267
-558.485	-98.150	0.252	0.065
-557.471	-200.000	0.274	0.001
-556.456	-123.207	-0.273	0.044
-555.442	-99.415	-0.072	-0.018
-554.427	-61.680	-0.336	0.141
-553.412	276.264	0.162	0.287
-552.398	-198.499	0.133	0.001
-551.383	3.103	-0.224	0.163
-550.369	-113.061	-0.099	-0.020
-549.354	472.375	-0.092	-0.207
-548.339	-91.720	-0.227	0.065
-547.325	-146.302	0.256	0.022
-546.310	-53.031	-0.304	-0.140
-545.296	4.241	0.418	-0.306
-544.281	190.187	-0.115	-0.173
-543.266	-23.178	-0.190	0.114
-542.252	-200.000	0.030	0.157
-541.237	78.820	-0.184	-0.197
-540.223	50.521	-0.317	0.300
-539.208	241.770	0.117	0.196
-538.193	41.123	0.112	-0.101
-537.179	-107.207	0.270	0.059
-536.164	99.750	-0.216	-0.251
-535.150	-200.000	-0.020	-0.183
-534.135	800.000	-0.028	0.120
-533.121	-35.735	-0.210	0.114
-532.106	-99.020	0.130	-0.033
-531.091	-77.174	-0.157	-0.055
-530.077	-200.000	-0.045	-0.277
-529.062	-200.000	0.018	0.081
-528.048	-53.884	0.148	0.067
-527.033	240.191	-0.168	0.280
-526.018	38.549	0.151	0.134
-525.004	46.801	-0.152	0.141
-523.989	116.700	-0.065	-0.080
-522.975	195.558	0.138	-0.209
-521.960	3.157	-0.202	0.147
-520.945	-200.000	0.035	-0.176
-519.931	-106.746	0.179	0.040
-518.916	-28.046	0.173	-0.100
-517.902	94.434	-0.029	-0.033
-516.887	-30.150	-0.247	0.140
-515.872	49.535	0.176	0.165
-514.858	688.575	0.106	-0.277
-513.843	139.027	0.164	-0.215
-512.829	235.454	0.162	0.267
-511.814	800.000	-0.006	0.020
-510.799	291.335	-0.075	0.137
-509.785	-200.000	0.008	0.175
-508.770	800.000	0.025	-0.070
-507.756	-50.305	0.196	-0.093
-506.741	-200.000	0.129	0.000
-505.726	86.723	0.104	-0.114
-504.712	-65.764	0.190	0.076
-503.697	-104.622	-0.287	0.066
-502.683	-141.501	0.198	-0.020
-501.668	-69.027	0.136	-0.052
-500.653	16.759	0.041	0.032
-499.639	200.695	-0.122	-0.187
-498.624	632.950	0.135	-0.341
-497.610	-16.044	-0.162	-0.103
-496.595	-200.000	-0.025	0.154
-495.581	478.762	-0.007	-0.016
-494.566	-74.879	0.099	-0.035
-493.551	800.000	0.041	-0.167
-492.537	161.757	-0.169	0.237
-491.522	-97.607	0.440	-0.114
-490.508	-75.339	0.192	0.068
-489.493	-3.301	0.291	-0.202
-488.478	2.778	-0.207	0.150
-487.464	130.842	-0.193	-0.248
-486.449	-6.714	0.254	0.172
-485.435	134.589	-0.135	0.175
-484.420	-24.094	0.269	0.161
-483.405	25.592	0.126	0.105
-482.391	-186.253	0.208	0.003
-481.376	-70.278	-0.231	-0.087
-480.362	-80.726	-0.219	0.073
-479.347	94.267	0.225	-0.255
-478.332	-125.433	0.072	0.011
-477.318	-200.000	-0.032	0.146
-476.303	800.000	-0.057	-0.181
-475.289	30.152	-0.282	-0.240
-474.274	350.614	0.053	0.104
-473.259	91.228	0.115	-0.128
-472.245	-131.304	0.108	0.014
-471.230	139.015	0.074	0.097
-470.216	496.082	0.071	0.162
-469.201	-87.348	-0.332	0.100
-468.186	434.586	-0.055	0.119
-467.172	-47.397	0.086	0.042
-466.157	550.651	-0.032	0.077
-465.143	-200.000	-0.010	-0.061
-464.128	800.000	-0.043	-0.128
-463.113	18.950	0.136	-0.109
-462.099	800.000	-0.109	0.377
-461.084	-103.360	0.245	0.058
-460.070	38.714	-0.115	-0.102
-459.055	296.092	-0.164	-0.300
-458.040	-121.407	-0.275	-0.046
-457.026	-116.608	-0.137	0.025
-456.011	86.921	0.143	0.158
-454.997	800.000	0.083	-0.251
-453.982	15.662	-0.276	0.216
-452.968	-172.279	-0.270	0.009
-451.953	40.313	-0.208	0.187
-450.938	-9.180	0.266	-0.177
-449.924	-172.228	0.261	0.008
-448.909	-101.195	-0.278	0.068
-447.895	-70.474	0.576	0.217
-446.880	-126.373	0.119	-0.018
-445.865	-25.008	-0.067	-0.040
-444.851	-200.000	-0.064	-0.310
-443.836	-11.697	-0.246	0.161
-442.822	-200.000	0.017	-0.248
-441.807	249.683	-0.086	-0.145
-440.792	-126.214	0.034	-0.005
-439.778	800.000	-0.109	0.353
-438.763	64.092	0.102	-0.102
-437.749	484.925	0.019	0.043
-436.734	-22.481	0.159	0.096
-435.719	12.878	-0.193	-0.149
-434.705	-184.490	0.166	0.003
-433.690	193.182	-0.096	-0.144
-432.676	-114.055	-0.509	-0.098
-431.661	98.697	0.145	-0.167
-430.646	-55.923	-0.117	0.052
-429.632	-42.341	0.237	0.121
-428.617	150.790	0.032	-0.043
-427.603	795.065	-0.088	-0.240
-426.588	-190.356	0.233	0.003
-425.573	-128.637	-0.186	0.026
-424.559	-59.620	-0.077	-0.033
-423.544	-200.000	-0.039	-0.250
-422.530	-52.822	-0.086	-0.039
-421.515	-113.788	-0.246	-0.048
-420.500	173.779	-0.122	0.175
-419.486	800.000	0.042	0.172
-418.471	482.054	0.113	-0.256
-417.457	-69.008	-0.540	-0.207
-416.442	46.440	-0.397	-0.367
-415.428	771.260	0.120	-0.324
-414.413	215.924	-0.161	0.254
-413.398	397.547	-0.024	0.050
-412.384	-30.847	0.331	-0.186
-411.369	161.199	-0.018	-0.025
-410.355	-71.695	0.092	0.034
-409.340	-200.000	0.021	-0.207
-408.325	-200.000	-0.096	0.000
-407.311	-126.752	0.241	-0.035
-406.296	-19.676	0.279	0.172
-405.282	-136.501	0.043	0.005
-404.267	41.161	-0.176	0.158
-403.252	-52.681	-0.159	-0.073
-402.238	130.546	-0.220	-0.281
-401.223	655.231	-0.177	-0.452
-400.209	629.799	-0.180	-0.452
-399.194	-90.747	-0.266	0.076
-398.179	-130.746	-0.398	0.053
-397.165	-200.000	0.008	-0.270
-396.150	-200.000	0.006	-0.104
-395.136	80.425	-0.087	-0.094
-394.121	800.000	0.045	0.135
-393.106	349.439	0.039	0.078
-392.092	94.068	0.176	-0.198
-391.077	25.047	-0.074	0.061
-390.063	-48.538	-0.263	-0.126
-389.048	800.000	0.117	-0.498
-388.033	-94.278	0.005	-0.001
-387.019	243.274	0.020	0.033
-386.004	-95.997	0.196	0.052
-384.990	800.000	-0.103	-0.360
-383.975	-135.201	-0.075	0.009
-382.960	-200.000	-0.005	0.133
-381.946	472.859	0.081	0.181
-380.931	-67.450	0.277	-0.108
-379.917	-147.536	-0.232	-0.019
-378.902	132.398	0.059	0.075
-377.888	-63.340	0.301	0.123
-376.873	28.838	0.105	0.088
-375.858	-150.408	0.128	-0.010
-374.844	-106.072	-0.068	-0.015
-373.829	154.172	-0.111	0.151
-372.815	-107.875	-0.121	0.026
-371.800	800.000	-0.042	0.182
-370.785	-24.147	0.124	0.074
-369.771	-200.000	0.014	-0.094
-368.756	28.793	0.127	-0.107
-367.742	12.379	-0.351	0.269
-366.727	-200.000	0.005	-0.236
-365.712	308.857	0.086	-0.160
-364.698	-105.274	0.378	0.086
-363.683	20.369	-0.221	0.178
-362.669	98.727	-0.062	-0.071
-361.654	-200.000	-0.018	-0.198
-360.639	327.404	-0.051	0.097
-359.625	82.710	-0.211	0.228
-358.610	606.576	0.118	0.293
-357.596	684.040	0.057	0.149
-356.581	-200.000	-0.027	0.268
-355.566	74.096	0.079	-0.083
-354.552	-200.000	0.056	-0.374
-353.537	234.166	-0.084	0.138
-352.523	476.529	-0.177	-0.398
-351.508	800.000	0.121	-0.344
-350.493	-61.657	0.427	-0.178
-349.479	375.664	-0.085	0.171
-348.464	-16.654	-0.091	0.057
-347.450	-137.932	0.256	-0.028
-346.435	-200.000	-0.001	0.216
-345.420	69.446	-0.255	-0.260
-344.406	-27.462	0.104	-0.060
-343.391	-3.154	0.120	0.083
-342.377	-24.626	-0.191	-0.113
-341.362	-153.495	-0.170	-0.012
-340.348	-91.034	-0.178	0.051
-339.333	25.123	0.063	0.052
-338.318	617.595	0.042	-0.105
-337.304	288.664	0.141	-0.253
-336.289	-142.443	-0.233	0.023
-335.275	-200.000	0.003	-0.120
-334.260	800.000	-0.078	-0.226
-333.245	-0.692	0.032	0.022
-332.231	-191.889	0.042	-0.000
-331.216	-200.000	0.069	0.618
-330.202	482.362	0.116	0.262
-329.187	181.246	0.137	0.200
-328.172	74.118	0.185	0.193
-327.158	-132.820	-0.265	-0.034
-326.143	-37.898	0.146	0.077
-325.129	-39.903	0.054	0.028
-324.114	99.722	-0.079	0.091
-323.099	-93.529	0.220	-0.060
-322.085	-97.108	-0.267	-0.069
-321.070	-105.194	-0.355	-0.080
-320.056	-53.095	-0.153	0.070
-319.041	-129.871	-0.163	0.022
-318.026	0.233	-0.377	0.267
-317.012	230.452	-0.141	0.228
-315.997	-200.000	-0.017	0.173
-314.983	-200.000	0.081	0.377
-313.968	75.630	-0.059	-0.062
-312.953	78.368	-0.168	0.178
-311.939	800.000	-0.041	0.135
-310.924	-200.000	-0.057	-0.325
-309.910	398.249	0.150	-0.312
-308.895	-200.000	0.019	-0.132
-307.880	46.174	-0.069	-0.064
-306.866	-71.023	0.150	0.056
-305.851	28.590	0.104	0.087
-304.837	10.689	0.135	0.102
-303.822	-86.626	0.200	0.061
-302.807	632.064	0.069	-0.173
-301.793	800.000	-0.021	-0.069
-300.778	-79.156	0.165	0.056
-299.764	-32.195	0.146	-0.081
-298.749	-117.220	-0.402	0.072
-297.735	-181.524	0.348	0.007
-296.720	-167.059	-0.078	0.003
-295.705	6.239	0.262	-0.192
-294.691	59.001	-0.072	0.070
-293.676	-200.000	-0.025	-0.145
-292.662	-132.960	-0.299	-0.038
-291.647	-65.134	0.310	0.124
-290.632	-200.000	0.000	0.080
-289.618	15.543	-0.295	0.229
-288.603	-147.611	0.219	0.018
-287.589	515.912	-0.039	0.090
-286.574	800.000	0.058	0.191
-285.559	-160.983	-0.357	0.019
-284.545	-43.646	0.328	0.164
-283.530	-200.000	0.035	-0.344
-282.516	141.518	-0.008	-0.011
-281.501	304.973	-0.105	0.193
-280.486	564.865	-0.039	0.094
-279.472	-58.950	-0.095	-0.041
-278.457	-167.716	0.065	0.003
-277.443	800.000	0.035	0.114
-276.428	800.000	0.048	-0.135
-275.413	94.818	-0.072	-0.081
-274.399	-153.848	0.244	0.016
-273.384	209.875	-0.142	0.221
-272.370	-91.379	0.256	-0.072
-271.355	722.798	-0.031	-0.082
-270.340	295.393	0.123	-0.223
-269.326	-143.698	-0.326	0.031
-268.311	-178.832	-0.476	0.011
-267.297	-102.855	-0.096	-0.023
-266.282	15.124	0.284	-0.220
-265.267	10.259	-0.178	0.134
-264.253	-94.722	-0.109	-0.029
-263.238	-69.276	-0.253	-0.096
-262.224	800.000	0.093	0.262
-261.209	-41.370	0.175	0.089
-260.195	724.414	-0.013	-0.034
-259.180	-198.210	-0.045	-0.000
-258.165	-52.350	-0.195	0.089
-257.151	-20.738	0.269	0.163
-256.136	-87.903	0.151	0.045
-255.122	-200.000	0.067	-0.343
-254.107	2.085	-0.330	-0.236
-253.092	-149.572	-0.206	0.016
-252.078	800.000	0.103	0.284
-251.063	-200.000	0.022	-0.103
-250.049	440.576	-0.079	-0.170
-249.034	423.692	-0.193	0.410
-248.019	-41.733	0.416	-0.211
-247.005	-48.799	0.164	-0.078
-245.990	799.463	0.056	0.153
-244.976	-72.080	0.304	0.112
-243.961	-122.538	-0.069	0.011
-242.946	54.199	-0.120	-0.114
-241.932	-137.848	-0.259	0.029
-240.917	-122.846	-0.199	-0.032
-239.903	565.928	-0.055	0.132
-238.888	-36.826	0.126	-0.067
-237.873	625.605	-0.091	-0.226
-236.859	-197.586	-0.079	0.000
-235.844	-115.439	0.263	-0.049
-234.830	4.346	0.118	-0.085
-233.815	20.914	-0.182	0.146
-232.800	-200.000	0.015	-0.488
-231.786	-179.922	-0.266	-0.006
-230.771	-74.012	-0.057	0.020
-229.757	123.010	0.134	-0.166
-228.742	103.840	0.076	-0.089
-227.727	-200.000	-0.049	-0.225
-226.713	312.018	-0.053	-0.099
-225.698	-115.255	0.404	0.075
-224.684	28.219	-0.099	0.083
-223.669	-200.000	0.034	-0.235
-222.655	-200.000	-0.011	-0.240
-221.640	800.000	0.021	-0.069
-220.625	800.000	0.016	0.043
-219.611	-200.000	-0.053	0.247
-218.596	-5.033	-0.111	0.075
-217.582	-200.000	0.033	0.201
-216.567	-62.145	-0.206	0.085
-215.552	800.000	0.056	-0.210
-214.538	16.811	0.311	0.243
-213.523	-200.000	-0.001	0.043
-212.509	-200.000	0.027	-0.156
-211.494	-165.535	0.203	-0.009
-210.479	272.016	0.167	-0.290
-209.465	-72.779	-0.072	-0.026
-208.450	-110.447	0.518	0.106
-207.436	-99.668	-0.191	0.047
-206.421	782.780	-0.091	0.245
-205.406	-57.379	-0.338	-0.147
-204.392	-56.480	0.075	0.033
-203.377	-200.000	-0.005	-0.065
-202.363	-71.847	-0.046	0.017
-201.348	-119.117	-0.144	0.025
-200.333	43.358	0.353	-0.319
-199.319	-200.000	0.046	0.300
-198.304	28.183	0.276	0.230
-197.290	247.017	-0.076	0.127
-196.275	-48.885	-0.208	-0.098
-195.260	-112.110	0.037	-0.007
-194.246	-125.472	-0.235	0.035
-193.231	31.369	0.109	-0.093
-192.217	165.549	-0.154	-0.214
-191.202	-7.938	0.333	0.221
-190.187	-200.000	-0.051	0.289
-189.173	800.000	0.037	0.114
-188.158	172.186	0.098	0.139
-187.144	199.753	0.192	0.291
-186.129	-0.229	0.045	0.032
-185.114	66.310	0.199	-0.199
-184.100	-200.000	-0.020	-0.145
-183.085	122.701	0.094	-0.116
-182.071	-86.203	-0.222	-0.068
-181.056	164.332	0.162	0.226
-180.042	337.301	0.034	-0.065
-179.027	49.774	-0.231	-0.214
-178.012	17.460	0.177	-0.139
-176.998	800.000	-0.028	0.114
-175.983	24.467	0.209	-0.171
-174.969	15.310	0.236	-0.182
-173.954	-152.503	-0.075	-0.005
-172.939	800.000	0.059	0.224
-171.925	330.617	-0.083	0.158
-170.910	30.601	-0.272	0.230
-169.896	-80.756	0.216	0.071
-168.881	41.471	0.174	-0.155
-167.866	-200.000	0.010	-0.133
-166.852	-200.000	0.024	-0.350
-165.837	-9.486	0.204	0.134
-164.823	-1.576	-0.356	-0.247
-163.808	-30.698	0.183	0.102
-162.793	176.080	0.057	0.081
-161.779	63.923	-0.155	0.154
-160.764	173.551	0.138	-0.196
-159.750	-100.721	-0.277	0.067
-158.735	-200.000	-0.019	-0.156
-157.720	-18.966	0.093	0.057
-156.706	-200.000	-0.038	0.171
-155.691	162.315	0.049	-0.068
-154.677	527.539	-0.119	-0.275
-153.662	-100.366	0.291	-0.071
-152.647	-200.000	-0.006	-0.169
-151.633	-143.789	-0.267	-0.025
-150.618	-130.143	-0.186	0.025
-149.604	437.501	0.074	-0.158
-148.589	-200.000	0.037	-0.195
-147.574	81.535	-0.147	-0.157
-146.560	800.000	-0.038	0.111
-145.545	382.287	-0.035	-0.072
-144.531	277.910	0.071	0.125
-143.516	-3.400	0.250	-0.171
-142.502	441.793	-0.076	0.165
-141.487	800.000	-0.046	0.133
-140.472	11.877	0.270	0.204
-139.458	-161.277	0.368	-0.019
-138.443	800.000	0.013	0.054
-137.429	235.317	-0.014	0.022
-136.414	800.000	-0.069	0.247
-135.399	-200.000	-0.012	0.190
-134.385	-200.000	-0.032	-0.255
-133.370	-167.266	0.175	-0.007
-132.356	308.830	0.188	0.346
-131.341	-64.002	0.215	0.086
-130.326	507.569	0.081	0.184
-129.312	-136.991	0.329	-0.037
-128.297	-22.266	-0.197	-0.117
-127.283	71.921	-0.099	-0.101
-126.268	-6.192	0.174	-0.117
-125.253	325.375	-0.135	-0.254
-124.239	-69.432	-0.223	-0.084
-123.224	-129.817	0.221	-0.030
-122.210	-85.337	0.301	0.092
-121.195	-48.237	0.171	-0.081
-120.180	100.978	0.276	0.316
