DTS Sentinel unit serial number:	SN413079Multiplexer serial number:	ORYXHardware model number:	OX4-SRSoftware version number:	ORYX F/W v4.00 Oryx Data Collector v3.7.2.0data status	okinstallation	princeton_trtdifferential loss correction	single-endedforward channel	channel 2reverse channel	N/Adate	2019/09/11time	22:57:10forward acquisition time	60.00reverse acquisition time	0.00gamma	496.2192k internal	0.2324k external	0.2324temperature offset calibration	1.0078default loss term (dB/km)	0.3790temperature slope calibration	1.0000multiplexer offset coefficient	1.0000multiplexer slope coefficient	1.0000fibre end	0.00T internal ref (°C)	34.62T ext. ref 1 (°C)	1.84T ext. ref 2 (°C)	29.34length (m)	temperature (°C)	Stokes	anti-Stokes-747.200	118.220	-0.170	0.211
-746.185	-200.000	0.013	0.097
-745.171	703.161	-0.076	-0.203
-744.156	800.000	-0.091	0.273
-743.142	515.567	-0.066	-0.155
-742.127	-100.447	0.173	0.043
-741.112	-33.060	-0.058	0.033
-740.098	-117.528	0.253	-0.046
-739.083	-149.377	-0.227	0.018
-738.069	-200.000	-0.040	0.496
-737.054	800.000	0.111	0.452
-736.039	288.897	0.175	0.320
-735.025	70.833	-0.239	0.249
-734.010	68.003	-0.091	0.094
-732.996	617.474	0.110	-0.279
-731.981	-6.120	0.243	0.168
-730.966	40.195	-0.138	-0.125
-729.952	601.572	0.058	-0.145
-728.937	369.308	-0.028	0.057
-727.923	-200.000	0.012	0.273
-726.908	-41.287	0.093	-0.048
-725.894	429.963	-0.104	0.227
-724.879	35.370	0.283	-0.250
-723.864	-95.092	-0.293	0.080
-722.850	-200.000	0.102	0.509
-721.835	-200.000	-0.034	-0.281
-720.821	-11.414	-0.145	0.096
-719.806	-200.000	0.033	0.221
-718.791	800.000	0.066	0.229
-717.777	702.855	-0.045	-0.119
-716.762	468.944	0.102	-0.232
-715.748	-200.000	0.034	-0.292
-714.733	-133.370	-0.391	-0.050
-713.718	18.372	-0.123	-0.099
-712.704	-4.786	0.362	0.252
-711.689	-200.000	0.050	-0.325
-710.675	-200.000	0.040	-0.190
-709.660	13.454	-0.221	-0.173
-708.645	-23.333	0.362	0.219
-707.631	55.324	-0.071	-0.070
-706.616	-200.000	-0.013	-0.280
-705.602	-29.920	-0.314	-0.180
-704.587	96.708	-0.150	-0.173
-703.572	-200.000	-0.001	-0.045
-702.558	-46.458	0.060	0.030
-701.543	-127.094	-0.309	-0.046
-700.529	-14.596	0.153	0.099
-699.514	-177.314	-0.131	0.003
-698.499	-200.000	-0.043	-0.268
-697.485	-19.574	-0.061	-0.038
-696.470	23.434	-0.112	-0.093
-695.456	772.558	0.125	0.343
-694.441	-200.000	0.028	0.147
-693.426	-108.741	-0.377	-0.081
-692.412	257.593	-0.131	0.227
-691.397	-179.560	0.189	-0.004
-690.383	179.058	0.148	0.218
-689.368	212.013	0.047	-0.075
-688.354	84.569	-0.151	0.166
-687.339	-190.025	-0.080	-0.001
-686.324	8.111	-0.069	-0.052
-685.310	-157.013	0.135	-0.008
-684.295	800.000	-0.096	0.359
-683.281	-69.038	0.174	0.068
-682.266	-80.522	-0.287	-0.096
-681.251	66.203	-0.185	-0.190
-680.237	-158.942	-0.170	0.010
-679.222	195.254	0.096	-0.147
-678.208	59.928	0.062	-0.062
-677.193	-200.000	0.064	0.447
-676.178	800.000	0.027	-0.109
-675.164	519.561	0.200	-0.472
-674.149	11.006	0.203	-0.156
-673.135	86.337	0.083	-0.092
-672.120	-200.000	-0.095	-0.441
-671.105	95.126	0.155	-0.178
-670.091	-42.134	-0.281	0.145
-669.076	-200.000	-0.003	0.077
-668.062	-200.000	0.049	0.279
-667.047	-200.000	-0.093	0.420
-666.032	-14.990	0.196	0.126
-665.018	96.744	0.095	0.110
-664.003	13.777	0.130	-0.101
-662.989	30.042	0.162	0.139
-661.974	94.801	0.202	0.231
-660.959	-32.073	-0.219	-0.124
-659.945	-76.453	-0.384	-0.136
-658.930	-181.247	0.305	0.006
-657.916	-108.599	0.151	-0.033
-656.901	-124.131	0.154	0.024
-655.886	-111.180	-0.135	0.028
-654.872	-80.962	-0.399	-0.133
-653.857	-200.000	0.038	0.179
-652.843	-200.000	0.049	-0.225
-651.828	-48.189	-0.040	-0.019
-650.814	-200.000	-0.023	-0.185
-649.799	-140.610	-0.102	0.011
-648.784	-2.059	-0.291	0.205
-647.770	233.939	-0.127	0.210
-646.755	-94.828	-0.202	-0.055
-645.741	56.942	0.148	0.145
-644.726	630.957	0.041	0.105
-643.711	800.000	0.025	-0.099
-642.697	-200.000	-0.027	-0.170
-641.682	6.140	0.347	0.259
-640.668	-160.066	0.311	0.017
-639.653	-63.354	-0.157	-0.065
-638.638	13.204	-0.329	0.256
-637.624	-150.882	-0.091	0.007
-636.609	-200.000	0.024	-0.196
-635.595	-71.789	-0.142	-0.053
-634.580	26.549	0.125	0.105
-633.565	-200.000	0.004	-0.239
-632.551	-111.762	-0.300	-0.061
-631.536	284.776	0.086	0.156
-630.522	-71.218	-0.396	0.149
-629.507	-200.000	-0.003	0.205
-628.492	-64.220	-0.198	0.081
-627.478	23.222	0.136	-0.112
-626.463	-156.647	-0.167	0.010
-625.449	-200.000	0.034	-0.350
-624.434	334.711	-0.176	-0.343
-623.419	-115.067	0.247	-0.047
-622.405	-124.428	-0.174	0.027
-621.390	-115.940	-0.182	0.034
-620.376	-200.000	0.025	-0.122
-619.361	179.484	-0.052	0.077
-618.346	282.138	-0.088	-0.158
-617.332	-22.002	-0.450	-0.275
-616.317	463.982	-0.086	0.193
-615.303	-134.414	-0.271	0.033
-614.288	-167.402	-0.136	0.005
-613.273	485.871	-0.119	0.273
-612.259	122.779	-0.093	0.117
-611.244	-101.744	0.274	-0.067
-610.230	-68.318	0.188	-0.073
-609.215	20.336	-0.056	-0.045
-608.201	-174.376	-0.235	0.007
-607.186	309.431	0.018	-0.034
-606.171	800.000	0.099	-0.361
-605.157	-49.378	-0.272	0.130
-604.142	-110.311	-0.462	0.097
-603.128	-157.924	-0.514	0.031
-602.113	331.102	0.098	0.190
-601.098	-179.160	0.280	-0.006
-600.084	-15.528	-0.153	-0.098
-599.069	-200.000	0.013	0.138
-598.055	800.000	0.021	0.064
-597.040	156.213	0.098	-0.135
-596.025	-66.128	-0.279	0.112
-595.011	94.517	-0.188	-0.214
-593.996	312.203	0.089	-0.168
-592.982	-82.298	0.320	-0.104
-591.967	230.648	-0.139	-0.228
-590.952	-126.098	0.272	-0.041
-589.938	800.000	0.084	0.325
-588.923	112.203	-0.179	-0.217
-587.909	800.000	0.032	0.112
-586.894	-42.500	-0.183	0.093
-585.879	160.025	-0.105	0.147
-584.865	800.000	0.045	0.167
-583.850	-96.473	0.243	-0.064
-582.836	33.316	-0.084	0.074
-581.821	-56.526	0.181	-0.081
-580.806	-121.030	-0.355	-0.060
-579.792	97.954	-0.080	0.092
-578.777	800.000	-0.049	0.204
-577.763	-10.817	-0.172	0.114
-576.748	-145.933	-0.059	-0.005
-575.733	-200.000	0.030	0.398
-574.719	28.975	0.229	0.195
-573.704	250.879	-0.065	-0.111
-572.690	81.613	-0.322	-0.349
-571.675	-12.317	-0.094	0.062
-570.661	25.870	-0.032	-0.026
-569.646	171.643	0.149	0.214
-568.631	-200.000	-0.002	0.046
-567.617	358.873	0.133	0.266
-566.602	446.775	0.108	-0.238
-565.588	800.000	0.087	-0.270
-564.573	56.717	0.094	-0.092
-563.558	-200.000	-0.019	0.161
-562.544	164.130	0.102	-0.144
-561.529	-200.000	-0.032	0.203
-560.515	-20.473	-0.163	0.101
-559.500	34.303	0.138	0.121
-558.485	-200.000	-0.028	-0.156
-557.471	-77.780	0.208	0.072
-556.456	-200.000	0.006	0.292
-555.442	-150.259	-0.218	-0.017
-554.427	-41.765	0.188	-0.097
-553.412	-80.664	-0.246	-0.082
-552.398	622.982	-0.053	-0.134
-551.383	467.189	0.190	-0.426
-550.369	-76.732	0.489	-0.171
-549.354	800.000	0.065	0.218
-548.339	-200.000	-0.006	0.205
-547.325	37.522	0.329	-0.292
-546.310	-200.000	0.008	0.085
-545.296	-86.614	-0.251	-0.077
-544.281	-45.662	0.234	0.116
-543.266	-200.000	0.038	0.395
-542.252	299.106	0.071	0.131
-541.237	52.152	-0.131	0.125
-540.223	-46.148	0.096	-0.048
-539.208	-54.678	-0.219	-0.099
-538.193	-192.177	0.114	-0.001
-537.179	-2.014	0.139	-0.098
-536.164	4.736	0.148	0.109
-535.150	800.000	0.086	-0.305
-534.135	-29.019	-0.236	0.136
-533.121	-18.732	0.204	-0.127
-532.106	292.558	-0.069	0.125
-531.091	-179.748	-0.205	0.004
-530.077	259.885	-0.089	-0.154
-529.062	14.222	-0.163	-0.127
-528.048	217.091	0.179	-0.285
-527.033	188.611	0.028	0.042
-526.018	-146.978	0.084	0.007
-525.004	800.000	-0.033	0.112
-523.989	101.328	-0.185	-0.215
-522.975	-200.000	0.062	-0.299
-521.960	549.872	-0.059	0.141
-520.945	45.140	0.248	-0.229
-519.931	-22.464	0.070	0.042
-518.916	-200.000	0.052	-0.255
-517.902	-47.251	0.114	0.055
-516.887	505.682	-0.182	-0.421
-515.872	141.499	0.095	0.126
-514.858	-200.000	-0.028	0.351
-513.843	26.288	-0.140	0.117
-512.829	-117.928	0.092	0.016
-511.814	-151.625	0.108	0.008
-510.799	-200.000	0.055	0.254
-509.785	-23.269	0.068	-0.041
-508.770	-130.233	0.176	0.024
-507.756	-129.225	0.275	-0.038
-506.741	-81.190	-0.150	-0.050
-505.726	-61.078	-0.124	0.052
-504.712	-94.786	0.049	-0.013
-503.697	-133.024	0.150	-0.019
-502.683	-10.681	0.191	-0.126
-501.668	800.000	0.071	0.196
-500.653	58.083	-0.160	0.156
-499.639	245.624	0.148	0.249
-498.624	92.894	0.166	0.188
-497.610	99.097	0.157	0.181
-496.595	702.161	0.052	-0.136
-495.581	288.049	0.127	-0.231
-494.566	151.070	-0.126	0.171
-493.551	-200.000	-0.046	-0.269
-492.537	-60.037	0.102	-0.044
-491.522	-50.955	-0.062	-0.029
-490.508	800.000	-0.014	-0.057
-489.493	55.477	0.175	-0.169
-488.478	-200.000	-0.020	-0.143
-487.464	-22.103	-0.158	-0.096
-486.449	108.209	-0.048	-0.057
-485.435	34.826	-0.357	-0.312
-484.420	-200.000	0.077	-0.352
-483.405	-78.071	-0.234	-0.080
-482.391	4.435	-0.277	0.203
-481.376	800.000	-0.018	0.056
-480.362	74.241	-0.030	-0.032
-479.347	-85.384	-0.352	-0.110
-478.332	800.000	0.039	-0.113
-477.318	-190.722	0.032	-0.000
-476.303	309.208	0.039	-0.073
-475.289	-103.864	-0.093	0.022
-474.274	44.425	0.149	0.137
-473.259	109.688	0.050	0.059
-472.245	65.457	-0.028	-0.028
-471.230	3.200	0.108	0.078
-470.216	-4.318	-0.195	0.135
-469.201	-109.316	0.526	-0.111
-468.186	87.084	0.231	-0.254
-467.172	168.237	0.162	-0.230
-466.157	-172.799	-0.281	0.009
-465.143	-42.886	0.199	-0.101
-464.128	-200.000	-0.051	-0.379
-463.113	-63.348	0.242	-0.100
-462.099	-200.000	0.004	0.086
-461.084	150.670	0.220	0.298
-460.070	-150.353	-0.164	-0.013
-459.055	-142.459	0.152	0.015
-458.040	-178.491	0.154	-0.004
-457.026	-40.921	0.268	0.138
-456.011	143.849	0.054	0.072
-454.997	479.100	-0.044	0.100
-453.982	800.000	0.046	0.201
-452.968	240.719	0.093	0.155
-451.953	-174.751	0.221	-0.006
-450.938	381.438	0.061	-0.124
-449.924	-200.000	-0.027	0.277
-448.909	-22.786	0.068	-0.041
-447.895	-200.000	-0.011	0.056
-446.880	8.932	-0.146	-0.110
-445.865	-6.109	-0.190	-0.129
-444.851	-124.443	-0.150	-0.023
-443.836	-128.794	0.315	-0.044
-442.822	48.288	-0.227	0.212
-441.807	-146.221	0.134	-0.012
-440.792	-200.000	-0.002	0.121
-439.778	-65.625	0.470	0.188
-438.763	225.329	-0.146	-0.236
-437.749	-44.720	0.064	-0.032
-436.734	160.610	-0.121	-0.168
-435.719	184.726	0.220	-0.326
-434.705	255.070	-0.141	0.241
-433.690	800.000	0.037	-0.125
-432.676	626.899	0.076	0.191
-431.661	53.484	0.167	0.160
-430.646	76.863	0.057	-0.061
-429.632	279.592	-0.246	-0.439
-428.617	-200.000	-0.036	0.270
-427.603	22.798	0.127	-0.104
-426.588	-109.064	-0.111	0.024
-425.573	-29.705	0.384	-0.218
-424.559	490.585	-0.007	-0.016
-423.544	71.326	0.198	0.205
-422.530	350.454	0.152	0.299
-421.515	-45.570	-0.057	-0.028
-420.500	105.091	-0.061	0.072
-419.486	-200.000	0.013	0.114
-418.471	-71.479	-0.093	-0.035
-417.457	-135.465	-0.137	-0.016
-416.442	-13.333	-0.146	0.094
-415.428	-102.405	0.158	-0.038
-414.413	-0.702	0.169	-0.120
-413.398	800.000	-0.019	0.055
-412.384	-15.085	-0.160	0.102
-411.369	-120.850	-0.364	-0.061
-410.355	-106.683	0.178	0.040
-409.340	27.080	0.104	-0.087
-408.325	-200.000	-0.027	0.189
-407.311	68.684	-0.067	-0.068
-406.296	-158.466	-0.089	0.005
-405.282	184.481	0.185	0.273
-404.267	716.632	0.054	0.143
-403.252	-139.061	-0.164	-0.018
-402.238	800.000	-0.043	0.153
-401.223	254.695	0.084	-0.143
-400.209	800.000	-0.041	0.140
-399.194	55.595	-0.415	0.400
-398.179	-143.731	-0.232	0.022
-397.165	-107.045	-0.198	0.044
-396.150	-200.000	-0.038	-0.246
-395.136	-200.000	0.011	-0.229
-394.121	-25.256	-0.178	-0.105
-393.106	43.669	-0.157	-0.143
-392.092	65.508	0.201	-0.203
-391.077	800.000	0.080	-0.277
-390.063	434.010	-0.175	-0.378
-389.048	-190.968	0.485	-0.005
-388.033	134.443	-0.265	0.342
-387.019	-72.259	-0.041	0.015
-386.004	800.000	0.122	-0.353
-384.990	-105.503	0.258	-0.058
-383.975	-119.851	0.235	-0.040
-382.960	-200.000	0.005	-0.076
-381.946	-86.622	0.160	-0.049
-380.931	185.074	0.073	0.108
-379.917	-128.442	0.294	0.042
-378.902	171.746	0.192	0.274
-377.888	800.000	0.056	0.178
-376.873	-79.640	-0.416	-0.140
-375.858	167.082	-0.122	-0.173
-374.844	55.266	0.133	0.128
-373.829	324.553	-0.094	0.179
-372.815	22.564	0.086	0.070
-371.800	275.153	0.082	-0.145
-370.785	27.986	-0.142	0.119
-369.771	-143.311	0.189	-0.018
-368.756	-108.998	-0.168	0.036
-367.742	800.000	0.045	0.127
-366.727	194.182	0.215	0.324
-365.712	7.823	-0.128	0.096
-364.698	800.000	-0.008	-0.030
-363.683	27.825	0.194	-0.163
-362.669	439.064	0.018	0.040
-361.654	800.000	-0.130	0.392
-360.639	-31.459	-0.141	0.079
-359.625	-36.955	0.211	-0.112
-358.610	237.514	0.124	-0.204
-357.596	-153.769	0.123	0.008
-356.581	-23.376	-0.077	0.046
-355.566	161.899	0.046	-0.065
-354.552	29.334	-0.316	0.267
-353.537	-127.445	-0.241	0.035
-352.523	-122.658	-0.473	-0.076
-351.508	664.901	0.085	-0.219
-350.493	214.164	0.122	-0.191
-349.479	-14.810	-0.429	-0.274
-348.464	-80.317	0.214	-0.071
-347.450	-134.471	0.281	0.034
-346.435	-94.909	-0.256	0.069
-345.420	-159.944	0.075	-0.004
-344.406	-200.000	-0.031	-0.324
-343.391	40.117	-0.235	-0.210
-342.377	115.738	-0.245	-0.298
-341.362	-200.000	-0.022	-0.189
-340.348	-25.306	0.288	-0.169
-339.333	599.355	0.087	0.215
-338.318	-160.430	0.078	0.004
-337.304	800.000	-0.039	-0.167
-336.289	-200.000	0.028	0.310
-335.275	84.018	-0.161	0.175
-334.260	-4.802	-0.191	0.131
-333.245	800.000	0.007	0.027
-332.231	156.153	0.076	-0.104
-331.216	98.538	0.054	-0.062
-330.202	800.000	0.058	0.214
-329.187	-32.896	0.099	0.054
-328.172	-166.547	0.272	0.011
-327.158	-34.104	-0.097	-0.053
-326.143	-200.000	0.049	-0.278
-325.129	281.591	-0.078	-0.139
-324.114	251.883	-0.093	0.157
-323.099	-115.483	0.132	-0.025
-322.085	800.000	-0.114	-0.414
-321.070	-73.641	-0.099	0.036
-320.056	-40.351	0.033	-0.017
-319.041	196.647	-0.015	-0.022
-318.026	78.763	0.113	-0.120
-317.012	70.861	0.116	0.120
-315.997	43.255	-0.202	0.183
-314.983	323.214	0.153	0.289
-313.968	-33.739	-0.346	0.189
-312.953	-200.000	-0.043	-0.245
-311.939	71.674	0.043	-0.044
-310.924	484.297	-0.112	0.254
-309.910	199.626	0.173	-0.263
-308.895	800.000	0.048	-0.139
-307.880	138.429	0.071	-0.093
-306.866	-46.892	-0.158	-0.077
-305.851	176.096	-0.063	-0.090
-304.837	103.596	0.127	-0.147
-303.822	-200.000	-0.052	0.325
-302.807	343.930	-0.038	0.074
-301.793	-94.089	-0.223	0.061
-300.778	800.000	-0.142	-0.462
-299.764	-130.610	-0.304	-0.041
-298.749	800.000	0.054	0.219
-297.735	-200.000	-0.057	-0.262
-296.720	800.000	-0.055	-0.215
-295.705	161.052	0.135	-0.187
-294.691	132.216	0.259	-0.331
-293.676	-59.004	0.186	-0.080
-292.662	-134.717	0.140	0.017
-291.647	7.621	0.275	0.204
-290.632	78.176	0.053	0.057
-289.618	86.505	-0.166	0.182
-288.603	45.121	0.040	-0.037
-287.589	194.159	0.125	-0.188
-286.574	102.927	0.103	-0.119
-285.559	-64.877	-0.172	-0.069
-284.545	-132.638	0.059	0.008
-283.530	-39.766	0.203	0.105
-282.516	-200.000	-0.075	-0.571
-281.501	-200.000	0.016	0.095
-280.486	-113.419	-0.327	-0.064
-279.472	-25.765	0.070	-0.041
-278.457	-125.422	0.420	-0.063
-277.443	82.040	0.098	-0.105
-276.428	399.322	-0.187	-0.389
-275.413	295.827	0.055	0.101
-274.399	204.434	-0.060	0.091
-273.384	-144.970	-0.043	-0.004
-272.370	146.119	0.179	0.238
-271.355	-171.342	0.371	-0.012
-270.340	-57.716	0.083	0.036
-269.326	-134.012	0.438	-0.054
-268.311	-106.475	-0.317	0.070
-267.297	-21.571	0.100	-0.060
-266.282	36.227	-0.085	-0.074
-265.267	181.518	-0.206	0.301
-264.253	338.820	0.113	0.217
-263.238	-31.954	0.105	-0.058
-262.224	-200.000	0.085	0.373
-261.209	216.989	-0.068	0.107
-260.195	-110.496	-0.040	-0.008
-259.180	531.826	0.082	0.192
-258.165	137.383	-0.230	0.298
-257.151	39.578	0.229	0.203
-256.136	532.902	0.098	0.230
-255.122	800.000	0.015	0.048
-254.107	176.359	-0.106	0.153
-253.092	277.953	0.144	0.254
-252.078	-4.953	0.114	-0.078
-251.063	-65.136	-0.379	0.151
-250.049	228.724	0.129	-0.208
-249.034	123.744	-0.106	-0.131
-248.019	-144.462	0.141	-0.013
-247.005	-117.591	-0.235	0.042
-245.990	151.678	-0.024	0.032
-244.976	232.492	0.151	0.245
-243.961	-64.362	-0.060	0.024
-242.946	-26.242	0.210	0.122
-241.932	-46.823	0.291	-0.141
-240.917	-144.160	0.231	0.021
-239.903	-179.541	-0.210	0.005
-238.888	-4.726	0.074	-0.051
-237.873	37.878	-0.028	0.025
-236.859	-9.576	-0.212	-0.140
-235.844	-30.913	-0.171	0.095
-234.830	87.340	0.221	-0.242
-233.815	333.804	-0.101	-0.193
-232.800	-89.687	0.042	-0.012
-231.786	-19.939	-0.204	-0.124
-230.771	-200.000	0.021	-0.185
-229.757	-7.475	0.229	-0.153
-228.742	45.419	-0.278	0.254
-227.727	-193.901	-0.371	0.003
-226.713	-130.395	0.353	0.047
-225.698	262.005	-0.105	-0.180
-224.684	649.872	0.112	0.284
-223.669	342.257	0.191	0.370
-222.655	800.000	0.135	-0.397
-221.640	51.010	0.183	0.172
-220.625	800.000	-0.062	0.203
-219.611	90.969	0.109	0.121
-218.596	127.715	-0.255	0.320
-217.582	-93.571	-0.199	0.054
-216.567	87.124	0.225	-0.246
-215.552	80.719	0.045	0.048
-214.538	-111.957	0.192	-0.038
-213.523	800.000	0.057	-0.210
-212.509	-159.022	0.122	0.007
-211.494	-10.998	-0.181	0.118
-210.479	800.000	-0.104	-0.287
-209.465	159.934	0.044	-0.061
-208.450	74.039	-0.095	0.098
-207.436	465.013	0.063	0.140
-206.421	325.575	-0.207	-0.391
-205.406	382.463	0.028	-0.057
-204.392	92.378	0.109	-0.122
-203.377	111.340	0.236	0.281
-202.363	-61.029	0.178	-0.074
-201.348	-179.427	0.318	0.007
-200.333	-200.000	-0.003	0.013
-199.319	800.000	0.080	-0.243
-198.304	800.000	-0.071	-0.246
-197.290	-200.000	0.141	-0.000
-196.275	48.566	-0.176	0.163
-195.260	25.066	-0.220	0.181
-194.246	-31.470	0.111	-0.062
-193.231	-193.089	-0.157	-0.001
-192.217	655.835	0.125	0.318
-191.202	624.601	0.035	-0.088
-190.187	-200.000	0.015	-0.305
-189.173	-19.489	-0.184	0.113
-188.158	-200.000	-0.014	-0.124
-187.144	-44.068	0.345	0.171
-186.129	-31.382	0.144	-0.080
-185.114	84.554	-0.103	0.112
-184.100	305.692	-0.071	0.130
-183.085	-89.563	-0.125	0.036
-182.071	90.179	-0.043	-0.047
-181.056	312.072	-0.129	0.240
-180.042	-114.500	0.322	0.061
-179.027	125.748	-0.253	0.315
-178.012	19.563	-0.128	0.102
-176.998	800.000	0.028	0.102
-175.983	-19.772	-0.170	-0.104
-174.969	357.616	-0.049	0.097
-173.954	-61.905	-0.162	0.067
-172.939	210.995	0.079	0.123
-171.925	268.041	-0.082	-0.141
-170.910	-84.579	0.199	-0.062
-169.896	-64.702	-0.331	0.132
-168.881	800.000	0.029	0.112
-167.866	-15.131	-0.252	-0.159
-166.852	-79.973	-0.265	-0.088
-165.837	-200.000	-0.020	-0.177
-164.823	-89.512	-0.253	0.074
-163.808	404.560	0.182	0.378
-162.793	153.889	-0.075	-0.102
-161.779	29.711	0.452	0.380
-160.764	740.917	-0.061	-0.161
-159.750	-81.593	-0.298	0.097
-158.735	-111.884	0.164	-0.033
-157.720	-45.622	0.189	0.092
-156.706	-59.999	-0.300	0.126
-155.691	97.026	-0.181	0.204
-154.677	-200.000	0.035	-0.439
-153.662	-200.000	0.070	0.346
-152.647	-132.906	-0.309	-0.039
-151.633	188.775	0.077	-0.114
-150.618	75.464	-0.003	-0.004
-149.604	82.837	-0.045	-0.049
-148.589	-171.315	0.221	-0.007
-147.574	-200.000	-0.078	-0.381
-146.560	-200.000	-0.042	-0.207
-145.545	-116.412	0.315	-0.057
-144.531	-107.682	-0.352	0.076
-143.516	800.000	0.076	-0.237
-142.502	-36.798	-0.072	-0.038
-141.487	113.863	-0.276	0.331
-140.472	-200.000	0.003	0.085
-139.458	-73.649	0.142	0.051
-138.443	69.418	0.171	0.174
-137.429	98.743	0.162	0.184
-136.414	-71.372	0.226	0.083
-135.399	-200.000	0.063	-0.460
-134.385	545.473	-0.122	-0.288
-133.370	396.983	-0.065	-0.133
-132.356	-15.288	-0.099	-0.062
-131.341	71.731	-0.085	-0.087
-130.326	800.000	-0.068	-0.202
-129.312	202.367	0.085	0.130
-128.297	53.299	0.065	-0.061
-127.283	-200.000	-0.034	0.347
-126.268	592.205	0.067	0.162
-125.253	-200.000	-0.004	-0.231
-124.239	210.726	0.092	-0.142
-123.224	343.739	0.104	0.200
-122.210	308.700	-0.083	-0.152
-121.195	467.270	-0.095	0.210
