DTS Sentinel unit serial number:	SN413079Multiplexer serial number:	ORYXHardware model number:	OX4-SRSoftware version number:	ORYX F/W v4.00 Oryx Data Collector v3.7.2.0data status	okinstallation	princeton_trtdifferential loss correction	single-endedforward channel	channel 2reverse channel	N/Adate	2019/09/10time	20:57:11forward acquisition time	60.00reverse acquisition time	0.00gamma	496.2192k internal	0.2331k external	0.2331temperature offset calibration	0.9946default loss term (dB/km)	0.3790temperature slope calibration	1.0000multiplexer offset coefficient	1.0000multiplexer slope coefficient	1.0000fibre end	0.00T internal ref (°C)	31.67T ext. ref 1 (°C)	-0.32T ext. ref 2 (°C)	25.04length (m)	temperature (°C)	Stokes	anti-Stokes-747.200	180.910	0.162	0.240
-746.185	-102.968	-0.202	0.048
-745.171	48.822	0.179	0.169
-744.156	-112.208	-0.328	0.066
-743.142	-14.964	-0.148	0.096
-742.127	729.229	0.120	0.323
-741.112	-112.105	0.102	-0.021
-740.098	-78.451	0.404	-0.139
-739.083	-79.632	0.464	0.158
-738.069	53.078	-0.041	0.039
-737.054	171.085	0.191	-0.275
-736.039	143.327	-0.200	0.268
-735.025	-57.455	0.572	0.253
-734.010	7.043	-0.162	0.122
-732.996	-115.411	-0.156	-0.030
-731.981	-148.633	-0.160	0.013
-730.966	-138.963	0.145	-0.016
-729.952	150.815	0.122	0.167
-728.937	144.700	-0.149	-0.201
-727.923	-200.000	-0.000	-0.227
-726.908	-3.985	0.138	0.097
-725.894	-179.108	0.210	-0.005
-724.879	-104.187	0.130	0.030
-723.864	780.463	0.117	-0.322
-722.850	192.701	-0.028	-0.043
-721.835	800.000	-0.096	0.277
-720.821	303.528	0.016	-0.030
-719.806	295.685	0.162	-0.299
-718.791	-200.000	0.002	-0.043
-717.777	263.305	0.205	0.357
-716.762	64.443	-0.259	-0.262
-715.748	-8.760	-0.204	-0.138
-714.733	151.051	0.075	-0.103
-713.718	256.998	-0.070	0.121
-712.704	800.000	-0.087	-0.326
-711.689	614.734	-0.083	0.208
-710.675	-140.847	0.204	0.021
-709.660	256.482	-0.105	0.181
-708.645	-200.000	0.032	-0.145
-707.631	-58.988	0.169	-0.073
-706.616	-200.000	-0.003	-0.105
-705.602	17.207	0.347	-0.277
-704.587	-200.000	-0.035	-0.196
-703.572	-200.000	0.007	0.035
-702.558	-200.000	0.032	0.222
-701.543	800.000	0.041	0.169
-700.529	-30.270	0.392	-0.224
-699.514	-77.716	-0.290	0.101
-698.499	93.509	-0.149	0.170
-697.485	-143.684	-0.270	0.026
-696.470	-122.259	-0.215	0.035
-695.456	-88.673	0.189	-0.056
-694.441	-0.814	0.136	-0.097
-693.426	-145.173	0.321	0.029
-692.412	-147.221	-0.396	0.034
-691.397	-114.540	-0.229	0.044
-690.383	-200.000	-0.027	-0.167
-689.368	24.191	-0.109	0.090
-688.354	-15.700	-0.237	-0.152
-687.339	-111.841	0.218	-0.044
-686.324	53.263	-0.207	0.199
-685.310	120.146	-0.100	0.124
-684.295	-200.000	0.034	-0.303
-683.281	41.053	-0.106	-0.096
-682.266	-200.000	0.028	0.175
-681.251	800.000	0.026	0.080
-680.237	331.959	0.065	0.126
-679.222	-160.806	-0.097	-0.005
-678.208	-156.821	-0.040	-0.002
-677.193	-200.000	-0.014	-0.280
-676.178	-108.304	-0.146	0.032
-675.164	-126.235	-0.412	-0.062
-674.149	739.823	0.088	-0.236
-673.135	800.000	0.086	-0.306
-672.120	800.000	0.015	-0.047
-671.105	-20.144	0.234	-0.145
-670.091	280.213	0.075	-0.135
-669.076	-85.018	-0.306	-0.096
-668.062	800.000	0.068	-0.222
-667.047	-13.407	-0.123	-0.080
-666.032	800.000	-0.081	0.230
-665.018	268.361	-0.053	-0.094
-664.003	-156.935	-0.361	0.022
-662.989	-100.469	0.390	0.097
-661.974	397.218	-0.190	-0.398
-660.959	56.354	-0.236	-0.230
-659.945	-67.188	-0.166	0.066
-658.930	113.701	-0.098	-0.120
-657.916	-147.407	-0.228	-0.019
-656.901	136.305	0.052	0.068
-655.886	-88.279	-0.286	0.086
-654.872	83.586	0.128	0.139
-653.857	-187.725	0.521	0.007
-652.843	-152.341	0.087	0.006
-651.828	181.218	-0.142	0.209
-650.814	192.292	0.152	0.230
-649.799	-55.870	0.062	-0.028
-648.784	-200.000	-0.063	0.314
-647.770	-88.754	0.069	-0.020
-646.755	170.287	-0.135	-0.194
-645.741	-55.555	-0.171	0.077
-644.726	25.712	0.091	0.076
-643.711	800.000	-0.020	0.083
-642.697	800.000	0.061	0.267
-641.682	71.499	-0.233	0.243
-640.668	-125.361	-0.585	0.089
-639.653	422.598	0.081	-0.174
-638.638	-50.894	0.260	-0.122
-637.624	800.000	-0.134	-0.548
-636.609	180.055	0.036	0.053
-635.595	-18.823	-0.060	0.038
-634.580	-200.000	0.033	-0.455
-633.565	800.000	-0.055	-0.226
-632.551	32.145	0.237	-0.204
-631.536	229.879	0.118	0.193
-630.522	-2.127	0.323	-0.227
-629.507	-93.405	0.009	-0.002
-628.492	-146.138	-0.294	-0.026
-627.478	-116.288	-0.224	0.042
-626.463	-8.912	0.139	0.093
-625.449	-200.000	-0.016	-0.226
-624.434	135.637	0.192	0.250
-623.419	-165.477	0.203	-0.009
-622.405	707.850	-0.132	0.349
-621.390	-185.020	0.299	-0.005
-620.376	7.595	0.192	0.144
-619.361	-90.435	0.203	0.059
-618.346	233.039	0.108	-0.178
-617.332	-200.000	-0.035	0.183
-616.317	129.522	-0.056	-0.072
-615.303	-27.719	0.151	0.088
-614.288	-176.173	0.213	-0.006
-613.273	-10.511	0.144	0.096
-612.259	-168.080	0.155	-0.006
-611.244	193.969	0.239	0.363
-610.230	-54.461	-0.343	0.156
-609.215	638.615	0.117	0.298
-608.201	-2.059	0.204	-0.144
-607.186	-200.000	0.002	-0.392
-606.171	800.000	0.100	0.298
-605.157	-0.650	-0.251	0.178
-604.142	194.111	0.338	-0.513
-603.128	28.005	-0.119	0.100
-602.113	-200.000	-0.006	-0.054
-601.098	412.300	0.034	-0.073
-600.084	-200.000	-0.065	0.324
-599.069	-102.338	0.282	-0.068
-598.055	-200.000	0.042	-0.270
-597.040	800.000	-0.097	0.283
-596.025	800.000	-0.036	0.144
-595.011	-0.978	-0.091	0.064
-593.996	-152.307	-0.215	-0.016
-592.982	-84.659	-0.172	0.054
-591.967	504.437	0.066	0.152
-590.952	692.600	-0.098	0.258
-589.938	-89.340	-0.435	-0.128
-588.923	747.097	-0.063	0.170
-587.909	22.603	-0.087	0.071
-586.894	-107.774	0.137	-0.030
-585.879	201.595	-0.043	-0.066
-584.865	-137.998	0.314	-0.035
-583.850	-39.649	0.085	-0.045
-582.836	-52.985	0.033	-0.015
-581.821	800.000	0.080	-0.284
-580.806	-124.596	-0.315	-0.049
-579.792	118.393	-0.246	-0.303
-578.777	7.869	0.328	0.246
-577.763	435.538	-0.057	-0.124
-576.748	401.301	0.116	0.244
-575.733	-200.000	0.044	0.228
-574.719	-200.000	-0.011	0.368
-573.704	-67.572	0.200	-0.078
-572.690	-33.228	0.196	0.109
-571.675	-66.021	-0.226	0.090
-570.661	172.579	0.081	-0.116
-569.646	800.000	0.018	0.075
-568.631	-103.090	-0.229	-0.054
-567.617	-56.054	0.297	0.132
-566.602	237.435	-0.080	0.132
-565.588	800.000	-0.071	-0.233
-564.573	800.000	0.092	0.339
-563.558	-200.000	0.036	-0.265
-562.544	31.963	-0.085	0.073
-561.529	692.340	-0.012	-0.032
-560.515	-8.395	-0.483	-0.325
-559.500	85.568	-0.243	-0.267
-558.485	58.414	-0.155	0.152
-557.471	170.967	-0.126	-0.180
-556.456	-200.000	-0.004	-0.363
-555.442	256.273	-0.152	0.261
-554.427	26.859	-0.280	-0.235
-553.412	-83.290	0.317	-0.102
-552.398	-46.284	0.109	-0.053
-551.383	-127.683	0.220	0.032
-550.369	362.830	0.068	0.137
-549.354	110.973	0.136	0.163
-548.339	-65.595	-0.359	-0.144
-547.325	-200.000	-0.023	0.257
-546.310	-68.456	-0.267	-0.103
-545.296	97.038	0.110	-0.126
-544.281	800.000	-0.036	0.104
-543.266	134.419	-0.099	-0.129
-542.252	37.648	0.092	-0.082
-541.237	800.000	-0.096	-0.291
-540.223	-154.679	-0.096	-0.006
-539.208	-86.499	-0.313	-0.096
-538.193	-200.000	0.042	0.289
-537.179	-65.591	0.272	-0.109
-536.164	46.295	-0.267	-0.247
-535.150	800.000	-0.063	0.254
-534.135	-200.000	0.006	-0.164
-533.121	-44.983	-0.016	-0.008
-532.106	800.000	-0.050	0.197
-531.091	-61.233	-0.291	-0.122
-530.077	-20.820	0.209	-0.128
-529.062	-21.411	0.247	-0.150
-528.048	164.597	-0.146	-0.206
-527.033	-200.000	0.034	-0.366
-526.018	-93.765	0.278	0.077
-525.004	-28.208	0.323	-0.186
-523.989	-200.000	-0.073	-0.340
-522.975	-162.193	-0.184	-0.009
-521.960	-83.519	0.379	-0.121
-520.945	-177.556	-0.188	-0.005
-519.931	9.658	0.210	0.158
-518.916	33.683	0.043	-0.037
-517.902	363.191	0.175	-0.351
-516.887	-66.861	0.456	-0.180
-515.872	-52.283	0.263	-0.122
-514.858	-200.000	0.013	-0.210
-513.843	-125.169	0.348	-0.053
-512.829	16.903	0.059	0.047
-511.814	-52.574	-0.215	-0.099
-510.799	-200.000	-0.019	-0.277
-509.785	87.076	-0.155	0.171
-508.770	-200.000	0.026	0.315
-507.756	412.773	-0.166	0.351
-506.741	781.494	-0.106	0.290
-505.726	-200.000	-0.006	-0.037
-504.712	-166.371	0.169	-0.007
-503.697	46.542	-0.215	-0.199
-502.683	-148.472	-0.363	-0.030
-501.668	-140.321	0.160	0.017
-500.653	-46.871	-0.260	0.127
-499.639	451.903	-0.091	0.201
-498.624	-101.664	0.213	-0.052
-497.610	169.801	-0.115	0.165
-496.595	-142.236	0.319	-0.031
-495.581	66.773	0.036	-0.036
-494.566	-200.000	0.002	0.113
-493.551	800.000	-0.151	-0.436
-492.537	-90.361	-0.241	0.070
-491.522	-200.000	-0.030	0.306
-490.508	-34.083	-0.061	-0.033
-489.493	314.035	0.150	0.281
-488.478	63.132	-0.042	-0.042
-487.464	-200.000	0.052	-0.308
-486.449	-145.747	0.143	-0.013
-485.435	622.479	-0.114	0.285
-484.420	-134.302	0.419	-0.051
-483.405	-200.000	0.007	-0.081
-482.391	-94.929	-0.239	-0.065
-481.376	-200.000	0.004	0.227
-480.362	41.655	-0.123	-0.111
-479.347	-82.820	-0.159	-0.051
-478.332	-200.000	0.008	0.063
-477.318	-194.428	-0.265	0.002
-476.303	800.000	0.051	-0.178
-475.289	800.000	-0.047	-0.167
-474.274	41.073	-0.280	-0.252
-473.259	-139.964	-0.264	-0.028
-472.245	-119.120	0.373	-0.065
-471.230	164.640	0.105	-0.148
-470.216	-200.000	0.112	0.508
-469.201	-81.202	0.128	0.042
-468.186	258.510	0.018	0.031
-467.172	-200.000	-0.032	0.217
-466.157	13.340	-0.352	-0.272
-465.143	-137.727	-0.067	-0.008
-464.128	364.964	-0.056	0.112
-463.113	-200.000	-0.015	-0.282
-462.099	-200.000	-0.005	-0.191
-461.084	90.810	0.339	-0.378
-460.070	-76.497	0.158	-0.055
-459.055	-60.994	-0.140	0.059
-458.040	800.000	0.077	-0.332
-457.026	-69.592	0.477	0.182
-456.011	-102.051	-0.348	0.083
-454.997	197.668	0.140	0.213
-453.982	8.603	-0.211	-0.158
-452.968	454.325	0.170	-0.375
-451.953	467.599	0.135	0.301
-450.938	116.786	-0.237	-0.290
-449.924	21.699	-0.032	0.026
-448.909	397.618	0.049	0.103
-447.895	426.284	-0.068	0.147
-446.880	-136.208	0.310	-0.036
-445.865	-113.842	0.743	-0.144
-444.851	11.277	0.148	0.113
-443.836	94.947	0.109	0.124
-442.822	-70.659	0.319	-0.120
-441.807	270.124	0.093	0.162
-440.792	-64.417	-0.138	0.056
-439.778	-93.987	0.183	-0.050
-438.763	800.000	0.098	-0.281
-437.749	-200.000	-0.027	0.242
-436.734	606.810	-0.092	-0.229
-435.719	-200.000	-0.002	0.175
-434.705	-108.113	-0.310	0.067
-433.690	-155.164	-0.299	-0.019
-432.676	29.511	-0.020	0.017
-431.661	9.314	-0.117	-0.088
-430.646	368.679	-0.111	-0.222
-429.632	-200.000	0.027	0.313
-428.617	-200.000	-0.022	-0.202
-427.603	588.214	-0.153	0.375
-426.588	-200.000	-0.002	-0.033
-425.573	800.000	0.050	0.169
-424.559	-56.164	0.316	0.140
-423.544	-200.000	0.021	-0.173
-422.530	-62.502	0.241	0.100
-421.515	31.090	0.237	0.202
-420.500	124.148	-0.193	-0.241
-419.486	229.435	0.100	0.162
-418.471	-200.000	0.072	0.411
-417.457	31.817	0.174	0.149
-416.442	-14.203	-0.097	0.062
-415.428	-58.764	-0.139	-0.060
-414.413	-131.586	0.263	0.034
-413.398	-74.603	-0.115	0.041
-412.384	-193.040	0.372	0.003
-411.369	331.063	0.061	-0.116
-410.355	-62.352	-0.254	0.105
-409.340	244.469	0.058	0.096
-408.325	-200.000	0.050	0.277
-407.311	154.427	-0.040	0.055
-406.296	-200.000	-0.016	0.225
-405.282	-103.987	0.411	-0.095
-404.267	-200.000	-0.010	-0.152
-403.252	731.764	0.122	-0.323
-402.238	226.799	-0.197	-0.318
-401.223	-145.738	0.153	0.014
-400.209	-95.720	-0.068	0.018
-399.194	219.987	-0.166	0.263
-398.179	-200.000	0.041	-0.323
-397.165	-8.174	0.227	-0.152
-396.150	-200.000	0.016	0.124
-395.136	-81.918	0.140	0.046
-394.121	106.262	-0.150	-0.176
-393.106	800.000	-0.058	0.217
-392.092	-9.768	0.113	0.075
-391.077	800.000	0.064	0.220
-390.063	-39.422	-0.317	0.165
-389.048	-158.203	-0.338	0.020
-388.033	800.000	-0.097	-0.333
-387.019	-75.676	0.113	-0.040
-386.004	-21.141	-0.135	-0.082
-384.990	60.954	-0.187	0.184
-383.975	-81.909	-0.078	-0.025
-382.960	176.214	0.178	-0.257
-381.946	123.353	0.151	-0.188
-380.931	-19.503	0.215	-0.132
-379.917	55.187	0.285	0.273
-378.902	-8.431	-0.206	-0.137
-377.888	-200.000	0.066	-0.309
-376.873	472.101	-0.103	0.231
-375.858	-114.876	-0.311	0.059
-374.844	-91.139	0.058	0.017
-373.829	-200.000	0.009	-0.077
-372.815	-38.227	0.094	0.049
-371.800	103.022	-0.210	0.244
-370.785	-200.000	0.005	0.025
-369.771	-62.820	-0.358	-0.147
-368.756	-73.096	-0.128	-0.047
-367.742	-200.000	-0.014	0.106
-366.727	200.175	0.154	-0.234
-365.712	136.500	-0.167	0.217
-364.698	-124.823	-0.214	0.033
-363.683	272.872	-0.044	-0.077
-362.669	-97.948	0.085	-0.022
-361.654	-2.190	-0.219	0.153
-360.639	-200.000	-0.037	0.450
-359.625	800.000	0.093	0.273
-358.610	616.605	-0.080	-0.200
-357.596	-41.205	0.267	-0.137
-356.581	-71.915	-0.198	0.073
-355.566	297.682	0.015	-0.027
-354.552	-31.733	-0.148	0.082
-353.537	184.968	-0.040	0.058
-352.523	-200.000	0.042	0.265
-351.508	800.000	0.091	0.262
-350.493	-140.627	-0.151	-0.016
-349.479	-200.000	-0.001	-0.140
-348.464	153.302	0.203	-0.276
-347.450	-65.208	0.102	0.041
-346.435	-37.510	-0.270	-0.143
-345.420	-134.511	0.125	0.015
-344.406	181.745	-0.282	-0.412
-343.391	47.135	-0.105	-0.097
-342.377	182.427	0.036	0.052
-341.362	-200.000	-0.040	0.249
-340.348	145.087	-0.135	0.178
-339.333	129.459	0.282	-0.357
-338.318	-49.740	0.103	-0.048
-337.304	-200.000	0.018	0.275
-336.289	-43.704	0.017	-0.008
-335.275	668.295	0.015	0.038
-334.260	-141.327	0.193	-0.019
-333.245	346.051	-0.065	-0.126
-332.231	484.854	0.009	-0.021
-331.216	-4.076	-0.125	-0.085
-330.202	-62.139	-0.053	0.022
-329.187	15.675	-0.083	0.064
-328.172	-133.531	-0.170	-0.021
-327.158	46.055	0.320	-0.294
-326.143	-97.896	-0.377	-0.096
-325.129	-101.157	0.131	0.032
-324.114	800.000	0.035	-0.098
-323.099	-56.570	0.249	-0.109
-322.085	-161.088	0.154	-0.008
-321.070	-200.000	-0.024	-0.295
-320.056	-200.000	0.007	-0.176
-319.041	308.961	0.137	0.254
-318.026	-105.750	-0.386	0.086
-317.012	-53.542	0.080	0.036
-315.997	258.293	0.131	-0.224
-314.983	-12.693	0.047	-0.030
-313.968	-15.555	-0.263	0.166
-312.953	620.416	-0.116	-0.289
-311.939	266.054	-0.018	0.031
-310.924	-39.011	0.193	-0.100
-309.910	-11.328	-0.452	-0.295
-308.895	-119.202	0.358	-0.062
-307.880	73.289	0.090	0.094
-306.866	44.541	-0.290	-0.264
-305.851	-73.726	0.249	-0.090
-304.837	-200.000	0.048	-0.369
-303.822	57.853	0.261	-0.253
-302.807	-73.763	-0.245	-0.088
-301.793	-200.000	0.062	0.423
-300.778	-200.000	-0.006	0.047
-299.764	-77.877	-0.179	0.061
-298.749	-108.887	0.108	0.023
-297.735	-200.000	-0.017	-0.311
-296.720	31.665	-0.115	-0.098
-295.705	-119.101	0.273	0.047
-294.691	-130.910	-0.078	-0.010
-293.676	761.734	0.034	-0.092
-292.662	-118.782	0.100	-0.017
-291.647	800.000	-0.042	-0.117
-290.632	421.407	0.062	0.132
-289.618	777.710	0.011	0.028
-288.603	-73.749	-0.431	0.155
-287.589	-152.445	0.196	-0.014
-286.574	37.325	0.175	0.153
-285.559	-80.896	-0.035	-0.012
-284.545	800.000	-0.012	-0.051
-283.530	-200.000	-0.029	0.418
-282.516	20.121	-0.236	-0.188
-281.501	655.175	-0.117	0.298
-280.486	131.267	-0.139	0.176
-279.472	-43.029	0.204	0.102
-278.457	215.505	0.199	-0.313
-277.443	-200.000	-0.007	-0.059
-276.428	-177.703	-0.091	-0.002
-275.413	-185.448	-0.371	-0.006
-274.399	-76.826	0.179	-0.062
-273.384	40.733	0.013	0.012
-272.370	123.977	0.172	0.214
-271.355	457.444	0.041	-0.089
-270.340	-141.692	-0.359	0.036
-269.326	285.126	-0.129	-0.230
-268.311	-156.840	-0.045	0.003
-267.297	76.484	-0.101	0.105
-266.282	-200.000	0.044	0.194
-265.267	-159.966	-0.331	0.018
-264.253	-200.000	-0.032	-0.299
-263.238	133.425	0.355	0.454
-262.224	-4.624	0.153	0.104
-261.209	55.464	-0.098	0.094
-260.195	-133.949	-0.066	-0.008
-259.180	-4.089	-0.274	0.187
-258.165	-113.033	-0.403	-0.079
-257.151	69.490	0.238	-0.242
-256.136	-200.000	0.032	-0.250
-255.122	173.208	-0.136	0.194
-254.107	7.395	0.137	0.101
-253.092	-173.528	0.366	0.011
-252.078	103.610	0.176	-0.204
-251.063	-122.660	-0.035	-0.006
-250.049	252.605	-0.256	0.431
-249.034	291.622	-0.058	-0.105
-248.019	-53.024	0.156	0.071
-247.005	-100.133	0.200	0.049
-245.990	-153.101	-0.161	0.011
-244.976	53.322	-0.355	0.336
-243.961	58.728	-0.042	0.040
-242.946	-200.000	-0.039	0.293
-241.932	-200.000	0.022	-0.338
-240.917	3.925	0.337	0.243
-239.903	19.038	-0.106	0.084
-238.888	-118.346	0.321	-0.056
-237.873	119.045	0.137	0.167
-236.859	8.500	-0.322	-0.239
-235.844	42.961	0.333	0.300
-234.830	182.339	0.238	-0.346
-233.815	-200.000	-0.080	0.512
-232.800	-133.044	-0.120	0.015
-231.786	-48.963	-0.202	-0.095
-230.771	385.119	-0.086	0.174
-229.757	59.682	0.109	-0.106
-228.742	-200.000	0.006	-0.104
-227.727	-6.940	0.207	-0.139
-226.713	800.000	-0.057	0.175
-225.698	232.119	-0.103	0.167
-224.684	800.000	0.054	-0.170
-223.669	-200.000	0.029	0.135
-222.655	74.662	0.190	-0.197
-221.640	336.743	-0.139	0.267
-220.625	416.269	0.188	0.396
-219.611	-7.440	-0.033	-0.022
-218.596	-53.332	-0.252	-0.114
-217.582	-9.598	0.170	0.112
-216.567	-170.234	-0.125	0.004
-215.552	584.695	0.058	0.141
-214.538	381.469	0.117	-0.237
-213.523	-97.916	0.212	-0.054
-212.509	-200.000	-0.042	-0.310
-211.494	3.133	-0.109	-0.078
-210.479	-63.876	-0.308	0.124
-209.465	800.000	-0.115	0.349
-208.450	-1.803	0.086	0.060
-207.436	-90.575	-0.375	0.107
-206.421	-200.000	0.008	0.201
-205.406	167.057	0.138	-0.193
-204.392	306.187	-0.032	0.059
-203.377	22.028	0.343	-0.276
-202.363	1.198	-0.249	-0.176
-201.348	-123.146	-0.160	0.025
-200.333	251.394	-0.102	0.171
-199.319	430.233	-0.015	0.033
-198.304	180.040	0.162	0.233
-197.290	-130.730	-0.061	0.008
-196.275	496.047	0.083	0.188
-195.260	511.067	-0.112	0.257
-194.246	16.921	0.161	-0.125
-193.231	-88.752	0.153	0.045
-192.217	-83.736	-0.168	0.053
-191.202	-177.225	-0.405	-0.010
-190.187	-25.403	0.374	-0.218
-189.173	-200.000	0.034	0.180
-188.158	-36.146	-0.255	0.135
-187.144	594.303	0.046	-0.111
-186.129	800.000	-0.092	-0.385
-185.114	-200.000	-0.083	0.450
-184.100	-46.696	-0.029	0.014
-183.085	105.917	-0.075	-0.088
-182.071	28.669	0.111	-0.093
-181.056	-26.237	-0.167	0.096
-180.042	-100.234	0.382	-0.093
-179.027	13.572	0.205	-0.157
-178.012	-79.320	-0.053	-0.018
-176.998	800.000	0.116	-0.341
-175.983	97.574	0.181	-0.205
-174.969	800.000	-0.025	0.100
-173.954	-36.034	0.055	-0.029
-172.939	-200.000	-0.011	-0.077
-171.925	57.129	0.344	0.330
-170.910	-66.776	-0.153	0.060
-169.896	800.000	0.066	0.252
-168.881	-134.316	0.300	0.036
-167.866	-62.000	-0.279	-0.115
-166.852	57.788	0.098	-0.094
-165.837	63.439	-0.214	-0.212
-164.823	-200.000	0.011	-0.273
-163.808	-92.737	0.129	-0.035
-162.793	-200.000	0.017	0.147
-161.779	-96.846	-0.051	0.013
-160.764	-58.022	0.216	0.093
-159.750	-135.167	-0.447	-0.053
-158.735	-131.953	0.224	0.029
-157.720	-108.606	-0.158	0.033
-156.706	-87.994	-0.163	-0.048
-155.691	-63.037	-0.040	-0.016
-154.677	-186.908	-0.225	-0.003
-153.662	800.000	-0.079	0.298
-152.647	42.487	-0.205	-0.183
-151.633	-200.000	-0.060	0.260
-150.618	52.648	0.159	-0.149
-149.604	800.000	-0.041	0.158
-148.589	-146.595	0.158	-0.013
-147.574	40.552	-0.139	0.123
-146.560	-65.810	0.463	0.182
-145.545	-200.000	0.002	0.187
-144.531	519.071	0.045	-0.103
-143.516	-26.178	-0.187	0.108
-142.502	-1.930	-0.113	0.078
-141.487	-109.900	-0.158	-0.033
-140.472	800.000	-0.106	0.451
-139.458	800.000	0.057	-0.179
-138.443	800.000	0.134	0.531
-137.429	343.694	-0.166	-0.319
-136.414	800.000	0.094	-0.324
-135.399	-200.000	-0.038	0.223
-134.385	-200.000	-0.017	0.130
-133.370	31.725	0.148	0.125
-132.356	-82.967	-0.045	0.014
-131.341	84.977	-0.194	0.209
-130.326	154.004	-0.128	0.172
-129.312	399.721	-0.013	-0.027
-128.297	251.318	0.180	-0.301
-127.283	-200.000	0.003	-0.250
-126.268	15.527	0.228	0.176
-125.253	-106.768	0.382	-0.083
-124.239	415.011	0.193	-0.404
-123.224	551.233	0.099	0.233
-122.210	-200.000	-0.021	0.229
