DTS Sentinel unit serial number:	SN413079Multiplexer serial number:	ORYXHardware model number:	OX4-SRSoftware version number:	ORYX F/W v4.00 Oryx Data Collector v3.7.2.0data status	okinstallation	princeton_trtdifferential loss correction	single-endedforward channel	channel 2reverse channel	N/Adate	2019/09/11time	23:29:11forward acquisition time	60.00reverse acquisition time	0.00gamma	496.2192k internal	0.2325k external	0.2325temperature offset calibration	1.0079default loss term (dB/km)	0.3790temperature slope calibration	1.0000multiplexer offset coefficient	1.0000multiplexer slope coefficient	1.0000fibre end	0.00T internal ref (°C)	34.25T ext. ref 1 (°C)	1.89T ext. ref 2 (°C)	28.28length (m)	temperature (°C)	Stokes	anti-Stokes-747.200	-80.343	0.177	-0.060
-746.185	800.000	-0.048	0.171
-745.171	-13.271	0.136	-0.089
-744.156	-200.000	0.010	0.108
-743.142	800.000	-0.071	-0.203
-742.127	-105.044	-0.349	0.081
-741.112	50.659	0.135	0.129
-740.098	-200.000	0.071	0.474
-739.083	-200.000	-0.022	0.133
-738.069	-178.522	-0.221	-0.005
-737.054	130.048	-0.254	-0.328
-736.039	800.000	-0.098	-0.276
-735.025	-66.333	-0.413	-0.166
-734.010	-163.568	-0.171	0.008
-732.996	65.626	-0.097	-0.099
-731.981	800.000	-0.004	-0.014
-730.966	130.325	-0.035	0.045
-729.952	30.504	-0.185	0.160
-728.937	-66.951	0.236	-0.094
-727.923	16.938	-0.111	0.089
-726.908	-200.000	0.005	0.102
-725.894	140.233	0.069	-0.092
-724.879	530.031	-0.098	0.233
-723.864	-109.551	-0.250	-0.053
-722.850	-61.394	-0.197	0.084
-721.835	85.106	0.064	0.070
-720.821	-11.416	-0.409	-0.271
-719.806	-200.000	-0.013	-0.230
-718.791	-200.000	0.003	-0.396
-717.777	-140.053	-0.212	-0.023
-716.762	55.400	-0.169	0.165
-715.748	58.553	-0.116	0.115
-714.733	-200.000	-0.039	0.243
-713.718	800.000	0.026	-0.084
-712.704	-150.664	-0.260	-0.020
-711.689	-77.130	0.165	-0.058
-710.675	378.686	0.067	-0.139
-709.660	658.107	0.045	-0.118
-708.645	-156.406	0.329	0.021
-707.631	-72.435	0.266	0.099
-706.616	-109.933	0.083	-0.017
-705.602	35.118	0.064	-0.057
-704.587	120.637	0.107	-0.134
-703.572	104.261	0.072	0.086
-702.558	-200.000	-0.020	0.193
-701.543	-9.327	-0.350	-0.235
-700.529	160.196	-0.047	0.066
-699.514	31.902	0.068	0.059
-698.499	-117.702	-0.116	-0.021
-697.485	22.120	-0.246	-0.203
-696.470	-3.763	0.035	0.025
-695.456	-89.780	0.321	-0.095
-694.441	-140.442	0.182	0.019
-693.426	-200.000	0.031	-0.224
-692.412	-93.613	0.296	0.082
-691.397	-200.000	0.025	0.352
-690.383	434.014	0.063	-0.137
-689.368	-148.705	-0.162	0.013
-688.354	4.533	-0.114	-0.084
-687.339	-78.973	0.207	0.071
-686.324	-200.000	-0.009	0.204
-685.310	-200.000	-0.002	-0.110
-684.295	-200.000	0.047	-0.257
-683.281	110.520	-0.017	0.020
-682.266	-37.952	0.241	-0.129
-681.251	-97.824	-0.240	0.062
-680.237	-118.437	-0.099	0.018
-679.222	800.000	0.057	0.184
-678.208	62.438	0.165	0.166
-677.193	789.212	0.085	0.235
-676.178	-96.337	0.019	-0.005
-675.164	239.292	0.165	-0.277
-674.149	-200.000	0.046	-0.237
-673.135	13.997	-0.071	-0.055
-672.120	-200.000	0.016	0.175
-671.105	1.251	0.104	0.075
-670.091	-75.777	-0.139	-0.050
-669.076	39.159	-0.251	0.226
-668.062	-97.444	0.153	0.040
-667.047	-57.571	-0.257	-0.113
-666.032	-200.000	0.016	0.085
-665.018	-87.230	0.198	-0.060
-664.003	316.646	0.126	-0.239
-662.989	-183.447	0.341	0.006
-661.974	138.678	-0.082	0.108
-660.959	-63.298	0.370	0.153
-659.945	75.232	-0.423	-0.449
-658.930	-115.675	-0.167	-0.032
-657.916	-22.516	0.169	0.103
-656.901	-36.441	-0.097	-0.052
-655.886	-135.518	0.355	-0.042
-654.872	-27.869	0.231	0.135
-653.857	-200.000	-0.014	-0.129
-652.843	645.018	-0.166	-0.427
-651.828	-200.000	-0.017	-0.129
-650.814	28.813	0.163	0.139
-649.799	-115.121	-0.118	0.022
-648.784	-119.468	-0.215	-0.037
-647.770	-200.000	0.053	-0.273
-646.755	-92.906	0.245	0.069
-645.741	-200.000	-0.007	0.414
-644.726	-137.010	-0.288	0.033
-643.711	-51.258	0.292	-0.137
-642.697	105.673	-0.142	0.169
-641.682	-24.188	0.166	0.100
-640.668	-26.676	-0.182	-0.107
-639.653	800.000	0.032	-0.107
-638.638	-200.000	-0.007	-0.045
-637.624	120.020	0.082	0.102
-636.609	290.958	0.076	-0.139
-635.595	-77.035	-0.431	-0.151
-634.580	-200.000	-0.136	-0.001
-633.565	44.215	-0.034	-0.031
-632.551	-87.639	0.137	-0.042
-631.536	-106.357	-0.142	0.032
-630.522	21.240	0.169	-0.138
-629.507	232.842	0.133	-0.220
-628.492	-104.270	0.356	0.083
-627.478	800.000	0.057	0.216
-626.463	-55.158	0.190	0.086
-625.449	-48.436	-0.125	0.060
-624.434	-151.015	0.117	-0.009
-623.419	241.318	0.141	-0.236
-622.405	-122.915	-0.043	0.007
-621.390	-179.258	-0.429	-0.010
-620.376	296.937	0.012	0.021
-619.361	30.111	0.092	-0.079
-618.346	107.543	-0.105	-0.126
-617.332	134.202	0.106	-0.138
-616.317	-16.158	0.243	-0.155
-615.303	-49.243	0.082	-0.039
-614.288	273.095	0.045	-0.080
-613.273	-48.225	0.422	-0.205
-612.259	-200.000	-0.036	-0.172
-611.244	14.818	-0.229	0.180
-610.230	-125.364	-0.158	0.024
-609.215	-157.714	0.058	-0.003
-608.201	240.952	-0.125	-0.210
-607.186	-185.072	0.373	-0.006
-606.171	-73.094	0.103	-0.038
-605.157	569.151	-0.008	-0.019
-604.142	-90.545	-0.150	-0.043
-603.128	-95.453	-0.159	0.043
-602.113	279.021	-0.186	-0.334
-601.098	-200.000	0.031	0.166
-600.084	-83.956	0.183	-0.058
-599.069	355.844	-0.026	0.051
-598.055	-24.809	-0.140	0.083
-597.040	-200.000	0.024	0.237
-596.025	143.601	0.120	0.160
-595.011	92.314	0.144	-0.163
-593.996	163.756	-0.062	-0.088
-592.982	60.677	0.078	-0.077
-591.967	67.189	0.204	0.209
-590.952	63.896	0.088	-0.089
-589.938	-17.075	-0.176	-0.112
-588.923	-200.000	0.024	-0.243
-587.909	-55.434	-0.324	0.146
-586.894	46.408	-0.316	-0.294
-585.879	84.827	0.131	-0.144
-584.865	800.000	-0.026	-0.094
-583.850	800.000	0.127	-0.374
-582.836	35.818	-0.211	-0.186
-581.821	-109.322	0.139	-0.029
-580.806	-70.240	-0.239	0.091
-579.792	63.580	-0.292	0.294
-578.777	470.649	-0.089	0.202
-577.763	-200.000	-0.003	-0.108
-576.748	-155.445	0.186	0.012
-575.733	800.000	-0.031	-0.132
-574.719	-70.782	0.041	0.015
-573.704	-53.281	0.222	0.102
-572.690	800.000	-0.076	-0.237
-571.675	-9.101	0.149	0.100
-570.661	-56.812	0.019	-0.008
-569.646	-140.556	-0.019	0.002
-568.631	265.525	0.092	-0.160
-567.617	800.000	0.031	-0.109
-566.602	6.728	0.205	-0.153
-565.588	-87.999	-0.378	0.114
-564.573	232.252	0.133	0.218
-563.558	-200.000	0.056	0.368
-562.544	-49.743	0.396	-0.189
-561.529	126.562	0.288	0.366
-560.515	-200.000	0.006	0.110
-559.500	-200.000	-0.009	0.295
-558.485	-59.724	0.094	-0.040
-557.471	-82.324	-0.085	-0.028
-556.456	-200.000	0.013	0.165
-555.442	800.000	0.052	-0.207
-554.427	-68.662	-0.115	0.044
-553.412	146.307	-0.132	0.178
-552.398	155.869	0.088	-0.122
-551.383	-93.321	-0.111	0.031
-550.369	52.275	0.212	-0.202
-549.354	36.336	0.167	-0.148
-548.339	-82.224	0.203	0.066
-547.325	-60.157	0.083	0.035
-546.310	612.973	-0.080	-0.200
-545.296	595.398	-0.017	-0.041
-544.281	443.038	-0.216	0.475
-543.266	-200.000	0.024	-0.165
-542.252	-200.000	0.005	-0.093
-541.237	-130.943	0.153	-0.020
-540.223	210.263	0.032	0.051
-539.208	-159.932	-0.393	0.022
-538.193	31.801	-0.266	0.229
-537.179	70.274	-0.215	-0.223
-536.164	73.808	0.075	0.079
-535.150	800.000	0.048	0.164
-534.135	-134.382	0.367	-0.045
-533.121	-17.347	-0.306	0.193
-532.106	-29.721	0.101	-0.057
-531.091	24.183	0.094	0.078
-530.077	136.833	0.116	-0.152
-529.062	-40.775	-0.030	-0.016
-528.048	91.492	0.037	0.041
-527.033	-40.533	0.198	0.103
-526.018	509.844	0.024	0.056
-525.004	-90.573	0.204	0.059
-523.989	-200.000	-0.011	0.161
-522.975	-200.000	0.018	0.349
-521.960	-144.634	-0.184	-0.017
-520.945	62.990	-0.170	0.170
-519.931	50.623	0.128	0.121
-518.916	12.203	-0.152	0.117
-517.902	800.000	-0.031	-0.115
-516.887	-135.122	-0.197	-0.024
-515.872	-132.434	0.246	-0.032
-514.858	117.540	0.053	0.065
-513.843	800.000	-0.053	-0.159
-512.829	-174.224	-0.139	0.004
-511.814	118.129	-0.112	-0.138
-510.799	-53.571	0.118	-0.054
-509.785	800.000	0.091	-0.277
-508.770	499.145	0.098	-0.225
-507.756	-26.078	0.086	-0.051
-506.741	-54.254	-0.104	-0.047
-505.726	-31.165	-0.131	0.074
-504.712	154.830	-0.026	0.035
-503.697	130.027	-0.192	-0.245
-502.683	-200.000	-0.051	-0.351
-501.668	-59.614	0.243	0.104
-500.653	-91.670	0.220	-0.063
-499.639	-120.269	0.098	0.017
-498.624	-190.427	-0.189	-0.002
-497.610	195.962	-0.182	0.277
-496.595	27.255	-0.081	0.068
-495.581	-200.000	-0.081	-0.454
-494.566	779.917	-0.045	-0.123
-493.551	-200.000	-0.018	0.125
-492.537	-174.114	-0.107	0.003
-491.522	-119.558	-0.203	0.035
-490.508	800.000	0.024	0.074
-489.493	125.066	0.202	0.254
-488.478	-76.709	0.153	-0.054
-487.464	141.178	0.185	0.244
-486.449	146.488	-0.118	0.159
-485.435	-200.000	-0.091	-0.448
-484.420	-74.521	-0.138	-0.050
-483.405	493.806	0.071	0.162
-482.391	800.000	0.090	-0.260
-481.376	-156.520	-0.080	-0.005
-480.362	-117.158	-0.035	0.006
-479.347	196.220	0.252	-0.383
-478.332	203.685	-0.045	-0.070
-477.318	93.527	-0.141	-0.159
-476.303	-200.000	-0.029	-0.187
-475.289	-79.971	0.274	-0.092
-474.274	-39.433	0.063	-0.033
-473.259	10.522	-0.249	-0.189
-472.245	-150.577	-0.342	-0.026
-471.230	-200.000	0.020	-0.338
-470.216	301.422	-0.141	-0.260
-469.201	-57.872	-0.079	0.034
-468.186	-38.423	0.134	-0.071
-467.172	162.021	-0.136	0.190
-466.157	467.471	-0.139	0.311
-465.143	-65.125	-0.099	-0.040
-464.128	93.372	-0.070	-0.080
-463.113	37.893	0.159	0.141
-462.099	56.486	0.189	0.184
-461.084	-200.000	-0.039	-0.194
-460.070	16.314	0.061	-0.048
-459.055	80.889	-0.205	0.221
-458.040	218.538	0.234	0.373
-457.026	800.000	-0.104	0.340
-456.011	-49.269	-0.204	-0.097
-454.997	353.800	-0.098	-0.194
-453.982	-200.000	-0.000	0.071
-452.968	84.878	-0.185	-0.202
-451.953	-49.724	-0.332	0.158
-450.938	-109.100	-0.123	-0.026
-449.924	-15.503	-0.087	0.055
-448.909	-127.477	0.181	0.026
-447.895	168.090	0.145	0.206
-446.880	220.497	-0.199	0.318
-445.865	62.997	0.060	0.060
-444.851	193.226	0.013	-0.019
-443.836	800.000	-0.073	-0.203
-442.822	-69.405	-0.142	0.054
-441.807	375.061	-0.103	0.210
-440.792	12.541	0.286	0.220
-439.778	-200.000	-0.016	0.169
-438.763	185.476	0.138	0.205
-437.749	-200.000	-0.002	0.046
-436.734	800.000	0.049	0.175
-435.719	-182.614	0.376	0.007
-434.705	-126.280	0.330	0.049
-433.690	330.391	0.150	0.288
-432.676	-175.959	0.109	0.003
-431.661	-200.000	0.031	0.273
-430.646	800.000	0.047	0.136
-429.632	-165.560	0.126	-0.005
-428.617	-200.000	-0.127	0.665
-427.603	-200.000	0.033	0.213
-426.588	-200.000	-0.017	-0.410
-425.573	-175.403	0.153	0.004
-424.559	-200.000	-0.353	-0.001
-423.544	-115.265	0.013	0.002
-422.530	-200.000	-0.017	-0.112
-421.515	-57.548	0.189	0.083
-420.500	-200.000	-0.036	0.283
-419.486	388.510	-0.172	0.355
-418.471	53.763	-0.096	-0.092
-417.457	-20.959	0.115	0.070
-416.442	-168.998	-0.356	0.013
-415.428	-98.160	-0.165	0.042
-414.413	-200.000	-0.029	-0.218
-413.398	78.642	-0.115	-0.123
-412.384	205.836	0.091	0.141
-411.369	371.584	0.120	-0.243
-410.355	-200.000	-0.031	-0.186
-409.340	-64.317	0.146	-0.059
-408.325	-200.000	0.077	-0.464
-407.311	-200.000	0.056	-0.311
-406.296	800.000	0.093	0.285
-405.282	-200.000	-0.006	-0.266
-404.267	-155.344	-0.471	-0.030
-403.252	190.280	0.055	-0.082
-402.238	-200.000	0.077	0.437
-401.223	161.639	0.083	0.115
-400.209	-200.000	-0.006	-0.331
-399.194	800.000	-0.030	-0.105
-398.179	800.000	0.065	0.199
-397.165	-200.000	-0.017	-0.308
-396.150	203.393	-0.072	0.111
-395.136	800.000	-0.021	-0.075
-394.121	48.594	-0.464	0.433
-393.106	-114.298	-0.101	0.019
-392.092	-111.279	0.245	0.050
-391.077	-200.000	-0.048	0.244
-390.063	-183.687	0.214	-0.004
-389.048	-130.595	-0.057	-0.008
-388.033	-166.164	0.188	-0.008
-387.019	-200.000	0.034	0.224
-386.004	-28.326	-0.256	-0.147
-384.990	182.812	0.193	-0.284
-383.975	-107.396	-0.116	0.025
-382.960	-111.903	-0.278	0.056
-381.946	115.212	-0.135	-0.164
-380.931	-69.264	0.152	0.058
-379.917	187.797	-0.151	0.224
-378.902	371.141	-0.076	-0.154
-377.888	783.277	-0.134	-0.364
-376.873	-104.320	-0.231	0.053
-375.858	-200.000	-0.056	-0.309
-374.844	641.285	0.071	0.181
-373.829	79.684	0.148	0.158
-372.815	125.652	0.027	0.034
-371.800	212.510	0.045	0.070
-370.785	-7.520	-0.299	0.201
-369.771	73.253	0.107	0.111
-368.756	6.909	0.083	-0.062
-367.742	-119.029	-0.338	0.059
-366.727	-34.557	0.113	0.061
-365.712	-200.000	0.012	-0.146
-364.698	-200.000	0.005	0.059
-363.683	800.000	-0.054	0.150
-362.669	103.688	0.106	-0.123
-361.654	-110.978	-0.465	-0.095
-360.639	-80.435	0.067	-0.022
-359.625	-63.027	0.221	0.091
-358.610	-200.000	-0.049	0.254
-357.596	41.306	-0.056	0.050
-356.581	45.921	0.227	-0.208
-355.566	-93.736	-0.106	-0.029
-354.552	800.000	-0.107	-0.306
-353.537	-77.849	-0.337	-0.116
-352.523	-70.861	0.370	-0.138
-351.508	-126.116	0.212	0.032
-350.493	-139.055	-0.116	-0.012
-349.479	800.000	-0.050	0.142
-348.464	226.464	0.092	0.149
-347.450	-97.216	0.231	0.060
-346.435	-22.024	-0.011	-0.007
-345.420	25.186	-0.027	-0.022
-344.406	-18.716	0.237	-0.147
-343.391	374.614	-0.257	-0.519
-342.377	-200.000	0.009	0.253
-341.362	-132.691	0.284	-0.036
-340.348	800.000	-0.060	-0.251
-339.333	73.950	0.272	-0.283
-338.318	-146.143	0.040	-0.004
-337.304	492.662	-0.078	0.178
-336.289	-153.723	-0.191	0.013
-335.275	800.000	0.022	0.072
-334.260	-54.280	-0.352	-0.159
-333.245	269.813	-0.154	0.269
-332.231	15.602	0.056	0.043
-331.216	219.765	-0.151	0.239
-330.202	9.889	0.156	-0.118
-329.187	79.133	0.088	0.094
-328.172	-112.452	-0.092	-0.018
-327.158	-63.067	0.336	0.138
-326.143	-121.415	0.170	-0.028
-325.129	362.903	0.180	0.359
-324.114	-43.052	-0.220	0.111
-323.099	800.000	-0.086	0.333
-322.085	-200.000	-0.022	-0.289
-321.070	800.000	-0.056	-0.165
-320.056	-92.623	0.082	-0.023
-319.041	263.929	0.047	0.081
-318.026	-114.892	-0.132	0.025
-317.012	708.992	-0.036	0.094
-315.997	-96.910	0.150	-0.039
-314.983	-25.430	-0.055	0.032
-313.968	116.707	-0.212	0.258
-312.953	-200.000	-0.015	-0.137
-311.939	602.082	0.113	-0.280
-310.924	80.990	-0.141	-0.150
-309.910	-200.000	-0.064	-0.356
-308.895	-189.290	-0.107	0.001
-307.880	55.585	0.123	0.118
-306.866	-155.510	-0.142	0.009
-305.851	53.453	0.076	-0.072
-304.837	-88.884	0.224	0.066
-303.822	160.281	-0.108	-0.150
-302.807	9.033	0.153	0.115
-301.793	-47.622	-0.278	-0.134
-300.778	197.277	0.041	-0.062
-299.764	109.763	0.091	0.109
-298.749	-111.042	-0.110	-0.022
-297.735	-71.427	0.105	-0.039
-296.720	-165.430	-0.402	-0.017
-295.705	-22.873	-0.229	0.137
-294.691	93.727	0.170	0.192
-293.676	518.146	0.059	-0.137
-292.662	51.037	0.208	0.196
-291.647	187.447	0.070	0.104
-290.632	-175.001	0.185	0.005
-289.618	158.263	0.200	-0.275
-288.603	17.726	-0.160	0.126
-287.589	-122.083	-0.052	0.008
-286.574	800.000	-0.019	-0.064
-285.559	168.934	0.133	0.188
-284.545	-24.656	0.319	-0.188
-283.530	-8.729	-0.203	0.135
-282.516	-21.745	0.096	0.058
-281.501	-200.000	-0.004	0.349
-280.486	-96.832	0.128	-0.033
-279.472	124.332	0.224	-0.279
-278.457	800.000	-0.081	-0.283
-277.443	-8.030	-0.100	0.067
-276.428	-29.837	-0.104	-0.059
-275.413	252.601	-0.165	-0.279
-274.399	800.000	-0.081	0.269
-273.384	525.146	0.064	0.149
-272.370	-17.598	-0.147	-0.091
-271.355	-45.659	0.254	-0.124
-270.340	800.000	-0.066	0.224
-269.326	44.870	-0.127	-0.116
-268.311	60.835	0.169	0.166
-267.297	-25.898	0.204	-0.119
-266.282	-112.852	-0.472	-0.093
-265.267	411.886	0.029	-0.062
-264.253	293.209	0.106	-0.191
-263.238	-8.186	0.193	0.128
-262.224	3.055	-0.180	-0.130
-261.209	-200.000	-0.005	-0.065
-260.195	-97.374	0.186	0.048
-259.180	-200.000	-0.003	-0.024
-258.165	412.529	-0.166	-0.350
-257.151	-13.140	-0.230	-0.148
-256.136	-181.406	0.111	-0.002
-255.122	-101.982	0.422	0.101
-254.107	-200.000	-0.003	0.038
-253.092	256.680	-0.062	0.105
-252.078	-31.527	0.105	-0.058
-251.063	-83.599	0.074	-0.023
-250.049	-44.587	-0.244	0.121
-249.034	28.931	-0.075	0.063
-248.019	144.630	-0.109	-0.144
-247.005	-90.152	0.328	-0.094
-245.990	555.955	0.084	-0.201
-244.976	237.216	0.169	0.277
-243.961	-170.370	0.220	0.008
-242.946	58.896	0.090	0.088
-241.932	800.000	0.010	-0.045
-240.917	63.766	0.045	-0.045
-239.903	198.267	-0.094	0.142
-238.888	-200.000	0.027	0.227
-237.873	244.391	-0.171	-0.285
-236.859	-200.000	-0.011	-0.190
-235.844	-200.000	0.028	0.245
-234.830	89.907	-0.142	0.157
-233.815	-200.000	0.017	0.173
-232.800	-63.222	-0.141	-0.058
-231.786	209.045	0.124	0.192
-230.771	-89.761	-0.249	-0.072
-229.757	-119.603	0.440	-0.075
-228.742	211.978	-0.102	-0.158
-227.727	-200.000	0.037	0.465
-226.713	-200.000	-0.006	-0.337
-225.698	595.282	0.119	-0.290
-224.684	-200.000	-0.002	-0.308
-223.669	-200.000	-0.004	0.047
-222.655	106.966	-0.118	0.139
-221.640	800.000	0.045	0.138
-220.625	-98.126	0.152	-0.039
-219.611	100.077	0.064	-0.073
-218.596	-200.000	0.019	0.087
-217.582	800.000	-0.013	0.041
-216.567	-74.247	0.106	0.038
-215.552	423.999	0.180	0.382
-214.538	-21.492	-0.201	0.121
-213.523	-65.696	0.215	-0.085
-212.509	-122.399	0.086	-0.014
-211.494	-135.914	-0.216	-0.025
-210.479	800.000	-0.077	-0.269
-209.465	-200.000	0.005	0.073
-208.450	-113.083	0.128	-0.025
-207.436	-200.000	0.014	-0.153
-206.421	-43.123	0.107	-0.053
-205.406	229.386	0.131	0.211
-204.392	-200.000	0.013	0.429
-203.377	-23.836	0.032	-0.019
-202.363	-200.000	0.052	-0.260
-201.348	800.000	0.061	0.262
-200.333	-147.448	-0.394	-0.033
-199.319	-200.000	0.028	-0.185
-198.304	-18.383	-0.177	0.109
-197.290	-114.695	-0.107	0.020
-196.275	-167.960	0.544	-0.021
-195.260	213.286	0.074	-0.116
-194.246	-106.511	-0.231	-0.051
-193.231	25.599	0.161	-0.132
-192.217	-147.795	-0.242	-0.020
-191.202	-126.989	-0.216	-0.031
-190.187	326.431	-0.074	0.141
-189.173	800.000	-0.032	0.098
-188.158	94.075	-0.100	0.112
-187.144	292.945	-0.148	-0.267
-186.129	-121.581	-0.285	-0.047
-185.114	282.313	0.077	0.137
-184.100	150.707	0.194	0.261
-183.085	800.000	0.114	0.361
-182.071	244.711	0.132	0.220
-181.056	-100.020	-0.336	0.083
-180.042	244.387	0.155	-0.256
-179.027	685.398	-0.066	0.170
-178.012	-62.192	-0.113	0.047
-176.998	239.326	-0.062	0.102
-175.983	-118.668	-0.299	0.052
-174.969	-56.375	0.359	-0.157
-173.954	-165.727	-0.275	0.012
-172.939	92.762	-0.175	-0.196
-171.925	-200.000	-0.051	0.327
-170.910	-200.000	-0.016	0.120
-169.896	334.804	0.059	0.113
-168.881	676.132	-0.069	-0.177
-167.866	-49.938	0.416	-0.195
-166.852	14.015	0.185	-0.142
-165.837	104.424	-0.159	0.184
-164.823	-120.350	-0.158	-0.026
-163.808	-110.982	0.161	-0.033
-162.793	16.207	0.142	0.111
-161.779	331.499	0.073	0.139
-160.764	-200.000	-0.010	0.069
-159.750	98.906	0.117	-0.133
-158.735	361.336	-0.015	0.031
-157.720	-99.545	0.373	0.092
-156.706	800.000	-0.104	-0.381
-155.691	-138.805	-0.128	0.014
-154.677	800.000	0.074	-0.214
-153.662	-167.621	-0.105	-0.004
-152.647	659.496	-0.125	-0.317
-151.633	-143.812	0.111	-0.010
-150.618	-200.000	-0.053	-0.307
-149.604	34.870	-0.119	0.103
-148.589	-200.000	-0.006	0.036
-147.574	-85.334	-0.075	0.023
-146.560	-76.812	0.398	-0.137
-145.545	147.392	0.151	0.200
-144.531	15.647	0.217	-0.168
-143.516	13.211	-0.251	-0.191
-142.502	-200.000	0.000	0.361
-141.487	800.000	0.067	-0.185
-140.472	615.820	0.061	0.152
-139.458	35.667	-0.174	0.151
-138.443	196.342	-0.177	0.266
-137.429	45.885	-0.120	-0.109
-136.414	-200.000	0.006	-0.050
-135.399	154.130	0.058	0.079
-134.385	-44.823	0.099	0.049
-133.370	762.443	-0.097	0.259
-132.356	-78.962	0.303	-0.102
-131.341	-109.763	0.161	-0.033
-130.326	25.795	0.101	0.083
-129.312	179.365	-0.211	-0.304
-128.297	332.045	0.085	0.162
-127.283	239.832	0.060	-0.099
-126.268	38.428	-0.084	-0.073
-125.253	-200.000	-0.065	0.296
-124.239	-84.781	-0.144	-0.045
-123.224	62.582	-0.096	0.095
-122.210	-171.415	-0.043	0.001
