DTS Sentinel unit serial number:	SN413079Multiplexer serial number:	ORYXHardware model number:	OX4-SRSoftware version number:	ORYX F/W v4.00 Oryx Data Collector v3.7.2.0data status	okinstallation	princeton_trtdifferential loss correction	single-endedforward channel	channel 2reverse channel	N/Adate	2019/09/10time	17:17:11forward acquisition time	60.00reverse acquisition time	0.00gamma	496.2192k internal	0.2310k external	0.2310temperature offset calibration	0.9934default loss term (dB/km)	0.3790temperature slope calibration	1.0000multiplexer offset coefficient	1.0000multiplexer slope coefficient	1.0000fibre end	0.00T internal ref (°C)	37.62T ext. ref 1 (°C)	-0.40T ext. ref 2 (°C)	32.06length (m)	temperature (°C)	Stokes	anti-Stokes-747.200	-42.355	0.024	0.012
-746.185	98.064	0.132	-0.155
-745.171	431.256	-0.077	0.170
-744.156	319.205	0.208	0.400
-743.142	109.102	0.054	-0.066
-742.127	111.132	0.182	0.223
-741.112	25.452	0.126	-0.106
-740.098	467.707	0.134	0.306
-739.083	255.754	-0.111	-0.194
-738.069	-200.000	0.319	0.001
-737.054	-200.000	0.004	-0.257
-736.039	300.635	0.055	-0.104
-735.025	61.565	0.087	0.088
-734.010	-39.786	-0.106	0.056
-732.996	-200.000	0.015	-0.168
-731.981	-45.131	0.251	0.127
-730.966	800.000	-0.016	-0.062
-729.952	-200.000	-0.019	-0.093
-728.937	-200.000	0.008	-0.257
-727.923	-8.829	0.084	-0.057
-726.908	-59.578	0.067	-0.029
-725.894	232.237	0.112	-0.187
-724.879	800.000	0.060	-0.218
-723.864	-200.000	0.002	0.053
-722.850	139.309	0.177	0.237
-721.835	-200.000	0.036	-0.304
-720.821	-100.594	-0.175	0.044
-719.806	-33.086	-0.131	-0.074
-718.791	-200.000	0.031	-0.497
-717.777	-162.553	0.325	0.016
-716.762	16.167	0.268	-0.214
-715.748	-102.569	0.355	0.086
-714.733	-19.952	0.148	0.093
-713.718	-113.065	0.196	-0.039
-712.704	296.167	-0.199	-0.369
-711.689	800.000	-0.123	-0.367
-710.675	-200.000	0.071	-0.339
-709.660	136.220	0.258	-0.341
-708.645	-155.430	-0.262	0.017
-707.631	-163.740	-0.447	0.021
-706.616	74.754	0.242	0.258
-705.602	-9.196	0.242	-0.164
-704.587	163.302	0.177	-0.252
-703.572	-198.299	-0.498	0.003
-702.558	800.000	-0.069	0.263
-701.543	800.000	0.063	-0.267
-700.529	-200.000	0.036	0.175
-699.514	-132.872	0.262	-0.034
-698.499	66.244	-0.118	0.122
-697.485	25.987	0.260	0.220
-696.470	430.916	-0.123	-0.271
-695.456	800.000	-0.029	-0.091
-694.441	615.372	-0.054	0.136
-693.426	-26.911	0.127	0.075
-692.412	26.092	-0.076	0.065
-691.397	253.663	0.059	-0.103
-690.383	375.740	0.047	0.097
-689.368	50.920	-0.237	0.228
-688.354	-200.000	-0.031	-0.138
-687.339	169.468	-0.247	-0.357
-686.324	6.183	-0.142	-0.106
-685.310	-173.214	-0.161	0.005
-684.295	800.000	-0.043	-0.171
-683.281	-48.847	0.269	0.131
-682.266	-149.494	-0.124	-0.010
-681.251	213.505	0.078	0.125
-680.237	-200.000	0.049	-0.254
-679.222	116.333	-0.032	-0.039
-678.208	-133.204	0.159	-0.020
-677.193	283.462	-0.068	0.123
-676.178	-200.000	0.037	-0.413
-675.164	312.055	-0.152	-0.289
-674.149	-162.417	-0.346	-0.017
-673.135	-10.236	0.156	0.105
-672.120	-200.000	0.003	-0.083
-671.105	-19.496	0.166	-0.104
-670.091	-36.937	-0.043	-0.023
-669.076	800.000	0.019	0.078
-668.062	88.837	-0.015	0.017
-667.047	-55.194	-0.142	-0.065
-666.032	129.536	-0.097	-0.126
-665.018	-5.966	-0.285	-0.198
-664.003	-56.784	0.318	0.143
-662.989	-98.023	-0.289	-0.076
-661.974	35.086	0.182	-0.161
-660.959	372.145	-0.177	0.364
-659.945	-200.000	0.038	0.190
-658.930	-200.000	0.044	-0.414
-657.916	-116.899	0.353	0.065
-656.901	-109.384	0.351	0.075
-655.886	-200.000	0.001	-0.012
-654.872	-200.000	0.022	-0.329
-653.857	-198.315	-0.029	-0.000
-652.843	-131.445	0.183	0.024
-651.828	-34.132	-0.267	0.149
-650.814	31.039	-0.155	-0.135
-649.799	-46.667	0.161	0.080
-648.784	-7.860	-0.082	-0.056
-647.770	72.956	0.219	-0.231
-646.755	-57.713	0.195	0.086
-645.741	-124.904	0.208	-0.033
-644.726	-200.000	-0.040	0.192
-643.711	94.630	0.087	-0.100
-642.697	698.506	0.041	0.109
-641.682	0.811	-0.190	-0.137
-640.668	10.534	0.038	-0.029
-639.653	-105.073	0.453	0.105
-638.638	-200.000	0.013	0.200
-637.624	42.749	0.069	-0.064
-636.609	-19.346	-0.115	0.072
-635.595	304.734	-0.071	0.133
-634.580	-86.798	-0.255	-0.079
-633.565	-200.000	-0.015	0.116
-632.551	-200.000	-0.021	0.126
-631.536	-200.000	0.007	-0.284
-630.522	-109.554	-0.356	0.076
-629.507	165.186	0.025	0.035
-628.492	191.418	-0.053	-0.080
-627.478	94.440	-0.111	0.128
-626.463	-172.061	-0.275	0.009
-625.449	29.400	0.179	0.154
-624.434	-200.000	0.018	-0.094
-623.419	800.000	-0.151	-0.448
-622.405	125.659	-0.088	-0.113
-621.390	7.354	-0.276	-0.208
-620.376	-145.704	-0.077	0.007
-619.361	-124.106	-0.209	0.033
-618.346	419.872	0.097	-0.211
-617.332	129.241	0.088	0.114
-616.317	289.864	0.096	0.177
-615.303	16.579	0.116	-0.093
-614.288	800.000	0.110	-0.316
-613.273	-200.000	-0.041	-0.224
-612.259	800.000	0.058	-0.177
-611.244	-134.002	-0.347	-0.043
-610.230	-124.408	0.199	0.031
-609.215	-128.691	0.203	0.029
-608.201	446.289	0.069	-0.153
-607.186	-200.000	0.035	0.158
-606.171	-200.000	-0.004	0.220
-605.157	-62.565	0.251	0.105
-604.142	67.379	0.029	-0.030
-603.128	-132.243	-0.146	0.019
-602.113	221.572	0.088	0.142
-601.098	-151.469	-0.352	0.026
-600.084	-200.000	-0.025	-0.116
-599.069	0.713	-0.237	0.171
-598.055	800.000	0.023	0.103
-597.040	-5.554	0.143	-0.099
-596.025	24.569	-0.074	0.062
-595.011	-72.516	0.072	-0.027
-593.996	63.442	-0.169	0.171
-592.982	138.733	0.055	0.072
-591.967	-193.008	0.258	0.002
-590.952	800.000	-0.094	0.334
-589.938	138.164	0.305	0.403
-588.923	411.203	0.118	0.253
-587.909	10.471	0.088	0.068
-586.894	-96.438	0.268	-0.072
-585.879	800.000	-0.086	-0.317
-584.865	386.684	-0.163	0.340
-583.850	74.901	-0.200	0.212
-582.836	800.000	0.080	0.309
-581.821	48.369	-0.251	0.237
-580.806	-200.000	-0.005	-0.242
-579.792	-200.000	-0.014	0.180
-578.777	260.342	0.023	0.039
-577.763	-95.394	-0.387	-0.105
-576.748	800.000	0.040	0.160
-575.733	-42.955	-0.144	0.074
-574.719	139.345	-0.154	-0.205
-573.704	277.033	-0.188	-0.337
-572.690	-149.186	-0.332	0.027
-571.675	800.000	0.067	-0.232
-570.661	145.757	0.116	0.157
-569.646	-96.162	-0.167	0.045
-568.631	142.066	0.067	0.090
-567.617	800.000	-0.036	-0.126
-566.602	800.000	0.033	-0.108
-565.588	408.639	0.061	0.130
-564.573	337.220	-0.199	-0.390
-563.558	127.946	0.031	0.039
-562.544	757.496	0.051	0.139
-561.529	-12.049	-0.245	-0.162
-560.515	-171.194	0.126	0.004
-559.500	32.508	0.275	-0.239
-558.485	-69.104	0.362	0.141
-557.471	644.869	-0.122	-0.315
-556.456	339.142	-0.111	0.219
-555.442	800.000	-0.083	0.320
-554.427	-24.221	-0.114	-0.068
-553.412	122.451	-0.104	0.131
-552.398	565.816	0.185	-0.453
-551.383	498.719	0.094	-0.219
-550.369	0.803	-0.382	0.276
-549.354	-135.899	-0.027	0.003
-548.339	-200.000	-0.054	0.243
-547.325	800.000	0.003	-0.011
-546.310	0.075	0.342	-0.246
-545.296	25.768	-0.375	-0.315
-544.281	197.315	-0.153	-0.236
-543.266	-192.285	-0.299	-0.003
-542.252	-0.251	-0.196	0.140
-541.237	-133.485	-0.227	0.029
-540.223	701.353	-0.129	-0.342
-539.208	75.788	-0.050	0.053
-538.193	86.668	0.071	-0.079
-537.179	-200.000	0.070	0.320
-536.164	-91.958	0.061	-0.018
-535.150	-37.685	-0.175	0.094
-534.135	718.106	-0.069	-0.185
-533.121	-200.000	0.008	0.219
-532.106	800.000	-0.010	-0.038
-531.091	-89.420	-0.054	0.016
-530.077	-61.594	0.164	-0.069
-529.062	89.658	-0.135	0.152
-528.048	-200.000	0.000	0.086
-527.033	50.470	-0.300	0.285
-526.018	683.660	-0.083	0.217
-525.004	800.000	-0.090	0.286
-523.989	-35.536	0.253	-0.138
-522.975	-20.425	0.142	0.088
-521.960	-44.256	-0.238	0.120
-520.945	168.175	-0.191	0.274
-519.931	-108.316	0.173	0.038
-518.916	-78.156	0.193	-0.067
-517.902	-200.000	0.036	0.328
-516.887	487.512	-0.066	0.151
-515.872	158.635	0.113	-0.159
-514.858	-114.671	-0.143	-0.027
-513.843	-62.669	0.373	-0.156
-512.829	-200.000	-0.005	-0.133
-511.814	64.368	0.171	0.173
-510.799	565.149	-0.055	0.135
-509.785	199.657	0.143	-0.220
-508.770	-200.000	-0.029	0.272
-507.756	-200.000	-0.026	-0.363
-506.741	547.518	0.017	-0.042
-505.726	800.000	-0.030	-0.088
-504.712	0.836	-0.145	-0.105
-503.697	296.887	-0.071	0.131
-502.683	67.726	0.055	0.057
-501.668	800.000	0.053	0.208
-500.653	-200.000	0.058	0.282
-499.639	-200.000	-0.005	0.051
-498.624	-140.257	-0.195	0.021
-497.610	-102.930	0.128	-0.031
-496.595	-118.275	-0.088	-0.016
-495.581	-200.000	0.007	-0.383
-494.566	-200.000	0.027	-0.248
-493.551	32.726	0.214	0.186
-492.537	327.014	0.063	0.122
-491.522	800.000	0.087	-0.278
-490.508	86.935	0.022	-0.024
-489.493	348.453	-0.047	-0.093
-488.478	-28.342	-0.111	-0.065
-487.464	-89.045	0.217	-0.065
-486.449	-94.500	-0.163	-0.045
-485.435	-101.724	-0.265	0.064
-484.420	800.000	0.101	0.359
-483.405	-124.600	-0.141	-0.022
-482.391	407.070	-0.112	0.239
-481.376	14.099	-0.085	-0.067
-480.362	-119.839	-0.222	-0.038
-479.347	800.000	0.072	0.292
-478.332	-103.905	-0.095	0.022
-477.318	-72.357	-0.105	-0.039
-476.303	-198.172	-0.309	-0.002
-475.289	-66.443	0.143	0.057
-474.274	238.111	-0.070	-0.117
-473.259	38.430	0.056	-0.051
-472.245	-200.000	0.095	0.000
-471.230	-198.473	0.185	-0.001
-470.216	536.429	-0.114	-0.273
-469.201	-120.536	-0.276	-0.047
-468.186	-8.141	-0.039	-0.027
-467.172	-200.000	0.053	0.289
-466.157	-160.472	0.469	-0.025
-465.143	-44.916	-0.389	-0.195
-464.128	-132.268	-0.181	0.024
-463.113	194.210	-0.081	-0.124
-462.099	-200.000	-0.005	0.078
-461.084	-50.677	0.215	0.102
-460.070	178.008	0.161	-0.235
-459.055	98.983	0.075	-0.087
-458.040	-12.963	0.286	-0.187
-457.026	-165.930	-0.351	0.015
-456.011	800.000	-0.012	0.045
-454.997	212.959	-0.049	-0.078
-453.982	205.517	0.153	0.238
-452.968	422.651	0.115	0.248
-451.953	-172.350	-0.154	-0.005
-450.938	580.195	-0.057	-0.139
-449.924	800.000	-0.057	0.163
-448.909	-86.557	-0.287	0.089
-447.895	800.000	0.057	-0.205
-446.880	22.139	0.426	-0.349
-445.865	-143.909	-0.194	0.018
-444.851	-73.767	-0.314	0.115
-443.836	17.387	0.123	-0.098
-442.822	139.243	-0.048	-0.063
-441.807	-146.992	-0.168	0.014
-440.792	285.196	-0.063	-0.114
-439.778	800.000	0.120	-0.368
-438.763	90.388	0.057	0.064
-437.749	1.721	-0.308	-0.223
-436.734	-200.000	-0.022	-0.186
-435.719	-13.108	0.136	-0.089
-434.705	8.365	0.115	0.087
-433.690	33.244	-0.150	-0.130
-432.676	13.312	0.207	0.161
-431.661	-161.464	0.339	-0.018
-430.646	91.253	0.070	-0.078
-429.632	22.882	-0.049	-0.040
-428.617	800.000	0.020	-0.068
-427.603	-40.619	0.369	-0.192
-426.588	43.894	0.118	-0.109
-425.573	-130.105	0.258	-0.035
-424.559	42.556	0.048	0.043
-423.544	-200.000	-0.030	-0.210
-422.530	645.062	0.148	-0.379
-421.515	27.416	-0.054	-0.045
-420.500	800.000	0.056	0.185
-419.486	-144.803	0.083	0.008
-418.471	636.353	0.061	-0.154
-417.457	-200.000	0.007	-0.047
-416.442	203.744	-0.140	-0.217
-415.428	-200.000	0.022	-0.497
-414.413	-72.365	-0.099	0.037
-413.398	-24.336	-0.253	-0.151
-412.384	31.123	-0.178	-0.153
-411.369	124.353	0.090	-0.113
-410.355	31.666	-0.125	-0.108
-409.340	188.018	-0.065	-0.097
-408.325	200.521	-0.197	-0.304
-407.311	-53.597	-0.186	0.085
-406.296	66.026	0.236	0.240
-405.282	800.000	0.001	-0.002
-404.267	-59.983	-0.098	0.042
-403.252	31.764	-0.110	0.095
-402.238	-149.955	0.504	0.039
-401.223	86.597	0.226	0.249
-400.209	81.789	-0.045	0.049
-399.194	-200.000	-0.014	-0.235
-398.179	-193.659	0.223	0.002
-397.165	-72.247	-0.164	0.061
-396.150	52.489	0.170	-0.163
-395.136	71.585	-0.188	0.196
-394.121	-200.000	0.009	0.238
-393.106	200.189	-0.059	0.091
-392.092	-102.163	-0.185	0.045
-391.077	163.536	-0.122	-0.172
-390.063	-200.000	-0.007	0.189
-389.048	-200.000	0.038	-0.373
-388.033	-60.767	-0.103	-0.044
-387.019	23.571	0.135	-0.111
-386.004	-200.000	-0.008	-0.190
-384.990	-116.742	-0.081	0.015
-383.975	-200.000	0.024	0.393
-382.960	-69.329	-0.187	-0.072
-381.946	45.619	0.147	0.136
-380.931	306.592	-0.085	0.159
-379.917	-200.000	0.029	0.142
-378.902	-96.333	0.176	-0.047
-377.888	-200.000	-0.020	0.198
-376.873	800.000	0.110	0.423
-375.858	-155.915	-0.195	0.012
-374.844	-42.521	0.293	-0.150
-373.829	91.773	0.245	0.275
-372.815	-152.820	0.153	-0.011
-371.800	-102.090	0.173	0.042
-370.785	-200.000	-0.014	-0.114
-369.771	-91.401	-0.043	-0.012
-368.756	-200.000	-0.001	0.272
-367.742	44.647	-0.063	-0.058
-366.727	-73.939	0.179	-0.065
-365.712	-186.652	0.104	0.001
-364.698	-76.090	0.127	0.045
-363.683	-176.394	0.336	0.009
-362.669	-141.144	-0.226	0.023
-361.654	-130.335	-0.154	0.021
-360.639	-94.686	-0.039	0.011
-359.625	17.060	-0.264	0.209
-358.610	309.261	0.034	0.063
-357.596	-43.548	0.096	-0.048
-356.581	-52.469	0.121	-0.056
-355.566	-200.000	-0.031	-0.165
-354.552	172.086	0.288	-0.414
-353.537	-19.883	-0.266	-0.164
-352.523	-9.755	0.127	0.085
-351.508	-200.000	0.000	0.127
-350.493	-4.438	-0.038	-0.026
-349.479	517.760	0.033	-0.077
-348.464	800.000	-0.129	-0.475
-347.450	-23.836	-0.177	-0.106
-346.435	800.000	0.107	-0.316
-345.420	-132.236	-0.307	0.040
-344.406	-200.000	0.003	0.102
-343.391	47.787	0.095	-0.089
-342.377	-200.000	0.078	0.367
-341.362	17.287	0.065	0.051
-340.348	-200.000	-0.032	-0.239
-339.333	-38.060	-0.298	0.158
-338.318	-6.231	0.071	0.048
-337.304	-200.000	-0.010	0.224
-336.289	783.953	0.073	-0.200
-335.275	-200.000	0.001	0.073
-334.260	279.849	-0.060	-0.107
-333.245	601.364	-0.096	-0.239
-332.231	-72.012	0.179	-0.067
-331.216	800.000	0.028	-0.091
-330.202	38.566	0.047	0.042
-329.187	43.267	-0.082	0.075
-328.172	-114.843	-0.281	0.054
-327.158	-138.715	-0.122	-0.013
-326.143	12.811	-0.178	0.137
-325.129	49.792	0.245	0.231
-324.114	-133.034	-0.312	0.040
-323.099	-200.000	-0.016	0.153
-322.085	184.226	0.101	0.150
-321.070	800.000	0.101	-0.309
-320.056	800.000	0.046	0.175
-319.041	-65.794	-0.237	0.095
-318.026	50.673	0.345	0.326
-317.012	53.378	-0.256	-0.245
-315.997	-200.000	0.002	-0.196
-314.983	98.953	-0.115	-0.133
-313.968	-137.103	-0.121	-0.014
-312.953	80.399	-0.167	0.179
-311.939	79.252	-0.299	0.320
-310.924	89.563	-0.122	-0.136
-309.910	569.265	0.082	-0.198
-308.895	-200.000	-0.039	0.173
-307.880	68.655	-0.129	-0.133
-306.866	227.058	0.065	-0.105
-305.851	64.261	-0.025	0.025
-304.837	-200.000	-0.034	0.238
-303.822	800.000	0.059	-0.197
-302.807	-13.410	0.070	0.045
-301.793	31.216	-0.194	-0.166
-300.778	-60.967	0.366	-0.155
-299.764	800.000	-0.072	-0.240
-298.749	-33.427	0.123	-0.068
-297.735	-200.000	-0.075	-0.509
-296.720	-49.946	-0.096	0.046
-295.705	-156.084	0.354	0.022
-294.691	-32.666	0.080	0.044
-293.676	800.000	-0.055	-0.163
-292.662	-171.780	0.135	0.004
-291.647	87.060	0.147	0.162
-290.632	160.742	0.203	0.283
-289.618	-148.025	0.212	-0.018
-288.603	338.544	-0.213	-0.413
-287.589	117.904	0.065	-0.080
-286.574	800.000	0.012	-0.049
-285.559	83.994	-0.265	0.289
-284.545	-200.000	0.025	0.321
-283.530	50.685	0.105	0.099
-282.516	-105.215	-0.292	-0.066
-281.501	714.017	0.061	-0.160
-280.486	65.109	0.260	0.262
-279.472	-135.584	0.160	0.019
-278.457	37.485	0.073	0.065
-277.443	383.258	-0.100	0.205
-276.428	109.972	-0.025	0.029
-275.413	477.869	0.082	-0.185
-274.399	-86.065	-0.146	-0.045
-273.384	52.902	-0.023	0.022
-272.370	119.525	-0.099	0.122
-271.355	-200.000	0.066	0.399
-270.340	201.505	-0.213	0.327
-269.326	88.190	-0.144	-0.159
-268.311	-13.317	0.205	0.132
-267.297	-200.000	-0.020	-0.219
-266.282	34.455	0.129	0.113
-265.267	415.385	0.119	0.253
-264.253	-200.000	0.002	0.048
-263.238	15.098	-0.004	0.003
-262.224	110.113	0.082	-0.099
-261.209	24.302	-0.170	-0.140
-260.195	30.995	0.147	-0.126
-259.180	36.316	-0.279	-0.246
-258.165	47.414	-0.228	0.211
-257.151	-99.833	0.232	0.058
-256.136	-90.183	-0.174	0.050
-255.122	-200.000	0.001	0.256
-254.107	238.516	-0.054	0.090
-253.092	101.795	0.090	-0.104
-252.078	800.000	0.095	-0.317
-251.063	605.341	0.140	0.347
-250.049	121.797	-0.192	0.239
-249.034	-178.047	-0.246	-0.006
-248.019	104.661	0.136	0.159
-247.005	565.506	0.171	-0.413
-245.990	278.989	-0.138	0.245
-244.976	-200.000	-0.026	-0.239
-243.961	-13.946	-0.213	0.137
-242.946	800.000	-0.078	0.246
-241.932	80.558	0.250	-0.268
-240.917	-200.000	0.002	0.035
-239.903	-149.291	-0.037	0.003
-238.888	-166.974	0.418	0.017
-237.873	393.004	-0.100	0.208
-236.859	224.834	0.172	0.277
-235.844	-46.561	-0.295	0.144
-234.830	-84.182	0.380	0.120
-233.815	-60.255	-0.227	0.096
-232.800	800.000	-0.037	-0.140
-231.786	800.000	0.010	0.034
-230.771	-80.067	0.416	-0.139
-229.757	-200.000	0.036	-0.184
-228.742	800.000	0.087	0.307
-227.727	-200.000	-0.006	-0.035
-226.713	-40.809	0.185	0.095
-225.698	-148.683	-0.071	0.006
-224.684	-32.463	-0.122	0.068
-223.669	652.915	-0.062	0.159
-222.655	-165.149	0.612	0.027
-221.640	-126.362	-0.061	0.009
-220.625	335.132	-0.049	-0.094
-219.611	84.749	0.018	0.020
-218.596	8.235	-0.112	-0.084
-217.582	-55.341	0.304	-0.136
-216.567	-91.695	0.215	0.061
-215.552	-150.738	-0.182	0.014
-214.538	-128.826	-0.133	0.019
-213.523	-187.036	-0.107	0.001
-212.509	-141.211	0.181	0.018
-211.494	800.000	0.068	-0.212
-210.479	89.437	0.310	0.344
-209.465	800.000	-0.079	0.249
-208.450	-80.797	0.249	0.082
-207.436	237.117	0.173	-0.284
-206.421	16.362	0.324	-0.254
-205.406	-86.732	0.152	-0.046
-204.392	-85.973	-0.157	0.048
-203.377	357.075	-0.063	-0.124
-202.363	90.582	0.114	-0.127
-201.348	800.000	0.053	-0.165
-200.333	129.247	-0.117	0.149
-199.319	-200.000	0.002	-0.033
-198.304	-41.534	0.159	-0.081
-197.290	-200.000	-0.010	-0.078
-196.275	63.012	0.064	-0.063
-195.260	6.709	-0.217	-0.160
-194.246	800.000	-0.122	0.437
-193.231	-124.917	0.130	0.020
-192.217	32.897	-0.150	-0.129
-191.202	-54.341	-0.160	-0.072
-190.187	-27.429	-0.371	0.214
-189.173	111.677	-0.025	-0.030
-188.158	78.716	0.175	0.187
-187.144	370.315	0.013	0.026
-186.129	6.620	0.476	0.352
-185.114	-163.530	0.328	-0.015
-184.100	537.225	0.028	-0.067
-183.085	-10.027	-0.255	0.169
-182.071	-31.387	0.086	-0.048
-181.056	286.621	0.135	0.243
-180.042	277.837	0.038	0.068
-179.027	-64.558	0.123	-0.050
-178.012	-200.000	-0.028	0.257
-176.998	-41.983	0.197	-0.100
-175.983	800.000	-0.099	-0.394
-174.969	-141.379	0.365	0.037
-173.954	-89.545	-0.131	-0.038
-172.939	96.873	-0.100	-0.113
-171.925	-87.488	-0.305	-0.092
-170.910	317.373	0.098	0.185
-169.896	-4.538	0.098	-0.067
-168.881	-132.208	0.400	-0.051
-167.866	-71.792	-0.158	-0.059
-166.852	170.258	0.071	0.101
-165.837	33.269	-0.180	-0.155
-164.823	490.611	-0.095	-0.216
-163.808	-102.468	0.193	0.046
-162.793	-34.090	0.109	-0.059
-161.779	118.641	0.210	0.258
-160.764	-95.344	-0.306	0.082
-159.750	-11.653	0.074	-0.048
-158.735	-23.359	0.115	-0.069
-157.720	-200.000	0.002	-0.058
-156.706	800.000	-0.090	-0.385
-155.691	265.493	0.094	0.162
-154.677	-133.165	-0.344	-0.043
-153.662	-113.275	0.319	-0.062
-152.647	-72.389	-0.290	-0.107
-151.633	-104.479	-0.332	-0.076
-150.618	800.000	-0.062	0.248
-149.604	-200.000	-0.053	-0.247
-148.589	-5.651	-0.095	0.065
-147.574	107.325	-0.135	-0.159
-146.560	-86.920	0.173	0.052
-145.545	-37.223	0.300	0.159
-144.531	-86.369	0.302	0.092
-143.516	800.000	0.126	-0.384
-142.502	-62.153	0.171	0.071
-141.487	-109.425	0.196	-0.041
-140.472	-108.225	0.030	0.006
-139.458	-84.816	0.276	0.086
-138.443	800.000	0.083	-0.302
-137.429	11.528	0.385	-0.293
-136.414	501.970	0.025	-0.058
-135.399	800.000	0.152	0.454
-134.385	-5.671	0.383	0.260
-133.370	-48.884	0.081	-0.038
-132.356	-200.000	0.021	-0.112
-131.341	148.719	0.074	0.100
-130.326	49.394	0.017	-0.016
-129.312	177.122	-0.177	0.255
-128.297	530.631	0.101	0.237
-127.283	37.165	0.222	-0.195
-126.268	-121.508	-0.128	0.021
-125.253	62.505	-0.134	-0.133
-124.239	-89.338	-0.192	0.056
-123.224	-71.011	0.232	-0.087
-122.210	85.361	-0.124	0.135
-121.195	273.843	0.075	-0.131
-120.180	364.810	0.147	-0.294
