DTS Sentinel unit serial number:	SN413079Multiplexer serial number:	ORYXHardware model number:	OX4-SRSoftware version number:	ORYX F/W v4.00 Oryx Data Collector v3.7.2.0data status	okinstallation	princeton_trtdifferential loss correction	single-endedforward channel	channel 2reverse channel	N/Adate	2019/09/11time	02:37:11forward acquisition time	60.00reverse acquisition time	0.00gamma	496.2192k internal	0.2331k external	0.2331temperature offset calibration	0.9942default loss term (dB/km)	0.3790temperature slope calibration	1.0000multiplexer offset coefficient	1.0000multiplexer slope coefficient	1.0000fibre end	0.00T internal ref (°C)	29.25T ext. ref 1 (°C)	-0.28T ext. ref 2 (°C)	23.24length (m)	temperature (°C)	Stokes	anti-Stokes-747.200	85.999	0.119	0.132
-746.185	22.800	0.187	0.154
-745.171	484.867	0.208	0.476
-744.156	64.507	0.138	0.140
-743.142	708.992	0.113	0.302
-742.127	800.000	0.029	0.087
-741.112	-31.151	0.259	0.147
-740.098	800.000	-0.032	0.105
-739.083	39.333	0.094	0.084
-738.069	800.000	0.043	0.186
-737.054	226.209	-0.187	0.305
-736.039	-152.899	-0.471	0.033
-735.025	0.952	0.099	-0.071
-734.010	102.058	0.078	-0.092
-732.996	207.498	-0.039	0.062
-731.981	25.633	0.053	-0.044
-730.966	800.000	-0.070	-0.240
-729.952	-25.165	0.169	-0.101
-728.937	800.000	-0.050	-0.148
-727.923	-173.185	-0.162	0.005
-726.908	638.324	0.109	-0.278
-725.894	-200.000	-0.004	0.052
-724.879	800.000	0.028	0.090
-723.864	23.539	-0.306	0.253
-722.850	47.030	-0.384	0.359
-721.835	42.349	0.176	-0.161
-720.821	-200.000	-0.001	-0.217
-719.806	24.464	-0.131	-0.109
-718.791	62.958	-0.058	0.058
-717.777	465.019	0.084	0.190
-716.762	-43.984	0.094	0.048
-715.748	-130.618	0.172	0.023
-714.733	-81.071	-0.315	0.105
-713.718	-104.262	0.163	0.038
-712.704	-24.223	0.134	0.080
-711.689	183.527	-0.036	-0.054
-710.675	800.000	0.103	-0.355
-709.660	-3.251	0.234	0.164
-708.645	-119.323	-0.178	0.031
-707.631	-159.499	0.363	0.020
-706.616	62.164	0.155	-0.155
-705.602	-40.450	0.081	0.042
-704.587	165.873	0.043	-0.061
-703.572	800.000	0.123	-0.450
-702.558	-147.423	-0.304	0.026
-701.543	-200.000	-0.317	0.000
-700.529	-200.000	-0.012	-0.107
-699.514	-114.143	0.211	0.041
-698.499	-16.680	-0.332	-0.211
-697.485	-6.343	0.021	-0.015
-696.470	-42.816	-0.127	0.065
-695.456	800.000	-0.049	-0.162
-694.441	-200.000	0.051	-0.282
-693.426	4.165	-0.259	-0.190
-692.412	800.000	0.096	-0.323
-691.397	-31.052	-0.259	0.147
-690.383	-47.038	-0.202	-0.099
-689.368	-200.000	0.005	-0.185
-688.354	-200.000	-0.016	0.099
-687.339	112.748	0.062	-0.076
-686.324	800.000	-0.094	-0.281
-685.310	-200.000	0.018	-0.137
-684.295	491.993	-0.101	-0.233
-683.281	383.109	-0.115	0.238
-682.266	-123.820	-0.343	0.054
-681.251	41.817	-0.066	-0.060
-680.237	-67.057	-0.254	0.100
-679.222	800.000	0.112	-0.399
-678.208	-34.053	0.041	0.023
-677.193	11.851	-0.242	-0.187
-676.178	77.726	0.050	-0.054
-675.164	-79.575	-0.159	0.054
-674.149	70.342	-0.443	0.459
-673.135	336.128	-0.134	0.260
-672.120	-44.702	-0.177	-0.089
-671.105	-65.376	-0.119	0.048
-670.091	45.565	-0.357	-0.331
-669.076	400.273	-0.076	0.161
-668.062	-70.299	0.159	0.061
-667.047	800.000	0.069	0.195
-666.032	-78.247	0.084	0.029
-665.018	-58.991	0.108	-0.047
-664.003	-56.949	-0.246	-0.109
-662.989	-200.000	-0.014	0.197
-661.974	309.522	0.134	0.252
-660.959	360.544	-0.143	-0.286
-659.945	-26.774	0.215	-0.126
-658.930	800.000	-0.093	-0.365
-657.916	127.536	0.197	-0.251
-656.901	354.657	0.014	-0.028
-655.886	-30.516	-0.244	-0.139
-654.872	-8.960	0.080	-0.053
-653.857	69.038	0.100	-0.103
-652.843	-57.874	-0.202	-0.088
-651.828	42.536	0.458	-0.417
-650.814	-200.000	0.015	-0.084
-649.799	249.873	0.125	-0.213
-648.784	-200.000	-0.261	0.001
-647.770	6.254	-0.180	-0.134
-646.755	-97.374	-0.065	0.017
-645.741	3.323	0.124	0.091
-644.726	535.456	0.146	0.346
-643.711	-200.000	0.022	0.169
-642.697	-175.523	0.265	0.007
-641.682	167.703	-0.098	-0.140
-640.668	-200.000	-0.029	-0.190
-639.653	334.845	-0.115	0.224
-638.638	189.118	-0.126	0.189
-637.624	-200.000	-0.010	0.323
-636.609	459.201	0.017	0.039
-635.595	800.000	0.126	0.356
-634.580	26.485	0.263	-0.220
-633.565	-98.374	0.378	0.097
-632.551	-66.424	-0.040	-0.016
-631.536	227.040	-0.156	-0.254
-630.522	-64.621	0.104	0.042
-629.507	465.089	-0.072	-0.161
-628.492	-200.000	-0.013	0.295
-627.478	42.846	0.253	-0.231
-626.463	-19.607	-0.465	-0.289
-625.449	-108.440	-0.215	0.046
-624.434	800.000	-0.068	-0.270
-623.419	297.710	-0.229	-0.422
-622.405	93.234	-0.105	0.119
-621.390	336.496	-0.177	-0.344
-620.376	407.585	0.014	-0.031
-619.361	374.177	-0.087	-0.178
-618.346	50.711	0.032	-0.030
-617.332	127.298	0.170	0.216
-616.317	-17.894	-0.212	0.133
-615.303	-141.113	-0.134	0.014
-614.288	800.000	0.080	-0.246
-613.273	800.000	-0.044	0.143
-612.259	110.394	-0.073	-0.088
-611.244	-140.884	0.263	0.027
-610.230	-125.393	-0.342	-0.052
-609.215	156.602	-0.056	0.077
-608.201	800.000	0.069	-0.229
-607.186	-52.434	0.098	-0.045
-606.171	800.000	-0.029	-0.085
-605.157	213.697	0.151	-0.239
-604.142	660.284	0.105	-0.271
-603.128	230.854	-0.070	0.115
-602.113	-10.468	-0.041	0.027
-601.098	-77.746	-0.247	0.085
-600.084	-160.539	-0.250	-0.013
-599.069	-200.000	-0.019	-0.132
-598.055	800.000	0.033	-0.135
-597.040	-25.074	0.144	-0.086
-596.025	-200.000	0.018	0.113
-595.011	-134.705	0.122	0.015
-593.996	-200.000	-0.016	-0.186
-592.982	800.000	0.080	0.269
-591.967	-174.994	-0.184	0.005
-590.952	-52.248	-0.133	0.062
-589.938	-144.104	-0.155	0.014
-588.923	-200.000	0.083	0.430
-587.909	-200.000	0.015	0.178
-586.894	-79.487	-0.158	-0.053
-585.879	408.500	-0.051	-0.109
-584.865	-200.000	0.013	0.174
-583.850	-52.801	-0.135	-0.062
-582.836	800.000	-0.067	-0.246
-581.821	-0.329	-0.112	0.080
-580.806	614.255	-0.100	0.249
-579.792	800.000	-0.060	0.183
-578.777	139.686	0.176	-0.232
-577.763	-200.000	0.022	-0.124
-576.748	-18.966	0.099	-0.061
-575.733	46.317	-0.109	0.101
-574.719	165.593	-0.115	-0.163
-573.704	-200.000	0.021	-0.245
-572.690	103.396	-0.277	-0.325
-571.675	-11.371	-0.182	0.120
-570.661	-76.833	-0.176	0.062
-569.646	45.612	-0.288	0.266
-568.631	-85.978	-0.179	-0.055
-567.617	599.410	0.086	-0.214
-566.602	271.543	-0.059	0.104
-565.588	-22.946	0.414	-0.250
-564.573	17.364	-0.116	0.092
-563.558	53.183	0.090	-0.086
-562.544	-37.892	-0.135	0.072
-561.529	-99.106	-0.059	-0.015
-560.515	76.513	-0.097	-0.103
-559.500	-200.000	0.003	-0.036
-558.485	-200.000	0.029	0.459
-557.471	-146.095	0.174	-0.015
-556.456	-138.169	-0.369	-0.041
-555.442	169.365	-0.189	0.270
-554.427	-200.000	0.014	-0.222
-553.412	-114.275	0.237	0.046
-552.398	13.513	-0.195	-0.151
-551.383	-119.915	-0.116	0.020
-550.369	-200.000	0.018	0.214
-549.354	-78.667	-0.300	0.102
-548.339	-200.000	0.021	0.224
-547.325	559.470	0.048	0.116
-546.310	6.425	0.159	-0.118
-545.296	-200.000	0.085	-0.586
-544.281	-145.949	-0.090	-0.008
-543.266	-142.296	-0.234	-0.023
-542.252	7.860	0.163	0.122
-541.237	150.635	0.081	-0.111
-540.223	-200.000	-0.012	-0.265
-539.208	-120.310	-0.145	0.025
-538.193	-12.463	0.359	0.234
-537.179	-200.000	0.012	0.121
-536.164	-7.400	-0.258	0.174
-535.150	-200.000	-0.004	-0.089
-534.135	-200.000	0.044	-0.263
-533.121	-200.000	0.004	-0.150
-532.106	-88.832	-0.151	-0.045
-531.091	14.987	0.186	0.146
-530.077	-75.540	0.223	-0.079
-529.062	6.758	-0.192	0.142
-528.048	343.636	0.066	-0.128
-527.033	-33.294	-0.143	-0.079
-526.018	800.000	-0.046	0.135
-525.004	44.362	0.127	-0.117
-523.989	18.668	-0.283	0.226
-522.975	-200.000	0.007	-0.122
-521.960	800.000	0.115	-0.332
-520.945	-141.654	-0.127	0.013
-519.931	22.992	-0.328	0.269
-518.916	52.098	0.222	-0.211
-517.902	-62.651	0.256	-0.106
-516.887	-75.231	-0.164	0.058
-515.872	-47.736	0.090	-0.043
-514.858	-18.968	-0.165	-0.102
-513.843	-102.513	-0.086	-0.020
-512.829	-200.000	0.046	-0.303
-511.814	-94.044	-0.141	0.038
-510.799	800.000	0.064	-0.241
-509.785	-23.760	-0.008	0.005
-508.770	-200.000	0.031	-0.230
-507.756	15.586	0.135	0.106
-506.741	91.727	-0.052	0.058
-505.726	31.151	0.171	0.146
-504.712	-52.478	-0.093	-0.043
-503.697	800.000	-0.044	-0.179
-502.683	-137.556	0.257	0.029
-501.668	-60.203	-0.060	-0.025
-500.653	-92.581	0.148	-0.041
-499.639	-200.000	0.022	0.109
-498.624	7.221	0.056	-0.042
-497.610	-200.000	0.042	0.312
-496.595	216.617	-0.100	0.158
-495.581	172.325	0.077	0.111
-494.566	-200.000	-0.053	0.304
-493.551	-200.000	-0.032	0.154
-492.537	4.578	0.229	-0.168
-491.522	-119.408	-0.324	-0.056
-490.508	-15.555	-0.089	-0.057
-489.493	-140.168	0.216	0.023
-488.478	-157.397	0.196	-0.012
-487.464	-99.236	-0.274	-0.069
-486.449	-41.978	0.190	-0.097
-485.435	68.311	-0.019	-0.020
-484.420	41.014	-0.341	-0.307
-483.405	-66.180	0.416	-0.165
-482.391	30.622	-0.148	-0.126
-481.376	-200.000	-0.032	-0.313
-480.362	-167.451	0.109	-0.004
-479.347	-109.983	0.335	0.070
-478.332	800.000	0.012	0.044
-477.318	-6.457	-0.256	-0.173
-476.303	1.016	-0.124	0.089
-475.289	64.657	-0.128	-0.129
-474.274	-79.624	-0.315	-0.106
-473.259	-200.000	0.049	-0.447
-472.245	187.602	-0.107	0.160
-471.230	49.145	0.206	-0.193
-470.216	-200.000	0.010	-0.251
-469.201	-30.990	-0.282	0.158
-468.186	238.720	0.132	-0.218
-467.172	43.440	-0.285	-0.259
-466.157	-200.000	0.049	-0.403
-465.143	205.992	0.057	-0.088
-464.128	-134.687	0.124	-0.015
-463.113	-174.138	-0.099	0.003
-462.099	-99.997	0.365	0.091
-461.084	-200.000	-0.020	-0.275
-460.070	185.113	-0.086	-0.127
-459.055	-200.000	-0.020	0.201
-458.040	-200.000	-0.014	0.075
-457.026	-143.151	-0.129	-0.012
-456.011	-19.648	0.197	0.121
-454.997	68.898	-0.127	-0.129
-453.982	119.299	-0.099	-0.122
-452.968	-109.439	0.368	0.077
-451.953	54.847	-0.098	-0.094
-450.938	-130.061	-0.421	-0.057
-449.924	800.000	-0.073	-0.300
-448.909	90.114	-0.207	-0.231
-447.895	-200.000	-0.086	-0.651
-446.880	-145.568	0.214	0.019
-445.865	800.000	-0.115	0.433
-444.851	-102.118	0.323	-0.077
-443.836	205.641	0.122	-0.188
-442.822	800.000	-0.039	0.126
-441.807	92.755	0.029	0.033
-440.792	-200.000	-0.034	0.518
-439.778	-200.000	-0.040	-0.222
-438.763	184.898	-0.111	0.164
-437.749	-200.000	0.033	0.405
-436.734	45.932	0.197	-0.181
-435.719	-200.000	-0.078	-0.368
-434.705	800.000	0.082	-0.262
-433.690	-56.793	-0.260	0.114
-432.676	2.308	0.330	0.237
-431.661	-85.727	-0.200	0.062
-430.646	256.060	0.117	-0.199
-429.632	800.000	0.019	0.058
-428.617	-14.504	-0.384	0.246
-427.603	129.486	-0.189	0.239
-426.588	210.599	0.247	0.386
-425.573	-46.123	-0.071	0.035
-424.559	-200.000	-0.060	-0.303
-423.544	592.794	-0.055	0.135
-422.530	-36.949	-0.243	-0.129
-421.515	96.317	0.039	-0.044
-420.500	-15.767	0.174	-0.110
-419.486	147.640	-0.180	0.242
-418.471	387.125	-0.141	-0.290
-417.457	205.135	0.225	0.347
-416.442	66.043	-0.213	0.215
-415.428	-123.396	0.324	-0.051
-414.413	-200.000	0.026	-0.231
-413.398	-165.310	0.388	-0.017
-412.384	-51.221	0.247	-0.115
-411.369	800.000	-0.088	0.293
-410.355	-29.294	0.114	-0.065
-409.340	-200.000	-0.017	0.161
-408.325	-76.527	-0.246	0.086
-407.311	-186.600	0.671	0.009
-406.296	-88.408	0.126	0.037
-405.282	-105.146	0.502	0.114
-404.267	-84.398	0.280	0.088
-403.252	105.861	0.198	-0.233
-402.238	412.471	-0.147	0.309
-401.223	186.422	-0.134	-0.198
-400.209	800.000	-0.010	-0.029
-399.194	-85.991	-0.396	-0.122
-398.179	-27.124	-0.294	-0.170
-397.165	-200.000	0.002	0.132
-396.150	-166.453	-0.308	0.013
-395.136	-31.776	0.138	-0.077
-394.121	-37.185	0.042	0.022
-393.106	-55.957	0.256	-0.114
-392.092	30.174	-0.142	0.120
-391.077	-101.953	0.353	0.085
-390.063	587.735	-0.102	0.250
-389.048	-187.774	0.076	0.001
-388.033	193.396	-0.210	0.315
-387.019	-48.300	0.321	0.153
-386.004	800.000	-0.086	-0.305
-384.990	-3.227	0.238	0.165
-383.975	331.426	-0.191	0.365
-382.960	800.000	0.017	0.073
-381.946	-28.008	-0.333	-0.191
-380.931	-200.000	-0.007	-0.281
-379.917	-0.739	0.159	-0.112
-378.902	42.222	-0.171	0.154
-377.888	664.912	0.098	0.250
-376.873	561.709	-0.127	0.305
-375.858	93.005	-0.300	0.336
-374.844	51.806	0.119	-0.113
-373.829	800.000	-0.008	-0.026
-372.815	800.000	-0.016	0.048
-371.800	-84.366	0.313	-0.098
-370.785	-144.739	0.326	-0.030
-369.771	34.804	-0.249	0.216
-368.756	-19.546	-0.099	-0.061
-367.742	116.164	0.282	-0.342
-366.727	-165.626	-0.304	-0.013
-365.712	-72.785	0.105	-0.039
-364.698	227.406	0.117	0.189
-363.683	294.982	-0.017	-0.031
-362.669	-200.000	-0.012	-0.091
-361.654	79.498	0.024	0.026
-360.639	607.975	-0.092	-0.227
-359.625	348.719	0.025	-0.050
-358.610	199.433	0.187	0.284
-357.596	794.535	0.079	0.216
-356.581	-200.000	0.013	-0.216
-355.566	-146.927	0.273	-0.023
-354.552	800.000	0.047	0.134
-353.537	-102.232	0.208	0.050
-352.523	45.268	0.147	-0.134
-351.508	-73.633	-0.163	0.059
-350.493	-12.399	-0.311	0.202
-349.479	327.834	-0.112	0.213
-348.464	-200.000	-0.008	0.439
-347.450	-85.664	-0.296	-0.091
-346.435	498.592	-0.079	0.181
-345.420	-103.453	-0.212	0.049
-344.406	-200.000	0.032	0.264
-343.391	-200.000	-0.012	-0.199
-342.377	-200.000	0.026	0.205
-341.362	64.936	0.194	0.194
-340.348	-165.597	0.063	-0.003
-339.333	-102.684	0.268	-0.063
-338.318	34.183	-0.109	0.094
-337.304	800.000	0.129	-0.388
-336.289	-104.332	0.088	0.020
-335.275	23.176	-0.267	0.217
-334.260	-200.000	-0.014	-0.250
-333.245	68.086	0.266	0.270
-332.231	-115.442	-0.098	0.018
-331.216	-9.953	-0.228	0.150
-330.202	-90.105	0.354	0.102
-329.187	359.761	0.052	0.103
-328.172	-66.462	-0.191	0.075
-327.158	31.383	0.080	-0.068
-326.143	687.789	0.087	-0.225
-325.129	202.929	0.337	0.515
-324.114	27.982	-0.192	0.160
-323.099	-200.000	0.014	-0.125
-322.085	800.000	0.081	0.285
-321.070	-24.585	0.039	0.023
-320.056	-152.828	-0.300	0.021
-319.041	-16.705	0.344	-0.215
-318.026	-200.000	0.016	-0.089
-317.012	-116.520	0.166	0.030
-315.997	-46.142	-0.246	0.120
-314.983	800.000	0.081	-0.307
-313.968	-113.377	0.138	0.027
-312.953	800.000	-0.051	0.168
-311.939	47.728	-0.196	-0.181
-310.924	-3.007	-0.037	-0.026
-309.910	800.000	0.087	0.287
-308.895	-33.830	-0.357	0.194
-307.880	176.756	-0.092	-0.132
-306.866	800.000	0.071	-0.219
-305.851	39.743	-0.169	0.150
-304.837	547.586	0.076	-0.181
-303.822	-200.000	-0.011	0.277
-302.807	-41.517	-0.160	0.081
-301.793	-92.494	0.065	-0.018
-300.778	-51.753	-0.344	0.158
-299.764	234.402	0.099	-0.162
-298.749	-50.761	0.182	-0.084
-297.735	-200.000	0.039	0.207
-296.720	-39.537	-0.233	-0.121
-295.705	236.533	-0.062	0.101
-294.691	-29.732	-0.159	-0.090
-293.676	-200.000	0.001	-0.139
-292.662	49.461	-0.178	-0.165
-291.647	-11.451	-0.100	0.065
-290.632	177.104	0.205	0.294
-289.618	-30.757	0.043	-0.024
-288.603	-93.062	-0.075	-0.021
-287.589	22.935	-0.272	0.220
-286.574	-172.242	0.301	0.010
-285.559	144.897	0.020	0.026
-284.545	107.420	0.046	0.054
-283.530	-86.811	-0.151	-0.046
-282.516	800.000	-0.097	-0.355
-281.501	-200.000	0.066	-0.296
-280.486	-39.196	-0.181	0.094
-279.472	-180.106	0.154	0.003
-278.457	-69.983	-0.120	0.045
-277.443	-67.817	-0.352	0.136
-276.428	800.000	-0.022	-0.078
-275.413	800.000	0.019	-0.080
-274.399	800.000	0.033	-0.106
-273.384	-164.944	0.379	0.017
-272.370	41.058	0.337	-0.300
-271.355	-200.000	0.014	0.373
-270.340	-89.664	0.310	-0.090
-269.326	115.691	0.036	0.043
-268.311	-62.981	-0.123	-0.050
-267.297	-200.000	-0.010	-0.236
-266.282	-176.596	-0.061	0.002
-265.267	-200.000	0.010	0.185
-264.253	-70.991	0.351	-0.131
-263.238	-0.159	0.240	-0.169
-262.224	-141.569	-0.154	-0.015
-261.209	-44.036	0.191	0.095
-260.195	36.501	0.256	0.223
-259.180	-200.000	-0.025	0.192
-258.165	40.848	-0.131	0.117
-257.151	-19.137	0.176	0.108
-256.136	-135.011	0.077	-0.009
-255.122	-200.000	0.027	0.207
-254.107	-86.170	-0.065	0.020
-253.092	117.463	0.124	0.151
-252.078	-170.228	0.160	-0.006
-251.063	240.911	-0.203	0.335
-250.049	-200.000	0.082	0.377
-249.034	715.060	0.035	-0.091
-248.019	-78.616	0.330	0.111
-247.005	79.586	0.072	-0.077
-245.990	-63.941	-0.343	0.139
-244.976	-14.333	0.231	-0.147
-243.961	-39.028	-0.177	0.092
-242.946	190.531	0.030	0.045
-241.932	800.000	-0.056	-0.185
-240.917	798.486	-0.059	0.160
-239.903	22.104	-0.327	0.263
-238.888	-96.596	-0.268	0.070
-237.873	-200.000	-0.027	-0.233
-236.859	296.728	-0.122	0.221
-235.844	-106.529	-0.082	0.018
-234.830	-93.023	-0.405	-0.111
-233.815	-28.232	-0.144	-0.082
-232.800	-88.237	0.224	-0.066
-231.786	-4.921	-0.209	0.142
-230.771	-152.275	-0.130	-0.009
-229.757	-25.539	0.302	-0.176
-228.742	-114.971	-0.371	0.070
-227.727	800.000	0.086	-0.237
-226.713	-102.520	0.313	0.074
-225.698	480.208	0.113	0.253
-224.684	-200.000	0.004	-0.236
-223.669	380.827	-0.010	0.021
-222.655	-200.000	-0.018	-0.100
-221.640	-200.000	0.011	0.145
-220.625	121.834	0.256	0.314
-219.611	800.000	0.063	0.264
-218.596	800.000	0.043	0.120
-217.582	-156.840	-0.224	0.014
-216.567	-200.000	0.014	0.069
-215.552	327.989	0.148	-0.279
-214.538	-186.267	-0.097	-0.001
-213.523	-102.895	0.255	-0.060
-212.509	-51.535	-0.408	-0.188
-211.494	800.000	0.082	0.273
-210.479	11.137	-0.178	0.134
-209.465	-200.000	0.022	-0.175
-208.450	-90.869	0.144	0.041
-207.436	-26.563	0.287	-0.166
-206.421	-100.541	0.120	0.029
-205.406	800.000	0.057	0.155
-204.392	-200.000	-0.013	-0.105
-203.377	61.039	-0.232	0.227
-202.363	-38.347	-0.137	0.071
-201.348	661.687	-0.112	-0.285
-200.333	800.000	-0.032	-0.117
-199.319	-168.739	-0.452	-0.017
-198.304	230.865	0.165	-0.266
-197.290	-200.000	0.024	-0.124
-196.275	-32.440	0.098	-0.054
-195.260	800.000	-0.121	-0.411
-194.246	-85.606	0.110	0.034
-193.231	-78.930	0.271	-0.091
-192.217	-200.000	0.042	-0.341
-191.202	-200.000	-0.002	-0.062
-190.187	452.637	0.073	0.159
-189.173	-200.000	0.001	-0.077
-188.158	312.263	0.050	-0.093
-187.144	45.224	0.331	0.301
-186.129	-200.000	0.066	0.332
-185.114	-200.000	0.012	-0.061
-184.100	405.824	0.237	-0.493
-183.085	-200.000	0.009	-0.062
-182.071	315.187	0.110	0.205
-181.056	-48.684	-0.183	0.087
-180.042	800.000	0.145	-0.570
-179.027	160.485	0.083	-0.114
-178.012	-135.660	-0.336	-0.039
-176.998	80.596	-0.038	0.040
-175.983	799.060	-0.076	0.206
-174.969	-112.530	0.389	-0.076
-173.954	-158.465	-0.029	-0.002
-172.939	-145.919	0.558	0.049
-171.925	247.417	0.177	0.294
-170.910	-200.000	-0.090	0.488
-169.896	-57.781	0.289	0.125
-168.881	512.750	0.052	-0.120
-167.866	152.463	-0.082	-0.110
-166.852	-200.000	-0.044	0.221
-165.837	-200.000	-0.017	-0.131
-164.823	59.953	0.381	-0.370
-163.808	-108.400	-0.219	-0.046
-162.793	-96.729	-0.331	-0.086
-161.779	-162.554	-0.212	-0.010
-160.764	460.707	0.173	0.380
-159.750	600.357	-0.076	0.185
-158.735	449.428	-0.072	0.156
-157.720	-42.701	0.036	-0.018
-156.706	-73.836	0.162	-0.058
-155.691	7.546	0.081	0.060
-154.677	-79.630	0.191	-0.063
-153.662	30.509	0.124	0.104
-152.647	31.071	0.218	-0.184
-151.633	-86.493	0.177	-0.053
-150.618	279.303	-0.032	-0.056
-149.604	70.704	-0.218	-0.222
-148.589	-2.764	-0.306	0.210
-147.574	-81.223	-0.133	0.043
-146.560	-66.662	0.108	0.042
-145.545	-107.031	0.358	0.078
-144.531	-112.850	0.111	-0.022
-143.516	-29.113	-0.083	-0.047
-142.502	231.443	0.156	0.252
-141.487	-6.611	-0.225	-0.151
-140.472	169.568	0.026	-0.036
-139.458	-1.366	0.156	-0.108
-138.443	327.975	0.066	0.125
-137.429	-147.346	0.378	-0.031
-136.414	143.399	0.131	-0.172
-135.399	306.197	0.112	0.206
-134.385	-79.749	-0.227	-0.075
-133.370	-200.000	0.026	0.173
-132.356	-29.458	0.255	-0.144
-131.341	317.018	-0.093	-0.173
-130.326	800.000	0.070	0.248
-129.312	-200.000	0.022	-0.228
-128.297	-52.591	-0.101	-0.046
-127.283	599.534	-0.051	0.125
-126.268	-200.000	-0.006	0.139
-125.253	56.217	0.149	-0.142
-124.239	3.733	-0.186	-0.133
-123.224	53.318	-0.116	0.109
-122.210	-200.000	0.058	0.290
-121.195	-117.167	0.372	0.067
