DTS Sentinel unit serial number:	SN413079Multiplexer serial number:	ORYXHardware model number:	OX4-SRSoftware version number:	ORYX F/W v4.00 Oryx Data Collector v3.7.2.0data status	okinstallation	princeton_trtdifferential loss correction	single-endedforward channel	channel 2reverse channel	N/Adate	2019/09/10time	22:13:11forward acquisition time	60.00reverse acquisition time	0.00gamma	496.2192k internal	0.2329k external	0.2329temperature offset calibration	0.9939default loss term (dB/km)	0.3790temperature slope calibration	1.0000multiplexer offset coefficient	1.0000multiplexer slope coefficient	1.0000fibre end	0.00T internal ref (°C)	30.55T ext. ref 1 (°C)	-0.31T ext. ref 2 (°C)	23.86length (m)	temperature (°C)	Stokes	anti-Stokes-747.200	-23.628	0.077	-0.047
-746.185	17.026	-0.295	0.236
-745.171	96.526	0.024	0.027
-744.156	14.071	-0.297	0.233
-743.142	-64.424	0.066	0.027
-742.127	241.935	-0.098	0.166
-741.112	-117.884	0.341	-0.062
-740.098	-99.781	-0.144	-0.036
-739.083	-87.964	0.075	-0.023
-738.069	-29.381	0.207	0.119
-737.054	-10.783	-0.189	0.126
-736.039	-127.023	-0.264	0.039
-735.025	-90.068	0.015	-0.004
-734.010	-128.663	-0.217	-0.031
-732.996	-200.000	-0.129	0.000
-731.981	800.000	-0.041	-0.150
-730.966	-58.814	0.294	-0.128
-729.952	-200.000	0.002	-0.017
-728.937	61.682	0.266	-0.266
-727.923	-83.906	0.048	-0.015
-726.908	800.000	-0.009	0.032
-725.894	-162.499	0.311	0.015
-724.879	250.029	0.099	0.169
-723.864	70.370	-0.133	-0.138
-722.850	5.346	-0.285	-0.211
-721.835	685.679	-0.056	-0.147
-720.821	-61.606	-0.050	0.021
-719.806	72.259	-0.301	-0.316
-718.791	198.860	0.014	0.022
-717.777	755.552	-0.045	0.123
-716.762	-157.000	0.008	-0.000
-715.748	-83.511	0.372	0.120
-714.733	193.234	-0.268	-0.408
-713.718	276.566	-0.127	0.227
-712.704	-159.491	-0.238	0.013
-711.689	-104.185	-0.237	-0.055
-710.675	380.103	0.074	-0.152
-709.660	-62.663	0.239	0.100
-708.645	190.276	0.188	-0.283
-707.631	-200.000	0.010	-0.150
-706.616	-133.309	-0.236	-0.030
-705.602	800.000	-0.038	-0.128
-704.587	255.154	0.019	-0.032
-703.572	16.162	0.176	0.139
-702.558	37.349	0.283	-0.252
-701.543	-127.574	-0.249	0.036
-700.529	280.082	0.200	-0.359
-699.514	-200.000	-0.027	-0.411
-698.499	800.000	-0.055	-0.187
-697.485	-132.827	-0.150	-0.019
-696.470	507.664	-0.031	-0.073
-695.456	-99.137	-0.316	-0.080
-694.441	-168.069	-0.117	0.005
-693.426	80.497	0.129	-0.140
-692.412	-200.000	0.034	-0.178
-691.397	-200.000	0.022	0.190
-690.383	-118.988	0.161	0.028
-689.368	-15.069	0.154	0.099
-688.354	27.293	0.161	0.136
-687.339	-200.000	0.037	-0.168
-686.324	521.456	0.036	-0.085
-685.310	120.436	0.184	-0.229
-684.295	355.561	0.051	-0.102
-683.281	800.000	-0.075	-0.318
-682.266	-157.665	0.210	0.013
-681.251	184.349	0.071	0.105
-680.237	-100.932	-0.136	-0.034
-679.222	-200.000	0.040	-0.282
-678.208	-200.000	-0.022	-0.139
-677.193	-200.000	-0.001	0.206
-676.178	374.811	0.076	0.155
-675.164	216.866	0.120	-0.192
-674.149	-54.493	-0.188	-0.085
-673.135	406.317	-0.039	-0.083
-672.120	-162.334	-0.030	-0.001
-671.105	221.384	0.151	-0.244
-670.091	458.092	0.068	-0.151
-669.076	428.020	-0.053	0.115
-668.062	-127.738	-0.240	-0.035
-667.047	381.969	0.068	-0.141
-666.032	-53.452	-0.278	-0.128
-665.018	-40.676	0.205	0.107
-664.003	103.433	-0.055	0.064
-662.989	-200.000	-0.147	-0.001
-661.974	-14.200	0.155	0.100
-660.959	-17.436	-0.349	-0.221
-659.945	-38.535	-0.140	-0.074
-658.930	-200.000	0.056	-0.307
-657.916	-200.000	0.057	0.263
-656.901	175.378	0.103	-0.150
-655.886	-5.604	0.180	0.124
-654.872	212.761	-0.160	0.254
-653.857	43.786	0.241	0.221
-652.843	-104.097	-0.051	-0.012
-651.828	134.105	0.097	-0.126
-650.814	258.429	0.112	-0.194
-649.799	37.571	-0.057	0.051
-648.784	-29.862	0.097	-0.055
-647.770	-115.934	-0.296	-0.055
-646.755	78.134	-0.143	0.153
-645.741	-200.000	0.007	0.082
-644.726	125.936	-0.083	-0.106
-643.711	562.815	0.149	-0.362
-642.697	-46.661	0.159	-0.078
-641.682	172.564	0.159	-0.229
-640.668	33.350	-0.170	-0.148
-639.653	-51.433	0.390	-0.183
-638.638	366.102	-0.085	-0.172
-637.624	800.000	0.016	-0.047
-636.609	183.443	-0.183	0.271
-635.595	17.598	-0.294	-0.234
-634.580	550.361	-0.079	0.190
-633.565	43.152	0.216	-0.198
-632.551	179.054	0.093	-0.137
-631.536	-200.000	0.032	-0.237
-630.522	-11.390	0.223	0.147
-629.507	-200.000	0.010	0.321
-628.492	332.204	-0.043	0.084
-627.478	-200.000	-0.027	0.211
-626.463	66.723	-0.097	0.099
-625.449	800.000	0.073	0.319
-624.434	-200.000	0.027	-0.302
-623.419	-30.227	-0.245	-0.140
-622.405	12.713	0.155	0.120
-621.390	5.075	-0.091	0.067
-620.376	-200.000	-0.010	-0.390
-619.361	1.473	0.268	-0.193
-618.346	360.891	0.025	0.050
-617.332	-60.071	0.171	0.073
-616.317	571.738	-0.138	-0.337
-615.303	41.428	-0.226	0.205
-614.288	-170.062	0.145	-0.005
-613.273	-200.000	-0.028	0.168
-612.259	568.888	0.058	0.140
-611.244	-145.415	0.235	0.021
-610.230	800.000	-0.057	0.192
-609.215	-28.700	0.069	0.040
-608.201	271.027	-0.060	-0.105
-607.186	800.000	-0.077	-0.316
-606.171	-200.000	0.030	-0.171
-605.157	18.813	-0.098	0.078
-604.142	800.000	-0.048	0.139
-603.128	266.971	-0.185	-0.323
-602.113	-200.000	-0.025	-0.180
-601.098	-73.278	0.401	0.147
-600.084	20.594	0.266	0.216
-599.069	-77.804	0.090	0.031
-598.055	-147.127	0.342	0.029
-597.040	-27.638	-0.100	0.058
-596.025	312.022	0.123	-0.230
-595.011	344.944	0.080	0.156
-593.996	-121.458	-0.363	0.060
-592.982	-126.877	0.266	0.039
-591.967	-107.324	-0.296	-0.065
-590.952	76.034	-0.154	0.163
-589.938	800.000	0.021	0.063
-588.923	-200.000	0.047	0.335
-587.909	35.566	0.097	-0.085
-586.894	-117.307	-0.074	0.013
-585.879	-16.073	0.342	0.218
-584.865	800.000	-0.038	-0.140
-583.850	-9.392	-0.447	-0.299
-582.836	-60.715	-0.179	-0.076
-581.821	359.448	0.114	-0.228
-580.806	22.666	0.068	-0.055
-579.792	-95.520	-0.136	-0.036
-578.777	-84.760	-0.160	-0.050
-577.763	800.000	-0.064	0.272
-576.748	-59.802	0.311	0.133
-575.733	-89.568	0.438	-0.129
-574.719	96.953	-0.087	-0.099
-573.704	-52.131	-0.256	-0.119
-572.690	-171.938	0.259	0.008
-571.675	-77.055	-0.014	0.005
-570.661	-200.000	0.013	0.151
-569.646	-200.000	-0.078	0.351
-568.631	505.565	-0.117	0.272
-567.617	159.080	-0.097	0.135
-566.602	-34.503	0.206	0.113
-565.588	-200.000	-0.014	-0.102
-564.573	800.000	0.053	-0.207
-563.558	800.000	0.049	-0.139
-562.544	800.000	0.034	0.098
-561.529	238.503	-0.043	0.072
-560.515	246.382	0.154	0.260
-559.500	-84.643	0.201	0.063
-558.485	24.579	0.054	0.045
-557.471	-98.622	-0.132	-0.034
-556.456	-200.000	0.017	0.099
-555.442	-25.681	-0.082	0.048
-554.427	-200.000	0.076	-0.370
-553.412	559.670	-0.039	-0.095
-552.398	2.779	-0.288	-0.209
-551.383	-180.562	-0.258	-0.005
-550.369	327.802	0.102	0.195
-549.354	-200.000	0.074	-0.408
-548.339	25.117	0.248	-0.206
-547.325	-85.588	0.097	-0.030
-546.310	-115.269	-0.172	0.032
-545.296	626.832	-0.050	-0.126
-544.281	-36.946	-0.139	-0.074
-543.266	-200.000	-0.016	-0.208
-542.252	152.546	-0.224	0.305
-541.237	-200.000	-0.028	0.230
-540.223	5.086	0.084	0.062
-539.208	-200.000	0.057	-0.277
-538.193	-1.477	-0.263	0.185
-537.179	109.724	-0.093	-0.111
-536.164	-137.567	-0.061	-0.007
-535.150	-91.020	-0.228	0.065
-534.135	800.000	-0.026	-0.110
-533.121	126.681	-0.130	-0.164
-532.106	185.911	0.282	-0.418
-531.091	-123.299	-0.390	0.062
-530.077	-97.872	-0.075	-0.019
-529.062	800.000	0.073	-0.202
-528.048	72.797	-0.215	-0.224
-527.033	-200.000	-0.026	0.124
-526.018	70.605	0.104	0.108
-525.004	-91.191	-0.441	-0.126
-523.989	-24.005	-0.205	-0.123
-522.975	-28.333	0.198	-0.114
-521.960	219.941	-0.090	0.144
-520.945	-200.000	0.000	0.152
-519.931	-43.499	0.373	-0.188
-518.916	-29.938	-0.109	-0.062
-517.902	-102.761	-0.063	0.015
-516.887	-17.750	0.138	0.086
-515.872	790.870	-0.145	0.398
-514.858	-200.000	0.062	0.353
-513.843	-53.446	0.066	-0.030
-512.829	800.000	-0.075	-0.299
-511.814	16.651	-0.235	0.185
-510.799	800.000	0.087	0.366
-509.785	800.000	0.034	0.112
-508.770	-87.283	-0.282	0.085
-507.756	60.857	0.094	-0.093
-506.741	800.000	-0.079	-0.279
-505.726	18.702	0.195	-0.155
-504.712	-35.636	0.183	-0.099
-503.697	92.457	-0.298	-0.336
-502.683	540.107	0.043	0.102
-501.668	800.000	0.020	-0.065
-500.653	475.648	-0.109	0.246
-499.639	-55.865	0.247	0.110
-498.624	240.991	-0.109	-0.181
-497.610	-113.176	0.069	-0.014
-496.595	197.007	-0.067	0.103
-495.581	-164.568	-0.246	-0.011
-494.566	-116.870	-0.271	0.050
-493.551	-200.000	-0.017	0.251
-492.537	-116.712	0.388	0.071
-491.522	-59.413	-0.436	-0.187
-490.508	279.957	-0.096	0.170
-489.493	800.000	0.004	0.018
-488.478	530.434	0.078	0.184
-487.464	141.271	0.103	-0.136
-486.449	8.004	-0.238	0.178
-485.435	-11.932	0.169	0.110
-484.420	131.577	-0.092	-0.118
-483.405	-115.959	-0.288	-0.054
-482.391	436.461	-0.140	0.304
-481.376	800.000	-0.073	0.284
-480.362	-200.000	-0.022	-0.279
-479.347	-200.000	-0.055	-0.311
-478.332	-200.000	0.040	0.223
-477.318	105.983	0.060	0.071
-476.303	-84.335	-0.252	-0.079
-475.289	-200.000	0.011	-0.143
-474.274	-91.975	-0.100	-0.028
-473.259	274.423	-0.143	0.253
-472.245	-90.214	0.166	-0.048
-471.230	800.000	-0.074	-0.232
-470.216	-174.690	0.263	0.007
-469.201	-6.778	-0.138	-0.093
-468.186	41.239	-0.118	0.106
-467.172	-200.000	0.010	0.125
-466.157	39.481	0.128	0.114
-465.143	80.024	-0.026	0.028
-464.128	-96.886	-0.407	-0.106
-463.113	-76.550	0.120	0.042
-462.099	800.000	-0.092	0.295
-461.084	226.351	0.034	-0.055
-460.070	168.502	0.134	-0.191
-459.055	93.577	0.135	0.152
-458.040	800.000	-0.083	-0.290
-457.026	61.599	0.324	0.321
-456.011	-28.707	-0.297	0.170
-454.997	-200.000	-0.034	-0.320
-453.982	169.382	0.076	-0.108
-452.968	109.908	-0.132	-0.158
-451.953	-122.885	0.117	0.019
-450.938	169.610	0.138	-0.197
-449.924	297.924	0.095	-0.174
-448.909	-200.000	-0.021	0.129
-447.895	-89.850	-0.250	0.073
-446.880	-3.448	-0.072	0.050
-445.865	-200.000	-0.006	-0.088
-444.851	342.556	-0.056	-0.109
-443.836	-110.335	-0.284	-0.059
-442.822	-84.963	0.321	-0.100
-441.807	131.823	-0.033	-0.042
-440.792	800.000	-0.044	-0.179
-439.778	-84.212	-0.062	-0.020
-438.763	-133.030	0.547	0.069
-437.749	-12.164	-0.124	0.081
-436.734	-41.827	0.112	-0.057
-435.719	102.426	-0.046	0.054
-434.705	212.710	0.088	0.138
-433.690	-104.771	0.456	0.104
-432.676	-48.559	-0.228	-0.109
-431.661	-200.000	0.079	0.354
-430.646	-94.286	0.246	-0.067
-429.632	738.909	-0.154	-0.410
-428.617	669.922	-0.017	-0.044
-427.603	-153.314	0.165	0.011
-426.588	-200.000	0.014	0.081
-425.573	267.281	-0.058	0.101
-424.559	-145.654	-0.069	-0.006
-423.544	800.000	-0.038	0.127
-422.530	-200.000	0.035	-0.358
-421.515	-200.000	-0.008	0.091
-420.500	23.483	-0.192	0.157
-419.486	53.568	0.122	0.116
-418.471	-200.000	-0.002	-0.035
-417.457	-110.478	0.186	-0.038
-416.442	-200.000	-0.048	0.245
-415.428	-200.000	0.015	0.372
-414.413	-200.000	-0.047	0.306
-413.398	7.587	-0.131	-0.097
-412.384	64.798	-0.116	0.116
-411.369	229.733	-0.033	-0.054
-410.355	15.109	-0.054	-0.042
-409.340	72.754	0.068	0.071
-408.325	-16.110	0.068	0.043
-407.311	-200.000	0.027	0.238
-406.296	11.685	0.229	0.174
-405.282	67.155	0.077	-0.078
-404.267	-80.672	0.060	-0.020
-403.252	400.079	0.058	-0.122
-402.238	217.234	-0.119	0.188
-401.223	-200.000	-0.016	0.113
-400.209	-92.186	-0.274	-0.077
-399.194	257.213	-0.055	-0.094
-398.179	13.440	0.189	-0.146
-397.165	-16.640	-0.257	0.162
-396.150	508.744	-0.105	-0.242
-395.136	-159.464	-0.038	0.002
-394.121	-200.000	-0.002	0.090
-393.106	-29.885	0.180	0.102
-392.092	163.752	0.142	0.199
-391.077	-200.000	-0.011	-0.251
-390.063	-182.131	-0.047	0.001
-389.048	-152.833	0.415	0.029
-388.033	477.263	0.074	0.166
-387.019	-135.364	0.321	-0.038
-386.004	799.973	0.079	-0.217
-384.990	-11.777	0.051	0.033
-383.975	112.511	-0.298	-0.358
-382.960	6.430	0.230	-0.170
-381.946	-80.919	-0.229	-0.075
-380.931	-62.249	-0.238	-0.098
-379.917	696.210	-0.090	0.236
-378.902	800.000	0.050	0.216
-377.888	410.038	0.098	-0.206
-376.873	-200.000	0.011	0.049
-375.858	-200.000	-0.002	-0.394
-374.844	-86.096	-0.205	-0.063
-373.829	-171.129	-0.287	0.010
-372.815	-200.000	0.044	0.266
-371.800	152.515	0.189	-0.256
-370.785	800.000	0.021	-0.062
-369.771	52.763	-0.145	-0.138
-368.756	-148.869	0.124	-0.010
-367.742	87.596	0.062	-0.068
-366.727	36.215	0.095	0.083
-365.712	-108.053	0.289	-0.062
-364.698	3.960	0.242	-0.176
-363.683	55.648	-0.093	-0.089
-362.669	298.293	-0.074	-0.134
-361.654	60.237	0.363	0.356
-360.639	-41.863	0.237	-0.121
-359.625	71.369	0.168	-0.173
-358.610	-56.861	0.240	0.105
-357.596	14.158	-0.025	0.019
-356.581	-31.634	0.080	0.045
-355.566	-79.133	-0.028	-0.010
-354.552	-84.698	-0.321	0.100
-353.537	-127.483	-0.299	-0.043
-352.523	87.055	-0.082	-0.089
-351.508	-91.160	-0.125	-0.036
-350.493	-126.168	-0.049	0.007
-349.479	-123.371	-0.228	0.036
-348.464	-79.392	-0.277	-0.093
-347.450	273.009	-0.151	-0.265
-346.435	119.892	0.386	-0.475
-345.420	-200.000	0.007	0.070
-344.406	157.260	0.142	0.194
-343.391	-200.000	0.027	-0.135
-342.377	-17.100	0.318	-0.199
-341.362	632.476	0.063	0.157
-340.348	800.000	0.070	-0.247
-339.333	-200.000	0.010	0.137
-338.318	800.000	-0.055	-0.189
-337.304	-16.467	-0.214	-0.134
-336.289	271.943	0.136	0.237
-335.275	-88.239	-0.176	0.052
-334.260	-72.659	-0.225	-0.082
-333.245	-139.752	0.086	-0.009
-332.231	-103.279	0.305	0.071
-331.216	-60.424	-0.060	-0.025
-330.202	-200.000	-0.069	0.315
-329.187	568.571	0.041	0.098
-328.172	-200.000	0.049	-0.476
-327.158	-200.000	-0.081	-0.522
-326.143	-128.062	-0.168	0.024
-325.129	-148.409	0.230	-0.019
-324.114	-30.643	-0.284	-0.159
-323.099	67.250	0.193	-0.195
-322.085	392.086	-0.163	-0.336
-321.070	188.834	0.052	0.077
-320.056	-176.503	-0.221	0.006
-319.041	-38.901	-0.020	-0.010
-318.026	800.000	0.020	-0.071
-317.012	-104.044	0.098	-0.023
-315.997	-9.259	0.201	0.133
-314.983	-200.000	-0.003	-0.106
-313.968	800.000	0.082	-0.280
-312.953	161.840	0.051	-0.070
-311.939	500.853	-0.094	0.214
-310.924	34.715	-0.071	-0.061
-309.910	429.332	0.109	0.233
-308.895	89.187	-0.220	0.242
-307.880	8.520	-0.112	-0.084
-306.866	225.939	0.126	-0.202
-305.851	-200.000	0.021	0.102
-304.837	3.809	0.175	0.126
-303.822	72.600	-0.191	0.198
-302.807	-200.000	-0.022	-0.201
-301.793	334.220	-0.023	0.044
-300.778	-48.020	0.333	-0.160
-299.764	200.482	-0.053	0.081
-298.749	83.169	-0.216	-0.233
-297.735	800.000	-0.102	-0.391
-296.720	283.721	0.177	0.314
-295.705	-200.000	0.028	0.149
-294.691	-200.000	-0.003	0.222
-293.676	-5.577	0.167	0.114
-292.662	-200.000	-0.016	0.251
-291.647	800.000	0.086	0.327
-290.632	-187.068	-0.239	0.003
-289.618	-61.454	0.161	-0.067
-288.603	5.215	0.107	0.078
-287.589	-121.259	0.297	-0.049
-286.574	-63.916	-0.050	0.020
-285.559	170.213	0.128	0.182
-284.545	42.497	-0.140	0.126
-283.530	433.255	-0.088	-0.188
-282.516	-166.431	0.010	0.000
-281.501	-58.070	-0.157	0.068
-280.486	31.485	-0.221	-0.188
-279.472	-200.000	0.035	-0.292
-278.457	-147.852	-0.147	-0.012
-277.443	-147.696	-0.041	-0.003
-276.428	27.616	-0.298	-0.248
-275.413	230.402	0.054	-0.088
-274.399	800.000	-0.050	0.161
-273.384	-48.067	-0.384	0.183
-272.370	-200.000	-0.023	0.159
-271.355	-114.083	0.165	0.032
-270.340	435.402	0.173	0.372
-269.326	-25.532	-0.102	0.059
-268.311	127.660	-0.142	-0.178
-267.297	-200.000	0.048	-0.326
-266.282	-58.476	-0.125	0.054
-265.267	114.222	-0.137	-0.165
-264.253	-64.427	-0.107	0.043
-263.238	57.636	-0.144	0.139
-262.224	-200.000	-0.007	0.128
-261.209	157.576	-0.197	-0.269
-260.195	-200.000	-0.031	0.160
-259.180	-60.370	0.215	-0.091
-258.165	-200.000	0.036	-0.194
-257.151	-46.292	-0.213	0.104
-256.136	53.231	0.229	-0.217
-255.122	-200.000	0.079	-0.484
-254.107	-200.000	0.065	0.432
-253.092	-200.000	-0.050	0.240
-252.078	152.813	0.134	0.181
-251.063	-200.000	-0.027	-0.238
-250.049	-200.000	0.003	-0.207
-249.034	141.805	-0.097	-0.127
-248.019	26.343	0.340	-0.280
-247.005	-10.395	-0.223	0.146
-245.990	472.079	0.037	0.082
-244.976	-11.955	0.232	0.150
-243.961	-113.043	0.121	-0.024
-242.946	265.096	-0.046	-0.080
-241.932	800.000	-0.056	0.162
-240.917	167.877	-0.102	0.143
-239.903	-200.000	0.018	0.104
-238.888	172.822	0.051	-0.072
-237.873	800.000	-0.092	0.345
-236.859	-138.973	0.143	0.015
-235.844	63.327	-0.081	0.080
-234.830	87.555	-0.094	-0.102
-233.815	-113.668	-0.035	-0.007
-232.800	-106.985	0.065	0.014
-231.786	-57.302	-0.259	-0.112
-230.771	-37.742	-0.238	-0.125
-229.757	427.813	0.120	0.255
-228.742	-200.000	0.002	-0.089
-227.727	-165.391	-0.285	-0.012
-226.713	-66.880	0.129	0.050
-225.698	800.000	-0.054	-0.190
-224.684	-200.000	0.052	0.395
-223.669	-60.833	0.207	-0.086
-222.655	-8.559	-0.199	0.132
-221.640	67.145	-0.114	0.114
-220.625	-174.218	0.172	0.005
-219.611	-117.306	-0.114	-0.020
-218.596	206.438	-0.148	0.227
-217.582	291.937	0.151	0.271
-216.567	-200.000	-0.018	0.342
-215.552	800.000	-0.100	0.273
-214.538	-200.000	-0.018	0.260
-213.523	-116.732	0.192	-0.035
-212.509	800.000	0.107	-0.302
-211.494	-129.303	0.202	0.028
-210.479	-40.925	-0.166	-0.085
-209.465	-107.501	0.203	-0.044
-208.450	143.610	0.124	0.163
-207.436	6.528	0.133	0.098
-206.421	588.879	0.094	-0.229
-205.406	-139.435	-0.222	0.023
-204.392	-200.000	0.002	-0.039
-203.377	577.509	-0.065	0.157
-202.363	144.518	0.130	0.171
-201.348	32.454	-0.091	0.077
-200.333	-88.500	0.154	0.045
-199.319	-63.281	-0.190	-0.077
-198.304	54.320	0.140	-0.133
-197.290	-200.000	-0.060	-0.487
-196.275	-8.300	0.109	-0.072
-195.260	100.445	0.255	-0.292
-194.246	800.000	0.062	-0.180
-193.231	-65.582	-0.290	-0.115
-192.217	26.259	-0.164	-0.135
-191.202	-186.911	0.205	0.003
-190.187	800.000	0.080	0.237
-189.173	1.618	0.049	0.035
-188.158	-200.000	-0.013	0.111
-187.144	132.238	0.088	-0.111
-186.129	-19.124	0.122	0.075
-185.114	149.538	-0.154	0.206
-184.100	80.739	0.179	0.190
-183.085	-3.669	-0.428	0.293
-182.071	11.032	0.180	0.136
-181.056	168.723	0.056	0.078
-180.042	-133.337	0.211	-0.026
-179.027	64.882	-0.147	0.146
-178.012	-200.000	-0.020	-0.148
-176.998	67.538	0.241	-0.243
-175.983	-43.258	-0.132	0.066
-174.969	-200.000	-0.009	0.103
-173.954	-143.221	-0.113	0.011
-172.939	-26.904	0.320	0.184
-171.925	-117.701	0.154	-0.027
-170.910	75.942	0.163	-0.169
-169.896	314.859	-0.136	0.253
-168.881	-66.346	0.180	-0.070
-167.866	-42.590	0.278	0.139
-166.852	436.629	-0.063	-0.135
-165.837	-200.000	0.003	-0.086
-164.823	-200.000	-0.034	0.225
-163.808	-134.727	-0.155	-0.019
-162.793	-200.000	0.008	0.062
-161.779	-14.001	0.385	0.245
-160.764	-82.304	-0.219	0.070
-159.750	-103.606	-0.249	0.058
-158.735	-13.868	0.211	-0.134
-157.720	-52.163	-0.179	0.082
-156.706	57.975	-0.300	0.289
-155.691	-133.929	0.312	0.038
-154.677	490.200	-0.148	0.334
-153.662	4.446	0.256	0.185
-152.647	3.523	0.251	-0.180
-151.633	-144.600	0.312	-0.028
-150.618	169.252	-0.113	-0.159
-149.604	-200.000	0.028	-0.273
-148.589	-52.798	-0.322	-0.146
-147.574	800.000	0.018	-0.057
-146.560	-114.922	0.154	-0.029
-145.545	800.000	0.110	-0.359
-144.531	128.983	0.108	0.135
-143.516	415.201	-0.057	0.120
-142.502	-6.059	0.224	-0.151
-141.487	-200.000	0.013	-0.083
-140.472	-200.000	-0.013	-0.232
-139.458	-112.915	0.278	0.054
-138.443	-118.150	0.222	0.039
-137.429	-166.182	0.167	-0.007
-136.414	-39.058	-0.138	0.072
-135.399	-90.275	-0.273	0.078
-134.385	-68.474	0.299	0.114
-133.370	-55.936	0.102	-0.045
-132.356	430.731	-0.137	0.292
-131.341	-136.211	0.058	0.007
-130.326	-200.000	-0.039	0.191
-129.312	733.399	0.115	-0.302
-128.297	65.400	0.274	0.272
-127.283	-200.000	0.017	-0.112
-126.268	285.537	0.107	-0.190
-125.253	182.458	-0.210	-0.305
-124.239	800.000	-0.108	0.302
-123.224	-137.824	0.024	-0.003
-122.210	42.427	-0.260	-0.233
-121.195	19.469	0.008	-0.006
