DTS Sentinel unit serial number:	SN413079Multiplexer serial number:	ORYXHardware model number:	OX4-SRSoftware version number:	ORYX F/W v4.00 Oryx Data Collector v3.7.2.0data status	okinstallation	princeton_trtdifferential loss correction	single-endedforward channel	channel 2reverse channel	N/Adate	2019/09/11time	16:17:11forward acquisition time	60.00reverse acquisition time	0.00gamma	496.2192k internal	0.2286k external	0.2286temperature offset calibration	1.0013default loss term (dB/km)	0.3790temperature slope calibration	1.0000multiplexer offset coefficient	1.0000multiplexer slope coefficient	1.0000fibre end	0.00T internal ref (°C)	43.42T ext. ref 1 (°C)	1.05T ext. ref 2 (°C)	38.84length (m)	temperature (°C)	Stokes	anti-Stokes-747.200	-200.000	0.022	-0.434
-746.185	103.608	0.283	0.341
-745.171	41.227	0.179	0.166
-744.156	800.000	0.103	0.407
-743.142	396.257	-0.061	0.131
-742.127	572.954	0.144	0.361
-741.112	54.889	-0.149	0.148
-740.098	285.018	0.173	0.319
-739.083	0.399	-0.097	0.071
-738.069	236.838	0.233	0.396
-737.054	661.005	0.053	0.141
-736.039	-107.035	0.060	0.014
-735.025	-63.962	-0.193	0.081
-734.010	-172.475	-0.184	0.006
-732.996	52.166	0.271	-0.265
-731.981	175.304	-0.070	0.104
-730.966	130.259	-0.259	-0.340
-729.952	-200.000	-0.041	-0.308
-728.937	-143.845	-0.282	0.027
-727.923	532.094	-0.046	-0.111
-726.908	-58.867	-0.171	-0.076
-725.894	156.950	0.158	-0.223
-724.879	800.000	0.039	0.128
-723.864	364.726	-0.039	-0.080
-722.850	-54.067	-0.273	0.127
-721.835	79.356	0.024	-0.027
-720.821	-200.000	0.007	-0.452
-719.806	-62.224	0.253	0.108
-718.791	585.821	-0.156	-0.393
-717.777	-200.000	-0.048	0.255
-716.762	-200.000	0.021	0.167
-715.748	-88.678	0.139	-0.042
-714.733	-200.000	-0.036	0.402
-713.718	137.812	0.116	-0.156
-712.704	800.000	0.088	-0.269
-711.689	-106.550	-0.243	-0.055
-710.675	-200.000	0.036	-0.250
-709.660	-44.050	-0.111	0.057
-708.645	-62.922	0.251	0.106
-707.631	-113.124	-0.160	0.032
-706.616	-3.861	-0.108	0.077
-705.602	-200.000	0.023	0.219
-704.587	10.746	0.247	-0.193
-703.572	520.549	0.105	0.252
-702.558	-152.981	0.213	-0.015
-701.543	-200.000	-0.072	0.323
-700.529	49.987	0.320	0.309
-699.514	-200.000	-0.008	0.185
-698.499	-12.131	0.226	0.151
-697.485	45.333	0.141	0.133
-696.470	53.436	-0.104	0.102
-695.456	90.575	-0.202	0.232
-694.441	-121.792	0.314	-0.053
-693.426	800.000	0.035	0.157
-692.412	-99.650	0.152	0.039
-691.397	-141.733	0.193	-0.020
-690.383	-10.718	-0.116	-0.079
-689.368	-200.000	0.001	0.356
-688.354	-77.939	0.118	0.042
-687.339	79.241	-0.247	0.271
-686.324	413.699	-0.069	-0.149
-685.310	82.332	-0.053	0.059
-684.295	-69.292	-0.267	0.105
-683.281	273.458	-0.149	-0.270
-682.266	-21.371	-0.189	0.118
-681.251	-168.519	-0.127	0.005
-680.237	180.351	-0.190	-0.285
-679.222	54.299	-0.237	0.233
-678.208	-34.408	0.366	-0.205
-677.193	91.012	0.116	-0.134
-676.178	-200.000	-0.066	-0.546
-675.164	-14.126	0.223	0.147
-674.149	-107.003	-0.158	0.036
-673.135	13.708	0.164	0.130
-672.120	-78.262	-0.212	-0.074
-671.105	-21.192	-0.187	-0.117
-670.091	-69.360	0.361	-0.142
-669.076	-125.099	-0.132	0.021
-668.062	-111.662	-0.179	0.037
-667.047	-31.212	0.264	0.152
-666.032	-1.882	0.343	-0.247
-665.018	23.038	0.141	-0.119
-664.003	-63.112	-0.377	-0.159
-662.989	-138.760	0.214	-0.024
-661.974	105.340	0.067	0.081
-660.959	49.413	-0.068	0.065
-659.945	-33.681	0.390	-0.220
-658.930	-72.857	0.436	-0.164
-657.916	-56.016	-0.182	-0.083
-656.901	-150.128	0.228	-0.018
-655.886	-200.000	-0.007	-0.056
-654.872	-46.488	0.229	-0.115
-653.857	-200.000	0.009	0.245
-652.843	102.066	-0.075	0.089
-651.828	-97.324	-0.208	-0.055
-650.814	152.408	0.099	-0.138
-649.799	-15.446	0.155	-0.101
-648.784	800.000	0.008	0.028
-647.770	175.164	-0.107	-0.159
-646.755	800.000	-0.176	-0.517
-645.741	-200.000	-0.148	-0.001
-644.726	800.000	-0.105	-0.299
-643.711	-36.169	-0.064	-0.035
-642.697	-200.000	0.009	-0.113
-641.682	229.375	-0.053	-0.088
-640.668	-48.809	-0.198	0.097
-639.653	-200.000	0.008	0.164
-638.638	-122.506	0.062	0.010
-637.624	-200.000	-0.029	0.297
-636.609	27.180	0.110	-0.094
-635.595	-200.000	0.051	-0.335
-634.580	-72.960	0.067	0.025
-633.565	-129.255	-0.255	0.036
-632.551	-200.000	-0.005	0.281
-631.536	17.699	-0.134	-0.109
-630.522	-23.041	-0.229	0.141
-629.507	259.280	0.061	-0.108
-628.492	645.318	0.049	-0.127
-627.478	-200.000	-0.039	0.212
-626.463	-75.122	-0.114	-0.042
-625.449	-43.648	-0.206	0.106
-624.434	214.057	0.009	0.015
-623.419	292.828	-0.164	-0.305
-622.405	-85.066	-0.220	-0.070
-621.390	105.492	0.174	-0.210
-620.376	-200.000	-0.018	0.331
-619.361	800.000	-0.102	-0.397
-618.346	597.656	-0.077	0.196
-617.332	-79.023	0.071	-0.025
-616.317	800.000	0.036	0.140
-615.303	83.195	-0.186	-0.207
-614.288	-33.168	-0.040	-0.023
-613.273	171.232	0.133	0.195
-612.259	-73.537	0.205	0.076
-611.244	-200.000	0.039	0.217
-610.230	-28.639	-0.298	-0.175
-609.215	94.304	-0.255	-0.295
-608.201	-97.868	0.228	-0.060
-607.186	704.819	-0.068	-0.183
-606.171	800.000	0.047	0.145
-605.157	252.789	0.107	0.186
-604.142	393.938	0.117	-0.248
-603.128	-200.000	-0.006	0.129
-602.113	266.697	0.092	-0.164
-601.098	-138.831	0.156	-0.017
-600.084	125.608	-0.040	-0.051
-599.069	-28.575	0.146	0.086
-598.055	19.745	0.216	0.178
-597.040	43.657	-0.252	-0.236
-596.025	-74.443	-0.083	-0.031
-595.011	-103.197	-0.251	0.061
-593.996	-200.000	-0.044	0.216
-592.982	73.408	0.106	-0.113
-591.967	-5.437	0.339	-0.238
-590.952	-155.503	0.284	-0.019
-589.938	130.726	-0.054	-0.070
-588.923	-102.216	-0.176	0.043
-587.909	22.272	0.033	0.028
-586.894	-173.138	0.343	0.011
-585.879	-200.000	0.005	-0.100
-584.865	72.407	-0.066	-0.070
-583.850	-113.938	-0.151	-0.030
-582.836	4.527	-0.364	0.272
-581.821	223.092	-0.043	-0.070
-580.806	-200.000	0.014	-0.111
-579.792	-93.729	-0.288	-0.081
-578.777	76.871	-0.233	-0.252
-577.763	-136.119	-0.201	-0.024
-576.748	35.921	0.181	-0.162
-575.733	177.240	-0.213	0.316
-574.719	84.129	0.018	0.020
-573.704	136.031	-0.091	-0.121
-572.690	175.254	0.114	0.169
-571.675	-67.762	0.185	-0.074
-570.661	-200.000	-0.054	0.311
-569.646	-200.000	-0.018	-0.336
-568.631	-108.384	0.159	-0.035
-567.617	87.396	0.083	-0.093
-566.602	-110.674	0.097	0.021
-565.588	-110.642	0.233	0.049
-564.573	-159.546	0.075	-0.004
-563.558	-200.000	0.001	-0.078
-562.544	-200.000	0.027	0.379
-561.529	218.753	0.065	0.105
-560.515	-66.832	-0.177	-0.071
-559.500	280.628	0.092	-0.168
-558.485	-45.729	0.046	-0.023
-557.471	-38.111	-0.348	0.188
-556.456	-103.143	-0.168	-0.040
-555.442	-111.209	0.059	-0.012
-554.427	79.481	-0.183	0.200
-553.412	523.819	-0.118	0.283
-552.398	44.495	-0.107	0.101
-551.383	123.002	0.164	0.210
-550.369	22.362	0.050	-0.042
-549.354	117.456	-0.162	0.203
-548.339	-67.483	-0.312	0.125
-547.325	65.426	0.093	-0.096
-546.310	-48.816	0.128	0.063
-545.296	260.597	-0.074	-0.131
-544.281	530.768	0.076	-0.184
-543.266	-97.914	-0.252	-0.066
-542.252	-83.168	-0.179	-0.059
-541.237	800.000	0.058	0.247
-540.223	475.864	0.078	0.178
-539.208	-200.000	0.047	-0.219
-538.193	-200.000	0.044	0.216
-537.179	-155.919	-0.194	-0.013
-536.164	-185.078	-0.361	-0.006
-535.150	1.264	-0.083	-0.061
-534.135	-57.564	-0.312	0.139
-533.121	-200.000	-0.013	0.259
-532.106	800.000	0.093	0.328
-531.091	17.129	0.180	-0.145
-530.077	218.229	0.227	0.368
-529.062	-136.906	0.121	0.014
-528.048	137.833	-0.194	0.258
-527.033	276.307	-0.084	0.153
-526.018	-173.886	-0.295	-0.009
-525.004	-101.287	-0.049	0.012
-523.989	-113.968	0.184	0.036
-522.975	84.012	0.227	0.252
-521.960	173.006	0.131	-0.192
-520.945	118.378	0.249	0.313
-519.931	123.279	-0.234	-0.298
-518.916	-160.182	0.230	0.013
-517.902	-98.582	-0.230	-0.060
-516.887	-159.032	-0.372	0.021
-515.872	121.980	-0.192	-0.244
-514.858	16.723	-0.103	0.083
-513.843	202.855	-0.103	0.161
-512.829	-135.519	-0.112	0.014
-511.814	-200.000	-0.003	-0.175
-510.799	95.338	0.117	0.135
-509.785	800.000	-0.027	-0.111
-508.770	260.923	0.087	-0.153
-507.756	-200.000	0.009	0.052
-506.741	-126.986	-0.290	0.043
-505.726	-200.000	0.025	0.246
-504.712	-67.936	0.325	0.129
-503.697	-63.035	-0.265	0.111
-502.683	-200.000	-0.000	-0.053
-501.668	64.017	-0.136	0.139
-500.653	164.433	-0.239	0.343
-499.639	72.397	0.231	-0.245
-498.624	800.000	0.042	0.120
-497.610	-200.000	0.036	-0.224
-496.595	36.623	-0.103	0.092
-495.581	-109.712	0.407	-0.087
-494.566	-165.166	-0.117	0.005
-493.551	-200.000	-0.041	0.202
-492.537	-126.912	0.242	-0.036
-491.522	168.351	-0.116	0.167
-490.508	-31.218	-0.067	0.038
-489.493	472.974	0.078	-0.178
-488.478	37.800	0.089	0.080
-487.464	-156.035	-0.111	0.007
-486.449	-108.774	0.249	-0.054
-485.435	15.914	-0.206	0.165
-484.420	-85.786	-0.087	0.028
-483.405	128.708	-0.078	0.101
-482.391	156.477	0.103	-0.144
-481.376	-81.577	0.315	-0.105
-480.362	17.642	0.119	-0.096
-479.347	271.534	0.076	-0.136
-478.332	800.000	-0.087	0.278
-477.318	114.978	0.104	0.129
-476.303	800.000	0.048	0.177
-475.289	-200.000	0.047	0.215
-474.274	-200.000	-0.018	-0.219
-473.259	800.000	-0.029	0.092
-472.245	-18.723	-0.276	0.174
-471.230	675.285	-0.039	0.103
-470.216	101.647	0.207	-0.245
-469.201	375.923	0.030	-0.061
-468.186	-200.000	-0.014	-0.169
-467.172	-200.000	0.013	-0.212
-466.157	800.000	0.103	-0.365
-465.143	0.553	0.148	-0.107
-464.128	-200.000	0.012	-0.152
-463.113	-200.000	0.004	-0.033
-462.099	-21.733	0.087	-0.054
-461.084	124.648	-0.158	-0.202
-460.070	54.599	0.150	-0.147
-459.055	402.030	-0.147	-0.314
-458.040	-62.178	0.154	-0.065
-457.026	107.180	0.070	0.084
-456.011	-200.000	-0.027	-0.146
-454.997	-74.601	-0.412	-0.151
-453.982	79.653	0.278	0.302
-452.968	-1.546	0.335	-0.239
-451.953	-130.896	-0.097	-0.013
-450.938	99.025	-0.060	0.070
-449.924	-40.039	-0.157	0.083
-448.909	316.345	-0.113	0.216
-447.895	301.125	-0.029	-0.054
-446.880	-58.167	0.384	-0.170
-445.865	190.475	-0.123	-0.187
-444.851	-200.000	0.048	-0.264
-443.836	-121.202	-0.139	0.024
-442.822	-44.107	0.156	-0.079
-441.807	-112.042	0.413	-0.084
-440.792	-47.894	-0.288	-0.141
-439.778	69.449	-0.122	-0.127
-438.763	-160.417	-0.170	0.009
-437.749	-164.724	-0.245	0.011
-436.734	430.148	0.156	-0.343
-435.719	414.879	0.234	-0.505
-434.705	602.764	0.081	-0.204
-433.690	-137.936	0.073	-0.008
-432.676	-200.000	0.016	0.149
-431.661	800.000	-0.107	-0.426
-430.646	138.275	-0.102	-0.135
-429.632	-200.000	0.014	-0.073
-428.617	800.000	0.041	-0.120
-427.603	16.201	0.120	-0.096
-426.588	291.894	0.142	-0.262
-425.573	447.171	-0.108	-0.240
-424.559	-158.426	-0.210	0.012
-423.544	318.623	-0.188	0.362
-422.530	589.089	-0.057	0.142
-421.515	66.408	-0.200	-0.206
-420.500	-163.268	0.213	-0.010
-419.486	-138.782	0.120	0.013
-418.471	-43.884	-0.112	0.057
-417.457	-191.602	-0.255	0.003
-416.442	-81.452	-0.162	-0.054
-415.428	-200.000	-0.008	-0.113
-414.413	-200.000	-0.007	-0.059
-413.398	53.671	0.053	-0.052
-412.384	135.695	-0.120	-0.158
-411.369	-60.281	0.197	-0.085
-410.355	-4.651	0.079	-0.055
-409.340	-200.000	-0.002	0.026
-408.325	-31.355	0.104	-0.059
-407.311	800.000	-0.066	-0.236
-406.296	-113.802	-0.060	-0.012
-405.282	800.000	-0.081	0.310
-404.267	-140.239	0.290	0.031
-403.252	126.233	-0.036	-0.046
-402.238	-28.743	-0.267	0.155
-401.223	-61.670	0.135	-0.057
-400.209	474.464	-0.076	0.174
-399.194	191.193	-0.180	-0.275
-398.179	158.008	-0.055	0.077
-397.165	-19.285	0.050	-0.032
-396.150	62.994	0.289	-0.293
-395.136	-118.858	-0.146	-0.026
-394.121	-200.000	0.007	-0.050
-393.106	-200.000	-0.027	-0.232
-392.092	181.525	0.159	-0.237
-391.077	-179.384	0.250	-0.006
-390.063	378.015	0.088	-0.181
-389.048	183.182	0.132	-0.197
-388.033	-200.000	-0.020	0.197
-387.019	-200.000	0.004	-0.199
-386.004	177.329	0.125	-0.185
-384.990	-200.000	0.003	-0.316
-383.975	-74.739	-0.078	0.029
-382.960	21.733	-0.110	0.090
-381.946	-59.669	0.289	0.125
-380.931	-132.273	0.218	0.029
-379.917	-95.351	0.183	0.050
-378.902	-144.833	0.012	0.001
-377.888	378.746	-0.069	0.143
-376.873	-58.340	0.263	0.116
-375.858	-102.874	-0.088	0.021
-374.844	456.840	-0.074	-0.166
-373.829	66.679	0.189	0.194
-372.815	-108.998	0.295	0.064
-371.800	394.502	-0.075	-0.158
-370.785	-200.000	-0.013	-0.086
-369.771	-200.000	-0.002	0.131
-368.756	-57.948	-0.157	-0.069
-367.742	75.337	0.123	-0.132
-366.727	-200.000	-0.063	0.303
-365.712	35.553	-0.304	-0.270
-364.698	-125.814	0.206	0.031
-363.683	-182.894	-0.149	0.003
-362.669	-200.000	0.110	0.552
-361.654	230.404	-0.188	0.310
-360.639	-200.000	0.010	0.117
-359.625	-200.000	-0.068	0.464
-358.610	84.577	0.232	0.256
-357.596	800.000	0.022	-0.086
-356.581	-15.877	-0.101	0.065
-355.566	36.551	0.201	0.179
-354.552	800.000	0.075	-0.252
-353.537	-93.260	0.420	0.118
-352.523	82.857	0.123	0.135
-351.508	324.228	0.166	-0.321
-350.493	33.836	-0.178	-0.157
-349.479	-23.380	0.062	0.038
-348.464	-200.000	0.045	-0.339
-347.450	348.526	0.092	0.183
-346.435	-83.116	-0.300	-0.098
-345.420	-13.598	-0.228	0.149
-344.406	-60.356	-0.275	0.118
-343.391	244.729	0.134	0.228
-342.377	-191.407	0.194	0.002
-341.362	-62.956	0.291	0.121
-340.348	-91.046	0.410	-0.119
-339.333	-141.447	-0.532	-0.054
-338.318	800.000	-0.047	-0.188
-337.304	-113.066	0.125	-0.025
-336.289	260.511	-0.123	0.215
-335.275	-61.607	0.303	-0.128
-334.260	319.868	-0.046	0.087
-333.245	60.824	0.095	0.095
-332.231	800.000	-0.132	0.370
-331.216	355.630	-0.074	0.149
-330.202	800.000	-0.052	-0.150
-329.187	695.388	0.065	-0.171
-328.172	-200.000	0.035	0.237
-327.158	780.869	-0.030	0.083
-326.143	117.121	0.043	0.053
-325.129	10.234	-0.228	0.175
-324.114	-80.233	0.617	0.208
-323.099	161.679	0.064	0.091
-322.085	-37.261	0.312	-0.168
-321.070	243.354	0.085	-0.144
-320.056	-200.000	-0.051	0.263
-319.041	-90.560	0.061	0.018
-318.026	-165.593	-0.171	-0.008
-317.012	136.458	0.055	0.073
-315.997	-54.630	-0.151	0.069
-314.983	-46.359	0.158	0.079
-313.968	95.388	0.150	0.173
-312.953	-69.306	-0.087	-0.034
-311.939	319.094	0.059	0.113
-310.924	12.608	-0.308	0.239
-309.910	281.385	-0.175	-0.317
-308.895	-10.524	-0.255	-0.171
-307.880	-200.000	0.021	-0.137
-306.866	-200.000	-0.051	-0.283
-305.851	-31.465	-0.160	-0.091
-304.837	-170.547	0.166	0.006
-303.822	-187.333	-0.377	-0.005
-302.807	368.454	0.085	0.174
-301.793	-172.000	0.197	0.006
-300.778	-200.000	0.003	0.271
-299.764	188.072	-0.120	0.181
-298.749	38.988	-0.099	0.089
-297.735	800.000	0.132	-0.409
-296.720	-156.383	-0.112	-0.007
-295.705	142.544	0.188	0.251
-294.691	88.921	0.187	0.210
-293.676	131.719	0.194	-0.251
-292.662	42.617	0.293	-0.269
-291.647	-3.251	-0.235	-0.165
-290.632	772.347	-0.115	-0.316
-289.618	800.000	0.061	0.190
-288.603	-107.793	-0.267	-0.059
-287.589	38.874	0.100	-0.090
-286.574	5.049	0.056	-0.041
-285.559	400.852	-0.068	-0.143
-284.545	-200.000	0.020	-0.094
-283.530	-92.706	-0.192	-0.054
-282.516	-168.992	-0.279	-0.011
-281.501	-121.716	0.253	-0.042
-280.486	800.000	-0.054	-0.165
-279.472	800.000	-0.032	-0.102
-278.457	800.000	0.042	0.167
-277.443	43.316	0.216	-0.199
-276.428	424.283	0.057	-0.123
-275.413	198.631	-0.097	0.150
-274.399	-200.000	-0.014	0.225
-273.384	800.000	0.134	0.466
-272.370	606.488	0.100	-0.251
-271.355	-200.000	0.007	-0.076
-270.340	-40.014	0.079	0.042
-269.326	66.567	0.190	-0.195
-268.311	-21.840	0.131	0.080
-267.297	61.109	-0.128	-0.128
-266.282	-3.384	-0.073	0.051
-265.267	335.796	-0.072	-0.140
-264.253	107.690	0.267	-0.320
-263.238	157.692	-0.079	0.110
-262.224	196.844	0.018	0.028
-261.209	200.094	-0.145	0.223
-260.195	629.320	0.022	0.057
-259.180	143.957	0.091	0.122
-258.165	61.833	0.222	-0.223
-257.151	-30.220	0.164	-0.094
-256.136	-200.000	-0.016	-0.203
-255.122	216.232	-0.353	-0.564
-254.107	-27.612	0.333	0.195
-253.092	134.471	0.279	0.365
-252.078	-200.000	0.044	0.410
-251.063	-94.285	0.063	0.017
-250.049	532.050	-0.020	-0.048
-249.034	-73.137	0.214	-0.079
-248.019	407.232	0.065	-0.137
-247.005	-200.000	0.002	0.318
-245.990	-45.848	0.214	-0.106
-244.976	-71.993	0.190	0.071
-243.961	9.768	0.124	-0.095
-242.946	321.527	-0.179	-0.342
-241.932	-71.192	-0.225	-0.085
-240.917	-200.000	0.032	0.202
-239.903	-200.000	-0.038	-0.216
-238.888	105.463	-0.138	0.164
-237.873	212.047	0.015	-0.024
-236.859	-49.873	0.225	0.107
-235.844	-17.085	-0.385	0.244
-234.830	-159.462	0.211	-0.012
-233.815	800.000	0.030	0.125
-232.800	-160.361	-0.371	0.020
-231.786	-23.951	0.265	0.159
-230.771	272.208	-0.021	-0.038
-229.757	800.000	0.079	0.254
-228.742	-59.436	-0.114	-0.049
-227.727	-36.077	0.284	0.155
-226.713	138.980	-0.138	0.182
-225.698	-128.660	0.522	0.074
-224.684	17.727	-0.144	0.115
-223.669	-14.666	0.095	-0.061
-222.655	42.277	-0.084	-0.077
-221.640	-200.000	0.025	0.244
-220.625	89.280	-0.047	-0.053
-219.611	-6.025	-0.287	0.197
-218.596	-200.000	-0.021	0.122
-217.582	-200.000	0.030	-0.158
-216.567	77.895	0.119	-0.127
-215.552	-200.000	-0.043	0.226
-214.538	-23.779	-0.116	0.070
-213.523	292.320	0.118	-0.216
-212.509	-21.002	-0.009	-0.005
-211.494	-2.610	-0.078	0.055
-210.479	-177.602	-0.209	0.005
-209.465	16.743	0.134	-0.107
-208.450	-200.000	0.012	0.200
-207.436	23.578	-0.308	0.254
-206.421	-94.643	-0.125	-0.034
-205.406	182.561	0.166	-0.246
-204.392	-117.961	-0.396	0.071
-203.377	-5.371	0.277	0.191
-202.363	-200.000	-0.010	0.168
-201.348	76.140	-0.161	0.171
-200.333	-200.000	-0.083	-0.384
-199.319	209.014	0.051	0.079
-198.304	-200.000	-0.060	0.323
-197.290	800.000	0.041	0.147
-196.275	443.884	0.087	-0.191
-195.260	52.059	-0.150	0.143
-194.246	6.957	-0.147	0.110
-193.231	-27.000	0.092	-0.054
-192.217	-65.227	0.297	-0.120
-191.202	-91.315	0.189	0.054
-190.187	-76.730	0.128	0.045
-189.173	-200.000	-0.028	-0.148
-188.158	-200.000	-0.006	0.206
-187.144	-24.218	-0.187	0.112
-186.129	77.315	-0.387	0.414
-185.114	506.790	-0.077	-0.179
-184.100	488.135	-0.090	0.206
-183.085	800.000	-0.117	-0.361
-182.071	46.784	0.249	0.233
-181.056	-105.683	0.083	-0.019
-180.042	36.501	-0.045	-0.040
-179.027	40.508	-0.114	-0.103
-178.012	748.549	0.068	0.185
-176.998	219.177	-0.101	0.162
-175.983	-200.000	0.032	0.161
-174.969	-173.425	-0.339	0.010
-173.954	479.261	-0.080	0.183
-172.939	-200.000	-0.050	-0.284
-171.925	800.000	-0.056	0.209
-170.910	-146.015	0.333	-0.030
-169.896	800.000	-0.024	-0.084
-168.881	752.334	-0.071	0.193
-167.866	46.683	-0.189	-0.176
-166.852	800.000	-0.088	-0.343
-165.837	-69.761	0.303	-0.116
-164.823	-147.190	0.278	0.024
-163.808	25.901	0.228	0.191
-162.793	-200.000	0.061	0.430
-161.779	-69.627	-0.104	-0.040
-160.764	-77.002	-0.328	-0.115
-159.750	800.000	0.045	-0.149
-158.735	-28.163	-0.245	0.142
-157.720	-76.211	-0.212	-0.075
-156.706	-73.223	0.246	-0.091
-155.691	-39.205	0.299	0.158
-154.677	9.867	0.222	0.169
-153.662	-178.423	-0.314	0.007
-152.647	59.134	-0.039	0.039
-151.633	136.865	0.145	-0.190
-150.618	-11.633	-0.236	0.156
-149.604	674.738	-0.067	0.173
-148.589	800.000	-0.017	-0.067
-147.574	-76.100	-0.288	0.102
-146.560	412.365	0.044	0.094
-145.545	-80.090	-0.298	0.100
-144.531	800.000	-0.032	0.101
-143.516	-78.095	0.125	-0.043
-142.502	200.533	0.125	-0.193
-141.487	242.968	0.098	0.164
-140.472	5.120	-0.091	-0.067
-139.458	-123.075	0.182	0.029
-138.443	-63.191	-0.139	0.057
-137.429	19.114	0.123	-0.099
-136.414	-54.435	0.337	0.153
-135.399	-200.000	-0.045	0.208
-134.385	-63.104	-0.255	-0.106
-133.370	553.279	-0.081	-0.194
-132.356	-200.000	-0.071	-0.456
-131.341	800.000	-0.094	0.281
-130.326	-23.832	0.210	0.126
-129.312	-110.784	0.371	-0.077
-128.297	-200.000	0.001	0.314
-127.283	156.836	-0.135	0.187
-126.268	157.907	-0.173	-0.240
-125.253	-200.000	0.001	0.127
-124.239	31.713	0.096	-0.083
-123.224	-6.702	-0.285	0.195
-122.210	-105.177	-0.293	0.067
-121.195	338.879	0.112	-0.219
