DTS Sentinel unit serial number:	SN413079Multiplexer serial number:	ORYXHardware model number:	OX4-SRSoftware version number:	ORYX F/W v4.00 Oryx Data Collector v3.7.2.0data status	okinstallation	princeton_trtdifferential loss correction	single-endedforward channel	channel 2reverse channel	N/Adate	2019/09/12time	01:25:11forward acquisition time	60.00reverse acquisition time	0.00gamma	496.2192k internal	0.2326k external	0.2326temperature offset calibration	1.0088default loss term (dB/km)	0.3790temperature slope calibration	1.0000multiplexer offset coefficient	1.0000multiplexer slope coefficient	1.0000fibre end	0.00T internal ref (°C)	32.97T ext. ref 1 (°C)	2.12T ext. ref 2 (°C)	27.92length (m)	temperature (°C)	Stokes	anti-Stokes-747.200	-165.416	0.137	-0.006
-746.185	800.000	0.134	0.433
-745.171	339.203	-0.134	0.263
-744.156	-200.000	0.036	0.223
-743.142	-87.527	0.161	-0.049
-742.127	604.778	0.033	0.083
-741.112	-53.427	-0.322	0.149
-740.098	-127.739	-0.160	0.023
-739.083	234.352	0.128	0.213
-738.069	-146.928	-0.223	-0.019
-737.054	93.196	-0.075	0.086
-736.039	-40.866	0.220	0.115
-735.025	103.441	0.101	0.120
-734.010	441.608	-0.070	0.155
-732.996	-126.095	-0.386	0.058
-731.981	44.999	0.067	0.062
-730.966	-89.701	0.066	-0.019
-729.952	160.201	-0.137	-0.193
-728.937	40.546	-0.124	0.113
-727.923	108.705	-0.165	0.199
-726.908	49.156	0.151	-0.143
-725.894	-123.080	0.199	0.032
-724.879	-157.654	0.112	0.007
-723.864	156.317	0.073	0.102
-722.850	800.000	-0.123	0.441
-721.835	-51.295	0.309	-0.146
-720.821	17.643	-0.186	-0.149
-719.806	216.432	-0.138	0.222
-718.791	765.867	0.020	-0.055
-717.777	-146.780	-0.071	0.006
-716.762	-200.000	0.015	-0.206
-715.748	-200.000	0.068	0.405
-714.733	-189.925	0.056	0.001
-713.718	535.553	0.136	0.324
-712.704	800.000	-0.084	-0.244
-711.689	494.919	0.043	-0.100
-710.675	-20.864	-0.198	-0.122
-709.660	22.075	-0.200	0.164
-708.645	-200.000	-0.008	-0.202
-707.631	-61.037	0.045	-0.019
-706.616	-5.778	-0.233	-0.161
-705.602	-200.000	0.022	-0.169
-704.587	36.813	-0.239	0.212
-703.572	-139.168	0.218	0.024
-702.558	-200.000	-0.103	0.520
-701.543	-42.660	0.073	0.037
-700.529	4.697	0.237	-0.175
-699.514	-28.385	0.070	0.041
-698.499	-90.315	-0.151	0.044
-697.485	5.750	0.206	-0.153
-696.470	-200.000	0.052	0.368
-695.456	-200.000	0.015	0.086
-694.441	157.217	0.189	0.263
-693.426	-135.538	0.188	0.022
-692.412	-49.213	0.117	0.056
-691.397	800.000	0.033	-0.101
-690.383	-200.000	-0.064	0.288
-689.368	-18.210	-0.158	-0.100
-688.354	-200.000	0.018	-0.132
-687.339	-40.406	0.216	-0.113
-686.324	4.302	-0.073	-0.053
-685.310	43.939	-0.209	0.193
-684.295	-200.000	-0.026	0.243
-683.281	680.449	0.109	0.285
-682.266	215.459	0.154	-0.246
-681.251	144.240	0.030	-0.040
-680.237	-160.581	-0.289	-0.016
-679.222	188.489	0.072	-0.109
-678.208	-69.069	0.137	0.053
-677.193	269.974	0.050	-0.088
-676.178	51.580	-0.113	-0.109
-675.164	-97.953	-0.160	0.041
-674.149	-200.000	-0.047	0.362
-673.135	-200.000	0.023	0.224
-672.120	-200.000	-0.048	-0.260
-671.105	66.707	-0.043	0.044
-670.091	16.430	-0.188	-0.149
-669.076	-13.967	-0.094	-0.061
-668.062	-15.425	0.065	-0.042
-667.047	403.078	-0.085	0.180
-666.032	35.729	-0.078	-0.069
-665.018	-200.000	-0.008	-0.323
-664.003	-200.000	0.062	-0.289
-662.989	303.847	-0.149	-0.277
-661.974	-135.080	-0.337	0.041
-660.959	-200.000	-0.059	-0.272
-659.945	235.226	-0.085	-0.142
-658.930	-200.000	0.059	-0.349
-657.916	-27.338	0.161	0.094
-656.901	118.768	-0.082	0.102
-655.886	800.000	-0.041	0.135
-654.872	362.450	-0.057	-0.115
-653.857	-200.000	0.026	0.217
-652.843	-144.892	0.204	-0.019
-651.828	761.793	0.037	-0.102
-650.814	800.000	-0.097	0.278
-649.799	449.581	-0.174	0.386
-648.784	391.477	-0.105	-0.220
-647.770	-109.122	0.399	0.085
-646.755	198.610	-0.150	-0.231
-645.741	-131.250	0.470	-0.063
-644.726	231.568	0.106	-0.174
-643.711	132.587	0.091	-0.118
-642.697	47.413	0.204	-0.191
-641.682	361.990	0.138	0.278
-640.668	-200.000	0.011	0.271
-639.653	-200.000	-0.070	-0.413
-638.638	800.000	0.059	-0.223
-637.624	200.374	-0.020	-0.031
-636.609	-48.734	0.193	-0.093
-635.595	-124.166	-0.135	-0.021
-634.580	-123.687	0.273	-0.044
-633.565	-95.732	-0.199	0.053
-632.551	-95.788	-0.245	0.066
-631.536	253.221	0.192	-0.328
-630.522	258.717	0.050	0.086
-629.507	-4.633	0.285	0.198
-628.492	-123.791	-0.333	-0.053
-627.478	800.000	-0.089	-0.340
-626.463	-30.922	-0.151	-0.086
-625.449	181.422	0.096	-0.142
-624.434	-168.913	-0.340	-0.013
-623.419	-200.000	-0.013	-0.197
-622.405	-136.578	-0.391	-0.045
-621.390	165.223	0.125	-0.177
-620.376	-113.742	-0.128	-0.025
-619.361	-106.980	-0.127	-0.028
-618.346	-200.000	-0.003	0.116
-617.332	14.487	-0.215	0.168
-616.317	86.210	-0.175	-0.194
-615.303	-200.000	0.010	-0.251
-614.288	-200.000	0.059	-0.314
-613.273	-200.000	-0.090	0.423
-612.259	-114.811	0.311	0.060
-611.244	-114.243	0.113	0.022
-610.230	-72.285	-0.205	-0.076
-609.215	-77.043	-0.453	-0.158
-608.201	-200.000	-0.075	-0.343
-607.186	-104.430	0.211	-0.049
-606.171	-95.893	-0.259	-0.069
-605.157	-37.288	-0.029	0.016
-604.142	35.448	-0.188	0.166
-603.128	742.267	0.058	-0.155
-602.113	92.025	-0.177	-0.200
-601.098	-44.428	0.297	-0.149
-600.084	-200.000	-0.034	-0.171
-599.069	-58.858	-0.198	0.086
-598.055	26.321	-0.374	0.314
-597.040	-58.177	0.466	-0.204
-596.025	375.715	0.061	0.125
-595.011	-61.897	0.183	0.077
-593.996	-178.946	0.238	-0.005
-592.982	-86.800	-0.291	0.089
-591.967	-22.694	-0.455	0.275
-590.952	800.000	0.075	0.261
-589.938	201.391	-0.127	0.196
-588.923	61.078	0.165	0.164
-587.909	224.135	0.221	-0.358
-586.894	41.577	0.131	-0.119
-585.879	-200.000	0.002	0.036
-584.865	-32.024	-0.131	-0.073
-583.850	81.195	-0.312	-0.338
-582.836	800.000	-0.017	-0.064
-581.821	-120.994	0.323	-0.054
-580.806	453.821	-0.134	-0.297
-579.792	-151.067	0.302	-0.023
-578.777	800.000	-0.011	0.038
-577.763	265.782	0.088	0.153
-576.748	-48.651	0.053	-0.025
-575.733	-67.727	0.280	0.110
-574.719	-143.160	-0.037	0.004
-573.704	-200.000	0.005	-0.206
-572.690	412.503	-0.194	-0.413
-571.675	90.874	0.280	0.315
-570.661	117.182	0.161	-0.198
-569.646	305.814	-0.135	-0.252
-568.631	104.489	-0.097	0.115
-567.617	-63.438	-0.278	0.114
-566.602	-24.047	-0.028	-0.017
-565.588	107.578	-0.039	-0.046
-564.573	-71.996	0.407	0.152
-563.558	-65.421	-0.287	0.116
-562.544	-46.080	0.247	0.122
-561.529	-129.294	0.101	-0.014
-560.515	800.000	-0.053	-0.155
-559.500	334.769	-0.172	-0.334
-558.485	-23.450	0.221	-0.133
-557.471	25.851	-0.058	0.048
-556.456	-28.039	0.241	-0.140
-555.442	800.000	0.029	0.113
-554.427	-28.373	0.232	0.134
-553.412	-95.353	-0.189	0.051
-552.398	-153.627	-0.167	-0.012
-551.383	302.455	-0.075	-0.138
-550.369	585.055	-0.148	0.364
-549.354	-200.000	0.031	0.375
-548.339	34.476	0.156	-0.137
-547.325	-200.000	-0.001	0.244
-546.310	800.000	0.044	0.159
-545.296	421.815	-0.041	-0.088
-544.281	-25.949	-0.056	0.033
-543.266	-74.512	0.154	0.056
-542.252	-35.688	0.134	0.073
-541.237	323.896	0.131	-0.250
-540.223	800.000	-0.075	0.211
-539.208	357.642	-0.233	0.464
-538.193	-68.875	-0.021	-0.008
-537.179	153.702	-0.327	-0.448
-536.164	-200.000	0.008	-0.195
-535.150	-126.103	-0.205	-0.031
-534.135	800.000	-0.082	-0.259
-533.121	19.949	-0.142	0.114
-532.106	23.315	0.045	-0.037
-531.091	11.620	0.229	0.176
-530.077	-200.000	-0.003	-0.127
-529.062	-153.290	0.175	-0.012
-528.048	-186.035	-0.048	-0.001
-527.033	270.334	0.084	0.148
-526.018	-90.609	-0.073	-0.021
-525.004	27.948	0.146	-0.123
-523.989	148.815	0.167	-0.225
-522.975	-88.370	0.437	0.131
-521.960	-200.000	0.037	0.175
-520.945	77.906	-0.178	0.189
-519.931	231.366	0.091	0.149
-518.916	48.860	0.066	0.062
-517.902	800.000	-0.062	0.194
-516.887	715.648	0.045	0.120
-515.872	23.037	0.239	0.196
-514.858	241.654	-0.239	-0.399
-513.843	-122.881	-0.318	-0.051
-512.829	-175.355	0.155	0.004
-511.814	406.135	0.083	-0.176
-510.799	345.346	-0.073	0.142
-509.785	-102.210	-0.415	-0.100
-508.770	-200.000	0.014	0.197
-507.756	-54.900	-0.315	-0.142
-506.741	-30.767	0.111	0.063
-505.726	-161.325	0.153	0.008
-504.712	41.262	0.057	0.052
-503.697	100.772	-0.187	0.217
-502.683	235.284	-0.119	-0.196
-501.668	-101.660	0.125	0.030
-500.653	-121.524	0.133	-0.022
-499.639	800.000	-0.022	0.066
-498.624	-101.489	-0.301	0.073
-497.610	800.000	0.077	-0.307
-496.595	-51.027	-0.286	0.134
-495.581	35.193	-0.156	0.136
-494.566	-200.000	0.067	0.329
-493.551	-71.182	-0.128	-0.048
-492.537	-64.033	0.089	-0.036
-491.522	800.000	-0.090	0.323
-490.508	-27.096	0.154	0.090
-489.493	36.478	-0.117	-0.103
-488.478	733.584	0.122	0.326
-487.464	638.541	0.114	-0.290
-486.449	-64.895	0.083	-0.033
-485.435	10.757	-0.317	-0.242
-484.420	-84.454	0.171	-0.054
-483.405	-200.000	0.020	0.198
-482.391	-200.000	0.007	0.086
-481.376	-149.318	-0.092	0.007
-480.362	-200.000	0.004	0.043
-479.347	-8.673	-0.009	-0.006
-478.332	163.620	-0.301	0.422
-477.318	-115.222	0.133	-0.025
-476.303	746.963	0.118	0.318
-475.289	-5.068	0.187	0.129
-474.274	238.427	0.176	-0.292
-473.259	315.757	0.166	0.312
-472.245	800.000	-0.113	0.339
-471.230	23.733	0.075	-0.062
-470.216	800.000	0.089	-0.250
-469.201	50.625	0.183	-0.173
-468.186	-200.000	0.007	-0.117
-467.172	-200.000	0.042	-0.251
-466.157	-19.053	-0.245	-0.152
-465.143	-45.047	-0.363	0.180
-464.128	-38.599	-0.175	0.092
-463.113	4.666	-0.337	0.247
-462.099	110.725	0.169	-0.203
-461.084	-166.360	-0.043	0.002
-460.070	-98.723	-0.186	-0.047
-459.055	277.385	-0.143	-0.254
-458.040	251.598	-0.119	0.201
-457.026	800.000	-0.106	0.312
-456.011	-89.940	-0.066	0.019
-454.997	110.343	-0.178	-0.213
-453.982	161.381	-0.323	-0.450
-452.968	-140.937	-0.111	-0.011
-451.953	305.763	0.072	-0.133
-450.938	519.026	0.003	0.007
-449.924	-71.153	-0.157	0.059
-448.909	800.000	-0.047	0.160
-447.895	-200.000	0.002	0.108
-446.880	152.701	-0.190	0.259
-445.865	-200.000	-0.012	0.120
-444.851	800.000	-0.051	0.161
-443.836	-135.222	-0.243	0.029
-442.822	16.968	0.020	-0.016
-441.807	-94.602	-0.203	-0.055
-440.792	800.000	0.021	0.069
-439.778	-200.000	0.018	0.138
-438.763	235.601	-0.142	-0.234
-437.749	94.091	0.147	-0.166
-436.734	109.761	-0.331	0.396
-435.719	-106.090	-0.159	-0.035
-434.705	346.740	-0.084	0.166
-433.690	-97.851	0.117	0.030
-432.676	7.754	-0.155	-0.115
-431.661	140.844	-0.161	-0.212
-430.646	88.926	0.086	-0.095
-429.632	-200.000	0.022	0.103
-428.617	42.398	-0.090	0.081
-427.603	-200.000	0.028	0.183
-426.588	800.000	0.063	0.175
-425.573	114.757	0.121	0.148
-424.559	-200.000	-0.009	-0.131
-423.544	118.527	-0.052	-0.064
-422.530	-76.500	-0.100	0.035
-421.515	800.000	0.082	0.257
-420.500	-200.000	0.044	0.259
-419.486	800.000	0.005	0.021
-418.471	-111.629	0.462	0.093
-417.457	-30.466	0.283	-0.160
-416.442	-114.862	-0.048	-0.009
-415.428	-146.868	0.148	0.013
-414.413	377.450	-0.121	-0.245
-413.398	-110.824	0.193	-0.040
-412.384	-101.976	0.216	-0.052
-411.369	11.239	0.104	0.079
-410.355	431.974	0.031	0.067
-409.340	-40.224	0.280	0.145
-408.325	-134.662	-0.196	0.024
-407.311	-121.859	0.252	-0.041
-406.296	46.033	-0.173	-0.159
-405.282	109.461	0.131	-0.156
-404.267	504.304	-0.187	-0.432
-403.252	-139.970	0.163	0.017
-402.238	-53.739	0.281	-0.127
-401.223	-109.653	-0.276	0.058
-400.209	114.098	-0.125	0.152
-399.194	800.000	-0.067	-0.187
-398.179	53.153	-0.163	0.156
-397.165	-200.000	-0.071	0.347
-396.150	-200.000	0.027	0.194
-395.136	-200.000	0.040	-0.274
-394.121	140.105	-0.124	-0.163
-393.106	-151.378	0.051	-0.004
-392.092	11.897	-0.209	-0.160
-391.077	325.868	-0.084	-0.159
-390.063	189.079	-0.089	-0.132
-389.048	-26.980	0.318	-0.185
-388.033	-44.278	-0.237	0.118
-387.019	-22.157	-0.109	0.066
-386.004	-59.675	0.011	0.005
-384.990	-200.000	-0.003	-0.163
-383.975	-29.805	0.349	0.198
-382.960	-8.435	0.299	0.200
-381.946	-89.251	0.094	0.027
-380.931	212.433	0.179	0.281
-379.917	-16.239	-0.307	0.194
-378.902	-43.064	0.206	0.104
-377.888	-26.291	-0.084	-0.049
-376.873	-200.000	0.011	0.133
-375.858	-200.000	0.054	0.261
-374.844	-129.640	-0.184	0.025
-373.829	152.598	0.094	-0.128
-372.815	-131.890	0.238	0.031
-371.800	176.755	0.180	-0.260
-370.785	185.639	-0.187	0.277
-369.771	-68.579	0.366	-0.141
-368.756	-31.819	0.312	0.174
-367.742	145.017	0.075	-0.099
-366.727	-196.300	-0.275	0.002
-365.712	-45.082	0.105	0.052
-364.698	143.056	0.148	0.196
-363.683	-200.000	-0.314	-0.001
-362.669	-200.000	-0.047	-0.259
-361.654	-200.000	0.040	0.268
-360.639	50.816	0.221	-0.208
-359.625	-58.158	-0.079	-0.034
-358.610	-128.980	-0.468	-0.065
-357.596	-174.383	-0.128	-0.004
-356.581	-42.504	-0.211	-0.107
-355.566	6.674	0.239	0.177
-354.552	-64.280	0.333	-0.135
-353.537	-200.000	0.031	0.180
-352.523	-84.955	-0.206	-0.064
-351.508	-68.457	0.148	0.057
-350.493	-144.697	-0.134	-0.012
-349.479	-85.615	-0.184	-0.057
-348.464	-200.000	-0.023	-0.225
-347.450	-200.000	-0.064	0.368
-346.435	230.871	0.117	0.190
-345.420	420.645	-0.173	-0.368
-344.406	800.000	-0.049	-0.182
-343.391	-60.211	-0.150	-0.064
-342.377	-80.987	-0.231	-0.076
-341.362	117.467	0.149	0.182
-340.348	-123.900	-0.226	-0.035
-339.333	-200.000	0.024	0.267
-338.318	384.983	0.123	0.252
-337.304	-200.000	0.015	0.085
-336.289	-138.538	0.188	-0.021
-335.275	-49.874	0.216	0.102
-334.260	107.151	0.130	0.154
-333.245	-61.864	-0.185	0.077
-332.231	-122.928	-0.047	-0.007
-331.216	14.432	0.157	-0.122
-330.202	98.563	-0.102	0.116
-329.187	13.893	-0.317	0.245
-328.172	-107.701	0.197	-0.043
-327.158	800.000	-0.097	-0.381
-326.143	-177.318	-0.202	-0.005
-325.129	-200.000	-0.007	-0.055
-324.114	800.000	0.029	0.092
-323.099	-200.000	0.023	-0.426
-322.085	34.914	0.227	-0.197
-321.070	32.303	0.144	0.123
-320.056	65.116	-0.347	-0.348
-319.041	-89.693	0.239	-0.070
-318.026	-113.046	0.191	-0.037
-317.012	-200.000	-0.032	0.248
-315.997	-200.000	0.022	0.125
-314.983	553.469	-0.123	-0.293
-313.968	-115.952	0.262	0.048
-312.953	-200.000	-0.005	-0.173
-311.939	259.053	-0.150	-0.256
-310.924	-72.687	-0.307	-0.112
-309.910	195.682	0.138	0.208
-308.895	-200.000	-0.035	0.290
-307.880	800.000	-0.027	0.110
-306.866	-89.975	0.129	-0.037
-305.851	-67.013	0.015	-0.006
-304.837	52.112	-0.070	0.066
-303.822	-200.000	-0.031	-0.464
-302.807	51.199	0.209	-0.197
-301.793	-109.263	0.197	0.041
-300.778	106.804	0.040	0.047
-299.764	-82.528	-0.184	-0.059
-298.749	-62.899	-0.305	0.125
-297.735	-8.167	-0.196	-0.131
-296.720	-40.348	0.233	0.120
-295.705	-200.000	0.004	0.079
-294.691	-200.000	0.004	0.092
-293.676	37.251	-0.216	0.190
-292.662	11.549	-0.122	0.092
-291.647	158.757	-0.215	-0.296
-290.632	-6.831	0.110	0.074
-289.618	-200.000	-0.026	0.376
-288.603	-105.363	0.386	0.087
-287.589	282.017	0.187	0.333
-286.574	-96.391	0.078	0.021
-285.559	-83.434	0.329	0.104
-284.545	-88.388	0.199	0.059
-283.530	-200.000	0.022	0.133
-282.516	448.680	-0.086	0.187
-281.501	142.686	0.145	-0.191
-280.486	-200.000	0.367	0.002
-279.472	13.826	-0.156	0.120
-278.457	-123.619	-0.088	-0.014
-277.443	60.382	-0.113	0.111
-276.428	-139.733	-0.259	-0.027
-275.413	82.635	0.124	-0.134
-274.399	203.230	-0.040	0.061
-273.384	-200.000	-0.052	0.236
-272.370	-144.142	-0.066	0.006
-271.355	-4.012	0.416	0.286
-270.340	415.704	-0.132	0.279
-269.326	-130.473	-0.124	0.017
-268.311	-32.457	0.391	-0.216
-267.297	98.204	0.149	-0.169
-266.282	-98.520	-0.280	-0.071
-265.267	20.277	-0.099	0.079
-264.253	-200.000	0.044	0.277
-263.238	216.208	-0.059	-0.093
-262.224	-200.000	0.036	0.210
-261.209	-15.486	-0.162	-0.103
-260.195	-18.095	0.129	-0.080
-259.180	312.020	0.233	0.432
-258.165	200.758	-0.149	0.227
-257.151	225.812	-0.029	-0.046
-256.136	749.985	-0.089	-0.238
-255.122	-134.373	0.135	-0.016
-254.107	800.000	0.041	0.139
-253.092	159.671	-0.163	-0.225
-252.078	101.460	0.074	-0.085
-251.063	156.896	-0.015	0.021
-250.049	-8.643	0.372	-0.247
-249.034	-62.316	-0.055	-0.023
-248.019	40.171	-0.038	-0.034
-247.005	-200.000	-0.045	-0.211
-245.990	26.992	-0.059	0.049
-244.976	-55.979	-0.420	-0.185
-243.961	-92.882	-0.286	-0.079
-242.946	-200.000	-0.089	0.416
-241.932	800.000	-0.053	0.167
-240.917	-76.960	-0.132	0.045
-239.903	-54.165	0.145	0.065
-238.888	0.914	0.260	-0.185
-237.873	-200.000	0.010	-0.232
-236.859	-200.000	-0.009	-0.065
-235.844	-49.296	-0.310	-0.146
-234.830	140.139	0.048	0.062
-233.815	-66.557	-0.320	0.126
-232.800	-56.823	0.203	-0.089
-231.786	26.803	-0.145	0.120
-230.771	-152.154	-0.073	-0.005
-229.757	343.683	0.231	-0.447
-228.742	-115.667	0.167	-0.031
-227.727	-94.038	-0.101	0.027
-226.713	-200.000	0.059	-0.266
-225.698	262.189	-0.175	-0.300
-224.684	200.887	0.127	-0.193
-223.669	377.673	-0.120	-0.242
-222.655	800.000	0.103	-0.335
-221.640	518.665	0.081	-0.187
-220.625	-15.843	-0.104	-0.066
-219.611	-135.789	-0.157	-0.018
-218.596	47.212	-0.156	0.143
-217.582	-95.717	-0.217	-0.057
-216.567	800.000	0.090	-0.315
-215.552	-140.873	0.249	-0.025
-214.538	-39.764	-0.134	0.069
-213.523	-76.767	-0.256	-0.088
-212.509	-200.000	0.003	0.032
-211.494	188.354	0.122	0.181
-210.479	800.000	0.084	0.253
-209.465	-53.083	0.311	-0.141
-208.450	50.070	0.091	-0.085
-207.436	-200.000	0.040	0.176
-206.421	36.172	-0.167	0.145
-205.406	-200.000	-0.016	0.171
-204.392	800.000	-0.112	-0.435
-203.377	98.991	-0.170	-0.193
-202.363	-44.233	-0.124	-0.061
-201.348	147.812	0.029	-0.039
-200.333	95.330	0.154	0.173
-199.319	105.661	0.177	0.207
-198.304	-88.526	0.248	0.073
-197.290	-54.325	0.329	-0.147
-196.275	-200.000	0.118	-0.555
-195.260	-90.775	0.062	-0.018
-194.246	-119.014	0.194	0.033
-193.231	-24.547	-0.054	0.032
-192.217	800.000	-0.050	-0.170
-191.202	-100.439	-0.128	-0.031
-190.187	214.290	0.064	0.100
-189.173	-200.000	-0.011	-0.179
-188.158	-20.365	0.051	-0.031
-187.144	126.605	0.103	0.128
-186.129	-13.473	0.192	0.123
-185.114	-49.780	-0.071	0.033
-184.100	-200.000	-0.013	-0.069
-183.085	326.223	0.109	-0.206
-182.071	33.424	0.218	0.187
-181.056	-200.000	0.024	0.265
-180.042	325.585	0.098	0.185
-179.027	-7.568	-0.052	-0.035
-178.012	452.685	-0.070	0.153
-176.998	395.534	-0.104	0.215
-175.983	-189.011	0.208	0.002
-174.969	-200.000	0.007	-0.105
-173.954	-131.757	0.299	-0.039
-172.939	6.428	0.194	0.142
-171.925	800.000	0.059	0.202
-170.910	-56.027	0.241	0.106
-169.896	83.966	0.090	0.097
-168.881	800.000	-0.034	0.100
-167.866	92.704	-0.065	-0.072
-166.852	-21.756	-0.149	-0.089
-165.837	324.512	0.162	0.305
-164.823	-66.300	0.077	0.030
-163.808	216.055	0.174	-0.273
-162.793	-18.746	-0.147	-0.091
-161.779	9.246	-0.196	-0.146
-160.764	-200.000	0.015	0.091
-159.750	-200.000	-0.053	0.369
-158.735	-41.688	0.022	-0.011
-157.720	-200.000	-0.037	0.204
-156.706	-200.000	0.029	0.266
-155.691	-10.387	-0.330	0.216
-154.677	-44.781	0.178	-0.088
-153.662	232.607	0.135	-0.218
-152.647	-48.645	0.331	-0.157
-151.633	800.000	-0.108	-0.415
-150.618	-65.896	0.227	-0.090
-149.604	-61.283	0.129	0.053
-148.589	102.710	0.087	0.100
-147.574	-133.281	0.279	0.035
-146.560	427.128	-0.188	0.399
-145.545	-56.990	0.077	-0.033
-144.531	-18.281	-0.110	0.068
-143.516	-87.176	0.446	-0.134
-142.502	-200.000	-0.058	0.382
-141.487	-122.116	-0.110	-0.018
-140.472	76.953	-0.273	-0.285
-139.458	-75.394	0.563	-0.198
-138.443	-144.472	0.241	0.022
-137.429	-131.569	0.290	0.038
-136.414	-3.781	0.366	-0.250
-135.399	-200.000	0.025	0.129
-134.385	-76.315	-0.168	-0.058
-133.370	-58.525	0.371	0.159
-132.356	-200.000	0.006	0.361
-131.341	-145.479	-0.132	0.012
-130.326	-5.754	-0.157	-0.106
-129.312	108.987	-0.348	0.410
-128.297	103.118	-0.215	0.248
-127.283	-130.715	-0.257	0.034
-126.268	-132.623	-0.333	-0.042
-125.253	-200.000	0.059	0.412
-124.239	-111.344	0.331	0.066
-123.224	-200.000	0.018	-0.110
-122.210	489.075	-0.039	0.088
-121.195	196.741	0.085	0.127
