DTS Sentinel unit serial number:	SN413079Multiplexer serial number:	ORYXHardware model number:	OX4-SRSoftware version number:	ORYX F/W v4.00 Oryx Data Collector v3.7.2.0data status	okinstallation	princeton_trtdifferential loss correction	single-endedforward channel	channel 2reverse channel	N/Adate	2019/09/11time	00:57:11forward acquisition time	60.00reverse acquisition time	0.00gamma	496.2192k internal	0.2332k external	0.2332temperature offset calibration	0.9943default loss term (dB/km)	0.3790temperature slope calibration	1.0000multiplexer offset coefficient	1.0000multiplexer slope coefficient	1.0000fibre end	0.00T internal ref (°C)	29.14T ext. ref 1 (°C)	-0.30T ext. ref 2 (°C)	22.92length (m)	temperature (°C)	Stokes	anti-Stokes-747.200	-200.000	-0.006	0.134
-746.185	-141.975	0.276	0.028
-745.171	-200.000	0.011	0.250
-744.156	161.002	-0.066	0.093
-743.142	-200.000	-0.008	0.091
-742.127	800.000	-0.084	0.266
-741.112	527.773	-0.055	-0.131
-740.098	-104.998	-0.266	0.061
-739.083	31.917	0.156	-0.135
-738.069	244.622	0.192	-0.324
-737.054	-200.000	0.046	-0.331
-736.039	-0.301	-0.165	-0.118
-735.025	162.563	0.097	0.137
-734.010	-138.758	-0.333	0.037
-732.996	30.396	0.320	-0.275
-731.981	-162.655	-0.346	-0.017
-730.966	608.529	0.064	-0.162
-729.952	651.608	-0.131	-0.338
-728.937	800.000	-0.049	-0.184
-727.923	-85.347	-0.209	0.066
-726.908	371.822	0.075	-0.152
-725.894	239.855	0.036	0.060
-724.879	29.399	-0.061	0.052
-723.864	800.000	-0.035	0.123
-722.850	800.000	-0.023	0.092
-721.835	-4.925	-0.091	-0.063
-720.821	-50.299	0.114	-0.054
-719.806	-200.000	0.024	0.222
-718.791	-200.000	-0.012	0.150
-717.777	-13.456	0.248	0.162
-716.762	148.418	-0.022	0.030
-715.748	800.000	0.038	0.110
-714.733	800.000	-0.042	-0.184
-713.718	647.987	-0.105	-0.270
-712.704	51.483	-0.249	-0.238
-711.689	-78.006	0.142	0.049
-710.675	-1.222	0.286	-0.203
-709.660	-200.000	-0.193	-0.000
-708.645	-11.618	-0.016	0.011
-707.631	-31.953	-0.118	-0.066
-706.616	-86.690	-0.197	0.061
-705.602	-200.000	-0.007	0.102
-704.587	-61.240	0.061	0.026
-703.572	-200.000	0.035	0.187
-702.558	-200.000	-0.035	0.355
-701.543	597.045	0.138	-0.343
-700.529	-35.162	0.198	-0.108
-699.514	-200.000	0.027	-0.301
-698.499	800.000	0.028	0.117
-697.485	-79.787	-0.157	0.053
-696.470	-200.000	0.014	-0.092
-695.456	-200.000	0.032	-0.299
-694.441	800.000	-0.041	-0.150
-693.426	158.245	0.185	0.258
-692.412	-200.000	0.006	-0.320
-691.397	-97.916	0.068	0.018
-690.383	144.464	-0.030	0.041
-689.368	-110.446	-0.374	-0.078
-688.354	483.649	-0.045	-0.103
-687.339	-47.501	0.178	-0.087
-686.324	-42.198	0.311	-0.159
-685.310	-50.120	-0.384	-0.182
-684.295	178.528	0.105	-0.153
-683.281	-200.000	-0.014	0.126
-682.266	153.879	-0.319	0.440
-681.251	-7.379	-0.120	-0.081
-680.237	-137.820	-0.413	-0.046
-679.222	-38.324	0.242	0.129
-678.208	-47.531	-0.324	-0.158
-677.193	566.048	0.124	-0.301
-676.178	11.474	-0.229	-0.176
-675.164	239.248	0.163	-0.273
-674.149	0.018	-0.184	0.131
-673.135	800.000	0.054	-0.227
-672.120	-162.561	0.098	0.005
-671.105	-133.645	0.179	0.022
-670.091	-64.205	-0.280	-0.114
-669.076	523.251	0.018	-0.043
-668.062	-141.161	0.316	-0.032
-667.047	74.850	-0.082	-0.087
-666.032	53.270	0.196	-0.189
-665.018	-60.307	0.088	-0.037
-664.003	-13.889	-0.131	0.085
-662.989	-200.000	-0.035	-0.215
-661.974	783.553	-0.044	-0.120
-660.959	223.941	0.107	0.173
-659.945	-114.466	-0.149	-0.029
-658.930	166.769	0.158	0.225
-657.916	-200.000	-0.019	0.132
-656.901	-135.238	0.237	-0.029
-655.886	800.000	0.040	0.154
-654.872	-158.848	0.224	-0.013
-653.857	20.236	-0.351	0.284
-652.843	-200.000	-0.053	-0.237
-651.828	-200.000	-0.013	-0.104
-650.814	74.453	-0.170	0.179
-649.799	-122.830	0.298	0.048
-648.784	-61.895	-0.177	0.074
-647.770	-200.000	-0.028	0.131
-646.755	-162.431	0.417	0.021
-645.741	-124.086	-0.153	-0.024
-644.726	83.096	0.202	-0.220
-643.711	-160.989	-0.212	-0.011
-642.697	-200.000	0.029	-0.143
-641.682	618.429	-0.056	-0.142
-640.668	-2.260	-0.217	-0.153
-639.653	-33.685	0.099	-0.055
-638.638	-12.062	0.179	0.117
-637.624	321.646	0.148	0.283
-636.609	-71.744	-0.267	0.100
-635.595	54.627	-0.076	0.073
-634.580	-113.820	-0.056	0.011
-633.565	-62.293	0.110	0.046
-632.551	-181.550	0.241	0.005
-631.536	278.868	-0.065	0.116
-630.522	-52.494	0.144	0.067
-629.507	-153.718	0.096	0.007
-628.492	-113.514	-0.289	0.057
-627.478	28.972	-0.382	-0.325
-626.463	757.925	0.023	-0.062
-625.449	-104.761	-0.293	0.068
-624.434	-97.633	0.119	0.031
-623.419	-200.000	0.013	-0.161
-622.405	-30.932	-0.171	-0.097
-621.390	16.334	0.083	0.066
-620.376	379.994	0.020	0.040
-619.361	-95.380	-0.264	0.071
-618.346	52.164	-0.160	0.153
-617.332	-41.635	0.355	-0.182
-616.317	18.141	0.158	-0.126
-615.303	159.333	0.021	-0.030
-614.288	443.497	0.127	-0.279
-613.273	-19.336	0.232	0.144
-612.259	-157.481	0.410	-0.025
-611.244	-179.740	-0.256	-0.006
-610.230	-200.000	-0.025	-0.142
-609.215	-170.433	0.260	-0.009
-608.201	79.576	0.086	0.092
-607.186	506.989	-0.061	0.142
-606.171	-139.117	-0.105	0.011
-605.157	-82.690	-0.346	0.112
-604.142	-200.000	-0.036	-0.231
-603.128	-200.000	-0.023	-0.102
-602.113	113.739	-0.075	-0.091
-601.098	-200.000	0.002	-0.081
-600.084	-25.278	-0.296	0.176
-599.069	-18.446	0.074	-0.046
-598.055	306.963	0.169	-0.314
-597.040	207.628	-0.189	-0.296
-596.025	-200.000	0.014	0.130
-595.011	723.696	-0.071	-0.189
-593.996	-51.644	-0.107	-0.050
-592.982	-10.450	-0.361	-0.240
-591.967	-39.538	-0.294	-0.154
-590.952	-200.000	0.024	0.317
-589.938	-112.527	0.267	0.053
-588.923	-200.000	-0.009	0.225
-587.909	-124.910	0.215	-0.033
-586.894	338.879	-0.060	-0.116
-585.879	-43.848	0.224	-0.113
-584.865	606.255	-0.148	0.368
-583.850	156.351	0.081	-0.112
-582.836	-118.408	-0.313	-0.056
-581.821	104.952	0.231	0.272
-580.806	60.078	-0.068	0.067
-579.792	17.301	0.325	0.258
-578.777	-103.623	0.245	0.057
-577.763	-200.000	-0.008	-0.157
-576.748	-200.000	-0.004	0.028
-575.733	96.936	0.283	0.324
-574.719	-121.726	-0.208	0.034
-573.704	-33.261	-0.294	-0.163
-572.690	-70.150	0.173	0.066
-571.675	452.028	0.103	-0.228
-570.661	-81.330	0.181	-0.060
-569.646	-200.000	0.000	0.082
-568.631	154.935	-0.175	-0.241
-567.617	-67.494	-0.198	-0.077
-566.602	800.000	0.089	0.334
-565.588	-200.000	-0.071	0.330
-564.573	-72.567	0.122	0.045
-563.558	-160.662	0.121	-0.006
-562.544	-42.533	0.195	0.099
-561.529	-96.697	-0.220	0.058
-560.515	-80.017	0.222	0.074
-559.500	161.121	-0.084	0.117
-558.485	297.040	0.114	0.210
-557.471	-73.111	-0.277	-0.102
-556.456	-62.242	0.228	-0.095
-555.442	48.156	0.091	-0.085
-554.427	7.893	-0.252	0.188
-553.412	204.147	-0.211	0.327
-552.398	-200.000	-0.071	-0.332
-551.383	141.333	0.098	-0.130
-550.369	52.940	0.192	0.184
-549.354	166.619	-0.104	0.148
-548.339	-200.000	0.036	0.254
-547.325	123.463	-0.249	-0.312
-546.310	800.000	-0.071	-0.206
-545.296	-81.866	-0.281	-0.092
-544.281	-107.453	-0.085	-0.019
-543.266	-47.866	-0.096	-0.046
-542.252	104.930	-0.109	-0.128
-541.237	800.000	0.078	0.221
-540.223	-167.420	0.358	0.014
-539.208	191.439	0.230	-0.346
-538.193	73.576	-0.161	-0.168
-537.179	-40.118	-0.402	0.209
-536.164	-27.110	-0.183	0.107
-535.150	-97.343	-0.047	0.012
-534.135	-200.000	-0.042	-0.437
-533.121	-200.000	-0.012	-0.384
-532.106	93.118	-0.203	0.230
-531.091	-200.000	0.008	0.176
-530.077	-200.000	0.003	0.074
-529.062	-35.083	-0.141	0.077
-528.048	85.931	0.107	-0.117
-527.033	121.455	0.198	0.246
-526.018	-124.668	0.242	-0.037
-525.004	-29.808	0.211	-0.120
-523.989	-200.000	0.012	-0.335
-522.975	-62.331	0.292	0.121
-521.960	17.459	-0.230	0.182
-520.945	-200.000	-0.026	0.219
-519.931	-200.000	-0.043	0.264
-518.916	666.508	-0.027	-0.070
-517.902	-43.917	-0.158	0.079
-516.887	-23.380	-0.149	0.089
-515.872	100.553	0.060	-0.070
-514.858	-87.582	-0.085	0.026
-513.843	141.449	0.104	0.137
-512.829	-89.040	-0.123	0.036
-511.814	40.096	0.192	-0.172
-510.799	126.920	0.077	0.097
-509.785	-77.468	0.304	0.105
-508.770	139.069	-0.265	-0.347
-507.756	-47.236	-0.231	0.112
-506.741	-107.494	0.289	0.063
-505.726	-200.000	-0.009	-0.087
-504.712	183.055	-0.057	-0.084
-503.697	38.664	0.323	0.287
-502.683	-106.951	-0.113	-0.025
-501.668	-171.887	0.117	0.004
-500.653	321.605	0.048	0.092
-499.639	800.000	-0.015	0.064
-498.624	-200.000	0.028	0.143
-497.610	-200.000	-0.043	0.400
-496.595	-131.001	-0.164	-0.022
-495.581	-140.491	-0.180	0.019
-494.566	-87.352	-0.068	-0.021
-493.551	25.332	-0.126	-0.104
-492.537	800.000	0.052	-0.205
-491.522	690.678	-0.136	-0.356
-490.508	-39.657	-0.124	-0.065
-489.493	-43.330	-0.242	0.122
-488.478	318.966	0.116	-0.218
-487.464	-192.670	0.352	0.003
-486.449	296.496	-0.055	-0.100
-485.435	427.012	0.177	0.381
-484.420	-89.378	0.331	0.097
-483.405	10.793	-0.197	-0.149
-482.391	58.350	-0.117	0.114
-481.376	-88.677	0.198	-0.059
-480.362	-200.000	-0.035	0.467
-479.347	187.879	-0.075	-0.111
-478.332	800.000	-0.069	-0.217
-477.318	135.072	-0.110	-0.142
-476.303	-162.635	-0.155	-0.008
-475.289	77.523	-0.077	-0.082
-474.274	95.710	0.086	0.098
-473.259	800.000	0.118	0.453
-472.245	-11.517	-0.356	0.233
-471.230	604.907	0.054	0.134
-470.216	117.410	0.100	0.122
-469.201	-200.000	-0.038	0.216
-468.186	-161.164	0.269	-0.014
-467.172	-45.530	0.161	0.079
-466.157	22.044	-0.195	-0.158
-465.143	-200.000	-0.039	0.185
-464.128	133.720	-0.355	0.458
-463.113	-8.986	0.210	0.140
-462.099	419.380	-0.080	0.169
-461.084	117.359	0.112	0.137
-460.070	-144.870	0.251	-0.023
-459.055	-141.511	-0.309	0.031
-458.040	-194.636	0.127	0.001
-457.026	-17.006	-0.161	-0.101
-456.011	-200.000	0.032	-0.394
-454.997	-1.753	-0.153	-0.107
-453.982	-83.097	0.225	0.072
-452.968	-45.107	0.116	0.057
-451.953	-200.000	-0.033	-0.178
-450.938	5.133	-0.236	-0.173
-449.924	800.000	-0.108	-0.417
-448.909	51.378	-0.252	0.238
-447.895	632.459	0.086	-0.216
-446.880	-54.689	0.572	-0.257
-445.865	224.353	0.120	-0.193
-444.851	13.180	-0.305	0.235
-443.836	-200.000	-0.020	0.322
-442.822	-200.000	-0.003	0.211
-441.807	-49.370	-0.083	0.039
-440.792	-200.000	-0.028	0.412
-439.778	-72.346	0.110	-0.040
-438.763	164.255	-0.141	-0.198
-437.749	157.324	-0.133	-0.183
-436.734	171.461	-0.191	0.273
-435.719	-26.639	0.123	0.071
-434.705	227.743	-0.084	-0.136
-433.690	-53.331	-0.212	0.096
-432.676	-159.311	-0.281	0.016
-431.661	-72.303	-0.177	-0.065
-430.646	93.498	-0.109	0.122
-429.632	-60.163	0.121	-0.051
-428.617	-200.000	0.015	0.200
-427.603	65.188	0.146	-0.147
-426.588	11.702	0.157	0.120
-425.573	800.000	-0.041	-0.146
-424.559	38.818	0.143	-0.127
-423.544	502.917	-0.145	0.332
-422.530	-200.000	0.008	-0.252
-421.515	-35.923	0.209	-0.112
-420.500	-59.445	-0.184	0.079
-419.486	-70.609	0.330	0.124
-418.471	-200.000	0.015	-0.224
-417.457	-83.486	0.381	-0.121
-416.442	-80.255	-0.250	-0.083
-415.428	134.317	-0.243	-0.313
-414.413	97.083	-0.073	-0.083
-413.398	-59.247	-0.155	-0.066
-412.384	-133.138	-0.069	0.009
-411.369	-87.826	0.105	0.031
-410.355	-164.809	-0.124	-0.006
-409.340	-200.000	0.037	0.262
-408.325	-84.340	0.203	0.064
-407.311	-127.958	0.078	-0.011
-406.296	-155.432	0.151	-0.010
-405.282	19.029	-0.202	0.161
-404.267	-160.580	-0.040	-0.002
-403.252	-200.000	-0.006	0.049
-402.238	-63.462	0.382	-0.156
-401.223	399.117	-0.124	-0.257
-400.209	-200.000	-0.060	-0.372
-399.194	111.592	0.069	0.083
-398.179	-200.000	-0.009	0.198
-397.165	-88.006	0.178	-0.053
-396.150	-200.000	0.069	-0.348
-395.136	800.000	-0.096	-0.325
-394.121	-62.270	-0.228	-0.094
-393.106	1.248	-0.366	0.261
-392.092	-93.669	0.156	-0.043
-391.077	800.000	0.025	0.072
-390.063	66.945	0.132	-0.133
-389.048	-200.000	-0.019	-0.253
-388.033	-176.412	-0.163	-0.004
-387.019	-7.028	0.108	-0.073
-386.004	800.000	-0.089	-0.244
-384.990	-200.000	-0.001	-0.425
-383.975	125.594	-0.085	-0.106
-382.960	-65.949	-0.127	-0.050
-381.946	-15.442	0.079	0.050
-380.931	213.829	0.053	-0.083
-379.917	-109.596	-0.286	-0.060
-378.902	74.445	-0.248	-0.259
-377.888	-36.929	-0.190	-0.101
-376.873	47.863	-0.255	-0.236
-375.858	312.745	0.175	0.326
-374.844	354.495	-0.030	-0.059
-373.829	11.602	-0.274	-0.209
-372.815	64.219	-0.346	0.346
-371.800	449.525	0.056	-0.123
-370.785	-44.409	0.111	0.055
-369.771	137.665	-0.129	0.167
-368.756	56.008	0.176	0.170
-367.742	-200.000	0.018	-0.108
-366.727	3.318	-0.175	0.126
-365.712	-200.000	0.235	0.000
-364.698	-200.000	0.023	0.466
-363.683	144.992	-0.089	-0.118
-362.669	-200.000	0.019	-0.557
-361.654	-63.175	0.104	-0.043
-360.639	311.934	0.074	-0.138
-359.625	-199.771	-0.096	-0.000
-358.610	111.983	0.092	0.111
-357.596	-4.464	-0.367	-0.251
-356.581	-92.468	0.145	0.040
-355.566	-24.553	0.153	-0.090
-354.552	579.480	0.117	0.285
-353.537	38.175	-0.099	-0.087
-352.523	74.736	0.340	0.355
-351.508	-200.000	0.008	-0.100
-350.493	21.210	-0.122	-0.098
-349.479	-115.102	-0.034	-0.006
-348.464	-3.401	0.172	-0.119
-347.450	122.552	-0.152	-0.188
-346.435	45.577	-0.083	0.076
-345.420	-200.000	-0.005	-0.142
-344.406	213.279	-0.042	0.066
-343.391	69.010	-0.118	-0.120
-342.377	-200.000	0.037	-0.237
-341.362	-179.451	-0.240	-0.005
-340.348	-23.694	0.075	-0.045
-339.333	-200.000	0.032	-0.154
-338.318	-99.424	0.128	0.032
-337.304	-106.694	0.268	0.059
-336.289	12.801	0.115	-0.088
-335.275	-6.742	0.258	-0.174
-334.260	134.968	-0.192	-0.247
-333.245	247.855	-0.095	0.159
-332.231	-200.000	-0.058	0.283
-331.216	-94.076	-0.117	0.032
-330.202	-161.322	-0.210	0.011
-329.187	-89.046	0.205	-0.060
-328.172	707.176	0.116	-0.302
-327.158	-200.000	-0.052	-0.331
-326.143	-65.232	0.099	-0.039
-325.129	-123.136	-0.207	-0.033
-324.114	800.000	-0.049	0.180
-323.099	438.423	0.143	0.308
-322.085	6.479	0.099	-0.073
-321.070	-200.000	0.015	0.105
-320.056	-62.865	-0.095	-0.039
-319.041	-126.264	0.085	-0.012
-318.026	-61.537	-0.237	0.098
-317.012	-138.422	0.113	-0.012
-315.997	-100.787	-0.304	0.074
-314.983	29.308	-0.481	-0.404
-313.968	613.620	-0.010	-0.024
-312.953	-186.640	-0.194	-0.003
-311.939	-200.000	-0.056	-0.246
-310.924	198.816	0.188	0.285
-309.910	800.000	-0.025	0.083
-308.895	-107.904	0.201	-0.043
-307.880	93.096	0.160	-0.179
-306.866	-200.000	-0.025	-0.705
-305.851	800.000	0.088	0.272
-304.837	-57.873	-0.176	0.076
-303.822	-200.000	0.012	-0.087
-302.807	-116.976	0.052	0.009
-301.793	-145.334	0.182	0.016
-300.778	-98.663	-0.290	0.073
-299.764	-200.000	-0.033	-0.245
-298.749	-126.851	0.054	0.008
-297.735	-61.760	0.225	-0.093
-296.720	6.182	-0.089	-0.065
-295.705	327.308	0.195	0.369
-294.691	26.128	0.308	0.254
-293.676	13.484	-0.110	0.085
-292.662	-35.882	-0.234	-0.125
-291.647	193.897	0.098	0.146
-290.632	-200.000	-0.030	-0.187
-289.618	-23.929	0.130	-0.077
-288.603	516.749	-0.087	0.200
-287.589	-101.831	0.225	0.054
-286.574	-200.000	-0.020	-0.298
-285.559	-69.031	0.172	-0.065
-284.545	451.139	-0.120	-0.263
-283.530	-111.103	-0.341	-0.069
-282.516	-166.098	-0.264	0.011
-281.501	-200.000	-0.006	0.164
-280.486	384.402	0.091	-0.184
-279.472	-30.319	0.374	0.210
-278.457	-200.000	-0.071	0.321
-277.443	-200.000	0.060	0.282
-276.428	774.535	0.018	-0.047
-275.413	800.000	-0.025	0.082
-274.399	81.915	-0.203	0.217
-273.384	-115.672	-0.162	0.030
-272.370	-39.239	0.094	0.049
-271.355	-79.738	-0.223	0.074
-270.340	-60.990	0.132	0.055
-269.326	-200.000	-0.026	0.157
-268.311	-78.097	0.324	-0.110
-267.297	-58.970	-0.076	-0.033
-266.282	-189.212	0.472	-0.006
-265.267	68.458	0.029	-0.030
-264.253	8.732	0.201	-0.150
-263.238	-200.000	0.003	-0.078
-262.224	79.251	0.117	0.124
-261.209	-21.921	-0.031	-0.018
-260.195	-200.000	-0.064	0.393
-259.180	117.544	0.165	0.200
-258.165	-116.269	0.138	0.025
-257.151	59.314	-0.275	0.267
-256.136	635.574	0.122	0.306
-255.122	284.273	0.148	-0.262
-254.107	-47.215	0.079	-0.038
-253.092	-200.000	-0.040	0.233
-252.078	800.000	-0.062	0.194
-251.063	106.046	-0.139	0.162
-250.049	-200.000	-0.046	0.276
-249.034	-200.000	0.054	-0.409
-248.019	800.000	0.027	0.084
-247.005	-200.000	0.001	0.020
-245.990	-110.928	0.252	0.051
-244.976	52.700	-0.123	0.116
-243.961	163.061	0.167	-0.231
-242.946	-200.000	0.020	0.151
-241.932	149.375	0.139	-0.186
-240.917	-117.038	-0.115	0.021
-239.903	-200.000	-0.031	-0.583
-238.888	10.896	0.202	0.152
-237.873	-200.000	0.016	0.121
-236.859	-55.095	-0.026	-0.011
-235.844	-106.162	-0.147	0.032
-234.830	8.817	0.051	0.038
-233.815	102.797	-0.137	0.158
-232.800	-200.000	0.018	-0.322
-231.786	-34.208	-0.067	-0.036
-230.771	365.485	0.093	-0.185
-229.757	-193.123	-0.385	0.003
-228.742	609.202	-0.130	-0.321
-227.727	-200.000	0.003	-0.380
-226.713	639.205	-0.047	0.117
-225.698	403.141	-0.159	0.330
-224.684	800.000	-0.060	-0.169
-223.669	-66.116	0.285	-0.112
-222.655	-123.736	-0.090	0.014
-221.640	-97.679	0.214	0.055
-220.625	-122.429	-0.306	0.049
-219.611	-34.976	0.479	-0.258
-218.596	575.986	-0.097	-0.233
-217.582	-137.547	0.304	-0.034
-216.567	-200.000	-0.021	-0.271
-215.552	215.200	0.155	0.242
-214.538	800.000	-0.100	0.399
-213.523	-200.000	0.084	0.449
-212.509	-200.000	0.011	0.257
-211.494	56.886	-0.346	0.332
-210.479	99.178	0.036	0.041
-209.465	-200.000	0.054	0.386
-208.450	85.119	-0.067	0.073
-207.436	-2.965	0.096	-0.066
-206.421	171.573	-0.198	0.280
-205.406	-200.000	0.089	-0.434
-204.392	179.323	-0.068	0.099
-203.377	742.865	0.082	0.216
-202.363	-80.783	0.257	-0.084
-201.348	-200.000	0.077	-0.437
-200.333	788.159	-0.039	-0.104
-199.319	44.548	-0.240	0.217
-198.304	-165.285	0.374	-0.016
-197.290	159.429	0.112	-0.153
-196.275	-117.095	0.129	-0.023
-195.260	-87.990	0.078	-0.023
-194.246	-200.000	0.027	0.149
-193.231	-41.191	-0.170	0.086
-192.217	-139.014	0.179	0.019
-191.202	707.134	0.057	-0.149
-190.187	-141.665	-0.328	-0.033
-189.173	-200.000	0.011	0.090
-188.158	-200.000	0.036	0.246
-187.144	800.000	-0.035	-0.122
-186.129	-30.767	-0.077	0.043
-185.114	18.673	0.284	-0.224
-184.100	800.000	-0.109	-0.399
-183.085	-61.033	-0.063	0.026
-182.071	12.926	0.321	-0.244
-181.056	-97.742	-0.381	0.097
-180.042	800.000	0.098	0.334
-179.027	-73.242	0.484	-0.174
-178.012	171.497	0.134	-0.189
-176.998	-115.477	0.157	0.029
-175.983	-97.454	-0.250	0.064
-174.969	664.403	0.114	0.288
-173.954	-65.768	0.353	0.139
-172.939	-127.329	-0.167	-0.024
-171.925	97.234	0.072	0.082
-170.910	120.413	0.048	-0.059
-169.896	-34.910	-0.157	0.084
-168.881	38.801	0.173	0.152
-167.866	11.350	0.306	-0.231
-166.852	-25.088	-0.049	-0.029
-165.837	89.664	0.249	0.273
-164.823	-88.342	-0.032	-0.009
-163.808	-29.050	-0.109	-0.061
-162.793	-200.000	0.004	-0.053
-161.779	-97.335	-0.266	0.068
-160.764	-31.947	0.086	0.047
-159.750	-78.983	-0.115	-0.038
-158.735	-25.236	0.165	-0.096
-157.720	-161.126	-0.246	-0.013
-156.706	-31.913	-0.117	0.065
-155.691	14.315	-0.146	0.112
-154.677	-46.712	0.285	0.137
-153.662	-43.875	0.228	0.113
-152.647	6.096	0.048	0.035
-151.633	517.939	0.036	-0.084
-150.618	-68.593	0.192	-0.073
-149.604	592.539	0.063	0.152
-148.589	-117.958	-0.409	-0.072
-147.574	159.149	0.081	0.111
-146.560	-44.019	0.196	-0.097
-145.545	-102.213	0.271	-0.064
-144.531	127.631	0.096	-0.120
-143.516	-5.056	-0.135	-0.091
-142.502	-200.000	-0.012	0.362
-141.487	68.981	-0.096	-0.097
-140.472	-79.062	-0.214	-0.071
-139.458	-83.377	0.179	-0.056
-138.443	29.888	-0.151	0.126
-137.429	389.195	-0.091	0.184
-136.414	220.266	-0.091	-0.144
-135.399	-33.914	-0.075	-0.041
-134.385	-200.000	-0.034	-0.172
-133.370	81.756	-0.135	0.143
-132.356	-97.402	0.146	-0.037
-131.341	-57.229	0.440	0.190
-130.326	260.194	-0.109	-0.186
-129.312	-141.716	0.533	0.053
-128.297	458.314	-0.070	-0.153
-127.283	800.000	-0.060	0.187
-126.268	151.831	-0.143	0.192
-125.253	-140.321	-0.184	0.019
-124.239	437.758	0.076	0.162
-123.224	-24.352	0.133	-0.078
-122.210	-98.512	-0.179	-0.045
