DTS Sentinel unit serial number:	SN413079Multiplexer serial number:	ORYXHardware model number:	OX4-SRSoftware version number:	ORYX F/W v4.00 Oryx Data Collector v3.7.2.0data status	okinstallation	princeton_trtdifferential loss correction	single-endedforward channel	channel 2reverse channel	N/Adate	2019/09/11time	09:13:10forward acquisition time	60.00reverse acquisition time	0.00gamma	496.2192k internal	0.2318k external	0.2318temperature offset calibration	0.9969default loss term (dB/km)	0.3790temperature slope calibration	1.0000multiplexer offset coefficient	1.0000multiplexer slope coefficient	1.0000fibre end	0.00T internal ref (°C)	34.31T ext. ref 1 (°C)	0.08T ext. ref 2 (°C)	30.25length (m)	temperature (°C)	Stokes	anti-Stokes-747.200	241.072	0.105	-0.178
-746.185	800.000	-0.055	0.218
-745.171	800.000	0.066	0.283
-744.156	-59.894	-0.403	0.174
-743.142	-155.497	0.104	0.007
-742.127	133.289	0.221	0.289
-741.112	48.728	-0.258	0.245
-740.098	331.886	0.045	-0.088
-739.083	-200.000	-0.034	-0.331
-738.069	-200.000	-0.011	0.073
-737.054	-200.000	-0.010	-0.527
-736.039	-79.886	-0.047	0.016
-735.025	130.148	-0.120	0.156
-734.010	-32.738	0.297	0.167
-732.996	726.690	0.089	-0.240
-731.981	109.744	-0.226	0.274
-730.966	-108.698	0.297	0.064
-729.952	232.208	-0.085	-0.141
-728.937	-0.603	-0.284	-0.204
-727.923	-31.362	-0.236	0.134
-726.908	175.056	-0.245	0.360
-725.894	-31.789	0.243	-0.138
-724.879	177.262	-0.090	-0.133
-723.864	54.320	0.168	-0.164
-722.850	-152.413	-0.179	0.013
-721.835	-36.367	0.046	-0.025
-720.821	112.768	-0.049	0.060
-719.806	579.617	-0.226	0.560
-718.791	-46.197	0.164	0.081
-717.777	260.096	0.171	-0.298
-716.762	523.378	0.066	-0.157
-715.748	147.010	-0.274	-0.372
-714.733	800.000	0.099	-0.317
-713.718	-87.347	-0.194	-0.060
-712.704	-43.571	0.211	0.108
-711.689	-57.985	0.193	-0.085
-710.675	-137.327	0.138	0.016
-709.660	-200.000	-0.013	-0.272
-708.645	-97.643	0.237	-0.062
-707.631	17.193	-0.460	0.369
-706.616	184.737	-0.119	0.178
-705.602	562.026	0.074	-0.181
-704.587	-200.000	0.082	-0.450
-703.572	-200.000	-0.004	0.043
-702.558	800.000	0.052	0.167
-701.543	-147.978	-0.392	0.033
-700.529	-35.206	-0.163	0.090
-699.514	800.000	0.079	-0.225
-698.499	-200.000	-0.033	0.197
-697.485	800.000	0.025	-0.071
-696.470	-66.187	0.296	0.119
-695.456	97.664	0.116	0.134
-694.441	-60.188	-0.223	-0.096
-693.426	800.000	0.092	0.276
-692.412	796.866	-0.116	-0.322
-691.397	-200.000	0.018	0.271
-690.383	73.524	-0.029	0.031
-689.368	-200.000	0.054	-0.262
-688.354	800.000	-0.075	-0.326
-687.339	444.785	-0.139	-0.309
-686.324	-60.839	-0.210	-0.090
-685.310	-81.134	0.249	-0.083
-684.295	563.960	-0.114	-0.278
-683.281	-39.577	-0.313	-0.165
-682.266	273.923	-0.192	-0.343
-681.251	105.884	-0.149	-0.178
-680.237	-110.889	-0.268	-0.056
-679.222	93.096	0.116	0.133
-678.208	390.050	0.043	-0.091
-677.193	0.986	-0.268	-0.194
-676.178	-2.017	-0.131	-0.093
-675.164	-41.346	-0.130	-0.067
-674.149	132.233	-0.106	-0.137
-673.135	-200.000	0.113	0.000
-672.120	153.887	-0.128	-0.177
-671.105	-121.631	-0.208	-0.035
-670.091	51.568	-0.098	-0.094
-669.076	24.741	0.165	0.138
-668.062	-91.043	0.073	-0.021
-667.047	-167.757	-0.103	-0.004
-666.032	-192.180	-0.113	-0.001
-665.018	-96.798	-0.341	-0.090
-664.003	203.505	0.069	0.107
-662.989	104.518	0.137	0.163
-661.974	800.000	0.090	0.314
-660.959	-200.000	0.024	0.253
-659.945	-51.024	-0.232	0.110
-658.930	-155.640	0.237	-0.015
-657.916	-0.178	0.368	0.264
-656.901	141.696	0.230	0.307
-655.886	-171.296	-0.186	-0.006
-654.872	800.000	0.156	0.450
-653.857	55.440	-0.186	-0.182
-652.843	-200.000	-0.019	0.129
-651.828	12.232	0.096	0.075
-650.814	336.979	0.038	-0.074
-649.799	-21.454	0.114	0.070
-648.784	-57.053	-0.004	0.002
-647.770	-32.745	0.133	-0.075
-646.755	-80.260	-0.298	-0.101
-645.741	800.000	-0.108	-0.311
-644.726	513.376	-0.078	-0.183
-643.711	-200.000	-0.018	0.324
-642.697	-2.493	-0.096	0.068
-641.682	-109.822	-0.227	-0.048
-640.668	168.618	0.128	0.184
-639.653	-109.019	-0.274	0.059
-638.638	61.302	-0.296	-0.297
-637.624	51.998	0.081	0.078
-636.609	-125.408	0.050	-0.008
-635.595	-150.058	-0.187	0.015
-634.580	-35.161	0.185	0.102
-633.565	-95.575	-0.154	0.042
-632.551	-173.587	0.165	-0.005
-631.536	-54.450	0.378	0.173
-630.522	258.796	0.145	0.252
-629.507	-37.317	0.158	0.085
-628.492	-1.039	-0.192	-0.137
-627.478	-200.000	-0.041	-0.245
-626.463	30.736	0.043	0.037
-625.449	800.000	-0.032	-0.112
-624.434	158.313	0.135	0.189
-623.419	-43.434	-0.293	-0.149
-622.405	-200.000	0.061	-0.270
-621.390	800.000	-0.055	-0.188
-620.376	-89.713	-0.115	-0.034
-619.361	83.515	-0.152	-0.166
-618.346	29.762	0.276	0.237
-617.332	-128.315	-0.280	-0.040
-616.317	-65.865	0.144	-0.058
-615.303	121.271	-0.126	-0.158
-614.288	25.129	-0.338	-0.282
-613.273	108.865	0.175	0.210
-612.259	233.629	0.124	-0.205
-611.244	91.795	0.148	0.167
-610.230	-17.020	-0.280	0.178
-609.215	-200.000	0.005	0.145
-608.201	-54.935	0.241	0.109
-607.186	-78.575	0.366	0.126
-606.171	-50.489	0.053	0.025
-605.157	800.000	-0.129	-0.532
-604.142	161.660	0.113	0.159
-603.128	-200.000	0.015	-0.074
-602.113	12.697	-0.215	-0.167
-601.098	-146.358	0.168	0.015
-600.084	-38.696	0.164	0.087
-599.069	-18.985	-0.191	0.120
-598.055	-116.947	0.240	0.044
-597.040	99.504	-0.092	0.107
-596.025	800.000	0.015	-0.062
-595.011	-200.000	-0.028	-0.259
-593.996	-82.817	0.052	0.017
-592.982	800.000	0.031	-0.112
-591.967	735.632	0.025	-0.067
-590.952	165.327	0.180	0.256
-589.938	-7.496	0.367	-0.250
-588.923	-200.000	0.033	-0.166
-587.909	100.402	0.261	0.304
-586.894	-53.585	0.191	0.088
-585.879	800.000	0.042	0.140
-584.865	-200.000	-0.013	-0.230
-583.850	492.560	0.040	0.093
-582.836	-182.073	-0.513	0.010
-581.821	-200.000	-0.032	-0.157
-580.806	-11.236	0.149	-0.099
-579.792	-74.728	-0.204	-0.074
-578.777	-61.299	-0.139	-0.059
-577.763	-200.000	-0.009	0.077
-576.748	173.161	-0.137	-0.198
-575.733	642.296	0.145	-0.372
-574.719	-131.564	0.083	-0.011
-573.704	-200.000	-0.002	0.098
-572.690	-85.064	-0.205	-0.064
-571.675	-26.745	-0.302	-0.177
-570.661	-200.000	-0.030	-0.162
-569.646	-136.545	-0.296	-0.035
-568.631	800.000	-0.047	0.174
-567.617	-122.635	-0.082	-0.013
-566.602	-59.563	0.209	0.090
-565.588	-169.933	0.267	-0.010
-564.573	338.031	0.086	-0.167
-563.558	-97.039	0.179	-0.047
-562.544	-41.767	-0.200	-0.103
-561.529	16.129	-0.267	-0.212
-560.515	21.612	-0.299	-0.245
-559.500	714.346	-0.058	0.155
-558.485	-64.871	0.322	0.131
-557.471	800.000	0.081	-0.352
-556.456	-86.638	0.349	-0.107
-555.442	225.046	0.110	0.179
-554.427	39.491	0.265	-0.238
-553.412	152.692	-0.079	-0.108
-552.398	117.481	0.116	-0.143
-551.383	-73.907	-0.281	0.103
-550.369	800.000	-0.080	-0.250
-549.354	187.648	-0.064	0.097
-548.339	800.000	-0.141	-0.499
-547.325	-200.000	0.003	-0.292
-546.310	-126.417	-0.307	0.046
-545.296	800.000	0.052	0.154
-544.281	-67.404	-0.172	-0.068
-543.266	35.059	0.114	0.100
-542.252	405.588	-0.078	0.165
-541.237	800.000	0.147	0.483
-540.223	-200.000	0.085	-0.404
-539.208	800.000	0.113	0.450
-538.193	800.000	0.048	-0.209
-537.179	-19.405	-0.081	-0.051
-536.164	0.386	0.141	-0.101
-535.150	102.156	0.063	0.074
-534.135	25.149	-0.113	-0.094
-533.121	149.265	0.129	-0.175
-532.106	-143.297	0.121	0.012
-531.091	113.991	-0.142	0.174
-530.077	-60.915	-0.275	0.117
-529.062	-30.045	-0.040	0.023
-528.048	190.013	-0.054	-0.081
-527.033	-145.408	0.024	-0.002
-526.018	-65.744	0.151	-0.061
-525.004	197.386	-0.158	-0.242
-523.989	-75.553	0.072	-0.026
-522.975	-9.404	-0.449	-0.301
-521.960	178.080	-0.024	0.036
-520.945	325.796	-0.061	-0.118
-519.931	-56.626	0.150	0.067
-518.916	319.433	0.191	-0.364
-517.902	800.000	0.048	0.150
-516.887	800.000	0.073	-0.253
-515.872	-29.207	-0.285	-0.164
-514.858	-126.718	-0.234	-0.035
-513.843	522.251	-0.087	0.204
-512.829	15.245	0.297	-0.234
-511.814	-6.018	-0.195	-0.134
-510.799	-126.678	-0.146	-0.022
-509.785	160.683	0.129	0.181
-508.770	200.452	0.016	-0.024
-507.756	800.000	0.051	-0.214
-506.741	-200.000	0.001	-0.077
-505.726	-131.664	-0.468	-0.062
-504.712	47.045	0.194	0.181
-503.697	-143.041	0.169	-0.016
-502.683	352.374	0.063	-0.125
-501.668	28.609	0.036	-0.031
-500.653	29.481	0.377	-0.322
-499.639	-151.393	-0.406	-0.030
-498.624	-200.000	-0.013	-0.066
-497.610	154.974	0.174	0.239
-496.595	-64.079	-0.116	0.047
-495.581	-200.000	-0.033	0.367
-494.566	-98.701	0.200	-0.051
-493.551	-86.541	-0.214	-0.066
-492.537	128.696	-0.108	-0.138
-491.522	154.870	0.072	0.100
-490.508	322.511	-0.068	0.129
-489.493	670.735	-0.123	0.319
-488.478	-75.773	-0.091	-0.032
-487.464	-200.000	-0.008	0.168
-486.449	159.826	-0.076	0.107
-485.435	-111.866	0.093	0.019
-484.420	135.133	0.042	0.054
-483.405	-200.000	-0.036	0.164
-482.391	415.731	-0.226	-0.482
-481.376	-43.613	-0.027	0.013
-480.362	-109.604	-0.361	-0.076
-479.347	-193.777	0.134	0.001
-478.332	116.376	0.182	0.224
-477.318	76.753	0.040	0.043
-476.303	-93.430	0.136	0.038
-475.289	-200.000	0.035	-0.171
-474.274	13.486	-0.262	0.204
-473.259	769.564	-0.026	-0.072
-472.245	-103.206	0.126	0.030
-471.230	-125.801	-0.177	0.027
-470.216	800.000	-0.036	-0.148
-469.201	383.432	-0.017	0.035
-468.186	-54.413	0.092	0.042
-467.172	-200.000	-0.016	0.119
-466.157	-29.262	0.196	0.112
-465.143	152.907	0.227	0.311
-464.128	-143.996	-0.209	-0.020
-463.113	-145.685	0.258	-0.023
-462.099	19.592	-0.199	0.160
-461.084	14.741	-0.182	0.142
-460.070	-200.000	-0.010	0.148
-459.055	-183.460	0.330	0.006
-458.040	-200.000	-0.003	0.109
-457.026	17.765	-0.245	-0.195
-456.011	69.769	-0.170	-0.176
-454.997	-77.310	-0.127	0.044
-453.982	494.209	-0.125	0.288
-452.968	357.447	0.069	-0.137
-451.953	-9.006	0.194	0.130
-450.938	787.921	0.107	-0.293
-449.924	-200.000	-0.012	0.058
-448.909	-134.951	0.393	-0.048
-447.895	800.000	-0.053	0.216
-446.880	-2.388	-0.045	-0.031
-445.865	-118.186	-0.284	0.051
-444.851	253.022	-0.086	-0.147
-443.836	-93.325	0.156	0.043
-442.822	-67.131	0.158	0.062
-441.807	-60.265	-0.174	0.074
-440.792	-200.000	0.029	0.152
-439.778	20.839	-0.149	-0.121
-438.763	-94.511	0.340	-0.093
-437.749	800.000	-0.105	0.297
-436.734	-200.000	-0.000	0.111
-435.719	800.000	-0.069	-0.225
-434.705	4.740	-0.209	0.154
-433.690	-66.103	0.065	-0.026
-432.676	-72.065	0.273	-0.101
-431.661	14.639	0.105	-0.082
-430.646	528.137	-0.030	0.071
-429.632	-17.997	-0.130	0.082
-428.617	55.956	-0.367	0.356
-427.603	541.411	0.064	-0.153
-426.588	-139.477	0.181	-0.019
-425.573	-162.406	0.046	0.002
-424.559	74.204	-0.189	0.199
-423.544	-0.527	-0.286	-0.203
-422.530	86.636	-0.041	0.045
-421.515	156.002	-0.192	0.265
-420.500	-55.980	0.438	-0.195
-419.486	186.890	0.155	0.232
-418.471	-111.786	0.116	0.023
-417.457	128.093	0.117	-0.149
-416.442	-116.689	0.103	-0.019
-415.428	-48.234	0.199	-0.096
-414.413	-200.000	-0.013	0.320
-413.398	-64.105	-0.458	0.187
-412.384	51.271	0.198	0.188
-411.369	-200.000	-0.057	0.253
-410.355	-200.000	0.038	0.281
-409.340	-19.810	-0.334	-0.206
-408.325	-46.145	0.266	0.131
-407.311	-90.715	0.033	0.009
-406.296	-96.008	0.134	0.036
-405.282	371.533	0.064	-0.129
-404.267	-108.042	-0.039	0.008
-403.252	350.794	-0.104	-0.205
-402.238	386.810	-0.067	-0.139
-401.223	277.771	0.160	-0.285
-400.209	-200.000	-0.051	-0.237
-399.194	-200.000	0.065	-0.396
-398.179	-119.161	-0.050	-0.009
-397.165	-200.000	-0.045	0.222
-396.150	-200.000	0.069	0.418
-395.136	-109.678	-0.495	0.104
-394.121	9.888	0.162	0.123
-393.106	72.222	0.131	-0.136
-392.092	-200.000	0.032	-0.335
-391.077	800.000	0.066	-0.250
-390.063	-58.254	-0.304	-0.132
-389.048	-48.434	0.130	0.062
-388.033	317.626	-0.141	0.266
-387.019	257.145	0.123	0.212
-386.004	-65.065	-0.299	0.121
-384.990	-72.943	0.162	0.059
-383.975	-48.098	-0.177	-0.085
-382.960	800.000	-0.027	-0.100
-381.946	-25.888	-0.524	0.308
-380.931	196.019	-0.115	0.175
-379.917	800.000	0.016	0.054
-378.902	-20.481	0.254	0.156
-377.888	74.967	-0.117	0.123
-376.873	-200.000	0.055	0.286
-375.858	-200.000	0.050	-0.273
-374.844	-200.000	0.001	-0.139
-373.829	-150.566	0.073	-0.006
-372.815	103.561	-0.163	-0.191
-371.800	-60.747	-0.247	-0.104
-370.785	-74.761	-0.288	0.103
-369.771	-36.082	0.044	-0.024
-368.756	399.378	0.117	-0.244
-367.742	-39.515	-0.373	0.195
-366.727	-118.188	-0.041	0.007
-365.712	321.133	-0.180	-0.341
-364.698	78.674	0.070	-0.074
-363.683	40.867	0.157	0.141
-362.669	-200.000	-0.031	-0.213
-361.654	-99.067	-0.146	0.037
-360.639	-200.000	-0.009	-0.471
-359.625	124.622	0.122	-0.153
-358.610	16.608	-0.361	-0.284
-357.596	-14.128	-0.344	0.221
-356.581	800.000	0.018	-0.067
-355.566	-200.000	-0.063	-0.313
-354.552	335.276	0.067	-0.129
-353.537	188.610	0.051	-0.076
-352.523	-40.049	0.064	-0.033
-351.508	-75.487	0.080	-0.028
-350.493	-200.000	-0.037	-0.220
-349.479	6.183	0.183	0.135
-348.464	800.000	-0.151	0.492
-347.450	-200.000	0.009	-0.044
-346.435	800.000	-0.100	0.298
-345.420	365.798	-0.306	0.615
-344.406	-200.000	-0.008	-0.054
-343.391	-57.973	0.255	0.111
-342.377	800.000	-0.040	-0.118
-341.362	-134.392	-0.349	-0.043
-340.348	-66.616	-0.261	0.103
-339.333	-200.000	0.009	0.040
-338.318	553.199	0.089	0.214
-337.304	-61.497	-0.094	-0.039
-336.289	-200.000	0.017	-0.185
-335.275	-200.000	-0.022	-0.274
-334.260	355.674	0.141	0.280
-333.245	-200.000	-0.070	0.360
-332.231	-18.309	-0.082	-0.051
-331.216	800.000	0.112	-0.381
-330.202	800.000	0.079	-0.312
-329.187	-120.642	-0.154	-0.026
-328.172	514.297	-0.114	0.265
-327.158	217.250	0.114	0.181
-326.143	800.000	-0.057	-0.198
-325.129	656.549	-0.086	0.219
-324.114	-200.000	0.045	0.293
-323.099	92.618	0.051	-0.058
-322.085	-37.538	0.204	0.108
-321.070	-104.170	-0.133	0.031
-320.056	-200.000	-0.039	-0.378
-319.041	-20.914	0.042	-0.026
-318.026	-82.143	-0.473	0.154
-317.012	-138.117	0.454	0.050
-315.997	137.964	0.033	-0.043
-314.983	-132.023	-0.266	0.034
-313.968	-200.000	-0.015	0.261
-312.953	91.718	0.223	0.249
-311.939	52.505	0.130	-0.124
-310.924	-200.000	0.002	-0.050
-309.910	-73.669	0.084	0.030
-308.895	282.647	0.085	0.152
-307.880	-200.000	0.003	-0.096
-306.866	81.338	-0.180	0.193
-305.851	-120.305	-0.124	-0.021
-304.837	-200.000	0.023	-0.104
-303.822	80.526	0.091	0.097
-302.807	-159.518	0.104	0.006
-301.793	-200.000	0.015	0.083
-300.778	-200.000	-0.006	0.199
-299.764	45.798	0.136	-0.125
-298.749	407.483	0.067	0.142
-297.735	-11.776	-0.529	-0.345
-296.720	65.678	-0.224	0.226
-295.705	255.631	0.182	-0.310
-294.691	-132.435	-0.209	-0.027
-293.676	438.639	0.191	-0.414
-292.662	-71.943	-0.220	0.081
-291.647	-124.427	-0.266	-0.041
-290.632	-138.716	0.575	-0.062
-289.618	-66.810	0.308	-0.121
-288.603	-77.981	0.235	-0.080
-287.589	800.000	-0.025	0.100
-286.574	-167.736	-0.153	0.006
-285.559	44.021	-0.124	0.113
-284.545	511.039	-0.066	0.153
-283.530	-53.643	0.261	0.118
-282.516	64.361	-0.255	-0.255
-281.501	118.486	0.319	-0.392
-280.486	14.540	0.105	-0.081
-279.472	347.668	0.197	0.387
-278.457	-78.441	0.126	0.043
-277.443	-200.000	0.022	0.292
-276.428	-26.862	0.178	-0.103
-275.413	800.000	0.064	0.275
-274.399	41.728	0.102	-0.092
-273.384	71.419	0.207	0.213
-272.370	47.619	-0.189	-0.175
-271.355	-200.000	-0.011	-0.076
-270.340	800.000	-0.066	0.236
-269.326	-112.911	-0.045	-0.009
-268.311	-88.316	0.137	-0.041
-267.297	429.493	0.136	-0.292
-266.282	800.000	0.055	0.178
-265.267	313.107	-0.105	-0.196
-264.253	800.000	0.108	-0.386
-263.238	-96.873	0.245	0.064
-262.224	180.731	0.179	0.261
-261.209	-200.000	-0.005	0.283
-260.195	558.102	0.020	0.047
-259.180	-99.384	-0.321	-0.080
-258.165	-200.000	-0.065	-0.304
-257.151	800.000	-0.009	0.028
-256.136	-146.073	0.180	-0.016
-255.122	-86.120	0.339	0.104
-254.107	-148.558	0.149	-0.012
-253.092	800.000	-0.026	0.097
-252.078	-200.000	-0.046	0.212
-251.063	-143.773	0.192	0.018
-250.049	181.604	-0.122	-0.178
-249.034	274.611	-0.060	-0.105
-248.019	-112.244	-0.307	0.061
-247.005	-60.036	0.227	-0.096
-245.990	-200.000	0.035	0.236
-244.976	-79.615	0.440	-0.147
-243.961	199.551	0.214	-0.326
-242.946	8.876	0.063	0.047
-241.932	-21.054	0.058	0.035
-240.917	800.000	-0.109	-0.311
-239.903	-150.036	-0.227	-0.018
-238.888	-126.840	-0.302	-0.044
-237.873	-10.662	-0.111	0.073
-236.859	-31.045	0.178	0.100
-235.844	-176.912	-0.152	0.004
-234.830	150.719	0.062	-0.084
-233.815	-138.648	0.258	0.028
-232.800	800.000	-0.081	0.251
-231.786	186.421	0.233	-0.345
-230.771	-84.352	0.149	0.047
-229.757	273.494	0.178	0.313
-228.742	8.428	0.167	-0.125
-227.727	-200.000	0.046	-0.292
-226.713	82.691	0.344	0.370
-225.698	800.000	0.014	0.045
-224.684	792.981	0.109	0.298
-223.669	166.514	-0.210	0.296
-222.655	70.718	0.168	0.172
-221.640	792.737	-0.073	-0.199
-220.625	304.862	0.149	-0.274
-219.611	783.382	-0.044	-0.119
-218.596	-117.679	-0.245	-0.044
-217.582	-181.676	-0.282	-0.005
-216.567	-60.067	0.262	0.111
-215.552	67.809	0.173	-0.176
-214.538	-200.000	-0.042	0.188
-213.523	-200.000	0.033	-0.225
-212.509	461.291	0.101	-0.224
-211.494	-200.000	0.005	-0.158
-210.479	323.143	-0.045	-0.084
-209.465	800.000	-0.066	0.206
-208.450	-126.948	-0.171	0.025
-207.436	104.318	0.161	0.187
-206.421	-200.000	-0.039	0.280
-205.406	-164.992	0.273	-0.012
-204.392	224.759	-0.044	-0.071
-203.377	-200.000	0.022	-0.305
-202.363	-104.984	0.101	0.023
-201.348	2.601	0.158	-0.113
-200.333	-200.000	0.001	0.369
-199.319	-200.000	-0.021	-0.258
-198.304	78.281	0.134	-0.142
-197.290	-200.000	-0.011	-0.141
-196.275	142.361	0.027	-0.036
-195.260	-62.145	0.532	-0.220
-194.246	-28.602	-0.200	0.114
-193.231	2.305	0.189	0.135
-192.217	-200.000	-0.022	0.295
-191.202	799.064	0.099	0.269
-190.187	-146.574	0.315	-0.027
-189.173	800.000	0.071	0.227
-188.158	-200.000	0.028	-0.187
-187.144	-95.599	0.248	-0.066
-186.129	-39.679	-0.174	0.090
-185.114	-27.764	-0.274	0.158
-184.100	-68.456	-0.257	-0.099
-183.085	-200.000	0.074	-0.503
-182.071	800.000	-0.083	0.321
-181.056	800.000	-0.119	-0.344
-180.042	-93.640	0.294	-0.080
-179.027	164.085	0.105	0.146
-178.012	-14.840	-0.149	-0.095
-176.998	-200.000	-0.002	0.022
-175.983	-91.505	-0.170	-0.048
-174.969	-105.532	-0.085	-0.019
-173.954	334.789	-0.166	0.318
-172.939	-31.710	-0.137	-0.076
-171.925	-200.000	0.065	0.357
-170.910	338.810	0.157	-0.302
-169.896	7.168	-0.167	0.123
-168.881	-200.000	0.004	0.275
-167.866	800.000	0.038	0.126
-166.852	-200.000	0.087	0.526
-165.837	183.906	-0.248	0.363
-164.823	-70.572	0.301	0.113
-163.808	-125.112	-0.388	-0.059
-162.793	-200.000	-0.023	0.207
-161.779	140.889	0.062	-0.081
-160.764	-80.788	-0.493	0.162
-159.750	-87.359	0.288	-0.086
-158.735	332.090	0.083	0.158
-157.720	-200.000	-0.020	0.104
-156.706	-35.276	0.254	0.137
-155.691	-37.673	0.160	-0.084
-154.677	12.062	0.099	-0.075
-153.662	-171.377	-0.174	-0.006
-152.647	-124.002	-0.150	0.023
-151.633	-32.142	0.250	0.138
-150.618	800.000	0.088	0.330
-149.604	-200.000	0.043	-0.210
-148.589	118.330	-0.036	0.044
-147.574	205.381	-0.056	0.087
-146.560	-200.000	-0.065	0.555
-145.545	-38.632	0.127	-0.066
-144.531	267.068	0.165	0.286
-143.516	-148.262	0.146	0.012
-142.502	-200.000	0.012	0.067
-141.487	-32.155	-0.129	0.071
-140.472	372.006	-0.081	0.163
-139.458	67.899	0.215	0.217
-138.443	-160.789	-0.378	-0.020
-137.429	-156.087	0.106	-0.007
-136.414	81.670	0.059	-0.063
-135.399	-30.500	0.226	-0.127
-134.385	-200.000	-0.046	0.212
-133.370	86.495	0.073	-0.080
-132.356	-115.844	-0.179	0.033
-131.341	70.496	0.274	-0.280
-130.326	74.910	-0.062	-0.065
-129.312	800.000	0.045	-0.134
-128.297	-200.000	0.030	0.388
-127.283	-50.456	-0.299	-0.140
-126.268	-200.000	-0.005	-0.035
-125.253	800.000	0.020	0.083
-124.239	-76.517	0.214	0.074
-123.224	-185.984	-0.495	-0.007
-122.210	72.180	0.109	0.112
-121.195	-43.990	-0.245	0.122
