DTS Sentinel unit serial number:	SN413079Multiplexer serial number:	ORYXHardware model number:	OX4-SRSoftware version number:	ORYX F/W v4.00 Oryx Data Collector v3.7.2.0data status	okinstallation	princeton_trtdifferential loss correction	single-endedforward channel	channel 2reverse channel	N/Adate	2019/09/12time	01:33:11forward acquisition time	60.00reverse acquisition time	0.00gamma	496.2192k internal	0.2326k external	0.2326temperature offset calibration	1.0090default loss term (dB/km)	0.3790temperature slope calibration	1.0000multiplexer offset coefficient	1.0000multiplexer slope coefficient	1.0000fibre end	0.00T internal ref (°C)	32.94T ext. ref 1 (°C)	2.08T ext. ref 2 (°C)	27.34length (m)	temperature (°C)	Stokes	anti-Stokes-747.200	-3.246	-0.068	-0.048
-746.185	-18.913	-0.385	0.241
-745.171	436.793	-0.106	0.233
-744.156	-159.376	-0.333	0.019
-743.142	-200.000	-0.038	-0.199
-742.127	-123.794	-0.165	0.026
-741.112	200.826	-0.207	0.321
-740.098	-45.897	-0.218	-0.109
-739.083	-109.119	0.010	0.002
-738.069	-200.000	0.033	0.203
-737.054	-14.243	0.041	0.027
-736.039	8.904	-0.105	0.080
-735.025	-44.133	0.395	-0.200
-734.010	-26.963	-0.313	-0.185
-732.996	2.088	-0.192	-0.139
-731.981	676.123	0.032	-0.085
-730.966	-44.364	-0.148	0.075
-729.952	-200.000	0.071	-0.350
-728.937	800.000	0.086	-0.342
-727.923	-36.187	-0.114	0.062
-726.908	-116.148	0.052	-0.010
-725.894	-200.000	-0.017	-0.151
-724.879	384.813	0.190	-0.396
-723.864	23.305	0.080	0.066
-722.850	139.223	0.226	0.300
-721.835	-125.735	0.219	0.033
-720.821	-55.607	-0.199	-0.090
-719.806	211.000	-0.091	0.145
-718.791	800.000	0.038	-0.143
-717.777	386.379	0.143	-0.297
-716.762	43.028	0.180	0.165
-715.748	-200.000	0.013	-0.134
-714.733	309.993	0.109	0.205
-713.718	99.517	-0.156	0.182
-712.704	-91.574	-0.096	0.028
-711.689	43.828	-0.098	-0.090
-710.675	575.656	-0.078	-0.191
-709.660	800.000	-0.073	0.214
-708.645	643.549	0.040	-0.103
-707.631	800.000	0.037	-0.163
-706.616	-82.839	0.266	-0.086
-705.602	-122.526	-0.257	-0.042
-704.587	-200.000	0.004	-0.113
-703.572	800.000	0.009	0.040
-702.558	105.752	-0.277	-0.330
-701.543	669.075	-0.084	-0.219
-700.529	-127.832	0.031	0.004
-699.514	800.000	-0.232	-0.652
-698.499	297.226	0.172	-0.318
-697.485	84.321	0.237	-0.261
-696.470	-200.000	-0.026	0.222
-695.456	-200.000	0.043	0.342
-694.441	-200.000	0.078	0.348
-693.426	-200.000	0.031	0.180
-692.412	2.030	0.110	0.080
-691.397	-121.009	-0.228	-0.038
-690.383	-93.565	-0.113	-0.032
-689.368	71.505	0.185	0.193
-688.354	76.389	0.161	0.172
-687.339	-75.744	0.295	0.105
-686.324	-125.847	0.229	-0.035
-685.310	-200.000	-0.009	-0.237
-684.295	-13.954	0.261	0.170
-683.281	1.419	-0.117	0.085
-682.266	-26.871	0.059	-0.034
-681.251	111.282	-0.265	-0.321
-680.237	-139.083	-0.195	-0.021
-679.222	107.205	0.095	-0.114
-678.208	-200.000	0.021	-0.113
-677.193	800.000	-0.053	-0.220
-676.178	-96.411	0.275	0.073
-675.164	582.584	-0.091	0.224
-674.149	449.603	-0.108	-0.239
-673.135	227.389	-0.110	0.179
-672.120	-164.641	0.069	0.003
-671.105	-200.000	-0.019	0.342
-670.091	-200.000	0.017	0.187
-669.076	43.558	0.183	0.168
-668.062	-173.183	-0.146	0.004
-667.047	800.000	0.033	-0.107
-666.032	-200.000	0.004	-0.080
-665.018	-25.460	-0.223	0.132
-664.003	458.406	0.240	-0.537
-662.989	141.168	-0.201	-0.267
-661.974	5.135	-0.103	0.076
-660.959	82.240	0.103	-0.113
-659.945	-143.044	-0.176	0.017
-658.930	492.733	-0.128	0.295
-657.916	800.000	0.099	-0.276
-656.901	101.452	-0.132	0.155
-655.886	-200.000	0.041	0.227
-654.872	83.937	0.096	-0.105
-653.857	122.121	-0.153	0.192
-652.843	-132.336	0.224	-0.029
-651.828	152.583	-0.084	0.115
-650.814	-33.351	0.067	0.037
-649.799	171.759	0.103	-0.148
-648.784	-43.348	-0.186	-0.094
-647.770	20.069	-0.260	0.211
-646.755	800.000	0.102	0.327
-645.741	-65.141	-0.123	-0.050
-644.726	-9.700	-0.109	0.073
-643.711	800.000	0.097	-0.352
-642.697	-41.228	0.128	-0.066
-641.682	648.266	0.013	0.033
-640.668	716.331	0.026	0.070
-639.653	-114.517	-0.044	-0.009
-638.638	-112.669	0.323	-0.065
-637.624	-87.058	0.316	0.097
-636.609	-38.609	-0.068	0.036
-635.595	17.302	0.275	-0.220
-634.580	450.279	-0.250	0.553
-633.565	-93.677	-0.322	-0.089
-632.551	176.469	0.024	-0.034
-631.536	-117.860	0.280	0.050
-630.522	-56.097	0.183	-0.082
-629.507	-56.847	0.183	-0.081
-628.492	-200.000	-0.039	-0.324
-627.478	-200.000	0.012	-0.155
-626.463	26.845	-0.388	0.327
-625.449	138.962	-0.113	-0.149
-624.434	100.667	0.277	-0.323
-623.419	-200.000	0.018	0.182
-622.405	85.085	-0.274	0.302
-621.390	800.000	0.048	0.199
-620.376	-200.000	-0.089	-0.459
-619.361	-200.000	0.117	-0.521
-618.346	79.162	-0.244	-0.263
-617.332	-61.627	0.168	0.071
-616.317	-145.129	-0.246	-0.022
-615.303	244.082	0.017	0.029
-614.288	-162.315	0.322	-0.016
-613.273	-116.610	0.230	-0.042
-612.259	-56.111	-0.106	-0.047
-611.244	-146.712	-0.223	0.019
-610.230	83.637	-0.123	0.135
-609.215	-30.460	0.314	0.179
-608.201	72.833	-0.097	-0.101
-607.186	74.802	0.113	-0.119
-606.171	771.483	-0.048	0.132
-605.157	-1.030	0.132	0.094
-604.142	-133.604	0.276	-0.035
-603.128	788.666	-0.063	-0.174
-602.113	-109.325	0.486	0.103
-601.098	131.821	-0.031	-0.040
-600.084	734.150	-0.001	-0.004
-599.069	-131.396	0.263	-0.035
-598.055	-199.250	0.101	0.001
-597.040	332.118	0.191	-0.369
-596.025	-200.000	0.024	-0.276
-595.011	-131.978	0.223	0.029
-593.996	294.558	-0.037	0.067
-592.982	800.000	-0.127	-0.392
-591.967	-200.000	0.032	-0.242
-590.952	72.369	-0.056	-0.059
-589.938	175.154	0.032	-0.047
-588.923	-113.901	0.108	0.021
-587.909	55.725	0.303	-0.294
-586.894	-10.215	-0.378	0.252
-585.879	-200.000	0.037	0.268
-584.865	393.515	-0.050	-0.105
-583.850	2.653	0.116	-0.084
-582.836	-200.000	0.021	0.239
-581.821	-3.686	-0.198	-0.138
-580.806	-200.000	0.037	0.243
-579.792	-0.390	-0.092	0.065
-578.777	-91.111	0.162	0.046
-577.763	-200.000	0.027	0.272
-576.748	-200.000	0.003	-0.035
-575.733	-200.000	0.031	0.299
-574.719	61.515	-0.174	-0.173
-573.704	-28.905	-0.033	0.019
-572.690	-171.943	0.438	0.014
-571.675	800.000	0.073	-0.279
-570.661	266.607	0.155	0.272
-569.646	-125.550	0.389	0.059
-568.631	-114.121	0.244	-0.047
-567.617	-130.255	-0.166	0.023
-566.602	800.000	-0.050	0.184
-565.588	-103.130	0.183	0.043
-564.573	-200.000	-0.041	0.288
-563.558	-200.000	-0.059	0.369
-562.544	-113.042	0.071	0.014
-561.529	-5.140	0.137	0.095
-560.515	800.000	-0.024	-0.094
-559.500	800.000	0.046	0.160
-558.485	800.000	0.053	0.205
-557.471	49.283	-0.310	-0.292
-556.456	-167.862	0.163	0.006
-555.442	800.000	-0.078	-0.230
-554.427	-71.714	0.125	0.047
-553.412	-125.442	-0.261	-0.040
-552.398	-16.265	0.277	0.176
-551.383	-195.889	-0.383	-0.003
-550.369	-200.000	-0.004	0.258
-549.354	191.248	0.204	-0.307
-548.339	-47.825	0.308	0.149
-547.325	-200.000	0.003	-0.186
-546.310	126.877	-0.112	-0.142
-545.296	800.000	-0.023	-0.068
-544.281	-118.124	0.175	-0.031
-543.266	348.211	0.059	-0.116
-542.252	473.053	0.072	-0.163
-541.237	-9.860	0.207	0.138
-540.223	242.662	-0.084	-0.141
-539.208	-200.000	0.049	-0.333
-538.193	-110.286	-0.094	-0.020
-537.179	32.266	-0.111	-0.096
-536.164	-200.000	-0.017	0.339
-535.150	31.367	-0.232	-0.199
-534.135	-139.343	0.448	0.048
-533.121	-27.987	0.173	-0.100
-532.106	-98.667	0.275	0.070
-531.091	-200.000	-0.353	0.000
-530.077	103.335	-0.075	0.088
-529.062	-200.000	-0.003	0.176
-528.048	651.769	0.171	0.437
-527.033	-38.527	-0.342	0.181
-526.018	-58.032	0.119	0.052
-525.004	-48.535	0.179	-0.086
-523.989	-200.000	0.015	-0.261
-522.975	-10.629	0.073	0.048
-521.960	-38.795	-0.098	-0.051
-520.945	-39.643	0.116	-0.061
-519.931	3.627	-0.155	0.113
-518.916	-10.506	0.114	0.076
-517.902	-9.640	0.181	-0.120
-516.887	28.774	-0.294	-0.249
-515.872	39.978	-0.048	-0.043
-514.858	2.244	0.078	0.056
-513.843	618.919	0.208	-0.521
-512.829	-91.540	-0.298	0.085
-511.814	-97.839	0.324	0.084
-510.799	-22.603	-0.129	0.078
-509.785	-28.580	-0.141	-0.081
-508.770	94.250	-0.270	-0.307
-507.756	-18.266	-0.281	0.175
-506.741	-31.210	-0.106	0.059
-505.726	-200.000	-0.011	-0.061
-504.712	-200.000	-0.006	0.033
-503.697	-103.716	0.197	0.046
-502.683	134.391	-0.153	0.198
-501.668	240.180	-0.068	-0.113
-500.653	230.819	-0.214	0.350
-499.639	-122.244	-0.224	-0.037
-498.624	-178.585	0.210	0.005
-497.610	325.179	-0.081	0.155
-496.595	522.804	-0.059	0.139
-495.581	-112.837	-0.246	-0.049
-494.566	350.829	-0.137	0.270
-493.551	-39.316	0.268	-0.140
-492.537	42.664	0.110	-0.100
-491.522	4.491	-0.250	0.183
-490.508	-200.000	0.038	0.268
-489.493	-200.000	-0.057	0.260
-488.478	-94.765	0.111	-0.030
-487.464	-200.000	-0.009	-0.162
-486.449	-89.976	0.107	-0.031
-485.435	432.843	0.127	-0.275
-484.420	-153.268	0.178	0.012
-483.405	-200.000	0.028	-0.143
-482.391	-200.000	-0.003	0.014
-481.376	46.942	0.265	0.246
-480.362	196.678	0.067	-0.102
-479.347	85.966	-0.146	0.160
-478.332	-200.000	-0.052	-0.361
-477.318	-53.280	-0.380	0.174
-476.303	1.043	0.206	0.147
-475.289	800.000	0.045	0.174
-474.274	274.695	-0.202	0.357
-473.259	-58.597	-0.245	-0.106
-472.245	-166.981	0.165	-0.007
-471.230	87.262	-0.118	-0.130
-470.216	136.368	0.077	0.100
-469.201	207.709	0.232	-0.361
-468.186	-200.000	-0.017	-0.104
-467.172	54.917	0.160	-0.154
-466.157	93.210	-0.280	-0.316
-465.143	-200.000	0.065	-0.365
-464.128	-200.000	0.008	-0.137
-463.113	-200.000	0.015	-0.181
-462.099	-146.417	-0.072	-0.006
-461.084	556.037	0.018	-0.044
-460.070	800.000	0.061	0.259
-459.055	-200.000	-0.007	0.128
-458.040	-90.466	0.132	0.038
-457.026	-23.054	-0.093	-0.056
-456.011	-25.172	0.391	0.231
-454.997	-83.995	-0.097	0.031
-453.982	800.000	-0.108	-0.338
-452.968	766.136	0.101	0.273
-451.953	391.010	-0.163	-0.337
-450.938	800.000	-0.028	0.102
-449.924	-21.978	0.155	0.094
-448.909	33.557	-0.216	-0.188
-447.895	112.763	-0.107	-0.129
-446.880	-14.604	-0.147	0.094
-445.865	-11.592	0.241	-0.158
-444.851	-48.683	-0.078	-0.037
-443.836	429.494	0.189	0.408
-442.822	800.000	0.024	0.089
-441.807	-133.836	-0.117	0.014
-440.792	181.093	0.125	-0.183
-439.778	-112.938	0.148	-0.029
-438.763	4.974	0.058	0.042
-437.749	-123.903	-0.095	0.015
-436.734	31.125	0.102	0.087
-435.719	-26.810	0.182	0.106
-434.705	192.980	0.199	0.299
-433.690	30.203	-0.100	0.085
-432.676	-200.000	-0.000	-0.106
-431.661	-110.937	-0.585	-0.120
-430.646	-200.000	0.030	-0.250
-429.632	-50.123	0.177	0.083
-428.617	408.559	-0.083	-0.175
-427.603	-110.947	-0.164	0.034
-426.588	800.000	-0.053	-0.174
-425.573	-168.407	0.196	-0.007
-424.559	541.368	-0.117	0.278
-423.544	-90.405	-0.270	-0.078
-422.530	-200.000	0.022	-0.312
-421.515	-144.123	0.100	0.009
-420.500	-130.742	-0.195	0.026
-419.486	311.162	-0.071	0.133
-418.471	-123.458	0.040	0.006
-417.457	343.893	0.067	0.131
-416.442	28.301	0.127	-0.107
-415.428	-35.133	-0.080	0.043
-414.413	-89.778	-0.246	0.072
-413.398	800.000	-0.040	0.164
-412.384	486.381	-0.071	-0.160
-411.369	36.581	0.145	-0.127
-410.355	-87.367	-0.603	-0.182
-409.340	-125.549	-0.213	0.032
-408.325	800.000	0.059	-0.250
-407.311	-200.000	0.020	-0.099
-406.296	750.467	0.119	-0.319
-405.282	-12.429	-0.161	-0.105
-404.267	106.721	0.166	0.195
-403.252	102.161	-0.133	-0.155
-402.238	32.753	0.106	0.091
-401.223	-84.580	0.184	-0.058
-400.209	153.266	-0.206	0.281
-399.194	-200.000	-0.035	-0.320
-398.179	119.707	-0.166	-0.204
-397.165	800.000	0.053	-0.201
-396.150	-107.505	-0.177	0.039
-395.136	800.000	0.086	-0.312
-394.121	251.354	-0.120	-0.203
-393.106	-39.546	-0.250	0.130
-392.092	-59.290	-0.039	0.017
-391.077	-121.282	-0.073	0.012
-390.063	-200.000	0.012	-0.321
-389.048	200.841	0.196	-0.300
-388.033	-73.397	-0.095	-0.034
-387.019	305.285	-0.200	-0.369
-386.004	-200.000	0.002	0.072
-384.990	-6.395	-0.239	0.162
-383.975	-200.000	0.054	0.309
-382.960	-93.941	-0.153	-0.042
-381.946	90.584	0.114	-0.127
-380.931	-81.027	-0.187	0.062
-379.917	-134.863	-0.232	0.028
-378.902	70.447	0.038	0.039
-377.888	96.162	-0.126	-0.143
-376.873	-5.956	0.139	0.095
-375.858	-200.000	0.074	0.321
-374.844	362.240	-0.275	-0.550
-373.829	241.486	-0.078	-0.129
-372.815	-83.744	0.124	0.039
-371.800	-92.803	0.218	0.061
-370.785	-33.952	-0.124	0.068
-369.771	-147.766	0.101	-0.008
-368.756	-64.422	0.517	-0.209
-367.742	54.528	0.127	0.122
-366.727	-152.536	0.033	0.002
-365.712	27.063	-0.179	0.149
-364.698	-200.000	-0.023	-0.150
-363.683	325.899	-0.168	0.319
-362.669	-121.483	0.464	0.077
-361.654	-200.000	0.003	-0.042
-360.639	-120.564	0.217	-0.037
-359.625	157.337	0.061	-0.084
-358.610	181.244	-0.109	-0.159
-357.596	-90.902	-0.095	0.027
-356.581	-186.924	0.047	-0.001
-355.566	800.000	-0.020	-0.069
-354.552	399.120	0.143	0.297
-353.537	2.047	-0.205	0.147
-352.523	102.481	-0.110	0.128
-351.508	-6.103	0.151	-0.102
-350.493	69.592	0.097	0.099
-349.479	-113.289	-0.305	-0.059
-348.464	-200.000	0.048	0.262
-347.450	-38.962	0.117	0.061
-346.435	-62.879	-0.194	-0.080
-345.420	-54.665	0.458	0.206
-344.406	22.649	0.228	0.186
-343.391	696.060	-0.128	0.335
-342.377	-57.383	0.141	-0.061
-341.362	-200.000	0.066	-0.321
-340.348	214.318	0.084	-0.132
-339.333	94.189	-0.187	0.210
-338.318	191.354	-0.049	-0.074
-337.304	108.040	0.214	0.254
-336.289	7.130	0.169	-0.125
-335.275	144.519	0.044	-0.058
-334.260	-7.365	-0.087	0.059
-333.245	508.802	0.079	0.182
-332.231	-84.980	-0.149	0.046
-331.216	-200.000	-0.038	-0.370
-330.202	-109.299	-0.139	0.029
-329.187	-200.000	-0.031	-0.164
-328.172	-200.000	-0.002	-0.028
-327.158	14.183	0.149	0.115
-326.143	15.732	-0.167	0.130
-325.129	-200.000	0.006	-0.159
-324.114	174.131	-0.149	0.213
-323.099	-169.748	-0.183	0.007
-322.085	130.924	0.159	0.202
-321.070	-115.967	0.090	-0.017
-320.056	567.916	0.157	-0.379
-319.041	800.000	0.119	0.378
-318.026	-8.322	0.287	-0.191
-317.012	-37.798	-0.216	-0.114
-315.997	-118.704	-0.093	-0.016
-314.983	-80.882	0.270	0.089
-313.968	-98.610	-0.285	0.072
-312.953	-200.000	-0.078	-0.447
-311.939	151.268	0.063	-0.085
-310.924	-200.000	-0.013	0.137
-309.910	204.278	-0.059	-0.091
-308.895	800.000	0.070	-0.230
-307.880	58.711	0.338	-0.329
-306.866	10.810	0.060	0.045
-305.851	27.978	0.117	0.098
-304.837	-154.905	-0.251	-0.016
-303.822	-50.454	0.268	-0.125
-302.807	-111.611	0.061	-0.012
-301.793	-147.559	-0.299	-0.025
-300.778	-200.000	0.012	-0.189
-299.764	122.648	0.098	-0.122
-298.749	37.376	-0.048	-0.042
-297.735	-57.035	0.166	0.072
-296.720	800.000	0.058	0.163
-295.705	147.517	-0.265	-0.354
-294.691	38.551	-0.337	-0.298
-293.676	-174.490	-0.144	0.004
-292.662	42.086	0.245	0.221
-291.647	293.359	0.144	0.261
-290.632	93.992	-0.092	-0.104
-289.618	507.567	0.129	-0.297
-288.603	56.200	-0.104	0.100
-287.589	139.552	0.099	-0.130
-286.574	163.425	-0.204	0.284
-285.559	391.715	0.076	0.156
-284.545	371.551	-0.048	-0.096
-283.530	105.024	0.163	0.190
-282.516	-165.861	-0.053	0.002
-281.501	514.191	-0.034	0.078
-280.486	-60.494	0.269	-0.113
-279.472	-77.992	0.230	0.079
-278.457	-9.522	-0.289	-0.191
-277.443	71.036	-0.073	-0.075
-276.428	-100.734	-0.316	-0.077
-275.413	0.793	0.243	0.173
-274.399	-200.000	0.022	-0.210
-273.384	50.375	0.079	0.074
-272.370	-200.000	0.002	-0.146
-271.355	-200.000	-0.042	0.354
-270.340	800.000	-0.066	-0.269
-269.326	-200.000	-0.007	0.440
-268.311	-131.772	-0.363	0.047
-267.297	22.613	0.045	-0.037
-266.282	800.000	-0.020	0.067
-265.267	-200.000	0.057	-0.251
-264.253	188.601	0.106	0.157
-263.238	-37.397	-0.223	0.118
-262.224	-69.513	-0.181	-0.069
-261.209	47.009	0.101	-0.093
-260.195	-200.000	0.013	0.061
-259.180	129.186	0.067	0.084
-258.165	-10.476	-0.264	0.173
-257.151	-166.419	0.227	-0.009
-256.136	728.921	-0.115	0.303
-255.122	429.233	-0.018	-0.038
-254.107	-78.393	-0.067	0.023
-253.092	410.484	0.072	0.151
-252.078	438.577	-0.169	0.365
-251.063	-70.454	0.143	-0.053
-250.049	-103.445	-0.192	-0.045
-249.034	510.406	-0.159	-0.366
-248.019	-28.854	-0.092	-0.052
-247.005	-144.350	0.178	0.016
-245.990	312.958	-0.071	-0.132
-244.976	315.690	-0.200	-0.373
-243.961	-200.000	-0.011	0.299
-242.946	-140.524	0.036	0.004
-241.932	800.000	0.136	0.466
-240.917	-179.535	0.188	-0.004
-239.903	-42.775	-0.267	-0.134
-238.888	-75.293	-0.095	0.033
-237.873	713.042	0.038	0.101
-236.859	-51.334	-0.079	-0.036
-235.844	-108.105	-0.192	0.041
-234.830	305.950	0.193	0.355
-233.815	30.866	-0.281	0.238
-232.800	-150.873	0.092	-0.007
-231.786	79.075	0.304	-0.322
-230.771	93.399	0.111	0.125
-229.757	600.351	-0.097	-0.238
-228.742	-200.000	-0.016	-0.095
-227.727	-142.639	0.358	0.035
-226.713	-41.303	-0.409	0.208
-225.698	11.431	0.093	-0.070
-224.684	579.230	0.198	0.480
-223.669	-91.483	-0.319	0.090
-222.655	800.000	-0.043	-0.171
-221.640	-163.978	-0.198	0.009
-220.625	800.000	0.042	0.178
-219.611	399.581	0.057	-0.118
-218.596	35.749	0.071	0.062
-217.582	-200.000	0.016	-0.110
-216.567	-200.000	0.005	0.078
-215.552	-200.000	-0.014	-0.155
-214.538	-200.000	-0.044	0.192
-213.523	-79.332	-0.162	0.054
-212.509	-40.948	0.184	0.094
-211.494	79.087	0.063	-0.066
-210.479	-200.000	0.050	0.350
-209.465	-200.000	0.007	0.081
-208.450	-118.428	0.133	-0.023
-207.436	634.733	-0.165	0.413
-206.421	-66.460	-0.234	-0.092
-205.406	135.343	0.301	-0.387
-204.392	-200.000	0.049	-0.282
-203.377	-12.137	0.191	-0.124
-202.363	800.000	0.038	0.108
-201.348	800.000	-0.085	0.265
-200.333	800.000	-0.085	0.234
-199.319	-200.000	0.026	-0.378
-198.304	36.460	-0.094	0.082
-197.290	345.082	0.135	-0.261
-196.275	266.597	0.172	0.297
-195.260	-32.126	0.130	-0.072
-194.246	800.000	-0.100	0.316
-193.231	-200.000	-0.022	0.133
-192.217	-89.452	-0.351	-0.102
-191.202	-148.988	0.359	0.029
-190.187	-200.000	-0.054	-0.299
-189.173	800.000	0.061	-0.179
-188.158	-119.642	-0.224	-0.038
-187.144	-146.838	-0.169	-0.014
-186.129	-200.000	0.088	0.507
-185.114	800.000	-0.070	0.296
-184.100	-200.000	-0.036	-0.170
-183.085	211.782	0.070	0.108
-182.071	800.000	-0.122	-0.519
-181.056	-125.960	-0.267	0.040
-180.042	-33.235	0.069	-0.038
-179.027	-45.275	0.166	-0.081
-178.012	77.765	-0.087	-0.091
-176.998	800.000	-0.064	0.267
-175.983	-27.240	0.163	0.094
-174.969	-31.043	0.272	-0.151
-173.954	-58.648	-0.230	0.098
-172.939	-110.620	-0.172	0.035
-171.925	-200.000	-0.009	-0.206
-170.910	800.000	-0.119	-0.345
-169.896	-48.921	-0.410	0.194
-168.881	147.783	0.083	-0.110
-167.866	143.860	-0.102	-0.134
-166.852	800.000	-0.112	0.332
-165.837	213.336	-0.189	0.295
-164.823	-61.924	0.194	0.080
-163.808	35.598	0.166	0.144
-162.793	151.679	-0.142	0.190
-161.779	677.559	-0.151	-0.387
-160.764	-200.000	-0.025	-0.112
-159.750	548.376	-0.130	0.306
-158.735	-200.000	0.115	0.517
-157.720	-200.000	-0.005	0.290
-156.706	-70.235	-0.181	-0.068
-155.691	-5.288	0.184	0.125
-154.677	-200.000	-0.005	0.576
-153.662	-75.254	0.189	-0.066
-152.647	-28.529	0.041	0.023
-151.633	-200.000	0.015	-0.222
-150.618	-19.734	0.165	-0.101
-149.604	800.000	-0.038	0.135
-148.589	-19.830	0.205	0.125
-147.574	68.651	-0.203	-0.205
-146.560	-82.306	-0.316	-0.101
-145.545	169.392	-0.202	0.284
-144.531	-200.000	0.002	0.168
-143.516	-159.929	0.062	0.003
-142.502	50.187	-0.114	0.106
-141.487	74.321	0.169	-0.175
-140.472	-200.000	0.003	0.108
-139.458	508.068	0.051	0.117
-138.443	-16.273	-0.276	0.173
-137.429	-67.223	0.151	-0.058
-136.414	7.934	0.138	-0.102
-135.399	-81.097	0.068	-0.022
-134.385	126.322	-0.137	0.170
-133.370	-132.911	0.254	0.032
-132.356	1.205	-0.115	-0.081
-131.341	136.264	-0.158	0.203
-130.326	-140.364	-0.404	-0.042
-129.312	-51.368	0.218	0.101
-128.297	3.631	-0.362	-0.260
-127.283	-105.497	0.127	0.028
-126.268	-25.742	0.255	0.148
-125.253	-200.000	-0.023	0.353
-124.239	0.151	0.160	-0.112
-123.224	800.000	-0.087	0.345
-122.210	-200.000	-0.022	-0.208
-121.195	-112.421	0.372	0.073
