DTS Sentinel unit serial number:	SN413079Multiplexer serial number:	ORYXHardware model number:	OX4-SRSoftware version number:	ORYX F/W v4.00 Oryx Data Collector v3.7.2.0data status	okinstallation	princeton_trtdifferential loss correction	single-endedforward channel	channel 2reverse channel	N/Adate	2019/09/11time	09:25:11forward acquisition time	60.00reverse acquisition time	0.00gamma	496.2192k internal	0.2317k external	0.2317temperature offset calibration	0.9967default loss term (dB/km)	0.3790temperature slope calibration	1.0000multiplexer offset coefficient	1.0000multiplexer slope coefficient	1.0000fibre end	0.00T internal ref (°C)	34.58T ext. ref 1 (°C)	0.10T ext. ref 2 (°C)	31.56length (m)	temperature (°C)	Stokes	anti-Stokes-747.200	-98.190	0.125	0.033
-746.185	-59.745	-0.293	0.127
-745.171	800.000	0.104	-0.445
-744.156	-69.930	0.407	0.157
-743.142	-45.248	0.115	-0.058
-742.127	250.345	0.032	-0.055
-741.112	-72.950	0.059	0.022
-740.098	-200.000	-0.005	0.301
-739.083	-21.422	0.210	-0.129
-738.069	-42.624	0.167	0.086
-737.054	192.952	-0.124	-0.189
-736.039	-84.129	-0.467	-0.150
-735.025	106.286	0.081	0.097
-734.010	108.887	-0.136	-0.164
-732.996	7.862	0.412	-0.313
-731.981	-132.867	-0.092	0.012
-730.966	544.420	-0.054	-0.132
-729.952	548.058	-0.098	-0.236
-728.937	800.000	-0.142	-0.489
-727.923	44.075	0.402	-0.373
-726.908	2.340	-0.075	-0.055
-725.894	-200.000	0.014	-0.065
-724.879	-200.000	0.014	0.186
-723.864	-25.848	0.198	0.118
-722.850	-72.527	-0.353	-0.132
-721.835	-134.124	0.097	0.012
-720.821	9.324	-0.166	0.127
-719.806	116.574	0.152	0.189
-718.791	-119.664	0.155	0.027
-717.777	14.337	-0.272	-0.215
-716.762	-21.697	-0.201	-0.124
-715.748	-127.235	0.203	-0.030
-714.733	-200.000	0.044	-0.254
-713.718	142.089	-0.049	-0.065
-712.704	-31.059	0.212	0.121
-711.689	-100.701	-0.248	-0.062
-710.675	-21.466	-0.329	-0.203
-709.660	-132.292	-0.157	-0.021
-708.645	-126.736	-0.284	-0.042
-707.631	-144.680	-0.197	0.018
-706.616	227.693	0.052	0.086
-705.602	248.615	0.201	-0.343
-704.587	-200.000	0.051	-0.253
-703.572	393.494	0.103	-0.217
-702.558	187.030	0.178	-0.268
-701.543	-63.548	0.261	0.108
-700.529	-200.000	0.069	-0.377
-699.514	350.738	-0.046	-0.093
-698.499	761.627	0.038	-0.104
-697.485	-88.353	0.094	-0.028
-696.470	-200.000	-0.051	0.230
-695.456	369.391	-0.176	-0.360
-694.441	53.691	-0.108	-0.105
-693.426	-65.972	0.268	0.108
-692.412	-200.000	-0.070	-0.379
-691.397	-164.278	0.233	0.011
-690.383	-200.000	0.031	-0.149
-689.368	308.810	0.101	0.190
-688.354	-200.000	-0.054	-0.281
-687.339	-172.993	0.277	-0.009
-686.324	800.000	-0.030	-0.113
-685.310	-165.974	-0.147	0.006
-684.295	41.860	-0.084	0.077
-683.281	-200.000	0.062	0.372
-682.266	521.126	0.029	-0.068
-681.251	-112.957	-0.212	0.042
-680.237	-69.658	-0.231	-0.089
-679.222	800.000	-0.032	-0.108
-678.208	150.919	-0.103	0.141
-677.193	-11.868	-0.188	-0.125
-676.178	-136.310	-0.256	0.030
-675.164	-123.702	-0.076	-0.012
-674.149	-114.396	-0.106	0.021
-673.135	12.983	-0.155	0.121
-672.120	-200.000	0.032	-0.211
-671.105	-166.863	-0.291	-0.012
-670.091	-72.182	-0.073	-0.027
-669.076	-200.000	-0.043	-0.231
-668.062	-200.000	0.010	0.216
-667.047	559.509	-0.135	-0.329
-666.032	-128.579	0.272	-0.039
-665.018	132.385	0.089	-0.116
-664.003	-200.000	0.038	-0.177
-662.989	-164.709	-0.089	-0.004
-661.974	394.045	-0.045	0.095
-660.959	62.448	-0.085	-0.085
-659.945	-88.728	0.164	-0.049
-658.930	-59.707	0.147	0.064
-657.916	800.000	0.012	-0.049
-656.901	-156.015	-0.196	-0.013
-655.886	101.848	-0.095	0.112
-654.872	800.000	-0.035	0.109
-653.857	-38.123	0.157	-0.084
-652.843	326.845	0.042	-0.082
-651.828	-82.647	-0.247	0.081
-650.814	65.968	0.052	-0.054
-649.799	-69.647	0.260	0.100
-648.784	282.297	-0.076	-0.137
-647.770	487.909	0.222	0.512
-646.755	-22.048	-0.291	-0.178
-645.741	72.604	-0.206	-0.217
-644.726	-48.993	-0.105	-0.051
-643.711	103.641	-0.047	-0.056
-642.697	-85.318	0.341	0.107
-641.682	800.000	-0.062	0.245
-640.668	-139.387	-0.135	-0.015
-639.653	178.667	-0.113	-0.167
-638.638	-111.170	-0.304	0.063
-637.624	800.000	-0.020	0.079
-636.609	-200.000	-0.005	-0.070
-635.595	-200.000	-0.048	0.229
-634.580	-1.786	-0.097	-0.069
-633.565	-1.251	0.275	-0.196
-632.551	123.951	-0.296	-0.374
-631.536	-63.079	-0.153	-0.064
-630.522	-95.701	-0.436	0.117
-629.507	14.559	0.075	0.059
-628.492	-200.000	-0.024	-0.150
-627.478	-132.746	-0.076	0.010
-626.463	-62.856	-0.505	-0.211
-625.449	-140.394	0.120	0.013
-624.434	167.620	0.147	0.210
-623.419	-175.317	-0.173	0.005
-622.405	-124.137	-0.094	-0.015
-621.390	89.031	-0.160	-0.180
-620.376	-200.000	0.019	0.180
-619.361	-109.174	0.201	0.043
-618.346	-61.615	-0.295	-0.125
-617.332	41.848	0.331	0.303
-616.317	-200.000	-0.004	0.213
-615.303	-9.590	0.087	-0.058
-614.288	-160.252	0.241	-0.013
-613.273	-200.000	-0.012	-0.139
-612.259	-99.776	0.061	0.015
-611.244	730.517	-0.143	-0.385
-610.230	-67.131	-0.267	-0.106
-609.215	800.000	0.035	0.104
-608.201	800.000	-0.090	-0.270
-607.186	-108.202	0.102	0.022
-606.171	-3.848	-0.102	0.071
-605.157	172.122	0.143	0.206
-604.142	55.609	-0.206	-0.201
-603.128	-77.416	-0.377	-0.132
-602.113	-200.000	0.063	0.286
-601.098	366.921	-0.205	-0.416
-600.084	-69.431	-0.054	0.021
-599.069	121.434	-0.195	0.245
-598.055	15.163	0.209	-0.165
-597.040	63.999	-0.141	0.143
-596.025	125.762	-0.062	0.079
-595.011	-174.741	-0.317	-0.009
-593.996	47.621	0.144	0.136
-592.982	-141.183	0.310	0.032
-591.967	616.285	0.018	-0.045
-590.952	-60.650	0.197	-0.084
-589.938	-75.140	-0.325	0.117
-588.923	-200.000	0.042	-0.306
-587.909	29.168	-0.191	0.163
-586.894	246.506	-0.117	0.198
-585.879	188.159	0.102	0.153
-584.865	-62.374	0.246	-0.103
-583.850	175.807	0.136	0.199
-582.836	-24.283	0.317	-0.191
-581.821	-155.199	-0.235	0.015
-580.806	-126.651	0.167	-0.025
-579.792	124.800	-0.172	0.217
-578.777	-56.280	-0.140	-0.063
-577.763	593.899	-0.059	0.147
-576.748	-95.344	0.287	-0.078
-575.733	800.000	0.018	-0.058
-574.719	-200.000	-0.002	-0.074
-573.704	21.031	-0.247	-0.201
-572.690	-97.044	-0.184	-0.049
-571.675	-1.531	-0.093	0.066
-570.661	345.575	0.091	-0.181
-569.646	145.129	-0.094	-0.127
-568.631	17.996	0.168	0.135
-567.617	34.537	-0.182	0.160
-566.602	-200.000	0.047	-0.214
-565.588	553.984	0.114	-0.275
-564.573	-58.688	-0.150	0.065
-563.558	-51.957	-0.176	0.082
-562.544	-33.978	0.216	-0.119
-561.529	-144.770	0.409	-0.038
-560.515	-143.581	0.053	0.005
-559.500	30.076	0.339	-0.291
-558.485	-92.113	-0.154	0.044
-557.471	213.940	0.169	-0.269
-556.456	125.649	0.194	-0.246
-555.442	83.281	0.117	0.128
-554.427	-200.000	-0.069	0.356
-553.412	-71.428	0.236	0.089
-552.398	-200.000	0.045	-0.310
-551.383	83.006	-0.176	0.192
-550.369	597.778	-0.050	0.125
-549.354	166.987	0.021	0.030
-548.339	800.000	0.024	-0.079
-547.325	-4.104	0.146	-0.102
-546.310	-200.000	-0.028	0.250
-545.296	-50.617	-0.207	0.098
-544.281	39.766	0.208	0.187
-543.266	555.008	-0.071	-0.173
-542.252	-137.341	-0.279	0.032
-541.237	109.481	0.101	-0.122
-540.223	800.000	0.134	-0.488
-539.208	743.803	0.073	0.196
-538.193	-147.096	-0.323	-0.028
-537.179	123.975	0.152	0.192
-536.164	281.772	0.129	-0.233
-535.150	-150.973	-0.148	-0.011
-534.135	-8.112	-0.233	0.157
-533.121	-200.000	0.046	0.267
-532.106	80.580	0.172	0.186
-531.091	57.919	-0.099	-0.097
-530.077	429.204	-0.078	-0.170
-529.062	-8.654	0.094	-0.063
-528.048	-18.644	-0.265	0.166
-527.033	800.000	0.146	0.449
-526.018	-19.613	0.116	-0.072
-525.004	110.625	-0.117	0.141
-523.989	23.141	0.189	-0.156
-522.975	-200.000	0.072	0.402
-521.960	-200.000	0.017	-0.148
-520.945	-128.813	0.153	0.022
-519.931	-185.116	0.191	0.003
-518.916	-126.489	0.258	-0.039
-517.902	-59.210	0.136	0.059
-516.887	53.095	0.056	-0.054
-515.872	44.158	-0.121	-0.111
-514.858	800.000	0.058	-0.183
-513.843	12.114	-0.240	0.185
-512.829	382.771	0.118	-0.243
-511.814	-1.955	-0.091	0.064
-510.799	21.420	-0.104	0.085
-509.785	-200.000	0.015	0.178
-508.770	-200.000	-0.026	-0.132
-507.756	366.951	0.112	0.227
-506.741	-164.603	-0.429	-0.020
-505.726	18.578	-0.287	-0.230
-504.712	-109.456	0.342	0.072
-503.697	-35.760	0.156	0.085
-502.683	-150.423	0.296	0.023
-501.668	-180.346	0.134	-0.003
-500.653	-59.612	0.251	-0.108
-499.639	-200.000	-0.020	-0.193
-498.624	97.244	-0.060	0.069
-497.610	-48.942	0.072	0.035
-496.595	-27.881	-0.210	-0.122
-495.581	50.203	-0.093	0.088
-494.566	-200.000	0.034	-0.151
-493.551	-18.695	0.184	-0.115
-492.537	-200.000	-0.019	-0.206
-491.522	207.082	0.099	0.155
-490.508	-148.334	-0.390	0.032
-489.493	-80.344	0.353	0.118
-488.478	-68.504	0.026	0.010
-487.464	-200.000	-0.009	0.051
-486.449	-200.000	-0.010	0.046
-485.435	-69.261	-0.142	0.055
-484.420	230.586	-0.214	-0.352
-483.405	-161.788	0.184	0.009
-482.391	101.771	0.032	-0.037
-481.376	-108.477	0.260	0.056
-480.362	-200.000	0.005	0.069
-479.347	-37.954	-0.100	0.053
-478.332	29.868	-0.324	0.276
-477.318	-8.416	-0.288	-0.194
-476.303	138.364	0.114	-0.150
-475.289	-200.000	0.001	-0.165
-474.274	-101.340	0.092	-0.022
-473.259	25.775	-0.146	-0.122
-472.245	114.173	-0.132	0.160
-471.230	68.091	0.176	0.180
-470.216	-14.360	-0.098	-0.063
-469.201	-60.238	-0.096	0.041
-468.186	350.048	-0.059	-0.118
-467.172	-200.000	-0.022	-0.414
-466.157	101.878	0.163	-0.191
-465.143	161.043	0.104	-0.145
-464.128	800.000	-0.068	-0.269
-463.113	10.222	0.210	-0.160
-462.099	16.379	0.158	0.125
-461.084	-58.851	0.200	0.086
-460.070	163.194	0.192	-0.270
-459.055	-200.000	0.055	0.356
-458.040	346.062	0.101	0.199
-457.026	58.576	-0.213	-0.210
-456.011	-96.148	-0.245	-0.065
-454.997	-92.224	-0.298	0.084
-453.982	-200.000	-0.007	-0.229
-452.968	-28.239	0.210	-0.121
-451.953	-200.000	-0.031	0.345
-450.938	73.028	-0.226	0.236
-449.924	-25.285	-0.181	0.107
-448.909	242.712	-0.074	-0.124
-447.895	800.000	-0.029	-0.106
-446.880	233.024	-0.083	0.137
-445.865	253.200	0.226	-0.386
-444.851	-106.876	-0.182	0.040
-443.836	-128.123	-0.196	0.028
-442.822	800.000	0.091	-0.340
-441.807	800.000	0.090	0.288
-440.792	-65.045	0.077	0.031
-439.778	93.822	0.196	0.222
-438.763	282.074	-0.160	0.287
-437.749	81.173	0.093	0.101
-436.734	800.000	0.008	-0.033
-435.719	-200.000	0.011	0.256
-434.705	-107.246	-0.045	0.010
-433.690	-200.000	0.017	0.223
-432.676	247.495	0.110	-0.185
-431.661	-64.874	0.329	0.133
-430.646	216.261	0.155	-0.247
-429.632	-130.505	0.262	-0.035
-428.617	240.002	0.095	-0.158
-427.603	800.000	-0.068	-0.248
-426.588	-123.118	0.258	0.041
-425.573	-146.425	0.111	-0.010
-424.559	-200.000	-0.045	0.289
-423.544	800.000	0.100	0.355
-422.530	121.745	-0.201	-0.251
-421.515	-21.464	-0.150	0.092
-420.500	192.925	0.080	0.121
-419.486	-200.000	0.016	0.214
-418.471	-200.000	-0.019	0.107
-417.457	225.741	-0.146	-0.236
-416.442	678.087	-0.105	-0.272
-415.428	-19.017	-0.277	0.172
-414.413	-46.585	-0.187	0.092
-413.398	-75.231	-0.533	0.190
-412.384	-6.659	0.072	0.049
-411.369	116.301	0.138	-0.169
-410.355	117.625	0.163	-0.200
-409.340	263.216	-0.203	0.353
-408.325	-19.551	-0.228	-0.141
-407.311	-101.749	-0.159	0.039
-406.296	181.639	-0.146	0.214
-405.282	-200.000	-0.002	-0.319
-404.267	-200.000	0.009	-0.097
-403.252	-19.026	-0.296	-0.184
-402.238	800.000	0.081	-0.299
-401.223	-80.645	0.376	0.125
-400.209	-200.000	0.039	-0.240
-399.194	-87.557	-0.241	-0.073
-398.179	-7.687	0.058	0.039
-397.165	-39.188	0.124	-0.065
-396.150	362.787	-0.130	-0.261
-395.136	-77.187	0.191	-0.066
-394.121	18.242	-0.290	0.231
-393.106	-70.089	0.041	-0.016
-392.092	229.032	-0.203	0.330
-391.077	-54.119	-0.240	0.109
-390.063	-200.000	0.028	-0.123
-389.048	-41.133	0.253	0.130
-388.033	-54.315	0.259	0.118
-387.019	-200.000	0.007	-0.172
-386.004	-67.077	0.266	0.105
-384.990	-93.313	-0.282	-0.078
-383.975	800.000	-0.049	0.159
-382.960	-70.081	0.031	-0.012
-381.946	154.067	-0.131	-0.179
-380.931	135.043	0.163	-0.212
-379.917	163.998	0.023	0.032
-378.902	9.737	0.230	-0.174
-377.888	-37.574	-0.332	-0.176
-376.873	296.609	0.132	-0.242
-375.858	-167.077	0.377	0.015
-374.844	-200.000	0.041	-0.542
-373.829	800.000	0.087	0.332
-372.815	-200.000	-0.009	0.142
-371.800	27.596	-0.178	0.150
-370.785	165.244	-0.213	0.301
-369.771	303.366	-0.045	0.083
-368.756	-145.849	0.238	-0.021
-367.742	434.686	0.122	0.265
-366.727	-51.718	-0.210	0.098
-365.712	559.496	0.080	-0.192
-364.698	-149.288	-0.184	-0.015
-363.683	686.338	-0.098	-0.256
-362.669	-36.879	0.170	0.091
-361.654	189.262	-0.186	0.278
-360.639	143.103	-0.213	0.283
-359.625	-131.243	-0.267	-0.035
-358.610	153.215	-0.147	0.201
-357.596	158.831	-0.103	0.143
-356.581	-200.000	0.072	0.338
-355.566	-158.487	0.289	0.017
-354.552	-84.783	-0.234	0.073
-353.537	-200.000	0.014	0.325
-352.523	326.840	-0.154	0.294
-351.508	7.343	-0.067	-0.050
-350.493	-60.110	-0.115	0.049
-349.479	-200.000	0.036	0.186
-348.464	321.368	-0.020	0.038
-347.450	68.870	-0.237	0.242
-346.435	-200.000	-0.015	0.143
-345.420	-200.000	0.076	-0.368
-344.406	18.524	-0.162	-0.129
-343.391	-24.479	-0.205	0.122
-342.377	-137.052	-0.125	0.014
-341.362	-200.000	-0.016	0.438
-340.348	22.432	-0.129	-0.106
-339.333	-150.801	-0.497	0.038
-338.318	-33.362	0.386	-0.213
-337.304	-112.683	-0.191	0.038
-336.289	178.601	-0.220	0.320
-335.275	-200.000	-0.007	0.110
-334.260	-92.709	0.049	0.014
-333.245	-68.145	-0.178	-0.069
-332.231	-126.897	0.180	0.026
-331.216	-41.329	-0.168	-0.086
-330.202	-200.000	-0.019	-0.269
-329.187	-17.313	-0.317	0.199
-328.172	-7.040	0.232	-0.157
-327.158	-114.920	-0.202	-0.038
-326.143	46.851	-0.032	0.030
-325.129	-200.000	0.024	0.287
-324.114	240.227	0.165	-0.273
-323.099	-133.447	-0.174	0.022
-322.085	135.583	0.331	0.428
-321.070	-200.000	0.022	0.321
-320.056	-200.000	0.047	-0.326
-319.041	800.000	-0.049	0.139
-318.026	-200.000	0.003	0.135
-317.012	-200.000	0.024	-0.123
-315.997	-200.000	-0.023	-0.106
-314.983	451.245	0.078	-0.171
-313.968	-54.819	0.074	-0.033
-312.953	618.026	-0.038	-0.096
-311.939	17.351	0.168	-0.133
-310.924	-74.025	-0.138	0.050
-309.910	-200.000	0.000	-0.359
-308.895	-145.458	-0.083	0.007
-307.880	408.747	0.094	-0.197
-306.866	26.393	-0.175	0.146
-305.851	800.000	0.016	-0.064
-304.837	-200.000	-0.052	-0.289
-303.822	800.000	0.017	0.050
-302.807	46.953	0.043	-0.040
-301.793	800.000	0.096	-0.405
-300.778	-51.979	-0.231	-0.107
-299.764	454.039	0.116	0.255
-298.749	46.727	-0.211	-0.195
-297.735	-31.385	-0.140	-0.078
-296.720	-200.000	0.044	-0.250
-295.705	-200.000	-0.017	0.361
-294.691	-107.358	-0.328	-0.072
-293.676	69.915	0.167	-0.171
-292.662	-200.000	0.097	0.441
-291.647	-200.000	0.048	0.262
-290.632	-86.031	0.152	0.047
-289.618	153.749	-0.189	-0.258
-288.603	800.000	-0.072	0.251
-287.589	-150.677	0.213	0.016
-286.574	34.513	0.091	-0.079
-285.559	800.000	-0.073	-0.207
-284.545	5.742	0.216	-0.159
-283.530	253.516	0.205	0.349
-282.516	151.720	-0.046	-0.063
-281.501	-77.152	-0.201	-0.070
-280.486	-60.745	-0.290	0.122
-279.472	-33.160	0.024	0.013
-278.457	260.722	0.070	-0.120
-277.443	139.767	-0.147	-0.192
-276.428	246.912	0.026	0.043
-275.413	-14.459	0.208	0.133
-274.399	541.484	-0.111	-0.262
-273.384	-37.529	0.173	0.092
-272.370	178.950	0.189	-0.275
-271.355	-200.000	0.010	-0.095
-270.340	73.066	-0.202	0.210
-269.326	182.907	0.107	-0.157
-268.311	218.338	0.059	0.094
-267.297	190.605	-0.068	0.102
-266.282	-200.000	-0.040	0.269
-265.267	23.077	0.137	-0.112
-264.253	-153.016	0.225	0.016
-263.238	368.093	-0.031	-0.063
-262.224	-120.649	-0.246	0.041
-261.209	417.570	-0.142	0.302
-260.195	-47.704	-0.163	-0.078
-259.180	-115.496	-0.185	-0.035
-258.165	174.542	-0.093	0.134
-257.151	-112.305	0.260	0.052
-256.136	800.000	0.059	-0.206
-255.122	-175.515	0.097	0.003
-254.107	109.956	-0.178	-0.212
-253.092	-125.107	0.104	0.016
-252.078	171.699	0.149	-0.213
-251.063	-98.539	0.185	0.047
-250.049	165.428	0.156	0.219
-249.034	289.119	0.070	-0.126
-248.019	37.303	0.264	-0.232
-247.005	53.624	0.168	0.161
-245.990	428.640	-0.038	-0.080
-244.976	191.461	0.061	0.092
-243.961	512.568	0.052	0.120
-242.946	-1.208	0.247	0.174
-241.932	258.247	-0.099	0.169
-240.917	-200.000	-0.057	-0.330
-239.903	370.647	-0.204	-0.410
-238.888	-200.000	-0.004	0.022
-237.873	800.000	-0.073	0.304
-236.859	-79.836	0.087	0.029
-235.844	-52.423	-0.282	0.130
-234.830	-200.000	-0.011	0.068
-233.815	-24.998	-0.384	0.226
-232.800	-173.882	-0.235	-0.007
-231.786	800.000	-0.061	0.260
-230.771	244.757	-0.126	-0.211
-229.757	241.275	-0.048	0.080
-228.742	711.449	0.091	0.239
-227.727	64.508	0.302	0.302
-226.713	800.000	0.011	0.033
-225.698	83.542	-0.114	-0.123
-224.684	-80.582	0.172	-0.057
-223.669	-65.071	-0.079	-0.032
-222.655	-12.316	0.186	0.120
-221.640	-200.000	0.006	0.148
-220.625	-104.695	0.325	-0.074
-219.611	-18.893	0.025	0.016
-218.596	-83.723	-0.279	0.088
-217.582	-124.332	0.363	-0.056
-216.567	-200.000	-0.015	-0.149
-215.552	286.069	-0.133	-0.239
-214.538	80.052	0.102	0.109
-213.523	141.963	0.069	-0.091
-212.509	123.753	0.250	-0.311
-211.494	-200.000	0.030	0.243
-210.479	-55.250	0.212	-0.095
-209.465	143.111	0.160	0.211
-208.450	264.651	0.042	0.072
-207.436	260.406	0.057	0.098
-206.421	169.464	0.201	0.284
-205.406	148.139	-0.158	-0.211
-204.392	134.905	0.105	-0.135
-203.377	305.015	0.182	0.335
-202.363	-200.000	-0.083	0.375
-201.348	183.368	-0.071	-0.105
-200.333	-7.704	0.224	-0.150
-199.319	-73.181	0.235	-0.085
-198.304	-18.504	-0.155	0.096
-197.290	174.848	0.193	-0.276
-196.275	-137.652	-0.153	0.017
-195.260	-23.784	0.215	-0.128
-194.246	-200.000	-0.084	-0.401
-193.231	187.691	0.090	-0.134
-192.217	4.100	0.194	0.140
-191.202	-200.000	0.054	-0.319
-190.187	-88.442	-0.115	0.034
-189.173	-200.000	0.037	-0.223
-188.158	-200.000	-0.010	-0.200
-187.144	800.000	0.089	0.305
-186.129	-86.634	-0.344	0.104
-185.114	3.998	0.192	0.139
-184.100	-5.392	-0.093	0.064
-183.085	-200.000	0.002	-0.013
-182.071	36.901	0.223	-0.196
-181.056	-200.000	0.038	-0.292
-180.042	21.318	0.098	-0.079
-179.027	-157.937	0.346	0.020
-178.012	204.629	-0.257	-0.394
-176.998	-75.698	-0.081	-0.029
-175.983	-148.719	-0.219	0.018
-174.969	-111.477	0.263	0.053
-173.954	-200.000	0.004	0.029
-172.939	308.412	0.089	-0.164
-171.925	-200.000	0.018	0.137
-170.910	-155.551	0.288	-0.018
-169.896	-42.693	0.128	0.065
-168.881	163.263	0.224	-0.312
-167.866	-44.571	-0.302	0.150
-166.852	301.876	-0.148	-0.270
-165.837	91.311	-0.118	-0.131
-164.823	280.144	0.120	0.212
-163.808	200.982	0.210	0.320
-162.793	283.956	0.173	0.309
-161.779	262.471	-0.109	0.186
-160.764	366.806	-0.061	-0.122
-159.750	271.490	0.106	0.185
-158.735	405.799	0.174	0.363
-157.720	-200.000	0.006	-0.052
-156.706	458.643	0.043	0.095
-155.691	61.156	0.211	-0.207
-154.677	-7.561	0.174	0.117
-153.662	-109.991	0.186	0.039
-152.647	121.406	0.144	-0.178
-151.633	-200.000	-0.035	-0.256
-150.618	549.486	0.091	0.215
-149.604	269.995	-0.094	0.164
-148.589	114.312	0.137	-0.165
-147.574	-65.061	-0.189	-0.076
-146.560	314.882	-0.067	-0.124
-145.545	800.000	0.075	-0.285
-144.531	-178.252	-0.312	-0.007
-143.516	-200.000	-0.002	-0.297
-142.502	-5.629	0.223	-0.151
-141.487	51.911	0.148	0.139
-140.472	-42.327	-0.173	-0.087
-139.458	119.224	-0.330	0.404
-138.443	-200.000	-0.004	0.336
-137.429	46.096	-0.043	-0.039
-136.414	800.000	0.025	-0.073
-135.399	-4.203	-0.266	0.182
-134.385	-42.256	-0.241	-0.121
-133.370	-150.135	-0.185	-0.014
-132.356	145.677	0.317	-0.420
-131.341	-200.000	0.025	0.231
-130.326	-78.675	-0.336	0.114
-129.312	115.123	0.165	0.199
-128.297	-107.221	-0.132	-0.029
-127.283	800.000	-0.080	-0.288
-126.268	-105.546	0.205	0.046
-125.253	800.000	0.147	0.430
-124.239	-200.000	0.063	-0.310
-123.224	-200.000	-0.005	-0.324
-122.210	-58.921	-0.076	0.032
