DTS Sentinel unit serial number:	SN413079Multiplexer serial number:	ORYXHardware model number:	OX4-SRSoftware version number:	ORYX F/W v4.00 Oryx Data Collector v3.7.2.0data status	okinstallation	princeton_trtdifferential loss correction	single-endedforward channel	channel 2reverse channel	N/Adate	2019/09/12time	06:29:10forward acquisition time	60.00reverse acquisition time	0.00gamma	496.2192k internal	0.2324k external	0.2324temperature offset calibration	1.0064default loss term (dB/km)	0.3790temperature slope calibration	1.0000multiplexer offset coefficient	1.0000multiplexer slope coefficient	1.0000fibre end	0.00T internal ref (°C)	32.14T ext. ref 1 (°C)	1.58T ext. ref 2 (°C)	27.34length (m)	temperature (°C)	Stokes	anti-Stokes-747.200	-93.951	-0.156	0.043
-746.185	248.767	-0.054	0.093
-745.171	-200.000	0.000	0.020
-744.156	800.000	-0.043	0.160
-743.142	-151.430	0.280	-0.021
-742.127	-72.457	-0.097	-0.036
-741.112	-200.000	0.028	0.141
-740.098	-200.000	-0.037	0.388
-739.083	-20.023	-0.130	-0.081
-738.069	-200.000	-0.039	-0.186
-737.054	-16.865	0.022	0.014
-736.039	-22.730	-0.358	-0.218
-735.025	-92.031	0.147	-0.042
-734.010	-92.063	-0.211	-0.060
-732.996	-200.000	-0.021	-0.297
-731.981	-167.312	-0.110	-0.004
-730.966	87.041	-0.261	0.291
-729.952	-61.482	-0.080	0.034
-728.937	-14.207	-0.178	-0.115
-727.923	-200.000	0.047	-0.252
-726.908	-54.864	-0.307	-0.140
-725.894	557.765	-0.138	-0.335
-724.879	-113.380	-0.064	-0.013
-723.864	800.000	-0.076	0.289
-722.850	-164.725	0.425	0.019
-721.835	800.000	0.138	0.425
-720.821	295.801	0.093	-0.172
-719.806	-200.000	-0.037	0.186
-718.791	-96.555	-0.283	0.075
-717.777	191.724	0.143	-0.218
-716.762	800.000	-0.081	0.323
-715.748	800.000	-0.071	-0.247
-714.733	-59.416	-0.155	-0.067
-713.718	-65.624	-0.037	0.015
-712.704	-54.807	0.379	-0.173
-711.689	-120.240	0.350	0.060
-710.675	-67.287	-0.082	0.032
-709.660	25.570	-0.173	0.145
-708.645	-20.140	0.145	-0.090
-707.631	562.242	0.202	0.493
-706.616	65.440	-0.093	-0.094
-705.602	-83.833	0.089	0.029
-704.587	-135.175	0.088	-0.011
-703.572	800.000	-0.094	-0.290
-702.558	-81.979	-0.175	-0.058
-701.543	152.802	0.115	0.158
-700.529	-20.209	0.051	-0.032
-699.514	-200.000	0.013	-0.162
-698.499	-93.552	-0.230	0.064
-697.485	-79.083	-0.132	0.045
-696.470	196.507	-0.306	0.469
-695.456	-200.000	-0.009	0.059
-694.441	124.034	-0.284	-0.360
-693.426	-69.820	-0.051	-0.020
-692.412	-165.880	0.282	0.012
-691.397	113.274	-0.238	-0.291
-690.383	-96.506	0.282	-0.075
-689.368	49.271	-0.050	-0.047
-688.354	784.069	0.103	-0.284
-687.339	-76.851	-0.315	-0.111
-686.324	246.996	0.311	0.529
-685.310	-133.198	-0.205	0.026
-684.295	-108.167	-0.049	0.011
-683.281	800.000	0.037	-0.134
-682.266	-141.826	-0.254	-0.026
-681.251	800.000	-0.080	-0.248
-680.237	144.737	0.144	0.193
-679.222	-200.000	0.030	0.156
-678.208	800.000	0.089	-0.306
-677.193	-200.000	-0.027	-0.141
-676.178	-200.000	-0.046	0.224
-675.164	247.409	0.081	0.137
-674.149	-56.620	-0.310	0.138
-673.135	138.726	0.040	-0.053
-672.120	-15.650	0.117	-0.075
-671.105	63.526	0.244	0.247
-670.091	-41.227	0.131	0.068
-669.076	-50.899	0.404	-0.191
-668.062	344.593	-0.153	-0.302
-667.047	800.000	-0.097	-0.355
-666.032	-200.000	0.050	-0.346
-665.018	741.527	0.064	-0.173
-664.003	-35.904	0.210	-0.114
-662.989	-200.000	-0.001	0.206
-661.974	-70.422	-0.282	-0.108
-660.959	-106.102	0.405	0.091
-659.945	498.378	0.211	-0.489
-658.930	72.681	-0.175	0.183
-657.916	59.967	-0.326	-0.324
-656.901	-127.633	0.496	-0.072
-655.886	-66.609	0.164	0.066
-654.872	227.796	0.051	-0.084
-653.857	776.618	-0.138	0.380
-652.843	7.742	-0.200	0.151
-651.828	413.763	-0.118	0.253
-650.814	-200.000	0.046	0.207
-649.799	-156.067	-0.428	-0.027
-648.784	537.183	0.087	-0.207
-647.770	800.000	0.031	0.091
-646.755	478.718	0.053	0.120
-645.741	-98.302	-0.250	0.065
-644.726	689.254	0.119	-0.313
-643.711	-200.000	-0.021	-0.427
-642.697	265.381	-0.070	-0.123
-641.682	80.580	0.011	-0.012
-640.668	419.458	-0.039	-0.085
-639.653	150.795	0.139	-0.190
-638.638	-93.921	0.205	0.057
-637.624	-200.000	0.099	-0.457
-636.609	54.112	-0.232	-0.224
-635.595	88.574	0.117	0.131
-634.580	-9.146	-0.088	0.059
-633.565	-200.000	-0.004	-0.133
-632.551	-69.955	-0.109	0.042
-631.536	-11.657	0.177	-0.117
-630.522	-120.366	-0.235	0.040
-629.507	102.764	0.058	0.068
-628.492	11.395	0.218	-0.167
-627.478	124.766	0.201	-0.255
-626.463	-200.000	0.036	-0.287
-625.449	-200.000	0.011	-0.222
-624.434	-81.090	-0.099	0.033
-623.419	-200.000	0.048	0.450
-622.405	-183.462	-0.125	0.002
-621.390	112.842	0.112	-0.136
-620.376	-1.637	-0.160	-0.113
-619.361	746.559	0.100	0.271
-618.346	433.430	-0.070	0.153
-617.332	296.566	-0.138	-0.254
-616.317	-32.860	0.182	-0.102
-615.303	-37.020	-0.228	-0.123
-614.288	49.022	-0.165	0.156
-613.273	-47.349	0.147	0.072
-612.259	-200.000	0.002	0.203
-611.244	-167.146	-0.312	-0.013
-610.230	-106.103	0.179	-0.040
-609.215	136.154	-0.040	-0.052
-608.201	-70.495	0.198	-0.075
-607.186	-51.717	0.248	0.116
-606.171	800.000	0.020	-0.077
-605.157	177.544	-0.162	0.238
-604.142	251.763	-0.030	-0.051
-603.128	-39.558	0.216	-0.113
-602.113	18.240	0.066	-0.053
-601.098	-200.000	0.009	0.271
-600.084	-200.000	-0.237	0.000
-599.069	-200.000	-0.002	-0.076
-598.055	-24.908	-0.146	-0.087
-597.040	-185.528	0.410	0.006
-596.025	-91.780	-0.179	0.051
-595.011	800.000	0.052	-0.159
-593.996	800.000	0.028	0.091
-592.982	-22.185	-0.383	-0.233
-591.967	-200.000	0.044	0.348
-590.952	-88.211	0.285	-0.086
-589.938	163.613	0.149	-0.210
-588.923	-200.000	0.021	0.315
-587.909	34.211	0.236	0.207
-586.894	-101.992	0.092	-0.022
-585.879	-44.741	0.164	0.082
-584.865	800.000	-0.084	-0.348
-583.850	-105.496	-0.213	0.048
-582.836	-127.253	0.074	-0.011
-581.821	-39.169	0.080	0.042
-580.806	36.711	-0.141	0.125
-579.792	36.146	-0.060	0.053
-578.777	-200.000	-0.012	-0.323
-577.763	800.000	0.013	0.053
-576.748	-118.187	0.279	-0.050
-575.733	500.023	-0.036	0.084
-574.719	-200.000	0.019	-0.179
-573.704	-57.477	-0.195	0.086
-572.690	222.189	0.047	0.076
-571.675	-60.633	0.157	0.067
-570.661	-53.909	0.023	-0.010
-569.646	800.000	0.058	0.186
-568.631	-200.000	0.010	0.256
-567.617	19.345	0.218	-0.175
-566.602	-200.000	-0.066	0.295
-565.588	-176.002	0.164	-0.004
-564.573	-103.846	-0.343	-0.080
-563.558	800.000	0.048	0.199
-562.544	435.720	0.107	-0.233
-561.529	-30.003	-0.121	-0.069
-560.515	94.809	-0.119	0.135
-559.500	-114.365	-0.316	-0.061
-558.485	107.775	-0.154	-0.184
-557.471	138.697	-0.169	0.223
-556.456	-162.355	0.349	0.017
-555.442	399.399	-0.061	0.127
-554.427	-59.636	-0.104	-0.045
-553.412	83.420	-0.243	-0.265
-552.398	800.000	-0.159	-0.442
-551.383	-134.688	-0.129	-0.016
-550.369	-94.261	-0.070	0.019
-549.354	-200.000	-0.012	0.233
-548.339	-109.866	0.436	0.092
-547.325	8.512	-0.089	-0.067
-546.310	800.000	0.070	-0.233
-545.296	-74.243	-0.196	0.071
-544.281	-24.495	-0.034	-0.020
-543.266	-200.000	-0.051	0.349
-542.252	704.182	0.064	0.169
-541.237	-18.374	-0.131	0.082
-540.223	18.328	0.174	-0.139
-539.208	-113.043	-0.169	-0.033
-538.193	-80.740	-0.183	-0.061
-537.179	150.538	-0.125	-0.170
-536.164	46.436	0.160	-0.149
-535.150	800.000	-0.127	-0.416
-534.135	-200.000	0.018	0.083
-533.121	-60.684	0.345	0.146
-532.106	-56.697	-0.112	-0.049
-531.091	-104.860	-0.370	-0.085
-530.077	323.537	-0.057	-0.109
-529.062	-200.000	-0.001	0.179
-528.048	-200.000	0.074	0.367
-527.033	-165.392	-0.215	0.009
-526.018	-54.380	-0.220	-0.100
-525.004	72.010	-0.205	-0.213
-523.989	-8.427	-0.062	-0.042
-522.975	491.833	-0.083	0.190
-521.960	-200.000	0.032	0.261
-520.945	800.000	0.056	0.170
-519.931	-49.614	0.057	0.027
-518.916	-200.000	-0.049	-0.299
-517.902	-65.526	-0.459	0.185
-516.887	24.543	-0.072	0.059
-515.872	661.432	-0.028	-0.072
-514.858	218.120	-0.156	-0.250
-513.843	-51.440	-0.180	0.084
-512.829	-111.017	-0.107	-0.022
-511.814	800.000	0.070	0.224
-510.799	-0.921	0.175	-0.124
-509.785	-98.682	-0.221	-0.056
-508.770	-200.000	0.017	-0.137
-507.756	-200.000	0.042	0.320
-506.741	504.269	-0.077	-0.179
-505.726	-118.606	0.105	0.019
-504.712	-112.648	0.202	0.040
-503.697	-200.000	0.017	-0.308
-502.683	-100.422	0.133	0.033
-501.668	-200.000	-0.092	-0.481
-500.653	416.991	-0.166	-0.353
-499.639	-100.766	-0.113	0.028
-498.624	-3.304	0.071	-0.050
-497.610	-125.590	-0.208	0.032
-496.595	31.214	0.112	-0.096
-495.581	5.422	0.139	-0.103
-494.566	-200.000	0.062	0.355
-493.551	-196.284	-0.069	0.000
-492.537	-150.839	-0.179	-0.014
-491.522	-100.815	0.246	-0.061
-490.508	95.406	-0.161	-0.183
-489.493	-200.000	-0.003	0.087
-488.478	-37.562	-0.443	-0.236
-487.464	43.355	0.139	0.127
-486.449	-20.768	0.353	-0.216
-485.435	-161.370	-0.537	0.028
-484.420	143.796	0.091	0.121
-483.405	-53.594	0.095	-0.043
-482.391	26.344	-0.140	-0.117
-481.376	800.000	0.072	0.290
-480.362	-118.410	0.711	-0.126
-479.347	134.880	-0.073	-0.094
-478.332	5.489	-0.144	0.106
-477.318	-121.463	0.250	0.042
-476.303	-200.000	-0.027	-0.192
-475.289	-200.000	-0.025	0.120
-474.274	6.746	-0.122	-0.091
-473.259	-132.928	-0.031	0.004
-472.245	-90.073	-0.211	-0.061
-471.230	786.544	0.066	0.179
-470.216	118.991	-0.114	0.140
-469.201	24.920	-0.066	0.054
-468.186	-200.000	-0.018	0.319
-467.172	260.331	-0.164	-0.283
-466.157	129.481	-0.225	-0.287
-465.143	-29.567	0.007	0.004
-464.128	750.249	-0.078	0.209
-463.113	725.684	0.098	-0.260
-462.099	397.523	0.126	-0.263
-461.084	-200.000	0.031	0.237
-460.070	-53.046	0.266	-0.122
-459.055	-117.427	-0.303	-0.055
-458.040	-200.000	0.003	-0.159
-457.026	-27.728	-0.261	-0.151
-456.011	68.564	0.217	0.223
-454.997	-1.801	-0.175	-0.123
-453.982	-94.191	-0.216	0.059
-452.968	800.000	0.083	-0.320
-451.953	8.287	0.428	-0.321
-450.938	-200.000	-0.012	-0.164
-449.924	-119.219	-0.295	0.051
-448.909	-200.000	-0.080	-0.407
-447.895	26.884	-0.121	0.101
-446.880	-200.000	-0.003	-0.037
-445.865	-26.908	0.066	-0.038
-444.851	800.000	0.066	-0.281
-443.836	544.459	0.089	-0.211
-442.822	-40.131	-0.309	0.161
-441.807	191.608	-0.116	0.174
-440.792	-16.922	-0.038	-0.024
-439.778	116.324	0.236	-0.289
-438.763	-200.000	-0.039	-0.209
-437.749	800.000	0.026	-0.105
-436.734	-112.391	0.155	0.031
-435.719	800.000	0.061	0.193
-434.705	-191.158	-0.054	-0.001
-433.690	-200.000	0.011	0.459
-432.676	-8.691	0.234	-0.157
-431.661	594.816	0.206	-0.507
-430.646	-63.677	-0.376	0.154
-429.632	53.549	-0.255	-0.244
-428.617	92.437	-0.073	0.082
-427.603	800.000	-0.025	-0.095
-426.588	139.641	0.162	-0.212
-425.573	-9.415	0.178	-0.119
-424.559	162.229	-0.077	0.107
-423.544	-45.896	-0.256	0.126
-422.530	-22.956	-0.258	-0.155
-421.515	107.586	-0.062	-0.074
-420.500	-168.537	-0.087	0.003
-419.486	-191.064	-0.062	-0.001
-418.471	-146.711	0.195	0.017
-417.457	411.756	0.130	0.275
-416.442	800.000	-0.056	0.207
-415.428	270.171	-0.133	0.234
-414.413	-97.121	0.060	0.016
-413.398	-160.175	0.260	0.014
-412.384	-34.234	0.132	0.072
-411.369	67.687	-0.120	0.122
-410.355	312.216	0.089	0.167
-409.340	800.000	-0.049	0.175
-408.325	367.488	-0.114	-0.230
-407.311	-154.470	0.432	-0.029
-406.296	291.823	0.126	0.228
-405.282	466.572	0.150	0.334
-404.267	-200.000	0.055	0.421
-403.252	205.454	-0.046	0.071
-402.238	-14.061	-0.150	-0.097
-401.223	96.952	0.124	0.142
-400.209	-200.000	-0.002	-0.073
-399.194	-93.253	0.192	0.053
-398.179	253.741	-0.064	0.109
-397.165	474.301	0.154	-0.345
-396.150	-200.000	-0.032	-0.160
-395.136	800.000	-0.056	0.165
-394.121	-71.336	0.040	-0.015
-393.106	53.685	0.298	-0.285
-392.092	176.731	-0.168	0.244
-391.077	-200.000	-0.060	0.362
-390.063	800.000	-0.098	0.284
-389.048	-188.987	-0.120	0.001
-388.033	800.000	0.146	0.434
-387.019	-72.626	0.421	-0.155
-386.004	-128.105	-0.229	0.033
-384.990	-200.000	-0.045	0.219
-383.975	-200.000	-0.048	-0.304
-382.960	364.934	0.133	-0.266
-381.946	-67.457	-0.279	0.109
-380.931	-99.173	0.172	0.043
-379.917	288.676	0.015	-0.027
-378.902	-77.022	-0.128	0.044
-377.888	353.343	0.157	-0.309
-376.873	-99.014	-0.157	0.040
-375.858	140.270	0.152	0.199
-374.844	800.000	0.057	-0.248
-373.829	655.487	0.058	0.148
-372.815	800.000	-0.046	0.150
-371.800	800.000	-0.025	-0.105
-370.785	-9.221	0.153	-0.102
-369.771	158.571	-0.276	0.381
-368.756	800.000	-0.053	-0.152
-367.742	-200.000	0.010	-0.092
-366.727	-83.189	0.259	-0.083
-365.712	-200.000	-0.031	0.305
-364.698	402.703	-0.026	-0.055
-363.683	-125.126	-0.215	0.033
-362.669	-108.999	0.416	-0.088
-361.654	312.950	-0.044	-0.082
-360.639	20.418	-0.233	-0.187
-359.625	-21.410	-0.126	0.076
-358.610	-157.739	0.089	-0.005
-357.596	-87.899	0.301	0.090
-356.581	243.681	0.051	0.084
-355.566	140.525	0.115	0.152
-354.552	-87.175	0.108	-0.033
-353.537	800.000	-0.192	0.552
-352.523	-111.823	-0.188	0.038
-351.508	43.527	-0.270	0.246
-350.493	-122.647	-0.264	-0.042
-349.479	-200.000	0.078	0.587
-348.464	-200.000	0.044	0.196
-347.450	157.290	-0.049	-0.067
-346.435	-107.919	-0.082	-0.018
-345.420	-200.000	0.012	-0.246
-344.406	-106.546	-0.148	-0.033
-343.391	-200.000	0.084	0.393
-342.377	-73.156	-0.270	-0.099
-341.362	-133.281	-0.349	0.044
-340.348	225.825	0.064	0.103
-339.333	-142.305	-0.226	-0.022
-338.318	-2.336	-0.064	-0.045
-337.304	-3.024	-0.124	0.086
-336.289	-83.368	-0.161	0.051
-335.275	800.000	0.016	0.061
-334.260	-200.000	-0.009	0.050
-333.245	157.004	0.179	0.246
-332.231	121.461	0.014	-0.017
-331.216	800.000	0.108	-0.373
-330.202	567.680	0.091	0.219
-329.187	-190.469	-0.272	-0.003
-328.172	-177.409	-0.180	0.004
-327.158	1.886	0.297	0.213
-326.143	646.795	0.093	0.235
-325.129	52.253	0.117	-0.111
-324.114	800.000	-0.135	0.384
-323.099	-91.853	0.413	-0.116
-322.085	459.904	0.065	-0.144
-321.070	-15.923	0.126	-0.079
-320.056	-100.247	-0.214	0.053
-319.041	158.780	0.052	-0.072
-318.026	-176.153	0.305	0.008
-317.012	114.671	0.343	-0.415
-315.997	18.530	-0.188	0.150
-314.983	-168.889	-0.107	-0.004
-313.968	-121.857	0.406	-0.066
-312.953	38.632	-0.069	-0.061
-311.939	800.000	0.051	-0.153
-310.924	-25.756	-0.221	-0.130
-309.910	800.000	0.045	-0.132
-308.895	-14.795	0.125	-0.080
-307.880	2.064	0.040	-0.028
-306.866	12.674	0.060	-0.046
-305.851	-77.268	0.054	-0.019
-304.837	-65.301	0.268	0.107
-303.822	-64.192	-0.056	0.022
-302.807	-200.000	0.036	-0.226
-301.793	62.791	-0.191	-0.189
-300.778	43.345	0.023	0.021
-299.764	643.761	0.129	0.328
-298.749	70.329	0.068	0.070
-297.735	659.278	-0.127	0.324
-296.720	49.774	-0.155	0.145
-295.705	-200.000	-0.016	-0.148
-294.691	387.195	0.139	0.285
-293.676	121.232	-0.073	-0.091
-292.662	138.474	-0.143	-0.187
-291.647	-34.295	0.079	0.043
-290.632	10.048	0.224	0.169
-289.618	-200.000	0.009	-0.084
-288.603	-59.946	0.155	-0.066
-287.589	73.327	0.156	-0.162
-286.574	446.017	0.105	0.229
-285.559	139.081	-0.211	0.275
-284.545	2.639	0.049	0.035
-283.530	165.384	0.072	0.100
-282.516	-200.000	-0.007	-0.050
-281.501	-200.000	0.114	0.593
-280.486	-43.537	-0.240	0.120
-279.472	-200.000	0.000	-0.179
-278.457	78.877	0.218	0.232
-277.443	3.650	-0.143	0.103
-276.428	11.799	0.122	0.093
-275.413	-200.000	0.013	0.138
-274.399	-108.120	0.289	0.062
-273.384	-200.000	0.020	-0.232
-272.370	-7.690	-0.229	0.154
-271.355	-136.742	0.154	0.018
-270.340	-153.757	-0.386	0.026
-269.326	-126.277	-0.090	-0.013
-268.311	505.859	0.083	-0.191
-267.297	397.167	0.125	0.259
-266.282	-200.000	0.001	-0.148
-265.267	-200.000	0.027	-0.123
-264.253	800.000	0.039	0.120
-263.238	-43.078	-0.352	0.177
-262.224	227.606	0.201	0.323
-261.209	102.245	0.071	-0.082
-260.195	347.443	-0.125	0.244
-259.180	163.329	-0.057	-0.079
-258.165	161.696	0.159	-0.220
-257.151	-200.000	0.001	-0.436
-256.136	-108.219	-0.391	0.084
-255.122	-47.117	0.081	0.039
-254.107	-183.009	0.091	-0.002
-253.092	48.363	-0.175	0.163
-252.078	-200.000	0.043	-0.377
-251.063	-3.299	0.150	0.103
-250.049	-200.000	-0.009	0.274
-249.034	446.418	0.053	0.115
-248.019	800.000	0.051	-0.149
-247.005	53.895	0.133	-0.127
-245.990	-30.991	-0.295	-0.165
-244.976	-83.111	-0.100	0.032
-243.961	1.955	0.308	-0.220
-242.946	-122.625	0.224	0.036
-241.932	-66.460	-0.218	0.086
-240.917	-52.921	0.093	-0.042
-239.903	-43.689	0.211	0.105
-238.888	743.112	0.088	0.233
-237.873	178.827	-0.100	0.145
-236.859	127.174	-0.207	-0.260
-235.844	-200.000	0.012	-0.118
-234.830	128.887	0.133	0.168
-233.815	-200.000	0.004	0.050
-232.800	499.196	0.069	-0.157
-231.786	-117.624	-0.047	-0.008
-230.771	45.711	0.093	-0.085
-229.757	-200.000	0.000	0.205
-228.742	-200.000	0.007	-0.060
-227.727	-200.000	-0.033	-0.284
-226.713	-49.423	-0.109	-0.051
-225.698	-200.000	-0.002	-0.076
-224.684	-114.646	0.341	0.065
-223.669	-185.212	-0.205	0.003
-222.655	-200.000	0.035	-0.158
-221.640	306.833	-0.085	-0.157
-220.625	-113.145	0.333	-0.065
-219.611	800.000	0.039	-0.135
-218.596	-4.038	0.140	0.096
-217.582	-40.513	0.359	0.185
-216.567	-149.417	-0.297	-0.023
-215.552	-200.000	-0.080	0.361
-214.538	-3.878	-0.028	0.019
-213.523	800.000	0.074	0.233
-212.509	110.424	-0.223	-0.265
-211.494	-56.115	0.213	0.094
-210.479	397.080	0.086	-0.178
-209.465	-35.480	0.279	0.150
-208.450	143.812	-0.169	0.223
-207.436	-1.091	0.159	0.111
-206.421	800.000	-0.102	-0.340
-205.406	-123.653	0.271	0.042
-204.392	-200.000	0.005	0.052
-203.377	152.132	-0.120	0.162
-202.363	-200.000	0.036	0.186
-201.348	101.654	-0.055	-0.063
-200.333	-167.919	-0.182	0.007
-199.319	37.021	-0.263	-0.230
-198.304	416.982	-0.110	-0.232
-197.290	-200.000	-0.043	-0.426
-196.275	258.302	-0.038	-0.064
-195.260	36.250	-0.115	-0.100
-194.246	-108.401	0.065	0.014
-193.231	-200.000	0.051	0.260
-192.217	-2.867	-0.285	-0.197
-191.202	-33.004	0.301	0.165
-190.187	20.280	0.270	-0.215
-189.173	-119.862	-0.202	0.034
-188.158	4.473	-0.162	0.117
-187.144	54.071	0.067	0.063
-186.129	23.055	0.159	0.129
-185.114	800.000	0.102	0.398
-184.100	-74.149	0.328	0.117
-183.085	279.395	0.035	-0.062
-182.071	-47.869	0.097	0.046
-181.056	-31.657	0.169	-0.094
-180.042	520.738	-0.149	0.344
-179.027	86.239	0.058	-0.063
-178.012	295.917	-0.028	-0.050
-176.998	-18.853	-0.298	-0.183
-175.983	-55.424	0.371	0.164
-174.969	-200.000	0.011	-0.054
-173.954	-66.739	0.063	0.025
-172.939	62.719	0.195	-0.193
-171.925	-74.075	0.215	-0.077
-170.910	-126.670	0.444	-0.065
-169.896	-200.000	0.040	0.296
-168.881	22.574	0.148	-0.119
-167.866	-44.843	-0.153	-0.075
-166.852	60.821	0.027	-0.027
-165.837	-200.000	0.045	0.249
-164.823	64.451	-0.144	-0.143
-163.808	5.754	-0.110	-0.080
-162.793	56.152	-0.154	-0.148
-161.779	800.000	-0.074	0.224
-160.764	246.841	-0.162	-0.270
-159.750	-123.672	0.275	0.043
-158.735	454.588	0.089	-0.194
-157.720	394.087	-0.040	0.081
-156.706	-57.240	-0.094	0.041
-155.691	-47.047	-0.171	0.082
-154.677	161.391	0.135	0.187
-153.662	-64.925	-0.061	-0.024
-152.647	153.685	0.103	-0.139
-151.633	-111.469	-0.169	-0.034
-150.618	44.644	-0.084	-0.076
-149.604	-12.051	0.079	-0.051
-148.589	-153.834	0.205	0.014
-147.574	-58.149	-0.278	0.120
-146.560	103.675	0.128	-0.148
-145.545	-113.969	0.237	-0.045
-144.531	-92.015	-0.084	-0.023
-143.516	-96.968	-0.457	0.118
-142.502	-200.000	-0.021	-0.111
-141.487	88.574	0.100	-0.109
-140.472	294.330	-0.026	0.048
-139.458	-181.958	0.243	0.005
-138.443	-200.000	-0.082	0.359
-137.429	-200.000	0.000	-0.192
-136.414	44.704	-0.108	0.098
-135.399	-200.000	-0.030	0.211
-134.385	-147.546	0.215	0.018
-133.370	-200.000	0.011	-0.241
-132.356	317.599	-0.023	0.043
-131.341	187.620	-0.168	0.247
-130.326	-147.888	0.370	0.030
-129.312	66.021	0.153	0.153
-128.297	123.529	-0.188	0.232
-127.283	76.274	-0.096	-0.101
-126.268	-200.000	-0.023	-0.207
-125.253	-129.182	-0.229	-0.031
-124.239	581.960	-0.035	-0.085
-123.224	10.601	0.356	-0.267
-122.210	-200.000	-0.034	0.226
