DTS Sentinel unit serial number:	SN413079Multiplexer serial number:	ORYXHardware model number:	OX4-SRSoftware version number:	ORYX F/W v4.00 Oryx Data Collector v3.7.2.0data status	okinstallation	princeton_trtdifferential loss correction	single-endedforward channel	channel 2reverse channel	N/Adate	2019/09/11time	16:21:10forward acquisition time	60.00reverse acquisition time	0.00gamma	496.2192k internal	0.2286k external	0.2286temperature offset calibration	1.0012default loss term (dB/km)	0.3790temperature slope calibration	1.0000multiplexer offset coefficient	1.0000multiplexer slope coefficient	1.0000fibre end	0.00T internal ref (°C)	43.50T ext. ref 1 (°C)	1.06T ext. ref 2 (°C)	38.53length (m)	temperature (°C)	Stokes	anti-Stokes-747.200	-200.000	0.005	-0.037
-746.185	412.258	0.084	0.183
-745.171	181.658	0.216	-0.326
-744.156	384.674	-0.080	-0.170
-743.142	411.447	0.034	0.075
-742.127	19.727	0.093	-0.077
-741.112	614.911	0.059	0.151
-740.098	33.113	0.286	0.255
-739.083	44.780	-0.120	-0.114
-738.069	-188.229	0.427	0.006
-737.054	364.936	-0.014	0.028
-736.039	-12.947	-0.207	-0.138
-735.025	-78.623	0.156	0.055
-734.010	73.379	-0.080	-0.086
-732.996	176.155	-0.078	0.117
-731.981	-48.539	-0.016	0.008
-730.966	-130.493	0.303	-0.042
-729.952	-110.469	-0.296	0.063
-728.937	12.049	-0.176	0.139
-727.923	-43.224	-0.252	-0.131
-726.908	-57.878	-0.437	-0.196
-725.894	-200.000	0.032	-0.309
-724.879	6.613	-0.173	-0.132
-723.864	-200.000	-0.044	0.259
-722.850	33.855	-0.388	0.346
-721.835	-200.000	-0.028	-0.128
-720.821	106.565	-0.145	0.177
-719.806	800.000	-0.013	0.040
-718.791	-7.677	0.011	0.008
-717.777	-158.940	-0.156	0.009
-716.762	46.717	0.232	0.221
-715.748	-200.000	-0.011	-0.050
-714.733	-52.436	-0.045	0.021
-713.718	279.320	-0.088	0.162
-712.704	-200.000	0.034	-0.163
-711.689	-90.024	0.053	-0.016
-710.675	14.985	-0.194	-0.156
-709.660	800.000	0.046	-0.184
-708.645	-145.995	-0.215	-0.020
-707.631	490.112	-0.128	-0.299
-706.616	-200.000	-0.027	-0.367
-705.602	153.303	0.185	-0.259
-704.587	-41.587	-0.275	0.145
-703.572	-200.000	0.007	0.079
-702.558	107.237	0.123	-0.150
-701.543	146.314	-0.168	0.231
-700.529	-23.072	0.157	-0.097
-699.514	211.340	-0.053	0.086
-698.499	117.679	-0.151	-0.191
-697.485	-200.000	-0.019	0.175
-696.470	10.390	-0.248	0.193
-695.456	87.722	0.098	-0.111
-694.441	477.047	0.012	-0.028
-693.426	-200.000	-0.007	0.047
-692.412	-111.238	-0.272	-0.057
-691.397	92.303	0.202	-0.233
-690.383	306.690	0.116	0.221
-689.368	60.342	-0.044	0.045
-688.354	-200.000	0.061	-0.330
-687.339	96.966	-0.150	-0.176
-686.324	-53.980	-0.237	-0.110
-685.310	269.445	-0.044	-0.079
-684.295	-59.978	0.104	0.045
-683.281	-21.526	0.181	-0.113
-682.266	37.053	-0.165	-0.149
-681.251	-200.000	-0.041	0.323
-680.237	-200.000	-0.023	0.285
-679.222	54.334	-0.167	0.164
-678.208	5.585	0.338	-0.256
-677.193	152.021	0.196	0.274
-676.178	27.693	-0.226	-0.195
-675.164	8.787	-0.208	0.161
-674.149	800.000	-0.017	0.058
-673.135	7.228	0.130	-0.099
-672.120	351.234	-0.090	-0.182
-671.105	800.000	-0.023	0.084
-670.091	786.816	0.020	0.055
-669.076	177.437	0.116	0.173
-668.062	-126.407	0.426	0.065
-667.047	-143.514	-0.402	0.039
-666.032	184.100	0.181	-0.274
-665.018	656.887	0.052	-0.136
-664.003	262.142	-0.223	-0.395
-662.989	33.456	-0.149	-0.132
-661.974	-60.112	-0.249	0.109
-660.959	-139.054	0.137	0.015
-659.945	190.181	-0.169	0.260
-658.930	246.001	-0.071	-0.122
-657.916	39.329	0.074	-0.068
-656.901	800.000	-0.042	0.178
-655.886	-1.231	0.253	-0.183
-654.872	-40.187	-0.217	-0.116
-653.857	-173.293	-0.223	-0.007
-652.843	92.249	0.264	0.304
-651.828	-200.000	0.007	0.044
-650.814	-38.264	-0.240	0.130
-649.799	-126.500	-0.038	0.006
-648.784	-33.617	0.401	0.226
-647.770	153.011	0.043	0.059
-646.755	800.000	-0.093	0.394
-645.741	-200.000	-0.046	-0.312
-644.726	-30.564	0.272	-0.158
-643.711	-66.596	-0.058	-0.024
-642.697	14.679	-0.175	0.140
-641.682	-179.488	-0.085	-0.002
-640.668	38.768	-0.064	0.059
-639.653	-69.298	-0.069	0.027
-638.638	55.037	0.248	-0.245
-637.624	-98.391	-0.128	0.034
-636.609	800.000	-0.058	0.172
-635.595	-200.000	0.005	0.026
-634.580	-160.104	0.111	-0.006
-633.565	86.290	0.173	-0.195
-632.551	-200.000	0.089	-0.439
-631.536	192.773	0.098	0.152
-630.522	8.163	0.170	-0.131
-629.507	-30.490	-0.304	0.176
-628.492	800.000	-0.030	-0.133
-627.478	186.525	0.084	-0.127
-626.463	-63.949	-0.198	0.083
-625.449	-46.694	-0.073	0.037
-624.434	800.000	0.065	0.211
-623.419	-43.234	0.137	-0.071
-622.405	800.000	0.094	0.302
-621.390	800.000	0.093	0.407
-620.376	33.425	0.193	0.171
-619.361	-126.440	-0.045	-0.007
-618.346	34.621	-0.095	0.085
-617.332	800.000	0.040	0.170
-616.317	-101.190	-0.098	-0.024
-615.303	-126.003	0.364	0.056
-614.288	92.434	0.120	-0.139
-613.273	409.670	-0.092	-0.200
-612.259	-100.031	0.222	0.056
-611.244	-7.077	-0.350	0.242
-610.230	16.204	-0.265	-0.213
-609.215	-200.000	0.003	0.025
-608.201	-112.257	0.055	-0.011
-607.186	7.815	-0.116	0.089
-606.171	16.748	0.045	0.036
-605.157	-102.126	0.219	0.054
-604.142	46.899	0.194	0.185
-603.128	48.324	0.120	-0.115
-602.113	-189.283	-0.093	0.001
-601.098	152.457	0.192	-0.268
-600.084	220.963	0.250	-0.410
-599.069	-51.577	-0.258	0.123
-598.055	-181.960	-0.363	-0.007
-597.040	800.000	-0.090	-0.263
-596.025	-97.489	-0.191	-0.051
-595.011	103.139	0.076	0.091
-593.996	800.000	-0.072	-0.300
-592.982	100.894	-0.250	0.296
-591.967	-113.084	-0.234	-0.047
-590.952	-129.602	-0.152	-0.021
-589.938	800.000	-0.023	-0.079
-588.923	134.170	-0.227	-0.301
-587.909	173.688	-0.044	-0.065
-586.894	178.491	-0.143	-0.213
-585.879	-200.000	-0.034	0.362
-584.865	-200.000	-0.002	-0.077
-583.850	-3.329	0.267	-0.190
-582.836	27.495	-0.240	-0.206
-581.821	50.038	0.059	0.057
-580.806	-53.230	-0.147	-0.069
-579.792	40.373	-0.309	0.283
-578.777	-200.000	-0.011	0.395
-577.763	353.969	0.103	0.208
-576.748	-62.185	0.177	0.075
-575.733	-179.819	-0.078	0.002
-574.719	14.237	0.120	0.096
-573.704	-98.615	-0.282	0.073
-572.690	-32.589	0.171	-0.097
-571.675	-180.597	-0.244	0.005
-570.661	-102.272	-0.152	0.037
-569.646	-200.000	0.006	-0.036
-568.631	-7.983	0.251	0.173
-567.617	381.822	-0.179	-0.376
-566.602	-189.518	0.348	-0.004
-565.588	61.284	0.289	0.293
-564.573	133.719	0.062	0.082
-563.558	-62.266	-0.240	-0.102
-562.544	-200.000	0.012	-0.130
-561.529	-94.811	0.127	0.035
-560.515	800.000	0.053	-0.176
-559.500	94.051	-0.114	-0.132
-558.485	25.238	0.089	0.075
-557.471	46.214	0.212	0.200
-556.456	474.242	0.110	0.253
-555.442	-84.727	-0.101	-0.033
-554.427	109.467	-0.168	0.205
-553.412	-200.000	-0.079	0.422
-552.398	-9.344	-0.217	0.148
-551.383	-49.900	-0.079	-0.038
-550.369	291.831	0.075	0.139
-549.354	-173.596	0.386	0.012
-548.339	150.768	0.140	-0.194
-547.325	-90.693	-0.117	-0.034
-546.310	348.387	0.191	-0.384
-545.296	443.876	0.042	0.094
-544.281	-200.000	0.015	-0.097
-543.266	415.664	0.073	-0.159
-542.252	-200.000	-0.025	0.287
-541.237	-200.000	0.013	-0.183
-540.223	-200.000	0.054	-0.289
-539.208	-200.000	-0.051	-0.285
-538.193	64.406	0.109	-0.111
-537.179	109.607	-0.084	0.102
-536.164	-200.000	-0.018	0.248
-535.150	-200.000	-0.018	0.274
-534.135	-48.924	-0.248	0.121
-533.121	-110.831	0.152	0.032
-532.106	-200.000	0.007	-0.035
-531.091	-22.818	0.070	-0.043
-530.077	97.449	-0.125	0.146
-529.062	-116.478	-0.332	-0.062
-528.048	41.002	0.136	-0.125
-527.033	217.550	-0.072	0.117
-526.018	281.844	-0.259	-0.473
-525.004	-26.619	0.184	-0.109
-523.989	-200.000	-0.032	-0.314
-522.975	44.839	-0.378	-0.354
-521.960	800.000	-0.018	-0.079
-520.945	-36.556	0.202	-0.111
-519.931	202.680	-0.152	0.239
-518.916	-154.721	0.100	-0.007
-517.902	122.415	0.166	-0.212
-516.887	-71.888	-0.206	-0.078
-515.872	3.381	-0.074	-0.055
-514.858	-37.390	-0.311	-0.169
-513.843	-134.994	-0.318	-0.039
-512.829	397.463	-0.108	0.231
-511.814	-121.031	-0.088	-0.015
-510.799	-2.823	-0.181	-0.128
-509.785	148.975	0.225	0.310
-508.770	146.733	0.108	-0.148
-507.756	800.000	-0.049	-0.149
-506.741	159.657	-0.092	-0.130
-505.726	-200.000	0.044	-0.210
-504.712	113.314	0.190	-0.234
-503.697	-88.982	0.335	-0.101
-502.683	16.831	0.194	-0.156
-501.668	-120.169	-0.367	-0.064
-500.653	800.000	0.069	0.300
-499.639	285.160	-0.115	0.211
-498.624	63.813	0.083	-0.084
-497.610	-93.879	0.236	-0.066
-496.595	25.016	0.115	0.097
-495.581	128.859	-0.090	-0.117
-494.566	-95.478	0.099	0.027
-493.551	70.336	0.154	0.162
-492.537	-72.539	0.140	0.053
-491.522	30.710	0.020	0.018
-490.508	637.903	-0.034	-0.089
-489.493	800.000	0.056	-0.234
-488.478	-7.464	0.293	0.202
-487.464	47.243	0.131	0.124
-486.449	108.938	-0.070	-0.085
-485.435	-200.000	0.003	-0.125
-484.420	-200.000	0.014	0.142
-483.405	1.443	0.272	0.199
-482.391	-200.000	-0.023	-0.194
-481.376	-33.108	-0.166	-0.093
-480.362	631.913	-0.112	0.288
-479.347	34.749	0.293	0.260
-478.332	10.933	-0.146	-0.113
-477.318	-15.252	0.336	-0.219
-476.303	800.000	0.063	0.230
-475.289	-200.000	-0.057	-0.323
-474.274	57.520	0.154	0.153
-473.259	128.691	-0.139	0.180
-472.245	800.000	-0.076	0.248
-471.230	-60.178	0.276	0.119
-470.216	-158.939	0.284	0.016
-469.201	295.597	0.100	0.186
-468.186	-195.502	-0.249	0.002
-467.172	-41.948	0.260	-0.135
-466.157	-1.459	-0.213	0.153
-465.143	241.194	-0.044	0.074
-464.128	-200.000	-0.025	0.274
-463.113	-81.489	0.101	-0.034
-462.099	197.299	0.170	0.263
-461.084	125.240	-0.194	-0.248
-460.070	5.097	0.066	0.050
-459.055	-115.126	0.046	0.009
-458.040	56.453	0.080	-0.079
-457.026	374.858	0.146	-0.303
-456.011	-66.181	-0.328	0.132
-454.997	239.796	0.146	0.246
-453.982	120.034	0.087	-0.109
-452.968	-98.687	0.129	-0.033
-451.953	-200.000	-0.031	-0.174
-450.938	-15.975	-0.061	-0.039
-449.924	32.277	-0.036	-0.031
-448.909	-176.365	-0.252	-0.007
-447.895	31.915	-0.221	0.193
-446.880	-110.556	0.354	-0.074
-445.865	-200.000	-0.010	-0.087
-444.851	201.146	-0.255	0.398
-443.836	556.044	-0.025	0.062
-442.822	800.000	0.016	-0.057
-441.807	-200.000	0.060	0.299
-440.792	-39.070	0.477	-0.254
-439.778	-200.000	0.013	-0.071
-438.763	-20.031	0.278	-0.174
-437.749	94.265	-0.217	0.249
-436.734	233.529	0.040	-0.067
-435.719	65.881	-0.305	-0.314
-434.705	-34.212	-0.143	-0.079
-433.690	406.913	-0.148	-0.317
-432.676	617.934	-0.096	0.243
-431.661	800.000	-0.033	0.133
-430.646	-55.910	-0.059	-0.027
-429.632	531.813	-0.091	-0.219
-428.617	337.671	-0.145	0.286
-427.603	-76.653	0.105	0.037
-426.588	-30.076	-0.165	0.095
-425.573	278.010	0.134	-0.241
-424.559	-133.888	-0.186	-0.023
-423.544	686.415	0.060	0.158
-422.530	-200.000	0.006	0.268
-421.515	-105.582	0.174	-0.040
-420.500	-139.774	-0.154	-0.017
-419.486	-12.690	-0.272	-0.180
-418.471	-105.237	-0.233	-0.054
-417.457	-44.842	-0.093	0.047
-416.442	-154.673	-0.603	-0.041
-415.428	92.034	-0.027	-0.031
-414.413	634.591	-0.064	-0.164
-413.398	166.536	-0.107	-0.154
-412.384	66.390	-0.051	0.053
-411.369	5.947	0.374	0.280
-410.355	-66.842	-0.085	-0.034
-409.340	-15.219	-0.063	-0.041
-408.325	-148.793	-0.481	0.039
-407.311	-97.815	0.244	-0.064
-406.296	-112.218	0.370	-0.075
-405.282	-21.845	-0.353	-0.218
-404.267	-32.870	-0.155	-0.087
-403.252	-132.335	-0.294	0.038
-402.238	120.723	0.176	-0.222
-401.223	-22.744	-0.107	0.066
-400.209	115.085	-0.078	-0.096
-399.194	112.006	0.056	0.069
-398.179	800.000	0.098	0.317
-397.165	-200.000	-0.034	-0.188
-396.150	-175.704	-0.129	-0.004
-395.136	525.894	-0.069	0.165
-394.121	269.842	-0.043	-0.077
-393.106	-5.679	0.084	-0.058
-392.092	-71.769	-0.312	-0.118
-391.077	140.913	0.066	-0.088
-390.063	142.323	-0.278	0.374
-389.048	800.000	-0.041	-0.139
-388.033	800.000	0.036	-0.108
-387.019	-11.886	0.163	0.108
-386.004	-65.170	-0.296	0.121
-384.990	-34.988	-0.314	0.173
-383.975	-45.875	0.255	-0.127
-382.960	-136.523	0.301	0.035
-381.946	-2.158	-0.155	0.110
-380.931	800.000	-0.060	-0.204
-379.917	355.758	-0.157	0.317
-378.902	-64.506	-0.461	-0.190
-377.888	-66.491	-0.218	-0.088
-376.873	108.402	-0.239	0.288
-375.858	200.410	0.034	-0.052
-374.844	-58.009	0.119	-0.052
-373.829	35.674	0.336	-0.299
-372.815	-40.180	-0.090	0.048
-371.800	-113.599	0.010	0.002
-370.785	51.537	-0.081	-0.077
-369.771	42.645	-0.126	-0.116
-368.756	54.250	0.336	-0.327
-367.742	384.685	0.085	0.177
-366.727	80.339	-0.174	0.189
-365.712	11.440	-0.144	-0.111
-364.698	-104.811	-0.071	0.016
-363.683	344.604	0.063	0.125
-362.669	-18.125	0.406	0.257
-361.654	-75.475	0.089	0.032
-360.639	134.675	0.161	0.211
-359.625	-200.000	-0.004	0.021
-358.610	-200.000	-0.027	-0.186
-357.596	-200.000	0.021	0.125
-356.581	286.877	0.138	0.252
-355.566	-95.611	0.202	0.055
-354.552	-200.000	-0.002	-0.086
-353.537	-7.960	0.119	-0.081
-352.523	106.701	0.181	-0.218
-351.508	-53.548	0.109	0.050
-350.493	751.510	0.100	0.273
-349.479	-131.019	-0.134	0.018
-348.464	173.398	-0.125	0.182
-347.450	327.871	-0.177	-0.343
-346.435	257.132	0.044	0.077
-345.420	-109.415	0.185	0.040
-344.406	-116.633	-0.057	-0.011
-343.391	121.914	0.108	-0.136
-342.377	800.000	-0.064	0.262
-341.362	-200.000	-0.027	0.424
-340.348	143.904	0.077	-0.104
-339.333	-200.000	-0.027	0.151
-338.318	-71.873	-0.140	0.053
-337.304	-125.933	0.415	-0.063
-336.289	90.863	-0.162	0.184
-335.275	800.000	0.142	-0.471
-334.260	-32.545	0.181	0.102
-333.245	-79.414	0.147	0.050
-332.231	279.378	0.195	-0.352
-331.216	281.358	0.077	0.139
-330.202	800.000	-0.049	0.143
-329.187	-114.781	0.106	0.020
-328.172	366.015	-0.185	-0.376
-327.158	-63.749	-0.281	0.116
-326.143	280.573	0.071	-0.128
-325.129	417.244	0.098	0.212
-324.114	-200.000	0.001	0.167
-323.099	-47.159	0.091	0.045
-322.085	800.000	-0.097	-0.334
-321.070	-106.063	-0.332	0.075
-320.056	-200.000	0.043	0.243
-319.041	-200.000	0.005	0.137
-318.026	-53.143	0.044	-0.020
-317.012	-11.289	0.232	-0.154
-315.997	-200.000	0.056	0.000
-314.983	36.486	-0.052	-0.046
-313.968	-83.474	0.263	0.085
-312.953	163.143	0.088	-0.125
-311.939	-19.021	-0.190	-0.119
-310.924	-200.000	-0.003	0.109
-309.910	75.646	0.173	-0.185
-308.895	-50.312	0.085	-0.040
-307.880	-65.941	-0.323	0.130
-306.866	323.509	0.098	0.188
-305.851	158.254	-0.113	-0.158
-304.837	-79.436	-0.463	0.158
-303.822	-62.440	0.130	0.055
-302.807	-111.196	-0.180	0.037
-301.793	-200.000	0.001	-0.015
-300.778	-78.360	-0.098	-0.034
-299.764	800.000	-0.034	-0.135
-298.749	21.675	0.246	-0.202
-297.735	-13.970	-0.083	-0.054
-296.720	246.101	0.117	-0.199
-295.705	-200.000	0.020	-0.115
-294.691	-15.910	-0.166	-0.107
-293.676	-48.554	-0.161	-0.078
-292.662	304.742	0.095	0.177
-291.647	-200.000	0.078	0.400
-290.632	-115.076	0.066	-0.013
-289.618	346.915	-0.091	0.181
-288.603	-50.461	0.063	-0.030
-287.589	313.177	0.209	-0.396
-286.574	282.412	0.216	-0.390
-285.559	-97.228	-0.101	0.026
-284.545	-200.000	-0.005	0.256
-283.530	54.326	-0.298	-0.289
-282.516	800.000	0.055	-0.168
-281.501	-147.593	0.209	0.018
-280.486	-110.967	-0.057	-0.012
-279.472	-28.797	-0.167	-0.097
-278.457	40.789	0.233	-0.212
-277.443	163.263	-0.038	-0.053
-276.428	-44.299	0.420	0.212
-275.413	-200.000	0.082	0.403
-274.399	109.889	-0.134	0.162
-273.384	-200.000	-0.010	0.152
-272.370	714.612	-0.047	-0.126
-271.355	-124.231	0.172	0.027
-270.340	-76.025	0.125	0.045
-269.326	800.000	-0.056	0.214
-268.311	62.821	-0.171	0.172
-267.297	-200.000	0.023	-0.274
-266.282	216.880	0.150	-0.241
-265.267	-80.364	0.187	-0.063
-264.253	-106.731	0.075	-0.017
-263.238	-187.947	-0.267	-0.003
-262.224	-52.707	0.099	-0.046
-261.209	-91.352	0.072	0.021
-260.195	-200.000	-0.014	-0.276
-259.180	446.928	0.110	-0.243
-258.165	800.000	0.140	-0.512
-257.151	-190.765	0.201	-0.002
-256.136	72.222	0.199	0.208
-255.122	-142.172	0.206	0.021
-254.107	800.000	0.044	0.169
-253.092	139.735	-0.159	0.210
-252.078	-200.000	0.066	0.331
-251.063	751.330	0.071	0.193
-250.049	-157.000	0.205	0.013
-249.034	147.430	0.088	0.119
-248.019	2.380	-0.069	0.050
-247.005	-200.000	0.010	-0.079
-245.990	9.261	-0.178	-0.135
-244.976	-137.312	-0.446	-0.051
-243.961	104.740	-0.102	0.121
-242.946	28.117	-0.033	0.028
-241.932	-200.000	0.034	-0.280
-240.917	-54.329	0.138	0.063
-239.903	-51.819	0.039	-0.018
-238.888	261.672	0.112	-0.196
-237.873	800.000	0.061	-0.184
-236.859	56.178	0.033	-0.032
-235.844	-133.281	-0.280	-0.036
-234.830	-49.723	-0.046	0.022
-233.815	-31.669	-0.066	0.037
-232.800	124.120	0.090	0.114
-231.786	783.119	-0.105	0.289
-230.771	60.626	0.271	0.270
-229.757	800.000	-0.097	-0.334
-228.742	-200.000	0.041	-0.224
-227.727	800.000	-0.028	0.117
-226.713	-200.000	-0.003	0.088
-225.698	800.000	0.055	0.208
-224.684	-96.545	0.153	-0.041
-223.669	-67.875	0.355	-0.139
-222.655	299.489	0.105	0.195
-221.640	25.963	0.124	0.104
-220.625	19.334	-0.194	-0.157
-219.611	-200.000	0.032	-0.285
-218.596	589.198	0.063	-0.156
-217.582	-17.270	-0.242	-0.153
-216.567	800.000	0.056	-0.208
-215.552	800.000	0.062	0.195
-214.538	389.150	0.030	-0.062
-213.523	-98.386	0.251	0.065
-212.509	800.000	0.066	-0.258
-211.494	590.025	0.084	0.209
-210.479	297.484	-0.121	0.223
-209.465	207.334	0.116	-0.182
-208.450	-98.167	-0.299	0.077
-207.436	-106.709	-0.240	0.054
-206.421	419.422	-0.124	-0.267
-205.406	-7.552	0.071	0.048
-204.392	184.115	0.117	-0.175
-203.377	123.037	0.073	-0.092
-202.363	-111.397	0.213	-0.044
-201.348	598.422	-0.096	0.240
-200.333	119.795	0.146	0.182
-199.319	-18.764	0.141	0.088
-198.304	170.364	0.108	0.156
-197.290	395.302	-0.050	0.104
-196.275	116.658	-0.139	-0.171
-195.260	163.714	-0.213	0.301
-194.246	800.000	-0.077	0.305
-193.231	-200.000	-0.043	-0.254
-192.217	272.712	0.088	-0.156
-191.202	-155.747	-0.117	-0.008
-190.187	12.749	-0.140	0.109
-189.173	689.743	-0.079	0.208
-188.158	464.326	-0.084	-0.188
-187.144	-200.000	-0.004	-0.240
-186.129	-10.821	0.326	-0.216
-185.114	-71.371	-0.060	-0.023
-184.100	-122.223	-0.334	0.055
-183.085	-57.955	-0.312	0.137
-182.071	-200.000	0.041	-0.191
-181.056	-200.000	-0.000	-0.059
-180.042	85.086	0.254	0.280
-179.027	381.537	0.179	0.370
-178.012	-200.000	-0.322	-0.000
-176.998	-127.588	-0.172	-0.025
-175.983	-200.000	0.436	0.000
-174.969	-82.667	0.242	-0.079
-173.954	-200.000	-0.008	-0.161
-172.939	-92.336	0.188	-0.053
-171.925	-69.317	-0.251	0.097
-170.910	-6.327	-0.143	0.098
-169.896	-91.520	0.437	-0.125
-168.881	-109.981	-0.388	0.081
-167.866	162.231	-0.089	-0.126
-166.852	-200.000	0.023	0.326
-165.837	800.000	-0.049	-0.188
-164.823	800.000	0.026	0.103
-163.808	-56.339	0.132	0.059
-162.793	-200.000	0.064	-0.346
-161.779	34.635	-0.156	0.137
-160.764	-20.740	-0.330	0.203
-159.750	-182.563	0.238	0.004
-158.735	208.858	-0.114	-0.178
-157.720	558.876	0.150	0.362
-156.706	361.165	-0.038	-0.077
-155.691	-200.000	0.082	-0.375
-154.677	-200.000	-0.036	0.164
-153.662	331.949	-0.113	0.220
-152.647	56.290	0.012	-0.012
-151.633	-39.852	-0.083	0.043
-150.618	-200.000	-0.054	0.301
-149.604	800.000	-0.054	-0.232
-148.589	-130.289	0.165	0.022
-147.574	6.647	-0.178	0.133
-146.560	-71.912	-0.146	0.054
-145.545	175.991	0.059	0.086
-144.531	800.000	-0.095	0.384
-143.516	-122.318	-0.137	-0.022
-142.502	-172.872	0.118	-0.004
-141.487	-68.975	-0.184	0.071
-140.472	55.750	0.092	0.090
-139.458	655.313	-0.042	-0.107
-138.443	-23.062	-0.152	0.092
-137.429	81.160	-0.153	0.166
-136.414	-200.000	-0.006	0.266
-135.399	26.779	0.222	0.186
-134.385	-200.000	-0.037	-0.176
-133.370	-67.628	0.059	-0.023
-132.356	31.882	0.331	0.286
-131.341	-134.850	0.069	0.008
-130.326	137.614	0.111	-0.146
-129.312	-19.461	-0.075	-0.047
-128.297	-142.122	0.006	-0.001
-127.283	-23.647	-0.181	-0.108
-126.268	6.877	0.203	-0.151
-125.253	-8.603	-0.005	0.003
-124.239	-39.733	0.370	-0.194
-123.224	-18.072	-0.304	-0.191
-122.210	55.909	0.084	-0.082
-121.195	-200.000	-0.048	-0.255
