DTS Sentinel unit serial number:	SN413079Multiplexer serial number:	ORYXHardware model number:	OX4-SRSoftware version number:	ORYX F/W v4.00 Oryx Data Collector v3.7.2.0data status	okinstallation	princeton_trtdifferential loss correction	single-endedforward channel	channel 2reverse channel	N/Adate	2019/09/12time	04:25:10forward acquisition time	60.00reverse acquisition time	0.00gamma	496.2192k internal	0.2328k external	0.2328temperature offset calibration	1.0096default loss term (dB/km)	0.3790temperature slope calibration	1.0000multiplexer offset coefficient	1.0000multiplexer slope coefficient	1.0000fibre end	0.00T internal ref (°C)	31.66T ext. ref 1 (°C)	2.24T ext. ref 2 (°C)	25.85length (m)	temperature (°C)	Stokes	anti-Stokes-747.200	596.943	-0.048	0.121
-746.185	52.256	0.032	0.030
-745.171	-200.000	0.016	0.153
-744.156	-200.000	-0.039	0.398
-743.142	800.000	-0.095	0.372
-742.127	-159.767	-0.357	0.020
-741.112	-186.851	-0.313	-0.004
-740.098	74.080	0.063	-0.067
-739.083	97.313	0.366	0.423
-738.069	449.869	0.060	0.134
-737.054	68.452	0.118	-0.122
-736.039	-186.322	-0.302	0.004
-735.025	136.760	-0.025	-0.033
-734.010	9.141	-0.149	0.114
-732.996	800.000	-0.085	-0.243
-731.981	-200.000	-0.031	-0.172
-730.966	-139.678	-0.386	0.041
-729.952	-89.085	0.249	-0.074
-728.937	-112.662	-0.185	-0.037
-727.923	-152.805	-0.069	-0.005
-726.908	39.129	0.199	-0.179
-725.894	111.946	-0.100	-0.122
-724.879	370.234	-0.061	-0.124
-723.864	81.913	0.131	-0.143
-722.850	73.666	-0.172	0.181
-721.835	-109.548	-0.231	-0.049
-720.821	43.628	-0.171	-0.158
-719.806	800.000	-0.071	0.277
-718.791	374.015	-0.110	-0.225
-717.777	498.762	0.066	0.154
-716.762	800.000	-0.023	-0.080
-715.748	105.916	-0.069	0.082
-714.733	-101.585	-0.180	0.044
-713.718	6.631	-0.109	-0.082
-712.704	35.790	-0.082	-0.073
-711.689	-93.176	-0.234	-0.066
-710.675	4.714	0.215	-0.159
-709.660	-200.000	-0.034	-0.278
-708.645	-200.000	0.000	0.179
-707.631	-169.485	-0.102	-0.004
-706.616	413.073	-0.085	-0.183
-705.602	-87.309	-0.378	-0.115
-704.587	21.711	-0.117	0.096
-703.572	-88.179	0.285	-0.086
-702.558	-49.577	0.139	-0.067
-701.543	-192.829	0.383	0.004
-700.529	-111.303	-0.136	0.028
-699.514	106.198	0.135	0.161
-698.499	-13.605	-0.128	-0.083
-697.485	98.916	-0.016	0.019
-696.470	-107.326	-0.228	0.050
-695.456	-200.000	-0.017	0.116
-694.441	-146.128	0.162	-0.014
-693.426	-134.786	-0.383	-0.047
-692.412	-22.369	-0.310	-0.189
-691.397	84.479	-0.130	-0.143
-690.383	-164.949	0.303	-0.014
-689.368	422.123	0.113	0.244
-688.354	572.086	0.039	-0.095
-687.339	-9.965	0.151	-0.101
-686.324	-67.355	0.105	-0.041
-685.310	336.426	0.101	-0.196
-684.295	-179.868	-0.245	-0.005
-683.281	-176.371	-0.145	0.004
-682.266	79.780	0.123	-0.133
-681.251	-78.670	-0.346	-0.119
-680.237	800.000	0.014	-0.053
-679.222	99.834	0.247	0.287
-678.208	255.009	0.042	0.072
-677.193	1.296	-0.214	0.154
-676.178	193.435	-0.071	-0.108
-675.164	113.285	0.184	0.225
-674.149	36.623	-0.124	0.110
-673.135	-82.253	0.236	-0.077
-672.120	433.324	-0.117	0.255
-671.105	-200.000	-0.008	0.125
-670.091	509.797	0.054	-0.127
-669.076	181.439	-0.230	-0.340
-668.062	259.838	-0.082	-0.142
-667.047	9.812	0.111	0.084
-666.032	-200.000	-0.060	-0.301
-665.018	38.665	-0.347	-0.311
-664.003	-200.000	-0.054	-0.538
-662.989	227.528	0.102	-0.166
-661.974	97.745	-0.297	-0.344
-660.959	600.984	0.033	0.082
-659.945	519.004	-0.047	0.110
-658.930	225.550	-0.179	0.291
-657.916	-122.126	-0.131	-0.022
-656.901	-200.000	-0.010	0.156
-655.886	-128.265	-0.096	0.014
-654.872	-78.247	-0.168	0.058
-653.857	72.501	0.103	0.108
-652.843	-112.265	-0.380	-0.077
-651.828	-152.877	-0.232	0.017
-650.814	517.739	0.114	0.269
-649.799	52.859	0.194	-0.186
-648.784	800.000	-0.069	-0.231
-647.770	-157.464	-0.537	0.032
-646.755	-19.659	0.264	0.164
-645.741	80.438	0.286	0.310
-644.726	-200.000	0.012	-0.176
-643.711	657.866	0.061	0.158
-642.697	-48.939	0.304	0.146
-641.682	-182.931	0.349	0.006
-640.668	-9.490	0.049	0.033
-639.653	-199.871	0.186	0.001
-638.638	158.901	0.056	0.078
-637.624	-139.541	0.125	-0.013
-636.609	129.344	-0.157	0.201
-635.595	-36.664	-0.197	-0.106
-634.580	60.863	-0.090	-0.089
-633.565	-131.970	0.060	-0.008
-632.551	-122.971	-0.098	0.016
-631.536	80.285	0.360	-0.389
-630.522	-105.849	0.092	-0.021
-629.507	-85.926	0.181	-0.056
-628.492	-82.917	-0.141	0.046
-627.478	340.383	0.158	0.310
-626.463	238.368	0.027	-0.045
-625.449	-98.009	0.061	-0.016
-624.434	-3.819	-0.197	-0.137
-623.419	-28.023	0.191	-0.111
-622.405	70.517	-0.108	-0.112
-621.390	384.061	0.049	-0.101
-620.376	-200.000	-0.065	0.504
-619.361	-157.207	-0.258	-0.016
-618.346	-200.000	0.058	-0.291
-617.332	-200.000	0.009	-0.229
-616.317	55.553	0.068	0.066
-615.303	665.331	-0.030	-0.077
-614.288	-181.980	0.301	0.006
-613.273	146.035	0.202	-0.272
-612.259	72.568	-0.166	0.174
-611.244	-176.973	-0.355	0.009
-610.230	356.477	-0.042	0.084
-609.215	213.835	0.087	-0.138
-608.201	-8.135	-0.191	-0.129
-607.186	272.957	-0.261	-0.462
-606.171	-25.585	-0.130	-0.077
-605.157	135.127	0.319	0.415
-604.142	-200.000	0.006	-0.213
-603.128	-104.103	0.279	-0.065
-602.113	-108.420	0.241	-0.052
-601.098	190.203	-0.145	-0.218
-600.084	-148.949	-0.395	-0.032
-599.069	111.546	-0.141	0.171
-598.055	-200.000	0.009	-0.265
-597.040	199.870	-0.107	-0.164
-596.025	195.806	0.339	-0.516
-595.011	-71.069	-0.156	0.059
-593.996	-38.382	-0.085	-0.045
-592.982	126.535	-0.270	-0.342
-591.967	-34.577	-0.353	0.194
-590.952	-94.170	0.194	0.053
-589.938	108.131	-0.143	0.171
-588.923	-181.921	-0.220	0.004
-587.909	800.000	0.064	-0.279
-586.894	-112.238	-0.147	-0.030
-585.879	-163.124	0.229	-0.011
-584.865	308.146	-0.100	0.188
-583.850	-57.851	-0.533	-0.233
-582.836	148.017	0.101	0.136
-581.821	-200.000	0.047	-0.324
-580.806	-129.602	0.222	0.031
-579.792	-23.596	0.351	-0.211
-578.777	93.535	0.222	-0.251
-577.763	3.082	0.101	0.073
-576.748	-98.032	0.094	-0.024
-575.733	-200.000	-0.002	-0.532
-574.719	-153.876	-0.157	-0.011
-573.704	4.140	-0.054	-0.039
-572.690	603.598	-0.056	0.139
-571.675	159.188	-0.042	-0.058
-570.661	-1.245	-0.054	-0.038
-569.646	-130.522	-0.108	0.015
-568.631	-22.657	-0.237	0.144
-567.617	305.674	-0.043	-0.079
-566.602	0.751	0.094	-0.067
-565.588	-122.026	-0.132	-0.022
-564.573	-35.278	-0.331	-0.180
-563.558	-47.070	0.225	-0.110
-562.544	-87.435	0.326	-0.099
-561.529	-125.377	-0.291	0.044
-560.515	538.669	-0.113	-0.268
-559.500	-141.441	0.160	0.016
-558.485	-125.729	-0.057	-0.009
-557.471	-25.505	-0.018	-0.011
-556.456	36.401	0.362	-0.319
-555.442	800.000	0.075	-0.319
-554.427	-61.973	0.235	0.098
-553.412	-200.000	0.044	-0.352
-552.398	-0.270	0.137	0.098
-551.383	-108.183	0.162	-0.035
-550.369	-200.000	-0.032	0.438
-549.354	-200.000	0.022	-0.104
-548.339	384.361	-0.077	-0.160
-547.325	-200.000	0.046	0.335
-546.310	-200.000	0.051	-0.258
-545.296	-200.000	-0.005	-0.226
-544.281	-200.000	0.017	-0.366
-543.266	-74.680	-0.103	0.037
-542.252	-41.101	-0.119	0.061
-541.237	344.007	-0.136	-0.266
-540.223	-12.792	-0.218	-0.142
-539.208	570.739	0.152	-0.370
-538.193	-61.552	0.215	0.090
-537.179	-83.328	0.229	0.073
-536.164	388.753	0.047	0.098
-535.150	26.026	-0.191	-0.159
-534.135	-59.070	0.100	-0.043
-533.121	800.000	-0.140	0.464
-532.106	-12.130	-0.576	0.377
-531.091	163.435	-0.119	0.167
-530.077	41.744	-0.053	-0.048
-529.062	-69.754	-0.221	-0.084
-528.048	-200.000	0.024	-0.161
-527.033	-200.000	-0.024	0.114
-526.018	53.918	0.143	0.137
-525.004	-134.325	0.287	0.035
-523.989	-200.000	-0.046	-0.217
-522.975	-65.384	-0.317	0.127
-521.960	-43.389	0.178	0.090
-520.945	296.580	0.237	0.435
-519.931	206.628	0.070	0.109
-518.916	800.000	-0.058	-0.185
-517.902	140.189	-0.351	-0.462
-516.887	-132.519	-0.165	0.021
-515.872	53.267	-0.114	-0.109
-514.858	-68.693	0.162	-0.063
-513.843	324.792	-0.053	-0.100
-512.829	-200.000	-0.003	0.113
-511.814	-200.000	0.023	0.146
-510.799	25.346	-0.054	0.045
-509.785	124.242	0.204	0.256
-508.770	-200.000	0.012	-0.107
-507.756	53.067	-0.199	0.190
-506.741	-27.658	0.188	-0.109
-505.726	-0.992	0.157	-0.111
-504.712	18.323	-0.107	-0.086
-503.697	-200.000	0.014	0.155
-502.683	-160.592	0.575	0.031
-501.668	6.888	0.060	0.044
-500.653	-146.315	-0.189	0.017
-499.639	-64.238	-0.102	-0.041
-498.624	-49.249	0.377	0.180
-497.610	-200.000	0.014	0.074
-496.595	-200.000	-0.004	-0.271
-495.581	340.695	-0.105	-0.205
-494.566	257.414	-0.119	0.204
-493.551	-115.119	-0.078	-0.015
-492.537	-200.000	0.077	0.613
-491.522	24.503	-0.248	0.204
-490.508	16.296	-0.188	-0.148
-489.493	84.000	-0.162	0.176
-488.478	-95.833	-0.087	0.023
-487.464	-62.390	0.166	0.069
-486.449	-82.299	0.148	-0.048
-485.435	114.274	0.081	0.098
-484.420	195.258	-0.130	-0.197
-483.405	-122.415	0.177	-0.029
-482.391	115.458	-0.136	-0.166
-481.376	-123.332	-0.129	0.021
-480.362	477.406	-0.119	-0.267
-479.347	-95.721	-0.084	0.022
-478.332	-200.000	0.032	-0.201
-477.318	-23.135	0.061	0.037
-476.303	-27.635	-0.113	0.065
-475.289	57.938	0.126	0.123
-474.274	-97.085	-0.175	-0.046
-473.259	-86.331	-0.329	-0.101
-472.245	91.160	0.012	-0.013
-471.230	269.846	-0.073	-0.128
-470.216	-140.587	0.633	0.065
-469.201	-73.658	0.171	-0.062
-468.186	800.000	-0.012	0.040
-467.172	128.735	-0.143	-0.182
-466.157	301.436	0.032	0.059
-465.143	-200.000	-0.044	0.245
-464.128	-200.000	-0.039	-0.423
-463.113	-83.219	-0.105	-0.034
-462.099	-142.043	-0.400	-0.040
-461.084	-129.395	0.133	-0.018
-460.070	800.000	-0.089	-0.273
-459.055	-200.000	-0.016	0.105
-458.040	-177.151	-0.145	-0.004
-457.026	484.372	0.113	0.256
-456.011	800.000	-0.029	0.106
-454.997	-186.387	0.131	-0.002
-453.982	-73.811	-0.242	-0.088
-452.968	198.439	0.247	-0.376
-451.953	-44.081	-0.115	-0.057
-450.938	34.029	0.208	-0.180
-449.924	8.908	-0.180	-0.135
-448.909	27.335	0.091	-0.076
-447.895	-164.242	-0.422	-0.019
-446.880	376.370	0.126	0.256
-445.865	-200.000	0.011	0.188
-444.851	-125.863	-0.138	-0.021
-443.836	-153.648	-0.308	-0.021
-442.822	28.632	0.289	0.244
-441.807	-123.458	0.147	0.023
-440.792	394.994	-0.111	-0.231
-439.778	-82.599	0.464	-0.150
-438.763	-142.801	0.283	0.027
-437.749	9.172	0.232	-0.174
-436.734	800.000	0.086	-0.246
-435.719	-200.000	0.031	0.256
-434.705	800.000	-0.087	0.326
-433.690	257.436	-0.060	-0.102
-432.676	-21.425	-0.209	0.127
-431.661	800.000	0.047	0.165
-430.646	6.204	-0.131	-0.097
-429.632	-13.004	-0.365	0.236
-428.617	800.000	0.124	0.345
-427.603	209.877	0.043	0.067
-426.588	302.749	0.119	-0.220
-425.573	-52.290	0.149	-0.069
-424.559	-200.000	-0.044	-0.197
-423.544	155.690	-0.192	0.264
-422.530	383.711	-0.169	-0.346
-421.515	-142.372	-0.152	-0.015
-420.500	-151.792	0.066	0.005
-419.486	-85.033	-0.245	0.076
-418.471	-58.241	-0.154	-0.067
-417.457	-200.000	-0.028	-0.343
-416.442	-151.124	0.026	0.002
-415.428	102.298	-0.059	0.068
-414.413	-150.386	-0.291	0.022
-413.398	-200.000	-0.009	-0.089
-412.384	-8.622	-0.075	-0.050
-411.369	12.580	0.304	-0.233
-410.355	-200.000	0.041	-0.187
-409.340	800.000	-0.091	-0.322
-408.325	-115.992	-0.088	-0.016
-407.311	-200.000	-0.003	-0.040
-406.296	800.000	0.029	-0.106
-405.282	-20.485	-0.226	-0.138
-404.267	-153.242	-0.161	-0.011
-403.252	554.854	0.020	-0.048
-402.238	-89.767	0.159	-0.046
-401.223	-39.547	0.312	-0.163
-400.209	-89.703	-0.439	-0.128
-399.194	-69.377	-0.251	-0.096
-398.179	-175.302	-0.181	0.005
-397.165	-200.000	0.003	0.158
-396.150	593.964	-0.086	-0.211
-395.136	463.533	0.087	-0.193
-394.121	-200.000	0.052	-0.388
-393.106	-148.687	-0.122	-0.010
-392.092	-73.545	0.296	-0.107
-391.077	-200.000	-0.017	0.117
-390.063	733.311	0.054	-0.145
-389.048	128.385	-0.108	0.137
-388.033	-11.648	-0.148	0.097
-387.019	-22.643	0.167	0.100
-386.004	62.661	-0.074	0.074
-384.990	-32.877	0.269	0.149
-383.975	-126.693	-0.031	-0.005
-382.960	-112.238	0.319	0.064
-381.946	75.743	0.150	0.158
-380.931	292.042	0.126	0.229
-379.917	-38.568	0.134	0.070
-378.902	-123.151	0.336	-0.054
-377.888	-200.000	-0.070	-0.562
-376.873	-109.536	-0.216	0.045
-375.858	-16.425	-0.279	0.176
-374.844	-36.978	-0.114	0.061
-373.829	-122.145	0.022	0.004
-372.815	-200.000	-0.053	0.283
-371.800	800.000	0.092	-0.309
-370.785	-33.721	0.294	-0.161
-369.771	-74.723	-0.313	0.112
-368.756	133.811	-0.156	0.201
-367.742	-71.549	-0.318	0.118
-366.727	-135.371	0.372	0.044
-365.712	368.290	0.026	0.053
-364.698	-97.859	-0.340	0.087
-363.683	-200.000	-0.002	0.148
-362.669	42.052	-0.139	-0.126
-361.654	210.799	-0.146	0.228
-360.639	800.000	-0.064	0.245
-359.625	592.646	-0.086	-0.212
-358.610	-95.450	0.098	0.026
-357.596	-200.000	0.058	-0.332
-356.581	-129.412	0.118	-0.016
-355.566	396.219	0.244	0.505
-354.552	-200.000	0.012	0.137
-353.537	395.561	-0.193	0.400
-352.523	-200.000	0.073	0.337
-351.508	158.264	-0.115	0.158
-350.493	-43.482	-0.215	-0.108
-349.479	102.606	0.099	-0.115
-348.464	-200.000	-0.017	-0.101
-347.450	776.968	0.136	-0.370
-346.435	64.352	0.073	0.073
-345.420	42.732	-0.149	-0.135
-344.406	-142.701	0.113	0.011
-343.391	74.672	0.121	0.126
-342.377	99.480	-0.023	-0.027
-341.362	-200.000	0.100	-0.000
-340.348	-118.635	0.055	0.010
-339.333	-8.187	0.034	-0.023
-338.318	-25.008	0.248	-0.146
-337.304	242.906	0.125	-0.208
-336.289	28.772	-0.195	0.164
-335.275	-112.757	0.287	0.057
-334.260	2.686	0.221	0.159
-333.245	-26.525	-0.092	0.054
-332.231	-109.301	-0.331	-0.070
-331.216	-28.495	-0.108	-0.062
-330.202	-48.237	-0.208	-0.100
-329.187	-172.212	-0.092	-0.003
-328.172	-120.132	-0.173	-0.029
-327.158	54.849	0.187	0.179
-326.143	390.564	0.127	0.261
-325.129	-59.241	0.227	0.097
-324.114	-146.949	0.219	0.019
-323.099	-200.000	0.068	0.331
-322.085	-41.394	0.108	0.055
-321.070	3.557	0.234	0.169
-320.056	-149.083	0.236	0.019
-319.041	800.000	0.035	-0.111
-318.026	-103.727	0.398	0.092
-317.012	-161.288	-0.125	0.006
-315.997	-24.586	-0.207	0.122
-314.983	11.509	-0.218	0.166
-313.968	-108.988	0.126	0.027
-312.953	71.677	-0.085	-0.088
-311.939	682.746	-0.109	-0.281
-310.924	-200.000	-0.009	0.076
-309.910	399.174	0.021	-0.043
-308.895	40.664	0.126	-0.113
-307.880	361.108	0.075	-0.150
-306.866	800.000	-0.120	0.364
-305.851	298.110	-0.030	0.055
-304.837	-200.000	-0.018	0.111
-303.822	-119.508	-0.221	0.038
-302.807	-161.913	0.345	-0.017
-301.793	52.917	0.069	0.065
-300.778	-31.889	0.221	0.123
-299.764	-200.000	0.031	0.238
-298.749	-200.000	-0.058	0.305
-297.735	162.388	-0.094	0.130
-296.720	-30.218	-0.176	-0.099
-295.705	55.475	-0.053	-0.051
-294.691	170.022	0.013	0.019
-293.676	136.665	0.102	0.132
-292.662	-200.000	-0.013	0.195
-291.647	-8.755	0.032	-0.021
-290.632	-151.787	0.268	-0.020
-289.618	769.681	-0.052	0.140
-288.603	18.829	0.247	-0.196
-287.589	299.700	0.028	-0.051
-286.574	-13.560	0.182	-0.117
-285.559	800.000	-0.050	-0.195
-284.545	-93.138	0.299	0.083
-283.530	273.191	0.097	0.170
-282.516	800.000	0.022	0.081
-281.501	-172.948	0.250	0.008
-280.486	-15.551	0.173	-0.109
-279.472	-72.872	0.092	-0.034
-278.457	-95.634	-0.201	0.053
-277.443	-35.081	0.310	-0.167
-276.428	288.520	-0.085	0.153
-275.413	49.099	0.185	-0.172
-274.399	277.519	-0.105	0.184
-273.384	-54.140	-0.140	-0.063
-272.370	238.853	-0.069	-0.114
-271.355	-91.850	0.238	0.067
-270.340	77.880	-0.173	0.183
-269.326	-48.297	-0.182	-0.087
-268.311	18.201	0.172	0.136
-267.297	-200.000	0.009	0.181
-266.282	275.744	-0.069	0.122
-265.267	73.162	0.110	-0.114
-264.253	202.394	0.072	-0.110
-263.238	105.981	0.207	0.243
-262.224	26.556	0.214	-0.177
-261.209	-157.181	0.068	0.004
-260.195	401.321	0.082	0.170
-259.180	-61.318	-0.273	0.114
-258.165	-83.917	-0.185	-0.058
-257.151	-98.820	0.159	0.040
-256.136	-113.647	0.354	0.068
-255.122	-121.478	0.355	-0.058
-254.107	269.351	-0.191	0.332
-253.092	248.380	-0.220	-0.368
-252.078	-16.473	-0.227	-0.142
-251.063	-200.000	0.012	0.117
-250.049	800.000	0.002	0.008
-249.034	489.898	0.031	-0.069
-248.019	-27.873	-0.191	-0.110
-247.005	41.034	0.076	0.068
-245.990	-105.759	-0.026	-0.006
-244.976	72.614	0.332	0.343
-243.961	364.441	0.035	0.069
-242.946	-69.618	-0.096	0.036
-241.932	252.094	-0.153	-0.258
-240.917	64.925	-0.106	0.106
-239.903	124.263	-0.173	-0.215
-238.888	-136.333	-0.144	0.017
-237.873	-73.269	-0.214	0.077
-236.859	-28.544	-0.181	0.103
-235.844	-55.013	-0.352	-0.157
-234.830	800.000	-0.070	0.236
-233.815	-145.236	-0.277	0.025
-232.800	-131.719	-0.080	0.010
-231.786	800.000	-0.020	-0.066
-230.771	-20.988	0.129	0.078
-229.757	-182.423	0.328	0.006
-228.742	-116.235	0.234	0.043
-227.727	104.137	0.197	0.229
-226.713	-111.583	0.276	-0.055
-225.698	-19.196	-0.172	0.106
-224.684	-111.098	0.122	0.025
-223.669	-98.012	0.236	0.060
-222.655	166.672	-0.193	0.270
-221.640	-200.000	-0.026	-0.282
-220.625	800.000	0.008	-0.034
-219.611	-69.049	-0.219	0.083
-218.596	-109.381	-0.196	-0.041
-217.582	317.209	-0.119	0.222
-216.567	-20.553	-0.234	0.142
-215.552	-200.000	-0.030	0.328
-214.538	282.086	0.146	0.259
-213.523	389.989	-0.182	0.372
-212.509	-157.994	-0.284	-0.017
-211.494	-175.513	-0.087	-0.002
-210.479	-59.869	-0.198	0.084
-209.465	464.759	0.109	0.240
-208.450	154.306	-0.096	0.130
-207.436	-200.000	0.029	-0.235
-206.421	-200.000	0.028	-0.294
-205.406	183.651	0.144	0.210
-204.392	313.331	-0.138	-0.257
-203.377	-36.296	-0.090	0.048
-202.363	112.014	0.149	0.177
-201.348	-165.351	-0.382	-0.017
-200.333	-174.970	-0.099	-0.003
-199.319	-97.427	0.359	0.092
-198.304	-107.700	-0.135	0.029
-197.290	778.317	-0.094	0.253
-196.275	46.895	0.179	0.164
-195.260	510.465	0.048	0.110
-194.246	6.046	0.126	0.092
-193.231	80.232	0.067	0.071
-192.217	26.376	-0.118	0.097
-191.202	212.599	-0.269	0.418
-190.187	63.646	0.127	0.126
-189.173	-26.319	0.131	-0.076
-188.158	-141.351	0.245	-0.025
-187.144	585.006	-0.062	0.150
-186.129	-200.000	-0.095	0.478
-185.114	215.473	-0.073	-0.114
-184.100	37.942	0.216	-0.189
-183.085	-80.332	-0.136	-0.045
-182.071	-45.718	-0.254	0.124
-181.056	-67.399	-0.067	-0.026
-180.042	9.521	0.166	0.124
-179.027	114.476	-0.042	-0.051
-178.012	516.965	-0.086	0.199
-176.998	22.314	0.261	-0.211
-175.983	-91.814	-0.239	-0.067
-174.969	-98.597	0.184	-0.046
-173.954	-143.567	-0.211	0.020
-172.939	-119.920	-0.445	-0.075
-171.925	-17.556	-0.139	-0.086
-170.910	-19.616	-0.293	-0.179
-169.896	-6.068	-0.325	-0.219
-168.881	-95.299	0.541	0.143
-167.866	-170.506	0.166	-0.006
-166.852	186.059	-0.040	0.059
-165.837	105.720	0.157	-0.183
-164.823	4.893	0.273	0.198
-163.808	16.165	0.131	0.102
-162.793	-138.058	-0.072	0.008
-161.779	-38.136	-0.194	0.101
-160.764	-11.899	0.312	-0.201
-159.750	-117.292	-0.115	0.021
-158.735	-51.245	-0.205	0.094
-157.720	-123.922	0.019	-0.003
-156.706	449.828	-0.075	0.163
-155.691	17.399	-0.090	-0.070
-154.677	-200.000	0.084	-0.567
-153.662	97.968	0.148	0.167
-152.647	-142.763	0.255	0.025
-151.633	-108.685	0.329	-0.069
-150.618	-149.378	0.353	-0.028
-149.604	-200.000	-0.063	-0.300
-148.589	-101.146	-0.243	-0.059
-147.574	638.209	0.084	-0.210
-146.560	-41.018	-0.178	0.091
-145.545	-130.958	0.023	-0.003
-144.531	146.911	0.235	-0.312
-143.516	138.632	-0.152	-0.196
-142.502	-71.520	0.144	-0.053
-141.487	-73.421	-0.107	0.038
-140.472	-200.000	-0.070	-0.354
-139.458	800.000	0.054	0.180
-138.443	606.571	0.061	-0.150
-137.429	-200.000	-0.042	-0.224
-136.414	101.868	0.098	-0.113
-135.399	-88.804	0.238	-0.069
-134.385	73.023	-0.223	0.230
-133.370	-168.435	0.178	-0.007
-132.356	140.537	-0.248	0.322
-131.341	800.000	0.080	-0.264
-130.326	-97.705	-0.131	-0.033
-129.312	-55.436	-0.186	0.082
-128.297	-200.000	0.015	-0.130
-127.283	182.754	0.037	-0.053
-126.268	610.868	-0.115	-0.282
-125.253	-103.414	-0.131	-0.030
-124.239	-200.000	0.032	0.407
-123.224	800.000	0.047	-0.136
-122.210	-200.000	0.041	-0.500
