DTS Sentinel unit serial number:	SN413079Multiplexer serial number:	ORYXHardware model number:	OX4-SRSoftware version number:	ORYX F/W v4.00 Oryx Data Collector v3.7.2.0data status	okinstallation	princeton_trtdifferential loss correction	single-endedforward channel	channel 2reverse channel	N/Adate	2019/09/12time	05:29:11forward acquisition time	60.00reverse acquisition time	0.00gamma	496.2192k internal	0.2326k external	0.2326temperature offset calibration	1.0061default loss term (dB/km)	0.3790temperature slope calibration	1.0000multiplexer offset coefficient	1.0000multiplexer slope coefficient	1.0000fibre end	0.00T internal ref (°C)	31.94T ext. ref 1 (°C)	1.60T ext. ref 2 (°C)	27.43length (m)	temperature (°C)	Stokes	anti-Stokes-747.200	800.000	-0.083	-0.289
-746.185	-200.000	-0.013	0.149
-745.171	-55.602	0.047	-0.021
-744.156	-58.326	0.164	0.072
-743.142	-200.000	-0.035	-0.171
-742.127	-200.000	0.013	0.088
-741.112	2.353	0.328	-0.239
-740.098	-160.761	-0.356	0.019
-739.083	-158.911	0.329	-0.019
-738.069	800.000	-0.036	-0.113
-737.054	18.929	-0.147	-0.119
-736.039	800.000	0.091	0.330
-735.025	51.522	-0.017	0.017
-734.010	-8.944	-0.105	-0.071
-732.996	-200.000	0.009	-0.085
-731.981	157.222	0.166	-0.231
-730.966	-139.407	-0.455	-0.049
-729.952	-156.020	0.193	0.012
-728.937	-52.555	-0.334	0.156
-727.923	-58.470	0.331	-0.145
-726.908	-23.756	-0.086	-0.052
-725.894	-200.000	0.015	0.247
-724.879	-200.000	0.033	0.293
-723.864	-200.000	0.007	-0.157
-722.850	-44.260	0.195	0.098
-721.835	28.089	0.116	-0.099
-720.821	60.499	0.077	-0.076
-719.806	-22.631	0.133	-0.081
-718.791	-200.000	-0.024	-0.305
-717.777	-200.000	0.014	0.271
-716.762	-45.160	-0.294	-0.147
-715.748	102.851	-0.056	-0.066
-714.733	334.251	-0.068	-0.132
-713.718	-170.755	0.081	-0.003
-712.704	487.316	-0.074	0.170
-711.689	-130.630	0.041	0.006
-710.675	403.872	-0.128	0.272
-709.660	-0.771	-0.150	0.107
-708.645	85.681	0.213	-0.236
-707.631	83.200	-0.146	-0.161
-706.616	-200.000	-0.260	0.000
-705.602	170.366	0.087	-0.125
-704.587	73.945	0.165	-0.175
-703.572	-170.077	0.415	0.015
-702.558	-101.648	-0.324	-0.079
-701.543	-118.197	0.141	-0.025
-700.529	800.000	-0.163	-0.466
-699.514	-61.184	-0.087	-0.037
-698.499	48.564	0.199	0.188
-697.485	45.068	0.241	-0.223
-696.470	800.000	0.029	0.119
-695.456	739.438	-0.136	-0.367
-694.441	-53.054	-0.269	-0.124
-693.426	-112.211	0.132	0.027
-692.412	196.392	0.099	0.151
-691.397	-114.691	-0.215	-0.041
-690.383	-92.243	-0.128	0.036
-689.368	119.627	-0.131	-0.163
-688.354	45.330	0.149	0.138
-687.339	-71.988	-0.110	-0.041
-686.324	800.000	-0.092	-0.367
-685.310	2.504	-0.041	0.030
-684.295	494.309	0.122	-0.281
-683.281	106.560	0.063	-0.075
-682.266	-81.810	0.369	0.122
-681.251	-88.336	-0.267	-0.080
-680.237	367.407	0.031	0.063
-679.222	-114.648	-0.181	-0.035
-678.208	322.392	0.080	-0.154
-677.193	-142.949	0.099	-0.010
-676.178	8.388	0.076	-0.057
-675.164	15.382	0.183	-0.144
-674.149	492.379	-0.038	0.088
-673.135	-186.355	-0.155	0.002
-672.120	-200.000	0.017	0.259
-671.105	227.036	0.186	-0.304
-670.091	327.625	0.089	-0.172
-669.076	-100.365	-0.303	-0.075
-668.062	-182.274	0.353	0.007
-667.047	800.000	-0.069	0.240
-666.032	382.013	-0.163	-0.336
-665.018	-200.000	0.009	0.193
-664.003	-103.876	-0.128	-0.030
-662.989	377.040	-0.107	-0.219
-661.974	1.616	-0.121	0.087
-660.959	-91.922	0.311	-0.089
-659.945	604.951	-0.090	-0.225
-658.930	-82.437	0.030	0.010
-657.916	478.448	-0.071	0.161
-656.901	-87.804	0.145	-0.044
-655.886	-79.125	0.250	0.085
-654.872	534.507	0.055	-0.131
-653.857	-133.552	-0.250	0.032
-652.843	-200.000	-0.005	-0.310
-651.828	-73.844	-0.113	-0.041
-650.814	258.396	-0.015	-0.026
-649.799	-200.000	0.073	-0.331
-648.784	795.142	-0.054	-0.150
-647.770	77.860	0.115	-0.123
-646.755	130.345	0.090	0.116
-645.741	108.931	0.174	-0.209
-644.726	-200.000	-0.018	-0.149
-643.711	-20.039	0.347	0.215
-642.697	164.690	-0.105	0.149
-641.682	-7.023	0.307	0.209
-640.668	80.273	-0.165	-0.179
-639.653	-200.000	-0.056	-0.262
-638.638	-169.983	0.166	0.006
-637.624	288.851	0.070	0.128
-636.609	37.884	-0.451	0.403
-635.595	-112.306	-0.081	-0.016
-634.580	-200.000	-0.028	0.363
-633.565	2.928	0.140	0.102
-632.551	800.000	-0.030	0.104
-631.536	295.719	-0.046	0.084
-630.522	-171.121	0.222	-0.008
-629.507	44.272	0.131	-0.120
-628.492	119.358	0.196	-0.243
-627.478	-200.000	-0.092	-0.547
-626.463	-200.000	-0.002	0.213
-625.449	-134.114	0.247	0.031
-624.434	-47.921	0.166	-0.081
-623.419	79.735	0.340	0.367
-622.405	-73.901	0.085	0.031
-621.390	-200.000	0.024	0.205
-620.376	181.270	-0.114	-0.168
-619.361	38.999	-0.128	0.115
-618.346	425.263	-0.127	-0.274
-617.332	-169.998	-0.225	-0.008
-616.317	-200.000	0.033	-0.157
-615.303	-10.798	-0.254	-0.168
-614.288	-200.000	0.010	-0.047
-613.273	234.191	-0.104	0.172
-612.259	240.440	-0.242	-0.404
-611.244	-96.817	-0.095	-0.025
-610.230	71.984	0.174	0.182
-609.215	-200.000	0.013	0.091
-608.201	-199.374	-0.088	0.000
-607.186	-36.273	0.163	-0.088
-606.171	293.643	0.030	-0.055
-605.157	-51.259	-0.237	-0.111
-604.142	170.842	0.166	-0.238
-603.128	219.465	0.042	0.068
-602.113	800.000	-0.058	-0.192
-601.098	12.841	-0.149	-0.115
-600.084	27.667	0.166	-0.140
-599.069	-37.245	-0.223	-0.120
-598.055	-112.623	0.087	0.017
-597.040	-200.000	-0.033	-0.160
-596.025	120.541	0.050	0.062
-595.011	-13.353	0.301	-0.196
-593.996	88.295	0.099	0.110
-592.982	-200.000	-0.004	0.049
-591.967	-200.000	-0.033	-0.272
-590.952	173.038	-0.149	-0.215
-589.938	131.408	0.102	0.131
-588.923	119.304	0.145	-0.180
-587.909	800.000	-0.082	0.238
-586.894	-142.562	-0.381	0.037
-585.879	-200.000	0.015	-0.168
-584.865	-65.896	0.079	-0.032
-583.850	800.000	0.022	-0.082
-582.836	1.286	-0.341	-0.245
-581.821	-135.196	0.265	-0.032
-580.806	344.049	0.151	0.297
-579.792	-57.718	-0.109	-0.048
-578.777	134.973	0.098	-0.128
-577.763	355.779	0.084	-0.167
-576.748	123.137	-0.127	-0.159
-575.733	1.044	-0.364	-0.262
-574.719	-10.783	0.264	-0.175
-573.704	-116.411	-0.230	0.043
-572.690	179.306	0.065	-0.095
-571.675	-38.335	-0.110	-0.058
-570.661	136.805	0.137	-0.179
-569.646	-200.000	0.027	0.264
-568.631	229.662	-0.148	-0.242
-567.617	-124.410	0.182	0.028
-566.602	-79.629	-0.137	-0.046
-565.588	2.834	-0.095	0.069
-564.573	-200.000	0.001	0.066
-563.558	-200.000	-0.128	-0.001
-562.544	229.123	-0.054	0.088
-561.529	239.334	0.109	0.182
-560.515	800.000	0.088	-0.255
-559.500	729.210	-0.054	0.145
-558.485	-52.672	-0.258	-0.119
-557.471	-65.057	0.153	-0.062
-556.456	43.884	-0.149	-0.136
-555.442	800.000	0.033	0.141
-554.427	222.802	-0.224	0.361
-553.412	-200.000	-0.021	-0.271
-552.398	800.000	0.017	0.049
-551.383	70.474	-0.065	-0.067
-550.369	800.000	-0.080	0.319
-549.354	211.890	0.023	-0.036
-548.339	-105.353	-0.129	0.029
-547.325	77.994	0.087	0.093
-546.310	14.040	-0.105	0.082
-545.296	26.816	-0.179	-0.150
-544.281	136.417	-0.103	-0.135
-543.266	-31.715	0.185	-0.104
-542.252	61.594	0.213	-0.213
-541.237	-200.000	0.002	-0.198
-540.223	800.000	-0.112	-0.445
-539.208	107.565	-0.136	0.162
-538.193	24.716	-0.339	0.281
-537.179	258.592	-0.116	-0.200
-536.164	-74.201	-0.137	0.050
-535.150	301.539	-0.029	0.054
-534.135	-7.282	0.322	0.218
-533.121	119.732	0.048	-0.059
-532.106	-165.949	-0.427	-0.018
-531.091	-200.000	-0.051	0.266
-530.077	107.885	0.117	0.139
-529.062	1.988	0.125	0.090
-528.048	90.378	0.055	0.061
-527.033	800.000	0.061	-0.201
-526.018	-115.312	0.197	0.037
-525.004	146.781	0.226	0.304
-523.989	18.649	0.036	-0.029
-522.975	-56.931	-0.058	-0.026
-521.960	-122.167	-0.307	0.050
-520.945	-36.876	-0.153	-0.082
-519.931	-44.742	-0.125	-0.062
-518.916	-9.144	0.202	0.135
-517.902	489.579	-0.105	-0.240
-516.887	146.369	0.234	-0.314
-515.872	-58.309	-0.117	-0.051
-514.858	-200.000	-0.003	-0.158
-513.843	-98.675	0.191	0.049
-512.829	-96.121	-0.179	0.047
-511.814	-2.617	-0.243	-0.170
-510.799	411.249	0.077	-0.164
-509.785	800.000	-0.068	-0.259
-508.770	15.908	-0.192	-0.151
-507.756	129.575	-0.041	0.052
-506.741	21.426	-0.084	0.068
-505.726	717.248	-0.083	-0.221
-504.712	-200.000	-0.004	-0.134
-503.697	67.729	0.147	-0.150
-502.683	418.566	0.037	-0.079
-501.668	81.272	-0.212	-0.229
-500.653	-60.684	0.085	-0.036
-499.639	-77.236	0.094	0.033
-498.624	-200.000	0.023	0.167
-497.610	104.318	0.154	-0.182
-496.595	578.576	0.104	-0.255
-495.581	-45.292	-0.265	-0.131
-494.566	-70.616	0.083	-0.031
-493.551	59.531	0.176	-0.174
-492.537	666.590	-0.167	0.431
-491.522	-49.991	0.306	0.145
-490.508	-1.958	-0.174	0.123
-489.493	772.141	0.141	0.384
-488.478	800.000	-0.058	-0.181
-487.464	800.000	0.108	-0.326
-486.449	-32.753	-0.071	-0.040
-485.435	-34.005	-0.329	0.181
-484.420	-200.000	-0.053	0.309
-483.405	347.516	-0.079	-0.155
-482.391	145.603	0.060	-0.080
-481.376	192.959	0.137	0.206
-480.362	81.592	-0.091	-0.099
-479.347	-200.000	0.084	-0.381
-478.332	714.459	0.097	0.258
-477.318	-200.000	-0.050	-0.298
-476.303	213.340	-0.185	0.292
-475.289	-58.377	-0.082	0.036
-474.274	-17.516	-0.081	0.051
-473.259	1.917	-0.208	0.149
-472.245	113.512	-0.182	0.220
-471.230	135.895	0.131	-0.170
-470.216	-6.216	0.272	-0.185
-469.201	-48.115	-0.077	-0.037
-468.186	89.653	-0.028	-0.031
-467.172	180.854	0.080	0.117
-466.157	767.182	0.103	-0.280
-465.143	471.890	-0.084	0.188
-464.128	-66.265	0.452	-0.179
-463.113	800.000	-0.059	-0.259
-462.099	116.145	0.062	-0.076
-461.084	95.545	-0.092	0.104
-460.070	-60.309	-0.157	0.067
-459.055	-15.717	0.279	-0.178
-458.040	-115.141	-0.155	-0.029
-457.026	-117.405	-0.226	-0.041
-456.011	800.000	-0.056	-0.227
-454.997	27.394	0.197	-0.165
-453.982	-200.000	0.014	0.350
-452.968	141.466	-0.088	0.116
-451.953	-200.000	-0.041	-0.269
-450.938	-143.023	0.135	0.013
-449.924	800.000	0.053	0.153
-448.909	800.000	-0.102	0.283
-447.895	577.026	0.096	-0.233
-446.880	-111.002	0.115	-0.023
-445.865	-34.424	-0.055	-0.030
-444.851	-200.000	-0.119	0.000
-443.836	800.000	-0.062	0.192
-442.822	44.275	0.127	0.116
-441.807	68.696	0.379	-0.388
-440.792	-103.671	-0.025	0.006
-439.778	-24.249	-0.305	-0.181
-438.763	-102.248	0.281	-0.067
-437.749	-172.670	-0.460	0.014
-436.734	-164.600	-0.258	0.012
-435.719	40.711	-0.071	0.064
-434.705	-145.022	0.040	-0.004
-433.690	488.613	0.095	0.215
-432.676	736.395	-0.073	-0.195
-431.661	76.541	-0.062	0.065
-430.646	800.000	-0.090	0.304
-429.632	73.922	-0.031	0.033
-428.617	-56.703	-0.246	0.109
-427.603	-0.520	0.068	-0.048
-426.588	-200.000	-0.029	0.408
-425.573	-200.000	0.008	0.467
-424.559	-134.492	0.160	-0.019
-423.544	495.917	-0.129	0.296
-422.530	474.797	-0.077	0.174
-421.515	-190.372	0.247	0.003
-420.500	-200.000	-0.010	-0.067
-419.486	-124.390	0.092	-0.014
-418.471	800.000	0.030	0.130
-417.457	800.000	-0.075	0.210
-416.442	-56.122	0.334	-0.148
-415.428	-76.971	-0.218	0.076
-414.413	0.049	-0.494	0.350
-413.398	-35.382	0.146	-0.079
-412.384	-200.000	0.080	-0.363
-411.369	-46.315	-0.045	0.022
-410.355	-63.019	0.158	-0.065
-409.340	-78.253	0.143	0.049
-408.325	800.000	0.079	-0.272
-407.311	-44.709	0.135	-0.067
-406.296	-41.394	0.291	-0.149
-405.282	-124.449	-0.111	-0.017
-404.267	119.331	-0.112	0.138
-403.252	-69.609	-0.142	-0.054
-402.238	493.572	0.102	0.232
-401.223	800.000	0.057	-0.185
-400.209	-9.848	0.319	0.211
-399.194	-129.692	0.068	-0.009
-398.179	-151.149	0.305	-0.023
-397.165	98.394	-0.222	-0.254
-396.150	-172.869	0.136	-0.004
-395.136	800.000	0.100	0.363
-394.121	310.203	0.146	0.271
-393.106	-52.667	0.189	0.087
-392.092	336.419	0.124	-0.240
-391.077	800.000	0.065	-0.205
-390.063	515.169	0.188	0.436
-389.048	-45.597	0.089	0.044
-388.033	-200.000	0.029	0.162
-387.019	31.200	-0.205	0.175
-386.004	-63.774	0.313	0.128
-384.990	86.968	-0.123	0.135
-383.975	368.273	-0.019	-0.038
-382.960	-107.844	-0.274	-0.059
-381.946	337.810	-0.029	-0.055
-380.931	-200.000	0.095	-0.457
-379.917	79.751	0.169	0.180
-378.902	-87.390	0.199	0.060
-377.888	-13.510	0.272	-0.175
-376.873	532.078	0.142	-0.335
-375.858	-200.000	-0.033	0.162
-374.844	141.348	0.102	0.135
-373.829	-53.269	0.113	0.052
-372.815	-84.553	-0.318	-0.100
-371.800	-107.566	0.256	-0.056
-370.785	-162.341	-0.276	0.014
-369.771	-69.634	-0.289	0.110
-368.756	-25.816	0.111	0.065
-367.742	-63.625	0.129	-0.053
-366.727	-200.000	-0.047	0.250
-365.712	-200.000	-0.030	0.282
-364.698	-175.632	-0.066	-0.002
-363.683	-26.425	-0.124	0.072
-362.669	105.766	0.017	0.020
-361.654	-31.874	0.094	-0.053
-360.639	30.591	-0.052	0.044
-359.625	62.378	0.058	-0.058
-358.610	465.115	0.164	-0.365
-357.596	-128.850	-0.322	0.045
-356.581	-58.816	0.394	-0.169
-355.566	614.385	-0.173	0.429
-354.552	-153.229	-0.242	0.017
-353.537	-162.954	-0.174	0.008
-352.523	800.000	0.098	0.303
-351.508	701.751	-0.096	0.252
-350.493	716.521	-0.063	0.167
-349.479	-7.030	0.046	-0.031
-348.464	97.664	0.225	-0.257
-347.450	-174.624	-0.098	0.003
-346.435	69.177	0.236	0.241
-345.420	459.414	-0.141	0.311
-344.406	289.972	-0.130	0.234
-343.391	-69.415	-0.137	0.052
-342.377	9.761	-0.046	-0.035
-341.362	95.394	0.191	0.217
-340.348	-200.000	-0.066	0.352
-339.333	119.288	-0.375	0.461
-338.318	27.754	-0.355	0.297
-337.304	-200.000	0.025	0.131
-336.289	-102.657	0.127	0.030
-335.275	85.044	-0.065	-0.071
-334.260	388.827	0.084	0.173
-333.245	-29.683	0.162	-0.092
-332.231	800.000	0.013	-0.050
-331.216	-92.370	0.113	0.032
-330.202	-200.000	-0.004	-0.407
-329.187	212.059	0.110	-0.171
-328.172	86.368	0.210	-0.229
-327.158	800.000	0.069	-0.196
-326.143	-71.037	-0.264	-0.098
-325.129	-200.000	0.007	-0.230
-324.114	140.919	-0.208	-0.273
-323.099	-200.000	0.034	-0.232
-322.085	162.577	0.197	-0.274
-321.070	-57.489	-0.290	0.126
-320.056	-152.299	-0.301	0.022
-319.041	-162.012	0.102	-0.005
-318.026	588.597	0.071	0.173
-317.012	35.320	-0.219	-0.191
-315.997	-51.163	-0.100	0.046
-314.983	-65.908	0.066	0.026
-313.968	-46.169	-0.065	0.032
-312.953	378.729	-0.117	0.238
-311.939	87.836	-0.074	0.081
-310.924	-124.773	-0.131	0.020
-309.910	-131.823	-0.080	-0.010
-308.895	-14.084	-0.235	0.150
-307.880	-200.000	-0.038	0.283
-306.866	-200.000	0.036	0.204
-305.851	96.699	0.169	0.192
-304.837	-161.125	0.191	0.010
-303.822	85.851	-0.291	0.317
-302.807	37.008	0.129	-0.113
-301.793	-23.234	-0.309	-0.184
-300.778	8.259	-0.150	-0.112
-299.764	86.119	-0.072	-0.078
-298.749	-62.053	-0.027	-0.011
-297.735	94.646	-0.239	0.269
-296.720	-200.000	-0.018	0.087
-295.705	-200.000	0.219	0.001
-294.691	-130.047	0.206	0.028
-293.676	-91.712	0.302	-0.085
-292.662	-161.403	-0.218	-0.011
-291.647	44.067	-0.351	-0.319
-290.632	107.711	0.141	0.166
-289.618	-54.456	-0.147	0.066
-288.603	248.732	-0.092	-0.155
-287.589	-88.920	0.408	-0.120
-286.574	-200.000	0.028	-0.145
-285.559	-116.599	0.222	0.041
-284.545	414.348	0.155	-0.328
-283.530	-200.000	0.019	0.108
-282.516	112.879	0.125	-0.150
-281.501	36.029	-0.288	0.251
-280.486	-87.814	-0.084	0.025
-279.472	-108.642	0.182	0.039
-278.457	-200.000	-0.028	-0.160
-277.443	13.402	0.188	-0.144
-276.428	43.561	-0.233	0.211
-275.413	-11.311	0.239	-0.156
-274.399	-200.000	-0.037	-0.279
-273.384	-103.735	0.203	-0.047
-272.370	261.220	0.209	0.359
-271.355	800.000	0.069	0.282
-270.340	800.000	-0.057	0.156
-269.326	-200.000	0.010	-0.171
-268.311	85.121	-0.149	0.161
-267.297	-200.000	0.043	-0.309
-266.282	-200.000	-0.034	0.244
-265.267	-200.000	-0.007	0.201
-264.253	-83.031	-0.188	0.060
-263.238	-200.000	0.053	0.361
-262.224	325.603	-0.176	-0.334
-261.209	355.840	-0.102	-0.200
-260.195	111.769	0.170	-0.203
-259.180	800.000	-0.065	0.215
-258.165	800.000	-0.084	-0.329
-257.151	800.000	-0.033	0.095
-256.136	800.000	0.036	0.133
-255.122	-0.092	-0.073	0.052
-254.107	-126.822	0.318	0.046
-253.092	-53.276	-0.157	-0.071
-252.078	-35.320	0.112	0.060
-251.063	-63.550	-0.247	-0.100
-250.049	-200.000	-0.040	-0.310
-249.034	-200.000	0.023	0.257
-248.019	-53.291	0.212	0.096
-247.005	-37.475	0.071	0.038
-245.990	-200.000	0.004	0.345
-244.976	800.000	0.098	-0.331
-243.961	-200.000	-0.007	-0.074
-242.946	800.000	0.081	0.270
-241.932	-200.000	0.038	-0.231
-240.917	305.497	-0.102	0.187
-239.903	800.000	0.057	-0.178
-238.888	800.000	0.068	-0.241
-237.873	64.421	0.153	0.153
-236.859	-31.483	0.222	-0.123
-235.844	-200.000	-0.098	-0.425
-234.830	117.480	-0.107	-0.130
-233.815	-200.000	-0.035	0.162
-232.800	-200.000	-0.011	0.360
-231.786	-200.000	-0.016	0.144
-230.771	-168.998	0.028	-0.001
-229.757	593.587	-0.082	0.200
-228.742	-113.528	0.198	0.038
-227.727	-48.686	-0.216	0.102
-226.713	199.262	-0.114	-0.172
-225.698	-128.752	0.302	-0.042
-224.684	-35.644	-0.022	0.012
-223.669	-179.477	-0.194	-0.004
-222.655	-11.019	0.199	-0.130
-221.640	-92.376	0.338	0.094
-220.625	-163.285	-0.414	0.020
-219.611	-67.514	0.092	-0.035
-218.596	-34.357	-0.125	0.068
-217.582	55.456	0.115	0.110
-216.567	90.892	-0.049	-0.054
-215.552	-200.000	-0.056	0.292
-214.538	150.102	0.118	0.158
-213.523	-200.000	0.002	-0.235
-212.509	217.887	-0.093	-0.147
-211.494	273.944	0.027	0.048
-210.479	-93.276	0.163	0.045
-209.465	752.210	0.112	0.298
-208.450	543.344	0.033	0.077
-207.436	108.879	-0.088	0.104
-206.421	-96.617	-0.104	-0.027
-205.406	44.248	0.095	0.086
-204.392	71.045	0.068	0.069
-203.377	-200.000	-0.026	-0.121
-202.363	-200.000	0.017	-0.090
-201.348	-27.461	0.249	-0.143
-200.333	-5.832	0.172	0.116
-199.319	-77.670	-0.179	0.061
-198.304	-200.000	-0.049	-0.249
-197.290	-27.045	-0.216	-0.124
-196.275	225.838	0.164	0.263
-195.260	-148.560	-0.231	0.019
-194.246	-200.000	0.029	-0.207
-193.231	130.890	-0.285	0.361
-192.217	403.356	0.051	0.105
-191.202	-200.000	-0.010	-0.079
-190.187	-80.921	-0.333	-0.109
-189.173	-52.051	-0.208	-0.095
-188.158	-200.000	0.030	0.143
-187.144	209.653	-0.109	-0.168
-186.129	-87.903	-0.283	-0.084
-185.114	-40.392	0.307	-0.158
-184.100	-200.000	-0.065	0.298
-183.085	331.483	0.096	-0.182
-182.071	800.000	0.116	0.344
-181.056	72.550	-0.215	0.221
-180.042	-95.197	-0.009	0.002
-179.027	334.438	0.341	0.651
-178.012	-200.000	-0.036	0.284
-176.998	28.650	-0.205	-0.171
-175.983	-200.000	-0.005	0.131
-174.969	609.533	0.108	0.266
-173.954	-165.209	0.157	0.007
-172.939	-7.852	-0.053	-0.035
-171.925	199.469	-0.101	-0.153
-170.910	-87.237	0.315	-0.094
-169.896	-138.595	0.280	0.030
-168.881	-200.000	0.004	-0.063
-167.866	94.529	0.138	-0.155
-166.852	-73.668	-0.367	-0.132
-165.837	800.000	0.017	-0.061
-164.823	-35.892	0.402	-0.215
-163.808	237.521	-0.136	-0.223
-162.793	358.082	-0.087	-0.172
-161.779	-41.085	-0.175	0.089
-160.764	155.386	0.044	-0.060
-159.750	-38.772	0.183	-0.095
-158.735	7.532	-0.379	-0.280
-157.720	697.380	0.074	-0.191
-156.706	-139.446	0.411	0.043
-155.691	-200.000	0.023	-0.120
-154.677	-200.000	0.021	0.236
-153.662	-144.314	0.372	-0.034
-152.647	800.000	-0.130	0.382
-151.633	-44.213	0.125	-0.062
-150.618	-200.000	0.039	0.242
-149.604	433.691	-0.101	0.215
-148.589	158.195	-0.119	-0.162
-147.574	-200.000	0.001	-0.148
-146.560	-192.068	0.193	-0.002
-145.545	800.000	0.024	0.092
-144.531	-83.265	0.203	-0.064
-143.516	733.850	0.131	0.346
-142.502	-104.654	-0.307	-0.070
-141.487	-200.000	-0.003	-0.138
-140.472	-102.658	-0.240	-0.056
-139.458	155.080	-0.176	-0.239
-138.443	-128.931	-0.340	0.047
-137.429	291.961	-0.114	0.205
-136.414	-83.836	0.102	-0.032
-135.399	800.000	-0.064	0.250
-134.385	800.000	-0.089	0.285
-133.370	-70.986	0.122	0.045
-132.356	-200.000	-0.043	-0.357
-131.341	-200.000	0.003	-0.018
-130.326	394.965	-0.096	-0.197
-129.312	366.839	-0.095	-0.188
-128.297	107.892	0.021	0.024
-127.283	1.336	0.124	0.088
-126.268	468.109	-0.082	0.181
-125.253	-97.481	0.057	-0.015
-124.239	51.589	0.127	0.119
-123.224	41.332	-0.286	-0.255
-122.210	-76.937	0.398	0.137
-121.195	55.717	-0.153	-0.146
