DTS Sentinel unit serial number:	SN413079Multiplexer serial number:	ORYXHardware model number:	OX4-SRSoftware version number:	ORYX F/W v4.00 Oryx Data Collector v3.7.2.0data status	okinstallation	princeton_trtdifferential loss correction	single-endedforward channel	channel 2reverse channel	N/Adate	2019/09/11time	11:13:10forward acquisition time	60.00reverse acquisition time	0.00gamma	496.2192k internal	0.2307k external	0.2307temperature offset calibration	0.9970default loss term (dB/km)	0.3790temperature slope calibration	1.0000multiplexer offset coefficient	1.0000multiplexer slope coefficient	1.0000fibre end	0.00T internal ref (°C)	37.56T ext. ref 1 (°C)	0.17T ext. ref 2 (°C)	33.72length (m)	temperature (°C)	Stokes	anti-Stokes-747.200	-144.786	0.159	0.015
-746.185	-200.000	-0.003	0.084
-745.171	107.785	-0.120	0.145
-744.156	-131.040	0.347	0.047
-743.142	87.395	0.244	-0.275
-742.127	266.492	0.138	0.244
-741.112	-200.000	0.018	0.093
-740.098	-8.277	0.167	0.115
-739.083	-200.000	0.036	-0.305
-738.069	-85.496	0.341	-0.108
-737.054	15.307	-0.287	-0.229
-736.039	-60.221	-0.152	0.066
-735.025	319.294	-0.027	0.053
-734.010	-200.000	-0.038	-0.256
-732.996	60.224	0.251	-0.253
-731.981	-200.000	-0.073	-0.376
-730.966	-200.000	0.028	0.220
-729.952	-200.000	0.005	0.098
-728.937	48.258	-0.328	-0.312
-727.923	80.987	-0.036	-0.039
-726.908	-22.455	-0.383	0.236
-725.894	39.033	0.063	-0.057
-724.879	800.000	0.033	-0.138
-723.864	-36.581	0.067	0.037
-722.850	800.000	0.127	-0.535
-721.835	800.000	0.075	-0.223
-720.821	800.000	-0.066	-0.189
-719.806	8.435	-0.198	-0.151
-718.791	-9.101	-0.144	0.098
-717.777	255.874	-0.184	-0.321
-716.762	491.393	-0.118	-0.275
-715.748	-92.008	-0.162	0.047
-714.733	-139.453	-0.171	0.019
-713.718	-181.621	0.184	-0.004
-712.704	-200.000	0.054	-0.435
-711.689	98.242	-0.075	-0.087
-710.675	800.000	-0.077	-0.223
-709.660	62.285	0.169	0.172
-708.645	-98.504	-0.080	-0.021
-707.631	-200.000	0.002	-0.144
-706.616	65.349	0.148	-0.152
-705.602	-200.000	-0.006	-0.401
-704.587	-200.000	-0.060	0.306
-703.572	-149.755	0.125	-0.010
-702.558	395.430	-0.224	0.473
-701.543	701.507	-0.042	0.113
-700.529	-188.842	0.171	0.002
-699.514	-29.721	0.288	-0.167
-698.499	-109.459	0.155	-0.033
-697.485	18.235	-0.290	0.235
-696.470	29.876	-0.155	-0.134
-695.456	-200.000	-0.039	-0.212
-694.441	-51.573	0.071	-0.034
-693.426	800.000	-0.027	0.107
-692.412	28.810	0.035	0.030
-691.397	-8.953	-0.151	0.102
-690.383	185.348	-0.131	-0.197
-689.368	52.125	-0.187	0.180
-688.354	-42.846	-0.364	0.188
-687.339	112.419	-0.088	0.108
-686.324	-6.439	0.132	-0.091
-685.310	-200.000	-0.023	0.125
-684.295	-200.000	0.066	0.472
-683.281	-118.309	-0.245	-0.044
-682.266	336.684	-0.064	-0.125
-681.251	-22.104	0.109	-0.067
-680.237	-200.000	0.006	0.162
-679.222	88.951	-0.117	0.132
-678.208	162.841	0.239	-0.340
-677.193	-50.222	0.047	0.023
-676.178	768.445	0.132	0.365
-675.164	96.897	-0.175	-0.203
-674.149	142.718	0.106	-0.143
-673.135	-200.000	-0.013	-0.084
-672.120	377.477	-0.025	-0.052
-671.105	-9.279	0.441	0.299
-670.091	120.608	-0.150	0.189
-669.076	-38.785	-0.193	0.103
-668.062	-200.000	-0.076	-0.460
-667.047	121.440	0.125	-0.158
-666.032	-200.000	0.026	0.265
-665.018	-150.246	0.400	0.031
-664.003	-200.000	0.029	0.315
-662.989	505.427	0.141	-0.332
-661.974	-77.179	-0.156	0.055
-660.959	71.473	0.145	-0.153
-659.945	-200.000	0.062	0.360
-658.930	290.006	0.094	0.173
-657.916	800.000	-0.041	0.158
-656.901	797.327	0.038	0.105
-655.886	-27.372	0.139	-0.082
-654.872	-200.000	-0.040	0.250
-653.857	129.005	-0.041	-0.053
-652.843	-105.117	0.098	0.023
-651.828	-111.323	0.058	0.012
-650.814	589.030	-0.040	0.100
-649.799	-192.195	-0.226	-0.002
-648.784	448.653	0.070	-0.157
-647.770	-50.170	0.160	-0.077
-646.755	-200.000	-0.000	0.150
-645.741	-96.471	-0.233	-0.062
-644.726	338.710	-0.046	-0.091
-643.711	26.318	-0.068	-0.058
-642.697	-114.584	-0.126	0.025
-641.682	304.540	0.150	0.282
-640.668	800.000	0.138	-0.416
-639.653	577.408	0.109	-0.271
-638.638	-78.006	-0.130	-0.045
-637.624	-63.908	-0.141	-0.058
-636.609	393.004	-0.045	0.096
-635.595	-42.967	0.234	0.120
-634.580	-117.912	0.099	0.018
-633.565	549.011	0.044	-0.107
-632.551	-200.000	-0.001	0.094
-631.536	141.113	-0.036	-0.048
-630.522	50.769	-0.257	0.246
-629.507	194.446	0.189	0.290
-628.492	-200.000	0.006	-0.323
-627.478	228.550	-0.053	-0.087
-626.463	-15.323	-0.124	-0.080
-625.449	498.014	0.121	-0.283
-624.434	5.018	0.108	-0.080
-623.419	-137.255	-0.139	-0.016
-622.405	-31.355	-0.197	0.112
-621.390	399.762	0.189	-0.400
-620.376	-115.237	-0.376	-0.072
-619.361	-111.891	-0.101	0.021
-618.346	451.839	-0.113	0.252
-617.332	51.557	-0.206	0.198
-616.317	745.639	0.066	0.179
-615.303	-200.000	-0.027	-0.171
-614.288	-106.759	0.036	0.008
-613.273	399.258	0.031	0.065
-612.259	-86.712	-0.084	0.026
-611.244	2.198	0.134	-0.098
-610.230	71.094	-0.169	0.178
-609.215	-65.319	0.353	0.144
-608.201	-81.280	-0.139	-0.046
-607.186	-52.250	0.039	0.018
-606.171	-111.624	-0.307	0.063
-605.157	271.779	-0.195	0.349
-604.142	-124.564	-0.203	0.032
-603.128	800.000	-0.069	-0.242
-602.113	-200.000	0.038	-0.240
-601.098	-108.268	-0.167	-0.037
-600.084	-66.247	-0.304	0.123
-599.069	-48.881	0.186	0.090
-598.055	21.171	-0.220	0.180
-597.040	-87.764	-0.191	0.058
-596.025	-200.000	-0.009	-0.233
-595.011	-16.090	0.266	0.171
-593.996	-41.455	-0.315	0.164
-592.982	-167.221	-0.256	-0.010
-591.967	800.000	0.079	-0.337
-590.952	21.323	0.156	0.128
-589.938	-200.000	0.006	-0.078
-588.923	-68.353	-0.119	0.047
-587.909	112.570	0.073	-0.090
-586.894	-139.172	-0.229	0.025
-585.879	51.544	-0.243	-0.233
-584.865	800.000	0.059	0.186
-583.850	76.125	0.135	-0.144
-582.836	-72.538	0.063	-0.023
-581.821	-135.378	0.023	0.003
-580.806	127.778	-0.046	-0.059
-579.792	800.000	-0.019	-0.073
-578.777	-200.000	-0.053	0.466
-577.763	434.735	-0.084	-0.185
-576.748	200.929	0.114	-0.177
-575.733	405.989	-0.121	-0.258
-574.719	582.264	-0.047	0.117
-573.704	-200.000	0.006	0.226
-572.690	-200.000	0.064	0.319
-571.675	146.133	0.095	-0.129
-570.661	-200.000	-0.014	-0.218
-569.646	-86.512	0.247	-0.077
-568.631	800.000	0.048	-0.168
-567.617	800.000	-0.120	-0.460
-566.602	72.434	0.148	0.155
-565.588	-1.171	-0.121	-0.086
-564.573	-144.901	0.350	0.032
-563.558	-1.196	-0.079	0.056
-562.544	-153.201	0.326	0.023
-561.529	800.000	0.044	0.125
-560.515	800.000	0.073	0.214
-559.500	-200.000	-0.034	-0.169
-558.485	-200.000	-0.031	0.274
-557.471	-157.304	0.235	0.014
-556.456	-200.000	0.013	0.187
-555.442	167.451	-0.118	0.169
-554.427	-168.821	0.116	-0.004
-553.412	-137.585	-0.122	-0.014
-552.398	368.387	0.016	-0.032
-551.383	-64.781	0.228	0.093
-550.369	800.000	0.016	-0.062
-549.354	332.843	0.108	-0.211
-548.339	-200.000	0.005	0.065
-547.325	-42.616	-0.141	0.072
-546.310	56.757	-0.017	0.017
-545.296	-60.857	0.355	-0.151
-544.281	-52.688	-0.127	-0.059
-543.266	-161.317	-0.600	0.031
-542.252	269.283	0.166	-0.294
-541.237	800.000	0.061	-0.224
-540.223	-24.671	-0.315	0.189
-539.208	-91.375	-0.088	-0.025
-538.193	145.483	-0.056	-0.076
-537.179	-167.347	-0.049	-0.002
-536.164	-200.000	0.012	0.128
-535.150	-46.587	0.139	-0.069
-534.135	-86.125	0.325	-0.101
-533.121	-58.759	0.330	0.144
-532.106	-200.000	0.028	-0.309
-531.091	337.704	-0.094	-0.184
-530.077	-100.061	-0.049	-0.012
-529.062	-143.444	-0.069	0.007
-528.048	-31.682	-0.076	0.043
-527.033	369.457	0.132	0.269
-526.018	715.272	0.069	-0.184
-525.004	-81.611	0.144	0.048
-523.989	-145.141	0.227	0.021
-522.975	-54.272	0.244	-0.112
-521.960	-200.000	-0.034	-0.182
-520.945	12.068	-0.110	0.085
-519.931	315.643	0.119	0.227
-518.916	83.068	-0.082	0.090
-517.902	-109.296	0.104	-0.022
-516.887	-154.599	-0.038	-0.003
-515.872	339.748	0.095	0.187
-514.858	800.000	-0.125	-0.352
-513.843	1.419	0.136	-0.099
-512.829	-60.717	-0.185	0.079
-511.814	800.000	0.033	-0.118
-510.799	36.021	-0.039	0.034
-509.785	-59.215	-0.345	-0.150
-508.770	126.050	-0.115	0.146
-507.756	-185.031	0.377	0.006
-506.741	-85.925	-0.159	0.049
-505.726	-70.925	-0.211	-0.080
-504.712	309.741	-0.155	-0.291
-503.697	800.000	-0.095	0.389
-502.683	800.000	-0.064	-0.269
-501.668	37.466	-0.243	-0.217
-500.653	-128.044	0.037	-0.005
-499.639	45.114	0.278	0.258
-498.624	-200.000	0.028	-0.129
-497.610	260.208	-0.276	0.480
-496.595	-72.959	-0.343	0.127
-495.581	-200.000	-0.054	-0.464
-494.566	-132.376	-0.038	-0.005
-493.551	-195.480	0.345	0.003
-492.537	-163.178	-0.103	0.005
-491.522	-12.220	0.157	-0.104
-490.508	-105.821	-0.220	-0.050
-489.493	-89.578	-0.112	0.033
-488.478	-2.191	-0.073	-0.052
-487.464	-105.301	-0.049	0.011
-486.449	-69.297	0.275	0.106
-485.435	56.493	-0.272	-0.266
-484.420	93.092	-0.081	-0.092
-483.405	-200.000	0.021	0.106
-482.391	-154.881	-0.242	0.016
-481.376	26.158	0.222	-0.187
-480.362	800.000	-0.072	-0.238
-479.347	800.000	-0.043	-0.167
-478.332	67.452	0.040	-0.041
-477.318	-77.749	-0.059	0.020
-476.303	-97.621	0.201	-0.052
-475.289	-200.000	0.002	0.271
-474.274	5.510	-0.076	-0.056
-473.259	-107.544	-0.118	-0.026
-472.245	-71.086	0.288	0.109
-471.230	-20.053	-0.226	-0.140
-470.216	800.000	0.058	-0.246
-469.201	800.000	0.089	-0.255
-468.186	12.958	0.353	0.275
-467.172	119.187	-0.121	0.151
-466.157	157.312	0.174	-0.243
-465.143	24.146	0.164	0.136
-464.128	800.000	0.046	-0.146
-463.113	588.685	-0.192	-0.476
-462.099	88.548	0.043	-0.048
-461.084	-200.000	0.042	-0.191
-460.070	161.578	0.182	0.256
-459.055	2.239	0.070	-0.051
-458.040	657.004	-0.095	-0.247
-457.026	48.947	-0.133	0.125
-456.011	152.702	0.137	0.188
-454.997	-200.000	0.019	0.267
-453.982	3.485	0.096	0.071
-452.968	-108.707	-0.271	0.058
-451.953	-161.087	-0.074	-0.004
-450.938	109.381	0.091	0.109
-449.924	-72.025	-0.118	-0.044
-448.909	24.400	-0.187	-0.155
-447.895	154.887	-0.118	0.164
-446.880	711.928	-0.109	0.291
-445.865	-143.076	0.253	0.025
-444.851	148.759	-0.107	0.146
-443.836	514.872	-0.092	0.217
-442.822	-105.787	0.047	0.011
-441.807	-25.185	0.113	0.067
-440.792	27.545	-0.184	-0.155
-439.778	-200.000	-0.068	0.348
-438.763	643.253	0.050	0.128
-437.749	-200.000	-0.021	0.315
-436.734	-140.754	0.046	0.005
-435.719	217.157	-0.218	0.349
-434.705	-32.869	0.277	0.155
-433.690	7.910	0.202	0.152
-432.676	175.451	-0.177	0.258
-431.661	-161.466	0.130	-0.007
-430.646	62.872	0.313	-0.315
-429.632	123.730	0.025	0.032
-428.617	-200.000	0.015	0.097
-427.603	4.686	-0.349	-0.257
-426.588	-200.000	0.018	0.229
-425.573	264.145	0.100	-0.174
-424.559	-120.332	-0.218	-0.037
-423.544	-96.613	-0.231	0.061
-422.530	510.054	-0.172	-0.402
-421.515	-58.324	0.088	0.038
-420.500	685.172	0.199	-0.521
-419.486	435.062	0.164	-0.359
-418.471	-178.843	-0.388	-0.009
-417.457	-79.239	-0.190	-0.065
-416.442	47.010	-0.076	0.071
-415.428	-144.786	-0.170	0.016
-414.413	-76.080	-0.068	0.024
-413.398	141.874	-0.305	-0.406
-412.384	-200.000	0.000	-0.118
-411.369	-39.821	0.154	-0.081
-410.355	436.557	-0.094	0.205
-409.340	49.063	0.273	0.258
-408.325	-52.347	0.251	0.117
-407.311	-35.433	-0.023	0.013
-406.296	-25.953	0.062	-0.037
-405.282	-121.236	-0.156	0.026
-404.267	-27.155	0.241	-0.141
-403.252	-200.000	0.012	0.094
-402.238	82.806	-0.244	-0.267
-401.223	-146.581	0.164	0.014
-400.209	800.000	0.037	0.124
-399.194	-4.767	-0.235	-0.162
-398.179	27.929	-0.107	0.090
-397.165	-145.535	0.248	0.022
-396.150	-74.889	-0.097	-0.035
-395.136	-95.605	0.452	0.121
-394.121	601.442	-0.132	-0.329
-393.106	127.704	0.126	-0.161
-392.092	180.934	0.080	-0.118
-391.077	-200.000	-0.037	0.374
-390.063	17.912	0.102	0.082
-389.048	11.741	0.096	-0.074
-388.033	-141.666	-0.250	0.025
-387.019	39.805	-0.140	0.126
-386.004	-200.000	-0.029	-0.180
-384.990	231.934	-0.030	0.049
-383.975	-66.236	-0.059	0.023
-382.960	800.000	0.078	0.240
-381.946	-163.385	0.240	0.011
-380.931	-200.000	-0.024	0.134
-379.917	0.804	0.064	0.046
-378.902	-173.910	-0.062	-0.002
-377.888	-200.000	-0.017	-0.125
-376.873	149.618	-0.190	-0.258
-375.858	-27.542	-0.234	0.136
-374.844	37.769	-0.195	-0.174
-373.829	407.356	-0.114	0.241
-372.815	-10.557	0.129	-0.086
-371.800	49.077	-0.042	-0.039
-370.785	-104.127	-0.021	-0.005
-369.771	8.280	-0.220	0.166
-368.756	39.600	0.126	-0.114
-367.742	800.000	0.083	0.290
-366.727	-200.000	-0.037	-0.202
-365.712	-90.180	-0.157	0.046
-364.698	-200.000	0.005	0.137
-363.683	-121.396	-0.139	0.023
-362.669	-55.961	-0.226	-0.101
-361.654	-176.962	-0.163	-0.004
-360.639	800.000	0.118	0.353
-359.625	-24.433	-0.068	-0.041
-358.610	26.692	0.165	0.138
-357.596	-96.945	-0.363	0.095
-356.581	129.120	-0.125	-0.160
-355.566	-74.151	-0.373	0.135
-354.552	800.000	0.061	0.233
-353.537	257.105	0.014	-0.024
-352.523	-200.000	0.001	0.090
-351.508	800.000	0.027	-0.075
-350.493	-27.617	0.090	-0.052
-349.479	-156.446	-0.134	0.008
-348.464	240.394	0.084	0.140
-347.450	-113.252	0.231	0.046
-346.435	60.691	-0.204	-0.202
-345.420	195.814	0.171	-0.260
-344.406	524.213	0.168	0.397
-343.391	-181.549	-0.204	-0.004
-342.377	-52.988	-0.269	-0.124
-341.362	-74.444	-0.227	-0.082
-340.348	426.526	-0.061	0.131
-339.333	-200.000	-0.046	-0.260
-338.318	800.000	0.070	0.292
-337.304	-183.295	-0.235	-0.004
-336.289	-126.497	0.103	-0.015
-335.275	-24.356	0.185	-0.111
-334.260	-51.949	-0.128	0.059
-333.245	265.969	0.124	0.217
-332.231	-112.194	0.321	0.064
-331.216	368.266	0.149	0.301
-330.202	-28.503	-0.185	-0.107
-329.187	119.026	-0.153	0.189
-328.172	-56.927	0.046	-0.020
-327.158	109.771	0.215	-0.258
-326.143	-200.000	-0.023	0.164
-325.129	288.132	0.175	-0.316
-324.114	108.714	0.330	-0.394
-323.099	239.320	-0.221	-0.368
-322.085	-19.872	-0.135	-0.083
-321.070	-88.162	0.157	-0.047
-320.056	134.253	0.014	0.018
-319.041	-111.971	-0.470	-0.095
-318.026	-70.769	-0.189	0.071
-317.012	-150.653	-0.181	0.014
-315.997	54.213	-0.108	0.104
-314.983	800.000	0.068	0.270
-313.968	-102.146	-0.220	0.053
-312.953	377.118	0.032	-0.066
-311.939	-148.701	0.229	-0.019
-310.924	-34.105	0.209	0.115
-309.910	-47.925	0.201	0.097
-308.895	-14.268	0.082	-0.053
-307.880	134.739	0.178	-0.230
-306.866	-116.446	-0.375	-0.069
-305.851	-200.000	0.011	-0.291
-304.837	71.487	-0.078	0.081
-303.822	-94.670	0.071	-0.019
-302.807	408.658	-0.102	-0.216
-301.793	-59.641	0.061	0.026
-300.778	1.776	-0.102	0.074
-299.764	-173.390	0.032	0.001
-298.749	189.788	-0.208	-0.312
-297.735	-182.601	0.151	0.003
-296.720	800.000	0.073	0.264
-295.705	757.620	0.136	-0.369
-294.691	-162.495	0.092	-0.005
-293.676	-200.000	-0.002	0.035
-292.662	33.524	-0.206	0.179
-291.647	-94.651	0.092	-0.025
-290.632	-69.184	0.087	0.034
-289.618	730.885	0.155	0.413
-288.603	21.327	0.209	-0.169
-287.589	105.694	0.104	0.123
-286.574	800.000	0.029	-0.094
-285.559	98.096	-0.151	-0.173
-284.545	106.426	-0.227	-0.269
-283.530	623.944	-0.058	0.146
-282.516	574.511	0.144	-0.350
-281.501	-156.465	0.318	0.020
-280.486	-200.000	0.013	0.319
-279.472	-124.221	0.255	-0.040
-278.457	800.000	-0.069	0.212
-277.443	41.164	0.043	0.039
-276.428	-41.598	-0.131	-0.067
-275.413	-59.136	0.110	0.047
-274.399	300.280	0.026	0.049
-273.384	-15.209	0.296	0.189
-272.370	252.742	-0.071	-0.121
-271.355	-82.958	-0.257	0.083
-270.340	-200.000	0.074	0.327
-269.326	-200.000	-0.242	0.001
-268.311	-29.141	0.217	-0.124
-267.297	-130.559	0.240	0.032
-266.282	-200.000	-0.038	-0.173
-265.267	-123.530	-0.026	0.004
-264.253	-74.964	-0.253	0.091
-263.238	14.020	0.182	-0.141
-262.224	227.880	0.197	-0.320
-261.209	21.381	-0.266	0.216
-260.195	-64.365	0.271	0.110
-259.180	-145.531	-0.152	0.014
-258.165	-39.770	0.117	-0.061
-257.151	-52.053	0.215	-0.100
-256.136	-101.370	-0.205	-0.050
-255.122	-130.002	0.626	0.086
-254.107	166.003	0.203	0.287
-253.092	-142.014	0.372	-0.037
-252.078	43.163	0.109	-0.099
-251.063	-18.998	-0.099	0.062
-250.049	-179.181	-0.055	0.001
-249.034	101.836	0.144	0.167
-248.019	-14.039	0.213	-0.137
-247.005	800.000	0.024	-0.065
-245.990	-15.292	0.167	-0.106
-244.976	227.915	-0.099	0.161
-243.961	-200.000	-0.043	0.206
-242.946	-130.825	0.121	-0.016
-241.932	-36.087	-0.148	-0.080
-240.917	-48.317	0.092	0.044
-239.903	45.019	-0.177	-0.163
-238.888	-102.048	0.270	-0.065
-237.873	11.129	-0.095	0.072
-236.859	271.206	0.076	-0.133
-235.844	156.198	0.198	0.273
-234.830	800.000	0.030	0.117
-233.815	587.763	-0.023	-0.055
-232.800	800.000	0.053	-0.146
-231.786	180.131	0.119	0.174
-230.771	35.781	0.113	0.099
-229.757	-158.519	0.186	0.011
-228.742	-31.647	-0.251	0.140
-227.727	-72.219	0.183	-0.067
-226.713	-101.907	0.337	0.081
-225.698	-103.997	0.064	-0.015
-224.684	13.068	0.144	-0.111
-223.669	75.274	0.156	0.164
-222.655	-200.000	0.007	-0.110
-221.640	28.067	0.122	-0.102
-220.625	-109.626	-0.327	-0.069
-219.611	800.000	0.024	0.104
-218.596	-200.000	-0.009	-0.045
-217.582	183.631	0.150	-0.221
-216.567	-7.057	-0.032	-0.022
-215.552	172.556	0.084	-0.121
-214.538	-55.922	0.161	-0.071
-213.523	-200.000	0.049	0.267
-212.509	251.948	-0.093	0.158
-211.494	302.114	-0.201	-0.369
-210.479	-110.974	0.369	0.076
-209.465	800.000	-0.152	0.485
-208.450	-55.166	-0.235	-0.105
-207.436	-164.114	0.189	-0.009
-206.421	-186.017	0.269	0.004
-205.406	800.000	0.027	-0.081
-204.392	-158.631	-0.403	0.023
-203.377	-200.000	0.027	0.301
-202.363	156.371	-0.170	0.234
-201.348	399.136	-0.005	0.010
-200.333	201.787	0.199	0.305
-199.319	85.757	-0.116	0.127
-198.304	-200.000	-0.016	0.134
-197.290	-89.023	-0.429	-0.126
-196.275	109.301	0.110	0.131
-195.260	136.296	0.185	0.240
-194.246	74.313	-0.200	-0.209
-193.231	-113.580	0.250	-0.049
-192.217	-42.582	-0.175	0.089
-191.202	-10.302	0.298	-0.196
-190.187	-91.659	0.188	-0.053
-189.173	299.510	0.045	0.082
-188.158	-18.804	-0.269	-0.167
-187.144	-200.000	0.006	0.144
-186.129	400.969	0.100	-0.208
-185.114	90.072	-0.058	0.065
-184.100	-65.755	0.204	0.081
-183.085	-8.087	0.160	0.108
-182.071	45.458	0.177	-0.163
-181.056	-200.000	0.013	0.329
-180.042	247.060	0.054	0.091
-179.027	65.848	-0.345	-0.348
-178.012	53.766	-0.233	0.223
-176.998	177.779	-0.066	0.096
-175.983	-155.818	0.204	-0.013
-174.969	-200.000	-0.022	0.109
-173.954	-91.510	-0.270	-0.077
-172.939	-9.045	-0.159	-0.106
-171.925	-8.030	0.160	-0.107
-170.910	77.907	0.124	-0.131
-169.896	0.103	-0.304	-0.216
-168.881	-22.865	-0.023	-0.014
-167.866	800.000	-0.114	-0.352
-166.852	245.841	0.228	0.382
-165.837	-75.425	0.080	0.028
-164.823	-198.770	0.221	0.001
-163.808	59.505	-0.218	0.214
-162.793	69.529	0.182	-0.186
-161.779	-34.480	-0.133	0.073
-160.764	-69.705	0.261	-0.099
-159.750	-178.593	0.412	0.009
-158.735	-93.369	-0.262	0.072
-157.720	-178.203	-0.123	-0.003
-156.706	630.606	-0.156	-0.393
-155.691	-60.504	-0.227	0.096
-154.677	-34.094	0.240	-0.131
-153.662	800.000	-0.068	0.248
-152.647	126.178	0.242	0.304
-151.633	-200.000	-0.006	0.324
-150.618	101.384	-0.065	-0.075
-149.604	53.319	-0.032	0.031
-148.589	-200.000	-0.015	0.154
-147.574	-200.000	-0.006	-0.409
-146.560	-56.851	0.286	0.125
-145.545	-89.204	-0.225	-0.066
-144.531	-118.067	-0.314	-0.056
-143.516	-200.000	0.164	-0.001
-142.502	-161.411	0.135	-0.007
-141.487	737.027	-0.053	0.141
-140.472	-200.000	-0.046	-0.393
-139.458	5.800	0.144	-0.106
-138.443	-200.000	0.033	-0.351
-137.429	271.002	0.195	-0.341
-136.414	-8.857	-0.131	0.087
-135.399	-122.140	-0.048	-0.008
-134.385	159.921	-0.192	-0.265
-133.370	-200.000	0.026	-0.287
-132.356	201.204	-0.070	0.106
-131.341	-200.000	0.018	0.239
-130.326	-200.000	0.002	-0.140
-129.312	-86.268	0.464	0.142
-128.297	-200.000	0.007	0.117
-127.283	-200.000	-0.015	-0.172
-126.268	-200.000	0.021	-0.243
-125.253	-42.424	0.222	-0.112
-124.239	-44.664	0.194	0.096
-123.224	-175.782	0.143	0.004
-122.210	-145.559	0.057	0.005
-121.195	-200.000	0.001	-0.028
