DTS Sentinel unit serial number:	SN413079Multiplexer serial number:	ORYXHardware model number:	OX4-SRSoftware version number:	ORYX F/W v4.00 Oryx Data Collector v3.7.2.0data status	okinstallation	princeton_trtdifferential loss correction	single-endedforward channel	channel 2reverse channel	N/Adate	2019/09/11time	15:17:11forward acquisition time	60.00reverse acquisition time	0.00gamma	496.2192k internal	0.2289k external	0.2289temperature offset calibration	1.0015default loss term (dB/km)	0.3790temperature slope calibration	1.0000multiplexer offset coefficient	1.0000multiplexer slope coefficient	1.0000fibre end	0.00T internal ref (°C)	42.94T ext. ref 1 (°C)	0.99T ext. ref 2 (°C)	35.88length (m)	temperature (°C)	Stokes	anti-Stokes-747.200	-84.178	0.179	-0.058
-746.185	-25.397	0.040	-0.024
-745.171	-200.000	-0.001	0.011
-744.156	800.000	-0.120	0.504
-743.142	-200.000	0.022	0.115
-742.127	55.994	-0.154	0.153
-741.112	-200.000	-0.031	-0.140
-740.098	-101.682	-0.129	-0.032
-739.083	197.405	0.234	0.366
-738.069	10.246	0.286	-0.223
-737.054	-59.607	0.169	-0.074
-736.039	63.792	-0.277	0.285
-735.025	-68.686	0.350	-0.139
-734.010	-141.140	-0.290	-0.030
-732.996	-153.019	-0.212	0.015
-731.981	-25.826	-0.193	-0.116
-730.966	22.330	0.211	0.176
-729.952	-106.279	0.281	-0.064
-728.937	20.835	0.060	-0.050
-727.923	-45.279	-0.079	0.040
-726.908	169.819	-0.101	0.148
-725.894	-178.348	-0.348	-0.008
-724.879	-200.000	0.004	-0.041
-723.864	-200.000	0.010	-0.102
-722.850	-95.214	-0.133	0.037
-721.835	-109.664	0.167	0.036
-720.821	-200.000	-0.025	0.165
-719.806	-200.000	-0.009	0.161
-718.791	340.977	0.073	-0.145
-717.777	-27.691	0.199	-0.119
-716.762	52.534	0.148	-0.144
-715.748	-24.894	0.080	-0.049
-714.733	223.005	-0.072	0.119
-713.718	101.360	0.055	-0.066
-712.704	-200.000	0.010	0.112
-711.689	-104.792	0.104	0.025
-710.675	-113.899	-0.356	0.071
-709.660	800.000	-0.091	-0.359
-708.645	23.924	-0.193	-0.163
-707.631	-32.660	0.200	0.114
-706.616	-200.000	0.020	0.104
-705.602	-83.961	-0.274	-0.089
-704.587	-92.111	-0.242	0.070
-703.572	162.045	0.155	0.223
-702.558	214.960	0.101	0.163
-701.543	-74.164	-0.076	0.028
-700.529	-200.000	-0.021	-0.105
-699.514	53.157	0.086	0.084
-698.499	800.000	0.107	0.352
-697.485	553.734	0.093	0.228
-696.470	-200.000	-0.017	0.190
-695.456	-150.113	-0.062	-0.005
-694.441	-200.000	0.012	-0.242
-693.426	-105.099	-0.361	0.084
-692.412	-16.182	-0.415	-0.269
-691.397	401.977	-0.116	-0.250
-690.383	219.643	0.054	0.088
-689.368	44.949	0.083	0.078
-688.354	378.523	-0.182	0.380
-687.339	-139.348	-0.183	0.020
-686.324	-53.743	0.350	-0.163
-685.310	-16.736	0.122	0.079
-684.295	-200.000	-0.001	-0.253
-683.281	-107.058	-0.110	-0.025
-682.266	25.520	-0.055	0.047
-681.251	-18.844	0.269	0.171
-680.237	-11.535	-0.356	-0.239
-679.222	-100.329	-0.393	-0.100
-678.208	-80.885	-0.210	-0.071
-677.193	71.184	0.097	0.103
-676.178	123.617	-0.192	0.247
-675.164	4.137	0.120	-0.090
-674.149	159.078	-0.069	0.099
-673.135	-200.000	0.047	0.211
-672.120	-17.730	-0.124	-0.080
-671.105	-137.345	-0.238	-0.028
-670.091	800.000	0.029	0.084
-669.076	800.000	0.057	0.244
-668.062	-68.201	0.240	-0.096
-667.047	800.000	0.085	-0.378
-666.032	800.000	-0.087	-0.280
-665.018	-155.287	-0.201	-0.013
-664.003	188.102	0.080	-0.121
-662.989	247.483	0.090	-0.155
-661.974	-87.222	-0.112	0.035
-660.959	-26.589	-0.172	-0.103
-659.945	-43.150	-0.133	0.069
-658.930	347.234	-0.090	-0.180
-657.916	-200.000	0.007	-0.033
-656.901	35.030	-0.277	-0.248
-655.886	-31.726	-0.084	-0.048
-654.872	63.130	-0.067	-0.069
-653.857	-57.316	-0.456	-0.205
-652.843	-200.000	0.005	-0.136
-651.828	11.722	0.017	-0.013
-650.814	-80.132	-0.228	0.078
-649.799	-73.535	0.130	-0.048
-648.784	-200.000	0.084	-0.415
-647.770	-53.069	0.098	-0.046
-646.755	-44.641	-0.241	-0.123
-645.741	304.583	0.086	-0.164
-644.726	-161.544	-0.404	-0.021
-643.711	199.012	-0.141	0.221
-642.697	-129.518	-0.205	0.029
-641.682	22.864	0.248	0.208
-640.668	132.632	0.142	-0.188
-639.653	-114.352	-0.021	0.004
-638.638	276.339	-0.085	0.154
-637.624	-162.363	0.282	-0.014
-636.609	137.738	0.233	-0.311
-635.595	-131.991	-0.247	0.033
-634.580	-200.000	-0.001	0.163
-633.565	-146.871	-0.156	-0.014
-632.551	-8.891	-0.219	-0.150
-631.536	-76.036	0.408	-0.147
-630.522	196.604	-0.174	-0.270
-629.507	800.000	-0.024	0.095
-628.492	-200.000	0.065	0.319
-627.478	268.000	-0.132	0.236
-626.463	-47.307	0.365	0.181
-625.449	800.000	0.080	-0.263
-624.434	-200.000	0.018	0.095
-623.419	-25.026	-0.357	0.216
-622.405	-200.000	0.050	-0.237
-621.390	0.023	0.206	-0.149
-620.376	6.072	0.344	-0.260
-619.361	-200.000	-0.013	0.218
-618.346	284.692	0.132	-0.242
-617.332	800.000	0.060	-0.204
-616.317	221.532	0.139	-0.228
-615.303	-86.393	-0.023	0.007
-614.288	100.993	-0.187	-0.221
-613.273	-200.000	0.018	-0.105
-612.259	33.963	0.224	-0.199
-611.244	-64.635	-0.232	-0.096
-610.230	-19.921	0.245	0.154
-609.215	3.828	0.178	0.133
-608.201	74.623	-0.232	-0.249
-607.186	-64.873	-0.225	0.093
-606.171	-98.767	0.205	0.053
-605.157	212.824	0.021	0.033
-604.142	21.615	-0.159	-0.132
-603.128	-4.943	-0.040	0.028
-602.113	-200.000	0.057	0.260
-601.098	-109.961	-0.502	0.107
-600.084	-49.223	-0.115	-0.056
-599.069	-70.960	-0.088	-0.034
-598.055	-62.008	0.129	0.055
-597.040	199.673	-0.136	0.213
-596.025	-200.000	-0.007	0.188
-595.011	124.780	0.370	0.474
-593.996	107.699	0.089	-0.108
-592.982	-144.381	0.162	-0.015
-591.967	278.033	0.128	0.232
-590.952	147.666	-0.070	0.096
-589.938	116.351	0.022	-0.027
-588.923	-10.345	0.227	-0.153
-587.909	-151.870	-0.137	0.010
-586.894	17.023	-0.356	0.287
-585.879	-76.594	-0.188	-0.067
-584.865	-66.315	-0.153	0.062
-583.850	99.739	0.110	0.130
-582.836	800.000	-0.046	0.149
-581.821	275.644	-0.166	-0.301
-580.806	364.628	0.083	-0.171
-579.792	-59.811	-0.145	-0.063
-578.777	-200.000	-0.007	-0.060
-577.763	-48.246	-0.272	0.133
-576.748	236.631	-0.126	-0.213
-575.733	-200.000	-0.006	0.111
-574.719	800.000	-0.031	0.099
-573.704	-14.460	-0.133	0.087
-572.690	-139.818	-0.213	0.023
-571.675	724.314	0.059	0.159
-570.661	239.103	-0.078	-0.131
-569.646	-79.956	-0.057	-0.020
-568.631	6.327	0.133	-0.100
-567.617	227.442	-0.119	-0.196
-566.602	230.868	0.012	-0.020
-565.588	298.646	-0.126	-0.235
-564.573	284.063	0.071	-0.130
-563.558	155.179	0.066	-0.093
-562.544	-170.667	-0.192	-0.007
-561.529	101.306	-0.066	0.078
-560.515	327.849	0.111	0.217
-559.500	-72.144	-0.222	0.084
-558.485	-200.000	0.018	0.263
-557.471	-68.424	0.105	0.041
-556.456	-137.291	0.121	-0.014
-555.442	151.767	-0.143	-0.199
-554.427	72.940	0.285	-0.303
-553.412	800.000	0.056	-0.214
-552.398	-79.046	0.151	-0.052
-551.383	-123.943	-0.237	0.038
-550.369	100.663	0.081	-0.096
-549.354	-149.852	0.136	-0.011
-548.339	-200.000	-0.041	0.270
-547.325	317.719	0.151	-0.290
-546.310	-200.000	0.007	0.049
-545.296	691.454	0.051	-0.136
-544.281	258.896	0.010	-0.018
-543.266	-60.747	0.203	0.088
-542.252	800.000	-0.032	-0.132
-541.237	83.888	0.084	-0.094
-540.223	275.314	-0.083	-0.149
-539.208	25.269	0.322	-0.272
-538.193	-73.900	-0.096	0.035
-537.179	54.631	-0.126	0.124
-536.164	97.967	-0.118	0.138
-535.150	-59.964	-0.199	-0.087
-534.135	155.531	0.181	-0.253
-533.121	116.010	0.069	0.086
-532.106	-54.341	-0.057	-0.026
-531.091	204.069	-0.185	-0.292
-530.077	800.000	-0.048	-0.210
-529.062	-138.480	0.305	-0.034
-528.048	420.037	0.135	0.293
-527.033	-200.000	-0.015	0.238
-526.018	-76.217	-0.218	-0.078
-525.004	-101.396	-0.175	-0.043
-523.989	152.891	0.069	0.096
-522.975	-100.217	-0.210	0.053
-521.960	273.100	-0.086	0.155
-520.945	67.781	0.200	0.208
-519.931	105.875	0.167	0.201
-518.916	-200.000	0.032	-0.164
-517.902	251.953	-0.153	-0.264
-516.887	-17.998	0.253	0.161
-515.872	800.000	0.125	-0.372
-514.858	800.000	0.073	-0.291
-513.843	627.549	-0.131	-0.336
-512.829	-45.562	-0.368	-0.185
-511.814	42.196	-0.026	-0.024
-510.799	-166.235	-0.032	-0.001
-509.785	-26.036	0.267	0.159
-508.770	800.000	0.056	0.166
-507.756	255.058	-0.059	0.103
-506.741	-104.623	-0.007	0.002
-505.726	-176.172	0.098	-0.003
-504.712	626.381	0.074	-0.190
-503.697	-65.549	0.043	0.018
-502.683	-91.911	-0.410	-0.118
-501.668	-113.999	0.171	0.034
-500.653	67.448	-0.230	-0.239
-499.639	177.309	0.069	-0.102
-498.624	800.000	0.034	0.146
-497.610	30.378	0.291	0.252
-496.595	800.000	0.095	0.336
-495.581	209.919	0.155	0.247
-494.566	-133.576	-0.299	-0.038
-493.551	-108.161	0.152	-0.033
-492.537	-12.933	0.159	-0.105
-491.522	88.415	0.191	0.216
-490.508	800.000	-0.040	-0.173
-489.493	97.727	0.056	-0.065
-488.478	-8.460	0.308	-0.210
-487.464	-53.647	0.377	-0.175
-486.449	-46.895	0.097	-0.048
-485.435	-57.586	-0.074	-0.033
-484.420	800.000	-0.092	0.407
-483.405	-200.000	0.005	0.166
-482.391	102.930	0.206	0.245
-481.376	-143.944	0.205	0.020
-480.362	337.427	0.052	-0.103
-479.347	169.792	0.085	-0.123
-478.332	-111.527	-0.111	0.023
-477.318	800.000	-0.074	-0.220
-476.303	380.807	-0.080	0.166
-475.289	-200.000	0.044	0.237
-474.274	-149.001	-0.129	0.010
-473.259	-55.937	0.142	0.064
-472.245	-89.187	0.455	0.136
-471.230	460.615	0.050	0.113
-470.216	-14.586	-0.127	0.083
-469.201	-25.001	-0.213	0.128
-468.186	203.786	-0.105	0.165
-467.172	141.808	-0.020	-0.026
-466.157	-21.006	0.186	0.115
-465.143	-200.000	0.016	0.215
-464.128	234.262	-0.166	-0.277
-463.113	800.000	-0.058	-0.165
-462.099	-200.000	0.063	-0.288
-461.084	800.000	-0.117	-0.381
-460.070	800.000	0.114	-0.321
-459.055	-200.000	0.073	-0.337
-458.040	-200.000	-0.015	-0.099
-457.026	-200.000	-0.009	-0.372
-456.011	-90.094	0.163	0.048
-454.997	-200.000	-0.001	0.083
-453.982	124.252	0.129	0.165
-452.968	-190.128	0.176	0.002
-451.953	-128.558	0.195	0.028
-450.938	-131.344	-0.226	-0.030
-449.924	18.170	0.075	0.060
-448.909	-200.000	0.016	0.230
-447.895	84.485	-0.123	0.137
-446.880	800.000	0.143	-0.407
-445.865	-115.803	-0.497	0.094
-444.851	-200.000	0.004	0.192
-443.836	800.000	0.096	-0.282
-442.822	-200.000	-0.010	-0.060
-441.807	414.338	-0.185	-0.400
-440.792	-200.000	-0.066	0.298
-439.778	800.000	-0.037	-0.112
-438.763	471.378	0.064	-0.146
-437.749	-20.123	-0.160	0.100
-436.734	-144.129	0.146	-0.014
-435.719	-131.128	-0.136	0.018
-434.705	50.603	-0.194	-0.186
-433.690	225.411	0.193	-0.316
-432.676	-112.600	0.219	0.044
-431.661	211.523	0.171	0.273
-430.646	129.048	-0.212	0.274
-429.632	800.000	0.060	-0.238
-428.617	800.000	-0.026	-0.076
-427.603	-200.000	-0.035	0.220
-426.588	800.000	0.033	0.117
-425.573	-16.446	0.119	0.076
-424.559	252.418	-0.066	-0.114
-423.544	-39.689	-0.048	0.025
-422.530	-142.276	-0.295	0.030
-421.515	-200.000	-0.062	0.341
-420.500	505.747	-0.031	-0.073
-419.486	-45.546	0.232	-0.116
-418.471	-200.000	-0.026	0.115
-417.457	-78.485	0.239	0.083
-416.442	544.891	-0.224	-0.541
-415.428	-200.000	-0.120	0.610
-414.413	79.939	-0.141	-0.154
-413.398	-200.000	0.044	-0.268
-412.384	273.501	-0.187	-0.334
-411.369	-200.000	-0.009	0.070
-410.355	-121.590	0.330	0.055
-409.340	118.902	0.111	0.139
-408.325	-200.000	-0.039	-0.210
-407.311	70.621	-0.196	-0.205
-406.296	-15.828	0.168	0.108
-405.282	-10.314	-0.062	-0.042
-404.267	-67.569	-0.215	0.085
-403.252	148.472	-0.133	-0.182
-402.238	-200.000	0.016	0.372
-401.223	-82.778	0.132	-0.043
-400.209	125.411	-0.120	0.154
-399.194	-141.051	0.477	-0.049
-398.179	214.950	-0.043	-0.069
-397.165	-57.773	-0.114	0.051
-396.150	-127.647	0.053	-0.008
-395.136	-69.143	-0.111	0.043
-394.121	27.401	-0.206	-0.175
-393.106	-200.000	-0.028	-0.224
-392.092	395.703	0.058	0.122
-391.077	-200.000	-0.037	-0.304
-390.063	16.623	-0.020	-0.016
-389.048	-38.001	-0.410	0.220
-388.033	-32.361	0.293	-0.165
-387.019	202.759	0.116	0.181
-386.004	800.000	0.041	0.158
-384.990	-175.120	-0.371	-0.010
-383.975	66.675	0.240	-0.247
-382.960	-200.000	0.077	-0.374
-381.946	88.387	-0.134	-0.150
-380.931	800.000	0.035	-0.115
-379.917	-191.901	0.065	0.001
-378.902	-200.000	0.001	0.182
-377.888	-181.390	-0.488	0.010
-376.873	-116.233	0.171	-0.032
-375.858	800.000	0.012	-0.038
-374.844	191.026	0.118	-0.180
-373.829	-200.000	0.068	-0.304
-372.815	-26.826	0.285	-0.168
-371.800	303.343	-0.081	0.151
-370.785	-200.000	0.034	-0.225
-369.771	800.000	-0.061	0.189
-368.756	-200.000	0.011	0.384
-367.742	96.020	-0.250	-0.289
-366.727	419.467	-0.123	0.267
-365.712	-200.000	-0.058	-0.499
-364.698	-29.666	-0.283	0.163
-363.683	-57.880	-0.204	0.090
-362.669	-165.483	-0.468	-0.021
-361.654	-41.588	-0.161	0.084
-360.639	-112.375	0.241	0.049
-359.625	-200.000	-0.035	0.546
-358.610	800.000	0.040	0.177
-357.596	-6.857	-0.135	0.092
-356.581	800.000	0.057	0.227
-355.566	340.352	-0.168	-0.331
-354.552	559.021	-0.117	-0.286
-353.537	-39.437	0.129	0.068
-352.523	-200.000	-0.005	0.345
-351.508	270.643	-0.071	0.127
-350.493	800.000	-0.098	0.316
-349.479	468.067	0.060	0.135
-348.464	-43.620	0.130	-0.066
-347.450	51.440	0.249	-0.238
-346.435	560.401	0.073	0.178
-345.420	651.441	-0.040	0.105
-344.406	-25.027	0.281	0.168
-343.391	54.314	0.100	-0.097
-342.377	240.621	0.169	-0.284
-341.362	-33.582	0.212	-0.118
-340.348	-200.000	-0.017	0.158
-339.333	0.833	0.024	-0.017
-338.318	-200.000	-0.401	-0.001
-337.304	79.984	-0.155	-0.168
-336.289	-123.617	-0.409	-0.066
-335.275	-51.635	0.280	-0.132
-334.260	12.584	-0.047	-0.037
-333.245	135.080	0.075	-0.098
-332.231	168.779	-0.072	-0.103
-331.216	-54.049	-0.212	0.097
-330.202	501.642	0.082	-0.192
-329.187	-7.146	-0.185	-0.126
-328.172	-200.000	0.055	0.306
-327.158	523.005	-0.106	-0.252
-326.143	-96.192	-0.155	0.042
-325.129	-95.051	-0.151	-0.041
-324.114	-90.366	-0.151	-0.044
-323.099	71.191	0.162	-0.169
-322.085	-160.743	-0.407	0.022
-321.070	-93.570	-0.187	0.052
-320.056	21.543	0.139	-0.114
-319.041	4.326	0.171	-0.126
-318.026	57.763	0.099	-0.098
-317.012	-124.459	0.333	0.052
-315.997	181.170	-0.032	0.048
-314.983	33.645	0.072	0.063
-313.968	-11.836	0.041	-0.027
-312.953	460.149	-0.123	-0.276
-311.939	-27.155	-0.186	0.109
-310.924	-200.000	0.031	-0.192
-309.910	228.279	0.170	0.280
-308.895	-200.000	0.006	-0.155
-307.880	-146.415	-0.257	0.023
-306.866	151.539	0.102	-0.140
-305.851	-84.477	-0.160	-0.051
-304.837	-75.548	-0.258	0.092
-303.822	-89.952	0.241	0.071
-302.807	-21.398	0.377	-0.232
-301.793	33.084	-0.290	0.253
-300.778	-200.000	0.052	0.281
-299.764	-120.086	0.149	0.026
-298.749	-200.000	0.005	0.091
-297.735	198.898	0.094	-0.144
-296.720	22.785	0.159	-0.131
-295.705	360.721	-0.032	0.065
-294.691	-2.969	-0.095	0.067
-293.676	800.000	0.005	0.017
-292.662	571.814	0.092	-0.226
-291.647	-21.987	-0.160	-0.098
-290.632	-145.487	-0.032	-0.003
-289.618	177.807	-0.289	0.424
-288.603	-200.000	0.010	-0.346
-287.589	43.331	0.271	0.249
-286.574	319.988	-0.143	0.274
-285.559	-22.096	-0.165	0.101
-284.545	-64.937	-0.061	0.025
-283.530	695.983	0.024	-0.064
-282.516	-12.899	-0.220	0.144
-281.501	-200.000	0.055	0.254
-280.486	58.317	-0.171	0.168
-279.472	34.861	-0.263	0.232
-278.457	800.000	-0.030	-0.097
-277.443	30.438	-0.088	0.075
-276.428	800.000	-0.032	-0.112
-275.413	-90.785	-0.197	0.057
-274.399	-72.491	-0.059	0.022
-273.384	-152.087	0.105	0.008
-272.370	92.216	-0.253	-0.287
-271.355	24.911	-0.159	-0.132
-270.340	-56.840	0.059	0.026
-269.326	27.651	-0.174	0.147
-268.311	135.679	0.235	0.307
-267.297	-200.000	0.010	-0.076
-266.282	138.069	-0.225	0.297
-265.267	-200.000	-0.031	0.223
-264.253	-75.060	0.060	-0.021
-263.238	-65.434	0.303	0.123
-262.224	127.293	0.203	0.259
-261.209	-126.325	0.147	0.022
-260.195	108.488	-0.159	0.191
-259.180	-62.437	0.187	0.078
-258.165	-59.012	-0.223	0.097
-257.151	157.941	0.193	0.269
-256.136	800.000	0.072	-0.246
-255.122	-98.472	0.035	0.009
-254.107	-72.395	-0.271	-0.101
-253.092	113.872	-0.060	-0.074
-252.078	66.843	-0.319	0.327
-251.063	0.171	-0.140	0.100
-250.049	484.989	0.048	0.110
-249.034	800.000	-0.059	0.254
-248.019	-200.000	0.027	0.124
-247.005	-200.000	-0.035	0.230
-245.990	286.370	0.073	-0.133
-244.976	-32.878	0.080	0.045
-243.961	-81.212	-0.224	0.074
-242.946	-200.000	-0.008	-0.158
-241.932	87.781	0.131	-0.146
-240.917	-200.000	0.022	-0.237
-239.903	286.428	-0.056	0.101
-238.888	-200.000	0.014	-0.084
-237.873	795.092	-0.039	0.108
-236.859	800.000	-0.106	0.320
-235.844	85.372	-0.121	0.133
-234.830	19.283	-0.113	0.091
-233.815	145.529	0.240	-0.323
-232.800	213.623	-0.094	-0.149
-231.786	210.240	0.088	0.138
-230.771	-80.034	-0.066	-0.022
-229.757	-131.338	0.231	-0.031
-228.742	-200.000	0.042	0.207
-227.727	186.220	0.063	0.094
-226.713	62.812	0.130	0.131
-225.698	-77.525	0.090	-0.031
-224.684	800.000	0.047	0.140
-223.669	-92.238	0.244	0.069
-222.655	182.769	-0.194	-0.288
-221.640	-200.000	-0.015	0.177
-220.625	-81.663	-0.283	-0.093
-219.611	-2.968	-0.050	0.035
-218.596	-61.566	-0.352	-0.148
-217.582	-35.048	-0.155	-0.085
-216.567	-108.462	0.310	0.067
-215.552	13.417	0.320	0.249
-214.538	-66.721	-0.272	-0.108
-213.523	-31.550	0.205	-0.116
-212.509	-94.126	-0.225	0.062
-211.494	-177.067	0.010	-0.000
-210.479	-49.969	0.329	-0.157
-209.465	-200.000	-0.012	0.239
-208.450	-200.000	-0.001	-0.100
-207.436	35.094	0.143	0.126
-206.421	58.523	0.243	-0.239
-205.406	76.449	-0.152	-0.162
-204.392	-33.970	0.204	0.113
-203.377	-147.962	0.416	-0.035
-202.363	-200.000	0.002	0.054
-201.348	116.208	-0.103	-0.127
-200.333	375.128	0.106	-0.216
-199.319	-88.020	0.100	0.030
-198.304	83.191	0.117	-0.127
-197.290	28.553	-0.225	0.191
-196.275	-1.718	0.314	-0.222
-195.260	-200.000	0.000	0.344
-194.246	-126.810	0.198	-0.029
-193.231	121.230	-0.146	0.182
-192.217	207.489	0.124	-0.195
-191.202	-200.000	-0.059	-0.379
-190.187	467.605	-0.077	0.173
-189.173	373.243	-0.016	-0.032
-188.158	17.859	0.165	-0.132
-187.144	23.739	0.110	-0.091
-186.129	-31.343	0.233	0.132
-185.114	-81.844	0.449	-0.147
-184.100	800.000	0.067	-0.280
-183.085	257.586	0.113	0.195
-182.071	-200.000	-0.068	0.344
-181.056	-200.000	0.006	0.205
-180.042	800.000	0.057	-0.170
-179.027	70.225	-0.042	0.044
-178.012	518.872	0.014	-0.033
-176.998	-163.304	-0.240	-0.012
-175.983	48.274	0.176	0.165
-174.969	-9.038	-0.186	-0.125
-173.954	-200.000	0.008	-0.078
-172.939	296.344	-0.197	-0.362
-171.925	256.875	0.114	-0.196
-170.910	-174.485	0.058	0.002
-169.896	800.000	-0.031	0.086
-168.881	-123.590	-0.308	-0.049
-167.866	109.723	-0.174	0.209
-166.852	800.000	0.029	-0.094
-165.837	-111.070	0.146	-0.030
-164.823	238.636	-0.133	0.221
-163.808	-82.697	0.252	-0.082
-162.793	-200.000	0.041	0.203
-161.779	256.701	0.135	-0.232
-160.764	-137.821	0.125	0.014
-159.750	489.709	0.197	0.450
-158.735	486.970	-0.078	0.179
-157.720	-76.579	0.175	-0.062
-156.706	14.018	0.311	0.243
-155.691	-28.665	-0.027	0.016
-154.677	-36.812	-0.363	0.195
-153.662	244.349	0.286	0.482
-152.647	81.092	0.174	0.188
-151.633	-99.808	-0.176	-0.044
-150.618	-94.288	0.172	-0.047
-149.604	281.036	-0.258	0.462
-148.589	10.164	-0.315	-0.240
-147.574	-200.000	-0.007	-0.095
-146.560	-94.787	0.306	0.083
-145.545	800.000	0.091	-0.300
-144.531	-110.621	-0.318	0.066
-143.516	99.329	0.203	0.235
-142.502	800.000	0.018	-0.065
-141.487	-94.789	0.078	-0.021
-140.472	-81.792	-0.104	0.034
-139.458	-200.000	0.039	-0.200
-138.443	-114.426	-0.071	-0.014
-137.429	-118.841	0.483	0.085
-136.414	129.240	0.194	-0.249
-135.399	-56.575	0.202	0.090
-134.385	618.891	0.183	0.460
-133.370	800.000	-0.082	-0.350
-132.356	-133.070	0.091	-0.012
-131.341	-167.417	-0.272	0.011
-130.326	716.974	0.075	-0.199
-129.312	2.939	-0.086	-0.062
-128.297	-155.747	0.138	-0.009
-127.283	-200.000	-0.059	-0.279
-126.268	-115.617	0.170	-0.032
-125.253	406.284	-0.103	0.217
-124.239	-84.403	-0.160	0.051
-123.224	-55.349	-0.138	0.062
-122.210	213.698	0.017	0.028
-121.195	119.232	-0.046	0.057
