DTS Sentinel unit serial number:	SN413079Multiplexer serial number:	ORYXHardware model number:	OX4-SRSoftware version number:	ORYX F/W v4.00 Oryx Data Collector v3.7.2.0data status	okinstallation	princeton_trtdifferential loss correction	single-endedforward channel	channel 2reverse channel	N/Adate	2019/09/11time	07:13:10forward acquisition time	60.00reverse acquisition time	0.00gamma	496.2192k internal	0.2327k external	0.2327temperature offset calibration	0.9936default loss term (dB/km)	0.3790temperature slope calibration	1.0000multiplexer offset coefficient	1.0000multiplexer slope coefficient	1.0000fibre end	0.00T internal ref (°C)	30.48T ext. ref 1 (°C)	-0.09T ext. ref 2 (°C)	26.73length (m)	temperature (°C)	Stokes	anti-Stokes-747.200	-57.938	0.213	0.094
-746.185	20.661	-0.214	0.174
-745.171	-200.000	0.005	-0.116
-744.156	30.071	-0.293	0.252
-743.142	96.534	0.060	0.070
-742.127	-200.000	-0.012	0.173
-741.112	-183.551	0.225	0.004
-740.098	-117.801	-0.206	0.037
-739.083	5.790	-0.063	0.047
-738.069	200.678	-0.188	0.291
-737.054	-145.162	0.095	-0.009
-736.039	229.211	-0.207	0.340
-735.025	-99.030	0.419	-0.107
-734.010	-23.097	-0.242	-0.147
-732.996	25.167	0.116	0.097
-731.981	-61.305	0.071	0.030
-730.966	-200.000	-0.016	-0.202
-729.952	-140.130	-0.113	-0.012
-728.937	-28.605	-0.241	0.140
-727.923	-52.290	0.246	-0.115
-726.908	-8.690	-0.073	-0.049
-725.894	29.818	0.145	-0.124
-724.879	-88.024	-0.200	0.061
-723.864	412.201	-0.172	0.367
-722.850	-168.625	0.145	0.006
-721.835	-8.721	-0.118	0.080
-720.821	10.336	0.150	0.115
-719.806	-87.915	-0.063	0.019
-718.791	581.578	-0.094	-0.233
-717.777	4.836	-0.196	-0.145
-716.762	114.915	-0.211	0.260
-715.748	-59.592	-0.236	-0.102
-714.733	-6.155	-0.058	-0.040
-713.718	420.157	0.035	0.076
-712.704	-135.239	0.234	-0.028
-711.689	-97.446	-0.170	0.044
-710.675	45.275	0.278	-0.259
-709.660	-21.687	-0.118	-0.072
-708.645	-200.000	-0.072	0.437
-707.631	5.306	0.238	0.177
-706.616	304.455	-0.056	-0.104
-705.602	473.914	-0.137	0.311
-704.587	-62.905	-0.298	-0.124
-703.572	-200.000	0.015	-0.415
-702.558	-61.631	0.036	-0.015
-701.543	66.455	0.100	-0.103
-700.529	-200.000	0.012	-0.319
-699.514	-49.457	0.216	-0.104
-698.499	-73.968	-0.064	0.023
-697.485	-200.000	0.001	-0.084
-696.470	361.831	-0.085	-0.171
-695.456	77.208	0.088	0.094
-694.441	800.000	0.053	0.179
-693.426	397.418	-0.176	0.370
-692.412	89.671	-0.040	-0.045
-691.397	69.248	-0.256	-0.265
-690.383	180.870	0.218	0.323
-689.368	-198.878	-0.123	-0.001
-688.354	225.713	0.239	0.390
-687.339	-108.751	-0.373	-0.080
-686.324	169.738	-0.126	-0.182
-685.310	-113.698	-0.297	-0.058
-684.295	47.978	0.061	-0.058
-683.281	-11.208	-0.146	0.097
-682.266	308.737	-0.152	-0.285
-681.251	-200.000	0.008	-0.173
-680.237	-143.692	0.033	0.003
-679.222	179.745	-0.221	0.326
-678.208	-0.550	-0.207	-0.148
-677.193	-33.510	-0.140	-0.078
-676.178	-200.000	-0.006	-0.525
-675.164	341.448	-0.148	-0.290
-674.149	-17.536	0.131	-0.083
-673.135	-180.134	-0.158	-0.003
-672.120	-50.918	0.217	0.103
-671.105	-200.000	0.001	-0.223
-670.091	-76.385	-0.136	0.048
-669.076	-59.340	0.293	0.127
-668.062	-39.015	-0.499	-0.264
-667.047	800.000	-0.129	0.447
-666.032	-200.000	-0.139	-0.000
-665.018	800.000	-0.038	0.117
-664.003	-50.246	-0.154	-0.073
-662.989	306.111	0.142	0.265
-661.974	-59.797	-0.230	0.099
-660.959	-60.697	0.223	-0.095
-659.945	195.214	0.235	-0.359
-658.930	-87.591	0.041	0.013
-657.916	-200.000	-0.006	0.094
-656.901	-121.338	-0.199	0.033
-655.886	-200.000	0.013	-0.097
-654.872	800.000	0.103	-0.362
-653.857	87.609	0.190	-0.211
-652.843	-66.083	0.152	-0.061
-651.828	-107.678	0.159	-0.035
-650.814	-45.939	-0.432	0.214
-649.799	-0.349	-0.344	0.245
-648.784	-66.069	-0.213	-0.085
-647.770	-117.756	0.355	0.064
-646.755	-15.667	0.331	-0.212
-645.741	800.000	-0.105	-0.426
-644.726	102.144	-0.254	0.298
-643.711	30.872	-0.364	-0.313
-642.697	683.238	0.129	-0.338
-641.682	-49.224	-0.338	0.162
-640.668	108.512	0.235	-0.282
-639.653	28.622	0.116	-0.099
-638.638	-92.568	-0.118	0.033
-637.624	-100.081	-0.045	-0.011
-636.609	-116.137	0.296	-0.055
-635.595	128.885	0.151	-0.194
-634.580	-3.559	-0.266	0.186
-633.565	2.237	-0.015	-0.011
-632.551	-100.971	0.193	-0.048
-631.536	-200.000	0.016	0.284
-630.522	-99.026	0.161	-0.041
-629.507	-8.144	0.057	0.038
-628.492	800.000	0.025	-0.106
-627.478	-79.610	0.098	-0.033
-626.463	-200.000	0.006	-0.114
-625.449	-200.000	-0.011	0.359
-624.434	800.000	0.073	-0.203
-623.419	800.000	0.021	-0.066
-622.405	-163.111	-0.134	-0.006
-621.390	-118.654	0.363	0.064
-620.376	-200.000	0.012	0.054
-619.361	249.218	0.032	0.054
-618.346	108.306	0.162	-0.194
-617.332	800.000	-0.064	0.243
-616.317	-121.355	0.200	-0.033
-615.303	32.398	0.167	0.144
-614.288	-74.226	0.267	0.097
-613.273	800.000	0.056	0.162
-612.259	344.220	-0.135	-0.266
-611.244	-89.215	-0.353	0.105
-610.230	-200.000	-0.043	-0.247
-609.215	93.387	0.156	0.177
-608.201	-54.623	0.178	0.081
-607.186	800.000	0.072	-0.245
-606.171	-3.323	0.131	0.091
-605.157	-81.731	0.362	0.119
-604.142	154.234	-0.133	0.183
-603.128	-106.330	-0.380	-0.085
-602.113	-38.115	-0.102	-0.054
-601.098	-200.000	0.029	-0.304
-600.084	-67.440	-0.138	0.054
-599.069	-1.315	0.173	-0.122
-598.055	12.016	-0.211	0.163
-597.040	141.029	-0.110	0.146
-596.025	800.000	0.029	-0.103
-595.011	56.205	-0.185	-0.180
-593.996	-200.000	0.044	-0.275
-592.982	800.000	-0.115	-0.431
-591.967	489.468	-0.046	-0.104
-590.952	-200.000	-0.032	-0.227
-589.938	-200.000	-0.033	-0.277
-588.923	20.546	0.107	-0.087
-587.909	-17.788	0.081	0.051
-586.894	-5.150	-0.126	0.087
-585.879	44.366	-0.135	-0.124
-584.865	-5.681	-0.189	0.130
-583.850	-200.000	-0.005	-0.069
-582.836	-47.715	0.264	-0.128
-581.821	-103.293	0.310	0.073
-580.806	-120.473	-0.317	0.054
-579.792	-46.056	0.327	-0.162
-578.777	800.000	-0.033	0.094
-577.763	39.021	-0.211	0.189
-576.748	121.029	0.180	0.224
-575.733	149.740	0.154	0.209
-574.719	-90.413	0.125	-0.036
-573.704	577.156	0.045	-0.111
-572.690	23.340	0.093	-0.076
-571.675	48.409	-0.094	-0.088
-570.661	800.000	-0.128	0.488
-569.646	208.210	0.032	0.050
-568.631	-200.000	-0.065	-0.317
-567.617	83.205	0.228	-0.249
-566.602	121.416	-0.192	-0.239
-565.588	-145.784	0.205	0.018
-564.573	-118.202	-0.277	-0.049
-563.558	-4.133	0.384	-0.266
-562.544	-80.436	-0.344	0.115
-561.529	800.000	0.031	-0.132
-560.515	-33.331	0.299	-0.166
-559.500	-200.000	-0.015	0.145
-558.485	469.728	-0.113	-0.254
-557.471	-98.642	-0.350	0.089
-556.456	17.261	0.268	-0.213
-555.442	-173.379	-0.326	-0.010
-554.427	-75.637	-0.075	-0.026
-553.412	-200.000	0.040	0.193
-552.398	412.875	0.226	0.481
-551.383	-185.767	0.154	-0.002
-550.369	-17.924	0.371	-0.232
-549.354	-159.147	-0.333	-0.019
-548.339	-68.143	-0.136	0.053
-547.325	800.000	-0.119	-0.510
-546.310	93.460	0.289	0.327
-545.296	-200.000	-0.003	-0.180
-544.281	510.773	0.101	-0.235
-543.266	-58.463	-0.119	0.052
-542.252	-91.332	-0.146	-0.042
-541.237	14.512	-0.289	0.226
-540.223	-200.000	-0.008	0.175
-539.208	-87.000	0.231	-0.070
-538.193	-98.263	-0.164	0.042
-537.179	-24.106	0.193	-0.115
-536.164	186.744	0.037	-0.055
-535.150	21.331	0.060	-0.048
-534.135	-38.816	0.092	-0.049
-533.121	800.000	0.158	0.525
-532.106	-200.000	0.026	-0.208
-531.091	8.862	-0.182	0.137
-530.077	-200.000	-0.003	0.082
-529.062	121.565	0.032	-0.040
-528.048	-51.354	-0.392	-0.184
-527.033	44.454	-0.226	-0.208
-526.018	171.747	0.079	0.113
-525.004	115.576	-0.102	0.125
-523.989	18.105	0.025	0.020
-522.975	-43.782	-0.285	-0.143
-521.960	-11.896	-0.164	-0.107
-520.945	-77.027	0.336	0.117
-519.931	800.000	-0.031	-0.096
-518.916	159.916	0.168	0.233
-517.902	-200.000	0.025	0.157
-516.887	-115.257	0.132	0.025
-515.872	-20.960	-0.095	-0.058
-514.858	749.492	-0.061	0.165
-513.843	61.188	-0.223	0.222
-512.829	415.654	-0.048	0.102
-511.814	36.772	-0.211	-0.187
-510.799	-200.000	0.021	-0.189
-509.785	208.718	0.146	0.228
-508.770	127.390	-0.177	-0.224
-507.756	-156.840	-0.073	0.004
-506.741	800.000	-0.103	-0.436
-505.726	122.134	0.158	0.197
-504.712	-161.839	-0.051	0.003
-503.697	-200.000	0.021	0.314
-502.683	800.000	0.025	-0.078
-501.668	75.080	0.174	0.183
-500.653	-81.419	-0.122	0.040
-499.639	-56.869	-0.097	-0.043
-498.624	-33.625	0.100	0.055
-497.610	-200.000	-0.039	-0.208
-496.595	-57.842	0.235	-0.103
-495.581	26.693	-0.187	-0.157
-494.566	-171.026	0.146	0.005
-493.551	-179.245	-0.158	-0.004
-492.537	-164.120	0.335	0.015
-491.522	35.382	-0.297	-0.261
-490.508	84.828	-0.181	0.198
-489.493	74.727	0.067	0.070
-488.478	-157.365	0.132	0.008
-487.464	-115.986	0.125	0.023
-486.449	-55.315	0.192	0.086
-485.435	-200.000	-0.010	0.095
-484.420	-128.750	0.087	-0.012
-483.405	58.620	0.314	0.307
-482.391	-121.383	-0.281	-0.047
-481.376	-200.000	0.028	-0.278
-480.362	-133.601	-0.272	0.034
-479.347	-63.465	-0.240	0.099
-478.332	-17.131	-0.105	-0.066
-477.318	-200.000	-0.038	-0.519
-476.303	-90.697	-0.317	0.091
-475.289	30.618	0.178	-0.152
-474.274	-200.000	0.076	-0.504
-473.259	-77.382	-0.162	0.056
-472.245	476.655	0.148	0.335
-471.230	47.581	-0.379	-0.353
-470.216	-127.116	-0.369	0.054
-469.201	190.212	0.179	-0.268
-468.186	-43.180	0.190	-0.096
-467.172	177.263	0.168	-0.244
-466.157	201.291	-0.125	-0.192
-465.143	44.667	0.097	0.089
-464.128	-192.713	0.282	0.003
-463.113	-200.000	0.020	0.221
-462.099	-88.465	0.326	-0.097
-461.084	51.281	-0.088	-0.084
-460.070	50.225	-0.024	-0.023
-459.055	-200.000	0.017	-0.358
-458.040	500.512	-0.113	-0.259
-457.026	155.280	0.097	0.133
-456.011	800.000	0.049	-0.170
-454.997	171.926	-0.097	-0.139
-453.982	-4.940	-0.274	-0.188
-452.968	-33.675	0.231	0.127
-451.953	800.000	-0.003	0.009
-450.938	-21.709	-0.348	0.211
-449.924	-64.884	-0.214	0.086
-448.909	93.050	-0.035	0.039
-447.895	-13.239	0.182	0.118
-446.880	103.212	0.179	0.209
-445.865	-200.000	0.013	0.114
-444.851	264.105	-0.262	0.454
-443.836	-151.026	-0.469	0.035
-442.822	128.022	0.126	-0.160
-441.807	451.686	0.125	0.276
-440.792	-82.591	-0.304	0.098
-439.778	14.151	-0.322	0.250
-438.763	-70.621	0.132	-0.050
-437.749	-6.787	0.137	0.093
-436.734	507.812	-0.217	0.502
-435.719	800.000	-0.030	-0.111
-434.705	-200.000	0.000	0.153
-433.690	146.443	-0.073	-0.098
-432.676	23.635	0.156	-0.128
-431.661	-34.460	0.344	0.188
-430.646	800.000	0.037	-0.126
-429.632	-3.187	-0.116	0.080
-428.617	77.057	-0.058	0.062
-427.603	-55.491	0.196	-0.088
-426.588	55.553	-0.482	-0.464
-425.573	227.933	-0.071	0.116
-424.559	20.924	0.323	-0.261
-423.544	-37.943	-0.091	0.048
-422.530	46.910	0.093	-0.086
-421.515	-200.000	0.030	0.201
-420.500	-200.000	0.024	0.104
-419.486	-106.248	-0.305	0.068
-418.471	-129.036	-0.347	0.048
-417.457	45.823	0.147	0.135
-416.442	-119.477	-0.440	-0.076
-415.428	-28.971	0.014	0.008
-414.413	28.880	0.151	-0.128
-413.398	800.000	0.128	0.423
-412.384	-41.689	0.334	0.171
-411.369	299.961	-0.100	0.184
-410.355	-60.737	-0.283	-0.119
-409.340	800.000	-0.074	0.210
-408.325	116.408	-0.236	0.288
-407.311	-21.292	-0.283	-0.172
-406.296	-200.000	-0.043	0.391
-405.282	-91.298	-0.008	0.002
-404.267	33.224	0.204	0.176
-403.252	800.000	-0.012	0.040
-402.238	748.714	0.126	-0.337
-401.223	-125.562	-0.101	-0.015
-400.209	31.302	0.227	0.194
-399.194	-200.000	-0.001	0.209
-398.179	295.663	-0.259	0.471
-397.165	226.650	-0.052	-0.084
-396.150	-200.000	0.008	-0.080
-395.136	97.421	0.005	-0.006
-394.121	43.281	-0.137	-0.125
-393.106	533.794	0.033	-0.078
-392.092	-100.792	0.117	0.029
-391.077	-50.421	0.180	0.085
-390.063	102.400	0.303	-0.352
-389.048	-200.000	0.070	0.455
-388.033	-200.000	0.032	0.262
-387.019	146.215	0.143	-0.191
-386.004	-200.000	0.070	-0.326
-384.990	5.213	-0.268	0.196
-383.975	435.572	0.062	0.135
-382.960	-21.710	0.134	-0.081
-381.946	-18.705	-0.097	0.060
-380.931	800.000	-0.115	0.344
-379.917	-63.791	0.207	0.084
-378.902	-200.000	0.025	0.140
-377.888	-200.000	0.031	0.318
-376.873	800.000	-0.061	0.261
-375.858	800.000	0.090	-0.327
-374.844	170.599	0.287	0.409
-373.829	-143.170	0.070	0.007
-372.815	65.514	0.185	0.186
-371.800	-200.000	0.024	-0.156
-370.785	-200.000	-0.020	0.276
-369.771	63.556	-0.123	0.122
-368.756	-116.239	-0.096	-0.018
-367.742	459.243	0.087	0.192
-366.727	23.425	-0.047	0.038
-365.712	41.285	-0.219	0.197
-364.698	-200.000	0.005	-0.209
-363.683	-19.823	0.158	-0.097
-362.669	-200.000	0.004	-0.175
-361.654	-200.000	0.057	-0.277
-360.639	88.238	-0.018	-0.020
-359.625	-29.124	0.318	-0.181
-358.610	-45.632	-0.077	-0.038
-357.596	-117.696	-0.284	-0.051
-356.581	73.823	-0.037	0.039
-355.566	-200.000	-0.047	0.470
-354.552	-50.879	-0.237	0.111
-353.537	-200.000	-0.007	0.143
-352.523	9.519	0.224	0.168
-351.508	-167.965	-0.098	-0.004
-350.493	-200.000	0.046	0.225
-349.479	800.000	-0.053	-0.193
-348.464	-102.909	0.127	0.030
-347.450	541.232	-0.124	0.294
-346.435	-159.731	0.275	0.015
-345.420	-200.000	-0.048	0.259
-344.406	48.699	0.271	-0.252
-343.391	-29.273	-0.164	-0.093
-342.377	18.390	0.170	0.135
-341.362	486.319	-0.048	0.109
-340.348	-134.805	0.121	-0.015
-339.333	77.500	0.082	-0.087
-338.318	800.000	-0.054	-0.166
-337.304	-142.527	-0.127	0.012
-336.289	-30.349	0.224	0.126
-335.275	-4.383	0.119	-0.082
-334.260	247.092	0.097	0.163
-333.245	800.000	0.049	0.177
-332.231	-200.000	0.000	-0.274
-331.216	461.456	0.165	-0.366
-330.202	-85.369	0.269	-0.083
-329.187	23.806	-0.138	0.113
-328.172	-66.935	0.465	-0.182
-327.158	554.636	-0.062	0.148
-326.143	-77.429	-0.218	-0.075
-325.129	138.858	0.260	0.339
-324.114	61.298	-0.223	-0.220
-323.099	-200.000	0.072	-0.321
-322.085	-70.529	0.097	-0.037
-321.070	-99.619	-0.285	-0.071
-320.056	-200.000	0.036	-0.239
-319.041	-200.000	-0.022	0.164
-318.026	-200.000	-0.020	-0.162
-317.012	-40.603	0.083	0.043
-315.997	-200.000	0.027	0.124
-314.983	-141.372	0.092	0.009
-313.968	108.660	-0.081	-0.096
-312.953	-124.958	-0.123	0.019
-311.939	-164.426	-0.047	0.002
-310.924	-200.000	0.062	-0.276
-309.910	530.573	-0.033	-0.076
-308.895	98.578	0.134	-0.153
-307.880	800.000	-0.161	-0.441
-306.866	-134.763	0.417	0.050
-305.851	-200.000	0.000	-0.157
-304.837	800.000	0.045	-0.160
-303.822	-200.000	0.123	-0.546
-302.807	564.390	0.067	0.162
-301.793	-33.522	0.263	-0.144
-300.778	-186.093	0.038	-0.001
-299.764	494.015	-0.037	0.084
-298.749	-200.000	-0.051	0.327
-297.735	-127.006	-0.087	-0.013
-296.720	-137.061	-0.220	-0.025
-295.705	182.709	-0.183	0.268
-294.691	-136.247	0.152	-0.018
-293.676	1.532	0.134	0.096
-292.662	-168.043	-0.166	0.006
-291.647	800.000	0.164	-0.469
-290.632	2.409	-0.074	-0.053
-289.618	6.432	0.278	0.205
-288.603	665.119	0.119	-0.303
-287.589	-121.391	-0.139	-0.023
-286.574	-76.659	0.207	-0.072
-285.559	800.000	-0.034	-0.134
-284.545	-2.339	-0.203	0.141
-283.530	-200.000	-0.017	-0.073
-282.516	251.346	-0.171	0.288
-281.501	214.470	0.148	-0.232
-280.486	-200.000	-0.010	0.291
-279.472	-64.441	0.214	0.086
-278.457	-150.893	-0.294	-0.022
-277.443	-108.233	-0.141	-0.030
-276.428	-200.000	-0.054	0.274
-275.413	-5.796	-0.217	-0.147
-274.399	-73.420	0.320	0.116
-273.384	84.914	-0.214	0.232
-272.370	127.588	0.325	-0.408
-271.355	-144.700	-0.170	0.015
-270.340	-200.000	-0.024	-0.174
-269.326	96.526	-0.092	0.104
-268.311	-45.781	0.075	-0.037
-267.297	524.359	-0.047	0.109
-266.282	-108.679	-0.104	0.022
-265.267	-0.767	0.185	-0.130
-264.253	800.000	-0.080	-0.253
-263.238	-200.000	0.030	0.222
-262.224	-122.747	-0.192	-0.031
-261.209	-200.000	0.056	-0.462
-260.195	243.725	-0.180	0.299
-259.180	0.952	0.244	-0.173
-258.165	-65.531	0.481	-0.191
-257.151	97.041	0.060	0.068
-256.136	87.311	0.065	-0.071
-255.122	20.672	0.055	0.044
-254.107	102.216	0.177	-0.204
-253.092	-95.467	0.148	0.039
-252.078	670.699	-0.136	-0.349
-251.063	252.196	-0.071	0.120
-250.049	-32.984	-0.183	-0.100
-249.034	334.122	0.028	-0.054
-248.019	-149.009	-0.217	0.017
-247.005	-200.000	-0.033	0.320
-245.990	-96.176	-0.184	0.048
-244.976	-200.000	0.023	0.223
-243.961	536.677	0.075	-0.176
-242.946	202.915	0.182	0.278
-241.932	-29.779	0.136	-0.076
-240.917	-200.000	-0.040	0.554
-239.903	-52.238	-0.064	-0.029
-238.888	-95.627	0.083	0.022
-237.873	800.000	-0.124	0.448
-236.859	77.467	-0.172	0.181
-235.844	800.000	0.043	0.153
-234.830	800.000	0.015	-0.050
-233.815	800.000	-0.027	0.080
-232.800	-72.357	-0.254	-0.093
-231.786	173.844	-0.217	-0.310
-230.771	-16.396	-0.193	-0.121
-229.757	-76.953	0.231	0.080
-228.742	-154.688	-0.040	-0.003
-227.727	151.567	-0.151	0.204
-226.713	74.633	-0.179	-0.186
-225.698	-15.715	0.109	0.069
-224.684	800.000	-0.061	-0.232
-223.669	28.611	0.095	0.080
-222.655	2.398	0.269	-0.192
-221.640	-81.268	-0.213	0.070
-220.625	-200.000	0.002	-0.012
-219.611	-117.345	-0.158	-0.028
-218.596	-200.000	-0.026	-0.557
-217.582	264.161	-0.159	-0.273
-216.567	-133.339	0.194	-0.024
-215.552	334.190	-0.126	0.240
-214.538	245.470	0.038	0.064
-213.523	800.000	-0.053	-0.199
-212.509	-114.004	-0.101	0.019
-211.494	-200.000	0.006	-0.030
-210.479	423.064	-0.080	0.169
-209.465	706.772	-0.011	0.029
-208.450	17.231	-0.154	-0.121
-207.436	780.446	0.076	-0.205
-206.421	87.998	-0.166	0.182
-205.406	-121.504	-0.290	0.048
-204.392	17.013	-0.227	0.177
-203.377	47.218	0.332	-0.305
-202.363	-112.168	-0.160	0.032
-201.348	337.866	-0.080	-0.154
-200.333	-93.642	-0.154	0.042
-199.319	538.355	-0.185	0.434
-198.304	800.000	-0.135	0.369
-197.290	164.243	0.150	0.208
-196.275	-200.000	-0.062	0.327
-195.260	-35.836	0.093	-0.049
-194.246	117.821	-0.104	0.126
-193.231	309.509	0.111	0.204
-192.217	-38.313	-0.383	0.200
-191.202	3.109	-0.120	0.086
-190.187	325.368	-0.154	-0.291
-189.173	-200.000	-0.062	-0.280
-188.158	11.780	-0.123	0.093
-187.144	-200.000	-0.021	0.174
-186.129	-32.067	0.383	-0.212
-185.114	-61.520	0.396	-0.164
-184.100	467.956	0.062	0.138
-183.085	442.533	0.063	-0.135
-182.071	-132.174	-0.175	-0.022
-181.056	-38.367	-0.114	0.060
-180.042	800.000	-0.043	0.160
-179.027	324.645	0.075	-0.141
-178.012	-144.754	0.194	-0.018
-176.998	-50.933	-0.060	0.028
-175.983	-153.073	-0.078	0.005
-174.969	-15.174	-0.124	-0.078
-173.954	-55.475	0.107	-0.047
-172.939	-29.523	0.081	-0.046
-171.925	-136.753	-0.061	-0.007
-170.910	-200.000	0.056	0.315
-169.896	-200.000	-0.036	0.160
-168.881	149.684	-0.147	0.197
-167.866	-200.000	-0.275	0.000
-166.852	-181.134	0.292	-0.006
-165.837	-21.035	-0.283	-0.171
-164.823	-160.127	0.289	0.015
-163.808	145.568	-0.142	0.187
-162.793	-171.852	0.149	0.005
-161.779	64.299	0.085	-0.084
-160.764	-11.925	0.145	-0.093
-159.750	-27.701	-0.115	0.066
-158.735	13.723	0.569	-0.436
-157.720	-43.458	0.305	0.152
-156.706	191.198	0.148	0.219
-155.691	-200.000	0.001	0.053
-154.677	-32.650	0.333	-0.183
-153.662	-6.824	0.142	0.095
-152.647	299.810	0.079	0.144
-151.633	166.153	-0.137	-0.191
-150.618	6.367	0.067	-0.049
-149.604	111.238	0.167	-0.198
-148.589	300.693	-0.046	-0.083
-147.574	143.547	-0.129	-0.169
-146.560	-200.000	0.035	-0.191
-145.545	-200.000	0.006	0.045
-144.531	135.981	-0.103	-0.132
-143.516	-200.000	-0.025	0.220
-142.502	99.179	-0.177	0.201
-141.487	-15.996	-0.235	0.147
-140.472	-157.195	-0.056	-0.003
-139.458	69.331	0.050	0.051
-138.443	-75.146	-0.120	0.042
-137.429	15.078	-0.056	0.043
-136.414	-66.478	0.169	0.066
-135.399	800.000	0.072	0.198
-134.385	690.946	0.022	-0.056
-133.370	-98.593	-0.042	0.010
-132.356	50.263	0.241	-0.224
-131.341	85.541	-0.175	0.190
-130.326	800.000	0.014	-0.056
-129.312	-42.879	0.151	0.075
-128.297	-51.976	-0.099	0.045
-127.283	223.871	-0.262	0.416
-126.268	-200.000	-0.001	0.069
-125.253	-124.896	0.031	0.005
-124.239	-88.139	-0.064	0.019
-123.224	-73.207	-0.144	0.052
-122.210	552.970	-0.054	-0.127
-121.195	-200.000	-0.009	0.113
