DTS Sentinel unit serial number:	SN413079Multiplexer serial number:	ORYXHardware model number:	OX4-SRSoftware version number:	ORYX F/W v4.00 Oryx Data Collector v3.7.2.0data status	okinstallation	princeton_trtdifferential loss correction	single-endedforward channel	channel 2reverse channel	N/Adate	2019/09/11time	23:33:11forward acquisition time	60.00reverse acquisition time	0.00gamma	496.2192k internal	0.2325k external	0.2325temperature offset calibration	1.0082default loss term (dB/km)	0.3790temperature slope calibration	1.0000multiplexer offset coefficient	1.0000multiplexer slope coefficient	1.0000fibre end	0.00T internal ref (°C)	34.19T ext. ref 1 (°C)	1.89T ext. ref 2 (°C)	28.66length (m)	temperature (°C)	Stokes	anti-Stokes-747.200	95.365	0.062	0.072
-746.185	-144.132	0.175	-0.017
-745.171	573.780	-0.183	0.450
-744.156	800.000	-0.051	0.206
-743.142	-127.628	0.218	-0.032
-742.127	-16.478	0.239	0.153
-741.112	-200.000	-0.028	0.212
-740.098	363.880	0.130	0.264
-739.083	-33.733	0.247	-0.138
-738.069	380.131	0.320	0.661
-737.054	113.252	0.188	0.230
-736.039	-121.340	-0.245	0.041
-735.025	169.738	0.122	0.177
-734.010	-56.598	-0.214	-0.096
-732.996	-147.118	-0.233	0.020
-731.981	-51.454	-0.301	0.142
-730.966	145.492	0.017	0.024
-729.952	-200.000	0.025	0.372
-728.937	748.809	-0.138	0.375
-727.923	-200.000	0.061	-0.299
-726.908	-200.000	0.020	-0.202
-725.894	285.385	0.074	-0.135
-724.879	12.367	0.169	-0.131
-723.864	-99.707	0.145	0.037
-722.850	-40.345	0.081	0.042
-721.835	-31.679	-0.259	0.147
-720.821	-119.465	0.216	-0.038
-719.806	202.886	-0.149	0.233
-718.791	324.037	-0.092	-0.176
-717.777	-200.000	-0.047	0.307
-716.762	11.894	-0.210	-0.163
-715.748	-7.663	-0.145	0.099
-714.733	800.000	-0.040	-0.136
-713.718	630.092	-0.049	0.124
-712.704	531.029	-0.041	0.097
-711.689	-200.000	0.011	-0.144
-710.675	-92.990	0.264	-0.074
-709.660	698.661	0.062	0.164
-708.645	-57.942	0.334	-0.147
-707.631	-47.102	-0.205	0.101
-706.616	130.478	0.031	-0.040
-705.602	-159.220	0.308	0.017
-704.587	800.000	-0.092	0.324
-703.572	47.223	0.190	0.178
-702.558	-200.000	-0.006	0.168
-701.543	-200.000	-0.013	0.142
-700.529	9.191	0.102	-0.078
-699.514	453.665	0.105	0.233
-698.499	3.710	0.076	0.056
-697.485	-165.973	-0.457	0.020
-696.470	14.818	-0.138	-0.109
-695.456	800.000	-0.055	-0.170
-694.441	800.000	0.025	0.104
-693.426	-112.356	-0.229	-0.046
-692.412	-200.000	0.034	0.240
-691.397	102.001	0.180	-0.211
-690.383	52.005	0.130	0.125
-689.368	-105.305	-0.092	-0.021
-688.354	-196.240	0.471	0.003
-687.339	203.098	0.080	-0.124
-686.324	-40.023	-0.284	0.149
-685.310	-99.425	-0.334	0.085
-684.295	800.000	-0.130	0.415
-683.281	-75.821	0.121	0.043
-682.266	800.000	0.098	-0.385
-681.251	-200.000	0.024	0.457
-680.237	-65.056	-0.293	0.119
-679.222	-200.000	-0.086	0.407
-678.208	109.538	-0.049	-0.060
-677.193	-200.000	0.034	-0.237
-676.178	-200.000	-0.021	-0.442
-675.164	-73.083	0.136	-0.050
-674.149	43.046	0.177	-0.163
-673.135	135.576	0.041	-0.054
-672.120	73.198	-0.195	-0.205
-671.105	-158.901	0.198	-0.011
-670.091	-104.611	0.461	-0.107
-669.076	-200.000	-0.018	-0.111
-668.062	231.459	-0.051	0.083
-667.047	134.641	-0.011	-0.015
-666.032	-47.981	-0.242	-0.118
-665.018	-200.000	-0.031	0.140
-664.003	145.088	-0.070	-0.095
-662.989	105.673	0.237	0.282
-661.974	-77.582	0.188	-0.066
-660.959	-125.224	-0.425	0.065
-659.945	-106.765	-0.332	-0.074
-658.930	-65.298	0.033	-0.013
-657.916	-5.111	-0.170	-0.118
-656.901	-86.908	0.196	0.060
-655.886	218.663	-0.206	0.330
-654.872	-114.050	0.111	0.022
-653.857	245.294	0.204	-0.346
-652.843	229.700	0.144	-0.237
-651.828	-60.622	-0.186	0.079
-650.814	95.896	-0.206	0.237
-649.799	-200.000	0.070	-0.000
-648.784	-163.010	-0.295	0.014
-647.770	-96.344	-0.422	-0.112
-646.755	699.490	0.078	-0.206
-645.741	-98.067	-0.173	-0.045
-644.726	-200.000	0.065	-0.287
-643.711	181.282	0.095	0.141
-642.697	-200.000	-0.044	-0.259
-641.682	-116.782	0.605	-0.112
-640.668	455.180	0.023	-0.052
-639.653	800.000	0.107	0.331
-638.638	-200.000	0.059	0.303
-637.624	433.514	-0.101	0.220
-636.609	-145.524	-0.465	0.042
-635.595	-10.977	0.211	-0.140
-634.580	34.228	-0.205	-0.180
-633.565	800.000	-0.053	0.149
-632.551	-34.170	0.024	-0.013
-631.536	800.000	0.038	0.159
-630.522	196.277	-0.174	-0.266
-629.507	-200.000	-0.026	-0.185
-628.492	-85.365	0.078	-0.025
-627.478	-158.124	-0.275	0.016
-626.463	-110.968	-0.305	-0.063
-625.449	84.861	0.143	-0.158
-624.434	-138.673	-0.195	-0.021
-623.419	-200.000	-0.035	-0.347
-622.405	-41.597	-0.214	0.111
-621.390	-200.000	-0.006	0.329
-620.376	210.072	-0.088	0.139
-619.361	-148.454	-0.086	-0.007
-618.346	-200.000	0.052	0.248
-617.332	-86.869	0.327	0.100
-616.317	-180.538	-0.124	-0.003
-615.303	103.627	-0.087	0.103
-614.288	-200.000	-0.013	-0.190
-613.273	96.253	0.163	-0.188
-612.259	-184.674	0.556	-0.009
-611.244	-52.272	-0.156	0.073
-610.230	276.871	0.056	0.099
-609.215	-91.200	0.152	0.044
-608.201	77.048	-0.040	-0.043
-607.186	-19.422	0.131	-0.082
-606.171	125.950	-0.150	0.190
-605.157	-200.000	-0.011	-0.438
-604.142	-68.600	-0.132	-0.051
-603.128	-153.188	-0.198	-0.014
-602.113	150.240	-0.080	-0.109
-601.098	108.171	-0.188	-0.225
-600.084	-200.000	-0.037	-0.248
-599.069	-86.219	-0.113	0.035
-598.055	-119.736	-0.586	0.102
-597.040	-105.780	0.060	0.014
-596.025	353.880	0.074	0.148
-595.011	-200.000	0.035	0.216
-593.996	-200.000	0.015	0.194
-592.982	3.802	-0.047	-0.035
-591.967	650.319	-0.104	0.266
-590.952	-138.515	0.470	-0.052
-589.938	107.688	0.152	0.182
-588.923	-123.536	0.299	-0.048
-587.909	685.592	-0.015	0.040
-586.894	-200.000	0.105	-0.539
-585.879	72.137	0.066	-0.069
-584.865	-177.569	-0.048	-0.001
-583.850	161.142	-0.273	-0.383
-582.836	132.236	0.133	0.172
-581.821	-88.811	-0.120	-0.036
-580.806	61.100	0.098	-0.098
-579.792	-110.644	0.087	0.018
-578.777	8.663	-0.196	-0.148
-577.763	-36.959	-0.151	-0.081
-576.748	-119.914	-0.175	-0.030
-575.733	84.512	-0.116	-0.128
-574.719	-200.000	-0.040	-0.191
-573.704	446.932	-0.137	-0.303
-572.690	-200.000	0.001	-0.263
-571.675	14.966	0.219	0.172
-570.661	-200.000	0.044	-0.338
-569.646	-55.388	0.352	-0.158
-568.631	-137.156	-0.410	-0.047
-567.617	0.050	0.403	0.288
-566.602	-200.000	0.017	0.082
-565.588	-22.736	-0.157	0.095
-564.573	-17.737	-0.107	0.068
-563.558	23.599	-0.010	-0.008
-562.544	76.124	-0.122	-0.129
-561.529	342.013	-0.079	-0.154
-560.515	40.520	-0.128	-0.116
-559.500	-146.906	0.102	-0.009
-558.485	1.531	-0.132	0.095
-557.471	800.000	-0.072	0.254
-556.456	16.833	0.193	0.153
-555.442	-142.850	0.109	-0.011
-554.427	800.000	-0.112	0.311
-553.412	131.406	-0.125	0.161
-552.398	-17.522	-0.259	0.163
-551.383	-200.000	-0.045	-0.484
-550.369	-32.422	0.061	-0.034
-549.354	56.196	-0.156	0.152
-548.339	-31.502	0.365	0.205
-547.325	-92.973	0.174	-0.049
-546.310	256.850	-0.043	-0.074
-545.296	-200.000	0.036	0.159
-544.281	-200.000	0.039	-0.224
-543.266	-200.000	-0.039	0.185
-542.252	237.541	0.241	0.400
-541.237	166.256	-0.051	0.072
-540.223	130.714	0.093	-0.119
-539.208	-82.807	0.231	-0.075
-538.193	800.000	-0.040	-0.162
-537.179	-32.197	-0.104	0.058
-536.164	-85.728	0.226	0.070
-535.150	35.055	-0.119	0.104
-534.135	-68.836	0.133	0.052
-533.121	-51.001	0.086	-0.040
-532.106	-200.000	-0.004	0.276
-531.091	-200.000	0.024	0.328
-530.077	-123.402	-0.110	0.018
-529.062	-3.482	-0.251	-0.175
-528.048	-24.001	-0.189	-0.113
-527.033	580.760	-0.122	0.299
-526.018	-200.000	0.005	-0.185
-525.004	140.019	0.283	-0.373
-523.989	800.000	-0.110	-0.403
-522.975	128.380	0.070	-0.089
-521.960	74.333	0.193	0.202
-520.945	-66.937	0.206	-0.081
-519.931	-39.428	-0.083	-0.044
-518.916	9.793	0.132	-0.100
-517.902	-200.000	0.027	0.189
-516.887	-147.559	-0.293	-0.025
-515.872	800.000	-0.065	0.258
-514.858	101.556	-0.164	-0.191
-513.843	-200.000	-0.035	-0.161
-512.829	-91.547	0.415	0.118
-511.814	-0.166	0.154	-0.110
-510.799	800.000	-0.049	-0.194
-509.785	624.558	0.100	0.252
-508.770	800.000	-0.119	0.342
-507.756	462.655	0.105	0.235
-506.741	-45.744	0.231	-0.114
-505.726	-18.032	-0.167	0.105
-504.712	372.124	-0.098	0.198
-503.697	327.913	0.187	0.359
-502.683	203.714	0.231	-0.358
-501.668	218.453	0.055	0.087
-500.653	-4.966	-0.191	-0.132
-499.639	-65.895	-0.242	-0.097
-498.624	115.008	-0.077	0.094
-497.610	-93.045	-0.391	-0.109
-496.595	-75.252	-0.187	-0.067
-495.581	529.507	0.067	-0.159
-494.566	800.000	0.135	-0.388
-493.551	-154.327	0.115	-0.008
-492.537	19.053	0.141	0.113
-491.522	-98.625	-0.128	0.033
-490.508	354.643	0.087	-0.172
-489.493	-113.502	0.165	-0.032
-488.478	-200.000	0.008	0.058
-487.464	-108.577	-0.324	-0.070
-486.449	-200.000	0.066	0.616
-485.435	-161.536	-0.232	0.012
-484.420	-62.946	-0.169	-0.070
-483.405	42.431	0.256	0.232
-482.391	-7.585	-0.385	-0.260
-481.376	-190.884	0.496	0.005
-480.362	-92.653	0.033	-0.009
-479.347	-38.463	-0.198	-0.105
-478.332	217.290	0.072	-0.115
-477.318	-98.699	0.138	-0.035
-476.303	172.550	-0.267	-0.384
-475.289	275.362	0.095	-0.168
-474.274	92.161	-0.243	-0.273
-473.259	-156.740	-0.200	-0.012
-472.245	379.850	-0.224	0.459
-471.230	728.376	0.097	0.258
-470.216	67.173	0.096	-0.098
-469.201	49.089	0.205	0.192
-468.186	230.426	-0.036	-0.059
-467.172	-158.396	-0.075	0.004
-466.157	340.407	0.083	0.161
-465.143	-144.378	-0.210	-0.019
-464.128	-200.000	-0.001	-0.234
-463.113	-108.102	0.268	0.058
-462.099	6.488	-0.233	-0.173
-461.084	274.119	-0.156	-0.275
-460.070	-200.000	-0.027	0.158
-459.055	-102.168	-0.254	-0.061
-458.040	111.501	0.139	0.168
-457.026	-200.000	0.047	0.258
-456.011	800.000	-0.042	-0.117
-454.997	-73.560	-0.156	-0.057
-453.982	35.767	-0.153	0.134
-452.968	103.835	0.045	0.053
-451.953	-12.634	-0.261	0.170
-450.938	800.000	0.013	-0.055
-449.924	-63.867	0.155	0.063
-448.909	-129.054	-0.277	-0.039
-447.895	-102.473	0.347	0.083
-446.880	13.904	-0.122	-0.094
-445.865	-200.000	-0.010	0.087
-444.851	74.068	-0.237	-0.248
-443.836	-124.363	0.345	0.054
-442.822	800.000	0.073	0.313
-441.807	655.757	0.040	0.102
-440.792	-200.000	0.022	0.103
-439.778	10.702	0.178	0.136
-438.763	-200.000	0.002	0.216
-437.749	-24.893	-0.126	0.074
-436.734	-174.144	-0.174	0.005
-435.719	800.000	-0.107	-0.436
-434.705	-61.455	0.046	0.019
-433.690	32.315	0.271	0.233
-432.676	-125.543	0.351	-0.053
-431.661	138.367	-0.056	0.073
-430.646	292.230	0.162	0.294
-429.632	348.719	0.210	-0.412
-428.617	-147.691	-0.211	-0.018
-427.603	-200.000	-0.008	-0.059
-426.588	177.007	0.149	-0.216
-425.573	10.824	-0.376	-0.286
-424.559	594.295	-0.150	-0.370
-423.544	-103.944	0.156	-0.036
-422.530	0.383	0.141	0.101
-421.515	-57.698	0.342	-0.149
-420.500	-28.122	-0.240	0.139
-419.486	138.139	-0.217	0.284
-418.471	8.109	0.140	-0.105
-417.457	-28.122	0.240	-0.138
-416.442	-200.000	-0.048	-0.393
-415.428	800.000	0.070	-0.205
-414.413	800.000	-0.072	-0.259
-413.398	388.224	0.042	0.086
-412.384	785.961	0.079	0.217
-411.369	-200.000	-0.021	-0.263
-410.355	433.659	0.038	-0.082
-409.340	-27.973	-0.209	-0.121
-408.325	-61.990	0.408	-0.170
-407.311	-76.232	-0.355	-0.124
-406.296	-65.635	-0.238	0.095
-405.282	225.274	0.066	0.107
-404.267	105.330	-0.060	-0.070
-403.252	605.912	-0.075	-0.187
-402.238	-196.281	-0.366	-0.003
-401.223	88.132	-0.113	-0.125
-400.209	741.313	0.059	0.158
-399.194	195.450	0.030	0.045
-398.179	-139.153	-0.258	0.028
-397.165	44.194	0.219	0.200
-396.150	-59.160	-0.211	0.090
-395.136	-200.000	-0.016	0.189
-394.121	236.447	0.122	0.201
-393.106	-19.748	-0.094	0.058
-392.092	800.000	0.011	-0.031
-391.077	59.034	-0.114	-0.112
-390.063	-158.224	0.243	0.014
-389.048	-5.994	-0.150	0.102
-388.033	58.338	0.123	-0.120
-387.019	-18.675	0.151	0.094
-386.004	-200.000	-0.046	0.351
-384.990	800.000	0.118	-0.327
-383.975	143.555	-0.054	0.071
-382.960	736.393	0.080	0.215
-381.946	-31.850	-0.414	-0.231
-380.931	-3.222	0.171	-0.118
-379.917	-200.000	-0.034	0.269
-378.902	-2.714	-0.072	0.050
-377.888	-200.000	0.008	0.255
-376.873	52.466	0.343	-0.326
-375.858	2.934	0.281	0.203
-374.844	26.419	-0.209	0.174
-373.829	800.000	-0.019	-0.069
-372.815	-71.905	0.333	0.123
-371.800	224.419	-0.119	-0.192
-370.785	-97.603	-0.302	0.078
-369.771	166.879	-0.035	-0.049
-368.756	193.792	-0.135	0.204
-367.742	-200.000	0.029	-0.197
-366.727	121.068	-0.071	0.088
-365.712	298.552	0.041	-0.076
-364.698	-200.000	0.005	-0.050
-363.683	-123.856	0.099	0.016
-362.669	-200.000	-0.069	0.386
-361.654	-49.027	-0.201	0.096
-360.639	800.000	-0.026	0.097
-359.625	-36.573	0.382	-0.204
-358.610	194.689	-0.080	-0.120
-357.596	77.643	0.290	0.307
-356.581	592.681	-0.043	-0.106
-355.566	-27.912	0.147	-0.085
-354.552	-145.444	0.419	-0.037
-353.537	135.026	-0.204	0.264
-352.523	-200.000	0.008	0.146
-351.508	-124.361	0.298	-0.046
-350.493	-139.779	-0.063	0.007
-349.479	-152.223	-0.221	0.016
-348.464	-53.272	0.260	-0.119
-347.450	433.024	-0.008	0.018
-346.435	-200.000	0.027	0.227
-345.420	800.000	-0.054	0.159
-344.406	63.128	-0.255	-0.254
-343.391	-19.400	0.282	-0.174
-342.377	179.251	0.137	0.199
-341.362	-106.573	0.181	0.040
-340.348	-200.000	0.022	-0.262
-339.333	-200.000	-0.024	-0.137
-338.318	-200.000	0.007	-0.187
-337.304	185.782	-0.342	-0.505
-336.289	422.647	-0.120	-0.257
-335.275	-47.841	0.188	-0.090
-334.260	70.176	-0.095	0.097
-333.245	514.301	0.065	0.150
-332.231	99.259	0.239	0.274
-331.216	-15.603	0.211	-0.134
-330.202	-15.878	0.139	0.088
-329.187	-128.291	-0.122	0.017
-328.172	-200.000	0.011	0.160
-327.158	-154.662	0.191	0.013
-326.143	-47.493	-0.410	-0.198
-325.129	-99.907	0.046	0.011
-324.114	-14.068	-0.246	0.158
-323.099	203.751	0.259	0.398
-322.085	251.556	0.121	0.204
-321.070	-65.454	0.186	-0.074
-320.056	800.000	-0.094	-0.389
-319.041	-17.725	-0.108	-0.067
-318.026	252.990	-0.183	-0.310
-317.012	43.630	0.224	0.203
-315.997	234.425	-0.093	0.152
-314.983	-152.520	0.268	0.019
-313.968	-144.092	-0.301	-0.028
-312.953	304.706	0.127	-0.234
-311.939	-200.000	0.059	0.316
-310.924	-114.095	0.109	-0.021
-309.910	-200.000	0.028	-0.204
-308.895	-190.279	0.219	0.002
-307.880	20.873	0.253	-0.203
-306.866	-63.350	0.121	0.049
-305.851	-200.000	-0.057	-0.314
-304.837	-65.671	0.214	0.085
-303.822	-62.800	0.244	0.100
-302.807	126.747	0.104	-0.131
-301.793	800.000	0.110	0.471
-300.778	214.007	0.195	-0.307
-299.764	-34.619	0.225	0.122
-298.749	315.749	0.130	0.243
-297.735	-36.692	0.342	0.182
-296.720	-153.696	-0.129	0.009
-295.705	-119.302	0.171	-0.029
-294.691	-147.072	0.236	-0.020
-293.676	-200.000	-0.054	0.284
-292.662	-1.008	0.129	-0.091
-291.647	800.000	0.049	-0.163
-290.632	159.097	-0.091	0.125
-289.618	-73.161	0.213	0.077
-288.603	385.234	0.122	0.250
-287.589	26.322	0.147	-0.122
-286.574	62.385	-0.239	-0.237
-285.559	-85.055	0.169	-0.052
-284.545	-48.342	0.192	0.092
-283.530	9.828	-0.154	-0.116
-282.516	-9.997	-0.114	-0.075
-281.501	120.027	-0.097	-0.119
-280.486	125.339	-0.177	-0.222
-279.472	800.000	-0.071	0.303
-278.457	467.186	0.029	0.065
-277.443	-200.000	0.019	-0.087
-276.428	-51.559	-0.125	0.058
-275.413	800.000	0.082	-0.263
-274.399	-124.148	0.081	0.013
-273.384	800.000	0.071	0.210
-272.370	-131.056	0.090	-0.012
-271.355	-42.490	0.128	0.065
-270.340	800.000	-0.086	-0.325
-269.326	-184.409	-0.113	-0.002
-268.311	121.488	0.173	0.213
-267.297	192.139	-0.153	-0.228
-266.282	466.642	-0.103	0.229
-265.267	0.619	-0.153	0.109
-264.253	463.401	-0.107	0.236
-263.238	-126.011	0.119	0.018
-262.224	-8.326	-0.023	0.015
-261.209	-36.388	0.291	0.155
-260.195	-7.796	-0.196	-0.131
-259.180	131.701	0.116	0.148
-258.165	-124.842	0.095	0.015
-257.151	-48.311	0.100	0.048
-256.136	12.519	-0.178	-0.136
-255.122	-110.948	-0.029	-0.006
-254.107	800.000	0.018	0.052
-253.092	101.173	0.041	-0.047
-252.078	-101.979	-0.127	0.030
-251.063	137.609	-0.154	0.200
-250.049	-50.275	0.036	0.017
-249.034	611.378	0.098	0.243
-248.019	114.691	0.117	0.142
-247.005	62.664	0.175	-0.173
-245.990	67.935	-0.299	0.302
-244.976	-76.791	0.246	0.085
-243.961	-56.360	0.191	0.084
-242.946	445.600	-0.096	0.208
-241.932	-200.000	-0.050	0.269
-240.917	398.092	-0.067	-0.139
-239.903	-200.000	-0.022	0.304
-238.888	-115.533	0.185	0.034
-237.873	259.534	-0.183	0.312
-236.859	-200.000	0.003	-0.052
-235.844	800.000	0.129	-0.359
-234.830	-0.071	-0.208	-0.146
-233.815	-96.639	-0.227	0.059
-232.800	-5.731	-0.105	-0.071
-231.786	-29.061	0.195	0.111
-230.771	335.046	-0.097	-0.186
-229.757	-200.000	-0.000	0.179
-228.742	73.555	0.061	-0.063
-227.727	-58.185	0.216	0.093
-226.713	-44.573	0.078	-0.039
-225.698	-200.000	0.003	-0.159
-224.684	-200.000	-0.053	0.311
-223.669	-200.000	0.054	-0.240
-222.655	55.444	-0.085	0.082
-221.640	-200.000	-0.014	-0.191
-220.625	-41.204	0.089	-0.045
-219.611	641.611	-0.061	0.153
-218.596	701.090	0.133	-0.347
-217.582	-134.149	-0.221	-0.027
-216.567	-200.000	-0.005	-0.148
-215.552	-89.481	0.152	0.044
-214.538	304.887	-0.138	0.254
-213.523	-9.793	0.042	0.028
-212.509	621.754	0.040	-0.099
-211.494	-4.485	-0.154	0.105
-210.479	29.381	0.100	0.084
-209.465	-150.953	-0.262	-0.020
-208.450	800.000	0.009	0.029
-207.436	166.793	-0.189	-0.265
-206.421	-200.000	-0.006	0.202
-205.406	28.995	0.095	0.080
-204.392	38.566	-0.151	0.133
-203.377	-6.904	0.142	0.096
-202.363	-106.096	-0.311	0.069
-201.348	800.000	-0.015	0.061
-200.333	51.643	-0.303	0.285
-199.319	255.264	-0.062	0.104
-198.304	-27.338	0.203	0.117
-197.290	-77.784	-0.310	-0.106
-196.275	-200.000	-0.027	0.133
-195.260	-200.000	0.008	-0.239
-194.246	-62.543	-0.302	-0.124
-193.231	800.000	-0.007	0.022
-192.217	233.942	0.173	0.282
-191.202	121.854	-0.191	0.235
-190.187	324.203	-0.037	-0.069
-189.173	-92.997	-0.143	0.040
-188.158	-200.000	0.088	0.412
-187.144	-18.517	-0.236	-0.145
-186.129	67.856	-0.128	0.129
-185.114	68.786	-0.116	-0.118
-184.100	-54.299	0.119	-0.053
-183.085	-109.731	-0.172	-0.036
-182.071	339.709	0.132	0.254
-181.056	27.438	0.162	-0.135
-180.042	21.590	0.113	0.091
-179.027	145.677	-0.286	-0.379
-178.012	-200.000	0.043	-0.283
-176.998	25.750	0.293	-0.241
-175.983	223.861	-0.281	-0.447
-174.969	-53.909	-0.201	0.090
-173.954	719.220	0.151	-0.395
-172.939	319.029	0.130	-0.244
-171.925	-117.824	0.060	-0.011
-170.910	-200.000	0.037	0.268
-169.896	-200.000	0.003	-0.230
-168.881	486.191	0.174	-0.390
-167.866	-54.421	0.240	0.107
-166.852	83.252	0.080	-0.086
-165.837	-107.044	0.175	-0.038
-164.823	298.369	-0.148	-0.269
-163.808	800.000	0.046	-0.128
-162.793	-68.146	-0.139	-0.053
-161.779	-7.727	0.120	0.080
-160.764	67.871	-0.185	0.187
-159.750	384.347	0.052	0.106
-158.735	-200.000	0.025	-0.179
-157.720	61.192	-0.342	0.335
-156.706	-57.717	-0.319	0.138
-155.691	-18.314	0.337	-0.208
-154.677	57.037	-0.340	0.327
-153.662	-200.000	0.026	0.148
-152.647	800.000	0.031	0.117
-151.633	-123.679	0.182	0.028
-150.618	-64.030	-0.251	-0.101
-149.604	320.855	0.020	-0.037
-148.589	-37.439	0.286	0.151
-147.574	-61.237	0.079	0.033
-146.560	-200.000	0.045	-0.229
-145.545	161.768	-0.221	-0.306
-144.531	-30.558	0.397	0.222
-143.516	-0.554	0.157	-0.110
-142.502	15.707	0.162	0.125
-141.487	3.812	-0.346	-0.249
-140.472	-138.777	0.225	-0.024
-139.458	63.266	0.066	-0.065
-138.443	800.000	0.039	0.154
-137.429	-200.000	0.012	-0.291
-136.414	75.851	0.245	-0.256
-135.399	-200.000	-0.049	-0.490
-134.385	16.906	-0.061	-0.048
-133.370	-200.000	-0.000	-0.441
-132.356	-33.347	0.081	0.044
-131.341	-61.283	-0.232	-0.096
-130.326	-200.000	-0.029	-0.247
-129.312	-200.000	0.012	0.185
-128.297	176.149	0.126	0.181
-127.283	-48.314	0.069	0.033
-126.268	508.772	-0.073	0.167
-125.253	-84.669	-0.290	-0.090
-124.239	215.657	0.042	0.065
-123.224	287.707	0.097	0.173
-122.210	526.454	-0.161	0.373
-121.195	108.476	-0.259	-0.305
