DTS Sentinel unit serial number:	SN413079Multiplexer serial number:	ORYXHardware model number:	OX4-SRSoftware version number:	ORYX F/W v4.00 Oryx Data Collector v3.7.2.0data status	okinstallation	princeton_trtdifferential loss correction	single-endedforward channel	channel 2reverse channel	N/Adate	2019/09/11time	10:41:11forward acquisition time	60.00reverse acquisition time	0.00gamma	496.2192k internal	0.2310k external	0.2310temperature offset calibration	0.9967default loss term (dB/km)	0.3790temperature slope calibration	1.0000multiplexer offset coefficient	1.0000multiplexer slope coefficient	1.0000fibre end	0.00T internal ref (°C)	36.69T ext. ref 1 (°C)	0.15T ext. ref 2 (°C)	33.90length (m)	temperature (°C)	Stokes	anti-Stokes-747.200	-200.000	0.017	0.105
-746.185	800.000	-0.070	0.225
-745.171	453.973	0.123	-0.277
-744.156	459.285	0.146	0.330
-743.142	800.000	0.064	0.234
-742.127	156.242	0.072	0.101
-741.112	-21.238	0.235	0.146
-740.098	741.061	0.049	0.135
-739.083	32.694	-0.073	-0.064
-738.069	24.091	-0.242	0.203
-737.054	-2.652	-0.235	0.167
-736.039	115.881	-0.032	-0.039
-735.025	39.446	-0.167	0.152
-734.010	-138.952	-0.086	0.010
-732.996	62.226	-0.040	-0.040
-731.981	-144.243	-0.379	0.036
-730.966	-94.012	-0.303	-0.084
-729.952	-20.715	0.041	0.025
-728.937	563.243	-0.156	-0.384
-727.923	-80.674	-0.249	0.084
-726.908	-57.849	-0.315	0.140
-725.894	4.608	-0.130	-0.097
-724.879	-77.173	0.098	0.035
-723.864	-83.024	0.178	-0.058
-722.850	54.640	0.152	-0.149
-721.835	-17.322	0.111	-0.071
-720.821	-98.070	0.267	0.070
-719.806	800.000	0.071	-0.229
-718.791	381.261	0.104	-0.217
-717.777	-14.061	-0.291	0.190
-716.762	692.943	-0.101	-0.268
-715.748	-11.133	-0.128	-0.086
-714.733	800.000	-0.053	0.171
-713.718	101.223	0.209	0.247
-712.704	63.686	-0.170	-0.173
-711.689	-60.085	-0.092	-0.040
-710.675	-200.000	0.009	-0.093
-709.660	-113.934	0.198	0.039
-708.645	-144.572	-0.117	-0.011
-707.631	348.055	0.118	0.237
-706.616	800.000	0.089	-0.339
-705.602	277.569	-0.061	0.111
-704.587	-170.878	0.176	0.006
-703.572	-185.323	-0.121	-0.002
-702.558	800.000	0.104	-0.440
-701.543	-200.000	0.002	0.025
-700.529	143.334	0.113	-0.153
-699.514	-175.141	-0.289	-0.008
-698.499	-116.981	-0.219	0.041
-697.485	207.879	0.104	-0.164
-696.470	350.743	0.150	-0.300
-695.456	171.526	0.016	-0.023
-694.441	-64.939	0.165	-0.068
-693.426	-116.032	-0.427	0.081
-692.412	-200.000	0.067	-0.424
-691.397	-53.344	0.235	0.109
-690.383	-15.934	0.059	0.038
-689.368	-100.053	-0.252	-0.064
-688.354	-94.981	0.182	0.050
-687.339	756.836	0.059	0.161
-686.324	256.107	-0.078	-0.136
-685.310	63.267	0.064	-0.065
-684.295	-111.903	-0.070	0.014
-683.281	-154.624	0.243	-0.016
-682.266	-200.000	-0.012	-0.132
-681.251	10.638	0.089	0.069
-680.237	-8.841	0.362	0.246
-679.222	553.085	0.067	0.164
-678.208	510.884	0.086	0.202
-677.193	-200.000	0.019	-0.200
-676.178	-54.008	0.300	0.138
-675.164	711.618	-0.051	0.137
-674.149	-119.635	0.061	-0.011
-673.135	175.464	0.122	-0.180
-672.120	-61.162	0.252	-0.107
-671.105	800.000	-0.030	-0.092
-670.091	-102.860	0.188	-0.045
-669.076	-145.780	-0.171	-0.015
-668.062	-120.881	-0.322	-0.055
-667.047	-182.267	0.395	0.007
-666.032	84.812	0.049	-0.054
-665.018	-95.991	-0.047	-0.013
-664.003	40.947	0.042	0.039
-662.989	155.645	0.056	0.078
-661.974	-34.531	0.143	0.079
-660.959	-128.806	-0.140	-0.020
-659.945	-29.622	-0.160	0.092
-658.930	252.625	-0.092	0.159
-657.916	800.000	-0.072	-0.246
-656.901	260.496	0.290	-0.507
-655.886	-95.175	0.306	-0.084
-654.872	153.407	0.199	-0.275
-653.857	60.018	0.072	-0.072
-652.843	-30.657	-0.242	0.139
-651.828	599.713	-0.072	-0.181
-650.814	465.899	-0.194	-0.439
-649.799	-200.000	-0.008	-0.155
-648.784	-200.000	0.011	-0.232
-647.770	-90.212	-0.102	0.030
-646.755	-200.000	0.029	-0.454
-645.741	800.000	-0.072	-0.279
-644.726	-200.000	0.043	-0.317
-643.711	-200.000	-0.002	-0.246
-642.697	800.000	0.078	0.278
-641.682	-200.000	-0.012	0.431
-640.668	-120.126	0.229	0.040
-639.653	-26.257	-0.191	-0.114
-638.638	800.000	0.029	0.113
-637.624	-16.329	-0.187	0.120
-636.609	-109.312	-0.069	0.015
-635.595	135.138	0.195	-0.256
-634.580	-42.772	-0.333	0.171
-633.565	-48.292	0.194	0.094
-632.551	800.000	-0.112	-0.429
-631.536	-13.229	-0.083	0.055
-630.522	240.531	0.054	-0.091
-629.507	49.217	-0.090	0.085
-628.492	75.694	0.057	0.061
-627.478	507.236	-0.114	-0.268
-626.463	-200.000	0.023	-0.527
-625.449	-22.522	-0.181	0.111
-624.434	314.320	0.082	0.157
-623.419	800.000	-0.059	-0.215
-622.405	800.000	0.029	-0.114
-621.390	-23.630	-0.277	-0.168
-620.376	-173.290	-0.257	0.008
-619.361	-81.524	0.267	0.089
-618.346	800.000	0.096	-0.352
-617.332	42.737	0.220	-0.203
-616.317	230.642	0.036	-0.060
-615.303	-200.000	-0.034	-0.182
-614.288	398.354	-0.070	0.148
-613.273	257.620	-0.054	0.094
-612.259	74.132	0.129	-0.137
-611.244	-64.907	-0.310	0.127
-610.230	-124.299	-0.233	-0.037
-609.215	-200.000	-0.013	-0.355
-608.201	800.000	0.065	-0.206
-607.186	-66.250	-0.195	0.078
-606.171	-64.837	0.500	-0.205
-605.157	-50.103	-0.240	0.115
-604.142	-200.000	0.006	0.132
-603.128	5.412	0.090	0.067
-602.113	-158.297	-0.201	-0.012
-601.098	280.449	-0.058	-0.105
-600.084	800.000	-0.024	-0.093
-599.069	27.810	-0.044	0.037
-598.055	407.702	0.118	-0.253
-597.040	281.692	-0.133	-0.242
-596.025	800.000	0.127	-0.375
-595.011	-200.000	0.000	0.049
-593.996	-49.405	-0.047	-0.022
-592.982	800.000	-0.079	-0.229
-591.967	-155.184	-0.107	-0.007
-590.952	63.897	0.080	-0.081
-589.938	-200.000	0.068	-0.340
-588.923	185.467	-0.115	-0.173
-587.909	-61.553	0.322	0.136
-586.894	-37.395	-0.262	0.141
-585.879	-63.520	0.290	0.120
-584.865	-95.776	0.184	-0.050
-583.850	-95.279	0.169	-0.046
-582.836	-24.822	0.159	-0.095
-581.821	-122.461	0.190	-0.031
-580.806	-81.397	0.427	-0.142
-579.792	115.478	0.235	0.289
-578.777	-80.440	0.095	-0.032
-577.763	-110.591	0.019	-0.004
-576.748	-200.000	0.272	0.001
-575.733	-110.575	-0.205	-0.043
-574.719	-200.000	0.016	0.216
-573.704	229.325	0.020	0.032
-572.690	-8.313	0.184	0.125
-571.675	334.890	-0.079	-0.155
-570.661	800.000	0.056	0.187
-569.646	135.608	0.074	-0.097
-568.631	-95.447	0.310	-0.084
-567.617	137.101	0.030	0.039
-566.602	-200.000	-0.010	-0.156
-565.588	788.303	-0.090	0.250
-564.573	-61.268	-0.081	0.034
-563.558	-200.000	-0.055	0.335
-562.544	-109.097	0.233	-0.050
-561.529	-108.460	0.183	-0.040
-560.515	25.483	-0.183	-0.154
-559.500	800.000	0.040	0.165
-558.485	43.255	-0.089	-0.082
-557.471	-52.991	0.327	-0.152
-556.456	-41.008	0.235	0.123
-555.442	-200.000	-0.029	0.188
-554.427	58.589	-0.117	0.116
-553.412	800.000	-0.080	0.250
-552.398	-200.000	-0.008	-0.084
-551.383	26.921	-0.103	0.087
-550.369	-36.545	0.173	0.094
-549.354	169.190	0.106	-0.153
-548.339	187.724	0.021	-0.031
-547.325	-200.000	-0.024	-0.144
-546.310	260.500	0.117	0.203
-545.296	-200.000	0.029	0.278
-544.281	21.936	-0.230	0.189
-543.266	460.652	0.076	0.171
-542.252	-200.000	0.035	0.343
-541.237	35.543	-0.024	-0.021
-540.223	-64.183	-0.182	-0.075
-539.208	-86.949	-0.298	-0.091
-538.193	-135.993	0.256	0.030
-537.179	78.100	-0.094	-0.102
-536.164	-72.095	0.193	0.072
-535.150	-131.055	-0.147	0.020
-534.135	42.334	0.134	-0.122
-533.121	-88.410	-0.253	0.076
-532.106	209.773	-0.082	-0.129
-531.091	74.111	-0.230	-0.243
-530.077	-25.942	0.109	0.065
-529.062	19.207	-0.203	0.164
-528.048	-9.868	-0.081	-0.054
-527.033	154.543	0.204	-0.283
-526.018	-35.875	0.261	0.142
-525.004	-96.159	0.060	-0.016
-523.989	463.548	-0.041	-0.091
-522.975	59.618	-0.104	0.103
-521.960	188.533	-0.045	0.068
-520.945	661.867	0.110	0.285
-519.931	800.000	0.057	-0.198
-518.916	800.000	-0.027	-0.114
-517.902	-100.183	0.125	-0.031
-516.887	80.617	-0.223	-0.242
-515.872	-111.408	-0.410	-0.084
-514.858	418.742	0.122	0.262
-513.843	-78.127	0.162	-0.056
-512.829	88.044	0.218	0.244
-511.814	-38.762	-0.156	0.083
-510.799	-200.000	-0.003	0.114
-509.785	41.846	-0.026	-0.024
-508.770	19.370	-0.176	-0.142
-507.756	-17.716	0.214	-0.135
-506.741	800.000	-0.062	-0.195
-505.726	-143.147	0.315	0.031
-504.712	-200.000	-0.037	0.310
-503.697	-89.570	-0.182	0.054
-502.683	-200.000	0.043	-0.195
-501.668	264.373	0.056	-0.098
-500.653	49.601	-0.114	-0.108
-499.639	-61.914	-0.122	0.051
-498.624	49.479	0.052	0.049
-497.610	60.693	0.145	-0.144
-496.595	84.478	-0.078	-0.086
-495.581	-200.000	-0.058	0.265
-494.566	-200.000	-0.011	-0.070
-493.551	-200.000	0.052	-0.395
-492.537	-200.000	-0.044	0.203
-491.522	-200.000	0.017	0.192
-490.508	759.803	-0.122	0.333
-489.493	-36.199	0.340	-0.184
-488.478	645.147	-0.085	0.218
-487.464	191.880	0.223	0.338
-486.449	800.000	-0.097	0.317
-485.435	130.489	0.066	-0.085
-484.420	800.000	0.119	0.330
-483.405	-154.560	-0.188	0.013
-482.391	-87.324	0.263	0.080
-481.376	253.082	-0.091	0.157
-480.362	377.958	-0.098	-0.201
-479.347	32.050	0.368	-0.319
-478.332	-26.501	-0.251	0.148
-477.318	-121.858	-0.258	-0.043
-476.303	-94.158	-0.243	-0.067
-475.289	800.000	0.120	-0.362
-474.274	-53.377	0.354	-0.163
-473.259	244.007	0.097	-0.164
-472.245	215.368	0.206	-0.328
-471.230	12.089	0.353	-0.273
-470.216	-138.873	0.079	0.009
-469.201	800.000	0.058	0.249
-468.186	-90.692	0.240	0.070
-467.172	15.107	-0.097	0.076
-466.157	800.000	-0.042	0.164
-465.143	-97.953	-0.334	0.087
-464.128	225.713	0.185	-0.301
-463.113	-200.000	0.014	-0.135
-462.099	-109.701	-0.258	0.055
-461.084	-30.256	-0.097	-0.055
-460.070	-200.000	-0.016	0.288
-459.055	170.866	0.028	0.040
-458.040	-124.034	0.259	0.041
-457.026	-83.946	0.209	-0.067
-456.011	-200.000	-0.005	-0.077
-454.997	-200.000	0.046	-0.300
-453.982	56.782	-0.109	-0.107
-452.968	-92.408	-0.082	-0.023
-451.953	26.989	0.184	0.155
-450.938	-90.331	0.443	-0.129
-449.924	460.829	-0.133	-0.298
-448.909	-21.429	0.089	0.054
-447.895	-138.690	0.144	-0.016
-446.880	-200.000	0.016	0.317
-445.865	-200.000	0.009	-0.183
-444.851	-3.264	0.088	0.061
-443.836	-36.786	-0.195	0.105
-442.822	800.000	0.047	-0.166
-441.807	-149.206	-0.108	0.009
-440.792	278.412	0.135	-0.242
-439.778	344.569	-0.087	0.171
-438.763	17.526	0.166	-0.132
-437.749	800.000	-0.094	-0.270
-436.734	172.131	-0.143	-0.206
-435.719	0.772	-0.160	0.115
-434.705	-200.000	0.020	0.178
-433.690	800.000	0.144	-0.472
-432.676	-57.757	-0.114	0.050
-431.661	-6.060	-0.352	0.242
-430.646	227.076	0.072	0.117
-429.632	19.855	0.113	0.092
-428.617	165.576	0.083	0.118
-427.603	84.927	-0.090	-0.099
-426.588	543.376	-0.132	0.315
-425.573	257.583	-0.149	0.257
-424.559	71.501	-0.216	-0.225
-423.544	46.699	0.210	-0.196
-422.530	800.000	0.051	-0.171
-421.515	-140.594	0.338	0.035
-420.500	128.435	-0.069	0.088
-419.486	-200.000	0.011	0.233
-418.471	4.631	-0.246	0.181
-417.457	-200.000	-0.038	0.295
-416.442	556.069	-0.126	0.303
-415.428	-63.531	-0.266	0.110
-414.413	-117.074	0.096	0.018
-413.398	-200.000	-0.014	-0.419
-412.384	458.007	0.092	-0.206
-411.369	24.605	0.301	0.250
-410.355	-200.000	-0.018	0.124
-409.340	-200.000	-0.039	-0.222
-408.325	800.000	0.021	0.067
-407.311	-78.591	-0.261	0.089
-406.296	477.249	0.109	0.248
-405.282	77.578	0.095	-0.101
-404.267	-200.000	0.009	-0.191
-403.252	-76.692	-0.024	0.008
-402.238	800.000	0.069	0.295
-401.223	535.822	0.058	-0.139
-400.209	-200.000	0.066	-0.302
-399.194	-56.958	0.240	-0.106
-398.179	-148.640	0.225	-0.018
-397.165	-90.183	0.446	0.130
-396.150	-101.309	-0.328	-0.080
-395.136	-200.000	-0.024	-0.210
-394.121	89.894	-0.082	0.092
-393.106	-200.000	-0.013	0.219
-392.092	72.071	-0.215	0.224
-391.077	-178.911	0.191	0.004
-390.063	74.537	0.103	-0.109
-389.048	800.000	0.071	0.303
-388.033	-200.000	-0.012	-0.356
-387.019	142.895	0.107	0.142
-386.004	160.430	-0.082	0.115
-384.990	-135.871	-0.284	0.034
-383.975	-102.556	-0.293	0.070
-382.960	11.494	-0.021	0.016
-381.946	-80.770	0.110	-0.037
-380.931	-200.000	0.029	-0.238
-379.917	-88.042	0.397	0.119
-378.902	-200.000	-0.004	0.183
-377.888	245.796	-0.041	-0.068
-376.873	263.875	-0.154	-0.269
-375.858	800.000	-0.085	-0.285
-374.844	-200.000	-0.023	0.207
-373.829	800.000	0.060	0.226
-372.815	800.000	-0.106	0.464
-371.800	-113.272	-0.202	-0.040
-370.785	-200.000	0.003	0.013
-369.771	-132.277	-0.262	0.034
-368.756	47.009	0.259	0.241
-367.742	-92.538	-0.218	0.061
-366.727	116.186	-0.156	0.191
-365.712	52.442	0.245	-0.234
-364.698	13.634	-0.149	0.116
-363.683	-130.345	0.372	0.050
-362.669	180.263	0.113	-0.166
-361.654	-200.000	0.016	0.076
-360.639	-45.754	-0.101	0.050
-359.625	-108.713	-0.205	-0.044
-358.610	-200.000	-0.008	0.078
-357.596	196.639	-0.139	-0.212
-356.581	-200.000	-0.037	0.358
-355.566	-156.146	0.174	0.011
-354.552	-23.001	-0.167	-0.100
-353.537	385.466	-0.146	-0.301
-352.523	226.848	0.021	-0.033
-351.508	172.014	-0.175	0.251
-350.493	-200.000	-0.004	-0.108
-349.479	800.000	0.104	0.378
-348.464	-130.905	-0.052	-0.007
-347.450	86.822	-0.038	0.042
-346.435	-200.000	0.002	-0.098
-345.420	-174.856	0.220	-0.006
-344.406	126.721	-0.278	0.352
-343.391	41.737	0.282	0.256
-342.377	-133.521	0.272	0.034
-341.362	-200.000	-0.012	0.216
-340.348	-24.084	-0.089	0.053
-339.333	-169.880	-0.421	-0.015
-338.318	-200.000	0.001	0.088
-337.304	-94.084	-0.423	-0.116
-336.289	234.575	-0.162	0.267
-335.275	-117.843	0.139	0.025
-334.260	-50.504	-0.171	0.080
-333.245	-4.724	0.073	-0.050
-332.231	757.663	0.046	-0.124
-331.216	-8.424	-0.045	-0.030
-330.202	-134.612	-0.219	-0.027
-329.187	-5.593	0.304	-0.209
-328.172	-10.200	0.131	-0.087
-327.158	800.000	-0.088	-0.384
-326.143	346.592	0.155	0.304
-325.129	800.000	-0.019	-0.066
-324.114	-41.970	0.173	-0.089
-323.099	-51.606	-0.024	0.011
-322.085	-87.260	0.272	0.082
-321.070	-81.118	-0.291	0.096
-320.056	-124.736	0.259	-0.040
-319.041	107.169	-0.008	0.009
-318.026	-200.000	-0.023	-0.252
-317.012	-200.000	-0.012	0.160
-315.997	-11.641	-0.089	-0.059
-314.983	22.788	-0.219	0.180
-313.968	-125.412	0.307	-0.047
-312.953	-138.131	-0.171	0.019
-311.939	153.628	-0.108	-0.148
-310.924	-200.000	0.039	0.380
-309.910	-200.000	-0.052	0.270
-308.895	-105.715	0.066	0.015
-307.880	-200.000	0.020	0.152
-306.866	149.398	0.110	-0.149
-305.851	-200.000	0.000	-0.204
-304.837	-60.043	-0.267	0.114
-303.822	-17.416	-0.247	0.155
-302.807	-200.000	0.054	-0.472
-301.793	-200.000	0.043	-0.225
-300.778	-25.882	0.199	0.117
-299.764	-126.930	-0.226	-0.033
-298.749	97.897	-0.101	0.116
-297.735	-97.146	0.243	-0.063
-296.720	63.164	0.358	-0.358
-295.705	-148.492	0.211	0.017
-294.691	800.000	-0.042	0.176
-293.676	-75.233	-0.095	-0.034
-292.662	-200.000	-0.047	-0.242
-291.647	-200.000	-0.015	0.111
-290.632	71.903	-0.159	-0.165
-289.618	-200.000	-0.039	-0.214
-288.603	-47.872	-0.047	0.023
-287.589	-156.275	0.198	-0.012
-286.574	366.007	0.130	0.261
-285.559	-200.000	-0.043	0.218
-284.545	800.000	-0.019	0.058
-283.530	-42.138	0.209	0.107
-282.516	7.833	0.207	0.155
-281.501	-60.507	0.173	-0.074
-280.486	-200.000	0.013	0.095
-279.472	-103.955	-0.358	0.083
-278.457	77.193	-0.184	-0.195
-277.443	386.808	0.032	-0.065
-276.428	-130.574	-0.209	0.028
-275.413	-132.429	-0.006	0.001
-274.399	109.770	-0.060	-0.072
-273.384	-39.447	0.286	0.150
-272.370	59.769	-0.145	-0.143
-271.355	35.219	0.117	0.103
-270.340	-55.291	0.067	-0.030
-269.326	-23.827	-0.185	0.110
-268.311	800.000	0.009	-0.032
-267.297	280.828	-0.160	-0.285
-266.282	295.272	0.181	0.330
-265.267	87.180	-0.087	-0.096
-264.253	484.351	-0.119	-0.271
-263.238	146.725	-0.132	0.177
-262.224	125.008	0.071	0.089
-261.209	-112.245	0.118	-0.024
-260.195	800.000	-0.085	0.319
-259.180	-159.060	0.285	0.016
-258.165	87.773	-0.289	0.319
-257.151	-39.609	0.184	-0.096
-256.136	620.651	0.034	0.086
-255.122	376.256	-0.145	-0.294
-254.107	68.006	0.110	0.113
-253.092	-200.000	0.007	0.247
-252.078	2.561	0.133	0.096
-251.063	482.350	0.073	0.166
-250.049	-124.951	-0.093	-0.014
-249.034	-107.463	0.297	0.065
-248.019	130.593	-0.192	0.245
-247.005	-68.561	-0.355	-0.137
-245.990	-15.491	0.144	-0.092
-244.976	-200.000	-0.039	-0.207
-243.961	-200.000	0.041	0.192
-242.946	-15.970	-0.276	-0.175
-241.932	705.211	-0.096	0.252
-240.917	196.947	0.099	-0.150
-239.903	602.143	0.105	0.261
-238.888	-200.000	-0.005	0.282
-237.873	-94.105	-0.132	-0.036
-236.859	562.689	-0.083	-0.201
-235.844	-200.000	-0.030	-0.167
-234.830	88.905	-0.243	0.270
-233.815	-1.842	-0.115	-0.081
-232.800	-46.113	0.211	-0.103
-231.786	145.965	0.109	0.145
-230.771	-200.000	-0.000	-0.375
-229.757	-200.000	-0.033	-0.170
-228.742	800.000	-0.011	0.036
-227.727	-154.661	0.130	0.009
-226.713	-74.670	-0.245	0.088
-225.698	-94.988	0.214	-0.057
-224.684	-84.718	-0.175	0.055
-223.669	-142.208	0.221	0.022
-222.655	130.120	0.146	0.186
-221.640	-200.000	0.036	-0.166
-220.625	311.505	0.018	0.034
-219.611	36.975	-0.061	0.053
-218.596	35.153	-0.084	0.073
-217.582	83.219	0.206	0.223
-216.567	-63.139	0.106	0.044
-215.552	-85.805	-0.293	-0.090
-214.538	-200.000	-0.005	-0.228
-213.523	-36.085	-0.317	0.171
-212.509	-181.627	0.218	0.004
-211.494	196.307	0.144	-0.218
-210.479	800.000	0.053	-0.206
-209.465	-154.878	0.128	-0.008
-208.450	-200.000	0.030	-0.251
-207.436	-59.470	0.247	-0.106
-206.421	8.898	0.225	0.169
-205.406	-200.000	0.050	0.252
-204.392	442.938	0.072	0.158
-203.377	-106.738	0.070	-0.015
-202.363	-64.427	-0.265	0.107
-201.348	24.933	-0.232	0.192
-200.333	194.822	0.139	-0.210
-199.319	239.108	-0.086	0.142
-198.304	-55.236	-0.172	0.077
-197.290	-178.396	0.130	0.003
-196.275	761.909	-0.079	-0.214
-195.260	-200.000	0.040	-0.193
-194.246	755.549	0.064	-0.172
-193.231	642.692	-0.078	-0.197
-192.217	-67.457	0.243	-0.095
-191.202	-200.000	-0.002	-0.216
-190.187	321.315	-0.158	-0.299
-189.173	137.364	0.186	-0.242
-188.158	750.909	0.032	0.087
-187.144	173.509	0.050	-0.072
-186.129	-76.466	-0.377	0.132
-185.114	-178.723	-0.073	0.002
-184.100	257.188	-0.140	0.239
-183.085	444.679	-0.147	0.321
-182.071	-200.000	0.065	-0.301
-181.056	-56.732	-0.126	-0.055
-180.042	410.971	-0.102	0.215
-179.027	-48.330	-0.185	-0.089
-178.012	800.000	-0.093	0.280
-176.998	-200.000	0.010	0.211
-175.983	139.120	0.150	-0.197
-174.969	800.000	-0.088	0.333
-173.954	-200.000	-0.020	0.359
-172.939	420.315	-0.023	0.049
-171.925	41.980	-0.124	-0.111
-170.910	-200.000	-0.016	0.077
-169.896	-4.175	-0.190	-0.131
-168.881	146.179	0.208	0.278
-167.866	-89.659	-0.206	-0.060
-166.852	-23.503	-0.069	-0.041
-165.837	358.000	0.022	0.043
-164.823	-59.931	0.128	-0.054
-163.808	-140.730	0.070	-0.007
-162.793	110.162	-0.181	0.215
-161.779	25.040	0.191	0.157
-160.764	-67.728	-0.034	0.013
-159.750	53.107	-0.076	-0.072
-158.735	-36.386	-0.198	0.106
-157.720	-200.000	-0.003	0.093
-156.706	190.584	-0.066	0.098
-155.691	-11.518	-0.149	0.097
-154.677	-24.892	-0.411	-0.242
-153.662	195.008	-0.290	-0.437
-152.647	-10.950	0.188	-0.123
-151.633	-111.235	-0.024	0.005
-150.618	237.220	-0.170	-0.280
-149.604	-75.161	0.106	0.038
-148.589	-102.919	0.229	-0.054
-147.574	-129.944	-0.218	-0.030
-146.560	800.000	-0.071	-0.201
-145.545	-200.000	0.059	-0.292
-144.531	-155.761	-0.290	0.018
-143.516	-200.000	0.075	0.445
-142.502	-200.000	0.070	-0.356
-141.487	-36.786	0.265	-0.141
-140.472	-200.000	0.020	0.189
-139.458	-55.952	0.129	0.057
-138.443	800.000	0.093	0.316
-137.429	-21.232	0.028	-0.017
-136.414	785.223	0.024	0.066
-135.399	8.605	-0.229	0.171
-134.385	235.720	-0.075	-0.122
-133.370	-200.000	0.030	0.152
-132.356	-44.038	-0.195	0.097
-131.341	-200.000	0.008	-0.048
-130.326	154.042	0.120	-0.163
-129.312	349.675	-0.026	-0.052
-128.297	-200.000	-0.004	0.162
-127.283	8.772	-0.210	-0.157
-126.268	666.896	0.150	-0.383
-125.253	-77.115	0.178	-0.062
-124.239	-86.576	0.362	0.110
-123.224	-10.019	0.075	-0.049
-122.210	152.639	-0.101	0.137
-121.195	-200.000	-0.014	0.073
