DTS Sentinel unit serial number:	SN413079Multiplexer serial number:	ORYXHardware model number:	OX4-SRSoftware version number:	ORYX F/W v4.00 Oryx Data Collector v3.7.2.0data status	okinstallation	princeton_trtdifferential loss correction	single-endedforward channel	channel 2reverse channel	N/Adate	2019/09/11time	07:37:10forward acquisition time	60.00reverse acquisition time	0.00gamma	496.2192k internal	0.2326k external	0.2326temperature offset calibration	0.9938default loss term (dB/km)	0.3790temperature slope calibration	1.0000multiplexer offset coefficient	1.0000multiplexer slope coefficient	1.0000fibre end	0.00T internal ref (°C)	31.31T ext. ref 1 (°C)	-0.03T ext. ref 2 (°C)	27.81length (m)	temperature (°C)	Stokes	anti-Stokes-747.200	-113.097	0.301	0.060
-746.185	800.000	0.063	0.231
-745.171	-162.159	0.217	0.011
-744.156	-200.000	0.018	0.083
-743.142	-155.538	-0.173	0.011
-742.127	-34.873	-0.307	-0.169
-741.112	-200.000	0.001	-0.075
-740.098	-84.478	-0.245	-0.078
-739.083	-35.706	-0.124	0.068
-738.069	-144.024	0.192	-0.018
-737.054	580.543	0.041	-0.101
-736.039	572.226	-0.058	-0.143
-735.025	800.000	-0.113	0.363
-734.010	1.576	-0.247	-0.179
-732.996	-72.015	-0.152	0.057
-731.981	-200.000	0.013	-0.203
-730.966	-159.268	0.146	0.008
-729.952	-28.275	-0.217	-0.126
-728.937	-56.782	-0.373	-0.166
-727.923	-166.289	-0.373	-0.016
-726.908	81.419	-0.277	0.301
-725.894	486.209	0.062	0.142
-724.879	-44.989	-0.239	-0.120
-723.864	149.772	-0.199	-0.272
-722.850	-77.375	-0.256	-0.090
-721.835	110.460	0.062	-0.075
-720.821	-105.854	0.423	-0.096
-719.806	-60.914	-0.314	0.134
-718.791	800.000	-0.095	0.333
-717.777	58.406	-0.184	-0.182
-716.762	67.815	-0.183	0.188
-715.748	-71.424	0.053	-0.020
-714.733	800.000	-0.110	-0.310
-713.718	61.858	-0.204	0.205
-712.704	9.688	0.126	-0.096
-711.689	78.479	0.264	-0.284
-710.675	50.916	0.152	-0.145
-709.660	152.035	-0.105	-0.145
-708.645	74.424	-0.206	-0.218
-707.631	163.123	-0.162	-0.230
-706.616	-102.468	-0.223	-0.054
-705.602	41.576	-0.286	0.261
-704.587	-200.000	-0.009	-0.108
-703.572	-200.000	-0.045	-0.230
-702.558	117.759	0.121	0.149
-701.543	208.453	-0.090	0.141
-700.529	133.708	-0.187	0.244
-699.514	-43.100	-0.101	0.051
-698.499	37.522	0.101	-0.090
-697.485	290.544	-0.067	0.122
-696.470	136.218	-0.138	0.181
-695.456	740.227	0.074	-0.201
-694.441	649.274	-0.108	-0.278
-693.426	-99.783	0.240	-0.060
-692.412	-130.481	-0.303	-0.041
-691.397	-138.010	-0.177	0.020
-690.383	-200.000	0.101	-0.492
-689.368	-11.684	0.099	-0.066
-688.354	-52.444	-0.160	0.074
-687.339	-95.367	0.128	-0.035
-686.324	-63.136	0.090	0.037
-685.310	-200.000	0.010	0.241
-684.295	68.040	-0.235	0.242
-683.281	-200.000	0.022	0.136
-682.266	147.036	-0.195	0.264
-681.251	321.384	0.218	0.418
-680.237	-77.411	-0.215	-0.075
-679.222	115.294	0.220	0.270
-678.208	132.918	0.171	0.222
-677.193	-150.895	0.271	0.021
-676.178	450.312	-0.061	0.135
-675.164	-35.246	0.171	-0.094
-674.149	-116.717	0.118	-0.022
-673.135	-200.000	0.005	-0.405
-672.120	-200.000	-0.031	-0.140
-671.105	-94.876	0.285	0.078
-670.091	-200.000	-0.007	-0.338
-669.076	38.472	0.410	-0.367
-668.062	-41.991	0.321	-0.165
-667.047	800.000	-0.048	-0.159
-666.032	-41.630	0.440	-0.228
-665.018	57.248	-0.166	0.163
-664.003	-20.186	-0.215	-0.133
-662.989	153.886	0.235	0.324
-661.974	-200.000	0.026	0.130
-660.959	98.237	0.096	0.112
-659.945	474.555	-0.205	0.464
-658.930	-131.378	0.076	0.010
-657.916	-200.000	0.011	0.129
-656.901	27.685	0.133	0.113
-655.886	-78.501	0.160	-0.055
-654.872	-21.581	-0.054	-0.033
-653.857	-159.689	-0.236	-0.013
-652.843	-83.140	0.250	-0.081
-651.828	-76.727	0.147	0.052
-650.814	0.377	-0.209	-0.150
-649.799	-63.910	0.166	-0.068
-648.784	-19.968	-0.329	-0.204
-647.770	133.770	-0.092	-0.120
-646.755	30.402	-0.072	-0.062
-645.741	800.000	-0.080	0.305
-644.726	-9.601	-0.301	0.202
-643.711	-2.132	-0.127	-0.090
-642.697	-120.152	-0.287	-0.049
-641.682	-42.305	-0.292	0.150
-640.668	800.000	-0.054	-0.151
-639.653	-200.000	-0.020	-0.562
-638.638	-162.868	-0.254	-0.012
-637.624	374.394	0.120	-0.245
-636.609	108.033	0.025	0.030
-635.595	-82.222	0.459	0.150
-634.580	118.214	0.054	-0.067
-633.565	62.489	-0.183	0.183
-632.551	279.156	-0.023	-0.042
-631.536	-200.000	0.023	-0.251
-630.522	-8.935	-0.284	-0.191
-629.507	-102.522	0.268	0.064
-628.492	415.339	0.014	0.030
-627.478	270.157	-0.167	-0.294
-626.463	118.114	0.030	0.037
-625.449	-159.701	0.201	-0.011
-624.434	-148.485	0.381	0.031
-623.419	255.937	0.224	0.385
-622.405	171.218	-0.220	0.316
-621.390	553.976	-0.133	0.322
-620.376	517.752	-0.112	0.263
-619.361	5.213	-0.444	0.328
-618.346	-96.968	-0.063	0.017
-617.332	-130.829	-0.162	-0.022
-616.317	-130.987	-0.153	-0.020
-615.303	-200.000	0.011	-0.103
-614.288	-200.000	0.023	-0.147
-613.273	-200.000	0.054	-0.315
-612.259	-14.719	-0.056	0.036
-611.244	-94.154	-0.233	-0.064
-610.230	1.895	0.345	0.250
-609.215	-137.743	-0.178	-0.020
-608.201	-114.481	0.253	0.049
-607.186	-52.388	0.300	-0.139
-606.171	236.486	-0.188	-0.311
-605.157	-200.000	0.022	-0.126
-604.142	800.000	0.089	0.311
-603.128	800.000	0.112	-0.353
-602.113	110.545	0.068	-0.082
-601.098	-39.810	-0.383	0.200
-600.084	-56.065	-0.067	0.030
-599.069	-58.255	0.261	0.114
-598.055	126.948	0.175	-0.223
-597.040	-167.672	-0.059	0.002
-596.025	276.521	0.095	0.169
-595.011	257.685	0.035	0.061
-593.996	-200.000	0.007	0.122
-592.982	258.552	-0.115	0.199
-591.967	-50.373	-0.437	0.207
-590.952	202.998	0.081	0.125
-589.938	260.962	-0.064	0.110
-588.923	-200.000	-0.058	-0.308
-587.909	111.491	-0.209	0.253
-586.894	85.541	0.286	0.315
-585.879	800.000	0.040	0.152
-584.865	800.000	-0.046	0.162
-583.850	299.026	0.102	-0.189
-582.836	230.526	-0.032	-0.052
-581.821	-65.425	0.039	0.016
-580.806	800.000	0.065	-0.191
-579.792	-120.134	0.117	-0.020
-578.777	54.007	-0.122	0.118
-577.763	-73.980	0.208	-0.076
-576.748	142.144	0.029	0.039
-575.733	319.282	-0.143	0.271
-574.719	151.400	0.083	0.113
-573.704	800.000	-0.085	0.241
-572.690	265.013	0.216	-0.377
-571.675	800.000	0.101	0.340
-570.661	16.795	0.370	-0.294
-569.646	-200.000	-0.019	0.108
-568.631	-10.224	0.351	0.234
-567.617	-200.000	0.024	-0.368
-566.602	-200.000	0.091	-0.533
-565.588	-94.380	-0.082	-0.023
-564.573	-200.000	0.034	-0.200
-563.558	83.352	0.025	-0.027
-562.544	-200.000	0.035	0.219
-561.529	22.930	0.217	0.178
-560.515	-200.000	0.011	0.074
-559.500	-46.488	0.088	0.043
-558.485	-35.109	-0.299	-0.163
-557.471	164.546	0.188	-0.266
-556.456	-200.000	-0.028	-0.269
-555.442	-23.332	-0.233	-0.140
-554.427	-26.200	0.136	-0.080
-553.412	-108.534	0.341	0.073
-552.398	-200.000	-0.021	-0.144
-551.383	68.023	-0.199	-0.204
-550.369	-200.000	0.000	0.111
-549.354	-28.874	0.130	-0.075
-548.339	332.235	0.219	-0.424
-547.325	-8.685	0.248	-0.167
-546.310	-200.000	0.019	0.197
-545.296	411.041	0.028	0.059
-544.281	-45.301	-0.303	-0.150
-543.266	-200.000	-0.042	-0.442
-542.252	98.272	-0.192	0.222
-541.237	-200.000	0.048	0.294
-540.223	800.000	0.084	0.366
-539.208	-5.000	-0.086	-0.059
-538.193	-63.491	0.239	-0.098
-537.179	-19.892	-0.154	0.095
-536.164	800.000	0.090	-0.383
-535.150	-55.028	-0.180	0.081
-534.135	800.000	-0.046	-0.161
-533.121	-200.000	0.010	0.309
-532.106	-35.340	-0.179	0.097
-531.091	-200.000	0.039	-0.249
-530.077	-103.719	0.396	0.093
-529.062	-109.924	-0.122	0.026
-528.048	116.871	0.113	-0.139
-527.033	175.175	0.091	0.132
-526.018	243.213	-0.131	0.220
-525.004	8.260	0.060	0.045
-523.989	103.602	-0.073	0.086
-522.975	487.573	-0.047	-0.108
-521.960	-92.235	-0.343	-0.097
-520.945	104.631	0.137	0.161
-519.931	-200.000	0.061	0.315
-518.916	-13.760	-0.201	0.130
-517.902	188.560	-0.117	-0.174
-516.887	253.456	0.059	-0.100
-515.872	-167.355	-0.187	0.008
-514.858	-126.259	-0.255	-0.038
-513.843	45.592	-0.041	0.038
-512.829	3.477	0.170	-0.124
-511.814	-19.230	-0.089	-0.055
-510.799	-200.000	-0.004	0.276
-509.785	-146.333	-0.123	0.011
-508.770	-200.000	0.030	-0.246
-507.756	800.000	0.076	0.319
-506.741	-200.000	0.041	0.319
-505.726	800.000	0.073	0.314
-504.712	286.963	0.158	-0.284
-503.697	549.796	-0.080	0.192
-502.683	-166.795	-0.116	0.005
-501.668	-122.005	0.187	-0.031
-500.653	55.899	-0.149	0.144
-499.639	248.462	-0.149	-0.252
-498.624	800.000	-0.085	-0.306
-497.610	-68.639	-0.129	0.050
-496.595	156.300	-0.206	-0.285
-495.581	-200.000	0.012	-0.365
-494.566	67.422	0.095	-0.097
-493.551	-10.440	-0.097	0.064
-492.537	256.256	-0.165	-0.283
-491.522	94.805	0.125	-0.142
-490.508	-141.997	-0.382	0.038
-489.493	425.251	-0.041	-0.088
-488.478	-200.000	-0.033	0.455
-487.464	127.159	0.065	-0.083
-486.449	276.761	-0.138	-0.245
-485.435	125.901	-0.062	0.079
-484.420	-200.000	-0.056	-0.263
-483.405	-200.000	-0.036	0.211
-482.391	115.520	-0.056	0.069
-481.376	800.000	0.081	0.250
-480.362	598.724	-0.024	0.059
-479.347	-136.149	0.062	-0.007
-478.332	33.358	0.078	0.068
-477.318	76.560	0.061	0.064
-476.303	7.509	0.178	0.133
-475.289	-200.000	-0.001	-0.129
-474.274	-200.000	0.010	-0.225
-473.259	-59.394	0.157	-0.068
-472.245	739.576	0.089	-0.239
-471.230	-52.185	-0.015	-0.007
-470.216	25.696	-0.188	-0.156
-469.201	5.821	0.293	-0.216
-468.186	25.304	0.027	0.023
-467.172	-200.000	-0.022	0.113
-466.157	2.238	0.255	-0.184
-465.143	-200.000	0.011	0.257
-464.128	16.283	-0.071	0.055
-463.113	135.638	-0.236	0.306
-462.099	-144.571	-0.156	0.014
-461.084	155.894	-0.039	0.053
-460.070	241.034	-0.070	0.116
-459.055	0.950	0.175	0.125
-458.040	1.518	-0.230	0.165
-457.026	163.907	-0.215	-0.302
-456.011	-200.000	-0.011	0.136
-454.997	-22.213	0.163	-0.099
-453.982	83.132	-0.228	0.247
-452.968	-49.484	0.156	0.074
-451.953	-23.860	0.051	-0.030
-450.938	800.000	0.097	-0.321
-449.924	166.525	0.210	0.297
-448.909	-102.037	-0.139	-0.033
-447.895	-200.000	-0.027	-0.255
-446.880	800.000	0.023	-0.079
-445.865	-99.756	-0.090	0.023
-444.851	-156.100	-0.416	0.026
-443.836	71.280	0.282	0.292
-442.822	31.822	-0.168	-0.144
-441.807	800.000	0.044	-0.146
-440.792	-200.000	-0.026	-0.125
-439.778	33.607	0.176	-0.152
-438.763	-36.385	0.244	0.131
-437.749	-33.758	-0.114	0.063
-436.734	800.000	0.051	-0.197
-435.719	214.414	0.174	-0.274
-434.705	122.259	0.155	0.192
-433.690	106.927	0.213	0.252
-432.676	-85.700	0.061	0.019
-431.661	-64.947	0.069	-0.028
-430.646	44.579	0.206	0.188
-429.632	324.473	-0.093	-0.177
-428.617	-107.784	0.476	-0.103
-427.603	212.811	-0.079	-0.124
-426.588	1.712	-0.166	-0.119
-425.573	62.607	-0.042	0.042
-424.559	-115.654	0.296	0.055
-423.544	800.000	0.051	-0.154
-422.530	-120.333	0.212	0.036
-421.515	-92.120	-0.394	0.111
-420.500	-111.368	0.220	0.045
-419.486	320.100	-0.086	0.163
-418.471	163.656	0.074	0.103
-417.457	266.679	-0.208	-0.362
-416.442	-76.391	0.319	0.112
-415.428	144.553	-0.127	-0.169
-414.413	-119.611	-0.083	0.014
-413.398	253.056	-0.104	0.176
-412.384	-183.470	0.148	-0.003
-411.369	24.352	0.246	0.203
-410.355	-113.060	-0.103	-0.020
-409.340	63.480	0.187	-0.186
-408.325	-93.178	-0.338	0.094
-407.311	67.214	0.086	0.087
-406.296	-25.888	-0.167	0.098
-405.282	-99.146	-0.108	0.027
-404.267	-23.424	-0.322	0.192
-403.252	-40.923	-0.239	-0.123
-402.238	11.831	0.159	0.121
-401.223	-200.000	-0.010	0.129
-400.209	94.246	0.045	-0.051
-399.194	-200.000	0.040	0.239
-398.179	705.628	-0.013	-0.033
-397.165	36.665	0.102	-0.090
-396.150	-68.234	0.148	-0.057
-395.136	611.678	-0.174	0.434
-394.121	71.650	0.169	-0.175
-393.106	-32.699	0.071	-0.039
-392.092	-56.238	-0.222	0.098
-391.077	141.225	0.115	0.152
-390.063	171.987	0.074	0.106
-389.048	-59.617	-0.133	-0.057
-388.033	677.056	0.147	0.379
-387.019	51.585	-0.118	-0.112
-386.004	-64.140	0.201	-0.081
-384.990	108.446	0.118	-0.141
-383.975	-50.856	0.238	0.111
-382.960	-0.728	-0.155	-0.109
-381.946	143.113	-0.191	0.253
-380.931	-97.236	0.153	0.040
-379.917	45.054	-0.261	0.239
-378.902	-81.146	0.147	-0.048
-377.888	104.018	0.204	-0.239
-376.873	-200.000	0.244	0.001
-375.858	800.000	-0.075	-0.310
-374.844	-200.000	0.006	-0.238
-373.829	41.630	0.058	0.052
-372.815	132.517	-0.178	0.228
-371.800	-93.086	0.207	-0.057
-370.785	-200.000	0.036	-0.182
-369.771	800.000	0.073	-0.233
-368.756	-104.594	-0.018	-0.004
-367.742	213.006	-0.158	0.247
-366.727	90.889	0.075	-0.083
-365.712	-21.815	0.171	0.103
-364.698	288.351	-0.127	0.229
-363.683	366.760	-0.310	0.621
-362.669	-46.387	-0.038	0.019
-361.654	12.691	0.167	-0.128
-360.639	800.000	-0.092	0.279
-359.625	-129.840	-0.336	0.046
-358.610	-101.517	0.213	-0.051
-357.596	-121.128	-0.068	-0.011
-356.581	573.522	0.065	0.158
-355.566	-167.878	-0.092	-0.004
-354.552	800.000	-0.098	0.282
-353.537	-133.118	0.016	-0.002
-352.523	-147.577	0.142	-0.012
-351.508	-200.000	0.069	-0.462
-350.493	-0.326	0.282	-0.199
-349.479	-58.293	0.028	0.012
-348.464	800.000	-0.022	0.078
-347.450	-75.347	-0.075	0.027
-346.435	384.286	-0.040	0.082
-345.420	86.272	0.083	-0.090
-344.406	-200.000	0.010	0.074
-343.391	-59.332	-0.322	-0.138
-342.377	800.000	-0.106	0.405
-341.362	-2.104	0.295	0.206
-340.348	302.507	0.107	-0.197
-339.333	-200.000	0.068	0.354
-338.318	-111.126	0.181	-0.037
-337.304	64.968	-0.333	-0.334
-336.289	-196.814	-0.087	-0.001
-335.275	190.542	-0.185	-0.276
-334.260	211.583	-0.167	-0.261
-333.245	-11.143	-0.091	0.059
-332.231	463.477	-0.123	0.273
-331.216	-200.000	0.014	-0.354
-330.202	800.000	0.033	-0.139
-329.187	-53.256	0.226	0.103
-328.172	-83.794	-0.125	-0.039
-327.158	-52.697	-0.099	0.045
-326.143	-103.855	0.223	-0.052
-325.129	1.740	0.261	-0.187
-324.114	-103.193	-0.244	0.057
-323.099	-5.098	0.240	0.164
-322.085	738.052	-0.025	-0.067
-321.070	-67.944	0.097	-0.038
-320.056	-71.090	-0.380	0.142
-319.041	-200.000	0.016	0.089
-318.026	-129.990	0.100	0.014
-317.012	-21.223	-0.178	-0.108
-315.997	618.970	0.026	-0.066
-314.983	-75.816	0.135	0.047
-313.968	121.819	0.117	0.144
-312.953	67.481	-0.087	-0.088
-311.939	513.274	0.090	0.207
-310.924	33.287	-0.182	-0.157
-309.910	-44.729	-0.340	-0.168
-308.895	258.025	0.128	-0.218
-307.880	-121.405	0.383	0.063
-306.866	-200.000	0.021	-0.144
-305.851	-126.114	0.224	-0.033
-304.837	-107.925	-0.101	-0.022
-303.822	-48.619	-0.273	-0.130
-302.807	-200.000	-0.036	0.361
-301.793	-164.278	0.242	0.011
-300.778	-60.878	-0.205	-0.086
-299.764	393.402	0.097	0.201
-298.749	800.000	-0.081	-0.296
-297.735	-53.381	-0.159	-0.072
-296.720	3.962	-0.206	0.149
-295.705	-147.415	-0.127	-0.011
-294.691	-35.810	-0.246	-0.132
-293.676	38.132	0.126	0.111
-292.662	-86.319	0.316	0.096
-291.647	-143.439	-0.283	-0.027
-290.632	-47.298	0.293	-0.141
-289.618	-74.249	-0.155	0.056
-288.603	-59.799	-0.191	0.081
-287.589	359.342	-0.115	-0.228
-286.574	-1.768	-0.072	0.050
-285.559	-54.924	-0.254	-0.113
-284.545	403.431	0.064	-0.133
-283.530	-200.000	0.109	-0.000
-282.516	-86.521	-0.152	0.046
-281.501	146.766	0.170	-0.226
-280.486	83.084	0.147	0.158
-279.472	800.000	-0.171	0.528
-278.457	454.499	-0.198	0.434
-277.443	52.038	0.061	0.058
-276.428	-200.000	0.040	0.221
-275.413	-200.000	-0.004	0.096
-274.399	362.399	0.082	0.164
-273.384	115.723	-0.102	-0.124
-272.370	-56.034	0.128	0.056
-271.355	-111.357	0.207	-0.042
-270.340	207.541	-0.115	0.177
-269.326	-105.199	0.037	-0.008
-268.311	-160.603	-0.107	-0.006
-267.297	-111.651	0.247	-0.050
-266.282	-119.615	-0.213	-0.037
-265.267	72.128	-0.057	0.059
-264.253	-200.000	-0.031	-0.225
-263.238	160.150	-0.134	0.185
-262.224	-75.439	-0.133	-0.047
-261.209	-47.438	0.094	-0.045
-260.195	800.000	0.041	0.160
-259.180	18.106	0.189	0.149
-258.165	70.622	0.099	0.102
-257.151	-107.049	0.170	0.037
-256.136	211.792	-0.089	-0.138
-255.122	-111.238	0.268	-0.054
-254.107	-145.988	-0.101	0.009
-253.092	-97.968	0.114	-0.029
-252.078	137.396	-0.156	-0.202
-251.063	-6.159	-0.146	-0.099
-250.049	-200.000	0.012	0.366
-249.034	-51.054	0.072	-0.033
-248.019	-200.000	0.015	0.087
-247.005	84.654	0.264	-0.286
-245.990	-34.239	0.282	-0.153
-244.976	57.783	0.220	0.213
-243.961	-141.052	0.144	-0.015
-242.946	-200.000	-0.014	-0.123
-241.932	800.000	-0.084	0.287
-240.917	-91.375	0.374	0.106
-239.903	-164.152	-0.240	0.011
-238.888	21.003	0.207	0.166
-237.873	-22.341	0.060	0.036
-236.859	128.170	0.286	-0.360
-235.844	800.000	-0.053	-0.158
-234.830	-111.786	0.188	0.038
-233.815	-183.936	-0.510	-0.008
-232.800	-200.000	-0.029	-0.221
-231.786	7.936	-0.339	-0.251
-230.771	198.992	-0.028	-0.043
-229.757	-74.282	-0.011	0.004
-228.742	-48.549	0.130	0.062
-227.727	-57.294	0.051	-0.022
-226.713	-200.000	-0.027	-0.411
-225.698	261.154	-0.066	0.112
-224.684	-200.000	-0.001	0.014
-223.669	-27.300	-0.290	0.167
-222.655	-33.981	-0.315	0.171
-221.640	101.857	0.209	-0.241
-220.625	-200.000	0.026	-0.181
-219.611	280.837	-0.103	-0.182
-218.596	16.633	-0.114	-0.089
-217.582	134.443	-0.129	0.165
-216.567	-164.255	-0.236	0.011
-215.552	58.209	0.097	-0.094
-214.538	-200.000	0.025	-0.220
-213.523	-200.000	0.020	-0.133
-212.509	-200.000	0.048	0.000
-211.494	-176.809	-0.013	-0.000
-210.479	-54.888	-0.295	-0.131
-209.465	204.284	0.067	-0.102
-208.450	-200.000	0.013	-0.267
-207.436	-200.000	-0.014	-0.115
-206.421	-141.485	0.104	0.010
-205.406	-140.579	0.278	-0.029
-204.392	59.830	-0.125	0.122
-203.377	-32.210	0.180	0.099
-202.363	596.218	0.078	0.191
-201.348	51.849	-0.335	0.315
-200.333	621.752	-0.071	0.177
-199.319	184.335	-0.056	-0.082
-198.304	395.970	0.105	-0.216
-197.290	198.300	0.149	-0.225
-196.275	29.584	-0.112	-0.094
-195.260	-91.989	-0.257	-0.072
-194.246	800.000	0.033	0.113
-193.231	94.692	0.285	0.320
-192.217	800.000	-0.045	0.129
-191.202	150.206	-0.146	0.195
-190.187	196.705	0.058	-0.088
-189.173	-113.095	0.084	0.016
-188.158	-129.380	0.253	0.035
-187.144	-70.949	0.082	-0.031
-186.129	176.433	0.122	0.175
-185.114	2.253	0.054	-0.038
-184.100	-200.000	-0.034	0.149
-183.085	287.264	-0.094	0.167
-182.071	497.894	0.053	-0.121
-181.056	-200.000	-0.019	0.159
-180.042	49.408	0.072	-0.066
-179.027	-200.000	0.041	0.308
-178.012	56.203	0.245	0.234
-176.998	-200.000	0.022	-0.290
-175.983	-77.056	-0.355	0.122
-174.969	-49.701	0.089	0.042
-173.954	334.266	0.040	-0.075
-172.939	-200.000	-0.008	-0.157
-171.925	94.946	-0.090	-0.101
-170.910	-200.000	0.050	-0.448
-169.896	-200.000	0.049	-0.368
-168.881	-2.622	-0.178	0.123
-167.866	98.990	-0.175	-0.199
-166.852	-200.000	-0.001	-0.061
-165.837	21.235	0.104	-0.083
-164.823	-134.955	-0.056	0.007
-163.808	-165.220	0.132	-0.006
-162.793	-75.722	0.082	0.029
-161.779	-31.248	-0.096	-0.053
-160.764	-200.000	0.004	-0.021
-159.750	87.056	0.044	0.048
-158.735	800.000	-0.110	0.327
-157.720	-110.242	0.466	-0.096
-156.706	-68.792	-0.256	-0.097
-155.691	-136.418	-0.104	0.012
-154.677	439.239	0.150	-0.323
-153.662	-200.000	0.024	0.191
-152.647	179.209	0.209	0.301
-151.633	387.014	0.065	-0.132
-150.618	-99.845	-0.251	-0.062
-149.604	800.000	-0.045	0.130
-148.589	-200.000	-0.019	-0.149
-147.574	-151.987	-0.229	-0.016
-146.560	18.374	0.187	-0.147
-145.545	315.284	-0.044	0.082
-144.531	127.863	0.097	-0.122
-143.516	190.168	-0.063	0.094
-142.502	-78.810	0.248	-0.083
-141.487	268.889	-0.063	-0.108
-140.472	-89.270	0.124	0.036
-139.458	-94.275	0.292	-0.079
-138.443	-152.230	-0.172	0.012
-137.429	-179.457	-0.177	-0.004
-136.414	-30.458	0.281	0.157
-135.399	484.033	0.090	0.202
-134.385	-87.232	0.289	0.087
-133.370	-135.676	0.221	0.026
-132.356	146.222	0.141	-0.187
-131.341	-200.000	0.012	-0.079
-130.326	-127.399	0.163	-0.023
-129.312	15.068	-0.185	0.143
-128.297	800.000	-0.062	0.187
-127.283	-132.688	-0.501	-0.063
-126.268	-45.048	-0.141	0.069
-125.253	800.000	0.098	0.295
-124.239	-7.170	0.127	0.085
-123.224	238.683	-0.050	-0.083
-122.210	118.681	-0.112	-0.136
-121.195	45.342	0.165	-0.150
