DTS Sentinel unit serial number:	SN413079Multiplexer serial number:	ORYXHardware model number:	OX4-SRSoftware version number:	ORYX F/W v4.00 Oryx Data Collector v3.7.2.0data status	okinstallation	princeton_trtdifferential loss correction	single-endedforward channel	channel 2reverse channel	N/Adate	2019/09/11time	14:17:11forward acquisition time	60.00reverse acquisition time	0.00gamma	496.2192k internal	0.2291k external	0.2291temperature offset calibration	1.0009default loss term (dB/km)	0.3790temperature slope calibration	1.0000multiplexer offset coefficient	1.0000multiplexer slope coefficient	1.0000fibre end	0.00T internal ref (°C)	41.95T ext. ref 1 (°C)	0.88T ext. ref 2 (°C)	38.20length (m)	temperature (°C)	Stokes	anti-Stokes-747.200	176.856	-0.096	-0.142
-746.185	-200.000	-0.051	0.518
-745.171	181.319	-0.124	-0.186
-744.156	800.000	-0.021	-0.076
-743.142	-200.000	-0.057	-0.270
-742.127	55.887	0.205	0.204
-741.112	-19.384	0.155	-0.099
-740.098	800.000	-0.006	0.022
-739.083	208.787	0.044	0.071
-738.069	800.000	-0.059	0.223
-737.054	521.501	0.057	-0.137
-736.039	-98.548	-0.068	0.018
-735.025	239.831	0.208	0.355
-734.010	384.762	-0.081	-0.170
-732.996	505.113	-0.138	-0.326
-731.981	251.284	-0.072	-0.126
-730.966	529.476	0.038	-0.092
-729.952	136.766	-0.139	0.185
-728.937	135.348	-0.123	0.163
-727.923	-178.231	-0.170	0.004
-726.908	-12.745	0.077	0.051
-725.894	300.633	0.009	0.017
-724.879	-200.000	-0.070	-0.490
-723.864	-113.831	-0.206	-0.041
-722.850	-23.443	0.235	-0.144
-721.835	-200.000	-0.020	-0.106
-720.821	-8.829	-0.187	0.128
-719.806	-114.571	-0.066	-0.013
-718.791	-22.423	-0.128	-0.079
-717.777	-200.000	-0.030	-0.145
-716.762	-107.922	0.285	0.063
-715.748	-18.329	-0.172	0.110
-714.733	129.829	0.071	-0.093
-713.718	-200.000	0.014	-0.182
-712.704	-200.000	0.004	-0.369
-711.689	-117.346	0.277	-0.051
-710.675	118.177	-0.143	0.181
-709.660	3.585	-0.164	0.122
-708.645	800.000	0.060	-0.172
-707.631	-38.626	0.300	0.162
-706.616	-10.785	-0.284	-0.192
-705.602	-160.305	0.162	-0.009
-704.587	75.716	-0.134	-0.145
-703.572	-200.000	-0.008	0.133
-702.558	285.644	0.119	0.220
-701.543	30.855	-0.119	-0.104
-700.529	-200.000	0.047	0.292
-699.514	-135.096	-0.494	-0.061
-698.499	-32.963	0.059	-0.033
-697.485	-112.045	-0.299	0.062
-696.470	619.124	-0.031	0.081
-695.456	210.045	-0.183	-0.294
-694.441	429.798	-0.104	-0.230
-693.426	-116.213	-0.318	0.060
-692.412	-89.005	0.314	0.095
-691.397	-113.989	-0.312	0.062
-690.383	-151.663	-0.337	0.025
-689.368	62.776	-0.205	0.210
-688.354	-64.921	-0.276	-0.114
-687.339	-3.190	0.245	0.174
-686.324	121.988	0.171	0.218
-685.310	626.613	-0.166	-0.427
-684.295	800.000	0.031	0.109
-683.281	51.520	-0.155	-0.150
-682.266	-47.669	-0.125	-0.062
-681.251	800.000	0.075	-0.236
-680.237	-200.000	0.058	-0.337
-679.222	-199.158	-0.150	0.001
-678.208	108.104	-0.079	0.096
-677.193	115.077	0.217	-0.271
-676.178	-33.094	-0.075	0.043
-675.164	-121.403	0.287	-0.049
-674.149	-200.000	-0.023	0.142
-673.135	-200.000	0.079	-0.380
-672.120	-96.776	0.062	-0.017
-671.105	629.785	0.026	0.066
-670.091	-200.000	-0.032	0.182
-669.076	-200.000	0.043	0.216
-668.062	-159.030	-0.202	-0.012
-667.047	-5.747	-0.378	0.265
-666.032	-200.000	0.006	0.153
-665.018	16.878	-0.211	0.171
-664.003	69.427	0.073	0.077
-662.989	68.410	0.139	-0.145
-661.974	-123.547	-0.228	-0.037
-660.959	-94.785	-0.134	-0.037
-659.945	-173.310	0.139	0.004
-658.930	144.325	0.188	-0.256
-657.916	-200.000	0.062	-0.392
-656.901	-49.914	-0.373	-0.181
-655.886	70.439	0.102	-0.107
-654.872	-200.000	-0.003	0.257
-653.857	85.283	0.116	-0.130
-652.843	-52.293	-0.370	-0.175
-651.828	33.816	0.061	-0.054
-650.814	800.000	-0.053	0.188
-649.799	-91.989	-0.453	0.131
-648.784	800.000	0.044	-0.144
-647.770	-200.000	0.018	-0.261
-646.755	258.657	0.113	0.199
-645.741	-41.820	0.081	0.042
-644.726	-71.048	0.286	0.110
-643.711	-120.115	0.220	-0.038
-642.697	-200.000	0.009	-0.077
-641.682	51.567	-0.161	-0.156
-640.668	320.740	-0.213	-0.413
-639.653	-108.021	0.043	0.010
-638.638	-51.862	-0.308	0.146
-637.624	-93.472	-0.341	-0.096
-636.609	800.000	-0.037	0.149
-635.595	30.464	-0.219	-0.191
-634.580	-73.590	0.124	0.046
-633.565	66.631	0.188	0.195
-632.551	-200.000	-0.002	-0.091
-631.536	-200.000	0.022	-0.278
-630.522	161.682	-0.048	-0.069
-629.507	-200.000	0.009	0.158
-628.492	-142.391	-0.091	-0.009
-627.478	-2.107	-0.113	-0.081
-626.463	-81.457	0.123	0.041
-625.449	20.158	-0.261	-0.215
-624.434	572.357	0.066	-0.164
-623.419	1.038	0.092	-0.067
-622.405	-2.200	-0.172	-0.123
-621.390	-65.171	-0.377	-0.155
-620.376	17.387	-0.252	0.204
-619.361	170.045	-0.084	-0.122
-618.346	-200.000	0.067	0.334
-617.332	211.072	-0.074	0.118
-616.317	-200.000	0.059	-0.276
-615.303	3.699	0.387	0.288
-614.288	-84.942	-0.120	0.038
-613.273	-200.000	-0.001	0.213
-612.259	442.180	0.081	0.181
-611.244	800.000	0.134	-0.392
-610.230	222.292	0.152	-0.249
-609.215	56.779	-0.436	0.433
-608.201	6.757	0.313	0.238
-607.186	-125.013	-0.250	0.039
-606.171	-200.000	0.082	0.373
-605.157	257.481	-0.038	-0.066
-604.142	47.496	-0.247	0.235
-603.128	-53.526	0.019	0.009
-602.113	-60.710	0.088	-0.038
-601.098	360.977	-0.165	-0.337
-600.084	100.034	-0.189	-0.224
-599.069	524.299	0.068	0.164
-598.055	-200.000	0.031	-0.220
-597.040	-200.000	0.069	0.328
-596.025	-41.761	-0.273	-0.143
-595.011	112.610	0.042	0.051
-593.996	-89.353	0.280	-0.084
-592.982	352.665	0.128	0.258
-591.967	202.151	0.196	0.307
-590.952	-200.000	0.004	0.181
-589.938	-200.000	-0.019	0.141
-588.923	-53.343	-0.143	-0.067
-587.909	-200.000	0.002	0.283
-586.894	-138.025	0.285	0.032
-585.879	-84.810	-0.204	-0.065
-584.865	-89.195	-0.289	0.087
-583.850	161.248	0.063	-0.089
-582.836	723.993	0.027	0.072
-581.821	7.590	0.308	-0.235
-580.806	800.000	0.042	0.126
-579.792	800.000	-0.063	0.276
-578.777	176.439	0.258	0.382
-577.763	-135.684	-0.196	-0.024
-576.748	800.000	0.065	-0.185
-575.733	-119.756	0.440	-0.077
-574.719	800.000	0.041	-0.180
-573.704	-140.753	-0.084	0.009
-572.690	-71.385	0.147	-0.056
-571.675	800.000	0.100	0.371
-570.661	14.991	-0.183	0.146
-569.646	219.514	0.027	-0.044
-568.631	-58.616	0.315	0.139
-567.617	-102.244	0.210	0.051
-566.602	-140.753	-0.235	0.025
-565.588	800.000	0.151	-0.595
-564.573	-200.000	0.013	-0.225
-563.558	-200.000	-0.007	-0.082
-562.544	-8.543	0.130	-0.089
-561.529	353.758	0.159	-0.320
-560.515	-200.000	0.026	-0.159
-559.500	800.000	-0.051	-0.174
-558.485	25.845	0.056	0.048
-557.471	-137.396	0.329	-0.038
-556.456	279.244	0.063	-0.115
-555.442	-200.000	-0.008	-0.041
-554.427	423.063	0.084	-0.184
-553.412	4.557	-0.126	-0.094
-552.398	-200.000	-0.011	-0.093
-551.383	453.545	-0.110	0.247
-550.369	-11.743	-0.136	-0.091
-549.354	-141.541	-0.356	-0.037
-548.339	542.332	-0.167	-0.404
-547.325	21.406	-0.247	0.204
-546.310	-63.873	0.084	-0.035
-545.296	-117.564	0.307	-0.056
-544.281	163.400	-0.165	-0.236
-543.266	-61.262	-0.376	-0.161
-542.252	113.884	0.128	-0.159
-541.237	-113.131	-0.161	0.032
-540.223	224.445	0.035	-0.057
-539.208	-80.706	-0.194	-0.065
-538.193	187.258	0.046	-0.070
-537.179	-200.000	0.017	-0.188
-536.164	-11.746	-0.243	0.162
-535.150	800.000	-0.049	-0.153
-534.135	271.382	-0.144	0.258
-533.121	-73.274	-0.168	-0.062
-532.106	59.967	-0.084	-0.085
-531.091	-200.000	-0.030	-0.333
-530.077	800.000	-0.113	0.364
-529.062	469.555	-0.093	0.213
-528.048	0.764	-0.131	-0.096
-527.033	800.000	-0.012	-0.035
-526.018	-39.707	0.345	-0.183
-525.004	-14.040	-0.159	0.104
-523.989	83.974	0.046	-0.051
-522.975	-76.941	-0.269	-0.096
-521.960	-164.877	-0.261	0.012
-520.945	83.335	0.166	-0.183
-519.931	-74.878	-0.111	-0.041
-518.916	-157.242	0.457	0.028
-517.902	74.151	0.253	0.270
-516.887	-93.218	0.137	0.039
-515.872	-167.293	0.214	0.009
-514.858	119.267	-0.261	-0.328
-513.843	-200.000	-0.036	0.258
-512.829	109.548	-0.175	-0.212
-511.814	-40.419	0.170	-0.089
-510.799	-200.000	-0.052	0.258
-509.785	-35.121	-0.058	0.032
-508.770	117.751	-0.134	-0.167
-507.756	-200.000	0.020	-0.223
-506.741	-113.676	-0.329	-0.065
-505.726	800.000	-0.134	-0.472
-504.712	-181.554	-0.357	0.007
-503.697	220.706	-0.177	-0.287
-502.683	253.855	0.059	-0.102
-501.668	-67.078	-0.206	-0.083
-500.653	470.681	-0.083	-0.189
-499.639	-61.936	-0.311	-0.132
-498.624	-11.585	-0.184	0.123
-497.610	-115.827	-0.094	0.018
-496.595	-72.683	-0.188	0.070
-495.581	-83.201	0.178	0.058
-494.566	-90.118	-0.175	-0.052
-493.551	83.254	-0.167	0.184
-492.537	-200.000	-0.077	-0.412
-491.522	-114.023	-0.518	-0.102
-490.508	96.539	-0.045	0.052
-489.493	33.199	-0.312	-0.275
-488.478	-42.541	0.111	-0.057
-487.464	378.388	0.082	0.170
-486.449	239.687	-0.174	0.294
-485.435	-68.205	-0.096	-0.038
-484.420	115.997	-0.178	0.220
-483.405	-137.568	0.077	0.009
-482.391	46.665	0.324	-0.305
-481.376	-127.941	0.348	0.051
-480.362	38.007	-0.052	-0.047
-479.347	-200.000	-0.050	0.266
-478.332	-200.000	-0.013	-0.211
-477.318	37.173	0.151	0.136
-476.303	800.000	0.081	0.269
-475.289	800.000	-0.046	0.170
-474.274	-41.771	0.118	-0.061
-473.259	800.000	-0.054	0.225
-472.245	204.715	-0.091	0.144
-471.230	158.833	-0.160	0.226
-470.216	-200.000	0.012	-0.229
-469.201	-72.094	-0.337	0.127
-468.186	-144.941	0.441	0.041
-467.172	-97.894	-0.288	0.075
-466.157	266.975	-0.209	0.370
-465.143	-200.000	-0.041	0.368
-464.128	-67.908	0.104	0.041
-463.113	218.731	-0.150	0.243
-462.099	522.438	0.049	-0.116
-461.084	-95.656	0.394	0.107
-460.070	800.000	-0.118	-0.489
-459.055	35.189	0.209	0.186
-458.040	800.000	0.063	-0.198
-457.026	-37.159	-0.135	0.073
-456.011	-200.000	0.017	0.196
-454.997	322.037	-0.078	-0.150
-453.982	800.000	-0.017	0.065
-452.968	-200.000	0.047	0.382
-451.953	687.945	0.163	0.431
-450.938	-97.842	-0.106	-0.028
-449.924	223.398	0.177	0.289
-448.909	-164.916	0.197	0.009
-447.895	-200.000	0.003	-0.013
-446.880	-53.606	0.409	0.189
-445.865	179.196	0.090	-0.134
-444.851	-128.637	0.039	0.006
-443.836	229.214	-0.075	-0.124
-442.822	-200.000	-0.011	0.200
-441.807	-200.000	0.042	0.230
-440.792	-78.980	0.151	0.052
-439.778	-200.000	0.029	-0.259
-438.763	-200.000	0.015	-0.098
-437.749	137.522	-0.045	-0.059
-436.734	-40.977	0.069	0.036
-435.719	-200.000	0.004	0.055
-434.705	-79.181	0.199	-0.068
-433.690	800.000	0.062	-0.177
-432.676	59.350	0.216	0.215
-431.661	-154.250	0.279	0.019
-430.646	-53.871	-0.077	0.036
-429.632	786.671	0.076	-0.210
-428.617	-40.656	-0.135	0.071
-427.603	63.360	-0.151	-0.153
-426.588	-200.000	-0.037	-0.228
-425.573	2.484	0.120	0.088
-424.559	590.782	-0.092	0.230
-423.544	-147.242	0.411	-0.035
-422.530	-68.566	-0.021	-0.008
-421.515	-200.000	0.075	0.442
-420.500	40.042	0.206	-0.188
-419.486	-200.000	-0.028	0.236
-418.471	167.997	0.082	-0.117
-417.457	-72.273	-0.393	-0.147
-416.442	-169.914	0.148	0.005
-415.428	-161.382	-0.226	0.012
-414.413	-200.000	0.024	-0.119
-413.398	184.146	-0.097	0.145
-412.384	144.023	-0.167	0.225
-411.369	315.825	-0.069	-0.132
-410.355	3.607	0.205	0.151
-409.340	442.951	-0.107	-0.238
-408.325	-148.133	-0.214	-0.018
-407.311	215.397	-0.070	0.112
-406.296	-200.000	0.030	0.217
-405.282	-68.486	0.201	0.079
-404.267	194.127	-0.207	-0.317
-403.252	-200.000	0.013	-0.138
-402.238	-172.226	-0.143	0.005
-401.223	36.690	-0.087	-0.078
-400.209	-171.414	-0.329	-0.011
-399.194	-200.000	-0.100	0.462
-398.179	5.041	-0.152	-0.113
-397.165	-200.000	0.015	0.343
-396.150	-102.981	-0.186	-0.045
-395.136	-124.451	0.121	0.019
-394.121	800.000	0.092	0.298
-393.106	-200.000	-0.005	0.290
-392.092	498.314	0.133	-0.310
-391.077	-164.882	0.221	0.010
-390.063	51.963	0.184	-0.177
-389.048	22.983	-0.198	0.164
-388.033	-200.000	-0.005	0.152
-387.019	-86.291	0.120	0.037
-386.004	-180.368	-0.153	-0.003
-384.990	-90.367	0.057	0.017
-383.975	9.547	-0.076	-0.058
-382.960	800.000	-0.063	-0.192
-381.946	-39.597	0.164	0.087
-380.931	-20.704	-0.261	-0.162
-379.917	-46.567	-0.171	-0.084
-378.902	-98.911	-0.262	0.067
-377.888	667.455	0.103	-0.269
-376.873	-118.116	-0.112	0.020
-375.858	-14.231	-0.164	0.107
-374.844	645.362	-0.064	0.166
-373.829	-131.687	-0.279	-0.037
-372.815	-52.041	0.312	-0.146
-371.800	-23.892	0.336	-0.203
-370.785	-200.000	0.026	-0.143
-369.771	-200.000	0.011	0.210
-368.756	-33.814	-0.201	-0.112
-367.742	-138.675	-0.210	0.023
-366.727	44.026	0.151	0.140
-365.712	74.425	0.163	-0.173
-364.698	-65.820	-0.191	0.077
-363.683	5.046	0.057	-0.043
-362.669	-200.000	-0.039	-0.216
-361.654	-200.000	0.030	-0.403
-360.639	-200.000	0.021	-0.140
-359.625	-33.488	0.167	0.093
-358.610	299.747	0.104	-0.193
-357.596	183.308	-0.032	-0.047
-356.581	750.765	0.063	0.171
-355.566	-181.568	-0.229	0.004
-354.552	-94.455	0.210	-0.058
-353.537	29.806	0.342	-0.294
-352.523	-200.000	-0.017	0.295
-351.508	-47.699	-0.044	0.022
-350.493	382.745	-0.046	-0.095
-349.479	800.000	0.134	-0.407
-348.464	-200.000	0.008	-0.056
-347.450	577.784	0.141	0.348
-346.435	261.639	-0.103	0.179
-345.420	-40.859	-0.292	-0.152
-344.406	60.429	0.125	-0.125
-343.391	73.286	-0.097	-0.103
-342.377	-200.000	0.047	-0.315
-341.362	-32.345	-0.362	-0.204
-340.348	-79.553	0.271	0.092
-339.333	-66.113	0.207	-0.083
-338.318	218.891	0.191	0.307
-337.304	-103.527	0.176	0.042
-336.289	-48.710	0.043	-0.021
-335.275	241.437	-0.141	0.237
-334.260	30.444	0.117	0.101
-333.245	163.486	-0.165	-0.234
-332.231	23.082	0.149	0.123
-331.216	800.000	0.097	0.403
-330.202	-188.654	0.411	-0.005
-329.187	-97.137	0.130	-0.034
-328.172	800.000	0.048	0.151
-327.158	800.000	0.045	-0.159
-326.143	660.712	0.062	0.161
-325.129	800.000	-0.086	0.347
-324.114	-116.817	0.171	0.031
-323.099	800.000	0.047	0.173
-322.085	421.458	-0.183	0.395
-321.070	487.649	-0.106	-0.244
-320.056	116.175	-0.076	-0.094
-319.041	-125.395	0.409	-0.063
-318.026	-139.282	-0.150	0.016
-317.012	-200.000	-0.087	-0.431
-315.997	-200.000	-0.000	-0.287
-314.983	29.421	0.208	0.178
-313.968	-200.000	0.006	0.110
-312.953	-200.000	0.034	0.167
-311.939	235.425	-0.080	-0.133
-310.924	9.271	-0.192	-0.146
-309.910	211.805	0.011	0.017
-308.895	-3.757	-0.197	-0.137
-307.880	-67.325	0.463	-0.183
-306.866	-200.000	-0.002	-0.288
-305.851	47.149	0.244	-0.228
-304.837	-200.000	-0.001	0.074
-303.822	-3.398	0.220	-0.154
-302.807	-46.200	0.278	-0.138
-301.793	21.853	-0.225	-0.185
-300.778	-200.000	-0.028	-0.321
-299.764	-200.000	0.018	-0.207
-298.749	-200.000	0.012	0.403
-297.735	80.277	-0.135	0.146
-296.720	430.634	0.076	-0.166
-295.705	314.771	-0.117	0.222
-294.691	800.000	0.052	-0.184
-293.676	276.945	-0.165	-0.295
-292.662	800.000	-0.028	0.079
-291.647	-200.000	-0.033	0.481
-290.632	800.000	0.026	-0.092
-289.618	468.803	0.084	0.191
-288.603	264.595	0.073	-0.128
-287.589	-163.641	0.111	-0.005
-286.574	302.462	0.193	-0.359
-285.559	-2.753	0.166	-0.117
-284.545	-120.470	0.368	-0.063
-283.530	-200.000	0.037	-0.262
-282.516	-11.674	0.113	-0.075
-281.501	800.000	0.029	0.098
-280.486	-200.000	-0.008	0.129
-279.472	71.642	-0.118	0.123
-278.457	800.000	-0.018	0.074
-277.443	554.081	-0.059	-0.144
-276.428	-159.732	-0.307	-0.017
-275.413	-77.570	0.436	-0.152
-274.399	-108.790	0.103	0.022
-273.384	-160.789	-0.199	-0.011
-272.370	-142.763	-0.262	0.026
-271.355	156.756	-0.144	0.200
-270.340	91.154	-0.142	-0.160
-269.326	12.563	-0.052	-0.041
-268.311	-24.999	0.321	-0.191
-267.297	-65.862	-0.112	-0.045
-266.282	58.118	-0.263	-0.259
-265.267	-23.531	0.282	-0.170
-264.253	468.134	-0.131	0.296
-263.238	-200.000	0.064	-0.284
-262.224	42.667	0.047	0.043
-261.209	-80.896	-0.275	0.092
-260.195	-39.911	0.276	0.145
-259.180	190.695	0.132	0.199
-258.165	-6.753	-0.134	-0.091
-257.151	-38.539	0.329	-0.175
-256.136	194.871	-0.005	0.008
-255.122	3.241	0.150	-0.109
-254.107	148.064	-0.244	0.330
-253.092	-102.054	0.221	0.054
-252.078	-200.000	0.048	-0.238
-251.063	-132.049	-0.435	-0.057
-250.049	72.435	0.087	-0.091
-249.034	450.155	-0.070	0.155
-248.019	334.887	0.050	-0.098
-247.005	37.076	0.184	-0.163
-245.990	-200.000	0.032	-0.219
-244.976	-21.412	-0.339	0.208
-243.961	13.362	0.378	0.294
-242.946	546.628	-0.034	0.082
-241.932	368.684	0.046	-0.094
-240.917	-49.812	0.274	-0.131
-239.903	0.148	-0.142	-0.102
-238.888	-181.749	0.103	-0.002
-237.873	81.650	0.088	0.095
-236.859	800.000	-0.028	-0.100
-235.844	-70.743	0.270	-0.102
-234.830	-76.626	0.248	0.087
-233.815	-1.549	0.294	0.208
-232.800	57.117	0.047	-0.046
-231.786	-134.387	0.304	0.037
-230.771	18.348	-0.099	0.079
-229.757	-200.000	-0.010	-0.286
-228.742	-52.161	0.297	0.139
-227.727	-200.000	-0.037	-0.208
-226.713	-114.667	-0.045	0.009
-225.698	800.000	0.062	-0.268
-224.684	-65.809	-0.376	0.151
-223.669	-200.000	-0.015	0.196
-222.655	326.678	0.066	-0.128
-221.640	48.648	0.225	-0.212
-220.625	-200.000	0.077	0.380
-219.611	-126.918	-0.244	-0.036
-218.596	-171.146	0.199	0.007
-217.582	76.789	-0.063	0.067
-216.567	-200.000	0.056	0.265
-215.552	-93.708	-0.057	-0.016
-214.538	0.668	0.076	0.054
-213.523	100.216	-0.077	0.090
-212.509	800.000	0.026	0.100
-211.494	-135.333	0.144	-0.017
-210.479	-61.419	0.036	0.015
-209.465	-200.000	-0.005	0.155
-208.450	-200.000	0.010	0.141
-207.436	800.000	-0.127	0.403
-206.421	356.625	0.059	0.117
-205.406	-200.000	0.040	0.263
-204.392	-200.000	0.003	0.105
-203.377	-167.136	0.092	0.004
-202.363	-169.025	-0.164	-0.006
-201.348	-21.104	0.117	-0.072
-200.333	-8.778	-0.279	0.188
-199.319	800.000	-0.107	-0.322
-198.304	33.558	0.166	-0.145
-197.290	-155.674	-0.281	-0.018
-196.275	6.961	-0.298	0.223
-195.260	-162.838	-0.089	0.004
-194.246	-98.575	-0.288	0.074
-193.231	-68.457	0.139	-0.054
-192.217	-66.107	-0.095	0.038
-191.202	-141.623	0.403	-0.041
-190.187	-103.084	-0.035	-0.008
-189.173	-92.168	0.099	0.028
-188.158	30.340	0.269	-0.230
-187.144	83.306	0.088	0.096
-186.129	-200.000	-0.025	0.169
-185.114	13.050	0.367	0.284
-184.100	229.771	0.148	-0.243
-183.085	-200.000	0.024	0.292
-182.071	-127.814	-0.067	0.010
-181.056	-130.972	0.114	0.015
-180.042	543.763	-0.068	0.163
-179.027	-112.409	-0.305	-0.061
-178.012	48.875	0.132	0.124
-176.998	668.807	-0.065	0.168
-175.983	415.048	-0.073	-0.155
-174.969	-75.416	0.165	0.059
-173.954	800.000	0.022	-0.092
-172.939	800.000	0.100	0.396
-171.925	-200.000	-0.029	-0.290
-170.910	67.198	-0.101	0.103
-169.896	-197.724	-0.256	0.002
-168.881	-200.000	-0.024	0.176
-167.866	14.950	0.131	0.102
-166.852	40.112	0.023	-0.020
-165.837	-73.616	-0.163	0.059
-164.823	-200.000	0.000	-0.122
-163.808	-56.518	-0.177	0.078
-162.793	112.667	-0.144	-0.174
-161.779	102.063	0.034	-0.039
-160.764	-200.000	-0.038	0.212
-159.750	95.472	-0.252	0.288
-158.735	97.595	-0.278	0.319
-157.720	-200.000	0.009	-0.185
-156.706	45.882	0.161	0.149
-155.691	800.000	0.047	0.149
-154.677	-27.293	0.185	-0.108
-153.662	-200.000	0.006	-0.219
-152.647	-6.932	0.200	0.136
-151.633	47.096	-0.224	-0.209
-150.618	-44.140	0.148	0.074
-149.604	118.684	0.104	0.129
-148.589	-200.000	-0.003	-0.200
-147.574	57.056	-0.104	0.102
-146.560	-17.769	-0.085	-0.053
-145.545	800.000	0.077	-0.259
-144.531	-85.846	-0.142	-0.044
-143.516	-43.527	-0.063	0.032
-142.502	13.812	0.065	0.051
-141.487	800.000	0.031	0.132
-140.472	-200.000	-0.006	0.072
-139.458	-99.346	0.062	-0.016
-138.443	-104.941	-0.245	-0.056
-137.429	68.829	-0.219	-0.225
-136.414	128.990	-0.176	0.225
-135.399	-3.715	-0.188	-0.131
-134.385	-27.293	-0.236	-0.137
-133.370	16.711	-0.075	-0.060
-132.356	22.845	-0.201	0.165
-131.341	4.641	-0.057	0.042
-130.326	-95.573	0.319	-0.085
-129.312	-114.119	0.413	0.080
-128.297	173.763	0.259	-0.373
-127.283	299.380	-0.223	-0.411
-126.268	-200.000	-0.022	0.211
-125.253	-21.306	-0.244	0.149
-124.239	201.352	-0.070	0.107
-123.224	-64.962	0.156	0.063
-122.210	-110.037	0.167	0.035
-121.195	165.331	-0.220	0.311
