DTS Sentinel unit serial number:	SN413079Multiplexer serial number:	ORYXHardware model number:	OX4-SRSoftware version number:	ORYX F/W v4.00 Oryx Data Collector v3.7.2.0data status	okinstallation	princeton_trtdifferential loss correction	single-endedforward channel	channel 2reverse channel	N/Adate	2019/09/11time	21:21:11forward acquisition time	60.00reverse acquisition time	0.00gamma	496.2192k internal	0.2324k external	0.2324temperature offset calibration	1.0062default loss term (dB/km)	0.3790temperature slope calibration	1.0000multiplexer offset coefficient	1.0000multiplexer slope coefficient	1.0000fibre end	0.00T internal ref (°C)	36.20T ext. ref 1 (°C)	1.65T ext. ref 2 (°C)	30.05length (m)	temperature (°C)	Stokes	anti-Stokes-747.200	612.573	0.248	0.627
-746.185	800.000	0.096	0.333
-745.171	800.000	-0.030	-0.131
-744.156	-66.933	-0.091	-0.036
-743.142	20.334	0.196	0.160
-742.127	-200.000	0.011	0.200
-741.112	-200.000	0.009	0.093
-740.098	-200.000	-0.030	-0.166
-739.083	-152.021	0.074	0.005
-738.069	114.661	0.022	-0.027
-737.054	60.766	0.081	-0.081
-736.039	-175.393	0.326	-0.009
-735.025	613.373	0.070	-0.178
-734.010	296.316	0.078	-0.145
-732.996	21.432	-0.200	-0.164
-731.981	84.106	0.232	-0.256
-730.966	-200.000	-0.017	-0.431
-729.952	-132.472	0.222	-0.029
-728.937	87.751	0.103	0.115
-727.923	70.501	0.172	-0.180
-726.908	182.897	0.131	-0.194
-725.894	-73.335	-0.298	0.110
-724.879	406.227	0.023	0.049
-723.864	-141.020	0.167	0.017
-722.850	-40.575	-0.221	0.116
-721.835	13.345	0.237	0.185
-720.821	-196.295	0.175	-0.001
-719.806	-200.000	0.003	0.080
-718.791	-200.000	-0.012	-0.140
-717.777	9.857	0.245	0.187
-716.762	-50.169	0.154	0.074
-715.748	256.268	-0.179	-0.309
-714.733	-200.000	-0.020	-0.144
-713.718	-200.000	-0.002	-0.012
-712.704	330.252	0.038	0.073
-711.689	112.258	0.125	-0.152
-710.675	153.005	0.196	-0.270
-709.660	-200.000	-0.029	-0.144
-708.645	-18.731	-0.055	-0.035
-707.631	800.000	-0.063	-0.262
-706.616	392.774	0.018	-0.037
-705.602	-154.059	0.270	-0.018
-704.587	-200.000	-0.014	0.123
-703.572	-7.105	-0.377	-0.258
-702.558	149.437	-0.075	0.102
-701.543	-200.000	-0.003	-0.110
-700.529	-50.552	0.151	-0.072
-699.514	-35.267	-0.153	-0.084
-698.499	-76.611	-0.072	0.025
-697.485	711.305	-0.075	0.201
-696.470	-42.599	-0.122	0.062
-695.456	-16.495	0.203	0.130
-694.441	-200.000	-0.022	-0.119
-693.426	-130.478	0.209	0.029
-692.412	17.384	-0.093	-0.074
-691.397	800.000	-0.076	0.244
-690.383	58.784	0.025	-0.025
-689.368	721.952	0.053	-0.142
-688.354	-45.653	0.321	0.160
-687.339	-127.982	-0.201	0.029
-686.324	182.810	0.092	0.137
-685.310	800.000	-0.012	0.046
-684.295	-44.567	-0.333	0.168
-683.281	91.340	0.092	-0.104
-682.266	-200.000	-0.021	-0.100
-681.251	-200.000	-0.007	-0.150
-680.237	-52.705	0.242	-0.112
-679.222	800.000	-0.074	-0.260
-678.208	800.000	-0.032	-0.116
-677.193	222.761	0.097	0.157
-676.178	-96.608	0.069	-0.018
-675.164	-200.000	-0.012	-0.058
-674.149	-140.970	0.293	0.030
-673.135	82.031	0.123	-0.134
-672.120	12.764	0.067	-0.052
-671.105	185.452	0.112	0.168
-670.091	167.116	-0.130	0.186
-669.076	-43.917	-0.452	0.229
-668.062	800.000	0.054	0.211
-667.047	-167.215	0.133	-0.005
-666.032	139.777	0.201	0.267
-665.018	46.648	-0.346	0.324
-664.003	-0.356	-0.297	-0.212
-662.989	67.107	0.186	-0.190
-661.974	-148.540	-0.101	0.008
-660.959	-13.346	0.302	0.197
-659.945	-196.711	0.181	-0.001
-658.930	11.276	-0.330	-0.254
-657.916	-200.000	-0.027	-0.200
-656.901	-168.754	-0.122	0.005
-655.886	492.829	-0.171	0.395
-654.872	-131.921	0.333	0.044
-653.857	-123.987	0.129	-0.020
-652.843	-2.215	0.030	-0.021
-651.828	-57.283	-0.300	0.133
-650.814	66.276	-0.212	0.217
-649.799	114.090	0.026	-0.032
-648.784	237.273	-0.055	-0.092
-647.770	-72.911	0.180	-0.067
-646.755	-6.773	0.085	-0.058
-645.741	-200.000	-0.019	-0.283
-644.726	800.000	-0.034	0.144
-643.711	192.347	0.099	0.150
-642.697	-137.414	-0.208	0.024
-641.682	110.196	0.083	-0.100
-640.668	-93.400	-0.224	-0.062
-639.653	-75.379	0.230	0.083
-638.638	-9.812	0.095	-0.063
-637.624	-52.578	-0.047	0.022
-636.609	-200.000	0.005	-0.183
-635.595	189.868	-0.136	0.205
-634.580	800.000	0.081	0.258
-633.565	764.505	-0.171	0.468
-632.551	78.497	-0.233	-0.250
-631.536	-0.260	-0.394	0.282
-630.522	-200.000	0.008	-0.389
-629.507	508.201	-0.144	-0.336
-628.492	-22.265	0.092	-0.056
-627.478	169.178	-0.082	0.117
-626.463	40.970	-0.024	0.022
-625.449	19.652	-0.270	-0.218
-624.434	-200.000	-0.008	0.165
-623.419	19.335	-0.178	-0.143
-622.405	-113.111	-0.178	0.035
-621.390	-13.094	0.099	0.065
-620.376	384.514	-0.196	-0.406
-619.361	106.478	-0.174	0.207
-618.346	181.777	-0.099	-0.146
-617.332	-195.781	-0.271	-0.002
-616.317	60.166	-0.194	-0.192
-615.303	-150.757	0.279	0.021
-614.288	53.632	0.099	0.096
-613.273	-16.949	0.207	0.132
-612.259	-200.000	-0.014	0.163
-611.244	690.436	-0.102	-0.268
-610.230	-63.352	-0.282	0.117
-609.215	60.400	0.222	0.220
-608.201	-180.749	0.215	-0.004
-607.186	166.919	0.188	-0.268
-606.171	52.537	0.158	-0.151
-605.157	-200.000	0.036	0.159
-604.142	-200.000	-0.012	0.107
-603.128	-200.000	-0.005	-0.108
-602.113	64.534	0.238	-0.241
-601.098	242.578	0.154	-0.258
-600.084	-103.881	-0.189	-0.044
-599.069	-200.000	0.011	-0.291
-598.055	-188.915	-0.093	-0.001
-597.040	-200.000	0.071	0.316
-596.025	37.394	-0.257	0.229
-595.011	-75.543	-0.168	-0.060
-593.996	-200.000	-0.024	-0.312
-592.982	335.290	-0.185	-0.360
-591.967	-138.027	-0.091	0.010
-590.952	-200.000	-0.007	-0.265
-589.938	-85.116	-0.117	0.037
-588.923	437.338	0.050	-0.110
-587.909	435.599	-0.140	-0.306
-586.894	-90.175	-0.108	-0.032
-585.879	-200.000	-0.025	0.164
-584.865	16.688	0.256	-0.203
-583.850	800.000	0.118	0.374
-582.836	454.307	0.120	-0.266
-581.821	7.535	0.295	-0.221
-580.806	377.848	0.054	-0.110
-579.792	800.000	-0.101	-0.349
-578.777	-200.000	0.016	-0.117
-577.763	67.471	-0.191	0.196
-576.748	-103.502	-0.138	0.033
-575.733	-159.664	-0.387	-0.021
-574.719	-32.801	0.121	-0.067
-573.704	-37.103	-0.227	-0.122
-572.690	-120.076	0.107	0.018
-571.675	-200.000	-0.015	-0.183
-570.661	-49.975	0.247	-0.118
-569.646	-134.961	0.290	-0.035
-568.631	800.000	-0.087	-0.258
-567.617	-159.710	-0.467	0.026
-566.602	-126.198	-0.029	0.004
-565.588	-200.000	0.008	-0.364
-564.573	-200.000	-0.010	-0.110
-563.558	-62.005	-0.041	-0.017
-562.544	-200.000	0.013	0.203
-561.529	-200.000	0.008	-0.423
-560.515	-174.480	-0.247	0.007
-559.500	64.095	0.092	-0.093
-558.485	-67.807	0.279	0.109
-557.471	-200.000	-0.001	-0.355
-556.456	-34.996	-0.260	0.142
-555.442	321.276	0.052	-0.100
-554.427	295.736	0.094	0.173
-553.412	-85.123	-0.041	0.013
-552.398	-27.218	-0.058	-0.034
-551.383	640.644	-0.041	-0.103
-550.369	124.075	-0.282	0.355
-549.354	48.106	0.059	0.055
-548.339	16.890	-0.074	-0.059
-547.325	314.123	0.042	-0.079
-546.310	206.198	0.097	-0.151
-545.296	155.959	-0.067	-0.093
-544.281	800.000	-0.123	-0.430
-543.266	-192.437	0.248	-0.002
-542.252	196.869	0.174	0.265
-541.237	-30.157	0.225	-0.128
-540.223	-169.554	-0.253	-0.009
-539.208	234.182	0.037	-0.061
-538.193	-22.729	-0.256	-0.155
-537.179	-200.000	0.003	-0.155
-536.164	-200.000	-0.014	0.282
-535.150	257.563	-0.102	-0.176
-534.135	578.182	0.060	-0.147
-533.121	-144.546	0.217	-0.020
-532.106	-42.292	-0.266	0.136
-531.091	-53.573	-0.170	0.078
-530.077	-116.796	-0.250	-0.046
-529.062	-108.887	0.118	0.025
-528.048	-48.700	-0.438	0.210
-527.033	0.728	-0.335	0.240
-526.018	-102.348	-0.365	0.088
-525.004	69.413	0.235	0.242
-523.989	-145.608	0.166	-0.015
-522.975	65.972	-0.090	-0.091
-521.960	-76.947	-0.168	0.059
-520.945	-161.547	-0.368	0.019
-519.931	35.812	0.241	0.212
-518.916	655.736	-0.026	-0.067
-517.902	200.671	0.131	-0.201
-516.887	-114.900	-0.573	0.109
-515.872	-200.000	-0.026	0.206
-514.858	726.458	-0.023	0.061
-513.843	60.716	-0.142	-0.141
-512.829	-153.084	0.334	0.023
-511.814	-95.558	0.457	0.123
-510.799	-200.000	-0.040	0.295
-509.785	52.874	0.249	-0.238
-508.770	204.576	0.077	0.120
-507.756	-107.258	-0.203	-0.045
-506.741	479.049	-0.041	0.094
-505.726	-52.898	0.151	0.069
-504.712	-200.000	0.004	0.086
-503.697	-83.657	-0.195	-0.062
-502.683	19.059	0.193	0.155
-501.668	395.136	-0.121	0.252
-500.653	-127.415	-0.096	-0.014
-499.639	800.000	0.099	-0.356
-498.624	-163.840	-0.243	-0.011
-497.610	800.000	-0.014	-0.051
-496.595	-73.334	-0.285	-0.104
-495.581	-16.435	-0.260	-0.165
-494.566	-28.799	0.201	-0.116
-493.551	228.109	0.073	0.119
-492.537	-4.662	-0.093	-0.064
-491.522	800.000	0.164	0.499
-490.508	800.000	-0.062	0.201
-489.493	20.891	0.155	0.126
-488.478	-200.000	0.040	-0.247
-487.464	-40.462	0.064	-0.033
-486.449	800.000	-0.036	-0.110
-485.435	-200.000	0.008	-0.245
-484.420	-36.274	0.160	-0.086
-483.405	800.000	-0.029	0.104
-482.391	-81.705	0.076	0.025
-481.376	76.240	0.241	-0.255
-480.362	24.161	0.137	-0.113
-479.347	73.486	0.232	0.243
-478.332	-200.000	-0.005	0.085
-477.318	3.131	-0.132	0.096
-476.303	800.000	-0.049	0.205
-475.289	-200.000	-0.002	0.227
-474.274	156.711	-0.084	0.116
-473.259	476.954	-0.116	-0.263
-472.245	-87.676	-0.162	0.049
-471.230	-94.371	-0.206	0.056
-470.216	230.886	0.041	0.068
-469.201	-200.000	-0.008	-0.083
-468.186	-181.703	-0.352	-0.007
-467.172	35.775	-0.188	0.165
-466.157	20.967	-0.252	-0.204
-465.143	23.892	-0.263	-0.217
-464.128	316.889	0.086	0.162
-463.113	201.419	0.063	0.097
-462.099	166.076	-0.247	0.349
-461.084	114.777	0.121	0.148
-460.070	236.620	-0.108	0.178
-459.055	-117.537	-0.172	0.031
-458.040	420.344	-0.053	0.113
-457.026	254.448	-0.145	0.248
-456.011	430.850	0.015	0.033
-454.997	-82.305	-0.230	0.075
-453.982	-92.175	-0.201	0.057
-452.968	259.331	-0.091	0.156
-451.953	21.922	-0.037	-0.030
-450.938	35.239	0.058	0.051
-449.924	105.471	0.066	-0.078
-448.909	57.901	-0.110	0.108
-447.895	-102.142	0.086	-0.021
-446.880	597.572	-0.092	-0.226
-445.865	800.000	-0.046	-0.171
-444.851	30.547	0.135	-0.115
-443.836	81.453	-0.064	0.069
-442.822	209.376	-0.100	-0.156
-441.807	274.142	0.241	-0.425
-440.792	207.622	-0.091	0.142
-439.778	93.164	-0.060	-0.068
-438.763	260.472	0.079	0.136
-437.749	-126.605	-0.331	0.049
-436.734	614.563	0.146	-0.365
-435.719	800.000	-0.079	0.250
-434.705	-81.664	0.153	0.050
-433.690	491.321	-0.062	-0.142
-432.676	235.416	0.133	0.219
-431.661	57.249	0.038	-0.037
-430.646	63.415	0.165	-0.165
-429.632	-62.332	0.318	-0.132
-428.617	143.864	0.243	0.323
-427.603	-70.047	-0.239	0.091
-426.588	800.000	0.058	0.189
-425.573	1.550	0.098	0.071
-424.559	-182.095	0.141	0.003
-423.544	-200.000	0.017	-0.077
-422.530	514.184	0.095	0.221
-421.515	-200.000	0.040	-0.462
-420.500	-32.934	-0.252	-0.140
-419.486	-86.553	0.130	0.040
-418.471	263.833	0.068	0.118
-417.457	-155.216	-0.223	-0.014
-416.442	-200.000	-0.012	0.060
-415.428	-122.387	0.274	-0.044
-414.413	-10.301	-0.212	0.140
-413.398	-200.000	-0.001	0.009
-412.384	-87.840	0.050	-0.015
-411.369	-200.000	-0.070	-0.415
-410.355	48.285	-0.182	-0.170
-409.340	-68.868	0.132	0.051
-408.325	120.693	-0.119	-0.147
-407.311	-95.157	0.335	0.090
-406.296	233.846	-0.053	-0.087
-405.282	112.462	0.172	-0.207
-404.267	-93.948	0.273	-0.075
-403.252	-30.876	-0.188	-0.106
-402.238	167.082	-0.034	0.048
-401.223	-200.000	0.011	0.386
-400.209	-153.932	-0.140	-0.010
-399.194	48.106	0.043	-0.040
-398.179	-200.000	-0.040	-0.255
-397.165	172.969	0.203	-0.291
-396.150	397.974	-0.101	0.210
-395.136	-12.619	-0.206	0.134
-394.121	283.155	-0.216	-0.386
-393.106	800.000	-0.048	-0.208
-392.092	-53.283	0.155	-0.071
-391.077	-80.024	0.224	-0.075
-390.063	-29.556	0.098	0.056
-389.048	38.411	-0.171	-0.152
-388.033	-81.819	0.269	0.088
-387.019	276.270	0.147	0.261
-386.004	48.872	-0.149	-0.139
-384.990	0.809	0.180	-0.128
-383.975	-27.244	-0.094	0.055
-382.960	-200.000	-0.045	-0.263
-381.946	-20.944	-0.081	-0.049
-380.931	433.020	-0.172	-0.372
-379.917	-75.252	-0.343	-0.122
-378.902	291.289	-0.087	0.157
-377.888	-108.346	0.577	0.124
-376.873	144.654	0.157	0.208
-375.858	116.485	-0.270	0.329
-374.844	154.458	0.184	0.251
-373.829	-121.996	0.119	-0.019
-372.815	-113.372	0.354	-0.069
-371.800	-59.314	-0.197	0.084
-370.785	183.812	0.143	0.211
-369.771	-61.577	0.287	0.120
-368.756	246.175	-0.087	0.147
-367.742	227.333	-0.053	0.086
-366.727	65.931	0.150	0.151
-365.712	64.679	-0.076	0.076
-364.698	-131.496	-0.071	-0.009
-363.683	-136.236	-0.392	0.046
-362.669	-4.482	0.139	-0.095
-361.654	-200.000	-0.038	0.208
-360.639	-92.973	-0.009	0.003
-359.625	18.550	0.155	-0.124
-358.610	-18.301	-0.188	-0.117
-357.596	325.541	-0.168	-0.320
-356.581	800.000	0.104	0.375
-355.566	127.144	-0.217	0.273
-354.552	-15.734	-0.205	0.130
-353.537	31.170	0.227	-0.193
-352.523	384.619	-0.059	0.121
-351.508	3.011	0.087	-0.063
-350.493	-36.511	0.206	0.110
-349.479	-200.000	-0.022	-0.149
-348.464	800.000	0.064	-0.240
-347.450	-48.718	0.299	-0.143
-346.435	-200.000	0.031	0.157
-345.420	-64.943	0.214	0.086
-344.406	800.000	-0.120	-0.385
-343.391	-200.000	-0.091	-0.470
-342.377	800.000	-0.058	0.249
-341.362	-112.053	0.141	0.028
-340.348	45.633	0.087	0.080
-339.333	800.000	0.021	-0.066
-338.318	-111.830	0.338	0.068
-337.304	31.549	0.162	0.138
-336.289	-188.581	0.164	-0.002
-335.275	284.366	0.037	0.066
-334.260	20.223	-0.202	-0.162
-333.245	168.554	-0.134	-0.190
-332.231	74.267	0.051	0.053
-331.216	800.000	0.009	0.033
-330.202	-47.022	0.203	-0.098
-329.187	399.141	0.052	0.108
-328.172	633.644	0.072	0.181
-327.158	105.511	-0.028	0.033
-326.143	169.012	0.120	0.170
-325.129	800.000	-0.032	0.089
-324.114	-52.972	-0.494	0.226
-323.099	30.352	0.163	0.139
-322.085	-193.664	0.059	0.000
-321.070	111.071	0.152	-0.182
-320.056	-143.003	0.114	-0.011
-319.041	-72.839	-0.132	0.048
-318.026	253.502	-0.129	-0.218
-317.012	23.412	0.026	-0.022
-315.997	-200.000	0.033	0.165
-314.983	-62.527	-0.204	0.084
-313.968	800.000	-0.070	0.225
-312.953	-200.000	0.002	0.222
-311.939	112.413	-0.094	0.112
-310.924	545.488	0.170	-0.403
-309.910	800.000	0.100	0.327
-308.895	8.162	0.453	0.338
-307.880	800.000	-0.052	0.164
-306.866	-200.000	-0.015	0.227
-305.851	800.000	0.013	0.057
-304.837	-200.000	-0.011	-0.216
-303.822	-112.505	0.201	-0.040
-302.807	-116.650	0.252	0.046
-301.793	-26.220	-0.063	-0.036
-300.778	-200.000	0.015	-0.089
-299.764	434.135	0.062	-0.133
-298.749	-149.106	-0.060	-0.005
-297.735	-37.053	-0.175	0.093
-296.720	778.203	0.023	0.062
-295.705	83.973	-0.255	0.276
-294.691	261.465	-0.122	-0.210
-293.676	-200.000	0.079	0.542
-292.662	-1.060	-0.044	-0.031
-291.647	266.695	0.175	-0.303
-290.632	-200.000	-0.027	-0.388
-289.618	-91.002	0.138	-0.039
-288.603	800.000	0.058	-0.169
-287.589	101.785	-0.151	-0.174
-286.574	-188.365	0.105	0.001
-285.559	800.000	-0.056	0.228
-284.545	274.199	-0.059	-0.103
-283.530	-24.306	0.323	-0.191
-282.516	-200.000	0.022	0.133
-281.501	-200.000	-0.005	-0.035
-280.486	800.000	-0.090	0.255
-279.472	-115.483	0.086	0.016
-278.457	276.176	0.152	0.268
-277.443	119.836	0.162	0.199
-276.428	146.758	-0.145	-0.193
-275.413	-81.056	0.238	-0.078
-274.399	-8.828	0.362	-0.240
-273.384	-103.261	-0.228	0.053
-272.370	184.120	0.185	-0.272
-271.355	-200.000	0.043	0.238
-270.340	-200.000	0.002	-0.086
-269.326	800.000	0.078	0.272
-268.311	-137.862	0.148	0.016
-267.297	142.880	0.174	0.230
-266.282	97.600	0.209	0.238
-265.267	-66.636	0.258	0.101
-264.253	154.949	0.260	-0.354
-263.238	-60.609	0.201	-0.085
-262.224	800.000	-0.079	0.332
-261.209	-185.870	-0.208	-0.003
-260.195	800.000	0.048	0.132
-259.180	30.185	0.104	0.088
-258.165	-200.000	0.032	0.387
-257.151	-200.000	0.021	0.114
-256.136	36.806	0.088	0.077
-255.122	20.574	0.179	-0.143
-254.107	-65.166	-0.347	-0.138
-253.092	-104.558	0.139	0.032
-252.078	-36.302	0.091	-0.048
-251.063	20.772	-0.262	0.210
-250.049	136.743	0.178	0.230
-249.034	800.000	0.011	-0.040
-248.019	298.224	0.014	0.025
-247.005	146.296	-0.207	-0.275
-245.990	20.478	-0.255	-0.204
-244.976	-102.095	0.132	0.031
-243.961	-149.210	-0.148	-0.012
-242.946	-163.925	-0.356	-0.016
-241.932	-200.000	0.007	-0.109
-240.917	-159.214	-0.268	-0.015
-239.903	-57.798	0.232	0.100
-238.888	315.215	0.170	-0.317
-237.873	-177.459	-0.129	-0.003
-236.859	-72.456	-0.179	0.065
-235.844	-19.371	-0.101	-0.062
-234.830	-2.477	-0.113	-0.078
-233.815	79.336	-0.189	0.201
-232.800	-38.415	-0.145	0.076
-231.786	676.269	-0.198	0.509
-230.771	21.178	-0.134	0.108
-229.757	100.642	-0.115	0.132
-228.742	40.339	0.229	0.204
-227.727	1.077	-0.122	0.086
-226.713	-200.000	-0.028	-0.130
-225.698	-129.140	-0.236	-0.033
-224.684	-113.893	0.069	-0.013
-223.669	-83.549	0.206	-0.065
-222.655	-70.976	-0.339	-0.126
-221.640	-200.000	-0.035	-0.156
-220.625	-14.491	0.287	-0.183
-219.611	-128.319	-0.430	-0.061
-218.596	258.678	-0.165	-0.281
-217.582	87.166	0.074	-0.081
-216.567	436.791	-0.081	0.175
-215.552	-110.104	0.167	-0.035
-214.538	-40.659	0.269	-0.138
-213.523	102.624	0.190	-0.219
-212.509	39.494	0.129	0.114
-211.494	-45.930	0.044	0.021
-210.479	38.550	0.093	0.082
-209.465	76.356	0.139	-0.146
-208.450	598.383	0.028	-0.067
-207.436	280.199	-0.120	0.212
-206.421	49.595	0.099	0.092
-205.406	-200.000	-0.018	0.283
-204.392	800.000	0.045	0.144
-203.377	-22.199	0.216	0.129
-202.363	-61.717	0.426	0.176
-201.348	231.304	-0.220	0.356
-200.333	2.815	0.037	0.027
-199.319	-66.757	0.284	0.111
-198.304	-5.115	-0.041	-0.028
-197.290	-14.374	-0.091	-0.058
-196.275	-113.060	0.007	-0.001
-195.260	-105.705	-0.100	-0.022
-194.246	-60.813	0.214	-0.090
-193.231	-118.243	0.215	-0.038
-192.217	-200.000	0.029	0.221
-191.202	-200.000	-0.056	0.284
-190.187	800.000	-0.044	-0.166
-189.173	274.501	0.025	0.043
-188.158	158.388	-0.064	0.087
-187.144	32.543	0.076	0.065
-186.129	725.032	0.098	-0.259
-185.114	1.133	0.150	0.106
-184.100	167.051	-0.134	0.188
-183.085	190.278	0.063	-0.093
-182.071	-81.828	-0.193	-0.062
-181.056	-119.745	-0.367	-0.062
-180.042	117.741	-0.135	0.164
-179.027	295.619	0.037	-0.066
-178.012	122.686	0.160	0.197
-176.998	105.549	0.092	0.108
-175.983	49.391	-0.038	0.035
-174.969	800.000	0.132	-0.449
-173.954	800.000	0.069	0.253
-172.939	-200.000	-0.004	-0.235
-171.925	104.347	0.202	0.235
-170.910	46.322	0.033	0.030
-169.896	-84.085	0.031	0.010
-168.881	617.014	0.150	-0.371
-167.866	800.000	-0.059	-0.223
-166.852	294.131	0.102	-0.184
-165.837	238.608	-0.079	-0.129
-164.823	-200.000	0.120	-0.587
-163.808	-200.000	0.025	-0.109
-162.793	800.000	0.045	0.140
-161.779	-156.050	0.697	0.044
-160.764	-200.000	0.010	0.249
-159.750	-22.902	-0.045	-0.027
-158.735	-75.130	-0.118	-0.042
-157.720	77.098	0.086	0.090
-156.706	149.637	-0.114	0.152
-155.691	132.962	-0.230	0.293
-154.677	-200.000	-0.038	0.251
-153.662	-183.469	0.342	0.006
-152.647	7.163	0.088	0.065
-151.633	659.546	0.051	-0.130
-150.618	333.656	-0.144	0.275
-149.604	283.247	-0.309	0.547
-148.589	-200.000	0.002	0.205
-147.574	84.345	0.289	0.312
-146.560	800.000	-0.030	0.107
-145.545	267.511	-0.080	-0.138
-144.531	-200.000	-0.005	0.063
-143.516	-200.000	-0.014	0.207
-142.502	-200.000	0.011	0.179
-141.487	-200.000	0.071	0.340
-140.472	-55.834	-0.110	0.048
-139.458	-54.118	0.098	-0.044
-138.443	232.322	-0.134	-0.217
-137.429	-6.941	0.081	0.054
-136.414	-72.228	-0.313	0.114
-135.399	-62.618	-0.287	0.117
-134.385	-35.369	0.107	0.057
-133.370	-78.280	0.324	0.110
-132.356	-200.000	0.012	-0.138
-131.341	129.884	-0.210	-0.265
-130.326	52.745	-0.297	-0.279
-129.312	175.838	-0.168	0.241
-128.297	462.313	-0.153	-0.335
-127.283	-83.087	-0.491	0.156
-126.268	-152.929	-0.139	-0.010
-125.253	176.524	0.187	-0.268
-124.239	-67.768	-0.105	-0.040
-123.224	101.088	-0.173	-0.199
-122.210	-0.502	0.188	0.132
-121.195	-115.186	-0.555	0.104
-120.180	-144.454	-0.191	0.017
