DTS Sentinel unit serial number:	SN413079Multiplexer serial number:	ORYXHardware model number:	OX4-SRSoftware version number:	ORYX F/W v4.00 Oryx Data Collector v3.7.2.0data status	okinstallation	princeton_trtdifferential loss correction	single-endedforward channel	channel 2reverse channel	N/Adate	2019/09/12time	03:13:10forward acquisition time	60.00reverse acquisition time	0.00gamma	496.2192k internal	0.2327k external	0.2327temperature offset calibration	1.0090default loss term (dB/km)	0.3790temperature slope calibration	1.0000multiplexer offset coefficient	1.0000multiplexer slope coefficient	1.0000fibre end	0.00T internal ref (°C)	32.28T ext. ref 1 (°C)	2.11T ext. ref 2 (°C)	27.17length (m)	temperature (°C)	Stokes	anti-Stokes-747.200	2.779	-0.235	0.172
-746.185	40.094	-0.287	0.260
-745.171	-152.054	0.130	0.010
-744.156	-148.173	-0.275	0.023
-743.142	120.514	-0.108	-0.135
-742.127	41.416	-0.195	-0.178
-741.112	800.000	0.012	0.045
-740.098	225.884	0.128	-0.210
-739.083	-51.795	0.301	0.141
-738.069	72.131	0.133	0.140
-737.054	-200.000	0.057	0.271
-736.039	-133.483	-0.328	0.041
-735.025	91.557	-0.126	-0.143
-734.010	131.392	-0.254	0.330
-732.996	-119.300	0.049	-0.009
-731.981	411.381	-0.181	-0.388
-730.966	24.215	-0.295	0.245
-729.952	800.000	0.061	-0.247
-728.937	-200.000	0.005	-0.337
-727.923	800.000	-0.054	-0.235
-726.908	9.340	-0.289	0.221
-725.894	-47.520	-0.225	-0.110
-724.879	-200.000	0.031	0.357
-723.864	-140.185	-0.213	-0.022
-722.850	-155.519	-0.252	0.016
-721.835	71.670	0.135	-0.141
-720.821	-200.000	-0.006	-0.142
-719.806	-151.085	-0.475	0.036
-718.791	-200.000	-0.055	-0.281
-717.777	79.413	-0.129	-0.139
-716.762	-122.521	0.202	-0.033
-715.748	45.502	0.170	-0.158
-714.733	800.000	-0.057	-0.159
-713.718	800.000	-0.090	0.290
-712.704	800.000	-0.087	0.348
-711.689	-65.300	-0.266	-0.108
-710.675	-200.000	0.014	-0.289
-709.660	800.000	0.054	-0.227
-708.645	53.586	0.065	-0.062
-707.631	-200.000	-0.005	0.110
-706.616	77.709	0.128	-0.137
-705.602	196.262	0.091	-0.139
-704.587	-133.341	-0.180	0.023
-703.572	130.738	-0.264	-0.341
-702.558	34.285	-0.124	-0.109
-701.543	76.181	-0.139	-0.149
-700.529	-200.000	0.029	0.212
-699.514	462.069	0.097	0.217
-698.499	9.595	0.173	-0.132
-697.485	-18.324	0.123	0.078
-696.470	-27.723	0.168	-0.098
-695.456	98.909	-0.110	-0.127
-694.441	-200.000	0.004	-0.196
-693.426	80.783	-0.167	-0.181
-692.412	-84.670	-0.356	0.113
-691.397	-200.000	-0.017	0.147
-690.383	-175.969	-0.275	0.007
-689.368	-200.000	-0.006	0.122
-688.354	3.325	0.177	0.129
-687.339	285.594	-0.068	-0.123
-686.324	419.972	0.050	-0.108
-685.310	-200.000	-0.039	-0.239
-684.295	112.869	0.080	0.097
-683.281	-15.599	0.221	0.142
-682.266	-51.418	-0.198	-0.093
-681.251	498.042	0.034	0.078
-680.237	-37.076	-0.494	-0.266
-679.222	-85.268	-0.175	-0.055
-678.208	88.139	0.091	-0.102
-677.193	800.000	0.043	0.188
-676.178	43.991	-0.176	0.162
-675.164	25.471	0.128	0.107
-674.149	20.303	-0.325	-0.264
-673.135	-106.535	-0.211	0.047
-672.120	356.304	0.057	-0.114
-671.105	-89.444	0.437	-0.129
-670.091	300.056	-0.084	-0.156
-669.076	38.487	-0.078	-0.070
-668.062	106.078	0.054	0.064
-667.047	154.647	0.090	-0.125
-666.032	-144.235	-0.429	0.040
-665.018	79.272	0.081	0.088
-664.003	541.767	-0.032	-0.076
-662.989	-104.374	-0.100	0.023
-661.974	800.000	-0.057	0.188
-660.959	800.000	-0.079	-0.330
-659.945	800.000	0.076	-0.247
-658.930	-25.352	-0.174	0.103
-657.916	800.000	0.124	-0.383
-656.901	105.064	-0.108	0.128
-655.886	105.607	0.128	-0.152
-654.872	-200.000	0.025	-0.321
-653.857	-30.515	0.112	0.064
-652.843	112.096	-0.082	-0.100
-651.828	800.000	-0.051	0.208
-650.814	800.000	0.007	0.022
-649.799	-200.000	0.011	0.233
-648.784	110.426	0.040	-0.049
-647.770	303.574	0.318	-0.593
-646.755	800.000	-0.030	0.095
-645.741	-200.000	-0.028	-0.336
-644.726	117.144	0.113	0.139
-643.711	-200.000	-0.014	-0.154
-642.697	91.695	-0.098	0.111
-641.682	467.963	-0.116	-0.260
-640.668	69.015	0.221	-0.228
-639.653	48.234	-0.103	0.097
-638.638	-142.075	0.335	0.033
-637.624	-138.438	-0.308	0.034
-636.609	-80.437	-0.368	-0.123
-635.595	140.063	-0.252	-0.334
-634.580	40.505	0.030	-0.027
-633.565	296.041	0.157	-0.289
-632.551	658.700	0.058	-0.151
-631.536	-101.728	0.228	-0.056
-630.522	63.351	-0.194	-0.196
-629.507	609.942	0.129	-0.323
-628.492	-154.954	-0.136	-0.009
-627.478	800.000	-0.121	0.364
-626.463	-200.000	-0.001	-0.078
-625.449	-173.712	0.305	0.009
-624.434	-109.340	0.071	0.015
-623.419	625.970	-0.181	-0.458
-622.405	-49.481	0.287	0.137
-621.390	-200.000	-0.019	-0.116
-620.376	-200.000	0.015	-0.210
-619.361	-127.715	-0.199	0.029
-618.346	41.993	-0.133	0.121
-617.332	69.721	0.040	-0.042
-616.317	-200.000	0.003	-0.110
-615.303	-200.000	0.003	0.046
-614.288	-200.000	0.056	-0.299
-613.273	-153.258	-0.109	-0.008
-612.259	800.000	0.068	-0.220
-611.244	21.178	-0.066	0.053
-610.230	520.457	-0.075	-0.177
-609.215	-200.000	0.015	0.100
-608.201	-76.203	0.264	-0.093
-607.186	-129.895	-0.258	-0.036
-606.171	-123.436	-0.102	-0.016
-605.157	800.000	0.039	0.112
-604.142	-69.998	-0.066	-0.025
-603.128	-74.824	0.123	0.044
-602.113	-57.206	-0.165	-0.073
-601.098	-30.113	-0.203	0.116
-600.084	-148.552	-0.211	0.017
-599.069	-200.000	0.013	0.144
-598.055	-189.308	0.106	0.001
-597.040	245.611	-0.098	0.166
-596.025	-200.000	0.002	0.030
-595.011	-200.000	0.050	-0.578
-593.996	38.943	-0.177	-0.158
-592.982	45.269	-0.112	0.104
-591.967	-38.238	-0.216	0.115
-590.952	75.092	0.170	0.179
-589.938	-167.686	-0.143	0.006
-588.923	-200.000	0.064	0.360
-587.909	-106.578	0.077	0.017
-586.894	-97.255	0.184	-0.048
-585.879	74.104	0.067	0.071
-584.865	9.739	0.179	-0.136
-583.850	-21.615	0.374	0.228
-582.836	-200.000	0.005	-0.197
-581.821	800.000	-0.032	-0.132
-580.806	182.420	0.086	0.127
-579.792	-145.403	-0.027	0.002
-578.777	302.849	-0.095	0.176
-577.763	-61.957	-0.243	-0.102
-576.748	31.336	0.134	0.116
-575.733	100.678	0.183	0.213
-574.719	800.000	0.054	-0.214
-573.704	69.875	-0.218	0.226
-572.690	800.000	0.042	-0.153
-571.675	800.000	-0.063	0.252
-570.661	-200.000	-0.044	0.221
-569.646	79.917	-0.211	0.227
-568.631	-67.985	-0.133	0.052
-567.617	155.376	-0.232	0.320
-566.602	-30.731	0.255	0.145
-565.588	-200.000	0.009	-0.357
-564.573	13.238	0.094	-0.073
-563.558	-145.484	0.335	0.030
-562.544	-88.243	0.110	0.033
-561.529	294.178	0.186	-0.340
-560.515	-0.003	0.482	0.344
-559.500	-164.949	-0.141	0.006
-558.485	-118.685	-0.088	-0.015
-557.471	-169.621	0.108	0.004
-556.456	-200.000	-0.012	0.066
-555.442	-44.728	-0.170	0.085
-554.427	66.669	-0.088	-0.089
-553.412	519.534	0.035	0.082
-552.398	-175.654	0.360	-0.010
-551.383	-57.491	-0.044	0.019
-550.369	348.807	0.207	0.409
-549.354	135.016	-0.056	0.072
-548.339	800.000	0.093	0.343
-547.325	-200.000	-0.035	0.375
-546.310	-31.702	-0.285	-0.160
-545.296	56.564	0.192	0.186
-544.281	-116.205	-0.253	-0.047
-543.266	-159.057	0.135	-0.008
-542.252	275.523	-0.123	-0.219
-541.237	-200.000	0.008	-0.288
-540.223	-85.817	-0.420	0.130
-539.208	-200.000	-0.046	-0.344
-538.193	-76.276	0.257	-0.091
-537.179	-14.329	0.290	0.187
-536.164	169.334	0.118	-0.168
-535.150	4.901	-0.021	0.015
-534.135	3.446	0.039	0.029
-533.121	800.000	-0.154	-0.544
-532.106	-98.084	0.179	-0.046
-531.091	92.055	-0.275	-0.310
-530.077	-22.101	-0.223	0.136
-529.062	-104.053	-0.210	0.049
-528.048	-200.000	-0.009	0.048
-527.033	-200.000	0.032	0.174
-526.018	238.343	-0.126	-0.209
-525.004	-200.000	-0.040	-0.410
-523.989	-68.202	-0.168	-0.065
-522.975	750.263	0.043	-0.117
-521.960	-170.524	-0.117	-0.004
-520.945	-14.415	0.130	-0.084
-519.931	111.665	0.123	-0.148
-518.916	50.476	-0.077	-0.072
-517.902	122.183	0.119	-0.148
-516.887	98.241	-0.112	0.129
-515.872	651.247	-0.176	-0.452
-514.858	20.236	-0.293	-0.236
-513.843	-56.253	-0.203	0.090
-512.829	800.000	0.068	0.233
-511.814	41.595	0.277	-0.251
-510.799	-108.049	-0.065	-0.014
-509.785	-61.159	0.502	0.211
-508.770	-4.431	-0.309	-0.214
-507.756	800.000	-0.085	-0.248
-506.741	739.734	0.099	0.266
-505.726	201.109	-0.238	-0.366
-504.712	15.149	-0.034	-0.027
-503.697	-200.000	-0.027	-0.434
-502.683	59.271	-0.157	-0.154
-501.668	-58.352	-0.356	0.155
-500.653	-34.943	-0.177	-0.096
-499.639	-200.000	-0.001	0.255
-498.624	-200.000	-0.025	-0.121
-497.610	6.525	0.083	-0.062
-496.595	356.991	-0.024	0.048
-495.581	-200.000	0.030	0.167
-494.566	198.395	-0.036	-0.055
-493.551	325.176	-0.189	-0.360
-492.537	79.357	-0.096	0.102
-491.522	36.131	0.111	0.098
-490.508	335.830	-0.234	-0.454
-489.493	-54.001	0.149	-0.068
-488.478	74.810	-0.104	-0.109
-487.464	800.000	0.041	0.118
-486.449	100.747	0.077	-0.089
-485.435	-59.100	-0.303	-0.130
-484.420	-94.430	0.348	0.095
-483.405	800.000	-0.117	-0.332
-482.391	-200.000	0.016	-0.228
-481.376	-127.307	0.438	-0.064
-480.362	-200.000	0.021	0.179
-479.347	-36.304	-0.254	0.137
-478.332	15.923	0.097	0.076
-477.318	-200.000	-0.012	0.092
-476.303	-200.000	0.002	0.131
-475.289	-175.164	-0.040	-0.001
-474.274	800.000	-0.063	0.191
-473.259	245.238	-0.104	-0.175
-472.245	4.854	0.085	-0.062
-471.230	-200.000	0.050	0.323
-470.216	171.514	0.179	0.256
-469.201	-130.080	0.152	0.021
-468.186	-10.915	-0.278	0.183
-467.172	249.426	-0.107	-0.182
-466.157	136.911	-0.116	-0.151
-465.143	107.923	0.111	0.132
-464.128	28.615	0.232	0.196
-463.113	-200.000	0.041	-0.180
-462.099	254.166	-0.122	-0.209
-461.084	-59.711	-0.179	-0.077
-460.070	-92.289	0.178	-0.050
-459.055	449.046	0.201	-0.442
-458.040	-169.613	0.272	0.010
-457.026	152.747	0.047	-0.064
-456.011	513.142	0.087	-0.202
-454.997	-160.122	-0.330	-0.018
-453.982	-19.212	0.196	-0.121
-452.968	-185.697	-0.064	0.001
-451.953	188.787	-0.143	-0.213
-450.938	263.095	-0.095	-0.165
-449.924	-90.784	0.162	0.047
-448.909	-200.000	0.021	-0.105
-447.895	-83.416	-0.389	0.124
-446.880	52.989	-0.266	0.254
-445.865	251.956	-0.138	0.235
-444.851	674.723	0.071	-0.183
-443.836	-200.000	-0.003	-0.265
-442.822	-114.993	-0.116	-0.022
-441.807	37.704	0.163	0.144
-440.792	-56.478	-0.246	0.109
-439.778	2.786	-0.288	0.208
-438.763	-111.250	0.244	-0.050
-437.749	68.182	0.121	0.124
-436.734	575.851	0.079	-0.192
-435.719	-115.433	-0.150	0.028
-434.705	-117.914	-0.382	-0.068
-433.690	436.944	-0.106	-0.230
-432.676	21.229	0.359	-0.290
-431.661	119.080	0.087	0.108
-430.646	800.000	-0.091	0.319
-429.632	-138.617	-0.244	0.027
-428.617	-5.008	0.301	0.207
-427.603	-200.000	-0.033	0.168
-426.588	5.706	-0.245	-0.181
-425.573	-200.000	0.032	0.145
-424.559	109.575	-0.031	-0.037
-423.544	-102.813	0.341	0.081
-422.530	485.731	0.018	-0.040
-421.515	14.357	0.110	0.085
-420.500	-85.817	0.119	0.037
-419.486	468.880	0.093	-0.208
-418.471	343.316	0.083	0.162
-417.457	2.067	0.238	0.171
-416.442	480.057	-0.108	0.244
-415.428	132.253	-0.172	0.221
-414.413	157.821	0.087	0.120
-413.398	-200.000	-0.012	-0.161
-412.384	-62.358	0.119	0.049
-411.369	-55.450	0.042	0.019
-410.355	4.377	-0.150	0.110
-409.340	-200.000	-0.032	0.237
-408.325	262.820	0.098	0.169
-407.311	-97.594	0.237	-0.061
-406.296	-105.781	0.517	-0.116
-405.282	-135.109	-0.246	0.029
-404.267	-200.000	0.002	-0.049
-403.252	148.441	0.122	0.164
-402.238	-129.721	0.058	-0.008
-401.223	-62.353	0.156	-0.065
-400.209	459.453	0.118	-0.261
-399.194	584.766	0.189	-0.461
-398.179	-29.381	0.100	-0.057
-397.165	-200.000	0.022	0.450
-396.150	426.264	-0.120	-0.256
-395.136	121.867	0.141	-0.175
-394.121	-79.309	-0.247	0.083
-393.106	-158.893	-0.240	-0.014
-392.092	413.169	-0.149	0.315
-391.077	-95.196	-0.180	-0.048
-390.063	-11.888	-0.055	-0.036
-389.048	-76.653	0.234	-0.082
-388.033	-25.382	-0.054	-0.032
-387.019	-109.865	-0.052	0.011
-386.004	-102.935	0.112	0.026
-384.990	-72.298	0.279	0.103
-383.975	800.000	-0.020	-0.087
-382.960	-86.653	-0.178	0.054
-381.946	364.463	0.075	0.150
-380.931	48.252	0.160	0.149
-379.917	-54.882	0.406	-0.182
-378.902	114.836	-0.067	0.081
-377.888	291.158	0.041	-0.074
-376.873	-158.141	0.180	-0.010
-375.858	-58.074	0.176	-0.076
-374.844	116.892	-0.109	0.134
-373.829	-200.000	-0.068	0.359
-372.815	800.000	-0.090	-0.367
-371.800	121.621	0.079	0.098
-370.785	142.858	-0.152	0.201
-369.771	-55.382	-0.257	0.115
-368.756	53.158	0.255	0.243
-367.742	-200.000	0.025	0.149
-366.727	-200.000	0.012	0.385
-365.712	-50.984	-0.381	0.178
-364.698	-84.485	0.123	0.038
-363.683	-129.649	-0.247	-0.034
-362.669	-133.839	0.296	-0.037
-361.654	-136.379	-0.102	0.012
-360.639	-82.076	0.297	0.096
-359.625	-200.000	-0.056	0.512
-358.610	800.000	-0.045	0.194
-357.596	800.000	0.073	-0.244
-356.581	51.522	-0.025	-0.023
-355.566	-99.838	-0.135	-0.034
-354.552	-129.636	0.044	-0.006
-353.537	-141.998	0.287	-0.028
-352.523	-126.390	0.133	0.020
-351.508	-133.718	0.120	-0.015
-350.493	-68.338	-0.087	0.034
-349.479	-43.195	0.213	0.107
-348.464	70.234	0.383	-0.393
-347.450	-200.000	-0.000	-0.123
-346.435	-54.140	-0.021	0.010
-345.420	326.968	0.143	0.272
-344.406	-200.000	-0.043	0.189
-343.391	-37.727	-0.347	-0.184
-342.377	-65.362	0.270	0.108
-341.362	89.688	0.185	0.205
-340.348	-12.047	-0.068	0.044
-339.333	-93.053	-0.172	0.048
-338.318	-200.000	-0.011	0.060
-337.304	355.710	0.083	0.164
-336.289	-164.531	-0.140	-0.006
-335.275	-132.607	-0.201	-0.026
-334.260	-33.305	-0.147	-0.080
-333.245	27.047	0.194	-0.162
-332.231	-46.600	-0.115	0.056
-331.216	800.000	-0.174	0.567
-330.202	-19.387	0.248	0.153
-329.187	97.131	0.110	0.125
-328.172	-200.000	-0.025	-0.212
-327.158	60.040	-0.197	-0.193
-326.143	-55.811	0.268	0.119
-325.129	630.857	0.043	0.109
-324.114	742.366	-0.102	0.272
-323.099	150.203	-0.029	0.040
-322.085	-68.028	-0.047	0.018
-321.070	-43.354	-0.324	-0.162
-320.056	429.995	0.106	-0.227
-319.041	-1.247	0.205	0.143
-318.026	305.284	-0.165	-0.304
-317.012	-89.827	-0.207	-0.060
-315.997	499.067	-0.014	0.032
-314.983	-200.000	0.012	-0.076
-313.968	299.776	0.042	-0.077
-312.953	-85.640	-0.024	0.007
-311.939	73.465	-0.088	0.091
-310.924	131.961	-0.088	0.113
-309.910	-200.000	0.021	0.135
-308.895	108.448	0.114	0.135
-307.880	214.407	0.026	-0.040
-306.866	236.042	0.017	-0.028
-305.851	-77.470	-0.177	-0.061
-304.837	-11.420	0.109	-0.071
-303.822	501.005	0.058	-0.132
-302.807	70.045	-0.109	0.112
-301.793	-200.000	0.086	0.412
-300.778	800.000	0.065	-0.278
-299.764	-62.446	-0.060	0.025
-298.749	-31.739	0.033	0.018
-297.735	-42.941	0.174	0.088
-296.720	-87.784	-0.259	-0.077
-295.705	205.259	-0.222	-0.341
-294.691	-33.118	-0.437	0.240
-293.676	-55.168	0.090	-0.040
-292.662	-18.177	0.342	-0.212
-291.647	417.315	0.097	0.205
-290.632	-200.000	0.007	-0.216
-289.618	149.815	-0.103	0.138
-288.603	800.000	-0.089	-0.369
-287.589	800.000	0.028	0.116
-286.574	153.209	-0.083	-0.112
-285.559	184.377	0.112	-0.164
-284.545	252.377	-0.016	0.026
-283.530	123.787	0.171	0.212
-282.516	1.581	0.134	-0.096
-281.501	-200.000	0.015	-0.148
-280.486	-200.000	-0.043	0.214
-279.472	383.159	-0.103	-0.211
-278.457	-131.500	-0.028	0.004
-277.443	136.951	0.184	0.237
-276.428	71.477	-0.158	0.163
-275.413	-133.574	-0.608	0.075
-274.399	-65.218	0.073	0.029
-273.384	800.000	-0.051	0.200
-272.370	47.309	-0.143	0.132
-271.355	-63.338	0.172	0.070
-270.340	800.000	-0.069	-0.220
-269.326	-76.327	0.024	0.008
-268.311	-200.000	0.037	0.303
-267.297	-200.000	0.014	-0.071
-266.282	800.000	0.060	0.235
-265.267	247.266	-0.155	0.259
-264.253	205.065	0.161	-0.247
-263.238	-29.528	0.276	0.156
-262.224	-194.251	-0.341	0.003
-261.209	32.942	0.199	-0.171
-260.195	800.000	-0.055	0.197
-259.180	-200.000	0.017	0.165
-258.165	187.526	0.086	0.127
-257.151	-63.158	0.122	-0.050
-256.136	-200.000	0.003	-0.122
-255.122	-200.000	-0.052	-0.289
-254.107	283.749	0.127	-0.225
-253.092	595.182	0.170	-0.416
-252.078	-200.000	-0.041	-0.209
-251.063	18.151	-0.047	0.037
-250.049	25.193	0.123	0.101
-249.034	-33.428	-0.200	-0.109
-248.019	800.000	-0.040	0.164
-247.005	131.762	-0.115	-0.146
-245.990	299.657	0.052	0.095
-244.976	-200.000	0.005	0.027
-243.961	-159.637	0.386	0.021
-242.946	-82.189	-0.103	-0.033
-241.932	135.732	0.036	-0.046
-240.917	-77.703	0.301	-0.103
-239.903	41.309	-0.308	0.275
-238.888	-141.462	-0.131	0.013
-237.873	-103.247	-0.176	0.041
-236.859	-88.657	0.116	-0.034
-235.844	-121.116	0.236	0.039
-234.830	224.757	0.027	-0.043
-233.815	-200.000	0.027	0.176
-232.800	-200.000	-0.010	-0.055
-231.786	45.187	0.268	-0.244
-230.771	-33.945	-0.147	-0.080
-229.757	-182.308	0.303	0.006
-228.742	42.686	-0.157	-0.142
-227.727	399.554	0.086	-0.179
-226.713	-165.256	0.193	-0.008
-225.698	-200.000	-0.009	0.055
-224.684	506.077	-0.094	-0.216
-223.669	-127.304	0.392	0.056
-222.655	-141.805	0.311	-0.031
-221.640	-185.270	-0.141	-0.002
-220.625	-25.751	-0.157	-0.091
-219.611	-79.294	0.198	0.066
-218.596	-95.158	-0.114	-0.030
-217.582	-200.000	-0.070	0.585
-216.567	75.999	0.170	0.178
-215.552	114.125	-0.018	0.022
-214.538	122.870	0.105	0.129
-213.523	-132.325	0.056	0.007
-212.509	-200.000	-0.020	0.099
-211.494	-145.225	0.069	0.006
-210.479	800.000	0.054	-0.178
-209.465	-143.042	0.158	-0.015
-208.450	-1.447	-0.300	0.209
-207.436	-43.109	-0.040	-0.020
-206.421	138.767	-0.288	0.373
-205.406	-200.000	-0.026	-0.196
-204.392	129.877	0.123	-0.155
-203.377	-96.816	0.174	0.045
-202.363	-200.000	0.004	0.140
-201.348	-119.886	-0.106	0.018
-200.333	-129.875	0.201	0.027
-199.319	27.642	-0.287	0.238
-198.304	37.460	0.127	-0.111
-197.290	-103.023	0.384	0.090
-196.275	374.113	-0.075	0.151
-195.260	-200.000	0.012	0.136
-194.246	-200.000	-0.019	0.160
-193.231	251.904	0.063	-0.105
-192.217	-69.664	-0.122	0.046
-191.202	630.748	-0.067	-0.168
-190.187	800.000	-0.094	-0.260
-189.173	-23.608	-0.242	-0.143
-188.158	-136.216	0.124	0.014
-187.144	-38.985	0.322	-0.167
-186.129	60.370	0.147	0.144
-185.114	275.181	-0.064	-0.111
-184.100	6.592	0.209	-0.153
-183.085	139.181	-0.017	-0.022
-182.071	-150.430	-0.555	-0.042
-181.056	90.680	0.286	0.316
-180.042	195.392	0.147	-0.221
-179.027	22.890	-0.097	0.078
-178.012	-79.551	0.250	0.083
-176.998	42.687	-0.249	-0.223
-175.983	-85.258	0.013	0.004
-174.969	521.267	-0.052	-0.120
-173.954	-200.000	0.022	-0.290
-172.939	800.000	-0.119	-0.347
-171.925	201.466	-0.057	-0.087
-170.910	800.000	-0.079	0.298
-169.896	-95.363	-0.226	0.060
-168.881	800.000	-0.067	0.242
-167.866	42.440	0.217	-0.195
-166.852	160.606	-0.062	0.086
-165.837	-169.902	-0.162	-0.006
-164.823	-200.000	0.059	0.399
-163.808	-115.806	-0.494	-0.091
-162.793	-200.000	0.004	-0.042
-161.779	-200.000	0.014	0.202
-160.764	-200.000	-0.004	0.267
-159.750	-200.000	-0.033	0.344
-158.735	-71.533	-0.198	0.073
-157.720	9.552	0.155	0.116
-156.706	-200.000	-0.020	0.258
-155.691	59.961	-0.114	0.111
-154.677	-11.870	-0.130	0.084
-153.662	-121.678	-0.341	0.056
-152.647	71.656	0.052	-0.053
-151.633	32.713	0.027	0.023
-150.618	-95.847	0.320	-0.084
-149.604	-62.254	0.111	0.046
-148.589	-200.000	0.009	0.057
-147.574	-60.768	-0.050	0.021
-146.560	-200.000	-0.007	0.185
-145.545	191.965	-0.064	0.095
-144.531	-151.552	0.339	0.025
-143.516	75.228	0.095	-0.098
-142.502	800.000	-0.017	0.070
-141.487	-124.408	-0.048	0.007
-140.472	-34.694	0.182	-0.098
-139.458	-135.711	-0.130	0.015
-138.443	42.871	0.193	-0.173
-137.429	-200.000	0.037	0.172
-136.414	-144.955	0.276	0.025
-135.399	192.037	0.019	-0.028
-134.385	-117.724	-0.284	0.050
-133.370	-141.607	-0.144	0.014
-132.356	153.135	-0.027	-0.037
-131.341	-181.758	-0.090	0.002
-130.326	86.441	-0.097	-0.105
-129.312	241.351	-0.153	-0.251
-128.297	-126.902	0.208	0.030
-127.283	800.000	0.055	-0.199
-126.268	-200.000	0.011	0.166
-125.253	31.499	-0.045	-0.038
-124.239	563.140	0.050	-0.120
-123.224	31.085	-0.123	0.104
-122.210	-200.000	0.033	-0.187
-121.195	-200.000	-0.024	0.301
