DTS Sentinel unit serial number:	SN413079Multiplexer serial number:	ORYXHardware model number:	OX4-SRSoftware version number:	ORYX F/W v4.00 Oryx Data Collector v3.7.2.0data status	okinstallation	princeton_trtdifferential loss correction	single-endedforward channel	channel 2reverse channel	N/Adate	2019/09/11time	11:17:11forward acquisition time	60.00reverse acquisition time	0.00gamma	496.2192k internal	0.2307k external	0.2307temperature offset calibration	0.9970default loss term (dB/km)	0.3790temperature slope calibration	1.0000multiplexer offset coefficient	1.0000multiplexer slope coefficient	1.0000fibre end	0.00T internal ref (°C)	37.66T ext. ref 1 (°C)	0.19T ext. ref 2 (°C)	34.12length (m)	temperature (°C)	Stokes	anti-Stokes-747.200	-130.748	0.182	-0.025
-746.185	-200.000	0.034	0.151
-745.171	-200.000	0.025	0.120
-744.156	330.606	-0.138	-0.270
-743.142	-45.012	0.385	-0.195
-742.127	-85.836	-0.481	-0.152
-741.112	130.565	0.167	0.218
-740.098	-111.418	0.051	-0.011
-739.083	-75.308	-0.068	0.025
-738.069	-200.000	0.017	0.387
-737.054	214.132	0.090	-0.145
-736.039	-94.474	-0.328	0.091
-735.025	-12.081	-0.140	0.093
-734.010	800.000	-0.075	-0.237
-732.996	570.708	0.013	0.031
-731.981	18.588	0.097	-0.079
-730.966	800.000	0.047	-0.160
-729.952	-124.868	0.287	-0.045
-728.937	146.950	0.023	-0.032
-727.923	-200.000	0.004	-0.106
-726.908	246.112	-0.088	-0.150
-725.894	57.176	0.117	-0.116
-724.879	197.811	-0.064	-0.100
-723.864	-53.692	-0.327	-0.152
-722.850	-33.408	0.139	-0.078
-721.835	-87.463	-0.333	-0.103
-720.821	192.308	-0.095	-0.146
-719.806	359.013	0.058	-0.117
-718.791	33.896	-0.174	-0.154
-717.777	-200.000	-0.028	-0.194
-716.762	478.711	-0.120	0.276
-715.748	15.998	-0.194	0.155
-714.733	-139.350	0.101	-0.011
-713.718	-113.143	0.432	0.087
-712.704	304.673	0.079	0.150
-711.689	-148.259	-0.331	0.028
-710.675	386.942	0.017	0.035
-709.660	5.642	0.061	0.046
-708.645	-117.727	0.266	-0.049
-707.631	-23.577	0.122	0.074
-706.616	800.000	0.067	-0.214
-705.602	-178.867	0.094	-0.002
-704.587	598.378	-0.041	0.104
-703.572	-15.634	-0.394	0.255
-702.558	670.810	-0.037	0.098
-701.543	-197.997	0.208	0.001
-700.529	108.506	-0.110	0.133
-699.514	-200.000	0.058	0.323
-698.499	-127.529	0.200	0.030
-697.485	-200.000	-0.015	-0.204
-696.470	-172.415	0.063	0.002
-695.456	191.340	0.229	0.349
-694.441	-200.000	0.020	0.191
-693.426	-148.221	-0.272	0.023
-692.412	109.369	0.070	0.085
-691.397	-52.183	0.258	0.121
-690.383	-9.014	0.340	0.231
-689.368	72.081	-0.136	-0.144
-688.354	-200.000	0.091	-0.424
-687.339	-147.694	0.097	-0.008
-686.324	-200.000	-0.012	0.183
-685.310	326.338	-0.173	0.335
-684.295	800.000	0.054	0.218
-683.281	-200.000	0.031	-0.202
-682.266	800.000	0.043	-0.134
-681.251	-142.857	-0.323	0.032
-680.237	-164.040	-0.228	-0.011
-679.222	451.917	-0.151	0.338
-678.208	160.915	0.129	0.182
-677.193	-142.117	0.408	-0.041
-676.178	-200.000	0.009	-0.204
-675.164	346.066	-0.053	0.105
-674.149	290.810	-0.038	0.069
-673.135	-73.361	-0.117	0.043
-672.120	3.055	-0.235	-0.173
-671.105	140.448	-0.150	0.201
-670.091	71.732	0.092	0.096
-669.076	-128.016	0.133	-0.019
-668.062	-200.000	-0.010	-0.114
-667.047	-200.000	0.032	0.382
-666.032	549.781	-0.087	-0.211
-665.018	53.709	0.234	-0.227
-664.003	800.000	0.072	-0.307
-662.989	800.000	-0.080	0.253
-661.974	-123.227	-0.177	-0.029
-660.959	174.102	-0.150	0.219
-659.945	-200.000	0.056	-0.320
-658.930	-129.229	0.111	0.016
-657.916	-200.000	0.009	-0.104
-656.901	360.500	-0.166	-0.337
-655.886	587.820	0.058	0.144
-654.872	688.921	-0.086	0.228
-653.857	-40.188	0.135	-0.071
-652.843	-75.184	0.090	0.032
-651.828	408.154	-0.025	0.054
-650.814	59.390	-0.028	0.028
-649.799	-32.433	0.205	-0.116
-648.784	2.193	-0.269	-0.197
-647.770	-29.978	0.258	-0.149
-646.755	-3.317	0.150	0.106
-645.741	-120.071	0.410	-0.071
-644.726	-200.000	0.011	0.413
-643.711	-17.291	-0.090	0.057
-642.697	-200.000	0.256	0.000
-641.682	44.716	0.108	0.101
-640.668	12.312	0.097	0.075
-639.653	300.043	-0.226	-0.423
-638.638	-3.545	0.301	0.212
-637.624	-36.939	-0.091	-0.050
-636.609	800.000	-0.013	0.048
-635.595	-133.745	-0.133	-0.017
-634.580	39.699	-0.268	0.243
-633.565	174.852	0.190	-0.278
-632.551	-174.142	-0.164	-0.005
-631.536	-200.000	-0.039	-0.178
-630.522	-121.940	0.142	-0.024
-629.507	407.511	0.088	0.188
-628.492	65.795	0.144	-0.147
-627.478	-170.594	-0.365	-0.013
-626.463	-151.068	0.182	-0.014
-625.449	20.903	0.382	-0.314
-624.434	-159.430	0.043	0.002
-623.419	-118.344	0.233	0.042
-622.405	450.972	0.081	-0.181
-621.390	180.704	0.041	0.061
-620.376	-39.525	-0.402	-0.213
-619.361	-114.693	0.093	0.018
-618.346	47.788	0.167	0.157
-617.332	800.000	-0.009	0.028
-616.317	-79.212	-0.154	-0.053
-615.303	194.275	-0.019	-0.029
-614.288	-118.885	-0.254	-0.045
-613.273	-33.288	-0.400	-0.224
-612.259	66.966	0.161	-0.166
-611.244	78.468	0.088	-0.095
-610.230	-36.715	-0.201	0.110
-609.215	-44.121	-0.236	-0.120
-608.201	43.439	-0.176	0.163
-607.186	-200.000	0.009	-0.280
-606.171	800.000	0.119	-0.358
-605.157	32.291	-0.132	0.115
-604.142	180.857	-0.037	-0.055
-603.128	-160.178	-0.245	-0.013
-602.113	-105.796	-0.236	-0.054
-601.098	29.913	-0.273	0.235
-600.084	-53.914	-0.076	0.035
-599.069	-200.000	0.025	-0.130
-598.055	688.147	0.141	-0.374
-597.040	-21.903	-0.055	0.034
-596.025	246.989	-0.189	0.322
-595.011	492.580	-0.115	-0.266
-593.996	-129.432	-0.195	-0.027
-592.982	-19.288	0.099	0.062
-591.967	268.627	-0.112	0.199
-590.952	368.832	-0.087	0.178
-589.938	-21.457	0.177	-0.109
-588.923	-98.483	0.097	0.025
-587.909	-138.463	-0.146	-0.016
-586.894	439.296	-0.129	0.284
-585.879	-111.070	-0.204	0.042
-584.865	800.000	-0.061	-0.227
-583.850	-49.813	0.314	-0.151
-582.836	243.434	0.073	-0.124
-581.821	4.186	0.147	0.109
-580.806	-101.882	0.044	0.011
-579.792	-122.993	-0.157	0.025
-578.777	322.957	-0.143	-0.275
-577.763	-117.033	-0.139	-0.026
-576.748	-80.021	-0.167	-0.057
-575.733	426.234	-0.090	0.197
-574.719	378.818	-0.052	-0.108
-573.704	-112.978	0.249	-0.050
-572.690	800.000	0.055	0.214
-571.675	10.722	-0.126	0.097
-570.661	119.386	0.097	0.122
-569.646	110.966	0.135	0.165
-568.631	590.150	-0.055	-0.137
-567.617	-200.000	-0.044	-0.216
-566.602	-68.406	-0.078	-0.030
-565.588	800.000	-0.062	-0.204
-564.573	17.549	-0.361	-0.290
-563.558	-93.211	0.555	-0.156
-562.544	216.049	0.272	0.436
-561.529	337.958	0.147	0.288
-560.515	-200.000	-0.005	0.076
-559.500	213.642	0.032	0.052
-558.485	226.913	-0.137	0.225
-557.471	-124.364	-0.258	0.041
-556.456	-130.784	0.038	-0.005
-555.442	262.776	-0.147	-0.258
-554.427	-58.153	-0.105	-0.046
-553.412	-34.292	-0.081	0.045
-552.398	-200.000	-0.025	0.394
-551.383	-133.549	-0.185	-0.023
-550.369	-200.000	0.074	0.356
-549.354	-200.000	-0.050	0.237
-548.339	-88.209	0.257	-0.078
-547.325	-17.899	0.244	0.154
-546.310	-24.584	0.030	-0.018
-545.296	120.904	-0.046	-0.058
-544.281	-147.127	-0.268	0.023
-543.266	-200.000	0.061	0.326
-542.252	-116.145	-0.195	0.037
-541.237	40.703	-0.300	-0.273
-540.223	-200.000	0.022	-0.311
-539.208	-90.348	0.081	-0.024
-538.193	-63.093	-0.239	-0.100
-537.179	224.262	-0.152	0.248
-536.164	96.341	0.022	-0.026
-535.150	108.173	0.185	-0.223
-534.135	404.720	0.090	0.191
-533.121	-49.399	-0.129	0.062
-532.106	800.000	-0.015	-0.054
-531.091	-108.274	0.343	0.075
-530.077	-200.000	0.029	-0.275
-529.062	-39.860	0.057	0.030
-528.048	-68.755	0.159	-0.062
-527.033	286.118	-0.139	0.253
-526.018	281.239	0.101	0.183
-525.004	-200.000	-0.022	-0.734
-523.989	800.000	0.080	-0.264
-522.975	57.149	0.350	0.344
-521.960	-200.000	0.237	-0.000
-520.945	-43.744	-0.442	0.225
-519.931	-148.697	0.191	-0.016
-518.916	158.609	-0.134	-0.188
-517.902	-3.210	-0.101	-0.071
-516.887	800.000	-0.045	-0.143
-515.872	-130.386	0.225	-0.031
-514.858	263.126	-0.094	-0.164
-513.843	-38.816	0.117	-0.062
-512.829	428.344	0.082	0.179
-511.814	-3.927	0.106	-0.074
-510.799	50.506	-0.147	0.140
-509.785	800.000	-0.076	0.310
-508.770	-94.748	-0.163	0.044
-507.756	376.351	0.075	-0.154
-506.741	474.019	0.111	0.251
-505.726	19.957	0.158	-0.129
-504.712	-81.294	-0.481	-0.160
-503.697	357.348	-0.186	-0.374
-502.683	-140.232	0.102	0.011
-501.668	-151.944	0.168	-0.012
-500.653	-12.797	0.202	0.132
-499.639	800.000	0.129	0.400
-498.624	800.000	0.064	0.191
-497.610	155.026	0.203	-0.281
-496.595	-61.909	-0.141	-0.059
-495.581	-131.806	-0.409	-0.054
-494.566	-164.935	0.200	-0.009
-493.551	433.494	0.103	0.225
-492.537	222.471	-0.026	0.041
-491.522	800.000	0.024	0.075
-490.508	131.275	0.122	-0.157
-489.493	144.505	0.166	0.223
-488.478	-200.000	0.022	0.118
-487.464	350.947	0.133	0.265
-486.449	432.854	-0.076	-0.165
-485.435	-145.171	-0.484	0.044
-484.420	-200.000	-0.033	-0.147
-483.405	-130.267	-0.276	0.038
-482.391	441.243	-0.054	0.118
-481.376	-69.530	-0.186	0.072
-480.362	216.127	-0.073	0.116
-479.347	82.202	-0.180	0.197
-478.332	800.000	0.054	-0.156
-477.318	25.714	0.067	-0.056
-476.303	317.258	0.052	0.099
-475.289	110.270	-0.174	-0.210
-474.274	409.619	-0.110	0.235
-473.259	800.000	-0.049	0.137
-472.245	61.636	0.124	-0.125
-471.230	-135.878	0.080	0.009
-470.216	-114.645	-0.389	0.075
-469.201	-160.028	-0.210	0.012
-468.186	23.764	-0.194	0.161
-467.172	-88.319	0.331	0.100
-466.157	471.144	-0.152	0.345
-465.143	199.242	-0.074	-0.114
-464.128	-150.601	0.208	-0.016
-463.113	-37.390	-0.153	0.082
-462.099	59.013	-0.032	0.032
-461.084	31.042	0.045	-0.039
-460.070	293.690	-0.061	0.112
-459.055	296.859	0.118	0.218
-458.040	444.139	-0.105	-0.232
-457.026	-200.000	0.032	0.152
-456.011	800.000	0.105	-0.336
-454.997	99.434	-0.222	-0.258
-453.982	135.300	0.150	-0.197
-452.968	161.579	-0.074	0.104
-451.953	-67.098	0.139	-0.055
-450.938	411.172	0.128	0.273
-449.924	-159.608	0.135	-0.008
-448.909	-116.849	0.341	-0.063
-447.895	-42.334	-0.086	-0.044
-446.880	-200.000	-0.017	0.355
-445.865	800.000	-0.048	0.174
-444.851	800.000	0.070	-0.217
-443.836	170.120	0.117	-0.168
-442.822	-17.996	-0.229	-0.144
-441.807	129.167	0.108	0.138
-440.792	800.000	-0.118	-0.408
-439.778	66.618	0.142	-0.145
-438.763	-99.152	0.291	0.074
-437.749	80.762	0.104	-0.112
-436.734	85.936	0.207	-0.228
-435.719	-200.000	0.026	-0.119
-434.705	-200.000	0.039	0.309
-433.690	-200.000	0.056	0.329
-432.676	612.220	0.066	-0.165
-431.661	393.531	0.112	-0.235
-430.646	-102.850	0.144	-0.034
-429.632	291.473	-0.110	-0.200
-428.617	800.000	-0.039	0.115
-427.603	-47.651	-0.146	-0.071
-426.588	-84.810	-0.117	0.037
-425.573	473.144	0.122	-0.275
-424.559	800.000	-0.079	-0.269
-423.544	38.102	0.072	-0.065
-422.530	160.366	0.042	-0.059
-421.515	800.000	-0.077	-0.256
-420.500	-200.000	0.029	-0.298
-419.486	-121.765	-0.182	-0.030
-418.471	-45.732	-0.173	0.086
-417.457	-200.000	-0.025	-0.190
-416.442	-138.763	-0.248	0.027
-415.428	-200.000	0.027	0.219
-414.413	78.375	0.073	0.078
-413.398	-32.911	0.109	-0.061
-412.384	-86.562	-0.046	-0.014
-411.369	86.678	-0.118	-0.131
-410.355	-61.630	0.318	-0.134
-409.340	-200.000	0.010	-0.064
-408.325	33.041	-0.072	-0.063
-407.311	-200.000	-0.022	-0.243
-406.296	97.715	-0.180	0.207
-405.282	256.546	0.220	-0.379
-404.267	80.025	0.141	-0.152
-403.252	260.721	-0.238	0.414
-402.238	-19.332	-0.211	-0.131
-401.223	-134.464	-0.045	-0.006
-400.209	699.970	-0.144	-0.381
-399.194	104.669	0.173	-0.204
-398.179	130.928	0.160	-0.205
-397.165	-200.000	-0.018	0.209
-396.150	-17.920	0.330	-0.208
-395.136	44.807	0.117	-0.108
-394.121	800.000	-0.086	-0.281
-393.106	6.630	-0.131	-0.098
-392.092	800.000	0.060	-0.213
-391.077	-30.600	0.065	0.037
-390.063	-70.326	0.205	-0.078
-389.048	199.549	0.149	0.230
-388.033	52.026	-0.101	-0.097
-387.019	-42.002	0.245	-0.126
-386.004	554.680	-0.071	0.171
-384.990	-62.831	-0.276	0.114
-383.975	392.175	-0.043	0.089
-382.960	45.844	0.100	-0.092
-381.946	307.622	-0.037	0.070
-380.931	26.946	-0.219	0.184
-379.917	134.614	0.168	-0.218
-378.902	800.000	-0.054	0.149
-377.888	800.000	-0.037	-0.125
-376.873	-118.601	-0.328	0.058
-375.858	726.608	-0.125	0.333
-374.844	136.446	0.192	-0.251
-373.829	-65.539	-0.189	-0.076
-372.815	161.159	-0.135	0.189
-371.800	-200.000	-0.022	0.291
-370.785	82.896	-0.076	0.082
-369.771	-125.635	0.164	0.025
-368.756	-125.814	-0.238	-0.036
-367.742	-1.081	0.046	0.033
-366.727	800.000	0.095	0.289
-365.712	7.387	0.168	0.126
-364.698	5.589	-0.284	0.211
-363.683	-15.744	-0.176	0.112
-362.669	-44.430	0.334	-0.167
-361.654	30.527	0.134	-0.115
-360.639	800.000	0.047	0.139
-359.625	114.899	-0.160	0.196
-358.610	-200.000	0.001	0.129
-357.596	2.642	0.064	0.047
-356.581	-137.650	0.172	-0.019
-355.566	-89.684	-0.507	0.149
-354.552	-199.912	-0.076	-0.000
-353.537	-39.239	-0.413	-0.217
-352.523	-200.000	0.038	-0.355
-351.508	-118.212	0.354	0.063
-350.493	110.098	-0.025	0.030
-349.479	-7.611	-0.173	0.117
-348.464	-100.836	0.385	0.095
-347.450	387.732	0.064	-0.133
-346.435	800.000	0.062	0.184
-345.420	-162.248	-0.158	-0.008
-344.406	-63.580	-0.053	0.022
-343.391	-200.000	-0.046	0.216
-342.377	-200.000	-0.022	-0.123
-341.362	-175.243	0.126	-0.003
-340.348	-200.000	0.011	0.357
-339.333	558.775	-0.094	0.228
-338.318	-126.196	-0.101	-0.015
-337.304	-110.976	-0.193	-0.040
-336.289	65.191	0.079	-0.080
-335.275	-67.099	0.228	0.090
-334.260	46.579	0.137	-0.128
-333.245	-90.873	-0.178	-0.051
-332.231	-98.461	0.122	-0.031
-331.216	564.926	0.098	-0.238
-330.202	-200.000	-0.045	-0.274
-329.187	-42.709	-0.342	0.174
-328.172	-38.054	0.088	-0.047
-327.158	130.733	-0.116	0.149
-326.143	6.700	0.193	0.144
-325.129	20.355	-0.177	-0.143
-324.114	800.000	0.055	0.167
-323.099	-156.177	0.254	0.016
-322.085	-10.741	-0.211	-0.140
-321.070	-200.000	-0.006	0.099
-320.056	-200.000	-0.021	0.443
-319.041	-91.768	0.089	-0.025
-318.026	157.154	0.150	-0.208
-317.012	51.714	0.020	0.019
-315.997	-153.508	0.164	-0.011
-314.983	800.000	0.004	-0.015
-313.968	84.169	0.234	-0.256
-312.953	-17.713	-0.189	0.119
-311.939	292.314	0.092	0.167
-310.924	-43.474	0.137	-0.069
-309.910	-200.000	-0.016	-0.141
-308.895	-57.207	0.098	0.043
-307.880	-200.000	-0.023	0.303
-306.866	-65.038	0.315	-0.127
-305.851	258.267	0.061	0.105
-304.837	-139.677	0.372	0.040
-303.822	183.546	0.090	0.133
-302.807	-193.205	-0.163	0.001
-301.793	-152.331	-0.223	0.016
-300.778	48.626	0.217	-0.203
-299.764	233.304	0.131	0.216
-298.749	-200.000	-0.016	0.127
-297.735	38.136	0.090	-0.080
-296.720	208.400	0.184	0.288
-295.705	113.372	-0.105	-0.127
-294.691	374.189	0.082	0.167
-293.676	-200.000	-0.012	0.168
-292.662	-119.156	0.430	-0.075
-291.647	-145.333	0.083	0.007
-290.632	-143.826	-0.300	-0.028
-289.618	-200.000	-0.091	-0.488
-288.603	142.407	-0.125	-0.166
-287.589	-75.653	0.017	-0.006
-286.574	-25.521	0.282	0.166
-285.559	118.935	-0.147	-0.181
-284.545	-92.919	0.098	-0.027
-283.530	-200.000	0.004	-0.119
-282.516	-82.028	-0.103	0.034
-281.501	-178.964	-0.214	-0.005
-280.486	800.000	0.056	0.213
-279.472	800.000	-0.028	-0.079
-278.457	-200.000	0.001	0.334
-277.443	34.838	0.172	-0.151
-276.428	800.000	0.072	0.261
-275.413	800.000	0.145	-0.418
-274.399	-20.165	-0.061	-0.038
-273.384	-61.741	-0.322	0.135
-272.370	-200.000	0.037	-0.291
-271.355	221.009	0.018	-0.028
-270.340	-67.409	0.157	0.062
-269.326	-7.814	0.398	0.268
-268.311	-200.000	0.021	-0.295
-267.297	-73.436	0.097	-0.035
-266.282	-200.000	0.006	-0.258
-265.267	230.498	0.211	0.345
-264.253	216.727	0.082	0.130
-263.238	463.172	0.028	0.062
-262.224	-156.806	0.281	-0.017
-261.209	-200.000	0.015	0.083
-260.195	8.808	0.273	0.205
-259.180	129.081	0.234	0.298
-258.165	-200.000	-0.179	0.000
-257.151	35.182	-0.149	-0.131
-256.136	100.064	-0.235	-0.272
-255.122	-50.455	-0.012	-0.006
-254.107	-65.929	0.572	0.228
-253.092	213.925	0.123	-0.193
-252.078	-200.000	-0.004	0.052
-251.063	-25.358	0.321	-0.189
-250.049	-52.865	0.312	0.143
-249.034	186.832	0.091	0.135
-248.019	-8.449	0.210	-0.141
-247.005	-144.793	-0.114	-0.010
-245.990	-200.000	0.127	0.581
-244.976	800.000	-0.127	-0.365
-243.961	22.004	0.228	-0.185
-242.946	-11.156	-0.254	-0.167
-241.932	-42.951	0.221	-0.112
-240.917	621.526	-0.099	-0.247
-239.903	411.139	-0.032	0.069
-238.888	-200.000	-0.097	0.426
-237.873	56.909	-0.090	-0.088
-236.859	-7.086	0.144	-0.097
-235.844	-130.202	-0.117	0.016
-234.830	448.906	-0.121	-0.267
-233.815	-200.000	-0.015	-0.273
-232.800	-75.102	0.333	-0.119
-231.786	800.000	-0.056	0.175
-230.771	21.860	-0.064	-0.052
-229.757	-200.000	-0.077	0.364
-228.742	-107.058	-0.394	0.087
-227.727	162.551	0.053	0.074
-226.713	-200.000	-0.005	0.259
-225.698	800.000	-0.048	0.139
-224.684	140.359	0.143	-0.189
-223.669	102.848	-0.287	-0.335
-222.655	-75.576	0.088	-0.031
-221.640	800.000	-0.063	-0.180
-220.625	75.002	-0.113	-0.118
-219.611	201.164	-0.085	0.130
-218.596	-181.626	-0.211	0.004
-217.582	-200.000	-0.040	0.320
-216.567	183.569	-0.009	0.013
-215.552	723.567	0.029	-0.076
-214.538	253.130	0.272	0.462
-213.523	-168.910	0.045	-0.002
-212.509	283.274	0.150	-0.268
-211.494	800.000	0.074	-0.236
-210.479	-99.636	0.199	-0.050
-209.465	271.185	0.041	0.072
-208.450	79.681	-0.083	0.089
-207.436	800.000	0.033	-0.138
-206.421	-43.765	-0.331	0.166
-205.406	-167.752	-0.293	0.012
-204.392	13.346	-0.222	0.172
-203.377	-200.000	0.014	0.414
-202.363	-54.137	0.112	0.051
-201.348	-36.935	-0.194	0.104
-200.333	-172.950	0.263	-0.008
-199.319	-200.000	0.001	0.110
-198.304	-113.403	-0.211	0.041
-197.290	-123.346	0.237	-0.038
-196.275	134.548	-0.167	0.216
-195.260	16.402	0.254	0.199
-194.246	-23.777	0.169	-0.101
-193.231	-90.257	-0.121	0.035
-192.217	-105.475	-0.281	0.064
-191.202	-121.643	-0.496	0.082
-190.187	538.508	0.107	0.254
-189.173	-75.810	0.042	0.015
-188.158	-200.000	0.011	0.096
-187.144	398.477	-0.063	-0.131
-186.129	-59.151	0.147	-0.063
-185.114	-77.420	0.051	0.018
-184.100	-100.795	-0.132	0.032
-183.085	341.179	-0.166	0.322
-182.071	14.184	0.199	-0.155
-181.056	-98.806	0.143	-0.036
-180.042	8.325	-0.302	-0.226
-179.027	-128.198	0.106	0.015
-178.012	508.751	-0.087	-0.200
-176.998	-165.165	-0.066	0.003
-175.983	-74.927	-0.204	-0.073
-174.969	-200.000	-0.029	-0.171
-173.954	150.679	0.061	-0.083
-172.939	-200.000	-0.028	-0.212
-171.925	-200.000	-0.020	-0.091
-170.910	-68.839	-0.272	-0.105
-169.896	51.669	0.155	-0.147
-168.881	15.889	-0.293	0.230
-167.866	-73.884	-0.103	-0.037
-166.852	-88.602	0.071	-0.021
-165.837	-65.241	0.238	-0.095
-164.823	-181.701	-0.191	0.004
-163.808	-109.552	-0.280	0.059
-162.793	-200.000	-0.024	-0.189
-161.779	-200.000	0.042	0.521
-160.764	800.000	-0.038	-0.136
-159.750	-159.197	-0.110	0.006
-158.735	15.174	0.255	0.198
-157.720	110.820	0.060	-0.072
-156.706	-127.054	-0.368	0.054
-155.691	-156.078	-0.112	-0.007
-154.677	565.999	-0.049	-0.118
-153.662	477.437	0.139	0.312
-152.647	181.170	0.090	0.132
-151.633	-140.891	0.156	0.016
-150.618	43.646	0.069	-0.062
-149.604	-200.000	-0.026	0.202
-148.589	-49.262	-0.170	0.081
-147.574	37.721	-0.288	0.254
-146.560	-200.000	-0.036	0.350
-145.545	95.277	-0.118	0.133
-144.531	14.248	0.036	-0.028
-143.516	564.829	0.092	0.222
-142.502	-200.000	-0.008	0.283
-141.487	64.367	-0.188	0.188
-140.472	-111.016	-0.180	-0.037
-139.458	-16.803	-0.179	0.112
-138.443	63.399	0.158	-0.157
-137.429	800.000	0.005	-0.018
-136.414	142.505	0.100	0.132
-135.399	-87.931	-0.029	0.009
-134.385	-131.772	-0.253	0.033
-133.370	800.000	0.041	-0.134
-132.356	800.000	0.066	0.198
-131.341	166.221	-0.076	0.106
-130.326	-200.000	-0.022	-0.145
-129.312	-133.306	0.230	-0.029
-128.297	272.657	0.387	0.678
-127.283	800.000	0.075	-0.257
-126.268	-75.427	-0.142	0.050
-125.253	738.904	0.047	-0.124
-124.239	43.377	0.130	0.118
-123.224	-6.187	-0.089	-0.060
-122.210	-116.114	0.065	-0.012
