DTS Sentinel unit serial number:	SN413079Multiplexer serial number:	ORYXHardware model number:	OX4-SRSoftware version number:	ORYX F/W v4.00 Oryx Data Collector v3.7.2.0data status	okinstallation	princeton_trtdifferential loss correction	single-endedforward channel	channel 2reverse channel	N/Adate	2019/09/11time	15:09:10forward acquisition time	60.00reverse acquisition time	0.00gamma	496.2192k internal	0.2288k external	0.2288temperature offset calibration	1.0012default loss term (dB/km)	0.3790temperature slope calibration	1.0000multiplexer offset coefficient	1.0000multiplexer slope coefficient	1.0000fibre end	0.00T internal ref (°C)	42.94T ext. ref 1 (°C)	0.97T ext. ref 2 (°C)	37.14length (m)	temperature (°C)	Stokes	anti-Stokes-747.200	608.816	-0.098	0.251
-746.185	-200.000	0.060	0.447
-745.171	144.762	-0.096	0.132
-744.156	-116.064	0.333	-0.063
-743.142	800.000	-0.074	0.326
-742.127	-200.000	0.043	0.214
-741.112	293.059	-0.051	0.096
-740.098	191.399	0.066	0.101
-739.083	-63.651	0.124	0.052
-738.069	-162.274	0.205	0.010
-737.054	268.290	0.113	0.203
-736.039	-91.660	-0.033	-0.010
-735.025	-80.959	0.282	0.096
-734.010	-200.000	0.021	0.120
-732.996	471.258	0.099	-0.227
-731.981	210.957	0.054	0.086
-730.966	-192.538	0.214	-0.002
-729.952	-181.644	-0.221	0.004
-728.937	606.990	0.074	0.188
-727.923	40.932	-0.097	-0.090
-726.908	-108.877	-0.484	0.106
-725.894	-200.000	-0.019	0.134
-724.879	-148.708	-0.298	0.025
-723.864	-28.425	0.127	-0.075
-722.850	-96.819	-0.122	0.033
-721.835	-200.000	-0.039	0.177
-720.821	-150.511	-0.419	-0.033
-719.806	-193.049	0.103	-0.001
-718.791	-200.000	0.030	0.160
-717.777	-200.000	-0.015	0.212
-716.762	-63.190	0.150	0.063
-715.748	800.000	-0.049	0.159
-714.733	52.835	-0.071	0.069
-713.718	638.507	0.114	-0.297
-712.704	1.520	-0.082	-0.061
-711.689	-147.675	0.291	0.025
-710.675	-34.783	-0.029	-0.016
-709.660	20.763	-0.046	0.038
-708.645	-110.513	-0.097	0.021
-707.631	800.000	-0.036	-0.129
-706.616	77.545	0.080	0.087
-705.602	-55.172	-0.305	-0.140
-704.587	-93.019	-0.305	-0.087
-703.572	274.015	-0.268	0.485
-702.558	800.000	0.114	0.345
-701.543	-200.000	-0.033	0.212
-700.529	-152.094	-0.262	-0.020
-699.514	-45.758	-0.257	-0.130
-698.499	249.399	0.122	-0.211
-697.485	788.949	0.104	0.292
-696.470	-13.652	0.093	0.062
-695.456	-75.556	0.197	0.072
-694.441	-132.346	0.200	0.026
-693.426	194.687	-0.168	0.260
-692.412	44.040	-0.158	-0.149
-691.397	22.686	-0.179	-0.150
-690.383	800.000	-0.047	-0.150
-689.368	-71.258	0.114	0.044
-688.354	800.000	0.025	-0.110
-687.339	226.033	-0.139	-0.230
-686.324	-200.000	0.225	0.000
-685.310	-32.823	0.119	-0.068
-684.295	102.773	0.229	0.274
-683.281	-42.014	-0.249	0.130
-682.266	268.899	0.078	-0.139
-681.251	275.638	0.036	-0.065
-680.237	134.555	-0.149	0.197
-679.222	-200.000	0.011	0.241
-678.208	-70.080	0.024	-0.009
-677.193	101.037	-0.143	-0.170
-676.178	-44.159	-0.059	-0.030
-675.164	-71.522	-0.159	-0.061
-674.149	-74.509	-0.089	-0.033
-673.135	-155.411	-0.198	0.013
-672.120	267.992	-0.126	0.226
-671.105	-27.848	0.177	-0.105
-670.091	-53.499	0.242	0.113
-669.076	-95.899	-0.242	0.066
-668.062	-200.000	0.028	-0.182
-667.047	-200.000	0.000	-0.034
-666.032	-26.399	-0.093	-0.056
-665.018	74.464	0.231	-0.249
-664.003	-200.000	0.044	-0.371
-662.989	-200.000	0.018	-0.125
-661.974	-151.364	0.243	-0.018
-660.959	800.000	-0.026	-0.081
-659.945	-136.851	-0.354	-0.042
-658.930	226.063	-0.181	0.300
-657.916	-142.757	-0.209	0.021
-656.901	800.000	-0.084	-0.245
-655.886	800.000	-0.071	0.309
-654.872	19.750	-0.202	-0.166
-653.857	377.191	-0.167	-0.350
-652.843	800.000	0.060	-0.227
-651.828	-200.000	0.004	0.039
-650.814	-21.833	-0.074	-0.046
-649.799	-112.875	0.275	0.056
-648.784	-200.000	0.021	-0.197
-647.770	22.084	-0.200	-0.166
-646.755	190.731	0.100	-0.154
-645.741	-200.000	0.013	-0.061
-644.726	-200.000	-0.044	0.231
-643.711	242.382	-0.156	-0.267
-642.697	-70.951	-0.048	0.019
-641.682	-70.108	0.225	-0.088
-640.668	49.954	-0.222	0.213
-639.653	-73.818	-0.050	0.019
-638.638	-200.000	-0.005	0.112
-637.624	-36.343	-0.283	0.156
-636.609	27.838	0.324	0.279
-635.595	65.766	0.146	-0.151
-634.580	66.787	0.160	-0.166
-633.565	-29.012	0.120	-0.070
-632.551	-126.400	-0.446	-0.068
-631.536	142.795	-0.162	0.220
-630.522	652.421	-0.087	-0.227
-629.507	472.265	-0.152	0.350
-628.492	-99.607	-0.141	-0.036
-627.478	208.296	-0.180	-0.288
-626.463	6.706	0.079	0.060
-625.449	-71.218	-0.214	-0.082
-624.434	99.251	-0.347	-0.409
-623.419	-79.966	-0.297	-0.102
-622.405	9.489	-0.101	0.078
-621.390	69.693	0.174	0.183
-620.376	800.000	0.046	0.158
-619.361	56.023	0.038	0.038
-618.346	209.791	-0.142	-0.228
-617.332	-77.970	-0.214	0.075
-616.317	-62.478	0.448	0.190
-615.303	-53.808	0.272	0.127
-614.288	-74.349	0.080	0.029
-613.273	-200.000	0.029	0.300
-612.259	-200.000	-0.062	0.354
-611.244	800.000	0.061	0.240
-610.230	-109.536	-0.107	-0.023
-609.215	-103.378	-0.245	-0.059
-608.201	-8.393	-0.142	-0.097
-607.186	261.505	-0.171	-0.302
-606.171	-200.000	0.017	0.187
-605.157	316.046	-0.068	-0.131
-604.142	-168.764	-0.426	0.016
-603.128	139.416	-0.195	-0.262
-602.113	-200.000	0.004	-0.063
-601.098	-155.296	0.067	-0.004
-600.084	546.722	-0.060	0.145
-599.069	-101.878	-0.221	-0.054
-598.055	800.000	-0.072	0.252
-597.040	-200.000	-0.062	0.383
-596.025	118.718	-0.133	-0.168
-595.011	800.000	0.032	0.141
-593.996	239.283	0.043	0.073
-592.982	-200.000	-0.038	-0.232
-591.967	800.000	0.058	-0.228
-590.952	800.000	-0.121	0.425
-589.938	-45.582	0.024	-0.012
-588.923	-110.821	0.432	-0.091
-587.909	-106.014	0.216	-0.050
-586.894	287.589	-0.047	-0.086
-585.879	800.000	-0.050	-0.184
-584.865	-14.396	-0.058	0.038
-583.850	-35.781	-0.277	-0.153
-582.836	-105.651	-0.206	-0.048
-581.821	-200.000	-0.001	0.060
-580.806	800.000	-0.034	-0.145
-579.792	641.163	-0.098	0.253
-578.777	509.754	0.063	0.148
-577.763	-200.000	0.015	0.428
-576.748	-121.189	0.144	0.024
-575.733	-73.941	0.210	0.078
-574.719	-200.000	0.045	0.204
-573.704	-102.076	0.166	0.041
-572.690	161.683	-0.234	-0.334
-571.675	-200.000	0.033	0.407
-570.661	-39.235	0.395	0.211
-569.646	59.394	0.228	-0.229
-568.631	17.481	-0.250	-0.202
-567.617	-75.491	0.097	-0.035
-566.602	800.000	0.052	0.220
-565.588	34.152	-0.307	-0.273
-564.573	-56.069	0.396	0.180
-563.558	181.531	0.192	-0.288
-562.544	-60.846	0.050	0.021
-561.529	-50.935	0.212	-0.101
-560.515	10.466	0.074	-0.057
-559.500	36.817	-0.141	-0.127
-558.485	-200.000	0.001	0.007
-557.471	-200.000	0.007	-0.058
-556.456	800.000	-0.027	-0.093
-555.442	249.265	0.098	-0.168
-554.427	-143.907	0.131	-0.013
-553.412	-11.282	-0.335	0.224
-552.398	29.032	-0.438	0.378
-551.383	9.880	-0.272	-0.210
-550.369	-29.853	0.268	-0.156
-549.354	290.182	-0.035	0.064
-548.339	-133.726	-0.380	0.048
-547.325	41.581	0.182	0.168
-546.310	-200.000	0.011	0.257
-545.296	-200.000	0.019	0.113
-544.281	-146.404	0.225	0.020
-543.266	6.078	-0.288	-0.217
-542.252	139.755	0.081	-0.109
-541.237	-200.000	0.024	-0.241
-540.223	-200.000	-0.006	-0.059
-539.208	-200.000	-0.027	0.280
-538.193	800.000	0.098	0.296
-537.179	-65.992	0.215	-0.087
-536.164	-139.138	0.034	0.004
-535.150	621.614	0.045	0.115
-534.135	800.000	-0.068	0.242
-533.121	0.218	-0.171	0.124
-532.106	26.523	-0.225	-0.191
-531.091	-200.000	-0.015	-0.201
-530.077	-26.508	0.148	0.088
-529.062	-54.197	-0.419	0.193
-528.048	800.000	0.074	-0.327
-527.033	-32.075	0.464	-0.264
-526.018	-12.993	-0.247	-0.164
-525.004	-122.361	-0.125	-0.021
-523.989	-200.000	-0.013	0.144
-522.975	273.539	-0.157	0.283
-521.960	30.874	0.249	-0.216
-520.945	-74.231	0.188	-0.069
-519.931	-200.000	-0.017	0.245
-518.916	38.397	0.183	-0.166
-517.902	-200.000	0.016	0.196
-516.887	-137.241	-0.293	-0.034
-515.872	-200.000	0.049	-0.274
-514.858	98.756	0.275	-0.322
-513.843	86.163	-0.145	-0.163
-512.829	-99.549	-0.206	0.053
-511.814	800.000	-0.056	0.159
-510.799	91.792	-0.019	-0.022
-509.785	-200.000	0.014	0.220
-508.770	67.614	0.155	0.161
-507.756	197.988	-0.069	0.107
-506.741	75.467	-0.133	-0.142
-505.726	15.317	0.320	0.255
-504.712	245.664	0.019	-0.033
-503.697	756.493	0.132	0.363
-502.683	-200.000	-0.002	-0.262
-501.668	800.000	-0.075	-0.319
-500.653	-158.171	-0.210	-0.013
-499.639	-200.000	0.038	0.169
-498.624	-200.000	0.014	-0.196
-497.610	-138.821	0.217	-0.024
-496.595	-26.894	-0.278	0.165
-495.581	-200.000	-0.013	-0.080
-494.566	768.204	0.071	-0.195
-493.551	177.185	0.275	0.406
-492.537	239.116	-0.078	-0.133
-491.522	205.382	-0.110	-0.173
-490.508	-112.953	0.159	-0.032
-489.493	-69.267	-0.195	-0.076
-488.478	575.166	-0.053	-0.131
-487.464	-62.396	0.204	-0.086
-486.449	-149.997	-0.196	0.016
-485.435	-164.914	0.148	0.007
-484.420	-59.856	-0.058	-0.025
-483.405	454.835	-0.091	0.205
-482.391	800.000	0.060	-0.180
-481.376	-200.000	-0.006	-0.067
-480.362	-39.753	0.173	0.092
-479.347	800.000	0.009	-0.033
-478.332	212.834	-0.135	-0.216
-477.318	-123.121	0.222	-0.036
-476.303	-186.542	0.312	-0.005
-475.289	88.631	0.208	0.235
-474.274	-93.945	-0.211	-0.059
-473.259	-59.558	-0.115	0.050
-472.245	-200.000	-0.007	0.473
-471.230	-200.000	0.002	0.014
-470.216	-200.000	-0.002	-0.283
-469.201	-200.000	0.014	-0.062
-468.186	800.000	0.050	0.162
-467.172	438.286	0.083	0.183
-466.157	-107.739	-0.136	-0.030
-465.143	-200.000	0.005	-0.074
-464.128	355.489	-0.016	-0.033
-463.113	-156.142	0.097	-0.006
-462.099	64.278	-0.106	0.108
-461.084	78.892	0.036	0.039
-460.070	72.874	-0.060	0.064
-459.055	-96.469	-0.060	0.016
-458.040	-115.183	-0.143	0.028
-457.026	800.000	0.026	-0.090
-456.011	-28.115	0.314	-0.184
-454.997	28.986	0.335	0.288
-453.982	234.101	0.074	-0.123
-452.968	11.617	-0.267	0.208
-451.953	96.209	0.442	0.513
-450.938	-200.000	-0.002	0.270
-449.924	174.901	-0.134	-0.196
-448.909	583.995	-0.109	-0.271
-447.895	118.716	-0.138	0.172
-446.880	-200.000	0.020	0.217
-445.865	-120.425	-0.219	0.038
-444.851	800.000	-0.080	0.314
-443.836	-14.734	0.111	0.072
-442.822	46.577	0.199	-0.187
-441.807	-100.915	-0.146	0.036
-440.792	61.128	-0.199	0.201
-439.778	-63.550	-0.282	-0.117
-438.763	146.993	-0.100	0.137
-437.749	432.772	-0.084	0.185
-436.734	512.242	0.066	0.155
-435.719	43.977	0.119	0.110
-434.705	-200.000	-0.005	-0.143
-433.690	38.078	0.184	0.165
-432.676	37.873	0.391	0.352
-431.661	-115.667	-0.141	-0.027
-430.646	-39.098	0.156	-0.083
-429.632	78.474	0.066	0.071
-428.617	-94.595	-0.339	0.094
-427.603	312.265	0.112	-0.214
-426.588	286.273	-0.022	-0.040
-425.573	-44.887	0.048	0.024
-424.559	-100.750	0.124	0.031
-423.544	-29.993	0.065	0.037
-422.530	-28.813	-0.208	-0.121
-421.515	800.000	-0.004	-0.016
-420.500	70.356	0.220	0.230
-419.486	11.512	-0.465	-0.361
-418.471	-133.044	0.113	0.015
-417.457	-167.082	-0.357	-0.015
-416.442	-121.434	-0.229	-0.038
-415.428	-33.127	0.306	0.172
-414.413	-98.206	-0.070	0.018
-413.398	171.616	0.135	0.196
-412.384	-72.224	-0.149	-0.056
-411.369	419.036	-0.036	0.078
-410.355	-70.156	-0.275	0.106
-409.340	4.532	0.257	-0.191
-408.325	75.335	0.058	0.062
-407.311	109.454	-0.021	-0.026
-406.296	-101.469	-0.231	0.057
-405.282	239.874	0.098	-0.166
-404.267	22.270	0.162	-0.134
-403.252	-90.291	-0.224	0.066
-402.238	800.000	-0.034	0.122
-401.223	108.413	0.118	-0.142
-400.209	33.311	-0.244	0.214
-399.194	134.988	-0.119	0.157
-398.179	710.478	0.091	0.244
-397.165	56.107	0.071	0.069
-396.150	412.939	0.200	-0.429
-395.136	49.350	0.413	-0.393
-394.121	-200.000	-0.053	-0.365
-393.106	-200.000	-0.015	-0.226
-392.092	6.000	0.160	0.120
-391.077	-200.000	0.026	0.146
-390.063	-125.401	0.176	-0.027
-389.048	-103.760	0.303	-0.072
-388.033	-45.585	-0.357	0.179
-387.019	127.631	0.226	0.290
-386.004	3.923	-0.135	-0.100
-384.990	380.226	0.073	-0.151
-383.975	-105.863	-0.298	0.068
-382.960	-124.878	0.302	0.047
-381.946	-101.608	0.146	-0.036
-380.931	-200.000	0.026	0.211
-379.917	-200.000	0.025	0.249
-378.902	-104.372	-0.184	-0.043
-377.888	-200.000	-0.028	0.246
-376.873	800.000	-0.050	-0.147
-375.858	247.259	0.096	-0.164
-374.844	33.706	0.251	0.221
-373.829	800.000	-0.036	0.124
-372.815	-89.512	0.179	0.053
-371.800	-118.369	-0.170	0.030
-370.785	800.000	-0.112	-0.328
-369.771	80.666	0.248	-0.270
-368.756	66.241	0.069	-0.071
-367.742	8.047	0.058	0.044
-366.727	309.438	-0.154	0.291
-365.712	-189.707	0.125	-0.001
-364.698	239.348	-0.096	0.161
-363.683	-91.753	-0.166	0.048
-362.669	651.482	-0.077	-0.200
-361.654	522.140	-0.040	0.095
-360.639	-98.259	0.033	0.009
-359.625	263.256	0.174	-0.306
-358.610	125.215	0.121	0.154
-357.596	800.000	0.095	0.367
-356.581	-200.000	-0.052	0.254
-355.566	173.462	0.131	-0.191
-354.552	-29.287	0.246	0.142
-353.537	-34.421	0.023	0.013
-352.523	-104.151	-0.008	-0.002
-351.508	-72.150	0.128	0.048
-350.493	342.727	0.025	0.049
-349.479	-17.184	-0.139	0.088
-348.464	800.000	-0.048	0.151
-347.450	-34.185	-0.485	-0.269
-346.435	-84.770	-0.161	0.051
-345.420	-68.686	0.163	-0.064
-344.406	-119.710	-0.225	0.039
-343.391	557.568	0.119	-0.289
-342.377	140.215	-0.096	0.128
-341.362	-145.966	0.158	0.014
-340.348	37.492	-0.339	-0.304
-339.333	-200.000	0.018	-0.212
-338.318	-200.000	-0.027	0.243
-337.304	-200.000	-0.009	-0.110
-336.289	124.097	-0.077	-0.098
-335.275	622.613	-0.197	0.501
-334.260	136.208	0.190	0.250
-333.245	-105.687	0.109	0.025
-332.231	-163.370	0.137	0.007
-331.216	-200.000	-0.016	-0.180
-330.202	-200.000	0.025	-0.111
-329.187	-200.000	0.009	-0.212
-328.172	20.514	0.166	0.136
-327.158	-50.522	-0.118	-0.056
-326.143	120.962	0.207	-0.259
-325.129	-200.000	-0.008	-0.130
-324.114	398.130	0.139	0.293
-323.099	-102.644	0.173	-0.042
-322.085	800.000	0.081	0.235
-321.070	-158.515	-0.266	-0.016
-320.056	800.000	-0.051	0.168
-319.041	50.853	0.157	0.150
-318.026	6.931	0.111	-0.083
-317.012	-200.000	-0.015	-0.100
-315.997	-107.125	0.253	-0.056
-314.983	-200.000	-0.031	-0.217
-313.968	-32.110	0.221	-0.125
-312.953	-200.000	0.011	0.215
-311.939	18.024	-0.258	0.207
-310.924	800.000	0.051	0.158
-309.910	380.285	-0.107	-0.220
-308.895	-52.821	-0.185	0.086
-307.880	800.000	-0.016	-0.062
-306.866	27.932	-0.257	-0.218
-305.851	183.174	0.123	-0.182
-304.837	131.473	0.077	-0.099
-303.822	26.152	0.129	0.108
-302.807	-200.000	0.017	-0.101
-301.793	-125.169	-0.218	-0.034
-300.778	152.695	-0.163	-0.225
-299.764	-200.000	-0.021	-0.194
-298.749	70.780	0.267	0.278
-297.735	-153.751	0.063	0.004
-296.720	-200.000	-0.028	0.154
-295.705	800.000	-0.124	-0.501
-294.691	800.000	-0.050	-0.198
-293.676	-101.053	0.214	0.053
-292.662	-138.778	-0.290	-0.032
-291.647	191.398	0.071	-0.108
-290.632	56.290	-0.024	-0.023
-289.618	-132.534	0.069	0.009
-288.603	130.709	-0.074	0.096
-287.589	0.862	0.255	-0.184
-286.574	-80.471	-0.098	-0.033
-285.559	28.378	-0.148	0.126
-284.545	-62.232	0.194	0.081
-283.530	114.368	0.122	-0.150
-282.516	32.903	-0.031	-0.027
-281.501	-200.000	-0.065	0.289
-280.486	-200.000	-0.021	-0.099
-279.472	800.000	0.062	0.208
-278.457	40.100	0.108	-0.097
-277.443	80.368	0.125	0.135
-276.428	87.633	-0.021	0.023
-275.413	171.628	0.283	-0.409
-274.399	-30.539	-0.133	-0.076
-273.384	-8.050	-0.094	0.064
-272.370	-159.235	-0.422	0.024
-271.355	-15.689	0.152	0.098
-270.340	-156.298	-0.058	-0.004
-269.326	-90.971	0.209	-0.061
-268.311	-200.000	-0.001	-0.291
-267.297	800.000	-0.122	0.367
-266.282	-200.000	-0.026	0.146
-265.267	-1.681	-0.137	0.097
-264.253	-200.000	0.031	-0.245
-263.238	-102.304	-0.205	-0.050
-262.224	413.704	0.089	-0.190
-261.209	-200.000	0.016	0.165
-260.195	-67.614	-0.052	0.020
-259.180	85.814	-0.097	-0.107
-258.165	800.000	0.109	-0.335
-257.151	-122.913	-0.121	-0.020
-256.136	103.864	-0.210	0.248
-255.122	-17.777	-0.104	-0.066
-254.107	-86.804	-0.250	0.077
-253.092	113.851	0.078	-0.095
-252.078	-85.529	-0.129	0.040
-251.063	-146.029	0.366	-0.033
-250.049	315.789	0.050	-0.096
-249.034	455.284	-0.029	0.064
-248.019	375.081	-0.105	0.216
-247.005	-122.750	-0.282	-0.046
-245.990	-200.000	-0.034	-0.240
-244.976	-114.980	0.108	0.021
-243.961	800.000	-0.047	0.130
-242.946	-182.443	-0.149	0.003
-241.932	47.883	0.240	-0.226
-240.917	-200.000	0.017	-0.252
-239.903	251.558	0.045	-0.077
-238.888	98.404	0.272	0.315
-237.873	139.428	0.061	-0.081
-236.859	330.405	0.204	0.395
-235.844	211.873	0.190	-0.301
-234.830	-130.593	0.312	0.042
-233.815	-61.786	0.329	-0.139
-232.800	-131.821	0.011	-0.001
-231.786	-200.000	0.059	-0.311
-230.771	-124.283	-0.274	-0.043
-229.757	139.489	-0.147	0.195
-228.742	47.733	-0.126	0.118
-227.727	-200.000	-0.019	0.265
-226.713	12.145	0.202	-0.157
-225.698	383.213	-0.008	-0.016
-224.684	-200.000	-0.022	0.332
-223.669	19.582	-0.072	0.059
-222.655	800.000	-0.046	0.172
-221.640	434.273	0.078	-0.170
-220.625	-171.161	-0.347	-0.012
-219.611	39.741	0.053	0.048
-218.596	-200.000	-0.051	-0.226
-217.582	73.374	0.279	-0.293
-216.567	23.145	0.289	-0.238
-215.552	-200.000	0.038	-0.201
-214.538	-200.000	-0.006	-0.261
-213.523	-200.000	0.027	-0.312
-212.509	-200.000	0.151	-0.686
-211.494	-125.344	0.232	0.036
-210.479	426.134	-0.091	-0.198
-209.465	-200.000	-0.031	0.235
-208.450	800.000	-0.073	0.208
-207.436	-200.000	-0.070	-0.349
-206.421	-15.006	0.071	-0.046
-205.406	-200.000	0.001	-0.114
-204.392	-71.964	0.154	-0.058
-203.377	229.935	-0.107	-0.176
-202.363	800.000	-0.066	-0.197
-201.348	-200.000	-0.020	-0.114
-200.333	-125.715	-0.218	-0.033
-199.319	-200.000	0.028	-0.236
-198.304	-200.000	-0.018	-0.131
-197.290	-200.000	0.030	-0.259
-196.275	800.000	-0.051	0.150
-195.260	-48.782	-0.327	0.158
-194.246	-200.000	-0.024	-0.125
-193.231	-93.278	0.354	0.099
-192.217	126.731	0.187	0.238
-191.202	-140.059	-0.124	-0.013
-190.187	95.476	0.135	0.155
-189.173	-153.795	0.388	0.027
-188.158	-200.000	0.003	0.168
-187.144	104.684	0.122	-0.144
-186.129	800.000	0.093	0.296
-185.114	241.012	0.188	0.314
-184.100	800.000	-0.033	-0.124
-183.085	281.006	0.047	0.085
-182.071	-156.989	-0.250	0.015
-181.056	800.000	-0.055	0.202
-180.042	-13.317	-0.257	0.167
-179.027	-1.554	-0.307	0.217
-178.012	-200.000	0.020	0.091
-176.998	-127.955	0.165	-0.024
-175.983	-43.057	0.366	-0.186
-174.969	-128.456	-0.038	-0.005
-173.954	129.315	-0.271	0.347
-172.939	98.026	0.268	-0.309
-171.925	-200.000	-0.005	0.116
-170.910	554.316	0.117	-0.281
-169.896	107.531	-0.154	0.183
-168.881	-22.711	-0.100	0.060
-167.866	-200.000	0.007	-0.098
-166.852	-17.491	0.262	-0.165
-165.837	-131.605	-0.174	0.023
-164.823	100.716	-0.104	0.121
-163.808	245.194	-0.052	0.088
-162.793	-98.223	-0.099	-0.026
-161.779	66.570	-0.130	-0.132
-160.764	169.200	-0.095	-0.136
-159.750	800.000	0.070	-0.228
-158.735	205.751	-0.022	0.034
-157.720	-108.010	-0.207	-0.045
-156.706	-119.054	0.053	-0.009
-155.691	-5.634	0.074	0.051
-154.677	227.706	0.115	0.187
-153.662	-200.000	0.022	-0.104
-152.647	-89.274	-0.138	-0.041
-151.633	-123.164	0.093	-0.015
-150.618	718.413	-0.064	0.171
-149.604	140.535	-0.113	-0.149
-148.589	366.742	-0.056	0.114
-147.574	4.748	0.143	0.105
-146.560	492.692	0.079	-0.182
-145.545	-200.000	-0.025	0.118
-144.531	-142.662	0.149	-0.015
-143.516	-50.814	-0.344	-0.162
-142.502	399.769	0.060	-0.126
-141.487	255.718	-0.083	0.143
-140.472	-200.000	0.024	-0.127
-139.458	-162.376	-0.150	-0.007
-138.443	-17.377	0.238	0.150
-137.429	-148.373	0.388	-0.032
-136.414	-48.259	0.235	-0.114
-135.399	49.902	-0.210	-0.198
-134.385	16.553	0.185	0.147
-133.370	26.017	0.220	0.184
-132.356	-12.419	-0.097	-0.063
-131.341	-52.772	0.092	0.043
-130.326	-173.526	-0.242	0.007
-129.312	-200.000	-0.018	-0.148
-128.297	-142.314	0.218	0.022
-127.283	-200.000	-0.014	0.134
-126.268	-65.097	0.391	0.158
-125.253	-200.000	0.020	-0.418
-124.239	-200.000	-0.011	-0.177
-123.224	800.000	-0.070	-0.269
-122.210	-146.130	0.226	0.020
