DTS Sentinel unit serial number:	SN413079Multiplexer serial number:	ORYXHardware model number:	OX4-SRSoftware version number:	ORYX F/W v4.00 Oryx Data Collector v3.7.2.0data status	okinstallation	princeton_trtdifferential loss correction	single-endedforward channel	channel 2reverse channel	N/Adate	2019/09/12time	04:01:11forward acquisition time	60.00reverse acquisition time	0.00gamma	496.2192k internal	0.2326k external	0.2326temperature offset calibration	1.0097default loss term (dB/km)	0.3790temperature slope calibration	1.0000multiplexer offset coefficient	1.0000multiplexer slope coefficient	1.0000fibre end	0.00T internal ref (°C)	32.06T ext. ref 1 (°C)	2.18T ext. ref 2 (°C)	26.06length (m)	temperature (°C)	Stokes	anti-Stokes-747.200	204.077	0.149	-0.232
-746.185	-38.570	-0.428	0.228
-745.171	-77.280	-0.385	-0.135
-744.156	-200.000	0.082	0.368
-743.142	-200.000	0.048	-0.351
-742.127	334.907	-0.112	0.219
-741.112	-200.000	0.055	-0.246
-740.098	760.899	-0.070	0.190
-739.083	-164.551	0.092	0.004
-738.069	-87.591	0.438	0.133
-737.054	114.069	-0.228	-0.280
-736.039	84.455	-0.287	-0.317
-735.025	734.976	0.100	0.270
-734.010	-16.989	0.128	-0.081
-732.996	-135.186	0.348	-0.042
-731.981	800.000	-0.032	0.138
-730.966	-112.408	-0.554	0.112
-729.952	88.330	-0.138	-0.155
-728.937	-138.763	-0.351	0.039
-727.923	172.568	-0.196	-0.284
-726.908	-123.293	0.047	-0.008
-725.894	227.466	-0.222	-0.363
-724.879	-150.581	-0.240	-0.018
-723.864	-124.771	0.403	0.063
-722.850	132.988	0.112	-0.146
-721.835	-200.000	-0.002	-0.417
-720.821	-46.021	-0.415	-0.206
-719.806	-200.000	-0.057	-0.256
-718.791	-64.401	0.144	-0.059
-717.777	800.000	-0.042	-0.131
-716.762	-81.972	0.216	-0.071
-715.748	-69.862	0.326	0.125
-714.733	-71.289	-0.255	-0.096
-713.718	60.958	0.214	-0.213
-712.704	328.015	-0.012	-0.024
-711.689	174.451	0.102	0.149
-710.675	187.574	0.048	-0.073
-709.660	348.768	0.059	-0.117
-708.645	-200.000	-0.071	-0.373
-707.631	-200.000	0.013	-0.561
-706.616	-200.000	-0.004	-0.127
-705.602	29.156	-0.067	0.057
-704.587	617.314	0.102	-0.257
-703.572	50.770	0.278	0.265
-702.558	-125.861	-0.089	0.014
-701.543	-120.204	0.079	0.014
-700.529	-141.698	-0.208	-0.021
-699.514	-200.000	0.124	0.614
-698.499	-37.199	-0.180	-0.097
-697.485	-156.109	-0.307	-0.020
-696.470	-200.000	0.025	-0.235
-695.456	-42.414	-0.264	-0.136
-694.441	-78.763	-0.315	-0.108
-693.426	-107.356	-0.215	-0.048
-692.412	299.712	0.167	0.309
-691.397	-200.000	-0.001	-0.107
-690.383	-54.509	0.120	0.055
-689.368	-200.000	-0.011	0.137
-688.354	100.574	0.190	0.222
-687.339	305.935	-0.163	0.305
-686.324	-119.701	-0.280	-0.049
-685.310	-200.000	0.005	-0.087
-684.295	-200.000	0.040	-0.234
-683.281	-175.040	0.213	0.006
-682.266	800.000	-0.102	-0.290
-681.251	-36.224	-0.130	-0.070
-680.237	-101.533	0.338	-0.083
-679.222	-133.467	-0.121	-0.015
-678.208	-47.635	-0.147	-0.072
-677.193	-45.308	-0.316	0.158
-676.178	649.997	-0.062	-0.159
-675.164	-200.000	0.014	-0.418
-674.149	386.489	-0.060	0.125
-673.135	-55.208	0.202	0.091
-672.120	-91.547	-0.307	-0.088
-671.105	-15.489	-0.338	-0.217
-670.091	-139.949	0.527	-0.056
-669.076	-123.317	-0.294	0.047
-668.062	-111.221	-0.202	-0.041
-667.047	30.344	-0.083	-0.071
-666.032	-127.844	-0.233	-0.034
-665.018	800.000	-0.115	-0.427
-664.003	64.039	-0.106	-0.107
-662.989	-124.474	0.585	-0.092
-661.974	800.000	0.050	-0.160
-660.959	800.000	0.097	-0.312
-659.945	612.073	0.078	-0.196
-658.930	601.457	-0.067	0.167
-657.916	-22.605	0.203	-0.123
-656.901	-29.395	-0.075	-0.043
-655.886	-151.812	0.337	0.025
-654.872	-200.000	-0.041	0.340
-653.857	412.052	0.150	-0.320
-652.843	-200.000	-0.030	-0.208
-651.828	17.030	0.412	0.328
-650.814	-114.973	-0.118	0.023
-649.799	-200.000	0.005	0.172
-648.784	740.176	0.066	-0.178
-647.770	800.000	-0.052	-0.180
-646.755	65.941	-0.182	-0.185
-645.741	6.737	0.136	-0.101
-644.726	86.040	-0.204	-0.225
-643.711	-67.231	0.063	-0.025
-642.697	800.000	0.046	-0.196
-641.682	336.691	0.101	0.197
-640.668	31.028	0.277	-0.239
-639.653	444.958	0.037	0.081
-638.638	453.214	0.035	0.078
-637.624	-58.078	-0.098	0.043
-636.609	184.527	0.105	-0.156
-635.595	-164.056	0.059	0.003
-634.580	-35.005	0.143	-0.078
-633.565	-13.850	-0.230	-0.149
-632.551	800.000	0.128	0.365
-631.536	800.000	-0.074	0.317
-630.522	-10.369	-0.129	0.086
-629.507	-80.883	0.054	0.018
-628.492	-61.841	0.234	-0.098
-627.478	-115.581	0.427	-0.081
-626.463	42.740	0.283	0.258
-625.449	800.000	0.094	-0.262
-624.434	-104.754	0.032	-0.007
-623.419	138.592	-0.200	0.263
-622.405	22.936	0.316	-0.260
-621.390	800.000	-0.064	-0.240
-620.376	-118.702	0.206	0.037
-619.361	-143.859	-0.207	0.020
-618.346	374.652	-0.168	0.344
-617.332	-200.000	0.046	-0.247
-616.317	303.786	-0.145	-0.270
-615.303	-150.761	-0.049	0.004
-614.288	-86.589	0.176	0.054
-613.273	376.300	-0.233	0.478
-612.259	-200.000	0.017	0.136
-611.244	195.677	-0.134	0.204
-610.230	131.366	0.270	0.348
-609.215	-200.000	-0.041	0.259
-608.201	25.573	-0.126	-0.106
-607.186	800.000	-0.120	0.395
-606.171	-200.000	0.005	0.433
-605.157	520.591	0.166	-0.390
-604.142	-20.872	-0.239	-0.147
-603.128	-134.676	0.028	0.003
-602.113	85.694	-0.080	-0.088
-601.098	-173.014	-0.339	-0.010
-600.084	-60.769	0.149	0.063
-599.069	-121.334	0.206	0.034
-598.055	-200.000	0.017	-0.140
-597.040	-200.000	0.010	-0.315
-596.025	-34.210	-0.307	-0.169
-595.011	-35.218	0.275	-0.150
-593.996	800.000	0.131	-0.471
-592.982	100.002	-0.067	-0.078
-591.967	7.485	0.114	-0.086
-590.952	-122.661	0.305	0.050
-589.938	85.924	-0.108	0.119
-588.923	-120.372	-0.200	-0.034
-587.909	-200.000	-0.031	0.155
-586.894	24.623	0.122	0.101
-585.879	685.908	-0.093	0.243
-584.865	-35.229	0.084	0.046
-583.850	-200.000	-0.032	0.208
-582.836	800.000	0.058	0.196
-581.821	63.849	0.111	-0.112
-580.806	-178.902	-0.290	0.007
-579.792	-33.328	0.249	-0.138
-578.777	496.357	0.127	0.293
-577.763	313.790	-0.072	0.136
-576.748	-72.375	-0.280	-0.104
-575.733	-33.702	-0.369	0.204
-574.719	800.000	0.023	0.074
-573.704	-4.769	0.076	-0.053
-572.690	33.105	-0.334	-0.290
-571.675	-184.226	-0.159	-0.003
-570.661	800.000	0.043	-0.178
-569.646	132.618	0.093	-0.120
-568.631	-37.260	0.224	0.120
-567.617	-172.691	-0.233	0.007
-566.602	70.864	-0.339	-0.352
-565.588	-128.993	0.084	0.012
-564.573	-97.096	-0.338	0.089
-563.558	800.000	0.024	-0.092
-562.544	72.656	-0.195	-0.204
-561.529	-83.726	-0.086	0.027
-560.515	161.672	-0.236	-0.331
-559.500	-100.428	0.214	-0.053
-558.485	-40.567	-0.234	-0.122
-557.471	793.055	-0.123	-0.338
-556.456	-200.000	-0.029	-0.239
-555.442	232.943	-0.029	-0.048
-554.427	-47.932	0.296	-0.143
-553.412	-200.000	-0.070	-0.313
-552.398	-200.000	-0.020	0.263
-551.383	162.688	0.049	-0.069
-550.369	-35.547	-0.166	0.090
-549.354	84.420	0.123	-0.134
-548.339	-43.689	-0.311	-0.157
-547.325	131.398	-0.112	-0.144
-546.310	800.000	-0.041	0.178
-545.296	166.668	-0.148	-0.211
-544.281	407.874	-0.039	-0.082
-543.266	800.000	0.082	-0.247
-542.252	-45.533	-0.106	-0.053
-541.237	18.133	0.060	-0.048
-540.223	285.395	0.118	-0.214
-539.208	462.374	-0.074	-0.164
-538.193	-200.000	0.006	0.054
-537.179	800.000	0.149	0.453
-536.164	-90.501	0.073	-0.021
-535.150	-83.325	-0.097	-0.031
-534.135	58.034	-0.254	-0.249
-533.121	-115.188	0.262	0.050
-532.106	130.678	-0.126	0.161
-531.091	93.633	0.017	-0.019
-530.077	-158.326	0.050	-0.003
-529.062	-11.972	-0.123	-0.081
-528.048	-191.956	-0.162	-0.002
-527.033	642.449	-0.024	-0.061
-526.018	-26.924	0.248	-0.145
-525.004	-137.949	-0.225	0.025
-523.989	800.000	0.033	-0.096
-522.975	-52.683	0.142	-0.066
-521.960	800.000	-0.039	0.152
-520.945	105.992	0.044	0.052
-519.931	-52.349	-0.113	-0.052
-518.916	-7.300	0.231	-0.157
-517.902	127.440	-0.111	-0.141
-516.887	388.529	-0.027	-0.056
-515.872	66.690	0.107	-0.109
-514.858	13.703	-0.170	0.132
-513.843	110.918	-0.263	-0.316
-512.829	229.558	0.124	-0.202
-511.814	8.902	0.277	0.209
-510.799	-197.514	0.437	0.003
-509.785	48.398	-0.272	-0.255
-508.770	-100.731	-0.205	-0.051
-507.756	66.140	0.065	-0.066
-506.741	489.868	0.052	0.119
-505.726	-67.833	-0.492	-0.192
-504.712	-85.442	-0.123	0.038
-503.697	121.949	0.203	-0.253
-502.683	-113.651	-0.207	-0.040
-501.668	157.539	0.225	-0.311
-500.653	-163.821	-0.121	0.006
-499.639	-60.215	0.146	-0.062
-498.624	-200.000	-0.008	0.148
-497.610	-30.396	-0.113	-0.064
-496.595	800.000	-0.043	0.151
-495.581	141.894	-0.335	-0.443
-494.566	-130.858	-0.501	-0.067
-493.551	-15.905	-0.176	0.112
-492.537	800.000	0.086	0.344
-491.522	800.000	-0.124	-0.353
-490.508	57.819	0.140	-0.136
-489.493	281.767	0.161	0.288
-488.478	62.189	-0.090	0.090
-487.464	78.977	-0.108	-0.115
-486.449	5.424	-0.072	0.053
-485.435	-80.205	0.143	-0.048
-484.420	63.006	-0.308	-0.308
-483.405	-135.364	0.077	-0.009
-482.391	-200.000	0.022	0.184
-481.376	310.507	-0.060	-0.111
-480.362	-65.539	-0.214	0.086
-479.347	-200.000	0.013	0.192
-478.332	-200.000	-0.054	0.323
-477.318	27.097	0.250	0.210
-476.303	800.000	-0.039	-0.141
-475.289	-24.298	0.274	-0.163
-474.274	8.557	-0.260	-0.195
-473.259	205.907	-0.103	-0.161
-472.245	596.859	-0.090	0.223
-471.230	-37.116	-0.153	-0.082
-470.216	-20.141	-0.059	-0.036
-469.201	-200.000	0.019	0.084
-468.186	800.000	0.110	-0.362
-467.172	-14.349	0.161	0.104
-466.157	44.913	-0.214	-0.197
-465.143	-142.765	-0.279	-0.027
-464.128	-143.687	-0.102	0.010
-463.113	23.780	0.272	0.224
-462.099	-67.122	0.182	-0.071
-461.084	-58.532	0.276	0.119
-460.070	-87.392	-0.309	-0.093
-459.055	800.000	0.059	-0.190
-458.040	800.000	0.052	-0.163
-457.026	-157.450	-0.279	-0.017
-456.011	-25.203	0.342	-0.202
-454.997	-107.127	-0.036	0.008
-453.982	-121.442	-0.526	0.087
-452.968	25.034	0.085	0.070
-451.953	211.652	-0.039	-0.061
-450.938	345.479	0.041	0.081
-449.924	188.673	0.195	0.292
-448.909	-66.843	-0.185	-0.073
-447.895	800.000	0.061	0.199
-446.880	-19.716	-0.253	0.156
-445.865	800.000	-0.075	0.283
-444.851	123.275	0.020	-0.025
-443.836	-95.478	0.207	0.055
-442.822	-130.400	-0.082	0.011
-441.807	-111.668	0.289	0.058
-440.792	224.061	-0.052	0.084
-439.778	5.160	0.471	0.346
-438.763	-200.000	-0.018	-0.356
-437.749	-200.000	0.009	-0.191
-436.734	-200.000	0.021	0.144
-435.719	-117.378	-0.477	0.086
-434.705	-200.000	-0.001	-0.015
-433.690	85.975	-0.362	-0.397
-432.676	94.303	0.129	0.146
-431.661	113.182	0.182	-0.220
-430.646	82.309	-0.194	0.210
-429.632	23.994	-0.035	-0.029
-428.617	199.504	0.032	-0.049
-427.603	800.000	-0.059	0.239
-426.588	182.567	0.053	-0.077
-425.573	9.309	0.234	0.176
-424.559	74.348	-0.066	0.069
-423.544	-200.000	-0.003	0.292
-422.530	-106.661	-0.192	0.042
-421.515	46.636	0.229	0.211
-420.500	127.628	-0.117	-0.148
-419.486	215.747	-0.054	-0.085
-418.471	32.094	0.220	-0.189
-417.457	-43.617	-0.165	-0.083
-416.442	800.000	0.043	0.184
-415.428	-95.600	-0.226	-0.060
-414.413	-22.666	-0.088	0.053
-413.398	-32.901	0.079	-0.043
-412.384	104.054	-0.120	-0.141
-411.369	-20.725	0.232	0.142
-410.355	-3.229	0.390	0.271
-409.340	-184.511	-0.213	0.003
-408.325	-200.000	0.005	0.238
-407.311	274.960	0.216	0.382
-406.296	-71.029	-0.284	-0.106
-405.282	-200.000	-0.033	-0.224
-404.267	29.641	-0.228	-0.193
-403.252	800.000	0.061	-0.188
-402.238	-200.000	0.000	-0.077
-401.223	35.186	-0.334	-0.291
-400.209	800.000	0.083	-0.329
-399.194	373.838	0.107	-0.217
-398.179	76.659	-0.212	-0.224
-397.165	-195.394	0.156	-0.001
-396.150	5.994	-0.120	0.088
-395.136	454.016	-0.062	-0.136
-394.121	-72.652	-0.322	-0.118
-393.106	-133.987	-0.335	0.041
-392.092	-20.871	0.174	-0.106
-391.077	116.935	-0.087	0.106
-390.063	-126.002	0.226	0.034
-389.048	74.883	-0.195	-0.204
-388.033	326.706	-0.188	0.359
-387.019	800.000	0.240	0.711
-386.004	357.360	-0.086	-0.171
-384.990	800.000	0.067	0.207
-383.975	497.223	-0.234	0.535
-382.960	243.846	-0.048	0.080
-381.946	-70.711	0.174	-0.065
-380.931	-98.919	-0.096	-0.024
-379.917	30.280	0.310	0.263
-378.902	273.012	-0.177	0.311
-377.888	-0.776	0.170	0.120
-376.873	-200.000	-0.026	-0.295
-375.858	-57.411	-0.183	0.080
-374.844	11.115	-0.161	-0.122
-373.829	-200.000	-0.082	0.472
-372.815	-29.519	0.304	0.173
-371.800	-11.656	0.064	-0.042
-370.785	43.943	0.253	0.230
-369.771	118.954	0.180	0.221
-368.756	280.595	0.024	0.043
-367.742	-180.751	0.252	0.005
-366.727	-149.840	-0.403	0.031
-365.712	87.200	0.044	-0.048
-364.698	-200.000	-0.001	0.026
-363.683	465.142	0.042	0.092
-362.669	800.000	0.091	0.371
-361.654	800.000	0.024	0.081
-360.639	16.726	0.256	0.201
-359.625	-200.000	-0.120	0.527
-358.610	263.423	0.060	-0.103
-357.596	444.373	0.030	0.066
-356.581	15.251	0.111	-0.087
-355.566	176.949	0.076	-0.109
-354.552	-200.000	0.011	0.291
-353.537	51.597	-0.147	0.139
-352.523	48.971	-0.213	-0.198
-351.508	-200.000	0.015	0.134
-350.493	-200.000	-0.005	-0.094
-349.479	-126.161	-0.309	0.046
-348.464	800.000	0.099	-0.383
-347.450	34.068	0.321	0.278
-346.435	90.704	0.128	-0.143
-345.420	138.348	0.096	0.125
-344.406	-12.494	-0.136	0.088
-343.391	-32.355	0.302	0.168
-342.377	210.695	-0.088	0.137
-341.362	-200.000	0.007	0.101
-340.348	7.276	0.124	-0.092
-339.333	-45.091	0.067	0.033
-338.318	-23.553	0.090	0.054
-337.304	-75.789	0.116	0.041
-336.289	-200.000	-0.049	-0.345
-335.275	-200.000	-0.026	-0.236
-334.260	-200.000	0.014	-0.262
-333.245	-42.465	0.029	0.015
-332.231	60.672	-0.272	0.268
-331.216	135.443	0.181	0.234
-330.202	-94.573	0.202	0.055
-329.187	15.847	0.202	-0.158
-328.172	253.141	0.182	0.308
-327.158	-20.942	0.147	0.089
-326.143	210.277	-0.040	-0.062
-325.129	-157.749	0.096	0.006
-324.114	29.826	0.020	-0.017
-323.099	-45.032	-0.157	-0.078
-322.085	-58.128	-0.071	0.031
-321.070	-104.780	-0.204	0.046
-320.056	45.267	-0.128	0.117
-319.041	-190.846	0.307	-0.003
-318.026	-153.510	-0.092	-0.006
-317.012	-105.428	0.200	-0.045
-315.997	274.160	-0.080	-0.141
-314.983	59.310	0.095	-0.092
-313.968	611.793	-0.062	0.153
-312.953	364.966	0.093	-0.186
-311.939	-200.000	-0.002	0.074
-310.924	-65.865	0.276	0.109
-309.910	639.800	0.173	-0.437
-308.895	-128.519	0.138	0.019
-307.880	15.727	0.051	-0.040
-306.866	-165.737	0.078	0.003
-305.851	-46.825	0.310	-0.150
-304.837	65.424	-0.286	-0.287
-303.822	147.974	0.173	-0.231
-302.807	-5.543	-0.147	-0.100
-301.793	-103.187	-0.189	-0.044
-300.778	280.750	0.049	0.087
-299.764	205.857	0.169	0.261
-298.749	-32.689	0.204	-0.113
-297.735	61.866	0.225	0.222
-296.720	234.163	-0.022	-0.036
-295.705	-58.933	-0.093	-0.040
-294.691	-36.665	0.118	-0.063
-293.676	-73.940	0.218	-0.078
-292.662	111.520	0.059	0.070
-291.647	-102.606	-0.292	-0.069
-290.632	-55.237	0.285	-0.127
-289.618	-117.047	0.158	-0.029
-288.603	91.159	0.084	-0.093
-287.589	-200.000	-0.040	-0.186
-286.574	524.303	0.109	-0.255
-285.559	43.814	-0.053	0.048
-284.545	-76.602	-0.203	0.071
-283.530	-18.674	-0.213	0.131
-282.516	30.802	-0.281	0.238
-281.501	7.474	-0.174	-0.129
-280.486	-200.000	0.034	0.196
-279.472	-66.727	0.387	0.152
-278.457	212.040	0.168	0.261
-277.443	-80.021	-0.473	0.157
-276.428	-128.387	0.155	0.022
-275.413	100.025	-0.304	0.349
-274.399	-84.317	-0.009	0.003
-273.384	-45.061	0.290	0.143
-272.370	-60.427	-0.307	0.129
-271.355	-127.402	0.276	0.040
-270.340	-200.000	-0.001	0.045
-269.326	800.000	0.057	0.171
-268.311	94.843	-0.069	0.078
-267.297	9.800	-0.176	-0.132
-266.282	-36.357	0.241	-0.129
-265.267	80.835	-0.116	0.123
-264.253	-200.000	0.019	-0.263
-263.238	400.425	0.043	-0.089
-262.224	204.796	0.127	0.194
-261.209	281.246	0.160	0.284
-260.195	-29.233	0.164	-0.093
-259.180	390.465	-0.065	0.133
-258.165	-120.011	0.420	-0.071
-257.151	-129.594	0.130	0.018
-256.136	-200.000	-0.001	0.036
-255.122	-156.140	0.137	-0.009
-254.107	-89.903	0.157	-0.045
-253.092	-200.000	0.044	-0.339
-252.078	287.909	-0.063	-0.113
-251.063	23.241	0.226	0.183
-250.049	-200.000	0.020	0.328
-249.034	113.572	-0.053	-0.064
-248.019	-127.372	-0.102	-0.015
-247.005	400.462	0.146	0.302
-245.990	396.462	0.059	-0.121
-244.976	135.913	-0.058	-0.075
-243.961	-188.648	0.114	0.001
-242.946	-28.792	-0.257	-0.146
-241.932	800.000	0.027	-0.075
-240.917	-200.000	0.092	-0.547
-239.903	7.815	-0.216	-0.160
-238.888	33.732	0.235	-0.202
-237.873	140.437	0.245	-0.320
-236.859	-65.701	-0.317	0.125
-235.844	79.318	0.204	-0.216
-234.830	-200.000	0.031	0.149
-233.815	115.819	-0.007	0.008
-232.800	800.000	-0.073	-0.200
-231.786	443.578	-0.032	-0.070
-230.771	-200.000	0.017	-0.146
-229.757	-100.756	-0.212	0.052
-228.742	-120.210	0.182	0.031
-227.727	19.577	-0.261	-0.208
-226.713	499.280	-0.062	-0.142
-225.698	-200.000	-0.033	-0.334
-224.684	-128.944	0.128	-0.018
-223.669	-200.000	0.029	-0.144
-222.655	-149.944	-0.387	0.030
-221.640	800.000	0.064	0.260
-220.625	336.034	0.114	0.219
-219.611	608.179	0.034	-0.083
-218.596	-91.180	-0.286	-0.081
-217.582	800.000	0.059	0.197
-216.567	-124.645	-0.273	0.042
-215.552	-200.000	0.041	0.293
-214.538	31.440	0.088	0.075
-213.523	183.603	0.067	-0.098
-212.509	-186.896	-0.321	-0.004
-211.494	87.833	-0.150	0.164
-210.479	21.448	-0.146	0.117
-209.465	65.987	-0.062	0.062
-208.450	17.257	-0.157	0.123
-207.436	513.444	-0.063	-0.146
-206.421	-73.727	0.367	0.132
-205.406	-87.986	-0.348	-0.103
-204.392	9.193	-0.136	0.101
-203.377	262.003	0.127	0.218
-202.363	-105.241	-0.244	-0.055
-201.348	800.000	0.108	0.463
-200.333	-200.000	-0.028	0.215
-199.319	543.470	0.112	-0.263
-198.304	-62.537	0.388	0.159
-197.290	-200.000	-0.055	0.455
-196.275	-8.700	0.156	-0.104
-195.260	800.000	-0.073	0.313
-194.246	-34.811	-0.200	-0.108
-193.231	-128.386	0.238	0.033
-192.217	-200.000	-0.012	-0.116
-191.202	-200.000	-0.004	-0.128
-190.187	800.000	0.036	0.099
-189.173	5.223	-0.032	-0.023
-188.158	-200.000	-0.010	-0.109
-187.144	-91.947	0.092	-0.026
-186.129	-200.000	-0.050	-0.247
-185.114	-29.802	0.193	0.109
-184.100	395.610	-0.066	0.136
-183.085	246.043	-0.035	-0.059
-182.071	410.369	-0.093	-0.195
-181.056	-63.205	0.261	0.106
-180.042	15.533	0.192	0.149
-179.027	320.202	-0.072	-0.135
-178.012	124.349	0.247	0.307
-176.998	-50.364	0.106	0.049
-175.983	-100.611	-0.477	-0.116
-174.969	52.850	-0.116	0.109
-173.954	-148.921	0.144	0.011
-172.939	800.000	-0.078	-0.327
-171.925	-70.955	0.250	0.093
-170.910	-200.000	0.001	0.190
-169.896	-113.001	0.174	-0.034
-168.881	-79.411	0.334	0.111
-167.866	-44.545	-0.086	0.042
-166.852	-36.036	-0.287	0.153
-165.837	-2.541	0.398	-0.275
-164.823	771.503	-0.038	0.102
-163.808	-175.056	0.128	-0.004
-162.793	9.727	0.322	-0.241
-161.779	386.740	0.130	-0.265
-160.764	-200.000	-0.026	-0.233
-159.750	-66.961	0.394	-0.154
-158.735	-23.869	-0.383	-0.226
-157.720	-156.541	-0.209	0.013
-156.706	-32.122	0.073	0.040
-155.691	-200.000	-0.019	0.121
-154.677	-200.000	0.041	0.265
-153.662	800.000	0.106	0.396
-152.647	-90.988	-0.251	0.071
-151.633	-23.227	-0.041	-0.025
-150.618	226.484	-0.039	0.062
-149.604	-173.970	0.249	-0.007
-148.589	31.510	0.205	-0.174
-147.574	-200.000	-0.003	0.156
-146.560	800.000	0.043	0.157
-145.545	-200.000	-0.021	0.109
-144.531	-200.000	-0.027	-0.126
-143.516	800.000	0.060	-0.223
-142.502	-26.520	0.081	-0.047
-141.487	-64.221	-0.043	0.017
-140.472	-25.036	-0.339	-0.198
-139.458	454.518	-0.068	0.149
-138.443	-117.957	-0.085	-0.015
-137.429	213.386	-0.113	-0.176
-136.414	-0.335	0.147	-0.103
-135.399	256.190	-0.040	0.068
-134.385	13.390	-0.231	-0.176
-133.370	-91.166	0.289	0.081
-132.356	-135.870	-0.388	-0.045
-131.341	151.209	0.188	0.252
-130.326	156.101	-0.144	-0.196
-129.312	518.239	-0.188	-0.433
-128.297	109.610	0.229	0.271
-127.283	373.080	0.087	-0.174
-126.268	-20.474	0.122	0.074
-125.253	-26.548	0.140	-0.081
-124.239	-88.381	-0.130	0.038
-123.224	-156.376	0.279	-0.017
-122.210	51.637	-0.197	-0.184
-121.195	-49.060	0.151	0.071
