DTS Sentinel unit serial number:	SN413079Multiplexer serial number:	ORYXHardware model number:	OX4-SRSoftware version number:	ORYX F/W v4.00 Oryx Data Collector v3.7.2.0data status	okinstallation	princeton_trtdifferential loss correction	single-endedforward channel	channel 2reverse channel	N/Adate	2019/09/10time	20:17:11forward acquisition time	60.00reverse acquisition time	0.00gamma	496.2192k internal	0.2329k external	0.2329temperature offset calibration	0.9947default loss term (dB/km)	0.3790temperature slope calibration	1.0000multiplexer offset coefficient	1.0000multiplexer slope coefficient	1.0000fibre end	0.00T internal ref (°C)	32.25T ext. ref 1 (°C)	-0.30T ext. ref 2 (°C)	25.34length (m)	temperature (°C)	Stokes	anti-Stokes-747.200	-79.569	0.115	-0.039
-746.185	-106.300	0.340	0.077
-745.171	253.655	0.125	0.215
-744.156	-200.000	-0.035	0.207
-743.142	-132.293	-0.266	-0.035
-742.127	-200.000	0.015	-0.169
-741.112	-65.561	0.252	0.102
-740.098	800.000	-0.041	0.147
-739.083	12.004	0.304	-0.235
-738.069	800.000	-0.081	0.251
-737.054	-188.427	-0.158	0.002
-736.039	-200.000	0.010	-0.237
-735.025	-200.000	-0.007	0.318
-734.010	-122.754	-0.677	-0.110
-732.996	-200.000	0.027	-0.252
-731.981	-19.191	-0.143	0.089
-730.966	-71.467	-0.336	0.127
-729.952	142.874	0.145	-0.194
-728.937	323.511	-0.094	-0.180
-727.923	22.462	0.073	0.060
-726.908	-42.681	0.208	0.106
-725.894	-82.098	-0.151	-0.049
-724.879	-86.199	-0.378	-0.117
-723.864	-91.018	0.317	0.092
-722.850	-28.078	-0.275	0.160
-721.835	560.571	-0.050	0.121
-720.821	-7.637	-0.339	0.231
-719.806	-88.319	-0.288	0.087
-718.791	674.196	-0.060	-0.157
-717.777	-35.942	-0.335	0.183
-716.762	0.194	-0.226	0.162
-715.748	-48.351	-0.127	-0.062
-714.733	-200.000	-0.078	-0.400
-713.718	-40.875	-0.123	0.064
-712.704	417.106	0.053	0.113
-711.689	69.367	-0.034	0.035
-710.675	-200.000	-0.066	-0.477
-709.660	-200.000	-0.063	-0.300
-708.645	64.948	-0.233	-0.237
-707.631	-64.754	0.145	-0.059
-706.616	-155.496	-0.159	-0.010
-705.602	-200.000	0.041	0.243
-704.587	-62.896	0.383	-0.159
-703.572	-200.000	-0.008	-0.092
-702.558	-77.824	-0.069	0.024
-701.543	-119.841	-0.027	-0.005
-700.529	-200.000	-0.030	-0.232
-699.514	36.146	0.169	-0.149
-698.499	-115.198	-0.186	-0.035
-697.485	631.824	0.109	0.276
-696.470	333.225	0.043	-0.084
-695.456	-151.593	-0.220	0.016
-694.441	-157.235	0.121	0.007
-693.426	252.531	0.137	-0.235
-692.412	81.997	0.331	0.360
-691.397	-10.324	-0.142	0.095
-690.383	138.430	0.098	-0.129
-689.368	-1.545	0.073	-0.052
-688.354	374.493	0.069	-0.140
-687.339	383.503	-0.152	-0.315
-686.324	99.074	0.104	0.120
-685.310	25.001	0.087	0.073
-684.295	-200.000	-0.030	0.205
-683.281	-200.000	0.000	-0.061
-682.266	13.573	0.097	-0.075
-681.251	442.578	-0.197	-0.434
-680.237	800.000	-0.124	0.369
-679.222	-105.706	0.080	0.018
-678.208	187.003	0.028	0.042
-677.193	486.491	0.167	-0.383
-676.178	-73.725	0.147	-0.054
-675.164	-85.991	-0.248	0.077
-674.149	-60.090	0.107	0.046
-673.135	800.000	-0.059	0.189
-672.120	-200.000	-0.027	0.151
-671.105	800.000	-0.006	-0.020
-670.091	-200.000	-0.011	0.062
-669.076	-200.000	0.061	-0.364
-668.062	92.665	-0.285	-0.322
-667.047	-48.205	-0.198	-0.096
-666.032	160.656	-0.310	0.435
-665.018	-200.000	0.006	-0.451
-664.003	-40.733	0.092	0.048
-662.989	-0.773	0.248	-0.177
-661.974	-118.376	-0.304	-0.054
-660.959	35.952	0.125	-0.110
-659.945	-16.633	0.141	0.090
-658.930	130.147	0.113	0.145
-657.916	127.734	0.142	-0.182
-656.901	-45.735	0.212	-0.105
-655.886	-31.116	-0.320	-0.181
-654.872	-8.201	-0.249	-0.168
-653.857	-95.482	-0.378	0.102
-652.843	613.480	0.017	0.043
-651.828	-200.000	-0.008	0.184
-650.814	-200.000	-0.001	0.175
-649.799	1.888	0.058	-0.042
-648.784	-76.966	0.136	-0.048
-647.770	800.000	-0.068	-0.213
-646.755	-2.013	-0.354	-0.250
-645.741	94.702	0.186	0.212
-644.726	-200.000	0.023	-0.191
-643.711	-6.374	-0.237	0.162
-642.697	-149.821	-0.225	0.018
-641.682	-54.848	0.235	-0.107
-640.668	-200.000	-0.004	0.047
-639.653	101.458	-0.139	-0.162
-638.638	271.056	-0.098	0.174
-637.624	-135.465	0.246	-0.029
-636.609	-200.000	0.009	0.080
-635.595	-152.049	-0.347	-0.025
-634.580	80.772	-0.115	0.124
-633.565	-37.037	-0.155	0.083
-632.551	-133.778	-0.162	-0.020
-631.536	48.561	-0.132	0.124
-630.522	-93.586	-0.106	-0.029
-629.507	-200.000	0.008	-0.378
-628.492	43.093	-0.183	-0.167
-627.478	-52.485	0.100	0.046
-626.463	-56.624	0.305	-0.136
-625.449	90.673	0.185	-0.208
-624.434	-101.093	0.259	-0.064
-623.419	-138.868	-0.403	-0.044
-622.405	-200.000	0.028	-0.174
-621.390	103.063	0.080	-0.094
-620.376	-33.410	0.101	-0.056
-619.361	-200.000	0.002	0.109
-618.346	175.324	0.148	-0.215
-617.332	-200.000	-0.056	0.296
-616.317	-101.849	-0.108	0.026
-615.303	194.787	0.249	-0.379
-614.288	800.000	-0.059	0.216
-613.273	-200.000	0.019	0.183
-612.259	69.056	0.075	-0.077
-611.244	-10.874	-0.119	-0.079
-610.230	-200.000	-0.028	-0.305
-609.215	-200.000	-0.051	-0.236
-608.201	-38.691	-0.281	0.149
-607.186	800.000	0.078	0.218
-606.171	-200.000	0.032	0.518
-605.157	800.000	0.035	-0.112
-604.142	400.755	0.171	-0.359
-603.128	-102.370	-0.101	-0.024
-602.113	297.128	-0.122	0.225
-601.098	0.120	-0.095	-0.068
-600.084	-86.136	-0.252	0.078
-599.069	-16.425	-0.140	-0.089
-598.055	236.345	0.152	0.252
-597.040	-150.380	0.313	0.024
-596.025	-200.000	-0.030	-0.219
-595.011	-91.676	-0.123	0.035
-593.996	422.814	-0.098	-0.210
-592.982	-48.732	-0.393	0.189
-591.967	-200.000	-0.004	0.279
-590.952	-200.000	-0.003	0.140
-589.938	-26.241	-0.366	-0.215
-588.923	69.714	-0.035	0.036
-587.909	137.276	0.121	-0.158
-586.894	-200.000	-0.026	-0.341
-585.879	-200.000	-0.011	-0.134
-584.865	-137.431	-0.424	-0.048
-583.850	324.644	0.135	0.259
-582.836	-17.904	-0.002	-0.001
-581.821	800.000	-0.014	0.051
-580.806	-132.098	-0.193	0.025
-579.792	140.631	0.158	0.209
-578.777	154.746	0.160	0.220
-577.763	8.170	0.210	0.157
-576.748	800.000	-0.034	-0.095
-575.733	326.652	0.139	-0.267
-574.719	64.405	0.121	0.122
-573.704	-14.395	0.167	0.108
-572.690	94.520	0.292	-0.332
-571.675	-17.136	-0.172	0.109
-570.661	47.560	-0.094	0.088
-569.646	-100.154	0.339	-0.084
-568.631	106.987	0.075	-0.090
-567.617	31.803	-0.220	-0.190
-566.602	-128.892	0.149	-0.021
-565.588	21.163	0.341	-0.277
-564.573	-67.319	0.156	-0.061
-563.558	161.041	-0.068	-0.095
-562.544	-200.000	0.006	0.218
-561.529	-42.822	-0.254	0.129
-560.515	97.067	0.136	-0.156
-559.500	265.213	-0.074	-0.129
-558.485	524.582	-0.126	-0.296
-557.471	277.664	-0.026	0.047
-556.456	146.305	-0.166	0.223
-555.442	202.574	-0.186	-0.287
-554.427	96.035	0.126	-0.144
-553.412	271.483	0.112	0.197
-552.398	-54.338	0.209	0.095
-551.383	800.000	0.069	0.293
-550.369	-31.015	-0.079	0.044
-549.354	275.311	0.059	-0.104
-548.339	800.000	-0.020	-0.059
-547.325	-200.000	0.008	0.323
-546.310	171.982	-0.176	0.253
-545.296	-114.291	0.157	-0.030
-544.281	198.101	0.206	0.315
-543.266	-200.000	0.027	0.176
-542.252	61.500	-0.060	-0.060
-541.237	-86.226	0.134	-0.041
-540.223	-31.654	0.056	0.031
-539.208	247.396	-0.099	0.168
-538.193	516.633	0.015	-0.036
-537.179	-121.965	-0.320	-0.053
-536.164	11.483	0.104	-0.080
-535.150	-145.862	0.164	0.015
-534.135	-42.286	-0.125	-0.064
-533.121	-200.000	0.034	-0.175
-532.106	161.156	-0.049	-0.069
-531.091	-68.060	0.239	-0.093
-530.077	-159.611	-0.025	0.001
-529.062	195.929	-0.119	0.180
-528.048	-148.402	-0.175	-0.014
-527.033	-48.776	0.175	-0.084
-526.018	-77.308	0.158	0.055
-525.004	-55.736	0.136	0.061
-523.989	-81.486	-0.450	-0.148
-522.975	-66.571	0.228	0.090
-521.960	-177.416	-0.336	-0.008
-520.945	319.177	-0.026	-0.050
-519.931	800.000	0.062	0.201
-518.916	-149.617	-0.230	-0.018
-517.902	44.318	0.313	0.287
-516.887	215.163	-0.119	-0.188
-515.872	229.254	-0.127	-0.206
-514.858	-148.661	-0.402	0.033
-513.843	-47.881	-0.160	0.077
-512.829	193.221	0.097	0.146
-511.814	800.000	-0.039	0.166
-510.799	411.969	-0.114	0.242
-509.785	373.900	-0.089	-0.180
-508.770	-200.000	0.010	-0.270
-507.756	-200.000	0.004	-0.213
-506.741	-200.000	-0.129	-0.604
-505.726	-123.802	-0.141	0.022
-504.712	-111.857	-0.420	-0.085
-503.697	55.372	0.144	0.139
-502.683	-114.273	0.196	0.038
-501.668	35.076	-0.029	-0.025
-500.653	504.419	0.105	0.242
-499.639	-176.816	-0.097	-0.002
-498.624	77.214	-0.204	-0.216
-497.610	31.863	-0.143	-0.123
-496.595	134.522	0.126	0.163
-495.581	152.431	0.091	0.124
-494.566	-200.000	-0.090	0.406
-493.551	-143.325	0.052	0.005
-492.537	71.549	0.079	0.081
-491.522	-200.000	0.041	-0.215
-490.508	433.876	-0.114	-0.246
-489.493	46.804	-0.029	-0.027
-488.478	-39.413	-0.246	0.129
-487.464	52.592	0.030	0.028
-486.449	-6.568	0.143	-0.097
-485.435	-4.143	0.276	0.190
-484.420	-200.000	-0.197	-0.000
-483.405	115.974	-0.083	-0.101
-482.391	303.297	-0.099	-0.183
-481.376	800.000	0.059	-0.197
-480.362	170.445	0.239	-0.341
-479.347	-200.000	-0.066	-0.326
-478.332	-100.512	-0.139	-0.034
-477.318	-149.236	0.102	0.008
-476.303	-166.915	-0.156	0.006
-475.289	-108.697	-0.181	0.039
-474.274	-63.262	0.261	0.107
-473.259	-161.103	-0.352	0.018
-472.245	-78.095	0.066	0.023
-471.230	-200.000	-0.015	0.147
-470.216	-200.000	0.045	-0.312
-469.201	-124.391	-0.201	-0.031
-468.186	64.511	0.247	-0.248
-467.172	800.000	0.068	0.267
-466.157	236.132	0.094	0.155
-465.143	-84.293	-0.319	-0.101
-464.128	592.137	-0.156	-0.383
-463.113	227.131	-0.049	0.080
-462.099	93.285	0.227	0.256
-461.084	-54.063	-0.639	-0.290
-460.070	-48.767	0.017	-0.008
-459.055	37.589	-0.163	0.144
-458.040	800.000	-0.052	0.147
-457.026	800.000	-0.106	0.409
-456.011	-200.000	0.022	0.196
-454.997	-200.000	-0.006	-0.108
-453.982	357.691	0.171	-0.340
-452.968	309.937	-0.110	0.205
-451.953	800.000	0.048	0.161
-450.938	-69.181	0.304	-0.117
-449.924	-128.657	0.110	0.015
-448.909	-200.000	-0.031	-0.176
-447.895	800.000	0.066	-0.273
-446.880	-35.938	-0.181	-0.098
-445.865	-16.740	0.266	0.167
-444.851	800.000	0.011	-0.037
-443.836	-167.517	0.414	-0.016
-442.822	16.634	-0.201	-0.158
-441.807	-95.574	0.125	-0.033
-440.792	-118.319	0.085	-0.015
-439.778	-7.262	0.130	0.088
-438.763	-6.518	-0.154	-0.104
-437.749	30.767	0.108	0.092
-436.734	171.530	0.085	-0.121
-435.719	375.064	0.091	-0.184
-434.705	-200.000	-0.031	0.225
-433.690	23.462	0.306	0.251
-432.676	-27.128	-0.330	-0.191
-431.661	-71.321	0.263	-0.098
-430.646	-153.684	-0.203	0.014
-429.632	800.000	-0.032	0.100
-428.617	-124.287	-0.097	-0.015
-427.603	-200.000	0.016	0.168
-426.588	-200.000	-0.029	-0.190
-425.573	347.540	0.018	-0.036
-424.559	-170.689	0.141	-0.005
-423.544	-200.000	-0.001	0.135
-422.530	800.000	-0.037	0.139
-421.515	356.675	-0.206	0.408
-420.500	-91.300	-0.115	-0.033
-419.486	-28.583	0.277	0.159
-418.471	-138.646	0.128	-0.014
-417.457	478.383	0.113	-0.254
-416.442	-145.704	0.106	0.009
-415.428	-152.161	-0.183	0.013
-414.413	800.000	0.034	0.101
-413.398	-180.103	0.162	0.003
-412.384	-64.042	-0.145	0.059
-411.369	112.487	-0.129	0.155
-410.355	-82.913	0.334	0.107
-409.340	800.000	0.029	0.102
-408.325	-193.935	-0.152	0.001
-407.311	-94.098	-0.051	-0.014
-406.296	27.109	-0.192	0.160
-405.282	-200.000	0.011	-0.152
-404.267	-22.199	0.284	0.171
-403.252	342.196	0.109	0.212
-402.238	-150.115	0.543	0.042
-401.223	183.924	0.065	0.096
-400.209	14.230	0.098	0.076
-399.194	470.108	0.093	-0.208
-398.179	475.318	0.085	-0.191
-397.165	212.691	0.082	0.129
-396.150	246.275	-0.162	0.272
-395.136	-182.317	-0.177	-0.003
-394.121	222.132	0.242	-0.387
-393.106	-142.905	0.152	-0.015
-392.092	800.000	0.062	0.182
-391.077	-67.959	0.168	-0.065
-390.063	-200.000	-0.138	0.000
-389.048	133.788	0.135	0.174
-388.033	800.000	-0.024	0.090
-387.019	256.062	-0.047	-0.079
-386.004	136.426	0.149	-0.193
-384.990	-46.232	-0.071	-0.035
-383.975	-47.912	0.176	-0.085
-382.960	800.000	-0.099	0.284
-381.946	75.530	0.179	0.188
-380.931	-129.399	0.047	0.007
-379.917	119.250	0.029	-0.036
-378.902	800.000	-0.059	-0.199
-377.888	108.117	0.270	-0.320
-376.873	800.000	-0.049	0.166
-375.858	-75.442	0.129	-0.045
-374.844	296.346	0.159	0.290
-373.829	41.770	0.168	-0.151
-372.815	-200.000	-0.057	0.257
-371.800	-200.000	0.095	-0.433
-370.785	16.663	-0.370	-0.291
-369.771	-131.372	0.272	0.036
-368.756	-200.000	-0.005	-0.127
-367.742	-64.561	0.209	0.084
-366.727	174.855	0.077	0.111
-365.712	176.963	0.061	-0.088
-364.698	274.636	0.084	0.147
-363.683	800.000	0.041	0.138
-362.669	50.044	0.224	0.210
-361.654	51.385	0.055	-0.052
-360.639	-157.742	0.123	0.007
-359.625	24.960	0.123	0.101
-358.610	0.164	-0.081	0.057
-357.596	-200.000	-0.052	-0.237
-356.581	27.272	-0.322	0.269
-355.566	-72.509	0.213	-0.078
-354.552	-200.000	-0.001	0.175
-353.537	-188.985	-0.106	-0.001
-352.523	275.639	-0.128	0.226
-351.508	28.581	0.114	0.096
-350.493	282.222	-0.143	0.254
-349.479	-200.000	0.019	0.110
-348.464	87.479	0.103	-0.114
-347.450	-72.707	0.199	0.073
-346.435	-22.076	0.355	0.214
-345.420	-200.000	-0.056	-0.255
-344.406	-200.000	0.034	0.228
-343.391	255.257	0.109	0.185
-342.377	226.545	-0.194	0.312
-341.362	-195.518	0.071	0.001
-340.348	13.401	0.037	0.029
-339.333	800.000	0.065	0.200
-338.318	-0.835	0.156	-0.110
-337.304	-89.633	-0.115	0.033
-336.289	574.949	-0.180	0.437
-335.275	51.482	-0.126	0.119
-334.260	800.000	-0.080	0.250
-333.245	-14.735	-0.264	0.168
-332.231	145.373	0.099	-0.131
-331.216	335.996	0.038	0.072
-330.202	293.199	-0.056	0.101
-329.187	-8.083	0.280	-0.187
-328.172	336.523	0.117	-0.225
-327.158	-51.497	0.064	0.030
-326.143	490.470	0.070	0.159
-325.129	-15.185	-0.237	-0.150
-324.114	-106.795	0.041	-0.009
-323.099	-200.000	0.007	-0.098
-322.085	-128.056	0.169	-0.024
-321.070	781.982	-0.043	-0.117
-320.056	800.000	-0.104	-0.302
-319.041	-200.000	0.016	0.071
-318.026	-200.000	-0.036	-0.306
-317.012	-35.384	0.199	-0.107
-315.997	140.186	0.022	0.029
-314.983	-200.000	-0.005	-0.056
-313.968	-118.940	0.105	-0.018
-312.953	800.000	0.043	0.133
-311.939	800.000	0.022	-0.066
-310.924	-22.923	0.211	0.126
-309.910	202.616	-0.202	0.309
-308.895	-200.000	-0.042	-0.183
-307.880	368.164	0.124	-0.248
-306.866	198.773	0.071	-0.107
-305.851	405.214	0.085	-0.177
-304.837	-23.102	0.179	0.107
-303.822	-60.583	-0.147	0.062
-302.807	-200.000	0.041	0.191
-301.793	-51.145	0.235	-0.109
-300.778	738.988	-0.167	0.442
-299.764	122.166	-0.029	-0.036
-298.749	225.614	0.028	0.045
-297.735	108.727	0.119	0.141
-296.720	168.514	0.247	-0.348
-295.705	-170.041	-0.261	-0.009
-294.691	800.000	0.064	-0.214
-293.676	31.392	-0.308	-0.262
-292.662	426.065	-0.135	0.288
-291.647	-16.525	-0.167	-0.105
-290.632	-200.000	0.019	0.120
-289.618	-6.135	-0.192	-0.130
-288.603	499.846	0.140	-0.318
-287.589	232.700	-0.014	-0.023
-286.574	800.000	-0.044	-0.143
-285.559	-200.000	0.034	-0.147
-284.545	-27.715	-0.279	0.160
-283.530	-18.675	-0.376	-0.232
-282.516	-7.033	0.227	0.152
-281.501	-103.336	0.270	0.063
-280.486	65.126	-0.148	-0.148
-279.472	442.113	-0.118	-0.256
-278.457	98.672	-0.110	-0.126
-277.443	90.988	-0.182	-0.202
-276.428	299.852	0.104	0.190
-275.413	360.626	0.128	-0.254
-274.399	800.000	-0.112	0.396
-273.384	-200.000	0.004	0.572
-272.370	800.000	0.074	0.247
-271.355	-110.255	0.296	-0.061
-270.340	100.759	0.135	0.155
-269.326	319.563	-0.049	0.092
-268.311	16.502	-0.217	0.169
-267.297	-11.715	-0.045	0.029
-266.282	-8.311	-0.141	-0.094
-265.267	43.158	0.087	0.078
-264.253	-1.807	0.428	0.298
-263.238	-82.939	0.075	-0.024
-262.224	-200.000	0.011	-0.306
-261.209	474.614	-0.114	0.255
-260.195	-200.000	-0.002	0.236
-259.180	-71.697	-0.036	0.013
-258.165	-200.000	-0.069	-0.359
-257.151	158.527	-0.269	-0.369
-256.136	-200.000	-0.033	0.421
-255.122	-35.085	-0.085	-0.046
-254.107	8.176	-0.078	-0.058
-253.092	-32.381	0.300	-0.165
-252.078	163.064	0.068	0.094
-251.063	-143.427	-0.143	-0.014
-250.049	-200.000	0.022	-0.217
-249.034	753.601	0.069	-0.183
-248.019	-106.433	0.365	-0.081
-247.005	3.461	-0.228	-0.164
-245.990	-200.000	-0.074	-0.422
-244.976	-22.004	0.096	-0.057
-243.961	18.765	0.098	0.077
-242.946	37.550	-0.211	0.185
-241.932	-59.254	-0.212	0.090
-240.917	590.231	-0.176	-0.428
-239.903	800.000	-0.025	-0.096
-238.888	800.000	0.091	0.293
-237.873	747.153	0.118	-0.314
-236.859	-85.135	-0.075	-0.023
-235.844	109.204	-0.148	-0.174
-234.830	145.408	0.191	-0.252
-233.815	800.000	-0.049	0.200
-232.800	800.000	0.026	0.090
-231.786	1.316	0.192	0.136
-230.771	-111.827	-0.286	-0.057
-229.757	322.798	0.169	-0.318
-228.742	151.842	-0.126	-0.169
-227.727	108.421	-0.150	-0.176
-226.713	-107.559	-0.302	0.065
-225.698	616.733	-0.137	0.338
-224.684	-22.761	0.265	-0.158
-223.669	-33.428	0.265	-0.145
-222.655	-44.739	-0.079	0.039
-221.640	72.474	-0.095	-0.098
-220.625	8.353	0.131	-0.097
-219.611	-23.257	-0.226	-0.134
-218.596	-200.000	0.067	-0.373
-217.582	800.000	-0.027	0.089
-216.567	-200.000	-0.001	0.060
-215.552	-37.506	0.206	-0.109
-214.538	25.934	-0.355	-0.292
-213.523	214.673	-0.326	0.510
-212.509	-200.000	-0.012	-0.064
-211.494	800.000	0.080	0.305
-210.479	-200.000	0.013	0.151
-209.465	237.360	-0.120	0.196
-208.450	24.176	0.062	0.050
-207.436	-123.857	-0.357	0.056
-206.421	-80.378	0.111	-0.037
-205.406	-75.273	0.413	0.145
-204.392	62.217	0.176	-0.173
-203.377	112.371	-0.122	0.146
-202.363	-3.044	-0.168	0.116
-201.348	279.787	0.107	0.189
-200.333	116.039	-0.082	0.099
-199.319	-159.779	0.184	0.010
-198.304	177.224	0.046	0.066
-197.290	-200.000	0.005	-0.171
-196.275	-148.856	0.225	-0.018
-195.260	-200.000	0.015	-0.110
-194.246	592.584	-0.108	0.263
-193.231	-165.661	0.214	-0.009
-192.217	-200.000	-0.020	0.132
-191.202	-133.081	0.140	0.017
-190.187	381.768	-0.079	0.161
-189.173	-200.000	0.096	-0.548
-188.158	-149.339	-0.138	0.011
-187.144	-200.000	-0.001	0.032
-186.129	-200.000	0.065	0.553
-185.114	-5.730	0.297	-0.200
-184.100	127.786	-0.161	-0.202
-183.085	-123.058	-0.121	0.019
-182.071	-15.417	0.129	0.081
-181.056	126.883	-0.167	-0.208
-180.042	-117.860	-0.166	0.029
-179.027	-112.736	-0.040	0.008
-178.012	23.785	-0.429	-0.349
-176.998	-36.157	0.151	0.081
-175.983	81.695	0.103	-0.110
-174.969	543.265	-0.033	0.078
-173.954	-22.718	0.304	0.181
-172.939	-93.856	0.113	0.030
-171.925	165.074	0.054	-0.076
-170.910	-200.000	-0.035	0.441
-169.896	-200.000	-0.039	0.173
-168.881	-75.117	-0.088	-0.031
-167.866	800.000	-0.066	0.200
-166.852	-72.881	-0.099	-0.036
-165.837	-200.000	-0.023	-0.156
-164.823	208.216	-0.248	0.382
-163.808	625.144	-0.139	-0.346
-162.793	87.231	-0.106	-0.116
-161.779	-71.705	0.367	-0.135
-160.764	-200.000	0.015	0.083
-159.750	-30.881	-0.112	0.062
-158.735	214.108	-0.088	0.138
-157.720	-4.499	0.051	0.035
-156.706	302.405	0.024	0.045
-155.691	-86.151	-0.133	-0.040
-154.677	-33.837	-0.312	0.169
-153.662	-200.000	-0.002	-0.011
-152.647	55.658	0.231	-0.220
-151.633	-19.031	-0.171	0.104
-150.618	563.841	0.181	0.431
-149.604	800.000	-0.057	-0.241
-148.589	-122.813	0.226	-0.036
-147.574	-38.988	0.546	0.283
-146.560	-98.146	-0.075	-0.019
-145.545	254.715	-0.147	0.247
-144.531	-200.000	0.001	0.427
-143.516	-175.093	0.320	-0.009
-142.502	-68.534	-0.236	0.090
-141.487	-84.500	-0.198	0.061
-140.472	-200.000	0.560	0.002
-139.458	-200.000	0.001	0.141
-138.443	31.707	-0.118	-0.100
-137.429	-127.833	0.115	0.016
-136.414	462.084	-0.114	0.250
-135.399	800.000	0.018	-0.055
-134.385	-80.396	-0.155	0.051
-133.370	78.377	0.086	-0.090
-132.356	-18.149	-0.092	0.057
-131.341	-62.080	0.122	-0.050
-130.326	58.222	-0.354	0.342
-129.312	609.027	-0.066	0.161
-128.297	545.686	-0.137	-0.322
-127.283	-99.907	-0.299	0.073
-126.268	-157.812	0.238	-0.014
-125.253	-200.000	-0.025	-0.197
-124.239	-200.000	-0.011	0.288
-123.224	-48.167	0.479	-0.227
-122.210	65.921	0.205	-0.204
-121.195	53.827	-0.231	-0.218
