DTS Sentinel unit serial number:	SN413079Multiplexer serial number:	ORYXHardware model number:	OX4-SRSoftware version number:	ORYX F/W v4.00 Oryx Data Collector v3.7.2.0data status	okinstallation	princeton_trtdifferential loss correction	single-endedforward channel	channel 2reverse channel	N/Adate	2019/09/11time	10:13:11forward acquisition time	60.00reverse acquisition time	0.00gamma	496.2192k internal	0.2312k external	0.2312temperature offset calibration	0.9968default loss term (dB/km)	0.3790temperature slope calibration	1.0000multiplexer offset coefficient	1.0000multiplexer slope coefficient	1.0000fibre end	0.00T internal ref (°C)	35.81T ext. ref 1 (°C)	0.14T ext. ref 2 (°C)	33.70length (m)	temperature (°C)	Stokes	anti-Stokes-747.200	203.861	0.087	0.137
-746.185	-200.000	-0.045	0.355
-745.171	769.652	0.015	-0.041
-744.156	-21.759	0.153	0.094
-743.142	-200.000	0.010	0.289
-742.127	126.036	0.176	0.226
-741.112	210.664	0.075	-0.120
-740.098	-106.030	-0.168	0.038
-739.083	42.006	-0.155	0.143
-738.069	138.465	0.075	0.100
-737.054	-37.008	0.028	-0.015
-736.039	39.733	-0.216	0.197
-735.025	-200.000	0.037	0.270
-734.010	-115.068	0.163	0.031
-732.996	10.644	-0.238	0.184
-731.981	-47.604	0.274	-0.135
-730.966	272.832	-0.263	0.471
-729.952	800.000	-0.038	-0.140
-728.937	309.031	0.140	-0.265
-727.923	71.268	-0.194	-0.205
-726.908	-0.107	-0.160	-0.115
-725.894	-200.000	-0.008	-0.222
-724.879	800.000	-0.060	0.242
-723.864	-59.472	0.219	0.096
-722.850	-87.572	0.129	0.040
-721.835	-200.000	0.009	-0.093
-720.821	-161.408	-0.250	-0.013
-719.806	35.489	-0.032	-0.029
-718.791	800.000	0.054	-0.201
-717.777	-200.000	0.061	-0.586
-716.762	800.000	0.052	-0.210
-715.748	-21.481	0.181	0.112
-714.733	5.285	-0.295	0.220
-713.718	-53.011	-0.146	-0.068
-712.704	-70.893	-0.245	-0.094
-711.689	182.340	-0.045	-0.067
-710.675	800.000	-0.068	-0.297
-709.660	-86.684	-0.330	0.102
-708.645	75.957	0.262	0.281
-707.631	121.840	0.112	0.142
-706.616	210.378	-0.188	-0.299
-705.602	-200.000	0.025	-0.234
-704.587	-23.199	-0.427	0.260
-703.572	23.434	0.068	0.057
-702.558	-107.717	0.427	0.094
-701.543	-200.000	-0.011	-0.174
-700.529	-40.692	-0.077	-0.041
-699.514	-200.000	0.100	-0.521
-698.499	-31.394	0.323	-0.184
-697.485	-39.381	-0.163	0.086
-696.470	682.124	-0.044	-0.116
-695.456	48.027	-0.145	0.137
-694.441	-67.345	0.035	-0.014
-693.426	-105.155	-0.413	-0.096
-692.412	315.181	0.150	0.286
-691.397	-139.798	-0.355	-0.038
-690.383	-200.000	-0.049	-0.366
-689.368	-105.903	-0.205	0.047
-688.354	311.697	-0.065	0.124
-687.339	111.818	0.132	-0.162
-686.324	-200.000	-0.011	-0.208
-685.310	-55.561	0.233	-0.106
-684.295	-200.000	-0.049	0.222
-683.281	155.592	0.168	-0.234
-682.266	-168.830	0.151	0.006
-681.251	-200.000	0.018	0.247
-680.237	-88.158	0.245	-0.074
-679.222	191.769	-0.175	-0.267
-678.208	-200.000	-0.028	0.128
-677.193	-200.000	-0.016	-0.376
-676.178	-200.000	-0.020	-0.089
-675.164	-148.349	-0.142	0.012
-674.149	193.868	0.019	0.029
-673.135	109.650	0.143	-0.174
-672.120	-200.000	-0.075	-0.364
-671.105	-38.702	-0.259	-0.138
-670.091	46.587	-0.178	0.167
-669.076	-200.000	0.051	-0.250
-668.062	-37.838	-0.230	-0.124
-667.047	-103.431	-0.374	-0.089
-666.032	-42.786	0.016	0.008
-665.018	158.778	0.198	-0.279
-664.003	361.569	0.067	-0.135
-662.989	-200.000	0.048	0.323
-661.974	71.021	0.194	-0.204
-660.959	-131.445	0.043	-0.006
-659.945	8.301	-0.365	-0.278
-658.930	157.794	-0.139	-0.195
-657.916	-200.000	-0.010	-0.097
-656.901	800.000	-0.041	-0.172
-655.886	117.518	0.201	-0.250
-654.872	-63.015	0.508	-0.212
-653.857	-65.220	0.104	-0.042
-652.843	-73.418	0.347	-0.128
-651.828	-63.983	-0.155	-0.064
-650.814	531.510	0.077	0.185
-649.799	-40.653	-0.326	-0.171
-648.784	-112.096	-0.240	-0.049
-647.770	-62.731	-0.409	0.171
-646.755	54.819	0.126	0.123
-645.741	57.945	-0.069	0.068
-644.726	-11.163	0.161	-0.107
-643.711	242.429	-0.108	-0.182
-642.697	94.767	0.200	-0.230
-641.682	-95.809	0.278	-0.075
-640.668	-78.005	-0.252	0.088
-639.653	-130.453	0.196	0.027
-638.638	-23.652	-0.190	0.115
-637.624	-200.000	0.064	0.506
-636.609	-200.000	-0.179	-0.000
-635.595	800.000	0.073	-0.221
-634.580	-69.170	-0.133	0.052
-633.565	800.000	0.103	0.353
-632.551	-29.223	0.095	-0.055
-631.536	63.170	0.224	0.226
-630.522	37.616	0.285	0.256
-629.507	249.009	-0.187	-0.320
-628.492	67.670	0.052	0.053
-627.478	211.854	-0.131	-0.208
-626.463	251.239	0.023	0.039
-625.449	140.853	0.087	-0.116
-624.434	-100.787	-0.236	-0.059
-623.419	149.703	-0.157	0.215
-622.405	-11.194	0.239	0.159
-621.390	-1.072	-0.136	-0.097
-620.376	-0.326	-0.340	0.244
-619.361	516.067	-0.089	-0.211
-618.346	800.000	-0.116	0.397
-617.332	44.239	0.153	-0.142
-616.317	604.254	0.053	-0.134
-615.303	-120.819	-0.178	0.030
-614.288	800.000	0.012	-0.048
-613.273	-122.172	-0.217	-0.036
-612.259	643.213	-0.065	0.166
-611.244	-23.434	0.266	-0.161
-610.230	800.000	-0.012	0.038
-609.215	27.149	0.104	0.088
-608.201	800.000	0.032	0.105
-607.186	-103.125	-0.294	-0.070
-606.171	295.176	-0.163	-0.302
-605.157	267.010	-0.115	-0.203
-604.142	-91.985	-0.184	-0.053
-603.128	-4.048	0.182	-0.127
-602.113	-200.000	0.068	0.384
-601.098	-173.312	-0.074	-0.002
-600.084	7.415	0.202	0.152
-599.069	127.203	-0.171	0.219
-598.055	-23.480	0.281	-0.170
-597.040	-200.000	-0.013	0.111
-596.025	160.284	-0.111	-0.157
-595.011	-200.000	0.013	0.222
-593.996	-82.495	-0.334	0.109
-592.982	-73.093	-0.252	-0.093
-591.967	-14.240	-0.146	-0.095
-590.952	50.663	0.154	-0.147
-589.938	-130.255	-0.153	0.021
-588.923	5.713	0.197	0.147
-587.909	800.000	-0.042	-0.124
-586.894	800.000	0.083	0.325
-585.879	-26.588	-0.497	-0.293
-584.865	-53.904	0.148	-0.068
-583.850	-5.952	0.109	-0.075
-582.836	-200.000	-0.036	0.312
-581.821	54.700	-0.135	-0.131
-580.806	-81.555	-0.296	0.098
-579.792	-50.076	0.300	-0.143
-578.777	800.000	0.105	0.356
-577.763	605.774	0.118	0.295
-576.748	-152.574	-0.216	0.016
-575.733	570.921	-0.094	0.231
-574.719	91.043	-0.161	0.183
-573.704	-108.951	0.328	-0.070
-572.690	84.605	-0.099	0.110
-571.675	-96.872	-0.154	0.041
-570.661	48.110	-0.216	0.203
-569.646	800.000	0.081	-0.270
-568.631	-200.000	-0.064	0.391
-567.617	479.122	0.114	0.260
-566.602	800.000	-0.027	-0.104
-565.588	162.052	-0.236	-0.333
-564.573	-200.000	0.050	-0.275
-563.558	800.000	0.051	0.176
-562.544	-21.438	0.194	0.119
-561.529	-200.000	0.003	-0.129
-560.515	-111.977	0.308	0.062
-559.500	-112.025	-0.429	-0.087
-558.485	51.983	0.291	0.279
-557.471	-77.055	-0.093	0.033
-556.456	800.000	0.111	0.343
-555.442	800.000	0.075	0.276
-554.427	26.527	-0.062	0.052
-553.412	-33.880	0.258	-0.143
-552.398	235.087	0.140	-0.233
-551.383	-137.903	0.257	0.029
-550.369	-200.000	0.041	-0.229
-549.354	-200.000	0.037	-0.266
-548.339	-33.527	-0.112	-0.062
-547.325	-0.686	-0.153	0.109
-546.310	223.638	-0.040	-0.066
-545.296	-78.964	0.198	0.068
-544.281	800.000	-0.056	0.179
-543.266	22.477	0.258	-0.212
-542.252	-57.817	0.358	-0.157
-541.237	64.770	-0.112	0.114
-540.223	352.086	0.080	0.159
-539.208	124.878	-0.086	-0.109
-538.193	800.000	-0.118	-0.333
-537.179	800.000	0.096	0.300
-536.164	-200.000	0.005	-0.250
-535.150	274.085	0.041	0.074
-534.135	-200.000	-0.010	-0.362
-533.121	-200.000	-0.039	-0.274
-532.106	-63.814	0.106	-0.044
-531.091	-3.035	0.050	-0.035
-530.077	42.956	0.112	-0.102
-529.062	-14.127	-0.314	-0.204
-528.048	-200.000	-0.041	-0.223
-527.033	8.416	-0.270	0.205
-526.018	190.596	0.240	-0.363
-525.004	-200.000	0.049	0.269
-523.989	-166.213	0.330	0.014
-522.975	-136.492	-0.193	0.022
-521.960	800.000	-0.151	-0.432
-520.945	135.756	-0.204	0.267
-519.931	800.000	-0.029	0.093
-518.916	-200.000	-0.025	0.221
-517.902	68.790	0.174	-0.179
-516.887	-113.594	0.357	-0.070
-515.872	800.000	-0.063	-0.198
-514.858	245.399	-0.162	-0.274
-513.843	164.154	0.142	-0.201
-512.829	-112.540	-0.206	0.041
-511.814	265.867	-0.141	0.248
-510.799	-200.000	-0.023	0.220
-509.785	97.041	0.071	0.082
-508.770	377.249	0.123	-0.253
-507.756	800.000	-0.099	-0.411
-506.741	-77.576	-0.284	-0.099
-505.726	-26.784	-0.208	-0.122
-504.712	-94.504	-0.182	0.050
-503.697	48.211	-0.160	-0.150
-502.683	34.376	0.284	-0.249
-501.668	-18.545	0.245	0.154
-500.653	22.490	0.185	0.152
-499.639	-146.083	0.362	-0.032
-498.624	0.194	-0.239	-0.171
-497.610	226.725	0.150	0.244
-496.595	263.828	-0.136	0.237
-495.581	178.937	0.068	-0.100
-494.566	-93.666	-0.199	-0.055
-493.551	800.000	0.011	0.034
-492.537	-200.000	0.005	-0.468
-491.522	800.000	0.053	-0.169
-490.508	345.778	-0.074	-0.146
-489.493	800.000	-0.020	-0.071
-488.478	420.262	-0.095	0.205
-487.464	219.495	0.258	-0.415
-486.449	109.437	-0.125	0.150
-485.435	-200.000	0.022	-0.223
-484.420	-52.598	-0.396	-0.184
-483.405	800.000	-0.043	0.139
-482.391	16.352	0.238	-0.189
-481.376	-144.846	-0.230	-0.021
-480.362	800.000	-0.072	-0.217
-479.347	-110.640	0.478	-0.099
-478.332	174.781	-0.202	-0.294
-477.318	510.263	-0.130	0.303
-476.303	-200.000	-0.020	-0.139
-475.289	-200.000	-0.009	-0.087
-474.274	394.733	0.036	0.076
-473.259	-136.715	-0.030	0.004
-472.245	-200.000	0.005	0.313
-471.230	767.153	0.038	0.103
-470.216	-81.284	-0.327	0.108
-469.201	-200.000	0.007	-0.131
-468.186	218.940	0.199	0.319
-467.172	800.000	0.071	0.285
-466.157	54.683	-0.014	-0.014
-465.143	-200.000	0.040	-0.276
-464.128	81.969	0.102	-0.111
-463.113	-126.860	0.250	-0.037
-462.099	0.731	0.290	0.209
-461.084	17.264	0.144	-0.114
-460.070	-200.000	-0.012	0.062
-459.055	-200.000	0.065	0.407
-458.040	-79.264	-0.066	-0.022
-457.026	800.000	0.075	0.283
-456.011	81.766	0.135	-0.146
-454.997	-185.772	0.300	-0.004
-453.982	505.167	0.105	0.245
-452.968	84.752	-0.171	-0.188
-451.953	-48.430	-0.156	0.075
-450.938	598.593	-0.145	0.361
-449.924	47.406	0.184	-0.172
-448.909	-50.726	-0.163	0.077
-447.895	-115.000	0.180	-0.034
-446.880	78.534	0.076	-0.082
-445.865	60.358	0.213	0.212
-444.851	404.819	-0.134	0.284
-443.836	222.031	-0.157	-0.254
-442.822	44.576	-0.064	0.059
-441.807	238.658	0.052	0.086
-440.792	800.000	0.088	0.384
-439.778	-82.660	0.188	0.061
-438.763	481.433	0.110	-0.251
-437.749	128.350	-0.182	-0.232
-436.734	67.022	-0.095	-0.097
-435.719	-67.101	0.322	-0.127
-434.705	565.548	-0.087	-0.212
-433.690	-82.084	-0.233	-0.076
-432.676	800.000	-0.077	0.226
-431.661	-200.000	-0.008	0.428
-430.646	-124.480	0.227	0.035
-429.632	-27.979	-0.070	0.040
-428.617	231.671	0.071	0.117
-427.603	78.909	0.051	-0.055
-426.588	-157.665	-0.151	0.009
-425.573	-5.214	-0.085	-0.059
-424.559	-200.000	0.006	0.134
-423.544	41.352	0.115	-0.105
-422.530	-127.474	0.231	-0.034
-421.515	-42.180	0.382	0.196
-420.500	1.554	-0.097	0.070
-419.486	-118.108	0.093	0.017
-418.471	74.562	-0.056	0.059
-417.457	-200.000	-0.076	-0.454
-416.442	-67.599	-0.147	-0.058
-415.428	-200.000	0.054	-0.245
-414.413	800.000	0.077	-0.292
-413.398	-200.000	0.030	-0.162
-412.384	-99.273	0.096	0.024
-411.369	-61.123	0.287	-0.121
-410.355	-200.000	0.008	0.089
-409.340	502.774	-0.146	-0.338
-408.325	-49.580	-0.288	-0.137
-407.311	-16.110	0.256	0.163
-406.296	242.349	0.147	0.246
-405.282	-103.646	-0.085	0.020
-404.267	70.086	0.044	-0.045
-403.252	13.655	0.110	0.086
-402.238	514.952	0.029	-0.068
-401.223	-100.138	-0.428	-0.107
-400.209	800.000	-0.020	-0.083
-399.194	-91.602	0.086	0.025
-398.179	-55.951	0.196	0.087
-397.165	-200.000	0.014	0.130
-396.150	-200.000	0.012	-0.179
-395.136	-200.000	0.040	-0.220
-394.121	-117.806	0.082	-0.015
-393.106	800.000	0.033	-0.109
-392.092	-189.121	-0.314	-0.004
-391.077	-89.375	0.254	-0.075
-390.063	196.188	-0.127	-0.194
-389.048	-123.743	-0.177	0.028
-388.033	180.950	-0.186	-0.273
-387.019	-54.238	0.189	-0.086
-386.004	243.615	-0.087	0.145
-384.990	-140.066	0.153	-0.016
-383.975	18.730	0.040	0.032
-382.960	800.000	0.055	0.219
-381.946	-83.581	0.237	-0.076
-380.931	281.307	-0.148	0.266
-379.917	-50.375	0.121	-0.057
-378.902	-143.001	-0.211	-0.020
-377.888	371.560	0.119	0.242
-376.873	82.332	-0.101	-0.110
-375.858	13.332	-0.046	0.035
-374.844	569.995	0.079	0.193
-373.829	-200.000	0.011	0.054
-372.815	-4.022	0.067	-0.046
-371.800	-92.584	-0.321	-0.090
-370.785	27.307	0.114	-0.096
-369.771	104.016	0.098	0.115
-368.756	63.194	0.163	0.164
-367.742	116.202	-0.115	0.141
-366.727	651.812	-0.084	-0.216
-365.712	-200.000	0.028	-0.201
-364.698	800.000	0.103	-0.444
-363.683	-171.636	-0.294	-0.010
-362.669	199.155	0.255	0.391
-361.654	158.166	0.126	0.175
-360.639	-200.000	0.052	-0.240
-359.625	-74.503	-0.435	-0.157
-358.610	-61.034	0.021	-0.009
-357.596	-200.000	0.028	0.126
-356.581	-78.799	-0.364	-0.124
-355.566	800.000	0.083	-0.315
-354.552	93.030	0.054	0.061
-353.537	42.000	0.138	0.125
-352.523	184.512	-0.079	0.118
-351.508	-111.055	0.131	-0.027
-350.493	-200.000	-0.087	0.385
-349.479	-200.000	0.027	-0.148
-348.464	800.000	-0.097	-0.279
-347.450	6.060	0.111	0.082
-346.435	230.242	0.091	0.149
-345.420	444.822	0.073	0.160
-344.406	124.012	0.111	0.140
-343.391	-200.000	0.007	-0.072
-342.377	-89.504	-0.259	0.076
-341.362	79.088	-0.287	-0.307
-340.348	46.193	-0.379	-0.351
-339.333	135.697	0.031	-0.040
-338.318	800.000	-0.146	0.475
-337.304	-176.746	-0.162	0.004
-336.289	267.749	0.174	-0.304
-335.275	67.480	-0.128	-0.131
-334.260	800.000	0.095	0.307
-333.245	90.225	-0.064	0.071
-332.231	-113.236	-0.135	-0.027
-331.216	-200.000	0.000	-0.137
-330.202	-93.356	-0.040	0.011
-329.187	-125.928	-0.223	-0.033
-328.172	434.352	0.030	0.066
-327.158	443.668	0.084	0.184
-326.143	-7.567	-0.235	0.159
-325.129	532.804	-0.116	0.273
-324.114	-99.213	-0.223	-0.056
-323.099	-200.000	-0.050	-0.363
-322.085	239.825	0.092	0.152
-321.070	-200.000	-0.022	0.118
-320.056	-32.176	0.178	0.099
-319.041	-44.069	-0.243	0.122
-318.026	-18.299	0.141	-0.088
-317.012	406.956	-0.070	0.147
-315.997	-200.000	0.025	-0.114
-314.983	733.488	-0.027	-0.072
-313.968	572.361	0.066	0.161
-312.953	39.489	-0.160	-0.143
-311.939	145.780	-0.066	-0.089
-310.924	-23.311	-0.049	0.029
-309.910	23.931	-0.152	0.125
-308.895	-200.000	0.034	0.423
-307.880	109.189	-0.113	0.135
-306.866	-64.347	-0.213	0.087
-305.851	-5.385	-0.277	0.190
-304.837	800.000	0.132	-0.474
-303.822	562.215	-0.099	0.240
-302.807	21.087	-0.121	0.098
-301.793	-109.444	0.293	0.062
-300.778	-21.695	0.202	0.123
-299.764	-30.240	0.176	-0.100
-298.749	-122.073	0.275	-0.045
-297.735	-200.000	0.018	0.340
-296.720	800.000	0.059	0.229
-295.705	251.586	0.134	-0.228
-294.691	3.860	0.353	0.257
-293.676	-200.000	0.014	-0.066
-292.662	-57.895	0.328	-0.143
-291.647	-111.502	-0.273	0.055
-290.632	132.916	0.164	0.211
-289.618	-200.000	-0.024	0.393
-288.603	-25.376	-0.161	-0.095
-287.589	44.203	0.050	0.046
-286.574	-98.909	-0.156	0.040
-285.559	-200.000	-0.026	0.316
-284.545	-97.368	-0.221	-0.057
-283.530	-99.298	-0.157	0.040
-282.516	642.082	0.047	-0.120
-281.501	-165.676	0.219	-0.009
-280.486	-89.374	-0.129	0.038
-279.472	288.122	0.079	0.143
-278.457	-55.499	-0.334	0.149
-277.443	-0.985	-0.104	-0.073
-276.428	139.222	0.195	-0.256
-275.413	218.299	0.048	0.076
-274.399	-188.789	0.138	-0.002
-273.384	800.000	-0.036	0.116
-272.370	26.299	-0.074	-0.061
-271.355	175.232	-0.027	-0.039
-270.340	-160.185	0.031	-0.002
-269.326	800.000	0.089	0.327
-268.311	161.753	0.062	0.087
-267.297	180.494	0.154	-0.225
-266.282	-200.000	0.035	-0.211
-265.267	10.112	0.113	0.085
-264.253	-16.753	0.013	-0.008
-263.238	364.919	0.057	-0.115
-262.224	71.389	-0.116	0.120
-261.209	-4.422	0.155	0.107
-260.195	330.143	0.010	-0.019
-259.180	51.900	-0.350	-0.332
-258.165	-82.069	0.145	-0.047
-257.151	47.483	0.259	-0.241
-256.136	-55.064	0.159	-0.071
-255.122	-47.963	0.134	-0.065
-254.107	-54.430	0.017	0.008
-253.092	52.738	0.055	0.052
-252.078	50.194	0.240	-0.225
-251.063	225.295	0.137	0.220
-250.049	800.000	0.067	0.284
-249.034	-146.392	-0.293	0.025
-248.019	32.176	-0.058	-0.050
-247.005	168.925	-0.038	0.053
-245.990	-87.645	-0.108	-0.032
-244.976	241.451	0.224	0.373
-243.961	562.635	0.035	-0.084
-242.946	-6.454	0.269	-0.183
-241.932	-200.000	-0.205	0.001
-240.917	179.215	0.197	-0.286
-239.903	-82.481	0.382	0.123
-238.888	572.652	-0.058	0.140
-237.873	281.528	-0.047	-0.083
-236.859	-124.825	-0.160	-0.025
-235.844	667.020	-0.037	-0.096
-234.830	83.677	0.098	-0.107
-233.815	-200.000	-0.016	0.395
-232.800	133.525	0.156	0.200
-231.786	-96.673	0.231	-0.060
-230.771	-66.367	0.093	0.037
-229.757	294.721	0.256	-0.466
-228.742	-200.000	0.072	-0.447
-227.727	123.406	-0.382	0.476
-226.713	-200.000	0.071	0.314
-225.698	399.514	-0.013	0.028
-224.684	43.980	-0.089	0.081
-223.669	-200.000	-0.009	-0.083
-222.655	-114.278	-0.237	0.045
-221.640	800.000	-0.004	0.015
-220.625	-200.000	0.057	-0.315
-219.611	-105.920	0.189	-0.042
-218.596	-117.582	-0.091	-0.016
-217.582	-12.081	-0.016	0.010
-216.567	-91.223	-0.082	0.023
-215.552	103.628	-0.230	0.268
-214.538	0.436	-0.057	0.041
-213.523	26.847	0.154	-0.128
-212.509	82.717	-0.227	-0.245
-211.494	-126.425	0.261	-0.039
-210.479	-103.069	0.209	-0.049
-209.465	-71.350	0.213	0.079
-208.450	-33.379	0.211	-0.116
-207.436	-200.000	-0.019	0.175
-206.421	-67.441	-0.179	0.070
-205.406	-50.067	-0.089	-0.042
-204.392	-90.820	-0.199	-0.057
-203.377	55.129	0.450	-0.432
-202.363	88.833	0.140	0.155
-201.348	800.000	-0.027	-0.078
-200.333	21.522	0.214	0.173
-199.319	14.438	0.117	0.090
-198.304	-93.199	-0.127	-0.035
-197.290	-200.000	-0.023	0.230
-196.275	-158.806	-0.132	0.007
-195.260	-8.202	-0.066	-0.044
-194.246	213.464	-0.176	-0.276
-193.231	-44.978	-0.160	-0.079
-192.217	-123.581	0.240	-0.038
-191.202	417.283	0.055	0.118
-190.187	800.000	-0.088	-0.319
-189.173	-51.494	-0.217	0.101
-188.158	-200.000	-0.031	-0.270
-187.144	-200.000	-0.027	-0.236
-186.129	226.726	0.231	0.372
-185.114	383.024	-0.030	0.061
-184.100	-200.000	-0.019	-0.100
-183.085	-2.778	0.073	-0.051
-182.071	-182.298	0.229	0.004
-181.056	-20.662	-0.120	0.073
-180.042	64.369	-0.059	0.059
-179.027	-59.649	-0.203	0.086
-178.012	-51.382	0.180	-0.084
-176.998	800.000	-0.041	0.165
-175.983	800.000	-0.029	-0.101
-174.969	-164.057	-0.366	-0.017
-173.954	800.000	-0.044	0.164
-172.939	-140.492	-0.460	0.047
-171.925	571.807	0.073	-0.176
-170.910	-200.000	-0.021	0.185
-169.896	-32.134	0.278	-0.154
-168.881	-39.845	-0.011	0.006
-167.866	62.921	-0.024	0.024
-166.852	-200.000	0.014	0.073
-165.837	-63.551	-0.049	0.020
-164.823	28.819	-0.097	0.081
-163.808	-61.397	-0.152	0.063
-162.793	-130.016	0.293	0.040
-161.779	42.033	0.266	-0.239
-160.764	335.282	0.202	-0.387
-159.750	-138.055	0.168	-0.018
-158.735	-89.149	-0.164	0.048
-157.720	-125.471	0.225	-0.034
-156.706	-66.986	-0.376	0.147
-155.691	242.115	-0.010	0.016
-154.677	-154.499	-0.201	0.013
-153.662	-71.504	0.160	-0.059
-152.647	-143.408	-0.065	-0.006
-151.633	-6.600	-0.307	-0.207
-150.618	204.995	-0.036	-0.055
-149.604	91.271	-0.201	0.224
-148.589	286.836	0.056	0.100
-147.574	36.206	-0.049	0.043
-146.560	129.147	0.159	-0.201
-145.545	-200.000	0.031	-0.357
-144.531	46.090	0.141	-0.129
-143.516	165.104	-0.129	0.181
-142.502	800.000	-0.034	0.139
-141.487	-148.560	-0.196	-0.016
-140.472	-200.000	0.071	0.324
-139.458	169.419	-0.122	0.173
-138.443	-200.000	0.012	0.150
-137.429	287.230	0.161	-0.289
-136.414	-200.000	0.142	0.001
-135.399	435.044	0.147	0.317
-134.385	-73.711	-0.191	-0.069
-133.370	-179.117	0.184	-0.004
-132.356	-90.706	-0.237	-0.068
-131.341	43.195	-0.281	0.254
-130.326	14.941	-0.145	0.113
-129.312	-200.000	0.032	-0.170
-128.297	-200.000	-0.060	-0.575
-127.283	-52.066	0.180	-0.083
-126.268	69.943	0.256	0.261
-125.253	800.000	0.083	0.310
-124.239	-200.000	0.044	0.222
-123.224	-102.040	0.100	0.024
-122.210	-200.000	0.033	0.177
-121.195	-200.000	0.039	-0.353
-120.180	800.000	-0.023	0.079
