DTS Sentinel unit serial number:	SN413079Multiplexer serial number:	ORYXHardware model number:	OX4-SRSoftware version number:	ORYX F/W v4.00 Oryx Data Collector v3.7.2.0data status	okinstallation	princeton_trtdifferential loss correction	single-endedforward channel	channel 2reverse channel	N/Adate	2019/09/11time	06:33:11forward acquisition time	60.00reverse acquisition time	0.00gamma	496.2192k internal	0.2329k external	0.2329temperature offset calibration	0.9933default loss term (dB/km)	0.3790temperature slope calibration	1.0000multiplexer offset coefficient	1.0000multiplexer slope coefficient	1.0000fibre end	0.00T internal ref (°C)	29.67T ext. ref 1 (°C)	-0.18T ext. ref 2 (°C)	24.33length (m)	temperature (°C)	Stokes	anti-Stokes-747.200	-200.000	-0.012	-0.196
-746.185	142.957	-0.102	0.136
-745.171	-53.933	0.313	-0.144
-744.156	468.277	-0.067	0.151
-743.142	-59.245	-0.300	0.130
-742.127	55.589	-0.220	0.214
-741.112	-167.876	0.565	0.022
-740.098	58.198	-0.210	0.207
-739.083	-37.390	-0.192	-0.103
-738.069	800.000	-0.110	0.316
-737.054	-40.803	-0.315	0.164
-736.039	-81.564	-0.468	0.155
-735.025	-112.967	0.080	0.016
-734.010	-77.924	-0.209	0.072
-732.996	-200.000	0.054	0.268
-731.981	-200.000	-0.037	-0.354
-730.966	-68.492	0.167	0.065
-729.952	332.910	-0.200	-0.389
-728.937	-38.947	-0.427	-0.226
-727.923	-200.000	-0.017	0.126
-726.908	-44.709	-0.262	0.132
-725.894	-200.000	0.023	-0.177
-724.879	-97.262	0.373	-0.098
-723.864	51.158	-0.116	0.110
-722.850	-107.586	-0.286	0.063
-721.835	269.982	0.179	-0.316
-720.821	-74.505	-0.284	-0.103
-719.806	-165.809	-0.316	-0.014
-718.791	275.867	0.084	0.150
-717.777	152.276	0.169	-0.232
-716.762	-157.553	-0.234	-0.014
-715.748	370.740	-0.073	-0.148
-714.733	-25.645	-0.254	-0.151
-713.718	638.704	0.066	0.169
-712.704	194.038	-0.178	-0.272
-711.689	-200.000	0.070	-0.382
-710.675	-15.060	-0.152	0.098
-709.660	-85.004	-0.333	0.105
-708.645	11.392	0.142	0.110
-707.631	-200.000	-0.008	0.411
-706.616	230.824	-0.165	-0.272
-705.602	-200.000	0.010	0.135
-704.587	-200.000	0.037	0.277
-703.572	-80.239	-0.235	0.079
-702.558	138.518	-0.146	-0.193
-701.543	11.110	0.206	-0.158
-700.529	-4.051	0.256	0.179
-699.514	112.107	0.159	0.194
-698.499	30.430	-0.073	0.062
-697.485	390.938	0.077	0.160
-696.470	800.000	-0.057	-0.210
-695.456	-157.921	0.314	0.019
-694.441	-5.220	0.122	0.084
-693.426	236.570	-0.076	0.126
-692.412	-200.000	0.047	-0.268
-691.397	33.387	0.096	0.084
-690.383	336.170	0.098	-0.191
-689.368	34.062	-0.100	-0.087
-688.354	426.793	0.141	0.306
-687.339	257.074	-0.138	-0.239
-686.324	350.650	-0.034	-0.067
-685.310	-200.000	-0.036	-0.221
-684.295	-149.217	-0.301	0.024
-683.281	112.903	0.104	-0.127
-682.266	335.255	-0.162	-0.316
-681.251	800.000	-0.087	-0.356
-680.237	-87.426	0.289	0.088
-679.222	-27.103	0.325	-0.191
-678.208	800.000	0.038	-0.159
-677.193	-140.830	0.180	0.019
-676.178	-54.502	0.159	0.072
-675.164	-178.204	0.374	0.009
-674.149	-181.943	-0.124	0.002
-673.135	-200.000	-0.050	0.245
-672.120	-92.471	0.170	-0.048
-671.105	-78.554	0.198	-0.068
-670.091	-40.268	-0.246	0.128
-669.076	226.993	0.128	0.210
-668.062	210.119	-0.130	-0.206
-667.047	91.881	0.095	-0.107
-666.032	800.000	-0.048	0.175
-665.018	-157.668	-0.172	-0.010
-664.003	-193.404	0.272	0.002
-662.989	-128.273	-0.190	0.027
-661.974	-39.055	-0.312	-0.165
-660.959	-60.522	0.142	-0.061
-659.945	-124.393	-0.142	-0.022
-658.930	447.256	-0.054	0.119
-657.916	163.200	0.097	0.137
-656.901	-3.077	-0.224	-0.157
-655.886	-2.886	0.254	-0.178
-654.872	-200.000	0.034	0.471
-653.857	142.032	-0.232	0.309
-652.843	800.000	0.069	0.227
-651.828	125.339	-0.056	-0.071
-650.814	-200.000	-0.017	-0.298
-649.799	-42.304	0.283	0.145
-648.784	17.725	-0.240	-0.191
-647.770	-200.000	-0.042	0.302
-646.755	-110.932	0.214	-0.044
-645.741	23.795	-0.086	-0.071
-644.726	800.000	-0.005	0.015
-643.711	-43.425	-0.106	-0.054
-642.697	481.536	0.133	0.304
-641.682	379.171	0.045	0.093
-640.668	-97.415	-0.081	-0.021
-639.653	-94.839	-0.043	0.012
-638.638	800.000	-0.072	0.269
-637.624	-40.872	-0.253	0.131
-636.609	392.622	0.074	0.155
-635.595	-200.000	0.041	-0.211
-634.580	94.113	0.183	-0.209
-633.565	-94.984	-0.326	-0.088
-632.551	-7.160	0.297	0.202
-631.536	-143.929	-0.254	-0.024
-630.522	-151.847	0.126	-0.009
-629.507	-200.000	-0.038	-0.210
-628.492	142.303	0.068	-0.090
-627.478	-94.884	-0.379	0.103
-626.463	-10.031	-0.178	0.119
-625.449	179.394	0.081	0.120
-624.434	-200.000	-0.001	0.069
-623.419	-200.000	-0.013	-0.232
-622.405	291.690	-0.066	0.120
-621.390	-48.555	0.084	-0.041
-620.376	-142.842	-0.070	-0.007
-619.361	15.457	0.357	-0.281
-618.346	-23.517	-0.199	-0.120
-617.332	-118.680	0.099	-0.017
-616.317	-112.473	-0.239	-0.048
-615.303	61.234	-0.068	-0.067
-614.288	178.627	0.182	0.266
-613.273	382.602	0.102	0.210
-612.259	190.615	-0.186	0.280
-611.244	-200.000	0.011	-0.224
-610.230	158.745	-0.166	-0.231
-609.215	414.486	-0.126	-0.270
-608.201	-36.598	-0.165	0.089
-607.186	-22.792	0.174	-0.105
-606.171	-200.000	0.085	0.449
-605.157	-200.000	-0.008	0.167
-604.142	-12.169	-0.008	-0.005
-603.128	800.000	-0.052	0.150
-602.113	-200.000	0.035	0.266
-601.098	-107.162	-0.156	-0.035
-600.084	-200.000	-0.016	0.150
-599.069	-160.993	0.558	-0.029
-598.055	-52.234	-0.144	-0.067
-597.040	214.650	-0.155	0.247
-596.025	100.791	0.191	0.222
-595.011	33.441	0.180	-0.157
-593.996	-97.795	-0.264	-0.068
-592.982	95.206	-0.100	-0.114
-591.967	21.682	0.288	-0.235
-590.952	313.619	-0.088	-0.165
-589.938	-10.718	0.175	0.116
-588.923	148.254	0.166	-0.225
-587.909	-200.000	0.000	0.126
-586.894	-200.000	-0.080	0.405
-585.879	-27.099	0.325	0.189
-584.865	-139.592	-0.129	0.014
-583.850	-126.727	0.204	-0.030
-582.836	-171.497	-0.383	0.013
-581.821	-23.611	-0.306	-0.184
-580.806	27.152	-0.209	-0.176
-579.792	-200.000	-0.062	0.304
-578.777	185.385	-0.073	0.108
-577.763	-78.358	0.390	0.134
-576.748	-87.780	0.198	0.060
-575.733	44.478	-0.332	0.305
-574.719	102.579	-0.350	-0.410
-573.704	2.745	-0.283	-0.206
-572.690	800.000	-0.025	-0.100
-571.675	-200.000	-0.036	-0.223
-570.661	-200.000	-0.007	-0.325
-569.646	-157.060	-0.160	0.010
-568.631	70.554	0.305	-0.316
-567.617	14.031	0.043	-0.033
-566.602	800.000	-0.066	0.184
-565.588	75.606	0.241	-0.255
-564.573	800.000	0.114	-0.346
-563.558	41.346	-0.142	0.128
-562.544	48.750	0.212	0.199
-561.529	-106.115	0.093	0.021
-560.515	-140.850	0.354	-0.036
-559.500	-200.000	-0.059	-0.294
-558.485	587.969	-0.057	-0.140
-557.471	123.160	0.201	-0.251
-556.456	-45.085	0.093	-0.046
-555.442	-141.694	0.165	0.017
-554.427	800.000	0.062	0.172
-553.412	-69.901	-0.325	0.124
-552.398	800.000	0.020	-0.074
-551.383	800.000	0.110	0.322
-550.369	800.000	0.141	0.458
-549.354	-105.301	0.252	0.057
-548.339	-81.096	-0.356	-0.118
-547.325	158.556	0.074	0.102
-546.310	265.068	0.111	-0.193
-545.296	-129.604	-0.271	-0.037
-544.281	123.625	-0.088	0.110
-543.266	-200.000	-0.015	0.176
-542.252	-99.048	-0.339	0.086
-541.237	-48.344	0.243	0.117
-540.223	123.413	0.052	0.065
-539.208	-200.000	-0.021	-0.236
-538.193	27.975	-0.080	-0.067
-537.179	-95.979	-0.171	0.045
-536.164	13.703	-0.105	0.081
-535.150	188.236	0.142	-0.212
-534.135	248.370	0.074	0.126
-533.121	426.550	0.199	0.429
-532.106	-7.162	-0.148	-0.100
-531.091	-200.000	0.020	-0.129
-530.077	-200.000	-0.020	-0.107
-529.062	-30.932	-0.235	-0.133
-528.048	368.606	0.056	-0.114
-527.033	70.476	0.192	0.198
-526.018	354.331	0.052	0.102
-525.004	-64.148	0.343	-0.140
-523.989	-138.933	-0.343	-0.037
-522.975	-200.000	-0.023	0.297
-521.960	88.064	0.058	0.064
-520.945	19.614	0.224	-0.180
-519.931	-51.067	0.217	-0.102
-518.916	800.000	-0.070	-0.258
-517.902	-21.176	-0.096	-0.059
-516.887	-93.297	-0.123	-0.034
-515.872	-90.884	0.117	0.034
-514.858	-169.535	-0.410	0.015
-513.843	447.878	0.132	-0.291
-512.829	554.504	-0.127	0.304
-511.814	-87.746	0.344	-0.104
-510.799	-81.319	0.218	0.072
-509.785	362.064	0.037	-0.074
-508.770	657.245	-0.049	-0.126
-507.756	800.000	-0.041	0.155
-506.741	436.095	-0.049	-0.106
-505.726	-68.707	-0.204	0.079
-504.712	307.741	0.121	0.224
-503.697	-200.000	-0.085	0.404
-502.683	94.301	-0.212	-0.240
-501.668	-97.941	-0.356	-0.092
-500.653	-51.097	0.282	-0.132
-499.639	800.000	-0.118	-0.400
-498.624	800.000	-0.072	-0.283
-497.610	-2.070	-0.209	-0.147
-496.595	-15.956	-0.191	0.121
-495.581	-7.515	-0.206	-0.139
-494.566	290.021	0.175	0.317
-493.551	-179.782	-0.131	-0.003
-492.537	800.000	-0.015	-0.047
-491.522	-73.081	-0.225	0.082
-490.508	362.865	-0.191	0.383
-489.493	506.478	0.065	0.150
-488.478	-147.724	-0.362	-0.030
-487.464	9.735	0.237	-0.180
-486.449	-20.709	0.129	-0.079
-485.435	-83.016	-0.033	-0.011
-484.420	27.131	0.085	0.071
-483.405	202.620	-0.120	0.184
-482.391	-200.000	-0.011	0.079
-481.376	-9.028	0.149	-0.099
-480.362	800.000	0.084	-0.258
-479.347	-200.000	-0.029	0.257
-478.332	246.332	-0.096	0.161
-477.318	-162.777	-0.335	-0.016
-476.303	-146.366	-0.155	-0.014
-475.289	-102.676	-0.515	-0.122
-474.274	-200.000	0.006	-0.233
-473.259	-200.000	0.158	0.000
-472.245	-81.107	-0.323	-0.107
-471.230	295.504	-0.004	0.007
-470.216	-200.000	0.041	0.243
-469.201	-6.051	-0.149	-0.101
-468.186	56.272	-0.152	-0.147
-467.172	-200.000	-0.010	-0.061
-466.157	-200.000	-0.031	-0.172
-465.143	34.158	-0.109	-0.095
-464.128	680.846	-0.055	0.142
-463.113	-56.644	-0.169	0.075
-462.099	-8.359	-0.092	0.062
-461.084	-46.470	-0.413	0.202
-460.070	-200.000	-0.065	-0.388
-459.055	800.000	0.078	-0.236
-458.040	538.764	0.144	-0.341
-457.026	20.754	-0.235	0.189
-456.011	229.135	0.152	0.247
-454.997	800.000	0.033	0.092
-453.982	-46.021	0.106	0.052
-452.968	-175.559	0.302	0.008
-451.953	-14.618	-0.141	0.090
-450.938	-200.000	-0.019	-0.487
-449.924	103.921	-0.159	-0.186
-448.909	-8.246	0.035	-0.024
-447.895	-29.259	-0.267	-0.152
-446.880	88.303	-0.141	-0.155
-445.865	42.938	-0.174	0.158
-444.851	214.409	-0.111	-0.176
-443.836	218.672	-0.095	-0.151
-442.822	-97.588	-0.195	-0.050
-441.807	21.365	-0.210	0.170
-440.792	198.996	0.247	-0.377
-439.778	697.180	0.165	0.432
-438.763	-174.775	0.242	-0.007
-437.749	-63.279	0.160	0.066
-436.734	-200.000	0.003	0.202
-435.719	800.000	-0.032	0.111
-434.705	-127.647	-0.036	-0.005
-433.690	-200.000	0.002	0.342
-432.676	184.484	-0.221	0.325
-431.661	-54.779	-0.209	-0.094
-430.646	-51.754	0.281	0.131
-429.632	-70.099	-0.133	-0.050
-428.617	-200.000	-0.004	-0.131
-427.603	25.270	-0.306	-0.253
-426.588	-125.499	0.077	0.012
-425.573	-200.000	0.027	-0.240
-424.559	114.608	-0.182	-0.221
-423.544	58.752	0.169	0.165
-422.530	229.571	-0.219	0.355
-421.515	-24.570	0.088	0.052
-420.500	-53.741	-0.207	-0.094
-419.486	-200.000	-0.004	0.108
-418.471	64.015	-0.045	-0.045
-417.457	800.000	0.069	-0.198
-416.442	800.000	0.085	-0.238
-415.428	-200.000	-0.038	0.231
-414.413	800.000	0.048	-0.173
-413.398	-100.701	-0.168	-0.041
-412.384	87.558	0.208	-0.229
-411.369	-26.971	-0.340	-0.197
-410.355	-157.906	0.083	-0.005
-409.340	-44.799	-0.189	0.094
-408.325	-46.504	-0.397	0.194
-407.311	584.167	0.029	0.071
-406.296	-122.816	0.126	0.020
-405.282	236.536	0.097	-0.159
-404.267	800.000	0.077	-0.252
-403.252	480.368	-0.129	-0.290
-402.238	129.441	-0.011	-0.013
-401.223	-200.000	-0.007	0.284
-400.209	-12.810	0.202	0.131
-399.194	-29.424	0.075	-0.043
-398.179	96.084	0.211	-0.240
-397.165	800.000	-0.053	-0.185
-396.150	113.640	0.156	0.188
-395.136	-47.078	0.205	-0.100
-394.121	-89.947	-0.383	-0.111
-393.106	-99.713	-0.270	-0.067
-392.092	-13.997	-0.150	0.096
-391.077	-200.000	0.012	-0.320
-390.063	608.170	0.171	0.425
-389.048	-200.000	-0.010	0.052
-388.033	-18.666	0.196	-0.121
-387.019	-33.873	0.102	0.056
-386.004	93.793	-0.190	-0.214
-384.990	-182.009	-0.124	0.002
-383.975	18.194	0.094	0.075
-382.960	-142.346	-0.404	0.040
-381.946	61.913	-0.085	0.084
-380.931	-36.275	-0.168	-0.090
-379.917	-69.892	-0.094	-0.035
-378.902	544.832	-0.016	-0.038
-377.888	800.000	0.076	0.240
-376.873	-56.519	-0.100	0.044
-375.858	-94.200	-0.239	0.065
-374.844	402.457	0.093	-0.194
-373.829	-45.678	0.135	0.066
-372.815	19.060	0.380	-0.303
-371.800	800.000	0.101	0.335
-370.785	91.940	0.129	-0.144
-369.771	126.781	-0.213	-0.268
-368.756	-49.359	0.423	0.200
-367.742	729.238	0.059	-0.157
-366.727	-3.675	-0.282	-0.195
-365.712	43.484	0.332	-0.301
-364.698	-119.983	-0.210	0.036
-363.683	-164.870	0.137	0.006
-362.669	800.000	0.034	0.118
-361.654	-13.041	0.175	0.113
-360.639	800.000	-0.051	0.160
-359.625	-200.000	0.033	0.199
-358.610	567.241	0.122	-0.295
-357.596	13.729	0.042	0.032
-356.581	-187.775	-0.129	-0.002
-355.566	800.000	-0.081	0.283
-354.552	-28.698	-0.113	0.065
-353.537	125.418	-0.259	0.324
-352.523	189.948	0.155	-0.231
-351.508	-105.866	0.138	-0.031
-350.493	668.103	0.078	0.200
-349.479	373.548	0.112	-0.227
-348.464	542.153	0.116	-0.274
-347.450	-75.675	0.237	-0.084
-346.435	-93.445	-0.092	0.025
-345.420	-19.728	-0.083	0.051
-344.406	-61.626	0.070	-0.029
-343.391	556.740	0.123	0.294
-342.377	22.696	0.090	0.073
-341.362	-14.232	0.151	-0.096
-340.348	16.869	-0.173	-0.136
-339.333	-35.575	-0.187	-0.101
-338.318	-200.000	0.040	-0.191
-337.304	718.570	0.032	0.085
-336.289	199.452	0.086	0.131
-335.275	-124.205	-0.424	0.066
-334.260	94.155	-0.078	-0.087
-333.245	350.500	0.054	-0.105
-332.231	98.834	-0.292	0.334
-331.216	-200.000	-0.046	0.330
-330.202	-119.454	-0.163	0.028
-329.187	-78.202	-0.141	-0.048
-328.172	56.477	-0.045	0.044
-327.158	-200.000	-0.016	0.103
-326.143	31.525	0.151	0.129
-325.129	11.302	-0.136	0.104
-324.114	800.000	0.043	-0.155
-323.099	-12.746	0.227	-0.146
-322.085	-8.380	-0.333	0.222
-321.070	486.279	0.188	0.425
-320.056	-7.060	0.127	-0.086
-319.041	-103.797	-0.193	0.045
-318.026	73.456	0.151	-0.157
-317.012	-37.145	-0.331	-0.176
-315.997	800.000	-0.072	0.258
-314.983	-110.201	0.406	0.084
-313.968	800.000	-0.059	0.217
-312.953	-91.356	-0.117	-0.033
-311.939	384.732	0.128	-0.261
-310.924	800.000	0.045	0.182
-309.910	113.102	0.256	0.308
-308.895	268.849	0.155	-0.269
-307.880	117.377	0.097	-0.119
-306.866	252.508	0.014	0.024
-305.851	300.815	0.163	0.297
-304.837	-200.000	-0.013	-0.072
-303.822	800.000	-0.051	-0.205
-302.807	-18.706	0.194	-0.120
-301.793	377.389	0.018	-0.036
-300.778	-200.000	0.021	0.114
-299.764	800.000	-0.069	-0.193
-298.749	81.085	-0.239	0.256
-297.735	-79.820	-0.204	-0.068
-296.720	258.531	0.208	0.355
-295.705	133.877	-0.084	0.108
-294.691	800.000	-0.073	0.216
-293.676	126.669	0.075	0.094
-292.662	-132.833	0.173	0.022
-291.647	188.503	-0.234	0.346
-290.632	128.319	0.097	-0.122
-289.618	293.816	-0.023	-0.041
-288.603	-200.000	0.005	0.051
-287.589	522.525	0.215	0.499
-286.574	697.385	-0.045	-0.116
-285.559	124.717	-0.052	0.065
-284.545	-62.181	0.103	0.042
-283.530	-200.000	0.003	-0.597
-282.516	-9.983	0.226	0.149
-281.501	-127.967	0.323	-0.046
-280.486	800.000	0.037	-0.153
-279.472	116.248	-0.078	0.095
-278.457	124.879	0.034	0.043
-277.443	-131.381	0.308	0.040
-276.428	125.029	0.126	-0.157
-275.413	328.364	-0.069	0.131
-274.399	407.674	-0.144	0.301
-273.384	-73.528	0.226	-0.081
-272.370	29.642	0.087	0.073
-271.355	-10.115	0.411	-0.270
-270.340	-200.000	0.013	-0.083
-269.326	264.979	0.128	-0.221
-268.311	-17.783	0.203	-0.126
-267.297	147.975	-0.130	-0.174
-266.282	64.803	-0.132	-0.131
-265.267	313.627	0.117	-0.217
-264.253	-25.053	-0.168	-0.098
-263.238	-200.000	-0.037	-0.244
-262.224	-26.639	0.065	-0.038
-261.209	-100.175	-0.145	0.036
-260.195	-200.000	0.035	0.162
-259.180	-174.516	-0.305	-0.009
-258.165	-200.000	0.054	-0.241
-257.151	186.703	-0.229	0.337
-256.136	-7.004	0.226	0.151
-255.122	800.000	0.124	-0.490
-254.107	-43.252	-0.037	-0.019
-253.092	122.375	0.065	0.081
-252.078	-122.498	0.076	-0.012
-251.063	798.574	0.045	0.122
-250.049	127.934	0.132	0.166
-249.034	37.031	-0.340	0.297
-248.019	-84.973	0.148	0.046
-247.005	-70.348	-0.231	0.086
-245.990	290.654	0.054	0.097
-244.976	-197.642	0.434	0.003
-243.961	-117.572	0.233	-0.042
-242.946	-200.000	-0.006	0.078
-241.932	143.278	0.113	0.149
-240.917	-137.862	0.046	-0.005
-239.903	260.193	0.175	-0.299
-238.888	800.000	0.058	-0.167
-237.873	2.615	0.159	0.114
-236.859	-131.930	0.352	-0.045
-235.844	193.985	0.025	0.038
-234.830	316.466	0.044	-0.082
-233.815	-99.223	-0.147	0.037
-232.800	-200.000	0.001	0.040
-231.786	-65.703	-0.066	0.026
-230.771	-200.000	-0.008	0.124
-229.757	-200.000	-0.018	0.234
-228.742	-200.000	0.015	-0.548
-227.727	89.309	0.050	-0.055
-226.713	579.592	0.108	-0.260
-225.698	271.098	0.028	-0.050
-224.684	-49.490	-0.201	-0.095
-223.669	-51.347	-0.079	-0.037
-222.655	304.000	0.193	0.354
-221.640	274.998	0.046	0.080
-220.625	-200.000	0.017	0.244
-219.611	-5.220	0.263	-0.179
-218.596	-73.467	0.241	-0.087
-217.582	-122.289	0.164	0.026
-216.567	-41.604	-0.121	-0.062
-215.552	-99.715	0.508	-0.126
-214.538	-200.000	0.006	-0.154
-213.523	50.071	0.102	-0.095
-212.509	47.703	-0.060	0.055
-211.494	-108.113	-0.097	0.021
-210.479	800.000	-0.005	-0.016
-209.465	49.624	-0.073	-0.068
-208.450	45.763	-0.088	-0.081
-207.436	-57.647	-0.346	-0.149
-206.421	661.301	0.118	0.299
-205.406	-138.792	0.310	-0.033
-204.392	608.334	0.081	-0.198
-203.377	-200.000	0.038	-0.184
-202.363	-80.279	-0.155	-0.051
-201.348	-181.658	0.311	0.006
-200.333	-83.392	0.134	-0.042
-199.319	499.171	-0.089	-0.203
-198.304	197.446	0.148	-0.222
-197.290	479.919	0.058	0.129
-196.275	-129.280	-0.155	0.021
-195.260	-92.483	-0.185	0.051
-194.246	-200.000	0.030	-0.170
-193.231	287.485	0.174	0.310
-192.217	96.440	0.097	-0.110
-191.202	781.092	-0.072	0.196
-190.187	318.835	-0.077	-0.143
-189.173	-136.341	-0.080	0.009
-188.158	-172.520	0.089	0.003
-187.144	124.533	0.269	0.334
-186.129	230.274	-0.174	-0.280
-185.114	-145.617	-0.045	-0.004
-184.100	145.026	-0.042	0.056
-183.085	68.093	0.065	-0.065
-182.071	-200.000	-0.018	0.259
-181.056	-200.000	0.049	0.291
-180.042	29.180	-0.174	0.146
-179.027	82.670	-0.395	0.423
-178.012	501.910	-0.020	-0.046
-176.998	-140.540	0.155	-0.016
-175.983	-200.000	-0.045	-0.289
-174.969	-136.920	-0.079	0.009
-173.954	-58.571	0.350	0.150
-172.939	-200.000	-0.017	-0.279
-171.925	405.787	0.065	0.134
-170.910	-25.716	-0.068	0.039
-169.896	-153.846	0.310	0.021
-168.881	382.096	-0.094	-0.191
-167.866	-200.000	0.045	-0.317
-166.852	2.102	0.249	0.177
-165.837	-200.000	-0.043	0.262
-164.823	-46.794	-0.307	-0.148
-163.808	-59.984	0.203	0.085
-162.793	-147.901	-0.098	0.008
-161.779	-5.090	0.169	0.114
-160.764	122.378	-0.222	0.273
-159.750	38.153	0.123	0.108
-158.735	-62.585	-0.049	0.020
-157.720	-200.000	0.040	-0.321
-156.706	163.479	0.268	-0.371
-155.691	-200.000	-0.012	0.189
-154.677	-54.581	0.100	0.044
-153.662	533.225	0.045	-0.104
-152.647	800.000	-0.122	0.359
-151.633	292.587	0.112	0.200
-150.618	-77.239	0.036	-0.012
-149.604	40.942	0.058	-0.052
-148.589	-94.779	0.272	-0.073
-147.574	320.464	-0.125	0.233
-146.560	261.537	-0.119	0.203
-145.545	800.000	-0.060	-0.209
-144.531	-200.000	-0.050	0.297
-143.516	-126.089	0.603	0.089
-142.502	-65.273	-0.211	-0.084
-141.487	-200.000	-0.072	-0.359
-140.472	-200.000	-0.001	-0.003
-139.458	-140.038	-0.249	0.026
-138.443	-69.976	0.247	-0.093
-137.429	60.672	-0.044	-0.043
-136.414	-91.053	0.322	0.091
-135.399	-29.512	0.222	-0.125
-134.385	-148.702	0.085	-0.007
-133.370	-200.000	0.012	0.161
-132.356	-17.053	0.061	0.038
-131.341	-6.679	0.324	-0.217
-130.326	-69.830	-0.277	-0.104
-129.312	800.000	-0.034	-0.100
-128.297	-142.041	-0.285	0.028
-127.283	800.000	0.103	-0.397
-126.268	-29.547	-0.160	-0.090
-125.253	-132.881	-0.090	-0.011
-124.239	800.000	-0.037	0.103
-123.224	-119.189	0.732	0.126
-122.210	-200.000	0.081	0.397
