DTS Sentinel unit serial number:	SN413079Multiplexer serial number:	ORYXHardware model number:	OX4-SRSoftware version number:	ORYX F/W v4.00 Oryx Data Collector v3.7.2.0data status	okinstallation	princeton_trtdifferential loss correction	single-endedforward channel	channel 2reverse channel	N/Adate	2019/09/12time	01:29:11forward acquisition time	60.00reverse acquisition time	0.00gamma	496.2192k internal	0.2325k external	0.2325temperature offset calibration	1.0091default loss term (dB/km)	0.3790temperature slope calibration	1.0000multiplexer offset coefficient	1.0000multiplexer slope coefficient	1.0000fibre end	0.00T internal ref (°C)	32.94T ext. ref 1 (°C)	2.08T ext. ref 2 (°C)	27.87length (m)	temperature (°C)	Stokes	anti-Stokes-747.200	-200.000	-0.023	0.149
-746.185	-180.009	-0.202	0.004
-745.171	-131.715	-0.252	-0.033
-744.156	74.834	0.099	0.106
-743.142	163.656	-0.242	-0.344
-742.127	88.603	0.146	0.164
-741.112	-99.802	-0.160	0.040
-740.098	-158.907	0.029	0.002
-739.083	-25.152	0.192	-0.115
-738.069	68.545	-0.243	-0.251
-737.054	48.400	-0.175	0.165
-736.039	98.266	-0.177	0.205
-735.025	23.745	-0.062	-0.051
-734.010	218.379	0.148	-0.238
-732.996	-76.620	-0.251	-0.089
-731.981	-200.000	0.007	0.071
-730.966	800.000	-0.071	0.205
-729.952	-200.000	0.002	-0.264
-728.937	48.331	-0.138	-0.130
-727.923	143.013	0.170	-0.228
-726.908	-88.680	-0.577	0.173
-725.894	49.830	-0.173	-0.164
-724.879	122.360	-0.101	0.127
-723.864	390.986	-0.099	0.206
-722.850	8.770	-0.193	-0.146
-721.835	-13.078	-0.056	0.037
-720.821	259.303	0.085	0.147
-719.806	-9.459	0.195	0.131
-718.791	-39.686	-0.169	0.089
-717.777	-83.236	-0.204	-0.066
-716.762	800.000	-0.071	-0.213
-715.748	800.000	-0.065	0.249
-714.733	176.265	-0.205	-0.300
-713.718	691.505	0.056	-0.149
-712.704	-200.000	-0.023	-0.231
-711.689	-84.560	-0.243	-0.077
-710.675	7.365	0.039	-0.029
-709.660	800.000	-0.109	-0.351
-708.645	-70.137	-0.439	-0.168
-707.631	-137.894	0.376	0.042
-706.616	64.893	-0.075	0.076
-705.602	186.763	-0.166	-0.250
-704.587	-136.754	0.275	-0.032
-703.572	61.233	0.142	0.143
-702.558	-81.857	-0.083	-0.027
-701.543	-200.000	-0.065	0.327
-700.529	-84.009	-0.184	-0.059
-699.514	-200.000	-0.002	0.088
-698.499	160.676	0.034	0.047
-697.485	194.914	-0.159	-0.243
-696.470	-14.003	0.233	-0.152
-695.456	-67.165	-0.075	0.030
-694.441	-113.209	-0.117	0.023
-693.426	-59.213	0.142	-0.062
-692.412	361.625	0.181	0.366
-691.397	-200.000	-0.009	-0.087
-690.383	-161.486	0.164	0.009
-689.368	-112.803	-0.253	-0.051
-688.354	25.383	-0.128	0.107
-687.339	-19.326	0.076	-0.048
-686.324	389.147	-0.108	-0.225
-685.310	-65.870	-0.125	0.050
-684.295	-141.156	0.441	0.045
-683.281	-200.000	-0.014	0.337
-682.266	-23.997	-0.187	-0.112
-681.251	-12.236	-0.071	0.047
-680.237	-96.223	-0.278	0.074
-679.222	-83.141	0.292	0.095
-678.208	289.565	0.204	-0.372
-677.193	-80.204	-0.067	-0.023
-676.178	800.000	0.051	-0.174
-675.164	-200.000	-0.076	-0.370
-674.149	698.187	0.063	-0.167
-673.135	-200.000	0.006	-0.297
-672.120	351.495	-0.114	0.227
-671.105	-42.483	-0.157	0.081
-670.091	73.857	0.085	-0.090
-669.076	-200.000	-0.020	0.177
-668.062	-200.000	-0.002	-0.161
-667.047	-139.643	0.096	-0.010
-666.032	-20.408	0.094	-0.058
-665.018	-1.921	-0.314	0.222
-664.003	398.799	0.199	0.419
-662.989	268.200	0.079	-0.139
-661.974	60.208	-0.169	-0.168
-660.959	-200.000	-0.013	0.150
-659.945	-200.000	0.039	0.220
-658.930	-90.218	0.183	0.054
-657.916	800.000	-0.140	-0.428
-656.901	-146.956	-0.443	-0.038
-655.886	-131.873	-0.125	-0.016
-654.872	67.292	-0.307	0.315
-653.857	-7.107	0.139	0.095
-652.843	3.958	0.223	0.164
-651.828	33.907	0.120	0.105
-650.814	110.764	0.044	0.053
-649.799	-81.889	-0.113	-0.037
-648.784	358.006	-0.058	0.116
-647.770	-200.000	0.027	-0.122
-646.755	-97.878	0.110	0.029
-645.741	-37.533	0.242	0.130
-644.726	-5.567	0.056	0.039
-643.711	-191.709	0.278	-0.003
-642.697	-200.000	0.094	-0.435
-641.682	280.867	-0.199	-0.358
-640.668	800.000	0.053	-0.186
-639.653	-45.722	0.351	0.174
-638.638	-154.486	0.221	0.015
-637.624	-200.000	0.010	-0.203
-636.609	-63.862	-0.261	0.107
-635.595	-100.341	-0.347	-0.087
-634.580	80.838	0.191	0.207
-633.565	-48.350	0.123	0.060
-632.551	-200.000	0.005	-0.196
-631.536	39.115	0.164	-0.148
-630.522	-189.760	-0.553	-0.006
-629.507	-135.404	-0.094	0.011
-628.492	380.649	0.164	-0.338
-627.478	-81.868	-0.248	-0.082
-626.463	-200.000	-0.013	0.387
-625.449	-8.753	-0.230	-0.155
-624.434	455.332	0.029	0.064
-623.419	-71.664	-0.071	-0.027
-622.405	-2.013	0.201	-0.142
-621.390	-69.586	0.312	-0.120
-620.376	-121.699	0.131	0.022
-619.361	800.000	0.049	-0.139
-618.346	603.645	-0.081	0.202
-617.332	164.667	-0.197	-0.280
-616.317	-97.130	-0.163	-0.043
-615.303	143.871	0.316	-0.423
-614.288	-54.049	-0.194	-0.088
-613.273	770.714	-0.083	0.226
-612.259	7.214	-0.091	0.068
-611.244	36.495	0.010	-0.009
-610.230	218.431	-0.120	-0.193
-609.215	-2.460	0.111	0.078
-608.201	293.568	0.103	0.189
-607.186	-141.426	-0.353	-0.036
-606.171	417.801	-0.019	0.041
-605.157	-141.919	0.600	0.060
-604.142	-193.337	-0.147	-0.001
-603.128	-62.119	-0.020	-0.008
-602.113	-60.445	-0.286	-0.122
-601.098	800.000	0.065	-0.225
-600.084	800.000	0.052	-0.164
-599.069	196.877	0.033	0.051
-598.055	-160.538	-0.056	0.003
-597.040	25.525	-0.114	-0.095
-596.025	45.713	0.273	0.253
-595.011	0.920	0.269	0.193
-593.996	352.258	-0.109	-0.217
-592.982	49.818	-0.104	-0.098
-591.967	-200.000	-0.007	-0.079
-590.952	496.626	0.128	0.296
-589.938	23.673	-0.219	-0.181
-588.923	69.292	-0.065	-0.067
-587.909	-105.507	-0.105	0.024
-586.894	132.320	0.010	0.013
-585.879	-122.539	-0.425	0.069
-584.865	-110.267	-0.071	0.015
-583.850	-79.532	0.245	0.083
-582.836	304.063	-0.137	0.256
-581.821	-105.958	-0.131	-0.030
-580.806	-200.000	-0.040	-0.288
-579.792	-34.371	0.341	0.188
-578.777	-147.095	-0.482	0.041
-577.763	-200.000	-0.033	-0.439
-576.748	239.197	0.150	-0.250
-575.733	30.279	0.156	0.133
-574.719	-60.264	-0.359	0.153
-573.704	-108.278	0.115	-0.025
-572.690	-83.320	0.322	-0.103
-571.675	-107.947	-0.352	-0.077
-570.661	164.600	0.196	0.277
-569.646	-14.068	-0.344	0.223
-568.631	800.000	-0.028	-0.093
-567.617	-200.000	0.040	0.204
-566.602	-129.464	0.311	0.043
-565.588	-200.000	0.002	0.124
-564.573	800.000	0.097	0.327
-563.558	-200.000	0.039	-0.272
-562.544	800.000	-0.093	0.272
-561.529	-141.290	0.241	0.025
-560.515	-200.000	0.027	-0.448
-559.500	138.881	-0.235	-0.309
-558.485	10.516	0.259	-0.198
-557.471	-7.700	0.214	-0.145
-556.456	-200.000	0.064	0.000
-555.442	-35.246	0.145	0.079
-554.427	-114.032	0.225	0.044
-553.412	68.128	0.199	0.204
-552.398	-72.548	-0.126	-0.047
-551.383	-46.982	0.197	0.096
-550.369	-49.014	-0.277	0.133
-549.354	-200.000	0.013	-0.274
-548.339	-200.000	-0.012	0.117
-547.325	800.000	-0.108	-0.358
-546.310	140.303	0.175	-0.232
-545.296	228.202	-0.051	-0.084
-544.281	373.471	-0.115	-0.234
-543.266	-45.139	0.100	-0.050
-542.252	-200.000	0.035	0.184
-541.237	36.879	0.227	0.201
-540.223	248.519	-0.163	0.276
-539.208	80.264	-0.289	0.311
-538.193	-200.000	0.005	0.052
-537.179	52.202	-0.351	-0.335
-536.164	-32.135	-0.119	-0.067
-535.150	-111.057	-0.157	-0.032
-534.135	-133.550	0.351	0.044
-533.121	23.792	0.073	0.060
-532.106	57.547	0.070	-0.069
-531.091	800.000	0.047	-0.149
-530.077	-200.000	-0.074	-0.353
-529.062	-200.000	0.016	0.463
-528.048	-92.359	-0.113	-0.032
-527.033	-121.019	0.260	-0.044
-526.018	-137.210	-0.277	-0.032
-525.004	-130.175	-0.324	-0.044
-523.989	237.929	0.078	0.130
-522.975	-89.941	0.194	0.057
-521.960	800.000	-0.038	-0.141
-520.945	-94.906	0.139	-0.038
-519.931	56.580	-0.244	0.237
-518.916	36.463	0.023	0.020
-517.902	541.722	-0.080	0.190
-516.887	800.000	0.044	-0.160
-515.872	800.000	-0.074	0.252
-514.858	-165.590	-0.245	-0.011
-513.843	800.000	-0.110	-0.335
-512.829	-200.000	0.008	-0.163
-511.814	-92.359	-0.219	-0.062
-510.799	800.000	-0.065	0.189
-509.785	167.919	-0.173	0.246
-508.770	-180.362	-0.290	-0.006
-507.756	800.000	-0.086	-0.262
-506.741	-18.600	0.095	0.060
-505.726	-28.911	0.159	0.092
-504.712	-159.449	0.126	0.007
-503.697	40.175	0.039	-0.035
-502.683	-200.000	-0.091	0.407
-501.668	285.655	-0.076	-0.138
-500.653	176.702	0.035	-0.051
-499.639	-200.000	0.009	0.192
-498.624	263.643	-0.201	0.349
-497.610	43.709	-0.026	-0.024
-496.595	-200.000	-0.066	0.347
-495.581	574.861	-0.038	0.092
-494.566	141.158	-0.224	-0.296
-493.551	68.784	-0.068	-0.070
-492.537	800.000	0.081	-0.353
-491.522	451.590	-0.079	-0.174
-490.508	-84.789	0.245	-0.077
-489.493	-200.000	-0.025	0.281
-488.478	361.635	-0.079	0.157
-487.464	-10.675	0.195	0.129
-486.449	-125.745	-0.320	-0.048
-485.435	800.000	-0.057	0.167
-484.420	-175.574	0.100	0.003
-483.405	-119.941	0.107	0.018
-482.391	-58.094	0.225	0.098
-481.376	33.381	-0.103	-0.089
-480.362	-139.635	0.126	-0.013
-479.347	-140.151	0.250	-0.026
-478.332	229.141	-0.054	-0.087
-477.318	-68.148	0.273	-0.106
-476.303	29.149	-0.167	-0.141
-475.289	-200.000	-0.024	-0.196
-474.274	800.000	-0.035	0.120
-473.259	170.191	0.059	0.084
-472.245	-200.000	-0.001	-0.160
-471.230	-200.000	-0.024	-0.198
-470.216	439.548	-0.111	0.242
-469.201	629.636	0.163	0.411
-468.186	800.000	0.038	0.152
-467.172	-200.000	0.002	-0.026
-466.157	9.981	0.133	0.101
-465.143	346.421	0.071	-0.140
-464.128	162.592	0.074	0.104
-463.113	-161.196	0.198	0.010
-462.099	315.730	-0.096	-0.181
-461.084	-100.341	-0.153	0.038
-460.070	24.860	-0.071	0.059
-459.055	-155.275	-0.168	-0.011
-458.040	-200.000	-0.012	-0.125
-457.026	-200.000	-0.008	-0.197
-456.011	-200.000	-0.032	-0.156
-454.997	27.340	-0.036	0.030
-453.982	-200.000	-0.010	-0.059
-452.968	-200.000	-0.046	0.456
-451.953	364.036	-0.049	-0.097
-450.938	590.807	0.052	-0.129
-449.924	-30.389	-0.149	-0.084
-448.909	800.000	-0.021	-0.072
-447.895	-200.000	-0.028	-0.387
-446.880	639.990	-0.055	0.138
-445.865	205.026	0.037	-0.057
-444.851	238.118	0.035	-0.058
-443.836	-200.000	0.006	-0.068
-442.822	270.525	0.111	0.194
-441.807	-26.647	0.165	0.096
-440.792	-200.000	0.045	-0.218
-439.778	328.892	0.079	0.152
-438.763	800.000	-0.066	-0.248
-437.749	800.000	0.116	0.399
-436.734	31.909	-0.159	-0.136
-435.719	-58.262	0.153	0.066
-434.705	-58.703	-0.208	-0.090
-433.690	-123.798	-0.269	0.042
-432.676	-123.906	0.019	-0.003
-431.661	-200.000	-0.006	0.072
-430.646	-93.881	-0.194	0.053
-429.632	-100.866	-0.252	-0.062
-428.617	800.000	0.062	0.190
-427.603	-200.000	0.005	0.270
-426.588	135.837	-0.011	0.015
-425.573	-200.000	0.026	-0.217
-424.559	39.939	0.156	-0.140
-423.544	-149.739	0.236	-0.018
-422.530	338.281	0.113	-0.220
-421.515	218.522	-0.161	-0.257
-420.500	-78.026	0.201	0.069
-419.486	69.898	0.209	0.215
-418.471	800.000	0.074	-0.269
-417.457	-83.622	-0.318	0.101
-416.442	-95.691	-0.158	0.042
-415.428	92.817	-0.014	0.016
-414.413	-28.635	-0.175	-0.100
-413.398	63.498	0.071	0.071
-412.384	350.267	-0.076	-0.149
-411.369	-4.408	0.063	0.043
-410.355	376.705	0.067	0.136
-409.340	313.930	0.056	0.105
-408.325	-34.818	-0.073	-0.040
-407.311	-82.248	-0.344	-0.112
-406.296	104.109	0.073	-0.086
-405.282	513.164	0.112	-0.259
-404.267	46.820	0.173	-0.160
-403.252	273.169	0.037	0.066
-402.238	800.000	0.062	0.186
-401.223	800.000	-0.078	0.288
-400.209	-186.623	-0.204	0.003
-399.194	-200.000	0.070	-0.310
-398.179	-3.250	-0.107	-0.074
-397.165	43.190	-0.091	0.083
-396.150	-87.690	0.125	-0.037
-395.136	41.391	0.114	-0.103
-394.121	-198.104	0.465	0.003
-393.106	-76.521	0.017	-0.006
-392.092	-9.835	-0.112	-0.074
-391.077	14.050	0.226	0.175
-390.063	76.558	-0.112	0.118
-389.048	-128.170	-0.353	-0.050
-388.033	133.103	0.013	-0.017
-387.019	-28.040	0.077	-0.044
-386.004	15.080	0.153	-0.119
-384.990	-100.781	0.138	-0.034
-383.975	-2.191	-0.024	0.017
-382.960	-30.235	-0.073	0.041
-381.946	-200.000	0.007	-0.069
-380.931	197.209	-0.128	-0.194
-379.917	43.688	0.353	-0.321
-378.902	-20.690	-0.202	0.123
-377.888	-200.000	0.032	0.158
-376.873	59.696	0.216	0.212
-375.858	139.780	-0.120	0.157
-374.844	137.581	-0.095	-0.123
-373.829	-79.617	-0.101	0.034
-372.815	-16.348	-0.148	0.093
-371.800	55.385	0.210	0.202
-370.785	339.527	0.049	-0.095
-369.771	479.426	0.123	0.276
-368.756	-13.824	-0.344	0.221
-367.742	-80.291	0.177	-0.059
-366.727	-153.802	0.115	-0.008
-365.712	-158.128	-0.762	0.044
-364.698	800.000	-0.104	0.448
-363.683	283.610	0.191	0.342
-362.669	-137.934	-0.117	-0.013
-361.654	-66.923	0.195	0.077
-360.639	-200.000	-0.022	-0.265
-359.625	-106.110	0.241	-0.054
-358.610	-200.000	-0.006	-0.148
-357.596	-1.426	-0.222	0.155
-356.581	-52.949	0.365	0.167
-355.566	-149.027	-0.214	0.017
-354.552	-58.682	0.333	-0.144
-353.537	-88.413	0.285	0.084
-352.523	20.149	0.166	0.133
-351.508	355.243	-0.101	-0.199
-350.493	-87.073	0.249	0.075
-349.479	-63.854	-0.169	0.069
-348.464	-117.261	0.176	0.032
-347.450	403.308	-0.107	0.223
-346.435	13.520	-0.101	-0.078
-345.420	800.000	-0.101	0.286
-344.406	198.241	-0.135	0.205
-343.391	185.059	-0.104	-0.154
-342.377	800.000	0.034	0.100
-341.362	-200.000	-0.004	0.304
-340.348	94.969	0.175	-0.198
-339.333	329.746	0.028	-0.053
-338.318	-29.629	0.269	0.152
-337.304	-100.786	-0.089	0.022
-336.289	163.340	0.133	0.186
-335.275	-13.513	-0.093	-0.060
-334.260	137.729	0.148	-0.193
-333.245	200.398	0.188	-0.287
-332.231	-70.179	0.301	-0.113
-331.216	-107.978	-0.211	0.045
-330.202	-77.921	0.392	0.134
-329.187	505.845	-0.010	-0.024
-328.172	177.136	0.202	0.292
-327.158	-44.966	0.160	0.079
-326.143	-200.000	0.024	0.128
-325.129	-200.000	-0.053	-0.260
-324.114	-200.000	-0.003	-0.128
-323.099	-200.000	-0.100	-0.499
-322.085	99.231	0.147	0.169
-321.070	-200.000	-0.049	-0.391
-320.056	-200.000	0.012	0.060
-319.041	277.908	-0.121	-0.214
-318.026	-150.610	0.405	-0.031
-317.012	800.000	-0.053	-0.228
-315.997	116.846	0.112	-0.137
-314.983	137.988	0.228	0.296
-313.968	769.919	0.030	0.081
-312.953	44.554	-0.216	0.197
-311.939	190.543	-0.046	-0.068
-310.924	800.000	-0.058	-0.206
-309.910	-67.368	-0.272	0.106
-308.895	346.375	0.066	0.129
-307.880	72.520	-0.121	0.125
-306.866	69.375	-0.083	0.085
-305.851	44.573	-0.360	0.329
-304.837	70.193	-0.059	0.060
-303.822	18.115	-0.166	-0.131
-302.807	-122.259	0.322	-0.052
-301.793	800.000	0.107	0.358
-300.778	-75.655	0.186	0.066
-299.764	-49.320	0.253	-0.120
-298.749	126.297	-0.081	0.102
-297.735	-200.000	-0.006	-0.569
-296.720	-200.000	-0.001	0.047
-295.705	16.693	-0.426	-0.334
-294.691	-148.174	0.432	-0.035
-293.676	-200.000	-0.038	0.171
-292.662	-198.662	0.310	-0.002
-291.647	-200.000	0.016	0.215
-290.632	-6.631	0.084	0.057
-289.618	-33.773	-0.383	0.209
-288.603	-200.000	0.008	-0.062
-287.589	-200.000	0.015	0.232
-286.574	-45.840	-0.154	0.075
-285.559	79.817	-0.111	-0.118
-284.545	-106.192	-0.250	0.056
-283.530	-120.041	0.170	0.029
-282.516	-104.404	-0.461	0.106
-281.501	116.435	0.079	0.095
-280.486	253.695	0.084	0.143
-279.472	-200.000	-0.025	0.191
-278.457	-200.000	-0.035	0.165
-277.443	800.000	0.054	0.227
-276.428	-200.000	0.047	0.305
-275.413	-200.000	-0.009	-0.110
-274.399	-109.189	-0.063	-0.013
-273.384	191.611	0.040	0.059
-272.370	-200.000	0.013	-0.385
-271.355	-200.000	-0.024	-0.150
-270.340	-102.640	0.116	0.027
-269.326	-20.994	-0.192	-0.116
-268.311	-48.791	-0.283	-0.134
-267.297	-155.478	0.150	-0.010
-266.282	-179.802	0.192	-0.004
-265.267	19.277	-0.102	-0.081
-264.253	-200.000	-0.013	-0.103
-263.238	42.995	0.014	-0.012
-262.224	-37.351	0.032	0.017
-261.209	24.931	0.258	-0.212
-260.195	-119.970	0.183	-0.031
-259.180	-200.000	0.006	0.129
-258.165	262.925	-0.089	0.153
-257.151	-85.134	-0.143	-0.044
-256.136	-135.672	-0.506	0.059
-255.122	-200.000	0.020	-0.089
-254.107	4.633	-0.159	-0.116
-253.092	-40.988	-0.212	-0.109
-252.078	682.809	-0.072	-0.186
-251.063	49.570	-0.111	0.104
-250.049	-200.000	0.022	0.113
-249.034	-54.700	-0.188	0.084
-248.019	125.854	-0.179	0.224
-247.005	-78.932	-0.180	-0.060
-245.990	87.280	-0.206	0.225
-244.976	-200.000	0.014	-0.065
-243.961	-200.000	0.008	0.089
-242.946	-11.994	0.180	-0.117
-241.932	76.487	-0.131	-0.137
-240.917	167.649	0.214	-0.300
-239.903	-52.569	0.101	0.046
-238.888	-76.265	-0.374	0.130
-237.873	452.475	0.162	-0.354
-236.859	-127.951	-0.213	-0.030
-235.844	110.800	0.084	0.100
-234.830	-200.000	-0.003	0.072
-233.815	800.000	0.117	0.393
-232.800	-147.928	0.234	-0.019
-231.786	-146.382	-0.430	-0.037
-230.771	800.000	0.055	-0.178
-229.757	114.538	-0.064	-0.078
-228.742	6.541	0.075	0.055
-227.727	-86.789	0.237	0.072
-226.713	-45.722	0.364	0.178
-225.698	-101.423	0.120	-0.029
-224.684	-123.779	-0.119	-0.019
-223.669	102.963	-0.150	0.174
-222.655	458.098	0.140	0.307
-221.640	79.255	0.158	-0.168
-220.625	-51.455	0.059	-0.027
-219.611	-129.825	0.186	-0.025
-218.596	176.075	0.174	-0.249
-217.582	800.000	0.099	-0.389
-216.567	-200.000	-0.037	-0.202
-215.552	47.808	0.207	0.191
-214.538	-200.000	-0.096	-0.459
-213.523	-145.794	0.062	-0.005
-212.509	-148.652	0.163	0.013
-211.494	-39.874	-0.246	0.127
-210.479	-56.780	-0.185	-0.081
-209.465	-164.617	0.208	-0.009
-208.450	20.525	-0.031	-0.025
-207.436	-17.079	0.184	0.115
-206.421	-44.307	0.077	-0.038
-205.406	278.645	-0.077	0.135
-204.392	-19.821	0.144	0.088
-203.377	-178.619	-0.069	-0.002
-202.363	-200.000	0.029	-0.131
-201.348	800.000	-0.103	-0.320
-200.333	800.000	-0.107	0.317
-199.319	800.000	0.022	0.087
-198.304	79.100	-0.147	-0.156
-197.290	278.054	-0.041	0.073
-196.275	16.659	-0.246	-0.192
-195.260	-200.000	0.016	0.089
-194.246	-34.654	0.323	0.174
-193.231	69.315	0.058	0.059
-192.217	-6.049	0.065	-0.044
-191.202	-133.527	-0.221	0.027
-190.187	-104.012	-0.085	-0.020
-189.173	-98.200	0.227	0.058
-188.158	-129.196	-0.125	0.017
-187.144	249.575	0.015	0.026
-186.129	-36.313	-0.111	0.059
-185.114	-96.341	-0.262	0.068
-184.100	-70.898	0.301	-0.112
-183.085	375.026	-0.063	0.126
-182.071	16.870	-0.260	-0.203
-181.056	-200.000	0.019	0.151
-180.042	-200.000	-0.026	0.130
-179.027	-200.000	-0.011	-0.118
-178.012	-88.696	-0.091	0.027
-176.998	-6.921	0.071	-0.048
-175.983	-77.951	-0.068	0.023
-174.969	163.730	-0.228	0.316
-173.954	-8.841	0.208	0.138
-172.939	-200.000	0.008	0.423
-171.925	-200.000	-0.053	-0.358
-170.910	-31.032	-0.102	-0.057
-169.896	-110.118	0.074	-0.015
-168.881	800.000	0.037	-0.113
-167.866	-200.000	-0.006	0.188
-166.852	-36.685	0.289	-0.153
-165.837	-200.000	0.008	0.113
-164.823	-11.779	-0.079	-0.051
-163.808	-200.000	-0.001	-0.086
-162.793	800.000	0.113	-0.366
-161.779	-43.310	0.201	-0.101
-160.764	420.525	-0.070	-0.147
-159.750	104.059	0.182	0.211
-158.735	-200.000	-0.002	0.040
-157.720	228.972	0.166	-0.268
-156.706	-200.000	-0.019	0.091
-155.691	-95.142	-0.140	-0.037
-154.677	-200.000	-0.010	0.177
-153.662	154.843	-0.156	0.212
-152.647	179.008	0.251	0.361
-151.633	-30.377	0.087	-0.049
-150.618	34.360	0.232	-0.199
-149.604	800.000	-0.048	0.132
-148.589	114.036	0.237	0.284
-147.574	93.479	0.171	-0.190
-146.560	-148.448	-0.135	0.011
-145.545	3.813	0.315	-0.227
-144.531	159.054	-0.082	0.113
-143.516	-200.000	-0.003	-0.246
-142.502	-43.152	0.220	0.110
-141.487	-200.000	-0.065	0.316
-140.472	102.080	0.225	0.259
-139.458	800.000	-0.006	-0.023
-138.443	568.103	-0.107	-0.256
-137.429	-49.641	-0.093	-0.043
-136.414	-200.000	-0.051	-0.283
-135.399	-98.562	0.239	0.060
-134.385	95.360	-0.099	-0.111
-133.370	-105.990	0.315	-0.070
-132.356	-107.651	0.276	0.059
-131.341	15.207	-0.100	0.077
-130.326	33.975	-0.219	-0.188
-129.312	800.000	-0.049	-0.203
-128.297	-80.075	0.048	0.016
-127.283	441.602	-0.095	-0.204
-126.268	191.343	0.125	-0.185
-125.253	-83.652	-0.185	-0.058
-124.239	-62.345	0.344	0.141
-123.224	43.215	-0.109	0.098
-122.210	800.000	-0.094	0.262
