DTS Sentinel unit serial number:	SN413079Multiplexer serial number:	ORYXHardware model number:	OX4-SRSoftware version number:	ORYX F/W v4.00 Oryx Data Collector v3.7.2.0data status	okinstallation	princeton_trtdifferential loss correction	single-endedforward channel	channel 2reverse channel	N/Adate	2019/09/11time	19:57:11forward acquisition time	60.00reverse acquisition time	0.00gamma	496.2192k internal	0.2312k external	0.2312temperature offset calibration	1.0050default loss term (dB/km)	0.3790temperature slope calibration	1.0000multiplexer offset coefficient	1.0000multiplexer slope coefficient	1.0000fibre end	0.00T internal ref (°C)	38.95T ext. ref 1 (°C)	1.38T ext. ref 2 (°C)	32.05length (m)	temperature (°C)	Stokes	anti-Stokes-747.200	271.726	0.152	-0.272
-746.185	76.276	-0.049	0.052
-745.171	-200.000	0.016	0.349
-744.156	-50.366	0.170	0.081
-743.142	800.000	0.044	-0.122
-742.127	-200.000	-0.088	0.450
-741.112	800.000	-0.015	-0.058
-740.098	73.056	-0.094	0.100
-739.083	800.000	-0.125	0.403
-738.069	-200.000	0.015	-0.089
-737.054	96.372	-0.109	-0.127
-736.039	-200.000	0.027	0.142
-735.025	95.510	-0.296	0.343
-734.010	-12.851	-0.265	-0.175
-732.996	63.063	0.091	0.093
-731.981	131.670	0.081	0.106
-730.966	-139.312	-0.174	0.019
-729.952	800.000	-0.059	0.175
-728.937	-200.000	0.020	-0.091
-727.923	-67.000	-0.238	0.095
-726.908	-31.318	0.468	-0.267
-725.894	-53.033	-0.212	-0.099
-724.879	220.043	-0.202	-0.329
-723.864	25.445	-0.199	-0.168
-722.850	800.000	-0.056	0.184
-721.835	-11.060	-0.229	-0.153
-720.821	-62.005	0.124	-0.052
-719.806	-36.072	0.206	0.113
-718.791	45.972	-0.119	0.111
-717.777	-100.357	-0.137	-0.034
-716.762	562.410	-0.025	0.062
-715.748	-200.000	0.010	-0.342
-714.733	55.476	-0.133	-0.131
-713.718	-68.262	0.318	0.126
-712.704	562.110	-0.138	0.338
-711.689	-53.172	-0.259	0.120
-710.675	18.171	-0.317	0.257
-709.660	436.628	-0.072	0.158
-708.645	-85.937	-0.364	-0.114
-707.631	106.921	0.119	-0.143
-706.616	-200.000	-0.002	-0.086
-705.602	507.908	0.060	0.140
-704.587	27.102	0.241	0.205
-703.572	627.915	0.109	-0.280
-702.558	473.702	-0.088	-0.201
-701.543	-200.000	-0.027	-0.404
-700.529	586.545	-0.071	0.177
-699.514	29.314	0.183	0.157
-698.499	361.590	-0.126	0.255
-697.485	-97.293	-0.261	-0.069
-696.470	800.000	-0.020	0.063
-695.456	61.973	0.177	-0.178
-694.441	-53.714	-0.100	0.046
-693.426	0.825	-0.118	-0.086
-692.412	800.000	-0.068	-0.263
-691.397	-161.333	-0.201	-0.011
-690.383	-200.000	-0.001	0.114
-689.368	800.000	0.095	-0.282
-688.354	-43.277	-0.253	0.130
-687.339	-120.838	-0.072	0.012
-686.324	800.000	0.068	-0.241
-685.310	263.447	0.099	-0.174
-684.295	-22.627	-0.131	0.080
-683.281	321.165	-0.182	0.350
-682.266	-114.351	0.266	0.052
-681.251	424.995	0.067	0.147
-680.237	179.381	-0.064	-0.095
-679.222	-200.000	0.020	-0.294
-678.208	0.015	-0.094	-0.068
-677.193	-96.460	-0.366	-0.098
-676.178	230.291	-0.029	-0.048
-675.164	-200.000	-0.026	-0.205
-674.149	-152.771	0.234	-0.017
-673.135	-60.916	-0.225	0.096
-672.120	-167.057	0.184	-0.008
-671.105	-86.923	0.318	-0.098
-670.091	-13.351	0.181	-0.119
-669.076	800.000	0.092	0.394
-668.062	-44.085	-0.306	-0.155
-667.047	-173.430	-0.222	0.007
-666.032	-200.000	0.002	0.110
-665.018	-200.000	0.022	-0.178
-664.003	157.070	0.097	0.136
-662.989	109.060	-0.014	-0.017
-661.974	800.000	0.051	0.167
-660.959	800.000	-0.051	-0.203
-659.945	348.934	-0.020	0.039
-658.930	-76.770	0.068	-0.024
-657.916	-19.600	-0.037	0.023
-656.901	800.000	0.023	-0.087
-655.886	58.406	0.239	-0.237
-654.872	-73.561	-0.196	0.072
-653.857	800.000	-0.043	-0.181
-652.843	800.000	-0.058	-0.185
-651.828	155.041	0.164	-0.227
-650.814	-0.871	-0.141	0.101
-649.799	800.000	0.055	-0.180
-648.784	-128.290	0.286	0.041
-647.770	113.429	0.264	0.324
-646.755	800.000	0.048	0.162
-645.741	-117.088	-0.152	-0.028
-644.726	92.627	-0.008	0.009
-643.711	-132.809	-0.163	0.021
-642.697	-200.000	0.050	-0.243
-641.682	-200.000	-0.001	0.021
-640.668	0.651	0.104	0.076
-639.653	41.131	0.382	0.349
-638.638	270.734	0.202	0.359
-637.624	73.785	-0.150	-0.159
-636.609	1.358	0.133	-0.096
-635.595	537.439	-0.116	-0.278
-634.580	71.016	-0.103	-0.108
-633.565	-200.000	0.021	-0.251
-632.551	-81.859	0.415	0.137
-631.536	-99.386	-0.368	-0.094
-630.522	-200.000	0.004	-0.083
-629.507	74.765	0.139	-0.148
-628.492	121.896	0.119	0.150
-627.478	24.324	-0.107	0.090
-626.463	-200.000	-0.038	-0.262
-625.449	229.562	-0.218	-0.360
-624.434	-174.893	-0.158	-0.004
-623.419	95.234	0.151	0.174
-622.405	800.000	0.038	-0.137
-621.390	-29.778	-0.190	-0.109
-620.376	153.341	0.108	0.149
-619.361	-106.505	0.133	-0.030
-618.346	800.000	-0.084	-0.280
-617.332	-103.760	0.161	0.038
-616.317	800.000	0.096	0.395
-615.303	-45.409	0.260	0.130
-614.288	-174.745	0.207	0.006
-613.273	-200.000	0.035	0.312
-612.259	-145.347	-0.192	0.017
-611.244	98.321	-0.173	-0.201
-610.230	-131.608	0.037	-0.005
-609.215	-69.775	-0.384	0.148
-608.201	631.097	0.043	-0.110
-607.186	194.024	0.125	-0.191
-606.171	32.511	0.085	-0.075
-605.157	-200.000	0.020	0.318
-604.142	800.000	-0.040	0.113
-603.128	800.000	0.107	-0.379
-602.113	-169.400	0.424	0.016
-601.098	4.253	0.122	-0.090
-600.084	213.155	-0.141	-0.225
-599.069	-74.504	-0.195	-0.071
-598.055	-88.987	0.267	-0.080
-597.040	261.236	0.050	-0.088
-596.025	800.000	-0.023	-0.100
-595.011	-192.509	-0.217	0.002
-593.996	-139.402	0.148	0.016
-592.982	19.564	-0.114	0.093
-591.967	-80.788	-0.258	0.087
-590.952	77.656	0.119	-0.127
-589.938	-42.301	-0.471	-0.243
-588.923	-200.000	0.054	-0.286
-587.909	-54.464	-0.071	-0.032
-586.894	-1.451	-0.316	-0.225
-585.879	409.626	0.066	0.140
-584.865	-200.000	-0.020	-0.270
-583.850	99.371	-0.193	-0.226
-582.836	662.713	0.126	-0.327
-581.821	-200.000	0.002	0.160
-580.806	-200.000	-0.030	-0.205
-579.792	80.840	-0.100	-0.108
-578.777	-85.254	-0.211	-0.067
-577.763	428.191	-0.054	-0.117
-576.748	300.824	-0.177	-0.330
-575.733	-46.397	-0.305	0.151
-574.719	197.826	-0.124	0.190
-573.704	508.239	0.098	0.230
-572.690	48.266	-0.140	0.132
-571.675	800.000	0.146	0.418
-570.661	-200.000	0.001	0.027
-569.646	-200.000	0.019	-0.263
-568.631	800.000	0.039	0.110
-567.617	-200.000	-0.016	0.081
-566.602	151.387	-0.156	0.214
-565.588	-75.426	0.196	0.070
-564.573	792.717	-0.080	-0.222
-563.558	-35.292	0.292	0.160
-562.544	-47.110	-0.068	0.033
-561.529	-200.000	-0.018	-0.138
-560.515	545.981	-0.043	0.104
-559.500	-123.103	-0.295	-0.048
-558.485	-12.361	-0.099	-0.065
-557.471	800.000	-0.084	-0.320
-556.456	-107.754	-0.118	0.026
-555.442	800.000	0.018	0.066
-554.427	-115.063	-0.373	-0.071
-553.412	-68.051	-0.391	-0.153
-552.398	-30.655	-0.215	-0.122
-551.383	800.000	0.036	0.128
-550.369	-200.000	-0.050	-0.298
-549.354	-89.394	-0.086	-0.025
-548.339	-151.055	-0.228	-0.017
-547.325	371.645	-0.099	-0.203
-546.310	142.203	0.169	0.226
-545.296	36.706	0.050	-0.045
-544.281	-141.210	-0.231	0.024
-543.266	-148.614	-0.208	0.017
-542.252	76.881	0.091	-0.098
-541.237	101.825	-0.070	-0.083
-540.223	-20.971	0.194	0.120
-539.208	252.452	0.077	0.132
-538.193	800.000	-0.091	0.321
-537.179	538.158	-0.113	-0.271
-536.164	74.337	0.181	-0.192
-535.150	0.149	0.206	-0.148
-534.135	299.210	-0.133	0.247
-533.121	66.678	0.046	-0.047
-532.106	-150.150	-0.168	-0.013
-531.091	-64.625	0.274	-0.112
-530.077	-200.000	0.041	0.230
-529.062	-73.695	-0.289	0.106
-528.048	-200.000	-0.005	0.057
-527.033	713.951	0.112	-0.300
-526.018	-59.526	0.117	0.051
-525.004	-200.000	-0.032	-0.233
-523.989	331.779	0.143	-0.277
-522.975	-200.000	-0.130	0.000
-521.960	800.000	-0.054	-0.156
-520.945	35.059	0.245	0.215
-519.931	-107.803	0.432	0.095
-518.916	-80.740	0.187	0.063
-517.902	800.000	0.082	0.350
-516.887	115.579	0.198	0.243
-515.872	-80.746	0.258	-0.086
-514.858	103.007	-0.048	-0.057
-513.843	-35.215	0.107	0.059
-512.829	-101.666	-0.130	0.032
-511.814	-89.639	0.159	-0.047
-510.799	-200.000	-0.002	0.035
-509.785	-103.494	-0.374	0.089
-508.770	-73.956	-0.613	-0.224
-507.756	220.167	0.074	-0.119
-506.741	800.000	0.103	0.315
-505.726	-154.681	0.152	-0.010
-504.712	-200.000	0.015	0.100
-503.697	-54.433	-0.159	0.072
-502.683	417.994	-0.137	0.294
-501.668	22.101	-0.066	0.054
-500.653	-53.285	0.069	-0.032
-499.639	-152.679	0.168	-0.012
-498.624	34.831	-0.227	-0.199
-497.610	188.134	0.027	0.041
-496.595	272.295	-0.183	-0.324
-495.581	68.486	0.175	0.180
-494.566	-195.584	0.280	0.002
-493.551	191.116	0.048	-0.072
-492.537	507.983	0.022	-0.052
-491.522	-47.797	-0.122	-0.060
-490.508	45.551	-0.021	-0.019
-489.493	148.654	-0.189	-0.257
-488.478	4.867	-0.179	0.132
-487.464	167.899	-0.106	0.151
-486.449	52.642	-0.264	0.254
-485.435	-198.704	-0.072	0.000
-484.420	-120.701	0.158	-0.027
-483.405	15.418	0.125	-0.098
-482.391	-43.364	0.355	-0.180
-481.376	800.000	0.038	-0.110
-480.362	97.910	-0.125	0.145
-479.347	89.555	-0.136	0.153
-478.332	277.218	-0.153	-0.274
-477.318	-38.020	-0.130	0.069
-476.303	-189.551	-0.130	-0.002
-475.289	307.206	0.162	0.302
-474.274	-99.340	0.246	0.062
-473.259	-31.251	-0.057	0.032
-472.245	-145.054	-0.415	0.038
-471.230	30.281	0.126	-0.108
-470.216	800.000	-0.083	0.264
-469.201	-79.760	-0.216	-0.073
-468.186	-108.688	-0.200	0.043
-467.172	-170.036	0.130	-0.005
-466.157	-97.908	-0.219	0.057
-465.143	85.862	-0.056	0.062
-464.128	120.908	0.253	-0.316
-463.113	-97.105	0.324	-0.085
-462.099	-63.463	0.159	-0.066
-461.084	253.659	-0.217	-0.372
-460.070	166.192	-0.114	0.161
-459.055	-200.000	0.047	0.239
-458.040	-8.630	0.274	-0.184
-457.026	225.385	0.068	-0.110
-456.011	-120.572	-0.098	0.017
-454.997	-18.366	-0.150	-0.094
-453.982	88.390	-0.189	-0.211
-452.968	-200.000	-0.049	0.222
-451.953	-200.000	-0.065	0.408
-450.938	293.632	-0.068	-0.124
-449.924	-84.077	-0.409	0.130
-448.909	-200.000	0.008	0.467
-447.895	178.602	0.154	-0.226
-446.880	-125.276	-0.133	0.020
-445.865	-70.503	-0.245	-0.093
-444.851	-19.699	0.161	0.100
-443.836	-200.000	0.051	0.265
-442.822	37.351	0.316	-0.281
-441.807	-200.000	0.057	-0.425
-440.792	-95.419	0.165	0.044
-439.778	236.033	-0.131	-0.216
-438.763	-51.953	-0.070	0.032
-437.749	-200.000	-0.195	-0.000
-436.734	138.487	-0.084	0.111
-435.719	-103.244	0.341	-0.081
-434.705	-200.000	0.008	-0.041
-433.690	165.098	-0.229	0.324
-432.676	-200.000	0.050	0.243
-431.661	143.260	0.107	0.142
-430.646	-28.774	0.277	0.160
-429.632	800.000	-0.049	-0.149
-428.617	-22.674	-0.171	0.103
-427.603	101.509	-0.082	0.095
-426.588	429.968	0.068	-0.148
-425.573	-78.841	0.088	-0.030
-424.559	231.427	-0.180	-0.296
-423.544	229.103	-0.060	0.098
-422.530	800.000	-0.089	-0.318
-421.515	-191.399	0.309	-0.003
-420.500	-53.077	-0.318	0.146
-419.486	-78.534	0.082	0.028
-418.471	-120.531	-0.197	-0.033
-417.457	379.558	0.123	-0.253
-416.442	72.854	-0.034	0.036
-415.428	-37.792	0.081	0.043
-414.413	161.063	0.105	-0.147
-413.398	-0.660	-0.166	-0.118
-412.384	-200.000	-0.013	-0.080
-411.369	-120.602	-0.444	-0.075
-410.355	-123.697	-0.115	-0.018
-409.340	91.426	-0.049	0.055
-408.325	-200.000	0.010	-0.133
-407.311	3.110	-0.087	-0.064
-406.296	-67.292	0.212	0.084
-405.282	-25.952	-0.137	-0.081
-404.267	-49.131	0.231	0.111
-403.252	203.517	0.106	0.165
-402.238	-136.530	-0.494	-0.057
-401.223	-45.937	-0.332	0.164
-400.209	-14.645	0.194	-0.125
-399.194	800.000	-0.067	0.188
-398.179	-53.208	-0.453	-0.208
-397.165	-94.342	0.183	0.050
-396.150	-131.741	-0.055	0.007
-395.136	113.816	-0.171	-0.208
-394.121	343.766	0.120	-0.236
-393.106	36.987	0.188	0.166
-392.092	-67.749	-0.376	-0.147
-391.077	490.110	-0.097	0.221
-390.063	-200.000	-0.006	0.104
-389.048	800.000	0.037	0.113
-388.033	-48.967	0.026	-0.013
-387.019	99.903	-0.117	-0.136
-386.004	-21.618	0.184	-0.112
-384.990	800.000	-0.087	0.355
-383.975	800.000	0.096	0.267
-382.960	-54.364	0.227	-0.103
-381.946	-29.508	0.092	0.053
-380.931	27.680	-0.124	-0.104
-379.917	-200.000	-0.062	-0.421
-378.902	-42.454	-0.068	0.035
-377.888	-5.493	0.093	0.064
-376.873	-200.000	0.028	0.248
-375.858	800.000	-0.077	-0.215
-374.844	-145.113	0.195	-0.018
-373.829	800.000	0.076	0.271
-372.815	-42.380	0.305	-0.156
-371.800	-114.709	-0.246	-0.047
-370.785	-157.483	-0.151	-0.009
-369.771	18.731	0.167	-0.134
-368.756	-54.585	0.270	-0.122
-367.742	-115.052	-0.231	0.044
-366.727	-200.000	-0.014	-0.253
-365.712	-136.502	0.247	-0.029
-364.698	84.513	-0.214	0.234
-363.683	44.077	-0.190	0.174
-362.669	-23.951	0.082	-0.049
-361.654	-57.809	-0.215	-0.094
-360.639	-200.000	-0.066	0.430
-359.625	4.550	-0.345	-0.253
-358.610	181.103	0.045	-0.066
-357.596	112.417	-0.075	-0.091
-356.581	-55.030	0.496	-0.223
-355.566	-44.584	0.056	-0.028
-354.552	382.539	-0.112	0.229
-353.537	-125.191	0.297	-0.045
-352.523	-68.198	-0.053	-0.021
-351.508	123.661	-0.040	0.050
-350.493	319.879	0.101	0.192
-349.479	80.290	-0.172	0.185
-348.464	-200.000	-0.005	0.165
-347.450	86.642	0.064	0.070
-346.435	-85.035	-0.163	0.051
-345.420	-200.000	-0.008	-0.227
-344.406	-55.422	-0.198	-0.089
-343.391	-27.652	-0.301	-0.175
-342.377	557.125	-0.096	0.231
-341.362	-200.000	0.033	0.166
-340.348	-113.335	0.203	-0.040
-339.333	-200.000	-0.006	0.194
-338.318	147.213	-0.204	0.274
-337.304	489.137	0.043	0.098
-336.289	38.041	-0.180	-0.160
-335.275	-33.574	0.132	0.073
-334.260	333.743	0.101	-0.195
-333.245	800.000	0.046	-0.184
-332.231	-0.271	-0.215	-0.153
-331.216	-169.511	0.182	0.007
-330.202	61.669	-0.251	-0.250
-329.187	800.000	-0.045	-0.125
-328.172	-200.000	-0.042	0.301
-327.158	-34.691	0.170	0.093
-326.143	178.716	0.165	0.241
-325.129	-87.767	0.056	0.017
-324.114	800.000	-0.109	0.364
-323.099	-148.471	0.328	0.027
-322.085	74.151	-0.057	0.060
-321.070	-200.000	0.006	0.229
-320.056	-200.000	0.029	0.254
-319.041	-138.079	0.204	-0.023
-318.026	-35.885	0.497	0.268
-317.012	-29.485	0.070	-0.040
-315.997	40.150	-0.118	0.106
-314.983	-128.192	-0.168	0.024
-313.968	-200.000	0.055	0.000
-312.953	-40.905	0.044	-0.023
-311.939	97.692	0.214	0.246
-310.924	153.135	-0.115	0.157
-309.910	-200.000	0.009	0.243
-308.895	-85.626	-0.339	-0.105
-307.880	-18.395	0.228	0.142
-306.866	-200.000	0.047	0.400
-305.851	-90.949	0.047	-0.014
-304.837	-7.135	-0.179	-0.121
-303.822	-200.000	0.030	0.364
-302.807	-96.904	-0.162	-0.042
-301.793	291.097	-0.180	0.327
-300.778	-99.831	0.160	0.040
-299.764	-161.131	0.535	0.028
-298.749	626.730	-0.050	0.125
-297.735	-139.210	-0.063	0.007
-296.720	62.704	0.139	-0.139
-295.705	-193.196	-0.149	0.001
-294.691	86.746	0.110	0.122
-293.676	69.915	0.127	-0.131
-292.662	-99.737	0.172	-0.043
-291.647	3.660	0.052	0.038
-290.632	166.480	0.046	0.065
-289.618	276.156	0.020	0.035
-288.603	107.219	-0.179	0.212
-287.589	800.000	-0.038	-0.156
-286.574	800.000	0.057	0.164
-285.559	-41.159	-0.216	-0.111
-284.545	-88.262	-0.214	-0.064
-283.530	-85.039	-0.322	0.101
-282.516	72.977	-0.230	-0.240
-281.501	-12.602	-0.088	-0.057
-280.486	-35.280	0.056	-0.030
-279.472	-53.215	0.030	-0.014
-278.457	-137.992	0.272	-0.030
-277.443	-200.000	-0.041	-0.454
-276.428	235.500	0.042	-0.069
-275.413	317.083	0.179	-0.336
-274.399	-108.842	-0.226	-0.048
-273.384	141.999	0.102	0.135
-272.370	143.436	0.259	0.344
-271.355	-81.184	0.216	-0.071
-270.340	342.078	-0.040	-0.078
-269.326	467.265	-0.109	-0.244
-268.311	6.897	0.087	-0.064
-267.297	110.845	0.053	-0.064
-266.282	0.327	-0.347	0.247
-265.267	-96.348	0.317	0.084
-264.253	-87.697	0.218	0.066
-263.238	-65.259	-0.057	-0.023
-262.224	94.677	0.115	0.131
-261.209	-12.818	0.231	-0.150
-260.195	800.000	0.074	-0.211
-259.180	-200.000	0.099	-0.483
-258.165	146.022	-0.161	-0.215
-257.151	-128.902	0.263	0.037
-256.136	77.684	-0.112	0.119
-255.122	800.000	0.041	-0.151
-254.107	-48.373	0.181	0.087
-253.092	282.869	0.196	0.351
-252.078	-177.388	0.244	-0.006
-251.063	92.769	-0.143	0.161
-250.049	-86.778	0.244	-0.074
-249.034	-32.294	0.308	-0.171
-248.019	-154.083	-0.362	0.024
-247.005	-27.020	-0.345	0.200
-245.990	166.391	0.227	0.320
-244.976	-80.795	0.250	0.083
-243.961	-123.477	0.296	-0.047
-242.946	-69.549	-0.353	0.135
-241.932	179.945	0.143	0.209
-240.917	3.650	0.211	-0.153
-239.903	-96.044	0.110	-0.029
-238.888	43.594	-0.058	-0.053
-237.873	658.684	0.152	0.388
-236.859	-18.034	0.094	0.059
-235.844	-106.471	-0.190	0.042
-234.830	128.651	0.092	-0.117
-233.815	-200.000	0.063	0.416
-232.800	800.000	-0.011	-0.040
-231.786	-72.815	0.267	0.098
-230.771	800.000	0.139	-0.395
-229.757	76.280	-0.326	-0.343
-228.742	210.826	0.319	0.499
-227.727	800.000	-0.055	-0.224
-226.713	117.680	-0.187	-0.229
-225.698	31.894	0.285	0.244
-224.684	-145.227	0.151	0.014
-223.669	42.375	0.135	0.122
-222.655	148.768	-0.111	-0.149
-221.640	128.979	-0.115	0.146
-220.625	127.067	0.032	-0.040
-219.611	379.649	0.072	0.146
-218.596	-86.955	-0.170	-0.052
-217.582	18.993	0.148	-0.118
-216.567	-185.944	0.261	0.004
-215.552	-63.705	-0.159	0.065
-214.538	800.000	-0.054	-0.228
-213.523	800.000	-0.029	-0.101
-212.509	-42.788	-0.118	0.059
-211.494	-14.874	0.111	-0.071
-210.479	-71.408	-0.517	0.192
-209.465	-154.193	0.213	-0.014
-208.450	-200.000	-0.059	-0.264
-207.436	660.554	-0.039	0.099
-206.421	759.410	0.142	-0.382
-205.406	23.746	0.078	-0.064
-204.392	-87.276	0.133	-0.040
-203.377	-200.000	0.009	0.109
-202.363	267.048	-0.139	0.241
-201.348	-200.000	-0.002	-0.103
-200.333	-1.212	-0.164	0.115
-199.319	1.702	-0.068	0.048
-198.304	-158.913	-0.063	-0.004
-197.290	410.624	0.106	0.223
-196.275	-171.427	0.107	0.004
-195.260	4.583	0.234	0.171
-194.246	210.642	-0.083	-0.129
-193.231	214.596	0.096	0.151
-192.217	170.213	0.055	-0.078
-191.202	-4.282	-0.158	0.109
-190.187	5.533	0.165	0.121
-189.173	-200.000	0.034	-0.186
-188.158	38.370	-0.128	0.113
-187.144	213.113	-0.167	-0.261
-186.129	-200.000	-0.027	0.317
-185.114	-42.396	-0.231	-0.117
-184.100	294.642	0.128	-0.232
-183.085	800.000	0.053	-0.179
-182.071	114.916	0.134	0.163
-181.056	-200.000	-0.027	-0.208
-180.042	110.203	-0.292	0.349
-179.027	147.482	-0.197	-0.263
-178.012	682.881	0.078	0.201
-176.998	-4.821	-0.061	0.042
-175.983	532.985	-0.048	0.113
-174.969	-200.000	-0.004	-0.147
-173.954	-200.000	0.047	0.203
-172.939	-200.000	-0.023	0.201
-171.925	-178.637	-0.222	-0.005
-170.910	-38.426	0.322	0.169
-169.896	-162.106	-0.054	-0.003
-168.881	457.661	-0.116	0.256
-167.866	800.000	-0.136	-0.455
-166.852	87.760	0.082	0.090
-165.837	601.638	0.116	-0.285
-164.823	-188.168	0.461	-0.006
-163.808	48.957	-0.083	0.078
-162.793	15.471	-0.122	0.095
-161.779	109.911	0.255	-0.303
-160.764	296.336	0.049	-0.089
-159.750	800.000	-0.100	-0.297
-158.735	-66.778	0.243	-0.095
-157.720	-137.838	0.223	0.025
-156.706	-36.405	0.280	0.150
-155.691	-200.000	0.033	-0.474
-154.677	-110.068	0.063	-0.013
-153.662	-108.088	-0.048	-0.010
-152.647	-2.632	0.129	0.090
-151.633	25.335	0.049	-0.041
-150.618	40.606	-0.172	0.154
-149.604	-21.436	0.145	-0.088
-148.589	-56.631	0.169	0.074
-147.574	106.213	0.175	-0.205
-146.560	222.503	0.158	-0.252
-145.545	-25.639	-0.192	0.112
-144.531	-200.000	-0.017	-0.187
-143.516	-45.227	-0.417	0.206
-142.502	-116.630	0.241	0.044
-141.487	-200.000	-0.073	0.397
-140.472	800.000	0.058	0.212
-139.458	26.936	-0.203	0.169
-138.443	-56.048	0.138	-0.061
-137.429	664.209	-0.117	0.300
-136.414	19.727	-0.190	0.151
-135.399	-16.443	-0.226	0.142
-134.385	800.000	-0.086	0.296
-133.370	800.000	-0.131	0.408
-132.356	301.113	0.214	-0.392
-131.341	-43.478	0.183	0.091
-130.326	-124.292	-0.240	0.037
-129.312	800.000	-0.031	0.104
-128.297	-193.092	0.257	-0.002
-127.283	16.513	-0.128	-0.100
-126.268	333.291	0.057	-0.109
-125.253	-67.606	0.072	-0.028
-124.239	44.341	0.228	0.207
-123.224	-122.048	0.202	0.033
-122.210	-165.963	0.071	-0.003
-121.195	-151.778	-0.330	0.024
-120.180	88.971	-0.018	0.020
