DTS Sentinel unit serial number:	SN413079Multiplexer serial number:	ORYXHardware model number:	OX4-SRSoftware version number:	ORYX F/W v4.00 Oryx Data Collector v3.7.2.0data status	okinstallation	princeton_trtdifferential loss correction	single-endedforward channel	channel 2reverse channel	N/Adate	2019/09/11time	10:25:10forward acquisition time	60.00reverse acquisition time	0.00gamma	496.2192k internal	0.2311k external	0.2311temperature offset calibration	0.9970default loss term (dB/km)	0.3790temperature slope calibration	1.0000multiplexer offset coefficient	1.0000multiplexer slope coefficient	1.0000fibre end	0.00T internal ref (°C)	36.25T ext. ref 1 (°C)	0.15T ext. ref 2 (°C)	32.67length (m)	temperature (°C)	Stokes	anti-Stokes-747.200	800.000	0.127	-0.415
-746.185	-137.135	0.161	-0.019
-745.171	800.000	-0.055	0.194
-744.156	-35.962	0.156	0.086
-743.142	556.242	0.083	-0.203
-742.127	68.149	0.095	0.099
-741.112	-45.146	-0.141	-0.071
-740.098	155.349	0.100	0.139
-739.083	-30.569	-0.102	0.059
-738.069	25.106	0.052	-0.044
-737.054	-53.721	0.320	0.148
-736.039	-31.405	-0.313	-0.179
-735.025	-135.279	0.190	0.023
-734.010	-25.334	-0.355	0.213
-732.996	-38.027	-0.331	-0.178
-731.981	-200.000	0.019	-0.397
-730.966	1.973	-0.241	0.176
-729.952	-200.000	-0.086	-0.525
-728.937	-80.585	0.262	-0.088
-727.923	403.416	-0.104	-0.222
-726.908	149.936	0.096	-0.132
-725.894	800.000	-0.102	-0.303
-724.879	195.695	-0.049	0.076
-723.864	-200.000	0.016	0.182
-722.850	284.730	0.078	-0.143
-721.835	310.195	-0.072	-0.138
-720.821	-2.153	0.135	0.096
-719.806	-200.000	-0.001	-0.542
-718.791	293.941	-0.188	-0.347
-717.777	18.081	0.173	0.140
-716.762	-200.000	0.027	-0.248
-715.748	-16.793	-0.078	0.050
-714.733	71.617	-0.082	0.086
-713.718	-60.358	-0.160	0.069
-712.704	3.206	0.133	-0.098
-711.689	-88.696	-0.295	0.089
-710.675	800.000	0.066	-0.188
-709.660	-56.498	0.283	-0.127
-708.645	-96.513	-0.369	-0.099
-707.631	-135.787	-0.074	-0.009
-706.616	109.434	0.261	0.317
-705.602	-190.518	-0.119	-0.001
-704.587	463.592	-0.133	-0.301
-703.572	-200.000	0.006	0.311
-702.558	-200.000	-0.012	0.502
-701.543	1.978	-0.221	0.162
-700.529	-7.271	0.076	0.052
-699.514	343.801	-0.031	-0.062
-698.499	-143.574	0.275	-0.027
-697.485	-78.575	0.057	-0.020
-696.470	-88.517	-0.046	0.014
-695.456	800.000	-0.149	-0.518
-694.441	800.000	-0.071	-0.245
-693.426	127.846	0.127	-0.164
-692.412	800.000	-0.042	0.164
-691.397	-33.741	0.073	0.041
-690.383	580.309	-0.079	-0.195
-689.368	13.949	-0.229	-0.180
-688.354	-1.303	-0.136	-0.097
-687.339	-35.455	-0.025	-0.014
-686.324	800.000	0.021	-0.078
-685.310	-20.217	-0.142	-0.089
-684.295	-200.000	-0.059	0.461
-683.281	247.615	-0.124	-0.212
-682.266	44.565	-0.161	-0.150
-681.251	-200.000	0.016	0.277
-680.237	114.355	0.300	0.370
-679.222	-83.542	-0.284	0.092
-678.208	24.411	-0.143	0.120
-677.193	-131.224	0.143	0.019
-676.178	800.000	0.049	-0.172
-675.164	88.849	-0.107	-0.120
-674.149	-9.323	-0.213	-0.144
-673.135	-23.361	-0.354	-0.215
-672.120	272.631	0.095	0.170
-671.105	-45.730	-0.141	0.070
-670.091	-61.475	0.334	0.142
-669.076	267.617	-0.242	-0.428
-668.062	91.773	-0.150	-0.170
-667.047	-200.000	-0.023	-0.109
-666.032	800.000	0.036	0.121
-665.018	242.988	-0.160	0.272
-664.003	-200.000	0.002	0.514
-662.989	265.829	-0.041	0.072
-661.974	200.426	0.085	0.132
-660.959	-42.657	0.191	-0.098
-659.945	-27.241	-0.371	0.218
-658.930	785.786	0.127	0.352
-657.916	800.000	-0.096	0.336
-656.901	-175.042	-0.275	0.008
-655.886	379.173	-0.068	-0.142
-654.872	-200.000	0.000	0.057
-653.857	-200.000	-0.001	0.148
-652.843	-113.635	-0.245	0.048
-651.828	-152.571	-0.369	0.027
-650.814	800.000	-0.089	0.337
-649.799	-174.518	0.190	-0.006
-648.784	-17.801	-0.149	-0.094
-647.770	117.414	-0.246	0.305
-646.755	138.877	0.032	0.043
-645.741	-98.037	0.089	0.023
-644.726	-148.912	-0.117	0.010
-643.711	-74.194	-0.193	-0.071
-642.697	-98.975	0.416	-0.107
-641.682	186.014	0.061	0.091
-640.668	-200.000	0.045	0.272
-639.653	800.000	0.025	-0.089
-638.638	244.996	-0.212	-0.361
-637.624	76.413	-0.018	-0.019
-636.609	-51.850	0.049	-0.023
-635.595	-43.533	-0.135	-0.069
-634.580	717.121	-0.018	0.049
-633.565	-200.000	0.050	-0.240
-632.551	168.491	-0.148	-0.214
-631.536	-86.613	0.113	-0.035
-630.522	158.908	0.124	0.174
-629.507	800.000	-0.108	0.317
-628.492	-113.530	0.275	-0.054
-627.478	800.000	-0.035	-0.106
-626.463	17.282	0.003	-0.003
-625.449	86.741	-0.164	-0.183
-624.434	-200.000	0.046	0.240
-623.419	-200.000	0.212	-0.001
-622.405	673.401	-0.078	0.204
-621.390	-200.000	0.002	-0.111
-620.376	198.698	-0.045	-0.070
-619.361	-200.000	0.005	-0.146
-618.346	-200.000	-0.005	0.417
-617.332	-77.150	-0.263	-0.092
-616.317	-6.146	0.151	-0.104
-615.303	-123.937	-0.209	-0.033
-614.288	-73.828	0.238	-0.087
-613.273	30.383	-0.347	0.299
-612.259	-200.000	-0.043	0.260
-611.244	-182.395	0.277	0.005
-610.230	-98.909	0.161	-0.041
-609.215	-200.000	0.006	0.169
-608.201	43.722	0.143	-0.132
-607.186	-200.000	-0.013	0.204
-606.171	518.559	-0.078	-0.184
-605.157	112.512	-0.182	0.223
-604.142	-200.000	0.016	-0.193
-603.128	8.069	-0.049	0.037
-602.113	638.871	0.072	-0.184
-601.098	-90.024	0.174	-0.051
-600.084	-158.433	-0.211	0.012
-599.069	800.000	-0.069	0.249
-598.055	-200.000	-0.027	0.144
-597.040	-200.000	-0.030	-0.390
-596.025	2.815	0.316	-0.232
-595.011	253.392	-0.117	0.202
-593.996	544.439	0.040	0.096
-592.982	6.223	-0.097	0.073
-591.967	-67.413	-0.077	0.030
-590.952	27.543	-0.122	0.104
-589.938	-200.000	-0.086	-0.391
-588.923	-95.318	-0.435	0.118
-587.909	-109.159	0.227	-0.049
-586.894	298.687	0.138	0.256
-585.879	-55.388	-0.356	0.161
-584.865	-25.806	0.180	-0.107
-583.850	-126.917	-0.342	0.051
-582.836	-161.714	0.187	0.010
-581.821	-52.537	0.152	-0.071
-580.806	-28.230	-0.154	0.090
-579.792	108.030	-0.140	-0.168
-578.777	-62.534	0.366	-0.153
-577.763	-200.000	0.021	-0.132
-576.748	-27.274	0.145	-0.085
-575.733	176.215	0.075	-0.110
-574.719	-200.000	-0.030	-0.170
-573.704	-88.949	-0.246	0.073
-572.690	84.390	-0.148	0.163
-571.675	-112.593	0.301	0.061
-570.661	-200.000	-0.023	-0.445
-569.646	-200.000	0.004	-0.023
-568.631	99.869	0.267	-0.312
-567.617	-161.957	0.225	0.011
-566.602	-92.515	0.253	0.072
-565.588	-63.688	0.290	0.120
-564.573	-80.074	0.291	0.098
-563.558	800.000	0.037	-0.153
-562.544	-20.226	-0.158	0.098
-561.529	63.933	0.187	-0.190
-560.515	403.069	0.103	-0.219
-559.500	22.566	-0.019	0.016
-558.485	8.215	-0.371	-0.280
-557.471	-37.489	0.294	0.158
-556.456	-119.545	0.267	-0.047
-555.442	-145.258	-0.196	-0.018
-554.427	216.857	0.095	-0.152
-553.412	-117.716	0.329	-0.060
-552.398	13.866	-0.274	-0.214
-551.383	317.773	-0.030	-0.057
-550.369	149.063	-0.069	-0.094
-549.354	800.000	0.048	-0.153
-548.339	-101.852	-0.356	-0.087
-547.325	-164.702	-0.232	0.011
-546.310	159.158	0.136	-0.191
-545.296	-76.674	-0.149	-0.053
-544.281	-30.033	0.122	-0.070
-543.266	132.233	0.089	-0.115
-542.252	505.745	-0.069	-0.162
-541.237	-41.585	-0.142	-0.074
-540.223	-33.076	0.053	0.029
-539.208	-43.268	-0.216	-0.110
-538.193	800.000	-0.052	-0.159
-537.179	-44.962	-0.255	-0.128
-536.164	-85.111	-0.416	-0.131
-535.150	-46.391	-0.221	0.109
-534.135	-1.031	-0.056	0.040
-533.121	-200.000	-0.042	0.191
-532.106	-78.976	0.169	0.058
-531.091	-101.132	0.220	0.054
-530.077	800.000	0.041	-0.156
-529.062	463.727	-0.240	0.539
-528.048	-44.367	0.228	0.115
-527.033	40.557	0.291	0.264
-526.018	-50.485	-0.320	-0.152
-525.004	-68.351	-0.110	0.043
-523.989	-108.678	0.542	-0.117
-522.975	-200.000	0.006	-0.164
-521.960	-187.785	-0.125	-0.002
-520.945	293.709	0.134	0.246
-519.931	-200.000	0.024	-0.205
-518.916	-75.949	-0.252	-0.090
-517.902	38.713	-0.037	0.034
-516.887	-166.009	-0.377	0.016
-515.872	-100.233	0.236	-0.059
-514.858	147.815	-0.122	-0.165
-513.843	418.970	0.031	0.067
-512.829	65.598	-0.163	0.166
-511.814	-38.442	-0.277	-0.147
-510.799	-34.083	-0.216	0.120
-509.785	-64.663	0.181	0.074
-508.770	23.486	-0.142	-0.118
-507.756	49.032	0.164	0.155
-506.741	298.567	0.106	0.196
-505.726	-7.126	0.152	0.104
-504.712	23.677	0.207	-0.172
-503.697	-200.000	-0.030	0.300
-502.683	73.588	-0.222	0.233
-501.668	-139.990	0.344	0.036
-500.653	107.922	0.233	-0.280
-499.639	-43.245	-0.315	-0.160
-498.624	-200.000	-0.011	-0.182
-497.610	-200.000	0.051	-0.364
-496.595	-31.045	-0.186	-0.106
-495.581	29.229	0.218	0.186
-494.566	-6.905	-0.154	0.105
-493.551	800.000	-0.084	0.241
-492.537	800.000	0.041	0.174
-491.522	-102.207	0.384	0.093
-490.508	323.241	0.043	-0.083
-489.493	-200.000	0.001	0.233
-488.478	-200.000	0.007	-0.127
-487.464	15.972	-0.157	0.124
-486.449	4.001	0.220	-0.162
-485.435	-200.000	-0.009	0.054
-484.420	526.174	-0.150	0.354
-483.405	-200.000	0.005	0.316
-482.391	-200.000	0.039	0.268
-481.376	-5.013	-0.288	-0.199
-480.362	542.424	0.092	-0.220
-479.347	-123.999	-0.055	-0.009
-478.332	-168.191	0.422	-0.016
-477.318	-200.000	0.001	0.042
-476.303	258.927	0.088	-0.153
-475.289	-95.415	-0.077	0.021
-474.274	800.000	-0.101	-0.368
-473.259	660.611	-0.077	0.199
-472.245	-200.000	0.008	0.110
-471.230	-4.351	0.318	-0.221
-470.216	-200.000	0.058	0.487
-469.201	-12.510	0.138	0.090
-468.186	-7.549	0.338	-0.230
-467.172	41.352	0.233	0.212
-466.157	-116.777	-0.332	-0.061
-465.143	800.000	0.051	-0.166
-464.128	157.426	0.115	0.160
-463.113	-200.000	-0.040	-0.214
-462.099	-200.000	0.039	-0.181
-461.084	12.875	0.027	-0.021
-460.070	-93.805	0.075	0.021
-459.055	-76.496	-0.177	0.062
-458.040	313.617	-0.170	-0.322
-457.026	-35.819	-0.304	0.165
-456.011	800.000	-0.055	-0.175
-454.997	-13.806	0.101	0.065
-453.982	-200.000	0.084	0.539
-452.968	31.961	-0.220	0.190
-451.953	-23.233	-0.251	-0.152
-450.938	-200.000	-0.003	-0.108
-449.924	137.959	-0.139	-0.183
-448.909	-99.402	-0.174	0.044
-447.895	436.035	-0.100	-0.219
-446.880	204.599	-0.109	0.169
-445.865	-66.468	-0.126	-0.050
-444.851	-200.000	-0.016	-0.382
-443.836	29.900	0.078	0.066
-442.822	-136.545	0.389	-0.045
-441.807	-102.569	-0.325	-0.078
-440.792	435.997	0.085	0.186
-439.778	45.144	0.135	0.125
-438.763	-200.000	0.021	-0.100
-437.749	260.557	-0.081	-0.141
-436.734	-200.000	-0.007	-0.061
-435.719	-200.000	-0.027	-0.172
-434.705	262.890	-0.190	-0.330
-433.690	125.086	-0.099	-0.126
-432.676	262.560	-0.242	-0.421
-431.661	-98.442	0.245	0.063
-430.646	800.000	0.110	-0.325
-429.632	-72.954	0.490	-0.180
-428.617	528.224	-0.193	0.457
-427.603	622.453	-0.094	0.236
-426.588	-200.000	0.040	-0.246
-425.573	-78.960	-0.265	0.090
-424.559	-181.236	-0.216	0.004
-423.544	559.740	0.156	0.378
-422.530	-200.000	-0.047	0.241
-421.515	-33.077	0.295	0.164
-420.500	103.780	-0.052	0.061
-419.486	-117.406	0.284	-0.052
-418.471	800.000	-0.075	-0.267
-417.457	48.393	0.096	0.090
-416.442	-84.297	-0.444	-0.141
-415.428	-5.110	-0.082	0.057
-414.413	85.270	0.157	0.173
-413.398	-95.320	-0.110	0.030
-412.384	144.596	-0.214	-0.286
-411.369	-38.775	-0.326	-0.172
-410.355	-105.832	0.146	-0.033
-409.340	49.951	0.236	-0.223
-408.325	-16.064	-0.276	-0.176
-407.311	785.338	-0.116	-0.318
-406.296	-200.000	0.011	-0.105
-405.282	-139.528	0.070	0.007
-404.267	-200.000	0.005	-0.036
-403.252	-23.287	-0.098	0.059
-402.238	800.000	-0.102	0.349
-401.223	-200.000	0.053	-0.282
-400.209	-200.000	0.011	-0.120
-399.194	-91.694	-0.483	0.138
-398.179	-99.250	-0.090	0.023
-397.165	126.836	0.098	0.125
-396.150	800.000	-0.013	0.036
-395.136	69.941	0.122	0.126
-394.121	-90.018	0.319	0.093
-393.106	-200.000	0.032	-0.147
-392.092	291.153	0.033	0.060
-391.077	564.516	-0.200	0.486
-390.063	-200.000	-0.006	-0.061
-389.048	-200.000	0.039	-0.280
-388.033	100.545	-0.097	0.113
-387.019	-200.000	-0.019	0.189
-386.004	166.034	-0.069	-0.098
-384.990	-102.717	-0.187	0.045
-383.975	800.000	-0.070	-0.294
-382.960	-200.000	0.011	-0.267
-381.946	10.810	-0.189	-0.144
-380.931	-200.000	0.005	-0.155
-379.917	-96.768	-0.144	-0.038
-378.902	13.508	-0.169	-0.131
-377.888	-113.588	0.187	-0.036
-376.873	156.699	-0.174	0.241
-375.858	89.853	0.176	0.197
-374.844	-107.522	0.246	0.054
-373.829	-3.675	0.189	0.131
-372.815	-142.533	0.155	-0.015
-371.800	102.748	-0.147	0.172
-370.785	-107.133	0.170	0.037
-369.771	-53.979	-0.204	-0.093
-368.756	-200.000	-0.009	0.173
-367.742	-60.538	0.109	0.046
-366.727	-82.374	-0.140	0.045
-365.712	312.321	-0.087	-0.164
-364.698	6.347	-0.157	-0.116
-363.683	-200.000	0.035	-0.521
-362.669	12.426	-0.312	-0.241
-361.654	-149.672	-0.258	-0.020
-360.639	800.000	0.039	-0.138
-359.625	410.232	0.159	-0.338
-358.610	-200.000	0.003	0.047
-357.596	26.737	0.274	-0.229
-356.581	-66.279	0.063	-0.025
-355.566	800.000	-0.069	-0.245
-354.552	-200.000	-0.016	-0.183
-353.537	-66.254	0.166	-0.066
-352.523	462.529	0.072	0.160
-351.508	79.901	-0.231	0.248
-350.493	-99.601	0.148	-0.037
-349.479	172.575	-0.055	-0.079
-348.464	-109.351	0.284	0.060
-347.450	124.573	0.201	0.252
-346.435	-173.591	-0.192	-0.006
-345.420	16.729	-0.367	0.290
-344.406	-200.000	0.034	-0.206
-343.391	-200.000	-0.027	0.199
-342.377	510.746	0.113	-0.263
-341.362	-166.626	-0.379	-0.016
-340.348	800.000	-0.046	0.155
-339.333	779.766	0.076	-0.208
-338.318	44.895	0.024	0.022
-337.304	-70.359	0.058	0.022
-336.289	325.439	0.017	0.032
-335.275	570.755	0.033	-0.081
-334.260	-198.519	-0.099	-0.001
-333.245	-16.117	0.160	0.102
-332.231	-200.000	0.008	0.052
-331.216	-177.010	0.497	-0.012
-330.202	-200.000	-0.041	-0.308
-329.187	122.059	0.082	0.102
-328.172	-69.154	-0.154	-0.059
-327.158	-57.001	0.227	-0.100
-326.143	-88.100	0.102	0.030
-325.129	800.000	0.005	-0.014
-324.114	-200.000	0.004	0.149
-323.099	-200.000	-0.060	0.413
-322.085	-200.000	-0.025	0.136
-321.070	137.570	-0.042	0.055
-320.056	95.657	-0.181	0.206
-319.041	66.245	0.081	0.082
-318.026	115.772	-0.045	0.055
-317.012	-200.000	-0.021	-0.207
-315.997	800.000	0.073	0.211
-314.983	-43.028	-0.337	0.171
-313.968	76.588	-0.113	0.120
-312.953	88.011	0.077	-0.086
-311.939	-41.712	-0.225	0.115
-310.924	70.102	-0.129	0.133
-309.910	169.748	0.188	0.268
-308.895	-65.346	0.219	0.088
-307.880	80.573	-0.039	-0.042
-306.866	-105.806	0.134	0.030
-305.851	-200.000	0.017	0.259
-304.837	-200.000	0.011	0.047
-303.822	800.000	-0.140	0.497
-302.807	172.559	0.095	0.137
-301.793	-103.580	0.146	-0.034
-300.778	154.691	-0.182	-0.250
-299.764	118.014	0.083	-0.102
-298.749	19.152	0.184	0.147
-297.735	-60.595	-0.144	-0.061
-296.720	-50.460	0.297	-0.140
-295.705	18.668	0.228	0.182
-294.691	-132.270	0.052	-0.007
-293.676	-50.744	-0.240	0.113
-292.662	443.075	-0.077	0.169
-291.647	-200.000	0.013	-0.082
-290.632	362.119	-0.182	0.364
-289.618	4.000	0.037	0.027
-288.603	176.472	0.020	-0.030
-287.589	-20.058	0.096	0.059
-286.574	-114.208	0.324	-0.062
-285.559	-142.908	0.151	0.015
-284.545	-200.000	0.003	0.308
-283.530	-122.927	0.262	-0.042
-282.516	-48.034	-0.106	0.051
-281.501	-62.533	0.232	-0.096
-280.486	-20.682	0.119	-0.073
-279.472	0.342	0.120	0.086
-278.457	218.262	0.058	-0.092
-277.443	-200.000	-0.379	0.001
-276.428	-200.000	0.038	-0.178
-275.413	800.000	-0.059	0.167
-274.399	-120.508	0.220	-0.037
-273.384	-16.463	0.086	-0.055
-272.370	494.530	0.095	0.217
-271.355	82.264	-0.068	-0.073
-270.340	-107.897	-0.079	-0.017
-269.326	137.571	0.310	0.404
-268.311	11.258	0.252	0.192
-267.297	384.889	-0.059	-0.120
-266.282	-27.318	0.107	0.062
-265.267	622.905	0.039	0.097
-264.253	162.220	-0.255	0.356
-263.238	-136.543	0.076	-0.009
-262.224	-21.461	-0.173	-0.105
-261.209	78.853	-0.143	0.152
-260.195	800.000	-0.053	0.230
-259.180	-200.000	0.003	0.084
-258.165	-115.797	0.204	-0.038
-257.151	-152.837	-0.418	-0.029
-256.136	-104.618	-0.051	0.012
-255.122	-87.845	-0.019	0.006
-254.107	201.252	-0.051	-0.077
-253.092	800.000	-0.010	-0.031
-252.078	800.000	-0.062	-0.206
-251.063	-200.000	-0.009	-0.170
-250.049	800.000	-0.036	-0.136
-249.034	-32.249	0.244	0.136
-248.019	-14.644	0.240	-0.153
-247.005	-121.766	-0.260	-0.043
-245.990	112.460	0.251	0.303
-244.976	-76.133	0.292	0.103
-243.961	-112.663	0.363	0.072
-242.946	800.000	0.034	0.128
-241.932	-151.581	-0.411	0.030
-240.917	-36.753	-0.154	0.082
-239.903	20.869	0.360	0.290
-238.888	-31.798	-0.082	-0.045
-237.873	800.000	0.069	0.202
-236.859	118.845	0.240	-0.294
-235.844	-42.788	0.262	0.133
-234.830	101.116	-0.115	-0.133
-233.815	-137.327	0.108	0.012
-232.800	-147.111	0.346	0.029
-231.786	-135.596	-0.277	0.033
-230.771	-200.000	-0.053	-0.340
-229.757	-190.403	-0.124	-0.001
-228.742	-104.700	0.172	-0.039
-227.727	-200.000	-0.022	-0.102
-226.713	-125.379	-0.167	0.025
-225.698	206.619	-0.061	-0.094
-224.684	-200.000	-0.035	-0.235
-223.669	-185.443	0.323	-0.005
-222.655	308.306	0.139	0.259
-221.640	-30.607	-0.153	0.086
-220.625	325.244	0.148	-0.282
-219.611	20.845	-0.184	0.148
-218.596	-101.190	-0.243	-0.059
-217.582	264.745	0.176	0.304
-216.567	-200.000	0.036	-0.309
-215.552	-200.000	-0.037	0.274
-214.538	-70.283	0.010	0.004
-213.523	126.358	0.115	0.145
-212.509	-11.972	-0.124	0.081
-211.494	-21.200	0.240	0.146
-210.479	800.000	-0.064	-0.277
-209.465	-107.889	0.182	-0.039
-208.450	-200.000	0.008	0.256
-207.436	-52.910	-0.346	0.158
-206.421	214.243	0.029	-0.046
-205.406	14.980	0.089	0.069
-204.392	-140.164	0.277	0.029
-203.377	-200.000	-0.071	0.373
-202.363	-41.844	0.096	-0.049
-201.348	182.270	-0.101	-0.148
-200.333	207.403	0.085	0.132
-199.319	-200.000	0.007	0.075
-198.304	280.425	0.077	-0.137
-197.290	-118.316	0.097	-0.017
-196.275	633.612	-0.086	-0.218
-195.260	303.465	0.324	-0.597
-194.246	296.014	0.047	-0.086
-193.231	-102.885	-0.261	-0.062
-192.217	487.288	0.105	0.238
-191.202	-129.390	0.163	0.023
-190.187	-33.898	-0.222	0.121
-189.173	-61.224	0.058	-0.024
-188.158	-28.215	-0.080	-0.046
-187.144	-36.874	0.296	-0.158
-186.129	-200.000	0.010	0.129
-185.114	354.605	0.084	0.166
-184.100	20.792	-0.136	0.109
-183.085	59.862	-0.202	0.198
-182.071	287.009	0.047	0.084
-181.056	146.921	0.060	0.080
-180.042	360.549	-0.155	0.308
-179.027	-3.899	-0.126	0.087
-178.012	-24.604	0.516	-0.305
-176.998	-7.407	-0.335	0.225
-175.983	800.000	-0.024	-0.087
-174.969	187.179	0.271	-0.401
-173.954	-200.000	0.041	0.213
-172.939	-143.404	0.505	-0.048
-171.925	163.399	-0.064	-0.090
-170.910	-200.000	-0.020	0.095
-169.896	443.982	-0.131	-0.285
-168.881	800.000	-0.066	-0.180
-167.866	-193.881	-0.175	-0.001
-166.852	-200.000	-0.001	-0.206
-165.837	124.892	-0.060	0.074
-164.823	-107.589	-0.234	-0.051
-163.808	-200.000	-0.023	-0.134
-162.793	-16.339	-0.086	0.054
-161.779	-164.146	-0.483	0.022
-160.764	735.672	-0.077	-0.206
-159.750	136.021	-0.070	-0.091
-158.735	-133.297	-0.366	0.046
-157.720	-200.000	0.026	0.430
-156.706	-131.163	-0.196	-0.026
-155.691	-159.060	0.112	0.006
-154.677	193.496	-0.174	-0.261
-153.662	-16.629	0.306	-0.192
-152.647	-95.192	-0.359	0.096
-151.633	-200.000	0.045	0.206
-150.618	-41.103	0.003	0.001
-149.604	2.180	-0.086	0.062
-148.589	121.061	-0.190	0.235
-147.574	-46.467	-0.197	-0.096
-146.560	119.746	0.183	0.225
-145.545	101.188	0.119	0.138
-144.531	-200.000	0.058	0.372
-143.516	800.000	-0.024	0.075
-142.502	-200.000	-0.047	-0.307
-141.487	-86.740	-0.449	0.136
-140.472	-40.833	0.223	0.114
-139.458	26.651	-0.133	0.110
-138.443	800.000	-0.038	0.157
-137.429	-200.000	-0.083	0.408
-136.414	-123.668	0.118	-0.019
-135.399	-60.568	0.327	-0.138
-134.385	-200.000	-0.011	0.078
-133.370	165.155	0.033	-0.047
-132.356	800.000	-0.064	-0.264
-131.341	387.185	0.197	0.404
-130.326	765.213	-0.077	0.207
-129.312	-123.132	-0.408	-0.065
-128.297	18.007	0.078	0.062
-127.283	-50.497	0.195	0.091
-126.268	800.000	-0.044	-0.145
-125.253	-28.834	0.112	0.064
-124.239	161.748	0.242	0.336
-123.224	141.031	-0.116	-0.152
-122.210	800.000	0.040	-0.114
