DTS Sentinel unit serial number:	SN413079Multiplexer serial number:	ORYXHardware model number:	OX4-SRSoftware version number:	ORYX F/W v4.00 Oryx Data Collector v3.7.2.0data status	okinstallation	princeton_trtdifferential loss correction	single-endedforward channel	channel 2reverse channel	N/Adate	2019/09/11time	01:53:11forward acquisition time	60.00reverse acquisition time	0.00gamma	496.2192k internal	0.2332k external	0.2332temperature offset calibration	0.9941default loss term (dB/km)	0.3790temperature slope calibration	1.0000multiplexer offset coefficient	1.0000multiplexer slope coefficient	1.0000fibre end	0.00T internal ref (°C)	29.19T ext. ref 1 (°C)	-0.31T ext. ref 2 (°C)	23.30length (m)	temperature (°C)	Stokes	anti-Stokes-747.200	-99.072	0.348	-0.089
-746.185	-95.174	-0.376	0.102
-745.171	28.565	-0.152	-0.130
-744.156	-22.294	-0.079	-0.048
-743.142	800.000	-0.107	-0.448
-742.127	800.000	-0.034	0.150
-741.112	-78.996	-0.251	-0.086
-740.098	76.423	0.155	0.165
-739.083	-133.814	0.267	0.033
-738.069	-91.616	0.345	0.099
-737.054	800.000	0.035	0.108
-736.039	-93.673	-0.382	-0.106
-735.025	-91.380	-0.218	0.063
-734.010	254.472	0.011	-0.020
-732.996	-92.680	-0.148	-0.042
-731.981	212.752	0.049	0.077
-730.966	-200.000	-0.017	-0.194
-729.952	-25.002	-0.065	-0.039
-728.937	63.490	-0.137	-0.138
-727.923	-0.178	-0.168	0.121
-726.908	-115.825	0.062	-0.012
-725.894	-17.504	-0.183	-0.116
-724.879	-107.308	-0.133	-0.029
-723.864	-200.000	-0.009	-0.039
-722.850	266.539	0.026	-0.045
-721.835	800.000	-0.031	-0.125
-720.821	7.959	-0.219	-0.165
-719.806	228.808	-0.167	0.273
-718.791	202.250	-0.083	0.128
-717.777	379.750	0.075	0.155
-716.762	34.282	-0.121	0.106
-715.748	-77.388	0.137	-0.048
-714.733	256.753	-0.060	-0.104
-713.718	11.985	-0.151	-0.116
-712.704	16.042	-0.204	-0.162
-711.689	-200.000	-0.019	0.199
-710.675	5.181	-0.182	0.135
-709.660	-144.462	0.128	-0.012
-708.645	-200.000	-0.025	0.153
-707.631	-60.250	-0.064	0.028
-706.616	-19.582	-0.098	-0.061
-705.602	-96.044	-0.125	0.033
-704.587	-200.000	-0.019	0.124
-703.572	800.000	-0.016	-0.050
-702.558	-21.408	-0.215	0.132
-701.543	81.038	0.046	0.050
-700.529	-49.756	-0.172	0.082
-699.514	-9.471	-0.318	-0.213
-698.499	-200.000	0.026	-0.241
-697.485	800.000	0.006	0.020
-696.470	-133.063	0.199	0.025
-695.456	381.037	-0.142	0.293
-694.441	-75.211	-0.296	0.106
-693.426	-158.364	0.284	0.017
-692.412	-200.000	-0.000	0.031
-691.397	-200.000	-0.001	-0.074
-690.383	736.804	-0.044	-0.118
-689.368	-200.000	0.010	0.049
-688.354	800.000	-0.032	-0.112
-687.339	-143.796	0.263	-0.025
-686.324	347.046	0.111	0.219
-685.310	180.177	0.183	-0.270
-684.295	8.030	0.217	-0.163
-683.281	-133.581	-0.380	0.048
-682.266	800.000	0.052	-0.144
-681.251	192.572	0.243	0.368
-680.237	-29.822	0.358	-0.205
-679.222	156.908	-0.102	-0.141
-678.208	-157.264	-0.044	0.003
-677.193	-46.576	-0.229	0.113
-676.178	347.289	0.104	0.205
-675.164	73.370	-0.177	0.185
-674.149	-84.675	-0.106	-0.033
-673.135	-137.992	-0.320	-0.036
-672.120	-200.000	-0.035	-0.210
-671.105	-105.976	-0.272	0.062
-670.091	-61.357	-0.089	0.038
-669.076	81.914	0.129	-0.140
-668.062	561.489	0.065	-0.158
-667.047	105.325	-0.088	-0.104
-666.032	439.460	-0.109	0.239
-665.018	27.809	-0.116	-0.098
-664.003	522.424	-0.102	0.240
-662.989	-200.000	0.007	-0.120
-661.974	-53.386	-0.113	-0.052
-660.959	763.611	0.091	-0.247
-659.945	-200.000	0.006	0.148
-658.930	-200.000	-0.083	-0.501
-657.916	-200.000	0.004	-0.138
-656.901	-70.537	-0.389	0.148
-655.886	-200.000	-0.003	0.423
-654.872	-200.000	0.084	0.495
-653.857	-31.181	0.244	-0.138
-652.843	31.961	-0.189	0.163
-651.828	-200.000	0.011	0.190
-650.814	-46.124	0.029	-0.014
-649.799	800.000	-0.039	0.115
-648.784	119.604	-0.034	0.042
-647.770	-12.764	0.210	0.137
-646.755	418.276	-0.107	-0.229
-645.741	-200.000	0.017	-0.238
-644.726	-106.728	-0.184	-0.041
-643.711	-65.421	0.463	0.187
-642.697	-200.000	-0.019	0.289
-641.682	-117.663	0.067	0.012
-640.668	800.000	-0.093	-0.336
-639.653	-200.000	-0.036	-0.337
-638.638	85.333	0.091	0.100
-637.624	-52.649	0.223	-0.103
-636.609	-62.837	-0.051	-0.021
-635.595	-109.155	-0.349	-0.074
-634.580	-200.000	-0.026	-0.138
-633.565	-70.149	0.109	0.042
-632.551	-140.586	0.184	-0.019
-631.536	264.574	0.159	0.277
-630.522	-200.000	0.009	-0.161
-629.507	385.177	-0.154	-0.317
-628.492	-39.875	0.093	0.049
-627.478	-200.000	-0.002	-0.083
-626.463	-200.000	0.032	-0.343
-625.449	-200.000	-0.005	-0.049
-624.434	-76.280	-0.150	-0.053
-623.419	-92.334	0.146	-0.041
-622.405	800.000	0.019	-0.055
-621.390	6.629	-0.036	-0.027
-620.376	-121.667	0.505	-0.084
-619.361	575.805	-0.051	0.125
-618.346	-60.810	-0.185	0.078
-617.332	-95.784	-0.177	-0.047
-616.317	466.826	0.078	0.175
-615.303	144.522	0.145	-0.193
-614.288	592.479	-0.060	0.149
-613.273	-50.290	-0.260	-0.123
-612.259	-89.855	0.307	0.090
-611.244	-3.775	0.140	0.097
-610.230	-138.283	0.405	-0.045
-609.215	212.563	-0.132	-0.208
-608.201	-200.000	0.006	-0.055
-607.186	528.566	0.114	-0.268
-606.171	-200.000	-0.041	-0.213
-605.157	5.330	-0.218	-0.161
-604.142	509.891	0.103	0.240
-603.128	-5.768	0.229	0.157
-602.113	161.999	-0.134	-0.187
-601.098	-18.014	-0.400	0.251
-600.084	-98.270	-0.090	-0.023
-599.069	-200.000	0.089	-0.551
-598.055	-126.272	0.385	-0.058
-597.040	800.000	-0.108	-0.432
-596.025	-200.000	0.037	-0.178
-595.011	-73.666	-0.126	-0.046
-593.996	405.106	0.068	0.144
-592.982	-40.465	-0.147	0.077
-591.967	-200.000	-0.007	0.062
-590.952	-200.000	-0.028	-0.254
-589.938	160.604	-0.181	0.252
-588.923	667.477	0.011	-0.028
-587.909	-62.151	-0.181	0.076
-586.894	632.818	0.119	0.302
-585.879	-92.475	-0.065	-0.018
-584.865	-40.272	0.201	0.105
-583.850	108.406	0.218	0.260
-582.836	54.092	0.102	0.098
-581.821	-4.480	-0.188	0.130
-580.806	-113.520	0.203	0.040
-579.792	-127.998	0.134	0.019
-578.777	375.213	0.116	0.236
-577.763	-0.860	0.137	-0.097
-576.748	66.841	-0.064	0.065
-575.733	800.000	-0.054	-0.183
-574.719	-200.000	-0.017	0.210
-573.704	-68.631	-0.101	0.039
-572.690	-70.638	0.092	0.035
-571.675	800.000	-0.077	-0.268
-570.661	74.256	-0.157	0.165
-569.646	58.079	-0.115	0.112
-568.631	-200.000	-0.007	-0.227
-567.617	464.684	-0.062	0.138
-566.602	-200.000	0.039	0.000
-565.588	-41.884	0.429	-0.220
-564.573	56.097	-0.058	-0.056
-563.558	-108.772	-0.033	-0.007
-562.544	-200.000	0.012	-0.232
-561.529	-200.000	0.004	-0.342
-560.515	-200.000	0.435	0.001
-559.500	570.651	-0.054	-0.132
-558.485	-200.000	-0.019	0.333
-557.471	11.116	0.081	-0.062
-556.456	-72.296	-0.158	-0.058
-555.442	-9.820	-0.293	0.195
-554.427	-61.527	0.054	0.023
-553.412	-200.000	-0.009	-0.112
-552.398	-200.000	-0.002	0.102
-551.383	-131.008	0.113	0.015
-550.369	-133.917	-0.152	-0.019
-549.354	150.614	-0.091	0.123
-548.339	40.522	-0.111	0.100
-547.325	76.918	-0.271	0.287
-546.310	-126.388	0.414	-0.062
-545.296	-127.294	0.158	0.023
-544.281	-77.522	-0.365	0.126
-543.266	170.181	-0.150	-0.214
-542.252	800.000	0.042	0.171
-541.237	800.000	-0.074	-0.319
-540.223	1.304	0.145	0.104
-539.208	107.962	-0.008	0.010
-538.193	800.000	-0.121	0.372
-537.179	-35.099	-0.173	-0.094
-536.164	-200.000	0.029	-0.352
-535.150	-47.182	-0.043	-0.021
-534.135	-24.258	-0.220	-0.131
-533.121	-40.059	-0.167	0.087
-532.106	-62.395	-0.374	0.155
-531.091	-71.123	-0.076	-0.029
-530.077	-200.000	0.004	0.257
-529.062	-200.000	-0.025	0.121
-528.048	800.000	-0.109	-0.307
-527.033	800.000	-0.047	-0.192
-526.018	22.033	-0.165	-0.135
-525.004	-101.696	0.166	-0.040
-523.989	-109.863	-0.163	0.034
-522.975	-97.927	-0.215	0.055
-521.960	-11.943	-0.227	0.148
-520.945	-67.422	0.346	0.136
-519.931	155.782	-0.110	-0.152
-518.916	525.214	-0.090	-0.211
-517.902	606.166	-0.172	-0.427
-516.887	800.000	-0.086	0.289
-515.872	-88.989	0.388	-0.115
-514.858	748.524	0.064	0.172
-513.843	182.275	-0.144	-0.211
-512.829	160.139	-0.125	-0.174
-511.814	800.000	0.099	-0.317
-510.799	-89.675	0.351	0.102
-509.785	-120.604	-0.593	0.100
-508.770	-200.000	-0.045	0.275
-507.756	-120.388	-0.220	-0.037
-506.741	543.771	0.060	0.142
-505.726	-28.379	0.350	0.201
-504.712	386.129	-0.086	0.177
-503.697	100.377	-0.163	-0.188
-502.683	800.000	0.016	0.056
-501.668	274.373	-0.089	0.158
-500.653	-88.985	0.181	-0.054
-499.639	102.061	-0.238	-0.277
-498.624	56.644	-0.025	-0.024
-497.610	800.000	0.008	-0.029
-496.595	219.309	0.112	-0.178
-495.581	470.224	0.044	0.099
-494.566	-200.000	-0.062	-0.337
-493.551	-134.686	0.111	-0.013
-492.537	800.000	0.045	0.133
-491.522	-105.908	0.306	0.069
-490.508	186.731	-0.187	0.278
-489.493	-200.000	0.052	0.333
-488.478	23.049	0.236	0.193
-487.464	-200.000	-0.021	0.143
-486.449	90.209	-0.082	0.091
-485.435	150.681	0.155	-0.209
-484.420	-47.747	0.178	0.086
-483.405	-151.308	-0.177	-0.013
-482.391	11.846	0.161	-0.123
-481.376	-200.000	0.012	0.161
-480.362	4.340	-0.216	-0.158
-479.347	800.000	0.036	0.136
-478.332	-85.979	-0.170	0.052
-477.318	52.039	-0.126	-0.120
-476.303	-90.211	0.157	-0.046
-475.289	297.768	0.123	-0.226
-474.274	-128.904	-0.021	-0.003
-473.259	800.000	-0.028	-0.094
-472.245	319.936	0.122	0.230
-471.230	-148.874	-0.096	-0.008
-470.216	800.000	0.081	-0.330
-469.201	144.818	0.038	-0.050
-468.186	227.297	-0.160	-0.259
-467.172	50.017	0.115	0.108
-466.157	341.245	0.117	0.228
-465.143	-200.000	0.004	0.024
-464.128	-64.651	-0.037	-0.015
-463.113	-118.706	0.266	0.047
-462.099	-200.000	0.041	0.210
-461.084	70.191	-0.292	-0.300
-460.070	256.040	-0.036	0.062
-459.055	800.000	-0.060	-0.219
-458.040	227.774	-0.106	0.172
-457.026	488.099	0.063	-0.143
-456.011	111.693	-0.090	0.108
-454.997	13.904	0.349	0.270
-453.982	-200.000	0.011	0.000
-452.968	217.462	0.042	0.066
-451.953	-158.830	-0.133	0.008
-450.938	-43.858	0.114	0.057
-449.924	-49.905	-0.354	0.167
-448.909	29.597	0.076	0.065
-447.895	18.240	0.058	0.046
-446.880	-200.000	0.010	0.104
-445.865	-56.234	0.394	0.174
-444.851	800.000	-0.055	0.158
-443.836	-120.085	0.069	-0.012
-442.822	433.471	-0.091	-0.197
-441.807	74.601	0.311	0.325
-440.792	-10.185	-0.216	-0.142
-439.778	-200.000	-0.022	0.125
-438.763	-118.294	-0.235	0.042
-437.749	-117.752	0.325	0.058
-436.734	32.277	0.084	-0.072
-435.719	127.181	-0.082	0.103
-434.705	177.962	-0.117	-0.169
-433.690	-200.000	-0.005	-0.027
-432.676	800.000	-0.091	0.264
-431.661	66.030	-0.070	-0.071
-430.646	800.000	0.086	-0.363
-429.632	-43.353	-0.387	-0.194
-428.617	-52.772	0.182	-0.083
-427.603	-76.508	0.387	0.135
-426.588	-85.123	0.449	-0.140
-425.573	200.199	-0.108	0.165
-424.559	394.501	0.080	-0.165
-423.544	800.000	-0.047	0.130
-422.530	-88.125	-0.357	-0.106
-421.515	-87.985	0.181	0.054
-420.500	598.008	0.028	0.068
-419.486	-200.000	-0.006	0.069
-418.471	-75.270	-0.168	-0.059
-417.457	-200.000	0.019	0.223
-416.442	-5.588	0.406	0.276
-415.428	358.403	-0.111	-0.221
-414.413	-58.027	0.173	0.075
-413.398	26.340	-0.052	-0.043
-412.384	-160.683	0.151	-0.008
-411.369	273.697	0.112	0.197
-410.355	-0.312	0.196	0.138
-409.340	800.000	-0.057	0.184
-408.325	-200.000	-0.053	0.460
-407.311	-147.342	-0.158	0.013
-406.296	-200.000	0.014	0.213
-405.282	-200.000	0.046	-0.213
-404.267	-61.442	-0.169	-0.070
-403.252	45.314	-0.146	-0.134
-402.238	-163.880	0.122	0.006
-401.223	-200.000	-0.017	-0.456
-400.209	494.328	0.029	0.067
-399.194	-101.980	-0.305	0.073
-398.179	613.241	-0.079	-0.196
-397.165	408.704	0.038	-0.079
-396.150	-171.123	-0.163	-0.005
-395.136	174.965	0.038	-0.054
-394.121	-164.197	-0.145	-0.007
-393.106	0.596	-0.190	-0.135
-392.092	39.157	0.088	0.078
-391.077	-87.049	-0.236	-0.071
-390.063	800.000	-0.035	-0.151
-389.048	308.543	0.041	0.076
-388.033	800.000	0.122	0.348
-387.019	-200.000	0.030	-0.134
-386.004	-160.972	-0.234	0.012
-384.990	46.036	-0.050	0.046
-383.975	-55.470	-0.157	-0.070
-382.960	-24.293	-0.032	-0.019
-381.946	376.709	-0.033	-0.067
-380.931	-200.000	-0.032	-0.259
-379.917	800.000	0.080	-0.254
-378.902	800.000	-0.041	0.160
-377.888	41.112	-0.452	-0.405
-376.873	167.675	0.205	0.289
-375.858	-21.844	-0.279	-0.168
-374.844	322.856	0.027	0.050
-373.829	31.724	-0.160	0.137
-372.815	800.000	-0.025	0.096
-371.800	431.542	-0.152	-0.327
-370.785	-169.160	0.326	0.012
-369.771	351.331	0.094	0.185
-368.756	608.817	0.209	0.517
-367.742	-111.339	0.181	0.037
-366.727	423.881	0.096	-0.205
-365.712	125.661	-0.122	-0.152
-364.698	47.715	-0.102	0.094
-363.683	14.586	-0.212	0.164
-362.669	256.059	-0.113	-0.192
-361.654	-129.316	0.189	-0.026
-360.639	-114.538	0.211	-0.040
-359.625	-37.423	-0.314	-0.166
-358.610	800.000	-0.064	-0.184
-357.596	-145.759	-0.266	0.023
-356.581	89.279	-0.269	-0.297
-355.566	800.000	-0.067	0.237
-354.552	800.000	-0.061	-0.179
-353.537	-90.811	-0.431	-0.123
-352.523	-64.667	0.256	-0.103
-351.508	-16.171	-0.054	0.034
-350.493	-129.415	-0.281	-0.039
-349.479	-132.963	-0.156	-0.020
-348.464	-200.000	-0.042	0.193
-347.450	367.221	0.103	-0.205
-346.435	-93.990	-0.343	-0.093
-345.420	-7.240	0.169	-0.114
-344.406	92.206	-0.235	-0.263
-343.391	231.484	-0.054	-0.088
-342.377	-26.859	-0.113	0.066
-341.362	216.218	0.076	0.119
-340.348	-200.000	0.108	-0.475
-339.333	-97.804	-0.182	0.047
-338.318	-111.183	-0.282	-0.057
-337.304	90.273	-0.107	0.118
-336.289	-118.688	0.356	0.062
-335.275	36.132	0.319	-0.279
-334.260	-82.309	0.289	0.093
-333.245	-200.000	0.064	0.440
-332.231	619.124	0.070	-0.174
-331.216	-42.425	0.229	-0.116
-330.202	162.853	-0.137	-0.190
-329.187	800.000	0.042	0.118
-328.172	-66.123	-0.332	0.131
-327.158	9.613	0.242	-0.182
-326.143	37.828	0.157	-0.138
-325.129	-135.305	-0.345	-0.041
-324.114	-2.727	0.342	0.237
-323.099	800.000	0.089	-0.381
-322.085	-23.381	0.192	0.114
-321.070	0.836	0.359	-0.255
-320.056	-2.616	-0.156	-0.108
-319.041	-200.000	0.010	0.153
-318.026	89.378	-0.069	0.076
-317.012	-119.165	-0.150	0.026
-315.997	-19.724	0.131	-0.080
-314.983	49.608	-0.018	0.017
-313.968	247.251	0.068	0.113
-312.953	-114.728	0.369	0.070
-311.939	-26.957	-0.280	0.161
-310.924	299.983	-0.269	-0.491
-309.910	-43.697	0.127	-0.063
-308.895	-200.000	-0.020	0.284
-307.880	-41.900	-0.023	-0.012
-306.866	800.000	0.056	0.227
-305.851	236.319	0.068	0.111
-304.837	-200.000	-0.006	0.080
-303.822	101.358	-0.197	0.227
-302.807	-15.044	0.182	0.115
-301.793	1.174	-0.184	0.131
-300.778	19.229	-0.184	0.146
-299.764	-155.563	-0.208	-0.013
-298.749	-64.662	0.248	0.099
-297.735	-200.000	0.037	-0.337
-296.720	29.445	0.152	0.128
-295.705	473.184	0.088	0.196
-294.691	-85.916	-0.330	-0.101
-293.676	-125.009	0.250	0.038
-292.662	713.744	-0.201	0.528
-291.647	-69.223	-0.265	0.101
-290.632	39.942	-0.154	-0.137
-289.618	-28.354	-0.057	-0.033
-288.603	-73.069	0.381	-0.138
-287.589	800.000	0.039	-0.161
-286.574	72.787	-0.095	-0.098
-285.559	-56.440	0.312	-0.137
-284.545	110.896	0.123	0.147
-283.530	451.088	0.066	-0.143
-282.516	-164.096	0.385	-0.018
-281.501	-121.617	-0.284	-0.047
-280.486	532.088	0.061	0.142
-279.472	306.586	-0.142	-0.262
-278.457	322.491	0.245	-0.461
-277.443	45.603	-0.119	-0.108
-276.428	-110.669	0.368	-0.075
-275.413	311.680	-0.087	0.162
-274.399	-200.000	0.019	0.101
-273.384	-107.436	0.259	-0.056
-272.370	131.470	-0.158	0.201
-271.355	-113.331	0.256	0.050
-270.340	-126.548	0.025	0.004
-269.326	-200.000	-0.002	0.411
-268.311	30.663	-0.094	-0.079
-267.297	85.811	0.094	-0.102
-266.282	-200.000	0.005	-0.308
-265.267	-18.808	0.102	0.063
-264.253	-59.808	-0.211	-0.089
-263.238	-200.000	-0.020	0.331
-262.224	123.630	-0.090	0.111
-261.209	-200.000	-0.294	0.001
-260.195	800.000	-0.073	0.306
-259.180	-91.861	0.460	0.129
-258.165	800.000	-0.095	0.392
-257.151	800.000	-0.090	0.371
-256.136	87.630	-0.203	0.222
-255.122	-38.857	0.185	-0.096
-254.107	-115.813	-0.199	-0.037
-253.092	182.658	0.141	0.206
-252.078	-200.000	0.023	0.100
-251.063	37.750	0.130	-0.114
-250.049	-52.840	-0.339	0.154
-249.034	59.753	0.004	-0.004
-248.019	42.542	0.087	-0.078
-247.005	310.707	0.110	-0.203
-245.990	-200.000	0.004	0.281
-244.976	139.587	-0.210	0.273
-243.961	-135.947	0.358	0.042
-242.946	-39.077	0.241	-0.125
-241.932	-42.479	0.235	-0.118
-240.917	80.558	0.271	0.288
-239.903	-15.861	0.313	0.197
-238.888	8.600	-0.178	-0.132
-237.873	165.872	0.047	-0.066
-236.859	-200.000	0.003	-0.237
-235.844	-200.000	0.001	-0.110
-234.830	800.000	-0.079	-0.312
-233.815	56.216	-0.188	0.180
-232.800	16.710	0.027	-0.021
-231.786	268.270	0.109	0.188
-230.771	-200.000	0.007	0.472
-229.757	222.466	-0.122	0.193
-228.742	-112.316	-0.327	-0.065
-227.727	171.166	0.309	0.437
-226.713	-200.000	-0.043	0.413
-225.698	600.066	0.259	0.634
-224.684	-145.020	-0.128	0.012
-223.669	468.143	0.078	0.172
-222.655	-200.000	-0.035	0.253
-221.640	800.000	-0.115	-0.416
-220.625	-48.252	0.091	0.043
-219.611	-101.457	-0.412	0.099
-218.596	228.356	-0.096	-0.154
-217.582	-200.000	-0.005	0.031
-216.567	102.974	-0.045	-0.052
-215.552	53.319	0.245	-0.231
-214.538	-200.000	0.030	-0.252
-213.523	-200.000	0.006	0.088
-212.509	307.126	0.164	0.302
-211.494	639.021	-0.066	0.166
-210.479	-119.486	-0.342	-0.058
-209.465	-121.448	-0.250	0.041
-208.450	242.324	-0.163	-0.269
-207.436	-109.211	0.370	0.077
-206.421	277.445	-0.157	-0.276
-205.406	-200.000	0.007	0.047
-204.392	213.007	-0.133	0.206
-203.377	-28.419	-0.274	-0.156
-202.363	-43.803	0.211	-0.105
-201.348	-89.885	0.270	-0.078
-200.333	-126.144	0.170	0.025
-199.319	17.325	-0.053	0.042
-198.304	68.745	0.164	0.166
-197.290	-200.000	-0.004	0.140
-196.275	-98.382	-0.186	-0.047
-195.260	289.968	-0.105	-0.188
-194.246	37.582	-0.134	0.117
-193.231	-200.000	-0.038	0.201
-192.217	-200.000	0.048	-0.214
-191.202	-200.000	0.025	-0.126
-190.187	-200.000	0.035	-0.189
-189.173	-200.000	0.057	0.268
-188.158	46.283	-0.094	0.086
-187.144	139.011	-0.111	0.143
-186.129	172.984	0.062	-0.088
-185.114	670.875	0.102	-0.260
-184.100	9.663	0.142	0.106
-183.085	6.178	-0.201	0.147
-182.071	-147.310	-0.130	-0.011
-181.056	-109.278	0.377	0.079
-180.042	561.590	-0.118	-0.281
-179.027	-29.274	0.333	0.188
-178.012	23.326	0.194	0.157
-176.998	-26.566	-0.321	-0.185
-175.983	-200.000	0.025	-0.354
-174.969	-61.801	0.213	0.088
-173.954	-138.522	-0.108	0.012
-172.939	48.671	-0.181	-0.167
-171.925	106.814	-0.074	-0.087
-170.910	-165.468	-0.151	-0.007
-169.896	800.000	0.106	0.320
-168.881	643.116	0.089	-0.223
-167.866	-55.632	-0.459	-0.202
-166.852	81.213	0.117	-0.125
-165.837	-200.000	0.016	-0.134
-164.823	108.360	-0.251	-0.295
-163.808	-200.000	-0.013	0.081
-162.793	-134.316	-0.055	0.007
-161.779	-200.000	0.002	-0.047
-160.764	-134.105	0.202	0.024
-159.750	-200.000	0.052	-0.270
-158.735	-162.389	-0.091	-0.004
-157.720	327.930	0.069	0.131
-156.706	-12.693	0.208	0.133
-155.691	-200.000	-0.035	-0.315
-154.677	-22.585	0.333	-0.198
-153.662	156.528	0.119	0.162
-152.647	-196.736	0.179	-0.001
-151.633	-74.677	0.259	0.091
-150.618	-200.000	-0.017	-0.079
-149.604	800.000	0.034	0.113
-148.589	396.317	-0.177	-0.364
-147.574	-22.244	-0.457	0.272
-146.560	31.880	-0.412	0.349
-145.545	-200.000	-0.002	0.065
-144.531	-86.161	-0.357	-0.108
-143.516	800.000	-0.065	-0.195
-142.502	9.875	-0.029	-0.022
-141.487	376.439	-0.138	0.276
-140.472	127.798	0.134	-0.168
-139.458	-47.472	0.575	-0.275
-138.443	800.000	-0.109	-0.351
-137.429	-118.792	-0.130	-0.022
-136.414	350.453	-0.130	-0.253
-135.399	-173.348	-0.556	0.017
-134.385	89.020	0.069	0.076
-133.370	-44.400	-0.108	-0.053
-132.356	341.419	-0.163	0.312
-131.341	29.069	0.108	0.090
-130.326	-163.186	-0.205	0.010
-129.312	284.190	0.074	0.131
-128.297	263.404	-0.230	0.392
-127.283	-48.924	-0.188	0.089
-126.268	-42.529	0.317	0.159
-125.253	-200.000	-0.004	-0.090
-124.239	-104.061	-0.261	-0.060
-123.224	19.769	0.189	0.150
-122.210	-38.304	0.056	-0.029
