DTS Sentinel unit serial number:	SN413079Multiplexer serial number:	ORYXHardware model number:	OX4-SRSoftware version number:	ORYX F/W v4.00 Oryx Data Collector v3.7.2.0data status	okinstallation	princeton_trtdifferential loss correction	single-endedforward channel	channel 2reverse channel	N/Adate	2019/09/12time	03:29:11forward acquisition time	60.00reverse acquisition time	0.00gamma	496.2192k internal	0.2326k external	0.2326temperature offset calibration	1.0096default loss term (dB/km)	0.3790temperature slope calibration	1.0000multiplexer offset coefficient	1.0000multiplexer slope coefficient	1.0000fibre end	0.00T internal ref (°C)	32.19T ext. ref 1 (°C)	2.15T ext. ref 2 (°C)	27.20length (m)	temperature (°C)	Stokes	anti-Stokes-747.200	-64.362	0.133	0.055
-746.185	-72.587	-0.103	0.038
-745.171	249.491	0.111	0.190
-744.156	800.000	-0.079	0.269
-743.142	349.628	-0.160	0.319
-742.127	574.886	-0.045	0.111
-741.112	35.865	-0.091	0.080
-740.098	465.607	-0.130	0.293
-739.083	189.794	0.133	-0.200
-738.069	202.454	-0.096	0.150
-737.054	543.699	-0.145	-0.350
-736.039	-86.149	-0.477	0.149
-735.025	-15.244	-0.206	0.133
-734.010	-25.754	-0.136	-0.081
-732.996	193.728	0.158	-0.242
-731.981	-58.331	-0.324	-0.142
-730.966	496.405	-0.033	0.076
-729.952	-43.831	-0.344	-0.174
-728.937	-7.368	-0.295	0.202
-727.923	-103.238	-0.201	-0.048
-726.908	-47.588	-0.344	-0.168
-725.894	735.866	-0.003	-0.008
-724.879	122.659	-0.109	0.138
-723.864	84.004	-0.162	0.178
-722.850	53.675	0.246	0.238
-721.835	207.742	0.099	0.156
-720.821	4.054	-0.365	-0.269
-719.806	-62.731	-0.196	0.082
-718.791	18.855	0.129	0.104
-717.777	-132.303	-0.052	-0.007
-716.762	-14.699	0.061	-0.040
-715.748	108.692	-0.196	-0.236
-714.733	441.279	-0.056	0.124
-713.718	-200.000	0.023	-0.335
-712.704	-4.553	0.134	0.093
-711.689	-23.251	-0.341	-0.207
-710.675	-200.000	0.009	0.079
-709.660	-21.882	0.227	0.139
-708.645	14.668	0.130	-0.102
-707.631	800.000	0.034	-0.119
-706.616	16.331	0.116	0.092
-705.602	45.963	0.165	0.154
-704.587	441.809	-0.112	-0.246
-703.572	-190.869	0.146	0.002
-702.558	-34.774	-0.050	0.028
-701.543	59.769	0.038	-0.038
-700.529	-104.483	-0.228	-0.053
-699.514	800.000	-0.086	-0.276
-698.499	168.739	0.088	-0.127
-697.485	-21.477	-0.148	0.091
-696.470	195.718	0.208	0.318
-695.456	131.549	0.284	-0.368
-694.441	35.084	0.286	0.252
-693.426	189.203	-0.171	0.258
-692.412	3.937	0.156	-0.115
-691.397	-200.000	-0.040	-0.387
-690.383	349.645	0.021	0.041
-689.368	14.370	-0.254	0.200
-688.354	-71.567	0.087	0.033
-687.339	-11.058	-0.072	-0.048
-686.324	800.000	0.027	0.106
-685.310	800.000	-0.041	0.156
-684.295	-154.850	-0.106	0.007
-683.281	86.646	-0.163	-0.181
-682.266	8.429	-0.198	0.150
-681.251	-136.201	0.158	-0.019
-680.237	800.000	0.061	-0.199
-679.222	-155.095	-0.332	-0.022
-678.208	64.323	-0.067	0.068
-677.193	-200.000	0.001	0.066
-676.178	-18.183	0.185	-0.116
-675.164	7.887	0.170	0.128
-674.149	181.034	0.181	0.268
-673.135	800.000	0.012	0.038
-672.120	-57.146	-0.154	-0.068
-671.105	-167.279	0.188	-0.008
-670.091	177.014	0.203	-0.297
-669.076	151.734	0.152	-0.208
-668.062	-200.000	-0.020	0.161
-667.047	-52.065	-0.085	0.040
-666.032	-132.610	-0.131	0.017
-665.018	454.907	-0.093	-0.208
-664.003	0.736	-0.188	-0.135
-662.989	-200.000	0.032	-0.306
-661.974	55.471	-0.242	-0.235
-660.959	800.000	0.039	-0.151
-659.945	-80.050	0.273	-0.092
-658.930	-101.587	0.125	0.030
-657.916	-200.000	0.008	0.082
-656.901	-57.549	-0.044	0.019
-655.886	-200.000	-0.092	0.000
-654.872	542.737	-0.149	-0.356
-653.857	-30.919	0.152	0.087
-652.843	-116.234	-0.298	0.056
-651.828	-113.892	0.433	-0.085
-650.814	184.423	0.050	0.074
-649.799	29.178	0.044	0.037
-648.784	29.647	0.176	-0.150
-647.770	-129.570	0.183	0.025
-646.755	86.109	0.136	-0.150
-645.741	-114.263	0.131	-0.025
-644.726	31.218	0.142	0.122
-643.711	-200.000	-0.012	0.317
-642.697	-142.206	-0.274	-0.027
-641.682	-200.000	0.046	0.338
-640.668	3.919	-0.086	0.063
-639.653	-16.012	-0.045	-0.029
-638.638	13.136	0.309	-0.240
-637.624	-60.746	0.196	-0.084
-636.609	-182.109	-0.146	-0.003
-635.595	-175.480	0.414	0.011
-634.580	-182.042	-0.473	-0.009
-633.565	800.000	0.027	0.074
-632.551	800.000	0.106	0.371
-631.536	168.824	-0.135	-0.193
-630.522	-200.000	0.014	-0.267
-629.507	-200.000	-0.018	0.119
-628.492	345.857	0.055	-0.108
-627.478	-200.000	-0.070	0.434
-626.463	10.363	-0.096	-0.073
-625.449	800.000	0.069	-0.242
-624.434	205.261	0.078	0.122
-623.419	-120.219	-0.407	0.070
-622.405	136.342	0.134	0.175
-621.390	800.000	0.009	0.029
-620.376	-58.632	0.346	0.150
-619.361	-168.998	-0.167	0.006
-618.346	187.595	-0.224	-0.336
-617.332	800.000	0.037	-0.130
-616.317	308.565	-0.089	-0.168
-615.303	54.769	-0.341	0.330
-614.288	-146.683	-0.245	-0.021
-613.273	344.512	-0.102	-0.200
-612.259	-20.737	0.181	-0.111
-611.244	30.519	-0.253	0.217
-610.230	800.000	0.028	-0.085
-609.215	310.083	-0.100	-0.187
-608.201	-58.631	-0.141	-0.061
-607.186	19.037	0.113	0.091
-606.171	12.920	-0.156	0.121
-605.157	17.999	-0.118	0.094
-604.142	800.000	0.049	-0.154
-603.128	8.203	-0.177	0.134
-602.113	89.792	0.184	-0.206
-601.098	111.609	0.085	-0.103
-600.084	800.000	-0.147	-0.459
-599.069	392.894	-0.120	0.249
-598.055	48.601	0.152	0.143
-597.040	-49.261	-0.084	0.040
-596.025	114.600	-0.080	0.098
-595.011	20.083	0.227	-0.184
-593.996	-3.122	-0.292	-0.204
-592.982	800.000	-0.034	0.113
-591.967	-166.561	-0.222	-0.009
-590.952	800.000	-0.055	-0.225
-589.938	-2.555	-0.229	0.161
-588.923	800.000	0.024	-0.080
-587.909	69.048	0.178	0.183
-586.894	43.164	0.157	0.144
-585.879	-144.912	0.383	-0.035
-584.865	465.165	0.146	-0.328
-583.850	-61.407	0.071	-0.030
-582.836	457.645	-0.059	-0.132
-581.821	-60.689	-0.164	-0.069
-580.806	800.000	0.038	0.152
-579.792	741.290	0.069	0.187
-578.777	-58.201	-0.140	0.061
-577.763	114.398	-0.062	0.075
-576.748	297.498	-0.103	-0.190
-575.733	800.000	-0.121	-0.416
-574.719	-200.000	-0.017	-0.172
-573.704	-200.000	0.002	-0.127
-572.690	150.534	-0.200	-0.272
-571.675	-163.628	0.447	-0.021
-570.661	98.122	0.090	0.104
-569.646	127.253	0.202	-0.256
-568.631	-172.692	-0.143	0.005
-567.617	3.429	-0.049	0.036
-566.602	-200.000	-0.054	-0.265
-565.588	-89.029	-0.394	-0.117
-564.573	-63.282	-0.449	-0.185
-563.558	-92.061	0.404	-0.115
-562.544	-14.210	-0.202	-0.131
-561.529	-141.363	0.376	0.038
-560.515	8.938	-0.100	0.076
-559.500	281.124	-0.082	0.147
-558.485	11.928	0.072	-0.055
-557.471	-97.692	0.251	0.065
-556.456	-124.434	0.336	0.052
-555.442	118.327	0.198	-0.245
-554.427	-200.000	0.063	-0.458
-553.412	496.214	-0.113	0.259
-552.398	246.173	0.101	0.170
-551.383	-61.121	0.220	0.093
-550.369	-11.946	-0.136	0.089
-549.354	-92.097	-0.214	-0.061
-548.339	414.814	-0.154	0.329
-547.325	-62.067	0.284	-0.119
-546.310	109.163	-0.143	-0.171
-545.296	-81.131	-0.083	-0.027
-544.281	-200.000	0.006	0.411
-543.266	220.371	0.130	-0.208
-542.252	54.346	-0.249	0.240
-541.237	46.283	-0.105	-0.097
-540.223	45.390	0.174	0.161
-539.208	244.399	-0.105	-0.176
-538.193	274.760	0.091	-0.162
-537.179	201.159	-0.055	-0.085
-536.164	12.847	-0.182	-0.141
-535.150	182.065	-0.165	0.243
-534.135	180.500	0.109	0.159
-533.121	800.000	0.021	0.089
-532.106	800.000	0.012	-0.048
-531.091	159.605	0.035	0.049
-530.077	42.048	-0.093	-0.084
-529.062	-78.352	0.231	-0.079
-528.048	211.776	0.130	-0.205
-527.033	-132.426	0.272	0.035
-526.018	-200.000	-0.001	0.396
-525.004	186.300	0.090	0.134
-523.989	-145.034	0.251	0.023
-522.975	408.989	0.202	-0.428
-521.960	117.198	-0.161	-0.198
-520.945	-49.919	0.039	0.018
-519.931	-116.729	0.153	0.028
-518.916	-33.828	0.230	-0.127
-517.902	226.727	-0.119	-0.193
-516.887	-80.570	-0.167	-0.056
-515.872	49.977	0.316	0.298
-514.858	108.944	-0.020	-0.023
-513.843	58.096	0.113	-0.111
-512.829	36.048	-0.203	-0.178
-511.814	-154.988	-0.205	-0.013
-510.799	554.333	-0.013	-0.032
-509.785	-58.313	-0.223	0.097
-508.770	-86.038	-0.163	-0.050
-507.756	-169.154	-0.255	-0.009
-506.741	93.542	0.124	0.141
-505.726	-153.647	-0.212	-0.015
-504.712	-91.252	0.200	0.057
-503.697	-200.000	0.027	-0.210
-502.683	-67.443	-0.153	-0.060
-501.668	-129.937	0.189	0.026
-500.653	-159.598	-0.213	-0.012
-499.639	225.052	-0.054	-0.087
-498.624	124.650	0.050	0.063
-497.610	800.000	0.060	0.187
-496.595	78.456	-0.105	-0.112
-495.581	600.762	-0.084	-0.208
-494.566	714.719	0.081	0.213
-493.551	-200.000	-0.021	-0.180
-492.537	73.860	0.190	-0.199
-491.522	-47.333	0.039	-0.019
-490.508	87.228	-0.020	-0.022
-489.493	-20.990	-0.246	0.151
-488.478	113.489	-0.170	-0.206
-487.464	541.306	0.155	-0.369
-486.449	25.971	0.057	-0.048
-485.435	-200.000	-0.029	-0.162
-484.420	50.435	-0.173	0.163
-483.405	-34.204	-0.242	-0.133
-482.391	-121.765	-0.133	0.022
-481.376	-66.111	0.294	-0.117
-480.362	41.001	0.195	-0.176
-479.347	-124.716	0.062	0.010
-478.332	-104.821	0.397	0.091
-477.318	-53.687	-0.147	0.067
-476.303	800.000	-0.039	0.155
-475.289	800.000	-0.101	-0.395
-474.274	-200.000	0.103	-0.504
-473.259	800.000	0.065	-0.238
-472.245	-117.842	-0.087	-0.016
-471.230	18.201	0.269	0.214
-470.216	551.018	-0.016	0.038
-469.201	315.574	-0.057	0.108
-468.186	-200.000	0.020	0.185
-467.172	425.833	-0.187	0.402
-466.157	102.541	-0.114	0.133
-465.143	162.616	0.067	-0.094
-464.128	177.007	-0.101	0.146
-463.113	-149.977	0.167	-0.013
-462.099	124.144	0.079	-0.099
-461.084	59.299	-0.066	-0.065
-460.070	171.242	-0.205	0.294
-459.055	-32.048	-0.385	-0.215
-458.040	-47.020	0.136	-0.066
-457.026	-200.000	-0.066	-0.294
-456.011	357.037	-0.052	-0.103
-454.997	383.391	0.059	-0.120
-453.982	800.000	0.148	0.469
-452.968	92.475	-0.277	0.312
-451.953	69.568	-0.130	-0.134
-450.938	800.000	-0.027	-0.118
-449.924	-59.716	0.180	0.077
-448.909	-200.000	-0.033	0.219
-447.895	145.796	-0.196	0.262
-446.880	-53.313	-0.167	0.076
-445.865	800.000	0.101	0.386
-444.851	-93.773	0.064	0.018
-443.836	-82.205	-0.151	-0.049
-442.822	75.053	0.224	-0.236
-441.807	-88.786	-0.252	-0.075
-440.792	-94.409	0.294	0.080
-439.778	317.172	0.132	0.248
-438.763	160.731	-0.085	0.119
-437.749	-52.547	0.117	0.054
-436.734	-92.533	0.169	0.047
-435.719	-41.411	-0.114	0.058
-434.705	-9.312	-0.208	-0.138
-433.690	-156.966	-0.196	0.012
-432.676	-28.611	-0.358	0.205
-431.661	800.000	-0.122	-0.362
-430.646	71.374	0.219	-0.226
-429.632	140.057	-0.053	0.069
-428.617	-25.879	0.259	0.152
-427.603	-0.126	0.111	-0.079
-426.588	34.037	0.112	0.097
-425.573	-156.922	0.252	-0.015
-424.559	55.013	-0.137	0.132
-423.544	-130.782	0.033	-0.004
-422.530	632.344	0.044	-0.112
-421.515	19.026	-0.144	0.115
-420.500	-29.752	0.254	-0.145
-419.486	-94.490	-0.190	0.052
-418.471	-21.767	0.398	-0.241
-417.457	-155.292	-0.251	0.016
-416.442	-19.900	0.295	-0.182
-415.428	-5.467	-0.030	-0.020
-414.413	-137.244	-0.179	-0.020
-413.398	800.000	-0.103	0.284
-412.384	-135.942	0.104	0.012
-411.369	451.392	0.033	-0.072
-410.355	-57.684	-0.066	0.029
-409.340	120.135	0.245	-0.303
-408.325	-123.655	-0.024	-0.004
-407.311	226.739	0.014	0.023
-406.296	-113.395	-0.393	0.077
-405.282	-200.000	-0.009	0.270
-404.267	-41.342	0.127	-0.065
-403.252	-41.269	0.153	-0.079
-402.238	-147.648	-0.281	0.023
-401.223	800.000	0.057	0.157
-400.209	-96.784	-0.243	0.064
-399.194	-200.000	0.007	0.272
-398.179	182.872	-0.234	-0.344
-397.165	129.947	0.117	0.150
-396.150	30.115	0.188	0.159
-395.136	81.742	-0.190	-0.205
-394.121	-44.055	0.205	0.102
-393.106	-200.000	0.015	-0.188
-392.092	800.000	0.111	-0.314
-391.077	59.072	-0.051	-0.050
-390.063	139.580	-0.212	-0.277
-389.048	193.937	-0.039	0.058
-388.033	-200.000	-0.024	0.130
-387.019	131.040	0.072	0.092
-386.004	28.282	-0.263	0.221
-384.990	-131.603	0.106	-0.014
-383.975	-117.661	0.076	0.014
-382.960	223.045	-0.064	-0.102
-381.946	-124.803	-0.195	-0.030
-380.931	403.587	0.032	-0.068
-379.917	-200.000	-0.030	0.233
-378.902	5.671	-0.071	0.052
-377.888	-135.121	0.264	-0.032
-376.873	-123.445	0.153	0.024
-375.858	-114.211	0.303	-0.058
-374.844	535.454	-0.140	-0.329
-373.829	-57.761	-0.312	-0.136
-372.815	800.000	-0.059	0.200
-371.800	-200.000	0.009	0.161
-370.785	395.292	-0.018	0.037
-369.771	105.631	0.015	-0.018
-368.756	772.098	0.071	0.193
-367.742	-104.245	0.046	-0.011
-366.727	70.964	0.017	-0.018
-365.712	403.803	-0.070	-0.147
-364.698	-200.000	0.014	-0.228
-363.683	-99.227	-0.137	0.034
-362.669	38.900	-0.130	-0.115
-361.654	-200.000	0.060	0.299
-360.639	39.551	-0.064	-0.057
-359.625	-69.785	-0.010	0.004
-358.610	-200.000	-0.036	-0.183
-357.596	-82.115	0.201	0.065
-356.581	224.426	0.141	0.226
-355.566	-46.398	-0.072	0.035
-354.552	100.297	-0.123	0.142
-353.537	48.074	0.171	0.158
-352.523	-200.000	-0.013	0.438
-351.508	-29.293	-0.107	0.061
-350.493	634.942	0.107	-0.269
-349.479	8.635	0.145	0.108
-348.464	-47.541	0.199	0.096
-347.450	-200.000	0.032	0.206
-346.435	-39.465	-0.228	0.119
-345.420	18.827	-0.360	0.286
-344.406	-200.000	-0.020	0.170
-343.391	-200.000	-0.045	0.225
-342.377	198.133	-0.072	0.109
-341.362	-200.000	-0.027	0.171
-340.348	-29.074	0.292	0.166
-339.333	800.000	0.019	0.079
-338.318	256.715	-0.110	-0.188
-337.304	-171.657	-0.047	0.002
-336.289	88.344	-0.084	-0.092
-335.275	-200.000	0.052	-0.000
-334.260	-17.724	-0.233	0.145
-333.245	800.000	-0.056	-0.177
-332.231	-38.533	0.029	0.015
-331.216	-64.907	-0.051	-0.021
-330.202	128.946	0.131	0.166
-329.187	-103.870	-0.368	0.085
-328.172	-66.629	0.131	-0.052
-327.158	-122.944	0.412	-0.066
-326.143	-70.299	0.209	0.079
-325.129	-109.464	0.187	0.039
-324.114	-200.000	-0.007	-0.157
-323.099	-100.077	0.093	0.023
-322.085	-200.000	-0.051	0.445
-321.070	-44.361	0.382	-0.190
-320.056	-107.324	-0.173	0.038
-319.041	759.746	-0.062	-0.166
-318.026	-200.000	-0.000	-0.282
-317.012	169.776	0.080	-0.114
-315.997	234.224	-0.115	-0.188
-314.983	-200.000	0.013	0.070
-313.968	-44.932	0.326	0.161
-312.953	-75.671	0.345	0.122
-311.939	-25.071	-0.271	0.159
-310.924	12.707	-0.120	-0.092
-309.910	-142.744	0.251	0.024
-308.895	-200.000	-0.062	-0.309
-307.880	800.000	-0.038	0.120
-306.866	24.853	-0.393	-0.323
-305.851	55.100	-0.167	-0.160
-304.837	-11.369	-0.147	0.096
-303.822	-75.418	-0.182	-0.064
-302.807	-115.586	-0.319	0.059
-301.793	800.000	-0.041	-0.133
-300.778	-67.600	0.127	0.049
-299.764	800.000	-0.039	0.136
-298.749	133.116	0.076	0.097
-297.735	18.649	-0.148	-0.118
-296.720	459.595	0.055	-0.122
-295.705	-200.000	-0.026	0.333
-294.691	363.945	-0.047	-0.094
-293.676	164.552	-0.128	-0.179
-292.662	471.290	0.071	0.158
-291.647	75.062	0.112	0.117
-290.632	102.303	-0.146	0.170
-289.618	-45.193	-0.357	0.176
-288.603	-91.156	-0.348	-0.099
-287.589	-108.520	-0.385	-0.082
-286.574	-23.918	-0.186	-0.110
-285.559	-200.000	0.015	0.067
-284.545	87.262	-0.137	-0.150
-283.530	402.923	0.048	0.100
-282.516	-200.000	-0.034	0.159
-281.501	104.293	0.213	-0.248
-280.486	-54.801	0.058	-0.026
-279.472	98.969	-0.250	0.286
-278.457	-200.000	-0.037	-0.181
-277.443	-98.852	0.297	-0.075
-276.428	399.720	0.083	0.173
-275.413	-35.378	0.342	0.184
-274.399	206.350	-0.213	-0.328
-273.384	440.139	0.136	-0.294
-272.370	271.171	-0.119	0.207
-271.355	-14.252	-0.271	0.173
-270.340	-87.135	0.586	-0.176
-269.326	-178.773	-0.239	0.005
-268.311	-3.904	-0.333	0.229
-267.297	800.000	-0.089	0.276
-266.282	-136.263	0.458	-0.053
-265.267	101.413	-0.106	-0.123
-264.253	98.281	0.199	-0.227
-263.238	-196.319	0.206	0.001
-262.224	318.849	-0.123	0.232
-261.209	-200.000	-0.002	-0.017
-260.195	353.419	-0.060	0.119
-259.180	-71.594	0.141	0.052
-258.165	159.719	-0.098	0.135
-257.151	-166.054	0.403	-0.017
-256.136	-96.110	0.293	0.077
-255.122	60.909	-0.252	-0.247
-254.107	667.227	0.105	-0.268
-253.092	214.393	0.155	-0.243
-252.078	476.384	0.077	-0.172
-251.063	800.000	-0.030	0.099
-250.049	-143.757	-0.245	-0.023
-249.034	6.072	-0.164	0.120
-248.019	800.000	-0.058	-0.230
-247.005	-8.186	0.056	-0.037
-245.990	-0.005	0.081	-0.057
-244.976	-37.433	-0.384	0.203
-243.961	-29.100	0.424	-0.240
-242.946	800.000	0.021	0.062
-241.932	-15.237	0.235	0.148
-240.917	-105.599	-0.263	0.059
-239.903	-63.950	-0.027	0.011
-238.888	800.000	-0.067	-0.233
-237.873	40.964	0.121	-0.108
-236.859	-33.434	-0.325	-0.177
-235.844	616.503	0.033	0.082
-234.830	-38.781	-0.083	0.043
-233.815	492.853	-0.068	-0.155
-232.800	222.760	0.213	-0.339
-231.786	594.147	-0.052	0.126
-230.771	142.002	-0.082	-0.108
-229.757	-200.000	-0.021	-0.099
-228.742	-124.717	-0.194	-0.030
-227.727	119.298	0.131	0.160
-226.713	-54.738	0.182	0.081
-225.698	-200.000	0.032	0.231
-224.684	251.288	-0.233	0.392
-223.669	-110.233	-0.229	-0.047
-222.655	752.786	0.060	-0.159
-221.640	-200.000	0.045	0.240
-220.625	-132.558	0.136	0.017
-219.611	16.502	-0.137	-0.107
-218.596	-146.836	-0.074	-0.006
-217.582	800.000	0.028	0.085
-216.567	-98.021	0.292	-0.074
-215.552	514.492	-0.213	0.492
-214.538	-161.743	0.417	0.021
-213.523	90.010	0.134	0.148
-212.509	58.657	-0.076	-0.073
-211.494	25.522	0.125	0.103
-210.479	-16.968	0.429	-0.267
-209.465	265.730	0.130	-0.225
-208.450	800.000	-0.055	-0.184
-207.436	-200.000	0.018	0.180
-206.421	-65.204	-0.041	-0.016
-205.406	-200.000	-0.028	-0.191
-204.392	-134.454	0.287	-0.035
-203.377	303.049	0.094	0.172
-202.363	-200.000	-0.036	0.180
-201.348	-200.000	-0.062	-0.308
-200.333	-60.188	0.103	0.044
-199.319	-108.842	0.095	-0.020
-198.304	42.835	-0.169	0.152
-197.290	-200.000	0.018	0.085
-196.275	-68.273	0.138	0.053
-195.260	-200.000	0.040	-0.181
-194.246	375.704	-0.121	0.244
-193.231	-41.083	-0.234	-0.119
-192.217	19.762	-0.156	-0.124
-191.202	163.124	-0.047	-0.065
-190.187	682.683	0.061	-0.157
-189.173	533.731	0.112	0.262
-188.158	-112.479	0.195	-0.038
-187.144	41.031	0.113	-0.101
-186.129	575.842	-0.145	0.348
-185.114	64.975	0.209	-0.209
-184.100	309.965	0.100	-0.185
-183.085	800.000	-0.007	0.022
-182.071	-144.583	-0.385	0.035
-181.056	-200.000	0.018	0.184
-180.042	-41.616	-0.160	0.081
-179.027	-200.000	0.019	-0.266
-178.012	-134.719	-0.206	-0.025
-176.998	-89.380	0.538	0.156
-175.983	-128.831	-0.146	-0.020
-174.969	-200.000	-0.010	-0.153
-173.954	-197.174	0.225	-0.001
-172.939	520.059	-0.095	0.219
-171.925	800.000	0.010	0.031
-170.910	-1.436	-0.148	-0.103
-169.896	-42.645	0.417	-0.209
-168.881	48.665	0.161	0.149
-167.866	22.020	0.201	0.161
-166.852	-11.151	0.087	0.056
-165.837	-57.034	-0.204	0.089
-164.823	800.000	-0.030	0.113
-163.808	684.974	-0.082	0.211
-162.793	73.456	0.064	0.066
-161.779	800.000	0.068	0.229
-160.764	800.000	0.049	0.138
-159.750	660.665	0.092	0.233
-158.735	-65.623	0.063	-0.025
-157.720	149.031	-0.087	0.115
-156.706	-114.522	0.222	-0.042
-155.691	75.847	-0.317	-0.330
-154.677	779.188	0.049	-0.131
-153.662	-126.494	0.121	0.018
-152.647	261.002	0.252	0.429
-151.633	47.012	0.118	-0.108
-150.618	132.535	-0.126	-0.160
-149.604	183.485	-0.188	-0.274
-148.589	453.982	0.128	-0.278
-147.574	594.488	0.136	0.332
-146.560	92.798	-0.202	-0.225
-145.545	488.402	0.144	0.323
-144.531	-200.000	0.092	0.398
-143.516	-66.106	-0.433	-0.170
-142.502	254.706	0.111	-0.187
-141.487	-200.000	0.024	0.265
-140.472	-200.000	0.019	0.411
-139.458	-0.313	-0.035	0.024
-138.443	67.275	0.100	-0.100
-137.429	-33.609	0.161	-0.088
-136.414	-200.000	-0.028	0.161
-135.399	189.409	-0.114	0.168
-134.385	-75.635	0.301	0.105
-133.370	-33.094	0.274	-0.149
-132.356	800.000	-0.057	0.167
-131.341	121.977	0.199	0.245
-130.326	800.000	0.079	-0.241
-129.312	800.000	-0.043	0.166
-128.297	51.400	0.205	-0.192
-127.283	800.000	-0.031	0.125
-126.268	-200.000	0.022	-0.197
-125.253	63.563	-0.091	-0.090
-124.239	-200.000	0.021	-0.153
-123.224	800.000	-0.052	-0.174
-122.210	-45.565	0.465	-0.227
-121.195	103.917	-0.245	-0.283
-120.180	-200.000	-0.006	0.377
