DTS Sentinel unit serial number:	SN413079Multiplexer serial number:	ORYXHardware model number:	OX4-SRSoftware version number:	ORYX F/W v4.00 Oryx Data Collector v3.7.2.0data status	okinstallation	princeton_trtdifferential loss correction	single-endedforward channel	channel 2reverse channel	N/Adate	2019/09/10time	19:01:11forward acquisition time	60.00reverse acquisition time	0.00gamma	496.2192k internal	0.2323k external	0.2323temperature offset calibration	0.9945default loss term (dB/km)	0.3790temperature slope calibration	1.0000multiplexer offset coefficient	1.0000multiplexer slope coefficient	1.0000fibre end	0.00T internal ref (°C)	34.52T ext. ref 1 (°C)	-0.33T ext. ref 2 (°C)	26.66length (m)	temperature (°C)	Stokes	anti-Stokes-747.200	-200.000	0.053	0.305
-746.185	597.371	0.039	0.098
-745.171	-155.039	0.100	0.007
-744.156	-4.571	0.209	0.146
-743.142	268.555	-0.065	-0.115
-742.127	-64.736	0.154	0.063
-741.112	-200.000	-0.017	0.281
-740.098	78.385	-0.127	-0.137
-739.083	28.370	-0.167	-0.143
-738.069	-200.000	-0.056	0.288
-737.054	521.529	0.042	-0.098
-736.039	800.000	-0.064	-0.209
-735.025	326.272	-0.139	0.269
-734.010	-11.779	0.130	-0.086
-732.996	-66.661	-0.147	0.059
-731.981	-82.767	0.143	-0.047
-730.966	31.747	-0.179	-0.155
-729.952	-12.362	0.111	-0.073
-728.937	-138.090	-0.195	-0.022
-727.923	-200.000	-0.017	0.160
-726.908	-102.890	0.124	-0.030
-725.894	47.644	0.125	0.118
-724.879	-200.000	-0.061	-0.316
-723.864	-200.000	0.059	0.274
-722.850	800.000	0.068	0.269
-721.835	17.268	-0.210	0.168
-720.821	800.000	-0.013	0.047
-719.806	-86.811	-0.125	0.039
-718.791	89.894	0.158	-0.178
-717.777	609.989	0.097	-0.244
-716.762	800.000	-0.051	-0.222
-715.748	-137.321	0.361	-0.041
-714.733	-6.164	0.185	-0.127
-713.718	-123.631	-0.335	0.054
-712.704	-200.000	-0.047	0.215
-711.689	107.581	0.016	-0.019
-710.675	664.553	0.162	0.422
-709.660	-87.942	0.136	0.041
-708.645	178.488	-0.060	0.089
-707.631	-86.296	0.185	0.057
-706.616	7.155	0.049	-0.037
-705.602	-200.000	0.010	0.185
-704.587	-200.000	-0.011	-0.207
-703.572	-134.347	0.179	0.022
-702.558	-200.000	0.074	-0.348
-701.543	43.825	-0.078	0.072
-700.529	-200.000	0.037	-0.218
-699.514	34.171	0.182	0.160
-698.499	144.275	0.196	-0.264
-697.485	-58.212	-0.353	0.155
-696.470	121.557	-0.147	0.185
-695.456	-98.970	-0.479	0.123
-694.441	6.638	-0.196	-0.147
-693.426	19.988	-0.187	-0.152
-692.412	-200.000	0.052	-0.273
-691.397	-200.000	0.006	-0.037
-690.383	-200.000	-0.031	0.426
-689.368	-30.809	-0.251	0.143
-688.354	-130.503	-0.173	0.024
-687.339	-200.000	0.032	0.290
-686.324	114.798	-0.158	-0.194
-685.310	800.000	-0.067	-0.250
-684.295	-98.453	-0.051	0.013
-683.281	128.749	0.042	-0.054
-682.266	80.122	-0.068	0.074
-681.251	-74.994	0.393	-0.142
-680.237	-128.198	-0.249	-0.036
-679.222	-157.604	0.210	0.013
-678.208	143.059	-0.043	0.057
-677.193	800.000	-0.094	-0.279
-676.178	36.530	-0.395	-0.351
-675.164	-72.418	0.347	-0.129
-674.149	383.625	0.058	-0.119
-673.135	800.000	0.088	-0.387
-672.120	800.000	-0.042	-0.179
-671.105	-108.252	-0.286	0.062
-670.091	27.092	-0.123	-0.104
-669.076	-53.013	0.166	-0.077
-668.062	-200.000	-0.006	0.320
-667.047	-111.698	0.031	0.006
-666.032	-110.141	-0.205	0.043
-665.018	-200.000	0.053	0.258
-664.003	800.000	0.024	-0.083
-662.989	-200.000	-0.033	-0.166
-661.974	-72.437	-0.149	0.055
-660.959	753.832	0.088	-0.239
-659.945	69.014	-0.157	0.163
-658.930	-120.305	-0.151	-0.026
-657.916	-110.326	0.206	-0.043
-656.901	800.000	-0.046	-0.140
-655.886	-20.081	-0.386	0.240
-654.872	89.033	0.028	0.031
-653.857	-62.210	-0.053	-0.022
-652.843	7.448	-0.209	0.157
-651.828	-97.560	-0.174	0.045
-650.814	1.569	-0.130	0.094
-649.799	-99.646	0.207	-0.052
-648.784	339.467	-0.066	-0.130
-647.770	800.000	0.021	0.069
-646.755	-86.922	0.124	-0.038
-645.741	633.897	-0.072	0.184
-644.726	-125.483	0.093	0.014
-643.711	-200.000	0.022	-0.159
-642.697	-41.398	0.103	0.053
-641.682	-43.304	0.146	0.074
-640.668	-36.748	-0.138	-0.074
-639.653	800.000	0.034	-0.100
-638.638	292.734	-0.102	-0.187
-637.624	-65.725	-0.206	0.083
-636.609	-58.060	-0.160	-0.070
-635.595	102.457	-0.092	0.108
-634.580	-44.075	-0.122	0.061
-633.565	189.418	-0.111	-0.168
-632.551	800.000	0.080	0.295
-631.536	-147.965	-0.170	0.014
-630.522	23.655	-0.042	-0.035
-629.507	134.096	0.374	-0.487
-628.492	734.377	-0.059	-0.159
-627.478	20.717	-0.036	0.029
-626.463	-200.000	0.012	0.280
-625.449	800.000	0.082	0.283
-624.434	-189.594	0.069	0.001
-623.419	90.082	0.216	-0.243
-622.405	-200.000	-0.038	0.445
-621.390	-200.000	0.071	0.378
-620.376	800.000	-0.035	-0.106
-619.361	-103.565	0.096	0.023
-618.346	223.081	-0.156	0.254
-617.332	-200.000	-0.033	0.301
-616.317	-133.824	-0.232	-0.029
-615.303	16.665	0.225	0.179
-614.288	470.468	-0.055	-0.125
-613.273	-11.138	0.160	-0.106
-612.259	-88.507	0.291	-0.087
-611.244	165.390	-0.071	0.100
-610.230	223.610	-0.105	0.170
-609.215	-12.331	-0.161	0.106
-608.201	75.183	-0.048	-0.051
-607.186	-102.337	-0.104	0.025
-606.171	-162.863	0.211	-0.010
-605.157	-130.008	-0.342	-0.047
-604.142	133.493	0.041	0.053
-603.128	336.306	0.019	-0.038
-602.113	800.000	-0.032	-0.128
-601.098	42.779	0.143	-0.130
-600.084	-0.143	0.214	-0.153
-599.069	-110.642	-0.225	-0.047
-598.055	-200.000	0.017	-0.257
-597.040	800.000	0.076	-0.258
-596.025	-84.175	-0.124	0.040
-595.011	774.557	0.162	0.444
-593.996	84.735	-0.262	0.288
-592.982	-200.000	-0.010	0.244
-591.967	-124.083	0.122	0.019
-590.952	157.219	-0.041	-0.057
-589.938	-60.306	-0.261	-0.112
-588.923	-1.705	0.081	-0.057
-587.909	-30.193	-0.100	0.057
-586.894	619.766	-0.152	0.383
-585.879	-200.000	-0.026	-0.254
-584.865	363.236	0.190	-0.383
-583.850	360.892	0.219	0.441
-582.836	78.481	0.268	0.287
-581.821	-22.105	-0.153	-0.093
-580.806	320.495	-0.078	-0.148
-579.792	-200.000	-0.013	0.138
-578.777	-166.247	0.165	-0.007
-577.763	140.964	-0.102	-0.136
-576.748	2.721	0.085	0.062
-575.733	-144.631	0.275	-0.025
-574.719	-200.000	-0.003	0.029
-573.704	258.122	-0.152	0.262
-572.690	-200.000	0.016	0.282
-571.675	63.535	-0.257	0.259
-570.661	193.378	0.275	-0.418
-569.646	-200.000	-0.012	0.191
-568.631	-88.769	0.261	-0.078
-567.617	132.419	-0.034	-0.044
-566.602	143.875	0.128	-0.171
-565.588	-50.129	0.200	-0.095
-564.573	-200.000	-0.002	0.205
-563.558	-5.161	-0.329	0.227
-562.544	-200.000	-0.053	-0.663
-561.529	-143.361	0.313	-0.030
-560.515	800.000	-0.060	-0.173
-559.500	-70.668	-0.136	-0.052
-558.485	-139.771	-0.303	-0.032
-557.471	-112.335	-0.243	0.049
-556.456	-78.053	-0.069	-0.024
-555.442	70.151	0.278	-0.287
-554.427	-39.045	0.228	-0.120
-553.412	-187.378	-0.246	0.003
-552.398	800.000	0.075	0.299
-551.383	21.241	0.129	-0.105
-550.369	-75.490	-0.185	-0.066
-549.354	125.856	0.127	-0.161
-548.339	644.329	0.064	-0.162
-547.325	170.197	0.148	0.212
-546.310	73.257	-0.204	0.214
-545.296	153.163	0.109	-0.149
-544.281	12.229	0.100	0.077
-543.266	800.000	-0.138	-0.481
-542.252	-98.852	-0.022	0.006
-541.237	149.750	-0.112	-0.152
-540.223	741.636	-0.020	0.053
-539.208	-60.276	0.153	0.065
-538.193	100.851	0.166	0.194
-537.179	800.000	-0.028	-0.125
-536.164	-200.000	-0.037	-0.219
-535.150	-68.737	0.154	-0.060
-534.135	-22.493	-0.028	-0.017
-533.121	-60.503	-0.464	0.198
-532.106	-200.000	-0.010	0.169
-531.091	185.367	0.219	-0.326
-530.077	-121.975	-0.252	-0.042
-529.062	-200.000	0.008	0.317
-528.048	20.406	0.194	0.157
-527.033	111.805	0.107	0.129
-526.018	-54.865	-0.248	-0.112
-525.004	-89.777	0.156	0.046
-523.989	-200.000	-0.002	0.017
-522.975	-99.376	0.629	-0.159
-521.960	800.000	-0.109	0.328
-520.945	215.855	0.118	0.188
-519.931	41.954	-0.103	-0.094
-518.916	-200.000	-0.000	-0.328
-517.902	314.236	-0.062	0.118
-516.887	147.196	-0.079	-0.107
-515.872	-165.786	-0.307	-0.013
-514.858	-62.949	-0.197	0.082
-513.843	800.000	-0.073	0.318
-512.829	148.473	-0.052	0.071
-511.814	-39.808	0.150	-0.079
-510.799	-71.923	-0.316	0.118
-509.785	150.748	0.066	-0.090
-508.770	267.091	-0.116	-0.203
-507.756	68.051	-0.145	0.148
-506.741	800.000	0.006	-0.017
-505.726	-200.000	0.017	0.208
-504.712	61.187	-0.245	0.244
-503.697	-8.361	0.031	-0.021
-502.683	-163.452	-0.220	-0.010
-501.668	-60.332	0.106	0.045
-500.653	-200.000	0.045	0.277
-499.639	4.818	0.168	-0.123
-498.624	-200.000	-0.023	0.135
-497.610	-48.437	0.245	-0.118
-496.595	-33.392	-0.068	-0.038
-495.581	-86.047	-0.095	0.029
-494.566	552.787	0.022	-0.053
-493.551	136.799	0.004	0.006
-492.537	63.168	-0.084	-0.084
-491.522	-200.000	-0.001	-0.498
-490.508	-142.262	-0.184	0.018
-489.493	11.886	-0.247	-0.190
-488.478	99.291	0.129	-0.149
-487.464	-200.000	-0.053	-0.372
-486.449	-27.308	-0.106	-0.062
-485.435	-20.196	0.209	-0.129
-484.420	70.845	-0.177	-0.183
-483.405	-58.201	-0.188	-0.082
-482.391	-200.000	0.011	-0.250
-481.376	-200.000	-0.028	-0.208
-480.362	-200.000	-0.011	-0.113
-479.347	-54.219	0.164	0.074
-478.332	-33.707	0.157	-0.086
-477.318	-135.828	-0.525	0.062
-476.303	49.538	0.172	0.162
-475.289	-82.795	0.155	-0.050
-474.274	-200.000	0.551	-0.001
-473.259	415.005	-0.044	-0.093
-472.245	15.608	-0.228	-0.179
-471.230	800.000	0.054	-0.225
-470.216	98.604	-0.085	0.098
-469.201	-200.000	-0.041	0.220
-468.186	416.805	0.038	-0.082
-467.172	-69.029	-0.073	-0.028
-466.157	-55.362	-0.365	0.164
-465.143	27.216	0.134	0.112
-464.128	-8.734	0.272	-0.182
-463.113	-71.017	0.230	0.087
-462.099	-86.990	-0.181	0.055
-461.084	-200.000	-0.042	0.319
-460.070	800.000	-0.041	-0.153
-459.055	-46.473	0.301	0.148
-458.040	2.258	0.263	-0.190
-457.026	-89.216	-0.172	-0.051
-456.011	-101.210	-0.044	-0.011
-454.997	-42.323	-0.198	-0.101
-453.982	342.031	-0.160	0.313
-452.968	284.731	0.080	-0.145
-451.953	150.265	-0.256	-0.347
-450.938	54.186	0.131	-0.126
-449.924	-41.145	0.179	0.092
-448.909	302.688	0.141	-0.261
-447.895	-200.000	0.009	0.043
-446.880	124.635	0.194	0.244
-445.865	108.855	-0.128	0.153
-444.851	87.711	-0.113	0.125
-443.836	19.054	0.077	0.061
-442.822	681.173	-0.167	0.433
-441.807	-200.000	0.065	0.294
-440.792	162.299	-0.110	0.154
-439.778	6.816	0.132	-0.098
-438.763	-114.063	-0.050	0.010
-437.749	-200.000	0.006	0.096
-436.734	-1.785	0.470	-0.330
-435.719	750.484	-0.062	-0.166
-434.705	-12.106	-0.233	-0.152
-433.690	47.207	-0.079	0.074
-432.676	800.000	-0.069	-0.209
-431.661	-22.814	0.283	-0.171
-430.646	523.384	0.060	0.140
-429.632	118.346	0.003	0.004
-428.617	-29.356	-0.323	-0.185
-427.603	-153.312	0.102	-0.007
-426.588	800.000	0.089	-0.312
-425.573	-200.000	-0.013	0.188
-424.559	16.177	-0.253	0.199
-423.544	-165.151	0.378	-0.017
-422.530	-22.750	0.229	-0.138
-421.515	-200.000	-0.018	0.114
-420.500	395.785	-0.107	0.222
-419.486	-53.327	0.084	-0.038
-418.471	-12.615	0.140	0.091
-417.457	-95.187	0.273	0.074
-416.442	322.734	-0.165	-0.313
-415.428	800.000	-0.040	-0.154
-414.413	-123.807	0.451	0.071
-413.398	-151.022	-0.307	-0.023
-412.384	217.326	-0.045	0.071
-411.369	800.000	-0.087	0.258
-410.355	76.979	-0.149	-0.158
-409.340	115.591	0.173	0.211
-408.325	19.698	-0.039	0.032
-407.311	239.869	-0.124	0.206
-406.296	-134.590	0.152	-0.018
-405.282	-36.993	-0.026	-0.014
-404.267	291.049	-0.104	0.189
-403.252	-200.000	0.041	-0.325
-402.238	800.000	0.080	0.287
-401.223	141.778	0.146	0.193
-400.209	-200.000	0.015	0.377
-399.194	-35.615	0.237	-0.128
-398.179	-45.247	0.049	-0.024
-397.165	800.000	0.023	0.074
-396.150	267.644	-0.018	0.032
-395.136	-130.739	-0.112	-0.015
-394.121	42.591	-0.018	0.016
-393.106	-15.342	-0.220	-0.140
-392.092	188.849	0.138	0.206
-391.077	-12.222	-0.108	0.071
-390.063	448.022	0.049	-0.107
-389.048	-4.859	0.096	-0.066
-388.033	132.390	-0.083	0.107
-387.019	-200.000	-0.026	-0.135
-386.004	-200.000	-0.058	-0.309
-384.990	800.000	0.113	0.341
-383.975	112.387	-0.035	-0.042
-382.960	-200.000	0.016	0.231
-381.946	-200.000	0.017	-0.091
-380.931	344.071	-0.074	0.144
-379.917	-132.726	-0.240	-0.031
-378.902	-200.000	-0.017	-0.108
-377.888	-200.000	0.029	0.229
-376.873	-90.649	0.130	-0.037
-375.858	-57.213	-0.220	-0.096
-374.844	98.858	-0.084	0.097
-373.829	-72.892	0.455	0.167
-372.815	-50.022	-0.247	0.117
-371.800	-200.000	0.030	-0.146
-370.785	0.615	0.170	0.121
-369.771	-55.506	0.338	-0.151
-368.756	-115.192	-0.416	-0.078
-367.742	-200.000	-0.021	-0.125
-366.727	-200.000	-0.007	-0.475
-365.712	-25.116	-0.232	0.137
-364.698	-128.265	-0.212	-0.030
-363.683	189.920	-0.088	0.131
-362.669	-65.552	0.121	0.048
-361.654	-149.533	0.124	0.010
-360.639	800.000	0.058	0.170
-359.625	-200.000	-0.010	-0.355
-358.610	66.972	-0.110	0.111
-357.596	140.119	0.120	0.157
-356.581	374.592	0.103	-0.209
-355.566	624.332	0.106	0.265
-354.552	-6.012	0.494	-0.336
-353.537	-87.535	-0.141	0.043
-352.523	373.689	-0.036	-0.074
-351.508	3.102	-0.157	0.113
-350.493	-200.000	-0.022	-0.149
-349.479	-0.426	0.199	0.141
-348.464	-38.436	0.183	-0.096
-347.450	61.024	-0.183	-0.181
-346.435	-40.965	-0.317	0.163
-345.420	800.000	0.137	0.410
-344.406	-62.801	0.024	0.010
-343.391	-200.000	-0.060	0.423
-342.377	539.128	-0.114	0.270
-341.362	784.365	0.132	0.360
-340.348	32.847	-0.167	0.144
-339.333	228.929	0.092	0.149
-338.318	-8.958	0.195	0.130
-337.304	37.688	0.179	-0.158
-336.289	-50.937	0.049	0.023
-335.275	-40.340	-0.085	-0.044
-334.260	-157.890	0.296	0.017
-333.245	-126.754	0.369	-0.054
-332.231	-122.944	-0.419	0.067
-331.216	800.000	-0.061	0.192
-330.202	-87.721	-0.019	0.006
-329.187	217.005	-0.160	0.253
-328.172	-200.000	0.000	-0.178
-327.158	56.420	0.156	-0.151
-326.143	-87.757	-0.381	0.114
-325.129	9.550	-0.037	0.028
-324.114	-158.497	-0.252	-0.014
-323.099	174.310	0.095	0.136
-322.085	-200.000	0.043	-0.220
-321.070	348.627	0.072	-0.141
-320.056	-49.591	-0.153	0.072
-319.041	569.023	-0.104	-0.251
-318.026	800.000	-0.017	-0.058
-317.012	-85.912	0.149	-0.046
-315.997	-142.762	-0.208	0.020
-314.983	726.615	-0.081	-0.214
-313.968	376.220	-0.043	-0.088
-312.953	76.510	0.223	-0.235
-311.939	-144.870	-0.539	0.049
-310.924	-200.000	0.003	0.028
-309.910	310.543	-0.015	0.028
-308.895	-59.556	-0.102	0.044
-307.880	-46.326	0.236	0.115
-306.866	-142.268	0.377	-0.037
-305.851	800.000	0.048	-0.147
-304.837	-200.000	0.032	-0.193
-303.822	156.237	-0.169	0.232
-302.807	-21.880	-0.042	0.026
-301.793	466.784	-0.106	-0.237
-300.778	-200.000	-0.008	-0.100
-299.764	-138.090	-0.065	0.007
-298.749	241.426	0.091	-0.152
-297.735	-200.000	-0.041	0.375
-296.720	-104.919	0.027	0.006
-295.705	-106.535	0.206	-0.046
-294.691	-200.000	-0.031	0.259
-293.676	-200.000	-0.001	0.182
-292.662	285.290	-0.095	-0.170
-291.647	-57.200	-0.181	-0.079
-290.632	-113.167	-0.119	-0.023
-289.618	96.134	0.191	-0.217
-288.603	-76.682	-0.173	-0.060
-287.589	77.361	0.214	0.225
-286.574	31.614	-0.182	-0.155
-285.559	685.971	-0.047	-0.123
-284.545	181.187	-0.100	0.145
-283.530	-200.000	-0.010	-0.081
-282.516	-200.000	0.054	-0.374
-281.501	3.198	0.165	-0.119
-280.486	-55.006	-0.275	0.123
-279.472	800.000	0.071	0.250
-278.457	-12.289	0.119	0.077
-277.443	128.697	0.096	-0.121
-276.428	27.364	-0.324	-0.270
-275.413	137.279	0.052	0.068
-274.399	-28.162	0.076	0.043
-273.384	-82.208	0.191	0.062
-272.370	-55.011	-0.252	0.112
-271.355	-155.897	-0.225	-0.014
-270.340	-105.387	0.087	0.020
-269.326	-169.938	-0.136	-0.005
-268.311	-191.653	0.297	0.003
-267.297	-95.167	-0.191	0.051
-266.282	77.148	-0.157	0.165
-265.267	64.939	0.253	0.254
-264.253	91.428	-0.282	-0.314
-263.238	-123.487	-0.157	-0.025
-262.224	220.239	-0.130	-0.206
-261.209	246.385	-0.067	-0.112
-260.195	-200.000	-0.001	-0.115
-259.180	397.533	0.080	0.167
-258.165	-74.941	-0.115	-0.041
-257.151	186.655	-0.163	-0.240
-256.136	-200.000	-0.002	0.225
-255.122	108.746	0.104	-0.123
-254.107	320.809	-0.091	-0.172
-253.092	69.382	0.232	-0.237
-252.078	-200.000	-0.016	-0.271
-251.063	-134.468	0.478	-0.058
-250.049	569.898	0.076	0.182
-249.034	65.480	0.108	-0.108
-248.019	-200.000	0.011	0.100
-247.005	-83.275	-0.205	0.065
-245.990	119.780	-0.101	0.124
-244.976	22.283	0.253	-0.205
-243.961	-144.248	-0.216	-0.020
-242.946	27.559	0.156	0.130
-241.932	-21.619	0.202	0.122
-240.917	64.645	0.030	0.030
-239.903	47.824	0.080	-0.074
-238.888	-11.919	-0.102	0.066
-237.873	-200.000	-0.004	-0.262
-236.859	-42.985	0.263	-0.132
-235.844	124.839	-0.321	-0.400
-234.830	-149.305	0.270	0.021
-233.815	-123.250	-0.240	-0.038
-232.800	701.314	-0.108	0.281
-231.786	-70.484	0.198	0.074
-230.771	230.819	0.218	0.353
-229.757	499.119	-0.094	-0.215
-228.742	190.269	-0.256	-0.380
-227.727	-46.835	0.349	0.169
-226.713	45.708	-0.153	0.140
-225.698	-200.000	0.005	0.115
-224.684	260.964	-0.110	0.188
-223.669	-111.822	0.300	-0.060
-222.655	800.000	0.113	-0.310
-221.640	-200.000	-0.006	0.061
-220.625	185.482	0.233	0.342
-219.611	800.000	-0.034	-0.092
-218.596	47.061	-0.209	-0.192
-217.582	-24.551	0.140	-0.082
-216.567	-200.000	-0.011	-0.170
-215.552	-143.497	0.125	-0.012
-214.538	-114.691	0.162	0.031
-213.523	-195.111	0.262	-0.002
-212.509	-87.724	0.301	0.090
-211.494	-200.000	-0.029	0.233
-210.479	-103.616	-0.131	0.030
-209.465	-166.782	-0.510	-0.021
-208.450	-19.518	0.227	0.139
-207.436	-184.213	-0.284	-0.005
-206.421	-200.000	0.036	0.304
-205.406	800.000	-0.059	0.174
-204.392	-200.000	-0.041	-0.195
-203.377	-17.127	0.085	-0.053
-202.363	-184.593	0.154	-0.002
-201.348	273.650	-0.021	0.037
-200.333	-153.957	-0.371	-0.025
-199.319	452.968	-0.045	-0.099
-198.304	-80.161	0.063	-0.021
-197.290	-200.000	-0.007	-0.068
-196.275	800.000	0.082	-0.254
-195.260	800.000	-0.074	0.276
-194.246	79.625	0.129	-0.136
-193.231	-104.643	-0.202	0.046
-192.217	365.046	-0.208	0.413
-191.202	-200.000	0.009	-0.104
-190.187	394.852	0.212	-0.436
-189.173	-200.000	-0.039	-0.199
-188.158	-100.909	0.297	-0.072
-187.144	-71.819	0.098	-0.036
-186.129	-133.659	0.506	0.063
-185.114	800.000	-0.036	-0.103
-184.100	-27.834	-0.212	-0.121
-183.085	-2.613	0.097	-0.067
-182.071	-200.000	0.004	0.195
-181.056	166.508	-0.119	0.167
-180.042	-59.466	0.079	0.034
-179.027	12.407	0.104	-0.079
-178.012	-51.768	-0.263	-0.121
-176.998	341.376	-0.033	0.064
-175.983	-44.705	0.211	-0.104
-174.969	800.000	0.016	-0.045
-173.954	-37.160	0.076	0.040
-172.939	604.871	-0.121	0.298
-171.925	-200.000	0.014	-0.367
-170.910	-30.983	-0.407	-0.227
-169.896	564.292	-0.114	0.274
-168.881	-111.508	0.188	0.038
-167.866	800.000	-0.075	-0.209
-166.852	-200.000	-0.055	0.300
-165.837	2.836	-0.184	0.132
-164.823	115.144	-0.071	0.085
-163.808	-146.429	-0.342	0.029
-162.793	-68.420	-0.017	0.006
-161.779	-200.000	-0.054	-0.353
-160.764	-48.332	0.229	-0.109
-159.750	-32.928	0.170	-0.093
-158.735	270.287	-0.080	-0.139
-157.720	-200.000	-0.030	0.235
-156.706	800.000	0.034	0.138
-155.691	-101.240	-0.088	-0.021
-154.677	60.932	0.062	-0.061
-153.662	-15.128	0.229	0.145
-152.647	800.000	-0.056	0.238
-151.633	38.238	-0.032	0.028
-150.618	800.000	-0.059	-0.193
-149.604	-200.000	0.042	-0.294
-148.589	-16.833	0.089	-0.056
-147.574	-150.216	-0.269	-0.021
-146.560	-79.151	-0.185	0.062
-145.545	-119.027	0.165	-0.029
-144.531	-171.410	-0.199	-0.007
-143.516	-200.000	-0.002	-0.027
-142.502	356.948	-0.141	0.277
-141.487	-200.000	0.022	0.154
-140.472	-200.000	0.047	-0.267
-139.458	-51.501	0.181	0.083
-138.443	214.534	-0.183	0.286
-137.429	149.550	-0.132	0.177
-136.414	625.992	-0.081	0.201
-135.399	533.598	0.074	-0.174
-134.385	-112.426	0.110	-0.022
-133.370	-34.482	0.136	0.074
-132.356	-47.737	-0.182	-0.087
-131.341	-174.768	0.120	-0.003
-130.326	-187.073	0.200	-0.003
-129.312	-121.804	0.287	-0.047
-128.297	353.073	0.054	0.106
-127.283	-0.757	0.323	0.226
-126.268	8.918	-0.220	0.164
-125.253	-54.501	-0.047	-0.021
-124.239	-200.000	0.005	-0.131
-123.224	52.499	-0.136	0.128
-122.210	-135.854	0.273	0.032
