DTS Sentinel unit serial number:	SN413079Multiplexer serial number:	ORYXHardware model number:	OX4-SRSoftware version number:	ORYX F/W v4.00 Oryx Data Collector v3.7.2.0data status	okinstallation	princeton_trtdifferential loss correction	single-endedforward channel	channel 2reverse channel	N/Adate	2019/09/10time	22:09:10forward acquisition time	60.00reverse acquisition time	0.00gamma	496.2192k internal	0.2329k external	0.2329temperature offset calibration	0.9945default loss term (dB/km)	0.3790temperature slope calibration	1.0000multiplexer offset coefficient	1.0000multiplexer slope coefficient	1.0000fibre end	0.00T internal ref (°C)	30.58T ext. ref 1 (°C)	-0.31T ext. ref 2 (°C)	23.89length (m)	temperature (°C)	Stokes	anti-Stokes-747.200	91.083	0.035	-0.039
-746.185	381.065	-0.298	0.616
-745.171	-200.000	0.027	0.198
-744.156	-52.750	-0.724	0.336
-743.142	34.359	0.331	0.291
-742.127	62.570	-0.201	0.202
-741.112	151.750	0.234	0.322
-740.098	-23.320	0.184	-0.111
-739.083	-42.388	-0.076	-0.039
-738.069	-8.943	-0.164	-0.110
-737.054	-110.837	-0.049	0.010
-736.039	-200.000	0.006	-0.425
-735.025	-110.843	0.107	-0.022
-734.010	276.099	0.079	-0.141
-732.996	205.918	-0.078	-0.122
-731.981	5.949	-0.116	-0.087
-730.966	216.286	-0.043	0.068
-729.952	186.261	-0.138	-0.207
-728.937	-200.000	0.022	-0.237
-727.923	-157.009	0.163	-0.010
-726.908	-200.000	-0.001	-0.074
-725.894	140.683	-0.252	-0.336
-724.879	-200.000	0.001	-0.108
-723.864	81.912	0.196	-0.214
-722.850	346.818	0.077	-0.152
-721.835	-10.375	-0.084	-0.056
-720.821	-116.951	-0.112	0.021
-719.806	-72.591	-0.093	0.035
-718.791	2.474	-0.207	-0.151
-717.777	-1.676	0.048	-0.034
-716.762	800.000	-0.066	0.195
-715.748	-11.737	0.072	0.047
-714.733	-8.629	-0.150	-0.101
-713.718	511.306	0.072	0.168
-712.704	41.850	0.060	-0.055
-711.689	-112.899	0.224	0.045
-710.675	264.292	0.241	-0.423
-709.660	239.619	-0.136	-0.228
-708.645	-200.000	-0.007	-0.082
-707.631	-106.169	-0.114	0.026
-706.616	137.204	0.258	-0.339
-705.602	800.000	0.021	-0.071
-704.587	-16.550	0.337	-0.215
-703.572	800.000	-0.073	-0.229
-702.558	96.812	0.252	-0.290
-701.543	-200.000	-0.045	-0.305
-700.529	41.772	-0.195	-0.178
-699.514	-200.000	0.008	0.402
-698.499	178.252	0.045	-0.066
-697.485	800.000	-0.071	0.241
-696.470	-103.539	-0.289	-0.068
-695.456	176.396	-0.038	0.056
-694.441	-200.000	0.000	-0.223
-693.426	10.135	0.075	0.057
-692.412	-27.538	0.063	0.037
-691.397	-200.000	0.011	0.277
-690.383	-66.489	-0.294	0.117
-689.368	-200.000	-0.017	0.268
-688.354	498.206	0.038	0.089
-687.339	800.000	0.078	0.240
-686.324	94.485	-0.103	-0.117
-685.310	-26.970	0.080	-0.047
-684.295	-71.281	-0.201	-0.076
-683.281	-200.000	-0.008	-0.041
-682.266	138.445	0.102	-0.134
-681.251	64.946	-0.130	0.132
-680.237	-165.647	0.270	0.012
-679.222	-86.009	-0.219	-0.068
-678.208	179.745	-0.071	0.105
-677.193	800.000	-0.029	0.098
-676.178	-133.289	-0.167	-0.021
-675.164	-131.454	0.273	-0.036
-674.149	0.156	0.029	-0.020
-673.135	800.000	-0.044	-0.193
-672.120	-200.000	-0.032	-0.251
-671.105	-200.000	-0.043	-0.391
-670.091	427.364	-0.166	0.360
-669.076	3.045	-0.368	-0.268
-668.062	800.000	-0.065	0.284
-667.047	32.502	-0.136	-0.118
-666.032	-200.000	-0.015	-0.111
-665.018	224.503	0.080	-0.130
-664.003	767.646	0.130	-0.356
-662.989	-147.369	-0.194	-0.017
-661.974	-73.515	0.301	0.110
-660.959	-142.651	-0.096	-0.009
-659.945	117.629	0.127	0.157
-658.930	211.105	0.092	0.145
-657.916	-200.000	-0.001	0.052
-656.901	411.847	-0.078	-0.166
-655.886	-61.803	-0.171	-0.072
-654.872	-133.119	0.241	-0.031
-653.857	800.000	-0.042	-0.132
-652.843	800.000	-0.093	-0.346
-651.828	506.535	0.151	-0.352
-650.814	-200.000	-0.067	0.394
-649.799	-174.917	-0.215	-0.006
-648.784	-162.030	0.195	-0.010
-647.770	260.658	0.162	-0.281
-646.755	-59.743	0.134	-0.058
-645.741	-54.682	0.466	-0.211
-644.726	121.447	-0.115	-0.144
-643.711	-43.858	-0.323	-0.163
-642.697	-41.091	-0.137	0.071
-641.682	157.395	0.043	-0.060
-640.668	800.000	-0.010	0.045
-639.653	-3.293	0.035	0.024
-638.638	-116.766	0.158	-0.029
-637.624	86.318	0.050	-0.055
-636.609	-132.145	0.386	0.050
-635.595	-200.000	0.031	-0.206
-634.580	-200.000	0.018	-0.212
-633.565	-53.114	0.299	0.138
-632.551	79.990	0.174	0.187
-631.536	-101.030	-0.235	0.058
-630.522	-13.880	-0.189	-0.122
-629.507	-138.533	-0.353	-0.039
-628.492	128.926	-0.108	0.139
-627.478	9.206	-0.277	-0.210
-626.463	-126.179	-0.373	0.056
-625.449	-91.938	-0.595	-0.169
-624.434	-200.000	0.026	-0.122
-623.419	28.073	-0.090	-0.076
-622.405	-200.000	0.006	0.078
-621.390	679.748	-0.032	0.083
-620.376	-200.000	-0.045	-0.285
-619.361	800.000	0.060	-0.218
-618.346	93.731	0.184	-0.209
-617.332	-200.000	-0.001	0.183
-616.317	166.333	-0.212	0.301
-615.303	-68.321	-0.122	0.047
-614.288	221.111	-0.118	-0.189
-613.273	800.000	-0.081	0.238
-612.259	-130.430	-0.243	-0.033
-611.244	-200.000	0.019	-0.331
-610.230	-200.000	-0.062	-0.369
-609.215	-96.556	0.208	0.055
-608.201	-200.000	-0.028	0.221
-607.186	-36.200	0.237	-0.128
-606.171	-48.779	-0.253	-0.122
-605.157	-200.000	0.012	0.135
-604.142	-81.564	0.492	0.162
-603.128	221.470	0.092	0.148
-602.113	800.000	-0.090	-0.311
-601.098	-200.000	0.276	-0.000
-600.084	71.403	0.087	0.091
-599.069	-200.000	-0.041	0.403
-598.055	245.409	-0.060	-0.101
-597.040	24.341	-0.072	-0.060
-596.025	16.249	0.130	-0.103
-595.011	122.984	0.033	0.042
-593.996	-139.128	-0.317	0.034
-592.982	-107.135	-0.196	-0.043
-591.967	278.001	-0.032	0.057
-590.952	-101.611	-0.125	-0.030
-589.938	-64.647	-0.094	0.038
-588.923	-200.000	-0.011	-0.219
-587.909	-25.853	-0.343	-0.202
-586.894	-10.209	-0.081	0.054
-585.879	-32.927	-0.213	0.118
-584.865	224.855	0.108	0.175
-583.850	-1.688	0.065	0.046
-582.836	-35.141	-0.290	0.158
-581.821	-75.014	-0.043	-0.015
-580.806	-200.000	0.020	0.157
-579.792	-104.201	-0.306	-0.071
-578.777	-5.364	-0.250	0.172
-577.763	-59.818	0.302	0.129
-576.748	800.000	-0.038	0.122
-575.733	-43.652	0.096	0.048
-574.719	-162.129	-0.159	-0.008
-573.704	154.537	0.062	-0.085
-572.690	126.665	-0.216	0.274
-571.675	-159.565	-0.164	0.009
-570.661	209.571	-0.226	-0.354
-569.646	800.000	-0.086	-0.316
-568.631	-29.501	-0.143	-0.082
-567.617	-82.278	0.299	-0.097
-566.602	42.889	-0.256	-0.234
-565.588	-48.240	-0.627	-0.303
-564.573	715.365	0.128	-0.339
-563.558	-79.993	0.191	-0.064
-562.544	800.000	-0.117	0.432
-561.529	-30.928	-0.150	0.085
-560.515	42.023	0.235	-0.213
-559.500	-166.698	0.038	-0.002
-558.485	-80.967	-0.294	-0.097
-557.471	-8.297	0.233	-0.157
-556.456	-150.501	-0.226	-0.017
-555.442	-81.167	-0.190	-0.063
-554.427	-200.000	-0.048	0.236
-553.412	-18.994	-0.213	-0.133
-552.398	-165.446	0.418	0.018
-551.383	-1.042	0.097	-0.068
-550.369	267.304	-0.114	0.200
-549.354	212.645	0.187	-0.295
-548.339	-178.608	0.252	0.006
-547.325	-11.311	0.140	-0.092
-546.310	277.983	0.176	-0.313
-545.296	-6.338	0.066	0.045
-544.281	-94.034	-0.661	0.181
-543.266	-200.000	0.009	0.253
-542.252	75.511	-0.301	-0.317
-541.237	214.396	-0.148	-0.235
-540.223	-77.776	0.259	0.090
-539.208	-200.000	0.003	-0.145
-538.193	-25.740	0.198	0.117
-537.179	129.691	0.176	0.224
-536.164	-26.787	-0.174	-0.102
-535.150	-56.751	-0.186	-0.082
-534.135	-200.000	0.002	0.175
-533.121	140.254	0.126	0.166
-532.106	-196.038	-0.377	-0.003
-531.091	86.111	-0.316	-0.348
-530.077	60.449	-0.102	-0.101
-529.062	481.625	0.105	0.239
-528.048	264.047	-0.163	-0.284
-527.033	-138.580	0.231	-0.025
-526.018	-32.762	0.414	-0.230
-525.004	-98.988	0.189	0.048
-523.989	-13.080	0.100	-0.065
-522.975	194.112	-0.236	0.357
-521.960	-143.590	-0.156	0.015
-520.945	-200.000	-0.074	-0.335
-519.931	-37.058	-0.128	0.068
-518.916	19.665	-0.247	0.198
-517.902	-163.087	0.173	0.008
-516.887	-125.536	-0.179	0.027
-515.872	-72.639	0.294	-0.108
-514.858	-67.108	-0.401	-0.158
-513.843	5.937	-0.145	0.107
-512.829	41.975	-0.087	-0.079
-511.814	132.681	0.078	0.101
-510.799	16.097	0.111	0.087
-509.785	-133.679	0.182	-0.023
-508.770	-55.293	-0.243	0.109
-507.756	113.037	0.056	-0.068
-506.741	14.145	0.210	0.163
-505.726	-171.164	0.111	0.004
-504.712	603.733	0.133	-0.330
-503.697	-29.817	-0.110	-0.063
-502.683	-24.144	0.183	-0.109
-501.668	176.613	-0.138	0.200
-500.653	-200.000	0.018	-0.376
-499.639	-200.000	-0.003	0.182
-498.624	-200.000	-0.047	0.264
-497.610	800.000	-0.046	0.197
-496.595	-200.000	0.002	0.074
-495.581	23.077	-0.353	-0.289
-494.566	118.176	0.245	0.301
-493.551	-2.362	-0.105	0.074
-492.537	39.194	0.144	0.129
-491.522	-26.956	-0.192	0.112
-490.508	-57.399	0.133	0.058
-489.493	-99.451	0.220	0.055
-488.478	175.724	0.062	-0.089
-487.464	800.000	0.091	-0.269
-486.449	-58.468	-0.167	0.072
-485.435	800.000	0.151	0.499
-484.420	188.182	0.087	0.129
-483.405	54.103	-0.176	-0.169
-482.391	59.348	-0.027	-0.027
-481.376	56.070	0.271	0.263
-480.362	113.255	0.185	0.224
-479.347	10.048	-0.095	-0.072
-478.332	-99.470	0.123	0.031
-477.318	1.124	-0.177	0.127
-476.303	-0.592	0.011	-0.008
-475.289	-77.116	0.474	0.165
-474.274	-102.395	0.300	-0.072
-473.259	-200.000	-0.005	-0.236
-472.245	32.445	-0.164	-0.142
-471.230	800.000	0.057	-0.187
-470.216	-80.818	0.112	0.037
-469.201	273.012	0.039	0.068
-468.186	-200.000	-0.048	-0.588
-467.172	-38.359	0.202	0.107
-466.157	194.128	0.260	-0.393
-465.143	-72.278	0.134	-0.050
-464.128	-189.702	-0.305	0.003
-463.113	245.819	0.149	0.249
-462.099	106.036	0.277	0.327
-461.084	-200.000	-0.063	0.293
-460.070	-200.000	-0.027	0.187
-459.055	-67.929	-0.394	-0.153
-458.040	-200.000	-0.025	0.167
-457.026	-113.377	0.083	0.016
-456.011	94.426	-0.145	0.165
-454.997	64.377	-0.301	-0.302
-453.982	289.273	0.127	-0.230
-452.968	800.000	-0.037	-0.110
-451.953	-95.085	-0.164	-0.044
-450.938	303.712	0.190	0.351
-449.924	-200.000	0.023	-0.119
-448.909	13.586	-0.232	-0.180
-447.895	150.918	0.108	0.147
-446.880	-189.904	0.169	-0.002
-445.865	37.093	-0.150	0.132
-444.851	-48.930	-0.120	0.057
-443.836	-49.585	-0.184	-0.087
-442.822	95.374	0.120	0.136
-441.807	72.027	0.237	0.246
-440.792	22.084	-0.122	-0.099
-439.778	102.729	0.240	0.279
-438.763	95.509	0.182	0.207
-437.749	-200.000	-0.004	0.370
-436.734	253.030	-0.220	0.374
-435.719	679.400	-0.048	0.124
-434.705	167.916	0.136	-0.193
-433.690	-59.274	-0.220	0.094
-432.676	-200.000	0.040	0.270
-431.661	-200.000	-0.019	-0.128
-430.646	649.362	-0.114	-0.289
-429.632	-200.000	-0.021	-0.141
-428.617	587.675	-0.136	-0.333
-427.603	-200.000	-0.090	0.531
-426.588	-200.000	-0.021	-0.179
-425.573	21.662	-0.257	0.208
-424.559	11.333	-0.216	0.164
-423.544	-140.589	0.149	0.015
-422.530	-3.505	0.156	0.108
-421.515	297.144	-0.090	-0.165
-420.500	47.156	-0.132	0.123
-419.486	230.024	-0.119	0.193
-418.471	-56.955	0.402	0.176
-417.457	-200.000	-0.044	-0.200
-416.442	-200.000	-0.000	-0.077
-415.428	446.896	0.037	0.080
-414.413	136.428	0.131	-0.171
-413.398	-200.000	-0.058	0.350
-412.384	-200.000	-0.006	-0.126
-411.369	-29.258	0.319	0.182
-410.355	-200.000	-0.024	0.326
-409.340	-60.141	-0.132	0.056
-408.325	264.898	0.161	-0.279
-407.311	-200.000	-0.052	-0.279
-406.296	-1.336	-0.050	0.035
-405.282	-166.509	0.388	0.016
-404.267	39.417	0.131	0.117
-403.252	800.000	0.029	-0.121
-402.238	-79.541	0.043	0.015
-401.223	110.896	0.167	-0.200
-400.209	-36.736	0.376	-0.201
-399.194	-81.592	0.273	-0.089
-398.179	-200.000	-0.040	0.321
-397.165	193.033	0.103	-0.154
-396.150	-62.815	-0.240	-0.099
-395.136	385.940	0.200	0.411
-394.121	800.000	-0.063	-0.268
-393.106	140.457	-0.141	-0.185
-392.092	-200.000	0.004	0.244
-391.077	-46.605	-0.141	0.068
-390.063	172.864	-0.195	-0.278
-389.048	-87.171	-0.067	0.020
-388.033	-102.930	-0.254	0.060
-387.019	-85.879	-0.114	0.035
-386.004	-200.000	-0.044	0.238
-384.990	354.227	0.121	0.238
-383.975	-200.000	-0.028	0.299
-382.960	75.686	0.079	0.083
-381.946	42.029	-0.189	-0.170
-380.931	618.814	-0.025	0.061
-379.917	-68.525	-0.155	-0.060
-378.902	51.418	-0.173	0.163
-377.888	800.000	-0.051	-0.192
-376.873	163.615	-0.132	0.185
-375.858	17.508	-0.165	0.130
-374.844	4.412	0.197	-0.143
-373.829	-2.012	0.030	0.021
-372.815	-159.189	0.158	-0.009
-371.800	158.774	0.095	0.132
-370.785	-1.437	0.184	-0.129
-369.771	800.000	-0.049	0.161
-368.756	-200.000	0.041	0.348
-367.742	-53.456	0.242	-0.110
-366.727	277.523	0.145	0.256
-365.712	-70.399	-0.274	0.103
-364.698	-200.000	-0.028	-0.207
-363.683	-121.680	0.158	-0.026
-362.669	31.578	0.112	0.095
-361.654	-13.375	-0.332	0.214
-360.639	288.336	-0.129	0.232
-359.625	793.969	0.034	-0.093
-358.610	-149.355	-0.115	-0.009
-357.596	34.726	-0.118	0.102
-356.581	170.741	0.112	0.159
-355.566	2.652	0.167	0.120
-354.552	-200.000	0.014	-0.139
-353.537	-26.688	0.337	0.195
-352.523	-58.891	0.150	-0.064
-351.508	-200.000	-0.021	0.203
-350.493	-200.000	-0.001	0.072
-349.479	-200.000	-0.005	-0.055
-348.464	93.541	0.035	-0.040
-347.450	95.770	-0.018	-0.021
-346.435	-121.735	0.439	-0.072
-345.420	-37.990	0.265	-0.139
-344.406	-95.946	0.138	-0.037
-343.391	-68.892	-0.040	0.015
-342.377	274.385	0.181	-0.318
-341.362	-7.377	-0.168	0.113
-340.348	109.497	0.098	-0.117
-339.333	-96.839	0.377	0.098
-338.318	-197.065	0.058	0.000
-337.304	-186.474	0.315	0.004
-336.289	-146.754	-0.124	0.011
-335.275	23.095	0.120	-0.097
-334.260	702.686	-0.076	-0.199
-333.245	-131.097	-0.064	-0.008
-332.231	-72.323	0.018	-0.007
-331.216	241.821	0.094	0.155
-330.202	569.870	0.054	-0.130
-329.187	139.130	-0.117	-0.153
-328.172	-123.667	-0.197	0.031
-327.158	-131.930	0.085	0.011
-326.143	-36.065	-0.340	0.182
-325.129	513.831	-0.014	-0.032
-324.114	151.738	-0.148	0.199
-323.099	-33.982	0.097	0.053
-322.085	-199.374	0.185	-0.001
-321.070	-168.301	0.350	0.013
-320.056	251.735	-0.112	-0.188
-319.041	800.000	0.046	-0.163
-318.026	239.795	0.088	0.146
-317.012	378.266	0.136	-0.275
-315.997	206.036	0.110	0.169
-314.983	-118.426	-0.188	0.033
-313.968	800.000	0.046	-0.159
-312.953	279.312	0.241	0.427
-311.939	800.000	-0.048	0.146
-310.924	23.449	0.201	0.163
-309.910	-98.959	-0.494	0.124
-308.895	29.225	-0.280	-0.235
-307.880	171.807	0.305	-0.434
-306.866	32.080	-0.067	0.057
-305.851	201.464	-0.223	-0.339
-304.837	-24.992	0.498	-0.292
-303.822	226.875	0.074	0.119
-302.807	6.629	0.099	0.073
-301.793	-64.590	-0.121	0.048
-300.778	-200.000	-0.005	0.370
-299.764	-8.766	0.140	-0.093
-298.749	-200.000	0.066	0.357
-297.735	-68.348	-0.327	0.126
-296.720	-149.194	-0.159	0.013
-295.705	170.177	-0.272	0.385
-294.691	86.450	0.221	0.241
-293.676	-65.335	0.211	0.084
-292.662	11.277	-0.237	0.179
-291.647	-200.000	-0.023	-0.595
-290.632	-11.736	-0.170	0.110
-289.618	-163.562	0.223	-0.010
-288.603	-93.861	-0.057	0.015
-287.589	-90.393	0.241	-0.069
-286.574	-44.059	-0.236	-0.117
-285.559	593.974	0.066	-0.161
-284.545	37.141	-0.149	0.130
-283.530	160.774	-0.191	0.264
-282.516	800.000	0.061	-0.236
-281.501	-107.043	-0.099	-0.022
-280.486	-191.052	0.262	0.003
-279.472	-200.000	-0.008	-0.112
-278.457	787.249	0.117	-0.317
-277.443	800.000	0.097	0.281
-276.428	277.689	0.150	0.264
-275.413	-107.717	-0.239	0.052
-274.399	800.000	0.018	-0.049
-273.384	-35.678	0.195	-0.104
-272.370	78.005	-0.178	-0.188
-271.355	24.427	0.035	-0.028
-270.340	68.785	0.282	-0.286
-269.326	-174.677	0.145	0.004
-268.311	337.266	0.098	0.188
-267.297	-26.650	-0.244	0.141
-266.282	-200.000	0.072	-0.453
-265.267	451.039	-0.078	0.170
-264.253	-200.000	-0.003	-0.217
-263.238	-0.092	-0.068	0.048
-262.224	-139.048	0.053	0.006
-261.209	8.299	-0.196	0.145
-260.195	-200.000	0.043	-0.318
-259.180	-103.822	0.173	0.040
-258.165	800.000	-0.099	0.332
-257.151	172.441	-0.247	0.351
-256.136	-7.609	0.185	-0.124
-255.122	248.064	-0.100	0.166
-254.107	800.000	-0.030	0.103
-253.092	-200.000	0.196	-0.001
-252.078	-56.045	-0.300	-0.132
-251.063	357.087	0.103	0.202
-250.049	99.341	0.191	0.219
-249.034	219.605	-0.080	-0.127
-248.019	-121.000	0.284	0.047
-247.005	352.230	-0.059	0.116
-245.990	-11.788	-0.093	-0.060
-244.976	369.760	0.072	0.144
-243.961	-200.000	0.048	-0.226
-242.946	-55.052	0.190	-0.084
-241.932	121.535	0.156	0.192
-240.917	-200.000	-0.011	0.191
-239.903	3.392	-0.222	-0.160
-238.888	244.582	-0.109	0.181
-237.873	-51.476	-0.279	-0.129
-236.859	-99.852	-0.117	0.029
-235.844	-200.000	0.019	-0.129
-234.830	-200.000	0.058	-0.391
-233.815	-3.760	0.103	0.071
-232.800	-9.837	-0.114	-0.075
-231.786	174.623	-0.196	-0.280
-230.771	-51.706	0.385	-0.177
-229.757	78.903	0.115	0.121
-228.742	-200.000	0.004	0.197
-227.727	144.014	0.295	0.389
-226.713	257.773	-0.104	0.176
-225.698	-143.406	-0.082	0.008
-224.684	-200.000	0.015	0.106
-223.669	14.178	-0.115	-0.089
-222.655	-83.507	-0.253	-0.080
-221.640	800.000	-0.009	-0.031
-220.625	45.327	0.309	-0.281
-219.611	-76.622	0.397	0.137
-218.596	388.247	-0.206	0.421
-217.582	1.412	-0.345	0.245
-216.567	81.349	-0.091	0.097
-215.552	-74.862	0.240	-0.085
-214.538	-69.841	0.402	0.151
-213.523	-200.000	0.024	-0.200
-212.509	800.000	-0.142	-0.507
-211.494	269.576	0.031	-0.054
-210.479	7.544	0.111	-0.082
-209.465	-86.229	0.126	0.038
-208.450	80.707	-0.149	-0.159
-207.436	-89.098	0.232	-0.068
-206.421	75.411	0.139	0.145
-205.406	117.937	0.150	-0.182
-204.392	2.697	-0.044	-0.031
-203.377	-200.000	-0.024	-0.297
-202.363	-87.291	-0.122	0.037
-201.348	475.622	-0.079	0.176
-200.333	539.290	-0.121	-0.285
-199.319	-60.131	0.241	-0.102
-198.304	290.116	-0.097	0.173
-197.290	-46.956	0.346	-0.167
-196.275	-147.051	-0.301	0.025
-195.260	-31.717	0.227	-0.125
-194.246	800.000	-0.004	-0.015
-193.231	767.725	-0.089	0.238
-192.217	-144.532	-0.137	-0.013
-191.202	-155.368	-0.280	-0.018
-190.187	127.797	-0.141	0.176
-189.173	-13.673	-0.085	0.054
-188.158	-63.961	-0.094	-0.038
-187.144	-115.683	0.374	0.069
-186.129	55.251	0.068	-0.065
-185.114	-62.888	0.206	-0.084
-184.100	121.577	0.152	-0.186
-183.085	139.888	-0.086	-0.112
-182.071	-78.053	0.366	-0.124
-181.056	186.678	0.084	0.123
-180.042	800.000	0.085	-0.284
-179.027	290.822	0.020	0.037
-178.012	145.631	-0.131	-0.172
-176.998	-128.544	-0.094	-0.013
-175.983	-104.859	-0.235	0.053
-174.969	-61.444	-0.299	-0.124
-173.954	82.604	0.092	-0.098
-172.939	-200.000	0.023	-0.322
-171.925	800.000	-0.018	-0.055
-170.910	-200.000	-0.022	0.247
-169.896	-32.349	0.200	0.110
-168.881	-23.807	-0.139	0.082
-167.866	800.000	0.057	-0.195
-166.852	-200.000	-0.062	0.303
-165.837	67.551	0.251	0.252
-164.823	-24.446	-0.072	-0.042
-163.808	6.997	-0.160	-0.117
-162.793	-60.840	-0.228	-0.095
-161.779	-200.000	0.036	-0.167
-160.764	644.313	-0.122	-0.307
-159.750	124.096	-0.073	-0.090
-158.735	-135.609	-0.119	-0.014
-157.720	-8.849	0.078	0.052
-156.706	-188.074	0.151	-0.002
-155.691	9.776	-0.121	-0.091
-154.677	58.327	-0.116	0.112
-153.662	-67.534	0.012	0.005
-152.647	-200.000	0.041	-0.261
-151.633	-138.827	0.176	0.019
-150.618	-12.174	-0.102	-0.065
-149.604	101.007	0.045	0.052
-148.589	19.940	-0.073	-0.058
-147.574	45.450	0.181	0.164
-146.560	800.000	-0.038	-0.111
-145.545	-200.000	0.003	0.065
-144.531	800.000	-0.049	0.168
-143.516	-79.754	-0.079	0.026
-142.502	-83.657	-0.256	-0.081
-141.487	-200.000	0.013	0.109
-140.472	0.668	-0.159	-0.112
-139.458	-168.066	-0.338	-0.013
-138.443	-85.369	0.208	-0.064
-137.429	-200.000	-0.056	0.299
-136.414	-29.000	-0.224	-0.126
-135.399	247.537	0.122	-0.203
-134.385	566.720	0.037	0.089
-133.370	50.520	-0.215	-0.200
-132.356	-63.052	-0.111	0.045
-131.341	138.312	-0.182	-0.235
-130.326	-36.026	-0.037	0.020
-129.312	-200.000	0.010	-0.230
-128.297	-69.723	0.255	-0.096
-127.283	8.044	-0.410	0.302
-126.268	800.000	-0.107	-0.327
-125.253	-137.914	0.113	-0.012
-124.239	-9.951	0.124	0.081
-123.224	-143.044	-0.235	-0.022
-122.210	800.000	-0.038	-0.150
-121.195	158.863	-0.206	-0.281
