DTS Sentinel unit serial number:	SN413079Multiplexer serial number:	ORYXHardware model number:	OX4-SRSoftware version number:	ORYX F/W v4.00 Oryx Data Collector v3.7.2.0data status	okinstallation	princeton_trtdifferential loss correction	single-endedforward channel	channel 2reverse channel	N/Adate	2019/09/10time	22:49:10forward acquisition time	60.00reverse acquisition time	0.00gamma	496.2192k internal	0.2329k external	0.2329temperature offset calibration	0.9944default loss term (dB/km)	0.3790temperature slope calibration	1.0000multiplexer offset coefficient	1.0000multiplexer slope coefficient	1.0000fibre end	0.00T internal ref (°C)	30.12T ext. ref 1 (°C)	-0.32T ext. ref 2 (°C)	23.50length (m)	temperature (°C)	Stokes	anti-Stokes-747.200	-11.567	-0.189	-0.125
-746.185	35.674	-0.329	-0.291
-745.171	71.317	-0.052	0.054
-744.156	20.275	0.152	0.124
-743.142	-34.025	0.299	-0.166
-742.127	-143.881	0.102	0.010
-741.112	-127.122	-0.232	-0.034
-740.098	-200.000	0.005	0.320
-739.083	-200.000	0.005	0.165
-738.069	2.317	-0.181	-0.132
-737.054	800.000	-0.012	-0.050
-736.039	59.057	-0.193	-0.191
-735.025	-200.000	0.054	0.290
-734.010	340.147	-0.163	-0.320
-732.996	800.000	0.074	-0.274
-731.981	-138.232	-0.253	-0.028
-730.966	-71.512	0.147	-0.055
-729.952	448.665	-0.013	0.028
-728.937	-94.600	-0.171	-0.047
-727.923	-24.160	-0.022	-0.013
-726.908	241.099	-0.093	-0.156
-725.894	19.964	-0.194	-0.157
-724.879	17.504	-0.431	-0.345
-723.864	240.873	-0.093	-0.156
-722.850	-15.929	-0.129	-0.083
-721.835	-49.735	0.175	-0.084
-720.821	-98.865	0.134	-0.034
-719.806	11.808	0.119	0.092
-718.791	-200.000	0.087	0.000
-717.777	-56.021	0.286	0.128
-716.762	-57.866	-0.142	-0.063
-715.748	77.321	0.304	-0.325
-714.733	-149.485	-0.055	0.004
-713.718	-72.001	0.027	-0.010
-712.704	324.286	-0.045	-0.086
-711.689	800.000	-0.091	-0.317
-710.675	800.000	0.147	-0.412
-709.660	-171.755	-0.611	0.020
-708.645	-6.275	0.507	-0.348
-707.631	800.000	0.043	-0.181
-706.616	195.259	0.104	0.159
-705.602	-200.000	0.010	-0.045
-704.587	86.112	0.090	-0.100
-703.572	-135.212	-0.160	0.019
-702.558	403.908	0.158	0.335
-701.543	-37.219	-0.031	-0.016
-700.529	-27.117	-0.417	-0.245
-699.514	20.563	0.264	-0.215
-698.499	-200.000	0.004	-0.112
-697.485	104.434	0.071	0.084
-696.470	-22.819	-0.214	-0.130
-695.456	-41.197	0.351	-0.182
-694.441	-104.810	-0.096	-0.022
-693.426	223.849	0.053	-0.087
-692.412	-200.000	-0.013	-0.198
-691.397	-200.000	0.016	-0.423
-690.383	-93.725	0.293	-0.081
-689.368	-131.061	-0.099	0.013
-688.354	518.229	0.036	-0.085
-687.339	800.000	-0.027	0.092
-686.324	57.801	-0.234	-0.230
-685.310	293.207	-0.165	0.302
-684.295	22.467	-0.057	-0.047
-683.281	-15.538	-0.170	-0.109
-682.266	-40.940	-0.230	0.120
-681.251	434.935	0.153	-0.335
-680.237	494.431	0.087	-0.201
-679.222	216.893	0.062	-0.100
-678.208	800.000	0.063	-0.241
-677.193	698.259	0.154	-0.407
-676.178	145.402	-0.075	-0.101
-675.164	-200.000	-0.014	-0.142
-674.149	-138.234	-0.344	0.038
-673.135	800.000	-0.056	0.186
-672.120	-80.666	-0.354	-0.118
-671.105	800.000	-0.032	0.093
-670.091	-200.000	-0.046	-0.206
-669.076	606.835	-0.051	0.127
-668.062	102.457	0.048	0.056
-667.047	-200.000	-0.006	-0.260
-666.032	376.745	0.029	0.060
-665.018	104.576	-0.248	0.293
-664.003	325.831	-0.120	-0.231
-662.989	800.000	0.107	-0.300
-661.974	-193.949	0.174	0.001
-660.959	481.793	0.078	-0.178
-659.945	-109.352	-0.341	0.072
-658.930	402.593	0.116	-0.245
-657.916	-92.660	0.100	-0.028
-656.901	-200.000	0.037	0.191
-655.886	800.000	0.055	-0.166
-654.872	800.000	-0.189	-0.542
-653.857	-110.242	0.239	0.050
-652.843	-22.168	0.234	-0.143
-651.828	-65.126	-0.143	-0.058
-650.814	503.653	0.042	0.097
-649.799	-74.999	-0.227	-0.082
-648.784	-82.091	0.163	0.053
-647.770	31.523	-0.060	-0.052
-646.755	90.811	0.048	-0.054
-645.741	47.357	-0.183	-0.171
-644.726	31.064	0.165	-0.142
-643.711	-55.214	0.136	-0.061
-642.697	-193.933	-0.091	0.001
-641.682	54.736	-0.224	-0.217
-640.668	-166.617	0.317	0.013
-639.653	-200.000	0.034	-0.311
-638.638	-200.000	-0.038	0.232
-637.624	-200.000	0.008	0.107
-636.609	800.000	-0.079	0.345
-635.595	800.000	0.029	0.113
-634.580	-87.618	0.181	-0.055
-633.565	41.406	0.172	-0.156
-632.551	-191.935	-0.397	0.004
-631.536	800.000	-0.106	-0.366
-630.522	181.383	-0.235	-0.347
-629.507	-97.084	0.197	0.052
-628.492	800.000	-0.077	-0.218
-627.478	-191.215	-0.257	0.003
-626.463	138.650	0.157	0.207
-625.449	800.000	-0.022	-0.088
-624.434	-47.020	-0.272	0.133
-623.419	-200.000	-0.008	-0.127
-622.405	13.838	0.300	-0.234
-621.390	-75.291	-0.074	-0.027
-620.376	246.115	0.160	-0.269
-619.361	125.323	0.108	-0.136
-618.346	74.708	0.180	-0.190
-617.332	-200.000	0.036	-0.176
-616.317	-57.607	-0.168	-0.074
-615.303	-200.000	-0.038	0.242
-614.288	69.044	0.131	0.135
-613.273	-3.448	-0.233	0.162
-612.259	282.228	0.128	-0.230
-611.244	-139.298	-0.331	-0.036
-610.230	-44.077	-0.097	0.049
-609.215	800.000	0.036	0.130
-608.201	-91.620	-0.245	-0.070
-607.186	-132.026	-0.382	0.050
-606.171	-200.000	-0.001	0.062
-605.157	-164.455	0.214	0.010
-604.142	97.390	0.068	0.079
-603.128	21.181	0.139	0.113
-602.113	384.142	-0.053	-0.110
-601.098	800.000	0.060	-0.242
-600.084	318.314	0.087	-0.165
-599.069	-29.292	0.517	0.297
-598.055	330.976	-0.070	0.135
-597.040	-5.522	-0.103	-0.071
-596.025	-200.000	-0.041	-0.339
-595.011	800.000	-0.026	0.102
-593.996	-200.000	0.007	0.158
-592.982	-134.713	-0.270	0.033
-591.967	800.000	-0.032	-0.094
-590.952	-183.225	-0.327	0.006
-589.938	-200.000	0.016	0.166
-588.923	-137.631	-0.279	-0.031
-587.909	-105.833	0.187	0.042
-586.894	-121.920	-0.149	0.025
-585.879	-42.804	-0.107	-0.055
-584.865	579.931	0.183	-0.449
-583.850	-161.093	-0.258	0.014
-582.836	166.481	0.107	0.152
-581.821	800.000	-0.063	-0.176
-580.806	-9.419	0.237	0.159
-579.792	800.000	-0.072	-0.258
-578.777	-39.637	-0.390	-0.204
-577.763	-200.000	-0.008	-0.216
-576.748	46.109	0.390	0.361
-575.733	-87.140	0.070	-0.021
-574.719	-23.918	0.086	-0.051
-573.704	-25.823	0.102	-0.060
-572.690	-97.570	-0.256	-0.066
-571.675	292.764	0.092	-0.168
-570.661	-45.935	0.224	-0.111
-569.646	800.000	0.135	0.377
-568.631	500.473	-0.144	0.331
-567.617	260.598	0.075	-0.130
-566.602	148.237	-0.277	-0.374
-565.588	-190.310	0.083	0.001
-564.573	21.489	-0.369	0.300
-563.558	-131.143	-0.236	-0.031
-562.544	22.322	0.339	-0.277
-561.529	-168.773	0.413	0.016
-560.515	800.000	-0.075	0.251
-559.500	80.155	-0.346	0.372
-558.485	800.000	0.090	0.279
-557.471	-168.028	0.114	0.004
-556.456	-92.264	-0.102	0.029
-555.442	-200.000	0.042	0.527
-554.427	430.161	-0.105	-0.226
-553.412	-200.000	-0.008	0.254
-552.398	104.478	0.077	0.091
-551.383	-82.742	-0.334	0.108
-550.369	121.305	-0.337	0.420
-549.354	-91.727	-0.260	-0.074
-548.339	462.566	0.142	0.317
-547.325	-200.000	-0.009	0.175
-546.310	-126.757	-0.056	0.008
-545.296	-46.390	-0.377	-0.185
-544.281	-200.000	-0.020	-0.145
-543.266	-140.196	-0.221	-0.023
-542.252	113.940	-0.083	0.101
-541.237	116.065	-0.403	-0.494
-540.223	-64.037	0.330	0.135
-539.208	-86.264	-0.221	-0.068
-538.193	100.408	0.174	-0.202
-537.179	800.000	0.068	-0.266
-536.164	-89.706	-0.276	0.081
-535.150	375.493	-0.051	-0.103
-534.135	-200.000	0.035	0.305
-533.121	-183.496	0.050	-0.001
-532.106	-113.741	-0.122	-0.024
-531.091	226.639	-0.075	-0.121
-530.077	800.000	0.121	-0.400
-529.062	-200.000	0.002	-0.098
-528.048	-200.000	-0.004	-0.074
-527.033	-200.000	-0.000	-0.085
-526.018	-200.000	-0.032	0.236
-525.004	-139.144	-0.300	-0.032
-523.989	39.758	-0.239	-0.214
-522.975	-200.000	-0.045	-0.320
-521.960	-22.372	0.050	-0.030
-520.945	800.000	-0.133	0.469
-519.931	326.453	0.091	0.174
-518.916	-133.517	0.123	-0.015
-517.902	-192.554	-0.205	0.002
-516.887	264.602	-0.137	-0.239
-515.872	358.587	-0.070	-0.139
-514.858	-48.866	-0.389	-0.186
-513.843	-83.208	-0.282	0.090
-512.829	-79.903	0.344	0.116
-511.814	54.797	0.107	-0.103
-510.799	-129.616	0.302	0.042
-509.785	-84.589	-0.107	0.034
-508.770	-32.245	-0.111	0.062
-507.756	800.000	-0.040	0.112
-506.741	63.011	-0.168	0.168
-505.726	683.457	0.055	0.143
-504.712	248.094	-0.050	-0.084
-503.697	800.000	0.058	0.211
-502.683	-200.000	-0.035	0.168
-501.668	758.763	0.099	0.268
-500.653	189.922	-0.102	0.153
-499.639	800.000	0.122	-0.375
-498.624	16.111	-0.112	0.088
-497.610	34.531	-0.192	-0.167
-496.595	7.008	-0.120	0.089
-495.581	-89.753	0.137	0.040
-494.566	800.000	-0.021	0.077
-493.551	-33.439	0.135	0.075
-492.537	-200.000	0.029	0.368
-491.522	467.752	-0.080	-0.180
-490.508	-121.861	-0.279	0.046
-489.493	61.029	0.400	-0.396
-488.478	-200.000	0.002	-0.172
-487.464	-93.896	-0.152	0.042
-486.449	-1.655	0.212	0.149
-485.435	-163.586	0.232	0.011
-484.420	800.000	-0.037	-0.146
-483.405	-119.171	0.347	0.060
-482.391	-170.506	0.308	0.011
-481.376	-104.038	-0.128	-0.030
-480.362	-74.962	0.236	-0.084
-479.347	11.996	-0.167	-0.128
-478.332	268.413	-0.139	0.243
-477.318	-69.494	0.354	0.135
-476.303	-200.000	-0.017	0.271
-475.289	-153.210	-0.431	0.030
-474.274	-18.425	-0.079	-0.049
-473.259	-50.240	-0.244	0.115
-472.245	25.783	-0.280	-0.232
-471.230	255.820	-0.038	-0.065
-470.216	-148.145	0.195	0.016
-469.201	-19.889	0.093	-0.057
-468.186	-140.884	-0.146	-0.015
-467.172	-54.719	-0.202	0.091
-466.157	-132.406	0.156	-0.020
-465.143	800.000	0.010	0.027
-464.128	-115.917	-0.309	0.057
-463.113	-19.260	-0.078	-0.048
-462.099	60.919	0.074	-0.074
-461.084	342.054	-0.040	-0.077
-460.070	-33.520	-0.260	0.143
-459.055	31.109	-0.231	-0.197
-458.040	-40.941	-0.325	-0.167
-457.026	-186.755	-0.097	-0.001
-456.011	800.000	0.089	0.246
-454.997	-200.000	0.028	-0.151
-453.982	-72.283	-0.284	-0.105
-452.968	13.420	-0.100	0.078
-451.953	800.000	0.019	0.083
-450.938	-200.000	-0.003	-0.317
-449.924	478.480	-0.158	-0.356
-448.909	800.000	0.008	-0.024
-447.895	800.000	0.123	-0.349
-446.880	800.000	-0.040	0.138
-445.865	725.880	0.043	-0.114
-444.851	462.044	0.111	0.246
-443.836	-200.000	0.001	0.169
-442.822	800.000	-0.054	-0.211
-441.807	-64.203	0.125	0.051
-440.792	-200.000	-0.046	0.316
-439.778	-47.974	-0.245	-0.118
-438.763	412.732	0.043	-0.091
-437.749	434.727	0.050	-0.109
-436.734	713.103	0.085	0.224
-435.719	182.670	0.017	0.024
-434.705	192.153	-0.132	-0.199
-433.690	90.452	-0.245	0.273
-432.676	-60.126	-0.225	0.095
-431.661	-3.186	0.324	0.225
-430.646	-200.000	0.022	0.137
-429.632	40.039	0.091	-0.081
-428.617	800.000	-0.053	-0.205
-427.603	-200.000	-0.008	-0.214
-426.588	-105.685	0.044	-0.010
-425.573	42.519	-0.142	-0.129
-424.559	286.363	-0.094	0.168
-423.544	-111.225	-0.019	-0.004
-422.530	-200.000	-0.007	0.039
-421.515	-120.417	-0.176	0.030
-420.500	-136.400	-0.477	-0.055
-419.486	88.268	0.170	0.188
-418.471	224.964	-0.023	0.037
-417.457	800.000	0.077	0.307
-416.442	739.234	0.098	0.263
-415.428	-200.000	-0.050	0.322
-414.413	59.435	0.082	0.080
-413.398	-37.729	-0.120	-0.064
-412.384	-157.855	-0.153	0.009
-411.369	-139.939	0.167	0.018
-410.355	-116.265	0.034	0.006
-409.340	-136.845	0.392	0.045
-408.325	151.169	-0.231	-0.313
-407.311	800.000	-0.102	-0.329
-406.296	-200.000	-0.029	-0.322
-405.282	442.326	0.183	0.398
-404.267	-112.135	-0.118	0.024
-403.252	560.699	-0.010	0.023
-402.238	-151.918	-0.159	0.012
-401.223	35.172	0.202	0.176
-400.209	-198.899	0.322	0.002
-399.194	49.452	0.360	0.337
-398.179	99.408	-0.185	-0.213
-397.165	-103.207	-0.124	-0.029
-396.150	17.137	0.152	0.120
-395.136	155.594	0.049	-0.067
-394.121	-17.359	-0.254	0.159
-393.106	-200.000	0.033	-0.146
-392.092	-200.000	-0.016	-0.298
-391.077	80.737	-0.211	0.226
-390.063	-39.322	-0.232	0.121
-389.048	-17.838	-0.169	-0.105
-388.033	194.784	0.188	0.283
-387.019	-93.207	0.194	-0.054
-386.004	-92.763	-0.352	0.098
-384.990	-117.739	-0.391	-0.070
-383.975	-200.000	0.029	0.270
-382.960	-200.000	0.087	0.416
-381.946	-200.000	-0.010	-0.051
-380.931	205.052	-0.102	0.157
-379.917	-56.191	0.165	0.073
-378.902	692.340	-0.062	-0.161
-377.888	-200.000	0.003	-0.326
-376.873	800.000	-0.022	0.070
-375.858	-128.468	0.105	-0.015
-374.844	-121.783	-0.231	0.038
-373.829	-200.000	0.016	-0.093
-372.815	-27.143	-0.332	-0.192
-371.800	152.955	-0.121	0.164
-370.785	800.000	0.079	-0.251
-369.771	-105.504	0.309	-0.070
-368.756	59.432	0.275	0.269
-367.742	152.381	0.319	-0.433
-366.727	141.699	0.180	0.236
-365.712	-200.000	-0.013	0.113
-364.698	-19.264	-0.052	-0.032
-363.683	96.439	-0.040	-0.045
-362.669	51.178	-0.152	0.143
-361.654	-200.000	-0.043	-0.212
-360.639	-200.000	-0.031	0.217
-359.625	341.995	0.166	0.323
-358.610	302.772	-0.087	0.160
-357.596	34.866	0.009	-0.008
-356.581	-43.427	0.119	-0.060
-355.566	-200.000	0.049	-0.218
-354.552	-20.930	0.071	0.043
-353.537	-200.000	-0.020	-0.123
-352.523	491.290	0.126	0.287
-351.508	-94.001	0.303	0.082
-350.493	182.019	-0.175	-0.256
-349.479	-92.281	-0.067	0.019
-348.464	-70.304	-0.089	-0.033
-347.450	-84.956	0.250	0.078
-346.435	-200.000	0.113	-0.494
-345.420	800.000	-0.061	-0.167
-344.406	-96.446	0.298	0.078
-343.391	53.794	-0.189	-0.180
-342.377	-108.719	-0.108	0.023
-341.362	187.928	0.098	-0.145
-340.348	-119.640	0.267	0.046
-339.333	-55.799	0.113	0.050
-338.318	-35.022	0.321	0.174
-337.304	632.942	-0.046	-0.116
-336.289	-14.752	0.236	0.150
-335.275	306.745	-0.060	0.110
-334.260	-124.937	-0.279	-0.043
-333.245	400.027	0.061	0.126
-332.231	-94.945	0.210	0.056
-331.216	-77.595	0.286	-0.098
-330.202	-61.830	-0.292	-0.121
-329.187	34.882	-0.065	-0.056
-328.172	-10.389	0.177	-0.116
-327.158	-98.863	-0.518	-0.130
-326.143	229.112	-0.172	-0.278
-325.129	103.535	-0.176	-0.205
-324.114	74.639	0.114	0.119
-323.099	-72.314	0.263	0.097
-322.085	-71.054	-0.246	-0.092
-321.070	79.273	-0.264	0.280
-320.056	131.145	-0.050	-0.064
-319.041	800.000	0.126	-0.359
-318.026	60.362	-0.346	-0.339
-317.012	-150.337	0.180	0.014
-315.997	-97.853	0.111	0.028
-314.983	101.685	0.246	0.284
-313.968	591.987	0.055	0.135
-312.953	562.698	0.095	-0.229
-311.939	19.852	0.155	-0.124
-310.924	-200.000	-0.020	0.118
-309.910	14.588	0.070	-0.054
-308.895	197.019	-0.064	0.097
-307.880	180.237	0.051	-0.073
-306.866	800.000	0.081	-0.300
-305.851	211.486	0.187	-0.291
-304.837	249.741	0.156	0.262
-303.822	-200.000	-0.002	-0.053
-302.807	-56.590	0.035	-0.015
-301.793	265.722	-0.109	-0.188
-300.778	-69.204	0.299	-0.114
-299.764	108.913	0.116	0.137
-298.749	-200.000	0.009	0.047
-297.735	-23.312	-0.276	-0.164
-296.720	208.055	0.197	-0.304
-295.705	126.188	-0.039	-0.048
-294.691	-194.602	-0.338	0.003
-293.676	-107.447	0.088	-0.019
-292.662	-155.592	-0.177	0.011
-291.647	-112.715	-0.362	0.071
-290.632	73.752	0.112	0.116
-289.618	-116.992	0.168	-0.030
-288.603	-200.000	-0.013	-0.119
-287.589	33.674	-0.154	0.132
-286.574	-73.635	0.100	0.036
-285.559	-88.530	0.253	-0.075
-284.545	-200.000	0.268	-0.001
-283.530	188.083	0.220	-0.326
-282.516	-186.712	0.013	-0.000
-281.501	-11.565	0.218	-0.142
-280.486	652.905	0.126	0.319
-279.472	-70.998	-0.378	0.141
-278.457	-3.129	-0.217	-0.150
-277.443	-200.000	-0.037	-0.367
-276.428	-140.973	-0.244	0.025
-275.413	-200.000	0.002	0.352
-274.399	-100.371	0.242	0.059
-273.384	800.000	-0.111	-0.305
-272.370	-64.431	0.030	-0.012
-271.355	-200.000	-0.028	-0.246
-270.340	-95.292	0.117	-0.031
-269.326	-174.945	-0.165	-0.005
-268.311	-66.184	0.334	0.131
-267.297	-160.487	-0.313	-0.017
-266.282	-164.615	-0.139	0.006
-265.267	-190.044	-0.069	0.001
-264.253	-200.000	0.045	0.468
-263.238	-200.000	-0.009	-0.137
-262.224	483.352	0.073	0.164
-261.209	-111.051	0.102	-0.021
-260.195	-31.208	0.144	0.080
-259.180	366.759	-0.078	0.155
-258.165	-111.923	0.263	-0.053
-257.151	-200.000	0.018	0.088
-256.136	67.536	-0.102	-0.103
-255.122	11.658	0.224	-0.170
-254.107	106.987	0.264	-0.309
-253.092	22.481	0.071	-0.057
-252.078	-200.000	0.021	-0.246
-251.063	-127.949	0.325	0.046
-250.049	101.924	0.108	-0.124
-249.034	800.000	0.122	0.336
-248.019	43.036	0.148	0.134
-247.005	-200.000	-0.022	0.299
-245.990	159.547	0.063	-0.087
-244.976	-63.860	-0.088	0.036
-243.961	18.136	-0.150	-0.118
-242.946	30.056	0.144	0.121
-241.932	-148.370	0.168	0.014
-240.917	456.658	-0.146	-0.319
-239.903	-25.812	-0.080	0.047
-238.888	344.706	-0.110	0.214
-237.873	-200.000	0.019	0.113
-236.859	256.491	0.305	0.517
-235.844	47.709	-0.195	0.179
-234.830	-112.510	-0.406	-0.080
-233.815	-108.433	-0.187	0.040
-232.800	-126.893	0.253	-0.037
-231.786	800.000	-0.055	0.227
-230.771	-30.224	-0.186	-0.104
-229.757	-91.757	0.276	0.078
-228.742	123.694	0.154	-0.190
-227.727	43.487	0.175	0.158
-226.713	-200.000	0.028	-0.159
-225.698	-124.351	0.479	0.074
-224.684	-96.063	0.197	0.052
-223.669	-14.587	0.349	0.221
-222.655	-3.075	0.095	0.065
-221.640	98.824	0.218	0.248
-220.625	-119.525	0.154	0.026
-219.611	-200.000	-0.042	-0.197
-218.596	800.000	0.077	0.246
-217.582	-155.432	-0.270	-0.017
-216.567	-89.038	0.378	-0.110
-215.552	-89.239	-0.240	-0.070
-214.538	356.134	0.128	-0.252
-213.523	-171.527	-0.196	-0.006
-212.509	58.513	0.223	-0.215
-211.494	12.862	0.262	0.199
-210.479	381.775	0.020	0.041
-209.465	-77.946	0.208	-0.071
-208.450	-3.749	-0.138	0.094
-207.436	800.000	0.092	-0.335
-206.421	-125.859	0.113	-0.017
-205.406	581.318	0.083	0.200
-204.392	66.523	0.137	0.137
-203.377	169.449	-0.143	-0.202
-202.363	-125.151	0.092	0.014
-201.348	-168.025	-0.101	-0.004
-200.333	-200.000	-0.007	0.325
-199.319	719.551	-0.080	0.209
-198.304	-64.702	0.263	0.105
-197.290	34.119	-0.198	0.170
-196.275	-58.736	0.145	0.062
-195.260	-200.000	-0.022	0.339
-194.246	338.297	-0.026	0.050
-193.231	-136.784	0.147	0.017
-192.217	7.454	-0.179	0.132
-191.202	-38.570	0.270	0.141
-190.187	187.766	0.259	-0.381
-189.173	25.570	-0.099	-0.081
-188.158	-116.498	0.460	-0.084
-187.144	800.000	-0.016	0.050
-186.129	-49.836	-0.307	0.144
-185.114	-200.000	0.044	-0.196
-184.100	-173.635	-0.187	0.006
-183.085	-95.948	-0.157	-0.041
-182.071	-200.000	-0.059	0.327
-181.056	-200.000	-0.017	-0.154
-180.042	65.061	-0.033	0.033
-179.027	82.351	-0.052	-0.056
-178.012	132.128	0.092	0.117
-176.998	-47.126	0.366	-0.176
-175.983	-37.824	-0.240	-0.126
-174.969	11.373	0.293	-0.221
-173.954	-111.772	0.384	-0.077
-172.939	129.258	0.133	0.167
-171.925	-75.659	0.249	0.087
-170.910	29.957	-0.081	-0.068
-169.896	-100.481	0.285	-0.069
-168.881	104.610	-0.086	0.100
-167.866	-60.904	-0.249	-0.104
-166.852	-86.641	0.225	0.068
-165.837	524.075	-0.110	-0.254
-164.823	5.238	-0.145	-0.105
-163.808	209.902	0.245	-0.379
-162.793	-18.770	-0.214	-0.131
-161.779	-87.553	-0.207	0.062
-160.764	-120.590	-0.199	-0.033
-159.750	-200.000	-0.024	0.231
-158.735	120.593	0.159	0.194
-157.720	-126.338	0.229	0.034
-156.706	-125.328	0.161	-0.024
-155.691	-200.000	-0.050	0.335
-154.677	-200.000	0.032	0.228
-153.662	589.433	0.125	0.302
-152.647	-39.956	-0.339	0.174
-151.633	-200.000	0.031	-0.149
-150.618	-200.000	-0.046	0.426
-149.604	-200.000	0.005	0.143
-148.589	-22.842	-0.095	0.057
-147.574	-200.000	0.003	-0.075
-146.560	-167.475	-0.338	0.013
-145.545	-109.743	0.171	-0.035
-144.531	163.332	-0.137	0.189
-143.516	-43.276	-0.179	-0.089
-142.502	-30.905	-0.305	0.170
-141.487	38.579	0.043	0.038
-140.472	-48.700	0.248	0.117
-139.458	800.000	-0.074	0.231
-138.443	-149.434	-0.076	0.006
-137.429	-100.179	0.319	-0.078
-136.414	-31.583	0.060	0.033
-135.399	617.899	-0.137	0.339
-134.385	0.985	-0.359	0.253
-133.370	-200.000	-0.031	0.189
-132.356	-162.830	0.081	-0.004
-131.341	-146.634	0.281	-0.024
-130.326	6.391	0.356	0.260
-129.312	68.992	-0.189	0.191
-128.297	285.091	-0.093	-0.165
-127.283	106.302	-0.104	0.121
-126.268	-200.000	0.009	-0.194
-125.253	37.439	0.124	0.108
-124.239	800.000	-0.115	0.389
-123.224	-11.205	0.291	-0.188
-122.210	-30.926	-0.263	0.146
