DTS Sentinel unit serial number:	SN413079Multiplexer serial number:	ORYXHardware model number:	OX4-SRSoftware version number:	ORYX F/W v4.00 Oryx Data Collector v3.7.2.0data status	okinstallation	princeton_trtdifferential loss correction	single-endedforward channel	channel 2reverse channel	N/Adate	2019/09/11time	21:13:10forward acquisition time	60.00reverse acquisition time	0.00gamma	496.2192k internal	0.2323k external	0.2323temperature offset calibration	1.0061default loss term (dB/km)	0.3790temperature slope calibration	1.0000multiplexer offset coefficient	1.0000multiplexer slope coefficient	1.0000fibre end	0.00T internal ref (°C)	36.37T ext. ref 1 (°C)	1.57T ext. ref 2 (°C)	30.67length (m)	temperature (°C)	Stokes	anti-Stokes-747.200	-200.000	-0.020	0.257
-746.185	114.919	-0.176	0.217
-745.171	264.168	0.121	-0.213
-744.156	-0.422	0.291	0.208
-743.142	-162.871	-0.136	-0.007
-742.127	-114.907	-0.484	0.093
-741.112	227.313	-0.244	0.400
-740.098	544.934	0.139	0.334
-739.083	83.428	0.035	0.038
-738.069	-118.166	-0.204	-0.037
-737.054	232.777	-0.193	-0.320
-736.039	35.683	0.202	0.179
-735.025	-60.304	-0.084	-0.036
-734.010	652.263	-0.105	-0.271
-732.996	319.791	0.201	0.386
-731.981	65.793	-0.230	0.235
-730.966	-113.958	0.140	-0.027
-729.952	-42.059	0.047	0.024
-728.937	-191.584	-0.208	-0.002
-727.923	-200.000	-0.038	0.265
-726.908	454.279	0.102	-0.227
-725.894	234.086	-0.054	-0.090
-724.879	200.004	0.079	0.122
-723.864	-78.436	-0.303	-0.105
-722.850	-200.000	-0.008	-0.180
-721.835	15.581	-0.129	-0.103
-720.821	48.812	0.085	0.080
-719.806	800.000	0.098	-0.354
-718.791	-200.000	-0.028	-0.280
-717.777	445.519	-0.097	-0.215
-716.762	168.264	-0.161	0.231
-715.748	115.398	-0.238	-0.294
-714.733	140.562	0.114	-0.152
-713.718	-107.267	0.141	-0.031
-712.704	-39.877	0.137	0.072
-711.689	-200.000	-0.045	0.219
-710.675	-131.618	0.047	0.006
-709.660	-71.590	0.274	-0.103
-708.645	-1.804	-0.012	0.009
-707.631	800.000	0.093	0.301
-706.616	-95.068	0.122	-0.033
-705.602	129.793	0.123	-0.158
-704.587	-84.710	-0.050	-0.016
-703.572	329.319	-0.096	0.185
-702.558	-138.552	0.072	0.008
-701.543	-110.148	-0.019	-0.004
-700.529	298.004	0.111	0.205
-699.514	-200.000	0.045	-0.473
-698.499	73.417	0.094	-0.099
-697.485	-200.000	0.040	-0.212
-696.470	-119.865	0.407	-0.071
-695.456	102.427	0.067	-0.079
-694.441	27.686	-0.201	0.171
-693.426	203.634	-0.081	0.126
-692.412	139.606	-0.090	-0.119
-691.397	-115.664	-0.047	-0.009
-690.383	-64.530	-0.186	-0.076
-689.368	-149.252	-0.249	-0.020
-688.354	267.523	-0.039	-0.069
-687.339	-119.526	0.069	-0.012
-686.324	-200.000	0.017	-0.176
-685.310	-44.990	-0.390	0.196
-684.295	800.000	-0.038	-0.163
-683.281	-116.012	-0.222	-0.042
-682.266	507.177	0.085	-0.200
-681.251	8.273	-0.140	-0.106
-680.237	-39.123	0.203	-0.107
-679.222	-84.567	0.135	0.043
-678.208	-22.624	0.108	-0.066
-677.193	-102.115	-0.231	-0.056
-676.178	80.445	0.146	0.159
-675.164	-106.366	0.079	0.018
-674.149	-33.682	0.288	-0.160
-673.135	48.077	0.188	0.177
-672.120	-69.992	-0.039	0.015
-671.105	483.894	-0.051	0.117
-670.091	-38.671	0.099	0.053
-669.076	-190.956	-0.122	0.001
-668.062	-106.359	-0.271	-0.061
-667.047	-10.781	0.156	0.104
-666.032	-27.991	0.217	0.126
-665.018	-179.155	-0.150	0.003
-664.003	-37.497	0.091	0.049
-662.989	642.052	-0.009	-0.023
-661.974	-200.000	0.012	0.091
-660.959	-15.645	-0.111	-0.071
-659.945	136.758	-0.110	0.145
-658.930	-200.000	-0.200	0.000
-657.916	-86.899	0.181	0.056
-656.901	69.601	0.087	-0.090
-655.886	78.695	0.178	0.192
-654.872	380.846	-0.039	-0.081
-653.857	92.507	0.332	-0.376
-652.843	-97.616	-0.400	0.104
-651.828	118.150	-0.146	0.182
-650.814	-137.037	0.262	0.030
-649.799	-94.044	0.138	-0.038
-648.784	-88.216	-0.275	0.083
-647.770	51.542	0.107	0.102
-646.755	730.472	-0.097	0.262
-645.741	-45.844	-0.072	-0.036
-644.726	457.855	-0.028	0.062
-643.711	-200.000	0.016	-0.242
-642.697	-131.342	0.108	0.014
-641.682	363.305	-0.073	-0.147
-640.668	-34.982	0.416	-0.228
-639.653	-7.950	-0.028	0.019
-638.638	106.637	-0.302	0.360
-637.624	800.000	-0.012	0.038
-636.609	139.249	0.090	0.118
-635.595	415.182	-0.104	0.223
-634.580	-148.552	-0.285	0.023
-633.565	-200.000	-0.031	0.292
-632.551	172.463	0.151	-0.218
-631.536	800.000	-0.093	-0.295
-630.522	800.000	-0.071	-0.296
-629.507	-200.000	0.001	0.063
-628.492	-36.015	0.118	-0.064
-627.478	37.437	-0.073	0.065
-626.463	-70.028	-0.142	-0.054
-625.449	312.383	-0.063	0.119
-624.434	498.061	0.130	-0.301
-623.419	0.189	-0.208	0.149
-622.405	-76.440	0.240	-0.085
-621.390	-109.373	0.222	0.047
-620.376	465.623	-0.065	-0.146
-619.361	101.826	-0.211	-0.247
-618.346	-45.460	0.079	-0.039
-617.332	236.972	-0.148	0.246
-616.317	13.951	-0.124	0.097
-615.303	726.629	0.070	-0.187
-614.288	78.955	-0.085	0.092
-613.273	35.331	-0.215	-0.189
-612.259	251.550	0.128	-0.218
-611.244	-200.000	-0.021	0.095
-610.230	-200.000	-0.023	-0.284
-609.215	149.061	0.262	0.356
-608.201	50.377	0.078	-0.074
-607.186	800.000	-0.033	-0.102
-606.171	-200.000	-0.012	-0.152
-605.157	-167.291	0.345	-0.014
-604.142	93.494	0.105	0.119
-603.128	-83.787	0.068	0.022
-602.113	-200.000	0.082	0.425
-601.098	-32.040	-0.183	-0.103
-600.084	152.569	0.154	-0.211
-599.069	-97.147	-0.228	-0.060
-598.055	-30.469	-0.301	0.171
-597.040	-141.140	-0.223	-0.023
-596.025	250.481	-0.272	-0.464
-595.011	-0.546	0.135	0.097
-593.996	-69.062	0.130	0.050
-592.982	214.870	0.095	0.152
-591.967	-175.389	0.133	0.004
-590.952	-121.178	-0.414	0.070
-589.938	90.624	-0.050	0.056
-588.923	800.000	-0.029	-0.115
-587.909	-62.965	-0.264	0.109
-586.894	-6.110	-0.323	0.221
-585.879	-54.622	-0.358	-0.163
-584.865	71.486	0.190	-0.198
-583.850	359.930	0.185	-0.371
-582.836	-2.566	0.129	0.091
-581.821	-165.219	0.329	-0.015
-580.806	168.196	-0.160	-0.229
-579.792	-75.862	-0.123	-0.044
-578.777	58.383	-0.173	0.171
-577.763	41.911	-0.103	0.094
-576.748	172.791	0.132	0.191
-575.733	-81.371	-0.093	0.031
-574.719	28.611	0.221	0.188
-573.704	-58.214	-0.283	0.123
-572.690	-200.000	0.006	0.072
-571.675	-5.056	0.268	0.185
-570.661	371.706	-0.066	0.134
-569.646	-41.775	-0.074	-0.038
-568.631	-127.418	-0.266	0.039
-567.617	-125.706	-0.249	-0.038
-566.602	-87.031	0.188	-0.057
-565.588	98.009	-0.207	0.238
-564.573	800.000	0.083	0.359
-563.558	-111.838	-0.090	0.018
-562.544	800.000	0.109	-0.327
-561.529	51.646	0.201	0.191
-560.515	320.404	0.094	0.180
-559.500	-59.716	0.281	-0.121
-558.485	-200.000	-0.069	0.404
-557.471	360.112	-0.168	-0.336
-556.456	800.000	-0.103	-0.415
-555.442	55.682	0.254	-0.247
-554.427	-115.623	-0.176	0.033
-553.412	151.675	0.130	0.177
-552.398	-200.000	-0.039	0.194
-551.383	-200.000	0.024	0.165
-550.369	181.399	0.066	-0.097
-549.354	-56.136	0.103	0.046
-548.339	800.000	0.027	-0.077
-547.325	800.000	0.009	0.037
-546.310	-142.697	-0.241	0.024
-545.296	-200.000	-0.057	0.322
-544.281	163.796	-0.223	0.314
-543.266	183.486	-0.057	-0.085
-542.252	106.572	-0.161	-0.192
-541.237	800.000	-0.095	-0.296
-540.223	800.000	-0.074	-0.214
-539.208	234.393	0.143	0.236
-538.193	191.944	0.120	0.181
-537.179	-67.425	0.362	-0.142
-536.164	50.206	0.246	0.233
-535.150	792.064	0.138	-0.379
-534.135	-200.000	-0.001	0.316
-533.121	800.000	0.079	-0.335
-532.106	-103.855	0.539	0.126
-531.091	106.156	0.090	0.107
-530.077	-19.914	0.106	-0.065
-529.062	-142.629	0.281	-0.027
-528.048	-200.000	0.016	0.355
-527.033	144.221	0.105	-0.140
-526.018	470.135	-0.018	-0.042
-525.004	-200.000	0.007	0.129
-523.989	-133.736	0.083	0.010
-522.975	-53.345	0.123	0.057
-521.960	29.508	0.089	0.076
-520.945	50.306	0.165	-0.157
-519.931	220.071	0.105	-0.168
-518.916	225.296	0.150	-0.243
-517.902	133.464	0.046	0.060
-516.887	-200.000	-0.019	0.193
-515.872	-75.334	-0.231	-0.082
-514.858	235.087	-0.115	0.190
-513.843	-200.000	-0.055	-0.267
-512.829	-200.000	0.010	0.310
-511.814	-116.182	0.214	-0.040
-510.799	631.169	-0.013	-0.033
-509.785	-200.000	0.049	0.253
-508.770	136.781	0.211	-0.276
-507.756	-159.382	0.189	-0.011
-506.741	152.483	0.137	-0.187
-505.726	-12.805	-0.269	-0.175
-504.712	-200.000	-0.056	0.322
-503.697	35.118	0.045	0.040
-502.683	-81.422	-0.103	-0.034
-501.668	-151.967	-0.226	-0.016
-500.653	-74.548	-0.216	0.078
-499.639	-200.000	0.012	0.163
-498.624	-64.979	-0.248	0.100
-497.610	-6.231	0.149	0.102
-496.595	-4.313	-0.027	0.018
-495.581	184.925	0.023	-0.034
-494.566	-200.000	0.004	-0.135
-493.551	-200.000	-0.026	0.207
-492.537	800.000	-0.059	-0.196
-491.522	-200.000	-0.035	-0.163
-490.508	180.189	0.140	-0.205
-489.493	323.590	-0.114	0.217
-488.478	460.096	-0.100	0.224
-487.464	-117.010	-0.279	0.051
-486.449	-37.629	-0.318	0.169
-485.435	789.775	0.073	-0.199
-484.420	-50.506	-0.533	0.251
-483.405	-200.000	0.050	0.287
-482.391	212.925	-0.052	0.082
-481.376	228.210	0.164	-0.268
-480.362	-200.000	-0.012	-0.140
-479.347	-125.040	-0.165	-0.025
-478.332	146.509	0.256	-0.344
-477.318	-16.955	0.127	0.080
-476.303	156.497	0.069	-0.096
-475.289	-200.000	-0.001	-0.051
-474.274	800.000	0.035	0.111
-473.259	-36.937	-0.216	-0.116
-472.245	-84.123	-0.307	-0.097
-471.230	197.129	-0.136	-0.207
-470.216	800.000	0.072	-0.273
-469.201	-32.089	-0.162	0.090
-468.186	-26.987	-0.180	-0.105
-467.172	-53.843	0.047	-0.021
-466.157	800.000	0.020	-0.071
-465.143	735.257	0.166	-0.444
-464.128	213.769	-0.179	0.283
-463.113	-131.196	0.026	-0.003
-462.099	60.966	-0.369	0.366
-461.084	40.898	-0.208	0.188
-460.070	117.548	0.333	-0.409
-459.055	193.109	-0.172	-0.260
-458.040	-107.916	0.048	0.010
-457.026	-200.000	-0.001	-0.107
-456.011	-2.000	0.316	0.222
-454.997	-125.854	-0.088	0.013
-453.982	-144.064	0.439	-0.041
-452.968	-56.090	0.040	0.018
-451.953	54.367	0.182	-0.175
-450.938	-33.362	-0.190	-0.105
-449.924	-32.804	0.272	0.151
-448.909	800.000	-0.081	0.304
-447.895	-160.513	0.240	-0.013
-446.880	-131.985	0.156	-0.020
-445.865	-200.000	-0.035	-0.159
-444.851	-35.153	-0.092	0.050
-443.836	153.066	0.031	0.042
-442.822	800.000	-0.028	-0.119
-441.807	303.898	-0.033	0.062
-440.792	-93.218	0.079	0.022
-439.778	-95.995	0.230	-0.061
-438.763	-200.000	0.037	-0.336
-437.749	196.843	0.060	0.091
-436.734	535.753	0.075	-0.177
-435.719	-77.742	-0.178	0.061
-434.705	8.987	0.393	-0.296
-433.690	281.079	-0.095	-0.170
-432.676	-107.522	0.267	-0.058
-431.661	-6.875	0.391	-0.265
-430.646	-200.000	-0.045	0.272
-429.632	187.109	-0.075	0.111
-428.617	800.000	-0.037	0.139
-427.603	-200.000	0.037	0.250
-426.588	-111.593	0.230	0.047
-425.573	13.183	-0.125	0.096
-424.559	-156.909	0.104	0.006
-423.544	-200.000	0.060	0.306
-422.530	-130.065	0.382	0.052
-421.515	-200.000	0.065	0.322
-420.500	-79.894	0.137	-0.046
-419.486	128.748	0.190	-0.242
-418.471	-97.182	0.343	-0.089
-417.457	256.409	-0.273	0.468
-416.442	-96.479	-0.276	-0.073
-415.428	-200.000	0.047	-0.303
-414.413	-200.000	-0.010	0.053
-413.398	-139.734	0.082	-0.009
-412.384	-200.000	0.001	0.285
-411.369	116.959	-0.142	-0.174
-410.355	59.776	0.094	-0.093
-409.340	800.000	-0.077	-0.315
-408.325	-80.498	0.238	-0.079
-407.311	800.000	0.070	0.197
-406.296	468.850	-0.132	0.295
-405.282	364.053	0.076	0.153
-404.267	584.623	0.088	0.216
-403.252	-42.597	0.307	0.156
-402.238	26.074	0.264	0.220
-401.223	108.013	-0.122	-0.145
-400.209	-75.442	0.440	-0.156
-399.194	800.000	-0.027	0.094
-398.179	-200.000	0.016	-0.496
-397.165	74.363	0.075	-0.078
-396.150	-200.000	0.063	-0.483
-395.136	52.222	0.066	-0.063
-394.121	800.000	-0.116	-0.342
-393.106	-200.000	-0.030	-0.393
-392.092	-65.377	0.175	0.070
-391.077	-132.065	0.253	-0.033
-390.063	31.843	0.295	-0.253
-389.048	137.573	0.083	-0.109
-388.033	119.692	0.078	0.096
-387.019	430.864	0.069	0.150
-386.004	-57.986	-0.096	-0.042
-384.990	-57.999	0.052	-0.023
-383.975	-77.011	0.115	-0.040
-382.960	2.794	-0.118	0.085
-381.946	-68.777	0.226	0.087
-380.931	-10.997	-0.131	0.086
-379.917	304.485	0.211	-0.389
-378.902	-30.567	0.221	0.125
-377.888	43.992	0.068	-0.062
-376.873	-0.692	0.292	-0.206
-375.858	3.378	0.119	-0.086
-374.844	-54.860	-0.295	0.133
-373.829	800.000	0.021	0.057
-372.815	-164.799	-0.423	0.019
-371.800	78.005	-0.231	0.245
-370.785	800.000	-0.126	-0.452
-369.771	235.373	-0.099	-0.163
-368.756	84.794	0.301	0.329
-367.742	73.061	-0.157	0.164
-366.727	139.746	-0.222	-0.291
-365.712	9.461	0.417	-0.314
-364.698	-118.281	-0.067	0.012
-363.683	3.477	-0.106	0.076
-362.669	800.000	-0.035	-0.141
-361.654	-110.306	-0.274	0.057
-360.639	-151.486	-0.068	0.005
-359.625	-83.179	-0.293	0.094
-358.610	-200.000	-0.014	-0.317
-357.596	-118.755	-0.100	-0.018
-356.581	161.612	0.112	-0.156
-355.566	179.118	-0.028	0.040
-354.552	-107.557	-0.165	0.036
-353.537	-41.581	-0.008	0.004
-352.523	-142.926	-0.521	0.050
-351.508	800.000	-0.076	0.233
-350.493	-15.571	-0.115	0.073
-349.479	-85.629	-0.241	0.075
-348.464	387.799	-0.066	-0.135
-347.450	-62.145	-0.131	0.054
-346.435	491.138	0.067	0.152
-345.420	133.320	0.042	0.054
-344.406	-12.264	-0.216	0.141
-343.391	523.417	0.072	-0.167
-342.377	-51.164	-0.177	-0.082
-341.362	16.647	-0.099	-0.078
-340.348	91.986	0.165	-0.185
-339.333	800.000	-0.026	-0.100
-338.318	-180.112	-0.259	0.005
-337.304	-16.453	0.256	0.161
-336.289	137.601	0.028	-0.036
-335.275	-140.388	0.299	0.031
-334.260	-26.716	-0.159	0.092
-333.245	-99.557	-0.109	-0.027
-332.231	212.669	0.188	0.295
-331.216	-79.141	0.211	-0.071
-330.202	206.226	-0.152	0.235
-329.187	235.796	0.060	-0.098
-328.172	2.805	-0.323	0.233
-327.158	-18.460	0.155	-0.096
-326.143	-200.000	-0.044	-0.357
-325.129	52.898	0.313	-0.297
-324.114	-96.295	0.138	0.036
-323.099	-200.000	0.057	0.277
-322.085	27.631	0.158	0.132
-321.070	48.608	0.201	0.187
-320.056	23.474	0.108	0.088
-319.041	36.042	-0.044	0.039
-318.026	800.000	0.097	-0.357
-317.012	-200.000	0.010	-0.143
-315.997	-76.638	0.090	-0.031
-314.983	-200.000	-0.028	0.144
-313.968	-135.013	-0.180	-0.022
-312.953	-37.986	-0.243	-0.128
-311.939	800.000	0.031	0.085
-310.924	-48.945	0.121	0.058
-309.910	-200.000	0.029	-0.165
-308.895	800.000	-0.052	-0.176
-307.880	93.723	-0.129	0.145
-306.866	-36.320	-0.228	-0.122
-305.851	330.255	-0.126	0.241
-304.837	-200.000	-0.065	-0.312
-303.822	-200.000	-0.032	0.327
-302.807	714.923	-0.135	0.356
-301.793	-200.000	-0.047	-0.481
-300.778	25.577	-0.305	0.252
-299.764	-200.000	-0.002	-0.177
-298.749	-51.725	0.159	0.074
-297.735	-200.000	-0.039	0.263
-296.720	370.967	0.096	0.192
-295.705	-200.000	-0.006	0.073
-294.691	-4.675	-0.037	0.025
-293.676	-200.000	0.087	0.453
-292.662	-173.490	-0.212	0.006
-291.647	-200.000	0.010	-0.086
-290.632	146.476	-0.069	-0.092
-289.618	143.557	0.164	-0.216
-288.603	82.807	0.297	0.320
-287.589	800.000	-0.073	-0.206
-286.574	-61.323	-0.288	0.120
-285.559	-42.521	-0.076	-0.038
-284.545	-129.869	0.496	-0.067
-283.530	-162.939	0.107	0.005
-282.516	-116.088	-0.165	0.030
-281.501	-35.613	-0.063	-0.034
-280.486	0.832	-0.248	-0.176
-279.472	535.037	0.062	-0.145
-278.457	-200.000	-0.029	0.309
-277.443	-186.007	-0.206	-0.003
-276.428	-41.161	-0.065	0.033
-275.413	63.314	-0.136	0.135
-274.399	98.705	0.029	-0.033
-273.384	-200.000	-0.069	0.413
-272.370	-64.675	-0.138	-0.055
-271.355	94.432	-0.094	-0.106
-270.340	800.000	0.037	0.139
-269.326	157.007	0.106	-0.145
-268.311	26.544	0.347	-0.288
-267.297	-200.000	-0.050	-0.422
-266.282	-200.000	-0.008	0.234
-265.267	701.853	-0.108	-0.282
-264.253	308.000	0.036	0.067
-263.238	298.085	-0.162	-0.295
-262.224	-200.000	0.008	-0.397
-261.209	800.000	0.055	0.163
-260.195	192.254	-0.145	-0.216
-259.180	118.350	-0.055	0.067
-258.165	35.746	0.256	0.223
-257.151	86.562	0.226	0.246
-256.136	-110.396	-0.411	-0.085
-255.122	-21.651	0.241	-0.146
-254.107	88.188	-0.083	-0.091
-253.092	124.756	0.176	-0.220
-252.078	16.518	-0.158	-0.124
-251.063	-75.756	-0.346	0.121
-250.049	-45.597	-0.039	-0.019
-249.034	-48.107	0.227	-0.109
-248.019	-62.064	0.217	-0.090
-247.005	312.880	0.083	-0.155
-245.990	-75.665	-0.167	-0.059
-244.976	-77.818	-0.146	0.050
-243.961	242.776	0.169	0.281
-242.946	800.000	-0.046	0.158
-241.932	-200.000	0.013	-0.114
-240.917	-200.000	-0.001	0.348
-239.903	39.874	0.092	0.081
-238.888	-200.000	-0.011	0.200
-237.873	-200.000	0.037	-0.267
-236.859	800.000	-0.040	-0.154
-235.844	-200.000	0.002	0.228
-234.830	-200.000	-0.043	0.225
-233.815	-161.055	-0.074	0.004
-232.800	-28.313	-0.355	0.203
-231.786	-8.835	-0.131	-0.087
-230.771	-200.000	-0.069	0.326
-229.757	633.805	-0.064	-0.162
-228.742	-152.431	0.299	-0.021
-227.727	147.405	0.027	-0.035
-226.713	-200.000	-0.068	0.461
-225.698	14.537	-0.095	0.073
-224.684	-200.000	-0.046	0.288
-223.669	184.115	0.134	-0.197
-222.655	131.692	0.048	-0.061
-221.640	-67.796	-0.079	-0.031
-220.625	800.000	0.019	0.055
-219.611	-95.967	-0.252	-0.066
-218.596	800.000	0.052	0.144
-217.582	-83.799	-0.275	-0.087
-216.567	-142.238	-0.298	0.029
-215.552	-3.307	-0.304	0.210
-214.538	-200.000	-0.027	0.227
-213.523	435.521	-0.097	0.208
-212.509	406.160	-0.046	-0.096
-211.494	-25.415	-0.079	-0.046
-210.479	800.000	0.039	-0.111
-209.465	0.853	-0.041	-0.029
-208.450	-121.491	-0.183	-0.030
-207.436	-200.000	-0.001	-0.128
-206.421	389.427	0.107	0.219
-205.406	-163.720	-0.182	-0.008
-204.392	-148.865	-0.080	-0.006
-203.377	-200.000	0.072	0.370
-202.363	-200.000	0.003	0.161
-201.348	-112.483	0.087	-0.017
-200.333	102.624	-0.217	-0.251
-199.319	36.179	-0.115	-0.100
-198.304	-200.000	0.005	0.177
-197.290	188.433	0.104	0.153
-196.275	45.452	0.222	-0.203
-195.260	800.000	0.080	0.244
-194.246	-93.286	0.146	0.040
-193.231	-142.057	-0.246	0.024
-192.217	800.000	0.008	-0.026
-191.202	240.093	-0.133	-0.218
-190.187	152.631	-0.153	0.207
-189.173	7.715	0.313	-0.231
-188.158	361.367	0.040	-0.080
-187.144	-139.235	0.159	-0.017
-186.129	605.366	0.075	0.185
-185.114	-200.000	0.004	0.322
-184.100	-169.606	-0.040	0.001
-183.085	-54.895	0.068	0.030
-182.071	-17.746	0.197	-0.122
-181.056	-118.462	-0.123	0.021
-180.042	-200.000	-0.052	-0.239
-179.027	800.000	0.034	-0.115
-178.012	-54.531	-0.231	0.103
-176.998	-106.278	-0.138	-0.030
-175.983	-62.886	0.270	-0.110
-174.969	-17.712	0.033	0.021
-173.954	64.470	0.095	0.094
-172.939	-38.777	-0.104	0.054
-171.925	800.000	-0.077	0.260
-170.910	800.000	-0.124	-0.378
-169.896	-200.000	0.004	-0.293
-168.881	-23.266	0.128	-0.076
-167.866	-89.245	-0.196	-0.057
-166.852	19.984	0.081	-0.064
-165.837	137.014	0.143	0.185
-164.823	-35.228	-0.203	0.109
-163.808	280.465	0.258	-0.456
-162.793	86.256	0.117	-0.127
-161.779	-126.556	0.148	-0.022
-160.764	81.959	-0.119	0.127
-159.750	-53.118	0.259	0.117
-158.735	449.788	-0.067	-0.146
-157.720	500.157	0.068	-0.155
-156.706	-51.398	0.245	0.113
-155.691	186.330	0.206	0.303
-154.677	-27.438	0.171	-0.098
-153.662	240.617	-0.134	0.221
-152.647	-48.271	-0.073	0.035
-151.633	51.527	-0.151	0.142
-150.618	228.346	-0.108	-0.173
-149.604	-50.665	0.296	-0.138
-148.589	-140.201	0.056	-0.006
-147.574	-200.000	0.030	0.187
-146.560	-17.720	-0.177	-0.110
-145.545	-29.088	0.263	0.149
-144.531	-200.000	-0.018	-0.241
-143.516	-127.505	0.168	0.024
-142.502	-108.411	-0.038	-0.008
-141.487	5.781	0.234	0.171
-140.472	427.093	0.220	0.468
-139.458	80.668	-0.104	-0.111
-138.443	264.194	-0.049	0.084
-137.429	-200.000	0.034	0.363
-136.414	-200.000	0.013	-0.308
-135.399	-160.957	-0.155	-0.008
-134.385	187.418	-0.178	0.261
-133.370	196.634	0.262	0.394
-132.356	94.426	-0.178	-0.199
-131.341	714.560	-0.082	0.216
-130.326	-101.575	0.205	-0.049
-129.312	335.011	0.115	0.220
-128.297	-200.000	-0.027	-0.175
-127.283	-101.491	0.132	0.032
-126.268	800.000	-0.040	-0.136
-125.253	121.106	-0.261	-0.320
-124.239	-30.696	-0.289	-0.161
-123.224	145.813	-0.140	0.185
-122.210	10.138	-0.175	0.131
-121.195	-33.533	0.340	0.185
