DTS Sentinel unit serial number:	SN413079Multiplexer serial number:	ORYXHardware model number:	OX4-SRSoftware version number:	ORYX F/W v4.00 Oryx Data Collector v3.7.2.0data status	okinstallation	princeton_trtdifferential loss correction	single-endedforward channel	channel 2reverse channel	N/Adate	2019/09/10time	20:13:11forward acquisition time	60.00reverse acquisition time	0.00gamma	496.2192k internal	0.2330k external	0.2330temperature offset calibration	0.9944default loss term (dB/km)	0.3790temperature slope calibration	1.0000multiplexer offset coefficient	1.0000multiplexer slope coefficient	1.0000fibre end	0.00T internal ref (°C)	32.37T ext. ref 1 (°C)	-0.31T ext. ref 2 (°C)	25.30length (m)	temperature (°C)	Stokes	anti-Stokes-747.200	98.016	-0.067	-0.078
-746.185	-176.823	-0.159	-0.004
-745.171	-133.807	-0.094	0.012
-744.156	155.613	0.249	0.345
-743.142	800.000	-0.048	0.166
-742.127	13.859	-0.305	0.238
-741.112	-55.258	-0.157	0.071
-740.098	800.000	-0.033	-0.104
-739.083	-94.557	0.180	0.049
-738.069	-200.000	-0.050	0.562
-737.054	118.361	-0.299	0.371
-736.039	-200.000	0.026	-0.140
-735.025	7.299	0.140	-0.105
-734.010	-30.776	-0.246	0.140
-732.996	-134.106	-0.196	0.024
-731.981	12.433	0.243	-0.189
-730.966	-138.258	0.218	-0.024
-729.952	343.862	-0.108	-0.212
-728.937	-118.373	0.105	0.019
-727.923	-8.629	0.068	0.046
-726.908	119.360	0.031	0.039
-725.894	-35.257	-0.168	0.092
-724.879	-200.000	0.014	-0.092
-723.864	-180.098	-0.205	-0.004
-722.850	-36.358	-0.343	0.186
-721.835	-42.174	0.233	0.120
-720.821	-17.836	0.115	-0.073
-719.806	-134.644	-0.349	0.043
-718.791	-24.543	-0.172	0.103
-717.777	-199.701	-0.127	-0.001
-716.762	-97.162	-0.260	-0.068
-715.748	421.343	-0.119	0.256
-714.733	27.325	0.028	-0.023
-713.718	-104.604	-0.126	0.029
-712.704	191.522	0.088	-0.134
-711.689	-31.238	-0.064	0.036
-710.675	-133.858	0.166	0.021
-709.660	800.000	-0.115	-0.346
-708.645	96.150	-0.154	-0.177
-707.631	18.328	-0.123	-0.099
-706.616	-200.000	-0.019	-0.094
-705.602	-79.560	0.063	-0.021
-704.587	27.314	-0.134	0.113
-703.572	203.568	-0.072	-0.112
-702.558	-107.661	-0.477	-0.105
-701.543	-200.000	-0.007	0.131
-700.529	681.998	0.135	0.353
-699.514	-200.000	-0.033	0.167
-698.499	-200.000	-0.031	-0.283
-697.485	180.055	-0.299	-0.440
-696.470	-200.000	-0.070	-0.358
-695.456	-200.000	0.076	0.495
-694.441	169.211	0.092	-0.132
-693.426	553.793	0.132	-0.318
-692.412	-124.875	0.413	-0.064
-691.397	6.356	0.104	0.078
-690.383	800.000	0.033	0.121
-689.368	396.848	0.046	-0.096
-688.354	247.500	0.075	-0.128
-687.339	-96.805	0.295	-0.078
-686.324	174.089	-0.270	-0.391
-685.310	-200.000	0.028	-0.201
-684.295	418.774	-0.182	-0.390
-683.281	28.854	0.235	-0.200
-682.266	46.985	-0.321	0.300
-681.251	-147.312	0.284	-0.024
-680.237	157.807	0.023	0.032
-679.222	800.000	0.023	0.073
-678.208	279.093	-0.194	0.347
-677.193	-28.028	-0.165	-0.096
-676.178	71.697	0.229	-0.239
-675.164	-17.362	0.251	0.159
-674.149	-32.012	0.134	-0.075
-673.135	-20.684	-0.172	-0.106
-672.120	-200.000	0.021	-0.160
-671.105	-200.000	-0.017	-0.122
-670.091	22.999	-0.090	-0.074
-669.076	152.251	-0.152	-0.209
-668.062	56.151	-0.054	-0.052
-667.047	800.000	0.065	-0.185
-666.032	800.000	-0.047	-0.133
-665.018	274.110	-0.100	0.178
-664.003	800.000	-0.005	0.014
-662.989	-200.000	-0.009	0.255
-661.974	-200.000	-0.004	0.063
-660.959	72.632	0.127	0.133
-659.945	-200.000	0.021	0.281
-658.930	800.000	-0.052	-0.184
-657.916	-154.301	0.289	-0.020
-656.901	800.000	0.118	-0.450
-655.886	189.684	-0.197	-0.297
-654.872	-55.869	-0.043	0.019
-653.857	-3.773	-0.155	0.108
-652.843	-200.000	0.013	0.185
-651.828	-1.657	-0.221	-0.156
-650.814	115.355	-0.154	-0.189
-649.799	-84.945	-0.209	0.066
-648.784	220.708	0.098	0.158
-647.770	800.000	0.103	0.338
-646.755	-68.914	0.123	-0.048
-645.741	-103.695	0.276	-0.065
-644.726	27.322	-0.057	0.048
-643.711	52.936	-0.142	0.137
-642.697	706.588	0.071	0.189
-641.682	437.363	0.031	-0.067
-640.668	-200.000	0.029	0.137
-639.653	16.189	0.035	-0.027
-638.638	-32.378	-0.165	-0.092
-637.624	-107.875	0.094	0.020
-636.609	1.604	0.195	-0.141
-635.595	-200.000	0.050	-0.281
-634.580	-200.000	0.047	0.431
-633.565	-93.693	-0.391	-0.108
-632.551	-106.598	-0.154	0.034
-631.536	800.000	0.052	-0.154
-630.522	443.004	0.095	-0.208
-629.507	72.679	0.104	-0.108
-628.492	-200.000	-0.028	0.352
-627.478	372.085	0.005	-0.010
-626.463	-200.000	0.023	-0.335
-625.449	-174.506	-0.191	-0.005
-624.434	-191.416	-0.126	0.001
-623.419	-161.432	-0.654	-0.034
-622.405	31.421	-0.240	-0.207
-621.390	-51.626	0.217	0.102
-620.376	-149.767	0.140	-0.011
-619.361	39.016	-0.127	-0.113
-618.346	69.794	0.204	0.211
-617.332	247.993	0.078	0.132
-616.317	800.000	0.012	-0.048
-615.303	118.168	0.109	0.134
-614.288	-6.780	-0.175	0.119
-613.273	-200.000	0.012	0.134
-612.259	-200.000	0.005	-0.176
-611.244	-93.299	-0.070	0.020
-610.230	-180.902	0.034	0.001
-609.215	-20.549	0.087	-0.053
-608.201	-166.924	0.344	-0.014
-607.186	60.072	0.127	0.125
-606.171	24.093	-0.108	0.090
-605.157	800.000	0.048	-0.186
-604.142	800.000	-0.121	-0.403
-603.128	-122.159	0.526	0.086
-602.113	-200.000	-0.017	-0.094
-601.098	-11.175	0.107	0.070
-600.084	270.251	-0.060	-0.105
-599.069	6.716	-0.108	0.081
-598.055	-160.118	0.075	-0.004
-597.040	-119.981	0.190	0.033
-596.025	800.000	0.100	0.310
-595.011	800.000	-0.036	-0.154
-593.996	-153.674	-0.189	0.013
-592.982	-200.000	-0.019	-0.234
-591.967	-73.549	-0.024	0.009
-590.952	342.209	-0.067	0.132
-589.938	800.000	-0.113	-0.384
-588.923	389.748	-0.103	-0.214
-587.909	-108.614	-0.140	-0.030
-586.894	-200.000	-0.043	0.275
-585.879	-200.000	0.089	0.429
-584.865	-189.210	0.336	-0.004
-583.850	27.645	0.086	0.073
-582.836	-102.468	-0.231	0.055
-581.821	403.801	-0.104	-0.218
-580.806	472.670	-0.071	-0.160
-579.792	31.216	0.318	0.273
-578.777	-200.000	-0.008	-0.158
-577.763	-69.875	0.112	-0.043
-576.748	171.604	0.222	-0.319
-575.733	-200.000	-0.039	0.220
-574.719	-200.000	0.016	-0.095
-573.704	-9.904	-0.267	0.178
-572.690	-200.000	-0.038	-0.273
-571.675	-50.111	-0.025	-0.012
-570.661	-17.643	-0.278	-0.175
-569.646	17.136	-0.023	-0.018
-568.631	800.000	-0.009	0.034
-567.617	-138.975	-0.120	0.013
-566.602	-172.231	-0.111	0.004
-565.588	-115.449	0.192	-0.036
-564.573	114.062	0.168	0.205
-563.558	-139.840	-0.383	0.041
-562.544	177.543	-0.048	0.070
-561.529	626.778	0.074	0.186
-560.515	-10.889	0.027	0.018
-559.500	-101.896	-0.216	-0.052
-558.485	-75.845	0.111	-0.039
-557.471	-147.618	0.185	0.016
-556.456	-83.734	-0.135	-0.043
-555.442	125.431	-0.192	0.242
-554.427	330.285	-0.046	-0.088
-553.412	-108.372	0.320	-0.069
-552.398	-19.896	0.100	0.062
-551.383	-81.006	0.189	-0.062
-550.369	-122.132	-0.305	-0.050
-549.354	-200.000	0.024	-0.413
-548.339	-200.000	-0.034	-0.321
-547.325	-169.379	0.143	-0.005
-546.310	-143.518	-0.093	-0.009
-545.296	-44.773	-0.175	-0.087
-544.281	-200.000	0.025	-0.257
-543.266	-200.000	0.009	0.068
-542.252	800.000	0.032	0.107
-541.237	247.561	0.104	0.176
-540.223	-200.000	0.006	0.284
-539.208	-16.356	0.083	-0.053
-538.193	-54.051	0.289	0.131
-537.179	-194.824	-0.165	0.001
-536.164	-14.019	-0.105	-0.068
-535.150	-69.434	-0.199	0.076
-534.135	141.039	-0.222	0.293
-533.121	179.354	-0.151	-0.221
-532.106	366.154	-0.121	-0.243
-531.091	-200.000	-0.029	-0.248
-530.077	-200.000	-0.007	-0.149
-529.062	800.000	0.016	-0.046
-528.048	800.000	-0.069	0.197
-527.033	-59.079	0.350	0.151
-526.018	395.069	0.075	0.157
-525.004	333.695	0.097	-0.188
-523.989	167.964	-0.086	-0.122
-522.975	800.000	-0.059	0.182
-521.960	217.623	0.134	0.213
-520.945	30.575	0.371	-0.316
-519.931	156.315	-0.152	-0.209
-518.916	-54.939	0.105	0.047
-517.902	483.868	-0.036	-0.082
-516.887	-76.429	0.190	0.067
-515.872	755.402	0.105	0.284
-514.858	-103.461	-0.239	-0.056
-513.843	-121.497	-0.506	0.084
-512.829	-107.201	0.232	0.051
-511.814	622.778	-0.067	-0.169
-510.799	98.935	-0.166	-0.191
-509.785	-105.992	0.263	-0.059
-508.770	-132.774	-0.101	0.013
-507.756	-200.000	-0.054	-0.253
-506.741	-7.863	0.445	-0.299
-505.726	800.000	0.060	0.240
-504.712	388.886	-0.060	0.124
-503.697	800.000	-0.147	0.410
-502.683	800.000	-0.133	0.372
-501.668	-119.519	-0.261	-0.045
-500.653	20.910	0.398	-0.322
-499.639	800.000	-0.026	0.097
-498.624	-58.842	-0.289	0.125
-497.610	565.416	0.086	-0.208
-496.595	225.763	-0.146	0.236
-495.581	169.629	-0.064	0.091
-494.566	-45.456	0.141	0.070
-493.551	-114.151	-0.345	0.066
-492.537	154.320	0.143	-0.195
-491.522	-200.000	-0.009	-0.105
-490.508	150.893	0.082	-0.111
-489.493	-200.000	0.037	-0.174
-488.478	-200.000	-0.026	0.131
-487.464	63.473	0.310	-0.310
-486.449	166.025	-0.095	0.134
-485.435	-44.017	0.029	0.014
-484.420	-56.057	0.183	0.081
-483.405	11.137	-0.274	-0.209
-482.391	-71.988	0.154	-0.057
-481.376	606.246	-0.109	0.270
-480.362	-73.525	-0.151	-0.055
-479.347	-38.896	0.102	0.054
-478.332	283.740	-0.056	0.101
-477.318	221.630	-0.034	0.054
-476.303	-177.432	0.295	0.007
-475.289	6.793	-0.322	-0.238
-474.274	0.457	-0.003	-0.002
-473.259	34.263	0.216	-0.188
-472.245	-66.159	0.236	0.094
-471.230	-60.491	-0.438	-0.185
-470.216	28.270	-0.151	0.127
-469.201	800.000	0.070	-0.261
-468.186	-200.000	0.008	-0.083
-467.172	-31.822	0.360	-0.201
-466.157	-200.000	-0.048	-0.319
-465.143	-26.416	-0.290	-0.169
-464.128	-78.269	-0.255	-0.087
-463.113	-78.208	0.136	0.046
-462.099	330.160	0.052	0.100
-461.084	-39.493	0.259	-0.135
-460.070	-42.590	-0.149	-0.076
-459.055	800.000	0.029	-0.096
-458.040	56.524	0.097	0.094
-457.026	399.906	0.007	0.015
-456.011	-133.141	0.428	0.054
-454.997	-200.000	0.000	-0.395
-453.982	127.996	-0.092	-0.116
-452.968	99.504	-0.216	0.249
-451.953	63.074	0.143	-0.143
-450.938	557.282	-0.074	-0.178
-449.924	-91.969	0.114	0.032
-448.909	800.000	-0.073	-0.277
-447.895	-110.734	-0.264	-0.054
-446.880	800.000	0.087	0.308
-445.865	800.000	0.069	0.204
-444.851	-18.734	-0.116	0.072
-443.836	-11.636	-0.188	0.123
-442.822	93.569	0.083	-0.094
-441.807	-200.000	-0.053	-0.324
-440.792	782.628	-0.077	-0.209
-439.778	245.368	-0.039	0.065
-438.763	22.169	-0.108	-0.087
-437.749	-119.037	-0.165	0.029
-436.734	800.000	0.023	-0.076
-435.719	-57.734	-0.188	-0.082
-434.705	-55.418	-0.059	0.026
-433.690	-156.891	0.224	-0.014
-432.676	-21.584	0.267	-0.162
-431.661	-200.000	0.000	0.143
-430.646	-151.717	-0.227	0.017
-429.632	800.000	0.114	0.318
-428.617	-104.515	0.110	-0.025
-427.603	-42.145	0.138	0.070
-426.588	-69.716	0.125	0.048
-425.573	38.060	0.102	0.091
-424.559	115.766	0.220	0.267
-423.544	-200.000	-0.015	0.125
-422.530	800.000	-0.038	-0.131
-421.515	512.595	-0.211	-0.488
-420.500	-55.306	-0.100	0.045
-419.486	-99.645	0.329	0.082
-418.471	-101.876	0.346	-0.083
-417.457	124.258	-0.114	0.143
-416.442	-111.299	-0.301	-0.061
-415.428	21.615	-0.066	0.053
-414.413	800.000	0.076	0.295
-413.398	-200.000	0.015	0.127
-412.384	29.598	0.108	0.092
-411.369	-200.000	0.026	0.246
-410.355	-200.000	-0.065	0.389
-409.340	-24.853	-0.414	0.244
-408.325	800.000	-0.067	-0.287
-407.311	-124.311	0.143	-0.022
-406.296	-200.000	-0.030	0.156
-405.282	-127.192	0.137	0.020
-404.267	-200.000	-0.023	-0.233
-403.252	18.901	0.216	-0.172
-402.238	431.207	-0.151	-0.325
-401.223	51.351	-0.155	-0.146
-400.209	180.311	-0.016	-0.024
-399.194	608.799	-0.115	0.284
-398.179	165.043	0.150	0.210
-397.165	92.331	-0.075	-0.084
-396.150	-3.270	0.073	0.051
-395.136	-60.449	-0.094	0.040
-394.121	31.162	0.119	-0.102
-393.106	-109.631	-0.168	-0.035
-392.092	-200.000	-0.007	0.327
-391.077	-69.295	-0.090	-0.034
-390.063	-200.000	-0.010	-0.119
-389.048	-200.000	0.068	-0.305
-388.033	-29.411	-0.168	-0.095
-387.019	196.592	0.100	0.152
-386.004	-45.216	0.501	-0.247
-384.990	225.481	0.045	0.072
-383.975	-200.000	0.014	0.085
-382.960	-17.265	-0.145	0.090
-381.946	-86.454	-0.204	-0.062
-380.931	82.810	-0.068	0.073
-379.917	99.561	0.079	-0.091
-378.902	-200.000	-0.020	0.101
-377.888	-77.552	0.169	0.058
-376.873	368.447	0.134	0.268
-375.858	192.356	-0.064	0.096
-374.844	-200.000	-0.025	-0.257
-373.829	63.056	-0.167	0.166
-372.815	-153.716	0.358	0.024
-371.800	124.113	0.203	0.253
-370.785	800.000	-0.027	0.075
-369.771	-13.565	-0.130	0.084
-368.756	-32.198	0.077	-0.043
-367.742	84.817	-0.152	-0.165
-366.727	-82.788	-0.260	-0.083
-365.712	-92.431	0.106	-0.029
-364.698	800.000	0.089	-0.258
-363.683	-62.718	0.415	-0.171
-362.669	-87.290	0.148	0.044
-361.654	588.647	-0.079	0.194
-360.639	155.293	-0.171	-0.233
-359.625	-48.999	0.410	0.195
-358.610	-121.842	0.205	0.034
-357.596	800.000	-0.184	-0.565
-356.581	-11.784	0.143	0.093
-355.566	288.665	-0.100	-0.180
-354.552	46.413	0.160	0.147
-353.537	-77.957	0.132	-0.045
-352.523	-34.422	0.289	-0.157
-351.508	288.075	0.153	-0.275
-350.493	-114.574	-0.124	-0.024
-349.479	41.501	-0.106	-0.095
-348.464	-101.721	0.271	-0.065
-347.450	332.708	-0.065	-0.124
-346.435	-139.835	0.184	-0.019
-345.420	800.000	-0.032	0.105
-344.406	129.155	0.031	0.039
-343.391	800.000	0.046	-0.185
-342.377	-147.717	0.051	0.004
-341.362	-9.685	-0.253	-0.167
-340.348	-200.000	0.023	0.394
-339.333	138.649	0.080	-0.104
-338.318	130.851	-0.105	-0.134
-337.304	751.911	-0.115	-0.309
-336.289	-131.362	-0.463	0.061
-335.275	361.199	0.091	-0.181
-334.260	58.439	-0.085	0.082
-333.245	-200.000	-0.024	0.133
-332.231	-78.377	-0.259	-0.088
-331.216	-10.025	0.171	0.113
-330.202	-140.992	-0.369	0.037
-329.187	-200.000	0.003	0.059
-328.172	-200.000	0.035	0.329
-327.158	-10.852	0.121	-0.079
-326.143	-90.667	0.032	0.009
-325.129	737.001	-0.159	0.422
-324.114	219.077	-0.181	-0.287
-323.099	-150.820	-0.128	-0.010
-322.085	-55.073	0.141	0.063
-321.070	800.000	0.032	0.134
-320.056	506.710	0.079	0.180
-319.041	-200.000	0.035	0.192
-318.026	-58.279	-0.470	0.203
-317.012	181.833	-0.153	0.222
-315.997	-140.444	-0.202	0.021
-314.983	155.610	-0.150	-0.204
-313.968	29.992	-0.207	-0.174
-312.953	-116.595	0.129	0.024
-311.939	-130.235	0.271	-0.037
-310.924	-66.447	0.228	-0.090
-309.910	49.963	0.096	0.089
-308.895	90.501	0.091	0.101
-307.880	-200.000	-0.004	-0.045
-306.866	-35.078	-0.136	0.073
-305.851	-54.153	-0.415	-0.187
-304.837	407.052	-0.037	0.078
-303.822	170.615	0.181	-0.256
-302.807	-200.000	-0.058	-0.372
-301.793	479.336	0.151	0.338
-300.778	-2.760	0.119	0.082
-299.764	800.000	-0.034	-0.124
-298.749	-42.136	0.049	-0.025
-297.735	144.049	0.113	-0.149
-296.720	184.000	0.263	0.385
-295.705	-135.422	0.210	0.025
-294.691	-176.827	-0.319	-0.008
-293.676	-56.074	-0.378	0.167
-292.662	632.161	-0.060	-0.150
-291.647	-200.000	-0.008	0.035
-290.632	-200.000	-0.014	-0.097
-289.618	800.000	-0.048	-0.164
-288.603	-78.729	-0.298	-0.101
-287.589	-6.231	0.064	0.043
-286.574	-136.549	-0.159	0.018
-285.559	-200.000	-0.034	-0.296
-284.545	-121.400	-0.318	-0.052
-283.530	-200.000	0.023	0.123
-282.516	59.914	0.138	0.134
-281.501	-26.961	0.213	-0.123
-280.486	109.555	0.129	-0.152
-279.472	-42.491	-0.220	0.111
-278.457	272.758	-0.052	0.091
-277.443	-92.588	0.112	-0.031
-276.428	5.409	-0.101	0.074
-275.413	-200.000	-0.015	-0.125
-274.399	-90.387	-0.325	-0.093
-273.384	411.814	0.045	0.094
-272.370	800.000	0.053	-0.188
-271.355	109.595	-0.128	0.152
-270.340	-96.203	0.185	-0.048
-269.326	87.096	-0.116	0.127
-268.311	78.920	-0.195	-0.206
-267.297	-200.000	-0.064	-0.511
-266.282	-165.943	-0.158	0.007
-265.267	415.908	0.138	-0.291
-264.253	800.000	-0.111	0.338
-263.238	-200.000	-0.033	0.192
-262.224	-141.855	-0.275	0.027
-261.209	-29.161	-0.159	0.090
-260.195	-200.000	-0.001	-0.096
-259.180	259.796	0.041	0.071
-258.165	-130.455	0.200	-0.027
-257.151	800.000	-0.033	-0.134
-256.136	40.197	0.118	-0.105
-255.122	-111.851	-0.269	0.054
-254.107	29.492	0.154	0.130
-253.092	-10.481	0.103	-0.067
-252.078	-145.481	0.187	-0.017
-251.063	-200.000	-0.018	0.116
-250.049	-51.590	0.263	-0.121
-249.034	-200.000	0.028	0.120
-248.019	-200.000	0.005	-0.062
-247.005	-200.000	-0.052	-0.426
-245.990	575.716	0.064	0.153
-244.976	-200.000	-0.012	0.163
-243.961	-200.000	0.005	0.336
-242.946	-137.548	-0.602	-0.067
-241.932	-5.547	-0.049	-0.033
-240.917	-200.000	0.038	-0.229
-239.903	-200.000	0.025	0.129
-238.888	-21.906	-0.085	0.051
-237.873	800.000	0.171	0.560
-236.859	-181.913	-0.344	0.006
-235.844	-27.926	0.090	-0.051
-234.830	72.981	-0.228	-0.235
-233.815	222.125	-0.209	0.331
-232.800	-84.017	0.057	0.018
-231.786	-77.366	-0.213	0.073
-230.771	59.279	0.288	0.280
-229.757	67.385	0.195	-0.196
-228.742	-200.000	-0.035	-0.156
-227.727	-149.888	0.294	0.023
-226.713	-200.000	0.009	-0.131
-225.698	800.000	-0.061	-0.173
-224.684	-128.484	0.116	-0.016
-223.669	379.483	0.080	-0.161
-222.655	-48.618	0.268	-0.127
-221.640	-140.698	0.192	0.020
-220.625	93.098	-0.075	-0.083
-219.611	-113.950	-0.078	0.015
-218.596	-200.000	-0.011	0.103
-217.582	800.000	0.055	0.180
-216.567	-98.781	-0.143	0.036
-215.552	-200.000	0.021	0.175
-214.538	156.344	0.051	-0.070
-213.523	800.000	-0.036	-0.126
-212.509	-11.324	0.208	0.135
-211.494	8.411	0.241	0.179
-210.479	75.799	0.313	-0.327
-209.465	-38.563	-0.165	-0.086
-208.450	800.000	-0.109	0.406
-207.436	-79.633	0.281	0.093
-206.421	713.093	0.081	-0.211
-205.406	-102.842	-0.071	0.017
-204.392	-22.397	-0.036	0.022
-203.377	-65.885	0.202	-0.080
-202.363	-43.589	0.207	-0.103
-201.348	-200.000	-0.036	0.165
-200.333	309.670	-0.158	-0.291
-199.319	64.449	-0.107	0.106
-198.304	-91.844	0.374	0.104
-197.290	800.000	0.095	0.324
-196.275	-47.203	0.185	0.089
-195.260	222.846	-0.181	0.287
-194.246	800.000	0.093	-0.269
-193.231	-200.000	0.011	0.170
-192.217	431.140	-0.063	-0.135
-191.202	-85.376	-0.034	0.010
-190.187	-98.602	0.178	0.045
-189.173	-200.000	0.024	0.359
-188.158	800.000	0.046	-0.126
-187.144	-200.000	0.041	-0.372
-186.129	-131.014	0.113	-0.015
-185.114	-46.616	0.085	0.041
-184.100	-150.110	-0.249	-0.019
-183.085	191.078	-0.140	0.207
-182.071	800.000	0.026	-0.099
-181.056	800.000	0.052	-0.165
-180.042	800.000	0.053	0.178
-179.027	118.769	0.132	-0.161
-178.012	-33.688	0.161	0.087
-176.998	-200.000	-0.009	0.045
-175.983	46.504	0.189	-0.172
-174.969	605.989	-0.037	0.091
-173.954	-123.857	-0.290	-0.045
-172.939	126.546	0.029	-0.036
-171.925	111.586	-0.127	-0.151
-170.910	284.493	0.145	0.256
-169.896	800.000	-0.062	-0.223
-168.881	-73.695	-0.075	0.027
-167.866	62.547	0.052	0.051
-166.852	60.429	0.282	0.275
-165.837	-200.000	0.014	0.278
-164.823	39.924	-0.306	0.271
-163.808	-200.000	-0.207	0.000
-162.793	457.483	0.026	-0.058
-161.779	-31.654	-0.045	0.025
-160.764	96.738	0.175	-0.197
-159.750	620.180	0.008	0.019
-158.735	186.610	0.280	0.410
-157.720	-22.479	-0.308	0.183
-156.706	-200.000	-0.004	0.308
-155.691	-200.000	-0.037	0.162
-154.677	110.796	0.032	-0.038
-153.662	-200.000	-0.022	0.263
-152.647	220.524	-0.116	0.182
-151.633	-200.000	-0.001	0.213
-150.618	484.894	0.026	-0.058
-149.604	-200.000	-0.019	0.082
-148.589	662.123	-0.096	0.243
-147.574	563.589	0.046	0.110
-146.560	-113.147	0.356	0.069
-145.545	-200.000	0.017	0.158
-144.531	800.000	-0.063	-0.206
-143.516	-200.000	-0.043	0.443
-142.502	163.851	-0.246	-0.341
-141.487	102.774	-0.067	0.077
-140.472	-17.297	0.203	0.125
-139.458	691.720	0.025	0.064
-138.443	241.602	-0.107	0.175
-137.429	-200.000	-0.021	0.238
-136.414	737.248	0.058	0.152
-135.399	-66.035	0.031	-0.012
-134.385	-1.998	0.325	0.225
-133.370	-45.479	0.533	-0.259
-132.356	491.816	-0.088	0.198
-131.341	-0.064	0.288	-0.202
-130.326	-167.646	-0.061	0.002
-129.312	3.405	0.048	-0.034
-128.297	-200.000	0.005	-0.239
-127.283	16.472	0.344	-0.267
-126.268	-46.554	0.151	0.073
-125.253	187.649	0.079	-0.116
-124.239	-200.000	0.028	-0.135
-123.224	86.260	-0.227	0.245
-122.210	800.000	0.021	-0.074
