DTS Sentinel unit serial number:	SN413079Multiplexer serial number:	ORYXHardware model number:	OX4-SRSoftware version number:	ORYX F/W v4.00 Oryx Data Collector v3.7.2.0data status	okinstallation	princeton_trtdifferential loss correction	single-endedforward channel	channel 3reverse channel	N/Adate	2019/09/10time	18:50:10forward acquisition time	60.00reverse acquisition time	0.00gamma	496.2192k internal	0.2311k external	0.2311temperature offset calibration	0.9912default loss term (dB/km)	0.3790temperature slope calibration	1.0000multiplexer offset coefficient	1.0000multiplexer slope coefficient	1.0000fibre end	0.00T internal ref (°C)	34.98T ext. ref 1 (°C)	-0.37T ext. ref 2 (°C)	27.18length (m)	temperature (°C)	Stokes	anti-Stokes-747.200	-100.877	0.154	-0.038
-746.185	110.079	0.313	0.382
-745.171	201.288	-0.006	-0.010
-744.156	136.808	-0.227	0.302
-743.142	-200.000	0.056	0.287
-742.127	-181.712	-0.053	-0.001
-741.112	-101.386	-0.050	-0.012
-740.098	194.592	0.024	-0.038
-739.083	-78.036	0.317	0.111
-738.069	142.088	0.086	0.115
-737.054	198.659	0.128	0.199
-736.039	-19.201	-0.067	-0.042
-735.025	-200.000	0.033	-0.320
-734.010	80.832	-0.027	-0.029
-732.996	380.570	-0.046	0.095
-731.981	-38.143	-0.091	-0.049
-730.966	109.394	-0.236	0.287
-729.952	-27.717	-0.187	-0.110
-728.937	504.679	0.096	0.224
-727.923	39.720	-0.190	-0.173
-726.908	61.923	-0.134	0.135
-725.894	-200.000	0.013	0.093
-724.879	208.348	0.129	-0.204
-723.864	-95.095	-0.376	-0.103
-722.850	282.617	-0.320	-0.583
-721.835	162.194	0.087	0.124
-720.821	394.668	0.047	-0.099
-719.806	-200.000	0.000	0.092
-718.791	216.924	0.195	0.314
-717.777	800.000	-0.018	0.071
-716.762	-200.000	-0.320	-0.000
-715.748	133.618	-0.209	-0.274
-714.733	180.936	0.010	0.015
-713.718	-49.754	-0.320	0.154
-712.704	-43.071	0.260	-0.133
-711.689	424.472	0.082	0.179
-710.675	-200.000	-0.019	-0.245
-709.660	-200.000	0.017	0.348
-708.645	-200.000	-0.020	0.262
-707.631	-200.000	-0.005	0.059
-706.616	113.342	-0.055	0.067
-705.602	592.727	0.038	-0.096
-704.587	-97.467	-0.116	0.031
-703.572	-53.108	-0.134	-0.063
-702.558	-200.000	0.020	0.349
-701.543	-200.000	0.046	-0.310
-700.529	538.757	0.038	0.090
-699.514	-71.753	-0.148	0.056
-698.499	146.748	0.315	-0.430
-697.485	800.000	0.074	-0.245
-696.470	-45.794	-0.274	-0.137
-695.456	107.866	0.125	-0.150
-694.441	-123.703	0.087	0.014
-693.426	-200.000	-0.050	0.231
-692.412	436.344	-0.062	-0.137
-691.397	222.849	0.026	-0.042
-690.383	93.563	-0.087	0.099
-689.368	-37.969	0.132	0.071
-688.354	-152.511	0.317	-0.023
-687.339	-103.580	0.144	-0.034
-686.324	-53.224	-0.282	-0.131
-685.310	-173.521	-0.224	0.007
-684.295	-75.234	-0.085	-0.031
-683.281	-82.996	-0.252	0.082
-682.266	800.000	0.061	0.195
-681.251	282.222	0.086	-0.156
-680.237	290.822	0.059	0.108
-679.222	149.899	0.097	0.134
-678.208	291.541	-0.104	-0.192
-677.193	75.998	-0.163	-0.174
-676.178	800.000	-0.033	-0.131
-675.164	91.198	0.183	0.208
-674.149	-200.000	0.029	-0.131
-673.135	-200.000	-0.011	-0.074
-672.120	-200.000	0.036	0.301
-671.105	-200.000	0.026	0.127
-670.091	-86.164	0.095	-0.030
-669.076	-200.000	0.017	0.330
-668.062	52.326	0.190	0.184
-667.047	8.341	-0.245	-0.186
-666.032	-76.420	0.169	-0.060
-665.018	-56.979	-0.322	-0.144
-664.003	21.566	0.249	0.205
-662.989	432.989	0.121	0.266
-661.974	-52.597	0.117	0.055
-660.959	-95.869	-0.340	0.092
-659.945	-33.160	-0.153	-0.086
-658.930	800.000	0.121	0.374
-657.916	342.201	-0.151	0.298
-656.901	-200.000	0.050	-0.247
-655.886	-200.000	0.029	-0.162
-654.872	-200.000	-0.008	0.093
-653.857	185.362	-0.130	-0.196
-652.843	57.952	0.153	-0.152
-651.828	120.692	0.057	-0.072
-650.814	-151.230	0.133	-0.010
-649.799	-145.322	0.139	0.013
-648.784	118.601	-0.060	0.075
-647.770	128.271	-0.071	0.092
-646.755	-123.625	-0.205	0.033
-645.741	-87.903	0.215	-0.065
-644.726	-52.633	-0.166	-0.078
-643.711	-66.606	0.069	0.028
-642.697	53.229	0.066	-0.064
-641.682	-200.000	-0.004	0.029
-640.668	129.716	0.117	0.151
-639.653	150.136	0.172	-0.236
-638.638	-200.000	-0.022	0.110
-637.624	-19.184	-0.108	-0.067
-636.609	-197.154	0.297	-0.002
-635.595	-4.378	0.077	0.054
-634.580	243.808	-0.159	0.270
-633.565	712.378	0.039	0.105
-632.551	-200.000	-0.014	-0.073
-631.536	-200.000	0.008	0.059
-630.522	-121.106	-0.134	-0.023
-629.507	-132.750	-0.216	0.028
-628.492	-80.901	-0.131	-0.044
-627.478	86.171	0.186	0.207
-626.463	-30.226	0.087	0.050
-625.449	592.984	-0.113	0.281
-624.434	12.118	-0.235	-0.183
-623.419	-75.041	0.213	-0.077
-622.405	147.462	0.102	0.138
-621.390	691.370	-0.109	-0.287
-620.376	351.684	-0.173	-0.345
-619.361	800.000	-0.071	-0.285
-618.346	59.292	0.177	-0.176
-617.332	-153.914	-0.382	0.026
-616.317	-26.402	0.191	0.113
-615.303	42.310	-0.009	0.008
-614.288	-25.785	0.199	-0.118
-613.273	122.082	0.132	-0.167
-612.259	347.248	-0.054	0.106
-611.244	-15.220	-0.193	-0.125
-610.230	-99.721	-0.168	0.043
-609.215	-145.150	0.254	0.023
-608.201	800.000	0.077	0.283
-607.186	127.671	0.073	-0.094
-606.171	-200.000	0.022	-0.215
-605.157	800.000	-0.021	0.078
-604.142	-200.000	-0.005	-0.303
-603.128	42.685	-0.070	0.064
-602.113	-126.161	-0.103	-0.016
-601.098	-200.000	0.032	-0.299
-600.084	339.261	-0.113	0.223
-599.069	-75.477	-0.300	0.108
-598.055	203.757	0.113	0.176
-597.040	33.241	-0.211	-0.185
-596.025	-7.171	0.171	-0.117
-595.011	-200.000	-0.055	-0.312
-593.996	-87.343	-0.383	-0.117
-592.982	-200.000	0.041	-0.369
-591.967	-200.000	-0.034	-0.367
-590.952	-30.677	-0.316	-0.180
-589.938	144.187	-0.286	0.385
-588.923	-88.236	-0.281	-0.085
-587.909	-135.195	0.405	0.049
-586.894	728.973	0.051	-0.139
-585.879	-87.499	-0.183	0.056
-584.865	217.752	-0.091	0.146
-583.850	-6.049	-0.038	-0.026
-582.836	-148.421	-0.154	0.013
-581.821	-15.862	0.106	0.068
-580.806	21.730	-0.262	0.215
-579.792	-146.670	-0.159	-0.014
-578.777	-178.447	0.305	-0.007
-577.763	66.378	-0.173	0.178
-576.748	-152.438	-0.188	0.014
-575.733	118.056	0.037	-0.046
-574.719	-6.617	-0.145	0.099
-573.704	-46.439	0.044	0.022
-572.690	-38.135	-0.200	-0.107
-571.675	116.990	0.173	-0.215
-570.661	301.457	-0.203	0.379
-569.646	-100.238	0.079	0.020
-568.631	-102.660	-0.284	-0.068
-567.617	8.034	-0.328	0.248
-566.602	-200.000	-0.006	-0.152
-565.588	101.444	0.159	0.187
-564.573	91.436	0.208	0.235
-563.558	33.897	-0.176	0.154
-562.544	-34.733	-0.098	-0.054
-561.529	800.000	0.049	-0.141
-560.515	-85.072	0.130	0.041
-559.500	-107.276	0.112	-0.025
-558.485	594.242	-0.138	-0.345
-557.471	152.189	-0.197	0.271
-556.456	-200.000	0.021	0.520
-555.442	80.110	-0.164	-0.178
-554.427	-173.854	-0.120	-0.004
-553.412	-116.453	0.171	-0.032
-552.398	-116.068	-0.153	0.029
-551.383	36.477	-0.329	-0.292
-550.369	57.114	-0.109	-0.107
-549.354	34.934	0.113	0.100
-548.339	-200.000	0.013	-0.080
-547.325	800.000	0.090	-0.258
-546.310	520.743	0.086	-0.204
-545.296	239.809	0.068	-0.114
-544.281	-200.000	-0.023	-0.231
-543.266	-200.000	0.005	-0.031
-542.252	55.436	-0.099	-0.096
-541.237	-200.000	-0.008	-0.077
-540.223	-97.457	0.061	-0.016
-539.208	800.000	-0.012	-0.034
-538.193	-180.951	-0.352	-0.007
-537.179	125.120	0.075	-0.095
-536.164	374.835	-0.098	-0.202
-535.150	-200.000	-0.018	0.196
-534.135	31.009	0.002	-0.002
-533.121	-75.169	0.129	0.046
-532.106	800.000	-0.058	-0.192
-531.091	555.909	0.093	-0.226
-530.077	-57.613	-0.055	-0.024
-529.062	-29.949	0.274	-0.157
-528.048	-9.005	-0.252	-0.170
-527.033	13.547	0.279	-0.218
-526.018	-6.339	0.211	0.145
-525.004	-200.000	0.019	-0.114
-523.989	-145.281	0.461	0.042
-522.975	-43.131	0.171	-0.087
-521.960	800.000	0.077	0.265
-520.945	253.945	-0.165	-0.284
-519.931	800.000	0.045	0.181
-518.916	63.110	-0.037	0.037
-517.902	7.228	0.139	0.104
-516.887	800.000	0.058	-0.223
-515.872	-3.430	0.121	-0.085
-514.858	-200.000	0.003	-0.157
-513.843	800.000	-0.070	-0.219
-512.829	-42.043	0.386	-0.199
-511.814	-20.607	-0.174	-0.107
-510.799	623.369	-0.149	0.378
-509.785	800.000	0.108	0.428
-508.770	133.444	0.047	-0.061
-507.756	654.434	-0.074	-0.192
-506.741	178.996	0.142	-0.208
-505.726	-200.000	0.001	-0.384
-504.712	33.009	-0.316	0.275
-503.697	-66.410	0.136	-0.054
-502.683	800.000	-0.045	0.180
-501.668	-200.000	0.005	0.101
-500.653	-200.000	-0.020	-0.099
-499.639	55.217	0.223	-0.217
-498.624	-53.592	-0.079	-0.036
-497.610	-150.690	-0.302	0.023
-496.595	-200.000	0.052	0.265
-495.581	-163.320	-0.117	0.006
-494.566	28.175	0.307	-0.260
-493.551	214.869	0.026	-0.042
-492.537	327.599	-0.203	0.392
-491.522	800.000	-0.112	0.402
-490.508	-200.000	-0.025	-0.543
-489.493	113.730	0.045	-0.055
-488.478	22.616	0.177	0.146
-487.464	-89.570	-0.238	0.070
-486.449	-79.129	-0.144	0.049
-485.435	-88.965	0.191	-0.057
-484.420	285.290	-0.147	0.267
-483.405	-200.000	-0.009	-0.217
-482.391	482.856	0.038	0.086
-481.376	120.143	0.157	0.196
-480.362	-121.883	-0.203	0.034
-479.347	-200.000	-0.002	-0.183
-478.332	58.611	0.076	0.075
-477.318	13.864	-0.147	0.114
-476.303	31.622	0.250	0.216
-475.289	-131.618	-0.081	-0.011
-474.274	-125.959	-0.362	0.055
-473.259	-150.894	0.191	-0.015
-472.245	138.995	0.160	-0.211
-471.230	800.000	0.041	0.138
-470.216	-200.000	0.023	-0.112
-469.201	186.584	0.079	-0.119
-468.186	12.876	-0.255	0.198
-467.172	-141.575	-0.009	0.001
-466.157	-122.325	0.366	0.060
-465.143	119.979	-0.168	-0.209
-464.128	51.099	-0.100	0.095
-463.113	-149.684	0.201	-0.016
-462.099	-16.879	0.444	-0.281
-461.084	-200.000	-0.062	0.505
-460.070	-63.591	0.131	0.054
-459.055	165.920	-0.061	0.087
-458.040	449.707	0.091	-0.201
-457.026	-185.500	0.144	0.002
-456.011	-136.757	-0.188	0.022
-454.997	17.592	0.279	0.223
-453.982	-63.295	-0.382	0.158
-452.968	-159.645	0.224	0.012
-451.953	504.944	0.069	-0.161
-450.938	-72.325	0.144	-0.053
-449.924	307.389	-0.071	-0.133
-448.909	-43.829	0.061	-0.031
-447.895	503.625	0.081	-0.189
-446.880	272.692	-0.102	-0.180
-445.865	178.018	-0.066	0.096
-444.851	101.981	0.179	0.210
-443.836	-128.827	-0.475	0.067
-442.822	222.616	-0.079	-0.128
-441.807	-200.000	0.022	0.131
-440.792	-200.000	-0.021	-0.095
-439.778	800.000	0.042	-0.140
-438.763	-200.000	-0.045	-0.358
-437.749	-3.484	-0.194	-0.135
-436.734	800.000	0.052	-0.171
-435.719	-150.961	0.253	0.019
-434.705	-34.040	0.068	-0.037
-433.690	5.752	0.142	0.105
-432.676	230.057	-0.078	0.127
-431.661	-200.000	0.015	-0.094
-430.646	-32.471	-0.282	0.158
-429.632	800.000	-0.011	-0.030
-428.617	613.697	0.187	0.468
-427.603	-149.320	0.256	-0.020
-426.588	-200.000	0.038	0.177
-425.573	-0.769	0.264	0.187
-424.559	438.341	0.166	-0.362
-423.544	-200.000	0.000	-0.159
-422.530	205.578	0.205	-0.319
-421.515	34.420	0.259	-0.226
-420.500	136.520	0.310	-0.405
-419.486	-0.715	-0.055	-0.039
-418.471	155.989	-0.061	-0.084
-417.457	-18.286	-0.081	-0.051
-416.442	800.000	0.140	0.405
-415.428	-200.000	-0.035	0.221
-414.413	220.599	0.100	0.160
-413.398	186.677	0.274	0.409
-412.384	800.000	0.051	0.174
-411.369	-200.000	-0.008	0.258
-410.355	-118.556	-0.127	0.023
-409.340	-200.000	-0.062	0.274
-408.325	20.416	-0.175	-0.141
-407.311	-52.784	-0.008	0.004
-406.296	-79.595	0.285	0.097
-405.282	33.067	-0.024	-0.021
-404.267	800.000	-0.099	-0.418
-403.252	509.256	-0.038	0.088
-402.238	12.877	-0.359	-0.278
-401.223	595.364	-0.056	0.140
-400.209	-59.497	0.257	0.111
-399.194	-144.094	-0.245	-0.023
-398.179	-116.316	-0.162	0.030
-397.165	224.504	-0.111	-0.180
-396.150	-162.526	-0.276	-0.014
-395.136	-95.637	0.097	0.026
-394.121	-200.000	-0.075	-0.414
-393.106	121.299	-0.127	0.158
-392.092	800.000	0.019	-0.069
-391.077	-104.627	-0.126	0.029
-390.063	-140.381	0.095	0.010
-389.048	-120.019	0.155	-0.027
-388.033	20.955	0.183	0.148
-387.019	58.913	-0.189	0.186
-386.004	800.000	-0.066	-0.188
-384.990	135.884	-0.057	0.074
-383.975	50.854	-0.307	0.291
-382.960	-86.517	0.221	0.068
-381.946	-200.000	-0.025	-0.188
-380.931	-86.556	-0.368	-0.113
-379.917	-200.000	-0.009	0.071
-378.902	800.000	0.036	-0.149
-377.888	-133.195	0.170	0.021
-376.873	-200.000	0.003	0.284
-375.858	-170.146	-0.117	0.004
-374.844	-96.792	-0.117	0.031
-373.829	-135.488	-0.357	-0.043
-372.815	31.435	0.294	0.253
-371.800	-54.759	0.149	-0.067
-370.785	153.575	0.113	0.154
-369.771	122.167	0.160	-0.200
-368.756	-103.680	-0.028	0.007
-367.742	166.413	0.066	0.094
-366.727	-109.241	-0.079	-0.017
-365.712	-35.985	0.253	-0.137
-364.698	607.924	0.143	0.357
-363.683	-105.119	0.187	-0.043
-362.669	-46.150	0.185	0.091
-361.654	-70.460	-0.174	-0.066
-360.639	211.488	0.100	-0.158
-359.625	-61.743	0.336	0.141
-358.610	437.181	0.056	0.121
-357.596	59.381	0.190	-0.188
-356.581	-93.259	-0.378	-0.105
-355.566	-74.241	0.274	0.099
-354.552	-120.288	0.072	0.012
-353.537	800.000	0.011	-0.038
-352.523	405.533	-0.110	0.233
-351.508	-200.000	0.011	-0.133
-350.493	160.547	-0.081	-0.114
-349.479	-115.924	0.444	-0.083
-348.464	-56.864	0.214	-0.094
-347.450	-104.795	-0.199	0.046
-346.435	-97.051	0.124	-0.032
-345.420	-99.801	-0.344	-0.086
-344.406	201.940	-0.153	-0.237
-343.391	-80.272	-0.078	-0.026
-342.377	233.257	-0.246	-0.404
-341.362	-92.445	0.073	-0.021
-340.348	-200.000	-0.023	-0.193
-339.333	-45.332	-0.237	0.117
-338.318	264.786	0.141	-0.245
-337.304	-45.609	0.301	0.149
-336.289	-200.000	-0.026	0.402
-335.275	29.299	0.142	0.121
-334.260	-95.451	-0.214	0.057
-333.245	-22.435	0.154	0.093
-332.231	331.018	-0.229	-0.440
-331.216	-72.882	0.153	0.056
-330.202	-200.000	-0.007	-0.288
-329.187	-117.789	-0.354	0.063
-328.172	-19.070	0.128	-0.080
-327.158	-140.853	-0.253	-0.026
-326.143	-55.762	-0.209	0.093
-325.129	212.504	0.114	-0.180
-324.114	-200.000	0.027	0.156
-323.099	213.570	-0.087	-0.138
-322.085	10.110	-0.244	0.185
-321.070	-6.966	0.108	-0.073
-320.056	-200.000	-0.034	0.170
-319.041	475.694	-0.106	0.240
-318.026	139.539	-0.050	0.066
-317.012	-107.753	0.293	0.064
-315.997	-200.000	-0.006	0.050
-314.983	-200.000	-0.035	0.219
-313.968	-200.000	-0.032	-0.155
-312.953	-161.780	-0.155	-0.008
-311.939	-156.891	0.160	0.010
-310.924	-3.225	0.089	0.062
-309.910	306.359	-0.090	0.166
-308.895	-123.132	-0.320	0.051
-307.880	-200.000	-0.016	0.104
-306.866	-104.900	-0.146	-0.033
-305.851	-200.000	-0.001	0.099
-304.837	443.032	0.116	0.253
-303.822	35.595	-0.110	-0.097
-302.807	399.815	0.008	0.016
-301.793	-110.567	0.270	0.056
-300.778	704.516	0.069	0.181
-299.764	-126.522	-0.218	0.032
-298.749	-8.064	-0.279	0.188
-297.735	1.310	-0.101	0.072
-296.720	183.068	0.136	0.200
-295.705	-80.056	0.194	-0.065
-294.691	-158.064	0.384	0.023
-293.676	118.766	-0.040	-0.050
-292.662	33.239	-0.058	0.051
-291.647	-140.788	0.244	0.025
-290.632	-0.859	0.258	-0.182
-289.618	10.902	-0.032	0.024
-288.603	-100.541	0.168	0.042
-287.589	327.289	0.032	0.061
-286.574	-200.000	-0.017	-0.240
-285.559	-200.000	0.006	-0.060
-284.545	98.786	-0.160	0.184
-283.530	-133.263	0.052	0.007
-282.516	34.479	-0.415	-0.361
-281.501	502.894	0.096	0.222
-280.486	-67.178	0.092	0.036
-279.472	49.907	0.238	0.224
-278.457	-83.304	0.205	0.066
-277.443	14.650	-0.263	-0.205
-276.428	-71.834	-0.343	-0.127
-275.413	-79.649	-0.178	0.060
-274.399	-151.997	0.243	-0.018
-273.384	258.079	-0.223	-0.383
-272.370	102.566	-0.166	0.194
-271.355	-101.715	-0.322	0.078
-270.340	-61.570	0.373	-0.156
-269.326	-65.441	0.137	0.055
-268.311	-90.011	-0.150	-0.044
-267.297	-133.271	0.324	-0.041
-266.282	52.306	-0.047	-0.045
-265.267	-200.000	0.030	0.132
-264.253	-200.000	0.035	0.238
-263.238	-138.208	-0.274	0.030
-262.224	800.000	-0.103	0.358
-261.209	-200.000	0.020	-0.205
-260.195	-150.692	-0.211	-0.016
-259.180	800.000	0.112	-0.310
-258.165	-43.629	-0.278	0.140
-257.151	-81.104	-0.189	0.062
-256.136	-136.084	-0.368	-0.043
-255.122	140.217	0.071	-0.093
-254.107	13.498	0.153	0.119
-253.092	-55.073	-0.181	0.081
-252.078	-100.512	-0.379	-0.093
-251.063	13.373	-0.179	-0.138
-250.049	35.545	-0.186	-0.163
-249.034	-109.897	0.122	0.026
-248.019	282.554	0.149	-0.267
-247.005	-46.453	-0.039	0.019
-245.990	800.000	0.073	0.273
-244.976	82.120	0.326	-0.351
-243.961	1.814	0.228	-0.164
-242.946	-125.284	0.230	-0.035
-241.932	-200.000	0.031	0.136
-240.917	-88.361	-0.340	-0.101
-239.903	-100.690	0.193	-0.047
-238.888	648.141	0.109	0.278
-237.873	-10.452	0.232	0.153
-236.859	-167.688	0.143	0.006
-235.844	-30.431	0.236	0.133
-234.830	87.153	-0.209	0.230
-233.815	-200.000	0.013	-0.191
-232.800	-52.700	0.105	-0.048
-231.786	-30.431	-0.084	-0.048
-230.771	-200.000	-0.008	0.144
-229.757	29.929	-0.196	0.166
-228.742	109.162	0.171	0.204
-227.727	-200.000	0.030	0.220
-226.713	63.892	0.267	-0.267
-225.698	60.013	-0.018	0.018
-224.684	503.565	0.055	-0.126
-223.669	800.000	-0.045	0.136
-222.655	-200.000	-0.018	0.175
-221.640	-200.000	0.008	0.052
-220.625	-200.000	-0.010	-0.085
-219.611	-200.000	-0.001	0.128
-218.596	800.000	0.081	-0.235
-217.582	66.365	0.129	-0.131
-216.567	-200.000	-0.013	-0.324
-215.552	-122.520	0.264	0.043
-214.538	-12.989	0.240	-0.155
-213.523	140.462	0.064	-0.084
-212.509	-47.442	-0.170	0.082
-211.494	-36.199	-0.147	-0.079
-210.479	250.148	0.184	0.310
-209.465	-200.000	-0.016	0.219
-208.450	-74.038	-0.165	0.059
-207.436	313.611	0.131	0.245
-206.421	280.321	0.064	0.113
-205.406	29.348	0.098	-0.083
-204.392	-200.000	0.035	0.186
-203.377	-63.276	0.114	0.047
-202.363	-81.397	-0.293	0.096
-201.348	331.410	0.052	0.099
-200.333	-8.243	-0.147	0.099
-199.319	375.701	-0.079	-0.160
-198.304	-82.340	0.102	0.033
-197.290	-200.000	-0.229	0.000
-196.275	800.000	0.057	-0.164
-195.260	800.000	0.050	0.207
-194.246	308.199	0.094	0.175
-193.231	-200.000	0.046	0.309
-192.217	27.292	-0.231	-0.192
-191.202	-102.863	0.377	0.089
-190.187	-55.512	-0.088	0.039
-189.173	59.716	0.150	-0.147
-188.158	800.000	-0.086	0.321
-187.144	48.814	0.076	-0.071
-186.129	42.407	0.112	-0.101
-185.114	-85.155	0.074	-0.023
-184.100	264.778	0.205	0.355
-183.085	-150.170	0.168	-0.013
-182.071	215.928	0.182	-0.286
-181.056	219.816	-0.062	0.098
-180.042	331.834	0.175	0.334
-179.027	178.213	-0.174	0.252
-178.012	-48.993	-0.097	-0.046
-176.998	-144.305	0.151	-0.014
-175.983	-136.880	0.251	-0.029
-174.969	-65.479	-0.269	0.107
-173.954	303.093	-0.109	0.200
-172.939	-200.000	0.020	-0.174
-171.925	-34.545	-0.136	-0.074
-170.910	28.731	-0.172	0.145
-169.896	-97.855	0.270	0.069
-168.881	-200.000	-0.009	-0.183
-167.866	-77.356	-0.086	0.030
-166.852	-200.000	0.013	0.166
-165.837	-200.000	-0.027	-0.268
-164.823	-200.000	0.053	0.232
-163.808	-200.000	-0.037	-0.283
-162.793	-136.991	0.118	-0.013
-161.779	368.949	0.216	-0.434
-160.764	-62.192	-0.200	0.083
-159.750	32.137	0.062	-0.053
-158.735	-75.643	0.076	-0.027
-157.720	-200.000	-0.017	0.079
-156.706	-200.000	-0.010	-0.043
-155.691	-119.267	-0.206	-0.036
-154.677	324.515	-0.049	-0.093
-153.662	-93.268	-0.104	-0.029
-152.647	-191.502	-0.047	-0.000
-151.633	-180.458	0.130	0.003
-150.618	-11.521	0.235	-0.154
-149.604	-94.603	0.183	-0.049
-148.589	184.761	0.183	-0.269
-147.574	800.000	0.084	-0.320
-146.560	164.735	0.143	-0.201
-145.545	800.000	-0.025	-0.098
-144.531	800.000	0.064	0.265
-143.516	-60.951	-0.124	0.052
-142.502	108.704	-0.175	0.207
-141.487	328.200	-0.125	0.237
-140.472	-146.599	0.712	-0.061
-139.458	-101.167	-0.071	-0.017
-138.443	217.296	0.049	-0.077
-137.429	556.266	-0.033	0.079
-136.414	325.945	-0.103	0.195
-135.399	-36.123	0.096	-0.052
-134.385	209.431	0.227	-0.352
-133.370	-143.893	-0.413	-0.039
-132.356	94.911	0.256	0.289
-131.341	64.470	0.113	0.113
-130.326	-121.791	0.402	0.066
-129.312	247.606	0.133	0.222
-128.297	-167.830	-0.240	-0.009
-127.283	-200.000	-0.003	0.088
-126.268	800.000	0.119	-0.336
-125.253	315.116	0.031	0.058
-124.239	-53.623	-0.132	-0.060
-123.224	435.268	-0.045	0.097
-122.210	-121.702	0.260	0.043
