DTS Sentinel unit serial number:	SN413079Multiplexer serial number:	ORYXHardware model number:	OX4-SRSoftware version number:	ORYX F/W v4.00 Oryx Data Collector v3.7.2.0data status	okinstallation	princeton_trtdifferential loss correction	single-endedforward channel	channel 3reverse channel	N/Adate	2019/09/11time	14:02:11forward acquisition time	60.00reverse acquisition time	0.00gamma	496.2192k internal	0.2293k external	0.2293temperature offset calibration	0.9974default loss term (dB/km)	0.3790temperature slope calibration	1.0000multiplexer offset coefficient	1.0000multiplexer slope coefficient	1.0000fibre end	0.00T internal ref (°C)	41.89T ext. ref 1 (°C)	0.86T ext. ref 2 (°C)	36.44length (m)	temperature (°C)	Stokes	anti-Stokes-747.200	-200.000	-0.031	0.440
-746.185	204.328	0.327	0.519
-745.171	800.000	-0.086	0.325
-744.156	238.080	0.140	0.237
-743.142	339.768	0.029	0.058
-742.127	800.000	-0.117	0.464
-741.112	-200.000	-0.012	-0.169
-740.098	-124.891	-0.123	-0.019
-739.083	32.636	-0.134	0.118
-738.069	-117.088	-0.057	0.011
-737.054	-200.000	-0.037	0.316
-736.039	-119.079	0.393	-0.070
-735.025	-178.523	0.104	-0.002
-734.010	483.288	0.006	-0.014
-732.996	58.504	-0.085	0.085
-731.981	-36.994	-0.331	-0.182
-730.966	149.834	0.163	-0.225
-729.952	-147.209	0.176	0.015
-728.937	189.881	-0.110	-0.169
-727.923	-18.917	-0.151	-0.096
-726.908	244.509	0.057	0.098
-725.894	513.998	-0.068	-0.161
-724.879	800.000	-0.022	-0.064
-723.864	72.663	-0.216	-0.230
-722.850	80.352	0.337	-0.371
-721.835	-200.000	0.011	0.063
-720.821	-6.770	-0.389	-0.271
-719.806	800.000	-0.037	-0.130
-718.791	-89.189	-0.283	-0.085
-717.777	-145.740	-0.234	-0.021
-716.762	88.959	0.087	0.099
-715.748	650.396	-0.107	0.280
-714.733	75.909	-0.166	0.179
-713.718	17.516	-0.237	0.193
-712.704	-50.119	-0.122	0.059
-711.689	-200.000	0.028	-0.350
-710.675	65.333	-0.213	-0.220
-709.660	-200.000	-0.014	0.292
-708.645	-127.290	0.071	-0.011
-707.631	-115.697	-0.084	0.016
-706.616	-139.792	-0.106	-0.011
-705.602	-13.682	0.019	-0.013
-704.587	-200.000	0.002	-0.138
-703.572	-36.196	0.255	-0.141
-702.558	57.068	-0.146	0.145
-701.543	-200.000	-0.002	0.121
-700.529	-89.374	0.166	0.050
-699.514	-120.280	0.138	0.024
-698.499	800.000	-0.050	0.180
-697.485	327.440	-0.120	-0.234
-696.470	-200.000	0.025	-0.176
-695.456	367.178	0.075	0.154
-694.441	-56.742	0.195	-0.088
-693.426	-15.978	0.135	-0.088
-692.412	-37.993	-0.131	0.071
-691.397	-28.671	0.083	-0.049
-690.383	602.850	0.141	0.358
-689.368	-45.725	0.137	-0.069
-688.354	-125.347	0.102	0.016
-687.339	126.045	0.322	0.416
-686.324	-200.000	-0.016	0.204
-685.310	25.946	0.198	0.168
-684.295	-200.000	-0.018	-0.281
-683.281	-9.393	0.142	0.097
-682.266	-200.000	-0.053	-0.491
-681.251	-62.927	-0.417	0.176
-680.237	181.248	0.102	0.153
-679.222	644.949	0.109	-0.285
-678.208	245.956	-0.110	-0.189
-677.193	11.329	0.080	-0.063
-676.178	282.798	-0.174	-0.318
-675.164	-45.718	-0.114	-0.057
-674.149	-200.000	-0.007	0.044
-673.135	-135.068	-0.053	0.007
-672.120	800.000	-0.062	-0.274
-671.105	93.247	-0.123	0.142
-670.091	46.003	-0.109	-0.103
-669.076	84.962	0.102	-0.114
-668.062	0.259	-0.183	-0.133
-667.047	114.157	0.227	-0.282
-666.032	-8.751	-0.202	-0.138
-665.018	39.558	0.201	0.184
-664.003	334.397	-0.030	-0.059
-662.989	155.708	0.042	-0.060
-661.974	-200.000	0.009	-0.204
-660.959	246.652	0.071	0.122
-659.945	116.687	0.072	-0.091
-658.930	-123.566	-0.045	0.007
-657.916	-138.811	-0.147	-0.016
-656.901	-134.100	-0.381	0.048
-655.886	236.758	-0.111	0.187
-654.872	-12.359	-0.163	-0.109
-653.857	490.163	-0.199	0.464
-652.843	-17.955	-0.090	0.057
-651.828	-174.786	-0.121	0.003
-650.814	28.498	0.328	-0.283
-649.799	243.745	0.112	-0.192
-648.784	-76.707	0.080	-0.028
-647.770	174.029	-0.110	-0.162
-646.755	179.175	0.070	-0.105
-645.741	-107.594	-0.313	-0.070
-644.726	-200.000	0.001	0.073
-643.711	-111.657	-0.119	0.025
-642.697	-200.000	-0.034	0.278
-641.682	450.453	-0.150	-0.337
-640.668	157.042	-0.177	0.249
-639.653	800.000	-0.074	-0.326
-638.638	-25.720	0.239	0.144
-637.624	-110.536	0.234	0.049
-636.609	-108.182	-0.152	-0.033
-635.595	-120.901	0.159	0.027
-634.580	-200.000	0.018	0.123
-633.565	-163.883	-0.301	0.014
-632.551	-161.469	-0.136	0.007
-631.536	-186.615	-0.108	0.002
-630.522	105.406	-0.191	-0.230
-629.507	157.717	-0.202	-0.285
-628.492	800.000	0.075	-0.217
-627.478	182.875	-0.353	0.530
-626.463	419.912	0.078	-0.171
-625.449	-28.362	-0.120	-0.070
-624.434	145.200	0.127	0.173
-623.419	-64.004	-0.292	-0.121
-622.405	-200.000	0.002	-0.141
-621.390	-200.000	0.012	0.080
-620.376	92.120	-0.145	0.167
-619.361	157.978	-0.048	-0.068
-618.346	-138.576	-0.462	-0.052
-617.332	800.000	-0.065	-0.218
-616.317	800.000	0.060	-0.223
-615.303	-15.411	0.190	-0.123
-614.288	-81.701	-0.037	0.013
-613.273	-51.728	-0.195	0.092
-612.259	657.896	-0.092	-0.241
-611.244	-111.972	0.152	-0.031
-610.230	-27.771	0.099	0.058
-609.215	53.405	-0.078	-0.077
-608.201	-47.890	-0.110	0.054
-607.186	-133.874	0.172	-0.022
-606.171	800.000	0.051	0.196
-605.157	-149.703	-0.303	0.024
-604.142	-35.315	0.062	-0.034
-603.128	-54.747	0.070	0.032
-602.113	-49.461	-0.278	-0.135
-601.098	-161.155	-0.166	0.009
-600.084	-85.869	0.086	-0.027
-599.069	-200.000	0.013	0.195
-598.055	-200.000	0.016	0.169
-597.040	38.632	-0.067	-0.061
-596.025	433.452	0.121	-0.268
-595.011	5.709	0.283	-0.213
-593.996	-200.000	0.010	-0.628
-592.982	306.163	0.125	-0.237
-591.967	308.355	0.093	0.177
-590.952	-93.665	-0.036	0.010
-589.938	-0.637	0.040	0.029
-588.923	-91.369	0.447	-0.130
-587.909	-125.229	-0.450	-0.070
-586.894	47.517	0.158	-0.150
-585.879	128.172	-0.100	0.130
-584.865	122.238	-0.228	0.290
-583.850	655.880	0.089	0.232
-582.836	438.850	-0.060	0.133
-581.821	-27.331	-0.281	0.166
-580.806	-47.213	0.340	0.168
-579.792	337.342	0.086	0.170
-578.777	800.000	-0.100	-0.288
-577.763	-200.000	-0.037	-0.186
-576.748	-119.027	0.133	0.024
-575.733	-200.000	0.008	-0.068
-574.719	31.951	-0.131	0.115
-573.704	-200.000	-0.027	0.226
-572.690	-84.140	0.201	-0.065
-571.675	-144.439	-0.321	0.030
-570.661	-200.000	0.017	0.150
-569.646	264.445	-0.169	-0.299
-568.631	-194.830	-0.254	-0.002
-567.617	-33.477	0.163	-0.092
-566.602	-95.929	-0.302	-0.082
-565.588	73.169	0.168	0.178
-564.573	770.950	0.112	-0.311
-563.558	-200.000	0.012	-0.360
-562.544	-59.542	0.190	0.083
-561.529	4.286	0.341	0.253
-560.515	66.919	0.183	0.189
-559.500	147.738	0.104	0.143
-558.485	-44.197	-0.075	0.038
-557.471	-132.370	0.185	0.024
-556.456	-135.623	-0.233	-0.028
-555.442	800.000	-0.113	0.334
-554.427	-108.535	0.472	-0.103
-553.412	217.127	0.078	-0.126
-552.398	-200.000	0.012	-0.226
-551.383	93.612	-0.332	-0.382
-550.369	19.691	-0.224	0.183
-549.354	-190.496	-0.306	-0.003
-548.339	-170.022	0.104	0.004
-547.325	-200.000	-0.013	0.254
-546.310	453.960	0.078	0.176
-545.296	82.881	-0.035	-0.038
-544.281	783.357	0.013	0.037
-543.266	-200.000	-0.002	-0.362
-542.252	58.902	-0.139	-0.139
-541.237	92.384	-0.214	-0.245
-540.223	-6.002	0.158	0.110
-539.208	-200.000	-0.012	-0.167
-538.193	109.289	0.174	-0.211
-537.179	-176.065	-0.372	0.010
-536.164	47.630	-0.167	0.158
-535.150	-90.622	0.151	-0.044
-534.135	-9.657	0.225	0.152
-533.121	-32.089	0.267	0.151
-532.106	800.000	-0.023	0.076
-531.091	367.128	-0.097	-0.200
-530.077	155.237	0.055	-0.077
-529.062	-78.248	0.258	0.090
-528.048	-126.354	-0.183	0.028
-527.033	-200.000	0.002	0.249
-526.018	800.000	-0.080	-0.290
-525.004	-121.794	0.045	-0.008
-523.989	-83.272	-0.103	-0.033
-522.975	-121.439	-0.318	0.054
-521.960	238.722	0.267	0.450
-520.945	13.608	0.073	0.058
-519.931	800.000	0.051	-0.212
-518.916	-200.000	0.037	-0.259
-517.902	34.811	-0.261	-0.232
-516.887	174.394	0.084	0.123
-515.872	800.000	0.118	0.391
-514.858	732.510	0.056	0.152
-513.843	-9.946	-0.083	-0.056
-512.829	-32.679	-0.361	0.204
-511.814	-29.300	0.227	-0.132
-510.799	2.069	0.112	-0.082
-509.785	-108.744	-0.211	0.046
-508.770	-159.597	-0.167	0.009
-507.756	-136.221	-0.124	0.015
-506.741	222.914	-0.060	-0.098
-505.726	-35.817	0.107	-0.059
-504.712	42.404	0.101	0.093
-503.697	276.292	-0.119	0.214
-502.683	-48.843	0.124	-0.060
-501.668	30.529	0.166	-0.144
-500.653	225.694	0.195	0.321
-499.639	800.000	-0.058	-0.166
-498.624	140.321	-0.127	0.169
-497.610	59.530	0.030	-0.030
-496.595	40.588	-0.364	0.332
-495.581	65.666	0.083	-0.085
-494.566	800.000	0.022	0.080
-493.551	-200.000	-0.004	-0.056
-492.537	-100.293	-0.344	-0.086
-491.522	605.654	-0.082	-0.206
-490.508	98.898	-0.157	-0.183
-489.493	-200.000	-0.030	-0.165
-488.478	56.314	0.135	0.133
-487.464	800.000	0.014	-0.057
-486.449	-85.917	0.288	-0.090
-485.435	317.223	0.099	-0.190
-484.420	-200.000	-0.080	0.516
-483.405	16.992	0.162	0.130
-482.391	800.000	0.100	0.404
-481.376	-68.170	0.398	-0.157
-480.362	-105.797	0.548	-0.125
-479.347	81.752	-0.093	0.102
-478.332	0.709	0.145	0.105
-477.318	-30.670	0.135	0.077
-476.303	-65.627	0.246	-0.100
-475.289	26.699	-0.182	0.154
-474.274	236.809	0.169	-0.284
-473.259	-91.361	0.085	0.025
-472.245	294.449	0.041	-0.076
-471.230	-36.932	0.105	-0.057
-470.216	-113.696	-0.346	0.068
-469.201	57.109	-0.137	0.136
-468.186	-200.000	0.019	0.434
-467.172	26.624	-0.129	-0.109
-466.157	-72.506	-0.353	0.132
-465.143	-200.000	-0.080	0.451
-464.128	-200.000	-0.012	0.314
-463.113	-73.828	0.226	0.083
-462.099	108.168	-0.025	-0.031
-461.084	800.000	-0.109	-0.411
-460.070	-35.009	0.094	0.052
-459.055	419.341	-0.085	-0.184
-458.040	-200.000	-0.022	-0.209
-457.026	-115.670	-0.293	0.056
-456.011	800.000	-0.100	0.346
-454.997	69.021	0.082	-0.085
-453.982	-71.046	0.429	0.163
-452.968	-67.414	0.180	0.072
-451.953	-155.413	0.075	0.005
-450.938	114.275	0.035	-0.042
-449.924	165.427	0.132	-0.189
-448.909	58.965	-0.108	0.108
-447.895	-155.286	-0.340	-0.022
-446.880	192.994	0.221	0.338
-445.865	-156.607	0.273	0.017
-444.851	173.612	-0.193	-0.282
-443.836	-200.000	0.032	-0.155
-442.822	-147.489	-0.131	-0.011
-441.807	142.335	0.088	-0.119
-440.792	42.166	0.196	-0.180
-439.778	-138.141	0.339	-0.038
-438.763	161.819	-0.024	-0.033
-437.749	-92.699	-0.240	-0.068
-436.734	13.134	0.205	-0.160
-435.719	-132.748	-0.327	-0.042
-434.705	-93.458	-0.229	0.064
-433.690	-200.000	0.006	-0.161
-432.676	-200.000	-0.019	-0.156
-431.661	34.613	-0.177	0.156
-430.646	-66.348	0.557	-0.224
-429.632	-200.000	0.062	-0.542
-428.617	24.072	-0.196	-0.163
-427.603	-0.720	-0.186	0.133
-426.588	231.714	-0.187	-0.310
-425.573	-41.127	0.099	-0.051
-424.559	367.879	0.086	0.175
-423.544	800.000	-0.119	-0.465
-422.530	76.662	0.136	0.146
-421.515	10.966	0.235	0.181
-420.500	61.164	-0.178	0.179
-419.486	-200.000	-0.011	-0.200
-418.471	800.000	-0.077	0.326
-417.457	198.612	-0.193	-0.298
-416.442	27.783	0.272	0.231
-415.428	155.134	-0.151	-0.210
-414.413	-98.330	-0.098	-0.025
-413.398	-14.214	-0.150	0.098
-412.384	285.770	0.097	0.177
-411.369	525.421	-0.049	-0.118
-410.355	-29.823	0.456	0.263
-409.340	93.155	-0.089	0.101
-408.325	-200.000	0.080	-0.484
-407.311	-200.000	0.003	-0.174
-406.296	63.471	0.133	0.134
-405.282	-66.423	0.079	-0.032
-404.267	-100.430	-0.280	-0.070
-403.252	180.164	-0.201	0.297
-402.238	476.850	-0.187	0.426
-401.223	58.434	0.067	0.066
-400.209	-86.188	-0.237	-0.074
-399.194	-200.000	-0.003	-0.039
-398.179	-91.875	0.259	0.074
-397.165	-75.487	0.161	-0.058
-396.150	-53.340	0.206	-0.095
-395.136	-82.874	0.057	0.019
-394.121	-200.000	0.059	-0.309
-393.106	800.000	-0.047	0.135
-392.092	-2.674	0.135	0.096
-391.077	-51.408	0.384	0.181
-390.063	-26.508	0.188	0.111
-389.048	-106.805	0.167	-0.037
-388.033	-52.164	0.237	0.111
-387.019	371.001	0.071	0.145
-386.004	696.899	-0.115	0.306
-384.990	56.669	0.147	-0.145
-383.975	800.000	0.008	0.029
-382.960	56.293	0.217	-0.212
-381.946	-200.000	0.020	-0.119
-380.931	-23.357	0.130	0.079
-379.917	-60.586	-0.360	-0.154
-378.902	-60.690	0.035	0.015
-377.888	-0.573	-0.288	-0.206
-376.873	-96.887	-0.365	0.097
-375.858	-32.459	0.341	-0.192
-374.844	-132.768	0.119	0.015
-373.829	12.815	-0.298	0.232
-372.815	-101.965	0.084	-0.020
-371.800	27.349	0.294	0.249
-370.785	444.338	0.113	0.250
-369.771	38.927	-0.123	0.110
-368.756	-80.365	0.176	0.059
-367.742	-31.123	0.090	-0.051
-366.727	-137.855	-0.269	-0.030
-365.712	-94.241	-0.284	0.078
-364.698	-200.000	-0.041	-0.246
-363.683	314.051	-0.265	0.502
-362.669	-138.069	-0.327	0.037
-361.654	-177.676	-0.082	0.002
-360.639	800.000	0.011	-0.039
-359.625	-51.450	-0.241	0.114
-358.610	53.278	0.140	0.135
-357.596	38.481	0.123	0.111
-356.581	-51.189	-0.208	-0.098
-355.566	-200.000	-0.017	-0.248
-354.552	-73.480	0.552	0.203
-353.537	-64.214	-0.342	0.141
-352.523	-170.644	-0.173	-0.006
-351.508	484.682	-0.077	-0.177
-350.493	-2.540	-0.151	0.107
-349.479	36.255	0.060	0.053
-348.464	68.209	0.155	-0.160
-347.450	-22.577	0.200	-0.122
-346.435	800.000	-0.087	-0.344
-345.420	-121.233	-0.282	0.048
-344.406	-118.973	0.093	0.016
-343.391	-75.436	-0.162	-0.058
-342.377	58.196	0.149	-0.147
-341.362	-40.972	0.270	0.140
-340.348	342.284	0.110	0.217
-339.333	-40.981	-0.305	-0.159
-338.318	-16.658	0.153	-0.098
-337.304	-112.122	-0.207	-0.042
-336.289	-200.000	-0.002	0.008
-335.275	800.000	-0.014	-0.057
-334.260	252.835	0.197	0.338
-333.245	60.649	0.081	0.081
-332.231	-104.283	-0.068	0.016
-331.216	93.058	-0.117	0.134
-330.202	10.698	-0.160	-0.123
-329.187	-135.541	-0.102	0.012
-328.172	-9.413	-0.201	0.135
-327.158	-108.324	0.156	-0.034
-326.143	278.609	-0.093	0.166
-325.129	42.540	-0.158	0.145
-324.114	800.000	-0.039	-0.162
-323.099	171.158	-0.076	-0.110
-322.085	13.016	0.247	0.193
-321.070	-153.245	0.117	0.008
-320.056	-92.749	-0.138	-0.039
-319.041	0.616	0.138	0.099
-318.026	113.342	0.200	0.245
-317.012	406.184	-0.140	0.297
-315.997	-39.204	0.245	-0.130
-314.983	108.281	0.012	0.014
-313.968	710.121	0.103	0.275
-312.953	312.452	0.143	-0.270
-311.939	92.157	-0.296	-0.336
-310.924	-66.805	-0.136	0.054
-309.910	60.783	0.131	0.130
-308.895	-200.000	0.004	-0.474
-307.880	48.814	0.241	0.227
-306.866	10.886	0.065	-0.050
-305.851	-200.000	0.003	0.156
-304.837	-200.000	0.044	0.259
-303.822	-144.043	0.456	0.043
-302.807	31.449	0.144	0.125
-301.793	123.190	0.107	-0.135
-300.778	-143.014	0.216	-0.021
-299.764	63.127	-0.125	-0.126
-298.749	-81.670	0.140	0.046
-297.735	-19.823	0.184	-0.115
-296.720	378.452	-0.064	0.133
-295.705	86.410	0.078	-0.087
-294.691	800.000	-0.057	-0.217
-293.676	28.136	0.274	0.233
-292.662	-18.435	-0.027	0.017
-291.647	-128.219	-0.414	-0.059
-290.632	-200.000	-0.023	0.112
-289.618	-159.357	-0.098	0.006
-288.603	-200.000	0.014	-0.179
-287.589	131.393	0.188	-0.242
-286.574	-112.739	0.136	0.027
-285.559	-200.000	-0.059	0.391
-284.545	-200.000	-0.030	0.190
-283.530	385.050	-0.042	0.087
-282.516	52.759	0.151	-0.145
-281.501	-200.000	0.081	-0.439
-280.486	503.304	-0.080	-0.186
-279.472	-86.385	0.230	-0.071
-278.457	-146.886	-0.201	0.017
-277.443	40.571	0.300	-0.272
-276.428	-54.232	-0.165	0.075
-275.413	800.000	-0.007	0.020
-274.399	-89.035	-0.209	-0.062
-273.384	-200.000	-0.009	-0.049
-272.370	-136.164	-0.127	0.015
-271.355	-200.000	-0.010	-0.065
-270.340	139.622	0.243	-0.322
-269.326	105.692	0.219	0.260
-268.311	154.472	0.199	0.274
-267.297	-29.417	-0.333	-0.191
-266.282	-38.326	-0.297	0.158
-265.267	-200.000	0.008	0.231
-264.253	83.899	0.293	0.321
-263.238	132.480	-0.124	0.160
-262.224	19.811	-0.212	-0.171
-261.209	328.500	-0.024	0.046
-260.195	-52.950	-0.132	0.061
-259.180	76.448	-0.141	0.150
-258.165	259.520	0.154	0.267
-257.151	111.261	-0.033	0.040
-256.136	-200.000	-0.024	-0.144
-255.122	13.360	-0.204	-0.159
-254.107	800.000	-0.034	0.119
-253.092	-165.220	-0.198	0.009
-252.078	-84.063	0.175	0.056
-251.063	135.617	0.063	-0.082
-250.049	530.500	-0.077	-0.182
-249.034	-97.584	0.359	-0.094
-248.019	62.790	0.108	-0.108
-247.005	101.042	0.095	-0.111
-245.990	-38.201	0.286	0.152
-244.976	-86.279	-0.074	-0.023
-243.961	89.205	0.036	-0.041
-242.946	-200.000	0.001	0.064
-241.932	-26.993	0.189	0.111
-240.917	800.000	-0.105	-0.349
-239.903	-30.877	0.040	0.023
-238.888	-152.109	-0.250	-0.018
-237.873	-66.060	0.197	0.079
-236.859	257.306	0.018	-0.031
-235.844	191.663	-0.151	0.229
-234.830	-0.208	-0.216	0.154
-233.815	598.178	-0.098	0.243
-232.800	-122.743	0.327	0.053
-231.786	800.000	0.062	-0.176
-230.771	91.068	0.049	-0.055
-229.757	-97.978	0.160	0.041
-228.742	-200.000	0.009	-0.086
-227.727	-72.466	-0.208	-0.077
-226.713	-200.000	-0.002	0.041
-225.698	-14.686	0.239	-0.154
-224.684	61.285	-0.085	0.085
-223.669	-157.505	-0.149	-0.009
-222.655	-200.000	0.006	-0.246
-221.640	800.000	0.071	-0.207
-220.625	-200.000	-0.032	-0.172
-219.611	32.493	-0.062	0.054
-218.596	-157.364	0.175	0.011
-217.582	-125.364	0.238	-0.036
-216.567	-77.737	-0.278	-0.096
-215.552	45.397	0.188	-0.174
-214.538	-129.869	0.324	-0.045
-213.523	-38.583	-0.328	0.174
-212.509	-23.851	0.240	0.144
-211.494	-200.000	-0.048	0.000
-210.479	615.555	-0.050	-0.126
-209.465	283.350	0.070	0.125
-208.450	78.495	0.086	-0.092
-207.436	180.342	0.156	0.229
-206.421	163.468	-0.187	0.264
-205.406	481.939	-0.108	0.246
-204.392	-125.004	0.133	-0.020
-203.377	213.607	0.011	0.018
-202.363	-147.053	-0.252	-0.022
-201.348	-136.328	0.103	0.012
-200.333	-122.110	-0.385	-0.063
-199.319	-15.391	0.121	-0.077
-198.304	-200.000	-0.032	0.284
-197.290	-200.000	-0.030	0.197
-196.275	-200.000	0.018	-0.104
-195.260	42.489	-0.103	-0.094
-194.246	468.390	0.026	0.058
-193.231	94.515	0.197	-0.224
-192.217	98.036	0.127	-0.147
-191.202	-54.237	0.223	0.101
-190.187	-200.000	-0.000	0.215
-189.173	-28.911	0.005	-0.003
-188.158	-182.977	-0.293	0.005
-187.144	-60.191	0.298	-0.127
-186.129	35.916	0.127	0.112
-185.114	-111.838	0.258	0.052
-184.100	-115.764	-0.158	-0.030
-183.085	-200.000	-0.018	0.137
-182.071	479.364	-0.081	-0.184
-181.056	-200.000	-0.014	0.167
-180.042	-55.098	0.152	-0.068
-179.027	257.704	-0.114	-0.197
-178.012	290.579	-0.129	-0.235
-176.998	800.000	0.045	0.144
-175.983	-200.000	-0.026	-0.387
-174.969	-133.355	-0.045	0.006
-173.954	-200.000	0.014	-0.198
-172.939	800.000	-0.112	-0.414
-171.925	800.000	0.138	0.389
-170.910	800.000	0.145	0.415
-169.896	-200.000	0.035	-0.174
-168.881	-200.000	-0.072	0.338
-167.866	146.792	-0.299	0.403
-166.852	-200.000	-0.062	-0.291
-165.837	73.440	0.103	0.108
-164.823	-74.003	-0.250	0.091
-163.808	72.608	-0.103	-0.108
-162.793	335.678	0.172	-0.334
-161.779	-182.571	0.338	-0.006
-160.764	-138.653	-0.266	0.029
-159.750	-200.000	-0.096	-0.534
-158.735	-10.574	-0.109	-0.072
-157.720	-115.117	0.198	-0.038
-156.706	77.780	0.058	0.062
-155.691	-200.000	-0.053	0.458
-154.677	-88.780	-0.178	0.053
-153.662	-113.560	-0.139	-0.027
-152.647	-7.403	-0.290	-0.196
-151.633	590.094	-0.085	0.209
-150.618	800.000	0.045	0.190
-149.604	10.989	-0.033	-0.025
-148.589	-105.541	-0.194	0.044
-147.574	800.000	-0.027	0.086
-146.560	564.238	0.122	-0.297
-145.545	-200.000	0.000	-0.319
-144.531	-37.582	-0.049	-0.026
-143.516	-117.099	-0.189	0.034
-142.502	-77.221	0.118	-0.041
-141.487	-200.000	0.005	0.366
-140.472	-200.000	0.002	-0.241
-139.458	426.598	0.119	-0.257
-138.443	800.000	0.072	0.213
-137.429	-59.533	-0.286	0.123
-136.414	-186.150	0.168	-0.002
-135.399	-107.299	0.337	-0.074
-134.385	-200.000	-0.005	0.114
-133.370	63.905	-0.203	0.204
-132.356	-59.092	-0.086	-0.037
-131.341	532.390	-0.035	0.083
-130.326	146.638	0.165	0.221
-129.312	-152.218	0.584	-0.042
-128.297	589.795	-0.049	-0.120
-127.283	371.885	-0.114	0.232
-126.268	800.000	-0.071	0.243
-125.253	398.807	-0.139	0.291
-124.239	122.996	-0.103	0.128
-123.224	-200.000	-0.015	0.129
-122.210	422.451	0.005	-0.011
-121.195	46.145	-0.044	0.040
