DTS Sentinel unit serial number:	SN413079Multiplexer serial number:	ORYXHardware model number:	OX4-SRSoftware version number:	ORYX F/W v4.00 Oryx Data Collector v3.7.2.0data status	okinstallation	princeton_trtdifferential loss correction	single-endedforward channel	channel 3reverse channel	N/Adate	2019/09/11time	08:30:11forward acquisition time	60.00reverse acquisition time	0.00gamma	496.2192k internal	0.2315k external	0.2315temperature offset calibration	0.9942default loss term (dB/km)	0.3790temperature slope calibration	1.0000multiplexer offset coefficient	1.0000multiplexer slope coefficient	1.0000fibre end	0.00T internal ref (°C)	33.11T ext. ref 1 (°C)	0.10T ext. ref 2 (°C)	30.87length (m)	temperature (°C)	Stokes	anti-Stokes-747.200	715.754	0.083	-0.224
-746.185	30.955	0.212	-0.184
-745.171	-71.524	-0.408	0.155
-744.156	444.225	0.110	0.244
-743.142	775.289	0.058	0.162
-742.127	13.959	-0.154	0.122
-741.112	68.634	0.131	0.137
-740.098	-127.398	-0.406	-0.060
-739.083	-101.074	0.188	-0.047
-738.069	800.000	-0.071	0.237
-737.054	-200.000	0.009	-0.056
-736.039	-96.870	-0.186	-0.050
-735.025	800.000	-0.077	0.298
-734.010	-103.952	-0.260	0.061
-732.996	-65.090	-0.133	-0.054
-731.981	-93.349	0.183	0.051
-730.966	-200.000	-0.007	0.179
-729.952	-79.133	-0.394	0.136
-728.937	-200.000	-0.021	0.104
-727.923	258.440	0.073	0.127
-726.908	58.469	-0.030	-0.030
-725.894	347.410	-0.171	-0.342
-724.879	-51.782	-0.143	-0.067
-723.864	598.944	-0.105	-0.264
-722.850	-84.164	-0.118	-0.038
-721.835	-13.752	-0.329	-0.216
-720.821	43.244	-0.180	-0.166
-719.806	156.999	-0.027	0.038
-718.791	-73.067	-0.236	0.088
-717.777	-200.000	0.028	0.176
-716.762	-200.000	-0.017	-0.237
-715.748	603.136	0.069	-0.174
-714.733	-155.722	-0.301	-0.020
-713.718	401.253	-0.137	-0.292
-712.704	157.766	-0.092	0.129
-711.689	84.530	-0.158	-0.175
-710.675	-91.739	0.110	-0.032
-709.660	-200.000	0.001	-0.100
-708.645	218.697	0.312	-0.505
-707.631	183.420	-0.120	-0.180
-706.616	480.014	0.030	-0.070
-705.602	-82.910	0.352	-0.115
-704.587	410.202	0.055	-0.117
-703.572	11.855	-0.221	0.172
-702.558	146.946	0.136	0.185
-701.543	-95.715	0.110	0.030
-700.529	-200.000	-0.003	-0.017
-699.514	11.038	-0.130	-0.101
-698.499	-113.299	-0.329	-0.065
-697.485	165.860	0.050	0.072
-696.470	800.000	-0.028	-0.120
-695.456	36.472	-0.123	0.110
-694.441	-82.210	-0.278	0.092
-693.426	298.733	0.149	0.277
-692.412	33.625	-0.203	0.179
-691.397	-200.000	-0.003	-0.166
-690.383	-112.410	-0.129	0.026
-689.368	778.677	-0.051	-0.141
-688.354	136.838	0.119	-0.157
-687.339	33.322	0.137	0.120
-686.324	-177.130	0.133	-0.003
-685.310	330.547	0.162	-0.315
-684.295	800.000	-0.062	-0.239
-683.281	-200.000	0.037	-0.264
-682.266	49.280	-0.374	-0.356
-681.251	-148.477	0.093	-0.008
-680.237	5.009	0.203	0.151
-679.222	-60.904	0.058	-0.025
-678.208	-200.000	0.041	0.356
-677.193	50.073	0.266	0.254
-676.178	-32.169	-0.145	-0.082
-675.164	-200.000	0.008	-0.629
-674.149	115.951	0.238	-0.295
-673.135	522.035	-0.054	0.127
-672.120	-77.132	-0.141	-0.050
-671.105	114.400	0.062	-0.076
-670.091	-186.788	0.307	0.004
-669.076	-44.773	-0.038	-0.019
-668.062	-200.000	-0.001	0.050
-667.047	800.000	0.101	-0.335
-666.032	-99.718	0.222	-0.056
-665.018	800.000	-0.057	-0.194
-664.003	-200.000	-0.029	-0.255
-662.989	-85.061	0.299	-0.095
-661.974	-22.708	-0.068	0.042
-660.959	656.989	0.059	0.153
-659.945	-200.000	0.005	0.268
-658.930	-86.566	-0.436	-0.135
-657.916	151.090	-0.110	-0.152
-656.901	800.000	0.074	-0.262
-655.886	113.010	0.073	0.089
-654.872	-200.000	-0.061	0.358
-653.857	-139.726	-0.170	0.018
-652.843	-18.588	0.272	0.171
-651.828	247.483	-0.052	-0.089
-650.814	61.302	-0.168	-0.168
-649.799	472.846	0.108	0.245
-648.784	248.995	-0.123	-0.210
-647.770	154.766	0.123	-0.170
-646.755	-29.297	-0.257	-0.149
-645.741	800.000	0.053	-0.189
-644.726	-118.568	0.042	-0.008
-643.711	-97.341	-0.266	0.070
-642.697	-76.744	-0.192	0.068
-641.682	-113.536	-0.469	0.093
-640.668	630.785	-0.132	-0.337
-639.653	182.181	0.100	-0.149
-638.638	30.615	-0.278	-0.240
-637.624	-30.626	0.212	0.121
-636.609	152.461	-0.208	0.286
-635.595	111.675	-0.298	-0.363
-634.580	147.921	-0.110	-0.149
-633.565	-200.000	-0.030	-0.474
-632.551	-140.131	0.266	0.028
-631.536	36.554	-0.230	-0.205
-630.522	800.000	-0.077	-0.294
-629.507	193.509	0.072	-0.110
-628.492	800.000	-0.030	-0.110
-627.478	-83.936	-0.358	-0.115
-626.463	-200.000	-0.016	-0.313
-625.449	-89.119	0.191	-0.057
-624.434	-71.045	0.321	0.122
-623.419	-79.407	-0.280	-0.096
-622.405	-91.596	-0.237	-0.068
-621.390	800.000	0.036	0.156
-620.376	-73.155	0.244	-0.090
-619.361	139.639	-0.105	0.140
-618.346	52.972	0.217	0.209
-617.332	-200.000	0.001	-0.165
-616.317	31.008	0.149	0.129
-615.303	-125.079	-0.188	0.029
-614.288	-45.437	-0.114	0.057
-613.273	385.562	0.035	0.073
-612.259	800.000	0.043	0.152
-611.244	111.767	0.146	0.178
-610.230	53.365	0.071	0.069
-609.215	16.624	-0.194	0.155
-608.201	-6.199	0.214	0.148
-607.186	-168.540	0.272	-0.010
-606.171	-12.906	-0.248	0.163
-605.157	-117.040	0.249	-0.046
-604.142	31.628	0.146	0.127
-603.128	-200.000	0.001	0.073
-602.113	265.143	-0.126	-0.222
-601.098	83.854	-0.072	0.079
-600.084	800.000	-0.119	-0.353
-599.069	-98.687	0.271	-0.070
-598.055	109.239	0.213	-0.257
-597.040	21.978	-0.184	-0.151
-596.025	664.767	0.058	-0.150
-595.011	132.903	-0.133	-0.174
-593.996	-200.000	0.021	-0.198
-592.982	27.124	-0.204	-0.173
-591.967	-200.000	-0.023	-0.135
-590.952	-117.595	0.218	-0.040
-589.938	35.894	0.037	0.032
-588.923	-1.946	0.099	-0.070
-587.909	361.660	-0.097	-0.196
-586.894	18.734	-0.257	-0.207
-585.879	13.828	-0.066	-0.052
-584.865	73.175	-0.188	0.198
-583.850	-27.167	0.121	-0.071
-582.836	800.000	-0.073	0.231
-581.821	111.403	-0.212	-0.257
-580.806	760.147	-0.153	0.419
-579.792	-42.589	-0.132	0.068
-578.777	135.563	0.115	-0.151
-577.763	800.000	0.050	-0.186
-576.748	-48.241	0.109	-0.053
-575.733	204.251	0.167	0.260
-574.719	324.790	-0.016	-0.031
-573.704	800.000	0.105	-0.337
-572.690	-200.000	0.017	-0.201
-571.675	98.724	0.097	-0.113
-570.661	-19.611	0.041	-0.026
-569.646	-42.149	0.176	-0.091
-568.631	-116.458	-0.152	-0.028
-567.617	-49.229	-0.365	-0.176
-566.602	166.853	0.025	0.036
-565.588	-200.000	-0.022	0.158
-564.573	-132.309	-0.288	-0.037
-563.558	150.664	-0.242	0.332
-562.544	21.395	0.119	0.097
-561.529	-200.000	0.022	0.116
-560.515	-4.924	-0.253	-0.175
-559.500	-200.000	-0.013	0.121
-558.485	103.841	-0.117	-0.138
-557.471	-36.102	0.174	0.094
-556.456	-3.815	0.271	-0.189
-555.442	-114.462	-0.241	0.047
-554.427	633.299	-0.182	-0.465
-553.412	-46.782	0.195	0.096
-552.398	154.591	0.150	0.207
-551.383	-93.176	-0.116	0.032
-550.369	-45.185	0.293	0.146
-549.354	-200.000	0.014	-0.600
-548.339	-200.000	-0.200	0.001
-547.325	-154.725	-0.393	-0.026
-546.310	-19.907	0.415	-0.258
-545.296	-99.849	0.090	0.023
-544.281	-200.000	0.002	0.029
-543.266	-134.826	0.311	-0.038
-542.252	800.000	-0.060	-0.237
-541.237	159.277	-0.310	-0.433
-540.223	-104.984	-0.081	0.019
-539.208	179.579	-0.064	-0.094
-538.193	113.956	-0.083	0.101
-537.179	195.407	0.101	0.154
-536.164	-105.580	0.162	-0.037
-535.150	81.706	0.062	0.068
-534.135	451.709	-0.102	-0.226
-533.121	687.722	-0.079	-0.207
-532.106	800.000	-0.005	-0.017
-531.091	159.698	0.044	0.061
-530.077	-146.594	0.323	0.028
-529.062	298.843	-0.068	0.126
-528.048	800.000	-0.048	-0.166
-527.033	560.465	-0.075	-0.183
-526.018	-200.000	-0.027	-0.136
-525.004	800.000	-0.074	-0.234
-523.989	28.610	-0.105	-0.090
-522.975	-200.000	0.027	0.195
-521.960	-47.667	-0.239	0.116
-520.945	-14.364	-0.392	0.253
-519.931	-200.000	0.009	-0.087
-518.916	52.425	-0.141	0.135
-517.902	-200.000	-0.031	0.218
-516.887	-81.638	-0.218	0.072
-515.872	-21.825	-0.191	0.117
-514.858	2.420	0.269	0.196
-513.843	-200.000	-0.014	0.090
-512.829	500.546	-0.078	0.182
-511.814	9.748	-0.221	0.168
-510.799	800.000	0.076	-0.280
-509.785	3.280	0.128	-0.094
-508.770	164.911	-0.070	-0.099
-507.756	-136.547	0.315	0.037
-506.741	-102.078	-0.162	0.039
-505.726	-56.965	0.245	0.108
-504.712	78.730	-0.258	0.278
-503.697	800.000	-0.019	-0.062
-502.683	23.399	-0.143	-0.118
-501.668	-118.024	-0.215	-0.039
-500.653	296.305	-0.111	0.204
-499.639	674.869	0.090	0.235
-498.624	-6.082	0.091	0.062
-497.610	531.256	0.032	0.076
-496.595	267.968	-0.110	0.193
-495.581	-26.081	-0.107	0.063
-494.566	293.320	0.085	-0.156
-493.551	11.387	-0.088	0.067
-492.537	267.724	-0.018	-0.032
-491.522	186.120	0.119	0.178
-490.508	-21.487	0.154	-0.094
-489.493	126.803	-0.038	-0.048
-488.478	319.483	-0.061	0.117
-487.464	-187.329	-0.336	-0.005
-486.449	-200.000	0.087	0.440
-485.435	-200.000	-0.034	0.154
-484.420	91.934	0.053	-0.060
-483.405	39.152	0.137	-0.123
-482.391	-200.000	-0.011	-0.081
-481.376	-78.949	-0.177	0.060
-480.362	-91.595	0.131	-0.037
-479.347	33.891	0.075	0.065
-478.332	-23.705	-0.161	0.097
-477.318	17.958	0.082	-0.065
-476.303	448.290	-0.057	-0.125
-475.289	800.000	0.039	0.139
-474.274	-16.393	0.117	-0.074
-473.259	800.000	-0.076	-0.262
-472.245	-137.387	-0.089	-0.010
-471.230	103.784	-0.061	-0.071
-470.216	-92.762	0.174	-0.049
-469.201	40.508	0.322	-0.291
-468.186	21.890	-0.157	-0.128
-467.172	-23.623	0.173	-0.104
-466.157	46.003	-0.158	-0.147
-465.143	-200.000	-0.365	-0.000
-464.128	472.866	-0.213	-0.482
-463.113	-200.000	0.029	0.233
-462.099	72.368	0.259	-0.270
-461.084	-31.656	0.271	0.153
-460.070	-27.207	-0.176	-0.103
-459.055	-200.000	-0.026	0.286
-458.040	-39.077	-0.156	-0.082
-457.026	-29.989	0.219	0.125
-456.011	-5.643	-0.278	0.191
-454.997	61.898	0.082	0.082
-453.982	-80.119	-0.142	-0.048
-452.968	800.000	-0.048	0.160
-451.953	32.592	0.100	0.087
-450.938	-106.634	-0.047	-0.010
-449.924	47.145	0.159	0.148
-448.909	-87.150	-0.119	0.036
-447.895	-158.437	-0.250	0.015
-446.880	-152.475	0.193	-0.014
-445.865	76.256	-0.117	0.124
-444.851	-200.000	0.006	0.263
-443.836	113.172	-0.084	-0.102
-442.822	-87.124	-0.055	0.017
-441.807	735.614	-0.122	0.327
-440.792	-200.000	0.044	0.273
-439.778	280.907	0.199	0.357
-438.763	-200.000	-0.065	0.313
-437.749	-70.125	0.177	-0.067
-436.734	-89.711	0.209	0.061
-435.719	58.165	-0.104	0.102
-434.705	-124.135	-0.092	-0.014
-433.690	-4.718	0.169	0.117
-432.676	314.435	0.059	-0.111
-431.661	-103.055	0.558	-0.132
-430.646	67.240	0.081	-0.083
-429.632	-200.000	-0.081	0.369
-428.617	662.394	-0.138	-0.356
-427.603	-47.891	0.015	0.007
-426.588	-200.000	-0.012	0.341
-425.573	28.088	0.238	-0.201
-424.559	-23.473	-0.243	0.146
-423.544	57.140	-0.150	-0.146
-422.530	800.000	0.088	-0.265
-421.515	-16.263	0.195	-0.124
-420.500	800.000	0.045	-0.149
-419.486	-200.000	-0.018	0.099
-418.471	-3.947	0.171	0.118
-417.457	-200.000	-0.030	-0.177
-416.442	1.786	0.187	0.135
-415.428	-114.117	0.252	-0.049
-414.413	-35.643	-0.131	-0.071
-413.398	-200.000	-0.019	-0.143
-412.384	800.000	-0.043	-0.173
-411.369	-121.264	0.301	-0.050
-410.355	134.675	-0.124	0.161
-409.340	-50.504	0.088	0.041
-408.325	-200.000	0.017	0.337
-407.311	48.911	0.182	0.171
-406.296	53.148	-0.322	0.309
-405.282	-133.246	-0.396	0.050
-404.267	411.883	0.042	-0.090
-403.252	-200.000	0.013	0.134
-402.238	246.370	0.047	-0.079
-401.223	-200.000	0.019	-0.227
-400.209	649.140	0.112	0.285
-399.194	-94.519	0.311	-0.085
-398.179	-87.003	-0.188	-0.057
-397.165	50.351	-0.164	-0.155
-396.150	-61.748	-0.110	-0.046
-395.136	184.731	0.172	0.255
-394.121	19.499	0.170	-0.136
-393.106	-123.682	0.429	-0.068
-392.092	-24.901	-0.347	0.206
-391.077	-200.000	0.002	0.050
-390.063	-82.122	0.055	-0.018
-389.048	800.000	0.053	-0.172
-388.033	-54.167	0.329	-0.149
-387.019	237.310	0.092	0.152
-386.004	-110.916	0.065	-0.013
-384.990	-116.271	0.082	-0.015
-383.975	200.209	0.026	0.040
-382.960	148.626	0.075	0.101
-381.946	-200.000	0.034	0.180
-380.931	-99.368	0.198	-0.050
-379.917	-19.525	0.258	0.160
-378.902	-26.830	-0.254	0.148
-377.888	-98.108	-0.359	-0.092
-376.873	-84.269	-0.375	0.119
-375.858	-124.864	-0.110	-0.017
-374.844	48.923	0.258	0.242
-373.829	-34.265	-0.245	0.134
-372.815	800.000	-0.027	0.092
-371.800	-57.266	-0.204	-0.090
-370.785	82.200	0.018	0.019
-369.771	12.844	-0.055	0.042
-368.756	-1.178	0.171	0.121
-367.742	29.390	0.250	-0.213
-366.727	163.702	-0.170	-0.239
-365.712	705.388	0.093	-0.245
-364.698	92.266	-0.221	0.249
-363.683	-200.000	-0.014	-0.116
-362.669	-200.000	0.024	-0.325
-361.654	634.515	0.062	0.156
-360.639	422.022	-0.052	-0.112
-359.625	704.184	-0.018	0.047
-358.610	-89.053	-0.261	0.077
-357.596	800.000	-0.022	0.074
-356.581	320.195	-0.105	0.199
-355.566	159.376	0.134	-0.186
-354.552	-128.554	-0.081	-0.011
-353.537	348.671	0.178	0.350
-352.523	409.027	-0.017	-0.036
-351.508	339.509	0.136	0.265
-350.493	-95.033	-0.124	0.033
-349.479	-85.589	0.086	0.027
-348.464	68.667	-0.143	-0.146
-347.450	485.955	0.077	-0.175
-346.435	668.997	-0.059	0.151
-345.420	-148.690	0.214	0.017
-344.406	264.423	-0.094	-0.163
-343.391	-89.657	-0.272	-0.079
-342.377	271.875	0.185	-0.325
-341.362	-6.223	-0.085	0.058
-340.348	342.003	0.049	0.096
-339.333	-54.417	-0.307	-0.139
-338.318	416.889	0.136	0.290
-337.304	-73.281	-0.254	-0.093
-336.289	-200.000	0.022	0.147
-335.275	-82.212	-0.225	0.073
-334.260	-200.000	-0.008	-0.316
-333.245	188.435	-0.150	0.223
-332.231	-21.317	0.394	-0.240
-331.216	-102.180	0.302	-0.072
-330.202	-69.530	0.320	-0.122
-329.187	-102.453	0.121	0.029
-328.172	800.000	0.052	0.200
-327.158	191.159	0.117	-0.175
-326.143	800.000	-0.051	-0.207
-325.129	-24.349	0.164	-0.098
-324.114	-200.000	0.038	0.573
-323.099	120.993	-0.109	0.136
-322.085	-5.333	-0.268	-0.184
-321.070	800.000	0.143	-0.537
-320.056	800.000	0.013	-0.044
-319.041	-200.000	-0.028	0.259
-318.026	500.320	-0.122	-0.281
-317.012	343.068	0.135	-0.264
-315.997	224.044	0.040	0.065
-314.983	632.347	0.101	-0.256
-313.968	13.440	0.108	-0.083
-312.953	800.000	0.060	-0.191
-311.939	-76.545	-0.017	0.006
-310.924	-200.000	0.021	0.562
-309.910	-200.000	0.006	0.198
-308.895	-178.165	-0.179	0.004
-307.880	-117.685	0.117	0.021
-306.866	-74.259	-0.184	0.066
-305.851	-200.000	-0.019	-0.145
-304.837	335.511	0.034	-0.065
-303.822	800.000	-0.027	0.111
-302.807	-134.132	0.226	-0.028
-301.793	-101.013	0.627	0.153
-300.778	-92.386	0.406	0.114
-299.764	-107.718	0.553	-0.120
-298.749	419.523	0.171	0.364
-297.735	-200.000	0.087	0.453
-296.720	-112.083	-0.199	0.040
-295.705	3.674	0.240	0.174
-294.691	285.519	0.108	0.194
-293.676	800.000	0.057	0.160
-292.662	-200.000	0.005	0.045
-291.647	800.000	-0.054	0.190
-290.632	-88.876	0.285	-0.084
-289.618	800.000	-0.051	-0.144
-288.603	-96.008	-0.249	0.066
-287.589	108.571	-0.114	0.135
-286.574	-200.000	0.001	-0.192
-285.559	-6.558	-0.287	0.195
-284.545	25.016	0.055	-0.045
-283.530	-200.000	-0.028	-0.193
-282.516	-92.131	-0.288	-0.081
-281.501	13.559	0.235	0.182
-280.486	-200.000	0.008	-0.308
-279.472	-127.086	-0.573	0.084
-278.457	106.303	0.144	-0.170
-277.443	-79.265	-0.072	0.024
-276.428	280.574	-0.055	-0.098
-275.413	-36.884	-0.298	0.159
-274.399	800.000	0.026	0.087
-273.384	-200.000	0.017	-0.128
-272.370	-95.088	0.355	-0.095
-271.355	-122.058	-0.326	-0.053
-270.340	-46.746	0.251	-0.122
-269.326	-200.000	-0.015	0.182
-268.311	-200.000	-0.022	0.188
-267.297	-10.170	0.259	-0.171
-266.282	800.000	0.044	0.149
-265.267	-60.727	-0.231	0.097
-264.253	-41.501	0.147	-0.075
-263.238	55.132	0.123	0.118
-262.224	-200.000	-0.047	-0.425
-261.209	-46.210	0.217	-0.106
-260.195	800.000	-0.067	0.246
-259.180	-200.000	0.046	-0.408
-258.165	410.416	-0.083	-0.175
-257.151	-200.000	-0.005	0.168
-256.136	-200.000	-0.009	0.130
-255.122	-33.443	0.319	-0.175
-254.107	43.410	0.054	-0.049
-253.092	335.329	0.088	-0.170
-252.078	1.452	-0.300	-0.215
-251.063	-200.000	0.050	0.274
-250.049	325.156	-0.129	0.245
-249.034	679.366	-0.152	-0.394
-248.019	-200.000	0.076	-0.447
-247.005	421.250	0.064	-0.137
-245.990	364.079	-0.021	-0.042
-244.976	-174.579	0.470	0.013
-243.961	120.396	0.175	0.216
-242.946	800.000	-0.055	-0.194
-241.932	-200.000	0.033	0.274
-240.917	209.187	0.152	-0.237
-239.903	800.000	-0.113	-0.348
-238.888	-1.908	-0.366	0.256
-237.873	49.173	0.286	-0.267
-236.859	522.709	-0.031	-0.072
-235.844	-200.000	-0.011	-0.098
-234.830	800.000	0.057	0.221
-233.815	-66.688	-0.172	0.068
-232.800	-200.000	0.008	0.195
-231.786	-129.488	0.287	0.039
-230.771	-200.000	0.044	-0.222
-229.757	-68.505	-0.189	0.073
-228.742	-200.000	-0.023	0.128
-227.727	434.376	0.055	0.119
-226.713	-200.000	-0.036	0.227
-225.698	-18.987	-0.132	0.082
-224.684	-166.671	-0.108	-0.004
-223.669	800.000	0.046	-0.148
-222.655	157.646	-0.178	0.245
-221.640	-52.936	0.407	0.186
-220.625	41.426	-0.216	-0.194
-219.611	243.590	0.065	-0.107
-218.596	800.000	0.049	0.138
-217.582	-12.625	-0.164	0.106
-216.567	-200.000	-0.026	0.209
-215.552	800.000	-0.059	0.163
-214.538	-200.000	0.046	0.000
-213.523	-183.305	-0.199	0.003
-212.509	-35.413	0.065	0.035
-211.494	7.050	-0.100	0.074
-210.479	-144.534	0.281	-0.026
-209.465	800.000	-0.100	0.420
-208.450	-148.196	-0.167	-0.014
-207.436	-182.042	-0.105	0.002
-206.421	-200.000	-0.014	0.063
-205.406	-197.995	-0.394	-0.002
-204.392	214.386	0.052	-0.082
-203.377	800.000	-0.042	-0.136
-202.363	800.000	-0.031	0.115
-201.348	173.387	-0.241	-0.345
-200.333	137.114	0.233	0.302
-199.319	36.045	0.165	-0.144
-198.304	800.000	-0.009	-0.027
-197.290	23.927	-0.056	0.046
-196.275	-187.969	0.184	0.002
-195.260	-41.234	0.240	0.123
-194.246	43.716	-0.253	-0.229
-193.231	-96.597	-0.324	-0.085
-192.217	186.766	0.073	-0.107
-191.202	-200.000	-0.032	-0.216
-190.187	6.914	-0.064	0.047
-189.173	-200.000	0.032	0.153
-188.158	-200.000	0.036	-0.234
-187.144	-200.000	0.037	0.182
-186.129	408.867	-0.190	0.399
-185.114	-193.982	0.204	0.002
-184.100	4.352	0.396	-0.288
-183.085	564.135	-0.066	-0.158
-182.071	-200.000	0.005	0.052
-181.056	41.425	-0.187	0.168
-180.042	103.899	-0.211	-0.246
-179.027	-200.000	-0.012	-0.295
-178.012	-200.000	0.011	0.229
-176.998	-200.000	-0.002	-0.041
-175.983	-76.430	-0.232	0.081
-174.969	-127.297	0.459	-0.066
-173.954	231.236	-0.118	0.191
-172.939	24.837	0.141	-0.116
-171.925	-200.000	0.002	-0.046
-170.910	-200.000	-0.033	0.202
-169.896	163.999	-0.014	0.020
-168.881	-14.246	0.171	-0.109
-167.866	-173.756	0.176	0.005
-166.852	-200.000	-0.090	0.692
-165.837	9.095	0.335	0.251
-164.823	689.743	0.013	-0.035
-163.808	155.122	-0.141	0.192
-162.793	280.606	-0.109	-0.193
-161.779	-10.641	0.134	-0.088
-160.764	-163.233	0.320	-0.015
-159.750	-92.341	-0.246	0.069
-158.735	7.025	0.201	0.148
-157.720	-200.000	0.039	0.252
-156.706	-191.412	-0.143	-0.001
-155.691	141.104	0.100	0.132
-154.677	20.352	0.357	0.286
-153.662	177.039	-0.112	-0.162
-152.647	-157.612	-0.234	0.014
-151.633	-100.322	0.042	-0.010
-150.618	-50.384	0.431	0.202
-149.604	-165.608	0.211	-0.009
-148.589	-107.872	0.318	-0.068
-147.574	-73.066	-0.155	0.056
-146.560	-117.256	-0.156	-0.028
-145.545	-135.008	0.318	0.038
-144.531	223.917	0.101	-0.162
-143.516	575.245	0.125	-0.303
-142.502	-27.091	0.443	-0.256
-141.487	64.604	0.090	0.090
-140.472	-200.000	-0.019	-0.096
-139.458	-20.062	0.197	-0.120
-138.443	-143.033	0.203	0.019
-137.429	-95.759	0.192	0.051
-136.414	-52.394	-0.243	0.111
-135.399	-93.206	0.121	-0.033
-134.385	138.495	-0.092	-0.119
-133.370	-38.383	0.059	-0.031
-132.356	-68.175	0.275	-0.106
-131.341	207.405	0.094	0.145
-130.326	58.354	0.240	0.233
-129.312	-108.431	0.145	-0.031
-128.297	113.504	0.144	-0.173
-127.283	-200.000	0.008	-0.827
-126.268	-80.464	-0.194	-0.064
-125.253	62.782	-0.127	-0.126
-124.239	800.000	0.078	-0.221
-123.224	154.797	0.110	-0.149
-122.210	-46.374	-0.151	-0.074
-121.195	-118.357	0.144	0.025
