DTS Sentinel unit serial number:	SN413079Multiplexer serial number:	ORYXHardware model number:	OX4-SRSoftware version number:	ORYX F/W v4.00 Oryx Data Collector v3.7.2.0data status	okinstallation	princeton_trtdifferential loss correction	single-endedforward channel	channel 3reverse channel	N/Adate	2019/09/10time	16:10:11forward acquisition time	60.00reverse acquisition time	0.00gamma	496.2192k internal	0.2299k external	0.2299temperature offset calibration	0.9901default loss term (dB/km)	0.3790temperature slope calibration	1.0000multiplexer offset coefficient	1.0000multiplexer slope coefficient	1.0000fibre end	0.00T internal ref (°C)	38.31T ext. ref 1 (°C)	-0.28T ext. ref 2 (°C)	31.17length (m)	temperature (°C)	Stokes	anti-Stokes-747.200	154.731	0.101	0.142
-746.185	111.429	0.167	-0.205
-745.171	800.000	0.073	-0.242
-744.156	-35.099	-0.160	-0.089
-743.142	-152.413	0.210	0.015
-742.127	421.593	0.032	-0.070
-741.112	-167.179	0.115	0.005
-740.098	428.890	0.327	0.722
-739.083	710.888	0.166	0.449
-738.069	-200.000	-0.001	0.205
-737.054	83.673	-0.195	-0.217
-736.039	800.000	0.021	-0.078
-735.025	-56.817	0.246	0.111
-734.010	64.545	-0.121	-0.125
-732.996	-150.647	-0.397	-0.031
-731.981	-38.717	-0.227	-0.122
-730.966	800.000	0.062	-0.180
-729.952	-87.166	-0.269	0.084
-728.937	-162.582	0.251	-0.013
-727.923	330.643	0.127	0.250
-726.908	516.141	-0.096	0.229
-725.894	-71.125	-0.417	0.160
-724.879	-100.913	-0.279	-0.070
-723.864	-55.654	-0.293	-0.134
-722.850	387.878	-0.141	0.297
-721.835	-52.890	-0.201	-0.095
-720.821	-61.176	-0.201	0.086
-719.806	800.000	0.055	-0.175
-718.791	800.000	-0.067	-0.231
-717.777	87.655	-0.041	0.047
-716.762	45.969	-0.086	-0.081
-715.748	-85.163	0.139	-0.044
-714.733	33.690	0.163	-0.144
-713.718	54.779	-0.127	0.125
-712.704	12.023	-0.080	-0.063
-711.689	53.161	0.329	-0.321
-710.675	800.000	-0.108	-0.480
-709.660	60.538	0.169	0.171
-708.645	-137.483	-0.374	-0.043
-707.631	800.000	-0.041	-0.135
-706.616	-117.041	0.220	0.041
-705.602	-59.774	-0.125	0.055
-704.587	37.075	-0.123	0.111
-703.572	21.822	0.122	-0.102
-702.558	-125.653	0.065	0.010
-701.543	287.881	-0.153	0.281
-700.529	90.939	0.058	0.066
-699.514	-0.582	0.230	0.166
-698.499	-200.000	-0.042	0.215
-697.485	-111.851	0.190	-0.039
-696.470	-200.000	-0.001	0.024
-695.456	-13.939	0.309	0.203
-694.441	-52.039	-0.079	0.037
-693.426	-200.000	-0.018	-0.126
-692.412	-24.358	-0.196	0.119
-691.397	-200.000	-0.032	0.256
-690.383	54.402	0.112	-0.110
-689.368	-1.945	-0.236	-0.169
-688.354	-200.000	-0.003	-0.018
-687.339	571.116	-0.054	-0.134
-686.324	292.611	-0.038	0.071
-685.310	-40.518	0.404	0.213
-684.295	513.555	-0.072	-0.171
-683.281	171.580	0.178	0.260
-682.266	-200.000	-0.012	-0.253
-681.251	359.828	-0.106	-0.216
-680.237	800.000	-0.026	-0.089
-679.222	77.206	-0.157	0.170
-678.208	-155.268	-0.208	-0.014
-677.193	-103.130	-0.205	-0.049
-676.178	23.891	0.047	0.040
-675.164	145.482	0.233	-0.318
-674.149	288.062	0.187	-0.344
-673.135	-14.156	-0.069	-0.046
-672.120	-200.000	0.021	0.118
-671.105	277.392	0.085	-0.154
-670.091	-200.000	-0.056	0.335
-669.076	59.822	0.057	0.057
-668.062	42.672	0.116	0.107
-667.047	629.626	-0.079	-0.203
-666.032	-123.287	0.265	-0.043
-665.018	149.968	0.296	-0.409
-664.003	207.765	-0.062	0.099
-662.989	42.322	-0.043	-0.040
-661.974	-11.331	-0.291	0.195
-660.959	150.749	0.178	-0.246
-659.945	800.000	0.063	0.184
-658.930	800.000	-0.061	-0.232
-657.916	-13.243	-0.306	-0.202
-656.901	163.862	-0.152	-0.217
-655.886	66.440	-0.147	0.152
-654.872	-133.697	-0.157	-0.020
-653.857	-131.124	-0.138	-0.019
-652.843	-109.162	0.217	0.047
-651.828	-200.000	0.004	0.091
-650.814	-85.923	-0.256	-0.080
-649.799	-68.691	0.121	0.047
-648.784	28.084	0.074	-0.064
-647.770	800.000	0.133	0.445
-646.755	-107.822	-0.474	-0.105
-645.741	629.669	0.112	0.287
-644.726	122.705	-0.097	-0.124
-643.711	66.741	-0.195	-0.202
-642.697	12.132	-0.147	-0.115
-641.682	311.923	-0.175	0.333
-640.668	36.874	0.071	0.063
-639.653	-200.000	0.010	0.142
-638.638	-53.165	-0.175	-0.082
-637.624	-200.000	-0.045	0.215
-636.609	-33.283	0.187	0.105
-635.595	66.379	0.244	-0.252
-634.580	-146.694	0.292	-0.026
-633.565	-200.000	0.016	0.092
-632.551	268.782	-0.178	0.317
-631.536	800.000	-0.111	0.471
-630.522	39.590	-0.215	0.196
-629.507	27.692	-0.134	0.115
-628.492	-200.000	-0.011	0.260
-627.478	53.399	0.082	-0.080
-626.463	175.407	0.177	-0.261
-625.449	75.421	-0.133	0.142
-624.434	-200.000	-0.018	-0.190
-623.419	213.080	-0.125	-0.200
-622.405	8.667	0.049	0.038
-621.390	-38.425	-0.342	-0.184
-620.376	-112.601	-0.024	-0.005
-619.361	-200.000	-0.015	-0.203
-618.346	-39.176	-0.365	0.195
-617.332	-61.787	-0.222	-0.095
-616.317	-33.916	-0.268	-0.150
-615.303	-19.361	0.287	0.181
-614.288	-118.721	-0.161	-0.029
-613.273	-98.269	0.317	-0.083
-612.259	327.277	0.017	-0.032
-611.244	-200.000	-0.092	0.433
-610.230	379.788	0.097	0.202
-609.215	482.264	-0.118	-0.271
-608.201	-28.353	0.419	0.246
-607.186	44.316	0.042	-0.039
-606.171	-200.000	-0.024	-0.155
-605.157	800.000	-0.032	-0.121
-604.142	-98.722	0.074	0.019
-603.128	38.753	-0.112	0.101
-602.113	657.424	-0.077	-0.202
-601.098	-116.597	0.303	-0.057
-600.084	-7.140	-0.285	-0.196
-599.069	152.856	-0.026	0.036
-598.055	147.916	0.252	-0.345
-597.040	185.499	-0.118	0.178
-596.025	36.435	0.325	-0.291
-595.011	800.000	0.051	0.161
-593.996	150.520	0.193	0.265
-592.982	-33.827	-0.213	0.119
-591.967	151.430	0.233	-0.321
-590.952	339.911	-0.036	-0.072
-589.938	114.867	-0.051	0.063
-588.923	800.000	0.040	0.160
-587.909	46.863	0.104	0.098
-586.894	92.524	0.247	-0.282
-585.879	616.471	0.097	-0.248
-584.865	-199.231	0.412	-0.002
-583.850	649.204	-0.094	-0.245
-582.836	63.142	0.070	0.072
-581.821	-200.000	-0.052	0.259
-580.806	-100.132	0.116	0.029
-579.792	-166.964	0.289	0.012
-578.777	-42.701	-0.353	0.182
-577.763	-200.000	0.001	0.295
-576.748	800.000	0.110	0.364
-575.733	203.228	-0.073	-0.114
-574.719	-144.167	0.124	0.012
-573.704	226.708	0.199	0.328
-572.690	-88.853	-0.235	0.071
-571.675	-123.033	0.139	0.023
-570.661	3.510	-0.207	0.153
-569.646	36.218	0.066	0.059
-568.631	-20.819	-0.250	0.155
-567.617	321.932	-0.047	-0.092
-566.602	98.535	-0.201	-0.235
-565.588	274.356	-0.081	0.146
-564.573	-31.174	-0.173	0.099
-563.558	-153.602	-0.282	-0.020
-562.544	68.223	0.097	0.100
-561.529	-200.000	0.002	0.019
-560.515	-150.523	-0.252	-0.020
-559.500	123.379	-0.122	0.155
-558.485	800.000	-0.094	0.411
-557.471	-91.896	-0.079	0.023
-556.456	73.314	0.039	-0.041
-555.442	209.213	-0.131	0.207
-554.427	-200.000	-0.011	0.089
-553.412	58.763	-0.088	-0.087
-552.398	122.029	-0.175	0.221
-551.383	800.000	0.066	0.209
-550.369	344.994	0.115	0.228
-549.354	-200.000	0.042	0.212
-548.339	309.969	0.056	0.106
-547.325	-102.367	-0.148	0.036
-546.310	-109.321	-0.248	-0.053
-545.296	-200.000	-0.023	0.245
-544.281	-200.000	0.021	-0.410
-543.266	800.000	0.041	-0.115
-542.252	-50.179	0.394	0.189
-541.237	-200.000	0.099	0.497
-540.223	-200.000	0.076	0.381
-539.208	137.247	-0.129	0.170
-538.193	800.000	-0.112	0.416
-537.179	800.000	-0.044	-0.151
-536.164	-128.110	-0.169	0.024
-535.150	79.646	0.177	-0.192
-534.135	23.641	-0.032	0.026
-533.121	-200.000	-0.012	-0.099
-532.106	-54.190	0.121	-0.056
-531.091	129.948	-0.081	0.105
-530.077	14.967	0.090	0.072
-529.062	303.403	0.124	-0.232
-528.048	-35.924	0.196	-0.107
-527.033	-200.000	0.010	0.084
-526.018	389.898	0.154	0.322
-525.004	-200.000	-0.097	0.466
-523.989	800.000	0.013	-0.057
-522.975	179.510	0.125	0.185
-521.960	25.470	-0.270	-0.227
-520.945	-61.498	-0.113	-0.048
-519.931	-200.000	0.003	-0.132
-518.916	-161.601	-0.315	-0.016
-517.902	800.000	0.089	-0.256
-516.887	315.713	-0.050	-0.095
-515.872	186.951	-0.042	0.063
-514.858	-140.343	0.240	-0.025
-513.843	356.200	-0.121	-0.244
-512.829	-200.000	0.015	-0.182
-511.814	601.152	-0.012	0.030
-510.799	121.770	-0.084	0.106
-509.785	-39.524	-0.141	-0.074
-508.770	-27.671	-0.232	-0.136
-507.756	800.000	-0.025	-0.077
-506.741	-40.107	-0.132	0.069
-505.726	-200.000	0.169	0.000
-504.712	39.750	0.157	0.142
-503.697	476.506	-0.077	0.177
-502.683	367.729	0.125	0.256
-501.668	-40.013	0.217	0.114
-500.653	-152.798	0.290	-0.021
-499.639	23.363	0.099	0.083
-498.624	352.537	0.102	0.204
-497.610	800.000	0.037	0.106
-496.595	-108.381	-0.291	-0.063
-495.581	-3.068	-0.263	0.185
-494.566	-59.919	0.247	-0.107
-493.551	800.000	-0.107	-0.397
-492.537	193.397	-0.188	-0.288
-491.522	-72.574	-0.027	0.010
-490.508	98.620	0.154	-0.180
-489.493	-50.722	-0.185	-0.088
-488.478	159.560	-0.082	0.115
-487.464	-4.480	0.217	0.151
-486.449	-178.746	0.155	-0.004
-485.435	-200.000	0.005	-0.100
-484.420	-171.410	-0.140	0.005
-483.405	-200.000	0.012	-0.277
-482.391	-200.000	0.070	-0.365
-481.376	-9.369	0.289	0.195
-480.362	800.000	-0.121	-0.345
-479.347	114.795	-0.016	0.020
-478.332	-200.000	-0.024	0.175
-477.318	271.915	0.085	-0.151
-476.303	-93.474	-0.338	-0.095
-475.289	-200.000	-0.009	-0.143
-474.274	800.000	0.057	-0.164
-473.259	-200.000	-0.012	-0.173
-472.245	33.435	0.051	0.045
-471.230	332.022	0.164	0.320
-470.216	382.146	-0.050	0.103
-469.201	445.692	0.016	-0.035
-468.186	-20.700	0.021	-0.013
-467.172	30.555	0.129	0.111
-466.157	800.000	-0.052	0.148
-465.143	41.520	-0.313	-0.286
-464.128	-68.038	-0.156	0.062
-463.113	-143.932	0.295	-0.028
-462.099	-21.572	-0.276	-0.170
-461.084	800.000	0.037	-0.121
-460.070	-7.424	-0.254	0.173
-459.055	-119.467	0.209	0.037
-458.040	187.189	0.234	-0.352
-457.026	71.842	-0.022	0.023
-456.011	8.738	-0.120	-0.091
-454.997	403.590	-0.122	-0.259
-453.982	-200.000	-0.001	-0.052
-452.968	-200.000	0.033	0.444
-451.953	-73.605	-0.415	-0.153
-450.938	-200.000	-0.073	-0.563
-449.924	-49.600	-0.186	-0.089
-448.909	-108.955	-0.121	0.026
-447.895	569.411	-0.066	0.162
-446.880	-200.000	0.014	0.111
-445.865	674.686	-0.101	-0.263
-444.851	-24.948	-0.060	-0.036
-443.836	-200.000	-0.024	0.225
-442.822	151.434	0.026	-0.036
-441.807	414.490	0.004	0.008
-440.792	-104.700	-0.177	0.041
-439.778	-16.307	0.113	-0.072
-438.763	87.141	-0.170	0.189
-437.749	135.874	0.151	0.198
-436.734	53.939	-0.181	-0.176
-435.719	237.940	-0.110	-0.184
-434.705	-146.322	0.163	0.014
-433.690	72.817	0.171	0.180
-432.676	38.917	-0.293	-0.263
-431.661	800.000	0.093	0.325
-430.646	71.003	0.182	0.190
-429.632	77.949	0.216	-0.233
-428.617	113.063	0.057	0.070
-427.603	-43.902	0.395	0.200
-426.588	42.985	0.087	-0.080
-425.573	-5.203	-0.269	0.186
-424.559	318.532	-0.126	0.241
-423.544	-56.174	0.165	-0.074
-422.530	10.445	-0.296	-0.227
-421.515	800.000	-0.073	0.290
-420.500	-200.000	0.012	0.133
-419.486	108.832	0.038	0.046
-418.471	-53.500	0.285	0.131
-417.457	111.177	0.371	-0.450
-416.442	-31.113	-0.309	0.176
-415.428	-89.752	-0.140	-0.041
-414.413	-131.347	-0.118	-0.016
-413.398	800.000	-0.034	0.143
-412.384	-135.409	-0.417	0.050
-411.369	657.615	0.112	0.289
-410.355	-68.501	0.243	0.095
-409.340	352.660	0.160	-0.320
-408.325	-117.080	0.099	0.018
-407.311	-200.000	0.038	0.252
-406.296	-27.703	0.117	0.068
-405.282	312.958	-0.144	0.272
-404.267	-139.516	0.030	0.003
-403.252	-138.825	0.126	-0.014
-402.238	62.505	0.088	0.089
-401.223	777.480	0.046	0.125
-400.209	-83.034	0.285	-0.092
-399.194	203.923	-0.038	-0.060
-398.179	154.555	-0.037	0.051
-397.165	634.688	0.101	0.258
-396.150	800.000	-0.099	-0.336
-395.136	-192.073	0.049	-0.000
-394.121	-141.125	-0.423	-0.043
-393.106	-4.944	-0.108	-0.075
-392.092	800.000	-0.028	-0.122
-391.077	173.470	0.178	0.259
-390.063	797.974	-0.111	0.309
-389.048	37.944	-0.137	0.123
-388.033	-7.806	-0.301	-0.204
-387.019	-133.968	0.053	-0.007
-386.004	-100.024	0.523	-0.131
-384.990	427.278	-0.151	0.327
-383.975	-108.809	0.261	0.056
-382.960	-200.000	-0.079	-0.378
-381.946	800.000	0.095	0.268
-380.931	-200.000	0.010	0.072
-379.917	-123.902	-0.186	0.030
-378.902	-176.129	0.033	0.001
-377.888	28.335	0.297	-0.253
-376.873	60.293	0.133	0.132
-375.858	-200.000	-0.006	-0.084
-374.844	-151.504	-0.103	0.008
-373.829	800.000	-0.027	-0.103
-372.815	-83.097	-0.147	-0.048
-371.800	-169.491	0.174	0.006
-370.785	800.000	0.042	-0.135
-369.771	361.504	-0.098	-0.197
-368.756	-32.245	0.400	0.224
-367.742	-152.037	0.444	-0.032
-366.727	375.414	-0.045	-0.093
-365.712	-200.000	-0.122	0.000
-364.698	27.439	0.213	0.180
-363.683	222.642	-0.165	-0.268
-362.669	6.887	-0.351	-0.263
-361.654	-70.398	-0.007	0.003
-360.639	-200.000	0.036	-0.218
-359.625	-36.645	0.060	0.032
-358.610	-72.675	0.178	-0.066
-357.596	-200.000	0.018	0.214
-356.581	-11.304	-0.143	0.094
-355.566	247.420	-0.128	-0.218
-354.552	-96.794	0.208	-0.055
-353.537	1.430	0.075	-0.054
-352.523	264.365	-0.150	0.263
-351.508	-61.347	0.282	0.119
-350.493	800.000	0.036	-0.147
-349.479	-28.501	-0.427	-0.247
-348.464	595.434	-0.036	-0.089
-347.450	-69.122	0.209	-0.081
-346.435	-134.836	0.172	-0.021
-345.420	57.186	-0.080	0.078
-344.406	378.811	0.087	-0.178
-343.391	800.000	-0.064	0.267
-342.377	-76.677	-0.067	-0.024
-341.362	-127.297	-0.201	0.030
-340.348	-133.263	0.149	-0.019
-339.333	58.617	0.429	-0.423
-338.318	145.125	-0.294	-0.395
-337.304	63.706	0.094	-0.095
-336.289	-200.000	0.001	0.119
-335.275	676.001	-0.072	0.188
-334.260	90.330	-0.109	-0.123
-333.245	300.559	0.137	0.254
-332.231	-32.726	0.380	0.212
-331.216	129.381	-0.031	0.039
-330.202	-79.977	-0.149	0.050
-329.187	70.346	0.129	-0.133
-328.172	201.701	-0.065	-0.101
-327.158	282.197	0.050	-0.091
-326.143	-200.000	-0.022	0.206
-325.129	-41.819	-0.329	-0.169
-324.114	37.130	0.157	-0.140
-323.099	-200.000	-0.008	-0.287
-322.085	164.558	-0.110	-0.156
-321.070	-4.910	-0.063	-0.043
-320.056	-72.085	0.166	-0.062
-319.041	86.790	0.126	0.139
-318.026	-80.979	0.096	0.032
-317.012	-94.760	-0.112	-0.030
-315.997	-60.666	0.259	0.110
-314.983	739.393	0.051	-0.137
-313.968	-68.627	0.437	-0.170
-312.953	358.815	-0.080	0.160
-311.939	557.496	0.083	0.202
-310.924	509.477	-0.099	-0.231
-309.910	-200.000	-0.002	0.412
-308.895	-200.000	0.015	-0.243
-307.880	-200.000	-0.011	-0.138
-306.866	65.608	-0.198	-0.201
-305.851	-200.000	-0.034	-0.229
-304.837	-200.000	-0.021	0.242
-303.822	24.399	-0.010	-0.008
-302.807	152.704	0.104	-0.142
-301.793	-200.000	-0.041	0.185
-300.778	-94.502	0.210	0.057
-299.764	-53.499	-0.455	-0.209
-298.749	-154.240	0.188	0.013
-297.735	-55.322	-0.331	0.149
-296.720	151.117	-0.014	-0.019
-295.705	-85.487	0.187	0.058
-294.691	800.000	-0.045	-0.184
-293.676	800.000	-0.023	-0.091
-292.662	-65.432	-0.145	-0.058
-291.647	41.095	0.274	-0.248
-290.632	-125.701	-0.255	0.039
-289.618	-62.628	0.210	0.087
-288.603	800.000	0.037	0.101
-287.589	-49.441	0.321	0.154
-286.574	800.000	-0.044	-0.164
-285.559	530.659	0.065	0.154
-284.545	-92.366	0.181	0.051
-283.530	-200.000	-0.050	-0.278
-282.516	-200.000	0.036	-0.247
-281.501	-155.108	-0.190	-0.012
-280.486	104.352	-0.122	-0.144
-279.472	-30.591	0.156	0.089
-278.457	-82.502	0.179	0.058
-277.443	57.386	-0.077	0.075
-276.428	189.915	0.159	0.239
-275.413	-197.777	-0.248	-0.002
-274.399	-173.419	0.196	-0.006
-273.384	-101.166	-0.257	0.063
-272.370	20.569	-0.264	0.214
-271.355	800.000	-0.070	-0.286
-270.340	800.000	0.027	-0.090
-269.326	-200.000	-0.011	-0.083
-268.311	800.000	-0.018	0.061
-267.297	-157.124	0.278	-0.017
-266.282	227.583	-0.083	0.136
-265.267	158.418	0.193	-0.269
-264.253	195.449	-0.121	-0.185
-263.238	-33.741	-0.177	0.098
-262.224	-200.000	-0.022	0.138
-261.209	142.735	0.148	0.197
-260.195	-151.086	0.276	-0.021
-259.180	-157.612	-0.044	0.003
-258.165	-200.000	-0.034	-0.158
-257.151	87.488	-0.219	0.243
-256.136	2.323	0.138	-0.100
-255.122	-109.629	-0.275	-0.058
-254.107	800.000	-0.053	-0.228
-253.092	37.374	0.170	0.151
-252.078	372.819	0.185	-0.376
-251.063	-108.834	-0.114	0.024
-250.049	-200.000	-0.002	0.151
-249.034	-112.856	0.118	-0.023
-248.019	92.252	0.136	-0.154
-247.005	-14.707	-0.113	-0.073
-245.990	-200.000	-0.055	-0.242
-244.976	32.754	0.169	0.146
-243.961	-82.653	0.206	0.067
-242.946	209.607	0.095	0.150
-241.932	-200.000	-0.010	0.049
-240.917	-68.937	-0.121	0.047
-239.903	-200.000	-0.033	-0.182
-238.888	-70.124	-0.145	-0.055
-237.873	74.644	-0.148	-0.156
-236.859	-200.000	-0.025	-0.297
-235.844	800.000	0.086	0.289
-234.830	-4.272	-0.184	-0.127
-233.815	-14.994	0.122	-0.078
-232.800	785.191	-0.076	0.207
-231.786	-161.242	-0.108	-0.006
-230.771	-200.000	0.003	-0.180
-229.757	210.717	-0.110	0.173
-228.742	-38.114	0.108	0.057
-227.727	-114.571	-0.247	-0.047
-226.713	279.597	0.059	0.105
-225.698	-144.486	-0.271	0.025
-224.684	297.278	-0.110	0.203
-223.669	77.727	-0.117	0.124
-222.655	-159.587	0.262	0.015
-221.640	-200.000	0.007	0.042
-220.625	800.000	-0.102	0.301
-219.611	41.983	-0.190	-0.172
-218.596	35.837	0.119	0.105
-217.582	800.000	0.032	0.119
-216.567	-16.865	0.140	-0.089
-215.552	140.673	0.137	0.181
-214.538	614.028	0.041	-0.103
-213.523	-200.000	-0.004	0.032
-212.509	-142.502	-0.110	0.011
-211.494	188.857	0.119	0.178
-210.479	-31.445	-0.325	0.182
-209.465	-84.989	-0.145	-0.046
-208.450	567.127	-0.110	-0.266
-207.436	-200.000	-0.005	-0.092
-206.421	-110.371	0.099	-0.021
-205.406	70.951	0.163	-0.168
-204.392	-200.000	-0.028	-0.180
-203.377	127.488	-0.160	-0.203
-202.363	149.427	0.056	-0.076
-201.348	393.455	0.055	0.113
-200.333	800.000	0.080	0.347
-199.319	800.000	-0.089	0.363
-198.304	-44.901	-0.288	-0.143
-197.290	-41.667	-0.098	-0.050
-196.275	-37.160	-0.132	-0.070
-195.260	617.747	-0.009	-0.023
-194.246	800.000	-0.017	0.052
-193.231	371.140	0.047	-0.095
-192.217	259.583	0.149	-0.257
-191.202	-200.000	0.075	-0.368
-190.187	-170.527	0.238	0.008
-189.173	-145.382	0.112	0.010
-188.158	-123.558	0.037	0.006
-187.144	232.522	-0.111	0.183
-186.129	-124.494	-0.212	0.033
-185.114	667.030	0.040	-0.104
-184.100	800.000	-0.047	-0.168
-183.085	-200.000	0.038	-0.258
-182.071	-4.106	-0.390	-0.270
-181.056	180.846	-0.013	0.019
-180.042	800.000	0.090	-0.266
-179.027	-149.742	0.348	-0.027
-178.012	-46.377	0.145	-0.071
-176.998	-132.375	0.473	0.061
-175.983	500.389	0.156	-0.360
-174.969	-152.297	-0.229	-0.016
-173.954	168.223	0.048	-0.068
-172.939	-97.580	0.324	0.084
-171.925	-63.458	-0.128	0.053
-170.910	587.019	-0.035	0.087
-169.896	32.083	0.045	-0.038
-168.881	369.060	0.072	0.145
-167.866	8.284	-0.219	-0.164
-166.852	-75.597	-0.251	-0.089
-165.837	86.817	0.096	0.106
-164.823	800.000	0.065	0.210
-163.808	98.241	0.337	0.387
-162.793	-143.747	0.143	-0.014
-161.779	-69.016	-0.080	0.031
-160.764	-200.000	0.014	-0.314
-159.750	332.086	0.135	-0.260
-158.735	20.267	-0.138	0.111
-157.720	37.315	0.174	-0.153
-156.706	68.478	0.122	-0.125
-155.691	-71.413	-0.125	-0.047
-154.677	735.628	-0.103	-0.274
-153.662	-200.000	-0.002	-0.067
-152.647	252.313	-0.038	0.064
-151.633	25.452	-0.053	-0.044
-150.618	-62.046	-0.110	0.046
-149.604	-200.000	0.008	-0.319
-148.589	-67.130	0.125	0.049
-147.574	-88.647	0.124	-0.037
-146.560	-75.958	-0.297	-0.105
-145.545	-134.815	0.428	0.052
-144.531	-200.000	0.101	-0.450
-143.516	102.058	-0.067	-0.078
-142.502	211.750	-0.034	0.054
-141.487	-57.571	0.193	0.084
-140.472	800.000	0.098	-0.352
-139.458	-200.000	0.026	0.145
-138.443	-26.250	0.208	0.122
-137.429	193.284	-0.197	0.296
-136.414	-200.000	0.037	-0.227
-135.399	-79.691	-0.128	-0.043
-134.385	626.419	-0.009	-0.024
-133.370	101.930	0.069	0.080
-132.356	118.848	0.209	-0.257
-131.341	-124.659	-0.170	0.026
-130.326	-200.000	-0.014	-0.193
-129.312	-200.000	0.026	-0.194
-128.297	800.000	0.055	0.166
-127.283	-119.249	-0.152	-0.026
-126.268	-86.340	-0.218	-0.067
-125.253	680.297	-0.062	0.162
-124.239	-200.000	0.034	0.217
-123.224	149.230	0.128	0.173
-122.210	-72.189	0.277	-0.103
-121.195	-25.035	-0.075	0.044
