DTS Sentinel unit serial number:	SN413079Multiplexer serial number:	ORYXHardware model number:	OX4-SRSoftware version number:	ORYX F/W v4.00 Oryx Data Collector v3.7.2.0data status	okinstallation	princeton_trtdifferential loss correction	single-endedforward channel	channel 3reverse channel	N/Adate	2019/09/12time	01:50:11forward acquisition time	60.00reverse acquisition time	0.00gamma	496.2192k internal	0.2320k external	0.2320temperature offset calibration	1.0069default loss term (dB/km)	0.3790temperature slope calibration	1.0000multiplexer offset coefficient	1.0000multiplexer slope coefficient	1.0000fibre end	0.00T internal ref (°C)	32.81T ext. ref 1 (°C)	2.08T ext. ref 2 (°C)	27.43length (m)	temperature (°C)	Stokes	anti-Stokes-747.200	-46.079	0.303	0.151
-746.185	-12.150	-0.298	-0.197
-745.171	-112.260	0.396	-0.080
-744.156	-25.771	-0.183	0.109
-743.142	62.659	-0.186	-0.188
-742.127	-187.411	-0.424	0.006
-741.112	-4.003	0.383	-0.269
-740.098	88.268	-0.153	0.172
-739.083	-200.000	-0.011	-0.132
-738.069	72.833	0.177	-0.186
-737.054	-87.218	0.200	0.061
-736.039	503.477	-0.157	-0.366
-735.025	-153.684	0.081	-0.006
-734.010	-29.363	0.239	0.138
-732.996	-181.089	-0.082	0.002
-731.981	5.460	-0.186	0.138
-730.966	-200.000	0.054	-0.282
-729.952	-48.081	-0.084	0.041
-728.937	-104.110	0.018	0.004
-727.923	506.232	-0.149	-0.349
-726.908	-106.714	-0.164	-0.037
-725.894	800.000	0.045	0.167
-724.879	201.198	0.049	0.076
-723.864	26.961	-0.291	-0.246
-722.850	63.664	-0.131	0.133
-721.835	-116.586	-0.231	0.043
-720.821	-193.543	0.173	0.002
-719.806	-2.300	0.152	-0.107
-718.791	248.599	-0.182	-0.311
-717.777	-86.689	-0.085	0.026
-716.762	125.097	0.082	-0.104
-715.748	48.347	0.163	-0.154
-714.733	-153.599	0.051	-0.004
-713.718	-46.855	-0.099	0.049
-712.704	-12.279	0.093	0.061
-711.689	-200.000	-0.003	-0.182
-710.675	59.125	-0.244	0.242
-709.660	-76.421	-0.185	-0.066
-708.645	661.320	0.061	-0.158
-707.631	54.726	-0.165	0.161
-706.616	398.140	-0.090	-0.190
-705.602	54.232	0.198	-0.193
-704.587	-200.000	-0.021	-0.224
-703.572	-11.147	0.259	-0.172
-702.558	-119.521	0.143	0.025
-701.543	-88.597	-0.313	0.094
-700.529	34.398	-0.181	0.159
-699.514	-51.568	0.076	-0.036
-698.499	-137.496	-0.240	-0.027
-697.485	-120.770	0.442	-0.075
-696.470	-200.000	-0.071	-0.344
-695.456	301.136	-0.169	-0.315
-694.441	-141.702	0.436	0.044
-693.426	-14.204	-0.314	-0.204
-692.412	-113.250	-0.196	0.039
-691.397	19.038	-0.245	0.199
-690.383	-200.000	-0.001	0.114
-689.368	-41.475	-0.266	0.138
-688.354	-200.000	-0.006	0.172
-687.339	800.000	-0.023	0.069
-686.324	-200.000	-0.030	0.169
-685.310	-200.000	0.026	-0.125
-684.295	428.843	0.101	-0.221
-683.281	439.726	0.144	0.317
-682.266	-56.415	-0.290	-0.130
-681.251	-6.275	0.332	0.229
-680.237	55.565	-0.211	0.206
-679.222	534.786	-0.134	-0.322
-678.208	-172.965	-0.422	-0.013
-677.193	25.376	-0.254	0.213
-676.178	800.000	-0.059	0.175
-675.164	-200.000	-0.031	0.256
-674.149	-200.000	0.016	-0.313
-673.135	-200.000	0.002	-0.069
-672.120	-108.881	-0.225	-0.048
-671.105	314.162	0.067	-0.127
-670.091	-36.318	0.082	-0.045
-669.076	538.864	0.081	0.195
-668.062	-165.349	0.034	0.002
-667.047	688.178	-0.039	0.103
-666.032	214.938	0.076	-0.122
-665.018	74.240	0.180	-0.190
-664.003	-200.000	0.002	-0.032
-662.989	-105.489	0.085	-0.019
-661.974	59.645	0.145	-0.144
-660.959	800.000	-0.104	-0.337
-659.945	-34.235	-0.213	0.118
-658.930	-1.542	-0.147	-0.104
-657.916	110.880	-0.093	0.113
-656.901	39.651	-0.204	-0.184
-655.886	-200.000	-0.005	-0.241
-654.872	64.850	0.075	0.077
-653.857	73.785	0.057	0.060
-652.843	-200.000	-0.047	0.282
-651.828	-177.269	-0.368	-0.009
-650.814	176.992	-0.152	-0.223
-649.799	-91.556	0.070	0.020
-648.784	171.208	0.161	-0.233
-647.770	-67.978	-0.303	-0.119
-646.755	67.119	0.061	-0.063
-645.741	-16.030	-0.279	-0.179
-644.726	-200.000	-0.012	0.099
-643.711	-102.923	-0.616	-0.147
-642.697	276.960	0.248	-0.443
-641.682	-73.548	0.379	-0.139
-640.668	-7.156	0.289	0.198
-639.653	-135.671	0.274	-0.033
-638.638	-21.819	-0.213	0.131
-637.624	-93.869	-0.303	0.084
-636.609	-89.851	0.130	-0.038
-635.595	-138.302	0.318	-0.035
-634.580	-200.000	0.058	-0.279
-633.565	674.988	0.011	0.028
-632.551	108.412	-0.200	-0.241
-631.536	-145.529	-0.134	-0.012
-630.522	8.585	-0.286	-0.217
-629.507	160.551	0.155	-0.217
-628.492	-124.479	0.140	-0.022
-627.478	-129.240	0.321	-0.045
-626.463	-200.000	0.016	-0.151
-625.449	23.526	0.122	-0.101
-624.434	-59.440	0.270	-0.117
-623.419	26.438	0.109	0.092
-622.405	163.134	-0.007	-0.010
-621.390	-71.784	-0.225	-0.085
-620.376	-35.901	0.273	0.148
-619.361	27.478	-0.004	-0.004
-618.346	4.431	0.178	-0.131
-617.332	-79.433	0.387	-0.132
-616.317	760.048	0.122	-0.332
-615.303	404.705	0.050	-0.107
-614.288	79.317	0.216	-0.233
-613.273	-89.877	-0.192	0.057
-612.259	-180.266	-0.210	0.004
-611.244	-200.000	-0.035	0.308
-610.230	457.965	-0.083	-0.187
-609.215	800.000	-0.069	0.217
-608.201	-200.000	-0.039	0.293
-607.186	-200.000	0.097	0.504
-606.171	526.229	0.103	0.243
-605.157	-87.557	0.148	-0.045
-604.142	-200.000	-0.046	0.222
-603.128	86.894	0.088	-0.097
-602.113	129.228	0.128	0.165
-601.098	-107.983	0.155	0.034
-600.084	318.588	-0.087	0.165
-599.069	-58.086	0.138	0.060
-598.055	-200.000	0.019	-0.170
-597.040	100.953	-0.328	-0.384
-596.025	615.421	-0.043	0.108
-595.011	-50.852	0.225	0.106
-593.996	-200.000	0.030	0.165
-592.982	324.667	0.106	0.204
-591.967	-156.383	0.424	0.027
-590.952	143.955	-0.071	0.095
-589.938	-49.857	-0.111	0.053
-588.923	-39.549	0.217	-0.114
-587.909	464.640	-0.050	-0.113
-586.894	-121.808	-0.271	0.045
-585.879	800.000	-0.028	-0.085
-584.865	-146.531	0.081	-0.007
-583.850	156.828	0.137	-0.191
-582.836	-190.252	0.119	-0.001
-581.821	-200.000	0.010	0.301
-580.806	-67.683	-0.162	-0.064
-579.792	-46.498	-0.150	0.074
-578.777	-103.869	0.277	-0.065
-577.763	165.080	0.175	0.248
-576.748	54.534	0.114	0.110
-575.733	-200.000	0.020	0.288
-574.719	-183.554	-0.419	-0.007
-573.704	187.456	-0.091	0.137
-572.690	-54.143	-0.112	-0.051
-571.675	-148.945	0.204	-0.016
-570.661	360.757	-0.118	-0.237
-569.646	-93.406	-0.197	0.055
-568.631	-108.480	0.114	0.025
-567.617	-76.356	-0.248	-0.088
-566.602	-84.790	-0.110	0.035
-565.588	-200.000	-0.032	0.147
-564.573	102.934	-0.134	-0.157
-563.558	58.054	0.212	-0.209
-562.544	142.163	-0.221	-0.294
-561.529	386.260	0.070	0.146
-560.515	-200.000	0.009	-0.229
-559.500	255.755	-0.177	-0.305
-558.485	800.000	0.118	0.351
-557.471	-159.891	0.143	-0.008
-556.456	-200.000	0.029	-0.173
-555.442	-101.794	0.297	-0.072
-554.427	353.981	-0.190	0.378
-553.412	-200.000	-0.019	0.144
-552.398	-200.000	-0.036	0.419
-551.383	80.085	-0.198	-0.213
-550.369	-73.680	-0.114	0.042
-549.354	-47.396	-0.151	0.074
-548.339	-77.463	0.216	0.075
-547.325	-186.248	0.079	0.001
-546.310	-155.016	0.138	0.009
-545.296	735.493	0.109	-0.293
-544.281	127.426	0.163	-0.207
-543.266	290.794	0.111	0.203
-542.252	91.574	0.034	0.039
-541.237	-200.000	0.011	0.050
-540.223	-117.005	0.236	0.043
-539.208	696.828	-0.113	-0.299
-538.193	498.561	0.106	-0.245
-537.179	148.339	0.101	-0.136
-536.164	-123.022	-0.227	-0.037
-535.150	743.886	0.117	-0.316
-534.135	-146.072	-0.156	-0.014
-533.121	-200.000	0.007	0.064
-532.106	205.567	-0.118	0.184
-531.091	260.231	0.066	-0.114
-530.077	110.493	-0.052	-0.062
-529.062	-65.506	-0.026	0.010
-528.048	-142.828	-0.073	0.007
-527.033	664.627	-0.070	0.180
-526.018	190.655	0.223	0.335
-525.004	-156.631	-0.416	-0.026
-523.989	-200.000	-0.042	-0.331
-522.975	-200.000	0.001	-0.066
-521.960	-125.169	-0.187	-0.029
-520.945	800.000	0.092	0.377
-519.931	-13.531	0.102	-0.066
-518.916	416.914	0.104	0.222
-517.902	235.266	-0.026	-0.043
-516.887	-200.000	0.000	0.121
-515.872	-26.916	-0.323	0.189
-514.858	800.000	0.014	0.055
-513.843	-3.155	0.204	-0.143
-512.829	-42.955	-0.312	0.158
-511.814	10.779	0.207	0.158
-510.799	-200.000	0.005	-0.128
-509.785	155.207	-0.156	0.215
-508.770	120.101	0.189	0.235
-507.756	-24.710	0.360	0.214
-506.741	800.000	-0.072	-0.266
-505.726	-69.910	0.139	0.053
-504.712	339.118	0.092	-0.180
-503.697	32.152	-0.330	-0.285
-502.683	241.016	-0.060	0.101
-501.668	344.303	-0.304	0.598
-500.653	211.106	-0.106	-0.167
-499.639	-14.711	0.290	-0.187
-498.624	-200.000	-0.040	0.269
-497.610	-106.303	0.167	-0.037
-496.595	43.476	-0.245	0.224
-495.581	-47.780	-0.061	0.030
-494.566	-120.234	0.188	0.032
-493.551	800.000	-0.028	-0.095
-492.537	800.000	0.034	-0.112
-491.522	-103.836	-0.502	0.117
-490.508	19.130	-0.063	0.051
-489.493	53.447	-0.194	-0.187
-488.478	60.209	-0.118	0.117
-487.464	-60.899	-0.126	-0.054
-486.449	800.000	0.074	-0.220
-485.435	-116.128	0.100	0.019
-484.420	388.796	-0.011	-0.024
-483.405	-16.549	0.250	-0.158
-482.391	170.033	0.127	-0.182
-481.376	-13.301	-0.062	0.040
-480.362	275.389	-0.060	0.106
-479.347	-179.140	0.226	0.005
-478.332	569.484	0.118	0.286
-477.318	800.000	0.064	0.226
-476.303	-145.702	-0.103	0.009
-475.289	-11.071	0.138	-0.091
-474.274	-121.211	0.143	0.024
-473.259	800.000	0.092	0.348
-472.245	-63.938	-0.133	0.054
-471.230	24.927	-0.282	0.234
-470.216	50.951	0.058	0.055
-469.201	495.459	-0.107	0.246
-468.186	800.000	-0.050	0.186
-467.172	800.000	0.050	0.159
-466.157	800.000	0.100	-0.389
-465.143	71.788	-0.069	-0.072
-464.128	-72.812	-0.321	-0.118
-463.113	-139.279	-0.274	0.030
-462.099	391.997	-0.046	0.095
-461.084	62.477	0.093	-0.093
-460.070	-200.000	0.013	-0.138
-459.055	620.392	-0.077	-0.194
-458.040	-74.893	0.400	0.144
-457.026	54.173	-0.286	0.275
-456.011	-15.629	0.157	0.100
-454.997	-18.595	-0.252	0.157
-453.982	-200.000	-0.018	0.195
-452.968	-200.000	0.009	-0.235
-451.953	-109.624	0.489	0.103
-450.938	-108.102	0.433	0.094
-449.924	-64.776	-0.165	-0.067
-448.909	6.481	0.299	-0.222
-447.895	-187.101	0.240	-0.003
-446.880	4.073	-0.198	-0.145
-445.865	166.775	0.047	0.067
-444.851	153.924	-0.090	-0.124
-443.836	345.371	0.034	0.067
-442.822	-200.000	-0.050	-0.272
-441.807	75.070	-0.116	-0.122
-440.792	272.472	0.043	-0.077
-439.778	-141.258	-0.159	0.016
-438.763	-156.646	-0.432	0.027
-437.749	-200.000	0.004	-0.103
-436.734	-134.569	-0.033	0.004
-435.719	-148.607	-0.249	0.020
-434.705	-32.250	0.083	-0.047
-433.690	55.237	0.153	0.148
-432.676	-77.682	-0.104	0.036
-431.661	188.730	-0.220	-0.329
-430.646	-200.000	0.076	-0.550
-429.632	-200.000	0.012	0.140
-428.617	-29.610	-0.412	-0.235
-427.603	-78.663	0.312	-0.107
-426.588	-200.000	-0.025	0.201
-425.573	-85.685	0.129	0.040
-424.559	-200.000	-0.044	-0.249
-423.544	144.903	0.082	0.110
-422.530	-200.000	-0.002	0.320
-421.515	146.701	-0.210	-0.281
-420.500	62.420	0.135	-0.135
-419.486	54.245	0.153	0.147
-418.471	-200.000	-0.011	-0.127
-417.457	205.199	-0.028	0.044
-416.442	20.452	-0.252	0.203
-415.428	800.000	0.155	0.493
-414.413	26.946	0.150	0.125
-413.398	-76.274	-0.158	0.055
-412.384	27.776	0.255	0.214
-411.369	-98.118	-0.304	0.078
-410.355	345.334	-0.092	0.180
-409.340	-124.480	0.333	-0.052
-408.325	73.893	-0.133	0.139
-407.311	174.551	0.111	-0.160
-406.296	-200.000	-0.020	-0.130
-405.282	-83.246	0.287	-0.092
-404.267	213.528	0.066	0.104
-403.252	-33.928	0.143	-0.079
-402.238	-24.841	0.061	-0.036
-401.223	281.403	-0.053	0.095
-400.209	-29.373	0.315	-0.180
-399.194	172.739	0.057	-0.082
-398.179	-1.644	-0.238	-0.167
-397.165	-37.837	0.151	-0.080
-396.150	-89.269	-0.069	-0.020
-395.136	19.305	-0.307	-0.246
-394.121	-87.790	-0.059	0.018
-393.106	-23.191	0.235	0.141
-392.092	800.000	-0.013	-0.053
-391.077	20.378	-0.095	0.077
-390.063	233.268	-0.148	0.242
-389.048	154.560	-0.062	0.085
-388.033	-43.585	-0.166	0.084
-387.019	-20.733	-0.105	0.064
-386.004	-200.000	0.044	0.201
-384.990	385.318	0.079	-0.163
-383.975	-26.493	0.113	0.066
-382.960	252.151	-0.144	0.245
-381.946	-34.469	0.049	0.027
-380.931	-34.060	-0.235	0.129
-379.917	165.278	0.105	-0.148
-378.902	-85.454	-0.202	-0.063
-377.888	170.228	0.107	-0.153
-376.873	-110.098	0.130	-0.027
-375.858	-141.591	0.069	-0.007
-374.844	-120.716	-0.543	-0.092
-373.829	-135.599	-0.128	-0.015
-372.815	-141.235	-0.349	0.035
-371.800	58.307	0.192	-0.187
-370.785	386.063	0.061	0.126
-369.771	337.314	-0.037	0.071
-368.756	-28.817	0.242	0.138
-367.742	-200.000	-0.018	0.181
-366.727	-80.948	-0.349	-0.115
-365.712	800.000	-0.043	0.152
-364.698	-3.820	-0.334	-0.231
-363.683	231.525	-0.075	0.123
-362.669	6.211	0.047	0.035
-361.654	304.612	-0.220	0.406
-360.639	800.000	0.016	-0.062
-359.625	53.158	-0.114	-0.109
-358.610	37.687	0.216	-0.191
-357.596	110.844	-0.328	-0.393
-356.581	19.255	-0.080	0.064
-355.566	-55.124	-0.105	-0.047
-354.552	336.068	0.059	-0.115
-353.537	800.000	0.040	0.121
-352.523	-200.000	0.100	0.435
-351.508	349.326	0.075	-0.147
-350.493	181.565	0.047	-0.068
-349.479	-200.000	-0.016	0.119
-348.464	800.000	-0.097	0.308
-347.450	-60.258	0.152	-0.064
-346.435	-200.000	-0.003	-0.209
-345.420	-84.071	0.219	0.069
-344.406	197.438	0.023	-0.034
-343.391	-200.000	-0.264	0.000
-342.377	-18.565	-0.169	-0.105
-341.362	29.292	0.068	0.057
-340.348	-100.987	-0.268	0.065
-339.333	335.902	0.069	-0.133
-338.318	167.961	-0.095	0.134
-337.304	-200.000	0.007	0.218
-336.289	313.764	0.123	0.231
-335.275	-126.264	-0.136	0.020
-334.260	-83.865	0.078	0.025
-333.245	-109.416	0.149	-0.031
-332.231	409.294	-0.084	-0.177
-331.216	398.478	0.124	-0.258
-330.202	-28.595	0.318	-0.182
-329.187	-19.768	0.220	0.135
-328.172	-114.508	-0.291	0.056
-327.158	-74.957	0.376	0.134
-326.143	-118.410	0.370	0.065
-325.129	515.360	-0.025	0.059
-324.114	-54.423	-0.139	0.063
-323.099	32.447	-0.153	0.131
-322.085	-117.769	-0.315	-0.056
-321.070	-200.000	-0.027	-0.214
-320.056	800.000	0.108	-0.335
-319.041	-86.739	-0.337	-0.102
-318.026	303.544	0.022	-0.040
-317.012	324.747	-0.134	0.255
-315.997	-84.792	-0.335	-0.105
-314.983	463.823	0.071	-0.157
-313.968	-130.192	-0.098	-0.013
-312.953	211.523	-0.264	-0.413
-311.939	366.116	0.100	-0.200
-310.924	180.659	-0.118	-0.172
-309.910	-200.000	0.003	0.308
-308.895	-30.201	0.249	0.140
-307.880	-200.000	-0.024	-0.263
-306.866	99.835	0.056	-0.065
-305.851	800.000	-0.172	-0.494
-304.837	20.914	0.151	0.121
-303.822	-66.511	0.142	0.056
-302.807	-74.539	-0.289	0.103
-301.793	800.000	0.054	0.192
-300.778	-142.215	-0.024	-0.002
-299.764	-118.925	-0.243	0.042
-298.749	-94.608	-0.240	-0.065
-297.735	-59.729	0.059	-0.025
-296.720	-27.436	-0.061	0.035
-295.705	-90.280	-0.166	-0.048
-294.691	209.104	-0.066	-0.103
-293.676	56.446	-0.104	0.101
-292.662	31.491	-0.152	-0.129
-291.647	753.859	-0.052	0.138
-290.632	-104.376	0.225	0.052
-289.618	208.881	-0.141	0.220
-288.603	-152.491	0.252	0.018
-287.589	-47.589	0.152	0.074
-286.574	69.309	-0.053	0.054
-285.559	-200.000	0.002	-0.073
-284.545	471.881	-0.094	-0.210
-283.530	36.378	-0.042	0.037
-282.516	-200.000	-0.001	-0.176
-281.501	256.053	-0.130	-0.221
-280.486	-10.520	-0.225	-0.148
-279.472	637.626	0.067	-0.168
-278.457	800.000	-0.078	0.269
-277.443	43.163	0.050	0.045
-276.428	-51.258	0.376	-0.175
-275.413	-200.000	-0.011	0.136
-274.399	-79.892	0.261	0.087
-273.384	-200.000	0.102	-0.000
-272.370	-200.000	0.010	-0.204
-271.355	-104.081	-0.368	-0.085
-270.340	-139.565	0.340	0.036
-269.326	-8.926	-0.089	0.059
-268.311	602.316	0.058	0.143
-267.297	22.101	0.227	-0.184
-266.282	3.112	0.107	-0.077
-265.267	427.087	0.081	0.173
-264.253	52.024	-0.077	-0.073
-263.238	11.876	0.128	0.098
-262.224	63.861	-0.079	-0.079
-261.209	4.732	0.319	-0.233
-260.195	38.964	0.355	-0.315
-259.180	13.800	-0.149	-0.115
-258.165	-200.000	0.003	0.150
-257.151	-200.000	-0.008	0.074
-256.136	-93.968	0.204	-0.056
-255.122	60.937	0.074	-0.073
-254.107	736.041	0.102	-0.272
-253.092	-200.000	-0.003	-0.167
-252.078	143.397	0.212	-0.280
-251.063	-103.058	-0.081	0.019
-250.049	800.000	-0.025	-0.094
-249.034	139.065	0.070	-0.092
-248.019	-113.044	0.194	0.038
-247.005	-119.949	-0.145	-0.025
-245.990	294.066	0.034	-0.062
-244.976	-118.889	0.237	0.041
-243.961	-177.866	0.188	0.004
-242.946	-92.094	-0.020	0.006
-241.932	-149.019	0.100	-0.008
-240.917	-93.607	0.138	-0.038
-239.903	-59.971	0.224	0.095
-238.888	73.816	0.259	0.270
-237.873	31.022	-0.195	0.166
-236.859	-200.000	-0.000	-0.219
-235.844	-200.000	-0.013	-0.068
-234.830	-15.717	-0.195	0.123
-233.815	56.608	-0.097	0.093
-232.800	-61.535	0.239	-0.099
-231.786	485.609	-0.013	0.030
-230.771	-200.000	-0.022	0.145
-229.757	800.000	0.034	0.131
-228.742	-86.213	0.189	0.058
-227.727	-38.535	0.277	0.145
-226.713	-155.372	-0.395	-0.025
-225.698	-127.760	0.228	-0.033
-224.684	800.000	0.027	0.114
-223.669	-200.000	-0.021	-0.142
-222.655	-200.000	-0.088	0.392
-221.640	-200.000	0.051	0.304
-220.625	135.562	-0.138	0.178
-219.611	-37.714	0.399	0.211
-218.596	262.427	0.071	-0.121
-217.582	32.798	0.117	0.100
-216.567	142.930	0.143	-0.189
-215.552	82.187	-0.168	0.180
-214.538	800.000	-0.027	-0.105
-213.523	-200.000	0.067	-0.323
-212.509	6.206	-0.227	0.167
-211.494	381.681	0.047	-0.096
-210.479	-107.341	0.236	-0.051
-209.465	129.899	-0.128	0.163
-208.450	183.367	-0.106	0.155
-207.436	15.913	0.080	0.063
-206.421	133.613	0.060	-0.077
-205.406	95.306	-0.166	0.188
-204.392	-100.182	0.421	0.104
-203.377	-200.000	-0.082	0.421
-202.363	-142.388	-0.089	-0.009
-201.348	-138.128	-0.158	0.017
-200.333	215.184	0.101	-0.158
-199.319	456.945	0.107	-0.235
-198.304	91.228	0.099	-0.110
-197.290	110.195	-0.199	-0.236
-196.275	422.057	0.050	-0.107
-195.260	31.772	-0.199	-0.169
-194.246	255.163	0.067	0.114
-193.231	-14.672	-0.095	-0.060
-192.217	-200.000	-0.027	0.148
-191.202	256.502	-0.033	0.056
-190.187	800.000	-0.107	-0.311
-189.173	-200.000	0.033	0.181
-188.158	-154.218	-0.188	0.013
-187.144	295.796	0.284	0.515
-186.129	800.000	-0.039	0.113
-185.114	800.000	-0.128	-0.374
-184.100	-16.945	0.151	0.094
-183.085	56.914	-0.083	0.080
-182.071	-11.444	-0.339	0.220
-181.056	-110.684	0.334	0.068
-180.042	-42.967	-0.182	-0.091
-179.027	628.729	0.185	-0.462
-178.012	99.767	-0.088	0.101
-176.998	-200.000	-0.060	0.400
-175.983	800.000	0.052	-0.187
-174.969	-111.727	-0.207	0.042
-173.954	-104.905	-0.135	-0.031
-172.939	27.399	-0.087	-0.072
-171.925	-32.430	0.109	0.060
-170.910	-17.012	0.158	0.099
-169.896	800.000	0.142	-0.448
-168.881	-35.246	0.192	-0.103
-167.866	-130.117	-0.444	0.060
-166.852	792.151	-0.060	-0.162
-165.837	-200.000	0.007	0.176
-164.823	-161.105	-0.336	-0.017
-163.808	115.473	-0.027	-0.032
-162.793	-200.000	0.008	-0.151
-161.779	-77.145	-0.227	-0.078
-160.764	-166.134	-0.279	-0.012
-159.750	-90.110	0.193	-0.055
-158.735	800.000	0.016	-0.067
-157.720	341.109	0.111	-0.214
-156.706	594.952	-0.018	-0.043
-155.691	-200.000	0.013	0.371
-154.677	-200.000	-0.025	0.193
-153.662	382.940	-0.182	0.369
-152.647	109.875	-0.114	0.136
-151.633	190.453	0.080	-0.119
-150.618	701.845	0.057	-0.149
-149.604	800.000	0.022	-0.089
-148.589	11.793	0.160	-0.121
-147.574	-124.283	0.028	-0.004
-146.560	-169.196	0.361	0.013
-145.545	145.990	-0.011	0.015
-144.531	800.000	-0.128	0.371
-143.516	571.084	0.059	-0.142
-142.502	800.000	0.043	0.117
-141.487	-29.118	0.192	0.109
-140.472	-164.216	0.238	0.011
-139.458	401.139	0.095	0.196
-138.443	89.390	-0.067	-0.074
-137.429	67.662	-0.152	0.154
-136.414	-5.792	0.351	0.237
-135.399	27.300	0.131	-0.109
-134.385	-54.949	0.400	-0.178
-133.370	261.956	0.065	0.111
-132.356	-200.000	0.016	0.072
-131.341	-3.168	-0.247	-0.170
-130.326	9.035	-0.067	-0.050
-129.312	9.979	-0.027	0.020
-128.297	-48.631	0.124	-0.059
-127.283	-44.594	0.292	-0.144
-126.268	800.000	0.107	-0.394
-125.253	800.000	-0.035	-0.142
-124.239	-106.782	-0.165	-0.036
-123.224	59.194	0.104	-0.101
-122.210	375.967	-0.140	0.283
-121.195	800.000	-0.043	0.160
