DTS Sentinel unit serial number:	SN413079Multiplexer serial number:	ORYXHardware model number:	OX4-SRSoftware version number:	ORYX F/W v4.00 Oryx Data Collector v3.7.2.0data status	okinstallation	princeton_trtdifferential loss correction	single-endedforward channel	channel 3reverse channel	N/Adate	2019/09/12time	06:02:11forward acquisition time	60.00reverse acquisition time	0.00gamma	496.2192k internal	0.2320k external	0.2320temperature offset calibration	1.0032default loss term (dB/km)	0.3790temperature slope calibration	1.0000multiplexer offset coefficient	1.0000multiplexer slope coefficient	1.0000fibre end	0.00T internal ref (°C)	32.11T ext. ref 1 (°C)	1.55T ext. ref 2 (°C)	27.40length (m)	temperature (°C)	Stokes	anti-Stokes-747.200	366.031	0.026	-0.054
-746.185	204.377	0.164	-0.256
-745.171	17.290	0.154	-0.124
-744.156	-200.000	0.011	-0.166
-743.142	247.956	-0.169	-0.289
-742.127	-57.015	-0.143	0.064
-741.112	-55.125	-0.180	0.082
-740.098	70.315	0.126	0.131
-739.083	-27.493	-0.327	0.192
-738.069	583.450	0.020	0.050
-737.054	-77.773	-0.498	-0.174
-736.039	800.000	-0.162	0.455
-735.025	-61.452	0.253	0.108
-734.010	226.677	0.189	-0.311
-732.996	-54.668	-0.301	-0.137
-731.981	-153.297	-0.457	-0.032
-730.966	-200.000	-0.018	-0.397
-729.952	55.808	0.099	-0.097
-728.937	800.000	-0.075	-0.241
-727.923	-3.301	0.430	0.302
-726.908	800.000	-0.079	-0.282
-725.894	200.300	0.134	0.208
-724.879	-200.000	-0.003	-0.099
-723.864	-200.000	0.006	-0.454
-722.850	634.289	0.027	-0.070
-721.835	-86.579	-0.262	-0.081
-720.821	3.395	-0.162	0.119
-719.806	7.114	0.206	0.155
-718.791	777.538	0.028	0.078
-717.777	55.976	0.396	-0.388
-716.762	50.538	-0.257	-0.245
-715.748	800.000	-0.072	0.276
-714.733	-89.078	0.158	-0.047
-713.718	-175.934	-0.209	-0.006
-712.704	-55.373	-0.094	0.043
-711.689	-21.053	0.137	-0.084
-710.675	152.566	-0.181	0.250
-709.660	-200.000	-0.016	-0.124
-708.645	45.907	-0.151	-0.141
-707.631	160.783	0.038	0.053
-706.616	-200.000	-0.019	0.261
-705.602	-115.206	-0.183	0.035
-704.587	32.526	-0.166	0.145
-703.572	46.280	-0.293	0.274
-702.558	209.596	-0.080	-0.126
-701.543	343.729	0.166	-0.328
-700.529	-67.366	-0.336	0.133
-699.514	800.000	0.060	-0.209
-698.499	-61.027	-0.248	-0.106
-697.485	60.905	-0.172	-0.172
-696.470	-200.000	0.014	0.196
-695.456	800.000	0.045	0.160
-694.441	-13.053	-0.140	-0.092
-693.426	-200.000	0.003	-0.024
-692.412	-129.457	-0.334	-0.047
-691.397	11.300	-0.119	-0.092
-690.383	-200.000	-0.003	-0.329
-689.368	64.400	-0.130	-0.132
-688.354	55.146	0.147	0.143
-687.339	800.000	-0.088	0.334
-686.324	-200.000	0.076	0.354
-685.310	800.000	0.065	0.259
-684.295	150.717	0.183	-0.251
-683.281	-90.567	0.186	-0.054
-682.266	-200.000	0.027	0.148
-681.251	259.000	-0.250	0.435
-680.237	-61.110	-0.384	0.164
-679.222	-200.000	-0.005	0.163
-678.208	567.458	-0.145	0.356
-677.193	-105.516	0.292	-0.067
-676.178	335.447	-0.062	0.121
-675.164	-133.756	0.268	0.034
-674.149	-1.828	0.053	0.038
-673.135	49.117	-0.247	-0.234
-672.120	-200.000	-0.019	-0.303
-671.105	-73.493	-0.057	-0.021
-670.091	575.179	0.185	0.456
-669.076	12.885	-0.107	-0.084
-668.062	-53.579	0.134	-0.062
-667.047	90.344	-0.093	-0.105
-666.032	-31.160	-0.108	0.061
-665.018	208.402	-0.151	-0.237
-664.003	800.000	0.050	0.193
-662.989	-79.568	0.229	0.078
-661.974	311.555	-0.018	-0.034
-660.959	61.118	0.382	0.382
-659.945	154.340	0.008	0.011
-658.930	-200.000	0.049	-0.389
-657.916	130.535	-0.087	-0.113
-656.901	-19.182	0.283	0.177
-655.886	6.086	-0.147	-0.110
-654.872	-169.684	0.296	-0.011
-653.857	473.117	-0.040	0.090
-652.843	-200.000	-0.040	-0.306
-651.828	-2.458	-0.255	0.180
-650.814	-200.000	-0.062	-0.402
-649.799	189.305	0.131	-0.198
-648.784	16.685	0.197	-0.157
-647.770	-22.216	0.358	0.219
-646.755	-57.645	0.119	0.053
-645.741	-102.799	-0.429	-0.103
-644.726	-58.093	0.275	-0.121
-643.711	531.945	-0.056	0.133
-642.697	93.223	-0.193	-0.219
-641.682	-48.931	0.091	0.044
-640.668	-133.789	0.078	0.010
-639.653	65.712	0.275	0.280
-638.638	-200.000	0.105	-0.482
-637.624	-200.000	0.039	-0.285
-636.609	65.901	0.124	-0.126
-635.595	227.845	-0.097	0.159
-634.580	158.345	0.243	-0.339
-633.565	-33.452	0.291	0.162
-632.551	800.000	-0.087	-0.262
-631.536	-200.000	0.027	-0.212
-630.522	-91.264	0.200	-0.058
-629.507	87.005	-0.220	-0.244
-628.492	-50.388	0.291	-0.138
-627.478	-12.060	0.137	-0.090
-626.463	32.930	-0.196	0.171
-625.449	800.000	-0.095	-0.385
-624.434	-61.837	0.232	-0.098
-623.419	-116.457	0.092	-0.017
-622.405	-121.587	-0.246	0.041
-621.390	-200.000	-0.065	0.461
-620.376	-200.000	-0.017	0.183
-619.361	-52.534	0.272	0.127
-618.346	-41.117	-0.301	0.156
-617.332	-93.327	-0.219	-0.061
-616.317	-123.151	0.088	-0.014
-615.303	-66.954	0.039	0.016
-614.288	2.820	0.296	0.216
-613.273	77.699	0.188	0.201
-612.259	174.915	0.105	0.153
-611.244	-27.044	-0.217	-0.127
-610.230	-50.359	0.214	-0.102
-609.215	-137.960	-0.306	0.034
-608.201	-70.286	-0.155	0.059
-607.186	-125.065	0.272	0.042
-606.171	181.064	-0.086	-0.128
-605.157	-130.208	0.275	0.038
-604.142	-156.530	0.097	-0.006
-603.128	-35.816	0.083	0.045
-602.113	267.613	0.201	0.354
-601.098	-200.000	0.020	0.103
-600.084	-84.846	0.161	-0.051
-599.069	1.382	-0.353	-0.255
-598.055	800.000	-0.090	-0.369
-597.040	-84.489	-0.327	0.104
-596.025	675.436	-0.159	0.415
-595.011	-200.000	-0.050	0.390
-593.996	-200.000	-0.003	-0.102
-592.982	-200.000	-0.034	0.262
-591.967	-200.000	0.011	0.156
-590.952	182.071	-0.291	-0.431
-589.938	703.593	-0.115	0.303
-588.923	-108.625	0.182	0.039
-587.909	-160.655	0.027	-0.001
-586.894	478.184	-0.067	-0.153
-585.879	-149.019	0.167	0.014
-584.865	48.129	-0.309	0.290
-583.850	-200.000	0.021	-0.415
-582.836	-200.000	0.078	0.433
-581.821	338.985	-0.062	0.121
-580.806	124.761	-0.075	0.094
-579.792	571.774	-0.088	0.216
-578.777	-162.756	-0.383	-0.019
-577.763	-101.607	-0.221	-0.054
-576.748	-200.000	-0.046	-0.339
-575.733	-136.217	0.087	-0.010
-574.719	522.817	-0.120	-0.283
-573.704	-200.000	-0.084	-0.463
-572.690	432.926	-0.117	-0.256
-571.675	-98.981	0.148	-0.038
-570.661	-105.468	-0.170	0.039
-569.646	218.047	0.050	-0.081
-568.631	-61.308	-0.133	0.056
-567.617	40.835	0.108	-0.098
-566.602	-200.000	-0.003	0.192
-565.588	-200.000	-0.029	0.145
-564.573	171.168	-0.148	-0.213
-563.558	29.613	0.176	0.151
-562.544	112.236	0.133	0.161
-561.529	-154.221	-0.265	-0.018
-560.515	-76.953	-0.258	-0.090
-559.500	-118.355	0.146	0.026
-558.485	-172.789	-0.212	-0.007
-557.471	-112.060	0.120	0.024
-556.456	100.723	0.150	-0.175
-555.442	32.574	0.180	0.156
-554.427	150.663	0.211	-0.288
-553.412	-200.000	-0.005	0.079
-552.398	-9.860	-0.296	0.198
-551.383	220.572	0.140	0.226
-550.369	-123.569	0.553	0.088
-549.354	-200.000	-0.002	0.065
-548.339	90.305	0.098	-0.110
-547.325	193.635	-0.085	-0.129
-546.310	-135.024	-0.219	-0.027
-545.296	132.710	0.197	-0.255
-544.281	-200.000	0.014	-0.092
-543.266	231.232	0.190	-0.313
-542.252	21.307	0.192	0.157
-541.237	-200.000	-0.010	0.332
-540.223	49.497	0.324	-0.306
-539.208	-200.000	-0.042	-0.214
-538.193	495.155	0.038	0.088
-537.179	-32.445	-0.304	0.170
-536.164	116.281	0.058	-0.071
-535.150	64.965	0.288	0.292
-534.135	800.000	-0.020	0.070
-533.121	-200.000	-0.029	0.297
-532.106	21.358	0.235	0.192
-531.091	-127.993	0.248	-0.036
-530.077	800.000	-0.025	-0.085
-529.062	69.026	-0.081	0.084
-528.048	-163.192	0.260	0.013
-527.033	19.661	0.245	-0.197
-526.018	-16.800	0.092	-0.058
-525.004	-8.237	-0.105	0.071
-523.989	-86.196	-0.275	0.085
-522.975	-100.095	0.427	0.107
-521.960	-20.767	-0.221	0.136
-520.945	-9.469	-0.236	0.158
-519.931	143.758	0.137	-0.184
-518.916	193.254	-0.082	-0.125
-517.902	289.538	0.164	0.297
-516.887	82.605	-0.085	0.092
-515.872	58.335	0.057	0.056
-514.858	273.877	-0.116	-0.205
-513.843	-99.261	0.135	-0.034
-512.829	-62.524	0.205	0.085
-511.814	764.446	0.033	-0.090
-510.799	-162.809	-0.036	-0.002
-509.785	470.907	0.121	-0.273
-508.770	116.751	-0.148	0.182
-507.756	-200.000	-0.000	-0.020
-506.741	37.150	-0.128	-0.114
-505.726	-172.416	0.115	-0.004
-504.712	106.006	-0.206	0.244
-503.697	-155.470	0.259	-0.017
-502.683	343.615	-0.064	0.125
-501.668	34.263	0.096	-0.084
-500.653	-157.111	0.119	-0.007
-499.639	-55.180	0.209	-0.094
-498.624	85.050	0.158	-0.174
-497.610	64.570	0.208	0.210
-496.595	258.189	0.041	-0.072
-495.581	-200.000	-0.021	-0.223
-494.566	800.000	-0.064	0.242
-493.551	606.076	-0.067	-0.167
-492.537	-200.000	-0.022	0.095
-491.522	-48.158	0.176	0.085
-490.508	261.544	0.104	-0.180
-489.493	23.184	-0.197	-0.162
-488.478	800.000	-0.094	-0.271
-487.464	-77.171	-0.167	0.058
-486.449	-122.263	-0.215	0.035
-485.435	183.848	0.055	0.082
-484.420	323.822	-0.183	-0.350
-483.405	294.328	0.109	0.200
-482.391	800.000	-0.132	-0.405
-481.376	-200.000	-0.001	-0.016
-480.362	-36.359	0.217	0.117
-479.347	419.892	0.069	0.148
-478.332	-93.578	-0.211	-0.058
-477.318	229.768	-0.198	0.324
-476.303	800.000	-0.132	0.426
-475.289	566.076	0.220	0.533
-474.274	334.810	0.132	-0.255
-473.259	-168.723	0.068	0.003
-472.245	491.064	-0.143	-0.328
-471.230	-117.179	0.219	0.040
-470.216	-130.761	0.398	-0.053
-469.201	472.748	-0.121	-0.273
-468.186	-9.433	0.026	0.017
-467.172	361.127	-0.024	-0.048
-466.157	109.303	0.048	-0.058
-465.143	154.343	0.123	-0.168
-464.128	12.869	0.174	-0.135
-463.113	25.371	0.169	-0.141
-462.099	-13.861	0.145	0.094
-461.084	-200.000	0.039	-0.177
-460.070	-101.534	-0.135	0.033
-459.055	-169.521	0.058	0.002
-458.040	-4.957	0.087	-0.060
-457.026	800.000	-0.078	-0.286
-456.011	800.000	-0.017	-0.065
-454.997	-45.428	0.160	0.079
-453.982	-64.036	-0.228	-0.093
-452.968	-125.154	-0.297	-0.046
-451.953	212.685	0.052	-0.083
-450.938	171.024	0.118	-0.169
-449.924	535.293	0.076	0.181
-448.909	-6.424	-0.265	-0.181
-447.895	-200.000	0.007	0.190
-446.880	-76.561	-0.112	0.039
-445.865	-200.000	0.031	-0.262
-444.851	-111.379	0.348	0.071
-443.836	-166.560	0.029	0.001
-442.822	-200.000	0.045	-0.297
-441.807	25.998	0.221	-0.184
-440.792	322.129	0.158	-0.300
-439.778	58.693	0.172	-0.168
-438.763	186.981	-0.171	0.254
-437.749	-58.959	-0.179	-0.077
-436.734	-90.772	-0.220	0.063
-435.719	800.000	0.014	0.045
-434.705	-183.311	0.333	0.006
-433.690	800.000	-0.024	0.068
-432.676	-200.000	0.011	0.228
-431.661	-134.844	0.087	-0.011
-430.646	-9.270	-0.178	0.119
-429.632	800.000	-0.058	-0.199
-428.617	-100.687	0.161	-0.040
-427.603	105.348	-0.181	0.213
-426.588	83.137	0.084	0.092
-425.573	-106.996	0.215	0.047
-424.559	-200.000	0.013	0.123
-423.544	-41.370	-0.108	0.056
-422.530	-99.002	-0.116	0.029
-421.515	-200.000	0.051	0.327
-420.500	206.423	-0.147	0.228
-419.486	-3.908	0.169	-0.117
-418.471	281.444	0.125	-0.224
-417.457	700.487	-0.133	0.350
-416.442	716.649	-0.103	0.273
-415.428	-200.000	0.032	-0.256
-414.413	218.841	0.090	-0.144
-413.398	-65.860	-0.170	-0.068
-412.384	-97.925	-0.166	-0.043
-411.369	-22.312	0.198	-0.120
-410.355	800.000	0.036	0.120
-409.340	-24.573	0.261	-0.155
-408.325	-93.927	-0.125	0.034
-407.311	-93.823	-0.259	-0.071
-406.296	-200.000	-0.028	-0.187
-405.282	-140.625	-0.157	0.016
-404.267	-200.000	0.001	0.465
-403.252	96.285	0.187	-0.213
-402.238	-176.932	-0.296	0.007
-401.223	-105.377	0.226	-0.051
-400.209	38.354	-0.191	-0.170
-399.194	-200.000	0.038	0.373
-398.179	-29.403	0.217	-0.124
-397.165	281.218	-0.158	0.283
-396.150	-200.000	-0.004	-0.096
-395.136	-81.305	-0.500	0.164
-394.121	63.458	0.082	0.082
-393.106	800.000	-0.041	0.115
-392.092	155.169	-0.082	0.112
-391.077	-200.000	-0.002	0.247
-390.063	12.840	-0.147	0.114
-389.048	187.136	0.111	0.164
-388.033	-135.586	-0.094	0.011
-387.019	367.332	-0.023	0.047
-386.004	-200.000	-0.002	-0.145
-384.990	50.037	-0.112	-0.105
-383.975	-22.030	-0.160	-0.097
-382.960	409.913	-0.084	-0.178
-381.946	800.000	0.110	-0.411
-380.931	421.059	0.028	-0.060
-379.917	-106.948	-0.075	-0.016
-378.902	-200.000	0.004	0.137
-377.888	142.442	0.130	-0.172
-376.873	-200.000	0.036	-0.603
-375.858	800.000	-0.090	-0.325
-374.844	-104.945	0.290	-0.066
-373.829	-200.000	0.000	0.117
-372.815	-200.000	-0.025	-0.395
-371.800	23.330	0.106	0.087
-370.785	-33.258	0.200	-0.110
-369.771	800.000	0.092	-0.339
-368.756	180.448	0.136	-0.198
-367.742	-186.895	0.211	-0.003
-366.727	-129.290	0.189	-0.026
-365.712	-200.000	-0.003	0.130
-364.698	-118.939	-0.423	-0.074
-363.683	-110.554	-0.147	0.030
-362.669	-200.000	-0.026	-0.237
-361.654	-137.734	-0.387	0.043
-360.639	414.667	0.085	0.180
-359.625	-174.564	0.066	-0.002
-358.610	-11.657	-0.098	0.064
-357.596	179.159	-0.164	-0.239
-356.581	80.819	0.330	-0.354
-355.566	-111.128	0.094	-0.019
-354.552	-165.161	0.290	0.013
-353.537	169.135	-0.193	0.275
-352.523	-144.181	-0.175	-0.016
-351.508	124.097	-0.190	-0.237
-350.493	-200.000	-0.092	-0.400
-349.479	449.847	0.095	-0.209
-348.464	-59.337	0.360	-0.154
-347.450	-200.000	-0.020	-0.121
-346.435	553.694	-0.068	-0.163
-345.420	38.165	-0.197	-0.174
-344.406	-172.079	-0.273	0.009
-343.391	-59.231	0.126	0.054
-342.377	-80.105	0.177	0.059
-341.362	-65.415	0.126	0.050
-340.348	-186.484	-0.419	0.006
-339.333	364.725	0.040	-0.080
-338.318	13.164	-0.184	-0.141
-337.304	-122.373	-0.502	0.081
-336.289	800.000	-0.020	0.077
-335.275	-155.136	0.061	-0.004
-334.260	-148.475	-0.157	0.013
-333.245	-200.000	-0.019	0.374
-332.231	-85.846	0.177	0.055
-331.216	40.558	0.128	-0.114
-330.202	102.051	-0.192	-0.223
-329.187	-195.802	0.609	0.004
-328.172	800.000	0.015	-0.057
-327.158	-200.000	0.030	-0.239
-326.143	-12.439	-0.145	0.094
-325.129	-47.851	0.269	-0.130
-324.114	-63.051	-0.225	-0.092
-323.099	800.000	0.042	-0.151
-322.085	-200.000	-0.017	0.247
-321.070	-145.710	0.381	-0.034
-320.056	-3.240	0.125	-0.087
-319.041	-60.166	-0.117	0.049
-318.026	127.951	0.098	-0.125
-317.012	567.282	0.108	0.261
-315.997	-182.910	0.368	0.007
-314.983	-107.593	-0.291	0.063
-313.968	-116.167	0.526	-0.097
-312.953	30.879	-0.182	0.155
-311.939	-124.084	0.107	0.017
-310.924	-200.000	-0.012	-0.175
-309.910	-6.310	0.156	0.106
-308.895	-73.689	0.314	-0.114
-307.880	338.750	-0.154	0.298
-306.866	-200.000	0.004	0.048
-305.851	-88.425	-0.231	0.069
-304.837	631.856	-0.086	-0.217
-303.822	-75.816	-0.157	-0.055
-302.807	-200.000	-0.090	0.391
-301.793	-67.045	-0.228	0.089
-300.778	188.863	-0.062	0.093
-299.764	-89.533	0.169	-0.049
-298.749	-51.879	-0.288	-0.133
-297.735	-146.785	-0.263	0.023
-296.720	-64.347	0.196	0.079
-295.705	76.821	0.072	-0.076
-294.691	-70.061	-0.142	-0.054
-293.676	45.877	0.072	0.066
-292.662	-135.625	0.271	0.032
-291.647	180.463	0.099	-0.144
-290.632	-80.998	-0.179	-0.059
-289.618	268.596	-0.121	0.211
-288.603	-200.000	0.059	0.451
-287.589	70.843	-0.249	0.256
-286.574	-156.449	-0.203	-0.013
-285.559	334.372	-0.132	0.254
-284.545	306.530	0.203	-0.375
-283.530	-200.000	0.027	-0.186
-282.516	67.359	-0.149	0.151
-281.501	800.000	0.085	-0.256
-280.486	87.772	0.155	0.170
-279.472	-168.927	-0.322	-0.012
-278.457	-200.000	-0.048	-0.289
-277.443	-200.000	0.013	-0.139
-276.428	132.519	0.088	-0.112
-275.413	-100.130	-0.180	0.044
-274.399	-39.106	0.042	-0.022
-273.384	-112.254	0.119	0.024
-272.370	-200.000	-0.075	0.484
-271.355	800.000	0.078	0.225
-270.340	-200.000	0.015	0.072
-269.326	-85.974	0.043	0.013
-268.311	-155.219	-0.302	-0.020
-267.297	-102.189	0.163	0.039
-266.282	-195.756	0.265	-0.002
-265.267	193.167	-0.060	-0.091
-264.253	246.890	0.135	0.226
-263.238	800.000	-0.116	0.356
-262.224	800.000	0.074	-0.257
-261.209	180.971	0.062	-0.091
-260.195	-56.538	0.324	0.142
-259.180	385.400	0.180	-0.369
-258.165	-128.528	0.162	0.023
-257.151	-105.462	0.095	0.021
-256.136	88.189	-0.151	-0.166
-255.122	-22.816	-0.356	-0.213
-254.107	-71.050	-0.179	0.067
-253.092	146.878	-0.081	0.108
-252.078	800.000	-0.015	0.043
-251.063	152.586	-0.112	-0.152
-250.049	-200.000	0.002	0.105
-249.034	81.743	-0.353	0.379
-248.019	550.827	0.104	-0.248
-247.005	800.000	-0.093	0.318
-245.990	-134.872	0.215	-0.026
-244.976	128.044	0.064	-0.081
-243.961	-149.351	-0.331	-0.026
-242.946	-15.966	0.132	0.083
-241.932	71.192	-0.104	-0.107
-240.917	-117.482	-0.429	0.077
-239.903	-200.000	0.069	-0.311
-238.888	-176.292	-0.276	0.007
-237.873	-83.739	0.221	0.070
-236.859	-27.959	-0.439	0.252
-235.844	63.595	0.065	-0.065
-234.830	-200.000	-0.000	0.161
-233.815	-57.851	-0.234	-0.101
-232.800	70.140	-0.170	0.174
-231.786	121.170	0.138	-0.170
-230.771	-200.000	0.008	0.189
-229.757	270.500	0.041	-0.071
-228.742	-89.586	-0.045	-0.013
-227.727	-200.000	0.015	0.462
-226.713	-138.909	0.110	-0.012
-225.698	-91.276	0.170	0.048
-224.684	97.659	-0.260	-0.297
-223.669	404.976	0.169	0.353
-222.655	64.566	-0.155	0.155
-221.640	-200.000	0.008	-0.151
-220.625	-50.080	-0.119	0.056
-219.611	155.986	-0.217	-0.296
-218.596	-102.669	0.108	-0.026
-217.582	585.750	0.090	0.219
-216.567	-13.516	-0.049	-0.031
-215.552	38.199	-0.166	-0.146
-214.538	-6.848	0.215	0.145
-213.523	3.765	-0.175	-0.126
-212.509	800.000	-0.063	-0.260
-211.494	-105.431	0.303	0.068
-210.479	-200.000	-0.091	0.423
-209.465	43.570	0.135	0.122
-208.450	-61.354	-0.258	0.107
-207.436	75.344	-0.198	0.206
-206.421	-164.835	-0.167	0.007
-205.406	71.135	-0.077	-0.079
-204.392	800.000	-0.083	-0.253
-203.377	397.458	0.110	0.227
-202.363	52.852	0.081	0.077
-201.348	-92.477	0.295	0.082
-200.333	-47.851	-0.249	0.119
-199.319	-4.636	0.179	0.122
-198.304	558.056	0.085	-0.203
-197.290	-80.080	-0.289	-0.096
-196.275	800.000	-0.046	0.148
-195.260	102.164	0.035	0.040
-194.246	11.034	-0.052	0.039
-193.231	324.820	-0.044	-0.083
-192.217	26.808	0.244	0.202
-191.202	-39.205	0.088	-0.046
-190.187	354.958	0.014	-0.027
-189.173	96.952	-0.145	-0.164
-188.158	-161.583	-0.173	0.009
-187.144	-84.840	-0.257	-0.080
-186.129	-188.699	-0.169	-0.002
-185.114	28.702	0.076	0.064
-184.100	-200.000	-0.061	0.293
-183.085	-31.048	0.164	0.092
-182.071	377.753	0.069	0.140
-181.056	-200.000	0.021	-0.102
-180.042	-85.667	0.329	-0.101
-179.027	-200.000	0.001	0.056
-178.012	-64.068	-0.085	0.034
-176.998	-97.241	-0.180	-0.046
-175.983	-111.560	-0.222	0.045
-174.969	-200.000	0.080	0.353
-173.954	370.461	0.150	-0.301
-172.939	8.117	-0.318	0.236
-171.925	2.104	0.241	0.172
-170.910	84.814	-0.353	0.382
-169.896	128.253	-0.039	-0.049
-168.881	611.484	-0.149	-0.369
-167.866	-66.097	0.244	0.096
-166.852	473.587	0.066	0.148
-165.837	55.542	0.125	0.120
-164.823	484.335	-0.077	-0.172
-163.808	36.736	-0.038	0.033
-162.793	-101.252	-0.335	0.081
-161.779	-57.306	0.245	0.107
-160.764	238.176	0.179	0.294
-159.750	137.077	0.164	0.212
-158.735	-8.799	-0.095	-0.063
-157.720	8.676	0.058	0.043
-156.706	37.021	-0.148	0.130
-155.691	-48.845	-0.330	0.156
-154.677	243.281	-0.168	-0.279
-153.662	-83.379	0.107	-0.034
-152.647	800.000	0.053	0.208
-151.633	800.000	-0.059	0.187
-150.618	-200.000	0.014	-0.374
-149.604	-60.556	0.151	-0.063
-148.589	207.280	-0.041	-0.063
-147.574	417.211	0.124	-0.261
-146.560	161.843	-0.064	-0.088
-145.545	-197.186	0.145	0.001
-144.531	-200.000	0.004	-0.289
-143.516	-75.656	0.085	0.030
-142.502	403.090	-0.139	0.288
-141.487	67.905	-0.159	0.160
-140.472	-129.768	0.270	-0.037
-139.458	249.602	0.159	0.267
-138.443	-200.000	-0.027	0.168
-137.429	800.000	0.042	0.135
-136.414	408.439	0.111	0.232
-135.399	-200.000	0.061	-0.355
-134.385	800.000	0.043	0.145
-133.370	384.551	0.056	-0.115
-132.356	800.000	-0.018	0.067
-131.341	-200.000	0.008	-0.155
-130.326	315.854	0.128	0.239
-129.312	391.450	0.201	0.411
-128.297	-96.531	-0.184	-0.048
-127.283	376.410	-0.062	0.125
-126.268	-85.200	-0.307	-0.095
-125.253	-80.492	0.277	-0.091
-124.239	-145.278	0.362	-0.032
-123.224	-51.495	0.273	-0.126
-122.210	167.203	-0.160	-0.224
-121.195	800.000	-0.059	0.243
