DTS Sentinel unit serial number:	SN413079Multiplexer serial number:	ORYXHardware model number:	OX4-SRSoftware version number:	ORYX F/W v4.00 Oryx Data Collector v3.7.2.0data status	okinstallation	princeton_trtdifferential loss correction	single-endedforward channel	channel 3reverse channel	N/Adate	2019/09/11time	04:46:11forward acquisition time	60.00reverse acquisition time	0.00gamma	496.2192k internal	0.2331k external	0.2331temperature offset calibration	0.9910default loss term (dB/km)	0.3790temperature slope calibration	1.0000multiplexer offset coefficient	1.0000multiplexer slope coefficient	1.0000fibre end	0.00T internal ref (°C)	29.53T ext. ref 1 (°C)	-0.28T ext. ref 2 (°C)	23.42length (m)	temperature (°C)	Stokes	anti-Stokes-747.200	800.000	0.038	-0.126
-746.185	-158.880	-0.108	-0.006
-745.171	153.700	0.057	0.078
-744.156	-61.935	0.173	0.073
-743.142	-74.334	-0.191	0.069
-742.127	360.609	-0.136	0.275
-741.112	800.000	0.028	0.117
-740.098	71.536	-0.190	0.198
-739.083	800.000	-0.022	-0.080
-738.069	-200.000	-0.008	-0.110
-737.054	122.276	-0.034	0.043
-736.039	-8.121	-0.384	-0.260
-735.025	-34.877	0.179	-0.099
-734.010	-200.000	-0.027	-0.122
-732.996	-200.000	0.028	-0.176
-731.981	260.651	0.144	-0.250
-730.966	800.000	0.082	0.271
-729.952	-200.000	0.026	0.247
-728.937	19.083	0.115	-0.093
-727.923	86.404	0.094	0.104
-726.908	-200.000	0.000	-0.086
-725.894	-85.119	-0.491	0.155
-724.879	-13.230	0.135	-0.088
-723.864	40.314	0.081	-0.073
-722.850	731.455	0.090	-0.243
-721.835	583.720	-0.197	-0.488
-720.821	682.598	0.147	-0.384
-719.806	137.520	-0.242	0.318
-718.791	211.712	-0.118	-0.186
-717.777	-172.949	-0.109	-0.003
-716.762	684.795	0.046	0.121
-715.748	268.977	0.137	-0.241
-714.733	-168.030	-0.155	0.006
-713.718	-75.693	0.209	0.075
-712.704	-111.320	0.116	0.024
-711.689	800.000	-0.098	-0.275
-710.675	345.418	-0.098	-0.194
-709.660	142.286	0.167	-0.223
-708.645	-200.000	-0.086	0.476
-707.631	-42.046	0.185	-0.095
-706.616	753.779	0.064	-0.173
-705.602	-177.625	-0.347	0.008
-704.587	-49.259	-0.180	0.086
-703.572	-45.601	0.151	0.075
-702.558	-38.251	-0.332	0.177
-701.543	216.501	0.075	-0.119
-700.529	800.000	0.054	-0.162
-699.514	800.000	0.056	-0.229
-698.499	-29.868	-0.259	0.148
-697.485	-73.536	0.077	0.028
-696.470	5.164	-0.294	-0.218
-695.456	-176.122	-0.236	0.006
-694.441	-200.000	0.048	-0.274
-693.426	-126.837	0.046	0.007
-692.412	713.833	0.048	0.127
-691.397	-103.186	-0.251	0.060
-690.383	31.778	-0.156	0.135
-689.368	-5.441	0.334	-0.230
-688.354	-200.000	0.063	-0.380
-687.339	568.543	-0.106	-0.260
-686.324	109.108	-0.090	-0.108
-685.310	-121.155	-0.213	0.036
-684.295	-200.000	-0.583	0.002
-683.281	-200.000	0.031	-0.465
-682.266	-66.222	0.413	-0.165
-681.251	198.052	-0.132	0.203
-680.237	26.073	0.064	0.054
-679.222	-39.958	-0.243	-0.127
-678.208	-200.000	0.015	-0.120
-677.193	136.408	-0.123	0.162
-676.178	-200.000	0.027	0.256
-675.164	347.940	-0.206	-0.409
-674.149	189.437	0.140	0.210
-673.135	412.587	0.043	-0.092
-672.120	74.842	0.185	-0.195
-671.105	-134.598	0.124	0.015
-670.091	69.270	-0.207	0.214
-669.076	-200.000	-0.104	-0.489
-668.062	-200.000	0.007	-0.043
-667.047	88.716	-0.214	-0.239
-666.032	-200.000	-0.087	-0.419
-665.018	800.000	-0.063	-0.246
-664.003	140.146	0.052	0.069
-662.989	12.590	0.158	-0.122
-661.974	61.190	0.188	-0.187
-660.959	-41.553	-0.221	-0.114
-659.945	800.000	-0.051	0.186
-658.930	102.285	-0.196	-0.230
-657.916	-109.467	0.060	0.013
-656.901	-40.861	-0.102	-0.053
-655.886	-79.732	0.089	0.030
-654.872	-200.000	0.024	-0.171
-653.857	-116.704	-0.402	-0.074
-652.843	-200.000	0.062	0.272
-651.828	-69.484	0.277	0.106
-650.814	5.587	0.277	0.205
-649.799	-34.612	0.313	0.172
-648.784	100.190	0.147	0.171
-647.770	-133.351	0.377	0.048
-646.755	-159.722	-0.118	-0.007
-645.741	-65.198	-0.080	0.032
-644.726	-42.811	-0.243	-0.124
-643.711	149.952	-0.174	-0.236
-642.697	-17.177	0.216	-0.137
-641.682	27.087	0.202	-0.170
-640.668	68.763	-0.115	-0.118
-639.653	25.240	-0.329	-0.274
-638.638	-200.000	-0.024	0.119
-637.624	-200.000	-0.002	-0.229
-636.609	713.909	0.060	-0.158
-635.595	-200.000	0.009	0.356
-634.580	-179.936	-0.068	-0.001
-633.565	-200.000	-0.056	-0.326
-632.551	-136.690	0.273	-0.032
-631.536	568.885	-0.063	0.154
-630.522	19.333	0.167	0.134
-629.507	-200.000	0.030	-0.339
-628.492	562.713	-0.051	0.124
-627.478	282.985	0.012	-0.022
-626.463	800.000	-0.037	-0.133
-625.449	-29.432	-0.060	0.035
-624.434	-106.064	-0.162	-0.036
-623.419	-149.541	0.096	0.008
-622.405	-165.402	-0.219	-0.010
-621.390	12.923	0.161	0.125
-620.376	-154.307	-0.376	0.025
-619.361	104.211	-0.062	0.073
-618.346	166.355	-0.293	-0.415
-617.332	40.815	-0.210	-0.190
-616.317	385.025	0.008	-0.017
-615.303	333.847	0.106	-0.205
-614.288	26.889	0.165	0.138
-613.273	36.403	-0.341	0.301
-612.259	-63.701	0.030	0.012
-611.244	373.573	-0.069	-0.141
-610.230	85.817	0.040	0.045
-609.215	141.860	-0.102	0.135
-608.201	-67.151	-0.075	0.030
-607.186	800.000	-0.060	0.170
-606.171	-101.088	-0.447	-0.110
-605.157	-114.914	0.135	0.026
-604.142	-200.000	-0.032	-0.180
-603.128	353.863	0.128	-0.255
-602.113	-200.000	-0.035	0.226
-601.098	-200.000	-0.006	0.047
-600.084	-56.544	0.178	-0.079
-599.069	800.000	0.036	-0.129
-598.055	-200.000	0.033	-0.174
-597.040	-29.360	-0.182	0.104
-596.025	-166.869	0.288	-0.012
-595.011	70.859	-0.226	0.234
-593.996	2.576	-0.287	0.208
-592.982	138.287	-0.047	0.062
-591.967	262.672	-0.084	-0.147
-590.952	-200.000	-0.248	-0.001
-589.938	-44.279	-0.046	0.023
-588.923	-68.588	0.088	0.034
-587.909	-134.659	0.317	0.039
-586.894	236.482	0.197	-0.327
-585.879	-83.831	-0.261	-0.083
-584.865	425.252	-0.116	0.250
-583.850	-200.000	0.018	-0.190
-582.836	-153.560	0.011	0.001
-581.821	-58.856	-0.147	0.064
-580.806	-151.991	-0.147	0.011
-579.792	9.640	0.162	-0.123
-578.777	-82.235	0.101	-0.033
-577.763	38.156	-0.211	0.187
-576.748	7.057	0.086	-0.064
-575.733	-72.516	0.263	0.097
-574.719	4.394	0.140	-0.103
-573.704	170.816	0.309	-0.442
-572.690	-97.705	0.109	-0.028
-571.675	-35.497	-0.444	-0.241
-570.661	-200.000	0.024	-0.435
-569.646	689.259	0.182	0.475
-568.631	-93.843	-0.259	0.071
-567.617	800.000	-0.019	0.059
-566.602	-200.000	-0.055	0.246
-565.588	800.000	0.004	0.015
-564.573	-200.000	-0.023	0.121
-563.558	-5.144	0.221	0.152
-562.544	-72.623	-0.128	-0.047
-561.529	41.031	0.121	0.109
-560.515	38.558	-0.271	-0.242
-559.500	-13.704	-0.167	0.108
-558.485	-104.890	-0.234	0.054
-557.471	-200.000	-0.008	-0.083
-556.456	261.987	0.052	0.089
-555.442	-200.000	0.030	-0.212
-554.427	-200.000	0.006	0.232
-553.412	-32.180	-0.302	0.169
-552.398	-125.172	-0.204	0.031
-551.383	-200.000	-0.005	0.061
-550.369	28.946	-0.078	0.066
-549.354	534.741	0.043	0.102
-548.339	-105.784	0.192	-0.043
-547.325	83.757	-0.181	-0.197
-546.310	-200.000	0.003	-0.392
-545.296	577.935	-0.105	-0.258
-544.281	697.213	0.052	-0.137
-543.266	285.144	-0.130	0.235
-542.252	-41.449	-0.289	0.148
-541.237	-42.151	0.371	-0.189
-540.223	136.460	0.183	-0.239
-539.208	-52.046	0.064	0.030
-538.193	-200.000	-0.002	0.105
-537.179	-126.126	-0.070	0.011
-536.164	-139.626	-0.170	0.018
-535.150	-200.000	0.024	0.245
-534.135	-200.000	0.012	-0.082
-533.121	-200.000	-0.018	-0.222
-532.106	800.000	0.035	-0.125
-531.091	-200.000	-0.235	0.001
-530.077	-200.000	-0.009	0.130
-529.062	461.025	0.063	-0.140
-528.048	215.860	-0.052	-0.083
-527.033	-175.923	-0.133	-0.004
-526.018	-200.000	-0.017	0.467
-525.004	139.156	-0.119	0.156
-523.989	0.187	-0.206	-0.147
-522.975	-25.325	-0.214	0.126
-521.960	-128.006	0.180	-0.026
-520.945	207.389	0.087	-0.136
-519.931	-69.869	-0.159	0.061
-518.916	-111.368	-0.316	0.064
-517.902	-141.077	-0.056	-0.006
-516.887	800.000	-0.040	0.118
-515.872	-92.640	-0.306	0.086
-514.858	9.905	-0.182	0.137
-513.843	52.728	-0.301	0.287
-512.829	-93.778	0.178	0.049
-511.814	-200.000	-0.051	-0.446
-510.799	-31.634	0.161	-0.090
-509.785	800.000	-0.039	-0.113
-508.770	101.146	-0.087	0.100
-507.756	493.491	0.154	-0.352
-506.741	83.466	0.081	-0.088
-505.726	-37.950	0.278	0.147
-504.712	-40.491	0.057	0.030
-503.697	800.000	-0.070	0.301
-502.683	155.288	0.150	-0.205
-501.668	-18.650	0.224	0.139
-500.653	358.674	-0.121	0.241
-499.639	-165.676	-0.326	-0.014
-498.624	211.066	0.125	0.195
-497.610	14.075	-0.195	0.152
-496.595	-200.000	0.032	0.399
-495.581	591.921	-0.062	-0.151
-494.566	233.142	-0.090	-0.148
-493.551	-41.711	-0.101	-0.051
-492.537	-16.132	0.120	-0.076
-491.522	192.995	0.158	-0.238
-490.508	180.979	-0.184	-0.269
-489.493	406.257	0.039	-0.083
-488.478	95.057	-0.112	-0.127
-487.464	184.046	-0.186	0.275
-486.449	93.664	0.121	-0.137
-485.435	-157.273	0.278	0.017
-484.420	92.507	0.151	-0.170
-483.405	-38.370	0.168	0.089
-482.391	-200.000	0.056	-0.247
-481.376	800.000	0.106	-0.322
-480.362	-62.012	0.240	-0.100
-479.347	-133.958	0.078	-0.010
-478.332	-84.509	0.330	-0.104
-477.318	-161.449	-0.168	0.009
-476.303	-90.174	-0.221	-0.064
-475.289	-92.314	0.346	0.097
-474.274	800.000	-0.088	-0.254
-473.259	-23.919	0.284	0.169
-472.245	252.819	0.098	0.166
-471.230	158.270	-0.085	-0.117
-470.216	89.780	-0.197	0.219
-469.201	287.314	0.182	-0.328
-468.186	-117.294	0.382	0.069
-467.172	800.000	0.072	-0.213
-466.157	-200.000	-0.014	-0.246
-465.143	-69.286	-0.061	0.023
-464.128	-43.325	-0.026	-0.013
-463.113	-119.381	0.182	-0.031
-462.099	-100.635	-0.129	0.032
-461.084	-200.000	0.027	-0.257
-460.070	-200.000	0.044	0.274
-459.055	800.000	-0.079	-0.258
-458.040	-200.000	-0.006	-0.120
-457.026	-200.000	-0.002	0.106
-456.011	800.000	0.040	-0.137
-454.997	-36.617	-0.113	0.060
-453.982	208.688	-0.190	-0.297
-452.968	450.740	0.084	0.185
-451.953	-200.000	0.027	0.230
-450.938	-129.055	0.137	-0.019
-449.924	800.000	0.132	-0.375
-448.909	-163.660	0.222	0.010
-447.895	800.000	-0.104	0.344
-446.880	-36.255	0.308	-0.165
-445.865	213.311	-0.071	-0.111
-444.851	129.981	0.102	-0.130
-443.836	-171.021	-0.118	-0.004
-442.822	-138.512	0.188	-0.021
-441.807	800.000	0.056	0.183
-440.792	-61.761	-0.124	0.052
-439.778	103.703	0.162	0.189
-438.763	-149.310	-0.445	-0.035
-437.749	800.000	-0.021	0.093
-436.734	568.878	0.059	0.142
-435.719	138.908	0.196	0.256
-434.705	-200.000	-0.078	0.499
-433.690	800.000	0.133	0.419
-432.676	81.261	0.203	0.219
-431.661	-200.000	-0.026	0.306
-430.646	452.842	0.096	-0.210
-429.632	-200.000	0.008	-0.122
-428.617	382.917	-0.148	0.302
-427.603	-29.174	-0.145	0.083
-426.588	91.879	-0.009	0.010
-425.573	-124.702	-0.160	0.025
-424.559	-200.000	0.003	-0.018
-423.544	-200.000	-0.040	-0.208
-422.530	-17.291	0.105	-0.066
-421.515	583.273	0.023	0.056
-420.500	-144.851	0.218	0.020
-419.486	101.561	0.250	0.289
-418.471	-86.588	-0.202	-0.062
-417.457	58.434	0.111	-0.108
-416.442	-200.000	0.014	-0.387
-415.428	141.750	0.100	-0.132
-414.413	-31.284	0.234	0.131
-413.398	800.000	-0.029	-0.124
-412.384	47.398	-0.157	0.146
-411.369	68.287	-0.054	-0.055
-410.355	-150.381	0.219	-0.017
-409.340	-34.861	-0.026	0.014
-408.325	-161.455	-0.249	-0.013
-407.311	184.709	-0.185	-0.273
-406.296	-200.000	-0.007	-0.120
-405.282	-5.205	0.083	-0.056
-404.267	628.864	-0.037	0.092
-403.252	-200.000	-0.019	0.290
-402.238	-130.833	-0.214	-0.028
-401.223	-64.981	0.310	-0.124
-400.209	108.851	0.089	-0.106
-399.194	-76.251	-0.062	0.022
-398.179	-119.315	-0.167	0.029
-397.165	253.719	-0.117	-0.198
-396.150	557.811	-0.119	0.284
-395.136	800.000	-0.037	0.149
-394.121	-147.937	-0.197	-0.016
-393.106	69.549	-0.143	0.147
-392.092	800.000	0.112	0.394
-391.077	-200.000	0.015	0.067
-390.063	139.677	-0.177	-0.231
-389.048	-109.834	0.225	-0.047
-388.033	800.000	-0.027	-0.113
-387.019	-29.478	-0.135	-0.077
-386.004	684.320	0.120	0.310
-384.990	-200.000	0.038	0.277
-383.975	800.000	0.058	0.226
-382.960	-200.000	-0.018	0.166
-381.946	-97.420	0.430	-0.111
-380.931	-36.961	0.288	-0.153
-379.917	300.121	0.161	-0.294
-378.902	-92.515	-0.234	0.065
-377.888	-71.648	-0.399	0.148
-376.873	-200.000	-0.027	0.119
-375.858	800.000	0.113	-0.375
-374.844	248.560	-0.088	-0.148
-373.829	-17.381	0.046	0.029
-372.815	-191.293	0.207	0.002
-371.800	291.901	0.075	-0.135
-370.785	194.731	0.207	-0.311
-369.771	800.000	0.106	0.333
-368.756	75.767	-0.211	0.222
-367.742	74.750	-0.211	0.220
-366.727	-18.642	0.098	0.061
-365.712	104.929	-0.122	-0.143
-364.698	89.322	0.262	-0.290
-363.683	-33.048	0.154	0.085
-362.669	18.779	-0.205	0.162
-361.654	-98.181	0.285	0.073
-360.639	188.640	-0.013	0.019
-359.625	661.837	-0.127	-0.324
-358.610	0.067	-0.277	0.196
-357.596	800.000	-0.057	-0.188
-356.581	800.000	0.057	0.226
-355.566	-105.734	0.340	0.076
-354.552	3.570	-0.192	0.139
-353.537	-0.591	0.111	0.078
-352.523	327.052	0.063	-0.119
-351.508	-161.402	0.272	-0.014
-350.493	-200.000	-0.026	0.124
-349.479	52.451	-0.236	-0.223
-348.464	-25.430	0.317	0.186
-347.450	5.735	-0.112	0.082
-346.435	-165.359	-0.134	0.006
-345.420	793.796	-0.066	-0.179
-344.406	-16.243	0.051	-0.032
-343.391	800.000	-0.062	0.212
-342.377	-65.161	-0.060	0.024
-341.362	-34.651	-0.235	0.128
-340.348	156.626	0.019	-0.025
-339.333	-136.408	0.430	-0.050
-338.318	-200.000	0.021	0.322
-337.304	-10.738	0.140	-0.092
-336.289	226.107	-0.153	-0.246
-335.275	202.016	0.049	-0.075
-334.260	176.934	-0.212	-0.306
-333.245	800.000	0.128	-0.404
-332.231	224.995	0.092	-0.148
-331.216	-69.028	0.232	-0.088
-330.202	-200.000	0.007	0.056
-329.187	61.787	-0.183	-0.181
-328.172	-36.095	-0.123	0.066
-327.158	163.189	-0.203	0.283
-326.143	-93.380	0.198	-0.054
-325.129	200.059	0.102	-0.156
-324.114	-200.000	-0.017	-0.077
-323.099	800.000	-0.137	0.584
-322.085	202.214	0.192	-0.293
-321.070	-101.325	0.166	-0.040
-320.056	-190.232	-0.111	0.001
-319.041	-200.000	0.025	-0.108
-318.026	-13.532	0.119	0.076
-317.012	800.000	0.037	0.117
-315.997	-200.000	-0.221	-0.001
-314.983	-100.844	-0.167	-0.041
-313.968	99.562	0.154	0.176
-312.953	-72.116	-0.258	-0.095
-311.939	-117.196	-0.123	-0.022
-310.924	-129.832	-0.399	0.054
-309.910	165.981	-0.097	-0.137
-308.895	-24.431	0.047	-0.028
-307.880	800.000	-0.026	0.089
-306.866	-47.754	-0.057	0.027
-305.851	-14.899	0.058	0.037
-304.837	-200.000	0.018	0.124
-303.822	-35.570	-0.213	0.114
-302.807	42.349	0.099	0.089
-301.793	148.063	0.130	0.173
-300.778	-40.001	0.237	0.122
-299.764	-0.736	0.195	0.137
-298.749	294.283	-0.013	0.024
-297.735	-40.806	0.123	-0.063
-296.720	-116.105	-0.314	0.058
-295.705	35.099	-0.154	-0.133
-294.691	-200.000	-0.064	0.322
-293.676	-200.000	-0.015	-0.070
-292.662	-106.224	-0.249	-0.055
-291.647	39.089	0.126	0.112
-290.632	619.422	-0.011	-0.028
-289.618	-53.067	-0.137	0.062
-288.603	295.359	-0.127	0.229
-287.589	-48.894	-0.290	-0.137
-286.574	22.500	0.162	-0.131
-285.559	800.000	0.061	-0.230
-284.545	-200.000	0.017	-0.225
-283.530	-75.689	-0.513	-0.180
-282.516	-16.727	0.198	-0.124
-281.501	-89.588	0.133	-0.039
-280.486	-120.665	0.378	0.063
-279.472	-200.000	-0.011	0.057
-278.457	-175.782	-0.045	0.001
-277.443	64.529	-0.179	-0.178
-276.428	-114.830	-0.079	-0.015
-275.413	116.712	-0.210	-0.255
-274.399	89.834	0.040	-0.044
-273.384	-116.554	0.396	-0.072
-272.370	-84.802	-0.336	-0.104
-271.355	436.025	-0.097	-0.210
-270.340	-89.561	0.233	0.068
-269.326	-93.768	-0.155	-0.042
-268.311	-103.179	-0.041	0.010
-267.297	73.569	-0.076	0.078
-266.282	61.039	-0.051	0.050
-265.267	800.000	0.138	-0.411
-264.253	207.923	-0.237	-0.366
-263.238	-6.772	-0.320	0.215
-262.224	-200.000	0.016	-0.146
-261.209	-18.543	0.359	-0.222
-260.195	-200.000	-0.011	0.190
-259.180	-171.005	-0.261	0.009
-258.165	-140.842	0.251	0.026
-257.151	237.492	0.138	0.226
-256.136	413.511	0.104	0.219
-255.122	7.063	0.131	0.096
-254.107	-141.893	0.108	-0.011
-253.092	-49.296	0.237	0.112
-252.078	-159.676	-0.305	0.017
-251.063	-47.431	0.105	0.051
-250.049	800.000	-0.046	0.180
-249.034	227.898	0.112	-0.180
-248.019	41.353	0.108	0.097
-247.005	204.047	-0.085	-0.130
-245.990	374.498	-0.105	-0.211
-244.976	507.556	-0.041	0.094
-243.961	-111.619	0.172	-0.035
-242.946	-37.298	0.309	0.163
-241.932	800.000	-0.029	0.091
-240.917	473.958	0.140	0.311
-239.903	-27.266	0.169	-0.097
-238.888	-167.661	0.190	0.007
-237.873	-144.848	0.209	0.019
-236.859	-84.753	0.177	-0.055
-235.844	-35.838	0.060	-0.032
-234.830	32.238	-0.231	0.197
-233.815	800.000	-0.026	-0.095
-232.800	-136.544	-0.046	-0.005
-231.786	317.092	-0.024	-0.044
-230.771	189.656	-0.136	-0.201
-229.757	165.534	-0.124	-0.173
-228.742	-200.000	0.038	-0.188
-227.727	-200.000	0.040	-0.250
-226.713	-93.454	-0.080	0.022
-225.698	363.810	0.101	-0.200
-224.684	-84.011	0.172	0.054
-223.669	-200.000	-0.028	0.330
-222.655	-138.454	0.298	-0.032
-221.640	229.549	-0.047	0.076
-220.625	-167.456	0.270	-0.011
-219.611	800.000	-0.108	0.329
-218.596	-112.439	-0.157	0.031
-217.582	32.225	-0.189	0.161
-216.567	-177.136	0.103	0.003
-215.552	800.000	0.085	-0.360
-214.538	-200.000	0.001	0.048
-213.523	800.000	0.089	0.305
-212.509	533.365	-0.057	-0.133
-211.494	-200.000	0.023	-0.335
-210.479	-81.605	0.235	0.076
-209.465	166.628	-0.158	-0.221
-208.450	-77.842	0.203	-0.069
-207.436	800.000	-0.052	-0.215
-206.421	53.971	0.053	-0.050
-205.406	658.299	-0.082	-0.209
-204.392	-172.548	-0.214	-0.007
-203.377	351.853	0.121	0.237
-202.363	-88.595	0.177	0.052
-201.348	-45.340	0.090	-0.044
-200.333	154.073	0.066	-0.089
-199.319	257.746	-0.214	0.362
-198.304	800.000	0.053	-0.171
-197.290	26.991	0.121	0.100
-196.275	800.000	-0.061	-0.252
-195.260	129.862	0.042	0.053
-194.246	66.448	0.149	-0.149
-193.231	-65.601	0.054	0.021
-192.217	-68.653	-0.186	0.071
-191.202	-200.000	-0.018	0.178
-190.187	-82.473	0.179	0.057
-189.173	-84.306	0.040	-0.013
-188.158	315.733	0.055	0.103
-187.144	93.197	0.085	0.094
-186.129	-200.000	-0.057	-0.283
-185.114	-172.925	-0.116	-0.004
-184.100	800.000	-0.053	-0.191
-183.085	736.476	0.049	-0.129
-182.071	77.035	0.041	0.042
-181.056	-200.000	0.018	0.177
-180.042	-200.000	0.001	-0.036
-179.027	97.531	0.037	-0.042
-178.012	19.530	0.201	0.159
-176.998	800.000	0.103	-0.360
-175.983	-22.323	0.202	-0.121
-174.969	-25.842	-0.128	0.074
-173.954	31.959	0.038	0.033
-172.939	-200.000	-0.055	0.375
-171.925	800.000	0.046	0.190
-170.910	-59.916	-0.186	-0.078
-169.896	-47.325	-0.142	0.068
-168.881	13.965	-0.127	0.097
-167.866	498.471	0.176	0.400
-166.852	-69.014	0.114	0.043
-165.837	-77.784	-0.507	0.172
-164.823	-132.031	-0.163	0.021
-163.808	110.355	-0.054	0.064
-162.793	-200.000	0.004	0.081
-161.779	-200.000	0.015	-0.102
-160.764	-74.730	0.242	0.086
-159.750	151.308	-0.126	0.169
-158.735	-106.676	0.321	0.070
-157.720	800.000	-0.105	0.287
-156.706	20.273	0.213	0.169
-155.691	-84.618	-0.163	0.051
-154.677	-180.451	-0.219	0.004
-153.662	515.597	-0.147	0.338
-152.647	269.522	0.208	0.360
-151.633	-86.188	0.327	-0.099
-150.618	7.319	-0.216	-0.158
-149.604	-200.000	0.075	-0.000
-148.589	-200.000	-0.006	-0.234
-147.574	180.175	0.107	0.154
-146.560	23.642	0.180	-0.146
-145.545	31.053	0.099	-0.083
-144.531	-91.170	0.206	-0.058
-143.516	-200.000	0.002	0.145
-142.502	514.666	-0.051	-0.117
-141.487	-47.321	0.038	-0.018
-140.472	-108.259	0.234	-0.050
-139.458	-200.000	0.006	-0.049
-138.443	-126.251	-0.021	0.003
-137.429	-155.856	-0.405	0.025
-136.414	-200.000	-0.021	0.211
-135.399	138.676	0.087	-0.112
-134.385	466.246	-0.015	-0.033
-133.370	-33.582	0.125	0.068
-132.356	-120.950	-0.437	0.072
-131.341	-140.400	0.149	0.015
-130.326	-111.487	-0.234	0.047
-129.312	34.615	0.296	0.254
-128.297	18.470	-0.179	-0.140
-127.283	559.847	-0.028	-0.067
-126.268	514.411	-0.077	0.176
-125.253	-61.838	-0.167	-0.069
-124.239	-97.149	-0.329	-0.084
-123.224	445.259	0.074	0.160
-122.210	-38.696	0.165	0.085
-121.195	126.649	0.052	0.065
