DTS Sentinel unit serial number:	SN413079Multiplexer serial number:	ORYXHardware model number:	OX4-SRSoftware version number:	ORYX F/W v4.00 Oryx Data Collector v3.7.2.0data status	okinstallation	princeton_trtdifferential loss correction	single-endedforward channel	channel 3reverse channel	N/Adate	2019/09/11time	09:14:11forward acquisition time	60.00reverse acquisition time	0.00gamma	496.2192k internal	0.2308k external	0.2308temperature offset calibration	0.9943default loss term (dB/km)	0.3790temperature slope calibration	1.0000multiplexer offset coefficient	1.0000multiplexer slope coefficient	1.0000fibre end	0.00T internal ref (°C)	34.33T ext. ref 1 (°C)	0.09T ext. ref 2 (°C)	30.55length (m)	temperature (°C)	Stokes	anti-Stokes-747.200	-61.465	0.285	0.122
-746.185	-77.350	0.199	-0.070
-745.171	-74.309	-0.193	0.071
-744.156	26.781	0.284	0.242
-743.142	154.170	0.113	0.158
-742.127	-139.317	-0.309	-0.034
-741.112	745.080	0.025	0.069
-740.098	800.000	-0.059	0.241
-739.083	-200.000	-0.013	0.192
-738.069	52.382	-0.247	0.240
-737.054	44.184	-0.135	0.126
-736.039	-200.000	-0.077	-0.368
-735.025	48.052	0.188	-0.179
-734.010	-0.709	-0.164	-0.118
-732.996	77.557	0.145	0.156
-731.981	159.819	0.134	0.189
-730.966	-15.129	-0.172	-0.112
-729.952	-117.458	-0.124	0.023
-728.937	-69.613	-0.349	0.136
-727.923	90.364	0.160	-0.181
-726.908	-16.881	0.023	0.015
-725.894	325.374	0.216	-0.420
-724.879	46.864	-0.183	0.172
-723.864	800.000	0.082	-0.301
-722.850	-100.590	0.107	0.027
-721.835	-20.586	-0.267	0.166
-720.821	376.062	-0.024	-0.049
-719.806	-200.000	-0.025	-0.143
-718.791	-18.666	0.121	0.076
-717.777	16.751	-0.073	0.059
-716.762	42.663	-0.096	0.089
-715.748	-125.958	0.252	-0.039
-714.733	565.106	0.106	-0.261
-713.718	-181.295	-0.307	0.006
-712.704	176.606	-0.156	-0.230
-711.689	-174.112	0.202	0.006
-710.675	51.647	-0.188	-0.181
-709.660	-0.489	0.200	-0.144
-708.645	-68.221	-0.079	0.031
-707.631	-200.000	-0.013	-0.146
-706.616	33.160	-0.110	0.097
-705.602	-31.125	-0.300	0.172
-704.587	800.000	0.009	0.041
-703.572	424.230	0.175	0.381
-702.558	-200.000	0.037	0.259
-701.543	-200.000	-0.006	-0.489
-700.529	-2.278	0.063	-0.045
-699.514	430.848	0.117	-0.257
-698.499	148.757	-0.147	0.202
-697.485	15.431	0.076	-0.061
-696.470	-200.000	0.059	-0.665
-695.456	-17.493	-0.168	0.107
-694.441	-132.866	0.198	-0.026
-693.426	-24.067	-0.168	0.102
-692.412	-200.000	-0.052	-0.324
-691.397	-48.684	0.232	0.113
-690.383	-51.974	-0.297	-0.140
-689.368	626.552	-0.053	-0.135
-688.354	150.601	0.147	-0.203
-687.339	96.015	-0.229	-0.265
-686.324	-87.418	0.170	0.052
-685.310	800.000	-0.081	0.260
-684.295	-177.660	0.308	-0.008
-683.281	755.982	0.177	0.486
-682.266	60.363	0.229	0.229
-681.251	1.643	-0.093	0.068
-680.237	226.091	0.217	-0.357
-679.222	-200.000	0.014	-0.324
-678.208	-200.000	0.031	-0.286
-677.193	262.247	0.103	0.181
-676.178	-141.327	-0.075	-0.008
-675.164	-200.000	-0.035	0.210
-674.149	84.814	0.087	0.096
-673.135	-200.000	0.009	-0.063
-672.120	-200.000	0.018	-0.156
-671.105	800.000	-0.066	-0.220
-670.091	89.725	0.097	0.109
-669.076	-43.118	-0.262	0.134
-668.062	-98.061	0.137	0.036
-667.047	-35.010	0.234	0.129
-666.032	-84.870	0.057	-0.018
-665.018	-156.341	-0.347	0.022
-664.003	96.351	0.238	0.276
-662.989	-200.000	0.038	-0.376
-661.974	7.729	-0.213	-0.161
-660.959	-151.195	0.124	0.009
-659.945	-200.000	-0.032	-0.264
-658.930	-3.976	0.141	0.099
-657.916	-200.000	0.012	0.179
-656.901	-115.310	-0.335	-0.064
-655.886	55.443	-0.135	0.132
-654.872	-58.472	-0.212	-0.093
-653.857	800.000	-0.043	-0.133
-652.843	145.265	0.112	-0.152
-651.828	363.542	0.117	-0.238
-650.814	412.866	0.090	-0.193
-649.799	-157.681	-0.214	-0.013
-648.784	800.000	-0.059	0.214
-647.770	-78.894	-0.091	0.031
-646.755	-78.225	-0.385	-0.134
-645.741	-200.000	0.069	0.386
-644.726	800.000	0.025	-0.093
-643.711	-200.000	-0.010	-0.416
-642.697	-182.406	0.170	0.003
-641.682	-80.887	-0.298	0.100
-640.668	-168.334	0.325	0.013
-639.653	87.818	0.369	-0.414
-638.638	6.926	-0.144	0.109
-637.624	581.664	0.079	-0.197
-636.609	-54.495	0.095	-0.044
-635.595	-35.388	-0.288	0.159
-634.580	-200.000	0.026	0.216
-633.565	-18.138	0.152	-0.097
-632.551	140.369	0.070	0.094
-631.536	-166.552	0.236	0.010
-630.522	-154.665	-0.460	0.031
-629.507	-37.525	-0.221	0.119
-628.492	-200.000	0.023	0.175
-627.478	795.810	-0.047	-0.131
-626.463	29.633	0.104	0.089
-625.449	-92.975	-0.363	-0.103
-624.434	489.266	0.073	0.170
-623.419	-200.000	0.015	-0.172
-622.405	3.408	-0.191	-0.141
-621.390	181.849	0.238	-0.354
-620.376	355.790	0.061	-0.123
-619.361	-200.000	-0.006	0.098
-618.346	95.930	-0.199	0.230
-617.332	800.000	0.022	-0.075
-616.317	-200.000	-0.049	-0.292
-615.303	-200.000	0.025	-0.219
-614.288	-200.000	-0.018	0.199
-613.273	-112.262	-0.192	-0.039
-612.259	20.491	-0.071	0.058
-611.244	-187.547	-0.055	0.001
-610.230	411.175	0.109	-0.233
-609.215	800.000	-0.015	0.056
-608.201	648.929	0.053	0.136
-607.186	-200.000	-0.002	-0.038
-606.171	94.409	0.292	0.335
-605.157	800.000	0.076	0.247
-604.142	108.775	-0.098	0.119
-603.128	14.987	-0.186	0.147
-602.113	44.267	0.117	-0.108
-601.098	308.976	-0.110	-0.208
-600.084	121.082	-0.125	-0.157
-599.069	-88.168	-0.147	0.045
-598.055	-200.000	0.001	0.087
-597.040	800.000	0.050	-0.158
-596.025	-196.201	-0.161	-0.001
-595.011	-102.045	0.090	-0.022
-593.996	106.285	-0.155	-0.186
-592.982	-76.927	-0.253	-0.089
-591.967	800.000	-0.024	0.097
-590.952	-34.919	0.135	0.074
-589.938	127.433	0.190	-0.244
-588.923	-26.779	-0.101	-0.060
-587.909	112.310	-0.355	-0.434
-586.894	800.000	0.114	0.326
-585.879	-41.593	0.195	-0.101
-584.865	-80.210	0.018	0.006
-583.850	-157.024	0.218	0.013
-582.836	165.929	-0.020	-0.029
-581.821	13.238	0.064	0.050
-580.806	189.020	-0.105	0.159
-579.792	115.817	0.111	0.138
-578.777	-11.042	0.228	-0.152
-577.763	-69.245	0.080	0.031
-576.748	-180.150	0.153	-0.003
-575.733	-100.801	0.436	-0.108
-574.719	800.000	0.030	0.100
-573.704	-159.642	0.251	0.014
-572.690	481.531	-0.158	-0.362
-571.675	-200.000	-0.081	-0.401
-570.661	-158.676	0.100	-0.006
-569.646	800.000	-0.055	0.210
-568.631	-60.365	-0.253	0.109
-567.617	-105.626	-0.145	0.033
-566.602	19.081	0.096	-0.078
-565.588	235.699	0.114	-0.191
-564.573	-101.430	0.202	0.050
-563.558	195.310	0.015	-0.024
-562.544	32.722	0.126	-0.110
-561.529	800.000	0.073	-0.277
-560.515	-200.000	0.006	-0.172
-559.500	111.260	-0.064	0.078
-558.485	732.151	-0.037	0.100
-557.471	0.381	0.065	0.047
-556.456	0.152	0.319	-0.229
-555.442	-106.733	0.137	-0.031
-554.427	-113.610	-0.152	0.030
-553.412	-104.097	0.208	0.049
-552.398	-46.262	0.166	0.082
-551.383	439.920	-0.108	0.237
-550.369	3.221	-0.119	-0.088
-549.354	-59.699	0.121	-0.052
-548.339	17.823	-0.130	-0.104
-547.325	136.116	0.103	0.136
-546.310	121.743	0.198	-0.249
-545.296	-132.720	0.045	0.006
-544.281	-178.846	0.175	-0.004
-543.266	-168.657	-0.312	0.012
-542.252	736.258	0.070	0.188
-541.237	275.026	-0.134	-0.239
-540.223	-200.000	0.017	-0.259
-539.208	284.689	0.086	-0.157
-538.193	300.865	-0.182	-0.338
-537.179	52.850	-0.163	0.157
-536.164	-200.000	-0.005	-0.165
-535.150	-200.000	0.066	-0.431
-534.135	-106.455	-0.073	0.016
-533.121	47.430	0.219	-0.206
-532.106	-23.029	0.118	0.072
-531.091	-150.723	-0.181	0.014
-530.077	800.000	0.048	-0.135
-529.062	-81.790	-0.355	0.117
-528.048	-110.058	0.220	-0.046
-527.033	800.000	-0.050	-0.163
-526.018	-200.000	0.043	-0.343
-525.004	-116.676	0.182	0.034
-523.989	800.000	0.080	-0.225
-522.975	-108.074	-0.234	-0.051
-521.960	536.016	-0.112	-0.268
-520.945	-105.831	0.270	0.062
-519.931	-75.382	-0.142	-0.051
-518.916	-74.510	0.250	0.091
-517.902	286.899	-0.183	0.333
-516.887	111.200	0.176	0.214
-515.872	800.000	0.040	0.157
-514.858	-116.907	0.329	-0.061
-513.843	-200.000	-0.066	-0.360
-512.829	-64.412	0.190	-0.078
-511.814	173.806	-0.139	0.202
-510.799	506.300	-0.119	0.277
-509.785	34.082	0.150	-0.132
-508.770	371.501	0.076	-0.156
-507.756	-142.619	0.141	-0.014
-506.741	800.000	-0.095	-0.308
-505.726	-200.000	-0.000	0.206
-504.712	-74.733	0.144	-0.052
-503.697	800.000	0.063	-0.231
-502.683	-88.889	-0.236	0.070
-501.668	-157.269	-0.197	-0.012
-500.653	103.579	-0.150	-0.177
-499.639	800.000	0.058	-0.240
-498.624	-27.503	0.136	-0.079
-497.610	-181.072	0.133	0.003
-496.595	170.321	-0.119	0.172
-495.581	314.207	-0.159	-0.302
-494.566	-84.565	-0.032	0.010
-493.551	-43.371	-0.276	0.141
-492.537	800.000	0.058	-0.202
-491.522	151.857	0.221	-0.304
-490.508	-200.000	-0.021	-0.157
-489.493	-24.283	0.277	0.167
-488.478	-93.239	-0.344	0.096
-487.464	-153.008	-0.132	0.009
-486.449	-30.419	-0.111	0.063
-485.435	250.562	-0.071	-0.121
-484.420	163.016	-0.216	-0.305
-483.405	3.114	0.330	0.241
-482.391	800.000	-0.121	0.341
-481.376	-174.345	0.220	-0.006
-480.362	-1.761	-0.208	0.147
-479.347	-40.436	0.300	0.157
-478.332	-26.634	0.154	0.091
-477.318	-200.000	0.007	-0.414
-476.303	-105.568	-0.094	-0.021
-475.289	-200.000	0.033	-0.349
-474.274	-102.658	0.155	0.037
-473.259	362.900	-0.188	0.381
-472.245	79.763	0.124	0.134
-471.230	-200.000	-0.020	0.311
-470.216	107.875	0.150	-0.180
-469.201	-200.000	0.003	-0.386
-468.186	-53.546	0.288	-0.133
-467.172	-200.000	0.044	-0.205
-466.157	3.703	-0.216	-0.159
-465.143	-191.668	-0.371	-0.004
-464.128	533.679	-0.095	-0.226
-463.113	-39.679	0.202	0.106
-462.099	34.956	-0.205	0.180
-461.084	-8.116	0.181	0.122
-460.070	-112.399	-0.173	-0.035
-459.055	-200.000	-0.021	0.324
-458.040	-200.000	0.028	0.212
-457.026	257.069	0.025	0.044
-456.011	-3.189	-0.062	-0.043
-454.997	-70.259	-0.130	0.050
-453.982	386.084	-0.092	0.190
-452.968	800.000	-0.075	-0.267
-451.953	23.988	-0.222	0.184
-450.938	12.634	-0.364	0.282
-449.924	471.312	0.065	-0.147
-448.909	-130.620	-0.062	-0.008
-447.895	-75.497	-0.169	-0.060
-446.880	-154.683	-0.311	0.021
-445.865	-200.000	0.011	0.236
-444.851	-91.338	0.278	0.080
-443.836	120.808	0.137	0.171
-442.822	-200.000	0.065	0.432
-441.807	-41.911	-0.220	0.113
-440.792	-91.233	0.583	-0.168
-439.778	416.462	0.025	0.055
-438.763	-54.086	-0.211	0.097
-437.749	800.000	-0.103	0.414
-436.734	387.394	0.030	-0.062
-435.719	161.003	-0.118	-0.166
-434.705	-82.277	0.189	0.062
-433.690	-200.000	0.005	0.205
-432.676	23.776	0.045	-0.037
-431.661	-200.000	-0.007	-0.190
-430.646	-32.313	0.122	0.068
-429.632	-200.000	0.011	-0.068
-428.617	-131.380	-0.175	-0.023
-427.603	-93.384	-0.145	-0.040
-426.588	362.889	-0.114	-0.229
-425.573	372.245	-0.073	-0.149
-424.559	542.017	-0.050	0.119
-423.544	800.000	0.057	-0.244
-422.530	247.213	0.277	0.469
-421.515	-63.895	0.107	0.044
-420.500	-200.000	-0.006	0.170
-419.486	52.748	-0.249	-0.239
-418.471	-200.000	-0.005	0.228
-417.457	-200.000	-0.015	-0.071
-416.442	800.000	0.036	0.145
-415.428	-200.000	-0.019	0.325
-414.413	-133.349	0.168	-0.021
-413.398	4.682	0.039	0.029
-412.384	238.062	0.147	0.245
-411.369	-128.330	-0.125	0.018
-410.355	-56.758	-0.100	0.044
-409.340	-200.000	0.057	0.318
-408.325	-75.165	0.185	0.066
-407.311	-75.402	0.364	0.130
-406.296	-17.805	-0.238	0.150
-405.282	800.000	0.097	0.311
-404.267	-40.039	-0.156	0.081
-403.252	-135.196	0.524	0.063
-402.238	800.000	-0.038	0.164
-401.223	558.593	0.116	-0.282
-400.209	-8.979	-0.192	0.129
-399.194	-91.277	0.203	-0.058
-398.179	-200.000	0.023	0.163
-397.165	-200.000	0.034	-0.169
-396.150	67.264	0.186	0.190
-395.136	-159.904	-0.056	-0.003
-394.121	-116.506	0.135	0.025
-393.106	-200.000	0.038	-0.225
-392.092	20.881	0.065	0.053
-391.077	6.635	-0.225	0.168
-390.063	83.220	-0.180	-0.197
-389.048	-59.466	0.075	-0.032
-388.033	-115.864	0.069	-0.013
-387.019	3.071	0.179	-0.131
-386.004	-50.111	-0.138	-0.065
-384.990	141.268	0.125	0.166
-383.975	-126.355	0.319	0.048
-382.960	219.715	0.116	0.186
-381.946	551.094	-0.108	0.259
-380.931	379.034	-0.135	-0.277
-379.917	114.158	-0.135	-0.164
-378.902	-122.223	0.045	-0.007
-377.888	-90.633	-0.095	-0.027
-376.873	-20.065	0.169	0.104
-375.858	-200.000	-0.005	-0.108
-374.844	-70.828	0.111	-0.042
-373.829	-37.404	-0.318	0.170
-372.815	-200.000	0.033	0.170
-371.800	-3.077	0.150	0.105
-370.785	-200.000	-0.016	-0.447
-369.771	45.888	-0.186	0.172
-368.756	800.000	0.062	0.207
-367.742	724.185	-0.057	0.153
-366.727	-142.107	-0.104	0.010
-365.712	-50.142	0.142	-0.068
-364.698	474.536	-0.098	-0.222
-363.683	-148.372	-0.045	-0.004
-362.669	90.412	0.156	0.175
-361.654	-119.826	0.062	-0.011
-360.639	407.295	0.194	-0.410
-359.625	309.426	0.073	0.136
-358.610	-46.824	-0.137	0.067
-357.596	12.678	-0.122	-0.094
-356.581	-200.000	0.013	0.214
-355.566	-93.034	0.213	0.059
-354.552	53.321	-0.118	0.113
-353.537	-200.000	-0.020	-0.203
-352.523	-27.036	0.032	-0.019
-351.508	800.000	0.057	0.182
-350.493	800.000	-0.128	0.405
-349.479	-52.644	0.336	0.155
-348.464	-23.747	-0.284	-0.171
-347.450	-51.856	-0.364	0.170
-346.435	143.149	-0.092	0.123
-345.420	-30.152	0.131	-0.074
-344.406	800.000	0.124	-0.350
-343.391	-65.875	-0.209	-0.084
-342.377	651.520	-0.106	-0.271
-341.362	-153.528	-0.219	-0.015
-340.348	-66.375	-0.085	0.034
-339.333	-97.602	0.269	-0.070
-338.318	31.943	-0.155	0.134
-337.304	800.000	-0.122	0.380
-336.289	425.691	0.111	-0.238
-335.275	-65.557	0.081	-0.033
-334.260	-200.000	0.026	0.170
-333.245	-116.920	0.386	0.071
-332.231	-71.038	-0.050	0.019
-331.216	304.735	0.093	-0.173
-330.202	-52.934	-0.303	-0.139
-329.187	-24.230	0.332	-0.198
-328.172	23.032	-0.273	0.224
-327.158	-81.181	-0.132	0.043
-326.143	800.000	-0.028	-0.097
-325.129	-45.723	-0.076	-0.038
-324.114	312.171	-0.093	-0.174
-323.099	225.346	0.047	0.076
-322.085	-200.000	-0.002	-0.088
-321.070	-158.086	-0.263	0.015
-320.056	-82.897	-0.158	-0.051
-319.041	491.466	-0.117	-0.268
-318.026	800.000	0.013	0.041
-317.012	-138.602	0.259	-0.028
-315.997	101.183	0.011	-0.013
-314.983	30.126	-0.128	-0.109
-313.968	-124.714	-0.067	-0.010
-312.953	800.000	-0.081	-0.255
-311.939	16.747	0.228	0.181
-310.924	-34.124	0.142	0.078
-309.910	51.663	0.098	-0.094
-308.895	247.298	0.306	-0.517
-307.880	800.000	-0.029	-0.085
-306.866	800.000	-0.081	-0.289
-305.851	224.514	0.056	-0.091
-304.837	-168.116	0.271	-0.011
-303.822	635.109	-0.028	-0.070
-302.807	382.455	0.045	-0.092
-301.793	148.669	-0.083	-0.112
-300.778	-103.654	0.323	-0.076
-299.764	-200.000	0.016	0.281
-298.749	-121.062	-0.377	-0.063
-297.735	-8.439	-0.196	-0.131
-296.720	800.000	0.122	0.510
-295.705	188.888	0.115	-0.172
-294.691	-161.752	0.233	0.012
-293.676	330.157	-0.088	-0.169
-292.662	452.128	-0.076	0.168
-291.647	490.438	-0.116	-0.266
-290.632	0.380	-0.046	0.033
-289.618	154.002	0.122	-0.167
-288.603	-200.000	0.055	-0.380
-287.589	-89.184	-0.178	0.052
-286.574	-44.563	-0.152	0.076
-285.559	635.318	0.066	-0.167
-284.545	220.730	-0.100	0.161
-283.530	53.062	0.214	-0.205
-282.516	-69.612	-0.160	0.061
-281.501	-122.583	-0.194	-0.031
-280.486	-200.000	0.022	0.158
-279.472	-93.574	0.302	-0.083
-278.457	-73.222	-0.142	0.052
-277.443	84.366	-0.175	-0.191
-276.428	169.964	-0.183	0.261
-275.413	800.000	-0.087	0.330
-274.399	557.116	-0.030	0.073
-273.384	-108.071	0.250	-0.054
-272.370	481.426	-0.094	-0.213
-271.355	-3.795	0.070	-0.048
-270.340	-44.253	0.151	0.076
-269.326	44.221	-0.243	0.223
-268.311	-200.000	-0.015	0.292
-267.297	-84.996	-0.319	-0.100
-266.282	-116.513	0.142	-0.026
-265.267	-27.090	-0.201	0.117
-264.253	-56.682	0.134	-0.059
-263.238	13.413	0.288	0.223
-262.224	-122.878	-0.466	-0.075
-261.209	156.995	-0.107	0.147
-260.195	-200.000	0.051	0.226
-259.180	-65.427	-0.113	-0.046
-258.165	-37.237	-0.225	0.120
-257.151	137.082	-0.247	0.322
-256.136	759.159	-0.039	-0.107
-255.122	-200.000	0.040	0.344
-254.107	-200.000	-0.005	-0.085
-253.092	-48.987	-0.102	0.049
-252.078	32.518	0.167	-0.144
-251.063	-90.632	0.155	-0.045
-250.049	-200.000	-0.011	0.347
-249.034	457.856	0.027	-0.059
-248.019	-14.545	-0.234	0.150
-247.005	-150.359	0.430	0.033
-245.990	-52.718	-0.066	-0.030
-244.976	-30.010	-0.122	-0.069
-243.961	-63.947	-0.180	0.073
-242.946	225.504	0.204	-0.329
-241.932	-94.349	-0.390	-0.106
-240.917	800.000	0.059	-0.197
-239.903	56.486	-0.458	0.444
-238.888	503.169	-0.139	-0.321
-237.873	-148.696	0.161	0.013
-236.859	-67.821	0.257	-0.100
-235.844	10.059	-0.158	-0.120
-234.830	-20.430	0.163	0.100
-233.815	67.943	0.143	0.146
-232.800	404.359	0.127	0.266
-231.786	-98.761	-0.244	0.062
-230.771	16.590	-0.317	0.249
-229.757	800.000	0.018	-0.068
-228.742	-44.560	0.164	-0.082
-227.727	27.771	0.224	0.188
-226.713	-200.000	-0.016	0.285
-225.698	-200.000	-0.066	0.337
-224.684	-128.441	0.349	-0.049
-223.669	-192.825	-0.229	-0.002
-222.655	-5.674	0.118	0.081
-221.640	294.046	-0.140	-0.255
-220.625	-19.540	-0.085	-0.052
-219.611	5.173	-0.065	-0.047
-218.596	-124.670	-0.283	0.044
-217.582	-88.490	-0.241	0.072
-216.567	739.305	0.039	0.105
-215.552	-200.000	-0.077	-0.475
-214.538	-200.000	0.002	-0.083
-213.523	-12.133	0.220	-0.143
-212.509	14.583	-0.182	-0.141
-211.494	49.581	0.153	0.143
-210.479	344.830	0.073	0.143
-209.465	27.530	0.073	0.061
-208.450	-74.337	-0.115	-0.041
-207.436	-148.650	0.158	0.013
-206.421	-26.777	0.212	0.123
-205.406	694.427	0.093	-0.242
-204.392	-52.559	0.314	0.144
-203.377	-200.000	-0.015	-0.066
-202.363	181.211	0.176	0.258
-201.348	115.313	0.136	-0.165
-200.333	24.669	0.020	-0.017
-199.319	-65.086	-0.069	0.028
-198.304	247.834	-0.104	-0.175
-197.290	325.521	-0.102	-0.194
-196.275	-81.287	0.174	-0.057
-195.260	23.088	-0.326	0.266
-194.246	89.765	-0.076	0.085
-193.231	481.298	0.022	-0.050
-192.217	457.458	0.059	0.130
-191.202	800.000	0.042	0.167
-190.187	13.280	0.177	-0.137
-189.173	-47.136	0.252	-0.122
-188.158	-0.044	0.303	0.215
-187.144	181.470	-0.047	-0.068
-186.129	357.991	0.138	0.273
-185.114	-89.126	0.088	-0.026
-184.100	215.598	0.075	-0.119
-183.085	-54.852	0.405	-0.182
-182.071	800.000	-0.070	-0.296
-181.056	-25.152	-0.171	-0.101
-180.042	-14.193	-0.285	-0.183
-179.027	-67.163	0.283	0.111
-178.012	58.438	0.067	0.065
-176.998	-33.268	0.358	0.197
-175.983	-200.000	-0.000	-0.066
-174.969	541.950	0.135	0.319
-173.954	-58.955	-0.134	0.057
-172.939	2.773	0.105	-0.075
-171.925	800.000	-0.063	0.179
-170.910	37.443	0.171	0.151
-169.896	-200.000	0.073	0.372
-168.881	367.328	-0.098	0.196
-167.866	-104.729	-0.089	0.020
-166.852	-66.720	0.086	0.034
-165.837	-200.000	0.013	0.248
-164.823	100.214	0.081	-0.094
-163.808	800.000	-0.058	0.216
-162.793	-59.097	0.023	0.010
-161.779	-14.150	0.198	0.127
-160.764	-200.000	-0.001	-0.011
-159.750	800.000	-0.098	0.293
-158.735	-140.105	-0.607	0.063
-157.720	746.719	0.074	-0.198
-156.706	417.988	0.075	-0.159
-155.691	60.649	-0.258	-0.254
-154.677	-89.506	-0.346	0.101
-153.662	-6.567	-0.166	-0.112
-152.647	-1.087	0.063	-0.044
-151.633	-47.397	-0.219	-0.106
-150.618	123.046	-0.039	0.048
-149.604	366.959	-0.166	0.333
-148.589	82.842	-0.042	-0.045
-147.574	70.306	0.176	0.181
-146.560	-138.159	-0.229	0.025
-145.545	800.000	0.018	-0.059
-144.531	800.000	-0.042	0.120
-143.516	-2.424	0.147	-0.102
-142.502	-45.990	-0.400	-0.196
-141.487	111.360	0.093	0.112
-140.472	-91.035	-0.235	0.067
-139.458	800.000	-0.054	-0.159
-138.443	800.000	0.082	0.243
-137.429	24.860	-0.334	0.275
-136.414	338.005	-0.068	0.131
-135.399	16.648	0.062	0.049
-134.385	800.000	-0.067	-0.282
-133.370	-33.874	0.157	-0.086
-132.356	130.650	0.200	0.255
-131.341	-200.000	-0.060	0.272
-130.326	-79.332	0.155	0.052
-129.312	800.000	-0.056	0.195
-128.297	-31.416	0.255	-0.143
-127.283	-15.660	-0.178	-0.113
-126.268	-154.966	0.259	0.017
-125.253	386.562	-0.103	-0.212
-124.239	278.032	-0.179	0.317
-123.224	-31.245	0.182	0.102
-122.210	291.813	0.109	0.196
-121.195	88.907	0.217	0.239
-120.180	800.000	0.054	0.160
