DTS Sentinel unit serial number:	SN413079Multiplexer serial number:	ORYXHardware model number:	OX4-SRSoftware version number:	ORYX F/W v4.00 Oryx Data Collector v3.7.2.0data status	okinstallation	princeton_trtdifferential loss correction	single-endedforward channel	channel 3reverse channel	N/Adate	2019/09/11time	08:50:11forward acquisition time	60.00reverse acquisition time	0.00gamma	496.2192k internal	0.2310k external	0.2310temperature offset calibration	0.9937default loss term (dB/km)	0.3790temperature slope calibration	1.0000multiplexer offset coefficient	1.0000multiplexer slope coefficient	1.0000fibre end	0.00T internal ref (°C)	33.81T ext. ref 1 (°C)	0.07T ext. ref 2 (°C)	31.15length (m)	temperature (°C)	Stokes	anti-Stokes-747.200	62.907	-0.056	0.057
-746.185	-38.287	0.033	-0.018
-745.171	9.127	0.235	-0.180
-744.156	338.278	-0.097	0.192
-743.142	16.534	0.063	0.051
-742.127	-90.698	0.096	0.028
-741.112	-76.848	-0.049	0.017
-740.098	-139.947	-0.027	0.003
-739.083	-183.361	-0.311	0.006
-738.069	278.094	0.113	0.205
-737.054	-23.085	-0.155	-0.095
-736.039	-42.132	-0.153	-0.080
-735.025	-200.000	0.130	0.589
-734.010	31.516	-0.142	-0.124
-732.996	800.000	0.034	-0.105
-731.981	800.000	-0.133	-0.429
-730.966	32.067	0.207	0.181
-729.952	-58.044	0.118	0.052
-728.937	-52.044	0.238	0.112
-727.923	703.714	-0.072	0.193
-726.908	126.866	-0.033	-0.043
-725.894	151.367	0.027	0.038
-724.879	183.226	0.231	-0.346
-723.864	-161.298	-0.289	0.015
-722.850	800.000	0.056	-0.218
-721.835	800.000	0.061	-0.268
-720.821	25.422	-0.155	0.131
-719.806	490.220	-0.011	0.026
-718.791	56.651	0.119	-0.117
-717.777	-200.000	-0.021	-0.141
-716.762	320.342	0.043	0.082
-715.748	-116.216	-0.114	-0.021
-714.733	-97.829	0.214	0.056
-713.718	-139.413	0.161	0.017
-712.704	-200.000	0.004	0.119
-711.689	728.480	0.118	-0.321
-710.675	-133.225	-0.516	-0.066
-709.660	-103.780	0.378	0.090
-708.645	424.013	-0.043	0.094
-707.631	93.880	-0.132	-0.152
-706.616	800.000	-0.064	0.247
-705.602	-26.931	-0.278	0.165
-704.587	-31.916	0.090	0.051
-703.572	-200.000	-0.003	0.034
-702.558	-21.900	0.236	-0.145
-701.543	377.112	0.111	0.229
-700.529	800.000	0.059	-0.182
-699.514	-200.000	0.000	-0.164
-698.499	-200.000	0.004	-0.030
-697.485	800.000	0.095	-0.340
-696.470	-110.535	-0.147	0.031
-695.456	30.026	-0.300	-0.260
-694.441	501.690	0.094	-0.221
-693.426	-49.165	0.168	-0.082
-692.412	-130.175	-0.179	0.025
-691.397	-200.000	-0.006	0.269
-690.383	-43.119	-0.035	0.018
-689.368	-130.729	0.247	0.034
-688.354	-84.079	0.494	-0.159
-687.339	-68.173	-0.235	0.093
-686.324	-104.264	0.386	0.091
-685.310	-200.000	0.003	0.116
-684.295	440.916	-0.151	-0.334
-683.281	-200.000	0.098	0.000
-682.266	111.022	-0.077	-0.094
-681.251	800.000	0.164	-0.481
-680.237	99.101	0.155	-0.181
-679.222	64.648	0.254	0.260
-678.208	281.887	-0.129	-0.234
-677.193	-61.670	-0.193	0.082
-676.178	90.284	0.154	-0.174
-675.164	68.695	-0.069	-0.072
-674.149	-123.202	0.294	-0.048
-673.135	280.583	0.185	0.336
-672.120	800.000	-0.075	-0.219
-671.105	-46.924	-0.306	-0.152
-670.091	-57.644	0.118	0.053
-669.076	-54.385	0.085	0.039
-668.062	-102.635	-0.313	0.076
-667.047	173.159	-0.159	0.231
-666.032	800.000	0.059	-0.244
-665.018	106.952	-0.054	-0.066
-664.003	800.000	0.028	0.088
-662.989	-95.653	-0.406	-0.110
-661.974	-55.021	0.137	-0.062
-660.959	143.168	0.204	-0.274
-659.945	800.000	0.041	0.163
-658.930	-74.514	0.147	-0.054
-657.916	-89.227	0.048	0.014
-656.901	-3.813	0.088	0.062
-655.886	-71.411	-0.164	-0.062
-654.872	560.485	0.049	0.119
-653.857	-200.000	0.047	-0.214
-652.843	-82.697	0.186	0.061
-651.828	-10.135	-0.223	-0.150
-650.814	-200.000	-0.051	0.231
-649.799	800.000	0.057	-0.210
-648.784	216.275	0.026	0.042
-647.770	343.180	-0.071	-0.141
-646.755	11.695	-0.213	0.165
-645.741	47.519	0.376	-0.355
-644.726	4.508	-0.206	-0.153
-643.711	214.894	-0.041	-0.066
-642.697	800.000	-0.069	-0.210
-641.682	76.087	0.131	0.140
-640.668	263.029	0.113	-0.198
-639.653	-31.572	0.078	-0.044
-638.638	800.000	0.062	0.229
-637.624	800.000	-0.066	-0.186
-636.609	-200.000	-0.026	0.179
-635.595	-200.000	-0.001	-0.304
-634.580	-110.869	0.088	0.018
-633.565	-189.095	0.097	-0.001
-632.551	336.488	0.094	-0.184
-631.536	-200.000	0.012	0.130
-630.522	800.000	0.085	0.276
-629.507	-121.610	0.253	0.042
-628.492	-88.546	0.365	-0.110
-627.478	-200.000	0.057	-0.303
-626.463	-97.360	0.148	0.039
-625.449	263.548	-0.041	-0.072
-624.434	-200.000	-0.039	0.211
-623.419	-28.980	0.101	0.059
-622.405	-200.000	0.004	-0.229
-621.390	157.552	0.078	-0.110
-620.376	87.437	0.193	-0.215
-619.361	356.368	-0.095	0.192
-618.346	293.218	0.100	0.184
-617.332	-26.884	-0.339	-0.200
-616.317	-92.334	-0.306	-0.087
-615.303	800.000	-0.036	0.136
-614.288	800.000	-0.046	0.140
-613.273	340.610	-0.117	-0.230
-612.259	25.772	0.333	0.280
-611.244	460.582	0.124	-0.278
-610.230	-136.319	-0.062	-0.007
-609.215	795.846	-0.016	-0.045
-608.201	-75.134	-0.105	-0.038
-607.186	-200.000	0.006	-0.051
-606.171	-3.817	0.318	-0.223
-605.157	-169.791	-0.290	0.011
-604.142	-12.769	0.057	0.037
-603.128	73.166	-0.075	0.079
-602.113	357.198	0.053	0.106
-601.098	-200.000	0.003	-0.068
-600.084	-94.479	-0.052	0.014
-599.069	-94.301	0.326	-0.090
-598.055	-124.141	-0.339	0.054
-597.040	-44.868	-0.513	0.258
-596.025	800.000	0.091	0.265
-595.011	101.704	-0.095	0.112
-593.996	353.528	0.073	0.147
-592.982	235.394	-0.045	-0.076
-591.967	93.554	0.114	-0.130
-590.952	-173.695	-0.242	0.007
-589.938	37.684	-0.113	-0.101
-588.923	-78.366	0.143	0.050
-587.909	-81.323	-0.195	-0.065
-586.894	-41.176	-0.125	-0.065
-585.879	-14.438	-0.244	0.158
-584.865	132.078	0.106	-0.138
-583.850	-37.794	-0.329	-0.177
-582.836	-164.411	-0.357	-0.016
-581.821	800.000	0.025	-0.074
-580.806	213.127	-0.088	-0.141
-579.792	-119.549	0.358	-0.063
-578.777	-84.343	0.191	-0.061
-577.763	-46.118	-0.281	0.139
-576.748	-18.539	-0.101	-0.064
-575.733	-200.000	0.003	-0.157
-574.719	-70.985	-0.202	0.077
-573.704	-200.000	-0.019	-0.120
-572.690	-200.000	0.026	-0.360
-571.675	122.858	-0.223	0.281
-570.661	410.954	0.067	0.143
-569.646	-13.588	-0.318	0.208
-568.631	-15.476	-0.282	0.182
-567.617	-2.856	0.207	-0.146
-566.602	-83.329	-0.343	0.111
-565.588	-200.000	-0.025	-0.292
-564.573	800.000	-0.013	0.048
-563.558	-200.000	0.038	0.421
-562.544	-10.523	-0.088	-0.059
-561.529	-95.572	-0.133	-0.036
-560.515	-200.000	-0.070	-0.405
-559.500	358.473	-0.092	0.185
-558.485	96.373	-0.164	0.189
-557.471	-200.000	0.001	0.019
-556.456	265.006	-0.212	0.372
-555.442	-200.000	0.014	-0.114
-554.427	-65.392	-0.312	0.126
-553.412	-121.089	-0.286	0.048
-552.398	-200.000	-0.037	0.406
-551.383	-98.008	-0.077	-0.020
-550.369	-3.676	-0.156	-0.109
-549.354	-108.259	-0.290	-0.063
-548.339	130.275	0.173	0.223
-547.325	23.722	-0.136	0.113
-546.310	-135.407	0.157	0.019
-545.296	634.395	0.090	-0.231
-544.281	402.324	-0.167	0.354
-543.266	800.000	-0.040	0.132
-542.252	-50.937	-0.232	0.110
-541.237	59.883	-0.108	-0.107
-540.223	800.000	0.021	-0.058
-539.208	-200.000	0.049	-0.240
-538.193	-88.542	0.248	0.074
-537.179	46.625	0.182	-0.170
-536.164	-12.495	-0.219	-0.144
-535.150	800.000	-0.109	-0.347
-534.135	-10.525	0.202	-0.135
-533.121	155.631	0.016	0.022
-532.106	226.447	0.127	-0.207
-531.091	-40.535	0.304	-0.159
-530.077	239.382	-0.057	-0.096
-529.062	-126.812	0.047	0.007
-528.048	12.567	0.021	0.016
-527.033	188.714	0.113	-0.170
-526.018	49.565	-0.102	0.097
-525.004	-200.000	-0.022	0.338
-523.989	-128.373	0.071	-0.010
-522.975	233.020	-0.049	0.082
-521.960	14.441	0.109	-0.085
-520.945	103.420	-0.142	0.168
-519.931	-200.000	-0.030	-0.221
-518.916	800.000	-0.085	-0.295
-517.902	162.061	0.191	-0.270
-516.887	50.345	-0.127	-0.121
-515.872	-10.062	0.212	0.141
-514.858	18.056	0.131	-0.105
-513.843	-55.957	0.253	0.113
-512.829	215.851	-0.189	0.302
-511.814	-120.395	-0.308	0.053
-510.799	284.758	0.077	-0.139
-509.785	800.000	0.084	-0.294
-508.770	411.231	-0.039	0.083
-507.756	126.740	-0.086	0.110
-506.741	112.380	0.222	0.270
-505.726	19.862	0.076	0.062
-504.712	-136.047	-0.501	-0.059
-503.697	-55.118	0.259	0.117
-502.683	-58.389	-0.257	-0.112
-501.668	-50.024	-0.099	-0.047
-500.653	-138.605	0.031	-0.003
-499.639	800.000	-0.057	-0.228
-498.624	229.170	0.176	0.289
-497.610	-92.925	-0.267	-0.075
-496.595	-171.812	0.385	-0.013
-495.581	199.504	0.135	0.209
-494.566	-28.838	0.195	0.113
-493.551	-17.675	-0.078	-0.049
-492.537	-64.994	-0.322	0.131
-491.522	50.333	0.194	0.184
-490.508	35.105	-0.100	0.088
-489.493	800.000	-0.057	-0.207
-488.478	-113.443	-0.251	0.049
-487.464	98.045	-0.084	-0.097
-486.449	-10.708	-0.094	0.062
-485.435	119.803	-0.135	0.168
-484.420	800.000	-0.033	0.126
-483.405	-157.062	0.276	0.017
-482.391	-113.880	-0.491	-0.096
-481.376	729.252	0.035	-0.095
-480.362	-200.000	0.044	0.348
-479.347	21.647	0.100	0.082
-478.332	2.107	-0.047	0.034
-477.318	-124.629	-0.042	0.007
-476.303	-200.000	-0.007	0.188
-475.289	27.065	0.187	-0.157
-474.274	-87.904	0.218	-0.066
-473.259	-3.902	0.214	-0.149
-472.245	-17.469	0.122	0.077
-471.230	-200.000	-0.032	-0.197
-470.216	156.715	0.075	0.104
-469.201	296.762	0.073	-0.135
-468.186	-56.607	-0.049	-0.022
-467.172	-1.550	-0.031	-0.022
-466.157	800.000	-0.073	-0.265
-465.143	-60.589	0.128	0.054
-464.128	-200.000	-0.019	0.088
-463.113	-76.414	0.253	0.090
-462.099	-76.814	-0.163	0.057
-461.084	55.864	-0.203	0.198
-460.070	-72.228	0.058	0.022
-459.055	-200.000	0.006	0.311
-458.040	-0.846	-0.133	-0.095
-457.026	12.571	-0.067	0.052
-456.011	-44.747	0.132	-0.066
-454.997	-40.233	-0.263	-0.137
-453.982	-116.866	-0.105	-0.019
-452.968	196.786	-0.155	-0.237
-451.953	25.165	0.098	-0.081
-450.938	281.776	-0.124	0.224
-449.924	-78.679	0.292	-0.100
-448.909	196.333	-0.074	-0.113
-447.895	-181.273	-0.139	0.003
-446.880	-152.593	-0.356	-0.026
-445.865	-34.651	0.140	-0.077
-444.851	-46.925	-0.068	0.033
-443.836	201.068	-0.197	0.305
-442.822	-200.000	0.026	0.215
-441.807	750.784	0.029	-0.078
-440.792	108.270	0.248	-0.297
-439.778	180.714	0.103	-0.151
-438.763	-128.983	0.174	-0.024
-437.749	142.151	0.199	-0.265
-436.734	-200.000	0.003	0.013
-435.719	157.788	-0.038	-0.053
-434.705	-129.583	0.225	0.031
-433.690	-67.190	0.130	0.051
-432.676	29.619	-0.117	-0.099
-431.661	18.600	-0.070	-0.056
-430.646	-115.080	0.477	0.091
-429.632	-200.000	0.034	0.158
-428.617	-29.115	0.302	0.174
-427.603	-109.948	-0.252	-0.053
-426.588	-80.048	0.234	-0.079
-425.573	-200.000	-0.005	-0.258
-424.559	419.399	0.103	0.222
-423.544	-9.102	0.222	0.149
-422.530	-94.191	0.153	0.042
-421.515	136.032	-0.101	0.132
-420.500	297.245	0.037	0.069
-419.486	-96.720	0.364	0.096
-418.471	407.042	-0.122	0.259
-417.457	-140.015	0.280	0.030
-416.442	-148.013	-0.210	0.018
-415.428	167.161	0.124	-0.176
-414.413	800.000	0.105	0.369
-413.398	730.144	-0.071	0.191
-412.384	-146.528	0.203	0.018
-411.369	-32.769	-0.176	0.098
-410.355	-82.604	0.246	-0.080
-409.340	14.458	-0.037	0.029
-408.325	528.917	-0.104	0.245
-407.311	-3.471	0.128	0.089
-406.296	-7.771	0.153	-0.104
-405.282	-200.000	0.038	-0.221
-404.267	800.000	-0.082	0.320
-403.252	129.673	0.218	0.279
-402.238	-28.815	0.279	0.161
-401.223	219.121	0.181	-0.290
-400.209	-200.000	-0.022	-0.225
-399.194	-158.119	-0.221	-0.013
-398.179	-97.655	0.102	-0.026
-397.165	28.292	-0.064	-0.055
-396.150	-200.000	0.011	0.212
-395.136	241.700	0.143	0.240
-394.121	107.553	0.116	-0.138
-393.106	29.952	-0.145	-0.124
-392.092	800.000	0.097	-0.300
-391.077	158.105	-0.102	-0.141
-390.063	-107.837	-0.188	0.041
-389.048	-62.941	-0.115	-0.048
-388.033	608.425	-0.129	-0.323
-387.019	-34.570	0.185	0.102
-386.004	-200.000	-0.029	0.280
-384.990	800.000	0.135	-0.382
-383.975	-11.601	-0.071	0.047
-382.960	-97.111	-0.181	0.047
-381.946	787.542	0.065	0.178
-380.931	693.342	-0.065	-0.172
-379.917	413.211	-0.059	0.126
-378.902	223.998	-0.123	-0.199
-377.888	17.756	0.098	0.078
-376.873	194.324	0.177	-0.268
-375.858	125.754	-0.132	-0.167
-374.844	-200.000	0.056	-0.259
-373.829	390.095	0.079	0.163
-372.815	-200.000	0.030	0.232
-371.800	43.139	-0.020	0.018
-370.785	-37.390	0.209	-0.112
-369.771	260.109	0.035	0.060
-368.756	470.955	-0.090	0.203
-367.742	-200.000	-0.027	-0.219
-366.727	765.074	-0.037	-0.102
-365.712	40.638	0.195	0.176
-364.698	-76.056	-0.149	0.053
-363.683	-46.340	-0.063	-0.031
-362.669	-79.497	-0.219	0.074
-361.654	68.316	0.328	0.336
-360.639	-104.908	-0.195	0.045
-359.625	-172.055	-0.289	-0.009
-358.610	800.000	0.129	0.375
-357.596	800.000	-0.024	0.101
-356.581	-200.000	-0.030	-0.229
-355.566	-109.708	0.123	-0.026
-354.552	-123.677	-0.317	0.050
-353.537	-94.869	0.288	-0.078
-352.523	-200.000	0.018	0.138
-351.508	20.779	-0.249	-0.202
-350.493	800.000	-0.036	0.148
-349.479	-61.213	0.200	-0.084
-348.464	-84.453	0.487	-0.154
-347.450	50.026	0.186	0.176
-346.435	564.046	0.125	-0.302
-345.420	-200.000	-0.032	-0.159
-344.406	338.660	0.206	0.400
-343.391	29.759	0.350	0.298
-342.377	800.000	-0.045	0.151
-341.362	-145.554	0.553	-0.050
-340.348	84.452	-0.318	-0.348
-339.333	-28.208	-0.069	-0.040
-338.318	800.000	0.069	0.297
-337.304	-57.227	-0.100	0.044
-336.289	-200.000	0.005	-0.086
-335.275	486.123	0.143	0.326
-334.260	-131.296	0.428	0.057
-333.245	-200.000	-0.081	-0.513
-332.231	800.000	0.104	-0.419
-331.216	-200.000	0.060	-0.311
-330.202	-126.938	-0.160	0.024
-329.187	800.000	0.052	0.209
-328.172	800.000	-0.043	-0.123
-327.158	-166.521	-0.239	0.010
-326.143	576.025	-0.150	-0.366
-325.129	395.830	-0.086	-0.180
-324.114	-132.369	-0.164	-0.021
-323.099	32.377	0.090	0.077
-322.085	36.812	-0.120	0.106
-321.070	-200.000	0.013	-0.281
-320.056	98.879	-0.085	0.098
-319.041	63.202	-0.188	-0.188
-318.026	-200.000	-0.036	-0.347
-317.012	44.027	-0.061	0.056
-315.997	-85.004	-0.027	0.009
-314.983	-65.542	-0.061	0.025
-313.968	-106.387	0.042	-0.009
-312.953	465.675	-0.018	-0.040
-311.939	56.876	0.100	-0.098
-310.924	12.732	0.322	-0.249
-309.910	-49.444	0.196	0.093
-308.895	397.542	0.119	0.248
-307.880	800.000	-0.162	0.556
-306.866	124.107	-0.088	0.110
-305.851	-166.068	-0.274	-0.012
-304.837	-74.039	-0.055	-0.020
-303.822	-58.931	0.291	0.126
-302.807	17.439	0.194	-0.154
-301.793	-79.552	-0.146	0.049
-300.778	121.015	0.292	0.363
-299.764	-200.000	0.026	-0.127
-298.749	-135.837	-0.127	0.015
-297.735	-123.046	-0.247	0.040
-296.720	-95.426	-0.167	-0.045
-295.705	800.000	-0.094	0.290
-294.691	-200.000	0.018	-0.095
-293.676	-124.001	-0.053	-0.008
-292.662	23.825	0.186	0.153
-291.647	-63.971	0.285	-0.116
-290.632	67.376	-0.215	-0.219
-289.618	92.128	0.074	0.083
-288.603	-116.417	0.204	-0.038
-287.589	-200.000	0.035	0.212
-286.574	-200.000	-0.012	0.143
-285.559	15.877	-0.065	-0.051
-284.545	-35.973	-0.391	-0.211
-283.530	800.000	0.039	-0.152
-282.516	-103.478	0.125	0.029
-281.501	-200.000	0.096	-0.446
-280.486	-146.122	0.116	-0.010
-279.472	587.549	-0.154	-0.378
-278.457	729.938	0.081	-0.215
-277.443	268.796	0.158	0.276
-276.428	-120.971	-0.369	-0.062
-275.413	-40.655	-0.183	-0.094
-274.399	35.626	-0.316	0.277
-273.384	-61.812	-0.127	-0.053
-272.370	-55.298	0.091	0.041
-271.355	-58.840	0.216	0.093
-270.340	-151.329	-0.348	0.026
-269.326	-200.000	-0.042	0.266
-268.311	284.456	-0.150	0.269
-267.297	-94.625	-0.389	-0.105
-266.282	-200.000	-0.003	-0.054
-265.267	-120.339	0.087	0.015
-264.253	-45.717	-0.312	0.154
-263.238	47.180	0.158	0.147
-262.224	108.080	0.077	-0.092
-261.209	-200.000	-0.001	0.091
-260.195	83.939	-0.178	-0.193
-259.180	23.471	-0.127	-0.104
-258.165	-43.397	-0.111	0.056
-257.151	-200.000	0.028	0.194
-256.136	-98.893	-0.245	0.062
-255.122	-133.300	0.068	0.009
-254.107	-200.000	0.018	0.110
-253.092	-64.383	0.114	-0.046
-252.078	-78.834	-0.142	-0.048
-251.063	46.024	-0.245	-0.226
-250.049	49.706	-0.055	-0.052
-249.034	-200.000	0.041	0.268
-248.019	66.776	-0.142	-0.144
-247.005	-200.000	-0.000	-0.248
-245.990	168.313	-0.135	-0.191
-244.976	53.542	0.187	0.179
-243.961	-200.000	0.023	0.200
-242.946	134.115	-0.263	0.339
-241.932	-171.922	-0.068	-0.002
-240.917	-76.329	0.341	0.120
-239.903	-145.551	0.293	0.026
-238.888	-28.016	0.369	-0.213
-237.873	85.244	-0.087	-0.095
-236.859	-175.459	0.051	-0.001
-235.844	44.324	0.247	-0.225
-234.830	6.933	-0.035	0.026
-233.815	-30.689	-0.134	0.075
-232.800	-98.259	-0.158	-0.040
-231.786	-200.000	0.015	0.125
-230.771	5.599	-0.133	0.098
-229.757	-200.000	0.034	-0.155
-228.742	-78.397	-0.207	0.071
-227.727	188.839	0.044	0.065
-226.713	40.365	-0.025	-0.023
-225.698	800.000	-0.107	0.422
-224.684	-7.074	0.041	0.028
-223.669	-96.063	0.388	0.103
-222.655	-53.308	0.323	0.147
-221.640	-152.323	-0.275	0.020
-220.625	-200.000	0.006	0.121
-219.611	-0.382	0.157	-0.111
-218.596	-67.241	0.161	-0.063
-217.582	-123.777	0.173	-0.027
-216.567	233.093	-0.061	-0.100
-215.552	533.293	-0.109	-0.256
-214.538	70.795	-0.191	-0.197
-213.523	-200.000	0.004	-0.136
-212.509	-0.089	-0.159	-0.113
-211.494	300.505	-0.071	0.130
-210.479	785.706	-0.116	-0.317
-209.465	116.781	0.158	0.192
-208.450	125.314	0.331	-0.416
-207.436	134.489	0.171	0.220
-206.421	356.339	0.103	-0.203
-205.406	-200.000	0.038	0.200
-204.392	-125.830	0.349	0.052
-203.377	-126.283	-0.258	0.038
-202.363	666.878	0.119	0.305
-201.348	-30.037	0.160	0.091
-200.333	-161.281	0.220	-0.011
-199.319	-200.000	0.038	0.211
-198.304	-59.899	0.037	-0.016
-197.290	207.582	-0.153	-0.238
-196.275	-120.919	0.301	0.050
-195.260	-200.000	-0.023	-0.233
-194.246	800.000	-0.171	-0.484
-193.231	84.160	-0.099	-0.107
-192.217	67.494	-0.135	-0.137
-191.202	798.612	0.166	-0.455
-190.187	-200.000	-0.008	-0.216
-189.173	17.016	0.214	0.168
-188.158	-184.674	0.062	0.001
-187.144	306.869	0.039	-0.072
-186.129	-148.807	-0.084	0.007
-185.114	800.000	-0.044	0.170
-184.100	33.119	0.053	0.045
-183.085	-103.269	-0.535	-0.126
-182.071	-36.250	0.171	0.091
-181.056	-98.136	0.205	0.052
-180.042	-152.027	0.208	-0.015
-179.027	-45.608	-0.209	0.103
-178.012	-200.000	-0.017	0.384
-176.998	-200.000	0.024	0.250
-175.983	176.014	0.161	0.232
-174.969	-79.506	-0.348	0.117
-173.954	-93.425	0.217	0.060
-172.939	166.187	-0.059	-0.083
-171.925	-158.898	-0.348	-0.020
-170.910	-32.169	-0.015	0.008
-169.896	800.000	0.033	0.140
-168.881	-72.672	0.075	-0.027
-167.866	28.327	0.214	0.179
-166.852	-25.174	0.092	0.054
-165.837	-90.231	-0.243	-0.070
-164.823	-121.232	0.118	0.020
-163.808	-87.506	-0.199	-0.060
-162.793	110.285	0.105	0.125
-161.779	-147.814	0.264	-0.022
-160.764	-200.000	0.014	-0.248
-159.750	-200.000	-0.122	0.000
-158.735	270.778	0.137	-0.239
-157.720	-87.039	-0.177	0.054
-156.706	44.721	-0.194	0.177
-155.691	-44.481	0.262	0.130
-154.677	-54.712	0.220	0.099
-153.662	-200.000	-0.039	-0.219
-152.647	99.922	-0.135	0.155
-151.633	800.000	-0.051	0.209
-150.618	-200.000	0.086	-0.411
-149.604	-200.000	-0.009	-0.142
-148.589	-84.130	0.276	-0.087
-147.574	800.000	-0.069	0.237
-146.560	-200.000	0.062	0.354
-145.545	150.284	0.063	-0.085
-144.531	412.030	0.145	0.305
-143.516	-114.145	0.132	0.025
-142.502	-200.000	0.015	-0.173
-141.487	-53.490	0.431	0.196
-140.472	-152.333	0.247	-0.018
-139.458	225.346	0.118	0.189
-138.443	800.000	0.076	-0.267
-137.429	779.366	-0.086	-0.233
-136.414	-1.818	0.112	-0.078
-135.399	11.828	0.035	-0.026
-134.385	800.000	0.074	0.266
-133.370	-144.841	0.197	0.018
-132.356	-96.131	0.051	0.013
-131.341	36.043	-0.008	-0.007
-130.326	287.093	-0.057	0.102
-129.312	800.000	0.071	0.263
-128.297	-3.867	-0.288	0.198
-127.283	800.000	0.036	-0.155
-126.268	-78.890	0.284	-0.096
-125.253	-46.544	0.167	-0.081
-124.239	-200.000	-0.015	-0.114
-123.224	-77.129	-0.299	-0.103
-122.210	75.524	0.339	-0.355
-121.195	-200.000	0.008	0.098
-120.180	-169.411	0.491	0.018
