DTS Sentinel unit serial number:	SN413079Multiplexer serial number:	ORYXHardware model number:	OX4-SRSoftware version number:	ORYX F/W v4.00 Oryx Data Collector v3.7.2.0data status	okinstallation	princeton_trtdifferential loss correction	single-endedforward channel	channel 3reverse channel	N/Adate	2019/09/11time	21:50:11forward acquisition time	60.00reverse acquisition time	0.00gamma	496.2192k internal	0.2311k external	0.2311temperature offset calibration	1.0039default loss term (dB/km)	0.3790temperature slope calibration	1.0000multiplexer offset coefficient	1.0000multiplexer slope coefficient	1.0000fibre end	0.00T internal ref (°C)	35.69T ext. ref 1 (°C)	1.67T ext. ref 2 (°C)	29.79length (m)	temperature (°C)	Stokes	anti-Stokes-747.200	-102.929	0.490	0.118
-746.185	-123.321	0.254	-0.041
-745.171	106.766	-0.202	-0.243
-744.156	800.000	0.059	0.244
-743.142	-124.298	0.228	0.036
-742.127	-200.000	-0.007	0.330
-741.112	99.659	0.090	0.106
-740.098	283.685	0.200	0.365
-739.083	800.000	-0.048	-0.202
-738.069	-121.860	-0.054	-0.009
-737.054	-42.085	0.210	0.109
-736.039	18.517	-0.180	-0.146
-735.025	-103.812	0.126	0.030
-734.010	119.397	-0.042	0.052
-732.996	800.000	-0.013	-0.039
-731.981	1.456	-0.036	0.026
-730.966	149.436	-0.142	-0.196
-729.952	29.262	-0.089	-0.076
-728.937	435.585	-0.122	-0.270
-727.923	405.975	-0.044	-0.094
-726.908	560.065	-0.063	-0.153
-725.894	-101.405	-0.299	0.074
-724.879	-90.663	-0.172	0.050
-723.864	174.315	-0.118	0.173
-722.850	-97.957	0.188	0.049
-721.835	543.356	-0.082	-0.199
-720.821	-6.218	-0.122	-0.084
-719.806	-133.779	-0.359	0.045
-718.791	9.895	-0.168	-0.129
-717.777	800.000	-0.039	0.115
-716.762	18.777	-0.192	-0.156
-715.748	-145.398	0.134	0.012
-714.733	-46.938	0.137	0.068
-713.718	-42.149	-0.187	-0.097
-712.704	756.371	0.059	-0.162
-711.689	800.000	-0.204	-0.587
-710.675	-116.201	-0.226	0.043
-709.660	-87.471	-0.247	-0.076
-708.645	-49.172	0.118	-0.057
-707.631	-75.917	-0.028	0.010
-706.616	-130.388	0.363	-0.050
-705.602	-200.000	-0.012	-0.143
-704.587	-59.262	0.213	0.093
-703.572	144.109	0.026	0.036
-702.558	46.352	0.193	0.182
-701.543	543.123	-0.146	-0.352
-700.529	800.000	0.067	0.240
-699.514	-8.273	0.081	0.055
-698.499	226.330	0.096	-0.158
-697.485	-73.347	-0.207	-0.077
-696.470	-120.270	0.141	-0.024
-695.456	176.644	0.073	-0.108
-694.441	111.157	0.038	-0.047
-693.426	75.047	0.224	0.239
-692.412	122.540	0.089	0.113
-691.397	-29.654	-0.221	-0.128
-690.383	-177.023	-0.127	-0.003
-689.368	800.000	0.072	-0.219
-688.354	-170.637	-0.257	-0.009
-687.339	-57.328	0.093	-0.041
-686.324	385.429	-0.085	-0.177
-685.310	-200.000	0.032	-0.162
-684.295	-66.644	-0.230	0.092
-683.281	115.342	0.121	0.149
-682.266	-70.863	-0.125	-0.048
-681.251	-200.000	-0.001	-0.050
-680.237	-200.000	0.015	-0.198
-679.222	-77.388	0.100	0.035
-678.208	800.000	-0.033	0.140
-677.193	-200.000	-0.033	-0.260
-676.178	800.000	-0.132	0.421
-675.164	24.823	-0.205	0.172
-674.149	-26.947	-0.238	-0.141
-673.135	-100.553	0.178	0.044
-672.120	-187.733	0.226	0.003
-671.105	310.342	0.055	-0.104
-670.091	800.000	0.068	-0.204
-669.076	-56.160	-0.266	-0.120
-668.062	-4.080	0.324	0.227
-667.047	800.000	-0.002	-0.010
-666.032	138.085	-0.011	-0.014
-665.018	-75.665	0.069	0.025
-664.003	-200.000	0.022	0.166
-662.989	695.901	-0.017	-0.046
-661.974	128.145	-0.090	-0.115
-660.959	36.559	-0.142	-0.127
-659.945	400.053	0.045	-0.095
-658.930	-101.045	0.135	-0.034
-657.916	-178.393	-0.130	-0.003
-656.901	171.886	0.192	-0.280
-655.886	-105.282	0.054	0.012
-654.872	483.524	0.219	-0.503
-653.857	457.529	0.155	-0.349
-652.843	-86.661	-0.266	-0.082
-651.828	-200.000	-0.005	-0.054
-650.814	-200.000	-0.042	0.333
-649.799	-200.000	0.014	0.082
-648.784	-88.844	0.104	0.031
-647.770	-167.463	-0.043	-0.002
-646.755	800.000	-0.050	-0.150
-645.741	-169.645	-0.120	-0.004
-644.726	-68.134	-0.148	0.058
-643.711	800.000	0.021	0.060
-642.697	89.501	-0.099	-0.112
-641.682	-133.933	-0.305	-0.038
-640.668	41.646	-0.109	-0.099
-639.653	-55.373	-0.204	0.093
-638.638	-142.322	-0.327	-0.033
-637.624	340.506	0.093	0.183
-636.609	-129.800	-0.411	-0.057
-635.595	-24.858	-0.120	-0.072
-634.580	-21.987	-0.151	-0.092
-633.565	663.672	-0.096	-0.250
-632.551	-200.000	0.020	-0.247
-631.536	406.017	-0.080	0.170
-630.522	-130.390	-0.138	0.019
-629.507	41.795	-0.114	0.105
-628.492	-200.000	0.015	-0.088
-627.478	-145.749	-0.205	-0.018
-626.463	800.000	-0.070	-0.218
-625.449	746.197	0.120	0.326
-624.434	-46.676	0.256	-0.127
-623.419	-200.000	0.047	-0.287
-622.405	175.658	-0.149	-0.219
-621.390	-114.760	0.407	0.078
-620.376	96.106	0.131	-0.151
-619.361	-54.118	-0.132	-0.061
-618.346	340.471	-0.099	0.194
-617.332	39.515	0.336	0.304
-616.317	426.751	0.038	-0.082
-615.303	62.038	-0.007	0.007
-614.288	194.250	-0.012	-0.018
-613.273	-47.907	0.162	0.079
-612.259	-58.348	-0.421	-0.185
-611.244	598.651	0.109	-0.273
-610.230	20.909	0.036	0.030
-609.215	9.537	-0.418	0.319
-608.201	-200.000	0.022	-0.432
-607.186	-200.000	0.004	-0.054
-606.171	236.679	-0.150	-0.250
-605.157	79.959	0.050	-0.054
-604.142	61.255	-0.343	0.344
-603.128	-101.799	-0.216	0.053
-602.113	-200.000	-0.029	0.246
-601.098	800.000	0.034	0.109
-600.084	28.430	0.218	-0.186
-599.069	-2.564	-0.308	0.217
-598.055	652.160	0.062	-0.162
-597.040	0.173	0.156	-0.112
-596.025	-9.909	-0.115	-0.077
-595.011	-101.698	0.126	0.031
-593.996	-45.199	-0.299	-0.150
-592.982	75.753	-0.179	-0.190
-591.967	-17.789	0.185	0.117
-590.952	451.033	0.172	0.383
-589.938	-94.294	0.176	-0.049
-588.923	-166.849	0.131	-0.005
-587.909	-64.077	0.020	-0.008
-586.894	661.821	0.057	-0.149
-585.879	-200.000	0.073	0.499
-584.865	-200.000	-0.011	-0.428
-583.850	93.763	0.099	0.113
-582.836	-148.139	0.102	0.008
-581.821	156.987	-0.104	-0.145
-580.806	68.396	-0.303	-0.314
-579.792	-35.172	-0.157	-0.086
-578.777	-42.313	-0.162	0.084
-577.763	-200.000	-0.023	-0.206
-576.748	81.128	-0.132	-0.143
-575.733	-4.869	0.205	-0.143
-574.719	-22.811	-0.212	-0.129
-573.704	-61.237	0.332	0.141
-572.690	664.349	-0.122	-0.317
-571.675	0.748	0.122	0.088
-570.661	-200.000	-0.003	0.235
-569.646	-0.662	0.263	-0.188
-568.631	-139.679	0.081	0.009
-567.617	-128.528	-0.430	0.062
-566.602	-99.583	-0.232	-0.059
-565.588	19.366	0.063	-0.051
-564.573	-1.816	-0.075	0.053
-563.558	0.378	-0.396	0.285
-562.544	6.927	0.158	0.119
-561.529	-101.696	0.125	0.031
-560.515	339.759	-0.096	0.189
-559.500	167.026	-0.072	0.103
-558.485	27.508	0.261	0.221
-557.471	-160.572	0.187	0.010
-556.456	166.123	-0.083	0.119
-555.442	800.000	-0.029	-0.088
-554.427	-22.524	-0.437	-0.266
-553.412	643.345	-0.094	-0.241
-552.398	-42.512	-0.274	0.141
-551.383	-200.000	0.026	-0.238
-550.369	-94.244	-0.035	-0.010
-549.354	-52.473	0.301	0.140
-548.339	-200.000	0.011	-0.258
-547.325	800.000	-0.035	0.115
-546.310	279.728	-0.083	-0.150
-545.296	-200.000	-0.005	-0.053
-544.281	-113.353	-0.226	-0.045
-543.266	412.792	-0.146	-0.313
-542.252	-200.000	0.013	-0.115
-541.237	132.713	-0.132	0.172
-540.223	-60.019	0.066	0.029
-539.208	-200.000	-0.019	-0.219
-538.193	131.202	0.118	-0.153
-537.179	234.769	0.216	-0.359
-536.164	-49.576	-0.447	-0.214
-535.150	103.758	-0.182	-0.215
-534.135	-18.604	-0.028	0.018
-533.121	228.748	0.106	-0.174
-532.106	129.822	-0.160	-0.206
-531.091	-45.611	0.144	0.072
-530.077	-200.000	0.011	0.216
-529.062	185.470	-0.058	0.087
-528.048	61.502	-0.111	-0.111
-527.033	151.055	0.083	0.114
-526.018	153.251	0.111	0.153
-525.004	97.745	-0.256	0.296
-523.989	-73.389	0.182	0.067
-522.975	-200.000	-0.018	0.174
-521.960	-138.362	-0.309	-0.034
-520.945	117.785	0.032	-0.040
-519.931	-200.000	0.051	0.290
-518.916	-41.776	0.089	0.046
-517.902	309.246	-0.143	0.269
-516.887	-200.000	-0.032	-0.234
-515.872	-70.183	0.191	0.073
-514.858	-28.103	0.180	0.105
-513.843	800.000	-0.025	0.084
-512.829	403.836	-0.129	0.272
-511.814	113.358	0.227	0.277
-510.799	110.375	0.232	0.280
-509.785	-31.326	-0.152	-0.086
-508.770	338.292	-0.004	0.007
-507.756	65.572	0.322	-0.328
-506.741	21.291	-0.310	-0.253
-505.726	566.942	0.064	-0.156
-504.712	10.955	0.278	0.214
-503.697	50.258	0.232	-0.220
-502.683	800.000	0.095	-0.275
-501.668	-200.000	-0.024	-0.204
-500.653	800.000	-0.071	0.216
-499.639	16.452	0.304	-0.241
-498.624	-157.284	0.053	0.003
-497.610	-123.317	-0.191	0.031
-496.595	349.745	0.104	-0.207
-495.581	243.540	0.152	-0.257
-494.566	89.998	0.111	-0.125
-493.551	336.692	-0.164	-0.320
-492.537	245.612	0.142	0.240
-491.522	37.120	-0.121	0.107
-490.508	155.374	-0.128	-0.177
-489.493	-91.497	-0.351	-0.101
-488.478	91.693	0.103	-0.116
-487.464	-54.757	-0.202	-0.092
-486.449	496.853	0.057	0.132
-485.435	-83.968	0.378	0.121
-484.420	-200.000	0.010	0.255
-483.405	48.474	-0.032	0.030
-482.391	-33.164	-0.184	0.102
-481.376	-200.000	-0.032	-0.157
-480.362	-85.478	-0.112	-0.035
-479.347	163.640	0.026	0.037
-478.332	-32.582	-0.192	0.107
-477.318	10.405	-0.381	0.291
-476.303	-200.000	0.011	-0.106
-475.289	-76.243	0.124	-0.044
-474.274	35.724	-0.134	-0.118
-473.259	-71.726	-0.142	-0.053
-472.245	-200.000	-0.010	0.095
-471.230	-153.275	0.213	-0.015
-470.216	-5.981	0.207	-0.142
-469.201	58.184	-0.253	-0.249
-468.186	0.077	-0.176	-0.126
-467.172	240.225	-0.070	-0.116
-466.157	800.000	0.041	-0.117
-465.143	467.179	-0.125	-0.281
-464.128	-79.437	-0.251	0.085
-463.113	-126.399	-0.316	0.047
-462.099	-57.814	0.305	0.134
-461.084	-150.763	-0.278	0.021
-460.070	-137.109	-0.237	-0.027
-459.055	-200.000	0.022	-0.136
-458.040	-200.000	-0.015	0.212
-457.026	5.538	0.119	0.088
-456.011	-136.182	0.398	-0.047
-454.997	-200.000	0.046	-0.341
-453.982	138.246	0.211	-0.277
-452.968	-39.534	-0.152	-0.080
-451.953	-200.000	0.001	-0.139
-450.938	-157.137	0.247	-0.015
-449.924	10.490	0.104	-0.080
-448.909	800.000	0.023	0.092
-447.895	-110.272	-0.137	-0.029
-446.880	2.155	-0.184	0.134
-445.865	-110.306	-0.343	-0.072
-444.851	-114.627	0.379	0.073
-443.836	350.164	-0.078	0.154
-442.822	800.000	0.017	0.051
-441.807	-160.027	0.154	0.008
-440.792	293.976	-0.141	-0.258
-439.778	423.067	0.089	0.191
-438.763	-28.665	0.306	-0.177
-437.749	-135.618	-0.101	-0.012
-436.734	-200.000	-0.048	-0.417
-435.719	36.251	-0.239	-0.212
-434.705	125.809	0.094	-0.119
-433.690	-200.000	0.050	0.709
-432.676	196.643	-0.217	0.332
-431.661	-200.000	0.016	-0.144
-430.646	-94.945	-0.266	0.072
-429.632	30.145	0.117	-0.100
-428.617	-200.000	-0.017	-0.129
-427.603	-23.572	0.385	-0.232
-426.588	-51.798	-0.256	0.119
-425.573	453.786	0.047	-0.105
-424.559	800.000	-0.070	0.240
-423.544	-200.000	-0.035	-0.200
-422.530	-200.000	-0.004	-0.268
-421.515	759.129	-0.057	-0.155
-420.500	-200.000	0.043	0.223
-419.486	-3.611	-0.154	-0.108
-418.471	-172.829	-0.386	0.012
-417.457	-183.047	-0.343	-0.006
-416.442	-28.088	-0.215	0.124
-415.428	-200.000	0.011	0.173
-414.413	-7.121	-0.241	-0.164
-413.398	-72.881	-0.203	0.075
-412.384	376.309	-0.164	0.334
-411.369	141.000	-0.144	0.191
-410.355	167.127	0.060	0.085
-409.340	321.384	0.149	-0.283
-408.325	523.132	0.066	0.155
-407.311	-17.388	0.147	0.093
-406.296	145.281	-0.124	-0.166
-405.282	391.147	-0.186	-0.386
-404.267	641.875	-0.096	0.245
-403.252	-200.000	0.054	-0.354
-402.238	-200.000	-0.000	-0.052
-401.223	-200.000	0.040	-0.382
-400.209	43.956	-0.192	0.176
-399.194	-200.000	0.063	-0.431
-398.179	-63.869	-0.106	-0.044
-397.165	-200.000	-0.007	0.071
-396.150	166.650	0.154	-0.219
-395.136	-105.112	0.311	0.071
-394.121	706.671	0.092	0.244
-393.106	345.307	0.046	0.091
-392.092	-200.000	-0.016	-0.327
-391.077	130.334	0.171	-0.220
-390.063	-42.763	0.318	0.162
-389.048	-141.522	-0.137	-0.014
-388.033	-200.000	0.032	-0.210
-387.019	243.004	0.095	0.160
-386.004	67.903	0.224	-0.229
-384.990	97.033	0.185	-0.212
-383.975	-200.000	-0.026	-0.262
-382.960	-35.199	-0.140	-0.076
-381.946	-89.559	-0.293	-0.086
-380.931	-11.852	-0.083	-0.054
-379.917	-12.268	-0.164	-0.107
-378.902	-127.018	0.250	0.037
-377.888	108.155	0.131	0.157
-376.873	87.866	-0.070	-0.077
-375.858	773.007	0.081	-0.221
-374.844	-134.807	-0.523	0.063
-373.829	-148.587	-0.242	0.020
-372.815	-200.000	0.007	-0.040
-371.800	313.918	0.023	0.042
-370.785	-127.459	-0.229	0.033
-369.771	-200.000	0.049	-0.262
-368.756	800.000	-0.141	0.395
-367.742	-200.000	0.010	0.113
-366.727	9.271	-0.264	-0.200
-365.712	800.000	-0.050	0.139
-364.698	-147.192	0.273	-0.023
-363.683	-102.260	-0.147	0.035
-362.669	-47.667	-0.162	-0.079
-361.654	-51.260	0.441	0.207
-360.639	459.843	0.141	0.313
-359.625	-56.735	-0.352	0.156
-358.610	644.208	-0.059	-0.149
-357.596	-200.000	-0.002	0.324
-356.581	-200.000	-0.009	0.084
-355.566	-200.000	-0.031	0.319
-354.552	-200.000	0.006	0.224
-353.537	800.000	-0.047	-0.176
-352.523	-200.000	-0.023	0.197
-351.508	800.000	-0.048	0.142
-350.493	52.324	0.141	0.135
-349.479	800.000	0.110	0.367
-348.464	87.614	-0.217	0.240
-347.450	-200.000	-0.045	-0.287
-346.435	-200.000	-0.035	-0.172
-345.420	800.000	0.028	-0.103
-344.406	646.316	0.150	-0.383
-343.391	-200.000	0.030	-0.150
-342.377	-109.880	-0.267	-0.056
-341.362	374.140	-0.107	0.217
-340.348	521.175	-0.066	0.154
-339.333	-200.000	0.039	-0.262
-338.318	800.000	-0.057	-0.224
-337.304	800.000	-0.033	0.136
-336.289	-200.000	-0.028	0.138
-335.275	59.028	0.105	-0.104
-334.260	161.537	0.145	0.202
-333.245	790.575	-0.163	-0.447
-332.231	800.000	0.094	0.292
-331.216	-200.000	0.021	-0.358
-330.202	95.545	0.069	-0.079
-329.187	-200.000	-0.059	-0.288
-328.172	-91.071	0.089	0.025
-327.158	32.064	0.313	0.270
-326.143	-24.540	0.197	0.117
-325.129	-30.469	0.203	-0.115
-324.114	81.686	0.322	0.348
-323.099	-145.780	-0.217	0.019
-322.085	15.674	-0.211	0.166
-321.070	-200.000	0.001	-0.573
-320.056	-200.000	-0.026	0.142
-319.041	-79.118	-0.225	0.076
-318.026	-114.828	0.182	-0.035
-317.012	436.753	-0.058	0.127
-315.997	6.265	0.252	0.187
-314.983	98.159	-0.124	0.142
-313.968	-200.000	-0.066	-0.325
-312.953	-132.972	0.442	0.056
-311.939	107.783	-0.087	0.104
-310.924	-84.913	0.290	-0.091
-309.910	-87.090	-0.249	-0.076
-308.895	-9.050	0.065	0.043
-307.880	-35.312	0.195	-0.106
-306.866	196.767	-0.177	-0.269
-305.851	-119.392	0.246	-0.043
-304.837	-200.000	0.025	0.168
-303.822	-34.718	-0.448	-0.244
-302.807	234.299	0.067	0.110
-301.793	-200.000	-0.005	0.238
-300.778	21.329	0.130	0.105
-299.764	193.050	0.080	0.121
-298.749	131.582	0.107	0.137
-297.735	-24.623	0.078	-0.046
-296.720	-118.119	-0.283	0.050
-295.705	188.063	-0.243	-0.362
-294.691	-35.311	-0.205	-0.111
-293.676	341.896	-0.125	0.244
-292.662	281.813	-0.166	0.297
-291.647	139.130	-0.213	-0.279
-290.632	-200.000	0.039	-0.199
-289.618	-200.000	0.025	-0.234
-288.603	10.474	-0.176	-0.134
-287.589	342.377	-0.118	0.230
-286.574	-45.270	-0.380	0.188
-285.559	-200.000	0.024	0.214
-284.545	-16.128	0.500	0.317
-283.530	25.141	0.064	0.053
-282.516	-200.000	-0.052	0.256
-281.501	-100.625	-0.046	0.011
-280.486	-37.830	-0.237	-0.126
-279.472	-200.000	0.021	-0.118
-278.457	800.000	0.012	0.049
-277.443	800.000	0.088	0.287
-276.428	573.216	0.030	0.074
-275.413	-42.199	0.462	-0.235
-274.399	-22.513	0.290	0.175
-273.384	243.741	-0.047	0.078
-272.370	112.711	0.186	0.224
-271.355	487.813	0.149	0.339
-270.340	-130.829	0.133	0.018
-269.326	-22.830	0.261	-0.157
-268.311	-200.000	0.026	-0.178
-267.297	150.596	0.194	0.263
-266.282	-29.923	0.136	-0.077
-265.267	-116.116	0.281	0.052
-264.253	532.253	-0.041	-0.097
-263.238	-200.000	0.010	-0.053
-262.224	-22.991	-0.140	-0.084
-261.209	-169.567	-0.437	0.016
-260.195	-25.729	0.503	0.295
-259.180	-56.251	0.100	-0.044
-258.165	222.237	-0.079	0.126
-257.151	-21.372	0.233	-0.142
-256.136	-134.066	0.238	0.029
-255.122	37.615	-0.209	0.185
-254.107	800.000	0.079	-0.275
-253.092	-58.806	0.167	0.072
-252.078	631.803	0.067	-0.168
-251.063	-73.820	-0.542	0.196
-250.049	800.000	0.051	-0.182
-249.034	53.877	0.244	0.233
-248.019	-200.000	-0.043	-0.394
-247.005	-119.437	0.177	-0.031
-245.990	163.773	0.090	0.125
-244.976	-200.000	-0.042	0.000
-243.961	38.183	0.151	-0.134
-242.946	800.000	-0.095	0.307
-241.932	-52.658	0.412	0.189
-240.917	-189.694	0.296	0.003
-239.903	727.414	-0.083	0.220
-238.888	181.319	-0.148	-0.217
-237.873	40.998	0.081	-0.073
-236.859	-200.000	-0.021	0.106
-235.844	-23.851	-0.258	0.154
-234.830	-200.000	-0.011	-0.319
-233.815	79.513	-0.234	0.249
-232.800	12.818	0.277	-0.213
-231.786	-78.742	-0.429	0.146
-230.771	235.314	-0.031	-0.050
-229.757	24.903	0.095	0.078
-228.742	-2.462	-0.188	0.131
-227.727	-23.802	0.160	0.095
-226.713	145.371	-0.087	-0.116
-225.698	800.000	0.100	-0.336
-224.684	-93.128	-0.132	0.036
-223.669	-154.393	0.375	-0.025
-222.655	157.055	0.057	0.078
-221.640	141.247	0.120	0.158
-220.625	800.000	-0.035	0.152
-219.611	-200.000	0.112	0.528
-218.596	-200.000	-0.000	0.087
-217.582	800.000	0.091	0.366
-216.567	5.504	-0.286	0.210
-215.552	-155.439	0.295	-0.019
-214.538	-74.408	-0.250	0.090
-213.523	-64.409	0.084	0.034
-212.509	98.895	0.252	0.289
-211.494	-24.358	0.283	-0.168
-210.479	389.197	0.073	-0.150
-209.465	46.743	0.134	-0.124
-208.450	208.611	-0.124	-0.193
-207.436	541.274	-0.062	-0.148
-206.421	273.483	0.034	-0.059
-205.406	269.851	0.091	0.159
-204.392	55.264	0.241	0.232
-203.377	81.602	0.306	-0.328
-202.363	198.368	0.064	0.097
-201.348	-192.027	0.228	-0.002
-200.333	81.558	-0.198	0.213
-199.319	-200.000	0.012	-0.060
-198.304	-71.511	0.297	-0.110
-197.290	-130.118	-0.218	0.030
-196.275	-200.000	-0.018	-0.146
-195.260	509.513	0.118	0.272
-194.246	-98.449	-0.195	0.050
-193.231	-6.660	-0.145	0.098
-192.217	783.154	0.037	-0.101
-191.202	-82.506	-0.140	0.045
-190.187	-121.463	0.459	0.076
-189.173	-115.636	0.289	-0.054
-188.158	97.931	0.341	0.389
-187.144	-153.090	-0.067	-0.005
-186.129	-200.000	-0.104	-0.000
-185.114	-130.179	0.075	-0.010
-184.100	-43.683	-0.076	-0.038
-183.085	61.911	-0.206	0.204
-182.071	-200.000	0.005	0.239
-181.056	54.171	0.079	0.076
-180.042	-120.533	-0.219	0.037
-179.027	-200.000	-0.025	-0.213
-178.012	218.164	-0.078	-0.124
-176.998	-46.166	0.371	-0.181
-175.983	-3.688	0.076	-0.052
-174.969	47.763	-0.166	-0.154
-173.954	-78.445	0.180	-0.061
-172.939	-14.478	0.219	-0.140
-171.925	-75.724	-0.171	0.060
-170.910	-34.028	-0.103	-0.056
-169.896	754.140	-0.031	0.084
-168.881	69.592	0.281	0.287
-167.866	-73.661	-0.092	0.033
-166.852	-134.334	0.365	0.045
-165.837	12.615	0.226	0.173
-164.823	-69.167	0.230	-0.088
-163.808	98.652	0.135	0.155
-162.793	132.033	0.209	0.266
-161.779	280.057	-0.090	-0.160
-160.764	-9.357	-0.178	-0.118
-159.750	-200.000	-0.026	0.178
-158.735	193.022	0.071	0.106
-157.720	-129.903	0.136	0.019
-156.706	-200.000	0.028	0.665
-155.691	357.158	0.151	0.298
-154.677	-61.813	0.303	0.126
-153.662	-73.736	0.177	-0.064
-152.647	-66.470	0.169	0.066
-151.633	178.960	0.164	0.238
-150.618	-75.101	0.275	-0.098
-149.604	112.082	0.013	0.016
-148.589	-75.307	0.169	0.060
-147.574	379.436	0.074	0.151
-146.560	0.837	-0.229	0.163
-145.545	10.140	0.066	-0.049
-144.531	-200.000	0.047	-0.250
-143.516	-200.000	0.010	-0.498
-142.502	-200.000	0.014	-0.122
-141.487	-122.588	-0.067	-0.011
-140.472	-74.919	-0.110	-0.039
-139.458	72.371	-0.356	-0.368
-138.443	-62.151	-0.077	-0.032
-137.429	-161.089	-0.200	0.010
-136.414	269.453	0.177	0.308
-135.399	524.210	0.083	0.194
-134.385	800.000	-0.049	0.201
-133.370	-133.146	-0.245	-0.031
-132.356	-29.760	-0.290	0.164
-131.341	167.442	-0.191	-0.269
-130.326	505.260	0.050	0.115
-129.312	-44.676	0.095	-0.047
-128.297	-8.757	0.212	-0.141
-127.283	-200.000	-0.015	-0.104
-126.268	72.872	0.061	0.063
-125.253	528.914	-0.083	-0.194
-124.239	-0.058	0.082	-0.058
-123.224	-200.000	0.032	0.250
-122.210	-43.576	0.244	0.122
-121.195	-4.694	-0.221	0.151
