DTS Sentinel unit serial number:	SN413079Multiplexer serial number:	ORYXHardware model number:	OX4-SRSoftware version number:	ORYX F/W v4.00 Oryx Data Collector v3.7.2.0data status	okinstallation	princeton_trtdifferential loss correction	single-endedforward channel	channel 3reverse channel	N/Adate	2019/09/11time	01:38:11forward acquisition time	60.00reverse acquisition time	0.00gamma	496.2192k internal	0.2331k external	0.2331temperature offset calibration	0.9917default loss term (dB/km)	0.3790temperature slope calibration	1.0000multiplexer offset coefficient	1.0000multiplexer slope coefficient	1.0000fibre end	0.00T internal ref (°C)	29.12T ext. ref 1 (°C)	-0.28T ext. ref 2 (°C)	23.52length (m)	temperature (°C)	Stokes	anti-Stokes-747.200	800.000	0.054	0.159
-746.185	-54.401	-0.325	0.148
-745.171	-2.883	-0.164	-0.115
-744.156	-87.607	0.119	-0.036
-743.142	-144.622	0.342	0.032
-742.127	-200.000	0.002	0.218
-741.112	111.293	0.145	0.176
-740.098	127.765	-0.121	-0.155
-739.083	303.517	0.068	-0.127
-738.069	-84.019	-0.361	-0.115
-737.054	-45.207	-0.014	-0.007
-736.039	-108.042	-0.265	-0.058
-735.025	-119.249	0.249	-0.044
-734.010	10.201	-0.212	0.162
-732.996	-156.918	-0.577	-0.036
-731.981	-133.133	-0.395	0.050
-730.966	-156.423	-0.210	0.013
-729.952	182.924	0.099	-0.146
-728.937	-116.702	-0.136	-0.025
-727.923	-58.943	-0.363	-0.158
-726.908	69.897	-0.266	-0.275
-725.894	2.056	-0.298	0.216
-724.879	-181.035	0.187	-0.004
-723.864	-200.000	-0.016	0.098
-722.850	100.509	-0.212	-0.248
-721.835	-76.937	-0.248	-0.087
-720.821	-85.826	-0.273	0.085
-719.806	152.332	0.029	0.039
-718.791	372.156	-0.109	-0.223
-717.777	-98.277	-0.366	-0.094
-716.762	800.000	0.067	0.231
-715.748	-146.192	-0.308	-0.027
-714.733	-200.000	0.005	-0.056
-713.718	800.000	-0.018	-0.067
-712.704	107.580	-0.205	-0.245
-711.689	-123.926	0.186	0.029
-710.675	800.000	0.047	-0.158
-709.660	-84.100	-0.322	-0.103
-708.645	-200.000	0.019	0.165
-707.631	-34.806	0.131	0.072
-706.616	93.464	0.125	0.142
-705.602	800.000	-0.030	0.127
-704.587	73.945	0.204	-0.215
-703.572	-56.165	-0.503	-0.225
-702.558	116.891	0.210	-0.259
-701.543	-199.148	-0.123	-0.001
-700.529	19.795	0.096	0.078
-699.514	-200.000	0.017	0.192
-698.499	-116.493	0.274	0.051
-697.485	-2.897	0.113	-0.079
-696.470	800.000	0.077	0.220
-695.456	156.621	-0.077	-0.107
-694.441	274.707	-0.070	-0.125
-693.426	564.496	0.136	-0.332
-692.412	273.328	-0.098	-0.175
-691.397	-200.000	0.019	-0.171
-690.383	-85.232	-0.265	-0.083
-689.368	128.890	0.167	0.213
-688.354	526.146	0.091	-0.216
-687.339	217.162	0.170	-0.271
-686.324	-43.246	-0.320	0.163
-685.310	-200.000	-0.020	0.156
-684.295	800.000	0.053	0.154
-683.281	58.956	-0.113	0.111
-682.266	-200.000	-0.012	0.102
-681.251	-114.701	-0.379	0.073
-680.237	-1.327	-0.261	-0.185
-679.222	60.325	0.201	0.200
-678.208	55.833	0.148	-0.144
-677.193	285.138	-0.118	-0.213
-676.178	47.286	0.170	-0.159
-675.164	-37.636	0.073	-0.039
-674.149	-141.608	0.419	-0.042
-673.135	-200.000	0.037	0.225
-672.120	-171.882	0.112	0.004
-671.105	-200.000	0.006	0.346
-670.091	145.989	0.186	-0.250
-669.076	-89.787	0.317	0.093
-668.062	-60.227	-0.210	0.090
-667.047	-200.000	0.023	0.353
-666.032	-113.550	0.324	0.064
-665.018	800.000	-0.111	-0.317
-664.003	-200.000	-0.076	-0.605
-662.989	-200.000	0.007	-0.166
-661.974	521.368	-0.225	-0.530
-660.959	393.725	-0.054	0.113
-659.945	-64.485	-0.250	0.102
-658.930	-35.384	0.194	-0.106
-657.916	203.061	0.181	-0.281
-656.901	739.810	0.264	0.711
-655.886	800.000	-0.138	0.393
-654.872	-200.000	-0.038	0.200
-653.857	119.936	-0.061	0.076
-652.843	800.000	0.093	0.327
-651.828	74.676	0.157	-0.166
-650.814	17.110	-0.239	-0.190
-649.799	62.512	-0.238	0.239
-648.784	270.237	0.175	-0.308
-647.770	800.000	0.070	0.249
-646.755	246.095	0.093	-0.158
-645.741	326.771	0.151	0.291
-644.726	-0.161	0.142	-0.101
-643.711	-109.413	-0.273	-0.058
-642.697	109.685	-0.260	0.313
-641.682	46.893	0.086	0.080
-640.668	237.432	-0.166	-0.276
-639.653	-58.134	-0.091	-0.040
-638.638	-200.000	-0.058	0.300
-637.624	800.000	-0.051	-0.164
-636.609	-22.539	-0.191	0.116
-635.595	12.931	0.237	0.184
-634.580	-132.513	-0.122	-0.016
-633.565	27.620	-0.197	-0.166
-632.551	-200.000	-0.080	-0.430
-631.536	-13.182	-0.180	-0.117
-630.522	80.332	0.142	0.153
-629.507	78.585	-0.121	0.130
-628.492	-173.199	0.080	-0.002
-627.478	800.000	0.046	-0.189
-626.463	-200.000	0.018	0.287
-625.449	800.000	0.034	-0.101
-624.434	-13.899	0.209	0.135
-623.419	120.979	-0.159	0.198
-622.405	800.000	-0.077	-0.231
-621.390	-27.718	0.098	0.057
-620.376	-200.000	-0.001	0.167
-619.361	87.967	0.052	0.057
-618.346	-200.000	-0.017	-0.212
-617.332	-91.231	-0.279	0.080
-616.317	-141.915	-0.223	-0.022
-615.303	-88.367	0.206	-0.062
-614.288	800.000	0.039	-0.140
-613.273	-58.808	0.197	-0.085
-612.259	470.183	-0.033	0.074
-611.244	380.008	0.107	0.219
-610.230	602.334	0.071	-0.177
-609.215	-42.295	0.084	-0.043
-608.201	800.000	0.067	0.278
-607.186	209.775	-0.124	-0.195
-606.171	800.000	-0.043	-0.134
-605.157	-155.614	0.163	0.010
-604.142	-200.000	0.021	-0.201
-603.128	-69.555	0.121	-0.046
-602.113	-44.043	-0.154	-0.078
-601.098	-88.666	-0.172	-0.051
-600.084	-92.125	-0.301	0.085
-599.069	-131.881	-0.316	0.041
-598.055	800.000	0.068	-0.221
-597.040	-74.483	0.083	0.030
-596.025	0.630	-0.184	-0.132
-595.011	364.455	-0.054	-0.108
-593.996	98.172	0.283	-0.326
-592.982	261.387	0.062	-0.108
-591.967	311.681	-0.175	-0.329
-590.952	143.342	-0.140	-0.186
-589.938	503.883	-0.141	-0.326
-588.923	-60.364	0.230	-0.098
-587.909	-143.567	0.190	0.018
-586.894	312.790	0.089	-0.168
-585.879	-123.326	0.213	-0.034
-584.865	388.859	-0.064	-0.133
-583.850	-166.504	0.172	-0.007
-582.836	197.311	0.088	0.134
-581.821	37.146	0.047	-0.042
-580.806	427.750	-0.109	-0.236
-579.792	-200.000	0.000	0.015
-578.777	31.171	0.235	-0.201
-577.763	40.976	-0.309	-0.279
-576.748	-104.005	0.438	0.102
-575.733	800.000	0.074	0.295
-574.719	50.950	-0.326	0.309
-573.704	228.619	-0.046	0.074
-572.690	168.791	-0.154	-0.220
-571.675	-194.105	0.080	-0.001
-570.661	-83.857	-0.235	0.075
-569.646	-107.769	-0.125	0.027
-568.631	176.426	0.118	-0.171
-567.617	-200.000	0.007	-0.175
-566.602	-179.003	-0.445	-0.010
-565.588	-166.853	-0.428	-0.018
-564.573	-200.000	0.043	0.223
-563.558	-52.094	-0.128	-0.059
-562.544	66.233	-0.016	-0.016
-561.529	318.061	-0.056	-0.106
-560.515	800.000	0.039	0.131
-559.500	337.353	0.023	-0.045
-558.485	-145.346	-0.421	-0.038
-557.471	60.568	-0.095	0.094
-556.456	-125.576	-0.167	0.025
-555.442	-99.663	0.215	0.054
-554.427	-200.000	0.031	0.230
-553.412	-122.231	-0.170	-0.028
-552.398	-90.524	0.136	0.039
-551.383	-55.486	0.236	-0.106
-550.369	800.000	-0.062	-0.256
-549.354	3.194	-0.047	0.034
-548.339	-50.656	-0.165	0.077
-547.325	166.432	-0.158	0.223
-546.310	25.076	-0.334	0.277
-545.296	-77.368	-0.106	-0.037
-544.281	-75.288	-0.250	0.089
-543.266	-69.243	-0.150	0.057
-542.252	519.292	-0.053	0.124
-541.237	146.570	0.166	-0.223
-540.223	-198.648	0.175	0.001
-539.208	471.469	0.144	-0.324
-538.193	-200.000	-0.036	-0.386
-537.179	-147.520	-0.421	0.035
-536.164	10.577	-0.232	0.177
-535.150	133.710	-0.165	-0.213
-534.135	-200.000	0.023	-0.277
-533.121	-89.522	0.238	0.070
-532.106	800.000	0.079	0.251
-531.091	65.747	-0.109	-0.110
-530.077	-200.000	0.014	-0.078
-529.062	-74.076	0.319	0.115
-528.048	0.984	-0.085	-0.061
-527.033	136.467	0.193	0.251
-526.018	-37.129	-0.113	-0.061
-525.004	-57.028	-0.406	-0.178
-523.989	-90.737	0.230	-0.066
-522.975	349.514	0.115	-0.227
-521.960	-153.748	-0.077	-0.005
-520.945	-7.614	-0.071	0.048
-519.931	158.569	0.031	-0.043
-518.916	24.755	0.228	0.188
-517.902	-200.000	0.062	-0.420
-516.887	119.310	0.130	-0.160
-515.872	-79.804	0.270	0.091
-514.858	-77.011	0.065	-0.023
-513.843	184.010	0.035	0.051
-512.829	-152.299	0.374	-0.027
-511.814	308.401	-0.156	-0.290
-510.799	-200.000	-0.032	-0.307
-509.785	138.125	-0.169	0.221
-508.770	275.311	-0.143	0.252
-507.756	-59.145	-0.021	-0.009
-506.741	11.848	-0.286	0.219
-505.726	113.578	0.050	0.060
-504.712	287.422	-0.201	0.362
-503.697	800.000	0.032	-0.091
-502.683	678.453	0.063	-0.164
-501.668	-17.471	-0.146	-0.092
-500.653	326.648	0.156	0.298
-499.639	-71.298	-0.056	0.021
-498.624	-31.316	-0.268	0.151
-497.610	-61.464	0.367	-0.154
-496.595	-200.000	-0.029	-0.131
-495.581	526.539	0.062	-0.145
-494.566	-120.244	-0.152	0.026
-493.551	-72.111	0.264	0.098
-492.537	184.139	-0.097	0.144
-491.522	89.382	-0.207	-0.230
-490.508	-84.016	0.155	0.049
-489.493	800.000	-0.104	0.321
-488.478	170.086	-0.176	0.251
-487.464	338.538	-0.069	0.134
-486.449	52.845	0.108	-0.103
-485.435	-200.000	-0.042	0.210
-484.420	-200.000	-0.019	-0.172
-483.405	357.963	0.189	-0.375
-482.391	800.000	0.049	-0.210
-481.376	-41.339	-0.147	-0.075
-480.362	-133.295	0.368	-0.046
-479.347	-200.000	-0.007	-0.157
-478.332	346.166	0.128	0.251
-477.318	582.373	0.034	-0.083
-476.303	-130.334	0.098	-0.013
-475.289	-200.000	-0.064	-0.281
-474.274	33.475	-0.046	-0.040
-473.259	-100.174	-0.490	0.121
-472.245	228.226	-0.159	0.257
-471.230	-86.516	-0.079	-0.024
-470.216	190.448	0.078	-0.116
-469.201	-25.474	-0.070	-0.041
-468.186	38.654	0.107	0.095
-467.172	-199.843	0.107	0.001
-466.157	-116.755	0.196	0.036
-465.143	155.273	0.115	0.157
-464.128	-40.898	-0.218	-0.112
-463.113	-152.257	-0.051	0.004
-462.099	800.000	0.081	0.338
-461.084	697.448	-0.019	0.050
-460.070	-200.000	-0.029	0.233
-459.055	-138.999	-0.471	-0.051
-458.040	-200.000	0.045	-0.355
-457.026	-129.779	-0.224	-0.031
-456.011	-138.687	-0.190	0.021
-454.997	-82.590	-0.165	0.053
-453.982	-200.000	-0.052	-0.237
-452.968	293.287	0.148	0.268
-451.953	48.867	0.083	0.078
-450.938	-146.558	0.195	0.017
-449.924	14.660	0.304	0.237
-448.909	4.551	0.273	0.199
-447.895	53.115	-0.021	0.020
-446.880	-109.458	0.315	-0.066
-445.865	182.141	0.108	-0.159
-444.851	-182.487	-0.377	-0.007
-443.836	-71.555	-0.168	0.062
-442.822	-200.000	-0.056	0.252
-441.807	-21.991	-0.109	-0.066
-440.792	65.826	0.119	0.120
-439.778	56.852	-0.113	-0.109
-438.763	-200.000	0.006	-0.047
-437.749	215.475	-0.100	0.158
-436.734	469.684	0.028	0.061
-435.719	435.089	-0.104	0.224
-434.705	-10.761	0.277	-0.182
-433.690	8.389	0.154	0.115
-432.676	-200.000	-0.046	-0.214
-431.661	455.132	0.038	-0.083
-430.646	-51.559	0.193	-0.089
-429.632	96.882	0.066	-0.075
-428.617	656.800	0.052	-0.133
-427.603	-37.378	-0.238	-0.126
-426.588	-200.000	0.004	-0.058
-425.573	-200.000	0.032	-0.305
-424.559	4.030	-0.106	0.077
-423.544	-200.000	-0.014	0.189
-422.530	53.511	0.097	0.092
-421.515	-83.950	0.113	-0.036
-420.500	-105.033	-0.134	-0.031
-419.486	347.024	0.159	0.310
-418.471	800.000	-0.023	0.089
-417.457	-117.236	-0.156	-0.028
-416.442	91.802	0.215	-0.240
-415.428	-29.822	0.266	-0.151
-414.413	800.000	0.059	0.177
-413.398	-50.743	0.180	-0.084
-412.384	47.070	-0.075	-0.070
-411.369	-69.594	-0.249	0.095
-410.355	-109.502	0.412	-0.086
-409.340	-200.000	0.016	-0.166
-408.325	54.590	0.041	-0.039
-407.311	-200.000	-0.008	-0.177
-406.296	62.366	-0.198	0.197
-405.282	800.000	-0.079	-0.282
-404.267	-63.190	-0.199	-0.082
-403.252	-103.348	0.159	-0.037
-402.238	-200.000	0.019	-0.221
-401.223	717.701	0.078	0.207
-400.209	-27.910	-0.174	-0.100
-399.194	-200.000	-0.031	0.276
-398.179	166.298	0.214	0.301
-397.165	800.000	-0.071	-0.259
-396.150	79.165	-0.237	-0.252
-395.136	-200.000	-0.024	0.112
-394.121	-51.822	-0.147	-0.068
-393.106	604.585	-0.073	-0.179
-392.092	219.148	0.131	0.208
-391.077	209.211	-0.150	-0.233
-390.063	105.693	0.102	0.120
-389.048	83.235	0.206	0.223
-388.033	-151.925	0.249	0.018
-387.019	72.212	-0.254	-0.262
-386.004	-41.716	0.196	0.100
-384.990	-200.000	0.009	-0.060
-383.975	800.000	-0.067	0.208
-382.960	-102.967	0.079	-0.019
-381.946	-50.269	0.123	0.058
-380.931	800.000	0.063	-0.242
-379.917	-155.181	0.189	0.012
-378.902	-144.580	-0.108	-0.010
-377.888	-53.979	-0.147	0.066
-376.873	0.651	-0.234	-0.166
-375.858	24.012	0.140	-0.115
-374.844	-144.263	-0.179	0.017
-373.829	800.000	-0.044	-0.187
-372.815	83.079	0.005	-0.005
-371.800	800.000	-0.047	-0.189
-370.785	-181.418	-0.217	-0.004
-369.771	-99.542	-0.217	-0.054
-368.756	-48.155	0.228	-0.109
-367.742	-90.331	-0.133	0.038
-366.727	25.203	0.161	-0.133
-365.712	35.170	0.184	0.160
-364.698	-40.383	-0.299	-0.154
-363.683	-200.000	-0.035	0.283
-362.669	365.668	-0.060	0.119
-361.654	-200.000	0.002	0.159
-360.639	800.000	-0.008	0.024
-359.625	43.129	-0.078	0.071
-358.610	-89.041	0.265	-0.078
-357.596	800.000	0.020	-0.074
-356.581	-106.563	-0.250	0.055
-355.566	800.000	-0.056	0.227
-354.552	-28.783	-0.232	-0.132
-353.537	-42.347	-0.182	0.092
-352.523	-7.811	0.161	0.108
-351.508	-17.282	-0.180	-0.112
-350.493	-54.387	-0.202	0.091
-349.479	-35.416	-0.195	-0.105
-348.464	522.967	0.160	0.373
-347.450	800.000	-0.124	-0.439
-346.435	-94.852	-0.181	0.049
-345.420	584.932	0.042	-0.102
-344.406	-200.000	-0.003	0.057
-343.391	-160.381	-0.375	-0.020
-342.377	-112.084	0.132	0.026
-341.362	-156.045	-0.125	0.008
-340.348	-200.000	0.003	-0.076
-339.333	33.229	0.279	0.240
-338.318	800.000	0.019	0.055
-337.304	44.927	0.208	0.190
-336.289	35.689	0.306	0.266
-335.275	21.583	-0.080	-0.064
-334.260	34.009	-0.112	-0.097
-333.245	-97.647	0.174	-0.045
-332.231	-22.616	-0.537	0.322
-331.216	162.063	0.183	0.255
-330.202	-10.023	-0.127	0.083
-329.187	-200.000	-0.030	-0.204
-328.172	73.440	0.105	-0.109
-327.158	144.592	0.194	-0.257
-326.143	36.483	-0.139	0.122
-325.129	-115.902	0.059	-0.011
-324.114	445.173	0.185	-0.403
-323.099	-126.168	0.321	-0.048
-322.085	40.538	-0.239	0.214
-321.070	-200.000	0.016	0.169
-320.056	-16.264	0.220	0.138
-319.041	-200.000	-0.009	-0.178
-318.026	-91.021	-0.166	0.047
-317.012	785.856	-0.085	0.230
-315.997	483.662	0.099	0.224
-314.983	86.360	-0.023	0.025
-313.968	-134.465	0.235	0.028
-312.953	-200.000	-0.026	0.312
-311.939	-190.263	-0.280	0.003
-310.924	-200.000	-0.000	0.007
-309.910	-94.959	-0.172	0.046
-308.895	263.544	0.171	-0.293
-307.880	325.017	0.055	-0.103
-306.866	263.945	0.253	0.435
-305.851	310.177	-0.037	0.068
-304.837	434.742	0.019	-0.041
-303.822	27.872	0.197	0.164
-302.807	-24.338	0.393	0.232
-301.793	-132.809	-0.211	-0.027
-300.778	-200.000	-0.005	0.140
-299.764	6.624	0.361	-0.265
-298.749	-200.000	-0.042	-0.319
-297.735	-69.929	0.179	-0.067
-296.720	800.000	-0.098	0.289
-295.705	51.333	-0.186	0.175
-294.691	181.544	-0.374	-0.543
-293.676	-200.000	-0.045	-0.337
-292.662	210.775	-0.038	-0.059
-291.647	171.013	0.157	-0.222
-290.632	54.333	-0.038	0.036
-289.618	161.834	-0.138	-0.192
-288.603	347.510	-0.080	-0.155
-287.589	95.257	0.194	0.218
-286.574	-2.698	-0.268	0.185
-285.559	800.000	0.071	0.206
-284.545	-34.048	0.124	0.068
-283.530	-119.306	0.153	0.026
-282.516	143.175	0.163	0.215
-281.501	-58.672	0.393	0.168
-280.486	227.088	0.163	0.261
-279.472	-9.028	0.243	-0.161
-278.457	320.345	-0.112	0.210
-277.443	-190.837	0.364	0.004
-276.428	71.389	-0.056	-0.057
-275.413	-188.251	-0.172	0.002
-274.399	-89.750	0.349	0.101
-273.384	-55.522	-0.181	-0.080
-272.370	582.415	0.146	-0.354
-271.355	68.732	-0.175	0.177
-270.340	-161.554	0.069	0.004
-269.326	-93.697	-0.116	-0.032
-268.311	28.006	-0.291	-0.243
-267.297	791.519	0.105	0.285
-266.282	-19.049	-0.218	0.134
-265.267	800.000	-0.086	0.258
-264.253	280.269	-0.057	0.101
-263.238	-29.933	-0.303	0.170
-262.224	118.090	0.086	0.105
-261.209	-39.702	0.127	-0.066
-260.195	170.221	-0.079	-0.112
-259.180	129.324	-0.021	0.026
-258.165	285.580	0.082	0.146
-257.151	-105.037	0.313	-0.071
-256.136	-163.035	-0.144	-0.007
-255.122	-200.000	0.019	0.129
-254.107	-115.462	0.269	-0.050
-253.092	-51.497	-0.248	0.114
-252.078	-159.103	-0.265	0.015
-251.063	-200.000	-0.050	0.272
-250.049	-143.054	0.258	-0.025
-249.034	-42.042	0.105	0.053
-248.019	34.832	-0.199	-0.172
-247.005	-9.889	-0.236	0.155
-245.990	185.580	0.215	-0.316
-244.976	57.393	0.169	-0.163
-243.961	-155.488	0.321	0.020
-242.946	14.225	0.173	-0.133
-241.932	800.000	-0.093	-0.262
-240.917	-12.095	0.231	0.149
-239.903	-200.000	-0.031	-0.160
-238.888	-200.000	0.020	0.092
-237.873	-137.290	0.195	-0.022
-236.859	-5.773	0.339	-0.229
-235.844	102.751	0.225	-0.260
-234.830	301.291	-0.134	-0.243
-233.815	117.112	-0.270	-0.327
-232.800	-200.000	-0.010	-0.333
-231.786	-77.744	0.322	-0.110
-230.771	520.611	-0.060	0.140
-229.757	138.010	0.173	0.223
-228.742	-101.252	0.306	0.074
-227.727	-99.999	0.185	0.046
-226.713	297.022	0.166	-0.300
-225.698	-87.552	0.172	0.051
-224.684	-81.087	-0.136	0.044
-223.669	593.032	-0.197	0.480
-222.655	-26.521	0.139	-0.080
-221.640	800.000	-0.056	0.216
-220.625	43.438	-0.280	0.253
-219.611	-200.000	0.014	0.102
-218.596	-200.000	-0.020	0.311
-217.582	-109.898	-0.023	0.005
-216.567	-93.374	0.270	0.074
-215.552	-58.077	-0.089	0.038
-214.538	108.733	-0.103	-0.121
-213.523	168.649	0.006	0.008
-212.509	-37.070	0.206	-0.109
-211.494	-200.000	0.029	0.277
-210.479	37.488	-0.285	-0.249
-209.465	291.416	0.149	-0.267
-208.450	-200.000	0.020	-0.111
-207.436	-162.291	-0.229	0.011
-206.421	-200.000	0.007	0.111
-205.406	-28.896	-0.173	0.098
-204.392	-168.199	-0.239	0.009
-203.377	800.000	-0.081	0.260
-202.363	192.923	0.119	0.177
-201.348	800.000	0.089	-0.285
-200.333	8.459	-0.085	0.063
-199.319	800.000	0.118	-0.425
-198.304	-200.000	-0.032	-0.259
-197.290	-200.000	0.060	0.268
-196.275	-139.615	0.337	-0.035
-195.260	-150.198	0.145	0.011
-194.246	-113.247	0.158	0.031
-193.231	744.606	-0.076	-0.203
-192.217	515.784	-0.189	-0.435
-191.202	-200.000	-0.021	0.131
-190.187	709.966	-0.091	-0.236
-189.173	270.188	-0.087	0.151
-188.158	-34.993	-0.524	0.282
-187.144	30.425	0.268	0.226
-186.129	19.006	0.157	0.124
-185.114	267.634	-0.060	-0.104
-184.100	60.977	-0.186	-0.181
-183.085	-125.044	-0.235	0.036
-182.071	-200.000	0.016	0.365
-181.056	538.049	-0.050	-0.116
-180.042	-123.919	-0.280	-0.043
-179.027	632.525	-0.139	0.347
-178.012	-68.979	0.251	0.095
-176.998	-63.657	0.191	-0.077
-175.983	225.384	0.142	0.226
-174.969	-103.352	0.172	-0.040
-173.954	-108.010	-0.149	0.032
-172.939	-141.942	0.377	0.037
-171.925	800.000	-0.109	0.303
-170.910	-200.000	-0.030	-0.166
-169.896	-96.131	0.229	-0.060
-168.881	-85.000	-0.397	-0.123
-167.866	-44.181	0.252	0.124
-166.852	-200.000	0.020	-0.409
-165.837	657.691	-0.088	0.223
-164.823	30.384	0.182	0.153
-163.808	126.400	0.114	0.143
-162.793	-55.936	0.089	-0.039
-161.779	-80.201	0.189	-0.062
-160.764	-28.268	-0.205	0.117
-159.750	-61.818	0.432	-0.178
-158.735	-200.000	-0.052	0.244
-157.720	203.950	-0.143	0.218
-156.706	-130.276	0.229	-0.031
-155.691	358.042	0.101	0.198
-154.677	60.640	0.079	0.077
-153.662	-144.542	0.315	0.029
-152.647	-89.705	0.052	0.015
-151.633	108.538	-0.190	0.223
-150.618	-90.919	-0.394	0.111
-149.604	-81.907	-0.190	-0.061
-148.589	507.458	0.094	-0.215
-147.574	800.000	0.017	0.069
-146.560	-137.948	-0.404	-0.044
-145.545	800.000	-0.062	0.193
-144.531	-200.000	0.042	0.547
-143.516	13.039	-0.120	-0.091
-142.502	800.000	-0.036	-0.102
-141.487	800.000	0.049	0.159
-140.472	-200.000	-0.053	0.334
-139.458	-200.000	-0.017	-0.240
-138.443	-2.664	-0.171	-0.118
-137.429	-46.578	0.285	0.137
-136.414	222.079	0.236	0.373
-135.399	16.343	0.158	0.123
-134.385	109.799	-0.314	0.370
-133.370	37.642	0.123	0.108
-132.356	-53.013	-0.105	-0.047
-131.341	-57.960	-0.008	0.004
-130.326	46.032	0.288	0.262
-129.312	-90.727	0.023	-0.007
-128.297	-200.000	-0.001	-0.033
-127.283	400.351	-0.067	-0.137
-126.268	-200.000	0.011	-0.152
-125.253	61.317	-0.116	0.114
-124.239	9.275	0.026	0.019
-123.224	30.002	-0.307	-0.257
-122.210	228.151	0.206	0.329
-121.195	800.000	-0.048	0.144
