DTS Sentinel unit serial number:	SN413079Multiplexer serial number:	ORYXHardware model number:	OX4-SRSoftware version number:	ORYX F/W v4.00 Oryx Data Collector v3.7.2.0data status	okinstallation	princeton_trtdifferential loss correction	single-endedforward channel	channel 3reverse channel	N/Adate	2019/09/10time	19:22:10forward acquisition time	60.00reverse acquisition time	0.00gamma	496.2192k internal	0.2318k external	0.2318temperature offset calibration	0.9911default loss term (dB/km)	0.3790temperature slope calibration	1.0000multiplexer offset coefficient	1.0000multiplexer slope coefficient	1.0000fibre end	0.00T internal ref (°C)	33.73T ext. ref 1 (°C)	-0.40T ext. ref 2 (°C)	26.25length (m)	temperature (°C)	Stokes	anti-Stokes-747.200	-200.000	-0.003	0.099
-746.185	800.000	0.076	0.317
-745.171	34.237	0.200	0.176
-744.156	-22.550	0.237	0.145
-743.142	81.775	0.236	-0.259
-742.127	15.994	0.146	0.116
-741.112	117.748	0.076	0.095
-740.098	204.397	-0.228	0.358
-739.083	-16.776	-0.297	-0.190
-738.069	-99.855	-0.206	-0.052
-737.054	-200.000	0.042	0.331
-736.039	-112.339	-0.049	-0.010
-735.025	387.914	0.187	0.391
-734.010	196.241	-0.242	-0.373
-732.996	344.483	0.068	-0.135
-731.981	149.843	-0.166	0.228
-730.966	-149.020	0.030	-0.002
-729.952	60.306	-0.095	-0.096
-728.937	44.871	0.092	-0.085
-727.923	800.000	-0.048	0.141
-726.908	-99.417	-0.235	-0.060
-725.894	800.000	-0.038	0.150
-724.879	-83.299	0.149	-0.048
-723.864	60.353	-0.099	-0.099
-722.850	451.477	-0.105	-0.235
-721.835	-155.007	-0.218	-0.014
-720.821	-200.000	-0.007	0.033
-719.806	-53.689	-0.132	-0.061
-718.791	153.716	0.117	-0.162
-717.777	437.206	0.134	-0.295
-716.762	-40.968	-0.169	-0.088
-715.748	178.671	-0.177	0.262
-714.733	0.728	-0.120	-0.087
-713.718	261.950	-0.189	0.332
-712.704	488.216	0.065	0.151
-711.689	800.000	0.123	0.369
-710.675	159.091	0.136	-0.192
-709.660	800.000	-0.040	-0.145
-708.645	90.231	-0.200	0.226
-707.631	421.940	0.072	0.155
-706.616	519.780	-0.136	-0.323
-705.602	394.828	0.097	-0.203
-704.587	583.991	-0.077	-0.192
-703.572	704.740	-0.088	0.234
-702.558	256.843	0.079	0.137
-701.543	-118.634	-0.103	-0.018
-700.529	800.000	0.052	0.149
-699.514	-85.733	0.268	0.084
-698.499	454.908	-0.017	0.039
-697.485	-200.000	0.009	0.215
-696.470	-65.323	0.122	0.050
-695.456	7.097	0.217	0.164
-694.441	-177.673	0.299	0.007
-693.426	-113.927	-0.120	-0.023
-692.412	-200.000	0.025	0.126
-691.397	-200.000	0.038	0.180
-690.383	800.000	-0.028	0.101
-689.368	191.603	-0.154	0.234
-688.354	109.632	0.220	0.266
-687.339	800.000	0.097	-0.332
-686.324	149.706	0.208	-0.285
-685.310	102.560	0.094	-0.111
-684.295	800.000	-0.055	-0.160
-683.281	-79.148	-0.107	-0.037
-682.266	722.674	0.044	-0.118
-681.251	-200.000	0.008	0.046
-680.237	800.000	0.129	-0.373
-679.222	-200.000	-0.032	-0.188
-678.208	97.859	0.265	-0.308
-677.193	-72.354	-0.034	0.013
-676.178	95.728	0.107	0.124
-675.164	17.029	0.195	-0.156
-674.149	-112.359	0.489	-0.099
-673.135	98.197	0.105	-0.122
-672.120	800.000	0.060	0.243
-671.105	289.636	0.081	-0.149
-670.091	-33.596	0.173	-0.096
-669.076	-51.057	0.167	0.079
-668.062	-41.400	0.278	0.144
-667.047	-79.932	-0.268	0.091
-666.032	-200.000	0.001	0.091
-665.018	-67.936	0.234	0.092
-664.003	-171.849	0.402	0.013
-662.989	324.824	-0.054	-0.105
-661.974	-74.600	0.277	-0.101
-660.959	-74.701	-0.175	0.063
-659.945	100.523	0.113	0.133
-658.930	-200.000	-0.071	-0.734
-657.916	-150.570	0.455	-0.035
-656.901	-200.000	-0.039	0.272
-655.886	729.926	0.054	0.145
-654.872	-200.000	-0.009	0.145
-653.857	-130.441	0.439	0.060
-652.843	1.762	0.297	0.216
-651.828	19.145	0.119	-0.096
-650.814	800.000	-0.036	-0.124
-649.799	800.000	0.068	-0.278
-648.784	800.000	-0.056	-0.169
-647.770	686.108	-0.056	-0.148
-646.755	374.117	-0.075	-0.154
-645.741	-68.294	-0.190	-0.075
-644.726	800.000	0.044	-0.150
-643.711	-200.000	0.054	-0.256
-642.697	163.368	0.221	-0.313
-641.682	-200.000	-0.259	0.001
-640.668	-120.190	0.241	-0.042
-639.653	66.712	0.141	-0.145
-638.638	279.958	-0.050	0.090
-637.624	-200.000	0.007	0.037
-636.609	54.235	-0.219	0.213
-635.595	800.000	0.067	-0.199
-634.580	-200.000	-0.015	0.128
-633.565	96.654	-0.153	0.176
-632.551	47.051	-0.188	-0.177
-631.536	-119.824	-0.345	0.060
-630.522	-143.617	-0.303	0.029
-629.507	50.696	0.122	0.116
-628.492	4.956	0.363	-0.269
-627.478	800.000	-0.108	-0.343
-626.463	-105.900	-0.411	-0.093
-625.449	-170.632	-0.022	0.001
-624.434	-39.122	-0.241	0.127
-623.419	-136.875	-0.246	-0.028
-622.405	561.254	0.158	0.384
-621.390	-75.416	0.122	-0.044
-620.376	176.843	-0.032	-0.046
-619.361	800.000	-0.174	0.486
-618.346	-55.739	-0.198	0.089
-617.332	-9.101	-0.130	-0.087
-616.317	-16.214	0.238	0.153
-615.303	-0.346	0.069	-0.049
-614.288	-200.000	-0.002	0.076
-613.273	-200.000	0.045	-0.240
-612.259	-200.000	0.049	0.353
-611.244	800.000	-0.025	0.079
-610.230	-36.033	-0.400	0.218
-609.215	-110.607	-0.156	-0.033
-608.201	-141.237	-0.150	0.015
-607.186	-74.686	0.324	-0.117
-606.171	95.186	-0.163	0.187
-605.157	-76.575	0.224	-0.079
-604.142	-46.106	0.460	-0.228
-603.128	796.936	-0.027	0.076
-602.113	800.000	0.098	-0.350
-601.098	-200.000	-0.044	0.228
-600.084	439.567	0.092	-0.203
-599.069	5.922	-0.051	0.038
-598.055	-34.821	-0.140	-0.077
-597.040	13.639	-0.373	-0.292
-596.025	186.614	0.229	-0.344
-595.011	-200.000	0.005	-0.132
-593.996	-200.000	-0.003	0.247
-592.982	-48.052	0.291	-0.142
-591.967	-200.000	-0.003	-0.071
-590.952	-178.187	0.230	-0.005
-589.938	-200.000	0.047	-0.324
-588.923	-89.586	-0.188	-0.055
-587.909	-36.215	-0.146	0.079
-586.894	800.000	0.018	0.053
-585.879	15.946	0.360	0.285
-584.865	-200.000	0.013	0.068
-583.850	-152.565	-0.318	-0.023
-582.836	-54.377	-0.222	-0.101
-581.821	16.318	0.234	0.186
-580.806	165.784	-0.140	-0.199
-579.792	-39.240	0.134	-0.071
-578.777	-66.443	0.119	0.047
-577.763	-90.490	0.101	-0.029
-576.748	-36.635	0.044	-0.024
-575.733	-85.887	-0.200	0.062
-574.719	3.862	-0.371	0.273
-573.704	-149.421	0.267	0.021
-572.690	-34.321	0.203	-0.112
-571.675	-160.185	-0.497	0.027
-570.661	214.598	0.232	0.369
-569.646	-22.508	-0.054	0.033
-568.631	15.020	0.273	-0.215
-567.617	-88.437	0.308	-0.092
-566.602	-131.408	0.149	-0.020
-565.588	-70.241	-0.101	0.038
-564.573	800.000	0.052	0.177
-563.558	-54.850	-0.087	0.040
-562.544	-89.666	-0.099	-0.029
-561.529	-55.935	0.311	0.140
-560.515	-127.140	-0.303	0.045
-559.500	-200.000	-0.027	0.293
-558.485	-63.736	-0.413	0.170
-557.471	9.459	0.094	-0.071
-556.456	-200.000	0.028	-0.150
-555.442	43.127	-0.102	-0.094
-554.427	-34.035	-0.279	-0.154
-553.412	-5.618	-0.157	-0.108
-552.398	-89.959	0.190	-0.056
-551.383	-47.684	0.035	0.017
-550.369	652.032	-0.107	-0.275
-549.354	333.841	0.096	-0.186
-548.339	99.116	0.230	-0.266
-547.325	-80.636	-0.235	-0.079
-546.310	800.000	-0.084	-0.355
-545.296	23.040	0.409	0.337
-544.281	800.000	0.077	0.259
-543.266	116.719	-0.047	0.058
-542.252	189.621	-0.070	-0.105
-541.237	-200.000	-0.022	-0.165
-540.223	18.373	-0.193	0.155
-539.208	-200.000	0.021	0.148
-538.193	-59.313	0.237	-0.102
-537.179	147.497	0.122	0.165
-536.164	118.428	0.176	-0.218
-535.150	-82.468	-0.162	0.053
-534.135	-117.896	0.112	0.020
-533.121	723.194	0.169	-0.453
-532.106	617.226	0.066	-0.167
-531.091	800.000	-0.088	-0.291
-530.077	800.000	-0.078	0.330
-529.062	-22.025	-0.139	0.085
-528.048	-129.466	0.058	-0.008
-527.033	217.354	-0.266	-0.426
-526.018	-68.126	0.247	0.097
-525.004	-10.073	-0.306	-0.204
-523.989	14.305	-0.268	-0.209
-522.975	183.149	0.238	-0.352
-521.960	-3.459	0.085	0.059
-520.945	9.462	-0.228	0.173
-519.931	65.915	0.115	-0.117
-518.916	16.973	-0.085	0.067
-517.902	-30.699	-0.285	-0.162
-516.887	-200.000	0.012	0.287
-515.872	86.840	0.164	0.182
-514.858	-30.167	-0.134	-0.076
-513.843	180.483	0.125	0.184
-512.829	-200.000	-0.047	-0.234
-511.814	30.259	0.146	-0.125
-510.799	189.691	0.214	-0.322
-509.785	548.175	-0.123	0.294
-508.770	397.699	0.132	0.277
-507.756	272.396	-0.163	-0.289
-506.741	97.966	-0.079	-0.091
-505.726	225.051	0.124	0.202
-504.712	-145.137	-0.372	0.034
-503.697	26.535	-0.153	-0.128
-502.683	-200.000	-0.072	-0.376
-501.668	-124.707	-0.086	0.013
-500.653	3.689	-0.064	0.047
-499.639	-100.038	-0.246	0.061
-498.624	-200.000	-0.018	-0.202
-497.610	-200.000	0.013	-0.138
-496.595	-147.326	-0.250	0.021
-495.581	-2.753	-0.261	0.183
-494.566	-161.008	0.086	-0.005
-493.551	-156.262	-0.213	0.013
-492.537	-103.165	-0.094	0.022
-491.522	-113.575	0.281	-0.055
-490.508	-78.541	-0.245	-0.084
-489.493	55.729	-0.128	-0.124
-488.478	-78.922	0.394	-0.134
-487.464	559.918	0.079	-0.191
-486.449	-86.015	0.156	-0.048
-485.435	-23.978	-0.094	-0.056
-484.420	-200.000	0.014	-0.130
-483.405	800.000	-0.030	0.102
-482.391	-84.269	0.242	-0.077
-481.376	-48.264	-0.160	-0.077
-480.362	-58.209	-0.521	0.227
-479.347	-153.023	-0.301	0.021
-478.332	290.369	0.026	-0.047
-477.318	-13.528	0.242	-0.157
-476.303	-180.127	0.220	-0.005
-475.289	534.963	-0.104	0.247
-474.274	152.056	-0.096	-0.131
-473.259	62.024	-0.215	0.215
-472.245	324.220	-0.194	0.371
-471.230	-88.238	0.170	-0.051
-470.216	9.346	0.406	0.307
-469.201	800.000	0.093	0.386
-468.186	-165.151	-0.433	-0.019
-467.172	800.000	0.064	0.201
-466.157	325.565	0.012	-0.022
-465.143	-4.207	0.106	-0.073
-464.128	-200.000	-0.012	-0.147
-463.113	270.611	-0.146	0.258
-462.099	-200.000	0.011	0.090
-461.084	56.533	0.168	0.164
-460.070	24.526	-0.096	0.080
-459.055	800.000	0.069	-0.229
-458.040	173.960	-0.027	-0.039
-457.026	78.131	0.182	-0.195
-456.011	-0.312	-0.265	-0.188
-454.997	-112.163	0.147	0.030
-453.982	694.423	0.089	-0.232
-452.968	-56.137	-0.123	0.055
-451.953	-152.828	-0.175	0.012
-450.938	-128.609	0.232	-0.033
-449.924	24.638	-0.168	0.139
-448.909	-32.013	-0.154	-0.086
-447.895	-200.000	0.037	-0.183
-446.880	-151.184	-0.378	0.028
-445.865	182.935	0.102	-0.151
-444.851	-23.452	0.024	-0.015
-443.836	398.970	-0.115	0.242
-442.822	-143.925	-0.222	-0.021
-441.807	800.000	0.007	0.029
-440.792	-200.000	-0.008	-0.125
-439.778	-59.421	-0.132	-0.057
-438.763	-200.000	-0.035	0.351
-437.749	64.387	0.028	-0.029
-436.734	-26.774	0.359	0.210
-435.719	-67.305	-0.274	0.108
-434.705	90.852	0.377	0.422
-433.690	-52.622	-0.182	0.084
-432.676	-119.050	0.120	0.021
-431.661	-200.000	0.011	0.263
-430.646	170.257	-0.086	-0.123
-429.632	765.388	0.064	-0.173
-428.617	379.409	0.044	-0.090
-427.603	233.197	0.179	0.294
-426.588	-35.221	-0.206	-0.112
-425.573	-106.051	0.270	0.061
-424.559	-200.000	-0.058	-0.309
-423.544	291.644	0.148	-0.269
-422.530	-100.047	0.048	0.012
-421.515	-191.936	0.146	0.001
-420.500	-56.371	0.294	-0.131
-419.486	-200.000	0.000	-0.417
-418.471	253.140	-0.159	0.271
-417.457	75.226	0.142	0.150
-416.442	412.763	0.040	0.086
-415.428	305.262	0.142	0.264
-414.413	761.341	-0.070	0.191
-413.398	279.395	0.031	0.056
-412.384	45.807	0.196	-0.181
-411.369	-200.000	0.009	-0.244
-410.355	800.000	0.095	-0.261
-409.340	268.808	0.183	-0.320
-408.325	-200.000	0.024	-0.114
-407.311	36.324	0.014	-0.013
-406.296	412.187	-0.116	0.246
-405.282	-94.910	0.407	0.110
-404.267	-93.594	-0.092	0.025
-403.252	58.047	0.193	0.188
-402.238	800.000	-0.103	0.299
-401.223	-200.000	0.025	0.192
-400.209	11.504	-0.011	-0.009
-399.194	71.067	-0.015	-0.015
-398.179	78.028	0.024	-0.025
-397.165	800.000	0.053	0.175
-396.150	-84.591	-0.146	0.046
-395.136	723.592	-0.008	-0.022
-394.121	140.373	-0.036	-0.048
-393.106	44.475	-0.253	-0.232
-392.092	161.663	0.142	0.198
-391.077	-127.326	-0.101	0.015
-390.063	800.000	0.062	-0.207
-389.048	-200.000	-0.023	-0.552
-388.033	13.879	-0.192	0.149
-387.019	-138.752	0.308	0.034
-386.004	47.501	-0.281	-0.262
-384.990	-200.000	-0.028	-0.167
-383.975	0.971	-0.345	-0.247
-382.960	-200.000	-0.041	0.244
-381.946	243.480	-0.086	0.144
-380.931	-54.015	-0.105	0.048
-379.917	69.856	0.144	0.148
-378.902	-69.884	0.251	0.095
-377.888	-156.505	0.186	-0.012
-376.873	800.000	-0.098	0.289
-375.858	24.248	-0.122	0.100
-374.844	-200.000	0.239	0.001
-373.829	800.000	-0.060	0.189
-372.815	205.357	-0.060	0.094
-371.800	60.403	0.128	0.127
-370.785	-200.000	0.004	0.384
-369.771	190.974	-0.157	0.236
-368.756	800.000	-0.058	-0.193
-367.742	-200.000	-0.020	0.157
-366.727	4.213	-0.234	-0.171
-365.712	-200.000	0.012	-0.288
-364.698	-12.283	0.225	0.147
-363.683	-200.000	0.021	0.175
-362.669	-84.987	0.379	-0.119
-361.654	78.514	-0.215	-0.229
-360.639	-76.601	-0.184	-0.064
-359.625	-200.000	0.076	0.369
-358.610	800.000	0.066	-0.233
-357.596	160.893	0.186	-0.260
-356.581	400.750	-0.079	-0.164
-355.566	-200.000	-0.038	0.341
-354.552	10.479	-0.203	-0.154
-353.537	-165.860	0.165	-0.007
-352.523	132.799	0.177	0.228
-351.508	-89.362	-0.132	-0.039
-350.493	347.925	0.205	0.402
-349.479	-200.000	0.073	0.410
-348.464	-56.591	-0.147	-0.065
-347.450	172.004	0.194	-0.278
-346.435	-57.857	-0.130	-0.057
-345.420	800.000	0.084	-0.326
-344.406	-49.225	0.251	0.119
-343.391	480.577	-0.046	-0.105
-342.377	-41.484	0.077	0.039
-341.362	-200.000	-0.054	0.289
-340.348	-64.594	0.297	0.120
-339.333	-200.000	-0.067	-0.463
-338.318	-160.912	-0.310	0.016
-337.304	-200.000	-0.027	-0.265
-336.289	-46.851	0.053	-0.026
-335.275	-107.475	0.165	0.036
-334.260	220.167	-0.226	-0.360
-333.245	36.495	-0.202	0.178
-332.231	-200.000	0.001	0.195
-331.216	-38.415	-0.071	0.038
-330.202	53.123	-0.177	-0.169
-329.187	-200.000	0.021	-0.341
-328.172	-110.393	0.342	-0.071
-327.158	-200.000	0.007	0.044
-326.143	-148.610	0.167	0.014
-325.129	272.017	0.080	0.140
-324.114	-112.076	0.060	0.012
-323.099	800.000	-0.135	0.463
-322.085	-106.189	0.464	0.104
-321.070	9.207	-0.138	-0.104
-320.056	523.438	-0.089	0.208
-319.041	73.314	0.254	0.265
-318.026	-100.650	-0.120	-0.030
-317.012	-200.000	0.028	0.165
-315.997	-64.153	0.056	-0.023
-314.983	-200.000	0.003	0.179
-313.968	-58.910	-0.079	0.034
-312.953	-200.000	-0.006	0.088
-311.939	185.543	-0.320	-0.473
-310.924	-132.004	0.431	-0.056
-309.910	-182.069	-0.107	0.002
-308.895	55.235	0.227	0.218
-307.880	800.000	-0.038	-0.156
-306.866	-200.000	0.013	-0.079
-305.851	-200.000	-0.040	-0.223
-304.837	800.000	-0.058	-0.233
-303.822	-112.104	0.254	0.051
-302.807	82.509	0.153	-0.165
-301.793	-31.952	-0.129	-0.072
-300.778	-120.305	-0.230	0.039
-299.764	-70.355	0.236	-0.089
-298.749	-122.664	-0.051	-0.008
-297.735	-200.000	0.020	0.116
-296.720	-71.262	-0.110	-0.041
-295.705	-56.401	-0.072	-0.032
-294.691	-200.000	-0.039	-0.363
-293.676	403.222	-0.210	-0.440
-292.662	-200.000	-0.043	0.450
-291.647	628.929	-0.029	0.074
-290.632	298.186	-0.101	-0.185
-289.618	-170.675	0.179	0.006
-288.603	413.310	-0.047	-0.100
-287.589	-73.571	-0.127	0.046
-286.574	-132.650	-0.097	0.012
-285.559	-103.868	-0.099	-0.023
-284.545	-200.000	-0.037	0.192
-283.530	-75.066	0.026	0.009
-282.516	158.719	0.098	-0.135
-281.501	25.006	-0.280	-0.231
-280.486	-200.000	0.044	0.244
-279.472	-200.000	-0.033	0.398
-278.457	-125.892	0.073	0.011
-277.443	32.932	-0.066	0.057
-276.428	183.122	-0.109	-0.160
-275.413	626.417	0.025	-0.063
-274.399	124.866	0.059	-0.073
-273.384	-26.948	-0.190	0.110
-272.370	-161.418	0.355	-0.018
-271.355	124.039	-0.192	-0.239
-270.340	800.000	0.016	-0.063
-269.326	6.942	-0.141	-0.104
-268.311	-8.824	-0.306	-0.204
-267.297	-94.388	-0.289	-0.078
-266.282	470.530	-0.084	0.189
-265.267	-200.000	0.027	-0.326
-264.253	-200.000	-0.038	0.171
-263.238	-85.946	-0.285	-0.088
-262.224	4.746	-0.121	-0.088
-261.209	-200.000	0.049	0.304
-260.195	362.188	0.147	0.293
-259.180	101.223	0.097	0.113
-258.165	-200.000	-0.017	-0.248
-257.151	144.952	-0.127	0.169
-256.136	-200.000	0.051	-0.309
-255.122	65.330	-0.055	0.055
-254.107	-160.338	-0.163	-0.009
-253.092	800.000	0.036	0.158
-252.078	75.790	-0.187	-0.196
-251.063	-200.000	0.068	-0.310
-250.049	-200.000	0.014	-0.105
-249.034	324.410	0.029	0.055
-248.019	194.455	-0.155	0.233
-247.005	-200.000	-0.008	0.217
-245.990	800.000	-0.046	-0.156
-244.976	-31.199	-0.359	0.201
-243.961	800.000	-0.034	-0.117
-242.946	57.092	-0.149	-0.145
-241.932	270.136	0.213	-0.372
-240.917	11.218	-0.100	0.076
-239.903	-89.067	0.350	-0.103
-238.888	-132.716	0.107	0.014
-237.873	154.382	-0.142	0.193
-236.859	800.000	0.048	0.196
-235.844	24.099	0.268	0.219
-234.830	115.019	0.053	-0.064
-233.815	-90.709	0.201	-0.058
-232.800	-105.723	0.136	0.030
-231.786	564.985	-0.141	-0.340
-230.771	3.961	-0.113	0.082
-229.757	-200.000	0.067	-0.297
-228.742	-200.000	-0.010	0.085
-227.727	-163.989	0.184	0.008
-226.713	-190.490	-0.213	-0.002
-225.698	-43.312	-0.123	-0.061
-224.684	627.269	-0.071	-0.179
-223.669	-16.957	0.381	0.239
-222.655	167.763	0.082	0.115
-221.640	431.153	-0.128	-0.274
-220.625	313.902	-0.066	-0.123
-219.611	-200.000	0.012	-0.107
-218.596	-171.541	0.282	0.009
-217.582	-92.237	-0.083	-0.023
-216.567	174.668	-0.046	-0.066
-215.552	190.720	-0.005	-0.008
-214.538	800.000	0.077	0.223
-213.523	12.281	-0.335	0.256
-212.509	336.573	0.092	0.176
-211.494	-39.650	-0.309	-0.160
-210.479	-183.144	0.215	-0.004
-209.465	-88.583	0.219	-0.065
-208.450	800.000	0.065	0.194
-207.436	800.000	-0.070	0.263
-206.421	-81.052	0.136	-0.045
-205.406	81.188	0.236	0.253
-204.392	29.846	0.363	0.306
-203.377	-166.318	-0.239	0.010
-202.363	38.813	0.046	0.040
-201.348	-160.741	-0.188	-0.010
-200.333	137.354	-0.083	-0.107
-199.319	-68.765	0.222	0.085
-198.304	301.542	0.104	-0.190
-197.290	-124.245	0.186	-0.029
-196.275	-10.899	0.178	0.116
-195.260	800.000	0.037	-0.138
-194.246	-200.000	0.042	0.348
-193.231	117.062	0.081	0.098
-192.217	-115.875	-0.190	-0.035
-191.202	226.338	0.218	0.351
-190.187	-200.000	0.023	-0.141
-189.173	52.507	0.313	0.296
-188.158	-66.379	0.227	0.090
-187.144	800.000	-0.096	-0.306
-186.129	87.598	0.074	-0.082
-185.114	144.844	-0.090	-0.119
-184.100	800.000	0.050	0.206
-183.085	16.113	0.288	-0.225
-182.071	-200.000	-0.001	0.034
-181.056	-21.286	-0.346	-0.209
-180.042	-147.955	-0.163	0.013
-179.027	-200.000	0.066	0.391
-178.012	95.665	0.069	0.078
-176.998	-200.000	0.005	0.287
-175.983	-200.000	-0.006	0.051
-174.969	800.000	-0.059	0.191
-173.954	-84.470	0.285	-0.089
-172.939	800.000	0.038	-0.136
-171.925	32.196	-0.391	0.334
-170.910	800.000	0.055	0.174
-169.896	-200.000	-0.065	-0.380
-168.881	-173.841	0.358	-0.010
-167.866	38.843	0.221	0.196
-166.852	-78.713	0.084	0.028
-165.837	-200.000	0.033	0.172
-164.823	-200.000	-0.007	0.203
-163.808	-200.000	0.056	0.471
-162.793	-99.621	0.416	-0.103
-161.779	-200.000	-0.003	-0.122
-160.764	-177.199	0.167	-0.004
-159.750	-30.240	0.186	-0.105
-158.735	-81.275	0.124	0.041
-157.720	210.022	0.097	0.151
-156.706	-134.252	-0.351	0.043
-155.691	-200.000	0.027	0.178
-154.677	56.825	-0.195	0.188
-153.662	-86.807	0.277	0.084
-152.647	-24.730	0.224	0.132
-151.633	6.459	-0.045	0.033
-150.618	-200.000	0.011	0.227
-149.604	99.219	-0.129	0.148
-148.589	-50.993	0.204	0.095
-147.574	-200.000	0.001	0.243
-146.560	-95.325	-0.308	0.082
-145.545	-200.000	-0.044	0.319
-144.531	-134.858	0.282	-0.034
-143.516	-75.546	0.212	-0.075
-142.502	-8.468	0.184	-0.122
-141.487	-138.784	0.272	0.029
-140.472	55.406	-0.322	0.308
-139.458	138.470	0.193	-0.250
-138.443	-200.000	-0.017	0.151
-137.429	97.954	0.076	0.087
-136.414	800.000	0.080	0.235
-135.399	-49.671	0.100	-0.047
-134.385	-50.885	0.187	0.087
-133.370	-10.192	0.157	-0.103
-132.356	-38.205	0.168	-0.088
-131.341	23.552	0.095	0.077
-130.326	-82.268	0.196	-0.063
-129.312	-98.783	-0.148	-0.037
-128.297	-93.109	0.168	-0.046
-127.283	-91.269	0.131	-0.037
-126.268	800.000	-0.035	-0.152
-125.253	-200.000	-0.008	0.205
-124.239	-84.897	-0.091	-0.028
-123.224	-88.484	0.168	0.049
-122.210	-39.001	0.303	-0.157
-121.195	-152.247	-0.252	0.018
