DTS Sentinel unit serial number:	SN413079Multiplexer serial number:	ORYXHardware model number:	OX4-SRSoftware version number:	ORYX F/W v4.00 Oryx Data Collector v3.7.2.0data status	okinstallation	princeton_trtdifferential loss correction	single-endedforward channel	channel 3reverse channel	N/Adate	2019/09/11time	13:26:11forward acquisition time	60.00reverse acquisition time	0.00gamma	496.2192k internal	0.2293k external	0.2293temperature offset calibration	0.9978default loss term (dB/km)	0.3790temperature slope calibration	1.0000multiplexer offset coefficient	1.0000multiplexer slope coefficient	1.0000fibre end	0.00T internal ref (°C)	41.94T ext. ref 1 (°C)	0.84T ext. ref 2 (°C)	36.58length (m)	temperature (°C)	Stokes	anti-Stokes-747.200	326.497	0.032	0.063
-746.185	-200.000	-0.074	0.377
-745.171	51.804	-0.132	0.129
-744.156	-200.000	-0.021	-0.144
-743.142	740.777	0.069	0.189
-742.127	341.310	-0.121	-0.241
-741.112	-200.000	0.003	-0.077
-740.098	-78.120	0.136	0.048
-739.083	268.683	0.220	0.395
-738.069	-200.000	-0.012	0.055
-737.054	-64.097	-0.322	-0.134
-736.039	496.298	0.104	0.244
-735.025	-200.000	0.024	0.124
-734.010	-41.525	0.085	0.045
-732.996	800.000	0.054	0.188
-731.981	-200.000	-0.024	0.330
-730.966	-38.192	-0.117	0.063
-729.952	217.651	0.096	0.157
-728.937	10.923	0.204	-0.159
-727.923	31.265	0.099	-0.087
-726.908	-29.390	0.124	-0.073
-725.894	73.300	-0.136	-0.145
-724.879	527.215	-0.064	-0.155
-723.864	-78.709	-0.120	0.042
-722.850	10.258	0.126	0.098
-721.835	-84.319	0.094	0.030
-720.821	-56.852	0.108	-0.049
-719.806	-93.583	0.039	-0.011
-718.791	-200.000	0.024	-0.154
-717.777	-97.072	0.309	-0.083
-716.762	-129.228	-0.235	-0.034
-715.748	-200.000	-0.025	-0.136
-714.733	-123.289	0.184	-0.030
-713.718	800.000	0.092	0.395
-712.704	-30.977	0.091	-0.052
-711.689	800.000	-0.048	0.162
-710.675	-51.356	-0.147	-0.070
-709.660	294.540	0.098	-0.183
-708.645	-23.427	0.227	0.140
-707.631	82.451	0.117	0.130
-706.616	148.529	-0.047	-0.065
-705.602	-133.136	-0.186	-0.024
-704.587	127.317	0.096	-0.125
-703.572	-26.264	-0.237	0.142
-702.558	-150.402	0.244	0.019
-701.543	-108.524	-0.043	-0.009
-700.529	455.969	0.039	0.089
-699.514	16.178	-0.232	0.187
-698.499	209.394	-0.078	-0.125
-697.485	102.796	0.172	0.205
-696.470	202.538	0.105	0.165
-695.456	-200.000	0.073	0.337
-694.441	800.000	0.099	0.280
-693.426	-80.751	-0.150	0.051
-692.412	-89.950	-0.278	0.083
-691.397	224.147	-0.051	-0.084
-690.383	-80.247	-0.151	-0.051
-689.368	311.348	0.093	0.179
-688.354	-81.694	-0.324	0.108
-687.339	106.204	-0.059	-0.071
-686.324	-95.604	-0.165	-0.045
-685.310	28.825	-0.106	-0.091
-684.295	-61.666	-0.329	-0.141
-683.281	-30.012	0.183	0.106
-682.266	36.059	-0.359	0.323
-681.251	-61.901	0.351	-0.150
-680.237	82.613	-0.120	0.133
-679.222	-42.967	0.086	0.045
-678.208	-114.961	-0.092	0.018
-677.193	800.000	-0.096	0.302
-676.178	-114.968	-0.257	0.050
-675.164	11.951	0.226	-0.177
-674.149	-68.485	0.197	-0.078
-673.135	-158.202	-0.279	-0.017
-672.120	-147.844	-0.324	-0.028
-671.105	800.000	0.014	0.042
-670.091	139.271	0.171	-0.230
-669.076	-99.323	0.284	-0.073
-668.062	75.309	-0.135	-0.145
-667.047	-94.883	-0.124	0.034
-666.032	-107.314	0.149	-0.034
-665.018	-111.957	0.169	0.035
-664.003	-147.425	-0.313	0.027
-662.989	-63.045	0.144	-0.061
-661.974	-73.980	0.323	-0.120
-660.959	-5.593	-0.098	-0.069
-659.945	198.629	0.140	0.219
-658.930	162.678	0.230	0.329
-657.916	79.932	0.143	-0.157
-656.901	-200.000	0.006	-0.243
-655.886	-60.795	0.081	-0.035
-654.872	360.040	-0.174	0.355
-653.857	-147.142	-0.481	0.042
-652.843	-200.000	0.027	-0.218
-651.828	-200.000	0.026	-0.324
-650.814	-65.988	-0.108	-0.044
-649.799	-81.478	-0.532	0.179
-648.784	-69.153	-0.275	0.108
-647.770	69.824	-0.173	0.182
-646.755	210.081	0.046	0.074
-645.741	-72.799	-0.192	0.072
-644.726	-200.000	-0.015	0.079
-643.711	-104.876	0.141	-0.033
-642.697	-15.823	-0.045	-0.029
-641.682	-111.867	-0.332	-0.068
-640.668	44.247	-0.176	0.164
-639.653	70.514	0.220	-0.231
-638.638	417.760	-0.054	0.117
-637.624	-93.501	-0.190	-0.054
-636.609	64.429	0.192	0.197
-635.595	-44.879	0.186	-0.094
-634.580	-200.000	-0.010	0.189
-633.565	-157.573	0.175	-0.011
-632.551	-137.604	0.204	0.023
-631.536	-200.000	0.058	0.380
-630.522	-200.000	-0.015	0.103
-629.507	-38.631	0.029	0.016
-628.492	-200.000	0.010	-0.073
-627.478	-47.256	0.068	-0.034
-626.463	-48.408	0.169	-0.083
-625.449	-156.114	0.300	0.019
-624.434	-200.000	0.038	-0.193
-623.419	-129.926	0.382	-0.053
-622.405	-37.283	0.170	-0.092
-621.390	-30.782	-0.174	0.100
-620.376	-132.822	-0.222	0.029
-619.361	137.604	0.132	0.176
-618.346	-186.780	0.058	0.001
-617.332	800.000	-0.039	-0.129
-616.317	-115.985	-0.196	-0.037
-615.303	-82.656	-0.120	-0.040
-614.288	-0.472	-0.253	-0.183
-613.273	117.544	0.072	-0.090
-612.259	800.000	0.035	0.117
-611.244	108.277	0.073	0.089
-610.230	229.880	-0.083	0.139
-609.215	-74.979	0.162	-0.059
-608.201	-200.000	0.006	-0.232
-607.186	-108.754	0.114	-0.025
-606.171	-85.795	-0.185	0.058
-605.157	137.289	-0.124	0.165
-604.142	-137.809	-0.296	0.034
-603.128	-49.009	-0.118	0.058
-602.113	25.901	-0.112	-0.095
-601.098	-110.232	0.097	0.020
-600.084	31.213	-0.132	0.115
-599.069	-200.000	0.081	-0.498
-598.055	-200.000	-0.009	-0.207
-597.040	-200.000	0.036	-0.174
-596.025	106.387	-0.262	-0.316
-595.011	-133.977	-0.116	-0.015
-593.996	-26.563	-0.487	0.290
-592.982	648.758	-0.106	-0.277
-591.967	64.972	0.170	-0.174
-590.952	275.424	0.119	-0.215
-589.938	-46.460	-0.357	-0.178
-588.923	-106.274	-0.254	0.058
-587.909	-200.000	-0.023	-0.107
-586.894	-200.000	0.032	0.281
-585.879	574.907	0.033	-0.081
-584.865	76.476	-0.085	-0.091
-583.850	22.326	0.061	0.051
-582.836	-41.647	-0.313	-0.164
-581.821	-85.345	0.152	0.048
-580.806	2.971	0.301	0.222
-579.792	36.413	-0.012	0.010
-578.777	81.710	0.157	0.172
-577.763	107.331	-0.086	-0.104
-576.748	-155.874	-0.062	0.004
-575.733	59.396	0.101	-0.101
-574.719	-200.000	0.058	0.267
-573.704	279.722	-0.110	-0.199
-572.690	800.000	0.152	0.558
-571.675	-200.000	0.003	0.137
-570.661	-132.813	-0.417	0.054
-569.646	-58.516	0.139	0.061
-568.631	-15.236	-0.217	-0.141
-567.617	-180.566	-0.273	0.006
-566.602	-27.238	0.249	-0.147
-565.588	-159.696	0.429	-0.024
-564.573	29.011	0.178	0.154
-563.558	-117.729	0.378	-0.069
-562.544	-46.215	-0.206	0.103
-561.529	-200.000	0.081	0.386
-560.515	33.670	-0.095	-0.084
-559.500	-98.499	0.389	0.101
-558.485	-62.084	-0.341	-0.145
-557.471	-125.369	-0.122	0.019
-556.456	5.084	-0.112	0.084
-555.442	-200.000	-0.001	0.374
-554.427	-74.112	-0.138	-0.051
-553.412	37.956	0.290	-0.262
-552.398	-82.715	0.143	-0.047
-551.383	399.371	0.018	0.039
-550.369	-200.000	-0.108	-0.610
-549.354	-35.428	0.216	0.119
-548.339	-74.675	-0.123	-0.045
-547.325	189.731	-0.073	0.111
-546.310	-141.501	0.156	0.016
-545.296	286.035	-0.032	-0.058
-544.281	-200.000	0.014	-0.159
-543.266	33.633	-0.096	0.085
-542.252	-51.377	0.343	0.163
-541.237	77.345	-0.067	-0.072
-540.223	-161.689	0.378	0.020
-539.208	66.726	0.222	-0.229
-538.193	-14.045	0.234	0.153
-537.179	189.642	0.090	-0.138
-536.164	-94.488	0.322	0.089
-535.150	130.913	-0.137	-0.178
-534.135	454.469	-0.134	-0.301
-533.121	53.364	-0.267	-0.260
-532.106	494.602	-0.116	0.269
-531.091	207.079	0.056	-0.088
-530.077	-149.967	-0.285	0.023
-529.062	184.547	-0.043	-0.065
-528.048	-175.962	-0.159	-0.004
-527.033	-23.377	-0.296	0.180
-526.018	-200.000	0.010	0.127
-525.004	-55.592	-0.318	0.145
-523.989	0.545	-0.254	-0.184
-522.975	295.197	0.218	0.404
-521.960	800.000	0.071	-0.254
-520.945	-200.000	-0.007	0.214
-519.931	-200.000	-0.004	0.129
-518.916	-49.529	0.191	-0.092
-517.902	-200.000	-0.039	0.227
-516.887	139.142	-0.082	0.109
-515.872	275.792	0.167	0.300
-514.858	-131.457	0.273	-0.037
-513.843	-72.209	-0.094	0.035
-512.829	-69.970	-0.170	0.066
-511.814	68.727	0.138	0.144
-510.799	114.441	0.266	-0.328
-509.785	-10.879	0.138	0.092
-508.770	800.000	0.035	-0.102
-507.756	-200.000	0.018	-0.222
-506.741	-200.000	-0.038	-0.203
-505.726	-107.569	0.078	0.017
-504.712	247.448	-0.111	0.189
-503.697	-200.000	0.093	0.485
-502.683	-109.120	0.220	0.047
-501.668	319.300	0.096	0.184
-500.653	-67.578	-0.265	0.105
-499.639	-200.000	-0.002	-0.149
-498.624	-12.444	-0.031	-0.021
-497.610	-19.042	-0.227	-0.143
-496.595	-200.000	-0.008	-0.151
-495.581	140.643	0.209	0.280
-494.566	129.948	0.107	-0.139
-493.551	183.952	-0.175	-0.262
-492.537	-16.482	-0.160	0.103
-491.522	-45.841	-0.056	-0.028
-490.508	-200.000	0.061	-0.355
-489.493	-133.307	-0.324	0.041
-488.478	157.477	-0.038	0.053
-487.464	-200.000	-0.006	0.057
-486.449	-41.898	-0.192	0.100
-485.435	17.089	-0.175	0.140
-484.420	-43.787	0.236	0.120
-483.405	800.000	0.042	-0.133
-482.391	-156.857	0.130	0.008
-481.376	-95.820	0.249	0.067
-480.362	-200.000	0.008	0.226
-479.347	-67.435	0.128	0.051
-478.332	-41.787	0.093	-0.048
-477.318	172.306	-0.143	0.209
-476.303	-200.000	0.002	-0.108
-475.289	-66.880	0.346	-0.139
-474.274	-67.548	-0.221	-0.088
-473.259	43.713	-0.336	-0.312
-472.245	-28.188	-0.299	-0.175
-471.230	-4.848	-0.161	0.112
-470.216	-140.073	0.249	0.026
-469.201	-153.718	-0.322	0.022
-468.186	-124.274	-0.056	0.009
-467.172	94.810	0.408	-0.470
-466.157	-200.000	0.009	0.098
-465.143	800.000	-0.059	0.221
-464.128	629.666	0.181	0.463
-463.113	452.986	-0.059	-0.132
-462.099	-200.000	0.015	-0.348
-461.084	578.097	0.071	0.175
-460.070	-80.345	-0.148	0.050
-459.055	391.189	0.196	-0.413
-458.040	-74.447	0.207	-0.075
-457.026	176.749	0.163	-0.240
-456.011	-200.000	-0.000	-0.039
-454.997	-177.748	-0.177	0.004
-453.982	-101.054	-0.205	0.051
-452.968	-186.826	-0.345	-0.005
-451.953	285.642	0.045	0.082
-450.938	-191.953	-0.198	0.002
-449.924	-133.358	0.099	0.013
-448.909	-200.000	-0.007	-0.117
-447.895	-2.041	0.276	-0.196
-446.880	800.000	-0.044	-0.127
-445.865	-70.234	0.337	0.130
-444.851	-104.248	-0.216	-0.051
-443.836	80.228	0.220	0.239
-442.822	-141.033	-0.395	0.041
-441.807	76.216	-0.296	-0.317
-440.792	-105.758	0.133	0.030
-439.778	-200.000	-0.040	-0.197
-438.763	293.572	0.084	0.155
-437.749	-3.199	-0.323	-0.228
-436.734	249.599	-0.174	-0.298
-435.719	800.000	0.045	-0.157
-434.705	-200.000	0.033	0.215
-433.690	454.779	-0.132	-0.297
-432.676	0.520	-0.307	-0.222
-431.661	195.719	-0.113	-0.173
-430.646	-53.525	0.054	0.025
-429.632	-132.977	0.195	0.025
-428.617	-200.000	0.016	0.083
-427.603	371.135	0.091	-0.187
-426.588	-200.000	-0.023	-0.150
-425.573	212.408	0.152	-0.243
-424.559	-11.335	0.089	0.059
-423.544	-3.226	-0.363	0.255
-422.530	800.000	-0.016	0.049
-421.515	-200.000	0.018	0.283
-420.500	283.900	0.216	-0.393
-419.486	80.476	-0.134	-0.146
-418.471	800.000	-0.087	0.273
-417.457	-38.834	-0.159	0.085
-416.442	654.400	-0.069	0.180
-415.428	40.664	-0.205	0.187
-414.413	515.796	-0.104	0.246
-413.398	-200.000	-0.020	-0.115
-412.384	-4.993	0.244	-0.169
-411.369	800.000	0.107	0.461
-410.355	314.298	0.114	0.216
-409.340	20.607	0.336	-0.275
-408.325	144.705	0.081	-0.109
-407.311	-89.993	-0.148	0.044
-406.296	800.000	0.038	-0.116
-405.282	47.050	-0.120	0.112
-404.267	-30.754	0.126	0.072
-403.252	-51.730	-0.091	0.043
-402.238	-16.736	-0.224	-0.143
-401.223	-66.558	0.198	-0.079
-400.209	-200.000	-0.020	-0.340
-399.194	132.323	-0.055	-0.072
-398.179	-104.502	-0.215	-0.050
-397.165	47.689	-0.150	0.142
-396.150	-170.739	-0.251	-0.009
-395.136	-122.891	0.181	-0.029
-394.121	-158.009	-0.317	-0.019
-393.106	263.593	0.216	0.379
-392.092	800.000	0.064	0.189
-391.077	-79.581	0.128	-0.044
-390.063	-82.135	0.305	0.100
-389.048	-145.228	-0.170	0.016
-388.033	-200.000	0.016	0.410
-387.019	-2.073	0.253	-0.179
-386.004	715.715	-0.137	-0.367
-384.990	-163.188	0.164	0.008
-383.975	-162.145	-0.156	0.008
-382.960	-37.399	-0.242	-0.130
-381.946	-19.565	-0.035	-0.022
-380.931	-30.368	-0.297	-0.170
-379.917	194.050	0.116	-0.177
-378.902	14.288	0.127	-0.100
-377.888	73.877	0.192	0.203
-376.873	800.000	-0.062	-0.217
-375.858	-82.302	0.049	0.016
-374.844	-169.838	0.358	0.013
-373.829	88.898	0.155	-0.174
-372.815	-27.495	0.365	-0.214
-371.800	34.590	-0.313	0.276
-370.785	-200.000	-0.004	0.025
-369.771	635.347	-0.062	-0.158
-368.756	-21.001	0.214	-0.132
-367.742	-200.000	0.023	0.177
-366.727	-55.646	-0.270	-0.122
-365.712	800.000	0.023	-0.088
-364.698	-200.000	0.021	0.113
-363.683	79.005	-0.156	-0.168
-362.669	-68.906	0.088	0.034
-361.654	-46.755	-0.087	-0.043
-360.639	124.160	-0.202	-0.256
-359.625	-200.000	0.013	0.351
-358.610	-200.000	-0.018	0.528
-357.596	-200.000	0.047	-0.414
-356.581	-123.854	0.336	0.053
-355.566	122.318	-0.027	-0.034
-354.552	-148.639	0.041	0.003
-353.537	444.006	0.047	-0.105
-352.523	-199.960	-0.343	0.002
-351.508	28.780	-0.028	0.024
-350.493	-200.000	-0.014	0.145
-349.479	80.658	-0.204	-0.222
-348.464	65.589	-0.080	-0.081
-347.450	-200.000	0.072	-0.348
-346.435	-74.151	0.270	-0.098
-345.420	-158.636	0.182	0.011
-344.406	-12.233	0.258	-0.170
-343.391	-54.758	-0.128	-0.058
-342.377	800.000	0.012	0.044
-341.362	84.450	0.075	-0.083
-340.348	357.458	0.178	-0.357
-339.333	-141.961	-0.469	-0.047
-338.318	-200.000	0.072	0.422
-337.304	103.980	0.105	0.124
-336.289	678.707	-0.106	0.278
-335.275	186.537	-0.047	0.071
-334.260	-200.000	0.002	0.068
-333.245	58.558	-0.034	-0.034
-332.231	-28.229	0.146	-0.085
-331.216	23.762	-0.096	-0.080
-330.202	-200.000	0.005	0.099
-329.187	11.910	-0.304	0.235
-328.172	128.185	-0.189	-0.242
-327.158	-107.334	0.174	-0.038
-326.143	-166.546	-0.104	-0.004
-325.129	634.121	-0.024	-0.061
-324.114	-137.185	0.162	0.019
-323.099	-174.220	-0.295	0.009
-322.085	-200.000	0.018	0.374
-321.070	-126.226	0.127	-0.019
-320.056	-200.000	-0.046	0.240
-319.041	177.784	-0.062	0.091
-318.026	56.102	-0.033	-0.033
-317.012	71.365	0.220	-0.230
-315.997	-17.341	-0.153	-0.097
-314.983	-200.000	0.001	-0.284
-313.968	74.878	0.041	0.043
-312.953	800.000	-0.089	0.341
-311.939	-121.951	-0.309	0.051
-310.924	-200.000	0.017	0.106
-309.910	14.507	0.148	-0.116
-308.895	-113.978	0.283	-0.055
-307.880	84.814	0.039	-0.043
-306.866	-185.724	0.136	-0.002
-305.851	-65.322	-0.500	-0.202
-304.837	152.198	-0.203	0.279
-303.822	-55.608	0.173	0.078
-302.807	108.334	-0.053	0.064
-301.793	-92.423	-0.367	0.104
-300.778	157.546	-0.171	-0.238
-299.764	-200.000	0.050	-0.246
-298.749	-138.554	0.168	0.019
-297.735	395.103	-0.100	0.211
-296.720	-116.684	-0.429	-0.079
-295.705	-78.718	-0.393	-0.135
-294.691	11.084	0.227	0.175
-293.676	-200.000	-0.012	0.783
-292.662	-150.913	0.183	-0.014
-291.647	165.717	-0.006	0.009
-290.632	-74.602	-0.359	0.130
-289.618	-95.405	-0.275	0.074
-288.603	419.624	-0.043	0.092
-287.589	-200.000	-0.061	0.392
-286.574	101.295	0.252	0.295
-285.559	-102.898	-0.153	0.036
-284.545	79.797	-0.227	-0.245
-283.530	302.450	0.111	-0.206
-282.516	69.139	-0.083	0.086
-281.501	116.924	0.085	-0.105
-280.486	64.939	0.038	0.038
-279.472	-200.000	-0.011	0.193
-278.457	-91.989	0.313	0.089
-277.443	321.027	-0.039	-0.075
-276.428	-3.382	-0.116	0.081
-275.413	163.764	-0.142	0.201
-274.399	271.972	0.075	0.133
-273.384	-92.266	0.222	-0.063
-272.370	-200.000	-0.027	0.146
-271.355	122.662	-0.288	0.362
-270.340	-105.249	-0.071	0.016
-269.326	-200.000	0.006	0.089
-268.311	-51.105	0.091	-0.043
-267.297	-22.069	0.292	0.178
-266.282	86.064	0.160	-0.177
-265.267	-131.108	-0.043	0.006
-264.253	-149.070	-0.076	0.006
-263.238	-200.000	0.012	-0.308
-262.224	-142.225	0.108	0.011
-261.209	-98.203	0.135	0.035
-260.195	-37.509	-0.084	-0.045
-259.180	-134.856	0.179	0.022
-258.165	-200.000	0.006	0.141
-257.151	147.185	0.254	-0.343
-256.136	151.211	-0.198	0.271
-255.122	37.246	0.332	-0.295
-254.107	-60.263	0.096	-0.041
-253.092	800.000	0.076	-0.287
-252.078	110.982	0.186	-0.225
-251.063	800.000	-0.041	0.168
-250.049	-14.522	-0.193	-0.124
-249.034	163.971	-0.244	-0.344
-248.019	-65.676	-0.113	-0.045
-247.005	144.169	0.097	-0.130
-245.990	677.849	0.014	0.038
-244.976	-140.262	0.158	0.017
-243.961	800.000	0.063	-0.178
-242.946	-200.000	-0.017	-0.090
-241.932	42.743	-0.037	-0.034
-240.917	221.839	0.274	0.441
-239.903	800.000	0.047	-0.134
-238.888	-200.000	-0.016	0.295
-237.873	72.143	-0.055	-0.057
-236.859	-68.106	-0.239	0.093
-235.844	-2.852	-0.167	-0.117
-234.830	78.674	0.220	0.235
-233.815	-200.000	0.038	0.182
-232.800	168.186	-0.085	-0.121
-231.786	-200.000	0.000	0.037
-230.771	-67.591	-0.133	0.052
-229.757	75.193	0.139	-0.147
-228.742	800.000	0.049	0.175
-227.727	-32.898	0.451	-0.251
-226.713	-121.315	-0.284	0.048
-225.698	762.338	-0.079	-0.215
-224.684	54.745	-0.123	-0.119
-223.669	-27.335	0.283	-0.165
-222.655	6.483	0.225	0.168
-221.640	-133.619	0.273	0.034
-220.625	-200.000	0.029	0.465
-219.611	800.000	0.087	0.259
-218.596	403.630	-0.068	-0.143
-217.582	23.864	0.098	-0.081
-216.567	56.951	0.216	-0.211
-215.552	-136.309	-0.213	-0.025
-214.538	61.987	0.132	-0.132
-213.523	165.114	-0.196	0.277
-212.509	98.213	0.260	0.300
-211.494	-44.465	-0.197	0.099
-210.479	-200.000	-0.052	-0.284
-209.465	333.598	0.223	0.432
-208.450	-69.432	0.393	0.151
-207.436	77.774	-0.049	0.053
-206.421	-200.000	-0.082	-0.404
-205.406	-80.648	-0.227	-0.076
-204.392	-133.002	-0.108	0.014
-203.377	-25.080	0.209	-0.124
-202.363	376.278	0.114	0.232
-201.348	498.149	0.116	0.268
-200.333	10.746	0.139	0.106
-199.319	-51.563	0.159	-0.074
-198.304	-156.664	-0.092	-0.006
-197.290	-124.692	0.090	-0.014
-196.275	-200.000	0.060	-0.374
-195.260	-65.398	-0.296	0.119
-194.246	22.193	-0.348	-0.285
-193.231	800.000	0.055	0.157
-192.217	-200.000	0.070	-0.357
-191.202	38.091	-0.230	0.205
-190.187	800.000	0.054	-0.237
-189.173	-150.946	0.137	-0.010
-188.158	-6.062	-0.212	0.145
-187.144	-128.449	0.113	0.016
-186.129	117.883	-0.030	0.037
-185.114	557.725	-0.117	-0.283
-184.100	-135.188	-0.327	-0.039
-183.085	-128.684	0.184	-0.026
-182.071	292.193	0.096	0.174
-181.056	800.000	0.135	-0.389
-180.042	419.559	0.154	0.330
-179.027	-200.000	-0.015	-0.188
-178.012	73.136	0.132	-0.138
-176.998	80.753	0.114	0.123
-175.983	-3.596	0.033	-0.023
-174.969	-104.762	0.359	-0.083
-173.954	143.940	-0.086	0.115
-172.939	-200.000	-0.015	-0.113
-171.925	213.149	0.034	0.054
-170.910	-84.824	0.371	0.117
-169.896	57.600	0.140	-0.137
-168.881	-170.780	0.211	-0.007
-167.866	675.037	0.080	0.209
-166.852	343.363	0.139	-0.273
-165.837	28.247	0.067	0.056
-164.823	-200.000	-0.018	0.267
-163.808	231.369	-0.098	-0.160
-162.793	142.884	0.196	0.260
-161.779	119.424	0.130	-0.161
-160.764	-59.850	-0.275	0.118
-159.750	255.505	0.122	0.210
-158.735	225.490	0.225	-0.365
-157.720	-200.000	-0.014	-0.185
-156.706	82.115	0.215	0.233
-155.691	-82.677	-0.327	0.106
-154.677	-74.720	0.327	0.117
-153.662	-200.000	-0.026	-0.146
-152.647	-200.000	-0.034	0.364
-151.633	702.247	-0.018	-0.046
-150.618	800.000	0.049	0.157
-149.604	-52.772	0.243	0.112
-148.589	201.748	0.152	0.234
-147.574	-50.126	-0.099	-0.047
-146.560	358.409	0.101	0.202
-145.545	294.440	-0.044	-0.080
-144.531	-38.957	-0.253	0.133
-143.516	-136.154	-0.127	0.015
-142.502	116.054	0.228	0.279
-141.487	-200.000	-0.010	0.066
-140.472	170.250	-0.056	-0.080
-139.458	800.000	0.058	0.212
-138.443	-200.000	0.004	-0.106
-137.429	68.813	0.110	-0.112
-136.414	-200.000	0.018	0.145
-135.399	-111.160	-0.190	0.039
-134.385	-74.507	-0.065	-0.023
-133.370	-200.000	0.011	-0.161
-132.356	90.390	0.069	0.077
-131.341	-200.000	0.049	-0.334
-130.326	12.883	0.052	0.040
-129.312	418.176	-0.063	-0.134
-128.297	-117.977	0.295	0.053
-127.283	204.477	-0.143	0.221
-126.268	-48.121	0.150	-0.072
-125.253	289.165	0.089	0.162
-124.239	800.000	-0.031	0.087
-123.224	280.699	-0.193	0.345
-122.210	-86.226	0.493	-0.152
-121.195	231.253	-0.110	-0.180
