DTS Sentinel unit serial number:	SN413079Multiplexer serial number:	ORYXHardware model number:	OX4-SRSoftware version number:	ORYX F/W v4.00 Oryx Data Collector v3.7.2.0data status	okinstallation	princeton_trtdifferential loss correction	single-endedforward channel	channel 3reverse channel	N/Adate	2019/09/11time	06:22:10forward acquisition time	60.00reverse acquisition time	0.00gamma	496.2192k internal	0.2330k external	0.2330temperature offset calibration	0.9905default loss term (dB/km)	0.3790temperature slope calibration	1.0000multiplexer offset coefficient	1.0000multiplexer slope coefficient	1.0000fibre end	0.00T internal ref (°C)	29.55T ext. ref 1 (°C)	-0.20T ext. ref 2 (°C)	24.01length (m)	temperature (°C)	Stokes	anti-Stokes-747.200	659.136	0.090	-0.232
-746.185	-104.608	0.179	0.042
-745.171	80.427	-0.198	0.214
-744.156	-65.339	-0.407	0.165
-743.142	15.119	0.150	-0.119
-742.127	91.733	-0.131	0.148
-741.112	74.146	-0.058	0.061
-740.098	373.484	-0.080	-0.163
-739.083	-81.205	0.328	-0.109
-738.069	222.663	0.135	0.219
-737.054	-11.636	-0.076	-0.050
-736.039	254.248	0.049	-0.085
-735.025	-200.000	-0.032	0.315
-734.010	-72.094	-0.190	-0.071
-732.996	800.000	-0.084	0.354
-731.981	-106.376	0.302	0.068
-730.966	48.223	-0.294	-0.277
-729.952	21.839	0.109	-0.089
-728.937	177.270	0.191	0.280
-727.923	-200.000	0.039	-0.342
-726.908	800.000	-0.038	-0.156
-725.894	-30.731	-0.342	0.194
-724.879	800.000	0.049	0.141
-723.864	-200.000	0.002	-0.327
-722.850	-200.000	-0.061	-0.273
-721.835	-188.543	0.367	-0.005
-720.821	116.255	-0.215	0.265
-719.806	260.711	0.141	0.246
-718.791	44.581	-0.261	0.241
-717.777	229.682	0.139	-0.229
-716.762	-200.000	-0.042	-0.315
-715.748	124.961	0.100	0.127
-714.733	38.403	0.199	-0.178
-713.718	800.000	0.041	-0.119
-712.704	-48.154	0.118	0.057
-711.689	17.900	0.194	-0.156
-710.675	-200.000	0.033	0.154
-709.660	-104.627	-0.289	-0.067
-708.645	152.299	-0.109	-0.149
-707.631	-200.000	-0.063	0.344
-706.616	170.638	-0.274	-0.395
-705.602	-200.000	-0.004	0.132
-704.587	-200.000	-0.009	0.050
-703.572	-71.346	0.217	0.082
-702.558	224.742	-0.130	-0.212
-701.543	-153.399	-0.185	-0.013
-700.529	137.576	-0.119	-0.156
-699.514	119.391	-0.118	-0.147
-698.499	217.872	0.155	-0.248
-697.485	47.844	-0.285	-0.268
-696.470	6.974	0.085	-0.063
-695.456	52.902	-0.077	0.074
-694.441	-200.000	-0.021	0.114
-693.426	-200.000	-0.008	-0.084
-692.412	-200.000	0.014	-0.092
-691.397	227.473	0.134	0.219
-690.383	800.000	0.046	0.162
-689.368	800.000	-0.040	0.168
-688.354	800.000	0.047	0.181
-687.339	-55.762	0.157	-0.071
-686.324	800.000	0.064	-0.180
-685.310	-0.960	0.159	-0.113
-684.295	-47.447	-0.115	-0.056
-683.281	275.039	-0.136	-0.243
-682.266	-49.602	-0.318	-0.152
-681.251	14.681	-0.161	-0.126
-680.237	-3.056	-0.100	0.070
-679.222	-116.999	0.172	0.032
-678.208	276.212	-0.040	-0.070
-677.193	-94.517	-0.061	-0.017
-676.178	263.955	-0.040	-0.070
-675.164	-200.000	-0.023	0.108
-674.149	-200.000	0.042	-0.213
-673.135	-158.043	0.389	-0.023
-672.120	-56.858	0.184	0.082
-671.105	-13.418	-0.308	0.200
-670.091	341.412	0.115	-0.226
-669.076	212.659	-0.078	-0.124
-668.062	-119.256	-0.122	-0.021
-667.047	-37.409	-0.241	-0.129
-666.032	65.705	0.217	-0.221
-665.018	-200.000	-0.011	-0.194
-664.003	-39.122	-0.270	-0.143
-662.989	-53.216	-0.061	-0.028
-661.974	-200.000	-0.049	0.240
-660.959	0.145	0.087	-0.062
-659.945	219.680	-0.093	0.150
-658.930	-2.347	0.167	0.117
-657.916	800.000	-0.116	-0.341
-656.901	188.225	-0.172	-0.258
-655.886	375.059	-0.142	0.289
-654.872	800.000	0.072	0.222
-653.857	-15.318	-0.092	0.059
-652.843	-84.938	-0.569	-0.179
-651.828	85.738	-0.211	0.232
-650.814	173.003	-0.347	-0.501
-649.799	389.360	0.049	0.102
-648.784	179.527	0.155	0.227
-647.770	-25.920	-0.359	0.212
-646.755	86.662	0.192	-0.212
-645.741	800.000	-0.037	-0.123
-644.726	17.948	0.186	-0.149
-643.711	-200.000	-0.012	0.168
-642.697	564.828	0.119	-0.289
-641.682	-200.000	-0.024	-0.165
-640.668	175.946	-0.125	0.182
-639.653	-104.149	0.173	0.040
-638.638	-64.338	0.013	0.005
-637.624	685.063	0.047	0.122
-636.609	-9.503	-0.153	0.102
-635.595	-69.208	-0.085	-0.033
-634.580	-11.894	0.511	0.336
-633.565	64.946	-0.099	0.100
-632.551	-127.863	-0.234	0.034
-631.536	-176.068	-0.304	-0.008
-630.522	677.900	-0.139	-0.363
-629.507	800.000	-0.185	-0.536
-628.492	97.363	0.133	0.153
-627.478	-12.112	0.141	0.092
-626.463	131.871	-0.095	-0.123
-625.449	-200.000	-0.007	0.071
-624.434	146.250	0.122	0.164
-623.419	-200.000	0.034	0.285
-622.405	-200.000	-0.004	0.190
-621.390	800.000	0.071	-0.230
-620.376	-9.858	-0.197	-0.132
-619.361	-65.121	0.210	-0.085
-618.346	-200.000	0.021	0.500
-617.332	36.936	-0.044	0.039
-616.317	-53.937	-0.059	0.027
-615.303	-200.000	0.046	0.289
-614.288	7.293	-0.148	-0.111
-613.273	-136.547	-0.076	-0.009
-612.259	117.184	0.183	0.225
-611.244	112.494	0.115	-0.139
-610.230	88.046	-0.166	-0.184
-609.215	7.372	-0.055	-0.041
-608.201	-200.000	0.035	0.163
-607.186	-82.929	0.269	-0.087
-606.171	158.761	-0.074	0.102
-605.157	800.000	-0.059	0.183
-604.142	-94.076	-0.195	-0.054
-603.128	-117.930	-0.101	-0.018
-602.113	-137.800	0.119	0.013
-601.098	305.422	0.122	-0.227
-600.084	-112.893	-0.174	0.034
-599.069	-152.020	0.069	0.005
-598.055	291.656	0.116	-0.211
-597.040	303.790	-0.083	0.153
-596.025	-133.646	0.132	0.016
-595.011	-82.346	0.243	0.079
-593.996	632.811	-0.149	0.377
-592.982	-115.245	-0.091	0.017
-591.967	-102.468	0.054	-0.013
-590.952	-200.000	0.016	-0.199
-589.938	-68.035	-0.027	0.011
-588.923	-83.960	-0.398	-0.127
-587.909	254.359	0.102	-0.174
-586.894	10.590	0.231	-0.176
-585.879	-54.846	0.179	0.081
-584.865	-200.000	0.002	-0.150
-583.850	653.600	-0.115	-0.295
-582.836	800.000	0.064	0.179
-581.821	-200.000	-0.011	-0.153
-580.806	-39.667	0.209	0.110
-579.792	120.042	-0.214	-0.266
-578.777	-2.224	0.113	-0.079
-577.763	230.064	-0.065	0.106
-576.748	-13.064	0.452	-0.294
-575.733	140.832	-0.166	-0.220
-574.719	-97.068	0.024	0.006
-573.704	-156.473	-0.074	-0.005
-572.690	800.000	-0.021	-0.073
-571.675	-200.000	0.160	0.000
-570.661	800.000	-0.066	-0.228
-569.646	800.000	-0.047	-0.130
-568.631	80.464	0.077	-0.083
-567.617	150.848	0.221	-0.301
-566.602	-140.330	-0.241	0.025
-565.588	24.465	-0.266	-0.220
-564.573	-131.105	0.290	-0.039
-563.558	-200.000	-0.022	0.209
-562.544	251.548	0.195	0.332
-561.529	336.582	0.070	-0.136
-560.515	-60.220	-0.158	0.067
-559.500	172.399	-0.137	0.197
-558.485	53.750	-0.079	-0.075
-557.471	-200.000	-0.005	0.063
-556.456	176.180	0.079	0.115
-555.442	23.918	-0.229	0.189
-554.427	-170.463	-0.265	-0.009
-553.412	37.105	-0.075	0.066
-552.398	-200.000	0.007	-0.198
-551.383	4.369	-0.161	0.118
-550.369	-98.767	-0.114	0.029
-549.354	-138.631	0.310	0.034
-548.339	-14.105	-0.243	-0.157
-547.325	297.309	0.127	0.233
-546.310	-52.725	0.151	0.070
-545.296	10.631	-0.212	-0.162
-544.281	292.775	-0.180	0.329
-543.266	-105.777	-0.028	-0.006
-542.252	260.606	0.145	0.251
-541.237	48.111	-0.281	0.262
-540.223	-109.526	-0.319	0.067
-539.208	278.366	0.063	-0.112
-538.193	38.959	-0.025	0.022
-537.179	499.418	0.028	0.065
-536.164	292.216	-0.324	0.590
-535.150	-136.677	0.156	0.018
-534.135	682.151	-0.058	-0.152
-533.121	-200.000	0.024	-0.433
-532.106	69.123	-0.194	-0.199
-531.091	62.937	-0.017	0.017
-530.077	-28.507	0.162	0.093
-529.062	-200.000	-0.028	-0.227
-528.048	73.585	-0.221	0.232
-527.033	276.283	0.102	-0.180
-526.018	800.000	0.047	0.205
-525.004	-48.839	0.314	-0.151
-523.989	4.436	0.067	0.049
-522.975	-163.656	-0.095	0.004
-521.960	-84.576	-0.124	-0.039
-520.945	63.643	0.154	0.155
-519.931	-16.619	-0.261	-0.165
-518.916	527.737	0.098	-0.231
-517.902	-200.000	0.041	-0.266
-516.887	-134.668	-0.293	0.036
-515.872	-140.744	0.262	-0.027
-514.858	22.810	-0.195	0.160
-513.843	-200.000	-0.004	-0.160
-512.829	147.127	-0.164	-0.220
-511.814	71.971	0.104	-0.108
-510.799	120.019	-0.160	0.198
-509.785	-155.047	-0.442	-0.029
-508.770	-130.387	-0.140	0.019
-507.756	-20.119	0.250	0.153
-506.741	-50.449	-0.336	-0.158
-505.726	-4.183	0.201	-0.139
-504.712	-200.000	0.004	-0.168
-503.697	126.443	0.116	-0.146
-502.683	-200.000	0.000	-0.147
-501.668	-92.586	0.269	-0.075
-500.653	75.405	0.113	-0.119
-499.639	-90.795	0.082	-0.023
-498.624	-94.234	0.148	0.040
-497.610	800.000	-0.106	0.331
-496.595	158.860	0.059	-0.082
-495.581	273.700	-0.068	0.121
-494.566	-37.304	0.154	0.082
-493.551	800.000	-0.056	-0.235
-492.537	800.000	-0.050	0.199
-491.522	-200.000	-0.013	0.359
-490.508	112.523	0.144	0.174
-489.493	357.682	0.071	0.140
-488.478	-91.720	0.399	0.113
-487.464	-200.000	0.032	-0.241
-486.449	61.156	-0.091	-0.090
-485.435	-6.695	-0.139	-0.095
-484.420	-84.174	0.227	-0.072
-483.405	-200.000	0.015	0.348
-482.391	234.608	-0.201	-0.330
-481.376	-129.485	-0.240	0.033
-480.362	-90.071	0.103	0.030
-479.347	76.144	-0.017	0.018
-478.332	723.013	-0.054	0.143
-477.318	-139.835	-0.176	-0.019
-476.303	-110.882	0.365	-0.075
-475.289	-200.000	0.026	-0.153
-474.274	800.000	-0.023	-0.096
-473.259	-200.000	-0.006	0.101
-472.245	119.265	0.086	-0.106
-471.230	-177.362	-0.291	-0.007
-470.216	-117.121	-0.078	-0.014
-469.201	50.282	0.421	-0.396
-468.186	80.273	-0.142	-0.152
-467.172	119.457	-0.196	0.242
-466.157	275.965	-0.137	0.242
-465.143	-200.000	0.064	0.400
-464.128	41.728	-0.214	0.194
-463.113	800.000	0.028	0.107
-462.099	-200.000	0.009	0.247
-461.084	-200.000	0.006	0.126
-460.070	-152.862	-0.423	0.030
-459.055	-156.591	0.313	-0.019
-458.040	353.238	-0.039	-0.076
-457.026	-150.673	-0.209	0.016
-456.011	-200.000	0.005	0.047
-454.997	187.999	0.115	0.171
-453.982	29.973	0.081	-0.069
-452.968	126.726	0.211	0.266
-451.953	349.151	0.108	0.212
-450.938	410.688	-0.034	0.072
-449.924	-63.795	-0.232	-0.095
-448.909	-149.873	-0.225	-0.018
-447.895	653.628	0.100	-0.256
-446.880	127.382	-0.099	-0.125
-445.865	-20.489	-0.265	0.162
-444.851	9.798	0.141	0.107
-443.836	-104.447	0.242	0.056
-442.822	44.414	-0.102	-0.093
-441.807	-72.867	0.298	-0.109
-440.792	435.374	-0.109	-0.235
-439.778	785.636	0.020	-0.055
-438.763	800.000	-0.058	-0.175
-437.749	-26.227	-0.051	0.030
-436.734	-133.600	0.118	-0.015
-435.719	799.819	-0.049	-0.133
-434.705	89.123	0.215	0.238
-433.690	-200.000	-0.038	0.170
-432.676	-200.000	-0.034	0.200
-431.661	143.543	-0.156	0.206
-430.646	285.671	-0.200	0.359
-429.632	-105.268	-0.138	-0.031
-428.617	-167.254	0.126	-0.005
-427.603	429.323	-0.150	0.323
-426.588	28.469	-0.142	-0.119
-425.573	59.016	-0.244	0.239
-424.559	52.741	-0.368	-0.350
-423.544	102.202	-0.264	0.306
-422.530	-74.692	-0.223	0.080
-421.515	-31.908	-0.152	-0.085
-420.500	800.000	0.111	0.341
-419.486	-200.000	0.047	0.237
-418.471	800.000	0.096	-0.389
-417.457	21.414	0.181	0.146
-416.442	57.081	-0.067	0.064
-415.428	-143.313	0.076	0.007
-414.413	-57.463	-0.200	0.087
-413.398	-200.000	0.003	-0.220
-412.384	-200.000	-0.019	-0.233
-411.369	154.057	-0.262	-0.357
-410.355	-127.992	-0.388	-0.055
-409.340	-102.734	0.398	-0.094
-408.325	124.959	-0.225	-0.281
-407.311	-132.018	-0.226	0.029
-406.296	106.520	-0.068	-0.080
-405.282	-108.517	0.049	-0.011
-404.267	-105.609	0.004	0.001
-403.252	-83.600	0.278	0.088
-402.238	321.325	-0.084	-0.159
-401.223	-104.080	-0.357	-0.083
-400.209	-200.000	-0.026	-0.378
-399.194	800.000	0.134	-0.372
-398.179	301.913	-0.022	-0.041
-397.165	-200.000	0.008	-0.157
-396.150	-72.767	0.057	-0.021
-395.136	38.784	0.165	-0.146
-394.121	-200.000	0.013	0.129
-393.106	-200.000	-0.025	0.232
-392.092	1.556	-0.132	0.094
-391.077	800.000	0.068	0.192
-390.063	305.228	0.080	0.147
-389.048	59.252	0.045	0.044
-388.033	-4.635	0.096	0.066
-387.019	-200.000	0.013	-0.137
-386.004	-143.270	0.193	-0.018
-384.990	30.052	-0.094	-0.080
-383.975	-52.566	-0.158	-0.072
-382.960	161.310	0.211	-0.292
-381.946	-86.874	0.247	0.075
-380.931	131.434	0.062	0.079
-379.917	-166.057	0.266	0.011
-378.902	37.517	-0.134	-0.118
-377.888	800.000	0.053	0.161
-376.873	11.144	-0.147	-0.112
-375.858	-86.437	-0.209	0.064
-374.844	-200.000	-0.005	0.056
-373.829	99.483	-0.036	0.042
-372.815	648.794	0.065	-0.165
-371.800	-18.558	0.102	-0.063
-370.785	-54.251	-0.161	-0.073
-369.771	-66.506	0.206	-0.081
-368.756	-200.000	0.001	-0.056
-367.742	-67.992	0.175	0.068
-366.727	114.958	0.095	0.115
-365.712	-200.000	0.022	-0.170
-364.698	-17.060	-0.167	-0.105
-363.683	575.886	-0.087	-0.212
-362.669	326.570	-0.018	0.034
-361.654	-127.384	0.117	0.017
-360.639	-162.465	0.127	-0.006
-359.625	-99.478	0.291	-0.073
-358.610	-42.207	0.140	-0.071
-357.596	-59.543	0.241	0.102
-356.581	8.008	-0.144	-0.107
-355.566	-200.000	0.065	0.281
-354.552	-65.182	-0.284	0.113
-353.537	-85.654	0.131	0.040
-352.523	-200.000	-0.002	-0.133
-351.508	-200.000	0.013	-0.401
-350.493	351.957	0.168	-0.331
-349.479	-14.884	-0.353	0.224
-348.464	108.448	0.041	0.048
-347.450	13.872	0.152	-0.117
-346.435	800.000	-0.049	0.168
-345.420	800.000	0.046	-0.159
-344.406	-123.526	0.074	-0.012
-343.391	-125.719	-0.158	-0.024
-342.377	379.791	0.160	0.324
-341.362	-32.102	0.060	0.033
-340.348	-136.118	0.179	0.021
-339.333	274.894	0.201	0.352
-338.318	-152.123	-0.301	0.022
-337.304	-200.000	0.020	-0.312
-336.289	-59.408	0.249	-0.106
-335.275	171.300	-0.151	0.215
-334.260	96.003	0.087	-0.098
-333.245	-200.000	0.011	0.050
-332.231	-200.000	-0.033	0.211
-331.216	-74.765	-0.127	0.045
-330.202	448.569	0.063	0.137
-329.187	229.926	-0.190	-0.308
-328.172	-126.332	-0.357	0.053
-327.158	-82.055	0.288	-0.093
-326.143	186.360	-0.110	-0.162
-325.129	257.306	0.141	0.241
-324.114	800.000	0.050	-0.184
-323.099	-113.628	-0.501	-0.097
-322.085	-15.913	0.143	-0.090
-321.070	800.000	0.028	-0.111
-320.056	-173.335	-0.094	0.003
-319.041	-117.489	-0.116	0.021
-318.026	15.774	0.035	-0.027
-317.012	74.226	-0.159	-0.166
-315.997	15.558	0.185	-0.144
-314.983	123.277	-0.227	-0.281
-313.968	247.841	-0.126	0.211
-312.953	-89.889	0.362	-0.105
-311.939	48.440	-0.171	-0.159
-310.924	-43.365	-0.151	0.075
-309.910	251.681	-0.243	-0.410
-308.895	-183.782	-0.059	0.001
-307.880	415.254	0.106	-0.224
-306.866	644.164	0.045	0.114
-305.851	-80.634	-0.112	0.037
-304.837	-198.515	-0.297	-0.002
-303.822	267.811	-0.048	-0.083
-302.807	-23.766	-0.161	0.096
-301.793	-63.054	-0.169	0.069
-300.778	-200.000	0.053	-0.259
-299.764	-105.709	-0.331	-0.074
-298.749	-200.000	-0.036	-0.259
-297.735	-30.840	0.223	0.125
-296.720	-88.019	0.216	0.064
-295.705	3.855	0.128	0.093
-294.691	-89.324	0.311	-0.091
-293.676	-82.439	0.258	0.083
-292.662	-128.874	-0.278	-0.039
-291.647	-18.960	-0.163	-0.100
-290.632	-72.834	0.255	0.093
-289.618	-43.347	0.163	0.082
-288.603	-46.038	0.207	-0.101
-287.589	-152.224	0.172	0.012
-286.574	-67.848	0.019	-0.007
-285.559	-200.000	-0.004	0.065
-284.545	502.551	-0.107	-0.245
-283.530	142.343	0.094	-0.123
-282.516	-200.000	-0.121	0.623
-281.501	-200.000	-0.047	0.218
-280.486	228.799	0.107	-0.173
-279.472	-200.000	-0.031	-0.333
-278.457	-94.990	0.206	-0.055
-277.443	167.653	0.176	0.247
-276.428	47.568	-0.207	0.191
-275.413	717.751	-0.148	0.390
-274.399	-200.000	0.021	-0.105
-273.384	-46.054	-0.322	0.157
-272.370	-71.184	-0.199	-0.074
-271.355	-31.161	0.308	0.171
-270.340	-1.413	-0.087	0.061
-269.326	-200.000	-0.012	-0.295
-268.311	163.906	-0.147	0.204
-267.297	-81.420	0.205	0.067
-266.282	-200.000	-0.067	0.336
-265.267	733.410	0.127	0.335
-264.253	515.728	0.062	-0.143
-263.238	4.064	-0.293	-0.212
-262.224	-158.756	-0.104	0.006
-261.209	-85.702	-0.350	-0.107
-260.195	-200.000	-0.003	0.189
-259.180	67.559	0.221	0.223
-258.165	800.000	0.039	-0.122
-257.151	-75.817	-0.084	-0.029
-256.136	-200.000	0.002	0.335
-255.122	32.796	0.052	0.044
-254.107	-111.106	0.299	-0.061
-253.092	-77.102	-0.200	-0.069
-252.078	174.531	-0.053	-0.076
-251.063	186.487	0.095	0.140
-250.049	-119.596	-0.204	0.035
-249.034	688.073	0.038	0.098
-248.019	800.000	0.076	0.295
-247.005	112.708	-0.064	-0.077
-245.990	383.602	0.052	-0.106
-244.976	571.281	0.117	0.282
-243.961	-58.500	0.109	-0.047
-242.946	-77.551	-0.140	0.048
-241.932	-79.253	0.271	-0.091
-240.917	-130.959	0.284	0.038
-239.903	-134.708	0.350	-0.042
-238.888	800.000	0.109	-0.310
-237.873	-200.000	-0.033	-0.256
-236.859	-193.171	0.239	0.002
-235.844	-200.000	-0.035	-0.193
-234.830	-97.504	-0.135	-0.035
-233.815	-2.374	-0.253	0.175
-232.800	-200.000	-0.064	0.443
-231.786	-200.000	0.006	-0.146
-230.771	-200.000	-0.014	-0.246
-229.757	-125.469	0.470	-0.071
-228.742	69.055	0.148	-0.150
-227.727	-79.071	-0.133	-0.045
-226.713	-57.969	0.244	-0.105
-225.698	-87.345	0.219	0.066
-224.684	783.969	-0.055	-0.148
-223.669	475.988	-0.092	0.206
-222.655	212.339	-0.065	-0.101
-221.640	-200.000	-0.021	-0.173
-220.625	259.836	-0.060	0.102
-219.611	74.569	0.212	0.220
-218.596	-34.434	0.195	-0.106
-217.582	-74.928	-0.249	0.088
-216.567	58.327	-0.141	-0.136
-215.552	179.985	0.282	-0.407
-214.538	800.000	-0.043	0.120
-213.523	-200.000	-0.020	0.292
-212.509	-73.251	-0.258	0.093
-211.494	-119.631	0.058	-0.010
-210.479	259.552	0.048	-0.082
-209.465	-171.528	0.302	0.010
-208.450	-200.000	0.016	0.206
-207.436	116.879	-0.220	-0.266
-206.421	-55.909	0.252	-0.111
-205.406	282.612	0.084	-0.149
-204.392	128.554	0.146	0.183
-203.377	67.546	0.028	0.029
-202.363	-200.000	0.101	0.461
-201.348	-63.620	0.130	-0.052
-200.333	-100.748	0.219	-0.053
-199.319	-143.867	-0.309	0.029
-198.304	-36.335	-0.206	-0.109
-197.290	-63.105	0.372	-0.151
-196.275	-200.000	-0.058	0.308
-195.260	50.771	-0.209	-0.195
-194.246	1.112	-0.107	-0.076
-193.231	-150.117	-0.161	-0.012
-192.217	800.000	0.018	-0.067
-191.202	-116.287	-0.394	0.072
-190.187	620.835	0.041	0.102
-189.173	-57.199	0.305	-0.132
-188.158	45.207	0.252	-0.229
-187.144	225.015	-0.160	0.255
-186.129	271.225	0.070	0.121
-185.114	-122.764	-0.256	-0.041
-184.100	-7.120	0.357	-0.238
-183.085	24.198	-0.103	0.084
-182.071	-54.387	-0.074	-0.033
-181.056	543.171	-0.104	0.244
-180.042	-200.000	0.014	-0.168
-179.027	52.806	0.143	-0.134
-178.012	348.232	0.022	0.043
-176.998	-200.000	-0.024	0.280
-175.983	-109.263	-0.107	0.022
-174.969	-200.000	-0.001	-0.095
-173.954	25.031	0.346	0.282
-172.939	-143.251	-0.368	0.035
-171.925	-121.406	-0.323	0.053
-170.910	-99.223	0.377	0.094
-169.896	-64.210	-0.246	-0.099
-168.881	615.565	0.143	0.353
-167.866	-200.000	0.032	0.243
-166.852	77.251	0.143	-0.149
-165.837	67.640	-0.128	-0.129
-164.823	-32.318	0.102	-0.056
-163.808	-101.568	-0.167	0.040
-162.793	-3.081	0.022	-0.015
-161.779	-10.632	-0.061	0.040
-160.764	36.972	0.270	0.235
-159.750	-119.449	0.188	-0.032
-158.735	-200.000	0.014	0.225
-157.720	-84.061	0.163	0.051
-156.706	153.212	0.334	-0.450
-155.691	-161.926	0.274	0.014
-154.677	397.859	-0.113	-0.233
-153.662	800.000	0.067	0.258
-152.647	241.038	-0.029	0.048
-151.633	-134.120	0.212	-0.026
-150.618	47.445	0.195	-0.179
-149.604	-200.000	0.016	0.173
-148.589	800.000	-0.041	-0.170
-147.574	96.388	0.223	0.251
-146.560	-143.352	-0.418	0.039
-145.545	800.000	-0.012	-0.051
-144.531	-73.684	-0.231	0.083
-143.516	800.000	-0.062	0.255
-142.502	-5.659	-0.112	-0.075
-141.487	-54.018	0.057	-0.025
-140.472	800.000	-0.028	-0.119
-139.458	800.000	0.029	0.121
-138.443	-186.298	0.237	0.003
-137.429	-70.361	-0.244	0.091
-136.414	-73.802	0.150	-0.054
-135.399	-200.000	0.022	-0.104
-134.385	55.169	0.242	-0.230
-133.370	-25.314	0.044	-0.025
-132.356	-148.512	-0.274	-0.022
-131.341	800.000	-0.055	0.165
-130.326	89.556	-0.093	-0.102
-129.312	286.994	0.073	-0.129
-128.297	-163.221	0.158	-0.007
-127.283	76.296	0.153	-0.159
-126.268	7.978	-0.116	-0.086
-125.253	800.000	0.056	0.186
-124.239	-81.142	0.427	0.139
-123.224	800.000	0.180	-0.526
-122.210	-121.879	0.078	-0.013
