DTS Sentinel unit serial number:	SN413079Multiplexer serial number:	ORYXHardware model number:	OX4-SRSoftware version number:	ORYX F/W v4.00 Oryx Data Collector v3.7.2.0data status	okinstallation	princeton_trtdifferential loss correction	single-endedforward channel	channel 3reverse channel	N/Adate	2019/09/11time	00:58:11forward acquisition time	60.00reverse acquisition time	0.00gamma	496.2192k internal	0.2332k external	0.2332temperature offset calibration	0.9913default loss term (dB/km)	0.3790temperature slope calibration	1.0000multiplexer offset coefficient	1.0000multiplexer slope coefficient	1.0000fibre end	0.00T internal ref (°C)	29.12T ext. ref 1 (°C)	-0.31T ext. ref 2 (°C)	22.92length (m)	temperature (°C)	Stokes	anti-Stokes-747.200	-71.989	0.130	0.049
-746.185	-25.755	-0.241	0.143
-745.171	-41.039	-0.040	-0.021
-744.156	800.000	-0.019	0.080
-743.142	800.000	0.093	0.268
-742.127	268.327	-0.055	0.097
-741.112	532.727	-0.153	0.364
-740.098	-136.854	-0.313	0.036
-739.083	-62.770	0.212	-0.088
-738.069	-85.640	-0.147	-0.046
-737.054	464.420	0.044	-0.100
-736.039	-200.000	-0.026	-0.182
-735.025	70.902	-0.038	-0.039
-734.010	-89.211	0.359	-0.107
-732.996	-124.869	-0.327	0.051
-731.981	-97.666	-0.177	-0.046
-730.966	800.000	-0.054	-0.221
-729.952	-200.000	0.001	-0.163
-728.937	-68.922	0.122	-0.048
-727.923	-51.960	-0.101	-0.047
-726.908	28.620	-0.246	-0.210
-725.894	-4.156	-0.223	-0.156
-724.879	800.000	0.069	0.300
-723.864	-178.245	-0.129	-0.003
-722.850	26.234	0.069	0.058
-721.835	-58.413	-0.066	-0.029
-720.821	104.048	-0.087	0.103
-719.806	16.562	0.234	0.186
-718.791	-162.123	-0.132	0.007
-717.777	56.843	-0.090	-0.088
-716.762	587.065	-0.083	0.207
-715.748	800.000	0.040	0.136
-714.733	-92.910	-0.065	0.018
-713.718	-200.000	0.011	-0.159
-712.704	144.164	0.154	0.207
-711.689	322.949	-0.091	0.173
-710.675	-189.879	-0.118	0.001
-709.660	77.416	-0.063	-0.067
-708.645	-42.394	-0.403	-0.207
-707.631	44.381	-0.145	0.134
-706.616	34.025	0.136	0.119
-705.602	-64.010	0.030	-0.012
-704.587	-46.730	0.271	-0.133
-703.572	-121.541	0.358	-0.060
-702.558	-135.345	0.091	-0.011
-701.543	33.785	-0.233	0.203
-700.529	193.100	0.085	-0.129
-699.514	-200.000	-0.025	-0.176
-698.499	-142.006	-0.202	0.020
-697.485	405.795	0.080	0.169
-696.470	363.566	-0.067	0.134
-695.456	267.788	-0.125	-0.220
-694.441	590.461	0.131	-0.324
-693.426	-46.284	0.225	0.111
-692.412	-200.000	0.007	0.168
-691.397	175.300	-0.040	0.058
-690.383	606.706	-0.150	-0.375
-689.368	702.103	-0.044	-0.117
-688.354	-27.400	-0.067	0.039
-687.339	75.103	-0.203	-0.214
-686.324	-200.000	-0.019	0.119
-685.310	-200.000	0.003	0.057
-684.295	-163.997	-0.302	0.014
-683.281	332.281	0.127	0.247
-682.266	-105.084	-0.221	-0.051
-681.251	123.987	0.168	-0.211
-680.237	312.609	-0.169	-0.318
-679.222	63.579	-0.107	-0.108
-678.208	113.201	0.091	0.111
-677.193	-158.295	-0.260	0.015
-676.178	114.811	-0.154	-0.188
-675.164	123.776	0.087	-0.109
-674.149	-127.098	0.173	0.025
-673.135	-107.526	0.033	0.007
-672.120	-176.963	-0.253	0.006
-671.105	338.240	0.120	-0.234
-670.091	-128.890	-0.187	-0.026
-669.076	-111.205	0.126	-0.026
-668.062	800.000	0.042	0.124
-667.047	130.297	-0.140	-0.180
-666.032	-200.000	0.036	-0.168
-665.018	-77.053	-0.255	0.089
-664.003	-100.273	0.148	0.037
-662.989	-200.000	0.038	0.306
-661.974	-111.148	-0.107	-0.022
-660.959	-200.000	0.002	0.141
-659.945	-200.000	0.022	0.409
-658.930	-14.637	-0.187	-0.121
-657.916	57.370	-0.251	0.246
-656.901	51.836	0.197	-0.188
-655.886	-25.396	-0.139	-0.082
-654.872	133.054	-0.080	0.103
-653.857	66.012	0.124	0.126
-652.843	138.179	0.237	0.312
-651.828	265.639	0.227	0.397
-650.814	-200.000	0.042	0.355
-649.799	-200.000	0.069	0.378
-648.784	463.576	-0.107	0.239
-647.770	-145.046	0.182	-0.017
-646.755	-109.634	-0.227	0.048
-645.741	165.718	-0.163	0.232
-644.726	204.079	-0.141	-0.218
-643.711	275.884	-0.206	-0.367
-642.697	49.118	0.222	0.209
-641.682	-90.135	0.215	-0.063
-640.668	-10.395	0.371	-0.246
-639.653	267.040	0.057	0.099
-638.638	800.000	-0.087	0.278
-637.624	328.137	-0.159	0.305
-636.609	-126.631	-0.132	-0.020
-635.595	78.750	-0.256	-0.274
-634.580	110.801	-0.092	0.111
-633.565	-130.327	-0.234	-0.032
-632.551	-77.328	-0.085	0.029
-631.536	1.107	-0.249	0.179
-630.522	475.769	-0.132	0.298
-629.507	72.101	0.081	-0.084
-628.492	61.610	0.016	0.016
-627.478	320.565	0.124	-0.236
-626.463	-80.945	-0.162	0.054
-625.449	228.861	0.090	0.148
-624.434	342.582	-0.148	0.290
-623.419	390.789	0.130	0.271
-622.405	800.000	0.088	0.263
-621.390	51.364	-0.128	-0.122
-620.376	800.000	0.051	-0.156
-619.361	-174.825	0.158	-0.004
-618.346	94.771	0.215	-0.244
-617.332	107.518	0.048	0.057
-616.317	36.657	-0.135	-0.120
-615.303	99.205	-0.011	0.013
-614.288	-200.000	-0.006	-0.334
-613.273	-87.257	-0.405	-0.123
-612.259	488.244	0.079	0.180
-611.244	-118.470	-0.152	0.027
-610.230	-12.129	-0.169	-0.111
-609.215	-64.845	0.128	-0.052
-608.201	27.701	0.398	-0.335
-607.186	-36.197	0.187	0.101
-606.171	-113.343	0.160	-0.031
-605.157	363.489	0.088	-0.178
-604.142	-9.426	0.279	-0.186
-603.128	-16.783	0.023	-0.014
-602.113	-66.336	0.387	0.154
-601.098	36.509	-0.064	-0.056
-600.084	100.752	0.090	0.105
-599.069	77.893	0.159	-0.170
-598.055	800.000	-0.095	-0.295
-597.040	16.485	-0.083	0.066
-596.025	-32.856	-0.142	-0.079
-595.011	434.310	-0.171	0.373
-593.996	-33.604	-0.297	0.164
-592.982	-45.949	0.212	-0.104
-591.967	-47.153	0.163	-0.079
-590.952	-200.000	-0.036	-0.315
-589.938	-200.000	0.044	-0.227
-588.923	-200.000	-0.035	0.155
-587.909	-88.005	0.447	0.134
-586.894	137.336	0.133	0.174
-585.879	-17.679	0.081	0.051
-584.865	-200.000	0.015	0.280
-583.850	-200.000	0.018	0.253
-582.836	-18.064	0.235	0.147
-581.821	-48.501	-0.253	-0.122
-580.806	107.647	-0.100	0.119
-579.792	-197.480	-0.035	-0.000
-578.777	102.285	0.109	0.127
-577.763	367.276	0.087	0.176
-576.748	-14.176	0.185	0.119
-575.733	320.456	0.138	0.262
-574.719	-16.451	-0.156	0.099
-573.704	61.881	0.048	0.048
-572.690	479.372	-0.085	-0.192
-571.675	800.000	0.045	-0.126
-570.661	-200.000	0.019	-0.137
-569.646	-49.546	-0.140	-0.066
-568.631	75.983	0.300	-0.317
-567.617	-102.370	0.067	0.016
-566.602	37.067	-0.125	0.110
-565.588	-2.984	-0.281	0.196
-564.573	-98.763	0.121	-0.031
-563.558	130.605	-0.232	0.297
-562.544	-200.000	-0.023	0.201
-561.529	468.749	0.046	-0.104
-560.515	75.611	0.106	0.112
-559.500	206.712	0.052	0.081
-558.485	-78.992	-0.273	-0.093
-557.471	-25.187	0.152	0.090
-556.456	56.899	0.208	-0.203
-555.442	130.594	0.025	0.032
-554.427	-69.675	-0.078	0.030
-553.412	34.752	0.208	0.182
-552.398	-200.000	-0.025	-0.174
-551.383	307.490	-0.132	-0.245
-550.369	27.381	-0.145	0.122
-549.354	67.537	-0.154	-0.157
-548.339	-63.830	-0.355	0.145
-547.325	90.191	-0.156	0.174
-546.310	-124.588	-0.266	-0.041
-545.296	800.000	0.024	0.084
-544.281	-200.000	0.014	-0.514
-543.266	-200.000	-0.080	0.000
-542.252	-155.143	0.794	0.052
-541.237	-110.395	-0.204	0.042
-540.223	48.178	0.248	0.231
-539.208	-200.000	-0.032	0.222
-538.193	296.362	0.017	-0.031
-537.179	-57.660	0.306	-0.134
-536.164	-200.000	-0.015	0.259
-535.150	246.060	-0.064	0.107
-534.135	800.000	-0.022	0.069
-533.121	51.517	0.202	0.192
-532.106	-200.000	0.041	-0.455
-531.091	27.106	0.125	0.104
-530.077	44.483	0.033	0.030
-529.062	800.000	-0.139	-0.392
-528.048	18.421	0.443	-0.353
-527.033	-200.000	-0.034	0.185
-526.018	800.000	-0.133	0.376
-525.004	67.173	-0.195	0.198
-523.989	314.221	0.088	-0.165
-522.975	206.826	0.114	0.177
-521.960	-133.802	-0.475	0.059
-520.945	-23.239	0.007	0.004
-519.931	195.211	0.170	0.257
-518.916	32.436	-0.102	0.088
-517.902	42.010	-0.234	-0.211
-516.887	292.013	0.059	-0.108
-515.872	347.367	0.108	0.213
-514.858	-163.096	-0.249	0.012
-513.843	-200.000	-0.005	0.045
-512.829	161.265	-0.096	0.134
-511.814	284.635	-0.035	-0.063
-510.799	108.987	0.115	0.138
-509.785	-200.000	0.045	0.265
-508.770	-200.000	0.083	-0.468
-507.756	-146.910	0.111	0.010
-506.741	533.012	-0.095	-0.224
-505.726	219.628	-0.286	0.456
-504.712	-82.898	-0.322	0.104
-503.697	22.984	0.149	-0.122
-502.683	217.628	-0.087	-0.139
-501.668	-49.991	-0.242	-0.114
-500.653	-154.185	0.133	-0.009
-499.639	-60.777	0.204	-0.086
-498.624	329.722	-0.025	-0.047
-497.610	-200.000	0.005	-0.100
-496.595	-200.000	-0.022	-0.111
-495.581	120.646	-0.018	-0.023
-494.566	800.000	0.076	-0.307
-493.551	-140.103	-0.152	0.016
-492.537	-133.892	0.417	-0.052
-491.522	-93.772	-0.157	0.043
-490.508	-179.356	-0.273	-0.006
-489.493	-84.160	0.316	-0.100
-488.478	80.743	0.248	0.266
-487.464	399.747	0.065	0.137
-486.449	-83.315	0.142	0.046
-485.435	-81.881	-0.251	0.082
-484.420	465.446	-0.122	0.272
-483.405	-200.000	-0.027	-0.181
-482.391	235.263	-0.136	-0.223
-481.376	-56.869	0.405	0.178
-480.362	23.810	-0.229	-0.188
-479.347	-62.708	-0.124	0.051
-478.332	652.387	0.096	0.244
-477.318	800.000	-0.037	-0.102
-476.303	-197.278	0.225	0.001
-475.289	-108.271	-0.292	0.063
-474.274	-170.293	-0.163	0.006
-473.259	-200.000	0.009	0.110
-472.245	94.876	0.042	-0.048
-471.230	-2.199	0.442	0.309
-470.216	-91.402	0.177	0.050
-469.201	800.000	-0.041	-0.164
-468.186	-141.619	-0.294	-0.029
-467.172	-32.300	-0.383	0.213
-466.157	226.571	0.042	-0.068
-465.143	-125.838	-0.164	0.025
-464.128	-24.841	0.174	0.103
-463.113	-200.000	-0.021	0.189
-462.099	-2.305	-0.105	-0.073
-461.084	800.000	0.098	-0.279
-460.070	-23.358	0.207	-0.124
-459.055	-46.153	0.218	-0.107
-458.040	-101.725	-0.239	0.058
-457.026	27.592	-0.221	-0.185
-456.011	800.000	0.097	0.415
-454.997	15.307	0.222	-0.173
-453.982	236.451	-0.122	-0.200
-452.968	-0.442	-0.183	-0.129
-451.953	-200.000	-0.030	-0.171
-450.938	-74.027	-0.154	0.055
-449.924	704.104	-0.063	0.164
-448.909	101.009	-0.305	0.353
-447.895	-101.472	0.003	0.001
-446.880	160.288	-0.095	-0.131
-445.865	-114.686	-0.202	0.038
-444.851	-83.186	-0.358	-0.114
-443.836	27.026	0.158	0.132
-442.822	550.689	-0.044	-0.105
-441.807	800.000	-0.063	0.253
-440.792	24.126	-0.221	-0.181
-439.778	-200.000	0.001	0.065
-438.763	800.000	0.031	-0.098
-437.749	62.866	-0.192	-0.191
-436.734	415.715	-0.117	-0.248
-435.719	-23.595	-0.029	0.017
-434.705	-101.227	0.452	0.110
-433.690	-57.869	0.157	0.068
-432.676	168.347	-0.162	0.230
-431.661	581.677	0.085	-0.207
-430.646	-200.000	-0.048	0.219
-429.632	-83.485	0.260	0.083
-428.617	-200.000	-0.045	-0.249
-427.603	-44.252	-0.306	-0.153
-426.588	800.000	-0.123	0.341
-425.573	204.955	0.069	0.107
-424.559	-200.000	-0.012	-0.097
-423.544	2.910	-0.090	-0.065
-422.530	-89.689	0.199	-0.058
-421.515	239.167	0.103	-0.171
-420.500	619.866	-0.022	-0.055
-419.486	-31.277	0.238	0.133
-418.471	-139.003	0.398	-0.043
-417.457	-119.221	0.275	0.048
-416.442	326.851	-0.106	0.201
-415.428	100.101	0.124	-0.143
-414.413	-200.000	-0.006	0.189
-413.398	-141.606	-0.069	-0.007
-412.384	120.772	0.047	0.058
-411.369	-74.825	0.469	-0.167
-410.355	-69.283	-0.218	0.083
-409.340	-200.000	-0.011	-0.111
-408.325	-82.308	-0.210	0.068
-407.311	-21.724	0.359	-0.217
-406.296	79.426	0.332	-0.353
-405.282	735.896	-0.102	-0.272
-404.267	-147.592	-0.067	-0.006
-403.252	-8.930	-0.251	-0.167
-402.238	800.000	-0.072	-0.206
-401.223	-200.000	0.001	-0.238
-400.209	-84.384	0.244	-0.077
-399.194	-10.503	-0.232	0.152
-398.179	800.000	-0.026	-0.092
-397.165	800.000	0.069	-0.295
-396.150	174.333	-0.163	-0.234
-395.136	7.375	0.066	-0.049
-394.121	-125.848	0.244	-0.037
-393.106	-112.302	-0.218	0.043
-392.092	-23.041	-0.164	-0.098
-391.077	800.000	-0.094	-0.360
-390.063	56.946	-0.191	0.184
-389.048	800.000	0.003	-0.013
-388.033	424.678	0.123	-0.262
-387.019	371.865	0.018	0.036
-386.004	-200.000	-0.023	-0.315
-384.990	4.586	-0.265	0.193
-383.975	-128.294	-0.227	-0.032
-382.960	-127.268	-0.192	-0.028
-381.946	-181.883	-0.149	0.003
-380.931	331.870	0.082	-0.157
-379.917	14.028	-0.171	0.132
-378.902	219.044	0.143	-0.226
-377.888	72.782	-0.208	-0.215
-376.873	-163.470	0.276	-0.013
-375.858	800.000	0.074	-0.244
-374.844	-200.000	0.003	0.203
-373.829	-200.000	0.019	-0.117
-372.815	800.000	-0.137	0.410
-371.800	-103.632	0.417	-0.097
-370.785	-200.000	-0.048	0.236
-369.771	-151.948	0.320	-0.023
-368.756	-200.000	-0.019	0.099
-367.742	800.000	0.073	0.246
-366.727	-200.000	-0.012	0.051
-365.712	800.000	-0.038	-0.158
-364.698	-200.000	0.044	0.344
-363.683	-20.519	-0.388	0.236
-362.669	99.927	-0.308	-0.354
-361.654	-60.874	-0.221	0.093
-360.639	800.000	0.067	0.221
-359.625	-137.119	-0.228	0.026
-358.610	-94.377	0.206	0.056
-357.596	-68.713	-0.448	-0.172
-356.581	800.000	-0.079	0.312
-355.566	-200.000	-0.001	0.124
-354.552	-200.000	-0.005	-0.202
-353.537	351.347	-0.149	-0.293
-352.523	310.569	-0.108	-0.200
-351.508	-126.928	-0.413	0.060
-350.493	-58.803	-0.158	0.068
-349.479	198.523	-0.055	-0.084
-348.464	-169.338	0.230	-0.008
-347.450	-200.000	-0.006	-0.163
-346.435	68.676	0.114	0.116
-345.420	-93.405	0.223	-0.061
-344.406	-200.000	0.011	-0.138
-343.391	88.322	0.038	-0.041
-342.377	800.000	0.063	-0.268
-341.362	100.275	-0.088	-0.101
-340.348	800.000	-0.114	-0.398
-339.333	4.147	0.219	-0.159
-338.318	-66.944	-0.167	-0.065
-337.304	800.000	0.114	-0.316
-336.289	60.474	-0.218	-0.214
-335.275	-78.334	-0.097	-0.033
-334.260	-200.000	-0.009	0.258
-333.245	58.078	0.146	0.142
-332.231	45.770	-0.043	-0.040
-331.216	-90.032	-0.060	0.017
-330.202	-200.000	0.039	0.264
-329.187	-66.001	-0.125	-0.049
-328.172	213.885	-0.074	0.116
-327.158	141.559	0.125	-0.164
-326.143	-10.242	-0.323	0.212
-325.129	-200.000	-0.090	0.574
-324.114	171.716	0.049	0.069
-323.099	315.394	-0.132	-0.246
-322.085	89.328	-0.280	-0.309
-321.070	-141.084	0.110	-0.011
-320.056	-200.000	-0.005	-0.214
-319.041	262.936	-0.025	-0.043
-318.026	800.000	-0.076	-0.273
-317.012	-74.540	0.283	-0.101
-315.997	4.704	-0.242	0.176
-314.983	-80.053	0.059	-0.019
-313.968	-64.218	0.238	0.096
-312.953	34.383	-0.185	0.160
-311.939	-32.045	0.260	0.144
-310.924	148.136	-0.259	0.346
-309.910	297.679	0.058	0.105
-308.895	-8.909	0.297	-0.197
-307.880	-200.000	-0.027	0.240
-306.866	257.699	0.119	0.203
-305.851	331.664	0.170	0.324
-304.837	9.863	-0.256	-0.192
-303.822	49.896	-0.023	-0.022
-302.807	-51.042	-0.312	0.145
-301.793	-145.819	0.279	0.025
-300.778	-13.873	0.290	-0.186
-299.764	-119.838	-0.132	0.022
-298.749	294.101	-0.210	0.379
-297.735	-7.829	0.197	-0.132
-296.720	-27.628	0.188	0.108
-295.705	-44.328	-0.223	0.110
-294.691	-41.450	0.238	-0.121
-293.676	-63.763	-0.084	-0.034
-292.662	585.149	0.083	-0.201
-291.647	-57.872	-0.126	-0.054
-290.632	-6.791	-0.251	0.169
-289.618	-29.884	-0.131	0.074
-288.603	-3.917	0.334	-0.229
-287.589	68.741	-0.056	0.057
-286.574	800.000	-0.101	-0.297
-285.559	-19.341	-0.284	-0.174
-284.545	-200.000	0.002	-0.278
-283.530	-200.000	0.005	-0.090
-282.516	295.209	0.141	0.256
-281.501	54.194	-0.080	-0.077
-280.486	-43.672	-0.091	0.045
-279.472	-152.293	-0.188	-0.013
-278.457	219.176	0.039	0.062
-277.443	7.038	-0.036	0.027
-276.428	21.690	-0.160	-0.129
-275.413	800.000	0.013	0.050
-274.399	-70.751	0.166	0.062
-273.384	46.865	-0.081	0.074
-272.370	-200.000	-0.006	-0.182
-271.355	488.052	0.041	-0.093
-270.340	8.481	0.065	-0.048
-269.326	800.000	-0.108	0.411
-268.311	227.920	0.254	0.408
-267.297	800.000	-0.051	0.191
-266.282	531.997	0.040	0.094
-265.267	-161.017	0.239	0.012
-264.253	-200.000	-0.049	-0.328
-263.238	374.740	0.086	-0.173
-262.224	12.435	0.244	-0.186
-261.209	14.574	-0.128	-0.098
-260.195	-99.564	-0.066	-0.016
-259.180	56.012	0.090	0.086
-258.165	209.664	-0.188	0.291
-257.151	800.000	0.058	-0.158
-256.136	-175.088	0.297	-0.008
-255.122	-79.113	0.374	-0.125
-254.107	-108.553	-0.180	0.038
-253.092	-36.094	-0.067	-0.036
-252.078	145.550	-0.178	-0.235
-251.063	-160.457	0.346	-0.018
-250.049	328.215	-0.039	-0.074
-249.034	-200.000	-0.023	-0.126
-248.019	-200.000	0.043	-0.266
-247.005	314.205	0.129	0.239
-245.990	-200.000	0.005	-0.026
-244.976	363.700	0.075	-0.150
-243.961	531.787	0.036	0.085
-242.946	66.196	0.229	0.229
-241.932	31.726	-0.272	0.231
-240.917	39.744	-0.326	0.289
-239.903	339.490	0.051	0.098
-238.888	181.769	-0.105	-0.152
-237.873	-28.774	0.195	0.111
-236.859	64.701	-0.076	0.076
-235.844	-200.000	-0.010	-0.469
-234.830	-155.999	-0.167	0.010
-233.815	800.000	-0.101	0.418
-232.800	-20.728	0.382	-0.231
-231.786	-24.225	0.238	0.140
-230.771	-159.004	0.317	-0.018
-229.757	-163.799	-0.222	0.010
-228.742	103.266	0.165	-0.191
-227.727	-90.988	-0.036	-0.010
-226.713	-22.212	-0.175	0.105
-225.698	200.501	0.189	0.286
-224.684	105.092	0.389	0.453
-223.669	86.846	0.237	0.258
-222.655	247.719	-0.181	0.302
-221.640	90.155	0.159	-0.175
-220.625	-123.521	-0.134	0.021
-219.611	144.030	0.044	0.058
-218.596	-200.000	-0.007	-0.073
-217.582	-79.731	0.137	0.046
-216.567	-200.000	-0.057	0.339
-215.552	-97.603	0.289	-0.074
-214.538	663.520	-0.043	0.110
-213.523	120.037	-0.220	-0.269
-212.509	84.542	0.033	0.036
-211.494	494.690	0.118	-0.267
-210.479	800.000	-0.025	-0.078
-209.465	-96.288	0.256	-0.067
-208.450	-200.000	0.010	-0.228
-207.436	325.958	0.060	-0.114
-206.421	195.001	0.239	-0.358
-205.406	-72.504	0.241	0.088
-204.392	-200.000	0.013	0.058
-203.377	-32.617	-0.180	-0.099
-202.363	-200.000	0.028	-0.156
-201.348	11.816	0.068	-0.051
-200.333	800.000	-0.062	0.243
-199.319	246.040	-0.094	0.157
-198.304	-109.625	-0.224	-0.047
-197.290	120.631	0.067	0.082
-196.275	800.000	-0.060	-0.190
-195.260	-26.300	0.269	-0.156
-194.246	338.788	-0.025	0.047
-193.231	9.865	-0.260	0.195
-192.217	800.000	0.011	-0.032
-191.202	-71.034	-0.185	0.069
-190.187	-86.292	0.119	-0.036
-189.173	-5.933	-0.167	0.112
-188.158	-169.047	-0.423	0.016
-187.144	-200.000	0.004	-0.097
-186.129	-98.263	0.031	0.008
-185.114	-70.735	0.093	0.035
-184.100	157.791	0.084	-0.115
-183.085	292.119	0.169	0.304
-182.071	123.553	0.047	0.058
-181.056	-32.613	-0.017	0.009
-180.042	800.000	0.107	-0.300
-179.027	42.348	-0.195	-0.174
-178.012	-95.506	0.239	-0.063
-176.998	800.000	-0.028	-0.092
-175.983	2.719	0.174	-0.124
-174.969	35.638	0.091	0.078
-173.954	-200.000	0.021	-0.334
-172.939	309.437	0.095	-0.174
-171.925	-34.823	0.014	0.008
-170.910	-112.787	-0.217	0.042
-169.896	-56.880	-0.165	-0.072
-168.881	575.871	-0.053	0.128
-167.866	258.812	-0.037	0.063
-166.852	800.000	-0.026	0.088
-165.837	-111.996	-0.099	-0.020
-164.823	135.217	0.191	0.245
-163.808	-194.124	-0.247	-0.002
-162.793	-200.000	-0.026	0.173
-161.779	201.347	-0.116	-0.176
-160.764	-3.708	0.139	-0.095
-159.750	800.000	0.013	-0.042
-158.735	-200.000	0.096	0.423
-157.720	-160.673	0.192	0.010
-156.706	-151.186	0.252	0.019
-155.691	104.088	-0.127	0.147
-154.677	81.813	0.120	0.128
-153.662	124.011	0.115	0.142
-152.647	269.376	-0.056	0.097
-151.633	-200.000	0.030	-0.323
-150.618	-26.483	-0.262	0.151
-149.604	-114.682	0.076	-0.014
-148.589	7.597	0.121	-0.089
-147.574	-200.000	-0.018	0.253
-146.560	66.515	-0.078	-0.078
-145.545	800.000	0.013	-0.047
-144.531	678.192	-0.080	0.204
-143.516	-99.242	0.281	-0.070
-142.502	-200.000	0.030	0.221
-141.487	-122.809	-0.199	0.032
-140.472	800.000	0.072	0.250
-139.458	-193.400	0.444	0.004
-138.443	79.979	-0.276	-0.292
-137.429	106.459	-0.236	0.275
-136.414	-83.620	0.015	-0.005
-135.399	-125.624	-0.203	0.030
-134.385	47.060	-0.285	0.261
-133.370	439.044	-0.167	-0.357
-132.356	104.171	0.208	0.240
-131.341	6.595	-0.167	0.122
-130.326	36.504	0.230	0.200
-129.312	800.000	-0.038	0.135
-128.297	-40.384	0.433	0.221
-127.283	-16.468	0.009	0.006
-126.268	79.544	0.202	-0.213
-125.253	-19.033	0.262	-0.160
-124.239	-200.000	-0.042	-0.269
-123.224	7.828	0.119	0.088
-122.210	-128.252	0.289	0.041
-121.195	-4.705	0.254	0.172
-120.180	800.000	0.028	-0.078
