DTS Sentinel unit serial number:	SN413079Multiplexer serial number:	ORYXHardware model number:	OX4-SRSoftware version number:	ORYX F/W v4.00 Oryx Data Collector v3.7.2.0data status	okinstallation	princeton_trtdifferential loss correction	single-endedforward channel	channel 3reverse channel	N/Adate	2019/09/12time	05:02:11forward acquisition time	60.00reverse acquisition time	0.00gamma	496.2192k internal	0.2322k external	0.2322temperature offset calibration	1.0041default loss term (dB/km)	0.3790temperature slope calibration	1.0000multiplexer offset coefficient	1.0000multiplexer slope coefficient	1.0000fibre end	0.00T internal ref (°C)	31.75T ext. ref 1 (°C)	1.73T ext. ref 2 (°C)	27.02length (m)	temperature (°C)	Stokes	anti-Stokes-747.200	141.244	-0.149	-0.200
-746.185	82.048	-0.224	0.245
-745.171	800.000	0.093	0.339
-744.156	106.043	0.261	0.312
-743.142	140.019	0.192	-0.256
-742.127	800.000	-0.015	0.046
-741.112	-200.000	-0.001	0.285
-740.098	-13.718	-0.208	0.136
-739.083	166.252	0.085	0.122
-738.069	-52.420	0.145	-0.068
-737.054	-200.000	0.037	-0.190
-736.039	800.000	-0.082	-0.288
-735.025	-200.000	0.024	0.311
-734.010	-56.725	0.242	-0.108
-732.996	-103.702	-0.474	0.112
-731.981	375.172	-0.023	-0.047
-730.966	-88.204	-0.049	0.015
-729.952	800.000	-0.114	-0.382
-728.937	9.850	0.022	0.017
-727.923	568.989	-0.065	-0.159
-726.908	325.429	-0.105	-0.203
-725.894	-200.000	0.000	-0.014
-724.879	-36.863	-0.251	-0.136
-723.864	-70.165	-0.313	0.120
-722.850	105.466	-0.121	-0.144
-721.835	800.000	0.062	-0.258
-720.821	64.685	-0.060	-0.061
-719.806	254.770	-0.100	0.173
-718.791	-165.870	-0.303	-0.013
-717.777	-97.343	0.323	0.085
-716.762	693.624	-0.121	0.321
-715.748	630.451	0.059	-0.151
-714.733	287.533	-0.034	-0.062
-713.718	133.246	0.145	0.189
-712.704	-155.486	0.142	0.009
-711.689	-200.000	0.001	-0.267
-710.675	-200.000	-0.023	-0.216
-709.660	-200.000	-0.012	0.055
-708.645	-24.060	-0.165	0.100
-707.631	-61.717	0.407	0.172
-706.616	151.800	-0.251	-0.345
-705.602	64.869	0.121	-0.123
-704.587	-23.725	0.373	-0.225
-703.572	6.705	0.176	-0.132
-702.558	235.995	0.017	0.028
-701.543	-87.668	-0.044	-0.013
-700.529	233.608	-0.165	0.275
-699.514	800.000	-0.088	0.323
-698.499	800.000	0.016	0.069
-697.485	54.716	-0.123	-0.120
-696.470	-200.000	-0.001	-0.082
-695.456	800.000	0.082	-0.293
-694.441	-35.221	0.237	-0.130
-693.426	112.177	0.127	0.155
-692.412	-84.245	0.094	-0.030
-691.397	-64.629	-0.133	0.054
-690.383	800.000	-0.050	-0.202
-689.368	715.981	-0.059	-0.158
-688.354	-200.000	0.027	0.174
-687.339	-45.884	-0.248	0.123
-686.324	215.939	-0.151	-0.242
-685.310	-75.008	-0.151	0.055
-684.295	-108.921	0.071	0.015
-683.281	183.761	-0.257	0.383
-682.266	-118.625	0.244	0.043
-681.251	127.872	-0.201	-0.258
-680.237	800.000	0.054	-0.192
-679.222	-110.213	0.067	0.014
-678.208	-166.969	0.228	0.009
-677.193	-200.000	0.017	-0.163
-676.178	29.523	-0.205	0.176
-675.164	48.081	0.230	0.217
-674.149	-50.348	-0.152	-0.072
-673.135	-192.911	-0.090	0.001
-672.120	-49.251	0.154	-0.074
-671.105	-95.948	-0.261	-0.070
-670.091	268.869	0.006	0.010
-669.076	-17.371	0.249	0.158
-668.062	-197.806	-0.471	0.003
-667.047	-29.880	-0.445	0.255
-666.032	148.425	-0.037	0.051
-665.018	-166.863	0.109	0.005
-664.003	-200.000	-0.023	-0.130
-662.989	-121.351	0.107	-0.018
-661.974	-114.359	-0.285	-0.055
-660.959	27.703	0.395	0.335
-659.945	250.109	0.116	-0.198
-658.930	-200.000	0.052	0.297
-657.916	-39.476	0.182	-0.096
-656.901	-33.877	0.217	-0.120
-655.886	181.098	0.117	-0.173
-654.872	-70.843	0.122	0.046
-653.857	-63.758	0.207	-0.085
-652.843	84.610	0.026	0.029
-651.828	169.908	-0.187	-0.269
-650.814	48.083	0.124	0.116
-649.799	165.887	0.068	0.097
-648.784	498.730	0.082	0.190
-647.770	205.707	0.211	0.330
-646.755	-200.000	-0.034	0.205
-645.741	-200.000	0.008	0.106
-644.726	800.000	-0.023	-0.085
-643.711	800.000	0.153	0.430
-642.697	50.920	0.243	-0.232
-641.682	-120.118	-0.172	0.030
-640.668	800.000	-0.055	-0.174
-639.653	800.000	-0.051	-0.168
-638.638	-11.194	-0.056	-0.037
-637.624	325.598	-0.101	0.195
-636.609	635.902	0.066	-0.168
-635.595	-81.519	-0.266	0.088
-634.580	-200.000	0.115	0.507
-633.565	-36.671	-0.169	0.091
-632.551	406.480	0.088	-0.186
-631.536	-40.335	0.142	0.074
-630.522	-121.601	0.088	0.015
-629.507	-53.107	0.206	-0.095
-628.492	160.074	0.176	-0.246
-627.478	800.000	-0.099	0.338
-626.463	33.410	-0.058	-0.051
-625.449	-53.518	0.134	-0.062
-624.434	-45.768	-0.219	0.109
-623.419	245.076	0.151	-0.256
-622.405	-44.802	-0.195	0.098
-621.390	-64.436	0.260	-0.106
-620.376	-42.388	-0.308	-0.158
-619.361	106.439	0.032	-0.038
-618.346	19.330	-0.118	0.096
-617.332	634.051	-0.142	0.362
-616.317	69.651	-0.217	0.225
-615.303	-53.085	-0.244	-0.113
-614.288	-200.000	0.014	0.074
-613.273	-9.171	0.263	-0.177
-612.259	-200.000	0.016	-0.123
-611.244	-200.000	0.006	-0.123
-610.230	17.761	-0.200	0.160
-609.215	-200.000	0.045	0.484
-608.201	-83.182	-0.182	-0.059
-607.186	-54.843	0.064	0.029
-606.171	-147.196	-0.245	0.021
-605.157	78.726	-0.022	-0.024
-604.142	313.109	0.046	-0.088
-603.128	-165.255	0.119	-0.005
-602.113	-140.328	0.167	-0.018
-601.098	-41.261	0.170	0.088
-600.084	6.954	0.205	0.153
-599.069	-88.515	-0.161	-0.048
-598.055	-0.050	0.134	0.096
-597.040	197.711	0.085	0.130
-596.025	-152.382	0.079	0.006
-595.011	14.657	-0.260	0.204
-593.996	309.389	-0.039	0.073
-592.982	-200.000	0.023	-0.119
-591.967	-88.343	0.374	-0.112
-590.952	-17.664	-0.102	-0.064
-589.938	570.048	0.070	-0.172
-588.923	-200.000	0.057	0.338
-587.909	-18.799	-0.205	-0.128
-586.894	80.439	-0.117	-0.127
-585.879	-49.294	-0.051	0.025
-584.865	-200.000	0.006	-0.136
-583.850	-127.317	0.106	-0.015
-582.836	-200.000	-0.027	-0.619
-581.821	311.671	-0.072	0.136
-580.806	-200.000	-0.004	0.383
-579.792	216.699	0.149	0.238
-578.777	-200.000	-0.033	-0.197
-577.763	36.998	0.203	-0.180
-576.748	-200.000	0.005	-0.096
-575.733	-200.000	-0.015	0.107
-574.719	128.799	-0.237	0.303
-573.704	-200.000	-0.006	0.500
-572.690	587.061	0.097	0.240
-571.675	-200.000	-0.008	0.097
-570.661	-61.699	0.268	0.113
-569.646	-30.470	0.196	0.112
-568.631	-200.000	-0.018	-0.101
-567.617	-68.849	0.365	0.142
-566.602	-103.219	0.507	0.120
-565.588	-87.879	-0.160	-0.048
-564.573	171.432	-0.051	0.074
-563.558	34.294	-0.127	-0.111
-562.544	41.760	-0.225	0.205
-561.529	463.983	-0.105	-0.235
-560.515	-68.819	0.207	0.080
-559.500	12.853	0.154	-0.120
-558.485	7.521	-0.290	0.217
-557.471	-64.222	0.205	-0.084
-556.456	-175.449	-0.237	-0.006
-555.442	94.318	-0.078	-0.089
-554.427	-19.272	0.148	0.092
-553.412	-200.000	0.050	-0.239
-552.398	-163.008	0.317	-0.015
-551.383	-6.466	-0.106	-0.073
-550.369	38.162	0.199	0.177
-549.354	284.074	0.132	-0.239
-548.339	-57.945	0.222	-0.097
-547.325	-60.794	-0.100	-0.043
-546.310	-19.378	-0.239	0.148
-545.296	495.890	0.054	0.125
-544.281	800.000	-0.052	0.186
-543.266	53.756	0.250	0.240
-542.252	-200.000	0.009	0.070
-541.237	-67.140	-0.105	-0.042
-540.223	-156.597	0.235	0.015
-539.208	-129.300	0.020	0.003
-538.193	69.033	-0.036	-0.037
-537.179	55.015	-0.294	-0.285
-536.164	-113.113	-0.200	0.039
-535.150	-64.046	-0.097	0.040
-534.135	800.000	-0.041	-0.134
-533.121	-200.000	0.008	-0.125
-532.106	6.894	0.118	-0.088
-531.091	61.679	-0.094	0.094
-530.077	-130.525	-0.158	0.021
-529.062	750.945	0.113	-0.307
-528.048	-200.000	-0.014	-0.061
-527.033	-50.812	0.109	0.052
-526.018	8.282	-0.253	0.190
-525.004	457.143	0.182	-0.404
-523.989	80.403	-0.076	-0.082
-522.975	-181.303	-0.416	0.008
-521.960	177.081	-0.088	0.129
-520.945	492.853	0.073	0.167
-519.931	47.754	0.202	-0.189
-518.916	-84.176	-0.262	0.083
-517.902	333.164	0.072	-0.139
-516.887	187.140	0.103	-0.154
-515.872	800.000	0.055	-0.219
-514.858	-200.000	0.010	-0.102
-513.843	340.262	0.072	0.142
-512.829	-143.806	-0.169	0.016
-511.814	-85.113	-0.206	-0.065
-510.799	800.000	0.034	-0.145
-509.785	132.253	-0.052	-0.067
-508.770	800.000	-0.030	-0.089
-507.756	-161.575	0.126	-0.006
-506.741	-98.624	0.250	0.064
-505.726	-98.261	-0.287	-0.074
-504.712	-0.437	-0.308	-0.219
-503.697	-84.845	-0.213	0.067
-502.683	54.535	0.126	-0.122
-501.668	352.650	0.041	-0.081
-500.653	-134.815	0.141	-0.017
-499.639	699.618	-0.066	0.173
-498.624	-40.498	0.146	-0.076
-497.610	224.333	-0.217	0.351
-496.595	143.166	0.220	-0.293
-495.581	-46.314	-0.181	-0.089
-494.566	-96.348	0.134	-0.035
-493.551	800.000	-0.043	0.165
-492.537	-65.271	-0.351	-0.141
-491.522	-200.000	0.050	0.240
-490.508	-200.000	-0.005	-0.123
-489.493	367.927	0.066	0.133
-488.478	169.845	-0.119	0.170
-487.464	-200.000	0.011	0.291
-486.449	-200.000	-0.018	0.083
-485.435	-184.318	0.503	-0.008
-484.420	800.000	0.060	-0.180
-483.405	-124.301	-0.319	-0.050
-482.391	800.000	-0.052	0.190
-481.376	-200.000	-0.033	0.253
-480.362	-169.905	-0.321	0.011
-479.347	800.000	-0.069	-0.223
-478.332	-87.414	0.114	0.034
-477.318	-200.000	0.010	-0.150
-476.303	-111.092	0.196	-0.040
-475.289	-200.000	0.061	-0.414
-474.274	531.048	-0.109	-0.258
-473.259	-88.745	-0.323	0.096
-472.245	61.563	0.112	-0.111
-471.230	-96.823	-0.273	-0.072
-470.216	-53.583	0.039	0.018
-469.201	800.000	0.061	-0.180
-468.186	-106.084	0.056	0.013
-467.172	-68.125	-0.111	0.043
-466.157	-105.039	-0.549	-0.126
-465.143	94.724	0.154	0.175
-464.128	-83.514	0.304	0.097
-463.113	-125.279	-0.312	-0.048
-462.099	800.000	-0.055	0.233
-461.084	-51.521	0.113	0.053
-460.070	539.479	-0.085	-0.201
-459.055	-200.000	-0.007	0.103
-458.040	-156.556	-0.405	0.025
-457.026	-6.534	0.131	0.089
-456.011	346.542	-0.284	0.559
-454.997	439.537	-0.050	-0.110
-453.982	203.085	0.062	-0.096
-452.968	-135.180	0.241	-0.029
-451.953	-57.983	-0.310	0.135
-450.938	-143.797	0.139	0.013
-449.924	800.000	-0.067	-0.190
-448.909	-134.321	0.310	-0.038
-447.895	58.638	-0.075	-0.073
-446.880	108.187	0.155	-0.184
-445.865	102.938	0.083	0.097
-444.851	-200.000	-0.000	-0.046
-443.836	77.110	-0.225	-0.238
-442.822	681.702	0.048	-0.125
-441.807	-87.560	0.157	0.047
-440.792	800.000	-0.100	-0.331
-439.778	-3.743	-0.069	0.048
-438.763	19.551	-0.092	-0.074
-437.749	643.492	-0.127	-0.324
-436.734	-2.820	0.286	-0.199
-435.719	174.563	-0.177	-0.256
-434.705	232.227	-0.123	-0.202
-433.690	800.000	-0.051	-0.211
-432.676	-24.473	-0.101	0.060
-431.661	141.692	0.106	0.141
-430.646	615.729	0.148	-0.370
-429.632	800.000	0.014	0.045
-428.617	-146.078	0.303	-0.027
-427.603	61.625	-0.142	0.141
-426.588	309.761	0.122	0.227
-425.573	114.541	-0.136	0.165
-424.559	-162.521	0.306	-0.015
-423.544	223.637	0.189	-0.304
-422.530	800.000	-0.054	-0.164
-421.515	-6.918	-0.365	0.247
-420.500	-33.475	-0.228	-0.126
-419.486	-89.927	-0.068	-0.020
-418.471	-200.000	-0.023	-0.139
-417.457	7.722	0.083	0.062
-416.442	-22.254	-0.165	-0.100
-415.428	20.049	0.032	0.026
-414.413	-2.458	0.052	0.037
-413.398	10.614	-0.337	0.256
-412.384	-70.681	0.249	0.094
-411.369	-30.600	0.177	-0.100
-410.355	-88.256	-0.061	-0.018
-409.340	-28.248	-0.110	0.063
-408.325	1.314	-0.177	-0.127
-407.311	-200.000	0.012	-0.322
-406.296	-21.096	0.282	-0.172
-405.282	800.000	-0.111	0.348
-404.267	39.745	-0.013	0.011
-403.252	-15.912	0.160	0.102
-402.238	-200.000	0.025	-0.118
-401.223	800.000	-0.061	0.180
-400.209	3.190	0.194	-0.141
-399.194	-112.503	0.115	0.023
-398.179	127.456	-0.353	0.447
-397.165	-200.000	-0.130	0.578
-396.150	800.000	0.080	0.223
-395.136	353.094	0.109	0.215
-394.121	212.923	-0.037	-0.057
-393.106	-200.000	0.010	0.178
-392.092	107.957	0.086	-0.103
-391.077	-161.559	0.410	0.021
-390.063	-167.312	-0.087	-0.004
-389.048	-98.705	-0.236	-0.060
-388.033	211.477	-0.149	-0.233
-387.019	268.671	0.045	0.079
-386.004	-10.401	0.234	-0.154
-384.990	-200.000	0.016	0.088
-383.975	-97.115	0.333	0.087
-382.960	-127.770	0.459	0.066
-381.946	87.748	0.145	0.159
-380.931	-131.624	0.303	0.040
-379.917	-135.269	-0.181	-0.022
-378.902	-79.028	-0.200	0.068
-377.888	109.820	0.121	0.145
-376.873	-161.401	0.042	-0.002
-375.858	-153.738	0.322	0.022
-374.844	-55.263	0.289	-0.129
-373.829	-40.229	0.060	-0.031
-372.815	-148.715	0.201	-0.016
-371.800	-200.000	0.030	0.436
-370.785	-180.409	0.118	-0.002
-369.771	154.268	0.063	-0.086
-368.756	800.000	-0.049	-0.141
-367.742	252.618	-0.079	0.134
-366.727	800.000	-0.050	0.186
-365.712	-145.120	-0.140	0.013
-364.698	-148.619	-0.385	-0.031
-363.683	800.000	-0.092	0.377
-362.669	-31.121	-0.172	-0.096
-361.654	512.460	0.043	-0.099
-360.639	-3.636	-0.126	0.087
-359.625	-200.000	-0.003	0.138
-358.610	-127.745	-0.082	-0.012
-357.596	-86.832	0.299	0.091
-356.581	800.000	-0.126	0.381
-355.566	-151.587	0.233	-0.017
-354.552	-17.877	0.217	0.135
-353.537	128.879	0.349	-0.443
-352.523	-115.131	-0.218	0.041
-351.508	498.751	0.028	-0.065
-350.493	-92.461	-0.207	0.058
-349.479	172.619	-0.163	0.233
-348.464	800.000	0.098	-0.346
-347.450	-200.000	-0.027	0.165
-346.435	-200.000	0.016	0.221
-345.420	-200.000	-0.035	-0.559
-344.406	178.143	-0.115	-0.167
-343.391	283.465	-0.173	-0.310
-342.377	-78.202	-0.048	-0.016
-341.362	140.349	-0.239	-0.313
-340.348	-110.577	-0.057	-0.012
-339.333	465.288	-0.115	0.256
-338.318	-77.949	0.284	0.098
-337.304	-200.000	-0.032	-0.190
-336.289	-2.103	0.239	-0.167
-335.275	-31.962	-0.132	0.074
-334.260	306.533	0.115	0.213
-333.245	-200.000	-0.002	0.245
-332.231	-200.000	-0.029	0.254
-331.216	706.576	-0.085	-0.224
-330.202	-5.255	0.203	-0.139
-329.187	91.787	-0.387	0.432
-328.172	661.222	0.117	-0.299
-327.158	177.870	0.066	-0.096
-326.143	-28.533	0.191	-0.109
-325.129	29.057	0.029	-0.025
-324.114	-200.000	0.032	-0.204
-323.099	-200.000	0.027	-0.304
-322.085	-200.000	0.025	0.145
-321.070	12.629	-0.085	0.065
-320.056	800.000	0.063	0.187
-319.041	55.489	0.116	-0.111
-318.026	428.554	-0.014	-0.030
-317.012	497.057	-0.126	-0.288
-315.997	800.000	0.018	0.075
-314.983	-104.288	-0.085	-0.020
-313.968	-14.137	0.069	-0.044
-312.953	109.549	0.194	-0.231
-311.939	211.281	-0.113	0.176
-310.924	329.606	-0.138	0.264
-309.910	-200.000	0.049	-0.383
-308.895	800.000	-0.042	-0.140
-307.880	-200.000	0.206	-0.001
-306.866	-45.273	-0.254	0.125
-305.851	480.302	-0.086	0.193
-304.837	-69.938	-0.238	-0.090
-303.822	-87.698	0.213	-0.064
-302.807	195.867	-0.147	0.222
-301.793	800.000	0.051	0.196
-300.778	-123.365	-0.548	0.087
-299.764	-200.000	-0.006	0.326
-298.749	-200.000	-0.037	-0.271
-297.735	-200.000	0.007	0.098
-296.720	157.726	-0.083	0.115
-295.705	800.000	-0.045	0.189
-294.691	-64.456	0.254	-0.103
-293.676	12.676	-0.064	-0.049
-292.662	671.673	-0.018	-0.045
-291.647	76.293	-0.250	-0.263
-290.632	-82.686	0.203	0.065
-289.618	95.226	-0.075	0.085
-288.603	-80.921	0.166	-0.055
-287.589	800.000	-0.015	0.059
-286.574	798.412	0.049	-0.134
-285.559	-130.291	0.140	-0.019
-284.545	-25.319	-0.130	0.076
-283.530	170.560	-0.104	-0.147
-282.516	27.849	0.141	-0.118
-281.501	123.418	-0.062	-0.077
-280.486	17.674	-0.107	-0.085
-279.472	186.002	0.063	-0.092
-278.457	32.415	0.290	-0.248
-277.443	-67.999	-0.114	-0.044
-276.428	782.148	0.079	0.216
-275.413	-194.849	0.164	0.001
-274.399	-108.540	0.123	-0.026
-273.384	-22.456	-0.143	-0.086
-272.370	200.492	0.012	0.019
-271.355	180.365	0.197	-0.287
-270.340	18.069	0.284	-0.224
-269.326	81.954	0.253	-0.272
-268.311	102.427	0.125	0.144
-267.297	-90.059	-0.335	-0.097
-266.282	-122.881	0.249	-0.040
-265.267	286.008	-0.149	-0.267
-264.253	-30.589	-0.040	0.022
-263.238	-99.237	0.110	0.028
-262.224	800.000	-0.058	-0.204
-261.209	800.000	0.060	-0.232
-260.195	800.000	-0.079	0.232
-259.180	202.430	-0.082	-0.126
-258.165	43.125	-0.448	-0.405
-257.151	49.292	0.048	-0.045
-256.136	-52.364	-0.088	-0.041
-255.122	-200.000	0.036	0.196
-254.107	800.000	-0.016	0.053
-253.092	89.059	0.182	-0.201
-252.078	143.316	-0.150	-0.198
-251.063	8.700	0.108	0.080
-250.049	800.000	-0.079	-0.232
-249.034	204.762	-0.104	0.161
-248.019	-89.017	0.171	-0.050
-247.005	-147.894	0.338	0.028
-245.990	96.871	0.080	0.091
-244.976	-73.863	-0.146	0.052
-243.961	-145.875	0.201	0.018
-242.946	-200.000	-0.071	0.497
-241.932	-49.191	-0.212	-0.100
-240.917	-200.000	-0.060	-0.342
-239.903	-147.282	0.151	-0.013
-238.888	-75.125	-0.241	0.085
-237.873	-44.024	0.160	-0.079
-236.859	37.364	-0.134	0.118
-235.844	-68.574	-0.086	0.033
-234.830	-93.090	-0.141	-0.039
-233.815	490.106	-0.058	0.132
-232.800	296.792	-0.101	0.184
-231.786	-200.000	0.064	0.444
-230.771	-23.259	0.396	0.236
-229.757	-126.732	0.174	0.025
-228.742	-200.000	-0.269	-0.001
-227.727	34.641	0.258	-0.223
-226.713	-61.658	0.318	-0.132
-225.698	-49.695	-0.196	-0.092
-224.684	800.000	-0.015	-0.063
-223.669	-92.088	-0.140	0.039
-222.655	-17.722	-0.216	0.134
-221.640	-48.499	0.034	0.016
-220.625	775.147	0.093	-0.250
-219.611	248.607	-0.079	-0.133
-218.596	-127.378	-0.122	0.018
-217.582	132.454	-0.018	-0.023
-216.567	47.123	-0.204	-0.188
-215.552	800.000	0.083	0.264
-214.538	168.737	-0.084	-0.119
-213.523	-120.327	0.197	0.033
-212.509	-113.490	-0.226	0.044
-211.494	-118.542	0.333	-0.058
-210.479	4.734	0.228	-0.165
-209.465	128.919	-0.159	0.200
-208.450	101.871	-0.079	0.091
-207.436	-41.210	0.168	0.085
-206.421	-13.921	0.150	-0.096
-205.406	144.926	-0.068	0.090
-204.392	-62.301	-0.352	0.145
-203.377	-200.000	0.002	0.413
-202.363	186.331	0.110	-0.162
-201.348	-27.068	-0.172	-0.099
-200.333	15.640	-0.225	0.175
-199.319	380.210	-0.080	-0.162
-198.304	800.000	0.058	-0.164
-197.290	576.943	0.080	-0.192
-196.275	-200.000	-0.028	0.185
-195.260	591.166	-0.127	0.309
-194.246	-69.677	0.169	-0.064
-193.231	63.493	-0.200	-0.198
-192.217	-1.196	-0.177	0.123
-191.202	629.549	0.110	-0.274
-190.187	800.000	-0.036	0.124
-189.173	-200.000	0.085	0.412
-188.158	50.841	0.177	0.166
-187.144	-35.670	-0.188	0.101
-186.129	-122.625	0.304	0.049
-185.114	143.007	0.055	-0.072
-184.100	-16.336	0.160	0.100
-183.085	-200.000	-0.013	-0.260
-182.071	18.853	0.187	-0.148
-181.056	-88.190	-0.281	-0.083
-180.042	-185.393	0.191	0.003
-179.027	800.000	-0.072	0.225
-178.012	61.420	-0.293	0.288
-176.998	233.135	-0.056	0.090
-175.983	-19.022	0.157	-0.096
-174.969	203.134	0.103	-0.157
-173.954	-186.216	0.459	-0.007
-172.939	800.000	-0.044	0.181
-171.925	-97.600	0.291	0.075
-170.910	-200.000	0.028	0.252
-169.896	-57.972	0.254	0.110
-168.881	295.268	-0.068	0.122
-167.866	-76.436	-0.160	-0.056
-166.852	-200.000	-0.055	-0.329
-165.837	-139.635	-0.246	-0.026
-164.823	-200.000	-0.007	-0.251
-163.808	-85.408	0.237	-0.073
-162.793	-135.338	-0.205	-0.024
-161.779	59.902	-0.034	0.034
-160.764	2.291	0.080	-0.057
-159.750	-62.390	-0.264	-0.109
-158.735	-10.224	-0.239	-0.156
-157.720	-43.624	0.274	-0.137
-156.706	-16.061	-0.081	-0.051
-155.691	-20.041	-0.158	0.096
-154.677	-84.750	-0.131	-0.041
-153.662	800.000	-0.007	-0.030
-152.647	9.675	0.059	-0.044
-151.633	800.000	-0.076	0.289
-150.618	-156.825	-0.189	0.011
-149.604	-94.043	0.075	0.020
-148.589	-123.873	0.175	0.027
-147.574	-200.000	0.022	0.194
-146.560	-127.276	-0.287	-0.041
-145.545	65.506	0.159	-0.159
-144.531	464.926	-0.068	0.149
-143.516	197.307	0.089	0.134
-142.502	142.313	-0.116	-0.151
-141.487	-86.091	0.281	0.085
-140.472	-19.257	0.146	-0.090
-139.458	-99.138	-0.127	0.032
-138.443	-163.520	-0.161	-0.008
-137.429	800.000	0.065	-0.227
-136.414	89.598	-0.073	-0.080
-135.399	364.871	-0.063	-0.125
-134.385	371.185	-0.139	-0.277
-133.370	-113.656	0.179	0.034
-132.356	51.326	-0.091	0.085
-131.341	-200.000	-0.030	0.143
-130.326	214.799	-0.153	-0.239
-129.312	-19.900	0.281	0.171
-128.297	-83.753	-0.259	0.082
-127.283	654.535	-0.132	0.334
-126.268	-5.788	0.149	-0.100
-125.253	-28.430	0.314	0.179
-124.239	-200.000	-0.007	0.306
-123.224	-200.000	0.004	-0.089
-122.210	171.669	-0.155	-0.219
-121.195	91.557	-0.028	0.031
