DTS Sentinel unit serial number:	SN413079Multiplexer serial number:	ORYXHardware model number:	OX4-SRSoftware version number:	ORYX F/W v4.00 Oryx Data Collector v3.7.2.0data status	okinstallation	princeton_trtdifferential loss correction	single-endedforward channel	channel 3reverse channel	N/Adate	2019/09/12time	00:22:11forward acquisition time	60.00reverse acquisition time	0.00gamma	496.2192k internal	0.2318k external	0.2318temperature offset calibration	1.0064default loss term (dB/km)	0.3790temperature slope calibration	1.0000multiplexer offset coefficient	1.0000multiplexer slope coefficient	1.0000fibre end	0.00T internal ref (°C)	33.50T ext. ref 1 (°C)	2.04T ext. ref 2 (°C)	27.97length (m)	temperature (°C)	Stokes	anti-Stokes-747.200	-200.000	-0.058	-0.336
-746.185	-53.451	0.324	0.150
-745.171	-139.966	0.110	-0.012
-744.156	728.224	0.098	0.265
-743.142	-200.000	0.015	-0.173
-742.127	-25.939	0.205	-0.122
-741.112	459.842	-0.036	-0.082
-740.098	309.353	-0.146	0.276
-739.083	-143.117	0.288	0.028
-738.069	-200.000	-0.039	0.279
-737.054	60.986	-0.205	-0.206
-736.039	394.288	-0.096	0.202
-735.025	101.265	0.202	0.238
-734.010	-200.000	0.009	0.093
-732.996	413.682	-0.145	-0.312
-731.981	223.634	0.116	-0.189
-730.966	800.000	0.007	-0.021
-729.952	309.082	0.098	-0.185
-728.937	-200.000	0.017	0.218
-727.923	-63.453	-0.182	-0.076
-726.908	-46.624	-0.166	0.082
-725.894	10.502	-0.178	-0.137
-724.879	800.000	-0.063	-0.231
-723.864	-200.000	-0.021	-0.171
-722.850	-200.000	-0.032	-0.299
-721.835	-200.000	-0.008	-0.035
-720.821	-132.688	-0.363	-0.047
-719.806	-94.855	0.146	0.040
-718.791	-167.306	-0.267	-0.011
-717.777	492.523	0.101	-0.233
-716.762	-158.809	-0.443	0.026
-715.748	-200.000	0.023	0.152
-714.733	-147.281	-0.229	-0.020
-713.718	96.277	0.220	-0.254
-712.704	-122.440	-0.301	0.049
-711.689	238.929	0.035	0.059
-710.675	120.904	0.143	0.180
-709.660	800.000	0.073	-0.233
-708.645	-153.388	0.223	0.016
-707.631	68.267	0.234	0.242
-706.616	-42.180	0.368	-0.190
-705.602	-200.000	-0.036	-0.178
-704.587	-200.000	0.003	-0.080
-703.572	17.760	-0.090	-0.072
-702.558	-53.680	0.317	-0.146
-701.543	800.000	0.059	-0.195
-700.529	6.976	-0.087	0.066
-699.514	184.902	0.081	0.122
-698.499	337.796	-0.055	-0.108
-697.485	-200.000	0.029	0.210
-696.470	-143.072	-0.232	0.023
-695.456	248.319	-0.126	-0.215
-694.441	-43.714	0.253	0.129
-693.426	-184.690	0.161	0.003
-692.412	-55.895	-0.051	-0.023
-691.397	-49.866	-0.209	0.100
-690.383	-125.968	-0.382	0.058
-689.368	192.952	-0.119	-0.181
-688.354	77.900	-0.050	-0.054
-687.339	-200.000	0.012	-0.065
-686.324	-120.050	-0.261	-0.045
-685.310	738.368	0.095	-0.256
-684.295	681.441	-0.112	0.295
-683.281	-200.000	-0.040	-0.264
-682.266	3.482	-0.159	-0.117
-681.251	-0.392	-0.123	-0.088
-680.237	92.786	-0.149	0.170
-679.222	-200.000	0.017	0.217
-678.208	696.279	0.063	0.166
-677.193	-156.168	-0.141	0.009
-676.178	-200.000	-0.005	-0.083
-675.164	222.072	-0.203	-0.330
-674.149	568.052	-0.100	-0.245
-673.135	711.852	0.088	0.234
-672.120	-5.012	-0.109	0.076
-671.105	-200.000	-0.031	-0.197
-670.091	-200.000	-0.008	-0.286
-669.076	-112.433	-0.194	0.039
-668.062	31.652	0.185	0.161
-667.047	-23.837	-0.339	-0.205
-666.032	800.000	-0.056	0.227
-665.018	-71.126	-0.152	0.058
-664.003	800.000	0.034	-0.133
-662.989	675.909	-0.040	-0.104
-661.974	459.582	-0.130	-0.291
-660.959	-67.850	-0.037	-0.014
-659.945	-130.172	0.189	0.026
-658.930	-43.922	0.316	0.160
-657.916	-81.253	-0.257	0.086
-656.901	-52.878	0.190	0.088
-655.886	-200.000	0.015	-0.108
-654.872	-200.000	-0.037	-0.407
-653.857	-125.954	0.056	-0.009
-652.843	-118.910	0.068	0.012
-651.828	326.947	-0.079	0.153
-650.814	-101.375	-0.085	-0.021
-649.799	279.863	-0.080	0.144
-648.784	-89.881	0.393	0.116
-647.770	-35.676	-0.253	-0.138
-646.755	-37.092	0.267	-0.144
-645.741	144.628	-0.067	-0.090
-644.726	-188.378	-0.086	-0.001
-643.711	294.460	-0.079	-0.146
-642.697	61.807	-0.168	0.168
-641.682	800.000	0.022	0.062
-640.668	137.752	0.233	-0.308
-639.653	354.950	-0.138	0.277
-638.638	279.837	0.070	-0.127
-637.624	-94.367	-0.126	0.035
-636.609	-18.730	0.188	-0.118
-635.595	572.599	-0.050	-0.123
-634.580	-84.199	-0.236	-0.075
-633.565	103.260	-0.118	0.140
-632.551	800.000	-0.055	-0.193
-631.536	-200.000	0.059	-0.352
-630.522	8.593	-0.131	-0.099
-629.507	800.000	-0.020	-0.071
-628.492	-200.000	0.032	-0.175
-627.478	-200.000	-0.009	-0.133
-626.463	136.799	-0.135	-0.178
-625.449	31.410	0.229	-0.198
-624.434	-139.426	-0.165	-0.018
-623.419	703.008	0.040	0.106
-622.405	82.149	-0.054	0.059
-621.390	-62.591	0.091	-0.038
-620.376	60.339	0.296	-0.295
-619.361	-13.596	-0.387	-0.252
-618.346	-70.757	-0.140	0.053
-617.332	800.000	0.068	0.195
-616.317	16.106	-0.402	-0.319
-615.303	343.447	0.061	0.120
-614.288	152.557	0.089	0.123
-613.273	-155.778	-0.133	0.009
-612.259	-172.699	0.321	-0.010
-611.244	-105.379	0.037	0.009
-610.230	-21.362	0.123	0.076
-609.215	-200.000	0.013	0.112
-608.201	108.676	0.265	0.319
-607.186	53.591	0.282	0.273
-606.171	-1.785	-0.269	0.191
-605.157	-101.921	0.128	-0.031
-604.142	34.647	0.150	0.132
-603.128	-200.000	-0.002	-0.051
-602.113	-19.487	-0.234	-0.146
-601.098	-142.620	-0.183	-0.018
-600.084	-47.909	0.347	-0.169
-599.069	-58.653	0.208	0.091
-598.055	-34.082	0.112	0.062
-597.040	-45.004	0.124	-0.062
-596.025	-62.438	-0.343	-0.144
-595.011	-26.040	-0.092	0.055
-593.996	-149.250	-0.060	0.005
-592.982	-136.674	0.126	0.015
-591.967	139.264	-0.127	0.168
-590.952	800.000	-0.086	-0.324
-589.938	-104.158	-0.321	-0.075
-588.923	-200.000	-0.003	0.116
-587.909	505.274	-0.079	0.184
-586.894	313.878	-0.128	0.243
-585.879	-140.536	0.063	0.007
-584.865	-106.147	-0.209	-0.047
-583.850	-200.000	-0.029	0.380
-582.836	800.000	-0.070	0.283
-581.821	-43.581	-0.067	-0.034
-580.806	378.871	-0.064	0.131
-579.792	-200.000	-0.056	0.320
-578.777	199.294	-0.125	-0.192
-577.763	88.725	-0.069	0.077
-576.748	86.337	-0.232	-0.257
-575.733	-11.132	-0.178	0.118
-574.719	-66.989	-0.263	0.104
-573.704	800.000	-0.075	0.247
-572.690	-148.498	0.436	0.036
-571.675	-87.149	0.225	-0.069
-570.661	-102.246	-0.098	0.024
-569.646	58.697	0.075	0.074
-568.631	268.085	0.100	0.177
-567.617	96.937	-0.111	0.128
-566.602	-55.951	-0.110	0.049
-565.588	-51.911	0.214	0.100
-564.573	-85.756	0.251	0.078
-563.558	264.260	0.171	0.299
-562.544	-29.446	0.120	0.069
-561.529	-103.836	0.279	0.066
-560.515	-96.395	0.150	0.040
-559.500	-122.932	-0.091	-0.015
-558.485	-200.000	-0.017	-0.370
-557.471	-44.555	0.250	-0.126
-556.456	9.570	-0.242	0.184
-555.442	244.448	-0.136	-0.230
-554.427	307.968	-0.118	-0.221
-553.412	-200.000	0.012	0.204
-552.398	37.892	0.027	-0.025
-551.383	-200.000	-0.030	0.239
-550.369	121.908	-0.096	0.120
-549.354	-41.440	0.400	-0.207
-548.339	-34.989	-0.067	0.037
-547.325	-200.000	0.001	-0.110
-546.310	-72.380	-0.389	0.144
-545.296	-71.763	0.065	-0.024
-544.281	-124.346	0.211	-0.033
-543.266	-200.000	0.012	-0.448
-542.252	-127.342	-0.377	0.055
-541.237	-151.768	0.208	-0.015
-540.223	800.000	0.052	-0.211
-539.208	-144.915	0.164	0.015
-538.193	120.658	-0.122	0.152
-537.179	800.000	0.081	-0.278
-536.164	-83.925	0.182	-0.058
-535.150	-200.000	0.048	-0.248
-534.135	-200.000	0.021	-0.130
-533.121	-120.973	0.239	0.040
-532.106	50.551	-0.233	-0.221
-531.091	-200.000	-0.007	-0.157
-530.077	-117.532	-0.387	-0.070
-529.062	-115.478	0.332	-0.063
-528.048	70.650	0.163	0.170
-527.033	199.037	0.094	0.144
-526.018	-88.166	0.203	0.061
-525.004	-104.130	-0.354	0.083
-523.989	522.689	-0.165	0.389
-522.975	-200.000	-0.045	-0.000
-521.960	77.011	0.269	-0.287
-520.945	-88.521	0.374	-0.112
-519.931	-200.000	-0.013	0.122
-518.916	-188.829	0.235	-0.003
-517.902	544.864	0.096	-0.229
-516.887	-58.365	-0.140	0.061
-515.872	114.251	0.038	0.047
-514.858	175.272	0.144	0.210
-513.843	184.132	0.078	-0.116
-512.829	-85.959	-0.094	-0.029
-511.814	-149.170	-0.439	0.035
-510.799	-162.021	-0.321	-0.016
-509.785	-167.340	0.127	0.005
-508.770	-42.732	0.294	-0.150
-507.756	464.077	0.066	0.149
-506.741	-0.169	0.256	0.183
-505.726	-83.709	0.313	-0.100
-504.712	800.000	0.080	0.268
-503.697	543.919	0.052	0.125
-502.683	800.000	-0.101	0.334
-501.668	-26.000	-0.216	0.127
-500.653	-100.551	0.298	0.074
-499.639	239.601	0.208	0.347
-498.624	-200.000	0.005	-0.328
-497.610	-142.222	0.138	-0.014
-496.595	137.968	-0.121	0.159
-495.581	-70.629	-0.072	-0.027
-494.566	-49.387	-0.172	0.082
-493.551	-200.000	-0.014	-0.252
-492.537	654.285	-0.077	0.197
-491.522	588.600	0.111	-0.274
-490.508	-159.666	0.157	0.009
-489.493	800.000	0.064	-0.191
-488.478	800.000	-0.033	-0.118
-487.464	-119.865	0.400	-0.069
-486.449	800.000	0.016	0.065
-485.435	-18.445	0.186	0.116
-484.420	-12.459	-0.248	-0.162
-483.405	-84.112	0.237	0.075
-482.391	-149.447	0.284	-0.023
-481.376	-200.000	0.003	0.185
-480.362	-53.495	-0.107	0.049
-479.347	-45.755	0.067	-0.033
-478.332	-200.000	0.006	0.101
-477.318	800.000	0.040	0.158
-476.303	-46.807	-0.132	0.065
-475.289	-124.810	0.250	-0.039
-474.274	-200.000	0.005	-0.152
-473.259	-200.000	0.015	-0.094
-472.245	-81.594	-0.254	0.084
-471.230	60.239	0.153	-0.152
-470.216	-111.227	0.075	0.015
-469.201	-142.287	0.106	0.010
-468.186	-27.835	0.060	0.035
-467.172	23.293	0.198	-0.163
-466.157	-200.000	0.013	-0.405
-465.143	-200.000	0.026	0.282
-464.128	-0.164	-0.007	0.005
-463.113	163.827	-0.088	0.124
-462.099	173.569	-0.065	0.094
-461.084	-162.153	-0.241	0.012
-460.070	-107.398	-0.433	-0.095
-459.055	-74.070	-0.106	0.039
-458.040	800.000	-0.033	0.112
-457.026	-138.229	0.340	-0.038
-456.011	-112.923	-0.126	0.025
-454.997	-50.252	0.189	0.090
-453.982	-98.799	-0.124	-0.032
-452.968	417.322	0.135	0.289
-451.953	-200.000	0.002	0.137
-450.938	-200.000	0.003	0.104
-449.924	-5.833	-0.138	-0.094
-448.909	-69.671	0.255	-0.098
-447.895	-135.260	0.235	0.028
-446.880	451.703	-0.067	0.148
-445.865	754.409	-0.012	-0.032
-444.851	800.000	-0.059	-0.175
-443.836	-36.400	0.372	0.201
-442.822	356.707	-0.087	0.174
-441.807	-59.395	0.160	0.069
-440.792	-92.695	0.237	0.066
-439.778	-113.056	0.260	0.051
-438.763	-115.336	0.161	0.030
-437.749	-62.908	0.100	0.041
-436.734	716.206	0.062	0.165
-435.719	134.562	0.026	0.034
-434.705	-140.869	0.354	0.036
-433.690	-180.391	-0.318	0.007
-432.676	55.706	0.242	0.234
-431.661	-188.492	-0.254	-0.003
-430.646	-65.540	0.206	0.083
-429.632	-49.414	0.301	-0.144
-428.617	38.283	0.195	-0.173
-427.603	488.945	-0.049	0.113
-426.588	800.000	0.130	0.431
-425.573	-76.318	-0.180	-0.063
-424.559	-200.000	-0.009	-0.088
-423.544	-118.419	0.124	-0.022
-422.530	12.599	-0.243	-0.187
-421.515	-200.000	0.002	-0.209
-420.500	-151.184	-0.108	0.008
-419.486	310.645	-0.006	0.012
-418.471	160.268	-0.046	-0.063
-417.457	252.741	-0.179	0.305
-416.442	260.412	-0.207	0.357
-415.428	800.000	0.029	-0.091
-414.413	-45.480	0.113	-0.056
-413.398	37.864	0.228	0.202
-412.384	199.823	-0.060	0.093
-411.369	168.797	-0.028	0.040
-410.355	250.803	-0.051	0.087
-409.340	-78.376	0.199	-0.068
-408.325	161.066	0.240	0.335
-407.311	-60.751	-0.041	-0.017
-406.296	123.462	0.049	-0.062
-405.282	-200.000	0.009	0.226
-404.267	-19.387	-0.286	0.177
-403.252	249.064	-0.088	-0.149
-402.238	-108.946	0.327	0.070
-401.223	-200.000	-0.045	0.352
-400.209	-0.890	0.049	-0.034
-399.194	800.000	0.021	0.093
-398.179	-137.955	-0.005	-0.001
-397.165	-87.845	-0.311	-0.094
-396.150	100.961	-0.066	0.077
-395.136	-200.000	-0.006	0.040
-394.121	-44.452	0.023	0.011
-393.106	-74.133	-0.205	0.074
-392.092	156.984	-0.065	-0.090
-391.077	800.000	-0.064	0.212
-390.063	48.793	0.284	-0.266
-389.048	-200.000	-0.010	-0.208
-388.033	14.959	-0.377	-0.295
-387.019	800.000	-0.026	0.078
-386.004	-200.000	-0.054	-0.238
-384.990	-23.146	0.040	0.024
-383.975	-85.135	-0.056	0.018
-382.960	-200.000	-0.053	-0.273
-381.946	-106.093	0.256	-0.057
-380.931	-54.183	-0.386	-0.175
-379.917	-138.681	-0.519	0.057
-378.902	252.785	-0.239	0.407
-377.888	19.334	-0.070	-0.056
-376.873	-200.000	0.028	-0.156
-375.858	78.632	-0.296	0.316
-374.844	215.506	-0.159	-0.252
-373.829	800.000	-0.043	-0.155
-372.815	432.725	0.034	-0.073
-371.800	50.253	0.164	-0.155
-370.785	397.922	-0.030	-0.062
-369.771	160.390	-0.219	-0.304
-368.756	406.346	-0.074	0.156
-367.742	139.455	0.079	-0.103
-366.727	-100.924	0.226	-0.055
-365.712	43.264	-0.199	0.182
-364.698	800.000	0.200	-0.594
-363.683	147.054	0.161	-0.216
-362.669	-187.923	0.191	0.002
-361.654	-136.366	-0.196	0.023
-360.639	800.000	0.095	0.395
-359.625	-20.002	0.129	0.079
-358.610	-200.000	-0.040	-0.286
-357.596	800.000	0.021	-0.088
-356.581	658.876	0.095	0.244
-355.566	-200.000	-0.047	0.212
-354.552	357.809	0.050	-0.099
-353.537	-43.115	0.413	-0.209
-352.523	36.510	-0.194	0.171
-351.508	-143.768	0.362	-0.034
-350.493	-132.417	0.250	-0.032
-349.479	-68.798	-0.182	0.070
-348.464	-200.000	-0.041	0.236
-347.450	295.357	-0.197	-0.360
-346.435	-70.231	0.200	-0.076
-345.420	356.018	-0.253	-0.501
-344.406	-70.417	0.190	-0.072
-343.391	-169.137	-0.151	0.006
-342.377	156.789	-0.105	-0.145
-341.362	-43.273	0.010	-0.005
-340.348	632.418	0.026	0.066
-339.333	-121.017	0.373	0.062
-338.318	-200.000	0.049	-0.293
-337.304	-60.282	-0.117	-0.050
-336.289	27.800	0.075	0.063
-335.275	-53.694	0.119	-0.054
-334.260	3.599	-0.146	-0.106
-333.245	-17.652	0.053	0.033
-332.231	-200.000	-0.029	-0.205
-331.216	408.786	0.051	0.107
-330.202	-12.722	0.158	0.103
-329.187	800.000	-0.068	0.217
-328.172	800.000	0.072	-0.223
-327.158	-200.000	0.022	-0.238
-326.143	22.680	0.257	-0.209
-325.129	269.252	-0.066	-0.116
-324.114	-200.000	-0.015	-0.302
-323.099	237.099	0.028	0.046
-322.085	111.614	-0.409	0.491
-321.070	-8.649	0.196	0.131
-320.056	52.614	0.165	-0.157
-319.041	66.983	0.065	-0.066
-318.026	800.000	0.025	0.082
-317.012	-41.443	-0.201	0.103
-315.997	-200.000	-0.002	0.014
-314.983	-197.033	-0.448	-0.003
-313.968	-4.755	-0.208	-0.142
-312.953	800.000	0.046	0.138
-311.939	800.000	-0.085	-0.359
-310.924	-14.612	0.088	-0.057
-309.910	-80.895	-0.253	-0.083
-308.895	-39.342	0.113	-0.059
-307.880	-9.989	-0.213	0.141
-306.866	90.631	0.092	0.103
-305.851	336.351	-0.111	0.214
-304.837	-6.801	0.066	0.045
-303.822	-100.083	0.232	-0.057
-302.807	161.009	0.065	0.091
-301.793	-15.676	-0.109	-0.069
-300.778	199.562	-0.066	-0.100
-299.764	-19.900	0.204	0.125
-298.749	-86.466	0.316	0.097
-297.735	667.624	-0.045	-0.116
-296.720	-117.009	-0.273	-0.050
-295.705	139.456	-0.059	0.078
-294.691	-152.581	0.260	0.018
-293.676	36.299	0.140	-0.123
-292.662	0.653	-0.145	-0.103
-291.647	-81.534	0.258	0.084
-290.632	-96.926	-0.133	0.035
-289.618	-33.582	-0.110	-0.060
-288.603	191.558	-0.031	0.046
-287.589	695.135	-0.053	-0.137
-286.574	196.003	-0.105	0.159
-285.559	-20.456	0.176	-0.107
-284.545	1.226	0.075	-0.054
-283.530	-8.788	-0.089	0.059
-282.516	286.875	0.030	-0.054
-281.501	-155.239	0.406	-0.026
-280.486	224.201	-0.196	0.314
-279.472	-37.947	0.243	0.129
-278.457	621.496	-0.053	0.133
-277.443	22.747	-0.184	-0.150
-276.428	347.380	-0.101	-0.197
-275.413	680.103	0.053	-0.138
-274.399	48.099	-0.095	-0.088
-273.384	800.000	-0.143	0.462
-272.370	83.950	-0.202	-0.219
-271.355	-2.827	0.076	0.053
-270.340	143.464	0.149	0.198
-269.326	457.941	0.018	-0.040
-268.311	15.560	0.147	-0.115
-267.297	-119.572	-0.238	-0.041
-266.282	39.575	-0.052	-0.046
-265.267	4.458	-0.336	-0.245
-264.253	-36.517	-0.069	-0.037
-263.238	18.740	0.388	0.309
-262.224	731.764	0.046	-0.123
-261.209	-200.000	-0.073	0.485
-260.195	-200.000	-0.047	-0.369
-259.180	-141.374	-0.262	0.026
-258.165	-94.652	-0.261	0.071
-257.151	475.111	-0.034	0.076
-256.136	455.105	-0.104	-0.229
-255.122	-29.200	-0.120	-0.068
-254.107	-200.000	-0.041	-0.249
-253.092	-148.658	0.291	0.024
-252.078	-28.798	0.085	0.048
-251.063	-200.000	0.024	-0.151
-250.049	-40.359	-0.060	-0.031
-249.034	-200.000	0.005	-0.059
-248.019	-100.529	-0.230	-0.056
-247.005	-77.126	-0.219	0.076
-245.990	25.658	0.164	0.135
-244.976	-200.000	0.033	0.379
-243.961	-55.354	-0.319	0.142
-242.946	-94.640	-0.141	0.038
-241.932	-18.734	-0.270	0.167
-240.917	-37.671	0.081	0.043
-239.903	139.802	0.295	0.386
-238.888	5.489	-0.225	0.165
-237.873	-94.024	0.085	-0.023
-236.859	298.741	-0.062	0.114
-235.844	-76.102	-0.138	-0.048
-234.830	50.276	-0.242	0.227
-233.815	800.000	0.035	0.110
-232.800	-200.000	-0.046	0.221
-231.786	86.179	-0.136	-0.148
-230.771	292.041	0.190	-0.343
-229.757	-12.620	-0.230	-0.149
-228.742	-17.944	-0.182	-0.113
-227.727	-93.424	-0.183	0.050
-226.713	-80.237	-0.097	-0.032
-225.698	-16.071	0.169	0.106
-224.684	-200.000	-0.005	-0.029
-223.669	-200.000	0.016	0.209
-222.655	93.426	0.243	0.273
-221.640	51.300	0.090	0.085
-220.625	-117.039	0.109	0.020
-219.611	-200.000	-0.002	-0.051
-218.596	-64.126	-0.302	-0.122
-217.582	-14.911	-0.287	-0.182
-216.567	731.138	0.048	-0.128
-215.552	641.293	0.148	-0.374
-214.538	19.303	-0.147	-0.117
-213.523	-200.000	-0.042	0.246
-212.509	800.000	0.051	-0.216
-211.494	184.732	-0.132	-0.194
-210.479	-122.433	0.091	0.015
-209.465	242.369	-0.104	0.172
-208.450	681.386	-0.112	0.289
-207.436	154.826	-0.074	0.100
-206.421	-166.901	-0.195	-0.008
-205.406	-200.000	0.051	0.512
-204.392	203.624	-0.126	-0.192
-203.377	49.019	-0.060	-0.056
-202.363	439.450	-0.053	-0.114
-201.348	507.954	0.173	0.398
-200.333	800.000	0.046	-0.158
-199.319	-200.000	-0.049	-0.230
-198.304	381.284	-0.059	-0.119
-197.290	-66.251	0.228	0.090
-196.275	333.328	-0.083	-0.160
-195.260	-111.947	0.222	-0.044
-194.246	8.092	0.111	0.082
-193.231	-165.924	0.096	-0.004
-192.217	61.716	-0.060	-0.059
-191.202	-200.000	-0.034	0.199
-190.187	197.305	-0.096	-0.145
-189.173	347.137	0.036	-0.070
-188.158	-200.000	-0.035	0.248
-187.144	137.441	0.138	0.178
-186.129	338.820	-0.057	-0.111
-185.114	-119.019	-0.211	-0.037
-184.100	-187.295	-0.369	-0.005
-183.085	5.570	0.231	-0.169
-182.071	11.989	0.064	-0.049
-181.056	351.469	0.086	-0.169
-180.042	-159.717	-0.180	-0.010
-179.027	199.351	-0.217	-0.330
-178.012	176.989	0.051	0.073
-176.998	-9.174	-0.139	-0.092
-175.983	-200.000	-0.032	0.140
-174.969	-99.716	0.330	0.082
-173.954	311.897	0.145	0.269
-172.939	270.457	-0.063	0.109
-171.925	-114.532	0.132	0.025
-170.910	800.000	0.052	-0.188
-169.896	-81.943	0.142	-0.046
-168.881	-143.061	0.102	-0.010
-167.866	800.000	0.058	0.190
-166.852	800.000	0.086	-0.239
-165.837	34.554	0.028	0.024
-164.823	-5.973	0.318	-0.215
-163.808	-25.732	0.064	0.037
-162.793	-92.755	-0.370	0.102
-161.779	-58.200	-0.066	0.029
-160.764	128.903	0.251	0.316
-159.750	9.691	-0.216	-0.162
-158.735	423.621	-0.141	-0.300
-157.720	-136.302	0.141	-0.016
-156.706	-163.408	-0.329	0.016
-155.691	24.669	-0.316	-0.259
-154.677	-74.268	-0.251	-0.090
-153.662	245.434	0.130	-0.217
-152.647	-200.000	-0.036	-0.213
-151.633	-36.397	0.076	-0.041
-150.618	-66.656	-0.236	0.092
-149.604	-200.000	0.026	0.153
-148.589	-200.000	-0.018	-0.185
-147.574	251.979	0.191	-0.322
-146.560	-121.657	-0.044	-0.007
-145.545	137.185	0.084	-0.108
-144.531	800.000	-0.034	-0.143
-143.516	-51.313	0.246	-0.114
-142.502	-200.000	0.006	-0.114
-141.487	-15.575	-0.355	-0.224
-140.472	-10.711	-0.316	-0.207
-139.458	15.466	-0.053	0.041
-138.443	205.870	0.066	-0.102
-137.429	-185.225	-0.226	-0.003
-136.414	-108.108	-0.214	0.046
-135.399	-31.797	0.121	0.067
-134.385	711.015	-0.068	0.179
-133.370	800.000	-0.049	-0.160
-132.356	-200.000	0.021	-0.160
-131.341	201.415	-0.125	-0.191
-130.326	26.709	0.240	-0.198
-129.312	-156.889	-0.419	-0.025
-128.297	130.099	0.160	-0.202
-127.283	67.787	-0.065	-0.066
-126.268	683.685	-0.063	0.162
-125.253	206.089	0.169	0.260
-124.239	42.901	0.166	0.150
-123.224	18.125	-0.223	-0.176
-122.210	269.933	-0.090	0.157
