DTS Sentinel unit serial number:	SN413079Multiplexer serial number:	ORYXHardware model number:	OX4-SRSoftware version number:	ORYX F/W v4.00 Oryx Data Collector v3.7.2.0data status	okinstallation	princeton_trtdifferential loss correction	single-endedforward channel	channel 3reverse channel	N/Adate	2019/09/11time	05:30:11forward acquisition time	60.00reverse acquisition time	0.00gamma	496.2192k internal	0.2330k external	0.2330temperature offset calibration	0.9910default loss term (dB/km)	0.3790temperature slope calibration	1.0000multiplexer offset coefficient	1.0000multiplexer slope coefficient	1.0000fibre end	0.00T internal ref (°C)	29.41T ext. ref 1 (°C)	-0.22T ext. ref 2 (°C)	23.33length (m)	temperature (°C)	Stokes	anti-Stokes-747.200	-200.000	-0.041	0.193
-746.185	262.328	-0.213	0.372
-745.171	694.672	0.116	-0.306
-744.156	280.724	-0.115	-0.207
-743.142	-72.478	-0.405	-0.151
-742.127	155.975	-0.208	-0.289
-741.112	-59.413	-0.184	-0.079
-740.098	132.564	-0.329	0.427
-739.083	-114.221	0.256	-0.050
-738.069	40.999	0.115	0.105
-737.054	-158.405	0.158	-0.009
-736.039	49.961	-0.224	0.212
-735.025	-200.000	0.001	-0.051
-734.010	147.014	0.009	-0.013
-732.996	800.000	0.027	-0.094
-731.981	-200.000	0.013	-0.131
-730.966	-200.000	-0.013	-0.154
-729.952	28.380	-0.337	-0.286
-728.937	-147.628	-0.219	-0.019
-727.923	-58.238	-0.363	-0.159
-726.908	-68.561	0.131	0.051
-725.894	-113.036	0.326	-0.065
-724.879	463.683	0.159	0.358
-723.864	-65.743	-0.015	0.006
-722.850	355.315	0.240	-0.481
-721.835	-178.934	0.026	0.001
-720.821	23.059	0.149	0.123
-719.806	-47.442	-0.442	-0.216
-718.791	50.247	-0.183	0.174
-717.777	-200.000	-0.007	-0.052
-716.762	800.000	-0.066	0.212
-715.748	800.000	0.088	0.316
-714.733	-200.000	0.001	0.009
-713.718	167.073	0.123	0.176
-712.704	-113.929	-0.112	0.022
-711.689	-153.190	0.652	-0.046
-710.675	-139.934	-0.263	-0.028
-709.660	51.084	-0.179	-0.171
-708.645	-67.253	-0.337	0.133
-707.631	-4.639	0.252	0.175
-706.616	800.000	-0.056	-0.174
-705.602	-200.000	-0.030	-0.207
-704.587	122.681	0.191	0.240
-703.572	-91.747	-0.165	-0.047
-702.558	-187.240	-0.164	-0.002
-701.543	72.117	0.125	0.131
-700.529	42.263	-0.193	0.176
-699.514	-18.272	-0.103	-0.065
-698.499	-200.000	0.000	0.017
-697.485	800.000	-0.017	0.068
-696.470	800.000	-0.052	0.171
-695.456	-65.392	-0.312	-0.126
-694.441	52.606	-0.164	-0.157
-693.426	-72.608	-0.207	-0.077
-692.412	-58.277	-0.071	-0.031
-691.397	-102.718	-0.233	0.056
-690.383	-200.000	-0.050	-0.234
-689.368	-83.924	-0.295	0.094
-688.354	-200.000	0.069	0.358
-687.339	486.325	-0.011	-0.024
-686.324	-48.812	0.256	-0.123
-685.310	-200.000	0.028	-0.279
-684.295	-52.961	0.175	-0.081
-683.281	362.343	0.098	-0.198
-682.266	-127.898	-0.119	-0.017
-681.251	145.145	-0.192	0.258
-680.237	-73.487	-0.097	0.036
-679.222	-134.772	-0.151	-0.018
-678.208	638.350	0.134	0.341
-677.193	-2.615	-0.205	-0.144
-676.178	267.683	-0.125	-0.221
-675.164	-200.000	0.047	0.264
-674.149	-79.443	0.290	0.098
-673.135	-107.646	0.114	-0.025
-672.120	-133.709	0.085	-0.011
-671.105	45.609	-0.205	-0.190
-670.091	-29.167	0.228	-0.131
-669.076	269.197	0.108	0.191
-668.062	800.000	0.053	0.152
-667.047	-82.197	-0.271	-0.089
-666.032	34.901	0.177	-0.156
-665.018	-39.327	-0.313	0.165
-664.003	-200.000	0.023	0.293
-662.989	-165.485	-0.122	0.005
-661.974	223.433	-0.031	-0.050
-660.959	433.176	0.055	0.121
-659.945	800.000	0.046	-0.162
-658.930	-200.000	-0.011	-0.274
-657.916	197.160	0.081	-0.124
-656.901	-48.686	-0.186	0.090
-655.886	-57.899	0.039	-0.017
-654.872	254.684	-0.152	0.262
-653.857	731.498	0.075	-0.202
-652.843	-200.000	-0.085	0.395
-651.828	-200.000	0.094	0.497
-650.814	-200.000	0.004	0.118
-649.799	198.361	-0.376	-0.577
-648.784	14.313	-0.182	-0.142
-647.770	69.245	-0.086	0.089
-646.755	-52.064	-0.293	-0.136
-645.741	-146.451	0.141	0.012
-644.726	800.000	0.021	-0.085
-643.711	-98.681	-0.119	0.030
-642.697	-133.443	-0.201	0.025
-641.682	-200.000	-0.001	0.094
-640.668	36.920	-0.171	-0.151
-639.653	134.841	-0.269	-0.350
-638.638	800.000	0.016	-0.059
-637.624	-200.000	0.031	0.144
-636.609	-103.064	0.119	0.028
-635.595	-17.412	-0.304	0.192
-634.580	-173.608	-0.069	0.002
-633.565	34.269	-0.198	0.173
-632.551	-108.969	0.088	0.019
-631.536	233.094	-0.119	0.195
-630.522	7.855	-0.177	-0.133
-629.507	-134.215	-0.303	0.037
-628.492	-200.000	0.063	0.552
-627.478	2.118	-0.290	0.210
-626.463	302.683	-0.164	-0.304
-625.449	-100.998	0.217	-0.053
-624.434	359.204	0.200	-0.400
-623.419	-140.158	0.155	0.016
-622.405	75.929	0.120	0.127
-621.390	700.782	0.094	-0.247
-620.376	120.152	0.190	-0.236
-619.361	-133.802	0.440	-0.055
-618.346	62.910	-0.212	-0.213
-617.332	-179.315	-0.120	0.003
-616.317	-164.249	-0.177	-0.008
-615.303	-146.298	-0.315	-0.028
-614.288	-200.000	-0.025	-0.111
-613.273	800.000	-0.025	-0.112
-612.259	531.353	0.127	-0.302
-611.244	-200.000	0.012	-0.301
-610.230	800.000	0.058	-0.199
-609.215	-28.962	0.227	0.130
-608.201	259.283	0.205	-0.355
-607.186	137.550	-0.076	-0.099
-606.171	45.007	-0.117	-0.108
-605.157	-200.000	0.021	-0.220
-604.142	800.000	0.096	0.273
-603.128	-124.329	0.204	0.032
-602.113	615.574	-0.038	-0.095
-601.098	-200.000	0.025	-0.264
-600.084	-46.243	0.155	-0.076
-599.069	69.872	-0.218	-0.225
-598.055	17.844	0.154	-0.123
-597.040	-200.000	0.019	-0.464
-596.025	-10.119	0.209	-0.139
-595.011	12.562	-0.147	0.114
-593.996	16.602	-0.087	0.069
-592.982	21.082	0.028	0.023
-591.967	63.877	0.080	0.080
-590.952	-68.191	-0.140	-0.054
-589.938	-32.130	0.305	-0.170
-588.923	15.706	0.105	0.083
-587.909	8.792	-0.305	-0.230
-586.894	41.643	0.031	-0.028
-585.879	-8.618	-0.201	-0.135
-584.865	-133.185	0.118	0.015
-583.850	-92.338	-0.395	0.111
-582.836	800.000	-0.028	0.090
-581.821	-32.847	0.511	-0.284
-580.806	800.000	-0.102	-0.347
-579.792	502.983	-0.080	-0.184
-578.777	-200.000	0.030	-0.232
-577.763	800.000	0.124	0.372
-576.748	800.000	0.045	0.197
-575.733	453.606	0.149	-0.329
-574.719	-200.000	0.018	-0.180
-573.704	-127.947	0.099	0.014
-572.690	434.966	0.141	-0.307
-571.675	-200.000	-0.012	-0.157
-570.661	232.480	0.113	0.185
-569.646	-200.000	-0.009	0.075
-568.631	-93.946	-0.271	-0.074
-567.617	100.268	-0.046	0.054
-566.602	-200.000	-0.006	-0.047
-565.588	29.783	0.030	0.025
-564.573	-113.962	-0.251	-0.049
-563.558	-127.014	0.215	-0.032
-562.544	-88.172	0.180	0.054
-561.529	-87.149	-0.434	0.132
-560.515	-157.346	0.197	0.012
-559.500	-31.040	-0.161	0.091
-558.485	-20.299	-0.128	-0.079
-557.471	-200.000	0.029	-0.183
-556.456	-83.061	0.042	0.014
-555.442	-50.131	-0.352	-0.167
-554.427	-101.600	-0.271	-0.066
-553.412	-79.184	0.218	-0.074
-552.398	-52.411	-0.032	-0.015
-551.383	-126.738	0.290	-0.043
-550.369	265.245	-0.067	0.116
-549.354	-60.978	-0.145	-0.061
-548.339	-158.715	-0.438	0.025
-547.325	-18.729	0.116	0.072
-546.310	37.634	0.115	0.102
-545.296	755.468	-0.065	0.176
-544.281	-200.000	-0.008	0.133
-543.266	270.307	0.090	-0.158
-542.252	-200.000	0.036	-0.198
-541.237	92.133	-0.292	0.328
-540.223	122.252	-0.120	0.150
-539.208	37.193	-0.135	-0.119
-538.193	-92.707	-0.180	0.050
-537.179	800.000	0.061	-0.263
-536.164	-200.000	-0.062	0.504
-535.150	-124.521	-0.193	-0.030
-534.135	-200.000	-0.007	-0.101
-533.121	-134.290	-0.168	0.021
-532.106	-30.839	0.101	-0.057
-531.091	272.436	-0.206	0.364
-530.077	-94.211	0.389	-0.106
-529.062	-51.760	-0.090	0.042
-528.048	-123.155	0.193	-0.031
-527.033	415.101	-0.156	0.332
-526.018	73.995	0.105	0.110
-525.004	-84.348	-0.218	-0.069
-523.989	33.330	-0.180	-0.156
-522.975	-61.551	-0.102	-0.043
-521.960	-116.774	-0.107	-0.020
-520.945	-200.000	0.006	-0.051
-519.931	96.683	0.062	-0.071
-518.916	224.322	0.127	0.206
-517.902	268.009	0.074	-0.129
-516.887	-200.000	-0.039	-0.201
-515.872	-92.409	0.153	0.043
-514.858	800.000	-0.069	0.234
-513.843	216.901	0.220	-0.350
-512.829	-17.877	-0.210	0.131
-511.814	67.026	-0.176	-0.179
-510.799	-200.000	0.032	-0.261
-509.785	-10.588	-0.033	0.022
-508.770	800.000	0.177	0.495
-507.756	779.011	0.105	-0.287
-506.741	-139.780	0.238	0.025
-505.726	-134.212	0.211	0.026
-504.712	-129.330	-0.124	0.017
-503.697	-50.778	-0.129	0.061
-502.683	800.000	0.122	0.399
-501.668	800.000	0.006	-0.027
-500.653	21.473	0.029	0.023
-499.639	-109.209	-0.199	-0.042
-498.624	-200.000	0.017	0.410
-497.610	-144.141	0.425	-0.040
-496.595	-140.744	0.089	0.009
-495.581	697.755	-0.137	-0.358
-494.566	-124.502	0.256	-0.040
-493.551	-60.057	-0.425	-0.181
-492.537	37.688	-0.240	-0.213
-491.522	-148.719	0.301	-0.024
-490.508	-137.066	-0.115	0.013
-489.493	800.000	0.012	0.044
-488.478	3.387	0.201	-0.146
-487.464	123.631	0.075	0.094
-486.449	-141.453	0.544	-0.055
-485.435	-79.503	-0.163	0.055
-484.420	-121.577	-0.057	-0.009
-483.405	35.492	-0.183	0.160
-482.391	-200.000	-0.029	-0.187
-481.376	72.876	0.188	-0.196
-480.362	-148.935	-0.266	0.021
-479.347	-200.000	-0.048	0.229
-478.332	49.524	-0.134	-0.126
-477.318	265.103	0.082	0.143
-476.303	-73.287	0.414	-0.151
-475.289	-77.256	0.159	-0.055
-474.274	-200.000	0.010	0.144
-473.259	73.543	-0.105	0.109
-472.245	-8.693	0.261	0.175
-471.230	800.000	-0.066	-0.216
-470.216	-38.357	0.207	-0.109
-469.201	347.985	-0.024	-0.046
-468.186	410.461	0.075	-0.158
-467.172	246.676	0.163	-0.273
-466.157	167.375	-0.082	0.116
-465.143	-200.000	-0.021	-0.264
-464.128	17.574	-0.295	0.234
-463.113	0.597	0.440	-0.313
-462.099	-45.124	0.027	-0.013
-461.084	-31.836	-0.379	-0.212
-460.070	-27.621	-0.177	0.103
-459.055	-162.077	0.181	0.009
-458.040	41.321	0.225	0.202
-457.026	51.878	0.121	0.115
-456.011	115.723	0.128	0.156
-454.997	-200.000	-0.005	-0.067
-453.982	-200.000	-0.022	0.207
-452.968	480.596	0.037	0.083
-451.953	62.307	0.065	0.065
-450.938	-200.000	0.020	-0.108
-449.924	-87.157	-0.205	0.062
-448.909	-156.875	0.175	0.011
-447.895	432.782	-0.040	-0.086
-446.880	477.696	-0.204	-0.460
-445.865	42.632	-0.098	-0.089
-444.851	-200.000	0.000	0.317
-443.836	-1.595	-0.083	-0.058
-442.822	288.412	-0.107	-0.193
-441.807	-200.000	0.022	0.123
-440.792	-78.823	0.221	0.075
-439.778	73.713	-0.247	0.257
-438.763	-131.650	-0.249	0.032
-437.749	612.218	-0.072	0.178
-436.734	33.568	-0.180	-0.156
-435.719	66.981	-0.121	-0.123
-434.705	232.580	-0.069	-0.113
-433.690	-50.692	-0.066	-0.031
-432.676	158.645	-0.111	-0.153
-431.661	-72.826	0.149	-0.054
-430.646	-143.644	-0.204	-0.019
-429.632	21.518	0.100	-0.081
-428.617	-200.000	-0.023	0.237
-427.603	-200.000	0.008	0.125
-426.588	591.151	-0.011	-0.028
-425.573	-24.985	0.151	0.089
-424.559	-151.092	-0.161	0.012
-423.544	176.629	-0.118	-0.170
-422.530	-200.000	-0.015	0.193
-421.515	677.897	0.081	-0.209
-420.500	-91.014	-0.113	-0.032
-419.486	215.411	-0.119	0.188
-418.471	550.817	-0.032	0.076
-417.457	-200.000	0.022	0.145
-416.442	-86.017	-0.070	0.021
-415.428	97.321	-0.109	0.125
-414.413	98.504	-0.172	-0.197
-413.398	-200.000	-0.030	-0.369
-412.384	-200.000	0.028	0.199
-411.369	513.747	-0.051	-0.119
-410.355	210.958	0.056	0.088
-409.340	83.046	0.129	-0.139
-408.325	-200.000	-0.067	0.324
-407.311	105.857	0.140	0.164
-406.296	1.547	-0.098	-0.070
-405.282	800.000	0.077	-0.260
-404.267	555.102	-0.151	0.361
-403.252	800.000	-0.018	0.065
-402.238	-58.941	0.148	0.063
-401.223	-90.172	0.427	0.123
-400.209	-142.856	-0.092	-0.009
-399.194	518.479	-0.095	0.220
-398.179	-118.081	0.235	-0.042
-397.165	-52.267	-0.116	-0.053
-396.150	-75.959	0.296	0.104
-395.136	445.994	-0.092	0.202
-394.121	-73.192	0.389	-0.142
-393.106	272.376	0.077	-0.135
-392.092	128.441	-0.133	0.168
-391.077	-117.494	0.311	-0.056
-390.063	-200.000	-0.049	-0.238
-389.048	-52.303	-0.173	-0.079
-388.033	40.997	0.128	-0.115
-387.019	-36.627	-0.173	-0.092
-386.004	435.058	-0.108	0.232
-384.990	8.757	-0.198	0.148
-383.975	-181.181	-0.174	-0.003
-382.960	62.017	0.054	-0.053
-381.946	175.993	0.041	-0.058
-380.931	74.196	0.187	0.195
-379.917	12.985	-0.255	0.196
-378.902	800.000	-0.114	-0.361
-377.888	63.337	0.074	-0.074
-376.873	-100.639	0.500	0.123
-375.858	7.272	0.086	0.064
-374.844	481.101	0.087	-0.197
-373.829	207.775	-0.048	-0.074
-372.815	-200.000	0.029	-0.133
-371.800	-74.944	-0.137	-0.049
-370.785	-19.208	-0.260	0.160
-369.771	-145.043	0.138	0.012
-368.756	-200.000	0.054	0.237
-367.742	-21.473	-0.155	0.094
-366.727	147.377	0.057	0.076
-365.712	324.813	0.057	0.108
-364.698	-6.416	0.165	-0.112
-363.683	-1.368	-0.211	-0.147
-362.669	11.788	0.285	0.217
-361.654	-136.213	0.168	-0.019
-360.639	-21.235	0.277	0.168
-359.625	-17.974	0.059	-0.037
-358.610	-21.958	0.260	0.156
-357.596	-159.578	0.081	0.004
-356.581	75.445	0.071	-0.074
-355.566	23.706	-0.071	0.058
-354.552	-200.000	0.033	0.232
-353.537	54.167	-0.140	0.134
-352.523	-76.171	-0.170	0.060
-351.508	47.004	-0.068	0.062
-350.493	-36.849	0.086	0.046
-349.479	100.968	0.124	0.142
-348.464	-155.313	-0.200	0.013
-347.450	-32.190	0.036	0.020
-346.435	60.856	-0.080	-0.079
-345.420	-76.033	0.091	0.032
-344.406	162.706	-0.200	0.278
-343.391	29.275	0.108	0.091
-342.377	-93.811	-0.286	-0.078
-341.362	800.000	-0.107	0.344
-340.348	95.097	-0.168	-0.190
-339.333	499.468	0.152	-0.347
-338.318	-200.000	0.020	-0.341
-337.304	203.028	-0.027	0.041
-336.289	5.324	-0.147	-0.108
-335.275	-200.000	0.003	0.249
-334.260	77.679	0.132	0.140
-333.245	-200.000	-0.018	0.276
-332.231	-81.805	0.022	0.007
-331.216	119.985	0.189	-0.232
-330.202	-116.311	0.159	0.029
-329.187	120.330	-0.183	0.225
-328.172	18.360	-0.282	-0.223
-327.158	-167.881	0.072	0.003
-326.143	-71.516	0.212	0.079
-325.129	34.997	0.198	-0.172
-324.114	279.859	-0.058	-0.103
-323.099	515.294	-0.050	-0.115
-322.085	-74.797	-0.211	0.075
-321.070	128.992	0.129	0.163
-320.056	-112.284	-0.298	0.059
-319.041	163.159	0.089	0.124
-318.026	180.535	-0.145	-0.211
-317.012	49.491	0.158	0.148
-315.997	-67.901	-0.273	0.105
-314.983	-148.028	0.316	0.026
-313.968	434.035	0.080	0.173
-312.953	90.163	-0.233	0.258
-311.939	35.235	0.161	0.140
-310.924	-200.000	0.031	0.165
-309.910	124.627	0.296	0.368
-308.895	-125.316	0.286	0.043
-307.880	62.570	0.229	0.227
-306.866	-9.859	0.033	0.022
-305.851	-121.752	0.260	-0.043
-304.837	800.000	-0.027	-0.103
-303.822	373.100	-0.132	-0.266
-302.807	245.478	-0.212	-0.354
-301.793	-154.887	-0.127	-0.008
-300.778	662.039	0.139	0.354
-299.764	-51.060	-0.031	-0.015
-298.749	-128.115	-0.133	-0.019
-297.735	-200.000	-0.005	-0.089
-296.720	92.103	-0.245	0.273
-295.705	-85.592	-0.194	0.060
-294.691	181.367	-0.150	0.219
-293.676	-158.855	-0.108	-0.006
-292.662	-102.835	0.167	-0.039
-291.647	672.427	0.082	-0.210
-290.632	800.000	0.118	-0.410
-289.618	-77.250	0.312	-0.107
-288.603	363.084	0.135	0.267
-287.589	-20.884	-0.255	0.155
-286.574	800.000	-0.084	-0.267
-285.559	-29.928	-0.160	-0.090
-284.545	-48.149	0.118	0.056
-283.530	52.651	0.211	0.200
-282.516	20.323	0.270	0.216
-281.501	-21.884	0.059	0.036
-280.486	-79.486	0.110	-0.037
-279.472	-65.707	0.088	-0.035
-278.457	62.632	0.361	0.357
-277.443	390.216	-0.067	-0.138
-276.428	324.313	0.091	0.172
-275.413	-68.264	0.142	-0.054
-274.399	-161.894	0.269	0.013
-273.384	-30.716	-0.224	0.125
-272.370	-200.000	-0.018	0.152
-271.355	12.960	0.295	0.226
-270.340	-200.000	-0.058	-0.345
-269.326	-49.342	0.303	0.143
-268.311	-70.964	0.396	-0.147
-267.297	-43.062	-0.276	0.138
-266.282	729.181	0.064	-0.170
-265.267	347.595	0.127	-0.246
-264.253	800.000	0.031	0.106
-263.238	83.679	0.153	-0.165
-262.224	-111.380	-0.082	0.016
-261.209	800.000	-0.074	-0.262
-260.195	-200.000	0.005	0.166
-259.180	800.000	0.022	-0.087
-258.165	-101.014	-0.077	0.019
-257.151	-96.302	-0.120	0.031
-256.136	623.274	0.024	0.060
-255.122	800.000	0.061	-0.168
-254.107	264.503	0.177	0.304
-253.092	800.000	-0.206	0.570
-252.078	-200.000	0.000	-0.091
-251.063	-7.103	-0.352	-0.236
-250.049	-200.000	-0.019	-0.156
-249.034	800.000	0.029	0.109
-248.019	-97.835	-0.343	0.088
-247.005	-12.703	-0.186	-0.120
-245.990	-112.200	-0.317	-0.063
-244.976	-200.000	0.034	-0.268
-243.961	-92.111	0.146	0.041
-242.946	-200.000	0.006	0.366
-241.932	-200.000	0.014	0.096
-240.917	407.141	-0.022	0.046
-239.903	-135.281	0.190	-0.022
-238.888	42.732	-0.036	-0.032
-237.873	-200.000	0.032	-0.276
-236.859	800.000	0.042	0.128
-235.844	-200.000	-0.023	-0.327
-234.830	317.405	-0.019	0.036
-233.815	-189.176	-0.113	0.001
-232.800	101.049	0.135	0.156
-231.786	426.862	-0.104	-0.222
-230.771	486.999	-0.055	0.123
-229.757	87.215	-0.068	0.074
-228.742	-200.000	-0.030	0.177
-227.727	-136.449	0.223	0.026
-226.713	26.609	0.154	0.127
-225.698	-134.199	0.337	0.041
-224.684	-4.045	0.166	0.113
-223.669	-96.730	0.055	0.014
-222.655	-200.000	-0.008	-0.173
-221.640	762.740	-0.014	0.038
-220.625	-133.830	0.242	0.030
-219.611	-2.401	0.096	0.066
-218.596	-52.800	-0.215	0.098
-217.582	800.000	0.122	0.367
-216.567	-15.579	0.119	-0.075
-215.552	209.491	-0.185	0.286
-214.538	314.444	0.058	-0.107
-213.523	29.581	-0.305	0.256
-212.509	-200.000	-0.009	-0.063
-211.494	-26.568	-0.254	-0.147
-210.479	159.527	-0.149	0.205
-209.465	454.073	-0.112	0.245
-208.450	42.067	-0.127	-0.114
-207.436	199.216	0.070	0.106
-206.421	105.361	0.070	-0.081
-205.406	-200.000	-0.016	-0.256
-204.392	46.303	0.180	-0.165
-203.377	-200.000	0.020	-0.131
-202.363	-72.016	0.354	0.130
-201.348	-106.455	0.121	0.027
-200.333	281.855	-0.148	0.262
-199.319	-88.814	0.165	0.048
-198.304	-152.787	-0.100	-0.007
-197.290	800.000	0.085	-0.329
-196.275	223.198	-0.081	0.129
-195.260	167.260	-0.206	0.288
-194.246	800.000	-0.053	-0.168
-193.231	-56.463	0.091	-0.040
-192.217	89.716	0.070	0.077
-191.202	746.667	-0.050	0.133
-190.187	67.768	-0.082	-0.082
-189.173	33.016	0.225	-0.192
-188.158	800.000	-0.049	-0.150
-187.144	297.080	0.044	-0.080
-186.129	129.474	-0.242	-0.305
-185.114	54.729	0.174	-0.165
-184.100	-58.805	-0.166	-0.071
-183.085	-200.000	-0.016	-0.296
-182.071	18.768	-0.310	-0.245
-181.056	306.607	-0.168	0.307
-180.042	114.935	-0.081	0.097
-179.027	10.882	-0.077	0.058
-178.012	-92.684	-0.233	0.064
-176.998	81.614	-0.137	0.146
-175.983	-86.267	0.167	0.051
-174.969	-156.930	-0.249	-0.015
-173.954	33.735	0.291	0.249
-172.939	-169.472	-0.306	-0.011
-171.925	471.704	0.211	-0.469
-170.910	-200.000	0.017	0.370
-169.896	-87.855	-0.361	-0.107
-168.881	298.005	0.142	0.256
-167.866	-42.116	0.239	-0.120
-166.852	-146.395	0.181	0.016
-165.837	800.000	0.057	0.247
-164.823	-200.000	0.066	-0.348
-163.808	157.003	0.165	-0.225
-162.793	136.923	-0.031	0.040
-161.779	-200.000	0.144	0.000
-160.764	186.497	0.179	0.263
-159.750	285.641	0.044	-0.078
-158.735	-37.122	-0.365	0.192
-157.720	97.591	-0.343	0.388
-156.706	-200.000	0.024	-0.141
-155.691	-40.252	0.051	-0.026
-154.677	-200.000	-0.175	0.000
-153.662	-123.231	0.342	0.054
-152.647	191.340	0.195	0.288
-151.633	800.000	0.066	0.278
-150.618	-56.196	-0.207	0.091
-149.604	-0.200	-0.083	0.058
-148.589	-4.996	0.089	-0.061
-147.574	-9.676	-0.247	-0.162
-146.560	800.000	-0.069	0.214
-145.545	84.007	0.313	-0.337
-144.531	-150.593	0.154	0.012
-143.516	-92.903	-0.253	-0.069
-142.502	682.474	-0.094	0.241
-141.487	-156.052	-0.386	0.024
-140.472	-130.427	-0.246	-0.033
-139.458	-7.886	-0.166	0.110
-138.443	-102.617	0.058	0.014
-137.429	-24.695	0.134	0.079
-136.414	134.222	-0.143	0.182
-135.399	-200.000	0.023	-0.125
-134.385	-48.502	0.487	0.230
-133.370	254.022	0.289	0.486
-132.356	-6.302	-0.081	0.055
-131.341	-200.000	0.042	-0.246
-130.326	-17.046	0.180	-0.112
-129.312	-109.813	-0.114	0.024
-128.297	800.000	-0.085	0.241
-127.283	69.592	-0.094	0.095
-126.268	231.956	0.083	0.135
-125.253	34.754	0.368	-0.316
-124.239	800.000	-0.039	0.159
-123.224	800.000	-0.039	-0.162
-122.210	11.963	-0.217	0.164
-121.195	-200.000	-0.033	0.229
