DTS Sentinel unit serial number:	SN413079Multiplexer serial number:	ORYXHardware model number:	OX4-SRSoftware version number:	ORYX F/W v4.00 Oryx Data Collector v3.7.2.0data status	okinstallation	princeton_trtdifferential loss correction	single-endedforward channel	channel 3reverse channel	N/Adate	2019/09/12time	03:34:11forward acquisition time	60.00reverse acquisition time	0.00gamma	496.2192k internal	0.2321k external	0.2321temperature offset calibration	1.0069default loss term (dB/km)	0.3790temperature slope calibration	1.0000multiplexer offset coefficient	1.0000multiplexer slope coefficient	1.0000fibre end	0.00T internal ref (°C)	32.16T ext. ref 1 (°C)	2.15T ext. ref 2 (°C)	27.12length (m)	temperature (°C)	Stokes	anti-Stokes-747.200	65.124	0.186	-0.190
-746.185	-200.000	0.035	-0.231
-745.171	273.192	0.223	-0.398
-744.156	-200.000	-0.068	0.325
-743.142	46.790	0.160	0.150
-742.127	-164.425	-0.163	0.008
-741.112	92.257	0.150	0.171
-740.098	800.000	0.068	0.221
-739.083	140.699	-0.125	0.167
-738.069	155.686	-0.103	0.144
-737.054	800.000	0.044	0.142
-736.039	-79.379	-0.525	0.180
-735.025	173.638	0.055	-0.081
-734.010	9.019	-0.238	0.181
-732.996	5.923	-0.153	-0.115
-731.981	87.356	0.051	-0.057
-730.966	247.946	-0.166	0.283
-729.952	372.132	-0.079	-0.162
-728.937	-200.000	0.002	-0.104
-727.923	-200.000	0.022	-0.354
-726.908	87.699	0.120	-0.134
-725.894	-200.000	-0.011	-0.065
-724.879	5.934	-0.162	0.121
-723.864	134.576	0.102	0.134
-722.850	800.000	0.080	0.311
-721.835	-200.000	0.067	-0.299
-720.821	-8.049	-0.087	0.059
-719.806	-200.000	-0.090	0.474
-718.791	140.472	0.034	0.045
-717.777	-129.719	-0.371	0.052
-716.762	38.395	0.370	-0.333
-715.748	300.532	0.068	-0.126
-714.733	-79.493	-0.123	-0.042
-713.718	-134.690	0.388	-0.048
-712.704	73.910	-0.066	0.070
-711.689	-155.812	-0.100	-0.006
-710.675	-197.212	0.226	-0.001
-709.660	301.200	-0.248	-0.463
-708.645	-200.000	0.008	0.262
-707.631	-0.764	-0.233	-0.167
-706.616	41.314	0.269	-0.245
-705.602	-185.068	0.279	0.004
-704.587	550.865	0.098	-0.238
-703.572	46.989	0.152	0.143
-702.558	800.000	0.027	0.086
-701.543	274.463	0.034	-0.060
-700.529	347.120	-0.046	-0.091
-699.514	-149.638	-0.070	0.006
-698.499	388.243	0.068	0.143
-697.485	-33.760	0.171	0.095
-696.470	220.122	-0.157	0.253
-695.456	-43.844	-0.207	0.105
-694.441	-32.709	-0.109	0.061
-693.426	-110.126	-0.178	0.038
-692.412	94.621	-0.155	-0.178
-691.397	-59.986	-0.166	0.072
-690.383	-200.000	-0.020	-0.113
-689.368	-123.594	0.335	-0.054
-688.354	343.883	0.144	-0.284
-687.339	-43.828	-0.170	0.087
-686.324	-76.882	-0.123	0.043
-685.310	-200.000	0.101	-0.553
-684.295	-200.000	-0.031	-0.163
-683.281	28.243	-0.052	0.044
-682.266	-83.340	0.158	-0.051
-681.251	105.200	-0.094	-0.112
-680.237	-200.000	-0.010	-0.121
-679.222	29.583	0.049	0.042
-678.208	597.063	0.042	0.104
-677.193	-200.000	0.010	-0.134
-676.178	-105.211	0.108	-0.025
-675.164	4.390	-0.153	-0.113
-674.149	-115.517	0.020	-0.004
-673.135	56.924	0.410	-0.403
-672.120	-200.000	-0.023	0.285
-671.105	-40.680	0.188	-0.098
-670.091	-200.000	-0.011	-0.058
-669.076	-200.000	0.062	-0.385
-668.062	-54.423	-0.128	-0.058
-667.047	800.000	-0.080	0.274
-666.032	-41.941	0.181	0.093
-665.018	19.120	-0.136	0.110
-664.003	56.081	0.106	0.104
-662.989	-40.660	0.069	-0.036
-661.974	80.206	0.341	0.369
-660.959	-110.941	0.206	-0.043
-659.945	449.813	0.200	0.445
-658.930	-138.014	-0.159	-0.018
-657.916	-75.929	-0.083	0.029
-656.901	-200.000	-0.019	0.089
-655.886	-165.226	-0.173	-0.008
-654.872	-63.633	0.168	-0.069
-653.857	-57.547	0.048	-0.021
-652.843	-25.647	-0.178	-0.106
-651.828	114.147	0.274	-0.336
-650.814	108.050	0.045	0.054
-649.799	-25.756	0.126	0.075
-648.784	-154.228	-0.139	0.009
-647.770	-162.645	0.371	-0.018
-646.755	-91.684	-0.338	-0.097
-645.741	-40.184	0.152	0.079
-644.726	-200.000	-0.008	-0.082
-643.711	80.844	-0.135	-0.146
-642.697	542.100	0.058	-0.139
-641.682	-200.000	0.010	-0.089
-640.668	800.000	-0.095	-0.273
-639.653	339.064	-0.109	0.214
-638.638	-200.000	-0.004	0.089
-637.624	3.659	0.080	-0.059
-636.609	-135.704	-0.212	-0.025
-635.595	800.000	0.027	-0.110
-634.580	3.852	0.090	-0.066
-633.565	-200.000	0.007	0.581
-632.551	-148.759	-0.200	0.016
-631.536	-48.854	-0.146	-0.070
-630.522	452.759	0.083	0.186
-629.507	-87.930	0.223	-0.067
-628.492	800.000	-0.092	0.274
-627.478	-98.615	-0.082	0.021
-626.463	-122.701	0.606	-0.099
-625.449	-200.000	0.061	-0.278
-624.434	-42.445	0.279	-0.143
-623.419	-151.660	-0.231	0.017
-622.405	33.696	-0.172	0.150
-621.390	260.024	-0.254	-0.441
-620.376	-174.709	-0.574	-0.016
-619.361	-26.132	-0.137	-0.081
-618.346	-87.090	-0.227	-0.070
-617.332	-91.590	-0.397	0.114
-616.317	-200.000	0.006	0.048
-615.303	800.000	-0.041	0.170
-614.288	-15.658	0.207	-0.133
-613.273	-6.166	-0.262	-0.180
-612.259	87.693	0.209	0.232
-611.244	-200.000	0.002	0.294
-610.230	493.584	-0.029	-0.067
-609.215	-47.971	-0.241	0.117
-608.201	25.277	0.191	0.160
-607.186	-50.939	-0.193	-0.091
-606.171	166.140	0.105	-0.149
-605.157	-150.535	0.364	-0.028
-604.142	-200.000	-0.008	0.326
-603.128	421.841	-0.094	0.203
-602.113	-127.565	-0.259	-0.038
-601.098	428.875	-0.025	0.055
-600.084	-127.734	-0.316	0.046
-599.069	383.410	0.098	-0.203
-598.055	428.799	0.062	-0.134
-597.040	265.147	0.024	0.042
-596.025	-60.097	-0.131	-0.056
-595.011	-200.000	-0.021	-0.114
-593.996	146.153	0.097	-0.131
-592.982	-129.449	-0.260	-0.036
-591.967	-123.522	-0.134	0.021
-590.952	-125.447	-0.093	0.014
-589.938	-70.693	-0.245	0.093
-588.923	-56.823	0.443	-0.197
-587.909	123.773	-0.115	-0.144
-586.894	-123.572	-0.106	0.017
-585.879	-171.531	-0.255	-0.009
-584.865	-42.492	0.140	0.071
-583.850	800.000	-0.091	-0.396
-582.836	393.987	-0.125	0.262
-581.821	192.213	0.103	-0.156
-580.806	800.000	0.061	-0.259
-579.792	800.000	0.073	0.279
-578.777	-148.430	0.201	0.017
-577.763	-200.000	0.023	0.152
-576.748	-113.401	-0.233	0.046
-575.733	-16.146	0.296	-0.189
-574.719	146.129	0.104	0.140
-573.704	248.272	0.126	-0.215
-572.690	-200.000	0.008	-0.049
-571.675	114.657	0.114	-0.140
-570.661	52.317	0.321	0.307
-569.646	-200.000	-0.001	-0.305
-568.631	-57.212	-0.263	-0.116
-567.617	-164.723	-0.188	-0.009
-566.602	800.000	0.106	0.367
-565.588	-57.463	-0.332	0.146
-564.573	800.000	-0.059	-0.178
-563.558	15.124	0.222	-0.175
-562.544	-149.813	0.275	-0.022
-561.529	95.852	-0.088	-0.101
-560.515	56.786	-0.131	-0.128
-559.500	297.160	-0.094	-0.174
-558.485	333.254	0.167	-0.324
-557.471	-200.000	0.014	0.112
-556.456	265.189	0.139	-0.243
-555.442	800.000	0.017	-0.073
-554.427	-200.000	-0.012	0.404
-553.412	-54.830	0.203	-0.092
-552.398	-200.000	-0.036	0.221
-551.383	137.709	-0.045	-0.059
-550.369	204.155	-0.012	0.018
-549.354	-174.655	-0.371	-0.011
-548.339	191.660	-0.153	-0.231
-547.325	406.157	-0.031	0.067
-546.310	-36.049	0.070	-0.038
-545.296	-40.702	0.209	0.109
-544.281	800.000	0.107	0.327
-543.266	800.000	0.077	-0.317
-542.252	-148.341	0.297	-0.024
-541.237	96.601	0.041	-0.048
-540.223	-29.329	-0.146	-0.084
-539.208	800.000	-0.058	-0.228
-538.193	-164.376	0.535	0.025
-537.179	-200.000	0.000	0.040
-536.164	420.686	-0.021	0.046
-535.150	-74.360	-0.177	-0.064
-534.135	295.995	0.144	-0.264
-533.121	-200.000	-0.002	-0.142
-532.106	-47.105	0.051	0.025
-531.091	-129.112	-0.131	0.018
-530.077	288.712	0.123	-0.224
-529.062	220.875	0.201	0.323
-528.048	59.405	0.140	0.138
-527.033	-200.000	-0.032	0.305
-526.018	-164.131	0.052	0.002
-525.004	-200.000	0.013	-0.352
-523.989	-200.000	-0.070	0.472
-522.975	800.000	-0.023	0.099
-521.960	400.136	0.062	-0.129
-520.945	-200.000	0.030	0.476
-519.931	-200.000	-0.042	-0.219
-518.916	104.661	0.237	-0.280
-517.902	-90.987	0.306	0.088
-516.887	-81.521	-0.265	0.087
-515.872	-200.000	0.028	-0.367
-514.858	102.034	0.115	0.134
-513.843	402.922	0.088	-0.184
-512.829	-165.815	-0.133	0.006
-511.814	-200.000	-0.027	-0.133
-510.799	-12.803	0.235	0.153
-509.785	-2.010	0.249	0.175
-508.770	-200.000	-0.001	-0.116
-507.756	-44.164	0.170	-0.086
-506.741	-60.416	0.165	-0.070
-505.726	-83.517	0.244	-0.078
-504.712	92.260	0.094	-0.106
-503.697	-105.938	0.386	0.087
-502.683	-11.569	-0.361	0.238
-501.668	67.833	-0.163	-0.167
-500.653	328.334	0.017	-0.032
-499.639	109.039	-0.098	0.117
-498.624	0.274	-0.143	-0.102
-497.610	91.106	-0.122	-0.137
-496.595	800.000	0.004	0.015
-495.581	302.610	-0.007	0.013
-494.566	-135.582	0.158	0.019
-493.551	-200.000	-0.017	0.090
-492.537	11.397	-0.091	0.070
-491.522	-57.188	-0.334	-0.147
-490.508	-200.000	0.010	0.089
-489.493	125.903	-0.210	0.265
-488.478	-105.655	0.262	0.059
-487.464	-64.394	0.184	-0.075
-486.449	-20.093	0.250	-0.154
-485.435	-156.190	-0.425	0.027
-484.420	249.057	-0.103	-0.175
-483.405	341.680	-0.163	0.319
-482.391	113.967	-0.129	0.157
-481.376	-77.313	0.179	-0.062
-480.362	800.000	0.047	-0.170
-479.347	108.193	-0.150	0.179
-478.332	-144.919	-0.329	0.030
-477.318	-200.000	0.008	-0.079
-476.303	-9.380	-0.136	0.091
-475.289	-200.000	0.007	-0.038
-474.274	-147.701	-0.404	-0.034
-473.259	422.129	0.042	0.090
-472.245	-200.000	0.020	-0.153
-471.230	-183.060	0.216	-0.004
-470.216	-200.000	-0.005	-0.049
-469.201	-141.130	0.305	-0.031
-468.186	336.485	-0.054	0.104
-467.172	-200.000	0.013	-0.259
-466.157	-156.226	-0.214	0.013
-465.143	-200.000	-0.022	-0.134
-464.128	800.000	0.082	-0.236
-463.113	-200.000	-0.070	-0.491
-462.099	-76.841	-0.322	0.112
-461.084	-94.107	-0.144	-0.039
-460.070	199.186	-0.081	0.124
-459.055	-200.000	-0.022	0.114
-458.040	800.000	-0.076	-0.211
-457.026	-151.513	-0.289	0.021
-456.011	-13.578	0.117	0.076
-454.997	-10.441	0.295	-0.195
-453.982	72.825	0.122	0.128
-452.968	-35.183	-0.092	-0.050
-451.953	661.267	0.111	-0.285
-450.938	90.564	-0.035	-0.039
-449.924	48.107	-0.172	0.161
-448.909	800.000	0.075	0.218
-447.895	-200.000	-0.002	0.096
-446.880	-71.287	0.353	0.132
-445.865	241.560	0.144	-0.241
-444.851	274.096	0.173	-0.306
-443.836	-200.000	0.014	0.424
-442.822	147.975	0.093	0.125
-441.807	-200.000	0.015	0.227
-440.792	155.522	0.056	-0.077
-439.778	-129.478	-0.303	-0.042
-438.763	-200.000	0.041	-0.212
-437.749	246.476	-0.206	0.346
-436.734	7.472	-0.140	0.105
-435.719	-69.675	-0.350	0.134
-434.705	-200.000	-0.003	-0.136
-433.690	-68.092	0.196	0.076
-432.676	-137.683	0.205	0.023
-431.661	-55.532	0.158	-0.071
-430.646	64.966	-0.251	-0.253
-429.632	-200.000	0.014	-0.212
-428.617	-164.658	-0.223	-0.010
-427.603	800.000	-0.012	-0.036
-426.588	-60.703	-0.304	0.128
-425.573	192.487	0.074	-0.112
-424.559	-200.000	-0.022	-0.179
-423.544	181.575	-0.133	-0.195
-422.530	-163.851	0.302	-0.014
-421.515	-49.637	0.468	-0.222
-420.500	-200.000	0.108	0.517
-419.486	-29.598	0.322	-0.184
-418.471	-52.124	-0.182	0.084
-417.457	-36.284	-0.145	0.078
-416.442	-87.365	-0.408	-0.123
-415.428	306.648	0.099	-0.183
-414.413	-181.802	-0.076	-0.001
-413.398	-200.000	0.043	0.224
-412.384	-200.000	-0.016	0.181
-411.369	-81.824	0.263	-0.086
-410.355	-24.040	0.071	0.042
-409.340	16.127	-0.124	-0.098
-408.325	800.000	-0.034	-0.097
-407.311	396.331	0.042	-0.087
-406.296	61.521	0.098	-0.097
-405.282	-78.541	-0.230	-0.079
-404.267	-45.715	-0.079	-0.039
-403.252	333.684	-0.153	0.295
-402.238	-200.000	0.030	0.145
-401.223	-104.507	-0.396	-0.091
-400.209	46.184	-0.195	-0.180
-399.194	-164.604	0.236	0.011
-398.179	19.350	0.069	0.055
-397.165	-18.730	0.171	0.106
-396.150	331.002	-0.038	-0.073
-395.136	172.478	-0.065	-0.093
-394.121	-200.000	-0.012	-0.217
-393.106	67.784	-0.225	0.229
-392.092	-117.374	0.339	0.061
-391.077	-81.348	0.144	0.047
-390.063	78.333	-0.114	0.121
-389.048	-118.174	-0.146	-0.026
-388.033	-134.990	0.172	0.021
-387.019	374.397	-0.080	0.161
-386.004	-64.843	-0.063	-0.026
-384.990	28.104	0.143	-0.120
-383.975	-92.566	-0.409	-0.114
-382.960	-200.000	0.118	0.591
-381.946	-102.579	-0.062	0.015
-380.931	-14.832	-0.160	-0.102
-379.917	291.875	-0.104	0.189
-378.902	288.888	0.183	-0.330
-377.888	26.003	0.072	0.060
-376.873	-133.775	0.362	-0.045
-375.858	151.657	-0.276	-0.374
-374.844	58.761	-0.130	-0.128
-373.829	188.965	-0.184	-0.275
-372.815	-41.454	0.138	0.071
-371.800	-70.522	-0.049	-0.019
-370.785	71.302	0.073	-0.075
-369.771	-115.027	0.110	0.021
-368.756	48.861	0.021	0.020
-367.742	-21.238	-0.255	-0.155
-366.727	623.653	-0.128	-0.322
-365.712	-184.200	0.299	0.005
-364.698	800.000	0.088	0.258
-363.683	514.243	0.027	-0.063
-362.669	6.095	0.114	0.084
-361.654	380.497	0.107	0.219
-360.639	626.794	0.120	0.301
-359.625	-200.000	-0.027	-0.245
-358.610	-33.229	-0.174	-0.096
-357.596	-200.000	-0.001	-0.034
-356.581	110.663	0.089	0.106
-355.566	-58.513	0.196	-0.085
-354.552	7.598	0.275	0.205
-353.537	-42.271	0.270	0.137
-352.523	-169.223	-0.122	-0.004
-351.508	-68.232	-0.129	0.050
-350.493	445.978	-0.104	-0.228
-349.479	-200.000	-0.007	-0.136
-348.464	-142.646	0.348	-0.034
-347.450	13.648	-0.241	-0.186
-346.435	-200.000	0.007	0.171
-345.420	262.212	-0.107	-0.185
-344.406	-120.962	-0.136	0.023
-343.391	-8.996	-0.063	-0.042
-342.377	-56.704	-0.089	-0.039
-341.362	-200.000	0.002	0.079
-340.348	224.765	-0.184	0.296
-339.333	-44.138	-0.456	0.228
-338.318	-166.587	0.279	0.012
-337.304	-47.869	-0.192	0.093
-336.289	800.000	-0.038	0.145
-335.275	225.261	0.232	-0.374
-334.260	-200.000	0.011	-0.126
-333.245	441.792	0.049	-0.106
-332.231	505.244	-0.076	0.174
-331.216	-60.343	-0.364	-0.154
-330.202	-121.910	0.204	0.033
-329.187	-68.944	0.394	0.151
-328.172	-200.000	-0.029	-0.472
-327.158	-38.963	-0.144	-0.075
-326.143	-48.351	0.115	-0.055
-325.129	97.308	0.202	-0.230
-324.114	-137.711	0.257	-0.029
-323.099	346.791	-0.224	0.438
-322.085	-69.123	0.151	-0.058
-321.070	-12.067	-0.141	-0.092
-320.056	-200.000	0.009	-0.079
-319.041	302.841	-0.132	0.242
-318.026	-17.155	-0.139	0.087
-317.012	55.957	0.266	-0.256
-315.997	-101.024	0.517	0.126
-314.983	69.340	-0.067	0.069
-313.968	-92.402	0.349	-0.098
-312.953	800.000	-0.105	0.319
-311.939	-200.000	0.005	-0.396
-310.924	-16.307	-0.198	0.125
-309.910	366.115	-0.125	0.251
-308.895	800.000	0.036	0.114
-307.880	-45.350	0.204	-0.100
-306.866	-46.629	-0.049	0.024
-305.851	-200.000	-0.032	-0.140
-304.837	127.995	0.114	-0.144
-303.822	-12.119	-0.303	0.197
-302.807	-101.157	0.215	0.052
-301.793	-6.893	-0.078	0.053
-300.778	-91.910	-0.229	-0.065
-299.764	-1.761	0.146	-0.102
-298.749	-200.000	-0.064	0.328
-297.735	-20.208	-0.184	-0.113
-296.720	227.087	-0.065	-0.105
-295.705	-57.870	0.258	0.112
-294.691	-123.942	-0.110	0.017
-293.676	-97.580	0.155	-0.040
-292.662	-200.000	-0.013	0.435
-291.647	220.522	0.112	0.179
-290.632	-116.604	-0.119	0.022
-289.618	-200.000	-0.015	-0.141
-288.603	8.132	-0.159	0.118
-287.589	-78.636	0.276	0.094
-286.574	52.377	0.112	0.106
-285.559	800.000	0.041	-0.164
-284.545	361.864	0.126	0.252
-283.530	-80.422	0.269	-0.089
-282.516	-200.000	-0.005	0.155
-281.501	-7.983	-0.294	-0.197
-280.486	-57.375	0.277	0.121
-279.472	-1.630	-0.388	0.271
-278.457	-85.116	0.154	-0.048
-277.443	253.647	-0.070	0.118
-276.428	-28.584	-0.289	0.165
-275.413	279.818	0.130	-0.231
-274.399	-49.445	-0.109	-0.051
-273.384	347.030	0.137	0.268
-272.370	114.079	0.013	-0.015
-271.355	-200.000	0.022	0.099
-270.340	800.000	-0.043	0.132
-269.326	603.070	-0.033	0.081
-268.311	170.708	-0.137	-0.194
-267.297	371.001	0.060	0.120
-266.282	-32.981	-0.165	0.091
-265.267	114.096	-0.065	0.079
-264.253	800.000	-0.068	-0.252
-263.238	800.000	0.123	-0.451
-262.224	-18.631	0.103	0.064
-261.209	-123.839	0.214	-0.033
-260.195	440.516	-0.140	-0.304
-259.180	800.000	0.137	-0.413
-258.165	52.619	0.250	0.236
-257.151	127.326	-0.070	0.088
-256.136	-23.635	-0.176	0.105
-255.122	-1.379	-0.114	0.080
-254.107	-200.000	0.015	0.257
-253.092	-200.000	0.007	0.052
-252.078	-200.000	-0.194	0.001
-251.063	38.392	0.046	0.041
-250.049	-153.746	0.177	0.012
-249.034	-46.670	0.157	-0.076
-248.019	15.907	-0.292	-0.228
-247.005	13.448	-0.176	-0.135
-245.990	-27.906	0.145	0.083
-244.976	-200.000	-0.008	0.168
-243.961	-200.000	-0.044	-0.272
-242.946	-81.117	0.183	0.060
-241.932	-200.000	0.062	0.359
-240.917	584.132	-0.057	0.138
-239.903	-58.256	0.281	0.121
-238.888	-200.000	-0.010	0.084
-237.873	-183.056	-0.344	-0.006
-236.859	86.194	-0.219	0.239
-235.844	800.000	-0.011	0.047
-234.830	-200.000	0.017	-0.115
-233.815	117.972	0.344	-0.420
-232.800	-127.304	-0.319	0.046
-231.786	-91.381	-0.076	-0.022
-230.771	-69.586	-0.274	0.104
-229.757	204.213	0.123	0.188
-228.742	-101.794	0.200	0.048
-227.727	363.079	0.025	0.050
-226.713	-200.000	-0.076	0.363
-225.698	-88.006	-0.326	0.097
-224.684	424.425	-0.071	0.152
-223.669	-25.439	-0.178	0.104
-222.655	-200.000	0.003	0.191
-221.640	800.000	0.033	-0.112
-220.625	237.514	-0.030	0.049
-219.611	93.488	-0.199	0.223
-218.596	-148.071	0.275	-0.023
-217.582	263.258	-0.058	-0.100
-216.567	498.008	0.096	0.219
-215.552	-55.846	0.118	-0.052
-214.538	-200.000	0.004	0.134
-213.523	-200.000	-0.069	0.361
-212.509	240.810	-0.143	0.237
-211.494	189.660	0.074	0.109
-210.479	-54.376	-0.077	-0.035
-209.465	21.932	-0.061	0.049
-208.450	190.495	0.140	0.209
-207.436	39.731	-0.033	0.029
-206.421	-200.000	-0.018	-0.266
-205.406	-200.000	-0.011	-0.072
-204.392	281.414	0.072	0.128
-203.377	-196.118	0.275	-0.002
-202.363	-31.815	-0.200	0.111
-201.348	-200.000	0.007	-0.092
-200.333	-159.296	-0.193	-0.011
-199.319	-200.000	0.001	0.417
-198.304	-68.166	0.157	0.060
-197.290	287.541	-0.088	-0.157
-196.275	800.000	-0.017	-0.062
-195.260	284.161	0.159	0.283
-194.246	118.621	-0.159	0.194
-193.231	143.148	0.170	0.224
-192.217	800.000	0.064	0.199
-191.202	-150.776	-0.075	-0.006
-190.187	128.482	-0.209	-0.264
-189.173	-101.844	0.220	-0.053
-188.158	632.522	-0.050	0.126
-187.144	410.463	-0.017	0.036
-186.129	-26.225	0.308	-0.179
-185.114	-128.860	0.220	-0.031
-184.100	-200.000	-0.030	-0.193
-183.085	-91.512	-0.077	-0.022
-182.071	-200.000	0.018	0.172
-181.056	-200.000	-0.005	-0.227
-180.042	-82.083	-0.338	0.109
-179.027	555.040	-0.029	-0.068
-178.012	504.666	-0.087	-0.199
-176.998	133.322	0.182	-0.232
-175.983	22.288	-0.233	-0.188
-174.969	451.464	-0.027	0.059
-173.954	149.793	0.095	0.127
-172.939	-44.740	0.083	0.041
-171.925	-176.676	0.307	-0.008
-170.910	-118.063	0.322	-0.057
-169.896	-200.000	-0.030	0.221
-168.881	-74.859	-0.081	0.029
-167.866	800.000	0.043	0.122
-166.852	-70.423	0.121	-0.045
-165.837	15.282	-0.184	-0.142
-164.823	22.001	-0.143	-0.115
-163.808	-67.692	0.091	0.035
-162.793	275.315	0.070	0.122
-161.779	-70.716	-0.167	-0.062
-160.764	-158.455	0.293	-0.017
-159.750	418.123	0.070	-0.147
-158.735	75.558	0.082	-0.086
-157.720	136.818	0.257	-0.332
-156.706	33.559	0.266	-0.228
-155.691	-165.965	0.296	-0.013
-154.677	-176.320	-0.339	-0.009
-153.662	-169.573	-0.076	-0.003
-152.647	-102.146	-0.150	-0.036
-151.633	71.640	0.173	-0.178
-150.618	153.536	0.242	0.327
-149.604	-200.000	0.003	-0.225
-148.589	232.842	-0.066	-0.107
-147.574	-163.522	-0.042	-0.002
-146.560	-56.376	-0.229	0.100
-145.545	138.354	0.047	0.060
-144.531	-22.130	0.233	0.140
-143.516	127.516	-0.082	0.103
-142.502	126.877	0.078	-0.098
-141.487	800.000	-0.056	0.205
-140.472	-59.626	0.034	-0.015
-139.458	47.437	0.300	-0.276
-138.443	283.563	0.095	-0.169
-137.429	246.303	0.158	0.263
-136.414	8.113	0.125	0.093
-135.399	124.130	0.163	-0.202
-134.385	-101.614	-0.243	-0.058
-133.370	-200.000	0.021	-0.251
-132.356	-93.035	0.464	0.128
-131.341	-19.437	-0.099	0.061
-130.326	628.744	0.134	-0.334
-129.312	800.000	0.060	-0.219
-128.297	32.840	-0.268	0.229
-127.283	413.667	-0.094	0.198
-126.268	-200.000	-0.002	-0.508
-125.253	-167.473	0.238	-0.009
-124.239	-200.000	-0.053	-0.478
-123.224	387.156	0.129	-0.262
-122.210	427.802	-0.142	0.302
