DTS Sentinel unit serial number:	SN413079Multiplexer serial number:	ORYXHardware model number:	OX4-SRSoftware version number:	ORYX F/W v4.00 Oryx Data Collector v3.7.2.0data status	okinstallation	princeton_trtdifferential loss correction	single-endedforward channel	channel 3reverse channel	N/Adate	2019/09/11time	17:58:11forward acquisition time	60.00reverse acquisition time	0.00gamma	496.2192k internal	0.2286k external	0.2286temperature offset calibration	0.9993default loss term (dB/km)	0.3790temperature slope calibration	1.0000multiplexer offset coefficient	1.0000multiplexer slope coefficient	1.0000fibre end	0.00T internal ref (°C)	44.00T ext. ref 1 (°C)	1.13T ext. ref 2 (°C)	39.17length (m)	temperature (°C)	Stokes	anti-Stokes-747.200	-32.156	0.072	0.041
-746.185	-83.098	-0.149	0.049
-745.171	-135.059	0.423	0.052
-744.156	-110.540	-0.191	0.041
-743.142	-200.000	-0.010	-0.110
-742.127	290.632	0.058	-0.109
-741.112	-51.105	-0.032	0.015
-740.098	-200.000	-0.039	0.305
-739.083	-200.000	-0.024	-0.265
-738.069	-154.582	-0.195	-0.013
-737.054	515.807	-0.170	0.407
-736.039	-74.646	-0.403	-0.149
-735.025	-23.111	0.131	0.081
-734.010	-200.000	0.004	0.156
-732.996	-200.000	0.019	-0.091
-731.981	40.687	0.229	-0.212
-730.966	-200.000	0.059	0.279
-729.952	-87.194	-0.400	-0.125
-728.937	78.227	-0.034	-0.037
-727.923	-200.000	0.072	-0.327
-726.908	-78.893	0.205	-0.072
-725.894	-51.140	-0.223	0.107
-724.879	102.233	-0.184	0.220
-723.864	800.000	-0.026	0.096
-722.850	-200.000	-0.011	0.257
-721.835	364.043	-0.073	-0.150
-720.821	800.000	-0.030	-0.106
-719.806	16.480	-0.249	0.202
-718.791	-200.000	-0.032	0.167
-717.777	-200.000	-0.006	0.085
-716.762	68.409	-0.034	0.036
-715.748	217.181	-0.079	0.129
-714.733	800.000	-0.088	-0.288
-713.718	57.051	-0.200	0.200
-712.704	-98.683	-0.254	-0.066
-711.689	84.713	-0.168	0.188
-710.675	800.000	0.035	-0.128
-709.660	201.134	0.077	0.122
-708.645	-106.016	-0.197	0.045
-707.631	-65.265	0.523	-0.216
-706.616	800.000	-0.020	0.089
-705.602	-10.088	0.300	0.205
-704.587	800.000	0.100	-0.302
-703.572	75.990	-0.032	-0.035
-702.558	159.736	-0.244	0.348
-701.543	-93.339	-0.106	-0.030
-700.529	800.000	-0.049	0.201
-699.514	-121.329	-0.232	-0.040
-698.499	116.681	-0.294	-0.369
-697.485	793.384	0.100	-0.282
-696.470	514.926	0.036	-0.086
-695.456	552.019	-0.126	-0.309
-694.441	131.661	-0.032	-0.042
-693.426	-118.891	-0.328	0.059
-692.412	800.000	-0.071	0.227
-691.397	608.874	-0.145	-0.372
-690.383	119.543	0.206	0.261
-689.368	168.813	0.156	-0.228
-688.354	-65.053	-0.511	0.211
-687.339	-155.619	-0.223	-0.015
-686.324	800.000	-0.162	-0.466
-685.310	171.392	0.064	0.094
-684.295	-54.712	0.228	0.105
-683.281	-1.015	0.144	0.104
-682.266	7.773	0.339	-0.260
-681.251	-8.199	-0.131	0.091
-680.237	120.223	-0.053	-0.067
-679.222	23.784	0.048	-0.041
-678.208	800.000	-0.081	0.308
-677.193	263.936	-0.115	-0.205
-676.178	78.559	0.040	-0.044
-675.164	90.578	0.048	-0.055
-674.149	-200.000	-0.021	-0.164
-673.135	-16.610	0.123	-0.080
-672.120	19.252	0.268	-0.221
-671.105	151.469	0.200	-0.278
-670.091	13.148	-0.049	0.039
-669.076	-91.630	-0.146	-0.042
-668.062	-155.503	0.088	0.006
-667.047	800.000	-0.022	0.069
-666.032	374.459	-0.084	-0.175
-665.018	800.000	-0.101	-0.302
-664.003	-30.559	0.154	0.089
-662.989	-200.000	0.016	-0.267
-661.974	-200.000	-0.035	-0.225
-660.959	-169.859	0.239	-0.009
-659.945	328.532	-0.094	0.186
-658.930	-200.000	-0.003	0.029
-657.916	138.091	0.142	0.190
-656.901	-89.508	0.198	-0.059
-655.886	-106.314	-0.152	-0.035
-654.872	175.747	-0.026	0.038
-653.857	60.052	-0.261	-0.264
-652.843	121.649	0.131	-0.167
-651.828	-141.132	0.240	0.025
-650.814	-200.000	-0.015	0.131
-649.799	-31.798	-0.348	-0.199
-648.784	12.182	-0.033	-0.026
-647.770	-61.624	-0.140	0.060
-646.755	-58.391	0.259	-0.115
-645.741	-81.681	0.150	0.050
-644.726	-200.000	-0.026	0.194
-643.711	-94.976	0.089	0.025
-642.697	-200.000	0.249	0.001
-641.682	-73.557	0.227	-0.085
-640.668	-105.019	0.101	0.024
-639.653	53.750	0.142	-0.139
-638.638	-200.000	-0.003	-0.058
-637.624	182.053	-0.087	0.130
-636.609	283.948	0.005	-0.009
-635.595	-200.000	-0.045	0.236
-634.580	628.856	0.129	0.334
-633.565	800.000	-0.069	-0.300
-632.551	365.950	0.069	0.142
-631.536	-200.000	0.008	-0.093
-630.522	-107.970	0.100	0.022
-629.507	-67.085	0.484	0.195
-628.492	-62.667	-0.162	-0.069
-627.478	107.700	-0.222	0.269
-626.463	-47.389	0.344	0.171
-625.449	280.954	0.166	-0.303
-624.434	8.821	0.171	0.131
-623.419	-79.894	-0.285	-0.098
-622.405	-10.811	-0.326	0.220
-621.390	17.174	-0.090	-0.073
-620.376	82.477	-0.155	-0.171
-619.361	-14.742	0.158	-0.103
-618.346	-51.605	0.132	-0.063
-617.332	-102.806	0.260	-0.063
-616.317	-200.000	-0.020	-0.215
-615.303	-104.135	0.148	-0.035
-614.288	46.961	-0.058	-0.055
-613.273	46.648	-0.218	-0.206
-612.259	151.227	-0.103	-0.143
-611.244	-200.000	-0.083	-0.374
-610.230	-32.552	-0.134	-0.076
-609.215	-11.306	-0.134	-0.090
-608.201	-120.660	-0.218	-0.038
-607.186	-41.410	0.163	-0.086
-606.171	-96.408	0.357	0.096
-605.157	-200.000	-0.024	-0.138
-604.142	-109.969	-0.226	-0.048
-603.128	-82.294	-0.170	0.056
-602.113	-67.897	-0.261	-0.104
-601.098	775.239	0.033	0.092
-600.084	-41.777	-0.309	-0.162
-599.069	92.384	0.087	-0.100
-598.055	-109.423	-0.278	-0.060
-597.040	-200.000	-0.047	-0.232
-596.025	117.211	0.023	-0.029
-595.011	-200.000	0.017	0.176
-593.996	-40.792	-0.368	0.194
-592.982	-110.906	-0.424	-0.089
-591.967	138.020	0.219	-0.293
-590.952	-48.680	0.281	-0.138
-589.938	-126.908	-0.325	-0.049
-588.923	0.375	0.069	-0.050
-587.909	172.589	-0.096	-0.142
-586.894	-67.695	0.209	0.083
-585.879	-37.391	0.248	-0.135
-584.865	185.415	-0.301	-0.456
-583.850	-42.974	0.156	0.081
-582.836	-200.000	-0.002	0.377
-581.821	-18.738	-0.215	0.137
-580.806	-149.992	0.439	-0.035
-579.792	-49.439	-0.095	-0.046
-578.777	-10.833	-0.352	0.237
-577.763	597.513	-0.055	0.138
-576.748	-19.536	0.107	-0.068
-575.733	-200.000	-0.039	-0.203
-574.719	-33.368	-0.110	-0.062
-573.704	37.747	-0.130	-0.118
-572.690	-91.366	0.143	-0.042
-571.675	28.076	-0.044	-0.038
-570.661	161.432	-0.071	-0.101
-569.646	-200.000	-0.020	0.231
-568.631	-67.825	-0.318	0.127
-567.617	-200.000	0.003	0.136
-566.602	-169.469	0.319	0.012
-565.588	-11.107	0.163	-0.109
-564.573	-158.782	0.127	-0.007
-563.558	210.837	0.179	-0.286
-562.544	10.382	0.165	-0.128
-561.529	-0.346	0.126	-0.092
-560.515	-153.724	-0.327	0.023
-559.500	-200.000	0.028	0.342
-558.485	-29.755	0.245	0.143
-557.471	-54.411	0.066	-0.031
-556.456	172.263	-0.193	-0.283
-555.442	28.800	-0.222	-0.191
-554.427	-108.695	0.207	-0.045
-553.412	243.808	-0.179	-0.307
-552.398	800.000	0.015	0.050
-551.383	-200.000	0.105	-0.518
-550.369	125.524	0.045	-0.058
-549.354	27.358	-0.145	0.124
-548.339	5.019	0.033	-0.025
-547.325	22.977	-0.327	0.273
-546.310	-200.000	0.010	0.339
-545.296	-58.188	0.111	0.049
-544.281	800.000	-0.107	0.386
-543.266	423.428	-0.044	-0.095
-542.252	-200.000	0.012	-0.366
-541.237	-4.246	0.103	-0.072
-540.223	4.713	0.181	-0.135
-539.208	-122.091	-0.236	-0.039
-538.193	-200.000	0.001	-0.130
-537.179	316.204	0.082	0.158
-536.164	57.551	-0.122	-0.121
-535.150	94.818	0.127	0.147
-534.135	-200.000	-0.028	-0.187
-533.121	-94.147	-0.386	0.108
-532.106	-81.574	-0.127	0.042
-531.091	-32.090	0.387	0.220
-530.077	-10.416	0.059	-0.040
-529.062	101.153	0.101	-0.120
-528.048	56.473	-0.257	0.254
-527.033	57.451	0.099	-0.098
-526.018	-156.707	0.255	-0.016
-525.004	-90.985	0.119	-0.035
-523.989	-134.817	-0.228	-0.028
-522.975	-200.000	-0.030	-0.147
-521.960	-40.639	-0.159	0.084
-520.945	-200.000	-0.012	-0.453
-519.931	-200.000	0.015	-0.137
-518.916	24.843	-0.077	0.065
-517.902	800.000	-0.082	-0.322
-516.887	32.719	-0.163	-0.143
-515.872	-47.861	0.276	-0.136
-514.858	-7.081	-0.097	0.067
-513.843	-141.956	0.279	-0.028
-512.829	515.138	0.069	-0.164
-511.814	358.875	0.067	-0.137
-510.799	31.593	-0.182	0.159
-509.785	21.514	-0.212	-0.176
-508.770	-200.000	0.044	-0.278
-507.756	96.170	0.185	-0.215
-506.741	430.535	-0.203	-0.448
-505.726	232.446	-0.171	0.285
-504.712	153.916	-0.357	0.498
-503.697	90.237	-0.183	-0.208
-502.683	-120.235	-0.177	-0.031
-501.668	800.000	-0.114	-0.437
-500.653	-200.000	0.056	-0.260
-499.639	286.356	-0.100	-0.184
-498.624	-149.585	0.059	0.005
-497.610	81.825	-0.074	0.081
-496.595	14.646	0.167	-0.132
-495.581	-130.896	-0.333	0.045
-494.566	340.709	0.086	-0.171
-493.551	-200.000	-0.008	0.119
-492.537	144.171	-0.252	0.342
-491.522	-104.656	0.293	-0.069
-490.508	-200.000	0.008	-0.095
-489.493	-87.708	-0.251	0.077
-488.478	-61.940	0.128	0.054
-487.464	-160.724	0.182	0.010
-486.449	137.546	0.200	0.266
-485.435	16.883	-0.201	-0.162
-484.420	-200.000	0.010	-0.084
-483.405	800.000	0.031	-0.129
-482.391	-28.853	-0.266	0.155
-481.376	-46.852	0.154	-0.077
-480.362	-97.921	-0.278	0.073
-479.347	-200.000	-0.055	0.319
-478.332	-58.007	-0.157	-0.069
-477.318	-200.000	-0.009	0.183
-476.303	23.967	0.290	0.243
-475.289	-90.269	-0.233	-0.069
-474.274	-28.270	0.279	-0.164
-473.259	-160.938	0.292	0.016
-472.245	-134.111	-0.318	0.040
-471.230	527.564	-0.102	0.245
-470.216	-114.305	0.256	0.050
-469.201	-77.563	0.383	0.135
-468.186	-114.632	-0.215	-0.042
-467.172	-24.342	-0.286	-0.173
-466.157	-71.424	0.218	0.083
-465.143	-55.990	0.094	-0.042
-464.128	499.912	-0.108	-0.252
-463.113	40.833	-0.129	0.118
-462.099	-83.101	0.099	0.032
-461.084	-194.819	-0.095	0.001
-460.070	-200.000	0.001	-0.076
-459.055	-40.161	0.084	-0.044
-458.040	-35.932	-0.170	-0.093
-457.026	151.116	-0.038	0.052
-456.011	-200.000	0.017	-0.481
-454.997	-108.741	0.386	-0.084
-453.982	502.669	0.076	0.177
-452.968	-17.612	-0.331	0.211
-451.953	45.644	-0.158	-0.148
-450.938	14.422	-0.037	-0.030
-449.924	-103.125	-0.251	0.060
-448.909	-93.911	-0.276	-0.077
-447.895	800.000	-0.065	-0.216
-446.880	800.000	0.044	0.150
-445.865	-200.000	0.038	0.198
-444.851	36.965	-0.130	0.117
-443.836	-200.000	-0.044	-0.243
-442.822	-29.581	0.178	-0.103
-441.807	-200.000	-0.024	0.120
-440.792	32.238	-0.135	0.118
-439.778	-8.252	0.213	0.146
-438.763	-76.199	0.093	0.033
-437.749	-200.000	0.017	-0.119
-436.734	-64.277	0.118	-0.049
-435.719	-20.589	0.135	0.084
-434.705	-200.000	0.064	-0.311
-433.690	-104.514	-0.424	0.099
-432.676	5.894	-0.136	0.102
-431.661	632.799	0.077	0.198
-430.646	-38.457	-0.110	-0.059
-429.632	17.604	-0.132	-0.107
-428.617	-200.000	-0.062	0.314
-427.603	-138.985	0.178	0.020
-426.588	489.082	-0.038	-0.088
-425.573	800.000	0.007	-0.019
-424.559	640.901	0.096	-0.247
-423.544	800.000	-0.077	0.261
-422.530	10.519	-0.239	0.184
-421.515	-84.389	0.172	-0.055
-420.500	800.000	0.044	0.192
-419.486	-173.499	-0.340	-0.010
-418.471	65.310	-0.106	-0.108
-417.457	-21.076	0.187	-0.116
-416.442	177.583	-0.166	-0.245
-415.428	-147.853	0.170	-0.014
-414.413	-13.417	-0.262	0.172
-413.398	752.512	-0.028	-0.076
-412.384	154.894	0.228	-0.317
-411.369	-77.977	-0.272	-0.095
-410.355	212.667	-0.064	0.102
-409.340	-200.000	0.019	-0.156
-408.325	7.121	0.122	0.092
-407.311	604.076	0.037	0.094
-406.296	31.661	-0.052	-0.046
-405.282	-169.389	0.204	0.008
-404.267	-25.071	0.372	0.224
-403.252	101.800	-0.102	0.120
-402.238	-23.432	0.089	-0.054
-401.223	-82.338	-0.160	0.053
-400.209	13.928	-0.357	-0.282
-399.194	800.000	0.134	-0.510
-398.179	-200.000	-0.010	-0.057
-397.165	-80.319	-0.207	0.070
-396.150	643.431	-0.131	0.338
-395.136	-181.244	-0.178	-0.004
-394.121	457.032	0.125	0.281
-393.106	800.000	0.080	-0.342
-392.092	-62.998	0.108	-0.045
-391.077	70.545	0.066	-0.069
-390.063	75.004	-0.190	-0.202
-389.048	-200.000	0.091	-0.414
-388.033	37.290	0.040	-0.036
-387.019	-75.542	-0.198	-0.071
-386.004	2.828	-0.219	-0.161
-384.990	-132.246	-0.151	0.020
-383.975	-3.825	0.148	0.104
-382.960	-24.217	0.096	-0.058
-381.946	342.604	0.056	-0.111
-380.931	-49.814	-0.069	0.033
-379.917	-181.582	-0.083	-0.002
-378.902	800.000	-0.062	0.239
-377.888	162.031	0.051	-0.073
-376.873	800.000	0.032	0.097
-375.858	10.741	0.335	-0.258
-374.844	412.961	0.042	0.091
-373.829	102.963	-0.222	0.263
-372.815	-200.000	0.043	-0.286
-371.800	-37.515	-0.089	-0.048
-370.785	-200.000	0.002	-0.129
-369.771	2.568	-0.193	-0.141
-368.756	-200.000	-0.021	-0.160
-367.742	260.342	0.039	-0.067
-366.727	235.469	-0.151	0.252
-365.712	-31.979	0.341	-0.193
-364.698	-36.018	0.244	-0.133
-363.683	44.519	0.204	0.190
-362.669	66.911	-0.096	-0.099
-361.654	-200.000	0.008	-0.268
-360.639	800.000	-0.088	-0.387
-359.625	-200.000	0.035	0.183
-358.610	174.361	-0.061	0.089
-357.596	361.891	-0.175	-0.355
-356.581	70.991	0.103	0.108
-355.566	800.000	0.023	0.096
-354.552	235.382	-0.094	0.157
-353.537	-200.000	0.006	-0.195
-352.523	-200.000	-0.010	-0.122
-351.508	-69.492	0.208	0.080
-350.493	77.654	0.062	-0.067
-349.479	51.179	-0.120	0.115
-348.464	61.007	-0.110	0.110
-347.450	-61.222	0.199	-0.085
-346.435	-112.191	0.393	-0.080
-345.420	-127.288	0.147	0.022
-344.406	-12.224	0.115	0.076
-343.391	128.588	0.182	0.234
-342.377	388.636	0.146	-0.305
-341.362	-137.574	-0.050	0.006
-340.348	162.671	-0.084	0.119
-339.333	-65.913	-0.080	-0.032
-338.318	22.168	0.123	-0.101
-337.304	-133.755	-0.277	-0.035
-336.289	98.673	-0.044	-0.052
-335.275	-200.000	0.008	-0.120
-334.260	-200.000	0.016	-0.101
-333.245	108.265	0.109	0.131
-332.231	75.528	-0.081	0.086
-331.216	-200.000	-0.003	0.197
-330.202	-145.146	0.146	-0.013
-329.187	-200.000	0.022	0.330
-328.172	-80.509	-0.201	-0.068
-327.158	-7.320	-0.135	0.093
-326.143	123.812	0.140	0.177
-325.129	-81.439	0.076	0.025
-324.114	47.805	-0.136	-0.129
-323.099	800.000	-0.085	0.266
-322.085	45.437	0.126	0.118
-321.070	-176.202	-0.062	0.002
-320.056	-70.278	0.206	-0.079
-319.041	135.643	-0.196	0.257
-318.026	230.836	-0.072	-0.119
-317.012	18.502	0.115	-0.093
-315.997	800.000	0.063	-0.188
-314.983	460.621	-0.082	0.185
-313.968	204.515	0.135	0.211
-312.953	327.004	-0.062	0.120
-311.939	-74.486	-0.175	-0.064
-310.924	-200.000	0.013	-0.326
-309.910	796.839	-0.111	-0.309
-308.895	800.000	0.049	-0.188
-307.880	-200.000	0.002	0.239
-306.866	-105.791	0.116	-0.026
-305.851	-200.000	0.008	0.146
-304.837	-200.000	0.007	-0.163
-303.822	-200.000	-0.006	0.220
-302.807	-200.000	0.001	0.069
-301.793	800.000	0.057	-0.185
-300.778	206.150	-0.099	0.155
-299.764	-74.825	-0.162	0.059
-298.749	-26.893	0.168	0.099
-297.735	74.427	-0.261	-0.276
-296.720	59.454	0.116	-0.115
-295.705	-104.505	0.214	-0.050
-294.691	-12.218	-0.066	0.044
-293.676	3.899	0.271	-0.199
-292.662	92.376	-0.191	-0.217
-291.647	66.308	-0.180	-0.184
-290.632	502.679	-0.061	0.143
-289.618	20.085	0.133	0.108
-288.603	-65.151	0.235	-0.095
-287.589	34.250	0.136	-0.120
-286.574	449.216	0.070	-0.155
-285.559	-126.876	0.186	0.028
-284.545	-141.660	0.195	-0.020
-283.530	-200.000	-0.021	0.282
-282.516	-10.995	0.178	0.118
-281.501	120.391	0.223	-0.278
-280.486	-21.095	-0.128	0.079
-279.472	68.609	0.105	0.108
-278.457	770.527	0.050	0.137
-277.443	-122.742	0.190	0.031
-276.428	-164.273	0.349	-0.016
-275.413	90.049	-0.098	-0.110
-274.399	-200.000	-0.026	0.230
-273.384	-108.611	0.447	0.097
-272.370	-45.589	-0.026	-0.013
-271.355	-200.000	-0.019	-0.147
-270.340	-27.736	0.039	-0.023
-269.326	-3.535	0.180	0.126
-268.311	800.000	-0.053	0.195
-267.297	-200.000	0.000	-0.049
-266.282	-200.000	0.062	-0.298
-265.267	-200.000	-0.063	0.331
-264.253	165.037	-0.076	-0.108
-263.238	-51.852	0.244	-0.114
-262.224	-80.881	-0.100	-0.034
-261.209	36.753	-0.257	-0.229
-260.195	-140.871	-0.235	0.024
-259.180	-2.034	-0.255	-0.180
-258.165	397.366	-0.063	0.133
-257.151	137.679	-0.078	0.103
-256.136	-6.161	-0.124	0.085
-255.122	522.259	0.188	0.444
-254.107	188.234	-0.188	-0.282
-253.092	800.000	0.061	-0.175
-252.078	-200.000	0.031	0.304
-251.063	74.075	0.197	0.208
-250.049	800.000	-0.100	-0.394
-249.034	283.436	-0.090	0.162
-248.019	-127.151	0.089	0.013
-247.005	-100.878	0.279	0.069
-245.990	100.887	-0.130	0.152
-244.976	760.640	0.117	0.318
-243.961	-144.022	0.565	-0.053
-242.946	-118.423	0.324	0.058
-241.932	-42.127	0.347	0.179
-240.917	500.283	-0.049	0.114
-239.903	27.804	-0.343	0.291
-238.888	131.095	-0.088	0.113
-237.873	221.581	0.122	-0.197
-236.859	249.087	0.206	-0.351
-235.844	-121.326	-0.156	0.026
-234.830	-165.467	-0.280	0.012
-233.815	-150.686	-0.539	0.041
-232.800	-47.123	-0.110	0.054
-231.786	14.969	-0.207	0.163
-230.771	608.601	0.159	0.400
-229.757	-60.868	-0.129	-0.055
-228.742	-200.000	0.013	-0.100
-227.727	480.652	0.018	0.041
-226.713	-49.273	0.294	0.141
-225.698	-15.455	0.113	-0.073
-224.684	800.000	0.052	0.168
-223.669	-58.609	0.191	-0.083
-222.655	-200.000	-0.016	0.121
-221.640	-200.000	0.000	0.002
-220.625	800.000	0.052	0.176
-219.611	-69.202	0.253	0.098
-218.596	224.528	0.157	0.256
-217.582	800.000	-0.163	0.477
-216.567	-200.000	0.040	0.291
-215.552	-84.448	-0.474	0.151
-214.538	319.929	-0.046	-0.088
-213.523	-200.000	0.043	0.318
-212.509	80.047	-0.118	0.127
-211.494	-200.000	0.036	0.287
-210.479	-200.000	0.019	-0.169
-209.465	46.011	0.099	-0.092
-208.450	-102.886	0.163	0.039
-207.436	138.426	-0.116	-0.153
-206.421	-62.165	0.264	-0.111
-205.406	-35.630	0.431	0.235
-204.392	-126.171	-0.377	-0.057
-203.377	-127.098	0.258	-0.038
-202.363	250.576	-0.050	0.085
-201.348	223.369	0.139	-0.225
-200.333	-50.127	-0.195	0.093
-199.319	-21.805	0.263	0.160
-198.304	-95.086	-0.296	0.080
-197.290	-21.976	-0.117	-0.071
-196.275	-125.687	-0.394	0.060
-195.260	-12.448	0.024	0.016
-194.246	-51.054	0.279	0.131
-193.231	28.277	0.028	0.024
-192.217	-94.655	0.114	0.031
-191.202	28.229	-0.389	-0.330
-190.187	80.567	0.125	-0.135
-189.173	-200.000	0.012	0.162
-188.158	87.841	0.108	0.120
-187.144	800.000	0.017	0.052
-186.129	41.663	0.036	0.033
-185.114	-142.455	-0.071	-0.007
-184.100	-200.000	-0.026	-0.185
-183.085	-57.300	-0.268	-0.118
-182.071	800.000	0.059	0.191
-181.056	-142.526	-0.235	0.023
-180.042	-200.000	-0.011	-0.057
-179.027	399.853	0.128	-0.269
-178.012	-72.774	-0.113	0.042
-176.998	21.429	0.286	0.233
-175.983	-94.454	0.304	0.083
-174.969	209.684	-0.177	0.278
-173.954	-34.850	0.319	0.175
-172.939	94.737	-0.207	0.236
-171.925	-200.000	-0.082	0.573
-170.910	416.743	0.034	0.073
-169.896	24.563	0.097	0.081
-168.881	222.932	0.124	0.201
-167.866	81.374	0.167	0.181
-166.852	25.204	-0.169	-0.140
-165.837	80.632	-0.125	0.135
-164.823	-162.185	0.322	0.016
-163.808	-200.000	-0.074	0.358
-162.793	655.419	0.161	0.415
-161.779	-68.319	0.131	-0.051
-160.764	-109.365	0.215	-0.046
-159.750	387.018	0.036	0.075
-158.735	60.088	0.216	0.214
-157.720	14.581	-0.271	0.212
-156.706	-103.560	0.166	0.039
-155.691	58.067	0.068	0.067
-154.677	-14.245	-0.191	0.124
-153.662	-200.000	0.027	-0.245
-152.647	-98.238	0.154	-0.040
-151.633	15.283	-0.342	0.269
-150.618	75.375	0.127	0.134
-149.604	-82.260	0.145	0.047
-148.589	-113.813	0.189	0.037
-147.574	658.148	-0.165	0.424
-146.560	760.490	-0.142	0.386
-145.545	-198.518	0.131	-0.001
-144.531	-200.000	-0.009	0.257
-143.516	-128.592	-0.237	0.034
-142.502	-200.000	0.016	0.191
-141.487	683.575	0.093	0.243
-140.472	250.687	-0.062	0.106
-139.458	800.000	0.037	0.110
-138.443	-75.939	0.143	0.051
-137.429	-105.001	-0.307	0.070
-136.414	-200.000	0.036	-0.206
-135.399	-200.000	0.006	0.118
-134.385	-200.000	0.046	0.226
-133.370	-104.906	-0.258	-0.059
-132.356	800.000	-0.074	0.247
-131.341	800.000	0.130	0.519
-130.326	-200.000	-0.042	0.185
-129.312	-100.483	0.107	-0.027
-128.297	93.962	0.127	-0.144
-127.283	-38.359	-0.113	0.060
-126.268	108.911	-0.076	-0.091
-125.253	13.513	-0.092	-0.071
-124.239	-152.098	0.143	0.010
-123.224	-31.754	0.423	-0.237
-122.210	85.061	-0.080	0.088
-121.195	-61.856	0.185	-0.077
