DTS Sentinel unit serial number:	SN413079Multiplexer serial number:	ORYXHardware model number:	OX4-SRSoftware version number:	ORYX F/W v4.00 Oryx Data Collector v3.7.2.0data status	okinstallation	princeton_trtdifferential loss correction	single-endedforward channel	channel 3reverse channel	N/Adate	2019/09/10time	18:38:11forward acquisition time	60.00reverse acquisition time	0.00gamma	496.2192k internal	0.2307k external	0.2307temperature offset calibration	0.9916default loss term (dB/km)	0.3790temperature slope calibration	1.0000multiplexer offset coefficient	1.0000multiplexer slope coefficient	1.0000fibre end	0.00T internal ref (°C)	35.50T ext. ref 1 (°C)	-0.34T ext. ref 2 (°C)	27.46length (m)	temperature (°C)	Stokes	anti-Stokes-747.200	-152.063	-0.175	-0.013
-746.185	-200.000	-0.019	0.152
-745.171	-78.581	0.207	0.072
-744.156	800.000	-0.107	0.321
-743.142	87.789	0.163	0.184
-742.127	-200.000	-0.049	0.333
-741.112	71.289	-0.121	-0.128
-740.098	0.433	0.093	0.067
-739.083	-26.394	0.366	-0.218
-738.069	800.000	0.041	0.135
-737.054	-139.347	-0.070	-0.008
-736.039	-200.000	-0.002	-0.187
-735.025	-172.470	0.182	-0.006
-734.010	94.442	0.101	-0.116
-732.996	-52.553	-0.288	0.135
-731.981	-200.000	-0.030	-0.223
-730.966	-61.418	0.258	-0.110
-729.952	-35.594	-0.200	0.110
-728.937	125.744	0.084	-0.108
-727.923	280.854	-0.130	-0.237
-726.908	-78.553	-0.127	-0.044
-725.894	2.552	-0.097	-0.071
-724.879	90.344	0.235	-0.267
-723.864	3.801	0.149	0.110
-722.850	251.770	-0.096	0.166
-721.835	345.414	0.097	0.194
-720.821	340.343	0.174	-0.344
-719.806	36.267	-0.257	0.230
-718.791	-155.295	0.214	-0.014
-717.777	57.939	-0.081	-0.080
-716.762	46.958	0.066	0.062
-715.748	647.452	0.164	-0.425
-714.733	-138.219	0.168	0.019
-713.718	-117.023	0.183	0.034
-712.704	-95.689	-0.095	-0.026
-711.689	-81.410	0.198	0.066
-710.675	20.432	-0.103	0.084
-709.660	-123.276	-0.487	0.079
-708.645	61.498	0.066	-0.067
-707.631	161.356	-0.186	-0.264
-706.616	-88.057	0.360	0.110
-705.602	-10.278	0.319	-0.215
-704.587	800.000	-0.059	-0.181
-703.572	-133.100	0.313	-0.040
-702.558	129.796	-0.150	0.195
-701.543	99.499	0.166	0.195
-700.529	206.644	0.055	-0.088
-699.514	-60.156	-0.102	0.044
-698.499	15.490	-0.184	-0.147
-697.485	-70.663	-0.176	0.068
-696.470	-200.000	0.007	-0.145
-695.456	-200.000	0.019	-0.130
-694.441	213.441	0.109	0.175
-693.426	221.226	0.098	-0.160
-692.412	-0.033	-0.123	0.089
-691.397	-200.000	-0.013	-0.189
-690.383	-38.564	-0.115	0.062
-689.368	51.045	-0.206	0.198
-688.354	8.945	0.231	-0.177
-687.339	800.000	-0.047	-0.145
-686.324	7.498	0.307	0.233
-685.310	-200.000	-0.002	-0.090
-684.295	637.771	-0.151	-0.390
-683.281	238.777	0.088	-0.148
-682.266	-32.811	-0.130	0.073
-681.251	-123.957	-0.064	-0.010
-680.237	47.890	-0.240	-0.227
-679.222	526.506	0.105	-0.250
-678.208	-90.446	0.130	0.038
-677.193	800.000	-0.056	0.219
-676.178	5.447	0.312	-0.234
-675.164	515.852	-0.145	-0.343
-674.149	800.000	0.099	-0.307
-673.135	-200.000	-0.025	0.209
-672.120	-69.187	-0.201	-0.079
-671.105	-5.013	-0.140	-0.097
-670.091	-13.199	-0.207	-0.136
-669.076	18.326	-0.054	0.043
-668.062	160.059	-0.136	-0.192
-667.047	192.468	-0.172	0.263
-666.032	800.000	-0.127	-0.358
-665.018	650.778	-0.063	-0.163
-664.003	-200.000	0.313	-0.001
-662.989	587.970	-0.054	-0.134
-661.974	-66.967	0.249	-0.100
-660.959	44.866	-0.249	0.232
-659.945	-126.212	-0.202	0.031
-658.930	-77.643	0.224	-0.079
-657.916	-45.699	0.268	0.134
-656.901	67.826	0.141	0.146
-655.886	-48.070	0.237	0.116
-654.872	-41.433	0.139	0.072
-653.857	800.000	0.127	0.404
-652.843	209.583	0.011	0.018
-651.828	-200.000	-0.076	0.426
-650.814	-19.436	-0.298	0.187
-649.799	-200.000	0.042	0.271
-648.784	-114.828	-0.187	-0.036
-647.770	232.834	-0.109	-0.181
-646.755	-58.322	0.357	-0.157
-645.741	17.775	0.126	-0.102
-644.726	-58.526	-0.269	-0.118
-643.711	-97.794	-0.256	-0.067
-642.697	635.203	0.133	0.343
-641.682	81.769	0.076	-0.083
-640.668	319.826	-0.023	-0.044
-639.653	15.590	-0.262	-0.209
-638.638	128.422	0.085	0.110
-637.624	-200.000	-0.014	-0.116
-636.609	-49.283	0.096	-0.046
-635.595	-112.643	0.591	-0.119
-634.580	777.769	-0.107	0.296
-633.565	254.977	-0.128	0.221
-632.551	-70.452	0.097	-0.037
-631.536	-200.000	0.010	-0.118
-630.522	-200.000	-0.021	-0.161
-629.507	-114.188	0.210	0.041
-628.492	-200.000	-0.074	-0.403
-627.478	-200.000	-0.053	-0.380
-626.463	-41.039	-0.090	-0.047
-625.449	-198.949	0.067	0.000
-624.434	189.330	0.129	-0.195
-623.419	202.469	-0.024	-0.038
-622.405	800.000	0.070	-0.237
-621.390	250.529	0.065	-0.112
-620.376	14.151	0.475	0.375
-619.361	-97.622	-0.057	-0.015
-618.346	-200.000	-0.042	0.301
-617.332	-108.190	-0.161	0.035
-616.317	112.251	-0.089	0.108
-615.303	-14.145	0.171	0.111
-614.288	164.106	-0.149	0.213
-613.273	-86.947	0.244	-0.075
-612.259	74.302	-0.192	-0.204
-611.244	-71.208	-0.062	-0.023
-610.230	-200.000	-0.031	0.187
-609.215	52.971	0.067	0.065
-608.201	-85.671	-0.124	0.039
-607.186	-120.982	0.226	0.038
-606.171	195.886	-0.071	-0.110
-605.157	-45.381	-0.292	0.147
-604.142	-113.041	0.247	0.049
-603.128	-176.229	0.484	0.013
-602.113	-16.667	0.316	-0.203
-601.098	114.427	0.154	-0.190
-600.084	-149.452	-0.427	-0.034
-599.069	800.000	0.059	-0.258
-598.055	-107.228	-0.297	0.066
-597.040	-2.853	0.070	-0.049
-596.025	-200.000	-0.035	-0.239
-595.011	-189.857	-0.149	0.002
-593.996	-200.000	0.023	-0.284
-592.982	800.000	-0.143	-0.416
-591.967	381.136	0.033	-0.069
-590.952	-65.148	-0.078	0.032
-589.938	277.247	0.137	0.246
-588.923	139.768	-0.097	-0.129
-587.909	-166.913	-0.128	-0.005
-586.894	429.524	0.076	-0.165
-585.879	77.206	0.254	-0.273
-584.865	-96.175	0.455	-0.122
-583.850	-49.404	-0.129	0.062
-582.836	-93.126	-0.104	-0.029
-581.821	-54.274	-0.214	0.098
-580.806	-200.000	0.055	0.575
-579.792	148.592	0.063	0.087
-578.777	-200.000	-0.069	-0.318
-577.763	-200.000	-0.000	0.364
-576.748	82.831	0.273	0.300
-575.733	52.391	0.046	-0.044
-574.719	28.709	-0.123	0.105
-573.704	102.348	0.136	-0.161
-572.690	199.364	-0.145	-0.225
-571.675	744.723	0.063	-0.172
-570.661	-200.000	-0.034	-0.204
-569.646	-49.443	-0.262	0.126
-568.631	-135.819	-0.247	0.029
-567.617	187.486	0.152	-0.229
-566.602	-200.000	-0.014	-0.175
-565.588	237.477	-0.079	-0.132
-564.573	800.000	-0.023	0.083
-563.558	153.261	-0.198	0.273
-562.544	-59.329	-0.109	-0.048
-561.529	32.113	-0.383	0.334
-560.515	159.077	-0.023	-0.033
-559.500	-7.890	-0.132	0.090
-558.485	-170.482	-0.141	-0.005
-557.471	304.324	-0.096	-0.179
-556.456	-200.000	0.077	-0.357
-555.442	-62.625	-0.260	-0.109
-554.427	164.746	0.054	0.077
-553.412	-93.750	-0.171	0.047
-552.398	-61.428	-0.396	0.168
-551.383	176.498	0.045	-0.067
-550.369	-54.541	-0.347	-0.158
-549.354	-16.671	0.243	0.155
-548.339	-200.000	-0.008	0.256
-547.325	18.307	0.348	-0.280
-546.310	-97.706	0.469	-0.123
-545.296	-200.000	0.036	0.234
-544.281	123.274	-0.260	0.329
-543.266	-200.000	0.043	-0.249
-542.252	509.501	0.087	-0.203
-541.237	800.000	-0.049	0.165
-540.223	-95.471	-0.192	-0.052
-539.208	-33.027	-0.317	-0.177
-538.193	-72.395	0.429	-0.160
-537.179	232.335	-0.299	-0.495
-536.164	-58.629	0.375	-0.164
-535.150	-200.000	-0.037	0.226
-534.135	-32.362	-0.172	-0.097
-533.121	-200.000	0.039	-0.187
-532.106	-7.942	-0.149	-0.101
-531.091	-200.000	-0.011	-0.306
-530.077	141.636	-0.232	-0.310
-529.062	-200.000	-0.001	-0.094
-528.048	148.246	-0.034	0.047
-527.033	-200.000	-0.062	-0.343
-526.018	88.925	0.278	0.312
-525.004	-200.000	0.019	0.180
-523.989	-33.322	-0.159	0.089
-522.975	800.000	-0.073	-0.208
-521.960	75.756	0.201	-0.214
-520.945	-200.000	0.033	0.251
-519.931	200.054	0.146	-0.227
-518.916	490.232	-0.005	0.013
-517.902	1.060	-0.325	0.235
-516.887	27.982	-0.215	0.183
-515.872	-83.626	0.278	0.089
-514.858	25.554	0.101	0.085
-513.843	-166.587	0.599	-0.025
-512.829	-200.000	-0.066	0.396
-511.814	94.724	0.225	0.258
-510.799	800.000	0.057	-0.199
-509.785	11.730	0.184	-0.142
-508.770	-147.083	0.051	-0.004
-507.756	394.617	-0.077	0.162
-506.741	-30.660	0.127	0.072
-505.726	486.118	-0.122	0.280
-504.712	741.130	-0.067	0.181
-503.697	-49.219	-0.154	-0.074
-502.683	29.281	0.114	-0.098
-501.668	67.427	0.268	0.275
-500.653	1.880	-0.179	0.130
-499.639	35.144	0.244	-0.215
-498.624	-20.347	0.048	-0.030
-497.610	-177.786	0.193	0.005
-496.595	-44.182	-0.211	-0.107
-495.581	-26.218	-0.242	0.143
-494.566	-89.262	0.108	0.032
-493.551	800.000	-0.113	-0.395
-492.537	-57.820	0.202	-0.089
-491.522	-75.321	-0.070	-0.025
-490.508	-125.254	0.239	0.037
-489.493	-33.290	-0.206	0.115
-488.478	-136.651	0.285	-0.033
-487.464	483.857	-0.020	-0.045
-486.449	62.223	0.164	-0.165
-485.435	-200.000	-0.007	-0.337
-484.420	259.514	-0.177	-0.308
-483.405	374.590	-0.104	0.212
-482.391	10.201	0.096	0.073
-481.376	53.105	-0.237	0.228
-480.362	-200.000	-0.015	0.420
-479.347	-53.733	0.239	0.110
-478.332	-200.000	-0.007	0.185
-477.318	-65.887	0.393	-0.158
-476.303	800.000	-0.094	-0.280
-475.289	-200.000	0.049	-0.363
-474.274	800.000	-0.036	0.126
-473.259	800.000	-0.076	0.321
-472.245	94.850	0.084	-0.096
-471.230	-200.000	0.008	-0.314
-470.216	-28.802	0.166	-0.096
-469.201	641.493	0.104	0.265
-468.186	-200.000	-0.042	0.221
-467.172	-200.000	-0.012	-0.353
-466.157	4.278	-0.125	-0.092
-465.143	-200.000	0.035	-0.258
-464.128	-1.564	-0.241	0.171
-463.113	-200.000	0.016	-0.289
-462.099	155.341	-0.242	-0.335
-461.084	-74.104	-0.168	0.061
-460.070	-1.369	0.198	0.141
-459.055	800.000	-0.150	-0.439
-458.040	302.884	-0.068	0.127
-457.026	327.414	0.051	-0.098
-456.011	-152.137	0.169	0.012
-454.997	800.000	-0.155	0.444
-453.982	-83.439	-0.046	0.015
-452.968	-200.000	0.026	0.211
-451.953	-131.506	-0.207	0.027
-450.938	-194.692	-0.160	-0.001
-449.924	-85.446	0.190	-0.059
-448.909	-200.000	-0.012	0.163
-447.895	84.246	-0.350	0.384
-446.880	80.906	0.332	0.360
-445.865	-44.445	0.187	0.094
-444.851	-167.875	-0.141	0.006
-443.836	363.176	0.046	-0.092
-442.822	-60.627	0.367	0.157
-441.807	800.000	-0.016	0.051
-440.792	83.172	-0.104	0.114
-439.778	196.572	0.185	-0.284
-438.763	66.485	0.107	-0.110
-437.749	-194.568	-0.227	0.002
-436.734	273.166	-0.057	0.101
-435.719	-134.691	-0.256	-0.031
-434.705	-200.000	0.458	-0.001
-433.690	-200.000	0.040	0.289
-432.676	172.989	0.030	-0.043
-431.661	188.827	0.057	-0.085
-430.646	-82.464	0.168	-0.055
-429.632	800.000	-0.011	-0.035
-428.617	276.283	0.172	-0.307
-427.603	146.898	0.177	0.238
-426.588	225.036	0.149	0.241
-425.573	283.954	0.122	0.220
-424.559	559.517	0.113	-0.275
-423.544	-200.000	-0.013	0.251
-422.530	-6.375	-0.234	0.160
-421.515	205.101	0.032	0.050
-420.500	-92.770	0.141	0.040
-419.486	-123.524	0.304	0.049
-418.471	250.453	0.016	0.028
-417.457	44.561	0.203	-0.188
-416.442	-141.834	-0.120	0.012
-415.428	-188.186	-0.234	0.003
-414.413	252.779	0.194	0.333
-413.398	332.271	-0.068	0.132
-412.384	-86.299	-0.335	0.103
-411.369	99.386	0.177	0.206
-410.355	-100.804	-0.185	-0.046
-409.340	-200.000	0.015	-0.382
-408.325	-22.048	0.140	-0.085
-407.311	-104.938	0.525	0.121
-406.296	-200.000	-0.010	0.090
-405.282	-85.112	0.160	-0.050
-404.267	-168.268	0.140	-0.005
-403.252	-53.932	0.234	0.107
-402.238	-56.109	0.233	-0.104
-401.223	583.604	0.170	-0.418
-400.209	-36.605	-0.228	0.123
-399.194	-92.698	-0.282	0.079
-398.179	-73.144	0.257	0.094
-397.165	525.971	-0.152	0.359
-396.150	-103.356	-0.191	0.045
-395.136	30.079	-0.113	-0.097
-394.121	272.347	-0.185	0.328
-393.106	-159.455	-0.188	-0.011
-392.092	-200.000	0.006	-0.070
-391.077	-38.919	-0.139	-0.073
-390.063	303.193	-0.131	-0.244
-389.048	-200.000	-0.059	0.266
-388.033	-43.551	0.084	0.043
-387.019	-62.666	-0.156	0.065
-386.004	-200.000	0.044	-0.256
-384.990	86.136	-0.059	0.065
-383.975	285.638	-0.092	-0.166
-382.960	-200.000	0.030	-0.287
-381.946	56.362	-0.342	-0.333
-380.931	370.755	-0.151	-0.308
-379.917	800.000	-0.035	-0.138
-378.902	-120.358	0.110	-0.019
-377.888	-179.082	0.221	0.005
-376.873	258.888	0.078	0.136
-375.858	106.895	0.172	0.205
-374.844	-6.174	-0.249	0.170
-373.829	-200.000	0.032	0.186
-372.815	-0.373	0.232	0.165
-371.800	-200.000	-0.016	-0.218
-370.785	800.000	0.085	-0.289
-369.771	-200.000	0.018	-0.165
-368.756	178.939	-0.045	-0.065
-367.742	-92.780	0.073	-0.021
-366.727	56.152	-0.142	-0.138
-365.712	800.000	-0.138	0.494
-364.698	17.687	-0.112	-0.089
-363.683	-99.584	-0.393	0.099
-362.669	-78.421	-0.077	0.027
-361.654	89.077	0.138	0.154
-360.639	48.651	-0.245	0.230
-359.625	-117.488	-0.182	-0.033
-358.610	-200.000	-0.052	-0.231
-357.596	-200.000	0.083	0.476
-356.581	-107.524	0.209	-0.046
-355.566	-91.551	0.132	-0.038
-354.552	5.672	-0.019	0.014
-353.537	409.160	0.046	-0.098
-352.523	39.424	0.329	0.295
-351.508	-52.625	0.187	0.087
-350.493	456.112	0.049	0.109
-349.479	25.359	0.159	0.132
-348.464	-200.000	0.002	-0.075
-347.450	-134.987	-0.251	0.030
-346.435	720.685	0.053	0.141
-345.420	-68.892	-0.192	-0.074
-344.406	800.000	0.038	-0.136
-343.391	800.000	-0.068	-0.220
-342.377	158.909	0.175	-0.244
-341.362	0.867	0.185	0.133
-340.348	-75.334	-0.100	-0.036
-339.333	94.687	-0.074	0.084
-338.318	-200.000	0.073	0.356
-337.304	146.819	0.146	-0.197
-336.289	-97.570	-0.026	0.007
-335.275	800.000	0.019	-0.063
-334.260	-200.000	-0.000	0.166
-333.245	6.650	-0.073	0.054
-332.231	66.131	-0.354	-0.360
-331.216	800.000	-0.041	-0.121
-330.202	-65.581	0.337	0.135
-329.187	800.000	-0.046	-0.137
-328.172	457.096	-0.250	-0.556
-327.158	435.600	-0.164	0.357
-326.143	-99.781	0.106	-0.027
-325.129	-16.680	0.173	0.110
-324.114	-200.000	0.034	0.530
-323.099	36.833	0.113	-0.100
-322.085	-200.000	0.133	-0.000
-321.070	-162.181	0.312	-0.016
-320.056	-11.736	0.207	0.136
-319.041	-200.000	-0.002	0.191
-318.026	-28.117	-0.173	0.100
-317.012	-45.922	-0.333	-0.164
-315.997	-57.763	0.168	0.074
-314.983	40.961	-0.218	0.197
-313.968	-92.166	-0.111	0.031
-312.953	597.089	-0.112	0.278
-311.939	-3.154	-0.455	-0.317
-310.924	-32.680	0.159	-0.089
-309.910	105.992	0.191	0.226
-308.895	200.366	0.068	-0.104
-307.880	468.306	0.110	0.247
-306.866	800.000	-0.088	0.265
-305.851	-200.000	-0.024	0.184
-304.837	-133.112	-0.289	0.037
-303.822	-80.076	-0.213	0.071
-302.807	33.162	0.110	0.095
-301.793	71.266	-0.070	0.072
-300.778	800.000	-0.074	-0.252
-299.764	-40.366	-0.148	-0.077
-298.749	-6.702	-0.130	-0.088
-297.735	-12.215	0.166	-0.108
-296.720	228.114	0.198	0.322
-295.705	649.278	-0.157	-0.401
-294.691	48.088	0.181	-0.169
-293.676	213.725	-0.203	-0.320
-292.662	-98.897	0.147	-0.037
-291.647	-105.646	0.067	-0.015
-290.632	623.818	-0.091	-0.229
-289.618	-141.090	-0.154	-0.016
-288.603	209.633	-0.082	0.128
-287.589	-158.386	0.041	0.002
-286.574	399.701	-0.106	0.223
-285.559	-200.000	0.003	0.181
-284.545	-68.288	-0.149	0.058
-283.530	-13.992	-0.037	-0.024
-282.516	-200.000	0.012	-0.193
-281.501	-121.970	0.052	-0.009
-280.486	-199.647	-0.188	0.001
-279.472	299.315	0.091	-0.168
-278.457	492.853	0.003	-0.006
-277.443	-200.000	-0.050	-0.238
-276.428	74.792	0.112	0.118
-275.413	642.565	0.110	0.279
-274.399	290.554	-0.139	0.251
-273.384	-74.606	0.192	0.069
-272.370	-41.985	-0.154	-0.079
-271.355	-172.910	-0.365	0.011
-270.340	311.416	-0.097	-0.181
-269.326	-29.733	-0.137	-0.078
-268.311	-86.048	-0.220	-0.068
-267.297	-22.692	-0.133	-0.080
-266.282	128.108	0.136	-0.172
-265.267	-146.985	0.107	-0.009
-264.253	-200.000	-0.015	-0.134
-263.238	-143.270	-0.042	-0.004
-262.224	130.258	0.113	-0.144
-261.209	-67.543	0.079	0.031
-260.195	-153.409	-0.219	-0.015
-259.180	-49.762	0.128	0.061
-258.165	427.475	0.035	0.076
-257.151	626.416	-0.126	-0.317
-256.136	312.961	-0.116	0.217
-255.122	-105.480	-0.184	0.042
-254.107	800.000	0.069	-0.273
-253.092	800.000	-0.033	-0.098
-252.078	84.274	-0.202	-0.220
-251.063	-200.000	-0.001	0.012
-250.049	97.988	0.159	0.183
-249.034	-187.895	-0.162	0.002
-248.019	-200.000	0.075	-0.544
-247.005	-200.000	-0.017	-0.142
-245.990	14.758	0.191	-0.149
-244.976	6.110	0.349	0.258
-243.961	157.494	-0.169	0.233
-242.946	290.844	-0.088	0.160
-241.932	279.404	-0.225	0.401
-240.917	112.507	-0.262	0.316
-239.903	-200.000	0.008	0.516
-238.888	99.421	0.083	0.096
-237.873	22.450	-0.160	-0.130
-236.859	-51.594	0.184	0.086
-235.844	267.842	0.123	-0.214
-234.830	800.000	0.070	0.206
-233.815	-18.545	-0.237	0.147
-232.800	-19.262	-0.032	0.020
-231.786	19.522	-0.369	0.296
-230.771	800.000	0.134	-0.386
-229.757	13.772	0.101	-0.078
-228.742	-141.075	0.181	0.018
-227.727	-130.498	0.088	0.012
-226.713	-200.000	0.060	-0.300
-225.698	40.457	-0.126	-0.113
-224.684	-44.460	-0.226	0.112
-223.669	-97.992	-0.196	0.050
-222.655	-42.686	-0.178	0.090
-221.640	-136.694	-0.449	-0.052
-220.625	156.948	-0.215	0.295
-219.611	-42.452	-0.424	0.215
-218.596	-160.051	0.189	0.010
-217.582	115.903	0.108	-0.132
-216.567	87.784	0.170	-0.188
-215.552	800.000	-0.029	0.103
-214.538	7.285	-0.102	-0.076
-213.523	-56.410	-0.356	-0.157
-212.509	-24.356	0.134	0.080
-211.494	-95.770	0.190	0.050
-210.479	-103.545	0.249	-0.058
-209.465	-119.836	0.149	0.026
-208.450	42.009	-0.170	0.154
-207.436	-91.459	0.261	0.074
-206.421	-141.252	-0.366	-0.037
-205.406	-142.098	-0.119	-0.012
-204.392	332.618	-0.031	-0.059
-203.377	800.000	-0.046	0.140
-202.363	-167.696	0.296	-0.012
-201.348	598.788	0.073	0.179
-200.333	-76.102	0.105	-0.037
-199.319	769.055	-0.039	0.106
-198.304	-10.822	0.092	-0.060
-197.290	-29.582	0.125	0.071
-196.275	-20.712	0.274	-0.168
-195.260	208.090	0.013	0.020
-194.246	31.780	-0.123	0.105
-193.231	-200.000	0.005	0.072
-192.217	478.003	0.016	-0.037
-191.202	-31.702	0.071	-0.040
-190.187	-136.550	-0.317	-0.037
-189.173	-135.331	0.318	0.038
-188.158	177.419	0.206	-0.298
-187.144	634.764	0.036	-0.090
-186.129	-192.890	0.332	0.003
-185.114	5.091	-0.257	-0.189
-184.100	-200.000	-0.017	-0.153
-183.085	9.074	0.052	0.039
-182.071	800.000	-0.115	0.345
-181.056	360.834	-0.119	-0.236
-180.042	30.297	0.305	0.259
-179.027	65.757	0.122	-0.123
-178.012	-50.008	0.289	-0.136
-176.998	-20.293	0.378	0.232
-175.983	84.163	0.160	0.173
-174.969	108.740	0.225	0.267
-173.954	10.040	0.059	0.045
-172.939	134.340	-0.114	-0.147
-171.925	745.541	-0.075	-0.201
-170.910	5.516	0.068	-0.050
-169.896	-33.955	-0.018	-0.010
-168.881	-17.488	-0.358	-0.224
-167.866	-87.986	0.088	-0.026
-166.852	24.144	-0.144	-0.118
-165.837	563.906	0.202	0.486
-164.823	-115.482	0.294	0.055
-163.808	-200.000	-0.017	-0.518
-162.793	-39.350	-0.281	0.146
-161.779	754.669	0.034	-0.092
-160.764	800.000	-0.017	-0.056
-159.750	-97.312	-0.075	-0.020
-158.735	49.544	0.169	0.158
-157.720	-93.726	-0.096	-0.026
-156.706	172.488	-0.158	0.226
-155.691	800.000	0.052	-0.169
-154.677	-200.000	-0.066	0.361
-153.662	65.721	0.153	-0.154
-152.647	66.410	0.130	0.131
-151.633	293.457	-0.178	0.322
-150.618	24.406	0.166	0.136
-149.604	800.000	0.028	-0.104
-148.589	-95.434	-0.036	-0.010
-147.574	157.877	-0.187	-0.258
-146.560	800.000	0.116	0.399
-145.545	-111.549	0.222	-0.045
-144.531	285.668	-0.244	0.437
-143.516	-200.000	0.009	-0.285
-142.502	663.221	0.088	-0.224
-141.487	57.274	-0.076	0.073
-140.472	-59.273	0.341	-0.146
-139.458	334.489	-0.063	0.121
-138.443	116.438	0.113	0.137
-137.429	59.189	0.157	0.153
-136.414	-131.600	0.079	-0.010
-135.399	-42.288	-0.174	0.088
-134.385	496.611	-0.058	0.131
-133.370	148.575	0.150	0.201
-132.356	-140.913	0.355	0.036
-131.341	146.902	0.084	-0.112
-130.326	93.222	-0.272	-0.305
-129.312	-200.000	-0.048	-0.336
-128.297	-169.023	-0.198	0.007
-127.283	-47.028	-0.346	-0.168
-126.268	800.000	-0.025	-0.104
-125.253	193.315	0.142	-0.213
-124.239	-9.118	0.014	0.010
-123.224	691.445	0.034	0.088
-122.210	250.096	-0.088	-0.148
-121.195	800.000	0.032	-0.126
-120.180	70.858	0.148	-0.152
