DTS Sentinel unit serial number:	SN413079Multiplexer serial number:	ORYXHardware model number:	OX4-SRSoftware version number:	ORYX F/W v4.00 Oryx Data Collector v3.7.2.0data status	okinstallation	princeton_trtdifferential loss correction	single-endedforward channel	channel 3reverse channel	N/Adate	2019/09/11time	23:06:11forward acquisition time	60.00reverse acquisition time	0.00gamma	496.2192k internal	0.2316k external	0.2316temperature offset calibration	1.0051default loss term (dB/km)	0.3790temperature slope calibration	1.0000multiplexer offset coefficient	1.0000multiplexer slope coefficient	1.0000fibre end	0.00T internal ref (°C)	34.56T ext. ref 1 (°C)	1.84T ext. ref 2 (°C)	29.20length (m)	temperature (°C)	Stokes	anti-Stokes-747.200	795.216	0.051	0.143
-746.185	800.000	-0.087	0.250
-745.171	249.290	-0.191	0.327
-744.156	-200.000	-0.031	0.320
-743.142	-200.000	0.011	0.256
-742.127	-82.721	0.095	-0.031
-741.112	800.000	0.072	0.233
-740.098	-200.000	0.041	0.378
-739.083	155.582	-0.181	0.253
-738.069	-200.000	0.016	0.160
-737.054	360.323	0.075	0.152
-736.039	42.028	-0.408	-0.375
-735.025	-56.200	0.359	0.162
-734.010	800.000	0.075	-0.272
-732.996	515.468	-0.206	-0.487
-731.981	74.290	0.152	-0.162
-730.966	-200.000	0.049	0.237
-729.952	-99.733	-0.206	-0.052
-728.937	-200.000	0.012	-0.127
-727.923	-83.102	-0.221	-0.072
-726.908	-86.821	-0.137	-0.042
-725.894	62.369	-0.037	0.038
-724.879	8.985	-0.166	-0.127
-723.864	-75.780	0.267	0.096
-722.850	-200.000	0.053	0.301
-721.835	-200.000	-0.050	0.234
-720.821	-153.392	0.113	0.008
-719.806	-200.000	0.009	-0.307
-718.791	-200.000	-0.013	0.239
-717.777	-111.818	-0.478	0.098
-716.762	-200.000	-0.025	0.153
-715.748	-62.545	-0.179	-0.075
-714.733	-200.000	-0.003	0.078
-713.718	800.000	-0.075	0.256
-712.704	800.000	0.026	-0.117
-711.689	800.000	0.124	-0.446
-710.675	-4.639	-0.188	0.131
-709.660	322.815	-0.036	-0.070
-708.645	311.319	-0.090	0.170
-707.631	62.631	0.097	-0.098
-706.616	-66.533	-0.336	0.135
-705.602	115.814	-0.092	-0.113
-704.587	-52.792	-0.192	0.089
-703.572	-200.000	-0.118	-0.554
-702.558	800.000	-0.030	-0.090
-701.543	372.083	-0.075	-0.155
-700.529	-132.722	0.086	-0.011
-699.514	93.288	-0.103	-0.117
-698.499	305.872	-0.053	-0.100
-697.485	-11.124	0.191	-0.128
-696.470	415.658	0.032	0.069
-695.456	-1.416	-0.231	0.165
-694.441	-200.000	-0.031	0.437
-693.426	-100.079	-0.108	-0.027
-692.412	800.000	-0.024	-0.097
-691.397	-104.171	-0.381	-0.090
-690.383	-133.861	-0.275	0.035
-689.368	395.468	0.094	-0.198
-688.354	-37.542	-0.184	-0.099
-687.339	800.000	0.096	0.312
-686.324	800.000	0.063	0.184
-685.310	-26.760	-0.481	0.284
-684.295	-107.654	-0.248	-0.055
-683.281	-27.317	-0.173	-0.102
-682.266	10.725	-0.128	-0.099
-681.251	150.870	-0.193	-0.266
-680.237	-1.212	0.176	-0.126
-679.222	800.000	-0.038	-0.155
-678.208	218.366	-0.133	-0.214
-677.193	70.983	-0.363	-0.380
-676.178	306.042	-0.097	-0.182
-675.164	800.000	0.074	-0.248
-674.149	-21.000	0.116	-0.072
-673.135	-200.000	0.013	-0.271
-672.120	243.676	-0.029	-0.048
-671.105	800.000	-0.043	-0.160
-670.091	-12.511	0.081	0.053
-669.076	9.134	-0.274	0.209
-668.062	66.786	0.344	-0.353
-667.047	101.020	0.151	-0.178
-666.032	138.400	0.083	0.110
-665.018	-200.000	0.038	0.330
-664.003	-183.027	0.154	0.003
-662.989	705.937	0.056	-0.149
-661.974	63.480	0.127	0.129
-660.959	800.000	-0.072	0.224
-659.945	267.302	-0.082	-0.146
-658.930	39.503	-0.099	-0.089
-657.916	-104.551	0.443	0.103
-656.901	-53.912	-0.081	-0.037
-655.886	-129.874	0.132	0.018
-654.872	-185.946	-0.080	0.001
-653.857	800.000	-0.092	0.260
-652.843	-200.000	-0.015	-0.228
-651.828	92.476	-0.132	0.150
-650.814	-54.364	0.126	0.058
-649.799	-51.981	-0.225	-0.106
-648.784	-200.000	-0.008	0.165
-647.770	-25.498	0.276	0.164
-646.755	-91.985	-0.190	0.054
-645.741	-56.631	0.106	0.048
-644.726	43.046	0.180	0.166
-643.711	190.001	0.155	0.235
-642.697	139.433	-0.215	0.285
-641.682	148.262	0.200	0.273
-640.668	167.316	0.132	-0.189
-639.653	84.634	-0.064	-0.070
-638.638	-136.782	-0.374	0.043
-637.624	-200.000	0.002	-0.158
-636.609	-200.000	-0.044	0.393
-635.595	263.719	-0.091	0.159
-634.580	-200.000	0.016	-0.330
-633.565	186.708	-0.084	0.126
-632.551	397.482	0.201	-0.425
-631.536	-200.000	0.018	-0.212
-630.522	105.110	-0.265	-0.315
-629.507	3.915	0.125	-0.092
-628.492	-88.135	-0.212	0.064
-627.478	-115.528	-0.079	0.015
-626.463	696.752	0.090	-0.238
-625.449	-171.384	-0.188	0.006
-624.434	107.165	-0.196	-0.235
-623.419	49.184	-0.247	-0.234
-622.405	-37.698	0.162	0.087
-621.390	-37.085	-0.404	-0.218
-620.376	580.814	0.069	-0.170
-619.361	83.235	0.152	0.167
-618.346	-93.386	-0.270	-0.075
-617.332	95.365	0.164	-0.189
-616.317	-46.124	0.156	0.077
-615.303	800.000	-0.063	0.222
-614.288	-200.000	-0.024	-0.138
-613.273	-108.278	0.494	-0.108
-612.259	45.630	-0.278	0.259
-611.244	-200.000	-0.022	-0.368
-610.230	60.500	0.118	-0.118
-609.215	89.806	-0.066	-0.074
-608.201	-200.000	-0.010	-0.055
-607.186	211.567	0.088	-0.140
-606.171	16.865	0.120	0.096
-605.157	-119.829	0.180	-0.031
-604.142	-54.605	0.463	-0.211
-603.128	-67.076	-0.124	-0.049
-602.113	-54.944	0.312	-0.142
-601.098	168.708	-0.263	0.377
-600.084	-200.000	0.025	-0.136
-599.069	216.933	0.065	-0.104
-598.055	800.000	-0.048	-0.179
-597.040	-200.000	-0.026	-0.141
-596.025	-200.000	0.025	0.218
-595.011	665.349	0.065	-0.168
-593.996	-49.457	0.174	-0.083
-592.982	-200.000	0.013	-0.127
-591.967	-53.783	-0.524	0.241
-590.952	800.000	0.090	0.388
-589.938	-104.557	0.272	0.063
-588.923	33.679	0.165	0.145
-587.909	-200.000	-0.028	0.186
-586.894	308.783	0.174	-0.327
-585.879	50.658	-0.080	-0.076
-584.865	263.620	-0.207	0.363
-583.850	-30.295	-0.266	0.152
-582.836	800.000	0.058	0.210
-581.821	168.890	0.196	-0.282
-580.806	-68.166	0.256	-0.100
-579.792	-128.734	-0.183	-0.026
-578.777	-200.000	-0.054	-0.293
-577.763	-34.478	0.279	0.154
-576.748	-200.000	0.020	-0.176
-575.733	800.000	0.056	-0.175
-574.719	-38.743	0.202	-0.107
-573.704	108.515	-0.158	-0.190
-572.690	-200.000	0.012	-0.371
-571.675	-156.626	-0.388	-0.024
-570.661	-200.000	0.030	0.311
-569.646	-57.025	0.151	0.067
-568.631	-140.231	0.044	-0.005
-567.617	800.000	-0.022	-0.071
-566.602	-89.477	-0.203	-0.060
-565.588	103.043	-0.286	0.337
-564.573	800.000	0.031	-0.089
-563.558	-189.712	-0.128	-0.001
-562.544	25.024	0.176	-0.147
-561.529	58.123	0.219	0.216
-560.515	86.599	-0.074	-0.082
-559.500	800.000	0.139	-0.457
-558.485	800.000	0.044	0.186
-557.471	568.781	-0.043	0.106
-556.456	-150.853	0.406	0.031
-555.442	-29.483	-0.135	-0.078
-554.427	127.665	0.085	-0.109
-553.412	800.000	-0.028	0.091
-552.398	-69.193	0.189	0.073
-551.383	136.237	-0.243	0.318
-550.369	800.000	-0.123	0.352
-549.354	800.000	-0.041	0.163
-548.339	35.980	0.213	0.189
-547.325	46.448	0.190	-0.177
-546.310	72.024	-0.048	-0.050
-545.296	-129.991	-0.303	-0.042
-544.281	-88.632	-0.200	-0.060
-543.266	-34.160	0.103	0.057
-542.252	272.345	0.035	0.062
-541.237	-200.000	0.000	0.010
-540.223	180.820	-0.199	0.293
-539.208	-200.000	-0.050	0.314
-538.193	800.000	0.050	-0.180
-537.179	800.000	-0.041	-0.155
-536.164	-3.445	-0.360	-0.252
-535.150	127.282	-0.140	0.179
-534.135	-200.000	-0.021	0.143
-533.121	800.000	0.051	0.201
-532.106	229.908	0.092	-0.152
-531.091	75.279	-0.134	-0.141
-530.077	-200.000	0.026	0.348
-529.062	-132.575	-0.232	0.030
-528.048	438.342	-0.040	-0.087
-527.033	189.524	-0.014	0.021
-526.018	-127.217	0.113	0.017
-525.004	-12.578	0.448	-0.293
-523.989	-51.894	-0.066	0.031
-522.975	63.703	-0.201	0.203
-521.960	247.813	-0.056	-0.096
-520.945	800.000	0.121	-0.350
-519.931	-66.549	-0.252	-0.100
-518.916	12.245	-0.271	-0.210
-517.902	-30.115	0.119	0.068
-516.887	-167.477	0.269	-0.011
-515.872	-153.729	0.097	-0.007
-514.858	-3.385	-0.105	0.073
-513.843	-18.552	0.130	0.082
-512.829	13.944	0.115	0.090
-511.814	-200.000	-0.023	0.190
-510.799	-83.331	0.364	-0.117
-509.785	-24.424	-0.123	0.074
-508.770	800.000	-0.099	0.280
-507.756	-80.641	-0.097	0.032
-506.741	67.038	-0.136	0.139
-505.726	156.981	-0.121	0.168
-504.712	-103.181	-0.059	0.014
-503.697	-10.971	-0.239	-0.158
-502.683	117.397	0.048	-0.059
-501.668	-200.000	0.034	0.389
-500.653	-47.271	0.261	-0.127
-499.639	25.278	-0.175	0.146
-498.624	800.000	-0.059	0.198
-497.610	442.484	0.113	-0.248
-496.595	-200.000	0.039	-0.198
-495.581	-50.048	0.234	-0.111
-494.566	-200.000	0.001	-0.057
-493.551	-200.000	-0.003	0.308
-492.537	800.000	0.027	0.089
-491.522	800.000	0.007	-0.022
-490.508	92.514	0.093	-0.105
-489.493	6.259	0.156	-0.116
-488.478	122.678	0.123	0.155
-487.464	-93.107	0.164	-0.046
-486.449	217.357	-0.026	-0.041
-485.435	-200.000	0.016	-0.137
-484.420	-200.000	0.045	0.486
-483.405	-4.172	0.054	-0.037
-482.391	-26.106	0.261	0.154
-481.376	-200.000	0.020	-0.277
-480.362	-25.329	0.203	0.120
-479.347	263.654	0.181	-0.316
-478.332	-101.724	-0.172	-0.042
-477.318	391.807	0.114	-0.237
-476.303	-18.350	-0.195	0.122
-475.289	-135.010	-0.100	-0.012
-474.274	405.631	0.036	-0.076
-473.259	-200.000	-0.013	-0.158
-472.245	-17.840	-0.241	-0.152
-471.230	-200.000	-0.005	-0.071
-470.216	-200.000	0.042	-0.196
-469.201	202.506	-0.059	0.091
-468.186	-200.000	-0.051	0.224
-467.172	-69.335	0.212	-0.082
-466.157	97.131	-0.186	0.214
-465.143	387.250	-0.032	-0.066
-464.128	-200.000	0.013	-0.203
-463.113	-200.000	0.022	-0.167
-462.099	-5.663	0.273	0.187
-461.084	-142.451	0.302	-0.030
-460.070	7.733	0.220	0.165
-459.055	82.849	0.320	-0.348
-458.040	237.878	-0.031	-0.052
-457.026	102.305	-0.184	0.215
-456.011	264.539	-0.200	0.348
-454.997	53.761	-0.085	0.082
-453.982	800.000	-0.108	-0.307
-452.968	-105.575	-0.368	0.084
-451.953	509.643	-0.051	-0.118
-450.938	683.765	-0.086	-0.223
-449.924	-104.360	0.236	-0.055
-448.909	800.000	0.064	-0.277
-447.895	-63.790	-0.075	0.031
-446.880	31.507	-0.042	-0.036
-445.865	-200.000	0.012	0.192
-444.851	706.823	-0.030	0.079
-443.836	158.976	0.119	-0.166
-442.822	-40.407	0.128	0.067
-441.807	48.130	-0.087	-0.081
-440.792	195.983	-0.103	-0.156
-439.778	103.020	0.078	-0.092
-438.763	106.855	-0.231	-0.275
-437.749	-130.604	0.207	-0.028
-436.734	773.543	0.052	-0.141
-435.719	462.047	-0.056	0.126
-434.705	-56.112	0.112	-0.050
-433.690	-171.326	0.186	0.006
-432.676	366.670	-0.136	0.275
-431.661	800.000	-0.062	0.171
-430.646	-57.128	0.159	-0.070
-429.632	127.297	-0.182	-0.231
-428.617	-200.000	0.010	-0.726
-427.603	134.242	-0.140	0.181
-426.588	344.611	-0.148	0.290
-425.573	204.754	0.208	-0.323
-424.559	-13.046	-0.191	0.124
-423.544	244.242	-0.206	-0.347
-422.530	206.990	-0.137	0.213
-421.515	31.720	-0.474	0.408
-420.500	-200.000	-0.022	0.156
-419.486	223.647	-0.087	0.141
-418.471	-200.000	-0.001	-0.345
-417.457	180.641	0.087	-0.127
-416.442	452.168	-0.032	0.071
-415.428	33.449	-0.163	0.141
-414.413	195.713	-0.155	-0.235
-413.398	-107.320	-0.208	0.046
-412.384	-109.942	0.109	0.023
-411.369	119.642	0.103	-0.127
-410.355	58.118	0.102	-0.100
-409.340	-159.776	-0.261	-0.014
-408.325	-200.000	-0.065	-0.654
-407.311	-200.000	-0.037	-0.276
-406.296	-162.705	-0.259	0.013
-405.282	-189.374	0.431	0.005
-404.267	4.516	-0.025	0.018
-403.252	6.114	-0.131	-0.097
-402.238	-200.000	0.011	-0.330
-401.223	-46.963	0.086	0.042
-400.209	42.112	-0.139	0.126
-399.194	391.963	0.166	0.344
-398.179	-8.027	0.175	-0.118
-397.165	-148.279	0.357	0.029
-396.150	55.233	0.091	0.088
-395.136	238.371	0.163	0.271
-394.121	-200.000	-0.006	-0.269
-393.106	800.000	0.129	0.398
-392.092	86.114	-0.280	-0.308
-391.077	-58.936	-0.183	0.079
-390.063	800.000	0.047	-0.167
-389.048	-200.000	-0.057	0.357
-388.033	708.436	0.074	0.194
-387.019	800.000	-0.034	0.146
-386.004	752.665	0.037	-0.101
-384.990	-50.579	0.226	-0.106
-383.975	-128.557	0.137	0.019
-382.960	-129.025	-0.019	-0.003
-381.946	800.000	0.018	-0.070
-380.931	-200.000	-0.008	-0.271
-379.917	170.055	-0.030	0.044
-378.902	-76.241	0.265	0.093
-377.888	707.197	-0.079	0.209
-376.873	800.000	-0.051	-0.161
-375.858	-143.134	0.226	0.022
-374.844	44.547	-0.148	-0.136
-373.829	-127.031	-0.369	-0.054
-372.815	-55.194	0.333	0.150
-371.800	-108.579	0.187	-0.040
-370.785	-129.214	-0.213	-0.030
-369.771	-200.000	0.013	-0.300
-368.756	-46.965	-0.139	0.068
-367.742	285.968	0.107	-0.193
-366.727	-144.223	0.142	0.013
-365.712	-200.000	-0.014	0.289
-364.698	102.844	-0.012	0.014
-363.683	-171.707	0.128	-0.004
-362.669	-200.000	-0.011	0.165
-361.654	196.205	-0.037	0.056
-360.639	-124.003	0.150	-0.024
-359.625	263.649	0.194	-0.336
-358.610	94.971	-0.197	0.224
-357.596	-200.000	-0.028	0.122
-356.581	-19.041	-0.224	-0.139
-355.566	-130.655	0.207	-0.028
-354.552	-200.000	0.012	-0.278
-353.537	63.836	-0.236	0.237
-352.523	800.000	0.111	0.404
-351.508	-125.094	-0.198	0.030
-350.493	68.267	0.111	-0.113
-349.479	-200.000	0.002	0.263
-348.464	778.198	-0.088	-0.241
-347.450	123.178	-0.112	0.140
-346.435	69.161	-0.103	-0.105
-345.420	-200.000	0.048	-0.381
-344.406	37.918	-0.124	0.110
-343.391	71.360	0.038	-0.039
-342.377	-19.696	0.075	0.046
-341.362	564.696	0.083	0.201
-340.348	123.595	-0.154	0.193
-339.333	-131.688	-0.101	-0.013
-338.318	44.511	-0.025	0.023
-337.304	-79.989	-0.193	0.065
-336.289	800.000	0.040	0.160
-335.275	-200.000	-0.034	0.198
-334.260	-9.001	0.277	-0.185
-333.245	800.000	0.106	-0.322
-332.231	-200.000	0.057	-0.298
-331.216	-200.000	0.026	-0.418
-330.202	179.894	0.133	0.195
-329.187	98.552	-0.175	-0.201
-328.172	-13.400	-0.272	0.176
-327.158	800.000	-0.062	0.248
-326.143	189.957	0.035	-0.052
-325.129	522.214	-0.083	0.193
-324.114	684.677	-0.083	-0.217
-323.099	-99.439	-0.207	0.052
-322.085	-22.305	-0.063	0.038
-321.070	34.271	-0.123	-0.107
-320.056	161.953	-0.050	-0.070
-319.041	-48.459	0.299	0.143
-318.026	-181.355	-0.370	-0.007
-317.012	44.791	0.036	-0.033
-315.997	394.092	-0.054	-0.112
-314.983	76.549	0.188	0.199
-313.968	-200.000	0.010	-0.083
-312.953	-129.004	0.188	0.026
-311.939	-137.049	-0.191	-0.022
-310.924	-70.893	0.344	-0.129
-309.910	118.210	-0.158	0.194
-308.895	-34.088	0.195	0.107
-307.880	-200.000	-0.055	-0.243
-306.866	308.585	0.155	0.289
-305.851	-30.561	0.177	0.100
-304.837	-200.000	-0.014	0.278
-303.822	-182.687	-0.024	-0.000
-302.807	-200.000	-0.059	-0.260
-301.793	-200.000	0.052	0.389
-300.778	-98.542	-0.178	0.045
-299.764	130.745	-0.171	0.218
-298.749	119.563	-0.157	0.193
-297.735	13.861	-0.094	0.073
-296.720	664.165	0.095	-0.243
-295.705	800.000	-0.037	-0.158
-294.691	800.000	-0.027	0.111
-293.676	-107.632	0.212	0.046
-292.662	-32.137	-0.230	-0.128
-291.647	-127.056	-0.527	0.077
-290.632	89.655	0.056	-0.062
-289.618	-1.757	0.101	-0.071
-288.603	-200.000	0.001	-0.184
-287.589	545.541	-0.062	0.149
-286.574	592.880	-0.134	0.331
-285.559	-123.613	0.295	-0.047
-284.545	-127.425	-0.201	-0.029
-283.530	-75.596	-0.104	-0.037
-282.516	-200.000	-0.030	0.239
-281.501	91.113	-0.048	0.054
-280.486	293.805	-0.168	0.305
-279.472	-200.000	-0.026	-0.240
-278.457	800.000	0.087	0.351
-277.443	-30.388	0.076	0.043
-276.428	40.236	0.011	-0.010
-275.413	505.047	0.051	-0.117
-274.399	-163.059	-0.258	0.012
-273.384	186.306	0.077	-0.114
-272.370	-62.518	-0.209	-0.086
-271.355	100.133	0.072	0.083
-270.340	-200.000	-0.001	0.224
-269.326	-200.000	-0.004	0.081
-268.311	471.606	0.079	-0.177
-267.297	-137.425	-0.129	-0.015
-266.282	800.000	0.062	-0.233
-265.267	-200.000	-0.014	-0.106
-264.253	522.290	-0.093	-0.217
-263.238	-55.261	0.175	-0.078
-262.224	174.947	-0.151	0.217
-261.209	64.322	0.042	-0.042
-260.195	-36.213	-0.135	-0.072
-259.180	2.158	-0.091	0.065
-258.165	120.486	0.150	-0.186
-257.151	474.102	0.197	-0.441
-256.136	-25.907	-0.095	0.056
-255.122	-161.355	-0.340	-0.017
-254.107	661.557	0.152	0.389
-253.092	52.009	-0.148	-0.140
-252.078	-2.833	-0.074	0.052
-251.063	343.730	-0.064	-0.125
-250.049	-200.000	-0.002	0.135
-249.034	-116.964	0.203	0.037
-248.019	94.870	-0.300	-0.339
-247.005	-59.146	-0.119	-0.051
-245.990	800.000	-0.055	-0.172
-244.976	194.264	0.238	-0.358
-243.961	17.808	0.103	-0.081
-242.946	133.500	0.180	-0.232
-241.932	59.229	-0.130	-0.127
-240.917	76.119	-0.095	-0.099
-239.903	127.104	0.155	0.196
-238.888	92.996	0.017	0.020
-237.873	-63.654	0.167	0.068
-236.859	-200.000	0.056	0.396
-235.844	800.000	0.098	0.385
-234.830	-115.530	0.302	0.056
-233.815	800.000	-0.171	0.536
-232.800	35.645	-0.149	-0.130
-231.786	-200.000	-0.028	-0.238
-230.771	535.046	0.127	-0.300
-229.757	-87.342	0.252	-0.076
-228.742	800.000	0.049	-0.205
-227.727	115.082	0.104	0.126
-226.713	800.000	-0.099	0.316
-225.698	-71.156	-0.026	-0.010
-224.684	-52.169	0.217	0.100
-223.669	800.000	0.054	-0.158
-222.655	800.000	0.105	-0.323
-221.640	-101.556	0.381	-0.092
-220.625	49.177	-0.188	-0.176
-219.611	-42.415	-0.247	0.125
-218.596	-128.482	0.218	-0.031
-217.582	-200.000	-0.027	0.167
-216.567	-200.000	-0.013	-0.349
-215.552	-200.000	0.014	0.067
-214.538	448.495	-0.042	-0.091
-213.523	130.956	0.144	0.183
-212.509	107.099	0.115	0.135
-211.494	192.495	-0.106	0.159
-210.479	-78.792	0.428	0.145
-209.465	-124.821	0.164	-0.025
-208.450	312.262	0.051	-0.095
-207.436	-145.514	-0.128	0.011
-206.421	-121.686	-0.164	-0.027
-205.406	9.425	0.190	0.142
-204.392	-47.323	-0.053	0.026
-203.377	79.933	-0.097	0.103
-202.363	335.695	0.121	0.232
-201.348	-149.147	0.087	-0.007
-200.333	76.242	-0.197	-0.207
-199.319	-200.000	-0.010	-0.163
-198.304	800.000	-0.036	0.149
-197.290	151.496	-0.225	0.304
-196.275	800.000	-0.023	0.094
-195.260	800.000	-0.047	-0.178
-194.246	-93.850	0.303	-0.083
-193.231	81.364	0.125	0.134
-192.217	67.777	0.093	0.094
-191.202	208.237	0.152	-0.236
-190.187	-200.000	-0.028	0.257
-189.173	-83.403	-0.277	-0.088
-188.158	800.000	-0.056	0.205
-187.144	495.003	-0.133	0.302
-186.129	-4.984	0.101	-0.069
-185.114	800.000	0.070	0.281
-184.100	-124.411	-0.181	0.028
-183.085	20.743	-0.369	0.296
-182.071	56.104	0.275	0.265
-181.056	-200.000	0.021	-0.141
-180.042	-72.402	-0.392	-0.144
-179.027	-200.000	0.011	0.203
-178.012	-200.000	-0.007	0.108
-176.998	41.241	-0.129	0.116
-175.983	-200.000	-0.005	-0.067
-174.969	-102.673	0.319	-0.075
-173.954	-53.240	0.267	-0.121
-172.939	115.675	0.228	0.276
-171.925	137.886	0.043	0.055
-170.910	334.697	-0.071	-0.136
-169.896	558.323	-0.080	-0.190
-168.881	355.618	-0.147	0.290
-167.866	800.000	-0.045	-0.192
-166.852	69.167	0.178	-0.181
-165.837	231.459	0.051	0.083
-164.823	189.177	0.163	-0.243
-163.808	-161.424	0.090	-0.005
-162.793	-177.746	-0.157	-0.004
-161.779	-10.391	0.252	0.165
-160.764	482.863	0.221	0.497
-159.750	-107.628	-0.208	-0.045
-158.735	46.136	0.036	-0.033
-157.720	-200.000	0.036	-0.192
-156.706	-200.000	-0.060	0.319
-155.691	-200.000	0.005	0.083
-154.677	39.110	-0.236	-0.209
-153.662	-176.934	0.226	0.006
-152.647	593.459	-0.102	0.249
-151.633	-200.000	-0.033	0.158
-150.618	-47.918	0.287	0.137
-149.604	800.000	0.027	-0.109
-148.589	-58.407	0.156	0.067
-147.574	-200.000	-0.032	0.172
-146.560	800.000	0.042	0.150
-145.545	135.828	0.219	0.282
-144.531	-59.621	0.356	0.151
-143.516	-200.000	0.022	0.208
-142.502	800.000	-0.022	0.078
-141.487	-200.000	-0.005	0.188
-140.472	-148.569	-0.253	0.020
-139.458	-102.299	-0.232	-0.055
-138.443	800.000	0.137	0.396
-137.429	-200.000	-0.041	-0.231
-136.414	28.061	0.305	-0.254
-135.399	800.000	0.028	0.116
-134.385	-62.190	0.216	0.089
-133.370	-200.000	0.056	0.369
-132.356	-116.988	-0.151	0.027
-131.341	-99.422	0.223	0.056
-130.326	-155.589	0.264	-0.017
-129.312	284.936	-0.053	-0.095
-128.297	-36.839	0.266	0.141
-127.283	-200.000	-0.001	-0.053
-126.268	-30.993	-0.110	0.062
-125.253	470.455	-0.145	-0.323
-124.239	800.000	0.007	0.025
-123.224	-95.798	-0.309	-0.082
-122.210	90.054	0.145	0.160
