DTS Sentinel unit serial number:	SN413079Multiplexer serial number:	ORYXHardware model number:	OX4-SRSoftware version number:	ORYX F/W v4.00 Oryx Data Collector v3.7.2.0data status	okinstallation	princeton_trtdifferential loss correction	single-endedforward channel	channel 3reverse channel	N/Adate	2019/09/12time	00:30:10forward acquisition time	60.00reverse acquisition time	0.00gamma	496.2192k internal	0.2318k external	0.2318temperature offset calibration	1.0067default loss term (dB/km)	0.3790temperature slope calibration	1.0000multiplexer offset coefficient	1.0000multiplexer slope coefficient	1.0000fibre end	0.00T internal ref (°C)	33.39T ext. ref 1 (°C)	2.04T ext. ref 2 (°C)	27.84length (m)	temperature (°C)	Stokes	anti-Stokes-747.200	7.318	0.025	0.019
-746.185	-200.000	-0.024	0.209
-745.171	-94.895	0.274	-0.075
-744.156	-200.000	0.058	0.278
-743.142	14.411	0.303	0.239
-742.127	-200.000	0.054	0.450
-741.112	-37.775	-0.006	0.003
-740.098	434.757	-0.151	0.332
-739.083	-79.331	-0.381	0.131
-738.069	-54.648	-0.206	0.094
-737.054	-43.827	0.096	0.049
-736.039	-200.000	0.058	0.258
-735.025	-48.621	0.292	0.142
-734.010	-125.057	-0.159	0.025
-732.996	-200.000	-0.006	-0.106
-731.981	-146.531	0.245	0.022
-730.966	-66.158	-0.056	0.023
-729.952	-200.000	-0.007	0.150
-728.937	-100.902	0.184	-0.046
-727.923	-200.000	0.065	-0.297
-726.908	-34.228	-0.100	-0.056
-725.894	-186.971	-0.460	-0.006
-724.879	26.629	-0.306	0.259
-723.864	800.000	0.097	0.349
-722.850	441.872	-0.069	0.154
-721.835	490.206	0.079	-0.184
-720.821	-200.000	-0.050	-0.233
-719.806	-106.794	-0.360	0.081
-718.791	61.473	0.213	-0.214
-717.777	-73.295	-0.220	0.081
-716.762	800.000	0.097	0.411
-715.748	-106.740	-0.199	0.045
-714.733	-146.399	0.398	0.035
-713.718	-200.000	0.011	0.243
-712.704	-124.807	-0.231	-0.036
-711.689	33.430	-0.198	0.174
-710.675	-190.469	-0.190	0.002
-709.660	88.841	-0.146	-0.164
-708.645	21.923	0.100	0.083
-707.631	800.000	-0.006	0.020
-706.616	109.658	0.123	-0.149
-705.602	70.523	-0.183	0.191
-704.587	-182.193	-0.024	0.000
-703.572	800.000	0.036	-0.136
-702.558	297.759	-0.097	-0.180
-701.543	350.172	0.080	-0.161
-700.529	192.599	-0.043	-0.066
-699.514	-86.975	0.287	0.088
-698.499	15.593	-0.246	-0.195
-697.485	160.537	0.173	-0.244
-696.470	15.550	-0.314	0.249
-695.456	-45.640	0.075	-0.038
-694.441	81.742	-0.156	-0.170
-693.426	257.405	-0.016	-0.028
-692.412	-200.000	-0.026	-0.116
-691.397	-200.000	0.031	-0.259
-690.383	-3.290	-0.068	-0.048
-689.368	122.173	0.134	0.169
-688.354	800.000	-0.162	-0.495
-687.339	751.935	0.069	-0.189
-686.324	-37.357	0.205	0.111
-685.310	-137.235	-0.268	0.031
-684.295	-58.442	-0.117	-0.051
-683.281	-150.653	0.252	0.019
-682.266	-71.210	0.218	-0.082
-681.251	21.277	-0.182	0.149
-680.237	-200.000	-0.074	-0.479
-679.222	472.592	-0.061	-0.138
-678.208	-79.833	0.355	-0.120
-677.193	-10.144	0.201	-0.135
-676.178	-152.263	-0.152	-0.011
-675.164	-120.438	0.139	0.024
-674.149	283.312	-0.052	0.095
-673.135	335.641	-0.158	0.309
-672.120	-141.170	0.566	-0.058
-671.105	-200.000	-0.007	-0.280
-670.091	-200.000	-0.002	-0.071
-669.076	800.000	0.052	0.203
-668.062	-200.000	-0.056	-0.248
-667.047	94.967	0.161	-0.185
-666.032	-35.353	0.162	0.089
-665.018	48.851	0.311	-0.294
-664.003	55.866	0.020	0.020
-662.989	71.029	-0.194	0.203
-661.974	-200.000	-0.005	0.552
-660.959	-50.617	0.160	-0.076
-659.945	416.550	-0.099	-0.213
-658.930	-196.234	0.353	0.002
-657.916	-58.673	-0.403	-0.176
-656.901	-200.000	0.020	0.376
-655.886	-89.605	0.169	-0.050
-654.872	-72.066	-0.160	-0.060
-653.857	329.535	-0.128	0.249
-652.843	157.603	-0.217	0.303
-651.828	-200.000	0.083	-0.401
-650.814	800.000	-0.045	-0.137
-649.799	120.141	-0.062	-0.078
-648.784	-131.791	0.144	0.019
-647.770	800.000	0.060	-0.201
-646.755	-49.192	-0.370	-0.178
-645.741	-200.000	0.016	-0.122
-644.726	551.474	0.146	0.354
-643.711	-48.485	0.296	-0.144
-642.697	648.479	0.073	-0.188
-641.682	-200.000	0.004	0.102
-640.668	509.554	-0.036	-0.083
-639.653	180.830	-0.129	-0.191
-638.638	-44.713	-0.194	0.098
-637.624	800.000	-0.066	0.231
-636.609	-193.602	0.131	0.001
-635.595	-45.774	0.186	-0.093
-634.580	396.438	-0.138	-0.291
-633.565	-11.353	0.138	0.092
-632.551	289.286	0.140	-0.257
-631.536	-94.862	0.319	0.087
-630.522	-200.000	-0.011	-0.131
-629.507	-200.000	0.003	-0.107
-628.492	149.243	0.187	0.256
-627.478	288.073	0.167	0.305
-626.463	-117.143	0.281	0.052
-625.449	494.172	-0.065	0.151
-624.434	-200.000	0.009	-0.140
-623.419	198.671	-0.069	0.106
-622.405	-182.761	-0.233	0.004
-621.390	-110.820	-0.469	-0.097
-620.376	800.000	0.089	-0.319
-619.361	-200.000	-0.007	-0.117
-618.346	800.000	0.083	-0.237
-617.332	-200.000	0.004	-0.204
-616.317	-200.000	-0.015	-0.140
-615.303	0.060	0.083	0.060
-614.288	137.654	-0.257	0.339
-613.273	-167.423	0.319	0.013
-612.259	0.949	-0.330	-0.238
-611.244	-54.823	0.298	-0.136
-610.230	800.000	-0.025	0.111
-609.215	-200.000	0.031	-0.216
-608.201	245.117	0.074	0.126
-607.186	-200.000	0.032	-0.233
-606.171	-47.267	0.231	-0.113
-605.157	321.181	-0.162	0.310
-604.142	-102.879	-0.112	-0.027
-603.128	-93.340	0.365	0.102
-602.113	532.833	0.109	0.260
-601.098	-105.504	0.159	-0.036
-600.084	-97.651	0.315	-0.082
-599.069	33.234	0.017	0.015
-598.055	-200.000	-0.028	-0.130
-597.040	20.135	0.015	0.012
-596.025	-162.204	0.114	0.006
-595.011	-169.635	-0.187	0.007
-593.996	79.082	0.113	-0.122
-592.982	-23.157	0.135	-0.082
-591.967	-200.000	0.006	-0.331
-590.952	-200.000	-0.052	-0.379
-589.938	-172.389	-0.207	0.007
-588.923	279.181	0.265	-0.475
-587.909	-8.956	0.187	0.126
-586.894	-52.863	0.431	0.200
-585.879	800.000	-0.030	-0.089
-584.865	800.000	0.070	0.266
-583.850	219.034	0.131	0.210
-582.836	-200.000	-0.033	-0.316
-581.821	89.263	0.046	0.052
-580.806	-96.879	-0.130	0.034
-579.792	221.901	0.061	0.099
-578.777	53.784	-0.091	0.088
-577.763	-131.084	0.058	-0.008
-576.748	-35.308	-0.155	0.085
-575.733	-101.239	0.229	0.056
-574.719	-103.286	-0.374	-0.089
-573.704	-79.055	-0.195	-0.067
-572.690	-164.456	-0.298	0.014
-571.675	51.653	-0.123	0.117
-570.661	-32.745	-0.079	0.044
-569.646	-66.745	0.214	0.085
-568.631	-79.410	0.331	0.113
-567.617	-99.768	0.269	0.068
-566.602	305.142	-0.141	-0.263
-565.588	191.540	-0.052	-0.079
-564.573	-200.000	-0.044	-0.245
-563.558	-76.155	-0.162	0.057
-562.544	155.658	-0.124	0.172
-561.529	-200.000	0.020	-0.188
-560.515	-40.099	-0.135	-0.071
-559.500	9.168	-0.138	0.104
-558.485	282.157	0.141	-0.254
-557.471	243.684	-0.060	0.100
-556.456	-39.441	-0.175	-0.092
-555.442	800.000	0.131	-0.501
-554.427	-200.000	0.017	0.089
-553.412	-200.000	-0.085	-0.384
-552.398	-200.000	-0.007	-0.054
-551.383	-96.720	0.100	0.026
-550.369	-24.920	0.203	0.121
-549.354	528.405	-0.080	0.189
-548.339	-67.662	-0.201	0.079
-547.325	198.482	-0.210	0.323
-546.310	-200.000	0.047	0.284
-545.296	116.361	-0.061	-0.075
-544.281	269.823	-0.088	0.155
-543.266	-5.916	0.046	0.031
-542.252	-200.000	0.023	0.222
-541.237	69.049	-0.071	-0.074
-540.223	285.621	-0.302	-0.547
-539.208	51.671	-0.094	-0.090
-538.193	-22.629	0.274	-0.166
-537.179	166.032	0.066	-0.094
-536.164	800.000	0.125	-0.392
-535.150	-114.919	-0.107	-0.021
-534.135	800.000	0.023	0.089
-533.121	-169.702	0.390	0.014
-532.106	800.000	0.033	-0.118
-531.091	109.702	0.065	-0.079
-530.077	5.366	-0.282	-0.209
-529.062	800.000	-0.036	0.118
-528.048	-27.824	-0.158	0.092
-527.033	800.000	0.144	-0.414
-526.018	92.443	-0.064	-0.073
-525.004	-9.452	0.165	-0.111
-523.989	484.931	0.137	-0.314
-522.975	-200.000	-0.003	0.114
-521.960	48.429	0.120	0.113
-520.945	-48.922	0.378	0.182
-519.931	-41.204	0.165	0.085
-518.916	-49.293	-0.262	-0.126
-517.902	-152.129	-0.067	-0.005
-516.887	800.000	0.015	0.057
-515.872	10.598	0.227	-0.174
-514.858	382.374	0.081	0.167
-513.843	800.000	0.037	0.157
-512.829	800.000	-0.011	0.042
-511.814	541.002	-0.095	-0.227
-510.799	-63.700	-0.208	0.085
-509.785	295.536	-0.194	-0.356
-508.770	-22.611	-0.215	-0.131
-507.756	133.624	0.122	0.159
-506.741	203.955	-0.049	-0.076
-505.726	118.937	-0.021	-0.026
-504.712	95.411	-0.099	0.113
-503.697	-26.289	0.208	-0.122
-502.683	306.794	0.130	-0.243
-501.668	-69.084	0.015	-0.006
-500.653	403.580	-0.074	0.155
-499.639	203.285	-0.037	0.057
-498.624	-200.000	0.008	0.326
-497.610	800.000	-0.100	0.335
-496.595	105.681	-0.253	0.300
-495.581	-49.016	0.254	0.122
-494.566	-153.628	-0.387	-0.027
-493.551	-21.083	-0.027	0.016
-492.537	145.747	0.147	-0.198
-491.522	190.733	0.023	0.034
-490.508	84.954	-0.050	-0.055
-489.493	-154.512	0.064	0.004
-488.478	509.182	-0.084	0.195
-487.464	-11.901	-0.093	0.061
-486.449	206.098	-0.055	-0.086
-485.435	-149.691	0.064	-0.005
-484.420	-178.000	-0.108	-0.003
-483.405	-196.761	0.314	0.002
-482.391	-12.990	-0.390	-0.254
-481.376	-83.660	0.248	-0.079
-480.362	202.251	0.195	-0.302
-479.347	-69.296	0.220	0.085
-478.332	11.042	0.179	0.137
-477.318	-89.170	-0.236	0.070
-476.303	-200.000	0.047	0.225
-475.289	800.000	0.107	-0.332
-474.274	14.920	-0.037	0.029
-473.259	298.253	-0.047	0.086
-472.245	144.437	-0.079	-0.105
-471.230	120.560	-0.277	0.345
-470.216	148.995	0.015	-0.020
-469.201	-200.000	0.010	0.388
-468.186	326.322	-0.102	-0.195
-467.172	120.566	-0.147	-0.183
-466.157	-92.498	0.230	0.065
-465.143	87.819	0.297	-0.329
-464.128	-49.526	0.046	-0.022
-463.113	-110.006	0.113	-0.024
-462.099	4.789	0.110	0.081
-461.084	-148.578	-0.187	-0.015
-460.070	-73.333	-0.225	-0.083
-459.055	330.586	0.084	-0.162
-458.040	322.779	-0.063	-0.121
-457.026	-39.819	0.169	0.088
-456.011	-200.000	-0.021	0.177
-454.997	1.688	-0.107	0.077
-453.982	84.700	0.216	-0.237
-452.968	268.054	0.136	0.238
-451.953	55.883	-0.237	0.230
-450.938	-200.000	-0.012	-0.115
-449.924	184.807	0.135	-0.201
-448.909	-11.142	-0.156	-0.103
-447.895	-97.569	-0.056	-0.014
-446.880	-130.005	-0.322	0.044
-445.865	163.374	-0.092	0.129
-444.851	-85.813	0.053	-0.016
-443.836	-125.831	0.075	-0.011
-442.822	-70.959	0.275	-0.104
-441.807	-32.293	-0.127	0.071
-440.792	-16.903	-0.351	0.222
-439.778	-200.000	0.024	0.145
-438.763	-24.496	-0.218	0.130
-437.749	800.000	0.050	-0.158
-436.734	-67.981	0.199	0.078
-435.719	-58.499	0.254	-0.110
-434.705	-200.000	-0.004	-0.081
-433.690	-110.112	-0.292	-0.061
-432.676	-10.686	0.255	-0.169
-431.661	509.884	0.073	0.170
-430.646	571.390	-0.063	0.154
-429.632	-40.222	-0.348	-0.181
-428.617	-200.000	0.000	0.031
-427.603	-125.393	0.306	-0.047
-426.588	144.345	-0.140	0.186
-425.573	-34.459	-0.094	-0.052
-424.559	149.828	0.340	0.461
-423.544	91.849	-0.149	0.168
-422.530	41.940	-0.173	0.157
-421.515	56.884	0.144	-0.140
-420.500	433.034	-0.024	0.051
-419.486	-200.000	-0.027	-0.157
-418.471	-102.274	0.218	-0.052
-417.457	-52.523	-0.197	-0.091
-416.442	-200.000	0.016	-0.200
-415.428	-38.749	-0.399	-0.210
-414.413	-35.255	-0.171	0.093
-413.398	-10.632	-0.138	0.091
-412.384	-16.464	0.171	0.108
-411.369	-193.290	-0.244	-0.002
-410.355	-165.086	-0.435	0.019
-409.340	40.864	0.225	-0.203
-408.325	-43.137	0.231	0.117
-407.311	-28.965	-0.065	-0.037
-406.296	-200.000	-0.003	-0.161
-405.282	35.102	-0.136	0.119
-404.267	-50.752	-0.119	-0.056
-403.252	173.589	-0.004	-0.006
-402.238	-107.368	-0.595	0.131
-401.223	-200.000	0.009	-0.423
-400.209	-55.649	-0.350	-0.157
-399.194	-69.461	-0.293	0.112
-398.179	-167.602	-0.231	-0.009
-397.165	173.811	0.085	0.122
-396.150	-200.000	-0.033	-0.215
-395.136	160.743	-0.089	0.125
-394.121	-31.152	0.165	0.093
-393.106	-101.972	0.367	0.088
-392.092	390.426	0.113	0.235
-391.077	-22.194	0.038	-0.023
-390.063	-98.006	-0.102	0.026
-389.048	83.689	0.196	-0.214
-388.033	-143.874	-0.150	-0.014
-387.019	-94.693	0.308	0.083
-386.004	-35.697	0.197	0.107
-384.990	200.521	-0.021	-0.033
-383.975	-200.000	-0.046	-0.254
-382.960	-112.288	-0.243	0.049
-381.946	422.593	0.131	-0.281
-380.931	-145.654	0.161	0.014
-379.917	-200.000	0.011	0.106
-378.902	-72.401	-0.355	-0.131
-377.888	483.214	0.139	0.316
-376.873	800.000	0.098	-0.301
-375.858	-200.000	0.066	0.396
-374.844	4.280	0.069	0.050
-373.829	82.152	0.176	-0.191
-372.815	457.850	0.179	-0.398
-371.800	-13.681	0.103	-0.067
-370.785	800.000	-0.015	-0.061
-369.771	-43.873	-0.081	0.040
-368.756	-200.000	0.008	-0.237
-367.742	3.166	-0.161	0.117
-366.727	229.950	-0.051	-0.083
-365.712	0.279	0.169	0.120
-364.698	-140.874	-0.125	0.013
-363.683	30.969	-0.160	0.137
-362.669	-128.060	0.122	0.017
-361.654	60.789	-0.156	0.154
-360.639	800.000	-0.098	0.278
-359.625	-200.000	0.021	-0.149
-358.610	26.852	-0.118	0.098
-357.596	-113.759	-0.123	-0.024
-356.581	-105.438	0.305	-0.069
-355.566	-200.000	-0.050	0.450
-354.552	-93.371	0.278	-0.077
-353.537	-22.885	0.157	0.094
-352.523	-175.555	-0.348	-0.009
-351.508	-135.762	-0.257	0.030
-350.493	146.573	-0.204	0.273
-349.479	70.951	0.128	0.132
-348.464	239.277	0.262	0.435
-347.450	182.718	-0.160	-0.235
-346.435	-109.439	-0.133	0.028
-345.420	37.789	0.157	0.139
-344.406	-37.982	0.223	0.118
-343.391	172.265	0.146	-0.209
-342.377	-200.000	-0.063	-0.298
-341.362	800.000	0.123	0.446
-340.348	-200.000	0.036	0.180
-339.333	-173.108	0.063	0.002
-338.318	-200.000	-0.036	0.238
-337.304	90.449	-0.168	0.187
-336.289	800.000	-0.013	0.037
-335.275	-115.937	-0.094	0.018
-334.260	494.589	-0.165	-0.378
-333.245	-200.000	-0.041	-0.337
-332.231	65.597	-0.254	0.256
-331.216	178.976	-0.032	-0.047
-330.202	295.888	-0.091	-0.166
-329.187	-69.391	0.175	0.067
-328.172	800.000	-0.071	-0.250
-327.158	74.176	0.228	0.239
-326.143	591.958	0.084	-0.206
-325.129	105.368	0.146	-0.171
-324.114	609.318	0.062	0.154
-323.099	256.206	-0.098	0.168
-322.085	161.011	0.121	0.168
-321.070	-88.376	-0.149	0.044
-320.056	136.343	0.147	0.191
-319.041	800.000	-0.065	-0.222
-318.026	-174.147	-0.135	-0.004
-317.012	393.608	0.078	0.162
-315.997	-155.240	-0.321	-0.021
-314.983	108.885	-0.140	-0.166
-313.968	-111.622	0.089	0.018
-312.953	27.268	-0.188	0.157
-311.939	-68.691	0.006	-0.002
-310.924	-45.360	-0.234	0.116
-309.910	10.021	-0.122	0.092
-308.895	19.902	0.323	-0.259
-307.880	-45.180	0.171	0.084
-306.866	-200.000	-0.032	-0.172
-305.851	16.155	0.165	-0.129
-304.837	-43.718	0.227	-0.114
-303.822	1.577	0.196	0.140
-302.807	-48.145	0.200	-0.096
-301.793	-91.467	-0.098	-0.028
-300.778	19.242	-0.062	-0.049
-299.764	-169.379	0.347	-0.013
-298.749	800.000	0.074	-0.276
-297.735	-113.599	-0.268	-0.052
-296.720	-200.000	0.034	-0.176
-295.705	-54.223	-0.189	0.085
-294.691	-13.308	0.033	-0.021
-293.676	-200.000	-0.010	-0.063
-292.662	800.000	0.024	-0.085
-291.647	-73.139	-0.225	0.082
-290.632	-15.942	0.142	-0.090
-289.618	-129.482	0.076	-0.010
-288.603	380.622	0.166	0.338
-287.589	-136.581	0.208	0.024
-286.574	126.255	0.059	0.075
-285.559	-150.266	0.350	-0.027
-284.545	-14.139	-0.019	0.012
-283.530	97.178	0.096	0.109
-282.516	241.079	0.216	-0.358
-281.501	-93.421	-0.356	-0.098
-280.486	42.100	-0.106	0.096
-279.472	269.492	-0.135	0.236
-278.457	-200.000	-0.002	-0.190
-277.443	-81.214	0.242	0.079
-276.428	-11.461	-0.272	-0.178
-275.413	25.038	-0.091	0.075
-274.399	-114.326	-0.239	0.046
-273.384	-200.000	-0.055	-0.350
-272.370	800.000	0.068	0.197
-271.355	-67.215	0.356	-0.139
-270.340	-118.371	-0.303	0.053
-269.326	800.000	-0.097	-0.301
-268.311	127.372	0.141	-0.178
-267.297	-200.000	0.019	0.251
-266.282	-200.000	0.028	-0.218
-265.267	31.413	-0.151	0.129
-264.253	-112.422	0.102	0.020
-263.238	452.264	-0.205	0.450
-262.224	-69.405	0.363	-0.138
-261.209	237.196	-0.124	0.204
-260.195	-38.251	-0.034	-0.018
-259.180	-37.931	0.102	0.054
-258.165	-116.820	-0.139	-0.025
-257.151	396.057	0.125	-0.259
-256.136	8.969	-0.116	0.087
-255.122	-200.000	-0.017	-0.249
-254.107	86.467	-0.036	0.039
-253.092	198.560	-0.068	-0.103
-252.078	-69.204	-0.161	0.062
-251.063	800.000	0.146	0.616
-250.049	357.084	-0.079	-0.157
-249.034	-200.000	0.015	0.205
-248.019	-50.770	0.160	-0.075
-247.005	-106.855	0.154	-0.034
-245.990	498.568	0.067	-0.154
-244.976	800.000	0.114	0.408
-243.961	-60.670	-0.074	0.031
-242.946	800.000	-0.120	-0.377
-241.932	-200.000	0.060	-0.413
-240.917	-200.000	0.024	-0.108
-239.903	772.221	0.047	0.126
-238.888	-21.468	-0.276	0.167
-237.873	-58.151	0.071	-0.031
-236.859	178.058	-0.204	-0.295
-235.844	-121.129	-0.261	0.043
-234.830	72.803	-0.135	0.140
-233.815	341.871	-0.128	0.249
-232.800	85.255	0.137	0.149
-231.786	-76.839	-0.155	0.054
-230.771	-144.200	0.202	-0.019
-229.757	800.000	0.019	-0.071
-228.742	-200.000	0.038	-0.246
-227.727	1.622	-0.142	0.101
-226.713	-200.000	0.006	-0.093
-225.698	-200.000	0.026	-0.138
-224.684	800.000	-0.058	0.179
-223.669	142.177	-0.112	0.147
-222.655	-62.178	0.388	-0.160
-221.640	-195.133	-0.158	-0.001
-220.625	-73.763	-0.100	-0.036
-219.611	-96.489	-0.059	0.016
-218.596	-200.000	-0.039	0.179
-217.582	275.664	0.084	0.147
-216.567	-53.029	0.204	-0.093
-215.552	800.000	-0.066	-0.224
-214.538	26.328	-0.382	0.316
-213.523	613.085	-0.052	-0.128
-212.509	-142.450	-0.325	0.032
-211.494	118.071	-0.031	0.038
-210.479	302.218	-0.061	-0.112
-209.465	800.000	-0.062	0.224
-208.450	-200.000	-0.008	0.196
-207.436	800.000	-0.035	0.147
-206.421	339.707	0.121	0.234
-205.406	-200.000	-0.000	-0.003
-204.392	566.614	0.059	0.142
-203.377	-32.059	0.235	0.130
-202.363	800.000	-0.054	-0.151
-201.348	54.593	-0.272	-0.259
-200.333	-200.000	0.053	0.296
-199.319	-34.711	0.258	-0.140
-198.304	76.084	0.195	0.205
-197.290	1.906	0.069	0.049
-196.275	75.937	0.197	-0.207
-195.260	-165.482	0.117	-0.005
-194.246	800.000	-0.105	-0.304
-193.231	-19.419	0.170	0.104
-192.217	174.971	0.150	-0.215
-191.202	-52.120	-0.377	-0.173
-190.187	-200.000	0.023	-0.360
-189.173	800.000	0.050	0.177
-188.158	-54.846	0.276	0.123
-187.144	-90.779	-0.431	0.123
-186.129	-53.810	0.160	-0.072
-185.114	-96.338	0.251	0.066
-184.100	-200.000	-0.035	0.452
-183.085	800.000	0.126	0.387
-182.071	-6.425	0.078	-0.053
-181.056	69.473	-0.169	0.172
-180.042	351.459	-0.117	0.228
-179.027	8.384	-0.270	0.201
-178.012	-7.719	0.163	-0.109
-176.998	13.646	0.148	0.114
-175.983	-75.190	0.141	0.050
-174.969	-128.307	0.210	-0.030
-173.954	36.440	-0.211	0.184
-172.939	-28.533	-0.324	0.185
-171.925	-134.875	-0.165	-0.020
-170.910	54.423	-0.060	0.058
-169.896	-90.762	0.294	0.084
-168.881	-200.000	0.011	-0.215
-167.866	-200.000	0.018	0.104
-166.852	36.396	-0.056	0.049
-165.837	-200.000	0.041	-0.403
-164.823	-125.456	0.344	-0.052
-163.808	-200.000	-0.037	0.280
-162.793	-132.864	0.199	0.025
-161.779	-200.000	0.019	0.323
-160.764	-200.000	0.050	0.224
-159.750	-32.872	-0.038	0.021
-158.735	-49.268	-0.379	-0.179
-157.720	-53.761	-0.180	0.081
-156.706	116.691	0.074	0.090
-155.691	800.000	-0.089	0.274
-154.677	-200.000	-0.019	-0.112
-153.662	155.554	0.061	0.082
-152.647	39.009	-0.134	0.119
-151.633	-85.977	0.197	-0.060
-150.618	-50.968	-0.343	0.159
-149.604	-123.747	-0.009	-0.001
-148.589	-200.000	-0.005	-0.038
-147.574	21.267	-0.278	-0.224
-146.560	49.837	-0.085	-0.079
-145.545	800.000	0.109	0.310
-144.531	188.196	-0.020	0.029
-143.516	-73.452	0.202	-0.073
-142.502	-54.322	-0.208	-0.093
-141.487	174.466	-0.082	-0.118
-140.472	134.884	0.113	-0.146
-139.458	800.000	-0.059	0.207
-138.443	-98.104	0.452	0.115
-137.429	66.724	-0.139	-0.140
-136.414	-200.000	0.026	-0.268
-135.399	-65.172	0.165	0.066
-134.385	132.750	-0.082	0.105
-133.370	200.609	-0.072	-0.110
-132.356	-169.224	0.248	-0.009
-131.341	-164.042	0.128	0.006
-130.326	-105.882	0.152	-0.034
-129.312	-148.995	-0.057	-0.005
-128.297	56.976	0.364	-0.351
-127.283	190.922	0.199	0.295
-126.268	26.631	0.124	-0.103
-125.253	-200.000	-0.009	-0.096
-124.239	4.955	0.178	-0.129
-123.224	-28.019	0.342	0.195
-122.210	-200.000	-0.005	0.311
-121.195	-200.000	0.003	-0.177
