DTS Sentinel unit serial number:	SN413079Multiplexer serial number:	ORYXHardware model number:	OX4-SRSoftware version number:	ORYX F/W v4.00 Oryx Data Collector v3.7.2.0data status	okinstallation	princeton_trtdifferential loss correction	single-endedforward channel	channel 3reverse channel	N/Adate	2019/09/11time	17:46:11forward acquisition time	60.00reverse acquisition time	0.00gamma	496.2192k internal	0.2286k external	0.2286temperature offset calibration	0.9995default loss term (dB/km)	0.3790temperature slope calibration	1.0000multiplexer offset coefficient	1.0000multiplexer slope coefficient	1.0000fibre end	0.00T internal ref (°C)	43.91T ext. ref 1 (°C)	1.11T ext. ref 2 (°C)	39.06length (m)	temperature (°C)	Stokes	anti-Stokes-747.200	95.687	0.072	0.085
-746.185	-104.461	0.091	0.022
-745.171	800.000	0.081	-0.242
-744.156	38.087	-0.158	0.145
-743.142	-200.000	0.019	0.112
-742.127	-5.645	-0.177	0.125
-741.112	-107.134	-0.220	-0.050
-740.098	800.000	-0.150	0.645
-739.083	-41.840	-0.246	0.129
-738.069	391.649	0.185	0.395
-737.054	499.582	0.067	0.158
-736.039	-79.276	0.150	0.052
-735.025	263.082	-0.128	0.227
-734.010	-93.074	0.110	-0.032
-732.996	-113.845	-0.175	0.035
-731.981	363.902	0.050	-0.102
-730.966	451.032	0.147	-0.334
-729.952	-20.113	0.306	-0.194
-728.937	-178.194	-0.235	-0.006
-727.923	-77.150	-0.334	-0.119
-726.908	-200.000	-0.056	0.268
-725.894	-200.000	-0.049	0.000
-724.879	-94.467	0.206	0.058
-723.864	-200.000	-0.007	-0.187
-722.850	-118.248	-0.165	-0.030
-721.835	123.160	-0.166	0.213
-720.821	-26.818	0.200	0.120
-719.806	-167.878	0.186	0.007
-718.791	41.127	-0.245	-0.227
-717.777	800.000	0.075	0.215
-716.762	-71.073	-0.112	0.043
-715.748	-113.061	0.311	0.063
-714.733	-57.917	0.235	-0.105
-713.718	-41.593	-0.140	0.074
-712.704	2.053	0.151	-0.112
-711.689	-200.000	0.044	0.401
-710.675	-10.817	0.184	-0.125
-709.660	78.608	-0.182	0.199
-708.645	26.459	0.080	0.068
-707.631	167.246	-0.130	-0.190
-706.616	-129.834	0.218	0.031
-705.602	21.342	-0.300	-0.250
-704.587	800.000	0.086	-0.319
-703.572	416.889	-0.159	-0.348
-702.558	-84.063	-0.213	-0.069
-701.543	-22.655	0.075	0.047
-700.529	59.107	-0.182	0.183
-699.514	379.167	0.094	-0.197
-698.499	-200.000	0.021	0.104
-697.485	253.341	0.131	-0.229
-696.470	190.433	-0.129	0.198
-695.456	105.086	0.221	-0.267
-694.441	-84.866	0.135	-0.043
-693.426	199.266	0.192	0.301
-692.412	335.448	0.084	0.167
-691.397	-200.000	-0.008	-0.043
-690.383	168.029	-0.280	-0.408
-689.368	-63.524	-0.153	-0.064
-688.354	-170.801	-0.071	0.002
-687.339	114.929	0.345	0.431
-686.324	-110.732	-0.295	0.062
-685.310	-110.745	-0.179	-0.038
-684.295	800.000	0.084	-0.344
-683.281	-119.285	-0.142	-0.025
-682.266	800.000	-0.105	-0.392
-681.251	-58.083	-0.195	0.087
-680.237	-200.000	0.015	-0.219
-679.222	590.990	-0.071	0.179
-678.208	-200.000	0.017	-0.258
-677.193	800.000	0.082	-0.278
-676.178	-123.434	0.321	-0.052
-675.164	800.000	-0.020	0.088
-674.149	59.629	0.207	0.209
-673.135	433.186	-0.061	0.136
-672.120	-22.822	-0.094	-0.058
-671.105	574.235	-0.004	0.010
-670.091	43.155	0.128	-0.120
-669.076	-45.926	-0.297	0.150
-668.062	7.753	-0.055	-0.042
-667.047	-128.031	-0.264	-0.039
-666.032	1.434	0.144	0.106
-665.018	-62.288	-0.310	0.132
-664.003	800.000	0.049	-0.180
-662.989	8.487	0.239	0.184
-661.974	-113.714	-0.106	0.021
-660.959	-143.451	0.137	0.013
-659.945	49.159	-0.030	0.029
-658.930	-119.890	-0.079	0.014
-657.916	-69.421	0.329	0.129
-656.901	-80.453	-0.282	0.096
-655.886	248.432	0.086	-0.149
-654.872	-200.000	0.023	-0.382
-653.857	-120.554	0.260	-0.045
-652.843	-129.329	0.448	0.064
-651.828	0.592	-0.262	0.191
-650.814	35.576	0.185	-0.166
-649.799	-133.398	-0.306	-0.039
-648.784	48.893	-0.213	0.204
-647.770	-107.096	-0.054	0.012
-646.755	-76.496	0.198	0.071
-645.741	-5.275	0.343	0.241
-644.726	-22.261	-0.199	0.123
-643.711	-184.868	0.359	-0.006
-642.697	-200.000	0.001	-0.233
-641.682	169.270	0.166	-0.242
-640.668	800.000	0.093	0.345
-639.653	29.235	-0.227	-0.197
-638.638	13.525	-0.239	0.189
-637.624	-89.015	0.280	-0.085
-636.609	-77.481	-0.048	-0.017
-635.595	-200.000	-0.009	-0.414
-634.580	-138.201	0.184	-0.021
-633.565	36.935	-0.129	0.117
-632.551	-135.600	-0.221	0.027
-631.536	190.236	-0.073	0.111
-630.522	184.938	0.214	0.324
-629.507	-39.500	0.221	-0.118
-628.492	-65.393	-0.283	-0.116
-627.478	-200.000	-0.031	0.357
-626.463	-52.480	0.212	0.100
-625.449	-124.167	0.176	-0.028
-624.434	800.000	0.039	-0.130
-623.419	-200.000	0.033	0.193
-622.405	19.021	-0.284	0.233
-621.390	-106.317	-0.272	-0.062
-620.376	-200.000	0.003	0.133
-619.361	83.559	0.243	0.270
-618.346	-21.194	0.251	0.156
-617.332	163.717	-0.253	0.363
-616.317	-100.219	-0.141	0.036
-615.303	-96.813	-0.161	-0.043
-614.288	87.960	0.099	-0.112
-613.273	403.567	0.091	0.195
-612.259	-126.873	0.220	-0.033
-611.244	-200.000	-0.020	0.256
-610.230	735.795	0.071	-0.193
-609.215	123.739	0.121	0.155
-608.201	800.000	0.029	-0.081
-607.186	64.404	-0.097	-0.100
-606.171	0.646	-0.078	-0.057
-605.157	599.713	0.046	-0.117
-604.142	262.354	-0.061	-0.108
-603.128	-87.656	0.104	0.032
-602.113	-109.174	0.150	0.033
-601.098	92.954	0.191	-0.220
-600.084	-200.000	-0.024	0.327
-599.069	183.540	-0.144	0.217
-598.055	-98.289	0.101	0.026
-597.040	-32.228	-0.067	0.038
-596.025	-44.644	0.202	-0.103
-595.011	-173.294	-0.202	-0.006
-593.996	66.033	-0.119	0.123
-592.982	800.000	-0.104	-0.450
-591.967	-26.777	0.142	-0.085
-590.952	-48.995	-0.247	-0.121
-589.938	-41.937	-0.369	0.193
-588.923	-27.961	-0.209	-0.123
-587.909	-200.000	-0.021	-0.142
-586.894	325.253	-0.178	0.347
-585.879	-200.000	0.013	0.256
-584.865	800.000	-0.097	0.277
-583.850	-136.399	0.226	0.027
-582.836	-42.385	0.121	0.063
-581.821	-17.124	0.166	0.107
-580.806	-129.278	-0.116	-0.017
-579.792	207.685	0.135	-0.215
-578.777	122.475	-0.074	0.094
-577.763	23.080	0.190	-0.159
-576.748	-3.938	0.235	-0.166
-575.733	-146.798	-0.279	0.025
-574.719	-157.200	0.009	0.001
-573.704	-79.466	0.178	0.061
-572.690	800.000	-0.113	-0.449
-571.675	-81.072	-0.204	-0.069
-570.661	100.624	-0.122	0.144
-569.646	236.164	-0.315	0.530
-568.631	-13.242	-0.197	0.130
-567.617	-34.570	0.055	0.031
-566.602	-200.000	-0.035	0.333
-565.588	-48.265	-0.197	0.097
-564.573	14.830	-0.154	0.122
-563.558	210.680	0.026	0.042
-562.544	-103.369	-0.202	-0.049
-561.529	-63.183	-0.398	0.167
-560.515	-133.089	0.239	-0.031
-559.500	-21.303	-0.169	0.105
-558.485	-200.000	-0.015	-0.181
-557.471	-16.136	0.305	0.198
-556.456	800.000	-0.065	-0.224
-555.442	-48.810	0.222	-0.109
-554.427	800.000	-0.096	0.272
-553.412	61.649	0.040	-0.041
-552.398	396.815	-0.157	0.334
-551.383	6.666	0.169	-0.128
-550.369	-107.541	-0.195	0.043
-549.354	800.000	-0.035	-0.153
-548.339	76.485	0.178	0.192
-547.325	-200.000	-0.012	-0.132
-546.310	-80.305	0.260	-0.088
-545.296	77.544	-0.122	-0.133
-544.281	-118.320	-0.115	0.021
-543.266	540.126	0.117	-0.283
-542.252	491.001	0.163	-0.379
-541.237	-87.705	-0.149	-0.046
-540.223	312.665	0.072	-0.138
-539.208	-106.508	-0.279	-0.063
-538.193	-62.504	-0.056	0.024
-537.179	-31.651	-0.191	-0.109
-536.164	-187.515	-0.150	0.002
-535.150	68.177	-0.082	0.085
-534.135	-138.990	0.113	0.012
-533.121	-35.409	0.262	0.145
-532.106	-200.000	0.008	0.263
-531.091	-13.397	-0.221	0.146
-530.077	15.245	0.201	-0.160
-529.062	-200.000	-0.031	-0.488
-528.048	617.881	-0.044	0.112
-527.033	682.357	0.092	0.244
-526.018	-73.828	0.210	0.078
-525.004	-45.544	-0.414	-0.208
-523.989	800.000	0.036	-0.148
-522.975	-92.367	-0.076	0.022
-521.960	689.443	0.045	0.119
-520.945	67.661	0.304	-0.316
-519.931	330.471	0.084	0.164
-518.916	92.138	0.103	-0.117
-517.902	-69.259	0.185	-0.072
-516.887	61.218	0.067	-0.068
-515.872	-35.443	-0.036	0.020
-514.858	800.000	-0.046	0.137
-513.843	28.245	-0.210	-0.180
-512.829	-200.000	-0.025	-0.131
-511.814	-121.086	-0.417	-0.071
-510.799	-45.076	0.215	0.109
-509.785	221.568	-0.072	-0.118
-508.770	-75.929	-0.294	0.106
-507.756	169.460	0.113	0.164
-506.741	540.544	-0.022	0.053
-505.726	363.418	0.106	0.217
-504.712	-200.000	0.016	0.186
-503.697	33.001	0.174	0.153
-502.683	-75.392	-0.323	0.117
-501.668	59.870	-0.178	-0.179
-500.653	725.484	-0.143	-0.389
-499.639	397.746	-0.210	0.447
-498.624	-119.907	0.238	0.042
-497.610	-132.697	0.426	-0.055
-496.595	121.136	-0.079	-0.099
-495.581	-200.000	0.000	-0.185
-494.566	-49.559	-0.108	0.052
-493.551	383.263	-0.106	-0.222
-492.537	113.227	0.077	-0.095
-491.522	-39.134	0.197	0.105
-490.508	4.638	0.149	0.111
-489.493	773.531	-0.065	-0.179
-488.478	-56.171	0.152	-0.069
-487.464	287.466	-0.107	0.197
-486.449	374.345	-0.119	-0.246
-485.435	800.000	0.056	-0.209
-484.420	-67.856	-0.243	-0.096
-483.405	-104.095	-0.152	0.036
-482.391	-73.966	-0.199	0.074
-481.376	800.000	-0.045	0.190
-480.362	-19.943	0.280	0.176
-479.347	-200.000	-0.005	-0.141
-478.332	800.000	0.069	-0.194
-477.318	-180.917	0.302	0.006
-476.303	-200.000	-0.103	0.000
-475.289	344.820	0.103	-0.206
-474.274	-93.034	-0.446	0.126
-473.259	-119.966	-0.272	0.047
-472.245	166.280	-0.109	-0.157
-471.230	8.602	-0.202	0.154
-470.216	800.000	-0.016	-0.059
-469.201	17.650	0.248	0.200
-468.186	68.059	-0.214	-0.222
-467.172	-2.473	0.260	0.185
-466.157	322.193	-0.170	-0.329
-465.143	61.347	0.071	0.072
-464.128	-1.756	-0.177	0.127
-463.113	800.000	-0.042	-0.117
-462.099	800.000	0.096	-0.279
-461.084	-71.448	0.166	-0.063
-460.070	-80.257	-0.297	0.101
-459.055	-156.378	0.286	-0.018
-458.040	167.060	0.068	-0.097
-457.026	-200.000	0.002	-0.347
-456.011	183.378	-0.103	-0.155
-454.997	572.480	-0.134	-0.332
-453.982	-92.415	-0.222	0.063
-452.968	-51.137	0.225	-0.107
-451.953	178.461	-0.060	0.089
-450.938	-200.000	-0.036	-0.214
-449.924	366.888	0.131	0.268
-448.909	-106.573	-0.040	-0.009
-447.895	16.649	0.099	0.080
-446.880	35.756	-0.167	0.149
-445.865	-200.000	-0.016	0.131
-444.851	-57.017	-0.127	0.057
-443.836	-121.351	0.127	-0.021
-442.822	-50.002	0.252	-0.121
-441.807	87.639	0.025	0.028
-440.792	800.000	-0.118	0.411
-439.778	-104.766	-0.151	-0.035
-438.763	-55.411	0.565	0.257
-437.749	16.608	0.076	0.061
-436.734	-38.385	0.293	0.157
-435.719	-200.000	0.009	-0.160
-434.705	800.000	0.030	0.118
-433.690	-12.718	-0.242	0.160
-432.676	600.295	0.163	0.410
-431.661	-200.000	-0.030	0.430
-430.646	-58.387	0.052	0.023
-429.632	-65.678	-0.119	-0.048
-428.617	-67.013	-0.056	-0.023
-427.603	38.701	-0.135	-0.122
-426.588	2.993	-0.275	-0.202
-425.573	-200.000	-0.001	-0.083
-424.559	-35.911	0.186	-0.102
-423.544	-171.084	0.149	0.005
-422.530	52.066	0.137	0.132
-421.515	-128.114	0.119	0.017
-420.500	-136.603	-0.337	-0.040
-419.486	-200.000	-0.022	-0.171
-418.471	-100.368	0.105	0.026
-417.457	250.228	0.019	-0.033
-416.442	0.771	0.157	-0.114
-415.428	283.000	0.085	-0.155
-414.413	-143.708	-0.153	-0.015
-413.398	21.624	0.110	0.091
-412.384	-200.000	0.007	-0.289
-411.369	800.000	0.094	-0.357
-410.355	-59.106	-0.307	0.134
-409.340	-24.459	0.271	0.164
-408.325	388.998	-0.049	0.104
-407.311	-72.337	0.116	-0.044
-406.296	-16.518	-0.083	-0.053
-405.282	570.941	0.034	0.084
-404.267	254.989	0.103	0.178
-403.252	491.049	0.113	-0.262
-402.238	-200.000	0.026	-0.254
-401.223	193.166	0.134	-0.205
-400.209	-136.071	-0.273	0.032
-399.194	-80.411	0.070	0.024
-398.179	-119.070	-0.271	-0.048
-397.165	-137.400	-0.064	0.007
-396.150	-17.927	-0.140	-0.089
-395.136	-200.000	-0.045	-0.264
-394.121	10.429	0.283	-0.218
-393.106	342.030	-0.118	0.234
-392.092	59.831	-0.087	-0.087
-391.077	138.565	-0.092	-0.122
-390.063	-95.914	0.238	-0.064
-389.048	574.299	-0.141	0.348
-388.033	352.318	0.074	0.148
-387.019	240.852	0.131	-0.221
-386.004	-46.928	-0.274	0.136
-384.990	-126.137	-0.160	-0.024
-383.975	800.000	0.015	-0.044
-382.960	800.000	0.038	0.113
-381.946	-118.304	0.329	-0.059
-380.931	-126.123	-0.381	0.058
-379.917	-200.000	0.043	-0.358
-378.902	-29.826	0.203	-0.117
-377.888	49.648	0.164	-0.157
-376.873	-110.138	-0.223	0.047
-375.858	624.028	0.053	-0.136
-374.844	-200.000	0.337	-0.001
-373.829	-135.875	-0.375	-0.045
-372.815	800.000	0.069	-0.292
-371.800	-134.333	-0.322	0.040
-370.785	-148.323	-0.160	-0.013
-369.771	-200.000	0.015	-0.085
-368.756	-154.263	-0.282	-0.019
-367.742	800.000	-0.037	0.133
-366.727	565.680	0.039	-0.095
-365.712	70.103	-0.156	0.163
-364.698	-200.000	0.004	-0.102
-363.683	55.409	-0.120	-0.117
-362.669	106.608	-0.146	0.175
-361.654	-45.110	0.055	0.028
-360.639	-58.059	-0.315	-0.139
-359.625	426.696	-0.034	0.075
-358.610	-200.000	0.027	-0.226
-357.596	-90.717	0.339	-0.099
-356.581	49.369	-0.168	-0.160
-355.566	-169.460	-0.045	-0.002
-354.552	-179.461	0.304	0.007
-353.537	800.000	0.031	0.120
-352.523	-70.281	0.047	-0.018
-351.508	-149.106	0.305	0.025
-350.493	800.000	0.073	0.262
-349.479	165.299	-0.103	-0.147
-348.464	38.081	-0.129	-0.116
-347.450	-155.921	-0.240	0.015
-346.435	-68.890	-0.141	0.055
-345.420	-93.387	-0.178	0.050
-344.406	800.000	0.024	-0.069
-343.391	-200.000	0.011	-0.097
-342.377	601.459	0.051	0.129
-341.362	153.045	-0.042	0.058
-340.348	-51.416	0.245	-0.116
-339.333	-31.013	-0.092	0.052
-338.318	269.617	-0.181	0.320
-337.304	-200.000	-0.034	-0.327
-336.289	-113.693	0.040	-0.008
-335.275	663.155	-0.129	0.336
-334.260	-89.497	0.117	-0.035
-333.245	-70.952	-0.361	-0.137
-332.231	38.997	-0.204	0.184
-331.216	-97.616	0.102	-0.027
-330.202	800.000	-0.019	0.062
-329.187	-200.000	-0.024	0.251
-328.172	135.902	0.057	0.075
-327.158	16.343	-0.097	-0.078
-326.143	-51.997	-0.107	0.050
-325.129	-200.000	0.033	0.188
-324.114	800.000	0.050	0.147
-323.099	-200.000	0.015	-0.220
-322.085	-200.000	0.051	-0.301
-321.070	800.000	-0.122	-0.348
-320.056	-200.000	-0.183	-0.000
-319.041	-58.416	-0.224	0.098
-318.026	-49.330	0.260	0.125
-317.012	800.000	-0.070	-0.251
-315.997	570.220	0.048	-0.118
-314.983	77.894	-0.173	0.186
-313.968	15.057	-0.247	0.195
-312.953	-200.000	-0.013	-0.333
-311.939	-138.842	-0.248	0.027
-310.924	-54.390	0.257	0.117
-309.910	319.586	-0.060	-0.115
-308.895	213.196	-0.159	-0.253
-307.880	95.220	-0.130	0.150
-306.866	111.602	0.161	0.196
-305.851	103.259	0.150	0.177
-304.837	-200.000	-0.032	-0.148
-303.822	-67.638	0.082	0.032
-302.807	-176.921	0.272	0.007
-301.793	800.000	0.041	-0.159
-300.778	2.296	0.246	-0.179
-299.764	-132.671	-0.027	-0.003
-298.749	-109.828	0.117	0.025
-297.735	-92.947	-0.093	-0.026
-296.720	51.074	-0.022	-0.021
-295.705	-155.316	0.121	0.008
-294.691	-200.000	-0.004	0.291
-293.676	32.095	0.078	-0.067
-292.662	49.488	0.142	0.135
-291.647	-200.000	0.052	-0.263
-290.632	-127.276	0.537	0.079
-289.618	15.358	0.196	0.155
-288.603	63.091	0.081	0.081
-287.589	395.441	0.081	0.169
-286.574	153.374	0.247	-0.341
-285.559	595.436	0.098	0.244
-284.545	73.095	0.206	0.217
-283.530	-200.000	-0.044	0.359
-282.516	1.658	0.088	0.064
-281.501	-200.000	-0.026	0.171
-280.486	-200.000	-0.028	0.151
-279.472	-124.823	-0.437	-0.068
-278.457	29.946	0.052	-0.044
-277.443	-113.211	0.252	0.050
-276.428	-59.035	-0.155	-0.068
-275.413	19.754	-0.081	-0.066
-274.399	38.891	0.208	0.187
-273.384	-91.028	0.375	0.109
-272.370	-200.000	-0.004	0.140
-271.355	-159.129	-0.145	0.008
-270.340	800.000	0.021	-0.075
-269.326	800.000	-0.102	-0.441
-268.311	111.804	-0.078	-0.095
-267.297	24.928	0.277	0.231
-266.282	183.229	0.171	0.254
-265.267	696.317	-0.085	0.224
-264.253	176.872	0.195	-0.286
-263.238	534.913	-0.102	-0.244
-262.224	800.000	-0.028	-0.084
-261.209	-134.322	0.346	0.043
-260.195	24.193	-0.224	-0.186
-259.180	-27.086	0.152	0.089
-258.165	-200.000	-0.019	-0.142
-257.151	251.860	0.094	-0.161
-256.136	98.199	-0.254	0.295
-255.122	-200.000	0.051	0.256
-254.107	-155.156	0.061	-0.004
-253.092	711.119	0.044	0.118
-252.078	-200.000	-0.017	0.227
-251.063	-200.000	0.024	0.185
-250.049	407.966	0.072	-0.153
-249.034	-200.000	0.000	0.029
-248.019	-120.534	0.223	0.038
-247.005	-9.415	-0.102	0.069
-245.990	151.597	-0.201	0.276
-244.976	350.910	0.136	0.271
-243.961	90.499	0.162	-0.182
-242.946	-47.083	-0.160	0.079
-241.932	-184.111	-0.153	-0.003
-240.917	800.000	0.103	0.429
-239.903	43.766	-0.048	-0.044
-238.888	293.597	0.102	-0.187
-237.873	-200.000	-0.004	-0.447
-236.859	-10.850	-0.109	0.072
-235.844	-69.730	0.207	-0.080
-234.830	45.682	0.201	-0.187
-233.815	-60.003	-0.074	-0.032
-232.800	-200.000	0.003	-0.345
-231.786	-200.000	-0.056	-0.321
-230.771	-200.000	-0.019	-0.158
-229.757	-107.340	0.298	-0.066
-228.742	800.000	0.047	-0.147
-227.727	285.824	-0.023	-0.042
-226.713	18.939	0.197	-0.159
-225.698	126.954	0.113	-0.144
-224.684	-152.241	-0.172	0.013
-223.669	-200.000	0.008	-0.135
-222.655	-200.000	-0.011	0.162
-221.640	-40.808	0.180	0.094
-220.625	-134.134	0.113	-0.014
-219.611	-118.785	0.108	0.019
-218.596	51.131	-0.220	-0.210
-217.582	-200.000	0.052	0.356
-216.567	800.000	0.040	0.162
-215.552	-59.583	-0.302	-0.130
-214.538	-9.291	0.237	-0.159
-213.523	50.366	0.106	0.101
-212.509	90.328	-0.333	-0.374
-211.494	-90.031	-0.381	-0.112
-210.479	800.000	0.111	0.359
-209.465	-14.482	0.306	0.198
-208.450	36.296	-0.149	-0.132
-207.436	37.829	0.067	-0.060
-206.421	189.952	0.078	0.118
-205.406	-15.330	-0.102	0.066
-204.392	-131.280	-0.088	0.012
-203.377	-132.670	-0.230	0.030
-202.363	-110.595	0.212	-0.044
-201.348	-0.502	-0.333	-0.237
-200.333	270.282	-0.156	0.275
-199.319	17.411	-0.204	-0.163
-198.304	-149.701	0.189	-0.015
-197.290	-162.901	0.406	0.020
-196.275	-200.000	-0.018	-0.088
-195.260	-200.000	-0.038	0.306
-194.246	-89.276	-0.066	0.020
-193.231	-107.765	-0.134	-0.029
-192.217	13.478	0.287	0.224
-191.202	-96.654	0.236	-0.063
-190.187	800.000	0.175	-0.509
-189.173	-162.203	-0.064	0.003
-188.158	-200.000	0.007	0.117
-187.144	-29.890	-0.202	-0.116
-186.129	-164.526	0.142	-0.006
-185.114	-145.022	-0.344	-0.032
-184.100	98.946	0.204	0.236
-183.085	800.000	0.085	-0.253
-182.071	-200.000	-0.005	-0.209
-181.056	10.748	-0.114	-0.087
-180.042	-28.418	0.541	0.313
-179.027	757.994	-0.059	0.159
-178.012	-200.000	0.074	0.330
-176.998	800.000	-0.031	0.112
-175.983	22.105	-0.125	0.102
-174.969	-200.000	0.003	0.056
-173.954	-157.470	0.095	0.006
-172.939	98.513	0.044	-0.051
-171.925	-177.423	0.130	-0.003
-170.910	190.198	0.155	0.233
-169.896	41.575	0.200	-0.182
-168.881	-200.000	-0.019	0.223
-167.866	-200.000	0.072	-0.365
-166.852	107.667	0.033	-0.039
-165.837	-200.000	0.007	0.224
-164.823	-164.193	0.155	-0.007
-163.808	-36.227	-0.178	-0.096
-162.793	-12.701	-0.286	0.187
-161.779	67.359	0.200	-0.204
-160.764	748.658	-0.052	-0.141
-159.750	-200.000	-0.039	-0.289
-158.735	-200.000	-0.013	0.120
-157.720	-13.775	0.279	-0.181
-156.706	62.062	-0.177	0.177
-155.691	-177.887	-0.238	-0.006
-154.677	337.106	0.020	0.040
-153.662	129.405	0.113	-0.145
-152.647	731.532	-0.060	-0.161
-151.633	-53.076	-0.061	0.028
-150.618	204.349	0.050	-0.077
-149.604	-187.231	-0.137	-0.002
-148.589	800.000	-0.027	-0.098
-147.574	-200.000	-0.004	0.095
-146.560	107.016	-0.180	0.215
-145.545	-153.766	0.074	0.005
-144.531	696.009	-0.080	-0.210
-143.516	-188.081	0.201	0.003
-142.502	5.262	-0.226	0.167
-141.487	-5.230	0.167	0.115
-140.472	-65.678	-0.059	0.024
-139.458	547.360	-0.023	-0.055
-138.443	800.000	-0.017	0.071
-137.429	-200.000	0.003	0.321
-136.414	236.597	0.160	-0.266
-135.399	-172.597	-0.275	0.009
-134.385	-179.885	-0.175	-0.004
-133.370	-200.000	-0.058	0.449
-132.356	-105.473	0.057	0.013
-131.341	-137.941	-0.104	-0.012
-130.326	-200.000	-0.012	-0.325
-129.312	-78.489	-0.200	-0.069
-128.297	-119.191	-0.100	-0.017
-127.283	29.190	-0.169	-0.144
-126.268	45.764	0.175	-0.162
-125.253	-171.737	0.147	-0.005
-124.239	800.000	0.114	0.352
-123.224	-200.000	0.013	0.292
-122.210	192.624	0.277	0.419
-121.195	-23.849	-0.078	-0.047
