DTS Sentinel unit serial number:	SN413079Multiplexer serial number:	ORYXHardware model number:	OX4-SRSoftware version number:	ORYX F/W v4.00 Oryx Data Collector v3.7.2.0data status	okinstallation	princeton_trtdifferential loss correction	single-endedforward channel	channel 3reverse channel	N/Adate	2019/09/10time	16:14:11forward acquisition time	60.00reverse acquisition time	0.00gamma	496.2192k internal	0.2298k external	0.2298temperature offset calibration	0.9906default loss term (dB/km)	0.3790temperature slope calibration	1.0000multiplexer offset coefficient	1.0000multiplexer slope coefficient	1.0000fibre end	0.00T internal ref (°C)	38.27T ext. ref 1 (°C)	-0.29T ext. ref 2 (°C)	31.07length (m)	temperature (°C)	Stokes	anti-Stokes-747.200	-200.000	-0.028	0.175
-746.185	800.000	0.014	-0.042
-745.171	-150.988	0.039	0.003
-744.156	-14.881	0.152	0.100
-743.142	123.665	-0.238	0.305
-742.127	-200.000	-0.107	0.593
-741.112	-111.874	-0.127	-0.026
-740.098	5.137	-0.032	0.024
-739.083	-200.000	0.050	-0.330
-738.069	61.256	-0.339	0.343
-737.054	800.000	0.037	0.112
-736.039	-11.583	-0.235	0.157
-735.025	-200.000	-0.000	-0.003
-734.010	80.739	-0.250	-0.275
-732.996	428.700	-0.147	0.323
-731.981	-144.284	-0.195	0.019
-730.966	800.000	-0.046	0.163
-729.952	-52.105	0.046	-0.022
-728.937	172.271	-0.282	0.414
-727.923	-129.167	-0.428	-0.061
-726.908	800.000	-0.056	-0.233
-725.894	-25.714	0.170	0.102
-724.879	45.912	-0.147	0.139
-723.864	405.610	0.078	0.167
-722.850	30.104	0.312	-0.272
-721.835	26.697	-0.239	-0.204
-720.821	-193.111	-0.096	-0.001
-719.806	-132.705	-0.360	0.047
-718.791	32.879	0.230	-0.203
-717.777	67.631	-0.102	-0.106
-716.762	-96.068	-0.266	-0.072
-715.748	67.811	-0.088	0.091
-714.733	-200.000	0.059	-0.471
-713.718	-173.034	0.235	-0.007
-712.704	15.953	-0.292	0.235
-711.689	140.436	-0.033	0.044
-710.675	-128.461	-0.375	-0.054
-709.660	5.294	0.094	-0.071
-708.645	-167.772	-0.468	0.019
-707.631	58.736	0.086	-0.086
-706.616	201.151	0.029	0.045
-705.602	275.531	0.178	-0.323
-704.587	-111.525	-0.280	0.058
-703.572	48.958	-0.122	-0.116
-702.558	-143.210	-0.265	-0.026
-701.543	-31.479	0.146	-0.084
-700.529	-124.042	-0.202	0.032
-699.514	145.001	0.037	0.050
-698.499	42.483	-0.269	0.250
-697.485	188.846	-0.147	-0.225
-696.470	-105.889	-0.461	-0.106
-695.456	-65.158	-0.213	0.088
-694.441	-90.833	-0.149	0.044
-693.426	-89.810	-0.196	-0.058
-692.412	-111.283	-0.184	-0.038
-691.397	5.822	0.113	-0.085
-690.383	56.937	0.230	-0.228
-689.368	20.629	0.119	0.098
-688.354	-77.452	-0.406	-0.143
-687.339	-200.000	0.022	0.140
-686.324	368.204	-0.062	0.127
-685.310	-200.000	-0.042	0.219
-684.295	192.016	-0.168	0.258
-683.281	800.000	0.097	-0.382
-682.266	44.192	-0.097	-0.090
-681.251	-71.154	-0.183	0.070
-680.237	-200.000	0.048	-0.270
-679.222	-79.701	-0.451	0.155
-678.208	-166.881	-0.468	0.020
-677.193	-68.783	-0.376	0.148
-676.178	105.151	-0.207	0.249
-675.164	658.671	0.086	0.225
-674.149	529.717	0.090	0.216
-673.135	129.782	-0.027	-0.035
-672.120	-25.849	-0.313	0.188
-671.105	251.099	-0.060	-0.103
-670.091	-120.323	0.371	-0.064
-669.076	221.127	-0.035	-0.058
-668.062	82.686	0.190	-0.210
-667.047	-74.399	-0.096	-0.035
-666.032	-133.879	0.355	0.045
-665.018	-121.674	0.051	-0.009
-664.003	800.000	0.057	-0.197
-662.989	225.790	0.197	-0.325
-661.974	109.230	-0.188	-0.229
-660.959	239.661	-0.090	0.153
-659.945	-90.668	-0.380	0.112
-658.930	70.579	0.051	-0.053
-657.916	800.000	0.084	-0.327
-656.901	-200.000	0.009	0.098
-655.886	-119.734	-0.128	0.022
-654.872	154.499	0.058	0.082
-653.857	-108.393	0.546	-0.120
-652.843	-128.656	0.202	-0.029
-651.828	-66.148	0.185	0.075
-650.814	-200.000	0.033	-0.195
-649.799	127.331	-0.078	-0.100
-648.784	34.118	-0.177	0.157
-647.770	109.747	-0.028	-0.035
-646.755	-200.000	-0.051	0.375
-645.741	-79.684	-0.432	0.148
-644.726	70.569	0.088	-0.093
-643.711	109.903	0.147	-0.179
-642.697	119.756	-0.157	-0.197
-641.682	796.242	0.017	-0.047
-640.668	-200.000	-0.004	-0.020
-639.653	-143.766	-0.261	0.025
-638.638	-94.242	-0.128	0.035
-637.624	-57.719	0.333	-0.148
-636.609	-200.000	-0.042	-0.215
-635.595	312.811	-0.065	0.124
-634.580	-7.244	-0.196	-0.135
-633.565	-190.731	0.399	0.004
-632.551	141.295	-0.114	-0.153
-631.536	-170.094	0.136	0.005
-630.522	-35.901	-0.458	-0.252
-629.507	-19.486	-0.128	-0.081
-628.492	13.667	-0.202	-0.160
-627.478	800.000	0.085	0.268
-626.463	-45.721	-0.324	-0.163
-625.449	-200.000	-0.008	-0.219
-624.434	800.000	0.064	-0.232
-623.419	361.576	0.074	-0.150
-622.405	62.217	0.074	-0.075
-621.390	-126.109	0.247	-0.038
-620.376	-139.063	0.159	-0.017
-619.361	-7.490	-0.171	-0.117
-618.346	321.968	0.234	-0.453
-617.332	-62.869	-0.207	-0.087
-616.317	-135.345	-0.139	0.017
-615.303	-200.000	-0.023	-0.120
-614.288	65.993	-0.108	0.112
-613.273	-200.000	-0.015	0.117
-612.259	159.488	-0.091	-0.129
-611.244	-110.417	-0.362	0.076
-610.230	68.519	0.147	-0.153
-609.215	-68.706	0.091	-0.036
-608.201	-121.224	-0.285	-0.048
-607.186	-109.087	0.388	-0.084
-606.171	283.467	0.070	0.127
-605.157	-59.977	0.009	0.004
-604.142	323.100	-0.106	0.205
-603.128	-200.000	-0.006	0.159
-602.113	-181.629	-0.334	0.007
-601.098	-43.360	0.372	-0.191
-600.084	266.399	-0.095	0.168
-599.069	-70.044	-0.239	0.092
-598.055	512.354	0.054	0.128
-597.040	-200.000	-0.009	0.159
-596.025	771.776	0.128	-0.354
-595.011	-200.000	0.003	0.089
-593.996	-100.416	0.282	0.071
-592.982	1.922	-0.409	-0.299
-591.967	347.139	0.076	-0.151
-590.952	-200.000	0.026	-0.154
-589.938	91.638	-0.055	0.063
-588.923	-200.000	-0.056	0.379
-587.909	-200.000	0.025	-0.267
-586.894	800.000	-0.033	-0.123
-585.879	29.694	-0.229	0.198
-584.865	-3.082	-0.402	0.284
-583.850	-200.000	0.073	0.328
-582.836	-78.953	-0.098	0.034
-581.821	-19.819	-0.213	0.134
-580.806	-200.000	-0.028	0.175
-579.792	274.773	-0.029	-0.052
-578.777	19.761	0.182	-0.149
-577.763	8.989	-0.231	0.177
-576.748	-1.212	0.257	-0.184
-575.733	151.304	-0.200	-0.276
-574.719	800.000	-0.022	0.076
-573.704	-34.142	0.347	0.193
-572.690	800.000	0.045	0.193
-571.675	-4.597	0.119	-0.083
-570.661	800.000	-0.021	-0.089
-569.646	-200.000	0.020	0.146
-568.631	-190.167	-0.104	-0.001
-567.617	36.154	-0.053	0.047
-566.602	-101.875	0.165	0.040
-565.588	-200.000	0.008	-0.090
-564.573	254.782	0.135	0.234
-563.558	800.000	-0.060	-0.239
-562.544	-105.852	-0.198	-0.045
-561.529	-111.930	-0.103	-0.021
-560.515	-122.550	-0.188	-0.031
-559.500	87.163	-0.083	-0.093
-558.485	95.548	0.222	-0.257
-557.471	800.000	0.057	0.182
-556.456	24.317	0.390	0.326
-555.442	364.149	-0.016	0.032
-554.427	-63.732	-0.311	-0.129
-553.412	47.220	-0.107	0.101
-552.398	-108.828	-0.088	0.019
-551.383	-35.688	0.159	0.087
-550.369	-200.000	0.018	0.155
-549.354	-200.000	0.029	0.222
-548.339	68.881	0.171	-0.178
-547.325	-7.973	-0.120	-0.082
-546.310	-16.740	0.216	-0.138
-545.296	33.537	0.126	-0.111
-544.281	-200.000	-0.013	-0.087
-543.266	-148.501	-0.163	0.014
-542.252	36.816	0.113	0.101
-541.237	-48.640	-0.372	0.181
-540.223	-69.853	0.308	-0.119
-539.208	-80.107	-0.236	-0.080
-538.193	347.781	0.180	-0.358
-537.179	-200.000	-0.042	-0.278
-536.164	-200.000	0.004	-0.054
-535.150	521.985	0.128	0.305
-534.135	52.319	0.036	-0.035
-533.121	-86.158	0.118	0.037
-532.106	-130.412	-0.307	-0.042
-531.091	372.449	-0.082	-0.170
-530.077	328.036	-0.121	0.236
-529.062	42.986	0.226	-0.209
-528.048	-35.116	0.345	0.190
-527.033	-49.932	0.069	0.033
-526.018	-109.443	0.138	-0.029
-525.004	114.544	0.155	0.192
-523.989	-200.000	0.045	0.502
-522.975	800.000	-0.026	-0.083
-521.960	-200.000	0.007	-0.333
-520.945	136.864	0.170	-0.225
-519.931	800.000	-0.021	0.087
-518.916	-48.302	-0.236	-0.115
-517.902	-164.533	-0.222	-0.010
-516.887	-78.795	0.288	-0.099
-515.872	37.431	0.273	-0.245
-514.858	-44.400	0.155	-0.078
-513.843	26.156	0.180	-0.152
-512.829	-91.843	0.118	0.034
-511.814	-117.886	-0.363	-0.066
-510.799	47.920	0.054	-0.051
-509.785	-63.704	-0.188	-0.078
-508.770	-171.182	-0.112	-0.004
-507.756	109.434	-0.139	-0.168
-506.741	-200.000	0.006	0.165
-505.726	50.578	-0.065	-0.062
-504.712	-80.522	-0.099	0.033
-503.697	-67.658	-0.448	0.177
-502.683	-80.285	-0.053	-0.018
-501.668	0.861	0.242	-0.176
-500.653	-200.000	-0.044	-0.267
-499.639	-81.842	0.056	-0.019
-498.624	-177.697	0.189	0.005
-497.610	-126.674	0.328	0.049
-496.595	-200.000	-0.005	0.084
-495.581	256.823	-0.082	0.142
-494.566	158.494	-0.089	0.124
-493.551	-143.451	-0.064	-0.006
-492.537	-13.804	0.317	0.207
-491.522	-94.716	0.224	0.062
-490.508	-62.521	-0.146	0.061
-489.493	740.359	-0.047	-0.128
-488.478	-177.032	-0.203	-0.005
-487.464	-37.354	-0.207	0.112
-486.449	-108.536	0.130	-0.028
-485.435	-124.814	-0.350	-0.055
-484.420	-149.067	0.075	0.006
-483.405	-101.037	-0.339	0.084
-482.391	-200.000	0.024	0.127
-481.376	121.517	0.074	0.094
-480.362	-200.000	-0.013	0.180
-479.347	800.000	-0.044	-0.164
-478.332	-200.000	0.029	-0.186
-477.318	800.000	0.069	0.256
-476.303	-131.342	-0.258	-0.035
-475.289	-83.498	0.039	0.013
-474.274	38.917	0.087	-0.078
-473.259	187.981	0.138	0.209
-472.245	-160.622	0.416	-0.022
-471.230	680.183	-0.078	0.205
-470.216	28.737	-0.090	0.077
-469.201	6.949	0.072	-0.054
-468.186	163.608	-0.112	-0.159
-467.172	-52.592	0.240	-0.112
-466.157	74.162	0.043	0.045
-465.143	-181.047	0.219	-0.004
-464.128	-136.059	0.235	0.028
-463.113	224.292	-0.146	-0.238
-462.099	-91.776	0.106	-0.030
-461.084	158.661	0.155	-0.217
-460.070	88.778	-0.108	0.121
-459.055	124.220	-0.158	-0.200
-458.040	-36.909	0.096	-0.052
-457.026	-9.849	0.204	-0.137
-456.011	-70.712	-0.216	0.082
-454.997	-139.206	0.110	-0.012
-453.982	-6.377	0.259	0.178
-452.968	-200.000	-0.016	0.297
-451.953	-8.422	0.158	0.107
-450.938	-16.450	-0.316	0.202
-449.924	75.057	0.201	-0.214
-448.909	33.315	0.131	0.115
-447.895	334.260	-0.184	0.360
-446.880	-200.000	0.006	-0.078
-445.865	23.459	0.076	-0.063
-444.851	-75.416	-0.089	-0.032
-443.836	-200.000	-0.013	0.075
-442.822	790.924	0.052	0.144
-441.807	-200.000	0.047	0.334
-440.792	-200.000	0.004	-0.211
-439.778	-18.379	0.095	0.060
-438.763	-55.573	0.045	-0.020
-437.749	-200.000	0.053	0.260
-436.734	-188.046	0.502	-0.007
-435.719	-27.465	-0.164	0.096
-434.705	177.532	-0.107	0.158
-433.690	125.276	-0.235	0.298
-432.676	-7.169	0.313	0.214
-431.661	449.657	-0.053	0.118
-430.646	-71.822	-0.219	0.082
-429.632	800.000	0.085	0.274
-428.617	443.497	0.106	-0.234
-427.603	-200.000	-0.015	-0.298
-426.588	-86.824	-0.140	0.043
-425.573	-35.377	-0.230	0.126
-424.559	-69.621	-0.182	-0.070
-423.544	-17.156	-0.054	-0.035
-422.530	800.000	0.058	-0.180
-421.515	-200.000	0.069	0.345
-420.500	-65.938	-0.295	-0.119
-419.486	800.000	0.119	-0.343
-418.471	-153.666	0.182	0.013
-417.457	800.000	-0.084	-0.366
-416.442	-200.000	0.018	0.129
-415.428	-119.456	0.421	-0.074
-414.413	-10.859	0.227	-0.151
-413.398	90.206	-0.144	0.162
-412.384	-37.067	-0.148	0.080
-411.369	-66.950	0.255	0.102
-410.355	-114.086	0.207	-0.040
-409.340	247.466	-0.164	-0.280
-408.325	124.574	0.143	-0.181
-407.311	-142.026	-0.150	0.015
-406.296	-13.417	-0.008	0.006
-405.282	145.116	0.105	-0.142
-404.267	221.667	0.069	0.112
-403.252	-40.001	0.224	-0.118
-402.238	-68.552	-0.223	-0.087
-401.223	-41.205	-0.168	0.087
-400.209	800.000	-0.052	-0.197
-399.194	387.220	-0.094	0.197
-398.179	-148.531	-0.290	-0.024
-397.165	-157.529	-0.281	0.017
-396.150	-14.316	0.080	0.052
-395.136	399.417	0.172	0.363
-394.121	-200.000	0.008	0.068
-393.106	-59.712	-0.328	-0.142
-392.092	120.092	0.271	-0.338
-391.077	528.057	-0.092	-0.219
-390.063	-200.000	0.020	0.223
-389.048	-200.000	-0.002	-0.147
-388.033	30.565	-0.129	-0.111
-387.019	15.971	-0.162	0.128
-386.004	-94.595	-0.142	-0.039
-384.990	219.171	-0.215	-0.346
-383.975	249.303	-0.074	-0.125
-382.960	207.716	-0.090	-0.142
-381.946	658.226	-0.034	0.087
-380.931	94.505	0.240	0.274
-379.917	-69.801	-0.217	0.083
-378.902	-200.000	0.013	-0.090
-377.888	-76.220	-0.128	-0.046
-376.873	-124.995	-0.345	-0.053
-375.858	-35.304	-0.235	0.129
-374.844	-95.146	0.106	0.029
-373.829	188.326	0.108	-0.162
-372.815	-80.704	0.072	0.024
-371.800	-151.168	-0.171	0.013
-370.785	68.705	-0.067	-0.069
-369.771	-65.806	0.104	0.042
-368.756	-33.831	0.331	-0.184
-367.742	-23.394	-0.315	-0.190
-366.727	-200.000	0.022	0.278
-365.712	-200.000	-0.001	0.174
-364.698	-140.580	-0.162	-0.017
-363.683	-200.000	-0.025	0.208
-362.669	301.749	-0.049	0.092
-361.654	-200.000	-0.024	0.265
-360.639	403.037	0.027	-0.057
-359.625	-29.694	-0.164	0.094
-358.610	-200.000	-0.001	-0.190
-357.596	-114.366	-0.264	-0.051
-356.581	-51.288	0.238	-0.112
-355.566	-115.351	-0.112	-0.021
-354.552	-200.000	0.036	-0.162
-353.537	-69.223	0.300	-0.116
-352.523	-57.509	-0.262	0.115
-351.508	-190.239	-0.216	0.002
-350.493	286.981	-0.025	-0.046
-349.479	-17.963	0.139	-0.087
-348.464	179.896	0.089	0.130
-347.450	-28.408	-0.190	0.110
-346.435	430.196	-0.086	0.188
-345.420	-200.000	0.026	-0.161
-344.406	-177.417	0.347	-0.009
-343.391	-22.650	-0.148	-0.090
-342.377	277.358	-0.034	0.060
-341.362	-129.927	-0.098	-0.013
-340.348	-102.255	0.133	-0.032
-339.333	403.794	0.087	0.184
-338.318	261.049	-0.147	-0.255
-337.304	-200.000	0.039	-0.311
-336.289	641.035	0.076	0.195
-335.275	800.000	0.036	-0.148
-334.260	-7.747	0.144	0.098
-333.245	-200.000	0.028	-0.291
-332.231	-147.038	-0.096	-0.008
-331.216	559.816	0.107	0.259
-330.202	53.496	-0.245	-0.236
-329.187	-123.572	0.220	0.035
-328.172	-200.000	0.012	0.128
-327.158	154.181	0.139	0.192
-326.143	-129.162	-0.279	-0.039
-325.129	-200.000	0.006	0.041
-324.114	-70.128	0.185	0.071
-323.099	-197.465	0.234	-0.001
-322.085	435.730	-0.079	-0.173
-321.070	-200.000	0.043	-0.248
-320.056	282.965	0.150	-0.271
-319.041	-117.757	-0.197	-0.036
-318.026	122.531	-0.139	-0.174
-317.012	220.616	-0.150	-0.242
-315.997	-156.642	0.208	0.013
-314.983	20.737	-0.208	0.169
-313.968	-49.659	-0.346	-0.165
-312.953	79.235	-0.255	0.274
-311.939	170.991	-0.121	-0.174
-310.924	-10.867	-0.087	0.058
-309.910	-4.171	0.012	0.008
-308.895	-2.156	-0.238	0.168
-307.880	-200.000	-0.005	-0.064
-306.866	-3.976	-0.276	-0.192
-305.851	800.000	0.081	0.343
-304.837	-137.546	-0.040	-0.005
-303.822	800.000	0.096	-0.409
-302.807	-121.138	0.278	0.047
-301.793	-27.316	0.142	0.083
-300.778	-60.268	-0.230	0.098
-299.764	104.409	-0.122	-0.144
-298.749	30.674	-0.149	-0.128
-297.735	97.967	0.133	-0.154
-296.720	-200.000	-0.049	-0.392
-295.705	366.982	-0.012	0.025
-294.691	11.011	0.207	0.159
-293.676	-71.152	-0.256	0.096
-292.662	-184.417	-0.128	0.002
-291.647	-79.744	0.120	0.040
-290.632	10.594	0.130	0.099
-289.618	231.586	0.137	0.226
-288.603	800.000	-0.082	0.249
-287.589	5.761	0.025	-0.018
-286.574	-200.000	-0.000	0.054
-285.559	-58.137	-0.130	-0.057
-284.545	-48.022	0.114	-0.055
-283.530	210.197	-0.096	-0.151
-282.516	-17.381	-0.063	-0.040
-281.501	753.489	0.011	-0.029
-280.486	128.687	-0.152	0.194
-279.472	-39.772	0.117	-0.061
-278.457	58.753	-0.223	0.219
-277.443	-76.417	0.421	0.148
-276.428	28.213	0.182	0.154
-275.413	21.226	0.087	0.070
-274.399	-193.542	0.140	0.001
-273.384	-77.077	-0.264	0.092
-272.370	29.092	0.111	-0.095
-271.355	-122.499	0.102	-0.017
-270.340	81.271	0.173	-0.188
-269.326	324.202	0.044	-0.085
-268.311	800.000	0.090	-0.293
-267.297	-200.000	0.017	-0.215
-266.282	-98.805	0.455	-0.116
-265.267	-75.096	0.167	0.060
-264.253	-29.701	0.060	0.034
-263.238	-20.503	0.267	-0.164
-262.224	-116.991	-0.283	-0.052
-261.209	-148.611	0.237	0.019
-260.195	12.552	0.208	-0.161
-259.180	-182.565	-0.269	0.005
-258.165	22.265	0.109	-0.089
-257.151	23.874	0.122	0.101
-256.136	800.000	-0.030	0.105
-255.122	300.812	-0.093	0.172
-254.107	-115.142	0.373	0.071
-253.092	247.336	0.074	-0.125
-252.078	-96.712	-0.167	-0.044
-251.063	-89.429	-0.115	0.034
-250.049	-13.183	0.277	-0.180
-249.034	-66.142	0.164	0.066
-248.019	341.679	0.206	0.403
-247.005	-76.219	-0.174	0.062
-245.990	-198.165	0.351	-0.002
-244.976	20.624	0.339	0.274
-243.961	299.082	-0.136	0.251
-242.946	-127.619	0.286	-0.041
-241.932	-29.301	0.299	0.171
-240.917	140.907	0.110	0.146
-239.903	75.971	-0.087	0.092
-238.888	327.507	-0.159	0.305
-237.873	-200.000	0.012	0.125
-236.859	-200.000	-0.070	0.373
-235.844	-125.190	-0.201	0.031
-234.830	-200.000	0.022	-0.364
-233.815	-32.154	0.121	-0.067
-232.800	-24.999	0.122	0.073
-231.786	362.345	-0.101	0.202
-230.771	310.793	-0.146	0.274
-229.757	94.328	-0.071	0.081
-228.742	-9.801	0.373	-0.249
-227.727	-200.000	0.032	0.151
-226.713	-72.663	0.100	0.037
-225.698	94.277	-0.122	-0.139
-224.684	-49.483	0.260	0.124
-223.669	-137.058	0.273	-0.031
-222.655	550.242	0.044	0.106
-221.640	-96.065	0.222	-0.059
-220.625	800.000	0.055	-0.194
-219.611	453.621	-0.044	0.097
-218.596	125.592	0.163	-0.205
-217.582	-141.362	0.156	-0.016
-216.567	-107.382	-0.183	-0.040
-215.552	-18.483	0.132	-0.082
-214.538	15.853	-0.098	0.077
-213.523	-106.638	0.149	0.033
-212.509	-200.000	-0.023	0.103
-211.494	-98.036	-0.106	-0.027
-210.479	-147.736	0.254	-0.021
-209.465	294.024	0.174	-0.317
-208.450	-115.185	-0.097	0.018
-207.436	-63.300	0.272	-0.112
-206.421	-25.156	0.189	0.112
-205.406	-200.000	0.006	-0.289
-204.392	90.437	-0.148	0.165
-203.377	-174.951	-0.227	-0.006
-202.363	-200.000	0.003	-0.078
-201.348	-112.773	0.507	0.101
-200.333	-74.000	0.374	-0.136
-199.319	676.815	0.113	0.294
-198.304	-71.614	-0.176	0.066
-197.290	-26.062	-0.339	-0.199
-196.275	65.923	-0.253	-0.257
-195.260	-10.007	-0.066	0.044
-194.246	1.706	0.100	-0.072
-193.231	-76.613	0.110	0.038
-192.217	-192.680	-0.197	0.002
-191.202	-83.262	-0.151	-0.048
-190.187	-3.981	0.136	-0.094
-189.173	480.022	-0.173	-0.391
-188.158	279.184	-0.139	0.248
-187.144	800.000	-0.037	-0.117
-186.129	128.731	0.062	0.078
-185.114	371.431	0.054	0.110
-184.100	-77.636	-0.147	-0.051
-183.085	-200.000	0.002	0.147
-182.071	-86.410	-0.123	-0.038
-181.056	616.139	-0.054	0.135
-180.042	-200.000	0.063	0.574
-179.027	90.172	-0.055	0.062
-178.012	-17.367	0.098	-0.062
-176.998	-200.000	-0.010	-0.102
-175.983	-200.000	0.037	-0.168
-174.969	55.822	-0.276	0.267
-173.954	194.646	-0.063	-0.095
-172.939	-200.000	0.017	0.107
-171.925	66.268	0.154	0.156
-170.910	423.612	-0.109	0.235
-169.896	140.593	0.029	0.038
-168.881	-200.000	-0.008	0.173
-167.866	-200.000	-0.039	-0.177
-166.852	-5.598	0.084	-0.058
-165.837	-200.000	-0.015	-0.098
-164.823	-119.698	-0.224	-0.039
-163.808	55.752	-0.135	0.131
-162.793	-156.315	0.201	-0.013
-161.779	-200.000	0.030	0.358
-160.764	-200.000	-0.063	0.446
-159.750	800.000	-0.058	0.162
-158.735	-121.511	-0.150	-0.025
-157.720	-73.530	0.078	-0.028
-156.706	-5.666	-0.115	-0.079
-155.691	228.286	-0.044	-0.072
-154.677	-111.289	0.034	0.007
-153.662	800.000	0.036	-0.147
-152.647	-123.952	-0.324	-0.051
-151.633	415.804	0.040	-0.084
-150.618	-3.994	0.147	-0.102
-149.604	54.370	-0.135	0.129
-148.589	-151.409	-0.126	0.009
-147.574	-28.914	-0.087	0.050
-146.560	-200.000	-0.009	0.059
-145.545	-188.560	-0.266	0.003
-144.531	-200.000	-0.001	0.069
-143.516	800.000	0.045	-0.195
-142.502	10.441	-0.178	-0.135
-141.487	800.000	0.065	0.244
-140.472	-94.531	0.192	-0.052
-139.458	50.285	-0.092	0.086
-138.443	-84.617	-0.150	-0.047
-137.429	-31.922	0.120	0.067
-136.414	-175.927	-0.072	-0.002
-135.399	-90.731	0.115	-0.033
-134.385	378.855	0.046	-0.094
-133.370	-50.996	0.059	-0.027
-132.356	-95.377	-0.182	0.049
-131.341	0.705	0.170	-0.121
-130.326	800.000	0.039	-0.167
-129.312	233.303	-0.116	-0.190
-128.297	357.544	-0.006	0.012
-127.283	-36.242	-0.316	-0.170
-126.268	-102.758	0.289	-0.068
-125.253	-71.510	-0.128	-0.048
-124.239	-31.482	0.100	0.056
-123.224	63.619	0.158	0.158
-122.210	225.509	-0.056	0.090
