DTS Sentinel unit serial number:	SN413079Multiplexer serial number:	ORYXHardware model number:	OX4-SRSoftware version number:	ORYX F/W v4.00 Oryx Data Collector v3.7.2.0data status	okinstallation	princeton_trtdifferential loss correction	single-endedforward channel	channel 3reverse channel	N/Adate	2019/09/10time	17:38:11forward acquisition time	60.00reverse acquisition time	0.00gamma	496.2192k internal	0.2299k external	0.2299temperature offset calibration	0.9909default loss term (dB/km)	0.3790temperature slope calibration	1.0000multiplexer offset coefficient	1.0000multiplexer slope coefficient	1.0000fibre end	0.00T internal ref (°C)	37.62T ext. ref 1 (°C)	-0.34T ext. ref 2 (°C)	31.22length (m)	temperature (°C)	Stokes	anti-Stokes-747.200	113.043	-0.181	-0.225
-746.185	-47.157	-0.530	0.264
-745.171	-141.514	-0.287	-0.030
-744.156	199.315	-0.095	0.149
-743.142	69.941	0.111	0.117
-742.127	362.071	-0.109	0.224
-741.112	-3.244	-0.070	-0.050
-740.098	30.530	-0.116	0.102
-739.083	-200.000	-0.069	-0.321
-738.069	9.597	0.124	-0.096
-737.054	-55.893	-0.220	0.100
-736.039	-78.876	-0.182	0.063
-735.025	255.486	-0.136	0.238
-734.010	-32.282	-0.275	-0.157
-732.996	289.544	-0.177	-0.328
-731.981	-154.179	-0.456	0.031
-730.966	19.149	-0.434	0.355
-729.952	447.362	-0.120	-0.269
-728.937	-100.303	0.303	-0.077
-727.923	266.883	-0.055	-0.098
-726.908	-34.836	-0.545	-0.303
-725.894	-200.000	0.017	-0.222
-724.879	176.095	0.091	-0.135
-723.864	-2.411	-0.173	-0.124
-722.850	439.428	0.053	-0.119
-721.835	-200.000	-0.009	-0.108
-720.821	-200.000	0.006	-0.159
-719.806	-81.944	-0.250	0.083
-718.791	-200.000	0.026	0.142
-717.777	-23.693	-0.161	-0.098
-716.762	800.000	0.012	0.036
-715.748	196.716	0.144	0.223
-714.733	21.897	0.050	-0.041
-713.718	120.180	-0.110	-0.139
-712.704	443.533	0.074	-0.166
-711.689	60.768	-0.212	0.214
-710.675	-21.548	-0.120	0.074
-709.660	12.159	-0.114	-0.089
-708.645	-200.000	0.015	0.208
-707.631	-62.520	0.061	0.026
-706.616	-119.723	-0.151	0.026
-705.602	63.586	-0.056	-0.057
-704.587	-44.253	-0.252	0.129
-703.572	-62.522	0.397	-0.168
-702.558	577.951	-0.128	-0.318
-701.543	325.422	0.098	-0.190
-700.529	452.003	-0.159	0.359
-699.514	-89.160	0.025	0.007
-698.499	-135.470	0.153	-0.019
-697.485	-54.800	0.140	0.064
-696.470	-61.713	-0.150	-0.064
-695.456	9.598	-0.230	-0.177
-694.441	390.432	0.126	0.266
-693.426	154.308	-0.142	-0.199
-692.412	-200.000	-0.033	-0.263
-691.397	800.000	0.052	-0.219
-690.383	-104.608	0.339	0.080
-689.368	-110.242	-0.468	-0.099
-688.354	225.155	-0.087	-0.143
-687.339	217.927	-0.075	0.122
-686.324	97.462	-0.117	0.137
-685.310	528.413	0.130	-0.313
-684.295	-9.168	0.096	0.066
-683.281	-184.576	-0.025	-0.000
-682.266	-47.627	0.152	-0.075
-681.251	-200.000	-0.015	0.099
-680.237	-148.857	0.226	-0.019
-679.222	-200.000	0.024	-0.138
-678.208	-78.667	-0.118	0.041
-677.193	-68.589	-0.299	-0.118
-676.178	-38.223	-0.287	0.155
-675.164	-149.971	0.212	0.017
-674.149	-200.000	-0.175	-0.001
-673.135	-111.003	-0.506	0.106
-672.120	-7.192	-0.165	0.114
-671.105	160.406	0.144	-0.204
-670.091	-24.066	-0.047	-0.029
-669.076	444.175	-0.235	-0.525
-668.062	-186.772	-0.234	0.003
-667.047	117.789	-0.228	0.285
-666.032	-200.000	-0.019	0.441
-665.018	-37.097	-0.155	-0.084
-664.003	-200.000	0.038	-0.454
-662.989	800.000	0.097	-0.381
-661.974	57.976	0.017	-0.017
-660.959	-153.609	0.155	0.011
-659.945	34.424	0.285	-0.253
-658.930	-200.000	0.024	0.159
-657.916	441.318	-0.129	0.286
-656.901	-52.603	-0.173	-0.081
-655.886	1.255	-0.084	0.061
-654.872	-105.366	-0.205	0.048
-653.857	75.024	-0.158	-0.170
-652.843	268.962	0.148	-0.263
-651.828	-198.627	0.300	0.002
-650.814	2.557	-0.213	0.157
-649.799	-97.659	-0.392	0.103
-648.784	-200.000	0.011	-0.173
-647.770	-24.781	-0.128	-0.077
-646.755	348.751	-0.290	-0.581
-645.741	142.916	0.210	-0.284
-644.726	52.582	0.163	-0.159
-643.711	209.055	0.114	-0.182
-642.697	243.427	0.050	-0.085
-641.682	524.276	0.085	0.203
-640.668	8.766	-0.081	0.062
-639.653	-156.123	-0.385	0.025
-638.638	-22.969	0.157	0.096
-637.624	97.994	0.098	-0.114
-636.609	-200.000	-0.003	-0.016
-635.595	180.676	0.238	0.356
-634.580	-106.517	0.135	0.031
-633.565	-117.489	0.285	-0.052
-632.551	56.662	-0.080	0.079
-631.536	-200.000	0.077	0.399
-630.522	-200.000	0.157	-0.001
-629.507	119.844	-0.191	-0.240
-628.492	-154.437	-0.247	0.017
-627.478	-52.329	-0.111	-0.052
-626.463	-69.549	0.127	-0.049
-625.449	108.000	0.147	0.178
-624.434	-200.000	-0.037	-0.199
-623.419	-200.000	0.016	-0.201
-622.405	-47.159	-0.040	-0.020
-621.390	164.878	0.095	-0.136
-620.376	68.736	0.302	0.315
-619.361	-200.000	0.047	-0.403
-618.346	121.211	-0.118	0.150
-617.332	40.676	0.185	0.169
-616.317	-58.042	-0.118	0.052
-615.303	-73.810	0.079	-0.029
-614.288	-68.434	0.063	0.025
-613.273	-17.830	0.067	0.043
-612.259	-163.782	-0.110	0.005
-611.244	-115.753	-0.121	0.023
-610.230	-114.211	-0.158	-0.031
-609.215	80.595	0.118	-0.129
-608.201	-93.112	-0.047	0.013
-607.186	-170.102	-0.092	-0.003
-606.171	-175.781	0.306	0.008
-605.157	-95.067	0.097	0.027
-604.142	535.268	-0.044	0.107
-603.128	543.026	-0.085	-0.207
-602.113	-82.501	-0.095	0.031
-601.098	-200.000	-0.209	0.001
-600.084	800.000	0.088	-0.274
-599.069	-26.009	-0.259	0.155
-598.055	-103.746	-0.184	0.044
-597.040	-200.000	-0.006	-0.073
-596.025	1.527	-0.030	-0.022
-595.011	50.309	0.127	-0.122
-593.996	-200.000	-0.019	0.298
-592.982	-32.178	-0.205	0.116
-591.967	-127.773	-0.291	-0.043
-590.952	-37.033	0.159	-0.086
-589.938	209.431	0.139	0.221
-588.923	276.593	-0.006	-0.010
-587.909	-83.019	-0.067	-0.022
-586.894	517.055	0.057	-0.134
-585.879	157.307	-0.277	-0.389
-584.865	-49.000	0.242	0.118
-583.850	476.814	0.108	0.248
-582.836	397.257	0.089	0.188
-581.821	70.303	-0.104	-0.109
-580.806	13.243	0.209	0.164
-579.792	26.229	0.005	-0.004
-578.777	54.516	0.119	0.117
-577.763	-76.453	-0.129	0.046
-576.748	-136.688	0.454	0.053
-575.733	53.098	0.137	-0.133
-574.719	5.608	0.100	0.075
-573.704	-169.451	0.129	0.005
-572.690	800.000	0.067	0.252
-571.675	-200.000	0.008	-0.222
-570.661	-7.469	-0.204	-0.140
-569.646	-132.504	-0.472	0.062
-568.631	-147.481	0.084	-0.007
-567.617	-200.000	0.008	0.064
-566.602	138.650	0.106	-0.141
-565.588	144.576	0.056	0.076
-564.573	-200.000	-0.002	-0.063
-563.558	67.191	-0.096	-0.100
-562.544	25.188	-0.022	-0.019
-561.529	432.452	0.153	0.336
-560.515	-200.000	-0.007	-0.064
-559.500	57.613	0.241	0.239
-558.485	-63.439	-0.274	-0.114
-557.471	53.431	0.107	0.104
-556.456	-86.558	0.282	0.088
-555.442	-138.342	-0.155	-0.017
-554.427	-70.683	0.111	-0.042
-553.412	-95.718	-0.220	0.060
-552.398	-49.598	-0.126	-0.061
-551.383	-52.040	0.205	0.096
-550.369	-18.976	-0.111	0.070
-549.354	-66.700	-0.145	-0.058
-548.339	-200.000	-0.039	-0.310
-547.325	-10.886	-0.065	-0.043
-546.310	-176.906	-0.264	0.007
-545.296	-200.000	0.040	-0.181
-544.281	286.877	0.044	-0.080
-543.266	-28.429	-0.299	-0.174
-542.252	-138.038	0.359	-0.040
-541.237	-42.635	0.148	-0.076
-540.223	-119.762	-0.376	-0.066
-539.208	42.574	0.048	0.045
-538.193	446.674	0.078	0.175
-537.179	-128.485	0.129	-0.019
-536.164	-76.918	0.139	-0.049
-535.150	677.872	-0.059	0.154
-534.135	276.443	0.103	-0.185
-533.121	-110.364	-0.116	0.025
-532.106	-94.455	-0.148	-0.041
-531.091	800.000	0.024	-0.084
-530.077	-120.376	0.312	-0.054
-529.062	-68.825	0.425	-0.166
-528.048	-183.773	-0.384	0.007
-527.033	-200.000	-0.006	-0.239
-526.018	232.670	-0.035	-0.059
-525.004	672.791	-0.084	-0.221
-523.989	-200.000	0.035	-0.158
-522.975	247.627	-0.112	-0.192
-521.960	186.566	0.236	-0.355
-520.945	397.238	0.083	-0.176
-519.931	-154.530	0.194	0.013
-518.916	800.000	-0.096	-0.421
-517.902	-200.000	0.010	-0.226
-516.887	-130.159	0.601	-0.083
-515.872	146.437	0.095	-0.129
-514.858	-56.545	-0.105	0.047
-513.843	-24.423	-0.302	-0.182
-512.829	23.066	0.208	0.173
-511.814	-135.055	0.457	0.056
-510.799	8.422	-0.127	0.097
-509.785	11.985	-0.224	0.174
-508.770	-181.948	-0.076	-0.001
-507.756	-200.000	-0.013	0.079
-506.741	800.000	0.083	0.329
-505.726	136.698	-0.171	0.226
-504.712	2.865	0.171	-0.126
-503.697	-32.041	-0.217	0.123
-502.683	94.507	-0.076	-0.088
-501.668	-122.405	0.123	0.020
-500.653	-121.249	-0.178	0.030
-499.639	48.390	-0.187	-0.177
-498.624	-200.000	-0.052	0.263
-497.610	-200.000	0.003	0.347
-496.595	40.886	-0.061	0.055
-495.581	-200.000	0.061	0.269
-494.566	77.335	-0.151	0.162
-493.551	-159.715	0.052	-0.003
-492.537	271.078	-0.116	0.207
-491.522	-16.787	-0.288	-0.184
-490.508	-50.349	-0.308	0.147
-489.493	186.089	0.117	0.176
-488.478	-85.220	-0.273	-0.086
-487.464	-51.666	0.213	-0.100
-486.449	-152.701	-0.308	0.022
-485.435	-66.078	-0.205	-0.083
-484.420	6.176	0.179	-0.134
-483.405	-54.941	0.259	0.118
-482.391	68.061	0.085	0.088
-481.376	209.592	-0.228	-0.361
-480.362	503.918	-0.069	-0.161
-479.347	11.735	-0.171	0.132
-478.332	-200.000	0.008	-0.061
-477.318	800.000	-0.041	-0.121
-476.303	-157.218	-0.228	0.014
-475.289	231.994	0.126	0.209
-474.274	-62.248	-0.595	0.250
-473.259	527.099	0.135	-0.320
-472.245	-63.285	-0.152	0.063
-471.230	364.041	0.085	-0.174
-470.216	24.493	0.227	0.189
-469.201	-144.402	0.034	-0.003
-468.186	-200.000	-0.001	-0.432
-467.172	235.546	-0.087	-0.144
-466.157	-200.000	-0.006	0.205
-465.143	800.000	-0.034	0.099
-464.128	-130.816	0.269	0.036
-463.113	-194.084	-0.686	-0.006
-462.099	144.006	-0.049	-0.066
-461.084	45.475	-0.256	0.238
-460.070	-10.544	0.138	-0.092
-459.055	171.030	-0.076	0.110
-458.040	330.849	-0.087	-0.169
-457.026	800.000	0.047	0.177
-456.011	-200.000	-0.004	0.219
-454.997	-123.873	-0.401	-0.064
-453.982	-200.000	-0.000	0.009
-452.968	296.014	0.146	0.269
-451.953	-200.000	0.008	0.084
-450.938	-25.695	-0.067	-0.040
-449.924	-39.840	-0.177	0.093
-448.909	-56.556	-0.113	-0.050
-447.895	-18.047	0.437	0.276
-446.880	-91.214	-0.064	-0.019
-445.865	-196.911	-0.063	-0.000
-444.851	213.556	-0.131	-0.209
-443.836	-0.648	0.357	-0.255
-442.822	207.865	-0.303	-0.478
-441.807	27.238	-0.329	-0.279
-440.792	800.000	0.114	0.389
-439.778	96.499	-0.158	0.182
-438.763	-106.298	0.025	-0.006
-437.749	195.780	-0.159	-0.244
-436.734	248.154	0.104	0.178
-435.719	1.412	-0.102	0.074
-434.705	289.342	0.219	0.401
-433.690	-127.146	-0.139	-0.021
-432.676	11.518	-0.071	0.055
-431.661	-200.000	-0.009	-0.274
-430.646	-50.453	-0.240	-0.114
-429.632	19.279	-0.394	-0.319
-428.617	800.000	0.075	-0.269
-427.603	773.200	0.164	0.450
-426.588	503.770	0.091	0.212
-425.573	-118.381	-0.182	0.033
-424.559	74.572	0.212	-0.224
-423.544	148.725	-0.179	0.243
-422.530	100.572	0.238	0.279
-421.515	66.235	0.172	-0.176
-420.500	148.566	0.097	0.132
-419.486	800.000	0.049	-0.202
-418.471	-56.737	0.261	-0.117
-417.457	-7.982	-0.105	0.071
-416.442	-103.906	-0.250	-0.059
-415.428	800.000	0.023	0.087
-414.413	194.825	-0.043	-0.065
-413.398	-195.270	-0.260	0.002
-412.384	-57.957	0.236	-0.104
-411.369	-89.116	0.108	-0.032
-410.355	40.524	0.170	-0.155
-409.340	46.316	-0.198	-0.185
-408.325	553.573	0.116	-0.281
-407.311	-114.874	0.243	-0.047
-406.296	151.984	-0.116	-0.159
-405.282	800.000	-0.068	0.249
-404.267	38.151	0.051	0.045
-403.252	-200.000	-0.026	-0.447
-402.238	91.409	0.035	-0.039
-401.223	-200.000	0.124	-0.552
-400.209	259.231	-0.063	-0.110
-399.194	-74.310	0.059	-0.022
-398.179	502.603	0.123	0.287
-397.165	-72.520	-0.294	0.109
-396.150	-63.277	0.389	0.162
-395.136	-169.141	0.388	-0.015
-394.121	-29.374	0.102	-0.059
-393.106	-26.561	-0.256	0.151
-392.092	263.328	0.083	0.145
-391.077	-200.000	0.027	0.286
-390.063	-20.450	-0.276	0.171
-389.048	27.405	-0.076	0.064
-388.033	-52.525	-0.167	-0.078
-387.019	113.783	0.129	0.157
-386.004	274.386	0.085	-0.152
-384.990	800.000	0.116	0.353
-383.975	188.236	-0.177	0.266
-382.960	12.962	0.118	-0.092
-381.946	-200.000	0.062	-0.277
-380.931	-148.749	-0.175	0.014
-379.917	-122.153	-0.371	-0.061
-378.902	-185.441	0.060	0.001
-377.888	-151.536	-0.280	-0.021
-376.873	-24.402	0.354	0.212
-375.858	-154.924	0.149	0.010
-374.844	-115.682	0.201	0.038
-373.829	43.727	-0.066	0.061
-372.815	-184.278	0.324	0.005
-371.800	529.103	-0.138	0.327
-370.785	800.000	0.037	-0.110
-369.771	80.617	0.208	-0.226
-368.756	34.046	0.142	0.125
-367.742	-17.405	0.257	-0.162
-366.727	50.784	0.131	-0.125
-365.712	-113.265	-0.117	-0.023
-364.698	-53.791	0.197	-0.090
-363.683	-133.355	0.357	-0.045
-362.669	55.967	-0.145	0.141
-361.654	800.000	-0.006	-0.025
-360.639	800.000	0.026	-0.107
-359.625	800.000	0.081	-0.238
-358.610	-56.927	0.088	-0.039
-357.596	-42.060	0.160	0.082
-356.581	-200.000	-0.018	0.137
-355.566	78.716	-0.139	0.150
-354.552	548.513	-0.062	0.150
-353.537	800.000	-0.039	0.124
-352.523	-16.956	0.078	-0.050
-351.508	-5.253	-0.324	0.224
-350.493	-45.085	0.255	0.127
-349.479	-200.000	-0.003	-0.069
-348.464	105.108	-0.040	0.047
-347.450	-131.642	0.054	-0.007
-346.435	-33.451	-0.122	-0.068
-345.420	81.182	-0.142	0.154
-344.406	-81.541	0.305	-0.101
-343.391	-116.748	-0.077	0.014
-342.377	-181.154	0.113	0.002
-341.362	115.174	0.039	-0.048
-340.348	374.950	-0.094	0.193
-339.333	-200.000	-0.003	0.033
-338.318	800.000	-0.118	-0.400
-337.304	285.528	-0.169	-0.306
-336.289	-116.263	0.324	0.060
-335.275	-180.815	0.128	0.003
-334.260	91.302	-0.115	-0.129
-333.245	800.000	-0.120	-0.390
-332.231	800.000	0.027	0.109
-331.216	256.421	-0.076	0.131
-330.202	375.515	-0.130	-0.265
-329.187	22.398	-0.128	-0.105
-328.172	-99.291	0.360	-0.091
-327.158	-51.286	-0.200	0.094
-326.143	-200.000	-0.003	0.045
-325.129	800.000	-0.124	-0.346
-324.114	-80.831	-0.509	-0.170
-323.099	-200.000	0.034	-0.205
-322.085	-200.000	-0.001	0.070
-321.070	-118.490	0.330	0.059
-320.056	800.000	-0.049	-0.196
-319.041	800.000	-0.023	-0.071
-318.026	-200.000	0.006	0.199
-317.012	-200.000	-0.008	-0.048
-315.997	434.180	0.056	-0.122
-314.983	-48.749	0.012	-0.006
-313.968	-200.000	0.024	0.201
-312.953	-7.460	-0.146	-0.099
-311.939	503.624	-0.161	-0.375
-310.924	12.845	0.507	0.393
-309.910	-58.950	-0.287	0.124
-308.895	-126.632	-0.427	-0.063
-307.880	71.375	0.198	-0.206
-306.866	-91.512	-0.292	-0.084
-305.851	54.299	0.307	0.296
-304.837	-167.571	-0.169	0.007
-303.822	160.842	0.037	0.052
-302.807	32.039	-0.252	0.218
-301.793	800.000	-0.043	0.138
-300.778	574.213	0.079	0.193
-299.764	-51.395	-0.269	0.126
-298.749	-67.383	-0.255	-0.101
-297.735	128.318	-0.019	0.025
-296.720	-91.946	0.083	0.024
-295.705	800.000	0.031	0.105
-294.691	112.132	-0.190	-0.230
-293.676	-200.000	0.025	0.384
-292.662	83.054	0.024	0.026
-291.647	224.400	0.067	0.109
-290.632	161.517	0.107	-0.151
-289.618	117.884	-0.219	0.271
-288.603	-48.918	0.254	0.122
-287.589	800.000	0.075	0.264
-286.574	30.244	0.157	0.134
-285.559	90.893	-0.165	-0.185
-284.545	-200.000	-0.025	0.369
-283.530	152.645	-0.130	0.178
-282.516	-200.000	0.015	0.070
-281.501	123.033	-0.109	0.137
-280.486	-200.000	0.009	0.258
-279.472	-37.401	0.438	0.235
-278.457	19.181	0.082	-0.066
-277.443	800.000	-0.049	-0.204
-276.428	140.137	-0.235	-0.311
-275.413	-56.868	0.086	-0.038
-274.399	689.550	0.055	0.144
-273.384	-160.128	0.363	0.020
-272.370	142.012	-0.124	-0.165
-271.355	-200.000	-0.014	-0.319
-270.340	-76.495	0.274	-0.096
-269.326	116.147	0.153	-0.188
-268.311	-187.555	-0.373	0.005
-267.297	-38.132	0.236	-0.125
-266.282	150.531	0.107	0.146
-265.267	-200.000	-0.019	-0.123
-264.253	44.676	0.115	0.106
-263.238	800.000	0.093	0.314
-262.224	-191.763	0.113	0.001
-261.209	-71.685	-0.118	0.044
-260.195	-114.913	0.289	-0.055
-259.180	800.000	0.031	-0.110
-258.165	-77.510	0.045	0.016
-257.151	-11.080	-0.368	0.243
-256.136	-200.000	0.022	0.264
-255.122	-145.854	-0.402	0.036
-254.107	13.153	-0.089	0.069
-253.092	18.305	-0.207	-0.165
-252.078	-200.000	0.019	0.222
-251.063	173.846	0.132	-0.190
-250.049	487.870	0.059	0.135
-249.034	95.291	-0.162	-0.185
-248.019	-148.822	-0.499	-0.040
-247.005	235.262	-0.120	0.198
-245.990	557.897	-0.087	-0.209
-244.976	84.758	0.170	0.187
-243.961	-148.651	0.208	-0.017
-242.946	-146.173	0.274	-0.024
-241.932	-61.939	0.105	-0.044
-240.917	800.000	0.057	-0.203
-239.903	-94.736	-0.206	0.056
-238.888	-200.000	0.030	0.226
-237.873	107.203	0.261	-0.310
-236.859	-200.000	0.011	0.085
-235.844	-20.356	0.110	0.068
-234.830	203.030	-0.138	0.213
-233.815	-200.000	-0.032	-0.282
-232.800	-44.596	0.166	-0.083
-231.786	-116.434	0.279	0.052
-230.771	-200.000	-0.059	-0.286
-229.757	50.953	0.078	-0.074
-228.742	786.379	0.048	0.132
-227.727	89.985	-0.152	0.170
-226.713	-109.475	0.108	0.023
-225.698	-15.719	-0.059	0.037
-224.684	-200.000	0.015	-0.200
-223.669	506.625	-0.075	0.174
-222.655	800.000	0.086	0.306
-221.640	-6.065	0.128	-0.088
-220.625	-53.613	0.168	0.077
-219.611	225.841	0.087	0.141
-218.596	-200.000	0.009	-0.064
-217.582	-67.466	0.295	0.116
-216.567	-200.000	-0.007	0.098
-215.552	-200.000	-0.037	0.164
-214.538	-122.083	-0.079	-0.013
-213.523	29.100	0.040	-0.034
-212.509	-113.070	-0.292	0.058
-211.494	12.159	0.184	0.141
-210.479	-56.572	0.212	-0.094
-209.465	-127.763	0.059	0.009
-208.450	-200.000	0.015	0.129
-207.436	-200.000	-0.094	0.441
-206.421	21.245	-0.098	0.080
-205.406	479.266	-0.095	0.215
-204.392	-200.000	0.019	0.219
-203.377	-78.011	-0.092	-0.032
-202.363	-13.218	0.101	-0.066
-201.348	-117.556	-0.237	-0.043
-200.333	12.270	-0.181	0.140
-199.319	43.480	0.268	0.244
-198.304	-200.000	0.041	-0.291
-197.290	-48.495	0.323	0.155
-196.275	-200.000	0.004	0.018
-195.260	37.104	-0.094	0.083
-194.246	-42.635	0.216	0.110
-193.231	-200.000	0.018	-0.352
-192.217	-200.000	0.002	-0.406
-191.202	-7.767	0.054	-0.036
-190.187	79.955	0.152	-0.163
-189.173	-34.127	-0.365	0.200
-188.158	58.110	-0.091	-0.089
-187.144	672.346	-0.171	-0.443
-186.129	-103.103	0.073	-0.017
-185.114	-200.000	0.011	0.229
-184.100	800.000	0.068	-0.274
-183.085	-200.000	-0.021	-0.128
-182.071	604.290	0.068	0.168
-181.056	-123.063	-0.265	0.043
-180.042	-0.668	0.193	0.137
-179.027	-74.943	0.218	-0.078
-178.012	-200.000	-0.037	0.171
-176.998	116.061	0.119	0.146
-175.983	161.603	-0.048	0.067
-174.969	-200.000	-0.052	0.330
-173.954	163.156	-0.299	-0.420
-172.939	-73.707	-0.311	-0.113
-171.925	206.013	0.138	-0.213
-170.910	469.008	-0.083	-0.186
-169.896	800.000	-0.065	0.204
-168.881	55.127	-0.215	-0.207
-167.866	89.469	0.082	-0.091
-166.852	-8.832	0.130	0.087
-165.837	-159.168	0.142	-0.008
-164.823	-70.360	0.170	-0.064
-163.808	-12.993	0.020	-0.013
-162.793	776.871	0.025	0.068
-161.779	-119.814	0.224	-0.039
-160.764	26.430	-0.125	0.104
-159.750	800.000	0.039	0.136
-158.735	-159.472	-0.202	-0.011
-157.720	534.892	-0.007	0.016
-156.706	-72.295	0.219	0.081
-155.691	-151.238	0.258	-0.019
-154.677	-93.421	0.072	0.020
-153.662	800.000	-0.032	0.096
-152.647	-95.143	0.347	-0.093
-151.633	-115.688	-0.262	-0.049
-150.618	34.578	0.067	0.059
-149.604	11.848	-0.071	-0.055
-148.589	-200.000	-0.023	-0.243
-147.574	771.917	0.119	0.324
-146.560	200.430	-0.048	-0.073
-145.545	332.159	-0.036	-0.070
-144.531	-200.000	-0.025	-0.447
-143.516	-148.975	-0.260	-0.021
-142.502	-166.945	0.082	-0.003
-141.487	-105.601	-0.130	0.029
-140.472	800.000	-0.033	0.107
-139.458	-33.434	-0.147	0.081
-138.443	-45.059	-0.165	-0.082
-137.429	-29.182	0.240	0.137
-136.414	-20.390	0.112	-0.069
-135.399	196.970	0.080	-0.121
-134.385	-23.047	-0.030	0.018
-133.370	364.420	-0.117	0.234
-132.356	-49.532	0.377	0.179
-131.341	16.606	-0.088	0.069
-130.326	800.000	0.094	-0.268
-129.312	166.695	0.144	-0.204
-128.297	-91.703	-0.456	-0.129
-127.283	-200.000	0.018	-0.295
-126.268	-56.758	-0.089	0.039
-125.253	-200.000	-0.016	-0.093
-124.239	-38.758	-0.327	0.172
-123.224	-200.000	-0.015	0.082
-122.210	18.872	0.186	-0.148
-121.195	-103.493	-0.158	-0.037
