DTS Sentinel unit serial number:	SN413079Multiplexer serial number:	ORYXHardware model number:	OX4-SRSoftware version number:	ORYX F/W v4.00 Oryx Data Collector v3.7.2.0data status	okinstallation	princeton_trtdifferential loss correction	single-endedforward channel	channel 3reverse channel	N/Adate	2019/09/10time	21:46:10forward acquisition time	60.00reverse acquisition time	0.00gamma	496.2192k internal	0.2330k external	0.2330temperature offset calibration	0.9918default loss term (dB/km)	0.3790temperature slope calibration	1.0000multiplexer offset coefficient	1.0000multiplexer slope coefficient	1.0000fibre end	0.00T internal ref (°C)	30.91T ext. ref 1 (°C)	-0.30T ext. ref 2 (°C)	24.17length (m)	temperature (°C)	Stokes	anti-Stokes-747.200	511.779	-0.129	0.301
-746.185	-128.141	-0.309	0.045
-745.171	-92.720	0.302	0.085
-744.156	722.181	-0.036	0.096
-743.142	88.775	0.221	-0.247
-742.127	-200.000	0.048	0.263
-741.112	-141.272	0.174	-0.018
-740.098	800.000	0.042	-0.121
-739.083	-34.622	0.209	-0.115
-738.069	162.092	-0.187	0.264
-737.054	691.447	0.149	-0.392
-736.039	-126.846	-0.439	-0.065
-735.025	-99.409	0.349	-0.088
-734.010	-122.243	0.315	0.052
-732.996	-178.665	-0.122	0.003
-731.981	211.054	-0.088	0.140
-730.966	-160.352	-0.183	-0.010
-729.952	800.000	-0.090	-0.258
-728.937	-167.768	-0.086	-0.003
-727.923	49.904	0.182	-0.173
-726.908	179.986	-0.096	-0.142
-725.894	124.940	0.170	0.215
-724.879	-200.000	-0.013	-0.219
-723.864	224.138	-0.072	-0.117
-722.850	16.284	-0.149	-0.118
-721.835	-200.000	-0.008	0.050
-720.821	510.964	-0.124	0.290
-719.806	31.090	0.078	0.067
-718.791	-111.537	-0.121	-0.025
-717.777	-66.807	0.157	0.062
-716.762	-200.000	-0.074	-0.475
-715.748	-83.033	0.116	-0.038
-714.733	433.188	0.067	0.147
-713.718	725.396	0.035	0.095
-712.704	-133.499	-0.199	0.025
-711.689	-11.341	0.111	-0.074
-710.675	-3.794	0.100	-0.070
-709.660	68.837	0.139	-0.144
-708.645	-61.448	0.081	0.034
-707.631	-200.000	-0.015	0.230
-706.616	-200.000	0.002	-0.090
-705.602	-169.810	-0.340	-0.012
-704.587	-200.000	-0.020	-0.141
-703.572	-200.000	0.020	0.233
-702.558	-147.146	0.370	-0.032
-701.543	163.418	-0.158	0.223
-700.529	-83.904	-0.187	0.060
-699.514	18.051	0.127	-0.101
-698.499	-13.468	-0.190	0.124
-697.485	478.269	0.103	0.233
-696.470	800.000	0.041	-0.138
-695.456	-200.000	-0.017	-0.214
-694.441	-80.806	-0.059	-0.020
-693.426	399.059	-0.140	0.295
-692.412	-55.396	0.149	0.067
-691.397	32.991	-0.189	-0.164
-690.383	800.000	0.064	0.219
-689.368	753.261	-0.063	0.172
-688.354	-200.000	-0.004	0.021
-687.339	-7.082	-0.014	0.009
-686.324	-95.605	-0.223	-0.060
-685.310	800.000	0.026	-0.106
-684.295	-51.958	-0.179	0.083
-683.281	92.470	-0.150	-0.170
-682.266	-200.000	0.006	0.068
-681.251	484.493	0.026	0.058
-680.237	-106.408	0.224	0.050
-679.222	800.000	-0.065	-0.203
-678.208	-200.000	-0.043	-0.305
-677.193	107.579	-0.102	-0.122
-676.178	274.287	-0.240	-0.427
-675.164	15.971	0.219	0.173
-674.149	-200.000	-0.129	-0.000
-673.135	-200.000	-0.033	0.214
-672.120	-200.000	0.024	-0.336
-671.105	467.010	-0.157	-0.354
-670.091	-60.624	-0.328	0.140
-669.076	-200.000	-0.029	-0.351
-668.062	800.000	0.068	0.228
-667.047	-23.356	0.198	0.119
-666.032	-48.123	-0.057	0.027
-665.018	-200.000	-0.016	0.088
-664.003	-37.772	0.016	0.009
-662.989	326.356	-0.097	0.187
-661.974	309.899	0.197	-0.371
-660.959	11.797	0.119	0.091
-659.945	252.759	0.084	0.144
-658.930	800.000	0.089	-0.282
-657.916	-30.833	-0.114	-0.065
-656.901	-75.959	0.246	-0.087
-655.886	-25.532	-0.416	-0.246
-654.872	89.877	-0.049	-0.055
-653.857	51.811	-0.058	-0.055
-652.843	-88.816	0.327	0.097
-651.828	800.000	0.052	-0.189
-650.814	115.764	0.377	-0.463
-649.799	101.251	0.247	-0.288
-648.784	67.500	-0.132	0.135
-647.770	126.249	-0.052	0.065
-646.755	-200.000	0.012	-0.153
-645.741	405.990	0.092	-0.194
-644.726	-50.215	0.264	-0.125
-643.711	255.845	0.131	0.226
-642.697	-137.626	0.305	-0.034
-641.682	800.000	-0.020	-0.075
-640.668	800.000	0.045	0.176
-639.653	148.693	0.019	0.025
-638.638	439.595	0.145	-0.318
-637.624	146.856	-0.167	0.225
-636.609	-139.046	-0.110	-0.012
-635.595	-143.677	-0.200	0.019
-634.580	-41.222	-0.265	-0.137
-633.565	549.591	-0.119	-0.285
-632.551	682.419	-0.044	0.115
-631.536	-200.000	0.012	0.356
-630.522	14.325	0.104	-0.082
-629.507	-3.591	-0.404	-0.282
-628.492	-200.000	-0.025	0.158
-627.478	-200.000	-0.076	0.368
-626.463	-10.202	0.127	0.085
-625.449	511.133	0.072	-0.169
-624.434	-94.236	-0.370	-0.102
-623.419	-11.535	-0.039	0.026
-622.405	-54.907	0.081	-0.037
-621.390	-5.602	-0.058	0.040
-620.376	-24.674	-0.287	0.171
-619.361	97.942	-0.154	-0.177
-618.346	110.133	-0.150	-0.180
-617.332	47.935	-0.059	-0.055
-616.317	40.298	0.084	-0.075
-615.303	-139.063	0.096	-0.010
-614.288	129.877	-0.017	-0.022
-613.273	-44.272	-0.257	0.129
-612.259	121.536	0.154	0.192
-611.244	26.942	-0.125	-0.105
-610.230	-200.000	-0.030	0.421
-609.215	-40.483	0.116	-0.061
-608.201	452.376	-0.171	0.380
-607.186	-118.313	0.099	-0.018
-606.171	-116.741	0.218	0.040
-605.157	319.917	0.085	-0.161
-604.142	-77.697	0.068	-0.024
-603.128	-61.849	-0.228	0.096
-602.113	473.141	-0.136	-0.306
-601.098	800.000	0.072	-0.278
-600.084	108.565	0.117	-0.140
-599.069	591.157	0.074	-0.183
-598.055	-200.000	0.096	-0.468
-597.040	205.507	0.228	-0.354
-596.025	-11.662	0.100	0.066
-595.011	800.000	-0.061	0.182
-593.996	138.809	-0.181	0.239
-592.982	-39.710	-0.434	-0.227
-591.967	-135.424	-0.268	-0.032
-590.952	-200.000	-0.001	-0.161
-589.938	-200.000	-0.004	0.274
-588.923	-131.282	-0.179	-0.024
-587.909	-99.854	-0.251	-0.063
-586.894	494.546	0.163	-0.374
-585.879	-40.484	0.126	-0.065
-584.865	551.632	0.059	0.141
-583.850	237.294	-0.063	-0.105
-582.836	-54.215	0.120	0.054
-581.821	-200.000	-0.054	-0.434
-580.806	-73.625	0.194	-0.071
-579.792	-156.172	0.284	-0.018
-578.777	287.689	-0.069	-0.124
-577.763	-184.535	-0.376	0.006
-576.748	-200.000	0.072	0.445
-575.733	-66.530	0.201	-0.080
-574.719	151.053	-0.032	-0.044
-573.704	541.038	-0.083	0.197
-572.690	-78.787	-0.326	0.111
-571.675	-200.000	-0.018	-0.498
-570.661	178.121	-0.092	-0.135
-569.646	-52.521	-0.162	0.075
-568.631	-115.511	0.583	-0.110
-567.617	66.858	-0.217	0.221
-566.602	-111.317	0.225	-0.046
-565.588	116.526	0.080	-0.098
-564.573	-116.714	-0.242	0.044
-563.558	51.709	-0.087	-0.083
-562.544	-200.000	-0.024	0.282
-561.529	800.000	0.018	-0.052
-560.515	401.318	0.072	0.151
-559.500	-86.305	-0.305	-0.094
-558.485	-103.921	-0.028	0.007
-557.471	-137.748	-0.089	0.010
-556.456	26.948	0.065	-0.055
-555.442	-92.927	0.228	0.063
-554.427	19.308	-0.098	0.079
-553.412	7.417	0.165	0.123
-552.398	748.235	0.068	0.183
-551.383	369.399	0.197	0.398
-550.369	-200.000	-0.032	-0.273
-549.354	72.401	0.091	-0.095
-548.339	48.202	-0.238	0.222
-547.325	251.486	0.105	-0.179
-546.310	-182.074	0.331	-0.006
-545.296	-116.433	0.269	-0.050
-544.281	-152.855	-0.574	0.041
-543.266	800.000	0.045	0.160
-542.252	800.000	-0.078	-0.308
-541.237	-59.096	0.233	-0.100
-540.223	-200.000	-0.000	-0.068
-539.208	-53.015	-0.246	-0.113
-538.193	254.416	0.109	-0.187
-537.179	54.122	-0.115	0.111
-536.164	-47.959	0.218	-0.105
-535.150	-200.000	0.005	-0.121
-534.135	129.133	0.266	-0.338
-533.121	800.000	0.126	-0.383
-532.106	-79.541	0.070	-0.024
-531.091	191.078	-0.077	0.115
-530.077	305.823	0.256	-0.475
-529.062	-123.520	0.110	-0.017
-528.048	-49.588	-0.062	-0.029
-527.033	17.750	0.138	-0.109
-526.018	800.000	0.032	-0.103
-525.004	-120.578	-0.200	-0.034
-523.989	-63.875	-0.274	-0.112
-522.975	95.625	0.103	-0.117
-521.960	-3.558	-0.158	0.110
-520.945	15.636	0.221	-0.173
-519.931	-91.908	-0.226	0.064
-518.916	-57.299	0.212	-0.093
-517.902	-143.745	-0.144	0.014
-516.887	-200.000	-0.063	-0.290
-515.872	37.559	-0.203	0.179
-514.858	-146.377	-0.236	0.021
-513.843	-169.316	0.085	-0.003
-512.829	-200.000	0.079	-0.404
-511.814	-63.492	0.279	-0.114
-510.799	100.482	0.138	0.160
-509.785	-69.002	0.260	0.100
-508.770	32.971	0.079	-0.068
-507.756	679.663	-0.084	-0.219
-506.741	-140.027	0.066	0.007
-505.726	-77.968	0.059	0.020
-504.712	800.000	-0.097	0.287
-503.697	-163.224	-0.040	0.002
-502.683	726.230	-0.084	-0.223
-501.668	-132.109	-0.564	-0.073
-500.653	-71.212	0.210	0.078
-499.639	577.558	0.142	0.346
-498.624	-66.188	-0.174	0.069
-497.610	800.000	-0.116	-0.362
-496.595	-71.229	0.293	0.109
-495.581	800.000	0.088	0.383
-494.566	-64.843	0.127	0.051
-493.551	-200.000	-0.006	-0.289
-492.537	36.823	0.338	0.298
-491.522	132.342	-0.130	0.167
-490.508	-200.000	0.001	0.080
-489.493	231.304	0.128	-0.209
-488.478	166.036	-0.142	0.200
-487.464	219.310	-0.212	-0.338
-486.449	-53.977	0.532	-0.242
-485.435	51.093	0.131	0.124
-484.420	-89.780	0.212	-0.062
-483.405	39.106	-0.031	0.027
-482.391	393.305	0.135	0.280
-481.376	40.223	0.222	0.199
-480.362	3.309	-0.002	0.001
-479.347	-200.000	-0.062	-0.352
-478.332	-82.240	0.135	0.044
-477.318	800.000	-0.057	0.222
-476.303	620.927	-0.015	0.037
-475.289	-27.669	0.136	-0.079
-474.274	65.571	-0.161	0.162
-473.259	-200.000	0.046	0.229
-472.245	17.559	-0.439	-0.348
-471.230	-200.000	0.048	0.272
-470.216	161.769	0.075	-0.105
-469.201	-186.749	0.541	-0.008
-468.186	188.209	-0.080	-0.119
-467.172	39.991	-0.105	-0.094
-466.157	74.056	-0.165	-0.172
-465.143	-45.339	-0.122	0.060
-464.128	9.333	-0.153	-0.115
-463.113	-51.217	0.054	-0.025
-462.099	-200.000	0.037	0.235
-461.084	-44.015	-0.087	0.044
-460.070	800.000	-0.110	-0.338
-459.055	-124.350	-0.210	0.033
-458.040	192.287	0.115	-0.172
-457.026	126.175	-0.423	0.532
-456.011	-200.000	-0.009	-0.310
-454.997	-200.000	0.039	-0.305
-453.982	569.680	-0.037	0.090
-452.968	-150.543	0.039	0.003
-451.953	-40.213	0.342	0.177
-450.938	-138.405	0.053	-0.006
-449.924	301.860	0.067	0.124
-448.909	605.085	0.050	-0.123
-447.895	43.669	-0.279	-0.254
-446.880	-109.555	-0.096	0.020
-445.865	-24.722	0.123	0.073
-444.851	800.000	0.062	0.264
-443.836	12.884	-0.168	-0.129
-442.822	-110.379	-0.260	0.054
-441.807	151.299	0.077	0.104
-440.792	63.049	0.271	0.270
-439.778	-200.000	0.000	-0.098
-438.763	12.881	0.189	-0.145
-437.749	-136.875	0.209	-0.024
-436.734	-102.406	-0.340	0.081
-435.719	-139.301	-0.532	0.057
-434.705	181.288	-0.025	0.037
-433.690	-101.247	-0.219	0.053
-432.676	800.000	0.051	-0.164
-431.661	24.725	0.222	0.183
-430.646	71.723	0.095	0.098
-429.632	-200.000	0.021	0.114
-428.617	386.112	0.112	-0.231
-427.603	800.000	0.018	-0.075
-426.588	99.775	-0.223	0.257
-425.573	-59.339	-0.024	-0.010
-424.559	-114.141	-0.094	-0.018
-423.544	142.466	-0.151	0.200
-422.530	-63.380	-0.114	0.047
-421.515	72.132	-0.108	0.112
-420.500	-124.584	0.220	0.034
-419.486	186.678	-0.059	0.088
-418.471	178.788	-0.116	0.169
-417.457	-200.000	0.034	0.166
-416.442	-136.714	-0.564	-0.065
-415.428	204.200	0.201	0.310
-414.413	-117.210	-0.189	0.034
-413.398	-54.179	0.124	0.056
-412.384	-30.656	0.262	0.147
-411.369	123.036	0.147	0.182
-410.355	800.000	0.038	-0.136
-409.340	-151.116	-0.192	-0.014
-408.325	-112.345	-0.356	-0.071
-407.311	-55.848	-0.178	0.079
-406.296	-9.524	0.219	0.145
-405.282	-68.295	-0.278	-0.107
-404.267	58.958	-0.133	0.130
-403.252	87.519	0.065	-0.071
-402.238	-200.000	0.059	-0.000
-401.223	-85.152	0.193	-0.060
-400.209	147.414	0.217	-0.290
-399.194	47.598	0.192	0.178
-398.179	31.845	-0.269	0.230
-397.165	76.463	0.167	-0.176
-396.150	116.909	-0.089	0.108
-395.136	104.267	-0.106	0.124
-394.121	-132.425	0.193	0.025
-393.106	379.399	-0.042	-0.085
-392.092	-128.478	0.281	0.040
-391.077	509.425	0.057	0.133
-390.063	-33.951	-0.161	0.088
-389.048	-111.042	0.171	-0.035
-388.033	41.527	0.112	0.101
-387.019	-200.000	0.017	-0.122
-386.004	49.346	-0.214	0.200
-384.990	-127.973	0.273	0.039
-383.975	-200.000	-0.012	0.398
-382.960	800.000	0.084	0.340
-381.946	4.845	0.290	-0.212
-380.931	-55.782	-0.217	-0.096
-379.917	-10.676	0.084	0.055
-378.902	-132.597	-0.190	0.024
-377.888	-103.389	0.332	-0.078
-376.873	-200.000	-0.019	-0.102
-375.858	22.543	0.144	0.117
-374.844	86.945	0.222	0.243
-373.829	45.867	0.109	-0.100
-372.815	-77.718	-0.333	0.114
-371.800	327.717	0.097	-0.185
-370.785	49.677	0.037	0.035
-369.771	-34.640	0.162	0.088
-368.756	-14.846	-0.209	0.133
-367.742	800.000	0.043	-0.175
-366.727	-189.601	-0.231	-0.003
-365.712	-42.804	-0.201	-0.101
-364.698	-200.000	-0.003	-0.362
-363.683	-76.635	0.117	-0.041
-362.669	-53.233	-0.154	0.070
-361.654	-140.238	0.361	-0.038
-360.639	800.000	0.058	0.165
-359.625	279.249	0.072	-0.128
-358.610	8.852	-0.295	0.221
-357.596	-50.851	-0.212	-0.099
-356.581	110.615	-0.205	-0.245
-355.566	43.442	-0.208	0.189
-354.552	-200.000	0.035	-0.346
-353.537	54.860	-0.151	-0.144
-352.523	218.649	-0.098	-0.155
-351.508	4.278	0.173	0.126
-350.493	102.211	-0.154	0.179
-349.479	261.697	-0.167	0.287
-348.464	-50.092	-0.050	0.023
-347.450	704.072	0.077	0.201
-346.435	-85.232	-0.189	-0.059
-345.420	-31.921	0.175	-0.097
-344.406	-0.039	0.152	-0.107
-343.391	-200.000	-0.070	-0.316
-342.377	-130.507	0.142	-0.019
-341.362	-200.000	-0.013	0.117
-340.348	800.000	0.028	0.091
-339.333	390.647	0.142	0.293
-338.318	125.223	-0.143	-0.178
-337.304	800.000	0.078	-0.333
-336.289	-75.030	0.201	0.071
-335.275	-200.000	-0.101	0.000
-334.260	-200.000	-0.002	0.322
-333.245	800.000	0.060	0.167
-332.231	-128.803	0.168	0.023
-331.216	800.000	-0.048	0.154
-330.202	-111.666	0.091	-0.018
-329.187	165.477	-0.150	-0.210
-328.172	-200.000	0.044	-0.379
-327.158	-76.427	-0.235	0.082
-326.143	-109.695	-0.296	-0.062
-325.129	800.000	-0.068	-0.201
-324.114	451.216	-0.037	-0.081
-323.099	-90.669	0.345	-0.099
-322.085	-46.996	-0.287	0.139
-321.070	-67.122	-0.086	0.034
-320.056	75.876	-0.130	-0.136
-319.041	-155.354	-0.224	-0.014
-318.026	-28.468	0.029	-0.016
-317.012	-95.740	-0.171	-0.045
-315.997	-200.000	-0.007	0.122
-314.983	104.760	0.199	0.233
-313.968	176.906	-0.140	0.202
-312.953	22.195	-0.059	0.048
-311.939	792.471	0.105	0.287
-310.924	216.582	-0.145	-0.229
-309.910	183.402	-0.053	0.078
-308.895	-200.000	-0.077	-0.390
-307.880	-98.400	0.233	-0.059
-306.866	193.901	0.093	-0.139
-305.851	326.251	0.092	-0.174
-304.837	-99.810	-0.089	-0.022
-303.822	-200.000	-0.025	0.271
-302.807	-198.048	-0.152	0.001
-301.793	-200.000	0.015	0.089
-300.778	-88.075	-0.124	0.037
-299.764	-122.357	0.139	0.022
-298.749	42.858	0.117	-0.105
-297.735	-100.828	-0.234	-0.057
-296.720	-200.000	-0.003	-0.295
-295.705	385.675	0.094	-0.191
-294.691	103.583	0.269	-0.312
-293.676	-119.751	0.253	-0.043
-292.662	-200.000	0.003	-0.134
-291.647	-51.124	-0.227	-0.105
-290.632	-47.877	0.058	-0.028
-289.618	14.743	0.085	-0.066
-288.603	55.725	-0.102	0.098
-287.589	-171.721	-0.087	0.003
-286.574	-26.317	0.254	0.147
-285.559	103.883	0.299	0.347
-284.545	191.056	0.069	0.103
-283.530	-20.338	0.317	0.193
-282.516	-111.331	-0.232	0.047
-281.501	-200.000	-0.009	0.115
-280.486	31.987	-0.094	-0.080
-279.472	584.571	-0.142	0.346
-278.457	-129.316	0.101	-0.014
-277.443	-72.890	0.187	-0.068
-276.428	800.000	-0.024	-0.065
-275.413	38.130	0.151	0.133
-274.399	319.308	-0.177	0.333
-273.384	-95.548	-0.203	-0.054
-272.370	-200.000	-0.102	0.478
-271.355	-200.000	0.012	-0.098
-270.340	112.469	0.034	-0.041
-269.326	244.465	0.194	0.322
-268.311	-167.974	-0.165	0.006
-267.297	-44.402	-0.175	0.087
-266.282	-200.000	0.033	0.145
-265.267	639.560	0.072	-0.182
-264.253	-63.920	0.146	-0.059
-263.238	527.743	-0.056	-0.129
-262.224	50.115	0.023	-0.022
-261.209	800.000	0.072	0.204
-260.195	51.901	0.238	0.224
-259.180	103.448	0.114	-0.132
-258.165	721.766	0.129	0.339
-257.151	800.000	0.077	0.286
-256.136	-92.106	0.307	0.086
-255.122	-200.000	-0.013	-0.163
-254.107	-96.009	-0.229	0.060
-253.092	-89.522	0.185	-0.054
-252.078	-200.000	-0.040	-0.209
-251.063	608.941	-0.051	0.126
-250.049	7.207	0.364	0.268
-249.034	166.008	-0.230	-0.321
-248.019	153.868	0.263	-0.356
-247.005	-88.009	-0.114	-0.034
-245.990	178.369	-0.109	0.157
-244.976	-69.477	0.152	-0.058
-243.961	-21.663	0.177	0.106
-242.946	-11.709	0.298	-0.193
-241.932	-41.971	-0.422	-0.214
-240.917	-11.346	0.375	0.244
-239.903	-85.162	0.146	-0.045
-238.888	-107.583	-0.157	-0.034
-237.873	-200.000	0.074	0.327
-236.859	3.359	-0.098	0.070
-235.844	677.341	0.094	-0.241
-234.830	-29.942	0.171	-0.096
-233.815	-125.699	-0.318	-0.047
-232.800	-62.646	-0.368	-0.151
-231.786	-8.579	0.266	-0.176
-230.771	-88.828	-0.276	-0.081
-229.757	-87.527	0.188	0.056
-228.742	-117.399	0.128	-0.023
-227.727	-64.953	-0.249	0.099
-226.713	-61.114	-0.298	0.124
-225.698	-200.000	0.001	0.288
-224.684	-175.016	-0.189	0.005
-223.669	-34.954	0.177	-0.095
-222.655	198.032	-0.051	0.077
-221.640	-92.580	0.220	0.061
-220.625	800.000	-0.046	0.139
-219.611	800.000	-0.086	0.276
-218.596	-130.316	-0.211	0.028
-217.582	-200.000	0.045	-0.257
-216.567	-147.187	-0.162	0.014
-215.552	84.532	-0.242	-0.261
-214.538	33.159	0.212	0.182
-213.523	-149.947	0.096	0.007
-212.509	-42.184	-0.218	-0.110
-211.494	83.920	-0.179	-0.193
-210.479	169.007	-0.091	-0.127
-209.465	800.000	-0.080	-0.311
-208.450	800.000	0.022	0.092
-207.436	-85.408	-0.106	-0.032
-206.421	-97.844	0.163	-0.042
-205.406	-46.414	0.176	0.085
-204.392	38.398	0.091	-0.080
-203.377	11.902	-0.208	0.157
-202.363	94.987	-0.067	-0.075
-201.348	44.084	0.152	0.137
-200.333	6.051	0.261	0.191
-199.319	-2.317	0.167	0.115
-198.304	420.382	-0.139	-0.294
-197.290	147.379	0.147	0.195
-196.275	800.000	-0.062	-0.180
-195.260	-200.000	0.014	0.389
-194.246	348.844	0.077	-0.150
-193.231	800.000	-0.111	-0.470
-192.217	111.508	0.114	-0.135
-191.202	137.201	-0.141	0.182
-190.187	267.409	-0.298	0.513
-189.173	6.738	-0.165	-0.121
-188.158	16.488	0.099	-0.077
-187.144	-200.000	0.020	0.441
-186.129	60.783	0.195	-0.190
-185.114	119.323	-0.105	-0.128
-184.100	1.142	0.082	0.058
-183.085	800.000	0.005	0.018
-182.071	-105.106	0.027	-0.006
-181.056	-103.126	-0.240	0.056
-180.042	53.002	0.039	0.037
-179.027	154.105	-0.154	0.208
-178.012	-122.829	-0.352	-0.056
-176.998	333.546	0.177	-0.337
-175.983	219.215	0.140	0.221
-174.969	234.852	-0.090	-0.146
-173.954	-200.000	-0.001	0.127
-172.939	-178.264	0.308	0.007
-171.925	274.997	0.138	0.240
-170.910	-141.806	-0.238	0.023
-169.896	-71.131	0.186	0.069
-168.881	800.000	0.071	0.247
-167.866	-15.105	-0.337	0.213
-166.852	-192.451	0.129	-0.001
-165.837	-83.043	-0.125	0.040
-164.823	-111.063	0.253	-0.051
-163.808	-107.353	-0.125	-0.027
-162.793	133.033	0.203	0.258
-161.779	-200.000	0.003	-0.019
-160.764	800.000	0.012	-0.035
-159.750	54.494	0.144	0.137
-158.735	-153.906	-0.026	0.002
-157.720	110.006	0.202	-0.239
-156.706	-132.783	0.067	-0.008
-155.691	60.747	0.257	-0.251
-154.677	-164.816	0.493	-0.022
-153.662	800.000	-0.054	-0.190
-152.647	-126.743	-0.236	0.034
-151.633	6.467	-0.160	-0.117
-150.618	-100.781	0.155	0.038
-149.604	-65.019	0.219	0.087
-148.589	306.324	0.110	0.202
-147.574	-200.000	0.030	0.235
-146.560	56.627	-0.140	-0.134
-145.545	-200.000	-0.021	-0.312
-144.531	-32.049	-0.244	-0.134
-143.516	-166.514	0.185	0.008
-142.502	800.000	0.084	-0.274
-141.487	-200.000	-0.089	0.459
-140.472	-80.067	-0.231	-0.076
-139.458	44.721	-0.330	0.298
-138.443	-200.000	-0.008	-0.132
-137.429	-6.842	-0.280	0.187
-136.414	-37.392	-0.028	0.015
-135.399	-200.000	0.033	0.198
-134.385	-200.000	-0.051	-0.254
-133.370	-3.385	0.130	-0.089
-132.356	-27.223	-0.361	0.207
-131.341	-200.000	-0.025	0.129
-130.326	307.384	-0.046	0.084
-129.312	-88.532	-0.090	-0.026
-128.297	23.242	-0.027	-0.022
-127.283	-200.000	-0.023	0.185
-126.268	199.676	0.063	0.095
-125.253	133.225	0.034	0.044
-124.239	90.083	0.078	0.085
-123.224	465.633	0.077	0.170
-122.210	-156.309	0.108	-0.007
-121.195	83.258	0.133	0.142
