DTS Sentinel unit serial number:	SN413079Multiplexer serial number:	ORYXHardware model number:	OX4-SRSoftware version number:	ORYX F/W v4.00 Oryx Data Collector v3.7.2.0data status	okinstallation	princeton_trtdifferential loss correction	single-endedforward channel	channel 3reverse channel	N/Adate	2019/09/11time	13:34:10forward acquisition time	60.00reverse acquisition time	0.00gamma	496.2192k internal	0.2293k external	0.2293temperature offset calibration	0.9972default loss term (dB/km)	0.3790temperature slope calibration	1.0000multiplexer offset coefficient	1.0000multiplexer slope coefficient	1.0000fibre end	0.00T internal ref (°C)	41.97T ext. ref 1 (°C)	0.82T ext. ref 2 (°C)	35.96length (m)	temperature (°C)	Stokes	anti-Stokes-747.200	2.377	-0.113	0.084
-746.185	-200.000	0.054	0.365
-745.171	-200.000	-0.010	0.159
-744.156	694.426	0.156	0.418
-743.142	390.147	0.108	-0.229
-742.127	-200.000	-0.018	0.598
-741.112	45.404	-0.051	0.048
-740.098	156.643	0.155	0.219
-739.083	800.000	-0.126	0.437
-738.069	-200.000	-0.024	0.348
-737.054	-28.815	-0.162	-0.095
-736.039	90.782	0.131	-0.150
-735.025	-136.171	0.373	0.045
-734.010	-111.054	-0.324	-0.068
-732.996	52.611	-0.309	-0.301
-731.981	-81.868	0.158	-0.053
-730.966	94.431	0.288	0.334
-729.952	-1.841	-0.145	-0.104
-728.937	-16.627	0.196	-0.127
-727.923	-83.793	-0.371	0.121
-726.908	69.576	-0.102	-0.108
-725.894	-200.000	-0.026	-0.164
-724.879	-15.089	0.302	0.197
-723.864	-45.426	-0.091	0.046
-722.850	-105.737	0.139	0.032
-721.835	-79.118	0.223	0.077
-720.821	-117.566	0.196	-0.036
-719.806	-127.428	0.110	-0.016
-718.791	316.912	0.042	0.082
-717.777	-22.918	0.064	0.039
-716.762	-200.000	-0.006	-0.260
-715.748	-145.751	0.167	-0.015
-714.733	800.000	-0.031	0.103
-713.718	48.191	-0.065	-0.062
-712.704	43.727	0.059	-0.055
-711.689	-19.445	-0.075	0.047
-710.675	250.566	0.082	-0.142
-709.660	61.749	-0.081	-0.083
-708.645	374.209	0.175	0.365
-707.631	-200.000	-0.003	0.095
-706.616	-110.751	-0.125	0.026
-705.602	4.512	-0.301	-0.226
-704.587	-200.000	0.121	0.556
-703.572	800.000	0.038	-0.147
-702.558	-200.000	0.021	-0.180
-701.543	-8.528	-0.082	0.056
-700.529	-200.000	-0.005	-0.051
-699.514	-79.763	-0.134	0.046
-698.499	330.888	0.159	-0.313
-697.485	199.689	0.058	-0.091
-696.470	800.000	-0.163	-0.509
-695.456	25.022	-0.155	-0.131
-694.441	113.258	-0.139	0.172
-693.426	168.998	0.169	0.246
-692.412	10.458	-0.118	-0.092
-691.397	25.044	-0.085	-0.072
-690.383	-103.570	-0.293	-0.070
-689.368	66.102	-0.150	-0.156
-688.354	143.058	0.230	0.312
-687.339	-126.057	-0.179	-0.027
-686.324	19.213	0.169	-0.139
-685.310	-64.157	-0.283	-0.118
-684.295	-154.345	0.085	-0.006
-683.281	1.847	-0.178	-0.131
-682.266	-200.000	0.015	-0.091
-681.251	94.016	-0.151	-0.175
-680.237	-90.705	0.285	0.084
-679.222	82.823	-0.242	0.268
-678.208	-121.496	0.210	-0.036
-677.193	-200.000	-0.023	-0.245
-676.178	263.351	-0.092	-0.162
-675.164	55.987	0.110	0.109
-674.149	409.402	0.141	-0.305
-673.135	-200.000	-0.036	0.214
-672.120	-200.000	0.031	0.213
-671.105	301.473	-0.311	-0.585
-670.091	-200.000	-0.021	-0.292
-669.076	27.897	-0.060	0.052
-668.062	-200.000	-0.046	-0.524
-667.047	-146.222	0.473	0.042
-666.032	-6.595	-0.313	0.217
-665.018	-89.150	-0.118	0.035
-664.003	39.930	-0.344	-0.315
-662.989	485.593	-0.068	0.158
-661.974	119.774	-0.303	-0.383
-660.959	77.721	0.151	-0.164
-659.945	-200.000	-0.003	0.232
-658.930	-143.960	-0.531	-0.051
-657.916	-112.324	0.103	0.021
-656.901	69.558	-0.108	-0.113
-655.886	-200.000	-0.004	-0.096
-654.872	-200.000	-0.004	0.030
-653.857	-117.020	0.187	-0.035
-652.843	-191.167	-0.131	0.001
-651.828	800.000	0.021	0.076
-650.814	202.300	0.168	0.265
-649.799	64.402	0.074	0.076
-648.784	-82.376	-0.232	0.077
-647.770	-200.000	-0.047	-0.222
-646.755	267.542	0.172	0.307
-645.741	-190.257	-0.099	0.001
-644.726	150.881	-0.058	0.080
-643.711	-105.933	0.371	-0.085
-642.697	-200.000	0.005	-0.184
-641.682	800.000	-0.110	0.332
-640.668	-32.503	0.083	-0.047
-639.653	110.211	0.177	-0.216
-638.638	-41.983	0.139	-0.072
-637.624	-111.248	0.101	-0.021
-636.609	468.579	0.059	0.136
-635.595	185.830	-0.123	0.186
-634.580	462.498	0.098	0.223
-633.565	313.555	-0.108	0.206
-632.551	-200.000	-0.011	0.072
-631.536	-140.730	0.306	0.032
-630.522	200.972	-0.116	0.182
-629.507	74.886	0.163	0.174
-628.492	-3.326	-0.232	-0.165
-627.478	51.767	-0.092	0.089
-626.463	-12.078	0.372	-0.248
-625.449	77.428	-0.179	-0.194
-624.434	800.000	0.063	0.219
-623.419	-13.660	-0.022	-0.015
-622.405	204.000	0.092	0.145
-621.390	207.905	-0.231	0.368
-620.376	800.000	0.044	0.178
-619.361	-138.604	-0.212	-0.024
-618.346	-200.000	0.033	0.168
-617.332	-129.578	-0.105	-0.015
-616.317	153.964	0.182	-0.255
-615.303	66.428	-0.093	0.096
-614.288	800.000	-0.075	-0.252
-613.273	536.002	0.049	-0.119
-612.259	-200.000	0.034	-0.260
-611.244	-200.000	-0.002	0.308
-610.230	-120.282	0.261	0.045
-609.215	-200.000	0.061	0.311
-608.201	32.269	-0.038	0.033
-607.186	-1.493	0.178	-0.127
-606.171	-65.464	0.236	-0.096
-605.157	-69.653	-0.146	-0.057
-604.142	-74.796	0.072	-0.026
-603.128	-109.931	-0.089	-0.019
-602.113	-200.000	0.031	0.139
-601.098	-99.611	-0.068	-0.017
-600.084	-83.236	-0.183	-0.060
-599.069	-22.422	-0.059	-0.036
-598.055	-158.532	-0.137	0.008
-597.040	-10.144	0.253	-0.171
-596.025	-46.561	-0.163	0.082
-595.011	-139.118	0.172	0.019
-593.996	266.276	-0.088	-0.157
-592.982	630.945	0.060	-0.154
-591.967	-75.172	-0.120	-0.044
-590.952	-103.696	0.152	0.036
-589.938	-42.872	-0.149	-0.077
-588.923	-179.325	0.161	-0.004
-587.909	-85.563	0.071	-0.022
-586.894	128.944	-0.272	-0.353
-585.879	-98.104	-0.145	-0.038
-584.865	-104.105	0.154	0.037
-583.850	-14.976	-0.325	-0.212
-582.836	15.921	0.188	-0.151
-581.821	-84.650	0.347	0.111
-580.806	3.252	0.016	-0.012
-579.792	-200.000	0.011	0.148
-578.777	-76.749	0.064	0.023
-577.763	198.532	0.114	-0.178
-576.748	-136.095	0.392	0.047
-575.733	163.210	0.248	0.355
-574.719	-200.000	-0.013	0.195
-573.704	-57.981	0.096	0.043
-572.690	-200.000	0.013	0.145
-571.675	308.141	0.137	0.260
-570.661	-61.447	-0.203	-0.087
-569.646	-148.829	-0.157	0.013
-568.631	288.988	-0.146	0.269
-567.617	800.000	-0.069	-0.213
-566.602	-200.000	-0.164	-0.000
-565.588	222.253	-0.211	0.346
-564.573	0.670	0.235	0.171
-563.558	-125.411	0.275	-0.043
-562.544	-94.734	-0.148	-0.041
-561.529	-132.074	0.147	-0.019
-560.515	279.520	-0.025	-0.045
-559.500	-3.085	0.227	0.161
-558.485	-200.000	-0.020	0.090
-557.471	-200.000	0.002	0.237
-556.456	-182.166	0.175	-0.003
-555.442	800.000	0.041	-0.117
-554.427	-10.512	0.177	-0.119
-553.412	-200.000	0.022	-0.102
-552.398	-53.388	-0.262	-0.122
-551.383	100.044	-0.174	-0.204
-550.369	10.706	0.252	-0.195
-549.354	19.325	-0.049	-0.040
-548.339	126.000	-0.062	0.080
-547.325	374.836	-0.076	0.156
-546.310	161.058	-0.094	-0.134
-545.296	102.391	0.277	-0.329
-544.281	-30.786	-0.338	-0.194
-543.266	83.423	0.064	0.070
-542.252	72.580	-0.214	0.226
-541.237	-200.000	-0.030	0.417
-540.223	-200.000	0.006	0.236
-539.208	399.124	0.064	-0.136
-538.193	-200.000	0.049	-0.411
-537.179	-136.434	0.223	-0.026
-536.164	111.459	0.287	0.351
-535.150	800.000	-0.055	-0.167
-534.135	-200.000	0.004	0.120
-533.121	47.802	-0.303	0.287
-532.106	123.216	0.099	0.126
-531.091	171.011	0.144	0.210
-530.077	-161.131	-0.278	0.015
-529.062	-47.235	-0.035	0.017
-528.048	84.622	-0.069	-0.077
-527.033	-8.078	-0.258	-0.177
-526.018	35.457	-0.068	0.061
-525.004	-66.797	0.183	0.074
-523.989	132.243	0.248	0.324
-522.975	637.539	0.062	-0.160
-521.960	0.909	-0.119	0.086
-520.945	800.000	-0.076	-0.270
-519.931	-72.101	0.297	-0.112
-518.916	487.672	0.105	0.244
-517.902	-80.187	-0.060	-0.020
-516.887	-121.452	-0.388	0.065
-515.872	22.001	-0.107	-0.089
-514.858	21.910	0.305	-0.252
-513.843	800.000	0.024	-0.099
-512.829	397.452	-0.081	-0.172
-511.814	31.051	-0.143	-0.125
-510.799	-169.533	0.296	-0.011
-509.785	218.707	0.094	0.152
-508.770	139.514	-0.056	-0.075
-507.756	68.122	0.136	-0.141
-506.741	126.345	-0.247	0.316
-505.726	23.245	0.277	-0.231
-504.712	-40.706	-0.254	-0.133
-503.697	39.639	-0.321	-0.291
-502.683	129.669	-0.102	0.132
-501.668	-15.587	-0.159	-0.103
-500.653	73.106	0.044	0.046
-499.639	-61.684	-0.069	0.029
-498.624	-200.000	-0.021	0.122
-497.610	-200.000	-0.017	0.114
-496.595	48.047	0.067	-0.064
-495.581	127.141	0.223	0.286
-494.566	-17.265	0.165	0.106
-493.551	180.729	0.232	-0.346
-492.537	-33.495	0.140	-0.078
-491.522	800.000	0.005	-0.017
-490.508	46.805	-0.349	-0.328
-489.493	-7.353	-0.250	-0.172
-488.478	-46.843	-0.155	-0.077
-487.464	-102.993	-0.265	0.064
-486.449	-36.818	-0.075	-0.041
-485.435	260.090	-0.074	-0.129
-484.420	-93.606	0.137	-0.038
-483.405	-200.000	0.027	-0.177
-482.391	-123.093	-0.164	0.027
-481.376	106.842	-0.085	-0.103
-480.362	59.933	-0.081	0.081
-479.347	528.708	0.095	-0.228
-478.332	515.387	0.111	0.262
-477.318	27.343	0.235	0.200
-476.303	-200.000	-0.007	0.063
-475.289	-200.000	0.011	0.154
-474.274	-11.360	-0.055	-0.037
-473.259	119.061	-0.103	-0.129
-472.245	99.070	0.179	-0.210
-471.230	-89.170	0.027	0.008
-470.216	69.490	-0.079	-0.082
-469.201	-127.402	-0.165	0.024
-468.186	-119.596	0.076	0.013
-467.172	-42.363	-0.230	-0.119
-466.157	800.000	-0.116	0.380
-465.143	800.000	0.055	0.173
-464.128	92.850	-0.160	0.183
-463.113	105.608	0.145	-0.173
-462.099	-109.905	-0.360	-0.076
-461.084	800.000	0.020	-0.066
-460.070	-38.542	-0.218	0.117
-459.055	95.541	-0.101	0.116
-458.040	116.621	0.142	0.176
-457.026	800.000	0.021	-0.063
-456.011	45.470	-0.077	-0.072
-454.997	-36.921	0.246	0.134
-453.982	44.089	0.072	0.067
-452.968	-20.148	-0.283	0.177
-451.953	-96.624	0.148	-0.040
-450.938	800.000	0.060	-0.189
-449.924	-22.720	0.449	-0.275
-448.909	686.462	-0.128	-0.337
-447.895	87.987	0.132	-0.148
-446.880	800.000	0.024	-0.085
-445.865	-200.000	0.017	0.106
-444.851	81.604	0.114	0.125
-443.836	261.645	-0.073	-0.128
-442.822	-95.560	0.251	-0.068
-441.807	-74.704	0.319	-0.116
-440.792	276.949	-0.038	0.069
-439.778	385.787	-0.168	-0.350
-438.763	-34.782	-0.170	0.094
-437.749	-80.585	-0.173	0.058
-436.734	-102.456	-0.345	0.084
-435.719	4.668	0.098	-0.073
-434.705	254.142	0.021	0.036
-433.690	800.000	0.108	0.384
-432.676	-200.000	-0.033	-0.230
-431.661	528.443	-0.034	-0.082
-430.646	-74.490	0.219	-0.080
-429.632	710.068	0.104	-0.277
-428.617	57.032	0.224	-0.221
-427.603	-121.555	0.235	0.039
-426.588	16.940	-0.356	0.285
-425.573	-38.528	0.224	0.119
-424.559	50.824	-0.394	0.377
-423.544	7.475	0.193	-0.146
-422.530	119.860	0.125	0.156
-421.515	800.000	0.079	0.269
-420.500	-200.000	-0.068	-0.306
-419.486	141.231	-0.101	-0.135
-418.471	9.313	-0.158	0.121
-417.457	-92.071	-0.150	-0.043
-416.442	502.664	0.048	0.113
-415.428	-18.888	-0.174	-0.109
-414.413	-22.267	-0.426	0.261
-413.398	-44.178	-0.148	0.075
-412.384	-159.491	-0.410	-0.023
-411.369	800.000	0.073	0.292
-410.355	72.373	-0.186	-0.196
-409.340	-200.000	0.003	-0.039
-408.325	184.772	-0.159	0.239
-407.311	696.317	0.040	0.106
-406.296	115.932	-0.174	0.215
-405.282	28.039	0.293	0.250
-404.267	-139.440	-0.101	0.011
-403.252	-172.296	-0.283	-0.009
-402.238	-112.509	0.195	0.039
-401.223	-90.084	0.034	0.010
-400.209	-200.000	-0.023	-0.102
-399.194	461.173	-0.057	0.128
-398.179	-15.203	0.030	0.019
-397.165	-66.198	0.229	0.092
-396.150	-150.444	-0.181	-0.014
-395.136	-200.000	0.008	0.093
-394.121	-49.129	0.196	-0.095
-393.106	387.677	0.085	0.178
-392.092	1.109	-0.025	-0.018
-391.077	-107.586	-0.309	-0.068
-390.063	-170.120	-0.412	-0.015
-389.048	43.134	0.299	-0.275
-388.033	800.000	0.078	0.264
-387.019	283.490	-0.086	0.155
-386.004	786.354	-0.091	0.252
-384.990	-101.834	0.272	0.066
-383.975	-200.000	0.042	-0.186
-382.960	203.663	-0.115	0.180
-381.946	-81.368	-0.070	0.023
-380.931	-200.000	0.032	0.206
-379.917	-42.556	0.447	0.230
-378.902	-155.294	-0.103	-0.007
-377.888	800.000	-0.011	-0.034
-376.873	168.277	-0.099	0.143
-375.858	221.366	-0.149	0.241
-374.844	209.259	-0.054	-0.085
-373.829	800.000	0.055	0.190
-372.815	-138.093	0.097	0.011
-371.800	-103.052	-0.143	0.034
-370.785	-200.000	-0.008	-0.175
-369.771	-114.898	0.176	0.034
-368.756	-75.471	-0.363	0.130
-367.742	-90.595	0.273	0.080
-366.727	-200.000	0.029	-0.313
-365.712	800.000	0.055	-0.177
-364.698	-11.967	-0.264	-0.174
-363.683	800.000	-0.021	-0.065
-362.669	85.566	0.207	-0.229
-361.654	68.074	-0.021	-0.022
-360.639	800.000	0.086	-0.302
-359.625	-92.691	0.112	-0.032
-358.610	-27.880	0.345	0.202
-357.596	-160.806	0.235	0.013
-356.581	656.804	0.065	0.169
-355.566	124.313	0.024	0.030
-354.552	363.297	-0.020	-0.040
-353.537	84.741	-0.170	-0.188
-352.523	-200.000	0.001	0.305
-351.508	-62.115	0.351	0.148
-350.493	62.435	0.023	-0.024
-349.479	-200.000	0.064	0.373
-348.464	-70.303	0.211	0.081
-347.450	-78.443	-0.472	-0.163
-346.435	-100.227	-0.075	-0.019
-345.420	-186.448	-0.334	-0.005
-344.406	800.000	-0.032	-0.109
-343.391	-107.651	0.361	0.079
-342.377	64.177	0.082	0.084
-341.362	-48.511	-0.316	-0.153
-340.348	239.373	-0.116	-0.194
-339.333	800.000	-0.055	0.166
-338.318	-29.092	0.344	-0.199
-337.304	-49.036	0.526	-0.254
-336.289	-77.825	0.230	0.080
-335.275	40.785	0.293	0.266
-334.260	-86.525	-0.224	-0.069
-333.245	185.431	-0.140	-0.210
-332.231	-200.000	0.013	-0.284
-331.216	-62.560	0.294	-0.123
-330.202	227.692	0.060	-0.099
-329.187	-44.175	0.042	-0.021
-328.172	-30.075	0.304	-0.174
-327.158	-75.583	0.130	0.047
-326.143	298.658	-0.151	0.279
-325.129	-200.000	-0.016	-0.089
-324.114	-200.000	-0.031	0.174
-323.099	-200.000	-0.004	0.224
-322.085	594.013	0.087	0.216
-321.070	-30.428	0.128	-0.073
-320.056	44.965	0.239	0.221
-319.041	-122.855	-0.283	0.046
-318.026	-200.000	-0.073	-0.451
-317.012	-109.649	0.299	-0.063
-315.997	42.365	-0.169	-0.155
-314.983	-37.112	-0.254	0.137
-313.968	-200.000	0.035	0.197
-312.953	252.911	-0.270	-0.463
-311.939	92.884	-0.094	0.106
-310.924	800.000	0.094	0.306
-309.910	-124.689	0.117	-0.018
-308.895	-120.862	-0.142	-0.024
-307.880	-152.907	-0.385	-0.027
-306.866	800.000	0.125	0.348
-305.851	145.545	-0.073	-0.099
-304.837	-98.802	0.239	-0.061
-303.822	-200.000	0.013	0.259
-302.807	606.087	-0.073	0.183
-301.793	800.000	0.062	-0.178
-300.778	-63.789	-0.186	0.077
-299.764	-100.037	-0.162	0.040
-298.749	-200.000	-0.046	-0.398
-297.735	-160.214	-0.203	-0.011
-296.720	-116.859	0.152	0.028
-295.705	-10.430	-0.175	0.117
-294.691	29.337	-0.180	-0.154
-293.676	-22.772	-0.230	0.139
-292.662	21.560	-0.085	-0.069
-291.647	281.612	-0.019	0.034
-290.632	-121.239	0.246	-0.041
-289.618	268.254	0.049	-0.087
-288.603	115.990	0.319	-0.392
-287.589	272.640	-0.105	-0.186
-286.574	800.000	-0.036	-0.119
-285.559	800.000	0.045	-0.193
-284.545	-12.815	0.291	-0.190
-283.530	-105.893	-0.333	-0.075
-282.516	-107.442	0.133	-0.029
-281.501	-127.343	0.398	0.058
-280.486	-14.372	0.059	-0.038
-279.472	-111.340	0.140	0.029
-278.457	128.990	-0.147	0.188
-277.443	-200.000	0.004	0.171
-276.428	146.992	0.349	0.471
-275.413	-8.617	0.139	-0.094
-274.399	-200.000	-0.037	-0.318
-273.384	-114.892	0.233	-0.045
-272.370	24.812	0.071	0.059
-271.355	158.202	-0.128	0.178
-270.340	250.982	-0.196	0.335
-269.326	-107.436	0.009	-0.002
-268.311	326.645	0.034	0.066
-267.297	373.871	0.133	0.271
-266.282	46.255	0.059	0.055
-265.267	-81.920	-0.296	0.097
-264.253	800.000	0.090	0.366
-263.238	-84.466	0.416	0.132
-262.224	-30.546	-0.016	0.009
-261.209	-200.000	0.052	-0.272
-260.195	-122.058	0.065	0.011
-259.180	89.733	0.111	-0.124
-258.165	-200.000	-0.017	0.153
-257.151	-192.334	-0.215	-0.002
-256.136	33.165	-0.076	0.066
-255.122	92.075	0.190	-0.215
-254.107	-91.838	0.277	0.079
-253.092	-95.100	-0.255	0.069
-252.078	-158.276	0.217	0.013
-251.063	62.836	-0.151	0.151
-250.049	-200.000	-0.058	0.262
-249.034	-60.356	0.108	0.046
-248.019	51.970	-0.071	-0.068
-247.005	600.417	0.051	0.128
-245.990	-119.733	-0.085	0.015
-244.976	76.800	0.110	-0.117
-243.961	-31.730	-0.227	-0.127
-242.946	-83.502	-0.295	-0.095
-241.932	268.500	0.174	-0.306
-240.917	426.344	0.082	0.177
-239.903	-200.000	0.019	0.299
-238.888	-200.000	-0.056	0.354
-237.873	-138.368	-0.188	0.021
-236.859	-7.698	0.249	-0.169
-235.844	-87.467	-0.102	0.031
-234.830	-200.000	0.006	-0.105
-233.815	-132.340	0.252	-0.033
-232.800	-1.182	0.108	-0.076
-231.786	30.445	-0.251	-0.215
-230.771	-165.731	0.232	-0.010
-229.757	-200.000	-0.037	-0.318
-228.742	-76.988	-0.097	-0.034
-227.727	-200.000	0.023	-0.169
-226.713	-97.622	0.464	-0.121
-225.698	-200.000	0.017	-0.078
-224.684	151.039	-0.128	-0.175
-223.669	800.000	0.037	-0.115
-222.655	174.840	-0.167	-0.243
-221.640	709.875	0.045	-0.119
-220.625	-109.658	-0.155	0.033
-219.611	-154.837	0.231	-0.015
-218.596	113.213	-0.048	-0.058
-217.582	155.063	-0.198	-0.273
-216.567	252.705	-0.158	-0.269
-215.552	-82.443	-0.129	-0.042
-214.538	447.278	-0.115	0.253
-213.523	800.000	-0.110	-0.308
-212.509	-200.000	0.008	0.338
-211.494	212.834	0.153	-0.242
-210.479	216.557	0.122	-0.195
-209.465	-27.981	-0.209	-0.121
-208.450	800.000	0.047	-0.186
-207.436	-88.066	0.167	0.050
-206.421	611.923	0.037	0.094
-205.406	9.602	-0.138	-0.105
-204.392	-86.846	0.331	-0.101
-203.377	800.000	-0.029	-0.101
-202.363	-175.138	-0.457	-0.013
-201.348	184.109	-0.092	0.136
-200.333	134.887	-0.103	0.133
-199.319	299.782	-0.014	-0.025
-198.304	-200.000	-0.025	-0.139
-197.290	-65.910	0.407	0.163
-196.275	28.839	0.196	-0.167
-195.260	-112.491	0.125	0.025
-194.246	-29.138	-0.577	0.331
-193.231	60.791	0.053	-0.053
-192.217	127.307	-0.180	-0.229
-191.202	800.000	-0.064	-0.249
-190.187	-38.573	-0.251	-0.133
-189.173	201.210	-0.060	-0.093
-188.158	308.580	0.079	-0.148
-187.144	302.236	0.121	-0.225
-186.129	40.773	-0.348	-0.314
-185.114	-34.586	0.116	-0.063
-184.100	-13.410	0.108	-0.070
-183.085	-200.000	0.021	0.296
-182.071	-126.531	-0.230	0.034
-181.056	215.107	0.077	0.123
-180.042	-120.005	-0.197	-0.034
-179.027	31.209	-0.043	0.037
-178.012	42.726	-0.059	-0.054
-176.998	561.471	0.045	-0.110
-175.983	30.844	0.061	0.052
-174.969	-46.530	-0.056	-0.027
-173.954	251.459	-0.018	0.030
-172.939	-158.586	-0.014	0.001
-171.925	-146.738	0.195	-0.017
-170.910	-200.000	-0.041	0.305
-169.896	-7.523	0.329	0.223
-168.881	-168.329	-0.233	0.009
-167.866	33.238	0.170	-0.148
-166.852	-30.425	0.216	0.122
-165.837	800.000	0.042	0.179
-164.823	23.972	-0.245	0.202
-163.808	-23.441	-0.211	0.127
-162.793	-169.211	-0.202	-0.007
-161.779	220.058	0.037	-0.060
-160.764	167.536	-0.188	-0.267
-159.750	152.546	-0.170	-0.232
-158.735	-200.000	0.005	-0.081
-157.720	800.000	0.040	0.145
-156.706	-125.607	0.178	-0.027
-155.691	4.650	-0.351	-0.258
-154.677	30.673	0.101	-0.086
-153.662	-2.932	-0.221	-0.154
-152.647	133.554	-0.060	0.078
-151.633	532.750	-0.119	0.282
-150.618	102.315	-0.188	-0.220
-149.604	-25.068	0.079	0.047
-148.589	99.089	0.213	-0.246
-147.574	8.676	-0.175	0.132
-146.560	-200.000	-0.006	0.331
-145.545	-200.000	-0.035	-0.191
-144.531	-110.472	0.088	0.018
-143.516	297.342	-0.170	0.313
-142.502	-200.000	0.024	0.199
-141.487	-48.312	0.090	0.043
-140.472	-149.115	-0.043	-0.003
-139.458	-200.000	-0.049	-0.242
-138.443	-200.000	0.086	-0.458
-137.429	-151.489	-0.366	0.027
-136.414	-90.859	0.185	0.053
-135.399	-101.542	0.367	0.089
-134.385	-68.577	0.305	-0.118
-133.370	246.345	-0.138	-0.233
-132.356	44.570	0.149	-0.137
-131.341	800.000	0.025	-0.082
-130.326	-83.131	-0.137	0.044
-129.312	-148.153	-0.211	-0.017
-128.297	-153.128	0.198	-0.014
-127.283	-200.000	0.019	0.131
-126.268	-33.270	-0.241	-0.133
-125.253	-51.217	-0.089	-0.042
-124.239	76.539	0.044	-0.047
-123.224	-56.022	0.142	0.063
-122.210	-200.000	0.086	-0.405
-121.195	28.404	-0.355	0.300
