DTS Sentinel unit serial number:	SN413079Multiplexer serial number:	ORYXHardware model number:	OX4-SRSoftware version number:	ORYX F/W v4.00 Oryx Data Collector v3.7.2.0data status	okinstallation	princeton_trtdifferential loss correction	single-endedforward channel	channel 3reverse channel	N/Adate	2019/09/10time	19:02:11forward acquisition time	60.00reverse acquisition time	0.00gamma	496.2192k internal	0.2313k external	0.2313temperature offset calibration	0.9916default loss term (dB/km)	0.3790temperature slope calibration	1.0000multiplexer offset coefficient	1.0000multiplexer slope coefficient	1.0000fibre end	0.00T internal ref (°C)	34.50T ext. ref 1 (°C)	-0.34T ext. ref 2 (°C)	26.71length (m)	temperature (°C)	Stokes	anti-Stokes-747.200	-10.522	0.069	-0.046
-746.185	-200.000	0.007	0.131
-745.171	11.883	-0.169	0.131
-744.156	336.233	-0.073	0.144
-743.142	116.389	0.159	-0.198
-742.127	800.000	0.075	0.228
-741.112	-42.209	0.414	0.215
-740.098	84.371	0.153	0.170
-739.083	-49.667	-0.254	-0.122
-738.069	168.064	0.096	0.138
-737.054	153.228	0.079	0.110
-736.039	-135.141	-0.121	-0.015
-735.025	28.208	0.314	0.269
-734.010	-193.592	-0.315	-0.003
-732.996	800.000	-0.028	-0.093
-731.981	-40.318	-0.132	-0.069
-730.966	-162.768	-0.216	0.011
-729.952	-42.131	-0.045	-0.023
-728.937	-7.899	-0.195	-0.133
-727.923	-84.625	0.112	0.036
-726.908	-52.329	0.124	0.058
-725.894	-33.003	-0.181	-0.102
-724.879	82.397	-0.058	0.064
-723.864	50.445	-0.121	0.115
-722.850	-115.615	-0.326	-0.062
-721.835	-200.000	-0.017	0.358
-720.821	800.000	-0.059	0.258
-719.806	-102.541	0.117	-0.028
-718.791	-199.255	0.078	-0.000
-717.777	295.589	0.083	0.154
-716.762	129.344	0.090	0.117
-715.748	-138.236	-0.051	-0.006
-714.733	-86.422	0.193	-0.060
-713.718	170.127	0.036	0.052
-712.704	-200.000	0.022	0.296
-711.689	-83.844	0.230	0.074
-710.675	74.544	0.126	-0.134
-709.660	599.353	0.025	-0.062
-708.645	-128.793	0.380	-0.054
-707.631	-33.514	0.098	0.055
-706.616	-23.033	-0.115	-0.070
-705.602	-46.254	-0.132	0.066
-704.587	291.912	0.122	0.224
-703.572	-125.020	0.224	0.035
-702.558	-13.319	-0.262	0.172
-701.543	290.766	0.070	-0.128
-700.529	-145.302	-0.091	-0.008
-699.514	-128.461	-0.429	-0.062
-698.499	-23.820	0.186	0.113
-697.485	-44.048	-0.247	-0.126
-696.470	-200.000	0.034	0.243
-695.456	-65.724	0.197	0.080
-694.441	800.000	0.029	0.092
-693.426	6.425	0.039	-0.029
-692.412	-200.000	-0.016	0.174
-691.397	136.750	0.286	0.378
-690.383	-96.008	0.145	-0.039
-689.368	210.677	-0.117	-0.186
-688.354	510.355	-0.050	-0.119
-687.339	800.000	-0.029	-0.094
-686.324	-34.343	-0.175	0.097
-685.310	-86.316	0.359	0.112
-684.295	-24.292	-0.327	0.197
-683.281	-147.792	-0.134	0.011
-682.266	328.587	-0.077	0.149
-681.251	-200.000	0.017	0.122
-680.237	-43.011	-0.308	-0.158
-679.222	-65.361	0.166	-0.068
-678.208	490.368	0.012	-0.027
-677.193	-63.364	-0.509	-0.212
-676.178	450.279	-0.074	-0.165
-675.164	-200.000	-0.034	0.202
-674.149	-118.987	-0.291	-0.052
-673.135	-200.000	-0.004	-0.094
-672.120	-9.232	-0.048	0.032
-671.105	-117.913	0.296	-0.054
-670.091	489.086	-0.101	-0.233
-669.076	-156.814	-0.058	-0.004
-668.062	-3.504	0.285	-0.201
-667.047	-128.152	0.180	-0.026
-666.032	-60.047	0.310	-0.134
-665.018	159.094	-0.184	0.259
-664.003	128.698	0.202	0.260
-662.989	800.000	0.030	0.107
-661.974	87.893	0.334	0.374
-660.959	98.053	0.104	-0.122
-659.945	-5.789	0.322	0.223
-658.930	-112.860	-0.130	-0.026
-657.916	-67.702	-0.260	-0.103
-656.901	148.112	0.171	0.233
-655.886	-70.965	-0.396	-0.150
-654.872	-200.000	-0.033	0.150
-653.857	-200.000	0.013	-0.287
-652.843	-175.202	0.115	0.003
-651.828	-117.710	-0.244	-0.044
-650.814	800.000	0.056	-0.180
-649.799	66.585	-0.073	-0.075
-648.784	-50.516	-0.286	0.136
-647.770	-22.897	-0.117	-0.072
-646.755	400.813	-0.027	-0.058
-645.741	142.785	0.214	0.287
-644.726	-133.167	-0.158	0.020
-643.711	-92.337	-0.139	-0.039
-642.697	-72.507	0.158	-0.059
-641.682	-110.138	0.124	-0.026
-640.668	-101.480	-0.141	-0.035
-639.653	191.910	0.063	0.097
-638.638	-104.570	-0.496	-0.116
-637.624	66.168	-0.229	0.235
-636.609	230.365	0.270	0.446
-635.595	11.115	0.040	-0.031
-634.580	-154.254	0.456	0.031
-633.565	-143.279	0.079	-0.008
-632.551	779.632	-0.112	0.309
-631.536	409.574	0.098	0.210
-630.522	-200.000	-0.004	-0.050
-629.507	86.635	-0.213	-0.238
-628.492	800.000	-0.050	0.164
-627.478	-99.596	0.027	-0.007
-626.463	452.986	-0.088	-0.198
-625.449	204.791	0.070	-0.110
-624.434	-200.000	-0.039	0.358
-623.419	-200.000	-0.061	0.326
-622.405	304.980	0.088	-0.164
-621.390	113.667	0.094	0.115
-620.376	79.963	-0.196	0.213
-619.361	-34.376	0.161	0.089
-618.346	-51.901	-0.185	0.087
-617.332	-134.924	-0.212	0.026
-616.317	3.042	0.037	0.027
-615.303	-62.692	-0.137	-0.057
-614.288	-51.259	0.309	0.146
-613.273	-74.172	-0.190	0.069
-612.259	-200.000	0.022	-0.165
-611.244	-200.000	0.011	-0.073
-610.230	-183.310	0.113	-0.002
-609.215	25.718	-0.203	-0.170
-608.201	58.044	0.158	-0.156
-607.186	800.000	-0.190	0.628
-606.171	118.576	-0.175	0.218
-605.157	-11.781	0.303	-0.200
-604.142	800.000	0.016	-0.067
-603.128	800.000	-0.085	-0.359
-602.113	22.370	0.207	-0.170
-601.098	112.548	-0.175	0.214
-600.084	800.000	-0.045	0.133
-599.069	41.857	-0.288	0.263
-598.055	-10.575	-0.561	-0.374
-597.040	581.608	-0.155	0.382
-596.025	-16.886	0.084	0.053
-595.011	351.411	0.080	0.160
-593.996	-65.050	-0.399	-0.162
-592.982	-67.798	0.100	0.039
-591.967	-200.000	0.324	0.001
-590.952	34.066	-0.173	0.152
-589.938	-77.080	-0.331	-0.116
-588.923	356.925	0.108	0.217
-587.909	-26.658	-0.228	-0.134
-586.894	305.979	0.151	-0.283
-585.879	288.270	0.212	-0.386
-584.865	251.189	-0.187	0.321
-583.850	-200.000	0.069	0.403
-582.836	-76.330	-0.292	-0.104
-581.821	-69.024	0.126	-0.049
-580.806	-107.269	0.060	0.013
-579.792	-8.848	-0.133	0.090
-578.777	70.585	-0.098	0.102
-577.763	259.708	-0.039	-0.067
-576.748	-89.000	0.131	0.039
-575.733	-200.000	-0.020	-0.329
-574.719	-146.542	-0.223	-0.020
-573.704	77.827	-0.369	-0.396
-572.690	132.318	-0.155	-0.201
-571.675	64.677	0.150	-0.152
-570.661	-133.029	0.025	-0.003
-569.646	131.284	-0.282	0.364
-568.631	103.390	-0.202	-0.238
-567.617	146.008	-0.164	-0.221
-566.602	111.591	0.229	0.279
-565.588	-200.000	-0.026	-0.401
-564.573	440.034	0.130	-0.286
-563.558	-77.955	0.132	-0.046
-562.544	-9.722	-0.134	-0.090
-561.529	-94.442	-0.262	0.072
-560.515	800.000	-0.023	-0.088
-559.500	-40.476	0.154	-0.081
-558.485	420.025	-0.097	0.208
-557.471	-106.042	-0.030	0.007
-556.456	72.645	-0.220	-0.231
-555.442	51.107	0.327	-0.313
-554.427	-200.000	-0.010	-0.278
-553.412	-96.335	-0.058	0.015
-552.398	191.920	-0.145	-0.220
-551.383	-3.549	-0.122	-0.085
-550.369	-43.120	0.116	0.059
-549.354	-61.548	0.192	-0.081
-548.339	-127.196	0.094	-0.014
-547.325	-200.000	0.007	-0.214
-546.310	160.793	-0.105	-0.147
-545.296	157.760	0.080	0.111
-544.281	-51.496	0.282	0.133
-543.266	-153.438	-0.377	-0.026
-542.252	169.515	-0.182	-0.262
-541.237	-200.000	-0.006	0.411
-540.223	385.761	-0.042	0.088
-539.208	-200.000	-0.004	0.152
-538.193	-200.000	-0.020	0.267
-537.179	-200.000	0.004	0.294
-536.164	-94.037	-0.131	-0.036
-535.150	-150.398	0.078	0.006
-534.135	-60.034	-0.151	0.065
-533.121	-200.000	-0.032	-0.200
-532.106	-200.000	0.091	-0.439
-531.091	337.893	0.089	-0.174
-530.077	159.065	0.081	-0.113
-529.062	800.000	0.073	0.292
-528.048	-200.000	-0.051	0.278
-527.033	121.942	0.098	0.123
-526.018	795.182	0.066	-0.183
-525.004	-140.402	0.064	-0.007
-523.989	-105.637	-0.131	0.030
-522.975	-92.940	0.400	-0.112
-521.960	162.674	0.132	0.186
-520.945	-11.640	0.154	-0.101
-519.931	-5.312	0.206	0.142
-518.916	725.873	-0.029	-0.079
-517.902	800.000	-0.069	-0.202
-516.887	98.576	-0.185	0.215
-515.872	160.269	-0.153	0.215
-514.858	86.089	0.134	0.148
-513.843	-72.192	0.372	-0.139
-512.829	-72.600	0.324	-0.120
-511.814	69.376	-0.102	-0.106
-510.799	-61.500	-0.200	0.084
-509.785	-85.169	-0.225	-0.071
-508.770	-166.241	-0.187	-0.008
-507.756	-151.400	0.139	0.010
-506.741	25.437	0.160	0.134
-505.726	-199.411	0.146	0.001
-504.712	19.170	-0.030	0.024
-503.697	47.842	0.157	0.147
-502.683	-126.214	-0.388	0.058
-501.668	-40.598	-0.220	-0.114
-500.653	-13.934	-0.240	-0.155
-499.639	800.000	0.143	0.433
-498.624	-200.000	-0.025	-0.247
-497.610	202.888	-0.104	-0.162
-496.595	121.314	0.175	0.218
-495.581	-46.110	0.167	-0.082
-494.566	178.229	-0.133	0.196
-493.551	800.000	-0.033	-0.120
-492.537	800.000	0.048	-0.192
-491.522	-200.000	0.012	-0.207
-490.508	64.516	-0.059	-0.060
-489.493	-131.104	0.403	0.054
-488.478	311.632	-0.170	-0.319
-487.464	-37.159	-0.148	-0.080
-486.449	-83.613	0.058	0.019
-485.435	620.961	0.079	0.199
-484.420	-80.560	0.088	-0.030
-483.405	800.000	-0.107	-0.328
-482.391	-172.069	-0.144	0.005
-481.376	-89.897	-0.335	-0.098
-480.362	-46.299	0.209	-0.103
-479.347	800.000	-0.061	-0.210
-478.332	124.452	0.150	-0.190
-477.318	-21.097	0.066	-0.040
-476.303	-154.603	-0.136	-0.009
-475.289	-200.000	0.055	0.265
-474.274	-11.383	0.242	-0.160
-473.259	-33.725	-0.014	0.008
-472.245	-84.246	0.111	0.035
-471.230	-200.000	-0.010	-0.299
-470.216	55.126	0.101	0.098
-469.201	-127.466	0.190	0.028
-468.186	337.477	0.030	0.059
-467.172	-138.375	-0.211	0.023
-466.157	-36.278	-0.388	0.210
-465.143	800.000	0.106	0.360
-464.128	-107.166	-0.257	-0.057
-463.113	-4.934	0.250	-0.173
-462.099	800.000	-0.090	-0.311
-461.084	30.606	0.158	-0.136
-460.070	26.563	0.216	0.181
-459.055	92.855	0.096	0.108
-458.040	-109.572	-0.305	-0.064
-457.026	371.901	0.084	-0.172
-456.011	500.844	0.008	-0.018
-454.997	-62.407	-0.145	-0.061
-453.982	88.197	-0.263	-0.293
-452.968	271.114	-0.094	0.167
-451.953	-82.782	-0.300	0.097
-450.938	-200.000	-0.016	0.248
-449.924	438.539	-0.037	-0.082
-448.909	289.618	-0.103	-0.187
-447.895	800.000	0.005	0.021
-446.880	-73.175	-0.359	0.132
-445.865	-58.622	0.014	0.006
-444.851	-50.751	0.408	-0.192
-443.836	-51.006	-0.239	0.113
-442.822	-28.316	-0.260	0.151
-441.807	-200.000	-0.007	-0.092
-440.792	-92.886	-0.193	-0.054
-439.778	800.000	-0.074	-0.305
-438.763	317.509	0.097	-0.184
-437.749	390.288	-0.094	0.194
-436.734	340.947	0.149	0.291
-435.719	800.000	0.038	0.115
-434.705	697.234	0.034	-0.089
-433.690	-200.000	0.012	0.176
-432.676	-55.378	0.287	-0.129
-431.661	81.899	0.278	-0.301
-430.646	201.574	0.095	-0.147
-429.632	94.857	-0.067	-0.076
-428.617	68.166	-0.224	-0.230
-427.603	-200.000	-0.033	-0.270
-426.588	-87.041	0.364	0.111
-425.573	55.636	-0.130	0.126
-424.559	128.683	-0.158	-0.201
-423.544	800.000	0.056	-0.244
-422.530	-200.000	-0.009	0.293
-421.515	124.389	-0.110	-0.138
-420.500	-44.529	0.173	0.087
-419.486	208.394	0.193	0.301
-418.471	318.741	-0.083	0.157
-417.457	-103.178	0.429	-0.102
-416.442	800.000	0.047	-0.131
-415.428	-200.000	-0.010	-0.147
-414.413	177.436	-0.149	-0.218
-413.398	-40.849	0.265	-0.137
-412.384	-70.969	0.417	-0.157
-411.369	2.041	-0.161	0.116
-410.355	-122.630	0.202	-0.033
-409.340	-37.313	0.176	-0.094
-408.325	347.636	-0.067	-0.132
-407.311	-140.551	0.102	-0.011
-406.296	157.152	-0.042	-0.059
-405.282	6.963	0.064	-0.047
-404.267	-130.353	-0.167	0.023
-403.252	194.728	0.102	-0.154
-402.238	-78.180	-0.316	-0.109
-401.223	460.548	0.048	0.107
-400.209	-200.000	0.103	-0.000
-399.194	-149.375	-0.129	-0.010
-398.179	130.223	-0.248	-0.318
-397.165	66.323	0.166	-0.168
-396.150	-47.498	-0.084	-0.041
-395.136	571.236	0.114	0.278
-394.121	800.000	-0.051	-0.187
-393.106	800.000	-0.042	0.158
-392.092	297.337	0.114	0.210
-391.077	264.910	0.097	-0.170
-390.063	-200.000	0.013	0.212
-389.048	-118.899	0.108	-0.019
-388.033	59.258	0.116	-0.114
-387.019	-95.846	0.163	0.044
-386.004	800.000	0.067	0.291
-384.990	124.203	0.072	-0.090
-383.975	268.742	0.197	-0.346
-382.960	-117.358	0.234	-0.042
-381.946	351.930	-0.049	0.096
-380.931	18.029	0.118	-0.094
-379.917	-200.000	-0.044	0.301
-378.902	-71.048	-0.141	0.053
-377.888	-200.000	0.004	0.210
-376.873	-200.000	0.150	0.000
-375.858	800.000	-0.084	0.288
-374.844	-200.000	-0.042	0.212
-373.829	-200.000	0.044	-0.216
-372.815	95.970	0.162	0.185
-371.800	-200.000	0.041	0.189
-370.785	-200.000	0.009	-0.080
-369.771	-11.004	-0.328	-0.216
-368.756	31.248	-0.180	0.155
-367.742	-200.000	0.010	-0.054
-366.727	148.320	0.052	0.070
-365.712	-19.268	0.176	-0.109
-364.698	188.572	-0.070	-0.104
-363.683	-145.004	0.293	0.027
-362.669	-200.000	-0.043	-0.224
-361.654	376.926	-0.167	-0.340
-360.639	-74.513	-0.010	-0.004
-359.625	-147.293	0.233	0.020
-358.610	-200.000	-0.086	0.420
-357.596	297.342	-0.080	-0.147
-356.581	-103.201	-0.319	-0.075
-355.566	800.000	0.185	-0.580
-354.552	800.000	-0.043	-0.160
-353.537	800.000	0.062	-0.186
-352.523	-200.000	0.010	-0.305
-351.508	66.203	-0.116	0.118
-350.493	474.419	-0.069	0.155
-349.479	154.330	0.111	-0.153
-348.464	-174.992	-0.205	0.006
-347.450	121.375	-0.177	-0.221
-346.435	-128.137	0.339	0.048
-345.420	128.825	-0.120	0.153
-344.406	-135.518	-0.179	0.021
-343.391	228.691	0.075	-0.123
-342.377	-200.000	-0.015	-0.180
-341.362	-200.000	0.072	0.325
-340.348	-200.000	0.074	0.340
-339.333	-74.516	-0.254	-0.091
-338.318	143.721	-0.176	0.234
-337.304	2.286	0.238	0.172
-336.289	233.241	-0.261	0.428
-335.275	-58.407	-0.150	0.065
-334.260	177.884	-0.181	-0.263
-333.245	222.801	0.004	0.007
-332.231	42.586	0.123	-0.111
-331.216	-200.000	0.007	-0.162
-330.202	92.368	0.155	-0.174
-329.187	299.008	-0.085	0.156
-328.172	-153.660	0.299	0.021
-327.158	269.615	-0.047	0.083
-326.143	199.563	0.158	0.242
-325.129	-200.000	0.013	-0.245
-324.114	-117.252	-0.480	0.087
-323.099	487.638	0.113	-0.257
-322.085	-84.280	0.224	-0.071
-321.070	-200.000	0.059	-0.267
-320.056	-200.000	-0.005	0.256
-319.041	569.365	-0.149	-0.361
-318.026	54.769	0.125	-0.120
-317.012	344.658	-0.129	0.253
-315.997	800.000	0.077	-0.325
-314.983	188.890	-0.148	0.221
-313.968	29.210	-0.062	0.052
-312.953	-175.384	0.314	-0.009
-311.939	-85.528	-0.159	-0.049
-310.924	176.025	-0.235	-0.340
-309.910	56.371	-0.139	0.135
-308.895	-91.783	0.296	0.084
-307.880	-124.533	-0.270	-0.042
-306.866	-25.305	0.308	0.182
-305.851	-200.000	-0.023	0.356
-304.837	-145.014	-0.045	-0.004
-303.822	-27.913	-0.087	0.050
-302.807	236.599	0.006	-0.010
-301.793	66.835	-0.231	-0.234
-300.778	-122.864	0.204	0.033
-299.764	-73.612	0.316	-0.115
-298.749	34.179	0.168	-0.146
-297.735	-78.090	-0.169	0.058
-296.720	132.169	0.094	-0.120
-295.705	-25.734	0.322	0.189
-294.691	-135.819	-0.203	-0.024
-293.676	129.815	-0.207	0.263
-292.662	124.071	-0.138	0.172
-291.647	-79.615	-0.267	0.090
-290.632	-166.342	0.188	0.008
-289.618	-44.895	-0.114	0.057
-288.603	-26.419	0.016	0.009
-287.589	800.000	0.103	0.399
-286.574	45.558	0.226	-0.208
-285.559	222.932	0.026	-0.042
-284.545	-200.000	-0.015	0.083
-283.530	-200.000	-0.002	-0.035
-282.516	399.722	-0.012	-0.026
-281.501	90.781	0.196	-0.218
-280.486	-73.794	-0.026	-0.009
-279.472	-19.967	0.201	-0.123
-278.457	-87.366	0.073	-0.022
-277.443	112.146	-0.219	0.264
-276.428	-84.411	0.125	0.039
-275.413	800.000	-0.018	-0.051
-274.399	20.282	-0.130	0.104
-273.384	-120.260	-0.113	0.019
-272.370	109.055	0.124	0.148
-271.355	800.000	0.054	0.207
-270.340	218.681	0.217	0.345
-269.326	-200.000	0.052	-0.288
-268.311	-29.598	-0.304	-0.173
-267.297	137.282	-0.176	-0.229
-266.282	-161.988	0.254	0.013
-265.267	-32.731	0.208	-0.115
-264.253	-185.125	-0.164	0.003
-263.238	73.139	0.093	0.096
-262.224	-8.286	-0.147	0.098
-261.209	235.155	-0.078	-0.128
-260.195	-70.702	-0.063	-0.024
-259.180	241.523	-0.146	0.243
-258.165	199.856	-0.048	0.073
-257.151	238.756	0.080	0.132
-256.136	-78.284	0.340	0.116
-255.122	136.517	0.025	-0.033
-254.107	-67.022	-0.054	0.021
-253.092	220.519	0.154	0.246
-252.078	401.537	0.086	0.180
-251.063	460.890	-0.077	0.170
-250.049	800.000	-0.085	0.267
-249.034	11.334	-0.214	0.163
-248.019	-167.744	0.057	0.002
-247.005	28.589	0.108	0.091
-245.990	81.224	0.078	-0.084
-244.976	225.966	0.020	-0.033
-243.961	33.416	0.141	0.121
-242.946	-200.000	0.007	0.061
-241.932	644.851	0.073	-0.186
-240.917	26.951	-0.239	0.199
-239.903	-17.716	0.007	0.004
-238.888	-200.000	0.026	-0.121
-237.873	-13.384	-0.120	-0.078
-236.859	-31.018	0.187	-0.105
-235.844	17.092	-0.074	-0.059
-234.830	800.000	-0.037	0.122
-233.815	800.000	0.042	0.167
-232.800	-30.069	0.220	-0.124
-231.786	94.200	-0.138	-0.156
-230.771	52.334	0.226	-0.214
-229.757	97.013	0.105	-0.120
-228.742	800.000	0.121	0.493
-227.727	-37.756	0.181	0.096
-226.713	-200.000	0.034	0.243
-225.698	-35.762	-0.083	0.045
-224.684	-58.729	-0.155	0.067
-223.669	800.000	-0.071	0.205
-222.655	228.190	-0.146	0.236
-221.640	6.025	-0.086	-0.063
-220.625	145.802	-0.133	-0.177
-219.611	-123.679	0.141	0.022
-218.596	528.183	0.054	-0.126
-217.582	17.894	-0.240	-0.190
-216.567	-200.000	0.013	0.198
-215.552	-200.000	0.010	0.129
-214.538	-41.705	-0.194	-0.099
-213.523	223.020	0.146	0.233
-212.509	28.117	0.228	0.191
-211.494	267.848	0.045	0.078
-210.479	617.763	-0.098	0.245
-209.465	1.656	-0.130	-0.093
-208.450	-67.857	-0.169	-0.065
-207.436	-200.000	-0.029	0.191
-206.421	-41.052	0.192	-0.099
-205.406	126.562	0.205	-0.258
-204.392	254.993	0.195	0.331
-203.377	262.616	-0.061	0.105
-202.363	800.000	0.037	0.133
-201.348	800.000	-0.056	0.212
-200.333	-159.094	-0.218	0.012
-199.319	-149.464	-0.177	0.014
-198.304	257.801	-0.115	0.196
-197.290	50.248	-0.038	0.036
-196.275	29.723	-0.225	0.190
-195.260	59.968	0.088	0.086
-194.246	-200.000	-0.018	-0.108
-193.231	196.295	0.183	0.276
-192.217	800.000	0.099	0.289
-191.202	800.000	-0.064	-0.197
-190.187	748.052	-0.063	-0.168
-189.173	304.255	-0.094	-0.173
-188.158	154.774	0.074	0.101
-187.144	800.000	-0.077	0.260
-186.129	-148.220	0.602	0.049
-185.114	-80.733	0.336	0.111
-184.100	-111.864	0.448	-0.090
-183.085	-85.618	-0.413	-0.127
-182.071	213.974	0.221	-0.347
-181.056	-200.000	0.010	0.054
-180.042	-82.947	-0.140	0.045
-179.027	-85.899	0.251	-0.077
-178.012	276.738	-0.199	-0.351
-176.998	354.339	-0.037	0.074
-175.983	394.845	-0.079	-0.164
-174.969	306.082	-0.124	0.228
-173.954	-200.000	0.031	0.170
-172.939	-2.491	0.062	0.043
-171.925	-145.125	0.108	-0.010
-170.910	100.974	-0.188	-0.217
-169.896	-11.574	0.206	-0.135
-168.881	-200.000	-0.005	-0.125
-167.866	-103.984	-0.260	-0.060
-166.852	-200.000	-0.007	0.077
-165.837	52.244	0.344	-0.325
-164.823	724.580	0.018	0.048
-163.808	-187.298	0.148	-0.002
-162.793	108.224	0.090	0.106
-161.779	-97.197	0.142	0.037
-160.764	800.000	-0.037	0.146
-159.750	800.000	-0.040	-0.116
-158.735	158.232	-0.071	-0.098
-157.720	113.233	-0.110	-0.132
-156.706	-100.176	0.107	0.026
-155.691	-124.897	0.422	0.064
-154.677	625.826	0.039	-0.097
-153.662	-200.000	0.013	-0.313
-152.647	800.000	-0.046	0.190
-151.633	-80.644	0.151	-0.050
-150.618	168.746	0.109	-0.153
-149.604	800.000	0.059	-0.189
-148.589	16.706	-0.203	0.159
-147.574	-114.273	-0.215	0.041
-146.560	800.000	0.107	-0.333
-145.545	-121.517	-0.272	0.045
-144.531	-200.000	0.031	-0.273
-143.516	88.700	-0.048	0.053
-142.502	590.807	-0.177	-0.433
-141.487	153.743	0.186	-0.253
-140.472	-200.000	0.084	0.000
-139.458	-200.000	-0.024	0.232
-138.443	122.542	-0.337	0.418
-137.429	145.867	0.136	0.180
-136.414	403.729	0.099	-0.206
-135.399	63.836	0.173	0.172
-134.385	615.826	0.154	-0.382
-133.370	-19.971	0.091	-0.056
-132.356	51.047	0.294	0.276
-131.341	124.135	-0.191	-0.237
-130.326	26.065	0.149	-0.123
-129.312	-200.000	-0.037	-0.256
-128.297	109.295	-0.114	-0.135
-127.283	-200.000	-0.003	0.177
-126.268	-200.000	0.031	-0.161
-125.253	427.521	-0.031	-0.065
-124.239	138.823	0.185	0.240
-123.224	268.525	-0.127	0.220
-122.210	-34.287	-0.390	0.212
-121.195	56.223	0.034	0.032
