DTS Sentinel unit serial number:	SN413079Multiplexer serial number:	ORYXHardware model number:	OX4-SRSoftware version number:	ORYX F/W v4.00 Oryx Data Collector v3.7.2.0data status	okinstallation	princeton_trtdifferential loss correction	single-endedforward channel	channel 3reverse channel	N/Adate	2019/09/11time	01:22:11forward acquisition time	60.00reverse acquisition time	0.00gamma	496.2192k internal	0.2331k external	0.2331temperature offset calibration	0.9915default loss term (dB/km)	0.3790temperature slope calibration	1.0000multiplexer offset coefficient	1.0000multiplexer slope coefficient	1.0000fibre end	0.00T internal ref (°C)	29.12T ext. ref 1 (°C)	-0.30T ext. ref 2 (°C)	23.23length (m)	temperature (°C)	Stokes	anti-Stokes-747.200	800.000	0.108	-0.344
-746.185	800.000	-0.053	0.174
-745.171	-119.209	-0.307	0.054
-744.156	-200.000	0.106	0.477
-743.142	-200.000	0.005	0.188
-742.127	-200.000	-0.041	0.254
-741.112	768.186	0.145	0.397
-740.098	800.000	-0.140	0.514
-739.083	28.903	-0.426	-0.363
-738.069	-11.882	0.296	0.195
-737.054	-183.547	0.090	0.002
-736.039	-200.000	-0.006	-0.339
-735.025	-24.112	0.283	-0.170
-734.010	36.271	-0.319	-0.283
-732.996	-16.331	-0.111	-0.071
-731.981	-200.000	-0.011	-0.249
-730.966	335.031	-0.126	-0.245
-729.952	-144.460	-0.222	0.021
-728.937	0.738	-0.106	-0.076
-727.923	-200.000	-0.018	0.084
-726.908	649.109	-0.106	0.273
-725.894	232.231	-0.082	-0.136
-724.879	-167.810	-0.196	-0.008
-723.864	-109.669	-0.077	0.016
-722.850	-46.788	-0.306	-0.151
-721.835	-200.000	0.014	-0.063
-720.821	-200.000	0.031	0.427
-719.806	-45.972	-0.261	0.129
-718.791	-106.400	-0.203	0.046
-717.777	177.711	-0.052	-0.076
-716.762	12.037	-0.198	-0.153
-715.748	167.985	-0.047	-0.067
-714.733	-200.000	0.049	-0.267
-713.718	-200.000	0.016	0.142
-712.704	-200.000	-0.001	-0.231
-711.689	480.339	0.063	-0.144
-710.675	35.729	0.123	-0.109
-709.660	-87.656	-0.291	-0.088
-708.645	-200.000	-0.010	0.057
-707.631	-200.000	0.038	-0.178
-706.616	208.578	-0.181	0.284
-705.602	-23.815	-0.102	0.062
-704.587	609.430	0.129	0.325
-703.572	-8.051	-0.120	-0.081
-702.558	232.645	-0.133	-0.220
-701.543	-86.405	0.155	-0.048
-700.529	-165.114	0.158	0.007
-699.514	138.936	-0.100	-0.133
-698.499	-200.000	0.026	0.199
-697.485	-122.346	0.077	-0.013
-696.470	-60.334	-0.190	0.081
-695.456	68.224	0.116	0.120
-694.441	-41.522	-0.301	0.156
-693.426	-200.000	0.021	0.214
-692.412	-67.322	-0.142	-0.056
-691.397	253.578	-0.024	-0.041
-690.383	-3.381	0.251	-0.175
-689.368	38.788	0.251	-0.225
-688.354	149.086	-0.235	0.319
-687.339	-200.000	-0.039	-0.208
-686.324	99.029	0.205	0.237
-685.310	-51.793	-0.150	0.070
-684.295	84.936	0.163	0.180
-683.281	288.597	-0.050	0.091
-682.266	48.258	-0.131	-0.123
-681.251	128.272	0.173	0.222
-680.237	-99.165	0.091	-0.023
-679.222	-106.242	-0.194	0.044
-678.208	297.163	-0.188	0.347
-677.193	5.370	-0.176	0.130
-676.178	446.242	0.087	0.192
-675.164	800.000	0.077	-0.267
-674.149	-55.209	0.174	0.078
-673.135	-200.000	-0.035	-0.389
-672.120	-200.000	0.058	-0.267
-671.105	-87.289	-0.220	0.067
-670.091	800.000	0.087	0.254
-669.076	213.662	0.069	-0.109
-668.062	423.576	-0.187	-0.404
-667.047	-148.972	-0.286	-0.023
-666.032	-25.751	-0.279	0.165
-665.018	68.453	-0.081	-0.084
-664.003	379.790	0.069	-0.143
-662.989	60.529	0.218	0.217
-661.974	216.926	0.078	-0.124
-660.959	-39.380	0.237	-0.125
-659.945	67.827	-0.091	-0.093
-658.930	800.000	0.057	-0.192
-657.916	9.618	-0.359	-0.273
-656.901	114.594	0.167	-0.204
-655.886	1.982	-0.157	-0.113
-654.872	27.368	0.028	-0.024
-653.857	-200.000	-0.012	-0.122
-652.843	-59.020	-0.246	0.107
-651.828	-200.000	0.018	0.139
-650.814	-147.277	0.114	0.010
-649.799	425.068	-0.056	-0.121
-648.784	-18.237	0.290	-0.182
-647.770	800.000	0.114	-0.468
-646.755	800.000	0.097	0.312
-645.741	101.841	0.071	-0.083
-644.726	-160.838	0.403	-0.021
-643.711	-65.769	0.264	-0.106
-642.697	-3.260	0.070	0.049
-641.682	63.683	-0.015	-0.015
-640.668	-200.000	0.002	-0.170
-639.653	-109.332	-0.416	-0.088
-638.638	52.489	-0.175	0.167
-637.624	69.828	0.197	0.204
-636.609	-144.576	0.345	0.032
-635.595	-86.708	-0.292	-0.090
-634.580	-183.217	0.166	-0.003
-633.565	-200.000	-0.002	0.345
-632.551	18.209	-0.258	-0.206
-631.536	-200.000	0.022	-0.151
-630.522	-194.192	0.132	0.001
-629.507	800.000	-0.042	-0.138
-628.492	391.587	-0.074	0.153
-627.478	5.554	-0.111	0.082
-626.463	-36.421	-0.147	-0.079
-625.449	13.525	0.220	-0.171
-624.434	437.876	-0.077	0.167
-623.419	-101.061	-0.255	-0.063
-622.405	-200.000	-0.032	-0.386
-621.390	-79.684	-0.204	-0.069
-620.376	49.461	0.207	-0.195
-619.361	109.670	-0.255	-0.306
-618.346	24.337	0.145	0.120
-617.332	-6.366	0.160	-0.109
-616.317	-200.000	-0.014	-0.169
-615.303	66.662	0.138	0.141
-614.288	-200.000	-0.032	0.158
-613.273	800.000	0.048	0.202
-612.259	278.802	0.107	-0.191
-611.244	-200.000	0.049	-0.270
-610.230	-7.990	-0.210	-0.142
-609.215	-85.728	-0.378	-0.117
-608.201	6.518	-0.228	-0.170
-607.186	800.000	-0.077	-0.232
-606.171	252.502	-0.202	0.345
-605.157	311.249	0.043	-0.081
-604.142	800.000	0.057	0.177
-603.128	-42.397	-0.064	-0.033
-602.113	-200.000	-0.017	0.318
-601.098	-43.216	0.367	0.186
-600.084	-110.343	-0.148	-0.031
-599.069	37.929	0.114	0.101
-598.055	8.861	-0.075	-0.057
-597.040	84.543	-0.131	-0.143
-596.025	-193.942	-0.155	-0.001
-595.011	-200.000	0.007	0.137
-593.996	-34.476	-0.266	0.146
-592.982	105.254	0.217	0.256
-591.967	-200.000	0.020	-0.099
-590.952	-15.604	0.116	0.074
-589.938	-62.735	-0.405	-0.168
-588.923	-124.463	-0.226	-0.035
-587.909	-125.774	0.034	0.005
-586.894	236.659	-0.142	0.236
-585.879	-111.050	-0.053	-0.011
-584.865	-167.757	-0.227	0.009
-583.850	-145.966	-0.507	-0.045
-582.836	104.407	-0.236	0.278
-581.821	-200.000	0.016	-0.182
-580.806	598.085	0.137	0.339
-579.792	162.921	0.084	-0.118
-578.777	800.000	-0.039	0.113
-577.763	-165.896	-0.091	0.004
-576.748	-12.510	0.351	-0.229
-575.733	-71.631	-0.080	0.030
-574.719	-134.604	0.285	-0.035
-573.704	239.452	-0.094	-0.156
-572.690	-130.900	-0.075	0.010
-571.675	-46.970	0.237	-0.116
-570.661	-200.000	0.299	-0.001
-569.646	-200.000	0.007	0.229
-568.631	-13.494	0.225	0.146
-567.617	-0.055	-0.240	-0.171
-566.602	104.571	0.216	-0.254
-565.588	-52.381	0.225	0.104
-564.573	-200.000	-0.006	-0.160
-563.558	210.041	-0.141	0.221
-562.544	-200.000	-0.001	-0.240
-561.529	9.057	0.201	-0.152
-560.515	-141.962	0.208	-0.021
-559.500	-95.409	-0.383	-0.103
-558.485	86.603	-0.122	-0.134
-557.471	62.538	0.181	-0.181
-556.456	458.898	-0.137	-0.305
-555.442	-91.764	-0.378	-0.107
-554.427	-200.000	0.008	0.340
-553.412	-82.315	-0.067	0.022
-552.398	-118.310	-0.420	-0.075
-551.383	800.000	-0.082	-0.232
-550.369	-11.679	0.304	0.200
-549.354	160.528	0.133	0.186
-548.339	800.000	0.009	-0.035
-547.325	11.329	-0.137	-0.105
-546.310	-86.352	0.328	0.101
-545.296	74.014	0.023	0.024
-544.281	-44.533	0.133	-0.067
-543.266	-59.996	-0.243	-0.104
-542.252	800.000	-0.072	0.233
-541.237	165.446	0.176	-0.249
-540.223	245.429	0.170	-0.285
-539.208	-200.000	0.005	-0.044
-538.193	-200.000	-0.016	0.130
-537.179	-200.000	0.038	-0.210
-536.164	57.081	-0.130	-0.127
-535.150	344.106	-0.185	0.362
-534.135	-76.818	-0.393	-0.137
-533.121	710.416	-0.071	0.187
-532.106	-86.863	-0.335	-0.102
-531.091	3.201	0.193	-0.140
-530.077	-196.865	0.124	-0.001
-529.062	212.424	-0.089	0.140
-528.048	-116.319	-0.117	0.022
-527.033	800.000	-0.053	0.186
-526.018	-200.000	-0.022	-0.115
-525.004	-67.801	-0.162	0.063
-523.989	178.914	-0.044	-0.064
-522.975	800.000	0.057	-0.242
-521.960	-200.000	0.040	-0.310
-520.945	-23.245	-0.230	0.138
-519.931	66.532	-0.029	0.029
-518.916	-54.918	0.345	-0.155
-517.902	172.493	0.203	0.291
-516.887	16.416	-0.110	-0.087
-515.872	-158.376	0.122	-0.007
-514.858	-144.733	-0.288	-0.026
-513.843	42.167	0.089	0.081
-512.829	233.598	-0.003	-0.005
-511.814	800.000	-0.046	0.179
-510.799	-79.129	0.151	0.051
-509.785	-200.000	-0.017	-0.277
-508.770	-13.769	-0.284	0.183
-507.756	-139.338	-0.172	-0.018
-506.741	-141.414	0.032	-0.003
-505.726	36.692	0.237	-0.209
-504.712	800.000	0.033	-0.134
-503.697	260.870	-0.051	-0.089
-502.683	33.795	-0.306	-0.265
-501.668	148.456	0.071	-0.096
-500.653	-99.784	0.058	0.015
-499.639	-200.000	0.005	0.075
-498.624	-49.471	0.185	0.088
-497.610	-62.317	0.277	-0.115
-496.595	-70.590	0.285	0.107
-495.581	-27.542	0.093	-0.054
-494.566	-200.000	0.021	-0.136
-493.551	167.119	0.103	-0.146
-492.537	-64.997	0.398	-0.160
-491.522	-68.954	0.046	-0.018
-490.508	800.000	-0.019	0.060
-489.493	-103.285	0.076	-0.018
-488.478	-97.444	0.219	-0.057
-487.464	429.714	-0.111	0.240
-486.449	-122.269	0.062	-0.010
-485.435	800.000	0.072	-0.289
-484.420	649.843	-0.082	-0.208
-483.405	-200.000	0.061	0.455
-482.391	-200.000	0.051	0.455
-481.376	-131.554	-0.262	0.034
-480.362	-200.000	-0.016	-0.115
-479.347	252.901	0.065	0.111
-478.332	201.527	-0.076	-0.117
-477.318	-41.832	-0.126	0.065
-476.303	139.327	0.104	-0.136
-475.289	-22.711	0.272	-0.163
-474.274	800.000	0.056	0.195
-473.259	-200.000	-0.012	-0.176
-472.245	10.013	-0.292	0.221
-471.230	-68.062	0.249	0.097
-470.216	82.381	0.230	0.248
-469.201	42.979	-0.142	-0.129
-468.186	-200.000	-0.038	0.271
-467.172	150.580	-0.209	0.283
-466.157	-200.000	-0.021	-0.109
-465.143	10.778	-0.205	-0.155
-464.128	-7.278	-0.098	-0.066
-463.113	800.000	0.091	-0.306
-462.099	84.548	0.020	-0.021
-461.084	-70.070	-0.143	-0.054
-460.070	-90.294	-0.093	0.027
-459.055	-184.503	-0.235	0.004
-458.040	-46.056	-0.145	-0.071
-457.026	327.637	-0.114	-0.218
-456.011	-200.000	0.015	-0.233
-454.997	89.168	-0.095	-0.106
-453.982	-97.293	-0.141	-0.036
-452.968	-133.620	-0.209	0.026
-451.953	-200.000	-0.018	0.173
-450.938	312.553	0.071	-0.133
-449.924	800.000	-0.061	-0.174
-448.909	-131.820	0.306	-0.040
-447.895	43.541	-0.171	0.155
-446.880	-64.503	0.053	0.022
-445.865	255.616	-0.106	-0.181
-444.851	472.518	-0.195	-0.437
-443.836	-137.755	0.087	-0.010
-442.822	-200.000	0.025	0.194
-441.807	-158.319	0.452	0.026
-440.792	-134.591	0.014	0.002
-439.778	-7.974	-0.265	0.178
-438.763	-200.000	-0.081	-0.360
-437.749	82.739	-0.174	-0.188
-436.734	-41.336	0.283	0.145
-435.719	379.125	0.033	-0.067
-434.705	11.830	-0.078	0.060
-433.690	-93.543	0.308	0.085
-432.676	333.034	-0.068	0.131
-431.661	-101.942	-0.151	-0.036
-430.646	-64.000	-0.204	0.083
-429.632	-58.288	-0.088	-0.038
-428.617	465.676	0.175	0.389
-427.603	17.118	0.119	0.094
-426.588	230.212	0.016	-0.026
-425.573	177.956	-0.168	-0.243
-424.559	-15.418	0.247	0.157
-423.544	333.227	-0.093	-0.179
-422.530	-200.000	0.005	0.215
-421.515	-93.790	-0.173	-0.047
-420.500	-95.548	0.033	-0.009
-419.486	-193.696	0.470	-0.004
-418.471	-145.056	0.157	-0.014
-417.457	83.363	-0.066	-0.071
-416.442	-10.190	-0.156	-0.103
-415.428	-200.000	0.008	0.315
-414.413	800.000	-0.028	0.083
-413.398	23.640	-0.160	-0.131
-412.384	-56.572	0.212	-0.093
-411.369	-95.221	-0.285	-0.076
-410.355	403.829	-0.155	-0.323
-409.340	-127.700	0.245	0.035
-408.325	-200.000	0.008	-0.119
-407.311	59.687	-0.181	-0.177
-406.296	-52.045	-0.260	0.120
-405.282	-80.475	-0.195	0.065
-404.267	800.000	-0.033	0.102
-403.252	-200.000	0.018	-0.187
-402.238	-73.001	-0.256	0.093
-401.223	80.295	-0.347	-0.371
-400.209	84.409	-0.145	0.157
-399.194	260.453	0.073	0.125
-398.179	533.160	-0.102	0.239
-397.165	-66.064	0.125	0.049
-396.150	717.950	-0.146	0.384
-395.136	800.000	-0.069	0.295
-394.121	800.000	-0.050	0.205
-393.106	7.512	0.138	-0.103
-392.092	201.189	0.127	0.194
-391.077	-200.000	0.013	0.099
-390.063	267.536	0.112	0.194
-389.048	318.896	0.100	0.188
-388.033	174.658	-0.193	0.278
-387.019	88.330	-0.027	-0.030
-386.004	-200.000	-0.008	0.168
-384.990	800.000	0.054	0.197
-383.975	-169.858	-0.236	0.008
-382.960	-117.603	0.379	-0.068
-381.946	15.759	0.290	-0.226
-380.931	-200.000	-0.040	-0.201
-379.917	-15.588	0.122	-0.078
-378.902	-135.300	-0.163	-0.019
-377.888	-71.514	-0.102	0.038
-376.873	-129.664	0.141	-0.019
-375.858	-76.408	0.172	-0.060
-374.844	-200.000	0.043	-0.455
-373.829	-200.000	0.020	-0.193
-372.815	461.561	0.045	0.100
-371.800	500.427	0.147	0.337
-370.785	-161.878	-0.138	-0.007
-369.771	-111.714	0.359	0.072
-368.756	103.616	-0.152	0.177
-367.742	-200.000	0.028	0.233
-366.727	51.510	-0.248	-0.234
-365.712	115.799	-0.037	-0.045
-364.698	31.102	0.158	-0.134
-363.683	253.438	-0.079	-0.134
-362.669	800.000	-0.060	-0.237
-361.654	32.257	-0.228	0.195
-360.639	-2.196	0.353	-0.246
-359.625	-104.590	0.189	0.043
-358.610	800.000	-0.043	0.147
-357.596	-147.010	-0.118	0.010
-356.581	19.213	-0.310	0.247
-355.566	482.694	0.125	0.281
-354.552	54.726	-0.099	-0.095
-353.537	607.365	0.107	0.265
-352.523	194.069	-0.054	-0.081
-351.508	-128.989	0.265	-0.037
-350.493	728.598	-0.129	0.342
-349.479	677.601	0.092	-0.238
-348.464	132.547	0.168	0.215
-347.450	-200.000	0.001	0.067
-346.435	-200.000	-0.020	-0.158
-345.420	40.056	0.166	-0.148
-344.406	-117.466	-0.088	0.016
-343.391	-51.222	-0.181	-0.084
-342.377	-132.374	0.107	0.014
-341.362	74.273	0.170	0.177
-340.348	168.355	-0.164	-0.231
-339.333	-22.022	-0.264	-0.159
-338.318	-106.111	-0.196	0.044
-337.304	-26.608	0.108	-0.063
-336.289	336.704	-0.093	0.179
-335.275	-10.385	0.416	0.273
-334.260	73.018	-0.086	0.089
-333.245	-200.000	0.007	0.054
-332.231	89.140	0.105	-0.116
-331.216	-127.649	0.094	-0.013
-330.202	-154.371	-0.399	-0.027
-329.187	-181.026	0.272	-0.005
-328.172	261.693	0.030	-0.052
-327.158	-200.000	-0.034	-0.171
-326.143	-143.588	0.290	0.027
-325.129	-200.000	0.049	0.320
-324.114	-89.154	0.298	-0.087
-323.099	800.000	-0.019	0.083
-322.085	-131.987	-0.191	0.025
-321.070	47.267	-0.215	-0.198
-320.056	33.296	-0.134	-0.115
-319.041	-200.000	-0.052	-0.230
-318.026	-26.905	0.293	0.169
-317.012	-200.000	-0.005	0.189
-315.997	-84.756	0.267	-0.083
-314.983	800.000	-0.008	0.030
-313.968	61.984	-0.146	-0.144
-312.953	-91.323	-0.212	0.060
-311.939	800.000	-0.043	-0.156
-310.924	-59.702	0.324	-0.137
-309.910	452.296	0.161	-0.352
-308.895	-200.000	-0.058	0.320
-307.880	300.348	-0.097	0.178
-306.866	-122.397	0.216	-0.035
-305.851	-40.195	-0.323	0.166
-304.837	-24.230	-0.103	-0.061
-303.822	-151.281	0.463	0.034
-302.807	134.656	0.101	0.129
-301.793	-200.000	0.031	0.435
-300.778	335.951	-0.176	0.337
-299.764	216.567	0.045	0.070
-298.749	-126.758	0.173	0.025
-297.735	-200.000	0.025	0.503
-296.720	153.917	-0.162	-0.219
-295.705	73.636	-0.287	-0.298
-294.691	-200.000	0.016	-0.181
-293.676	-117.715	0.247	-0.044
-292.662	372.890	-0.106	0.213
-291.647	-2.161	0.063	0.044
-290.632	-131.723	-0.138	-0.018
-289.618	-93.936	-0.133	-0.036
-288.603	-168.241	-0.227	-0.009
-287.589	-200.000	-0.005	-0.122
-286.574	19.901	-0.147	-0.117
-285.559	396.598	0.093	0.193
-284.545	-108.144	-0.330	-0.071
-283.530	800.000	0.059	-0.190
-282.516	-67.437	-0.150	-0.058
-281.501	-200.000	-0.018	-0.465
-280.486	35.687	-0.160	0.139
-279.472	800.000	0.084	0.359
-278.457	-200.000	0.040	0.349
-277.443	-200.000	-0.036	0.271
-276.428	-113.590	0.080	0.015
-275.413	800.000	0.051	0.207
-274.399	-73.960	-0.135	-0.048
-273.384	639.839	0.065	-0.163
-272.370	-26.475	0.208	0.121
-271.355	320.588	-0.035	0.066
-270.340	401.079	0.141	-0.293
-269.326	-82.544	-0.008	-0.002
-268.311	-200.000	-0.014	-0.118
-267.297	-80.835	0.244	0.080
-266.282	800.000	-0.007	0.018
-265.267	-167.604	-0.254	0.010
-264.253	-18.883	-0.108	0.066
-263.238	146.695	0.090	-0.120
-262.224	565.368	-0.039	-0.093
-261.209	149.412	-0.120	0.161
-260.195	85.336	-0.081	-0.088
-259.180	682.970	0.073	0.187
-258.165	-121.277	-0.131	0.022
-257.151	796.985	0.173	0.471
-256.136	-200.000	-0.007	-0.192
-255.122	398.391	-0.101	0.209
-254.107	93.789	-0.125	-0.139
-253.092	800.000	-0.014	0.043
-252.078	62.956	-0.080	-0.079
-251.063	-163.166	0.268	-0.013
-250.049	205.554	0.136	-0.209
-249.034	105.518	0.077	-0.089
-248.019	54.779	-0.316	-0.301
-247.005	-200.000	0.003	0.203
-245.990	210.062	0.106	-0.164
-244.976	408.501	-0.142	-0.297
-243.961	89.029	-0.114	0.125
-242.946	-112.137	-0.264	0.052
-241.932	-145.671	0.065	0.006
-240.917	-164.545	-0.264	-0.012
-239.903	-49.227	-0.223	-0.105
-238.888	800.000	-0.063	-0.174
-237.873	-112.102	-0.240	-0.048
-236.859	137.613	-0.234	0.303
-235.844	116.677	-0.171	0.207
-234.830	-200.000	0.014	-0.297
-233.815	-49.165	-0.336	0.159
-232.800	191.262	0.117	0.173
-231.786	-30.699	-0.437	-0.244
-230.771	800.000	-0.083	0.348
-229.757	491.277	0.097	-0.220
-228.742	-200.000	0.006	0.068
-227.727	800.000	-0.086	0.260
-226.713	-135.556	-0.112	-0.013
-225.698	800.000	-0.047	0.134
-224.684	-184.727	0.514	-0.008
-223.669	260.130	-0.081	0.138
-222.655	51.150	-0.141	-0.132
-221.640	-87.456	-0.049	-0.015
-220.625	162.006	-0.198	-0.274
-219.611	-54.775	0.106	-0.047
-218.596	239.283	0.099	-0.163
-217.582	330.055	-0.080	-0.151
-216.567	122.570	0.291	0.358
-215.552	-5.872	-0.154	0.104
-214.538	-97.528	-0.269	-0.069
-213.523	-11.928	0.249	0.161
-212.509	458.141	0.053	-0.116
-211.494	276.415	0.082	-0.144
-210.479	-77.118	0.291	0.100
-209.465	-22.056	0.180	-0.108
-208.450	543.443	0.110	0.260
-207.436	-200.000	-0.003	0.029
-206.421	226.913	0.077	0.123
-205.406	12.943	0.223	-0.170
-204.392	177.114	0.040	-0.057
-203.377	16.246	0.040	0.031
-202.363	420.305	0.161	-0.340
-201.348	249.367	-0.054	0.089
-200.333	-70.205	0.412	-0.154
-199.319	-192.210	0.197	-0.002
-198.304	-6.728	0.186	-0.125
-197.290	-131.335	-0.063	0.008
-196.275	375.909	-0.038	-0.077
-195.260	112.857	0.078	0.093
-194.246	-72.377	0.191	0.070
-193.231	-148.676	-0.036	-0.003
-192.217	-97.696	0.247	-0.063
-191.202	-126.833	0.239	-0.035
-190.187	-36.592	0.135	0.071
-189.173	269.926	-0.197	0.341
-188.158	-200.000	-0.017	0.324
-187.144	129.689	0.409	-0.514
-186.129	-102.668	0.351	-0.082
-185.114	192.095	-0.041	0.060
-184.100	-27.520	-0.131	0.075
-183.085	800.000	0.045	-0.173
-182.071	-92.583	0.269	0.074
-181.056	-100.715	-0.150	0.036
-180.042	230.022	0.171	0.274
-179.027	-117.781	0.259	0.046
-178.012	105.124	0.018	-0.021
-176.998	-144.134	-0.379	-0.035
-175.983	281.354	-0.126	-0.222
-174.969	-200.000	-0.020	0.323
-173.954	-157.729	0.029	0.002
-172.939	146.869	0.291	0.385
-171.925	-102.754	0.187	0.044
-170.910	800.000	0.172	-0.531
-169.896	-39.407	0.022	0.011
-168.881	-45.036	0.080	0.039
-167.866	-195.495	-0.252	0.002
-166.852	122.651	0.206	0.253
-165.837	-111.274	0.364	0.073
-164.823	-128.578	-0.154	0.021
-163.808	66.544	-0.316	-0.316
-162.793	28.713	0.241	-0.200
-161.779	249.882	-0.024	0.040
-160.764	284.053	-0.085	0.151
-159.750	274.791	0.097	0.169
-158.735	37.500	0.036	0.031
-157.720	-107.078	0.121	0.026
-156.706	-200.000	-0.018	0.198
-155.691	-200.000	-0.096	0.498
-154.677	-200.000	-0.004	0.064
-153.662	800.000	0.053	-0.199
-152.647	-42.702	0.218	-0.109
-151.633	-200.000	0.032	0.206
-150.618	-200.000	0.022	0.238
-149.604	800.000	0.109	-0.394
-148.589	-60.813	0.099	0.041
-147.574	36.877	0.165	-0.143
-146.560	28.643	0.283	0.235
-145.545	-125.490	-0.323	-0.048
-144.531	-36.719	-0.236	0.125
-143.516	800.000	0.069	0.195
-142.502	-122.606	-0.186	-0.030
-141.487	-130.948	0.378	-0.050
-140.472	-132.137	0.338	-0.043
-139.458	45.679	-0.086	-0.078
-138.443	-161.843	-0.180	0.009
-137.429	5.858	-0.166	-0.120
-136.414	40.043	-0.150	0.132
-135.399	-71.529	-0.036	-0.013
-134.385	-1.802	0.268	-0.186
-133.370	13.160	0.237	-0.180
-132.356	67.298	-0.043	-0.043
-131.341	-103.637	-0.272	0.063
-130.326	-45.591	0.170	-0.083
-129.312	-58.415	-0.095	0.041
-128.297	800.000	0.065	0.232
-127.283	154.669	-0.120	0.162
-126.268	-61.869	-0.133	-0.055
-125.253	-200.000	-0.011	0.065
-124.239	768.215	-0.008	-0.022
-123.224	-43.518	0.062	-0.031
