DTS Sentinel unit serial number:	SN413079Multiplexer serial number:	ORYXHardware model number:	OX4-SRSoftware version number:	ORYX F/W v4.00 Oryx Data Collector v3.7.2.0data status	okinstallation	princeton_trtdifferential loss correction	single-endedforward channel	channel 3reverse channel	N/Adate	2019/09/10time	23:18:10forward acquisition time	60.00reverse acquisition time	0.00gamma	496.2192k internal	0.2331k external	0.2331temperature offset calibration	0.9924default loss term (dB/km)	0.3790temperature slope calibration	1.0000multiplexer offset coefficient	1.0000multiplexer slope coefficient	1.0000fibre end	0.00T internal ref (°C)	29.84T ext. ref 1 (°C)	-0.29T ext. ref 2 (°C)	23.46length (m)	temperature (°C)	Stokes	anti-Stokes-747.200	-200.000	0.004	-0.286
-746.185	1.619	0.156	-0.113
-745.171	-188.094	0.089	-0.001
-744.156	-110.376	-0.184	0.039
-743.142	582.420	0.107	-0.264
-742.127	-57.732	-0.246	-0.108
-741.112	-182.261	-0.211	-0.004
-740.098	63.732	-0.285	-0.288
-739.083	216.484	0.062	-0.099
-738.069	50.176	-0.191	0.182
-737.054	70.071	0.205	0.213
-736.039	235.780	-0.105	-0.174
-735.025	-83.050	0.255	-0.083
-734.010	-74.166	-0.213	0.078
-732.996	491.209	0.070	-0.161
-731.981	57.010	-0.270	-0.264
-730.966	169.193	0.102	0.146
-729.952	-23.524	0.170	0.103
-728.937	5.809	0.221	0.165
-727.923	515.595	0.116	0.273
-726.908	800.000	-0.031	-0.128
-725.894	-68.426	-0.247	0.096
-724.879	-87.447	-0.234	0.071
-723.864	38.489	-0.134	-0.120
-722.850	60.238	0.256	-0.255
-721.835	-23.308	-0.362	0.219
-720.821	-200.000	0.005	-0.306
-719.806	-77.866	-0.368	-0.128
-718.791	-53.388	-0.127	0.059
-717.777	132.326	-0.072	-0.093
-716.762	-100.907	0.101	-0.025
-715.748	-83.484	-0.294	0.095
-714.733	-6.821	-0.338	-0.231
-713.718	800.000	0.075	0.237
-712.704	-81.056	-0.172	0.057
-711.689	-59.704	-0.224	-0.097
-710.675	-38.595	-0.403	-0.214
-709.660	-51.732	-0.314	-0.147
-708.645	200.342	-0.269	-0.416
-707.631	-84.039	-0.209	-0.067
-706.616	-126.124	0.144	-0.022
-705.602	500.992	-0.170	0.394
-704.587	6.773	0.277	0.207
-703.572	-3.409	0.366	0.256
-702.558	136.595	-0.184	0.242
-701.543	56.502	-0.249	-0.243
-700.529	-193.746	0.283	0.002
-699.514	24.060	-0.175	-0.145
-698.499	31.582	0.063	-0.055
-697.485	-131.538	-0.218	0.029
-696.470	100.139	-0.167	0.195
-695.456	-100.837	-0.264	-0.065
-694.441	44.329	0.147	-0.136
-693.426	-200.000	0.015	-0.258
-692.412	-63.937	0.088	-0.036
-691.397	749.225	0.071	0.194
-690.383	-50.994	0.079	0.037
-689.368	-147.349	0.143	0.012
-688.354	138.569	-0.290	0.382
-687.339	58.250	-0.136	-0.133
-686.324	-17.985	-0.346	0.218
-685.310	48.502	-0.208	-0.196
-684.295	-156.588	0.203	0.013
-683.281	-200.000	0.045	0.345
-682.266	-60.031	-0.168	-0.072
-681.251	800.000	0.053	-0.158
-680.237	366.904	-0.078	-0.159
-679.222	-32.634	0.251	-0.140
-678.208	-200.000	-0.028	0.128
-677.193	-125.748	0.157	0.024
-676.178	38.230	0.055	0.050
-675.164	-106.347	0.036	-0.008
-674.149	-101.500	-0.288	-0.070
-673.135	-106.489	-0.275	0.062
-672.120	-155.892	-0.235	0.015
-671.105	-82.921	0.175	0.057
-670.091	800.000	0.089	-0.380
-669.076	-106.785	-0.268	-0.060
-668.062	800.000	-0.051	-0.176
-667.047	-200.000	-0.019	0.160
-666.032	38.073	-0.200	0.178
-665.018	47.957	0.232	-0.218
-664.003	-200.000	0.025	0.331
-662.989	-61.780	-0.382	0.161
-661.974	-108.579	-0.282	-0.061
-660.959	355.533	0.066	-0.133
-659.945	277.607	-0.174	-0.311
-658.930	201.034	0.042	-0.065
-657.916	37.916	-0.319	-0.285
-656.901	-138.589	0.156	0.017
-655.886	-200.000	0.009	0.151
-654.872	313.531	0.092	-0.174
-653.857	44.161	0.141	-0.130
-652.843	729.361	0.187	-0.501
-651.828	-200.000	-0.015	-0.184
-650.814	-85.394	0.343	0.107
-649.799	93.121	-0.203	-0.230
-648.784	-94.405	-0.221	0.061
-647.770	800.000	0.061	0.194
-646.755	630.347	-0.170	-0.431
-645.741	-200.000	-0.031	-0.301
-644.726	399.579	-0.140	-0.295
-643.711	-200.000	-0.003	-0.058
-642.697	246.314	0.136	-0.230
-641.682	127.880	-0.200	-0.255
-640.668	-80.004	0.306	0.103
-639.653	-54.810	0.185	-0.084
-638.638	-36.345	-0.256	0.138
-637.624	800.000	-0.048	0.154
-636.609	-78.621	-0.213	0.073
-635.595	-41.399	0.159	0.082
-634.580	53.097	-0.074	0.071
-633.565	213.708	-0.239	-0.379
-632.551	103.310	-0.101	0.119
-631.536	-89.255	-0.151	-0.045
-630.522	-200.000	-0.002	0.119
-629.507	-136.840	0.318	0.037
-628.492	-200.000	0.006	0.218
-627.478	44.583	-0.118	0.108
-626.463	123.637	-0.156	0.196
-625.449	-131.711	0.219	-0.029
-624.434	-99.028	-0.213	-0.054
-623.419	-125.468	-0.154	0.023
-622.405	-13.445	-0.088	-0.057
-621.390	-75.812	-0.241	0.085
-620.376	-32.067	-0.158	-0.089
-619.361	-36.345	0.479	-0.259
-618.346	-94.878	-0.153	0.042
-617.332	800.000	0.104	-0.293
-616.317	-94.374	-0.335	-0.092
-615.303	-200.000	-0.042	0.309
-614.288	-38.807	0.242	0.128
-613.273	-89.142	-0.066	-0.019
-612.259	-35.937	-0.183	0.099
-611.244	93.696	-0.066	-0.075
-610.230	121.787	-0.027	0.033
-609.215	2.781	0.219	0.159
-608.201	246.873	-0.138	0.233
-607.186	45.609	0.236	0.218
-606.171	-134.521	-0.146	0.018
-605.157	217.609	0.050	-0.080
-604.142	-200.000	0.037	-0.416
-603.128	-23.837	-0.221	-0.133
-602.113	-200.000	0.052	-0.387
-601.098	800.000	0.111	-0.320
-600.084	-200.000	0.071	0.483
-599.069	-56.266	-0.133	0.059
-598.055	136.532	0.080	0.104
-597.040	-45.200	0.199	0.099
-596.025	6.917	-0.111	0.083
-595.011	800.000	0.023	0.094
-593.996	800.000	0.120	0.362
-592.982	82.176	0.057	-0.062
-591.967	-200.000	-0.033	0.230
-590.952	-91.609	0.334	0.095
-589.938	-200.000	0.013	-0.212
-588.923	-41.840	0.128	-0.066
-587.909	-76.335	-0.044	0.016
-586.894	383.584	-0.078	-0.160
-585.879	-73.941	0.197	0.071
-584.865	800.000	-0.057	0.224
-583.850	-200.000	-0.014	-0.114
-582.836	-200.000	0.019	0.155
-581.821	295.632	-0.083	-0.152
-580.806	-155.968	0.360	0.023
-579.792	800.000	-0.047	-0.174
-578.777	800.000	-0.037	-0.159
-577.763	123.353	0.302	-0.379
-576.748	86.487	-0.088	-0.097
-575.733	-12.009	0.299	-0.196
-574.719	459.688	0.058	-0.130
-573.704	-8.450	-0.209	0.140
-572.690	-76.858	-0.385	-0.135
-571.675	-200.000	-0.023	0.322
-570.661	416.180	-0.063	0.134
-569.646	-159.207	-0.074	-0.004
-568.631	-42.982	0.222	-0.113
-567.617	-200.000	0.019	-0.202
-566.602	-27.601	-0.249	-0.145
-565.588	158.533	-0.087	0.121
-564.573	646.093	0.036	0.092
-563.558	800.000	0.018	-0.054
-562.544	91.750	-0.128	-0.144
-561.529	-200.000	0.082	-0.414
-560.515	-70.700	-0.122	0.046
-559.500	-89.528	-0.127	0.037
-558.485	213.382	0.146	-0.231
-557.471	36.794	-0.369	-0.326
-556.456	435.163	0.199	-0.432
-555.442	-107.381	0.379	0.083
-554.427	78.503	-0.135	0.144
-553.412	-54.285	-0.083	0.038
-552.398	-200.000	-0.010	0.234
-551.383	-200.000	-0.026	-0.142
-550.369	-168.113	-0.068	-0.003
-549.354	-38.685	-0.316	0.166
-548.339	-200.000	0.004	0.211
-547.325	571.282	-0.119	0.290
-546.310	-102.936	0.219	0.052
-545.296	-200.000	-0.010	0.131
-544.281	-114.811	-0.286	-0.055
-543.266	788.272	0.035	-0.095
-542.252	187.824	-0.137	-0.205
-541.237	102.824	-0.102	-0.119
-540.223	-38.357	0.201	0.106
-539.208	87.834	0.153	0.170
-538.193	146.987	0.248	-0.333
-537.179	-87.116	-0.039	0.012
-536.164	-59.156	0.326	0.140
-535.150	800.000	-0.054	-0.228
-534.135	152.142	0.130	-0.177
-533.121	239.854	0.085	-0.141
-532.106	-120.762	0.193	0.033
-531.091	185.650	0.209	0.310
-530.077	34.164	-0.247	0.215
-529.062	-46.756	0.019	-0.009
-528.048	-40.609	0.090	0.047
-527.033	621.224	-0.139	0.350
-526.018	1.102	-0.298	0.213
-525.004	75.672	-0.095	0.101
-523.989	4.640	0.026	-0.019
-522.975	-200.000	-0.003	0.234
-521.960	-100.548	0.077	-0.019
-520.945	26.388	0.182	0.152
-519.931	238.009	0.196	-0.324
-518.916	-181.686	-0.370	0.007
-517.902	800.000	0.075	0.310
-516.887	-79.303	0.100	0.034
-515.872	800.000	0.085	0.243
-514.858	-161.422	0.337	-0.017
-513.843	-200.000	-0.072	0.442
-512.829	-63.096	-0.081	0.033
-511.814	-200.000	0.090	-0.486
-510.799	-117.766	-0.089	-0.016
-509.785	-200.000	-0.066	0.388
-508.770	-200.000	0.021	-0.106
-507.756	131.056	0.150	0.192
-506.741	255.601	0.021	-0.035
-505.726	283.464	0.140	-0.251
-504.712	800.000	-0.017	0.058
-503.697	157.516	-0.096	0.132
-502.683	47.722	-0.060	0.056
-501.668	-60.302	-0.374	-0.159
-500.653	-200.000	-0.039	-0.352
-499.639	184.647	-0.127	0.188
-498.624	800.000	-0.102	-0.340
-497.610	54.249	0.251	0.241
-496.595	-157.054	0.254	0.015
-495.581	175.133	0.153	0.222
-494.566	104.109	0.156	-0.183
-493.551	-4.278	-0.214	0.148
-492.537	482.169	-0.032	-0.073
-491.522	793.271	0.166	-0.456
-490.508	363.192	0.175	-0.350
-489.493	56.617	-0.118	-0.115
-488.478	609.067	0.146	-0.364
-487.464	-83.183	0.344	0.110
-486.449	-62.984	-0.074	-0.031
-485.435	63.171	-0.197	-0.197
-484.420	189.967	0.145	-0.217
-483.405	262.761	0.093	-0.161
-482.391	-2.881	0.035	0.024
-481.376	-59.598	-0.184	0.079
-480.362	-29.665	0.227	-0.129
-479.347	-200.000	-0.013	0.180
-478.332	-200.000	-0.043	-0.186
-477.318	-19.070	0.352	0.218
-476.303	-32.773	-0.110	0.061
-475.289	-144.802	0.301	-0.028
-474.274	-110.298	-0.175	0.036
-473.259	-200.000	-0.055	-0.279
-472.245	-13.221	-0.070	0.045
-471.230	-200.000	0.032	-0.250
-470.216	29.517	0.220	-0.187
-469.201	-200.000	0.013	-0.099
-468.186	648.341	0.024	-0.061
-467.172	800.000	0.073	0.208
-466.157	79.533	-0.297	-0.318
-465.143	800.000	0.075	0.287
-464.128	147.330	-0.060	0.081
-463.113	800.000	0.045	-0.170
-462.099	223.565	0.149	0.239
-461.084	-122.840	0.417	-0.067
-460.070	-200.000	0.016	-0.228
-459.055	-200.000	-0.065	-0.295
-458.040	-200.000	0.003	-0.043
-457.026	-100.325	0.158	0.039
-456.011	304.373	0.118	0.217
-454.997	-135.616	0.256	0.030
-453.982	-67.033	-0.069	0.027
-452.968	-17.105	-0.172	0.108
-451.953	-200.000	-0.002	0.177
-450.938	-49.605	-0.060	-0.029
-449.924	-105.644	0.168	-0.038
-448.909	-163.774	-0.156	0.007
-447.895	95.013	0.273	0.310
-446.880	-104.263	0.262	0.060
-445.865	35.070	0.183	0.159
-444.851	326.044	0.142	0.270
-443.836	-97.608	-0.092	0.024
-442.822	27.308	0.192	-0.160
-441.807	-80.193	0.133	-0.044
-440.792	-106.490	-0.372	0.083
-439.778	-38.029	-0.113	-0.060
-438.763	179.183	-0.106	-0.154
-437.749	45.866	0.070	-0.064
-436.734	-6.518	0.248	0.168
-435.719	-84.899	-0.225	0.070
-434.705	76.703	-0.112	0.118
-433.690	-56.062	0.224	0.099
-432.676	-51.789	-0.302	0.140
-431.661	-121.762	-0.181	-0.030
-430.646	543.468	-0.007	0.017
-429.632	-200.000	0.012	-0.061
-428.617	71.007	-0.178	0.184
-427.603	6.300	0.194	0.143
-426.588	800.000	-0.060	-0.196
-425.573	167.112	-0.155	-0.218
-424.559	800.000	0.037	-0.114
-423.544	39.103	0.042	0.038
-422.530	-82.955	0.343	-0.110
-421.515	-14.440	0.036	0.023
-420.500	62.647	-0.131	0.130
-419.486	109.770	-0.174	-0.207
-418.471	800.000	0.071	0.212
-417.457	-200.000	0.041	-0.200
-416.442	44.767	0.015	0.014
-415.428	-102.780	0.328	-0.078
-414.413	281.200	0.074	-0.131
-413.398	-200.000	-0.021	0.218
-412.384	-200.000	-0.006	0.079
-411.369	800.000	0.027	0.083
-410.355	800.000	-0.051	-0.149
-409.340	3.239	0.085	0.061
-408.325	-128.249	0.183	-0.026
-407.311	-95.501	0.264	0.070
-406.296	-92.404	-0.236	0.066
-405.282	783.953	-0.053	-0.143
-404.267	-200.000	0.052	0.245
-403.252	-200.000	0.008	-0.159
-402.238	-125.533	-0.300	-0.045
-401.223	-11.291	0.132	0.086
-400.209	18.740	0.226	-0.179
-399.194	173.065	-0.138	0.197
-398.179	800.000	-0.074	0.227
-397.165	800.000	0.105	-0.315
-396.150	-148.557	0.011	-0.001
-395.136	-95.443	0.168	-0.045
-394.121	800.000	-0.042	0.133
-393.106	-100.005	-0.080	0.020
-392.092	-116.431	0.144	0.026
-391.077	281.624	0.135	0.240
-390.063	62.686	-0.054	0.054
-389.048	33.477	0.153	-0.132
-388.033	71.405	-0.090	0.092
-387.019	-85.720	0.181	0.056
-386.004	-59.934	-0.131	-0.055
-384.990	-200.000	0.018	0.102
-383.975	-200.000	-0.004	-0.272
-382.960	-200.000	-0.051	-0.349
-381.946	307.165	-0.061	-0.113
-380.931	-200.000	0.012	0.252
-379.917	-100.021	0.218	0.054
-378.902	-200.000	-0.017	-0.425
-377.888	542.242	-0.136	-0.321
-376.873	-112.784	0.318	0.063
-375.858	-135.896	0.143	-0.017
-374.844	-200.000	0.020	0.219
-373.829	800.000	0.073	0.300
-372.815	444.069	-0.049	0.108
-371.800	131.682	0.014	-0.018
-370.785	-62.375	0.284	0.117
-369.771	-145.154	-0.219	0.020
-368.756	63.901	0.183	0.183
-367.742	328.843	-0.025	0.047
-366.727	-200.000	-0.014	0.076
-365.712	47.510	-0.078	0.072
-364.698	-1.280	-0.184	-0.129
-363.683	-64.726	0.195	-0.078
-362.669	-124.018	-0.249	-0.039
-361.654	-110.264	-0.362	0.075
-360.639	-67.120	0.214	0.083
-359.625	-200.000	-0.057	0.532
-358.610	-66.018	-0.276	0.109
-357.596	-14.391	0.199	0.127
-356.581	88.858	-0.256	-0.283
-355.566	-200.000	-0.045	0.214
-354.552	-200.000	-0.037	0.323
-353.537	121.365	-0.055	-0.068
-352.523	-94.408	0.141	-0.038
-351.508	90.027	-0.060	0.066
-350.493	156.028	-0.100	0.137
-349.479	76.274	0.079	0.082
-348.464	184.617	0.091	-0.134
-347.450	428.444	-0.179	0.382
-346.435	-29.699	0.409	-0.231
-345.420	-85.774	0.089	-0.027
-344.406	695.439	-0.063	-0.164
-343.391	20.912	-0.232	0.186
-342.377	-114.820	-0.220	-0.042
-341.362	-8.289	-0.317	-0.212
-340.348	-67.812	-0.214	-0.083
-339.333	800.000	-0.162	0.449
-338.318	70.672	0.031	0.032
-337.304	113.840	0.170	0.204
-336.289	9.044	0.219	-0.164
-335.275	-73.406	-0.373	0.135
-334.260	-2.294	0.203	-0.141
-333.245	-33.488	-0.247	-0.135
-332.231	-200.000	-0.034	-0.391
-331.216	254.370	0.111	-0.188
-330.202	800.000	-0.046	-0.143
-329.187	-98.214	-0.263	-0.067
-328.172	-200.000	0.001	-0.071
-327.158	-102.600	-0.427	0.101
-326.143	-148.964	0.288	0.023
-325.129	-94.403	-0.097	0.026
-324.114	-134.929	-0.291	0.035
-323.099	-200.000	-0.020	0.195
-322.085	156.997	-0.149	0.204
-321.070	13.745	-0.054	0.041
-320.056	-200.000	0.006	0.081
-319.041	24.047	-0.087	0.071
-318.026	606.977	-0.093	-0.229
-317.012	-89.575	0.248	0.072
-315.997	-126.057	-0.285	-0.042
-314.983	-18.954	-0.008	0.005
-313.968	800.000	0.033	0.108
-312.953	800.000	0.015	-0.057
-311.939	15.831	-0.202	0.158
-310.924	16.940	-0.144	0.113
-309.910	72.247	-0.183	-0.188
-308.895	800.000	-0.101	0.287
-307.880	800.000	0.036	-0.139
-306.866	-200.000	0.011	-0.188
-305.851	739.593	0.010	0.028
-304.837	-62.307	0.182	0.075
-303.822	-34.067	0.049	0.027
-302.807	800.000	-0.047	0.132
-301.793	-200.000	-0.028	-0.268
-300.778	487.963	0.095	-0.215
-299.764	-200.000	0.074	-0.338
-298.749	-200.000	0.008	-0.132
-297.735	-106.314	-0.216	0.048
-296.720	-94.389	-0.201	0.054
-295.705	255.713	0.089	0.151
-294.691	632.982	0.068	0.171
-293.676	86.876	-0.287	0.313
-292.662	800.000	-0.103	-0.302
-291.647	-128.792	0.166	-0.023
-290.632	-20.490	0.175	0.106
-289.618	208.424	0.141	0.218
-288.603	-66.256	-0.097	0.038
-287.589	377.278	-0.175	0.354
-286.574	427.074	-0.027	0.058
-285.559	-126.438	-0.311	0.046
-284.545	-7.763	0.298	-0.199
-283.530	170.430	0.149	0.210
-282.516	563.660	-0.101	0.243
-281.501	-200.000	0.039	-0.214
-280.486	-32.698	0.206	-0.113
-279.472	-200.000	0.323	0.000
-278.457	191.751	0.156	0.232
-277.443	-200.000	-0.074	-0.351
-276.428	29.958	-0.168	0.142
-275.413	199.761	0.053	0.081
-274.399	-200.000	-0.065	0.316
-273.384	-67.312	-0.151	0.059
-272.370	-55.809	-0.318	-0.141
-271.355	126.615	0.098	0.122
-270.340	800.000	-0.017	0.048
-269.326	-200.000	-0.034	-0.293
-268.311	28.086	-0.158	-0.132
-267.297	-200.000	-0.041	0.196
-266.282	800.000	0.047	0.195
-265.267	800.000	-0.113	0.355
-264.253	477.539	0.065	0.146
-263.238	-200.000	0.010	-0.115
-262.224	-72.179	-0.208	-0.076
-261.209	800.000	0.034	0.097
-260.195	-71.041	-0.221	-0.082
-259.180	311.327	-0.039	-0.073
-258.165	-200.000	0.030	-0.264
-257.151	800.000	-0.037	-0.115
-256.136	127.555	0.145	-0.182
-255.122	-30.536	-0.284	0.159
-254.107	-130.692	0.236	-0.031
-253.092	264.917	-0.120	-0.206
-252.078	61.283	-0.280	0.274
-251.063	-5.816	0.092	-0.062
-250.049	16.406	0.207	-0.161
-249.034	-127.510	0.569	0.082
-248.019	-102.984	-0.188	0.044
-247.005	12.092	-0.069	0.053
-245.990	263.326	0.125	-0.214
-244.976	496.448	-0.065	0.148
-243.961	-200.000	-0.021	-0.185
-242.946	800.000	-0.106	-0.400
-241.932	-55.539	0.376	-0.166
-240.917	-200.000	-0.004	0.020
-239.903	69.723	-0.124	0.126
-238.888	-93.602	0.153	0.042
-237.873	500.918	0.163	0.370
-236.859	-33.889	-0.116	0.063
-235.844	800.000	0.040	-0.158
-234.830	800.000	0.088	0.354
-233.815	-125.154	-0.470	-0.071
-232.800	-138.061	-0.288	-0.032
-231.786	-200.000	-0.005	-0.144
-230.771	-79.733	0.137	-0.046
-229.757	673.880	0.158	-0.404
-228.742	-100.666	-0.414	0.101
-227.727	-167.752	-0.136	-0.005
-226.713	-88.370	0.281	-0.083
-225.698	-65.447	-0.349	-0.138
-224.684	2.721	-0.168	0.120
-223.669	149.376	0.112	-0.149
-222.655	-62.972	0.302	-0.123
-221.640	-121.682	0.147	0.024
-220.625	-200.000	0.028	-0.278
-219.611	-200.000	0.025	0.243
-218.596	328.631	-0.121	0.229
-217.582	-200.000	-0.016	-0.380
-216.567	-200.000	0.001	0.048
-215.552	77.356	-0.100	-0.105
-214.538	-67.514	-0.290	0.112
-213.523	-200.000	-0.016	0.309
-212.509	114.039	0.281	0.337
-211.494	-200.000	0.021	0.295
-210.479	278.252	0.089	0.156
-209.465	178.320	-0.141	-0.203
-208.450	124.992	-0.177	-0.220
-207.436	-70.092	0.077	0.029
-206.421	377.710	0.075	0.152
-205.406	436.695	-0.095	-0.204
-204.392	254.385	-0.188	-0.317
-203.377	-200.000	0.037	0.250
-202.363	-52.086	0.164	-0.075
-201.348	32.915	-0.155	0.133
-200.333	-54.256	-0.168	-0.075
-199.319	681.809	-0.079	-0.202
-198.304	-181.794	-0.212	0.004
-197.290	83.560	0.156	-0.167
-196.275	560.873	-0.020	0.049
-195.260	80.742	-0.145	-0.154
-194.246	231.731	0.149	0.241
-193.231	-69.460	0.183	0.069
-192.217	800.000	-0.097	0.321
-191.202	-200.000	-0.009	0.180
-190.187	-49.748	-0.143	-0.067
-189.173	18.706	0.163	-0.129
-188.158	93.023	0.062	-0.069
-187.144	-145.246	-0.302	-0.027
-186.129	-114.695	0.269	-0.051
-185.114	209.139	-0.054	-0.083
-184.100	-21.671	-0.167	0.100
-183.085	-73.332	-0.171	0.062
-182.071	0.641	0.095	0.067
-181.056	68.522	0.291	-0.294
-180.042	11.606	-0.198	0.149
-179.027	800.000	-0.070	-0.194
-178.012	-51.384	-0.182	-0.084
-176.998	800.000	-0.088	-0.245
-175.983	65.032	0.256	0.254
-174.969	-141.343	0.118	-0.012
-173.954	77.521	0.353	0.370
-172.939	5.695	0.321	-0.233
-171.925	-104.440	0.199	-0.045
-170.910	245.618	0.064	-0.106
-169.896	432.098	0.084	0.179
-168.881	-8.816	0.113	-0.074
-167.866	20.688	0.191	0.152
-166.852	431.477	-0.069	-0.148
-165.837	800.000	0.034	-0.094
-164.823	147.895	0.246	0.327
-163.808	-143.217	0.307	0.029
-162.793	70.920	-0.223	-0.228
-161.779	291.225	-0.133	-0.239
-160.764	128.105	0.312	0.391
-159.750	800.000	-0.015	-0.055
-158.735	49.747	-0.071	0.065
-157.720	-200.000	-0.007	-0.215
-156.706	489.709	0.002	0.004
-155.691	800.000	0.115	0.333
-154.677	-200.000	-0.028	-0.253
-153.662	78.767	-0.108	0.113
-152.647	-31.969	-0.160	-0.088
-151.633	-200.000	0.019	0.175
-150.618	286.243	0.038	-0.067
-149.604	163.497	-0.086	-0.119
-148.589	-22.410	0.099	-0.059
-147.574	103.380	-0.162	-0.187
-146.560	41.603	-0.109	0.097
-145.545	-31.040	-0.172	0.095
-144.531	-84.839	0.235	0.073
-143.516	-15.710	0.132	-0.083
-142.502	207.995	-0.178	0.273
-141.487	239.909	-0.154	0.251
-140.472	392.514	0.119	0.244
-139.458	667.189	-0.038	-0.097
-138.443	120.484	0.241	0.294
-137.429	-200.000	-0.021	0.157
-136.414	-74.146	0.214	-0.076
-135.399	-200.000	-0.032	0.401
-134.385	248.428	0.139	0.231
-133.370	800.000	0.021	-0.060
-132.356	379.386	-0.126	-0.253
-131.341	-114.373	0.103	-0.020
-130.326	-200.000	-0.040	-0.241
-129.312	121.417	-0.147	-0.180
-128.297	-200.000	0.027	-0.174
-127.283	800.000	-0.021	0.068
-126.268	800.000	-0.063	0.236
-125.253	-9.786	0.105	-0.069
-124.239	15.080	-0.196	-0.151
-123.224	83.912	-0.145	0.156
-122.210	340.297	0.133	0.255
-121.195	166.201	0.258	-0.358
