DTS Sentinel unit serial number:	SN413079Multiplexer serial number:	ORYXHardware model number:	OX4-SRSoftware version number:	ORYX F/W v4.00 Oryx Data Collector v3.7.2.0data status	okinstallation	princeton_trtdifferential loss correction	single-endedforward channel	channel 3reverse channel	N/Adate	2019/09/11time	13:46:11forward acquisition time	60.00reverse acquisition time	0.00gamma	496.2192k internal	0.2293k external	0.2293temperature offset calibration	0.9976default loss term (dB/km)	0.3790temperature slope calibration	1.0000multiplexer offset coefficient	1.0000multiplexer slope coefficient	1.0000fibre end	0.00T internal ref (°C)	41.92T ext. ref 1 (°C)	0.83T ext. ref 2 (°C)	36.43length (m)	temperature (°C)	Stokes	anti-Stokes-747.200	-77.537	0.269	-0.095
-746.185	544.055	-0.095	0.231
-745.171	800.000	0.081	-0.265
-744.156	93.693	-0.341	0.396
-743.142	800.000	0.069	0.207
-742.127	-200.000	-0.084	0.447
-741.112	-200.000	-0.023	0.302
-740.098	122.254	-0.314	0.401
-739.083	-0.454	0.141	0.102
-738.069	463.828	-0.226	0.516
-737.054	-200.000	-0.003	0.520
-736.039	800.000	-0.011	0.040
-735.025	522.787	-0.055	0.132
-734.010	800.000	-0.073	-0.260
-732.996	-200.000	-0.003	-0.102
-731.981	-92.075	0.159	0.046
-730.966	-200.000	0.012	-0.335
-729.952	265.659	0.038	-0.069
-728.937	800.000	0.050	0.189
-727.923	82.549	-0.072	0.080
-726.908	537.757	-0.101	-0.246
-725.894	-170.239	-0.152	0.005
-724.879	198.559	0.072	-0.112
-723.864	13.615	-0.192	-0.152
-722.850	239.901	-0.151	0.257
-721.835	-200.000	-0.041	0.439
-720.821	-70.453	-0.366	0.142
-719.806	104.248	0.112	-0.135
-718.791	-160.736	-0.422	-0.023
-717.777	-200.000	-0.047	-0.294
-716.762	70.859	-0.144	-0.152
-715.748	-113.160	-0.378	-0.076
-714.733	-126.741	-0.221	-0.033
-713.718	-61.785	0.235	-0.101
-712.704	-24.762	-0.331	-0.201
-711.689	-200.000	-0.011	0.119
-710.675	-2.692	0.256	-0.183
-709.660	34.487	0.140	-0.124
-708.645	178.052	0.083	-0.124
-707.631	-200.000	-0.030	0.331
-706.616	-200.000	-0.026	0.143
-705.602	-200.000	-0.032	0.229
-704.587	-15.572	-0.152	0.099
-703.572	-35.722	0.168	0.093
-702.558	-183.338	0.576	-0.010
-701.543	-15.598	-0.350	-0.228
-700.529	-134.398	-0.247	-0.031
-699.514	-75.073	0.153	-0.056
-698.499	714.047	-0.043	-0.117
-697.485	309.674	-0.111	-0.213
-696.470	-95.464	0.650	-0.178
-695.456	332.500	-0.142	0.281
-694.441	673.922	0.035	0.094
-693.426	-41.633	-0.123	-0.064
-692.412	156.049	0.021	0.029
-691.397	-200.000	0.002	0.031
-690.383	800.000	0.064	0.246
-689.368	-34.951	-0.479	-0.267
-688.354	91.894	-0.097	-0.112
-687.339	800.000	0.076	0.252
-686.324	-3.441	0.068	0.048
-685.310	-200.000	-0.005	-0.050
-684.295	142.027	0.250	-0.338
-683.281	-65.234	0.083	0.034
-682.266	-200.000	0.012	0.254
-681.251	-53.803	-0.240	0.112
-680.237	335.046	-0.122	0.242
-679.222	-67.280	0.145	-0.058
-678.208	-71.413	-0.205	-0.078
-677.193	800.000	-0.082	-0.294
-676.178	800.000	-0.036	-0.142
-675.164	206.424	-0.108	0.172
-674.149	-158.455	-0.329	-0.019
-673.135	122.376	0.106	0.136
-672.120	29.677	0.260	-0.226
-671.105	671.341	-0.057	-0.151
-670.091	77.150	-0.041	0.044
-669.076	4.792	-0.240	0.180
-668.062	-16.349	0.114	-0.074
-667.047	800.000	-0.063	-0.196
-666.032	-128.400	0.115	-0.017
-665.018	-47.542	-0.091	0.045
-664.003	-200.000	-0.026	-0.434
-662.989	-110.059	-0.249	0.053
-661.974	8.750	-0.084	0.064
-660.959	119.591	0.157	-0.198
-659.945	335.607	-0.039	-0.076
-658.930	-19.041	-0.092	0.058
-657.916	193.495	-0.147	0.227
-656.901	800.000	-0.069	0.201
-655.886	90.722	0.009	-0.011
-654.872	23.608	-0.227	-0.190
-653.857	-45.305	-0.157	0.080
-652.843	-200.000	-0.005	0.079
-651.828	186.180	0.064	0.097
-650.814	690.029	-0.063	-0.169
-649.799	113.282	-0.102	-0.127
-648.784	-40.551	0.216	-0.114
-647.770	-27.392	-0.127	0.076
-646.755	112.423	-0.128	-0.158
-645.741	-24.181	0.174	-0.106
-644.726	-82.767	0.063	0.021
-643.711	126.738	0.204	-0.264
-642.697	-200.000	0.014	0.259
-641.682	-141.716	-0.121	0.012
-640.668	325.870	0.095	-0.186
-639.653	-23.627	0.142	0.087
-638.638	-41.127	-0.188	-0.099
-637.624	324.832	0.178	-0.346
-636.609	-79.945	0.281	-0.096
-635.595	-44.117	-0.182	-0.093
-634.580	800.000	0.040	0.148
-633.565	140.039	0.315	0.423
-632.551	800.000	-0.035	0.123
-631.536	800.000	0.033	-0.100
-630.522	-115.704	-0.290	0.055
-629.507	-15.298	-0.162	-0.106
-628.492	-200.000	-0.041	-0.206
-627.478	-118.322	-0.309	-0.056
-626.463	156.491	-0.153	-0.215
-625.449	-23.410	-0.175	-0.107
-624.434	-200.000	-0.009	0.043
-623.419	800.000	-0.043	0.177
-622.405	-148.025	0.095	-0.008
-621.390	-65.253	-0.301	-0.123
-620.376	-25.017	-0.125	0.076
-619.361	593.737	0.051	-0.128
-618.346	-200.000	-0.022	-0.124
-617.332	-200.000	-0.039	-0.541
-616.317	-200.000	0.013	-0.159
-615.303	-61.754	-0.071	0.030
-614.288	800.000	-0.015	0.067
-613.273	-26.549	-0.058	0.034
-612.259	800.000	0.014	0.050
-611.244	-157.207	0.214	-0.013
-610.230	-49.447	-0.233	0.113
-609.215	-200.000	0.024	0.140
-608.201	-38.946	-0.231	-0.124
-607.186	-136.909	-0.134	-0.016
-606.171	-45.351	0.125	0.063
-605.157	-200.000	-0.018	0.221
-604.142	57.155	0.073	0.072
-603.128	-104.958	0.086	0.020
-602.113	164.517	-0.124	-0.177
-601.098	-132.996	0.217	0.028
-600.084	227.185	0.066	-0.110
-599.069	10.403	0.193	-0.149
-598.055	-143.741	-0.071	-0.007
-597.040	-31.904	-0.190	-0.108
-596.025	800.000	0.085	0.314
-595.011	14.915	-0.125	0.099
-593.996	50.253	-0.069	-0.067
-592.982	38.875	0.110	-0.100
-591.967	800.000	-0.099	0.295
-590.952	-151.582	-0.117	-0.009
-589.938	20.880	0.171	-0.141
-588.923	351.338	0.101	0.204
-587.909	800.000	-0.028	-0.123
-586.894	-177.269	0.316	0.008
-585.879	-200.000	0.036	0.261
-584.865	229.326	0.090	-0.150
-583.850	47.889	0.129	0.122
-582.836	8.520	-0.058	-0.044
-581.821	-133.108	0.122	-0.016
-580.806	-111.994	-0.441	0.090
-579.792	-110.010	-0.217	0.046
-578.777	3.040	0.184	-0.136
-577.763	-72.509	-0.143	0.054
-576.748	-89.141	0.339	-0.102
-575.733	371.139	-0.138	-0.284
-574.719	77.295	0.246	0.266
-573.704	800.000	-0.103	-0.425
-572.690	-111.548	0.140	-0.029
-571.675	-110.264	-0.456	0.097
-570.661	-108.537	0.168	-0.037
-569.646	20.432	0.113	0.092
-568.631	-47.757	-0.121	0.060
-567.617	-200.000	-0.203	0.001
-566.602	-9.185	0.067	0.045
-565.588	-134.640	-0.193	-0.024
-564.573	95.866	-0.164	-0.190
-563.558	263.018	-0.062	0.110
-562.544	128.328	0.098	0.127
-561.529	419.092	-0.115	-0.249
-560.515	800.000	-0.105	-0.358
-559.500	-200.000	-0.042	0.214
-558.485	-46.721	0.362	0.180
-557.471	-175.446	0.225	-0.006
-556.456	283.759	-0.096	0.176
-555.442	800.000	0.032	0.102
-554.427	27.316	-0.018	-0.016
-553.412	343.314	-0.024	-0.048
-552.398	800.000	0.151	-0.467
-551.383	-154.105	0.295	-0.020
-550.369	800.000	0.027	0.080
-549.354	-92.974	-0.226	0.064
-548.339	-142.709	-0.688	-0.068
-547.325	296.225	0.134	-0.250
-546.310	-78.051	0.056	-0.020
-545.296	-200.000	0.057	-0.269
-544.281	-38.455	0.164	0.088
-543.266	-200.000	-0.014	0.268
-542.252	371.970	0.055	-0.113
-541.237	135.732	0.221	-0.292
-540.223	-139.476	-0.039	-0.004
-539.208	-22.194	0.087	0.053
-538.193	-200.000	0.008	0.041
-537.179	-41.284	0.297	-0.155
-536.164	-200.000	0.012	0.134
-535.150	-140.390	0.097	-0.010
-534.135	403.958	0.052	0.111
-533.121	181.795	-0.107	-0.160
-532.106	66.358	0.095	-0.098
-531.091	-156.840	-0.489	-0.031
-530.077	-32.720	0.075	0.042
-529.062	140.203	0.073	0.098
-528.048	-12.141	-0.234	-0.156
-527.033	-149.822	-0.192	-0.015
-526.018	-77.964	-0.028	-0.010
-525.004	635.491	-0.047	-0.121
-523.989	-111.006	0.143	0.030
-522.975	-100.607	-0.367	-0.092
-521.960	514.931	-0.131	0.310
-520.945	-200.000	-0.008	-0.059
-519.931	238.341	0.064	0.108
-518.916	137.381	0.166	-0.220
-517.902	-200.000	0.026	-0.300
-516.887	800.000	-0.046	-0.181
-515.872	-84.073	0.085	0.027
-514.858	-76.153	-0.062	-0.022
-513.843	-83.553	-0.102	-0.033
-512.829	-200.000	0.009	-0.169
-511.814	-67.665	0.255	0.101
-510.799	115.821	-0.153	-0.189
-509.785	-200.000	-0.004	0.194
-508.770	96.787	-0.106	-0.123
-507.756	-200.000	0.023	-0.172
-506.741	-200.000	-0.030	0.391
-505.726	-185.064	-0.044	0.001
-504.712	-200.000	0.024	0.230
-503.697	551.928	0.105	0.255
-502.683	-200.000	-0.044	0.260
-501.668	270.540	-0.030	0.054
-500.653	-3.053	-0.124	-0.087
-499.639	-11.341	0.202	0.135
-498.624	439.418	0.051	0.112
-497.610	-146.209	0.239	0.021
-496.595	-12.708	-0.210	0.139
-495.581	-200.000	0.071	-0.323
-494.566	32.281	0.430	-0.376
-493.551	-46.380	-0.128	-0.064
-492.537	6.496	-0.245	-0.184
-491.522	-105.137	0.297	-0.069
-490.508	-200.000	-0.028	-0.142
-489.493	23.463	-0.100	-0.083
-488.478	-4.691	0.078	-0.055
-487.464	-32.892	-0.133	0.075
-486.449	-72.167	-0.323	-0.122
-485.435	666.491	0.059	-0.155
-484.420	130.881	-0.214	0.278
-483.405	-156.819	0.218	0.014
-482.391	-20.061	-0.159	-0.099
-481.376	-134.809	-0.360	-0.044
-480.362	-200.000	0.033	-0.174
-479.347	21.775	0.085	-0.070
-478.332	709.340	0.139	0.372
-477.318	165.375	-0.143	-0.204
-476.303	292.021	0.059	0.109
-475.289	-200.000	0.014	0.146
-474.274	-143.982	0.263	0.025
-473.259	-200.000	-0.035	-0.371
-472.245	320.972	-0.050	-0.096
-471.230	-87.046	0.085	0.026
-470.216	-200.000	0.009	-0.112
-469.201	-200.000	0.024	0.142
-468.186	-37.606	-0.048	0.026
-467.172	167.986	-0.084	0.121
-466.157	230.131	0.202	0.334
-465.143	-36.228	0.286	0.156
-464.128	-180.748	-0.173	-0.004
-463.113	-200.000	0.017	-0.545
-462.099	800.000	-0.036	-0.155
-461.084	113.190	-0.205	0.252
-460.070	800.000	0.121	0.340
-459.055	-61.026	-0.165	-0.071
-458.040	174.363	0.132	-0.193
-457.026	800.000	0.047	-0.149
-456.011	45.870	0.214	0.200
-454.997	21.440	-0.042	0.035
-453.982	-59.183	0.077	-0.034
-452.968	-14.294	-0.315	0.205
-451.953	-200.000	-0.010	-0.316
-450.938	71.837	-0.149	0.157
-449.924	-53.957	-0.330	-0.152
-448.909	255.171	0.043	-0.075
-447.895	-2.672	0.059	0.041
-446.880	-164.311	0.403	-0.019
-445.865	53.345	0.123	-0.119
-444.851	-32.477	-0.214	-0.121
-443.836	111.600	0.147	0.179
-442.822	-164.554	-0.302	0.014
-441.807	-200.000	-0.041	0.287
-440.792	768.697	-0.022	-0.060
-439.778	-67.122	0.189	-0.075
-438.763	586.168	0.063	-0.156
-437.749	17.206	0.048	0.039
-436.734	-109.553	0.325	0.069
-435.719	-173.432	0.271	0.008
-434.705	44.275	-0.227	0.211
-433.690	800.000	-0.064	-0.251
-432.676	8.611	-0.171	0.130
-431.661	26.461	-0.163	0.138
-430.646	-106.466	0.421	0.095
-429.632	-16.342	-0.231	-0.148
-428.617	-42.659	-0.341	0.175
-427.603	-200.000	-0.009	0.332
-426.588	280.659	0.023	0.042
-425.573	7.644	-0.080	0.060
-424.559	-200.000	0.091	-0.408
-423.544	-200.000	0.020	0.144
-422.530	36.310	-0.067	-0.059
-421.515	-44.093	-0.191	-0.097
-420.500	47.157	-0.375	-0.353
-419.486	648.456	0.031	-0.081
-418.471	121.883	-0.205	-0.259
-417.457	138.652	0.227	0.301
-416.442	30.116	-0.269	0.232
-415.428	-135.511	0.248	-0.030
-414.413	109.894	0.221	-0.267
-413.398	-160.447	-0.249	-0.013
-412.384	-154.735	-0.026	0.002
-411.369	66.660	-0.172	-0.176
-410.355	-94.284	-0.411	-0.114
-409.340	800.000	-0.050	0.153
-408.325	800.000	-0.101	-0.354
-407.311	-2.281	-0.328	0.233
-406.296	60.093	-0.213	0.212
-405.282	786.718	0.004	0.011
-404.267	579.966	-0.052	-0.130
-403.252	173.042	0.113	0.164
-402.238	-200.000	0.006	0.049
-401.223	-157.080	0.135	-0.008
-400.209	350.561	0.121	0.241
-399.194	-200.000	0.020	-0.096
-398.179	221.283	0.119	-0.194
-397.165	-30.024	-0.117	0.067
-396.150	-114.738	0.166	0.032
-395.136	-6.885	-0.076	-0.052
-394.121	-155.763	-0.135	0.009
-393.106	-3.227	-0.236	-0.166
-392.092	-69.961	-0.358	0.138
-391.077	143.313	0.101	-0.135
-390.063	-46.034	0.190	-0.095
-389.048	-113.673	0.086	0.017
-388.033	43.391	0.040	-0.037
-387.019	800.000	-0.014	-0.053
-386.004	-200.000	-0.016	-0.338
-384.990	800.000	-0.130	-0.366
-383.975	147.878	0.146	-0.199
-382.960	800.000	0.090	0.274
-381.946	146.559	-0.118	-0.159
-380.931	686.864	-0.125	-0.328
-379.917	-119.920	-0.238	0.041
-378.902	-2.044	-0.078	0.055
-377.888	-43.118	0.234	0.120
-376.873	24.568	-0.110	-0.092
-375.858	800.000	-0.086	-0.321
-374.844	-136.139	0.451	0.053
-373.829	563.574	0.142	0.347
-372.815	123.809	0.102	-0.129
-371.800	-4.162	-0.108	0.075
-370.785	800.000	0.063	-0.180
-369.771	-134.131	-0.209	-0.026
-368.756	375.006	-0.147	0.303
-367.742	212.027	0.030	-0.048
-366.727	278.016	0.051	-0.091
-365.712	-91.496	-0.301	0.086
-364.698	-143.781	0.339	0.032
-363.683	-200.000	0.035	-0.244
-362.669	-200.000	-0.037	-0.339
-361.654	-112.913	-0.299	0.060
-360.639	185.789	-0.139	-0.208
-359.625	-46.052	-0.200	-0.099
-358.610	344.126	0.021	0.041
-357.596	800.000	-0.089	0.249
-356.581	175.414	-0.218	-0.319
-355.566	382.952	-0.069	0.142
-354.552	187.573	-0.189	0.284
-353.537	-6.507	0.213	-0.146
-352.523	423.186	0.190	0.412
-351.508	-200.000	-0.045	0.276
-350.493	28.947	-0.255	-0.218
-349.479	800.000	-0.027	0.095
-348.464	-69.120	-0.122	0.047
-347.450	-190.540	-0.378	0.004
-346.435	800.000	-0.073	0.204
-345.420	-182.675	0.256	0.005
-344.406	742.732	0.043	0.117
-343.391	31.409	0.113	0.098
-342.377	-69.205	0.247	-0.096
-341.362	800.000	-0.047	-0.145
-340.348	800.000	0.072	-0.208
-339.333	66.780	0.162	0.166
-338.318	356.716	-0.067	0.135
-337.304	800.000	0.077	-0.246
-336.289	300.803	-0.055	-0.103
-335.275	800.000	0.042	0.127
-334.260	160.920	0.149	-0.209
-333.245	38.811	0.116	-0.104
-332.231	18.155	0.307	-0.246
-331.216	3.205	-0.061	0.045
-330.202	696.250	0.043	0.114
-329.187	-45.852	0.151	0.075
-328.172	57.141	0.077	-0.076
-327.158	-97.244	0.049	-0.013
-326.143	415.920	0.134	0.288
-325.129	-153.932	0.419	-0.029
-324.114	16.372	-0.182	0.145
-323.099	-90.602	0.020	0.006
-322.085	342.734	-0.123	0.242
-321.070	195.588	0.008	-0.013
-320.056	-8.259	0.105	0.071
-319.041	-159.221	0.112	0.006
-318.026	-200.000	-0.078	0.349
-317.012	192.699	-0.095	-0.144
-315.997	-103.218	-0.142	-0.034
-314.983	-89.276	0.116	0.034
-313.968	-60.116	0.405	-0.174
-312.953	90.178	0.149	-0.168
-311.939	-17.995	0.174	-0.110
-310.924	-74.807	-0.424	0.153
-309.910	234.286	-0.132	0.219
-308.895	-67.696	0.377	0.149
-307.880	211.938	0.071	0.113
-306.866	-21.848	-0.156	-0.095
-305.851	-200.000	0.069	0.311
-304.837	-126.038	-0.091	0.014
-303.822	63.537	-0.104	0.105
-302.807	232.922	0.135	0.224
-301.793	591.284	0.081	0.202
-300.778	800.000	0.097	0.290
-299.764	-200.000	-0.008	-0.128
-298.749	4.134	0.275	-0.202
-297.735	-191.320	-0.117	-0.001
-296.720	-105.125	0.194	0.045
-295.705	245.544	-0.107	-0.181
-294.691	265.794	-0.169	0.296
-293.676	44.771	-0.241	-0.223
-292.662	121.381	-0.032	0.041
-291.647	-200.000	-0.037	0.175
-290.632	192.951	0.245	0.372
-289.618	342.671	-0.099	-0.194
-288.603	-121.743	-0.346	0.057
-287.589	40.000	0.153	-0.138
-286.574	800.000	-0.014	-0.053
-285.559	-46.752	0.117	0.057
-284.545	470.498	-0.139	0.315
-283.530	-116.265	0.364	-0.068
-282.516	220.352	0.105	-0.170
-281.501	-113.240	-0.231	0.046
-280.486	41.152	0.191	0.173
-279.472	-105.683	0.189	-0.043
-278.457	343.942	0.047	-0.092
-277.443	-200.000	0.020	0.275
-276.428	800.000	-0.010	0.030
-275.413	-200.000	0.035	0.230
-274.399	6.938	0.201	0.150
-273.384	-200.000	0.066	0.381
-272.370	-139.086	0.260	-0.028
-271.355	95.831	0.117	0.135
-270.340	-112.427	-0.235	-0.047
-269.326	242.967	-0.154	-0.260
-268.311	-24.676	-0.218	-0.130
-267.297	260.618	-0.031	0.054
-266.282	200.799	-0.030	-0.046
-265.267	-200.000	-0.029	0.132
-264.253	-149.745	-0.175	-0.014
-263.238	82.394	-0.320	0.349
-262.224	197.397	-0.194	-0.297
-261.209	-83.991	0.057	-0.018
-260.195	-200.000	0.023	-0.116
-259.180	207.538	0.122	0.191
-258.165	-45.184	0.257	0.128
-257.151	-200.000	0.020	-0.128
-256.136	257.869	0.067	-0.116
-255.122	-45.377	0.084	-0.042
-254.107	-72.071	0.565	-0.211
-253.092	-85.732	0.247	-0.077
-252.078	85.687	-0.007	0.008
-251.063	95.377	0.304	0.348
-250.049	-200.000	-0.026	0.452
-249.034	-61.614	0.296	0.124
-248.019	74.853	-0.208	0.219
-247.005	-27.182	0.183	-0.107
-245.990	-97.929	-0.225	0.058
-244.976	-92.362	0.164	0.046
-243.961	-57.677	0.272	0.119
-242.946	422.910	-0.073	-0.157
-241.932	373.338	0.035	-0.071
-240.917	-160.833	-0.338	0.018
-239.903	54.726	-0.180	-0.174
-238.888	-91.420	0.141	0.040
-237.873	-200.000	-0.033	0.508
-236.859	-130.226	0.227	0.031
-235.844	38.689	-0.267	0.239
-234.830	61.389	0.286	0.285
-233.815	39.076	-0.300	-0.269
-232.800	164.900	-0.070	-0.099
-231.786	-200.000	-0.007	-0.191
-230.771	712.308	-0.073	0.193
-229.757	395.167	-0.126	-0.263
-228.742	-200.000	0.005	-0.086
-227.727	-28.059	0.104	-0.060
-226.713	58.979	0.124	0.123
-225.698	-59.777	-0.100	-0.043
-224.684	800.000	0.048	-0.182
-223.669	-200.000	0.013	0.154
-222.655	-200.000	-0.031	-0.188
-221.640	-200.000	-0.005	-0.325
-220.625	69.830	-0.166	0.171
-219.611	-111.092	-0.091	-0.019
-218.596	800.000	0.100	0.414
-217.582	800.000	0.089	-0.388
-216.567	-74.875	0.450	0.162
-215.552	-191.291	0.135	-0.001
-214.538	13.485	0.223	-0.173
-213.523	20.232	-0.148	-0.119
-212.509	800.000	0.013	-0.057
-211.494	174.281	0.188	0.272
-210.479	800.000	-0.034	0.127
-209.465	800.000	-0.084	0.326
-208.450	800.000	0.035	0.106
-207.436	-155.438	0.271	0.018
-206.421	-104.477	0.287	-0.066
-205.406	-45.893	-0.149	0.074
-204.392	-200.000	0.020	-0.095
-203.377	-92.206	-0.349	0.099
-202.363	87.538	0.078	0.087
-201.348	-73.097	0.097	-0.035
-200.333	-133.361	-0.107	-0.013
-199.319	-200.000	0.033	0.224
-198.304	-132.944	0.228	0.029
-197.290	183.857	0.156	0.231
-196.275	-32.441	0.203	0.113
-195.260	668.965	0.086	0.224
-194.246	-40.789	0.062	-0.032
-193.231	-84.155	0.272	-0.086
-192.217	-25.438	-0.205	0.121
-191.202	46.320	0.346	0.321
-190.187	69.443	-0.182	-0.188
-189.173	-25.486	-0.078	-0.046
-188.158	59.485	0.120	0.119
-187.144	-60.180	0.180	0.077
-186.129	-168.545	-0.148	-0.006
-185.114	-34.561	-0.114	-0.063
-184.100	-85.871	-0.153	-0.047
-183.085	-200.000	-0.002	0.014
-182.071	615.295	-0.138	-0.347
-181.056	-16.947	0.146	0.092
-180.042	129.729	0.175	-0.223
-179.027	-164.332	-0.287	0.013
-178.012	-138.922	0.180	-0.020
-176.998	106.660	0.053	0.063
-175.983	-142.992	-0.261	0.025
-174.969	-115.287	-0.046	-0.009
-173.954	179.824	0.212	-0.311
-172.939	-200.000	-0.001	0.044
-171.925	-74.812	-0.080	-0.029
-170.910	8.143	-0.084	-0.063
-169.896	-82.518	-0.226	-0.074
-168.881	26.700	-0.172	0.144
-167.866	43.510	-0.212	0.194
-166.852	38.175	0.117	0.104
-165.837	-116.245	-0.252	0.047
-164.823	289.777	0.110	0.199
-163.808	-200.000	-0.009	-0.175
-162.793	-93.606	0.098	-0.027
-161.779	800.000	0.052	-0.195
-160.764	-67.948	-0.305	0.119
-159.750	-128.082	-0.174	-0.025
-158.735	800.000	0.031	0.123
-157.720	-200.000	0.050	-0.349
-156.706	-76.884	0.303	0.106
-155.691	-200.000	-0.010	0.230
-154.677	-200.000	-0.019	-0.108
-153.662	129.138	0.268	-0.342
-152.647	-1.540	-0.136	-0.096
-151.633	189.551	-0.262	0.393
-150.618	348.439	-0.070	0.137
-149.604	119.819	0.038	0.047
-148.589	-200.000	-0.011	0.165
-147.574	-164.224	-0.186	0.009
-146.560	9.054	-0.250	-0.189
-145.545	-51.084	-0.083	-0.039
-144.531	-200.000	0.016	-0.109
-143.516	-9.723	-0.128	-0.085
-142.502	-97.628	0.237	0.061
-141.487	57.892	-0.198	0.194
-140.472	-132.701	0.166	0.021
-139.458	-94.699	0.069	0.019
-138.443	582.842	0.076	-0.187
-137.429	164.550	0.114	-0.160
-136.414	-200.000	0.057	0.288
-135.399	800.000	-0.034	0.115
-134.385	-58.800	0.231	-0.100
-133.370	234.043	-0.159	0.261
-132.356	-200.000	-0.027	-0.159
-131.341	-87.128	0.348	0.106
-130.326	-13.724	-0.301	0.194
-129.312	800.000	-0.079	0.245
-128.297	800.000	0.030	-0.113
-127.283	1.011	-0.152	-0.109
-126.268	-48.158	0.290	-0.140
-125.253	356.360	0.043	-0.086
-124.239	-89.573	-0.210	0.061
-123.224	187.500	0.145	-0.216
-122.210	-1.065	-0.110	-0.077
-121.195	50.817	-0.391	-0.370
