DTS Sentinel unit serial number:	SN413079Multiplexer serial number:	ORYXHardware model number:	OX4-SRSoftware version number:	ORYX F/W v4.00 Oryx Data Collector v3.7.2.0data status	okinstallation	princeton_trtdifferential loss correction	single-endedforward channel	channel 3reverse channel	N/Adate	2019/09/11time	13:18:11forward acquisition time	60.00reverse acquisition time	0.00gamma	496.2192k internal	0.2293k external	0.2293temperature offset calibration	0.9975default loss term (dB/km)	0.3790temperature slope calibration	1.0000multiplexer offset coefficient	1.0000multiplexer slope coefficient	1.0000fibre end	0.00T internal ref (°C)	41.94T ext. ref 1 (°C)	0.79T ext. ref 2 (°C)	36.33length (m)	temperature (°C)	Stokes	anti-Stokes-747.200	-43.357	-0.069	0.036
-746.185	149.283	0.099	0.137
-745.171	-200.000	-0.005	0.421
-744.156	585.872	0.154	0.388
-743.142	59.699	0.061	0.061
-742.127	50.427	-0.063	-0.061
-741.112	-200.000	-0.077	-0.439
-740.098	-110.139	0.271	-0.058
-739.083	49.975	-0.097	-0.094
-738.069	-3.137	-0.235	0.167
-737.054	-200.000	-0.009	0.201
-736.039	-141.272	-0.296	0.031
-735.025	-78.769	0.442	0.154
-734.010	0.193	0.018	-0.013
-732.996	37.406	-0.159	-0.144
-731.981	-104.829	-0.150	0.035
-730.966	-137.663	-0.361	-0.041
-729.952	443.701	-0.040	0.089
-728.937	-90.372	-0.166	-0.049
-727.923	-45.337	-0.200	0.101
-726.908	-200.000	0.012	0.230
-725.894	-22.262	-0.306	-0.190
-724.879	-99.070	-0.094	-0.024
-723.864	-200.000	-0.008	-0.086
-722.850	-110.459	0.469	0.099
-721.835	-200.000	-0.034	-0.264
-720.821	-148.214	-0.067	-0.006
-719.806	209.877	-0.069	0.111
-718.791	25.605	0.052	0.044
-717.777	52.990	0.043	-0.042
-716.762	305.311	0.100	-0.191
-715.748	-200.000	0.011	-0.162
-714.733	-128.147	-0.158	-0.023
-713.718	141.493	-0.146	0.198
-712.704	72.213	0.276	0.294
-711.689	-160.020	-0.124	0.007
-710.675	18.128	-0.054	-0.044
-709.660	-66.214	-0.279	-0.113
-708.645	-87.913	-0.129	-0.040
-707.631	-42.092	0.237	-0.124
-706.616	-200.000	-0.019	0.266
-705.602	-64.246	-0.349	0.145
-704.587	-99.860	0.256	-0.065
-703.572	2.829	0.097	0.072
-702.558	21.763	0.194	-0.162
-701.543	188.632	0.111	-0.170
-700.529	-57.182	-0.065	-0.029
-699.514	39.320	0.203	-0.186
-698.499	-100.120	-0.223	-0.057
-697.485	387.083	-0.094	0.198
-696.470	-116.915	-0.195	0.036
-695.456	-200.000	0.010	0.095
-694.441	294.357	-0.041	-0.076
-693.426	70.542	0.237	0.251
-692.412	-83.961	0.307	0.100
-691.397	132.796	0.206	-0.272
-690.383	38.235	0.121	0.110
-689.368	191.062	0.060	-0.093
-688.354	98.907	0.205	-0.242
-687.339	743.566	-0.032	0.088
-686.324	-200.000	-0.060	0.319
-685.310	-48.036	-0.194	0.096
-684.295	117.328	0.017	-0.021
-683.281	-150.844	-0.061	0.005
-682.266	800.000	-0.116	0.414
-681.251	-87.757	-0.211	-0.065
-680.237	-110.791	-0.320	-0.067
-679.222	800.000	0.085	0.288
-678.208	-200.000	-0.021	0.152
-677.193	-200.000	0.039	-0.190
-676.178	-200.000	-0.007	-0.276
-675.164	167.920	-0.161	-0.234
-674.149	800.000	-0.061	0.174
-673.135	800.000	-0.063	0.182
-672.120	-71.527	-0.323	-0.123
-671.105	-83.584	0.193	-0.063
-670.091	-52.112	0.270	-0.128
-669.076	-80.387	-0.266	0.091
-668.062	52.932	-0.080	-0.078
-667.047	-62.967	0.242	-0.102
-666.032	-59.345	0.160	0.070
-665.018	-42.420	0.141	0.073
-664.003	109.009	0.130	0.159
-662.989	-100.111	-0.272	0.069
-661.974	131.298	0.042	-0.055
-660.959	-86.243	0.072	0.022
-659.945	-118.589	0.266	0.048
-658.930	-69.194	-0.305	-0.120
-657.916	-200.000	-0.013	-0.233
-656.901	-200.000	-0.074	-0.390
-655.886	-200.000	-0.011	0.193
-654.872	35.760	-0.101	0.090
-653.857	-200.000	-0.039	-0.193
-652.843	-181.558	-0.212	-0.004
-651.828	69.193	0.229	0.240
-650.814	-157.622	-0.340	0.021
-649.799	-109.652	-0.041	0.009
-648.784	-200.000	-0.193	-0.001
-647.770	204.682	0.145	-0.229
-646.755	-35.798	-0.121	0.067
-645.741	160.286	-0.021	-0.031
-644.726	-200.000	-0.001	-0.025
-643.711	-200.000	-0.039	-0.264
-642.697	369.653	0.129	0.265
-641.682	535.972	-0.121	0.293
-640.668	-200.000	0.017	-0.100
-639.653	-200.000	0.010	-0.056
-638.638	800.000	0.021	-0.077
-637.624	-184.831	-0.156	0.003
-636.609	-102.638	0.163	0.040
-635.595	21.855	0.230	-0.191
-634.580	-119.364	-0.424	-0.075
-633.565	394.074	0.132	-0.280
-632.551	605.362	0.074	0.189
-631.536	-168.682	0.169	0.007
-630.522	-77.992	-0.238	0.084
-629.507	129.631	-0.163	0.213
-628.492	572.835	-0.059	-0.146
-627.478	-200.000	-0.046	-0.377
-626.463	-47.393	0.181	-0.090
-625.449	-200.000	-0.022	0.129
-624.434	297.228	-0.106	-0.198
-623.419	-45.383	0.072	0.036
-622.405	364.543	-0.023	-0.048
-621.390	110.522	-0.226	-0.277
-620.376	332.250	0.130	-0.257
-619.361	-116.509	-0.206	0.039
-618.346	-102.836	-0.155	0.037
-617.332	-200.000	0.013	-0.253
-616.317	383.917	0.079	0.165
-615.303	268.690	-0.067	-0.119
-614.288	372.270	-0.144	0.299
-613.273	-49.390	0.325	-0.158
-612.259	-31.922	-0.388	-0.221
-611.244	251.563	-0.062	-0.107
-610.230	-63.802	-0.139	0.058
-609.215	604.675	-0.105	-0.267
-608.201	525.956	-0.139	0.334
-607.186	800.000	-0.095	-0.293
-606.171	-25.547	-0.126	0.076
-605.157	211.821	-0.146	0.234
-604.142	93.914	-0.261	0.302
-603.128	254.368	-0.197	0.344
-602.113	-200.000	0.031	-0.226
-601.098	800.000	0.143	-0.453
-600.084	427.180	-0.045	-0.100
-599.069	183.175	0.073	0.110
-598.055	-128.085	0.220	0.032
-597.040	-108.792	0.127	-0.028
-596.025	-81.908	-0.128	-0.043
-595.011	662.925	0.011	0.029
-593.996	-146.620	0.298	-0.026
-592.982	-85.666	-0.219	-0.069
-591.967	-200.000	-0.005	0.024
-590.952	-37.642	0.189	0.102
-589.938	-58.016	0.471	-0.209
-588.923	115.488	-0.129	0.160
-587.909	101.370	0.159	0.188
-586.894	-200.000	0.030	0.245
-585.879	-7.693	-0.275	-0.189
-584.865	754.556	0.053	0.147
-583.850	-200.000	-0.069	0.333
-582.836	-118.604	-0.090	0.016
-581.821	-83.820	-0.214	0.069
-580.806	-164.630	-0.116	0.005
-579.792	-125.501	0.063	0.010
-578.777	222.412	0.203	0.332
-577.763	9.712	-0.244	0.188
-576.748	800.000	-0.079	-0.300
-575.733	-82.843	0.106	0.035
-574.719	800.000	-0.056	-0.164
-573.704	45.670	0.090	0.085
-572.690	800.000	0.096	0.312
-571.675	-89.971	0.499	0.148
-570.661	664.141	-0.061	0.159
-569.646	-87.446	0.125	-0.038
-568.631	-200.000	0.024	0.142
-567.617	-200.000	-0.017	-0.489
-566.602	354.974	-0.073	0.148
-565.588	800.000	-0.025	0.107
-564.573	800.000	0.102	0.310
-563.558	-155.249	0.155	-0.010
-562.544	680.321	-0.073	0.192
-561.529	144.507	0.116	0.157
-560.515	-200.000	0.043	-0.390
-559.500	-5.681	-0.153	-0.106
-558.485	-97.241	-0.280	-0.074
-557.471	-200.000	-0.014	0.478
-556.456	-16.450	-0.139	-0.090
-555.442	-35.379	0.215	0.119
-554.427	-44.607	0.156	-0.079
-553.412	91.919	0.070	-0.080
-552.398	-102.422	-0.323	0.079
-551.383	-107.388	0.253	-0.056
-550.369	-111.312	-0.052	-0.011
-549.354	13.757	-0.098	0.077
-548.339	-128.465	0.215	0.031
-547.325	-87.592	-0.168	-0.052
-546.310	315.967	0.087	0.167
-545.296	-139.672	-0.197	-0.021
-544.281	-32.398	-0.354	-0.200
-543.266	423.115	-0.111	-0.242
-542.252	359.534	-0.001	-0.002
-541.237	209.442	0.158	-0.251
-540.223	23.242	0.142	0.118
-539.208	-200.000	-0.035	-0.257
-538.193	148.272	0.182	-0.250
-537.179	558.163	0.082	0.201
-536.164	800.000	0.075	0.276
-535.150	-139.157	0.083	-0.009
-534.135	66.806	0.255	0.263
-533.121	12.532	0.178	-0.140
-532.106	-174.608	0.159	-0.005
-531.091	296.132	-0.063	-0.116
-530.077	-200.000	-0.013	-0.139
-529.062	154.056	-0.091	0.126
-528.048	-200.000	-0.017	0.240
-527.033	-32.923	0.112	0.063
-526.018	310.291	-0.092	0.175
-525.004	23.556	-0.146	-0.122
-523.989	-84.405	-0.313	-0.100
-522.975	141.812	-0.312	-0.419
-521.960	-200.000	0.057	-0.274
-520.945	437.554	0.050	-0.112
-519.931	-42.727	-0.201	-0.104
-518.916	-34.984	0.120	-0.066
-517.902	-99.011	-0.146	0.037
-516.887	-79.711	0.184	-0.063
-515.872	-45.733	0.270	-0.135
-514.858	460.769	-0.055	-0.125
-513.843	233.220	-0.116	-0.193
-512.829	-28.505	0.083	-0.049
-511.814	231.806	-0.072	0.120
-510.799	216.574	-0.134	0.215
-509.785	-155.207	-0.305	-0.020
-508.770	-200.000	0.031	-0.221
-507.756	-200.000	-0.026	-0.201
-506.741	143.840	-0.161	-0.218
-505.726	-32.500	-0.308	0.174
-504.712	800.000	0.053	0.234
-503.697	236.274	0.065	-0.109
-502.683	-38.641	-0.076	0.041
-501.668	-200.000	0.006	-0.124
-500.653	134.030	-0.184	-0.241
-499.639	-49.237	0.188	0.091
-498.624	519.064	0.109	-0.259
-497.610	75.149	0.071	-0.076
-496.595	14.631	0.077	0.061
-495.581	-35.009	-0.114	0.063
-494.566	800.000	0.086	0.272
-493.551	60.315	0.050	-0.050
-492.537	800.000	-0.029	0.121
-491.522	206.844	0.080	0.126
-490.508	-140.940	-0.071	0.007
-489.493	-107.060	0.216	0.048
-488.478	20.996	0.204	0.168
-487.464	-200.000	0.001	-0.222
-486.449	-200.000	-0.019	-0.132
-485.435	-113.674	-0.085	0.017
-484.420	-83.826	-0.109	0.035
-483.405	-23.413	0.274	-0.167
-482.391	-67.215	-0.077	0.031
-481.376	-89.576	-0.270	-0.080
-480.362	800.000	0.091	-0.309
-479.347	-174.684	0.175	0.005
-478.332	-200.000	-0.034	0.231
-477.318	-150.279	-0.453	0.035
-476.303	151.761	-0.134	-0.185
-475.289	-152.102	0.081	0.006
-474.274	153.358	0.364	-0.505
-473.259	-20.316	-0.140	0.087
-472.245	-22.351	0.153	0.094
-471.230	294.476	-0.130	-0.240
-470.216	-163.147	-0.370	0.018
-469.201	-200.000	0.066	0.401
-468.186	101.515	0.261	0.308
-467.172	-200.000	-0.004	0.032
-466.157	119.260	0.114	0.143
-465.143	112.060	-0.156	0.190
-464.128	800.000	-0.136	0.479
-463.113	194.189	0.262	0.402
-462.099	87.315	-0.092	-0.103
-461.084	52.289	0.171	0.165
-460.070	-14.422	0.234	-0.153
-459.055	-200.000	0.010	-0.143
-458.040	8.250	0.262	-0.199
-457.026	32.714	-0.119	0.104
-456.011	-165.616	0.053	0.002
-454.997	465.842	0.145	0.329
-453.982	-169.126	0.364	-0.014
-452.968	-106.983	0.211	-0.047
-451.953	800.000	0.044	0.126
-450.938	800.000	-0.065	0.205
-449.924	800.000	0.054	-0.202
-448.909	42.486	-0.070	0.065
-447.895	-200.000	0.028	-0.130
-446.880	-136.176	-0.056	-0.007
-445.865	-124.373	0.294	0.046
-444.851	360.269	-0.111	0.224
-443.836	-200.000	-0.005	0.045
-442.822	11.833	0.106	0.083
-441.807	-131.917	-0.153	0.020
-440.792	800.000	-0.067	-0.231
-439.778	-60.098	-0.173	-0.074
-438.763	52.984	-0.127	0.123
-437.749	-71.976	-0.215	0.081
-436.734	25.617	0.259	-0.218
-435.719	-53.007	-0.224	0.104
-434.705	-200.000	0.025	-0.224
-433.690	2.279	0.109	-0.079
-432.676	-120.644	0.199	-0.034
-431.661	-29.046	0.358	0.208
-430.646	105.593	-0.100	-0.119
-429.632	1.384	-0.151	-0.110
-428.617	22.474	-0.201	0.167
-427.603	-140.173	-0.125	0.013
-426.588	258.282	0.138	-0.240
-425.573	-200.000	0.019	-0.100
-424.559	800.000	0.037	0.128
-423.544	-34.506	0.118	-0.065
-422.530	563.246	0.111	0.271
-421.515	-80.294	-0.173	0.058
-420.500	-34.696	0.448	0.248
-419.486	-183.152	0.252	-0.004
-418.471	-111.361	0.144	-0.030
-417.457	23.412	-0.157	-0.131
-416.442	-200.000	-0.032	-0.251
-415.428	133.245	-0.076	0.100
-414.413	-199.285	0.165	-0.001
-413.398	-113.557	-0.080	-0.016
-412.384	-137.295	-0.372	-0.043
-411.369	216.817	-0.032	0.052
-410.355	800.000	0.080	0.317
-409.340	82.830	0.029	0.032
-408.325	251.948	0.145	-0.250
-407.311	265.833	-0.299	0.527
-406.296	-124.877	-0.350	0.055
-405.282	-200.000	-0.052	0.255
-404.267	-200.000	0.002	-0.376
-403.252	298.826	0.073	-0.136
-402.238	650.991	-0.056	0.144
-401.223	124.354	0.180	0.229
-400.209	800.000	0.023	0.081
-399.194	9.710	-0.252	0.193
-398.179	-200.000	-0.019	-0.202
-397.165	-69.067	-0.131	0.051
-396.150	-200.000	-0.005	-0.380
-395.136	-89.665	0.187	0.055
-394.121	-49.182	0.093	0.045
-393.106	152.098	0.056	0.077
-392.092	136.786	-0.035	-0.045
-391.077	-72.873	-0.190	-0.071
-390.063	96.312	0.049	0.056
-389.048	-8.933	-0.198	-0.134
-388.033	-183.557	-0.111	-0.002
-387.019	-116.445	-0.357	-0.067
-386.004	-14.816	0.143	-0.093
-384.990	-160.319	-0.080	-0.004
-383.975	800.000	0.142	0.488
-382.960	-143.891	0.252	0.024
-381.946	-160.798	0.244	-0.013
-380.931	-200.000	-0.066	0.393
-379.917	18.647	0.137	-0.110
-378.902	-11.782	-0.305	-0.202
-377.888	0.067	0.208	0.150
-376.873	27.855	0.141	0.120
-375.858	-200.000	0.020	0.146
-374.844	37.236	0.078	-0.070
-373.829	-103.673	0.107	0.025
-372.815	-129.873	-0.065	0.009
-371.800	8.564	-0.124	0.094
-370.785	139.625	0.219	-0.291
-369.771	91.362	0.147	-0.167
-368.756	119.508	0.125	0.156
-367.742	800.000	0.076	-0.258
-366.727	-45.691	-0.086	-0.043
-365.712	-7.298	0.255	-0.175
-364.698	26.378	-0.311	0.263
-363.683	-112.103	-0.121	0.024
-362.669	336.728	0.095	-0.186
-361.654	202.226	-0.082	-0.128
-360.639	-200.000	0.041	-0.228
-359.625	-151.049	-0.178	-0.013
-358.610	111.461	0.188	0.228
-357.596	-200.000	-0.165	-0.001
-356.581	-200.000	-0.021	0.117
-355.566	-200.000	0.007	0.179
-354.552	800.000	-0.064	0.185
-353.537	-200.000	0.031	0.248
-352.523	-91.976	0.403	0.115
-351.508	-200.000	0.029	0.292
-350.493	-26.144	-0.171	-0.102
-349.479	-100.569	-0.249	0.062
-348.464	734.020	0.010	-0.027
-347.450	-81.997	0.480	0.158
-346.435	-28.342	-0.149	-0.087
-345.420	255.138	0.041	-0.070
-344.406	456.448	0.062	0.139
-343.391	353.986	-0.054	0.108
-342.377	251.554	0.125	-0.214
-341.362	800.000	-0.033	-0.097
-340.348	367.278	-0.098	0.198
-339.333	-42.220	-0.288	-0.148
-338.318	-143.284	0.215	-0.021
-337.304	-70.526	0.117	0.044
-336.289	-49.755	0.043	0.021
-335.275	318.286	0.096	-0.183
-334.260	15.132	-0.140	0.111
-333.245	-49.275	-0.333	-0.160
-332.231	800.000	0.007	-0.021
-331.216	505.419	0.153	-0.356
-330.202	-38.313	0.145	-0.077
-329.187	-130.180	-0.208	-0.029
-328.172	267.719	0.065	0.114
-327.158	85.147	0.037	-0.041
-326.143	-105.648	0.492	0.112
-325.129	92.831	0.049	-0.055
-324.114	-70.343	0.083	-0.032
-323.099	800.000	-0.031	-0.097
-322.085	-200.000	-0.085	0.407
-321.070	-105.325	-0.189	-0.043
-320.056	-200.000	-0.005	-0.326
-319.041	-119.913	-0.214	-0.037
-318.026	-47.240	-0.233	-0.114
-317.012	-133.081	-0.293	-0.037
-315.997	204.749	-0.182	0.283
-314.983	-123.400	0.252	0.040
-313.968	-117.729	-0.301	-0.054
-312.953	-122.483	-0.261	0.043
-311.939	79.271	0.213	-0.230
-310.924	38.216	0.077	0.069
-309.910	-102.810	0.189	0.045
-308.895	139.339	0.160	0.211
-307.880	-89.171	0.060	-0.018
-306.866	440.263	0.044	-0.096
-305.851	-200.000	-0.031	-0.151
-304.837	175.969	0.141	0.206
-303.822	-126.492	-0.203	-0.030
-302.807	-200.000	-0.003	0.051
-301.793	-82.659	0.295	-0.096
-300.778	-200.000	-0.033	0.287
-299.764	117.811	0.117	0.145
-298.749	-29.758	-0.204	-0.117
-297.735	97.410	0.456	0.526
-296.720	-99.006	-0.335	-0.085
-295.705	131.362	-0.330	0.426
-294.691	-92.028	0.072	0.020
-293.676	-50.636	0.304	-0.144
-292.662	-125.434	-0.161	-0.025
-291.647	-200.000	0.018	0.284
-290.632	-130.583	-0.237	-0.032
-289.618	-47.143	-0.083	0.041
-288.603	-151.820	0.245	-0.018
-287.589	-22.663	-0.097	0.059
-286.574	-55.571	-0.382	0.172
-285.559	-130.334	0.162	-0.022
-284.545	-80.672	0.386	-0.129
-283.530	-11.805	0.154	-0.101
-282.516	-200.000	0.011	-0.251
-281.501	45.138	0.078	0.073
-280.486	-12.771	-0.173	0.113
-279.472	185.652	0.108	-0.161
-278.457	-200.000	-0.029	0.163
-277.443	-57.547	-0.018	-0.008
-276.428	158.596	-0.054	-0.075
-275.413	-200.000	-0.052	-0.302
-274.399	-10.845	0.371	-0.246
-273.384	96.144	-0.102	0.117
-272.370	-67.379	-0.213	-0.084
-271.355	16.364	0.123	0.098
-270.340	-73.894	0.214	0.078
-269.326	-121.344	-0.237	-0.040
-268.311	797.728	-0.073	0.203
-267.297	800.000	0.113	-0.332
-266.282	43.899	-0.100	-0.092
-265.267	-1.452	-0.362	-0.257
-264.253	115.604	0.088	-0.108
-263.238	-200.000	-0.003	0.213
-262.224	522.155	0.055	-0.131
-261.209	-43.611	0.217	-0.110
-260.195	-200.000	0.052	-0.298
-259.180	-200.000	0.008	-0.326
-258.165	0.171	0.205	-0.147
-257.151	-9.720	0.155	-0.104
-256.136	24.073	-0.104	-0.087
-255.122	-200.000	0.029	-0.258
-254.107	-72.424	0.220	-0.082
-253.092	-200.000	0.020	-0.123
-252.078	-200.000	-0.011	0.103
-251.063	-97.148	-0.305	0.080
-250.049	77.366	0.171	0.182
-249.034	47.186	-0.196	-0.183
-248.019	68.001	-0.094	-0.097
-247.005	-200.000	0.007	-0.072
-245.990	164.859	0.097	-0.137
-244.976	-24.343	-0.230	0.138
-243.961	-44.703	0.147	-0.073
-242.946	91.932	-0.147	-0.166
-241.932	71.751	-0.370	0.386
-240.917	141.201	0.154	0.204
-239.903	-58.676	-0.255	0.111
-238.888	20.819	-0.106	-0.086
-237.873	36.029	-0.086	-0.076
-236.859	48.449	-0.141	0.133
-235.844	369.389	-0.006	0.012
-234.830	34.899	-0.276	0.242
-233.815	387.977	0.104	-0.217
-232.800	2.066	-0.119	-0.086
-231.786	-200.000	0.007	0.039
-230.771	-150.918	-0.186	-0.014
-229.757	231.047	0.095	-0.155
-228.742	39.470	-0.090	-0.081
-227.727	-200.000	-0.002	-0.036
-226.713	161.502	0.100	-0.141
-225.698	-133.130	-0.201	0.025
-224.684	-200.000	0.019	-0.119
-223.669	34.221	0.103	-0.090
-222.655	106.498	-0.162	-0.192
-221.640	35.426	-0.020	0.017
-220.625	800.000	0.118	-0.333
-219.611	69.283	0.137	-0.141
-218.596	-80.042	0.340	-0.114
-217.582	-76.346	-0.149	0.053
-216.567	289.620	0.098	-0.178
-215.552	-193.175	0.384	-0.003
-214.538	-200.000	-0.003	0.072
-213.523	800.000	0.136	0.399
-212.509	60.181	-0.180	-0.178
-211.494	-200.000	-0.025	0.250
-210.479	-115.117	-0.086	0.016
-209.465	-113.779	-0.308	0.060
-208.450	156.892	-0.067	-0.093
-207.436	248.737	-0.021	0.035
-206.421	-94.242	0.187	0.051
-205.406	-200.000	0.021	0.192
-204.392	45.039	-0.077	-0.071
-203.377	-88.981	-0.068	0.020
-202.363	-73.953	0.323	0.117
-201.348	128.560	0.074	-0.094
-200.333	-57.997	-0.209	0.091
-199.319	800.000	-0.102	-0.322
-198.304	-7.763	-0.247	-0.167
-197.290	256.078	0.072	0.124
-196.275	-144.173	-0.218	0.020
-195.260	591.326	0.069	0.171
-194.246	231.371	-0.149	0.245
-193.231	-56.433	0.143	-0.064
-192.217	-56.103	0.402	-0.179
-191.202	133.876	-0.226	-0.293
-190.187	-114.962	0.079	0.015
-189.173	148.921	-0.088	0.119
-188.158	-168.584	0.188	-0.007
-187.144	-200.000	-0.094	0.546
-186.129	315.558	-0.166	-0.314
-185.114	800.000	0.033	-0.106
-184.100	418.571	0.049	0.104
-183.085	-172.029	0.475	-0.015
-182.071	-162.079	-0.166	-0.008
-181.056	-200.000	-0.019	-0.203
-180.042	-111.939	0.349	-0.070
-179.027	-13.418	-0.064	0.041
-178.012	-67.228	0.295	0.116
-176.998	-200.000	-0.018	-0.306
-175.983	-67.816	-0.183	0.072
-174.969	-178.913	0.248	-0.006
-173.954	198.995	-0.051	0.078
-172.939	-74.145	0.039	0.014
-171.925	359.227	0.099	0.199
-170.910	-1.017	0.300	-0.213
-169.896	101.380	0.075	-0.087
-168.881	-83.708	-0.321	0.102
-167.866	24.357	0.190	-0.157
-166.852	-117.926	0.120	0.021
-165.837	-200.000	0.018	0.092
-164.823	-28.800	-0.340	0.196
-163.808	141.941	-0.131	0.174
-162.793	435.172	0.116	0.252
-161.779	-19.068	-0.209	-0.130
-160.764	-200.000	-0.057	-0.461
-159.750	398.585	0.057	0.120
-158.735	175.203	0.313	0.453
-157.720	-4.630	-0.159	0.110
-156.706	43.060	0.088	-0.080
-155.691	-154.185	-0.110	-0.007
-154.677	-29.132	-0.072	0.041
-153.662	361.825	-0.085	0.171
-152.647	-200.000	0.065	0.343
-151.633	-76.262	0.255	0.090
-150.618	16.162	-0.130	-0.103
-149.604	-125.932	0.303	0.046
-148.589	59.477	0.092	0.091
-147.574	156.277	0.052	-0.071
-146.560	-200.000	-0.036	0.242
-145.545	-58.882	0.247	-0.107
-144.531	336.954	-0.086	0.167
-143.516	276.319	-0.153	0.272
-142.502	-138.594	-0.061	0.007
-141.487	-148.203	-0.142	-0.012
-140.472	-44.245	0.413	0.207
-139.458	-200.000	-0.000	-0.021
-138.443	-21.891	0.081	0.049
-137.429	98.985	0.207	-0.238
-136.414	800.000	0.032	0.116
-135.399	-151.460	-0.261	0.019
-134.385	-37.690	0.076	-0.040
-133.370	-98.658	-0.217	-0.055
-132.356	-47.309	0.431	-0.210
-131.341	10.052	-0.160	0.121
-130.326	56.759	-0.205	0.200
-129.312	381.908	-0.202	0.415
-128.297	49.085	0.246	-0.230
-127.283	501.806	0.011	0.026
-126.268	800.000	-0.122	0.359
-125.253	419.276	0.112	-0.240
-124.239	158.531	0.326	0.452
-123.224	93.629	-0.084	0.095
-122.210	-0.609	-0.205	0.145
