DTS Sentinel unit serial number:	SN413079Multiplexer serial number:	ORYXHardware model number:	OX4-SRSoftware version number:	ORYX F/W v4.00 Oryx Data Collector v3.7.2.0data status	okinstallation	princeton_trtdifferential loss correction	single-endedforward channel	channel 3reverse channel	N/Adate	2019/09/11time	13:50:11forward acquisition time	60.00reverse acquisition time	0.00gamma	496.2192k internal	0.2293k external	0.2293temperature offset calibration	0.9978default loss term (dB/km)	0.3790temperature slope calibration	1.0000multiplexer offset coefficient	1.0000multiplexer slope coefficient	1.0000fibre end	0.00T internal ref (°C)	41.87T ext. ref 1 (°C)	0.83T ext. ref 2 (°C)	35.90length (m)	temperature (°C)	Stokes	anti-Stokes-747.200	-200.000	0.032	-0.270
-746.185	800.000	-0.040	0.120
-745.171	125.718	0.258	-0.333
-744.156	-27.763	0.100	-0.059
-743.142	-62.221	0.210	0.090
-742.127	318.416	0.023	0.044
-741.112	-9.176	-0.169	-0.116
-740.098	800.000	-0.024	-0.103
-739.083	-200.000	-0.046	-0.347
-738.069	-200.000	0.058	0.480
-737.054	5.685	0.073	-0.055
-736.039	-90.136	-0.200	-0.060
-735.025	-37.011	0.235	0.129
-734.010	800.000	0.003	-0.013
-732.996	78.370	0.184	-0.201
-731.981	511.470	0.075	-0.178
-730.966	592.075	-0.059	0.150
-729.952	264.944	-0.253	-0.450
-728.937	109.226	-0.182	0.223
-727.923	41.583	0.321	-0.297
-726.908	-65.944	0.056	-0.023
-725.894	-132.119	-0.412	0.055
-724.879	-61.005	0.121	0.052
-723.864	-92.798	-0.284	0.081
-722.850	-15.884	0.065	-0.043
-721.835	134.082	-0.228	-0.303
-720.821	172.686	0.049	-0.072
-719.806	567.381	0.174	-0.433
-718.791	73.930	0.072	-0.077
-717.777	-136.043	-0.139	0.017
-716.762	490.695	-0.076	0.178
-715.748	-36.979	-0.345	-0.189
-714.733	45.768	0.134	0.127
-713.718	800.000	-0.068	-0.238
-712.704	-97.122	0.359	0.096
-711.689	-46.335	0.223	-0.112
-710.675	-65.088	0.120	0.049
-709.660	-110.055	0.132	-0.028
-708.645	800.000	0.055	0.200
-707.631	221.043	-0.041	-0.068
-706.616	-180.118	0.114	0.002
-705.602	-95.711	-0.305	-0.083
-704.587	-49.537	-0.269	0.131
-703.572	167.024	-0.272	-0.395
-702.558	-200.000	0.044	0.204
-701.543	153.059	0.268	0.375
-700.529	-68.158	-0.225	-0.090
-699.514	241.544	-0.118	-0.202
-698.499	-34.302	-0.152	-0.085
-697.485	-45.239	0.164	0.083
-696.470	-172.301	-0.211	-0.007
-695.456	-200.000	-0.092	-0.672
-694.441	800.000	-0.024	-0.101
-693.426	-138.611	-0.186	0.021
-692.412	63.253	-0.169	0.173
-691.397	34.317	-0.169	0.151
-690.383	385.359	0.106	-0.222
-689.368	-44.598	-0.150	-0.076
-688.354	2.655	0.144	0.106
-687.339	-8.691	-0.093	0.064
-686.324	-134.939	-0.247	0.030
-685.310	777.803	0.112	0.313
-684.295	206.419	0.070	0.112
-683.281	211.115	-0.102	0.163
-682.266	136.191	-0.138	-0.184
-681.251	25.077	0.123	0.104
-680.237	-200.000	0.006	0.230
-679.222	204.469	0.142	-0.225
-678.208	-116.878	0.373	0.070
-677.193	-1.384	0.202	-0.145
-676.178	800.000	-0.121	0.510
-675.164	23.569	0.316	0.265
-674.149	135.575	0.080	-0.106
-673.135	-200.000	0.077	0.350
-672.120	38.589	0.441	-0.401
-671.105	18.252	-0.094	-0.077
-670.091	800.000	0.078	-0.334
-669.076	411.036	0.179	-0.388
-668.062	-46.323	0.133	0.067
-667.047	800.000	-0.110	0.344
-666.032	3.307	-0.311	0.231
-665.018	365.388	0.116	-0.238
-664.003	139.329	0.182	0.245
-662.989	800.000	0.053	-0.159
-661.974	-98.743	-0.319	-0.083
-660.959	-123.427	-0.140	-0.023
-659.945	-200.000	0.011	-0.051
-658.930	8.553	0.088	0.068
-657.916	-47.487	-0.230	0.114
-656.901	-37.945	-0.283	-0.153
-655.886	55.617	0.098	-0.096
-654.872	187.588	-0.047	0.071
-653.857	311.376	-0.102	-0.195
-652.843	-200.000	0.003	-0.044
-651.828	800.000	0.084	-0.243
-650.814	-200.000	-0.046	-0.211
-649.799	-184.857	-0.216	0.003
-648.784	-200.000	-0.004	0.111
-647.770	-137.481	0.270	-0.031
-646.755	450.086	-0.172	-0.387
-645.741	98.416	0.061	-0.072
-644.726	98.269	-0.183	0.215
-643.711	422.451	0.049	0.108
-642.697	335.702	-0.125	-0.248
-641.682	199.245	-0.143	-0.224
-640.668	-62.987	-0.167	-0.070
-639.653	136.504	0.152	-0.202
-638.638	-200.000	0.027	-0.153
-637.624	-74.979	-0.193	-0.070
-636.609	37.882	-0.244	0.221
-635.595	9.646	0.271	0.210
-634.580	58.564	0.143	-0.143
-633.565	76.615	0.158	-0.171
-632.551	266.918	-0.291	0.518
-631.536	83.483	0.195	-0.216
-630.522	-72.088	-0.081	-0.031
-629.507	165.723	-0.078	-0.112
-628.492	-200.000	0.003	-0.149
-627.478	-200.000	0.046	-0.271
-626.463	185.146	-0.095	0.144
-625.449	58.928	0.185	-0.185
-624.434	-200.000	-0.044	0.201
-623.419	30.316	-0.392	-0.341
-622.405	-85.090	-0.317	-0.101
-621.390	244.591	0.168	-0.288
-620.376	-31.056	0.078	0.045
-619.361	-200.000	0.021	0.195
-618.346	-32.807	-0.419	0.237
-617.332	-158.334	-0.507	-0.030
-616.317	167.120	0.213	-0.308
-615.303	378.328	-0.101	-0.210
-614.288	221.364	-0.116	0.190
-613.273	33.328	0.089	0.079
-612.259	-3.583	-0.057	-0.041
-611.244	800.000	-0.083	-0.354
-610.230	-200.000	-0.004	0.045
-609.215	76.719	-0.237	-0.256
-608.201	4.441	-0.225	0.168
-607.186	105.074	0.097	-0.117
-606.171	148.752	0.199	0.274
-605.157	-34.291	0.156	-0.087
-604.142	-101.575	-0.178	-0.044
-603.128	106.421	0.079	0.095
-602.113	-137.827	0.177	0.020
-601.098	-144.424	-0.103	0.010
-600.084	42.390	0.083	0.077
-599.069	-200.000	-0.064	0.374
-598.055	541.071	-0.091	-0.221
-597.040	72.304	0.297	0.314
-596.025	-104.777	-0.282	-0.066
-595.011	-126.326	0.211	-0.032
-593.996	-166.072	0.323	0.014
-592.982	359.768	0.083	0.169
-591.967	-21.618	0.153	0.095
-590.952	508.883	-0.059	-0.139
-589.938	-4.326	-0.083	-0.058
-588.923	-27.800	0.264	-0.156
-587.909	-125.246	0.181	0.028
-586.894	138.413	0.015	-0.021
-585.879	800.000	0.058	0.194
-584.865	176.720	-0.204	0.302
-583.850	-199.608	-0.265	0.001
-582.836	35.361	0.034	0.030
-581.821	-21.184	-0.145	-0.090
-580.806	-129.816	-0.583	0.082
-579.792	-43.516	0.161	-0.083
-578.777	-82.690	-0.261	-0.086
-577.763	-200.000	0.228	0.001
-576.748	749.500	-0.049	0.136
-575.733	672.463	-0.121	-0.319
-574.719	-0.954	-0.252	0.181
-573.704	-110.004	-0.361	0.077
-572.690	-14.618	-0.077	-0.051
-571.675	57.273	-0.079	0.079
-570.661	-59.836	0.118	-0.051
-569.646	-200.000	0.036	0.168
-568.631	337.893	-0.146	-0.288
-567.617	494.385	0.074	-0.172
-566.602	-200.000	-0.018	0.107
-565.588	-98.885	0.087	-0.022
-564.573	500.483	-0.087	-0.203
-563.558	-165.165	-0.164	-0.007
-562.544	240.740	-0.043	-0.072
-561.529	181.270	-0.030	-0.044
-560.515	-200.000	-0.037	0.186
-559.500	104.066	0.159	-0.190
-558.485	-200.000	-0.053	0.279
-557.471	179.209	-0.207	-0.307
-556.456	-140.619	-0.240	-0.025
-555.442	-200.000	-0.008	0.087
-554.427	-149.638	0.277	0.022
-553.412	-200.000	-0.002	0.172
-552.398	-12.313	0.294	-0.196
-551.383	-90.111	0.080	-0.024
-550.369	800.000	-0.048	0.135
-549.354	93.469	0.108	0.124
-548.339	-74.875	-0.263	-0.096
-547.325	-145.102	-0.115	0.011
-546.310	-85.949	-0.286	-0.090
-545.296	-150.479	0.051	-0.004
-544.281	-124.020	-0.250	0.040
-543.266	-148.238	0.049	-0.004
-542.252	800.000	-0.057	0.211
-541.237	-200.000	-0.010	-0.172
-540.223	47.805	0.139	-0.132
-539.208	800.000	0.082	0.240
-538.193	360.229	-0.099	-0.201
-537.179	-8.603	0.263	-0.179
-536.164	800.000	0.076	0.290
-535.150	800.000	-0.038	-0.108
-534.135	-11.119	-0.105	0.070
-533.121	-118.348	-0.337	0.061
-532.106	252.958	-0.067	0.116
-531.091	-80.579	-0.332	-0.112
-530.077	-23.046	-0.165	-0.101
-529.062	-200.000	0.044	-0.315
-528.048	-110.860	-0.237	-0.049
-527.033	-174.467	0.187	-0.005
-526.018	-126.940	0.368	0.055
-525.004	-115.204	0.430	0.083
-523.989	-128.580	-0.256	-0.037
-522.975	310.757	-0.063	-0.120
-521.960	800.000	-0.045	0.162
-520.945	-200.000	0.007	0.428
-519.931	328.126	-0.193	0.375
-518.916	-100.538	0.181	0.045
-517.902	-0.212	-0.257	0.185
-516.887	162.740	0.310	0.442
-515.872	114.036	0.177	0.218
-514.858	182.946	-0.107	0.160
-513.843	-146.986	-0.032	0.003
-512.829	-104.838	0.167	-0.039
-511.814	188.573	-0.040	-0.061
-510.799	32.273	-0.152	0.133
-509.785	35.017	0.074	0.066
-508.770	33.813	-0.159	-0.140
-507.756	111.287	0.158	-0.193
-506.741	55.582	-0.114	-0.112
-505.726	-200.000	-0.047	-0.274
-504.712	-93.589	-0.186	0.052
-503.697	-59.388	0.180	-0.079
-502.683	15.485	0.150	-0.120
-501.668	-111.077	0.032	-0.007
-500.653	593.396	0.107	-0.268
-499.639	-149.202	-0.259	0.021
-498.624	800.000	0.085	-0.362
-497.610	-136.576	-0.128	0.015
-496.595	43.883	0.072	-0.067
-495.581	-200.000	0.013	-0.119
-494.566	-200.000	0.395	0.000
-493.551	177.479	-0.015	-0.022
-492.537	34.411	-0.059	-0.052
-491.522	-200.000	0.008	0.149
-490.508	365.771	-0.131	0.268
-489.493	279.156	0.160	0.289
-488.478	-200.000	-0.010	0.047
-487.464	-200.000	0.004	0.202
-486.449	706.894	0.135	-0.362
-485.435	-200.000	0.024	-0.334
-484.420	800.000	-0.038	0.108
-483.405	302.632	0.115	-0.216
-482.391	-127.638	0.377	0.055
-481.376	-200.000	0.151	0.715
-480.362	-40.129	-0.133	-0.070
-479.347	5.255	-0.232	0.173
-478.332	16.532	0.301	0.241
-477.318	462.827	0.022	-0.049
-476.303	27.014	-0.175	0.148
-475.289	92.548	-0.246	0.281
-474.274	-200.000	0.001	0.173
-473.259	-111.246	-0.306	0.063
-472.245	-200.000	-0.012	-0.129
-471.230	416.691	-0.112	-0.242
-470.216	137.322	-0.237	0.314
-469.201	101.568	0.194	0.229
-468.186	272.649	-0.244	-0.436
-467.172	288.398	0.147	-0.270
-466.157	-172.730	-0.284	-0.009
-465.143	800.000	0.083	-0.320
-464.128	-138.163	-0.377	0.042
-463.113	64.924	0.183	0.187
-462.099	515.826	0.201	-0.475
-461.084	140.593	-0.118	0.157
-460.070	-200.000	-0.002	-0.083
-459.055	-112.732	0.206	-0.041
-458.040	280.950	0.096	-0.173
-457.026	-200.000	0.021	0.372
-456.011	-200.000	-0.002	0.020
-454.997	395.532	0.100	0.211
-453.982	-200.000	-0.029	0.377
-452.968	-41.035	-0.246	-0.128
-451.953	115.718	0.064	0.079
-450.938	800.000	-0.086	-0.292
-449.924	74.055	-0.058	-0.061
-448.909	153.771	0.180	-0.249
-447.895	800.000	-0.052	-0.227
-446.880	308.230	0.109	-0.206
-445.865	-22.250	-0.082	-0.050
-444.851	-200.000	0.013	-0.229
-443.836	-28.772	-0.054	-0.032
-442.822	-54.133	0.396	-0.182
-441.807	-67.867	-0.181	-0.072
-440.792	-9.322	0.202	-0.136
-439.778	42.421	0.092	0.085
-438.763	-93.255	0.407	-0.114
-437.749	800.000	0.068	-0.223
-436.734	331.186	-0.060	0.116
-435.719	800.000	0.025	0.096
-434.705	-200.000	-0.020	-0.257
-433.690	-107.413	-0.151	0.033
-432.676	-83.272	0.257	-0.083
-431.661	282.062	0.061	0.111
-430.646	-200.000	0.043	0.200
-429.632	43.163	-0.243	-0.224
-428.617	119.896	0.111	-0.139
-427.603	208.128	-0.077	-0.122
-426.588	166.449	0.105	-0.150
-425.573	800.000	0.028	-0.084
-424.559	-200.000	0.082	0.414
-423.544	576.376	0.063	0.156
-422.530	-169.374	-0.222	0.008
-421.515	800.000	0.074	-0.260
-420.500	270.615	-0.126	0.223
-419.486	65.324	-0.174	0.177
-418.471	-140.752	-0.177	-0.018
-417.457	-200.000	-0.021	0.093
-416.442	800.000	0.053	-0.201
-415.428	133.275	0.072	-0.095
-414.413	81.076	0.087	-0.095
-413.398	-23.670	0.291	0.177
-412.384	194.037	0.140	0.214
-411.369	189.126	0.213	-0.322
-410.355	-87.183	0.156	-0.048
-409.340	492.366	-0.095	0.220
-408.325	-83.110	0.404	0.131
-407.311	-200.000	0.034	-0.438
-406.296	-200.000	0.004	0.043
-405.282	800.000	0.053	-0.185
-404.267	-89.617	0.227	-0.067
-403.252	-200.000	0.049	-0.416
-402.238	800.000	-0.028	0.109
-401.223	67.452	0.166	-0.171
-400.209	-200.000	0.161	0.000
-399.194	-98.445	-0.189	0.049
-398.179	106.482	0.169	0.202
-397.165	-200.000	0.012	0.098
-396.150	-63.499	-0.253	-0.105
-395.136	213.796	0.139	0.221
-394.121	78.656	-0.183	0.198
-393.106	110.349	0.113	0.137
-392.092	-94.071	0.043	-0.012
-391.077	-150.778	-0.083	-0.006
-390.063	26.774	0.147	-0.124
-389.048	-42.134	-0.215	-0.111
-388.033	13.004	-0.252	-0.197
-387.019	36.630	0.059	0.052
-386.004	-200.000	0.013	0.273
-384.990	282.257	-0.124	0.224
-383.975	-36.371	-0.418	-0.227
-382.960	-8.457	-0.265	-0.180
-381.946	-112.638	0.161	-0.032
-380.931	-200.000	0.012	-0.072
-379.917	-200.000	0.013	-0.143
-378.902	800.000	0.031	-0.116
-377.888	800.000	-0.049	-0.141
-376.873	-200.000	-0.010	-0.257
-375.858	-127.941	0.105	-0.015
-374.844	-119.196	0.311	-0.055
-373.829	-10.656	0.232	-0.155
-372.815	800.000	-0.072	0.228
-371.800	-105.678	-0.236	0.054
-370.785	-78.545	0.137	0.047
-369.771	46.729	-0.119	0.112
-368.756	-18.411	-0.160	0.101
-367.742	90.953	0.043	0.049
-366.727	-200.000	0.006	0.037
-365.712	-14.631	0.367	0.238
-364.698	25.210	-0.135	0.113
-363.683	226.183	-0.120	0.196
-362.669	24.395	-0.172	-0.143
-361.654	-73.069	0.286	-0.106
-360.639	800.000	-0.011	0.039
-359.625	-172.740	0.130	0.004
-358.610	82.867	0.204	0.224
-357.596	-200.000	0.021	-0.111
-356.581	-36.105	0.222	-0.121
-355.566	-94.333	0.233	-0.064
-354.552	-50.735	0.119	-0.056
-353.537	800.000	0.040	0.162
-352.523	-77.002	-0.047	0.016
-351.508	349.168	0.170	0.339
-350.493	146.151	-0.186	-0.252
-349.479	41.157	-0.143	-0.130
-348.464	-35.440	-0.041	0.022
-347.450	150.991	0.266	0.364
-346.435	356.508	-0.142	0.286
-345.420	-200.000	0.014	-0.288
-344.406	-200.000	-0.025	0.252
-343.391	527.103	0.092	0.219
-342.377	-95.439	-0.255	0.069
-341.362	-116.241	-0.196	-0.037
-340.348	-26.024	-0.194	-0.115
-339.333	-156.927	0.179	-0.011
-338.318	-37.678	0.307	0.165
-337.304	-83.330	0.052	0.017
-336.289	261.813	0.179	0.313
-335.275	-21.078	0.282	0.174
-334.260	-51.144	0.122	-0.058
-333.245	43.856	-0.042	-0.039
-332.231	-35.855	0.416	0.227
-331.216	-177.334	-0.360	-0.009
-330.202	800.000	0.049	-0.209
-329.187	800.000	-0.081	-0.330
-328.172	-88.368	0.367	-0.110
-327.158	-58.100	-0.078	0.034
-326.143	14.216	0.118	-0.092
-325.129	786.056	-0.127	-0.350
-324.114	-200.000	0.009	-0.222
-323.099	-43.598	0.121	0.061
-322.085	54.513	-0.084	-0.081
-321.070	800.000	0.021	-0.059
-320.056	-33.630	-0.035	0.019
-319.041	-182.470	-0.251	-0.005
-318.026	370.045	0.140	0.285
-317.012	-50.570	-0.188	-0.089
-315.997	-200.000	-0.012	0.114
-314.983	-73.036	0.331	0.122
-313.968	-200.000	-0.003	0.037
-312.953	281.369	0.132	0.238
-311.939	-45.994	-0.293	-0.145
-310.924	-149.925	-0.231	-0.018
-309.910	-200.000	-0.037	-0.185
-308.895	800.000	0.144	-0.457
-307.880	49.832	0.155	0.147
-306.866	-156.484	-0.292	-0.018
-305.851	-43.492	-0.184	-0.093
-304.837	2.017	0.107	-0.077
-303.822	-115.369	0.060	0.011
-302.807	291.467	0.020	-0.036
-301.793	280.073	0.160	-0.288
-300.778	-4.281	0.399	0.278
-299.764	102.985	0.166	0.195
-298.749	226.056	-0.015	0.025
-297.735	249.298	0.037	-0.063
-296.720	-44.228	-0.214	-0.108
-295.705	-200.000	0.011	-0.086
-294.691	-200.000	0.011	-0.062
-293.676	477.338	-0.065	0.149
-292.662	38.127	0.173	0.155
-291.647	96.016	0.077	0.088
-290.632	219.998	-0.113	-0.182
-289.618	800.000	0.137	-0.406
-288.603	-136.147	-0.100	-0.012
-287.589	-113.494	-0.311	-0.061
-286.574	176.883	0.130	0.190
-285.559	2.781	0.106	-0.077
-284.545	272.137	-0.225	-0.400
-283.530	-25.260	-0.149	-0.089
-282.516	-57.124	0.168	0.074
-281.501	314.778	0.099	0.188
-280.486	-200.000	0.011	0.186
-279.472	108.228	0.081	0.097
-278.457	-44.348	0.053	-0.027
-277.443	-54.642	-0.189	-0.086
-276.428	445.634	0.079	0.175
-275.413	176.554	0.113	0.166
-274.399	-173.699	0.329	0.010
-273.384	-200.000	-0.032	-0.256
-272.370	275.945	-0.098	-0.174
-271.355	106.407	-0.238	0.284
-270.340	-200.000	-0.025	0.160
-269.326	-200.000	-0.004	0.174
-268.311	-65.528	-0.136	-0.055
-267.297	-73.915	0.225	0.082
-266.282	88.198	-0.146	-0.163
-265.267	327.621	0.078	0.150
-264.253	664.352	0.070	-0.181
-263.238	187.917	-0.205	0.308
-262.224	-163.133	0.329	-0.016
-261.209	-1.636	0.304	-0.215
-260.195	-155.317	-0.474	-0.031
-259.180	800.000	-0.080	0.257
-258.165	35.703	-0.111	0.098
-257.151	800.000	-0.047	-0.163
-256.136	-200.000	-0.008	-0.171
-255.122	143.383	-0.150	0.201
-254.107	113.631	0.107	-0.131
-253.092	122.685	0.214	-0.268
-252.078	-56.437	0.375	0.167
-251.063	-200.000	0.013	0.321
-250.049	-54.417	0.210	0.095
-249.034	-35.397	0.184	-0.100
-248.019	73.146	-0.193	0.202
-247.005	-57.633	-0.133	0.058
-245.990	549.215	0.114	-0.273
-244.976	-30.952	0.094	-0.053
-243.961	-200.000	0.007	0.311
-242.946	-200.000	0.007	0.079
-241.932	-200.000	0.018	-0.192
-240.917	21.498	-0.263	-0.214
-239.903	-38.463	0.209	-0.111
-238.888	-135.841	0.373	0.044
-237.873	-200.000	0.015	0.192
-236.859	-132.492	-0.402	-0.052
-235.844	-104.734	-0.179	0.041
-234.830	-71.297	0.324	-0.122
-233.815	-200.000	-0.010	-0.047
-232.800	-169.520	0.427	0.016
-231.786	-200.000	-0.006	0.057
-230.771	800.000	-0.053	0.162
-229.757	-50.664	-0.214	-0.101
-228.742	-133.640	-0.207	0.026
-227.727	65.659	-0.102	-0.104
-226.713	88.471	-0.271	0.302
-225.698	329.272	0.090	-0.173
-224.684	-63.353	-0.146	0.060
-223.669	-142.685	-0.157	0.015
-222.655	800.000	0.039	0.125
-221.640	14.361	0.318	0.249
-220.625	800.000	-0.053	0.159
-219.611	-200.000	0.009	-0.053
-218.596	-97.645	0.312	-0.081
-217.582	253.650	0.159	-0.272
-216.567	800.000	-0.077	-0.288
-215.552	-119.732	0.271	0.047
-214.538	298.352	0.089	0.165
-213.523	-109.901	0.040	-0.008
-212.509	-200.000	0.046	0.303
-211.494	13.345	-0.148	0.115
-210.479	800.000	-0.075	0.257
-209.465	-142.569	0.127	-0.013
-208.450	-195.067	0.123	0.001
-207.436	-91.571	-0.135	0.039
-206.421	258.603	0.062	-0.108
-205.406	-100.138	-0.175	-0.044
-204.392	23.930	-0.086	0.071
-203.377	-49.063	-0.201	-0.096
-202.363	-200.000	-0.013	0.082
-201.348	446.301	-0.090	-0.199
-200.333	13.555	0.240	-0.187
-199.319	153.709	0.247	0.339
-198.304	85.933	-0.156	-0.171
-197.290	-152.516	-0.082	0.006
-196.275	-63.454	0.189	0.078
-195.260	189.916	-0.132	-0.199
-194.246	-200.000	-0.014	0.135
-193.231	-133.829	-0.366	-0.046
-192.217	-181.729	0.303	0.006
-191.202	-200.000	-0.134	0.000
-190.187	-21.041	0.056	0.034
-189.173	364.514	-0.253	0.510
-188.158	235.332	-0.060	-0.099
-187.144	424.077	0.088	0.189
-186.129	-23.699	-0.115	-0.069
-185.114	99.645	-0.168	0.195
-184.100	16.491	-0.146	-0.115
-183.085	-200.000	-0.013	-0.186
-182.071	-25.343	0.139	0.082
-181.056	-99.562	-0.091	0.023
-180.042	-56.885	-0.147	0.065
-179.027	519.865	0.089	0.209
-178.012	26.549	-0.186	-0.156
-176.998	88.714	-0.121	-0.134
-175.983	30.795	-0.171	0.147
-174.969	-17.722	0.172	-0.108
-173.954	68.894	0.154	0.159
-172.939	-200.000	0.007	-0.038
-171.925	14.501	-0.126	0.098
-170.910	-70.426	0.088	-0.033
-169.896	-200.000	0.018	-0.082
-168.881	-200.000	0.003	0.142
-167.866	-166.707	-0.267	-0.011
-166.852	428.910	-0.052	0.112
-165.837	-127.999	0.355	-0.051
-164.823	179.280	0.105	0.154
-163.808	-153.684	0.230	-0.016
-162.793	-43.772	0.189	0.095
-161.779	-90.351	0.062	0.018
-160.764	-29.234	-0.153	0.088
-159.750	-200.000	0.107	-0.000
-158.735	231.059	0.061	0.100
-157.720	-200.000	0.053	-0.474
-156.706	-97.441	-0.051	0.013
-155.691	342.510	-0.072	0.141
-154.677	-114.448	-0.392	-0.075
-153.662	-200.000	0.021	0.149
-152.647	107.029	-0.208	0.247
-151.633	1.685	0.045	-0.033
-150.618	-131.206	-0.255	-0.034
-149.604	225.172	0.137	-0.222
-148.589	-82.992	0.137	0.044
-147.574	-200.000	-0.058	-0.298
-146.560	28.267	-0.130	-0.110
-145.545	-130.527	0.221	-0.030
-144.531	64.666	0.166	0.167
-143.516	436.390	-0.090	0.196
-142.502	-148.626	-0.250	-0.020
-141.487	-26.848	-0.170	-0.099
-140.472	-67.294	-0.414	0.163
-139.458	-200.000	0.061	-0.386
-138.443	-15.508	0.041	-0.026
-137.429	-31.792	0.131	0.073
-136.414	800.000	-0.066	0.237
-135.399	208.274	-0.063	0.099
-134.385	-15.537	-0.315	0.201
-133.370	129.826	-0.102	-0.130
-132.356	-101.130	-0.164	-0.040
-131.341	294.169	-0.184	-0.336
-130.326	279.339	-0.112	0.199
-129.312	-4.585	0.245	0.169
-128.297	212.732	-0.199	0.313
-127.283	48.138	0.234	0.219
-126.268	146.213	-0.156	0.209
-125.253	591.691	0.096	0.237
-124.239	9.443	-0.155	-0.117
-123.224	-124.503	0.291	0.045
-122.210	-26.688	-0.301	0.176
-121.195	260.340	-0.134	0.232
