DTS Sentinel unit serial number:	SN413079Multiplexer serial number:	ORYXHardware model number:	OX4-SRSoftware version number:	ORYX F/W v4.00 Oryx Data Collector v3.7.2.0data status	okinstallation	princeton_trtdifferential loss correction	single-endedforward channel	channel 3reverse channel	N/Adate	2019/09/11time	23:38:11forward acquisition time	60.00reverse acquisition time	0.00gamma	496.2192k internal	0.2317k external	0.2317temperature offset calibration	1.0053default loss term (dB/km)	0.3790temperature slope calibration	1.0000multiplexer offset coefficient	1.0000multiplexer slope coefficient	1.0000fibre end	0.00T internal ref (°C)	34.12T ext. ref 1 (°C)	1.87T ext. ref 2 (°C)	28.55length (m)	temperature (°C)	Stokes	anti-Stokes-747.200	-83.634	0.165	-0.053
-746.185	-200.000	-0.009	-0.108
-745.171	97.233	-0.164	0.191
-744.156	90.278	-0.122	0.138
-743.142	147.068	0.036	-0.050
-742.127	32.818	-0.158	0.139
-741.112	-40.630	0.045	-0.023
-740.098	-67.473	0.192	0.076
-739.083	-200.000	0.016	0.164
-738.069	-10.236	-0.321	0.215
-737.054	-200.000	0.008	-0.063
-736.039	-36.897	-0.324	-0.176
-735.025	-119.434	-0.106	-0.019
-734.010	170.555	-0.110	-0.160
-732.996	-113.312	-0.297	-0.059
-731.981	42.078	-0.174	-0.160
-730.966	25.198	-0.044	-0.037
-729.952	493.368	0.028	0.065
-728.937	203.115	0.032	-0.049
-727.923	-134.752	0.023	-0.003
-726.908	-29.660	-0.248	-0.143
-725.894	-14.662	-0.125	0.081
-724.879	-153.124	-0.117	0.008
-723.864	-116.349	-0.166	-0.031
-722.850	-105.940	0.130	0.030
-721.835	423.812	0.114	-0.248
-720.821	-13.090	-0.179	0.117
-719.806	534.510	-0.054	0.129
-718.791	-200.000	-0.012	-0.109
-717.777	-200.000	-0.154	0.001
-716.762	-200.000	-0.008	-0.072
-715.748	-200.000	0.039	0.280
-714.733	-17.614	0.227	0.144
-713.718	96.191	-0.133	0.154
-712.704	-145.992	-0.244	-0.022
-711.689	72.753	0.166	-0.175
-710.675	33.697	0.083	-0.073
-709.660	67.478	0.363	0.374
-708.645	800.000	-0.021	-0.076
-707.631	-200.000	0.009	-0.178
-706.616	753.213	0.109	0.298
-705.602	-40.814	-0.392	0.205
-704.587	84.041	-0.065	-0.072
-703.572	197.636	0.072	-0.111
-702.558	303.905	-0.052	-0.097
-701.543	-72.080	0.049	-0.018
-700.529	-200.000	-0.025	0.133
-699.514	-200.000	-0.018	-0.306
-698.499	-159.003	-0.172	-0.010
-697.485	112.769	-0.134	-0.163
-696.470	-13.888	0.135	-0.088
-695.456	28.243	-0.082	-0.070
-694.441	-39.552	0.071	-0.038
-693.426	-200.000	0.009	-0.281
-692.412	82.473	-0.276	-0.302
-691.397	-136.977	0.435	-0.050
-690.383	-12.300	0.066	-0.044
-689.368	29.514	0.048	0.041
-688.354	800.000	0.031	-0.105
-687.339	310.832	0.227	0.429
-686.324	127.769	0.125	0.161
-685.310	-200.000	0.023	-0.409
-684.295	-84.179	0.162	-0.052
-683.281	-156.337	0.062	0.004
-682.266	311.446	-0.034	0.065
-681.251	49.670	-0.132	0.125
-680.237	800.000	0.207	-0.592
-679.222	-123.872	-0.168	0.027
-678.208	-178.310	-0.140	-0.003
-677.193	-200.000	-0.026	-0.163
-676.178	31.699	-0.115	-0.100
-675.164	56.603	-0.119	0.117
-674.149	132.240	0.096	0.125
-673.135	-132.347	-0.246	0.032
-672.120	49.175	0.356	0.338
-671.105	-86.750	-0.158	0.049
-670.091	164.401	-0.147	-0.209
-669.076	-152.241	-0.383	0.028
-668.062	-200.000	0.013	0.151
-667.047	25.634	-0.206	0.173
-666.032	-153.108	0.069	0.005
-665.018	-173.818	-0.108	-0.003
-664.003	800.000	-0.066	0.257
-662.989	-53.969	0.215	-0.099
-661.974	800.000	-0.052	-0.160
-660.959	241.017	0.242	-0.407
-659.945	-70.267	-0.201	-0.077
-658.930	65.335	-0.226	-0.231
-657.916	-82.446	0.323	-0.106
-656.901	1.684	0.083	-0.060
-655.886	70.825	-0.130	0.136
-654.872	-99.579	-0.028	0.007
-653.857	-181.463	-0.378	-0.007
-652.843	-70.505	-0.147	0.056
-651.828	150.722	-0.207	0.283
-650.814	708.367	-0.078	-0.209
-649.799	63.958	-0.096	0.097
-648.784	181.938	-0.083	0.124
-647.770	-15.031	-0.018	-0.012
-646.755	58.297	-0.202	0.199
-645.741	-200.000	0.095	0.539
-644.726	-165.879	0.167	-0.007
-643.711	-108.532	-0.268	0.058
-642.697	42.550	-0.151	0.139
-641.682	713.546	0.055	0.146
-640.668	429.482	0.069	-0.151
-639.653	-169.135	-0.294	-0.011
-638.638	-141.545	-0.457	0.047
-637.624	54.311	-0.151	0.147
-636.609	-200.000	-0.048	0.263
-635.595	396.403	-0.154	-0.324
-634.580	800.000	-0.106	-0.306
-633.565	38.375	-0.104	-0.093
-632.551	218.146	-0.067	-0.107
-631.536	-96.413	0.354	0.094
-630.522	255.370	-0.195	-0.336
-629.507	-200.000	-0.003	-0.140
-628.492	-200.000	0.034	-0.254
-627.478	-87.148	-0.041	0.013
-626.463	800.000	0.055	-0.204
-625.449	800.000	-0.107	-0.331
-624.434	2.505	0.081	-0.059
-623.419	219.061	0.141	0.226
-622.405	82.547	-0.234	-0.256
-621.390	800.000	-0.040	-0.150
-620.376	82.208	-0.184	-0.201
-619.361	-35.187	-0.107	0.059
-618.346	162.231	0.025	0.035
-617.332	-41.483	-0.194	0.101
-616.317	144.753	-0.115	-0.154
-615.303	280.252	0.180	0.324
-614.288	704.409	0.021	-0.057
-613.273	-200.000	-0.008	-0.110
-612.259	-56.468	0.271	-0.121
-611.244	20.359	-0.211	-0.172
-610.230	111.210	0.125	-0.151
-609.215	800.000	0.111	-0.415
-608.201	-135.322	0.074	0.009
-607.186	-200.000	0.092	0.434
-606.171	-40.459	-0.207	-0.108
-605.157	-28.998	0.390	-0.225
-604.142	2.642	0.396	0.289
-603.128	59.126	0.085	-0.084
-602.113	-90.672	-0.233	0.068
-601.098	431.340	0.064	0.139
-600.084	-101.105	-0.208	-0.051
-599.069	-14.295	0.300	-0.194
-598.055	-200.000	0.008	-0.099
-597.040	-128.025	0.745	0.108
-596.025	-200.000	0.024	-0.336
-595.011	3.794	-0.255	0.187
-593.996	400.507	-0.033	0.069
-592.982	800.000	0.094	0.317
-591.967	380.554	0.029	-0.059
-590.952	-200.000	-0.048	-0.296
-589.938	602.108	-0.055	0.138
-588.923	290.236	-0.055	-0.101
-587.909	-24.796	0.321	0.192
-586.894	-62.094	-0.112	0.047
-585.879	-179.660	0.097	0.002
-584.865	-122.324	-0.285	0.047
-583.850	-14.089	-0.350	-0.227
-582.836	800.000	0.063	-0.250
-581.821	-95.522	0.273	-0.074
-580.806	213.812	0.090	-0.143
-579.792	132.954	0.217	-0.282
-578.777	31.901	0.082	-0.071
-577.763	54.329	-0.168	-0.162
-576.748	-200.000	0.020	0.232
-575.733	-8.035	-0.292	0.198
-574.719	12.119	0.139	-0.108
-573.704	219.692	0.143	-0.230
-572.690	-93.303	0.049	-0.014
-571.675	-58.487	0.252	-0.110
-570.661	216.898	0.258	0.414
-569.646	-158.573	0.271	-0.016
-568.631	-200.000	0.002	0.132
-567.617	20.724	-0.358	0.291
-566.602	-173.388	-0.196	-0.006
-565.588	182.821	0.076	0.112
-564.573	-200.000	-0.009	-0.252
-563.558	-120.821	-0.307	-0.052
-562.544	-130.825	-0.256	0.035
-561.529	-111.535	0.224	-0.046
-560.515	-10.272	-0.270	-0.180
-559.500	108.378	-0.197	-0.236
-558.485	50.440	0.202	0.192
-557.471	-88.505	0.276	-0.083
-556.456	-156.818	-0.154	-0.010
-555.442	800.000	0.038	-0.129
-554.427	-22.958	0.168	0.102
-553.412	800.000	-0.023	-0.083
-552.398	25.151	-0.251	-0.210
-551.383	124.868	0.132	0.167
-550.369	-200.000	-0.003	-0.029
-549.354	102.707	0.213	0.251
-548.339	234.469	0.054	-0.090
-547.325	800.000	-0.014	0.062
-546.310	-112.490	0.142	-0.029
-545.296	-87.970	-0.292	0.088
-544.281	-37.782	-0.199	-0.107
-543.266	800.000	-0.121	0.386
-542.252	147.150	-0.129	-0.174
-541.237	131.238	-0.113	-0.146
-540.223	-94.810	0.102	0.028
-539.208	-90.732	-0.170	0.049
-538.193	-127.378	0.412	-0.060
-537.179	-85.300	0.171	-0.054
-536.164	-200.000	-0.036	-0.198
-535.150	80.680	-0.108	0.117
-534.135	-16.020	0.100	0.064
-533.121	-101.962	-0.148	0.036
-532.106	114.727	-0.205	-0.250
-531.091	-20.198	-0.264	0.163
-530.077	-53.193	0.528	0.243
-529.062	-2.880	-0.236	-0.166
-528.048	525.438	0.191	-0.452
-527.033	-10.295	0.148	-0.098
-526.018	-92.283	-0.348	-0.098
-525.004	117.988	0.196	-0.242
-523.989	-200.000	0.054	0.300
-522.975	-12.854	0.170	0.111
-521.960	-153.392	0.242	0.017
-520.945	-68.977	0.108	0.042
-519.931	-200.000	-0.010	-0.302
-518.916	800.000	0.089	-0.348
-517.902	6.763	0.134	0.100
-516.887	127.809	0.206	0.263
-515.872	-200.000	-0.009	0.123
-514.858	75.533	-0.276	-0.293
-513.843	800.000	-0.041	0.138
-512.829	294.216	0.163	-0.298
-511.814	43.611	-0.062	-0.057
-510.799	-200.000	0.027	-0.222
-509.785	-200.000	0.003	-0.145
-508.770	158.259	0.134	0.187
-507.756	-200.000	-0.041	-0.391
-506.741	-103.516	-0.200	0.047
-505.726	-200.000	0.061	0.281
-504.712	262.217	-0.057	0.098
-503.697	-123.350	0.138	0.022
-502.683	-88.836	-0.295	-0.088
-501.668	-30.968	-0.363	0.205
-500.653	-200.000	-0.004	0.171
-499.639	182.249	-0.282	-0.417
-498.624	-90.663	-0.240	-0.070
-497.610	15.727	-0.066	0.052
-496.595	-62.488	0.210	0.087
-495.581	-33.183	0.181	0.100
-494.566	70.500	-0.143	-0.149
-493.551	-159.953	0.119	0.006
-492.537	-74.997	0.057	-0.020
-491.522	-200.000	0.023	-0.291
-490.508	519.881	0.072	-0.170
-489.493	764.277	0.030	0.082
-488.478	105.416	-0.092	-0.108
-487.464	800.000	-0.021	-0.081
-486.449	-192.371	-0.192	0.002
-485.435	-82.124	-0.247	-0.081
-484.420	-200.000	0.021	0.212
-483.405	800.000	0.072	-0.225
-482.391	-121.422	0.338	-0.056
-481.376	-200.000	-0.022	0.169
-480.362	-120.448	0.175	0.030
-479.347	-32.979	0.163	-0.090
-478.332	-69.076	0.245	0.094
-477.318	-200.000	-0.000	-0.200
-476.303	800.000	-0.088	0.359
-475.289	800.000	0.018	0.065
-474.274	800.000	0.047	-0.178
-473.259	-47.441	-0.293	0.143
-472.245	-33.251	-0.106	0.059
-471.230	-124.684	-0.334	-0.052
-470.216	-61.426	-0.211	0.089
-469.201	-101.497	0.067	0.016
-468.186	785.061	0.040	-0.111
-467.172	800.000	-0.044	0.151
-466.157	15.620	-0.124	-0.098
-465.143	95.572	-0.169	-0.193
-464.128	-111.986	-0.088	-0.018
-463.113	1.513	-0.157	-0.113
-462.099	-200.000	0.003	0.083
-461.084	-44.606	-0.224	0.112
-460.070	-99.772	0.319	0.080
-459.055	126.160	-0.131	-0.166
-458.040	215.931	0.153	0.243
-457.026	102.305	0.175	0.205
-456.011	-29.195	0.087	-0.050
-454.997	672.677	-0.059	0.154
-453.982	-60.812	0.145	-0.062
-452.968	-67.190	-0.119	0.047
-451.953	-136.424	0.017	0.002
-450.938	-61.298	-0.291	0.123
-449.924	800.000	-0.173	0.519
-448.909	-200.000	-0.010	-0.112
-447.895	180.464	0.075	0.110
-446.880	-200.000	-0.002	0.020
-445.865	321.279	-0.281	-0.534
-444.851	358.667	-0.065	0.129
-443.836	-200.000	0.008	-0.129
-442.822	-112.730	0.135	-0.027
-441.807	219.748	0.065	-0.104
-440.792	-79.181	0.176	0.060
-439.778	-44.493	-0.211	-0.106
-438.763	-36.479	0.322	-0.173
-437.749	-72.394	0.100	0.037
-436.734	-149.907	-0.112	0.009
-435.719	-16.991	-0.273	-0.172
-434.705	22.776	-0.058	-0.047
-433.690	124.822	-0.064	-0.081
-432.676	65.713	0.132	-0.134
-431.661	-40.423	-0.322	0.167
-430.646	750.130	-0.034	0.092
-429.632	800.000	-0.067	-0.247
-428.617	-200.000	-0.044	-0.251
-427.603	53.292	-0.263	0.252
-426.588	800.000	0.090	0.307
-425.573	-200.000	-0.055	0.260
-424.559	800.000	0.082	-0.299
-423.544	47.290	0.033	0.031
-422.530	77.999	-0.173	0.185
-421.515	-193.114	-0.146	-0.001
-420.500	-165.099	0.418	0.019
-419.486	-1.282	-0.187	-0.132
-418.471	245.087	-0.100	0.168
-417.457	-4.291	0.309	-0.213
-416.442	622.400	0.092	-0.231
-415.428	44.839	0.177	0.163
-414.413	638.752	-0.076	-0.194
-413.398	-140.777	0.259	0.027
-412.384	170.549	0.120	0.172
-411.369	345.898	-0.056	0.109
-410.355	-200.000	-0.002	0.091
-409.340	-69.489	-0.100	0.038
-408.325	271.147	-0.039	-0.068
-407.311	-200.000	0.048	-0.232
-406.296	-60.584	0.182	-0.077
-405.282	-45.293	-0.290	-0.144
-404.267	141.923	-0.028	0.037
-403.252	65.762	0.042	0.043
-402.238	-94.722	0.228	-0.062
-401.223	-32.054	-0.260	-0.145
-400.209	-74.133	0.104	-0.037
-399.194	118.369	-0.085	0.105
-398.179	-200.000	0.026	0.252
-397.165	-162.481	-0.351	-0.017
-396.150	-200.000	-0.049	0.418
-395.136	800.000	-0.095	0.283
-394.121	-110.509	0.050	-0.010
-393.106	439.308	0.096	-0.209
-392.092	-152.702	0.461	0.033
-391.077	-200.000	-0.011	-0.243
-390.063	-110.105	0.311	-0.065
-389.048	-99.920	-0.398	-0.099
-388.033	-68.912	0.270	0.104
-387.019	-200.000	0.006	0.075
-386.004	-200.000	-0.009	-0.060
-384.990	-143.471	0.449	0.043
-383.975	-200.000	0.022	0.510
-382.960	59.086	0.225	-0.221
-381.946	153.823	0.079	0.108
-380.931	-75.662	0.107	-0.038
-379.917	800.000	-0.030	0.114
-378.902	248.435	0.012	0.019
-377.888	125.709	-0.213	-0.268
-376.873	12.058	0.179	0.137
-375.858	-17.076	-0.195	-0.123
-374.844	-106.817	-0.205	-0.045
-373.829	-24.204	0.292	-0.174
-372.815	317.265	0.124	-0.234
-371.800	-145.464	0.169	-0.015
-370.785	309.088	0.090	0.168
-369.771	65.551	-0.061	0.062
-368.756	-30.072	-0.098	0.056
-367.742	149.324	-0.251	-0.340
-366.727	-200.000	-0.016	0.206
-365.712	-76.224	0.186	-0.066
-364.698	-82.324	0.308	0.100
-363.683	-133.234	-0.106	0.013
-362.669	-155.428	-0.032	-0.002
-361.654	-192.776	0.322	0.003
-360.639	-180.462	0.167	0.003
-359.625	-200.000	-0.026	-0.169
-358.610	21.379	0.074	-0.060
-357.596	800.000	0.155	-0.470
-356.581	-200.000	-0.007	-0.237
-355.566	-77.633	0.447	0.154
-354.552	-68.496	0.135	-0.052
-353.537	-59.700	-0.287	-0.123
-352.523	-200.000	-0.015	0.073
-351.508	162.312	-0.097	0.136
-350.493	-123.880	0.405	-0.064
-349.479	302.598	-0.302	-0.557
-348.464	-31.437	-0.202	0.113
-347.450	81.812	-0.240	0.259
-346.435	606.323	0.114	0.282
-345.420	-81.277	-0.233	-0.077
-344.406	800.000	0.116	0.354
-343.391	-200.000	0.003	0.018
-342.377	45.760	0.226	-0.209
-341.362	166.836	-0.072	-0.101
-340.348	-116.603	0.067	0.012
-339.333	800.000	-0.062	-0.179
-338.318	-200.000	0.015	-0.133
-337.304	800.000	-0.088	-0.317
-336.289	-80.854	0.148	0.049
-335.275	-149.566	0.328	-0.026
-334.260	162.044	-0.167	-0.233
-333.245	72.300	0.081	-0.085
-332.231	20.799	0.142	0.115
-331.216	-184.694	0.216	-0.003
-330.202	91.546	-0.146	0.164
-329.187	-39.787	-0.101	0.053
-328.172	800.000	0.087	-0.377
-327.158	-178.911	-0.242	0.005
-326.143	485.426	0.188	0.427
-325.129	234.830	-0.118	-0.193
-324.114	126.898	0.168	-0.212
-323.099	-169.230	-0.249	0.009
-322.085	-65.498	-0.292	0.117
-321.070	-109.826	-0.195	-0.041
-320.056	-27.525	-0.180	-0.104
-319.041	60.072	-0.144	-0.141
-318.026	536.855	0.105	0.248
-317.012	607.714	0.025	0.062
-315.997	-126.228	0.100	-0.015
-314.983	-12.661	-0.224	0.145
-313.968	109.692	-0.193	-0.230
-312.953	800.000	-0.034	0.120
-311.939	-200.000	0.033	-0.445
-310.924	-200.000	-0.002	-0.212
-309.910	47.467	0.062	-0.057
-308.895	-62.288	-0.022	0.009
-307.880	-200.000	0.023	0.181
-306.866	420.210	0.106	0.226
-305.851	-98.088	0.031	0.008
-304.837	-36.569	0.175	0.094
-303.822	-45.316	-0.132	0.065
-302.807	-200.000	-0.007	0.035
-301.793	95.267	0.246	-0.279
-300.778	151.658	0.086	-0.117
-299.764	373.684	0.097	0.196
-298.749	-117.369	0.337	0.061
-297.735	333.729	-0.208	-0.400
-296.720	72.347	0.090	0.094
-295.705	-77.951	-0.255	-0.087
-294.691	-91.058	0.238	0.068
-293.676	30.965	-0.357	-0.304
-292.662	-69.840	-0.114	0.043
-291.647	-163.440	-0.195	0.009
-290.632	154.391	-0.085	0.116
-289.618	-40.961	0.124	0.064
-288.603	311.374	0.066	-0.124
-287.589	-129.591	0.450	0.062
-286.574	638.042	-0.031	-0.078
-285.559	10.956	-0.012	-0.009
-284.545	70.934	-0.092	-0.095
-283.530	198.418	0.145	-0.221
-282.516	-16.942	-0.283	0.178
-281.501	-92.543	0.072	-0.020
-280.486	604.321	0.069	0.171
-279.472	-200.000	-0.007	0.122
-278.457	-200.000	0.005	0.110
-277.443	-92.664	0.245	0.068
-276.428	-62.755	-0.303	-0.125
-275.413	-155.541	-0.251	0.016
-274.399	800.000	-0.016	-0.060
-273.384	213.378	0.150	0.235
-272.370	-122.211	-0.161	-0.026
-271.355	4.424	-0.293	0.214
-270.340	800.000	0.092	0.259
-269.326	104.279	-0.103	0.121
-268.311	40.087	0.169	0.151
-267.297	164.739	0.195	0.274
-266.282	-106.365	-0.415	0.092
-265.267	-200.000	0.039	0.191
-264.253	227.454	-0.140	0.227
-263.238	-150.638	0.193	-0.015
-262.224	-19.050	-0.162	0.100
-261.209	82.338	0.110	0.118
-260.195	-200.000	-0.040	0.236
-259.180	163.619	-0.146	-0.204
-258.165	-81.040	0.111	0.036
-257.151	-28.938	-0.295	0.168
-256.136	-138.299	-0.147	0.016
-255.122	-36.847	0.139	-0.074
-254.107	-82.328	0.076	-0.025
-253.092	-62.298	-0.284	-0.118
-252.078	65.128	0.115	-0.116
-251.063	28.048	-0.116	0.097
-250.049	-14.076	-0.121	0.077
-249.034	2.123	0.274	0.196
-248.019	-21.733	0.308	-0.186
-247.005	295.803	0.058	0.106
-245.990	-85.438	0.159	0.049
-244.976	778.272	-0.104	0.281
-243.961	-163.103	0.252	-0.012
-242.946	800.000	-0.088	0.350
-241.932	-67.202	-0.189	-0.074
-240.917	-64.000	-0.126	0.051
-239.903	215.668	-0.166	0.261
-238.888	-115.179	0.359	-0.068
-237.873	-97.310	-0.155	0.040
-236.859	-35.598	0.302	0.163
-235.844	323.960	0.174	-0.329
-234.830	596.620	0.129	-0.317
-233.815	-200.000	0.007	0.056
-232.800	186.116	-0.227	0.335
-231.786	-200.000	0.041	0.206
-230.771	-134.553	0.198	0.024
-229.757	-152.177	0.040	-0.003
-228.742	-200.000	-0.071	-0.356
-227.727	89.867	-0.114	-0.126
-226.713	-200.000	-0.010	-0.383
-225.698	18.969	-0.087	-0.069
-224.684	304.621	-0.208	0.384
-223.669	149.925	0.067	-0.090
-222.655	-200.000	-0.021	-0.109
-221.640	-110.028	0.158	-0.033
-220.625	92.794	0.056	-0.062
-219.611	380.216	0.172	0.351
-218.596	56.741	-0.089	-0.086
-217.582	176.034	-0.096	-0.139
-216.567	17.851	0.101	-0.080
-215.552	47.463	-0.096	0.089
-214.538	30.723	-0.197	-0.167
-213.523	-13.575	0.243	0.156
-212.509	-99.953	-0.356	0.088
-211.494	-200.000	0.194	0.000
-210.479	210.304	-0.011	-0.018
-209.465	800.000	-0.101	0.351
-208.450	-3.372	0.213	-0.147
-207.436	800.000	0.103	0.341
-206.421	-200.000	0.036	0.389
-205.406	-112.043	0.174	-0.035
-204.392	586.309	-0.042	-0.103
-203.377	-139.439	-0.096	0.010
-202.363	-132.642	0.199	0.025
-201.348	31.107	0.419	-0.356
-200.333	800.000	0.094	-0.260
-199.319	800.000	-0.053	-0.224
-198.304	800.000	0.054	-0.217
-197.290	800.000	-0.031	-0.108
-196.275	458.934	-0.038	0.084
-195.260	794.589	-0.151	0.411
-194.246	-67.909	0.101	0.039
-193.231	-182.222	-0.191	0.004
-192.217	-168.027	0.308	0.012
-191.202	-200.000	-0.013	0.235
-190.187	-169.313	0.115	0.004
-189.173	121.365	0.174	0.215
-188.158	800.000	0.077	0.263
-187.144	149.604	0.029	-0.038
-186.129	335.815	-0.018	0.034
-185.114	436.808	-0.055	-0.118
-184.100	297.854	0.145	-0.264
-183.085	-125.076	-0.545	0.083
-182.071	-65.483	-0.322	0.128
-181.056	151.538	-0.114	0.154
-180.042	-200.000	0.076	0.412
-179.027	741.919	-0.105	0.279
-178.012	146.887	-0.075	-0.100
-176.998	-71.570	0.283	0.105
-175.983	279.489	-0.021	0.037
-174.969	103.473	-0.313	-0.363
-173.954	-200.000	0.073	0.338
-172.939	-200.000	0.045	0.257
-171.925	-200.000	-0.048	0.231
-170.910	0.612	-0.032	0.023
-169.896	-43.778	0.368	0.183
-168.881	-24.281	-0.101	0.060
-167.866	-93.633	0.371	-0.101
-166.852	11.374	-0.224	0.170
-165.837	-159.034	-0.144	0.008
-164.823	-14.610	0.132	-0.084
-163.808	580.229	-0.141	0.341
-162.793	118.022	-0.293	-0.357
-161.779	440.416	0.104	0.226
-160.764	19.366	0.145	-0.115
-159.750	-200.000	-0.023	0.122
-158.735	139.003	0.020	-0.026
-157.720	-200.000	-0.018	0.456
-156.706	800.000	-0.038	-0.118
-155.691	-48.734	-0.121	0.058
-154.677	-10.096	0.150	0.099
-153.662	-58.534	0.008	-0.003
-152.647	74.276	-0.073	0.076
-151.633	9.660	-0.124	-0.093
-150.618	-3.871	-0.338	0.232
-149.604	-200.000	0.093	0.442
-148.589	-124.848	0.355	0.054
-147.574	-200.000	-0.019	0.182
-146.560	-200.000	-0.035	-0.334
-145.545	-101.046	-0.026	0.006
-144.531	-200.000	0.020	-0.318
-143.516	-102.415	-0.091	-0.022
-142.502	61.484	0.155	-0.152
-141.487	-200.000	-0.074	-0.449
-140.472	-21.224	-0.143	0.086
-139.458	800.000	-0.058	0.223
-138.443	305.528	0.089	0.163
-137.429	-4.453	-0.058	-0.040
-136.414	-40.229	0.230	0.118
-135.399	45.014	-0.104	-0.095
-134.385	800.000	-0.072	-0.217
-133.370	-128.460	-0.227	-0.032
-132.356	-200.000	-0.052	-0.332
-131.341	800.000	-0.038	0.115
-130.326	800.000	-0.059	0.183
-129.312	143.715	0.117	-0.154
-128.297	8.640	-0.326	-0.243
-127.283	-46.593	-0.205	-0.099
-126.268	-85.353	0.121	0.037
-125.253	-120.067	-0.040	-0.007
-124.239	-200.000	-0.050	-0.397
-123.224	-200.000	0.209	0.001
-122.210	309.409	0.091	0.169
