DTS Sentinel unit serial number:	SN413079Multiplexer serial number:	ORYXHardware model number:	OX4-SRSoftware version number:	ORYX F/W v4.00 Oryx Data Collector v3.7.2.0data status	okinstallation	princeton_trtdifferential loss correction	single-endedforward channel	channel 3reverse channel	N/Adate	2019/09/12time	05:14:10forward acquisition time	60.00reverse acquisition time	0.00gamma	496.2192k internal	0.2321k external	0.2321temperature offset calibration	1.0037default loss term (dB/km)	0.3790temperature slope calibration	1.0000multiplexer offset coefficient	1.0000multiplexer slope coefficient	1.0000fibre end	0.00T internal ref (°C)	31.81T ext. ref 1 (°C)	1.64T ext. ref 2 (°C)	27.31length (m)	temperature (°C)	Stokes	anti-Stokes-747.200	100.162	0.188	0.221
-746.185	-200.000	0.049	0.348
-745.171	-121.911	-0.341	0.057
-744.156	800.000	-0.076	0.229
-743.142	-46.937	-0.256	-0.126
-742.127	800.000	0.071	0.291
-741.112	324.547	0.117	0.227
-740.098	-200.000	0.007	0.494
-739.083	90.968	-0.235	0.266
-738.069	144.763	0.237	0.320
-737.054	-71.053	0.106	-0.040
-736.039	78.687	-0.242	0.261
-735.025	-200.000	0.021	0.095
-734.010	17.964	-0.168	-0.136
-732.996	350.008	-0.105	-0.209
-731.981	-200.000	0.031	-0.244
-730.966	-200.000	0.039	0.198
-729.952	-19.388	-0.363	-0.227
-728.937	-64.097	-0.250	0.103
-727.923	-74.624	-0.187	0.068
-726.908	542.638	-0.022	0.054
-725.894	800.000	0.019	-0.063
-724.879	20.666	-0.118	0.096
-723.864	-7.025	0.151	-0.104
-722.850	800.000	-0.117	0.337
-721.835	-31.605	-0.269	0.152
-720.821	455.143	0.043	0.097
-719.806	568.142	0.100	-0.246
-718.791	-182.590	-0.088	-0.002
-717.777	6.915	0.043	0.033
-716.762	800.000	-0.088	-0.255
-715.748	15.797	-0.106	-0.084
-714.733	301.546	-0.180	0.336
-713.718	146.185	0.109	-0.147
-712.704	357.530	0.204	0.411
-711.689	98.850	0.213	0.248
-710.675	-200.000	0.007	-0.090
-709.660	273.240	-0.012	-0.021
-708.645	-85.132	0.232	0.073
-707.631	-200.000	-0.002	-0.142
-706.616	-14.599	-0.139	0.090
-705.602	2.344	0.315	-0.230
-704.587	249.476	-0.122	-0.209
-703.572	107.904	-0.075	-0.090
-702.558	-159.872	-0.236	0.013
-701.543	-200.000	-0.030	0.498
-700.529	-56.019	-0.203	-0.091
-699.514	-34.601	-0.328	-0.181
-698.499	-200.000	-0.011	0.196
-697.485	-200.000	0.023	-0.514
-696.470	23.130	-0.287	-0.238
-695.456	-15.957	0.022	0.014
-694.441	-98.217	0.366	0.095
-693.426	800.000	-0.082	-0.257
-692.412	-200.000	-0.010	-0.372
-691.397	800.000	-0.054	-0.156
-690.383	-200.000	0.017	-0.261
-689.368	-144.267	-0.210	-0.020
-688.354	-200.000	-0.006	0.098
-687.339	269.108	0.114	0.201
-686.324	96.224	0.087	0.100
-685.310	5.285	0.138	0.102
-684.295	114.444	0.141	0.174
-683.281	-81.746	0.084	-0.028
-682.266	649.354	-0.077	0.198
-681.251	-200.000	0.009	-0.294
-680.237	-200.000	0.040	-0.293
-679.222	390.019	0.162	0.339
-678.208	-172.778	-0.292	-0.009
-677.193	141.144	0.233	0.311
-676.178	30.992	0.213	0.184
-675.164	118.845	0.154	-0.192
-674.149	23.977	0.223	0.185
-673.135	562.552	-0.146	-0.357
-672.120	102.619	0.060	0.071
-671.105	232.586	-0.195	0.322
-670.091	-200.000	-0.039	0.230
-669.076	314.112	-0.055	0.105
-668.062	800.000	-0.054	-0.233
-667.047	57.996	0.023	-0.023
-666.032	-147.352	-0.212	0.018
-665.018	8.715	-0.339	0.257
-664.003	58.200	0.229	0.226
-662.989	-45.719	0.109	-0.054
-661.974	35.369	-0.048	0.042
-660.959	-200.000	0.045	0.228
-659.945	251.303	0.037	-0.064
-658.930	520.257	0.072	-0.170
-657.916	214.562	0.020	0.031
-656.901	-32.510	0.282	0.159
-655.886	-50.371	-0.301	-0.143
-654.872	-165.642	-0.067	0.003
-653.857	-129.643	0.132	0.018
-652.843	-11.769	0.086	-0.057
-651.828	450.535	0.010	0.023
-650.814	-42.801	0.253	-0.129
-649.799	-125.425	0.060	0.009
-648.784	153.061	-0.075	0.103
-647.770	-135.936	0.205	0.024
-646.755	554.293	0.045	0.109
-645.741	107.117	0.011	-0.013
-644.726	-200.000	-0.034	0.253
-643.711	1.947	0.162	0.118
-642.697	333.971	0.110	0.214
-641.682	-200.000	-0.018	-0.300
-640.668	-200.000	-0.002	0.132
-639.653	-200.000	-0.053	0.505
-638.638	725.306	0.106	0.283
-637.624	9.159	0.187	0.142
-636.609	-66.229	0.247	-0.099
-635.595	-144.390	-0.244	0.023
-634.580	-100.720	0.313	-0.078
-633.565	109.122	-0.087	0.105
-632.551	-200.000	-0.128	-0.000
-631.536	-16.975	0.239	0.152
-630.522	-17.011	0.046	0.029
-629.507	-135.989	-0.169	-0.020
-628.492	-158.229	0.243	-0.014
-627.478	-105.182	0.341	0.078
-626.463	800.000	-0.011	0.030
-625.449	800.000	-0.207	-0.585
-624.434	167.932	0.184	-0.263
-623.419	691.524	0.138	-0.363
-622.405	170.030	-0.086	-0.124
-621.390	170.483	-0.201	-0.290
-620.376	120.870	-0.231	0.289
-619.361	-72.355	-0.131	0.049
-618.346	-179.755	0.292	0.006
-617.332	219.375	0.111	0.179
-616.317	-95.482	-0.357	-0.096
-615.303	53.755	0.097	0.094
-614.288	62.230	0.176	-0.177
-613.273	74.088	-0.083	0.087
-612.259	-49.192	0.224	-0.108
-611.244	-112.138	-0.301	0.061
-610.230	142.172	0.208	0.278
-609.215	-53.148	-0.283	0.131
-608.201	800.000	-0.090	-0.362
-607.186	-200.000	-0.062	0.432
-606.171	-200.000	0.010	0.059
-605.157	361.316	0.169	-0.340
-604.142	8.467	-0.109	0.083
-603.128	-47.937	-0.218	0.106
-602.113	-90.633	-0.215	-0.062
-601.098	223.438	-0.136	-0.221
-600.084	800.000	0.085	0.289
-599.069	634.080	0.137	0.349
-598.055	-159.345	-0.094	0.005
-597.040	28.170	-0.075	-0.063
-596.025	144.282	-0.275	-0.369
-595.011	-58.725	0.105	0.046
-593.996	-47.257	0.167	-0.082
-592.982	-56.806	-0.410	0.182
-591.967	-135.703	0.423	-0.050
-590.952	-44.293	0.112	-0.056
-589.938	-35.329	-0.236	-0.129
-588.923	-53.610	0.201	0.092
-587.909	36.276	0.136	0.121
-586.894	49.970	0.177	0.168
-585.879	172.594	0.076	-0.109
-584.865	-125.570	0.103	-0.016
-583.850	-83.507	-0.313	0.101
-582.836	-114.984	0.434	0.083
-581.821	37.732	-0.235	-0.210
-580.806	-101.724	0.263	-0.064
-579.792	798.493	0.083	0.229
-578.777	-200.000	0.095	-0.455
-577.763	-57.246	-0.170	-0.075
-576.748	144.442	-0.262	-0.351
-575.733	-200.000	0.022	0.381
-574.719	-185.162	-0.295	0.005
-573.704	-188.795	0.228	0.003
-572.690	-29.623	0.033	-0.019
-571.675	-31.641	-0.280	-0.158
-570.661	800.000	0.108	-0.464
-569.646	-200.000	0.054	-0.245
-568.631	-200.000	0.019	-0.272
-567.617	99.670	-0.161	-0.187
-566.602	-63.593	-0.109	0.045
-565.588	-47.384	-0.083	0.040
-564.573	-200.000	-0.046	-0.271
-563.558	-35.479	-0.161	-0.088
-562.544	198.437	-0.091	-0.139
-561.529	101.658	0.119	-0.139
-560.515	-30.955	0.221	-0.125
-559.500	-200.000	-0.059	-0.270
-558.485	271.210	-0.165	-0.292
-557.471	124.859	0.228	0.288
-556.456	800.000	-0.019	-0.078
-555.442	-132.829	-0.135	-0.017
-554.427	147.825	0.152	-0.205
-553.412	-200.000	-0.004	0.024
-552.398	232.933	-0.076	-0.126
-551.383	633.965	-0.020	-0.051
-550.369	514.456	0.036	-0.083
-549.354	237.405	-0.162	0.270
-548.339	65.055	0.285	-0.288
-547.325	67.012	0.195	0.199
-546.310	-200.000	-0.003	-0.074
-545.296	316.609	0.148	-0.280
-544.281	-139.492	0.172	0.018
-543.266	85.551	-0.289	0.319
-542.252	-200.000	0.061	-0.337
-541.237	136.846	0.084	-0.110
-540.223	35.105	-0.194	0.170
-539.208	-200.000	-0.017	-0.175
-538.193	-200.000	0.040	-0.204
-537.179	-200.000	0.475	-0.001
-536.164	125.258	-0.204	-0.257
-535.150	261.318	0.044	-0.076
-534.135	-200.000	0.089	0.419
-533.121	-43.501	-0.145	0.074
-532.106	-178.339	-0.057	-0.001
-531.091	155.346	-0.153	0.211
-530.077	8.844	-0.349	-0.264
-529.062	194.737	0.111	-0.169
-528.048	233.367	0.117	0.193
-527.033	214.069	-0.090	0.143
-526.018	154.149	0.115	0.158
-525.004	94.260	0.215	-0.244
-523.989	-156.190	-0.200	-0.013
-522.975	-136.772	-0.375	-0.043
-521.960	15.017	0.098	-0.077
-520.945	336.193	0.023	0.045
-519.931	-200.000	0.005	0.303
-518.916	46.660	-0.279	-0.260
-517.902	-200.000	-0.035	0.457
-516.887	-161.838	0.240	-0.012
-515.872	-200.000	-0.012	-0.074
-514.858	-44.413	-0.197	-0.099
-513.843	142.216	-0.104	-0.138
-512.829	-16.477	0.149	-0.095
-511.814	-22.654	-0.137	0.083
-510.799	-200.000	0.019	0.253
-509.785	84.850	-0.082	0.090
-508.770	-93.907	-0.127	-0.035
-507.756	125.180	0.218	-0.275
-506.741	43.866	0.133	0.122
-505.726	800.000	0.031	-0.087
-504.712	-193.264	-0.368	0.003
-503.697	-125.471	-0.128	0.019
-502.683	66.664	-0.081	0.083
-501.668	140.370	-0.219	0.289
-500.653	-200.000	0.389	0.002
-499.639	222.319	-0.070	-0.113
-498.624	-200.000	-0.015	-0.090
-497.610	-163.769	0.164	-0.008
-496.595	-178.723	0.070	0.002
-495.581	-200.000	-0.017	-0.141
-494.566	-200.000	0.007	0.048
-493.551	256.734	0.080	0.138
-492.537	-200.000	0.009	-0.429
-491.522	202.354	0.039	0.060
-490.508	113.072	-0.064	-0.078
-489.493	516.747	0.061	-0.142
-488.478	-99.776	-0.177	0.044
-487.464	-65.524	0.145	-0.058
-486.449	-172.674	-0.098	0.003
-485.435	-57.650	0.423	-0.185
-484.420	-7.110	-0.074	-0.050
-483.405	-38.729	0.153	-0.081
-482.391	147.697	-0.204	0.275
-481.376	25.582	-0.245	-0.204
-480.362	51.291	-0.270	0.256
-479.347	-43.755	-0.191	0.096
-478.332	-200.000	0.043	0.373
-477.318	-7.712	-0.278	-0.188
-476.303	-117.600	0.298	0.054
-475.289	26.776	-0.196	-0.164
-474.274	-171.012	0.139	0.005
-473.259	-40.930	-0.037	-0.019
-472.245	-200.000	0.003	0.081
-471.230	-182.110	0.212	-0.004
-470.216	-79.273	0.307	0.104
-469.201	-200.000	0.080	0.563
-468.186	197.393	-0.126	-0.193
-467.172	-200.000	-0.002	-0.230
-466.157	59.044	0.395	-0.388
-465.143	-110.787	0.270	-0.056
-464.128	800.000	0.126	0.425
-463.113	-200.000	-0.005	-0.040
-462.099	97.636	0.070	-0.080
-461.084	288.031	-0.154	0.279
-460.070	-91.133	0.311	0.089
-459.055	-72.048	-0.279	-0.104
-458.040	-88.366	-0.308	0.092
-457.026	-200.000	0.018	0.183
-456.011	192.053	0.107	0.161
-454.997	202.644	0.212	-0.327
-453.982	-75.167	0.325	-0.116
-452.968	-55.473	-0.307	0.137
-451.953	-3.308	0.121	0.084
-450.938	32.253	-0.116	0.100
-449.924	-200.000	-0.043	-0.356
-448.909	54.646	0.132	-0.127
-447.895	-90.251	-0.239	0.070
-446.880	-200.000	0.071	-0.354
-445.865	190.379	-0.029	-0.043
-444.851	-57.000	0.192	0.085
-443.836	-64.327	-0.247	-0.100
-442.822	-200.000	-0.010	0.135
-441.807	800.000	-0.064	-0.195
-440.792	-156.836	-0.106	-0.007
-439.778	430.693	0.070	-0.152
-438.763	-165.303	0.412	0.018
-437.749	-70.018	0.126	-0.048
-436.734	-200.000	-0.047	-0.307
-435.719	-161.982	-0.298	-0.015
-434.705	-54.303	-0.151	0.068
-433.690	-18.373	-0.403	-0.251
-432.676	397.924	-0.135	0.282
-431.661	81.493	0.091	-0.098
-430.646	-200.000	0.018	0.347
-429.632	-3.775	-0.104	0.072
-428.617	325.147	-0.088	0.168
-427.603	-200.000	-0.020	-0.108
-426.588	-200.000	0.090	-0.402
-425.573	-114.473	-0.092	0.018
-424.559	-117.013	0.264	0.048
-423.544	598.974	0.027	-0.067
-422.530	-48.799	-0.229	-0.110
-421.515	-33.142	-0.216	-0.119
-420.500	44.395	-0.229	-0.210
-419.486	435.149	-0.080	0.173
-418.471	88.900	0.127	-0.141
-417.457	800.000	0.100	-0.284
-416.442	-95.426	0.303	0.081
-415.428	-57.176	0.209	0.092
-414.413	-200.000	-0.003	0.121
-413.398	167.662	-0.080	0.114
-412.384	-56.070	-0.131	-0.058
-411.369	121.123	0.185	0.229
-410.355	278.334	-0.057	0.101
-409.340	-99.328	-0.058	0.015
-408.325	137.879	-0.203	0.265
-407.311	85.542	0.136	0.149
-406.296	-144.097	-0.379	0.035
-405.282	429.932	-0.077	0.165
-404.267	121.195	-0.152	-0.189
-403.252	-200.000	-0.025	0.252
-402.238	25.904	-0.198	-0.165
-401.223	-91.435	-0.561	-0.160
-400.209	-139.033	0.102	0.011
-399.194	-121.335	-0.241	0.040
-398.179	533.252	0.036	-0.085
-397.165	713.106	0.065	-0.172
-396.150	-200.000	-0.005	-0.158
-395.136	-139.256	0.188	0.020
-394.121	800.000	0.074	0.232
-393.106	-75.122	0.341	-0.121
-392.092	174.180	-0.060	-0.086
-391.077	-14.808	0.243	-0.155
-390.063	53.900	-0.169	0.162
-389.048	-91.992	-0.156	0.044
-388.033	-89.373	-0.057	0.017
-387.019	-200.000	0.047	0.214
-386.004	80.877	-0.168	0.180
-384.990	6.320	-0.032	0.024
-383.975	-191.890	-0.275	0.003
-382.960	310.213	-0.049	-0.091
-381.946	-18.822	-0.265	-0.164
-380.931	66.820	0.172	0.175
-379.917	-200.000	0.022	0.264
-378.902	-200.000	0.003	-0.269
-377.888	-29.511	-0.159	-0.090
-376.873	-200.000	-0.024	-0.163
-375.858	800.000	0.060	-0.228
-374.844	-120.118	-0.306	-0.052
-373.829	381.661	-0.073	-0.148
-372.815	-146.934	-0.027	0.002
-371.800	483.736	-0.106	0.241
-370.785	-91.523	-0.395	0.112
-369.771	337.071	0.156	0.301
-368.756	223.197	0.158	0.253
-367.742	-107.186	-0.268	-0.059
-366.727	13.225	0.212	0.164
-365.712	-26.011	-0.133	-0.078
-364.698	-62.138	-0.146	0.060
-363.683	800.000	0.118	-0.348
-362.669	-138.466	0.293	-0.032
-361.654	-82.950	0.356	-0.114
-360.639	-35.725	-0.347	0.187
-359.625	-59.367	0.446	-0.191
-358.610	131.260	0.308	-0.394
-357.596	124.739	0.174	0.218
-356.581	417.868	0.125	-0.265
-355.566	-200.000	-0.012	-0.179
-354.552	9.769	-0.050	-0.038
-353.537	29.354	0.113	0.096
-352.523	-122.331	0.158	-0.026
-351.508	24.588	-0.255	0.210
-350.493	43.612	0.105	0.095
-349.479	-83.676	-0.145	-0.046
-348.464	-200.000	-0.064	-0.294
-347.450	63.631	0.239	0.239
-346.435	800.000	-0.081	-0.243
-345.420	-13.301	-0.051	0.033
-344.406	106.266	-0.192	0.226
-343.391	-57.102	0.190	-0.083
-342.377	770.038	-0.092	0.249
-341.362	800.000	0.044	-0.146
-340.348	-103.345	-0.376	-0.088
-339.333	-107.866	-0.134	-0.029
-338.318	-170.338	0.118	0.004
-337.304	800.000	-0.028	0.102
-336.289	-200.000	0.031	0.252
-335.275	800.000	-0.117	-0.440
-334.260	16.152	-0.215	-0.169
-333.245	-200.000	-0.043	0.277
-332.231	274.870	0.152	0.267
-331.216	520.749	-0.004	0.009
-330.202	-58.727	0.199	-0.086
-329.187	-129.584	-0.225	-0.031
-328.172	1.720	-0.145	0.104
-327.158	-200.000	-0.028	0.228
-326.143	416.396	-0.048	0.102
-325.129	-76.528	-0.171	0.060
-324.114	-80.383	-0.157	0.052
-323.099	37.372	-0.113	0.099
-322.085	87.266	-0.079	0.087
-321.070	800.000	-0.058	-0.241
-320.056	-63.886	0.151	0.061
-319.041	-200.000	0.080	0.415
-318.026	-200.000	-0.069	0.315
-317.012	-200.000	-0.005	0.144
-315.997	800.000	-0.045	0.185
-314.983	800.000	0.062	0.217
-313.968	-119.438	0.091	0.016
-312.953	-18.318	-0.131	0.081
-311.939	-168.616	0.264	-0.010
-310.924	21.594	-0.147	0.118
-309.910	49.175	-0.366	-0.342
-308.895	22.437	-0.299	-0.243
-307.880	-200.000	0.058	-0.299
-306.866	-69.398	0.224	-0.086
-305.851	216.879	0.121	0.192
-304.837	800.000	-0.060	0.241
-303.822	-190.078	0.284	-0.003
-302.807	294.746	-0.097	-0.176
-301.793	457.332	0.076	0.167
-300.778	-95.508	0.171	0.046
-299.764	242.364	-0.169	-0.280
-298.749	17.658	0.153	-0.121
-297.735	664.422	-0.229	-0.586
-296.720	341.653	0.127	-0.247
-295.705	-100.526	0.276	0.068
-294.691	-32.286	-0.309	0.171
-293.676	-200.000	-0.024	0.156
-292.662	-10.102	0.134	0.088
-291.647	92.919	0.155	-0.174
-290.632	-60.728	0.177	-0.074
-289.618	-3.989	-0.125	-0.086
-288.603	800.000	0.058	0.178
-287.589	17.192	-0.089	0.070
-286.574	452.507	0.139	0.305
-285.559	-129.902	0.119	0.016
-284.545	-200.000	-0.008	-0.208
-283.530	334.427	0.164	0.316
-282.516	-54.960	-0.069	0.031
-281.501	-45.630	-0.109	0.054
-280.486	190.737	-0.045	0.067
-279.472	132.530	0.231	-0.295
-278.457	-65.968	-0.025	-0.010
-277.443	167.013	-0.148	0.208
-276.428	-146.689	0.067	0.006
-275.413	-54.024	-0.187	0.085
-274.399	-31.789	0.333	-0.185
-273.384	-70.740	0.301	0.113
-272.370	-200.000	-0.067	0.624
-271.355	393.269	0.070	0.144
-270.340	108.798	-0.179	-0.213
-269.326	-200.000	-0.017	0.227
-268.311	-144.819	0.171	-0.016
-267.297	160.931	0.088	-0.123
-266.282	362.674	0.073	0.146
-265.267	662.446	-0.212	0.542
-264.253	-100.227	0.073	-0.018
-263.238	-24.986	0.091	0.054
-262.224	-94.463	-0.202	0.055
-261.209	-200.000	-0.005	0.111
-260.195	-200.000	-0.023	0.209
-259.180	54.116	-0.243	-0.231
-258.165	-142.591	0.237	0.023
-257.151	193.418	0.160	-0.240
-256.136	-30.251	0.316	0.178
-255.122	800.000	-0.068	0.278
-254.107	673.769	-0.078	-0.202
-253.092	-161.205	-0.140	0.007
-252.078	-13.966	0.234	0.150
-251.063	800.000	0.038	0.150
-250.049	-97.308	-0.332	0.086
-249.034	-200.000	0.040	-0.300
-248.019	-200.000	-0.023	0.124
-247.005	-70.756	-0.137	0.051
-245.990	43.388	-0.073	-0.066
-244.976	-195.959	0.131	-0.001
-243.961	800.000	0.099	0.305
-242.946	-200.000	0.008	0.321
-241.932	9.619	0.075	-0.057
-240.917	130.237	-0.127	0.161
-239.903	74.508	0.158	0.164
-238.888	-162.083	-0.271	-0.014
-237.873	-200.000	0.005	0.023
-236.859	305.937	0.094	-0.172
-235.844	-200.000	-0.031	-0.151
-234.830	-99.406	0.303	-0.076
-233.815	-21.040	0.366	0.222
-232.800	-145.307	-0.361	0.032
-231.786	-116.195	0.079	-0.015
-230.771	177.340	-0.060	0.087
-229.757	659.799	-0.095	-0.241
-228.742	-93.158	0.257	0.071
-227.727	186.318	-0.203	-0.299
-226.713	-157.600	-0.078	-0.005
-225.698	-87.805	0.222	0.066
-224.684	79.263	0.094	-0.100
-223.669	-150.592	0.392	0.030
-222.655	800.000	0.017	-0.063
-221.640	-103.678	0.407	0.094
-220.625	-45.754	0.027	-0.013
-219.611	-108.853	0.032	0.007
-218.596	800.000	0.059	-0.225
-217.582	-76.953	0.172	0.060
-216.567	138.339	0.202	0.263
-215.552	800.000	0.108	0.301
-214.538	41.955	0.100	0.089
-213.523	-41.222	-0.246	0.125
-212.509	352.262	-0.124	-0.244
-211.494	-132.496	0.204	-0.026
-210.479	-72.074	0.041	-0.015
-209.465	473.372	0.054	-0.121
-208.450	-79.142	0.362	-0.122
-207.436	-200.000	0.015	0.097
-206.421	-72.872	-0.347	0.126
-205.406	115.261	-0.246	-0.297
-204.392	32.365	-0.174	0.149
-203.377	550.122	0.052	-0.122
-202.363	800.000	-0.016	0.054
-201.348	86.345	0.025	0.028
-200.333	-45.570	-0.192	-0.094
-199.319	800.000	-0.031	0.124
-198.304	88.018	0.111	0.122
-197.290	-16.769	-0.108	0.067
-196.275	800.000	-0.113	-0.383
-195.260	-113.721	0.117	0.023
-194.246	363.696	-0.059	0.117
-193.231	-105.104	0.334	-0.076
-192.217	-165.012	0.309	0.014
-191.202	434.603	-0.167	-0.359
-190.187	89.137	0.053	-0.058
-189.173	800.000	-0.072	0.293
-188.158	-0.437	-0.186	0.130
-187.144	-38.950	0.040	-0.021
-186.129	-137.554	0.275	0.031
-185.114	-18.468	-0.257	0.159
-184.100	443.500	0.066	0.142
-183.085	-97.102	-0.251	0.065
-182.071	-75.312	0.195	-0.069
-181.056	-200.000	0.000	-0.169
-180.042	-11.905	-0.155	-0.100
-179.027	-44.227	0.083	-0.041
-178.012	63.491	-0.263	-0.261
-176.998	194.795	-0.046	-0.068
-175.983	-26.221	0.208	-0.121
-174.969	-33.768	0.318	0.173
-173.954	462.380	-0.185	-0.408
-172.939	-38.165	-0.233	-0.122
-171.925	27.271	-0.160	0.133
-170.910	-53.146	-0.309	0.140
-169.896	-200.000	-0.036	0.307
-168.881	-117.174	0.294	-0.053
-167.866	102.751	0.159	0.184
-166.852	-37.591	-0.124	-0.065
-165.837	-112.295	-0.186	0.037
-164.823	-91.901	-0.228	-0.064
-163.808	116.666	0.250	-0.303
-162.793	-116.961	-0.271	0.049
-161.779	800.000	-0.054	-0.202
-160.764	-200.000	-0.009	0.182
-159.750	0.165	0.051	-0.036
-158.735	101.607	0.123	-0.141
-157.720	-116.584	-0.312	0.057
-156.706	-108.174	0.654	0.140
-155.691	124.305	0.288	0.358
-154.677	-53.087	-0.055	0.025
-153.662	161.718	0.007	-0.009
-152.647	152.651	-0.245	0.330
-151.633	621.311	0.208	-0.516
-150.618	-103.006	-0.363	0.085
-149.604	-200.000	-0.033	0.363
-148.589	204.058	-0.097	0.148
-147.574	-200.000	-0.180	0.000
-146.560	10.765	0.334	0.252
-145.545	30.724	-0.111	0.094
-144.531	-72.192	0.312	-0.114
-143.516	-65.888	-0.159	-0.063
-142.502	2.414	0.250	0.178
-141.487	-11.210	-0.049	-0.032
-140.472	570.623	-0.028	-0.067
-139.458	-131.225	0.282	-0.037
-138.443	140.579	0.121	-0.158
-137.429	-44.415	0.209	-0.103
-136.414	740.554	-0.028	0.075
-135.399	-23.467	0.107	0.063
-134.385	-200.000	0.013	-0.063
-133.370	576.935	-0.191	0.462
-132.356	800.000	0.050	0.154
-131.341	-82.625	-0.123	-0.039
-130.326	-108.028	0.372	-0.080
-129.312	98.692	-0.180	0.205
-128.297	502.685	0.223	0.508
-127.283	-44.130	-0.246	0.122
-126.268	148.870	-0.066	-0.089
-125.253	-200.000	0.070	0.324
-124.239	-27.667	0.133	-0.076
-123.224	-191.866	0.187	-0.002
-122.210	800.000	-0.040	0.164
-121.195	170.138	-0.186	-0.263
