DTS Sentinel unit serial number:	SN413079Multiplexer serial number:	ORYXHardware model number:	OX4-SRSoftware version number:	ORYX F/W v4.00 Oryx Data Collector v3.7.2.0data status	okinstallation	princeton_trtdifferential loss correction	single-endedforward channel	channel 3reverse channel	N/Adate	2019/09/11time	14:58:11forward acquisition time	60.00reverse acquisition time	0.00gamma	496.2192k internal	0.2289k external	0.2289temperature offset calibration	0.9983default loss term (dB/km)	0.3790temperature slope calibration	1.0000multiplexer offset coefficient	1.0000multiplexer slope coefficient	1.0000fibre end	0.00T internal ref (°C)	42.77T ext. ref 1 (°C)	0.94T ext. ref 2 (°C)	38.26length (m)	temperature (°C)	Stokes	anti-Stokes-747.200	-30.003	-0.289	0.168
-746.185	18.727	0.129	0.106
-745.171	57.268	0.321	-0.321
-744.156	-200.000	-0.082	0.429
-743.142	21.140	-0.115	-0.096
-742.127	-200.000	-0.168	0.001
-741.112	-200.000	0.006	-0.109
-740.098	-97.625	-0.342	0.091
-739.083	-200.000	-0.006	0.311
-738.069	245.734	0.131	0.226
-737.054	-200.000	0.001	-0.043
-736.039	-69.345	-0.171	-0.067
-735.025	1.476	0.317	0.233
-734.010	364.851	-0.128	-0.264
-732.996	44.817	-0.137	-0.129
-731.981	39.316	0.163	-0.149
-730.966	382.751	-0.119	0.251
-729.952	447.070	-0.175	-0.394
-728.937	-26.111	-0.224	-0.135
-727.923	-41.889	0.062	-0.033
-726.908	55.161	0.077	0.076
-725.894	179.097	-0.124	0.185
-724.879	-66.669	-0.272	0.111
-723.864	-1.109	-0.108	-0.078
-722.850	206.744	-0.277	-0.442
-721.835	41.684	0.043	-0.040
-720.821	-144.395	-0.431	-0.041
-719.806	787.092	0.061	-0.170
-718.791	-149.055	0.198	0.016
-717.777	323.233	-0.187	-0.364
-716.762	-12.689	-0.133	-0.089
-715.748	273.193	0.173	0.312
-714.733	164.557	0.126	-0.183
-713.718	-92.992	-0.197	-0.056
-712.704	-44.455	-0.191	0.098
-711.689	-23.116	-0.144	0.089
-710.675	-200.000	0.049	0.372
-709.660	-200.000	-0.040	-0.193
-708.645	800.000	0.063	0.229
-707.631	-143.658	-0.514	-0.050
-706.616	-95.597	-0.269	-0.074
-705.602	-137.344	0.258	0.030
-704.587	800.000	0.021	0.064
-703.572	-108.874	-0.116	0.025
-702.558	269.431	0.078	0.139
-701.543	-82.808	-0.265	0.088
-700.529	179.414	-0.102	-0.153
-699.514	416.339	-0.051	-0.111
-698.499	-200.000	-0.353	-0.001
-697.485	-112.255	-0.197	-0.040
-696.470	-43.336	-0.120	-0.062
-695.456	-57.140	0.337	0.152
-694.441	-152.725	-0.354	-0.026
-693.426	10.976	-0.188	0.147
-692.412	-200.000	0.027	0.170
-691.397	-200.000	-0.024	-0.173
-690.383	396.930	0.130	-0.278
-689.368	83.014	0.036	0.040
-688.354	143.049	-0.241	-0.328
-687.339	25.020	0.311	-0.264
-686.324	160.855	0.157	-0.224
-685.310	163.950	-0.259	0.373
-684.295	109.760	-0.088	-0.108
-683.281	-40.799	0.197	0.104
-682.266	-42.545	-0.243	0.127
-681.251	223.989	0.076	0.126
-680.237	19.578	-0.273	0.225
-679.222	335.610	-0.069	-0.137
-678.208	-142.722	0.200	-0.020
-677.193	-146.844	0.270	0.024
-676.178	252.758	0.025	-0.044
-675.164	132.271	-0.079	-0.104
-674.149	65.942	-0.253	0.262
-673.135	53.409	-0.161	0.158
-672.120	-50.385	0.215	0.104
-671.105	166.111	0.168	0.243
-670.091	-119.318	0.252	0.045
-669.076	-41.071	0.067	-0.035
-668.062	38.441	0.112	-0.102
-667.047	30.068	-0.071	-0.062
-666.032	316.950	-0.143	-0.276
-665.018	-200.000	0.063	0.474
-664.003	-200.000	0.062	0.304
-662.989	-200.000	0.019	0.093
-661.974	-45.736	0.058	0.029
-660.959	32.678	-0.237	0.209
-659.945	-200.000	-0.067	-0.334
-658.930	170.626	0.141	-0.207
-657.916	-0.171	-0.401	-0.292
-656.901	-69.169	0.226	-0.089
-655.886	-200.000	0.037	-0.176
-654.872	-200.000	-0.350	0.001
-653.857	-200.000	-0.031	-0.172
-652.843	-78.873	-0.229	0.080
-651.828	-200.000	-0.025	0.293
-650.814	-9.403	0.166	0.113
-649.799	58.766	0.249	-0.250
-648.784	-200.000	0.040	-0.194
-647.770	-154.328	0.252	-0.017
-646.755	119.978	0.015	0.019
-645.741	-200.000	0.011	0.243
-644.726	-90.216	-0.190	0.056
-643.711	-200.000	-0.025	0.170
-642.697	91.608	-0.131	0.150
-641.682	-64.986	0.028	-0.012
-640.668	-120.038	-0.339	-0.059
-639.653	-131.879	0.177	-0.024
-638.638	-200.000	0.071	0.352
-637.624	-191.674	0.089	0.001
-636.609	699.967	0.063	-0.169
-635.595	800.000	0.008	-0.032
-634.580	-6.450	-0.254	-0.177
-633.565	-120.219	-0.317	0.055
-632.551	70.317	-0.038	0.041
-631.536	800.000	-0.058	-0.203
-630.522	245.826	-0.052	0.090
-629.507	290.763	0.060	-0.111
-628.492	-70.295	-0.329	0.127
-627.478	349.271	0.107	-0.216
-626.463	-200.000	0.004	0.058
-625.449	-200.000	0.033	0.255
-624.434	124.427	0.073	0.093
-623.419	-198.487	-0.207	0.001
-622.405	-104.482	-0.150	0.035
-621.390	149.168	-0.158	-0.218
-620.376	-94.319	0.160	0.045
-619.361	-200.000	-0.045	-0.276
-618.346	-24.897	0.136	-0.082
-617.332	-81.818	0.138	0.046
-616.317	474.243	0.069	0.158
-615.303	316.998	-0.083	-0.159
-614.288	206.043	0.068	-0.108
-613.273	40.403	-0.209	-0.192
-612.259	29.569	0.151	0.131
-611.244	-200.000	-0.001	0.334
-610.230	-39.222	0.167	-0.089
-609.215	800.000	0.045	-0.197
-608.201	-81.058	0.540	-0.182
-607.186	-200.000	0.001	0.008
-606.171	-0.817	-0.096	-0.070
-605.157	269.967	0.167	0.299
-604.142	-200.000	-0.067	-0.317
-603.128	-97.440	0.407	-0.108
-602.113	-200.000	0.023	0.189
-601.098	800.000	-0.077	-0.228
-600.084	-200.000	-0.003	0.139
-599.069	800.000	-0.106	0.373
-598.055	-62.261	0.224	0.095
-597.040	-200.000	0.052	0.239
-596.025	-85.451	-0.196	-0.062
-595.011	86.244	-0.245	-0.275
-593.996	800.000	-0.023	0.099
-592.982	-200.000	-0.006	-0.176
-591.967	117.354	-0.071	-0.089
-590.952	514.678	-0.144	-0.343
-589.938	-142.769	-0.155	0.015
-588.923	-61.917	0.140	-0.060
-587.909	-74.463	-0.302	0.111
-586.894	778.307	-0.074	-0.205
-585.879	-117.087	-0.268	-0.050
-584.865	800.000	0.063	0.189
-583.850	-174.830	0.270	-0.008
-582.836	-54.228	0.313	0.145
-581.821	-115.592	0.148	-0.028
-580.806	800.000	0.088	-0.370
-579.792	-200.000	-0.006	0.121
-578.777	-200.000	-0.035	0.181
-577.763	126.465	0.037	-0.048
-576.748	-56.057	0.332	0.150
-575.733	-8.891	-0.187	0.128
-574.719	-81.995	-0.159	-0.053
-573.704	-146.120	0.188	0.017
-572.690	-184.564	0.298	0.005
-571.675	9.589	0.139	-0.107
-570.661	31.885	-0.305	0.267
-569.646	-200.000	0.032	-0.377
-568.631	-88.579	0.370	0.112
-567.617	-123.249	-0.185	0.030
-566.602	-200.000	0.005	0.122
-565.588	60.652	0.305	0.307
-564.573	-102.050	-0.461	-0.113
-563.558	-200.000	0.072	-0.347
-562.544	-200.000	0.025	-0.142
-561.529	-200.000	0.034	-0.195
-560.515	139.348	0.180	-0.242
-559.500	-200.000	-0.020	-0.317
-558.485	-200.000	-0.041	-0.255
-557.471	-102.081	-0.460	0.113
-556.456	102.297	-0.013	-0.015
-555.442	-121.784	0.397	-0.067
-554.427	-108.050	0.298	-0.066
-553.412	330.370	0.160	-0.313
-552.398	-200.000	0.022	-0.183
-551.383	-200.000	-0.004	0.099
-550.369	-101.232	0.231	-0.057
-549.354	-200.000	-0.000	-0.278
-548.339	-69.271	-0.090	-0.035
-547.325	77.916	0.149	0.161
-546.310	-75.547	-0.074	0.027
-545.296	-200.000	0.026	-0.262
-544.281	-200.000	0.002	0.047
-543.266	-39.733	-0.110	0.058
-542.252	800.000	0.040	0.157
-541.237	800.000	-0.042	0.140
-540.223	-200.000	-0.028	0.176
-539.208	-75.986	-0.299	-0.107
-538.193	-119.623	-0.533	0.094
-537.179	64.844	-0.176	0.181
-536.164	800.000	0.045	0.195
-535.150	74.245	0.030	-0.032
-534.135	800.000	0.099	-0.357
-533.121	-200.000	0.016	-0.090
-532.106	-200.000	0.045	0.398
-531.091	-77.866	0.423	0.148
-530.077	135.799	-0.141	-0.186
-529.062	250.400	0.200	-0.345
-528.048	-12.045	-0.195	-0.130
-527.033	-86.858	0.266	-0.082
-526.018	-200.000	-0.047	-0.304
-525.004	28.964	-0.025	-0.022
-523.989	-82.451	-0.193	-0.064
-522.975	53.579	-0.047	0.045
-521.960	82.944	-0.046	0.051
-520.945	-200.000	-0.003	-0.022
-519.931	-3.293	-0.102	-0.072
-518.916	-90.497	0.089	-0.026
-517.902	-74.482	0.320	0.117
-516.887	218.795	-0.156	0.253
-515.872	-113.384	-0.055	-0.011
-514.858	-63.303	-0.340	0.142
-513.843	-200.000	-0.017	0.157
-512.829	60.791	-0.242	-0.243
-511.814	366.076	-0.076	-0.156
-510.799	-200.000	-0.042	0.483
-509.785	-139.816	0.226	-0.024
-508.770	-89.932	-0.026	0.008
-507.756	-115.531	0.161	0.031
-506.741	-65.149	-0.359	0.147
-505.726	130.280	0.283	0.369
-504.712	186.208	0.260	0.393
-503.697	25.881	0.180	-0.152
-502.683	-107.647	-0.354	-0.079
-501.668	346.763	0.117	-0.234
-500.653	96.480	-0.144	0.167
-499.639	-24.928	0.278	0.168
-498.624	-75.571	-0.088	-0.032
-497.610	-165.076	-0.079	0.004
-496.595	800.000	0.077	-0.337
-495.581	743.916	-0.115	-0.314
-494.566	-101.332	-0.124	-0.031
-493.551	443.038	-0.104	-0.232
-492.537	49.104	-0.197	0.188
-491.522	526.327	-0.037	-0.088
-490.508	25.300	-0.347	-0.293
-489.493	-26.278	-0.185	-0.110
-488.478	-200.000	0.000	0.105
-487.464	302.697	0.046	-0.086
-486.449	403.694	0.050	0.108
-485.435	-200.000	0.084	0.429
-484.420	-21.635	-0.162	0.100
-483.405	8.980	-0.091	-0.070
-482.391	200.306	0.070	-0.110
-481.376	-6.652	-0.129	-0.089
-480.362	800.000	-0.046	-0.186
-479.347	199.041	-0.139	0.216
-478.332	493.190	-0.082	0.192
-477.318	-127.953	-0.052	0.008
-476.303	10.171	0.176	0.136
-475.289	56.947	-0.211	0.208
-474.274	242.893	-0.033	-0.055
-473.259	-193.614	-0.135	-0.001
-472.245	-171.394	-0.371	0.013
-471.230	800.000	-0.080	0.234
-470.216	-3.496	-0.291	-0.205
-469.201	174.004	-0.065	-0.096
-468.186	23.042	0.145	0.121
-467.172	-143.823	-0.156	0.015
-466.157	-177.009	-0.051	0.001
-465.143	20.870	-0.220	-0.181
-464.128	-89.791	0.199	-0.059
-463.113	-200.000	0.015	-0.094
-462.099	24.524	0.204	-0.171
-461.084	71.430	0.090	-0.094
-460.070	-181.664	0.271	0.005
-459.055	-59.347	-0.111	-0.048
-458.040	-148.322	0.299	-0.025
-457.026	28.076	0.279	0.239
-456.011	-140.205	-0.459	-0.049
-454.997	153.235	-0.239	0.332
-453.982	800.000	0.081	-0.348
-452.968	80.911	-0.191	0.209
-451.953	-122.331	-0.371	-0.061
-450.938	-117.020	0.332	-0.061
-449.924	-105.702	0.101	-0.023
-448.909	-67.524	0.255	-0.101
-447.895	-19.402	-0.139	0.088
-446.880	-74.759	0.386	0.140
-445.865	315.806	-0.194	-0.371
-444.851	288.226	-0.144	-0.264
-443.836	43.361	-0.093	0.086
-442.822	394.442	-0.038	0.081
-441.807	-33.165	0.091	0.051
-440.792	459.227	-0.071	-0.160
-439.778	385.227	0.060	-0.124
-438.763	-123.325	-0.191	-0.031
-437.749	68.778	-0.028	-0.029
-436.734	195.599	0.081	-0.124
-435.719	800.000	-0.021	0.092
-434.705	-200.000	0.003	-0.145
-433.690	-126.453	-0.068	0.010
-432.676	-86.082	0.137	-0.043
-431.661	-40.061	-0.163	0.086
-430.646	-3.151	0.154	-0.109
-429.632	35.691	-0.111	0.099
-428.617	-89.709	-0.044	-0.013
-427.603	-21.604	-0.224	0.138
-426.588	-200.000	-0.021	-0.243
-425.573	-200.000	-0.043	0.192
-424.559	113.557	0.059	0.072
-423.544	-43.884	-0.150	-0.077
-422.530	-25.281	-0.252	0.151
-421.515	498.255	0.083	-0.194
-420.500	-46.424	0.279	-0.139
-419.486	-59.772	0.061	0.026
-418.471	800.000	-0.050	0.213
-417.457	-200.000	-0.047	-0.367
-416.442	-200.000	0.028	0.144
-415.428	51.797	0.106	0.102
-414.413	-122.966	-0.151	-0.025
-413.398	-200.000	0.046	-0.319
-412.384	220.020	-0.061	0.100
-411.369	-46.576	0.013	0.006
-410.355	-200.000	-0.050	0.298
-409.340	98.810	0.080	0.093
-408.325	-43.126	-0.080	0.041
-407.311	-200.000	0.032	-0.349
-406.296	153.363	0.120	-0.166
-405.282	-92.927	-0.113	-0.032
-404.267	-200.000	0.055	-0.246
-403.252	310.575	0.105	-0.199
-402.238	-30.974	-0.179	-0.102
-401.223	-28.928	0.203	0.118
-400.209	-2.499	-0.249	-0.177
-399.194	368.282	-0.036	-0.074
-398.179	-119.587	0.148	-0.026
-397.165	79.701	-0.203	-0.221
-396.150	424.939	-0.038	0.082
-395.136	-125.344	0.224	-0.035
-394.121	10.124	0.120	-0.092
-393.106	625.605	0.044	-0.112
-392.092	-146.145	-0.125	0.011
-391.077	-88.733	-0.407	-0.122
-390.063	800.000	0.027	0.088
-389.048	-109.853	-0.258	0.055
-388.033	96.182	0.138	0.159
-387.019	285.783	-0.098	0.179
-386.004	30.716	-0.206	0.178
-384.990	6.454	0.281	0.211
-383.975	144.599	0.282	0.381
-382.960	-121.907	0.055	0.009
-381.946	-15.328	-0.259	-0.167
-380.931	-61.437	0.326	0.139
-379.917	292.466	0.088	0.162
-378.902	41.198	-0.156	-0.143
-377.888	800.000	-0.039	-0.128
-376.873	-200.000	0.014	0.079
-375.858	-133.922	0.177	0.022
-374.844	-107.550	0.197	-0.044
-373.829	800.000	-0.173	0.612
-372.815	160.009	0.097	0.136
-371.800	124.063	0.291	-0.370
-370.785	22.319	-0.208	0.171
-369.771	-114.902	-0.210	0.040
-368.756	37.717	0.190	-0.170
-367.742	198.288	0.205	0.317
-366.727	800.000	-0.013	-0.047
-365.712	-22.459	-0.153	0.094
-364.698	800.000	0.049	0.156
-363.683	175.507	-0.058	-0.085
-362.669	378.799	-0.091	-0.187
-361.654	-37.335	-0.252	-0.136
-360.639	800.000	0.008	-0.037
-359.625	80.147	-0.158	0.171
-358.610	237.908	0.062	0.105
-357.596	-200.000	-0.002	0.082
-356.581	103.449	-0.164	-0.194
-355.566	37.718	0.023	-0.021
-354.552	34.950	0.189	0.167
-353.537	800.000	-0.044	0.166
-352.523	-117.836	0.059	0.011
-351.508	-51.129	0.386	0.183
-350.493	310.059	-0.062	0.117
-349.479	107.789	-0.124	-0.149
-348.464	-200.000	0.031	0.171
-347.450	800.000	-0.099	0.314
-346.435	261.218	-0.097	-0.169
-345.420	-200.000	-0.055	0.280
-344.406	-35.046	0.114	-0.063
-343.391	-13.839	0.110	-0.072
-342.377	120.585	0.157	-0.197
-341.362	-200.000	-0.049	0.278
-340.348	658.459	-0.112	0.290
-339.333	-160.097	0.062	-0.003
-338.318	314.462	0.167	0.316
-337.304	-105.052	-0.149	-0.035
-336.289	218.848	-0.013	-0.022
-335.275	-90.616	0.172	-0.050
-334.260	800.000	-0.024	-0.078
-333.245	-5.736	0.339	0.234
-332.231	-179.356	0.327	-0.007
-331.216	10.790	0.108	0.083
-330.202	800.000	-0.115	0.336
-329.187	25.314	-0.113	0.095
-328.172	-200.000	-0.011	0.105
-327.158	-79.232	-0.199	0.068
-326.143	-200.000	0.015	-0.073
-325.129	186.516	0.179	0.269
-324.114	46.663	-0.164	-0.153
-323.099	-200.000	0.048	0.240
-322.085	22.617	-0.203	0.168
-321.070	-111.200	-0.155	0.032
-320.056	-85.508	0.416	0.131
-319.041	-62.216	0.322	-0.135
-318.026	-165.615	-0.158	0.007
-317.012	-90.804	-0.172	0.050
-315.997	238.274	0.056	0.093
-314.983	-200.000	-0.032	-0.259
-313.968	-200.000	0.047	0.224
-312.953	120.051	-0.174	-0.218
-311.939	4.632	0.299	0.221
-310.924	800.000	0.033	0.103
-309.910	-15.139	0.545	-0.352
-308.895	-124.220	0.091	-0.014
-307.880	-108.736	-0.163	0.035
-306.866	-83.183	0.005	0.002
-305.851	-99.885	-0.235	0.059
-304.837	-140.947	0.235	0.024
-303.822	-76.726	0.230	0.081
-302.807	800.000	0.042	-0.158
-301.793	-127.450	-0.416	-0.061
-300.778	-200.000	-0.008	-0.152
-299.764	-127.073	0.317	-0.047
-298.749	17.995	-0.272	0.218
-297.735	89.248	-0.209	-0.235
-296.720	-44.502	-0.061	-0.031
-295.705	-98.643	0.220	0.056
-294.691	203.766	0.198	0.309
-293.676	319.751	0.099	-0.188
-292.662	-93.007	0.310	-0.087
-291.647	119.848	-0.114	-0.142
-290.632	37.456	0.184	0.164
-289.618	91.340	0.087	0.098
-288.603	-86.554	-0.165	-0.051
-287.589	82.021	-0.406	0.443
-286.574	128.269	-0.020	-0.026
-285.559	800.000	0.044	-0.123
-284.545	49.051	0.213	-0.201
-283.530	57.810	-0.102	-0.101
-282.516	73.441	-0.070	0.074
-281.501	13.701	0.050	-0.039
-280.486	-48.354	0.186	-0.090
-279.472	800.000	0.023	0.087
-278.457	12.938	-0.141	-0.110
-277.443	79.658	0.207	0.224
-276.428	305.228	0.144	-0.269
-275.413	-1.111	0.098	0.070
-274.399	-200.000	-0.018	0.154
-273.384	-200.000	0.086	-0.478
-272.370	36.470	-0.149	0.132
-271.355	-121.250	0.563	0.095
-270.340	-141.080	0.085	0.009
-269.326	12.815	-0.200	0.156
-268.311	-158.041	-0.236	0.014
-267.297	443.029	-0.128	-0.282
-266.282	-23.649	-0.181	0.109
-265.267	800.000	-0.057	-0.177
-264.253	-98.691	-0.236	0.061
-263.238	342.611	0.150	0.296
-262.224	230.499	0.242	-0.398
-261.209	800.000	0.064	-0.197
-260.195	-161.396	0.494	0.026
-259.180	800.000	-0.043	-0.148
-258.165	109.445	-0.155	0.187
-257.151	800.000	-0.116	-0.459
-256.136	-15.442	-0.150	-0.096
-255.122	-200.000	0.026	0.195
-254.107	-200.000	-0.004	0.102
-253.092	457.062	-0.149	-0.334
-252.078	800.000	-0.065	-0.223
-251.063	-141.713	-0.286	0.029
-250.049	-93.818	-0.091	-0.025
-249.034	193.859	-0.109	0.166
-248.019	-200.000	-0.002	0.170
-247.005	-30.995	-0.241	-0.137
-245.990	145.296	0.031	-0.041
-244.976	-159.942	0.054	-0.003
-243.961	-25.086	-0.221	-0.132
-242.946	-48.834	0.155	0.075
-241.932	679.806	-0.045	0.118
-240.917	-133.982	0.072	0.009
-239.903	-200.000	-0.035	0.167
-238.888	-200.000	0.008	-0.112
-237.873	-147.319	0.213	-0.018
-236.859	-200.000	0.054	0.237
-235.844	-28.840	0.095	0.055
-234.830	-200.000	0.027	0.126
-233.815	-30.628	-0.236	0.134
-232.800	28.018	0.342	0.290
-231.786	50.571	0.234	-0.223
-230.771	-100.728	-0.060	-0.015
-229.757	-150.315	0.044	0.003
-228.742	250.819	-0.046	0.079
-227.727	-61.997	-0.158	0.066
-226.713	-200.000	0.048	-0.266
-225.698	17.197	-0.119	-0.095
-224.684	-200.000	-0.056	-0.347
-223.669	800.000	-0.153	-0.431
-222.655	285.312	0.110	0.198
-221.640	122.974	0.155	-0.195
-220.625	-92.967	0.437	0.123
-219.611	224.736	0.133	-0.215
-218.596	376.684	0.217	0.444
-217.582	-161.912	0.397	0.020
-216.567	160.272	-0.180	-0.252
-215.552	-13.098	0.126	-0.082
-214.538	-127.186	-0.231	-0.034
-213.523	-200.000	0.006	0.183
-212.509	267.424	-0.214	-0.375
-211.494	73.032	0.042	0.044
-210.479	385.172	-0.105	0.218
-209.465	158.816	0.281	0.391
-208.450	800.000	0.055	0.205
-207.436	-65.076	-0.207	0.084
-206.421	-21.878	0.176	-0.107
-205.406	618.737	0.072	-0.182
-204.392	-6.355	0.238	-0.163
-203.377	242.138	-0.047	-0.079
-202.363	-200.000	-0.083	0.435
-201.348	-39.802	-0.313	0.164
-200.333	-125.913	0.149	0.022
-199.319	39.706	-0.212	-0.190
-198.304	119.051	0.194	0.241
-197.290	800.000	0.084	-0.348
-196.275	13.783	0.190	-0.148
-195.260	-70.248	-0.096	-0.037
-194.246	32.369	0.215	0.187
-193.231	-200.000	0.007	0.080
-192.217	11.905	0.150	0.116
-191.202	252.912	-0.077	0.131
-190.187	13.675	0.204	-0.159
-189.173	421.591	-0.041	0.088
-188.158	23.160	-0.219	0.180
-187.144	570.482	-0.062	0.152
-186.129	305.731	0.053	-0.099
-185.114	-155.022	0.047	-0.003
-184.100	-58.403	0.131	0.057
-183.085	93.436	-0.030	-0.034
-182.071	-64.574	0.159	-0.065
-181.056	-134.325	-0.225	-0.028
-180.042	-93.053	-0.069	0.019
-179.027	362.235	-0.083	-0.167
-178.012	48.856	0.133	-0.125
-176.998	-66.571	0.138	0.055
-175.983	-79.717	-0.267	0.090
-174.969	474.475	-0.010	0.023
-173.954	-127.838	-0.259	0.037
-172.939	-200.000	-0.006	-0.074
-171.925	78.028	0.076	0.082
-170.910	-200.000	0.036	0.296
-169.896	98.027	-0.250	0.289
-168.881	469.677	0.142	-0.320
-167.866	-66.880	-0.273	0.108
-166.852	656.001	0.040	0.103
-165.837	149.411	0.106	-0.144
-164.823	206.057	-0.053	0.083
-163.808	-200.000	0.039	0.187
-162.793	-75.273	-0.456	0.163
-161.779	-75.733	-0.270	-0.096
-160.764	-156.920	0.150	0.009
-159.750	-121.992	0.257	0.042
-158.735	-5.239	-0.145	-0.100
-157.720	2.228	0.271	0.196
-156.706	105.124	-0.041	-0.048
-155.691	-119.566	-0.031	-0.005
-154.677	397.515	0.158	-0.331
-153.662	112.410	-0.056	0.068
-152.647	-116.312	-0.292	-0.054
-151.633	-200.000	-0.004	-0.095
-150.618	39.863	0.097	-0.088
-149.604	15.102	0.109	-0.086
-148.589	726.610	0.027	-0.073
-147.574	-120.924	0.324	0.055
-146.560	-134.354	0.109	0.013
-145.545	-63.972	-0.044	0.018
-144.531	92.968	0.092	-0.104
-143.516	182.146	0.107	0.159
-142.502	-20.528	0.186	0.115
-141.487	-75.014	-0.179	0.064
-140.472	239.452	0.179	-0.298
-139.458	-200.000	0.002	0.073
-138.443	29.098	-0.152	-0.129
-137.429	-200.000	0.027	0.266
-136.414	-45.348	0.389	0.193
-135.399	-57.180	0.282	-0.124
-134.385	205.566	-0.127	-0.198
-133.370	63.958	0.118	-0.118
-132.356	15.988	-0.101	-0.079
-131.341	-200.000	0.005	-0.363
-130.326	-126.767	0.147	0.022
-129.312	374.024	-0.136	0.277
-128.297	800.000	-0.062	-0.229
-127.283	417.365	0.045	0.095
-126.268	719.837	-0.118	0.315
-125.253	27.671	0.210	0.177
-124.239	201.132	-0.187	0.289
-123.224	112.680	-0.074	0.089
-122.210	-200.000	-0.059	0.297
-121.195	10.980	0.077	-0.059
