DTS Sentinel unit serial number:	SN413079Multiplexer serial number:	ORYXHardware model number:	OX4-SRSoftware version number:	ORYX F/W v4.00 Oryx Data Collector v3.7.2.0data status	okinstallation	princeton_trtdifferential loss correction	single-endedforward channel	channel 3reverse channel	N/Adate	2019/09/12time	01:46:11forward acquisition time	60.00reverse acquisition time	0.00gamma	496.2192k internal	0.2320k external	0.2320temperature offset calibration	1.0066default loss term (dB/km)	0.3790temperature slope calibration	1.0000multiplexer offset coefficient	1.0000multiplexer slope coefficient	1.0000fibre end	0.00T internal ref (°C)	32.86T ext. ref 1 (°C)	2.06T ext. ref 2 (°C)	27.48length (m)	temperature (°C)	Stokes	anti-Stokes-747.200	800.000	0.029	0.118
-746.185	-200.000	-0.058	0.271
-745.171	20.221	-0.150	0.123
-744.156	14.754	-0.289	0.228
-743.142	800.000	0.053	0.226
-742.127	37.788	-0.289	0.260
-741.112	-91.571	-0.265	0.076
-740.098	378.043	0.193	0.399
-739.083	-9.345	0.179	-0.121
-738.069	138.299	0.119	0.158
-737.054	11.331	0.117	-0.091
-736.039	-34.874	-0.279	-0.154
-735.025	154.621	0.036	0.051
-734.010	-4.815	-0.236	-0.165
-732.996	283.703	0.128	-0.233
-731.981	800.000	0.054	-0.159
-730.966	567.609	0.068	0.168
-729.952	389.413	-0.136	0.285
-728.937	-96.372	-0.312	-0.083
-727.923	13.368	0.265	-0.208
-726.908	180.434	0.160	-0.238
-725.894	109.372	-0.123	-0.149
-724.879	-116.852	-0.359	0.066
-723.864	114.442	0.095	-0.117
-722.850	-177.129	-0.177	0.004
-721.835	-87.392	-0.101	0.031
-720.821	800.000	0.123	0.365
-719.806	-200.000	-0.002	-0.120
-718.791	-200.000	-0.025	-0.125
-717.777	122.324	-0.078	-0.098
-716.762	72.620	-0.294	0.310
-715.748	-200.000	0.020	-0.202
-714.733	-200.000	-0.029	0.224
-713.718	800.000	0.085	-0.290
-712.704	-200.000	0.001	-0.040
-711.689	-59.501	-0.245	0.106
-710.675	-200.000	-0.021	-0.174
-709.660	-147.310	0.298	0.026
-708.645	-38.935	-0.207	0.110
-707.631	-70.198	0.210	0.081
-706.616	185.884	0.133	-0.199
-705.602	140.495	-0.277	-0.369
-704.587	351.539	-0.123	-0.247
-703.572	11.835	-0.275	0.213
-702.558	146.721	-0.158	0.215
-701.543	112.642	0.087	0.107
-700.529	800.000	0.067	-0.202
-699.514	-36.004	-0.276	-0.151
-698.499	105.837	-0.007	0.008
-697.485	800.000	-0.062	-0.208
-696.470	513.197	-0.049	-0.115
-695.456	230.989	-0.134	0.222
-694.441	-200.000	0.012	0.071
-693.426	-137.678	0.066	-0.007
-692.412	-138.069	-0.166	-0.019
-691.397	-128.330	-0.181	0.026
-690.383	-8.524	0.036	-0.025
-689.368	-97.664	-0.284	0.074
-688.354	473.308	0.097	-0.221
-687.339	105.201	-0.056	0.067
-686.324	-16.609	-0.185	-0.118
-685.310	47.504	-0.079	0.074
-684.295	-85.207	0.044	-0.014
-683.281	-176.497	-0.258	-0.007
-682.266	-80.921	0.174	-0.058
-681.251	-69.980	-0.261	0.100
-680.237	-67.615	-0.277	-0.110
-679.222	-73.630	-0.256	0.094
-678.208	134.928	0.199	-0.261
-677.193	294.255	-0.129	-0.239
-676.178	56.811	-0.252	0.247
-675.164	44.030	-0.246	0.228
-674.149	-28.979	-0.016	-0.009
-673.135	111.379	-0.107	-0.130
-672.120	-45.709	-0.343	-0.171
-671.105	-108.994	0.307	-0.066
-670.091	-121.343	-0.237	-0.040
-669.076	8.950	-0.326	0.248
-668.062	-141.996	0.394	0.040
-667.047	-170.011	-0.261	-0.009
-666.032	-90.909	-0.103	-0.030
-665.018	-200.000	0.034	-0.256
-664.003	-85.544	-0.168	0.053
-662.989	-87.757	-0.207	0.063
-661.974	-87.326	0.217	0.066
-660.959	800.000	0.014	0.052
-659.945	800.000	-0.039	0.155
-658.930	106.769	-0.050	-0.060
-657.916	761.879	0.028	0.076
-656.901	-16.708	-0.163	-0.104
-655.886	-15.758	-0.209	-0.134
-654.872	265.330	-0.043	-0.075
-653.857	-140.623	0.357	0.037
-652.843	800.000	0.045	0.196
-651.828	-105.903	-0.167	-0.038
-650.814	-96.878	0.215	0.057
-649.799	485.026	-0.107	-0.245
-648.784	800.000	0.083	-0.366
-647.770	-117.919	0.259	-0.047
-646.755	104.460	0.188	-0.223
-645.741	62.733	-0.216	0.218
-644.726	800.000	0.067	-0.200
-643.711	800.000	-0.061	-0.261
-642.697	-108.182	-0.133	-0.029
-641.682	-55.597	0.178	0.080
-640.668	793.460	-0.058	-0.160
-639.653	-166.555	-0.032	0.001
-638.638	800.000	0.049	0.142
-637.624	-91.280	-0.038	-0.011
-636.609	-57.755	-0.293	-0.129
-635.595	-200.000	-0.041	-0.328
-634.580	-91.867	0.400	-0.114
-633.565	-23.467	0.297	-0.180
-632.551	-200.000	0.009	-0.105
-631.536	24.797	0.238	0.199
-630.522	-131.975	0.208	-0.027
-629.507	483.273	0.112	0.256
-628.492	-61.332	0.114	-0.048
-627.478	-164.304	-0.118	-0.005
-626.463	-11.044	-0.108	0.072
-625.449	67.662	0.076	0.078
-624.434	800.000	0.060	-0.183
-623.419	-66.151	-0.346	-0.139
-622.405	-200.000	-0.014	0.067
-621.390	143.600	0.114	0.153
-620.376	-149.093	-0.096	-0.008
-619.361	342.966	-0.109	-0.216
-618.346	236.762	-0.195	0.325
-617.332	-200.000	0.059	0.329
-616.317	-21.147	-0.240	0.148
-615.303	-200.000	0.014	-0.183
-614.288	-111.700	-0.121	0.025
-613.273	800.000	0.038	0.136
-612.259	800.000	0.051	-0.158
-611.244	-69.001	-0.168	-0.065
-610.230	-20.938	-0.158	0.098
-609.215	268.821	-0.050	-0.089
-608.201	-154.489	-0.203	-0.014
-607.186	-137.713	0.305	0.034
-606.171	8.864	0.101	0.076
-605.157	-89.936	0.228	-0.067
-604.142	-200.000	0.051	-0.371
-603.128	2.496	0.301	-0.219
-602.113	132.328	0.036	-0.046
-601.098	-10.886	0.185	0.123
-600.084	131.704	0.139	0.180
-599.069	-56.520	0.037	-0.016
-598.055	112.715	0.027	-0.033
-597.040	-125.716	-0.088	0.013
-596.025	-200.000	0.031	0.145
-595.011	-132.264	-0.133	-0.017
-593.996	-40.238	0.131	-0.068
-592.982	-189.733	0.118	0.001
-591.967	-52.445	0.243	0.113
-590.952	167.937	-0.322	-0.460
-589.938	-127.369	-0.168	-0.025
-588.923	-99.175	-0.446	0.113
-587.909	743.656	0.124	-0.335
-586.894	-159.997	-0.208	-0.011
-585.879	-82.909	0.213	0.069
-584.865	-48.230	0.157	-0.076
-583.850	46.035	0.158	-0.147
-582.836	70.717	-0.166	0.173
-581.821	-171.593	-0.198	-0.007
-580.806	800.000	-0.046	-0.189
-579.792	437.986	0.064	0.141
-578.777	-150.521	-0.332	0.026
-577.763	-159.579	0.256	-0.014
-576.748	-69.897	0.207	0.079
-575.733	86.292	0.102	-0.113
-574.719	190.499	-0.192	0.289
-573.704	800.000	0.070	-0.235
-572.690	-200.000	-0.010	-0.325
-571.675	365.198	-0.214	-0.434
-570.661	574.121	0.111	-0.272
-569.646	484.473	0.153	-0.349
-568.631	593.301	0.105	-0.260
-567.617	514.037	0.129	-0.303
-566.602	800.000	-0.072	0.203
-565.588	-200.000	0.028	-0.332
-564.573	-122.810	0.148	0.024
-563.558	-200.000	-0.012	-0.068
-562.544	-13.274	-0.131	0.085
-561.529	-106.179	-0.164	0.037
-560.515	800.000	-0.142	-0.417
-559.500	-101.846	-0.185	-0.045
-558.485	397.608	-0.026	0.055
-557.471	-126.194	0.325	0.049
-556.456	91.244	-0.148	-0.167
-555.442	-165.554	0.063	0.003
-554.427	-55.613	-0.087	0.039
-553.412	31.977	0.100	-0.087
-552.398	-200.000	0.002	0.238
-551.383	-140.284	-0.066	0.007
-550.369	53.489	-0.147	0.142
-549.354	-63.772	-0.142	0.058
-548.339	189.991	-0.150	0.226
-547.325	215.895	0.115	-0.184
-546.310	800.000	-0.116	-0.406
-545.296	800.000	-0.031	-0.099
-544.281	-76.721	0.386	-0.136
-543.266	-117.166	-0.427	-0.078
-542.252	130.168	0.016	-0.021
-541.237	205.858	-0.159	-0.249
-540.223	800.000	0.039	-0.146
-539.208	800.000	0.057	0.236
-538.193	142.592	-0.198	0.263
-537.179	800.000	-0.070	0.199
-536.164	42.886	-0.030	-0.028
-535.150	-25.108	-0.189	0.112
-534.135	-200.000	-0.025	-0.237
-533.121	792.284	0.121	0.335
-532.106	-26.986	0.242	-0.142
-531.091	-1.014	-0.100	-0.071
-530.077	-190.043	0.263	-0.003
-529.062	-139.058	0.114	-0.012
-528.048	-200.000	0.090	-0.516
-527.033	800.000	0.087	-0.316
-526.018	28.995	-0.149	-0.127
-525.004	64.404	0.275	-0.278
-523.989	-121.932	-0.016	-0.003
-522.975	-48.502	-0.421	0.203
-521.960	-138.350	-0.309	-0.034
-520.945	1.789	0.209	-0.151
-519.931	39.014	0.208	0.186
-518.916	-58.028	0.281	0.123
-517.902	-38.205	-0.168	0.089
-516.887	359.486	-0.042	0.085
-515.872	-81.151	0.287	-0.095
-514.858	4.016	0.247	-0.181
-513.843	579.391	-0.056	0.138
-512.829	30.301	0.240	0.205
-511.814	-11.098	-0.138	-0.091
-510.799	-45.483	-0.190	0.094
-509.785	800.000	-0.110	-0.470
-508.770	173.087	0.111	0.161
-507.756	564.076	0.044	-0.107
-506.741	-200.000	0.056	-0.450
-505.726	261.722	0.090	0.156
-504.712	-1.378	-0.086	0.061
-503.697	-108.746	0.122	-0.026
-502.683	357.024	0.202	0.404
-501.668	106.735	0.148	0.176
-500.653	800.000	0.046	0.152
-499.639	-56.305	0.149	0.066
-498.624	95.981	-0.175	-0.200
-497.610	-132.771	0.126	0.016
-496.595	111.039	0.151	0.182
-495.581	-200.000	-0.004	-0.020
-494.566	65.647	0.123	0.125
-493.551	-200.000	0.033	0.326
-492.537	-90.231	-0.110	-0.032
-491.522	800.000	0.061	-0.168
-490.508	233.354	0.053	0.087
-489.493	7.816	-0.150	-0.113
-488.478	543.651	-0.024	-0.058
-487.464	512.821	0.075	0.175
-486.449	212.802	-0.111	-0.175
-485.435	154.486	0.018	0.024
-484.420	800.000	0.066	0.188
-483.405	-147.219	-0.212	0.018
-482.391	261.600	-0.067	-0.116
-481.376	-4.178	0.191	-0.133
-480.362	79.568	0.175	-0.188
-479.347	237.367	-0.092	0.153
-478.332	800.000	0.119	-0.387
-477.318	288.998	-0.027	-0.049
-476.303	-133.482	0.170	0.021
-475.289	-60.824	0.031	0.013
-474.274	-62.133	-0.512	-0.214
-473.259	37.519	-0.107	-0.095
-472.245	-39.701	-0.074	0.039
-471.230	800.000	0.137	-0.393
-470.216	-154.307	-0.274	0.018
-469.201	-122.562	0.076	0.012
-468.186	-200.000	0.009	-0.330
-467.172	-200.000	0.007	-0.130
-466.157	570.299	0.126	0.306
-465.143	362.848	-0.073	-0.147
-464.128	510.410	0.205	0.477
-463.113	-200.000	0.068	0.401
-462.099	-42.244	0.433	-0.221
-461.084	-110.450	-0.288	0.060
-460.070	-200.000	-0.014	-0.408
-459.055	-130.938	-0.078	0.010
-458.040	800.000	0.084	-0.283
-457.026	79.232	-0.053	0.057
-456.011	-57.457	-0.242	0.106
-454.997	800.000	-0.053	-0.199
-453.982	-75.007	-0.072	0.026
-452.968	-144.667	-0.414	-0.038
-451.953	-200.000	-0.030	0.199
-450.938	-22.762	0.278	0.168
-449.924	408.461	-0.080	0.170
-448.909	307.534	-0.066	-0.123
-447.895	15.784	-0.181	0.142
-446.880	515.011	-0.145	-0.338
-445.865	-133.207	0.029	-0.004
-444.851	382.385	0.092	0.190
-443.836	119.903	-0.083	0.103
-442.822	800.000	-0.085	0.308
-441.807	-200.000	-0.043	-0.211
-440.792	-106.140	-0.419	0.094
-439.778	800.000	-0.083	0.251
-438.763	217.236	0.085	-0.135
-437.749	-200.000	-0.045	0.258
-436.734	-113.455	-0.260	-0.051
-435.719	-170.160	0.216	0.008
-434.705	88.492	0.188	-0.208
-433.690	-147.052	0.263	0.022
-432.676	-63.973	-0.050	0.020
-431.661	-110.429	0.114	0.024
-430.646	-20.688	-0.176	0.108
-429.632	800.000	0.073	0.283
-428.617	-200.000	0.058	0.313
-427.603	115.712	0.119	0.145
-426.588	-40.563	0.197	0.102
-425.573	-200.000	0.027	0.302
-424.559	164.491	0.161	0.227
-423.544	-35.202	-0.186	-0.101
-422.530	38.712	-0.157	-0.140
-421.515	-125.866	0.207	0.031
-420.500	-8.308	0.213	-0.143
-419.486	243.528	-0.089	0.149
-418.471	-79.517	0.096	0.032
-417.457	-148.415	-0.136	-0.011
-416.442	-121.675	0.096	-0.016
-415.428	-200.000	-0.007	0.030
-414.413	-200.000	-0.006	0.314
-413.398	-200.000	-0.010	0.213
-412.384	-85.387	-0.261	-0.081
-411.369	150.253	0.083	-0.112
-410.355	-101.667	-0.259	-0.063
-409.340	254.091	0.064	0.109
-408.325	-200.000	0.000	-0.150
-407.311	7.551	0.200	-0.149
-406.296	167.670	0.177	0.250
-405.282	800.000	-0.058	-0.173
-404.267	132.768	-0.175	0.226
-403.252	-26.977	-0.151	0.088
-402.238	-161.794	-0.222	-0.011
-401.223	37.499	-0.407	0.360
-400.209	163.336	0.114	-0.159
-399.194	-14.720	-0.112	0.072
-398.179	-97.110	-0.386	0.101
-397.165	-52.238	0.311	0.144
-396.150	-38.711	0.070	-0.037
-395.136	60.828	-0.172	0.170
-394.121	-45.366	-0.051	-0.025
-393.106	264.926	-0.064	-0.111
-392.092	161.183	-0.146	0.204
-391.077	40.524	-0.075	0.068
-390.063	800.000	0.005	-0.016
-389.048	-200.000	0.000	0.269
-388.033	800.000	0.035	-0.112
-387.019	158.047	-0.063	0.087
-386.004	354.923	-0.162	-0.320
-384.990	117.713	-0.100	-0.123
-383.975	25.298	0.077	-0.064
-382.960	-192.527	-0.341	-0.003
-381.946	271.010	0.108	0.189
-380.931	127.408	-0.094	0.119
-379.917	-3.587	0.209	0.145
-378.902	-200.000	0.035	-0.552
-377.888	114.932	-0.044	0.053
-376.873	198.339	-0.086	0.132
-375.858	-120.465	-0.294	-0.050
-374.844	800.000	-0.073	0.230
-373.829	800.000	-0.048	-0.169
-372.815	87.028	-0.096	-0.105
-371.800	-107.918	0.184	-0.040
-370.785	-200.000	0.005	0.024
-369.771	160.635	0.087	-0.120
-368.756	142.702	-0.241	-0.319
-367.742	-7.331	-0.092	0.062
-366.727	509.910	-0.081	-0.188
-365.712	724.552	0.088	0.235
-364.698	0.329	0.108	-0.077
-363.683	56.553	0.171	0.166
-362.669	-23.612	0.153	-0.092
-361.654	12.496	-0.167	0.128
-360.639	490.428	-0.109	0.247
-359.625	-46.882	-0.168	-0.082
-358.610	-136.500	-0.419	0.048
-357.596	200.440	0.068	0.105
-356.581	-94.082	0.275	0.075
-355.566	-200.000	0.052	-0.297
-354.552	147.043	-0.142	0.190
-353.537	-200.000	0.004	0.339
-352.523	4.738	0.133	-0.098
-351.508	-2.642	-0.090	0.062
-350.493	357.576	-0.097	0.193
-349.479	-91.018	0.254	-0.073
-348.464	-101.193	-0.032	0.008
-347.450	-200.000	0.008	0.037
-346.435	82.889	-0.044	0.048
-345.420	-122.214	-0.341	-0.056
-344.406	124.639	0.157	-0.197
-343.391	-177.615	0.189	-0.005
-342.377	-200.000	-0.004	-0.061
-341.362	-200.000	-0.106	-0.605
-340.348	-63.785	0.173	0.071
-339.333	-127.149	0.166	-0.024
-338.318	-136.911	0.249	0.028
-337.304	406.587	-0.065	0.137
-336.289	-142.259	-0.091	-0.009
-335.275	-22.453	0.105	0.063
-334.260	400.352	-0.077	-0.160
-333.245	-114.922	-0.109	0.021
-332.231	69.139	0.173	0.177
-331.216	-27.030	0.180	-0.104
-330.202	152.488	0.165	-0.224
-329.187	109.777	0.333	0.397
-328.172	-118.386	-0.194	-0.034
-327.158	-200.000	-0.045	-0.349
-326.143	277.827	0.049	0.087
-325.129	-73.123	0.289	0.105
-324.114	-200.000	-0.044	0.193
-323.099	-200.000	-0.003	0.140
-322.085	800.000	0.033	-0.105
-321.070	-0.359	-0.290	-0.205
-320.056	-167.863	0.052	0.002
-319.041	454.184	-0.118	-0.260
-318.026	-200.000	-0.009	0.158
-317.012	126.003	0.342	-0.430
-315.997	-128.098	-0.077	0.011
-314.983	75.411	-0.195	0.204
-313.968	-85.528	0.272	-0.084
-312.953	-53.157	0.045	0.021
-311.939	-200.000	0.015	0.330
-310.924	-67.363	0.195	-0.076
-309.910	-27.327	0.241	0.139
-308.895	216.885	-0.084	-0.134
-307.880	116.135	-0.169	0.206
-306.866	-119.588	-0.534	0.092
-305.851	-200.000	0.022	0.136
-304.837	800.000	-0.064	0.222
-303.822	-26.455	0.072	0.042
-302.807	630.724	0.127	0.319
-301.793	-200.000	0.037	-0.175
-300.778	464.418	0.061	0.135
-299.764	-154.967	-0.314	-0.021
-298.749	372.752	0.125	-0.253
-297.735	-73.716	-0.101	0.036
-296.720	174.806	-0.224	-0.323
-295.705	263.217	-0.032	0.056
-294.691	-200.000	-0.031	-0.212
-293.676	-69.698	-0.194	0.074
-292.662	591.235	0.090	0.219
-291.647	76.827	-0.031	0.033
-290.632	-109.531	-0.166	0.035
-289.618	-200.000	-0.041	0.228
-288.603	104.620	0.149	-0.175
-287.589	-200.000	-0.094	-0.456
-286.574	51.046	0.139	0.131
-285.559	800.000	0.036	0.121
-284.545	575.930	0.144	0.350
-283.530	250.350	0.055	-0.093
-282.516	5.470	0.181	-0.133
-281.501	48.397	-0.129	-0.120
-280.486	-49.602	-0.159	-0.075
-279.472	515.032	0.048	0.111
-278.457	-84.763	0.243	-0.076
-277.443	488.003	0.073	-0.166
-276.428	495.284	0.025	-0.056
-275.413	341.081	-0.061	-0.119
-274.399	353.132	0.032	-0.062
-273.384	800.000	0.071	0.228
-272.370	-96.432	-0.138	0.036
-271.355	205.042	-0.198	-0.305
-270.340	54.747	0.031	-0.029
-269.326	-3.589	-0.193	0.133
-268.311	-200.000	-0.003	0.038
-267.297	800.000	-0.103	-0.330
-266.282	-200.000	0.004	-0.137
-265.267	-16.681	-0.019	0.012
-264.253	-74.480	0.119	-0.043
-263.238	72.898	-0.270	0.280
-262.224	800.000	0.137	0.415
-261.209	-200.000	0.008	0.317
-260.195	-97.425	-0.360	-0.093
-259.180	-123.247	0.490	-0.078
-258.165	800.000	0.056	0.186
-257.151	352.250	-0.175	-0.345
-256.136	-30.042	-0.526	-0.297
-255.122	-200.000	0.019	-0.244
-254.107	-129.504	-0.319	0.044
-253.092	7.703	0.161	0.120
-252.078	-14.045	-0.192	0.123
-251.063	-200.000	0.014	-0.139
-250.049	-200.000	0.082	0.402
-249.034	47.905	0.182	0.168
-248.019	-89.201	0.315	0.092
-247.005	-200.000	0.024	0.208
-245.990	290.838	0.048	-0.087
-244.976	375.975	0.071	0.144
-243.961	800.000	-0.040	-0.112
-242.946	-39.444	-0.208	-0.108
-241.932	-88.361	0.191	0.057
-240.917	68.656	-0.038	0.039
-239.903	517.726	0.056	0.129
-238.888	-107.548	-0.190	0.041
-237.873	-61.887	-0.189	0.078
-236.859	35.800	-0.140	-0.122
-235.844	1.247	0.030	-0.021
-234.830	77.510	-0.275	-0.291
-233.815	-200.000	0.006	0.278
-232.800	-59.281	-0.230	0.098
-231.786	-182.182	-0.129	0.002
-230.771	-200.000	0.014	-0.520
-229.757	-157.171	0.281	0.017
-228.742	800.000	0.056	-0.231
-227.727	800.000	-0.111	0.370
-226.713	-35.952	-0.165	0.088
-225.698	800.000	-0.056	-0.241
-224.684	-13.024	-0.161	-0.104
-223.669	-200.000	0.005	0.234
-222.655	128.881	0.026	0.033
-221.640	-200.000	-0.004	-0.325
-220.625	-79.364	0.297	0.100
-219.611	-200.000	-0.015	0.118
-218.596	-200.000	0.078	0.503
-217.582	-107.383	0.257	-0.056
-216.567	96.345	-0.165	0.187
-215.552	-200.000	0.044	0.243
-214.538	-154.088	0.208	-0.014
-213.523	-200.000	-0.005	-0.102
-212.509	-68.106	0.419	-0.162
-211.494	800.000	-0.041	0.141
-210.479	80.686	-0.128	0.137
-209.465	-200.000	0.020	0.179
-208.450	75.837	0.214	-0.224
-207.436	-17.074	0.208	0.130
-206.421	15.851	-0.189	0.147
-205.406	-65.902	-0.115	-0.046
-204.392	25.897	-0.196	-0.162
-203.377	374.153	0.123	0.248
-202.363	-45.982	-0.320	0.156
-201.348	-200.000	0.017	0.441
-200.333	14.753	0.280	-0.217
-199.319	-167.806	0.189	-0.007
-198.304	135.052	-0.100	0.129
-197.290	132.926	0.113	-0.145
-196.275	155.982	0.060	-0.082
-195.260	347.954	-0.113	-0.221
-194.246	50.560	-0.208	0.195
-193.231	-138.915	-0.369	-0.040
-192.217	210.915	0.200	0.311
-191.202	207.594	0.110	0.170
-190.187	274.681	-0.156	-0.273
-189.173	-42.150	0.243	0.123
-188.158	484.101	-0.103	0.233
-187.144	517.896	0.083	0.191
-186.129	-200.000	-0.006	-0.147
-185.114	-95.655	-0.526	-0.139
-184.100	-200.000	0.056	0.332
-183.085	150.332	0.019	0.025
-182.071	-74.185	0.067	-0.024
-181.056	-65.489	0.296	0.117
-180.042	222.640	0.117	-0.187
-179.027	-153.327	0.208	-0.014
-178.012	12.283	0.176	-0.134
-176.998	-200.000	-0.013	0.319
-175.983	252.561	0.096	0.162
-174.969	197.413	0.091	-0.138
-173.954	800.000	-0.137	-0.433
-172.939	54.374	0.154	0.147
-171.925	229.470	0.111	0.180
-170.910	-200.000	0.048	0.375
-169.896	-200.000	0.050	0.270
-168.881	-138.931	0.432	-0.046
-167.866	22.153	0.063	0.051
-166.852	6.120	0.197	-0.145
-165.837	775.249	0.107	0.289
-164.823	455.654	-0.059	0.129
-163.808	800.000	0.081	0.348
-162.793	800.000	-0.042	0.131
-161.779	-200.000	0.049	0.260
-160.764	800.000	-0.011	-0.046
-159.750	111.315	-0.153	0.182
-158.735	330.408	-0.046	-0.087
-157.720	-51.963	0.205	-0.094
-156.706	35.730	0.143	-0.124
-155.691	424.486	0.059	-0.124
-154.677	181.103	0.137	-0.199
-153.662	800.000	0.024	-0.075
-152.647	256.269	-0.143	-0.242
-151.633	2.278	-0.065	0.046
-150.618	-200.000	-0.014	0.201
-149.604	-50.883	-0.113	-0.053
-148.589	355.150	0.158	0.310
-147.574	-142.147	-0.140	0.014
-146.560	-76.337	0.344	0.120
-145.545	28.732	-0.078	0.066
-144.531	20.171	0.057	-0.045
-143.516	-200.000	0.046	0.252
-142.502	-200.000	0.009	0.132
-141.487	47.250	0.327	0.301
-140.472	-70.369	-0.307	0.115
-139.458	-107.536	-0.056	-0.012
-138.443	-200.000	-0.033	-0.371
-137.429	-39.622	-0.170	-0.088
-136.414	800.000	-0.061	-0.204
-135.399	57.461	0.302	-0.292
-134.385	-18.907	0.313	0.193
-133.370	-33.016	-0.139	-0.076
-132.356	340.111	0.215	0.414
-131.341	14.920	-0.139	0.108
-130.326	233.896	-0.109	0.177
-129.312	-69.777	0.214	-0.081
-128.297	503.367	0.058	-0.132
-127.283	-168.827	0.186	0.007
-126.268	-155.377	-0.215	-0.014
-125.253	115.707	-0.237	0.286
-124.239	-55.813	-0.537	-0.237
-123.224	-102.686	-0.212	-0.050
-122.210	-69.606	0.171	0.065
-121.195	59.099	-0.070	0.068
