DTS Sentinel unit serial number:	SN413079Multiplexer serial number:	ORYXHardware model number:	OX4-SRSoftware version number:	ORYX F/W v4.00 Oryx Data Collector v3.7.2.0data status	okinstallation	princeton_trtdifferential loss correction	single-endedforward channel	channel 3reverse channel	N/Adate	2019/09/11time	13:06:11forward acquisition time	60.00reverse acquisition time	0.00gamma	496.2192k internal	0.2294k external	0.2294temperature offset calibration	0.9942default loss term (dB/km)	0.3790temperature slope calibration	1.0000multiplexer offset coefficient	1.0000multiplexer slope coefficient	1.0000fibre end	0.00T internal ref (°C)	41.75T ext. ref 1 (°C)	0.34T ext. ref 2 (°C)	39.08length (m)	temperature (°C)	Stokes	anti-Stokes-747.200	-135.068	0.082	0.010
-746.185	22.934	-0.120	0.101
-745.171	-159.777	-0.182	-0.010
-744.156	-129.120	-0.178	0.025
-743.142	48.028	-0.117	0.112
-742.127	-2.112	0.267	0.192
-741.112	66.816	0.136	0.141
-740.098	521.413	0.100	0.240
-739.083	-100.646	-0.195	0.049
-738.069	800.000	0.113	0.320
-737.054	-126.838	-0.123	0.018
-736.039	660.991	0.041	-0.109
-735.025	-76.313	0.213	0.077
-734.010	767.967	0.102	-0.283
-732.996	79.688	-0.174	-0.191
-731.981	-91.561	0.126	0.037
-730.966	-116.710	-0.268	0.050
-729.952	-200.000	0.030	-0.155
-728.937	-123.522	0.214	-0.035
-727.923	-43.646	0.272	-0.140
-726.908	168.153	0.082	0.119
-725.894	-61.160	-0.181	-0.078
-724.879	800.000	-0.090	0.324
-723.864	-12.627	-0.228	0.152
-722.850	-67.918	-0.256	-0.102
-721.835	224.076	-0.149	-0.246
-720.821	239.182	-0.222	0.378
-719.806	-200.000	0.016	-0.123
-718.791	260.197	0.024	-0.042
-717.777	64.743	0.061	0.063
-716.762	-17.948	0.245	-0.157
-715.748	-51.828	-0.104	-0.049
-714.733	214.012	0.286	-0.463
-713.718	192.253	0.069	-0.106
-712.704	-32.377	-0.312	0.178
-711.689	-78.583	-0.332	-0.116
-710.675	-2.623	-0.131	-0.094
-709.660	-200.000	0.003	-0.204
-708.645	-56.229	-0.441	-0.201
-707.631	15.884	0.147	-0.118
-706.616	-9.443	-0.191	0.130
-705.602	99.416	-0.167	-0.197
-704.587	150.523	-0.082	0.114
-703.572	117.415	-0.080	-0.101
-702.558	-200.000	-0.024	0.262
-701.543	-140.293	0.033	-0.003
-700.529	800.000	0.058	0.253
-699.514	-96.116	0.177	-0.048
-698.499	738.041	-0.037	-0.101
-697.485	13.144	-0.196	0.155
-696.470	4.134	-0.432	-0.322
-695.456	282.898	-0.102	0.187
-694.441	506.957	-0.029	-0.069
-693.426	-139.857	0.106	-0.011
-692.412	342.443	0.038	0.076
-691.397	327.455	0.129	0.252
-690.383	-151.874	-0.205	-0.015
-689.368	-15.388	-0.190	0.124
-688.354	800.000	0.082	0.256
-687.339	800.000	-0.081	0.314
-686.324	-25.387	0.080	-0.048
-685.310	-200.000	0.016	0.199
-684.295	150.762	0.058	0.080
-683.281	-53.361	0.138	-0.065
-682.266	64.810	-0.192	-0.198
-681.251	246.794	-0.058	0.099
-680.237	11.361	-0.087	0.068
-679.222	-136.829	-0.205	0.024
-678.208	-200.000	0.052	0.299
-677.193	-53.738	-0.146	0.068
-676.178	-4.456	-0.179	-0.126
-675.164	233.215	-0.147	-0.247
-674.149	-142.437	0.405	-0.041
-673.135	-32.515	-0.403	-0.229
-672.120	425.565	0.042	-0.092
-671.105	110.929	0.085	-0.104
-670.091	780.251	-0.085	-0.238
-669.076	800.000	-0.141	-0.410
-668.062	130.709	-0.097	-0.127
-667.047	-200.000	0.019	-0.095
-666.032	126.050	0.062	0.080
-665.018	-150.998	-0.203	0.016
-664.003	155.223	-0.097	0.136
-662.989	-200.000	0.010	-0.466
-661.974	-200.000	-0.032	-0.281
-660.959	800.000	-0.035	0.102
-659.945	294.844	0.044	0.083
-658.930	11.540	-0.168	-0.131
-657.916	393.615	-0.121	-0.257
-656.901	-13.618	-0.074	-0.049
-655.886	800.000	0.161	-0.475
-654.872	-200.000	-0.017	-0.184
-653.857	258.901	-0.067	0.118
-652.843	110.353	-0.117	0.143
-651.828	159.128	-0.125	0.177
-650.814	-31.034	-0.033	0.019
-649.799	664.049	0.064	0.169
-648.784	532.245	-0.135	0.325
-647.770	-200.000	-0.024	-0.135
-646.755	-87.485	-0.129	0.040
-645.741	532.597	0.036	0.088
-644.726	-93.813	-0.093	-0.026
-643.711	-72.169	-0.209	-0.079
-642.697	26.275	-0.177	-0.150
-641.682	800.000	-0.099	0.349
-640.668	-0.859	0.103	0.074
-639.653	-151.729	-0.348	0.026
-638.638	-53.807	0.127	-0.059
-637.624	-0.864	-0.301	0.217
-636.609	79.132	-0.152	-0.166
-635.595	49.193	-0.166	0.159
-634.580	40.313	0.158	-0.145
-633.565	-200.000	-0.068	0.395
-632.551	-200.000	0.024	-0.186
-631.536	108.761	0.070	-0.085
-630.522	-200.000	-0.030	-0.145
-629.507	57.449	0.146	0.145
-628.492	-69.642	-0.222	-0.086
-627.478	800.000	0.005	0.017
-626.463	-200.000	0.013	-0.404
-625.449	-97.459	0.223	-0.059
-624.434	491.504	0.175	0.407
-623.419	-14.214	-0.099	-0.065
-622.405	2.836	0.176	-0.130
-621.390	310.711	-0.173	-0.330
-620.376	60.172	-0.122	-0.122
-619.361	-86.836	-0.252	0.078
-618.346	-134.107	-0.190	-0.024
-617.332	-200.000	-0.000	-0.120
-616.317	-5.192	-0.077	0.054
-615.303	36.254	0.141	-0.126
-614.288	393.773	-0.059	-0.124
-613.273	9.516	0.089	-0.068
-612.259	10.092	0.188	0.145
-611.244	-86.313	0.131	0.041
-610.230	30.289	-0.131	0.114
-609.215	-106.377	0.177	-0.040
-608.201	-49.538	-0.193	-0.093
-607.186	45.618	-0.060	-0.057
-606.171	-63.090	-0.012	-0.005
-605.157	73.207	-0.122	-0.130
-604.142	291.347	-0.029	0.054
-603.128	-21.137	-0.046	-0.029
-602.113	658.266	-0.124	-0.325
-601.098	-55.018	-0.233	-0.107
-600.084	-200.000	-0.017	-0.228
-599.069	43.675	0.146	0.136
-598.055	100.017	0.096	0.113
-597.040	227.395	-0.268	0.443
-596.025	-184.539	-0.041	-0.001
-595.011	-17.438	0.223	-0.143
-593.996	52.867	0.216	0.210
-592.982	-47.465	0.076	-0.037
-591.967	124.116	-0.097	0.124
-590.952	-22.107	-0.369	0.228
-589.938	201.601	-0.059	0.093
-588.923	-200.000	-0.068	0.525
-587.909	52.617	0.103	0.100
-586.894	37.323	0.129	-0.116
-585.879	331.134	-0.106	-0.207
-584.865	-26.354	0.143	0.085
-583.850	800.000	0.049	0.161
-582.836	-167.979	-0.131	-0.005
-581.821	-104.585	0.206	0.048
-580.806	-200.000	-0.009	0.043
-579.792	800.000	0.044	-0.168
-578.777	215.022	-0.117	-0.188
-577.763	-35.276	0.166	-0.092
-576.748	-51.210	0.129	-0.061
-575.733	-116.500	0.231	-0.043
-574.719	0.403	-0.264	-0.191
-573.704	-64.465	-0.355	-0.146
-572.690	-16.151	0.173	-0.112
-571.675	-47.257	-0.207	0.103
-570.661	800.000	0.112	0.454
-569.646	-43.374	-0.140	0.072
-568.631	108.558	-0.040	-0.048
-567.617	800.000	0.053	0.233
-566.602	2.007	0.074	0.054
-565.588	-200.000	0.025	0.458
-564.573	-200.000	-0.011	0.224
-563.558	800.000	-0.033	-0.104
-562.544	-157.284	-0.222	-0.014
-561.529	-0.943	-0.180	-0.129
-560.515	291.007	0.056	-0.104
-559.500	800.000	-0.017	0.055
-558.485	-84.244	0.453	0.146
-557.471	-10.403	-0.101	-0.068
-556.456	800.000	0.046	-0.156
-555.442	-35.133	-0.195	-0.108
-554.427	-200.000	0.255	0.001
-553.412	465.500	-0.045	0.102
-552.398	278.126	0.196	-0.355
-551.383	-55.071	0.182	0.083
-550.369	-64.900	-0.214	-0.088
-549.354	11.616	0.069	-0.054
-548.339	-14.459	0.092	0.060
-547.325	-170.458	-0.198	0.007
-546.310	-74.548	0.114	-0.042
-545.296	-159.921	0.196	0.011
-544.281	565.564	0.088	0.216
-543.266	350.597	0.068	0.137
-542.252	311.673	0.180	0.343
-541.237	-15.762	-0.109	-0.070
-540.223	-200.000	-0.023	0.120
-539.208	-163.292	-0.194	0.009
-538.193	-59.958	0.220	0.096
-537.179	-91.605	0.037	0.011
-536.164	-29.664	0.270	-0.156
-535.150	-58.515	-0.334	-0.147
-534.135	-147.218	0.127	0.011
-533.121	-40.096	-0.185	0.098
-532.106	-96.424	-0.242	0.065
-531.091	-10.009	-0.200	0.135
-530.077	-11.241	-0.127	-0.085
-529.062	-77.297	-0.447	-0.158
-528.048	800.000	-0.058	0.247
-527.033	65.092	-0.182	-0.186
-526.018	171.471	0.102	0.148
-525.004	89.084	0.155	-0.175
-523.989	534.369	0.066	0.157
-522.975	-200.000	0.001	-0.437
-521.960	800.000	0.042	-0.136
-520.945	38.952	-0.127	0.115
-519.931	800.000	-0.025	-0.090
-518.916	-118.599	0.477	-0.085
-517.902	-3.012	0.187	-0.132
-516.887	-200.000	0.018	0.127
-515.872	-113.909	-0.226	-0.044
-514.858	92.301	0.015	0.018
-513.843	595.584	0.029	0.073
-512.829	282.316	-0.066	0.120
-511.814	800.000	-0.034	0.136
-510.799	58.321	0.172	0.171
-509.785	800.000	-0.051	-0.194
-508.770	206.251	-0.172	0.271
-507.756	-200.000	-0.025	-0.256
-506.741	152.804	-0.093	0.129
-505.726	-53.907	0.059	0.027
-504.712	-141.121	-0.214	0.022
-503.697	96.043	-0.276	-0.319
-502.683	-200.000	-0.008	0.248
-501.668	-111.960	-0.030	0.006
-500.653	-101.767	0.323	-0.079
-499.639	320.220	-0.115	-0.221
-498.624	-149.889	0.177	-0.014
-497.610	-165.758	0.359	0.016
-496.595	-58.728	-0.241	0.106
-495.581	-106.191	0.106	-0.024
-494.566	350.096	0.021	-0.042
-493.551	190.413	-0.125	-0.190
-492.537	85.162	0.131	-0.145
-491.522	79.524	0.182	0.198
-490.508	82.299	0.135	-0.149
-489.493	25.522	-0.039	-0.033
-488.478	41.436	-0.230	-0.210
-487.464	83.315	0.173	-0.191
-486.449	-124.106	0.131	-0.021
-485.435	334.825	-0.097	-0.190
-484.420	289.696	0.211	-0.387
-483.405	-114.882	0.309	0.060
-482.391	800.000	-0.076	-0.237
-481.376	-173.676	-0.231	-0.007
-480.362	-200.000	-0.029	0.335
-479.347	23.966	0.214	0.179
-478.332	232.667	0.051	0.085
-477.318	-200.000	-0.020	0.130
-476.303	-165.082	-0.355	-0.016
-475.289	-13.609	0.184	0.121
-474.274	-149.961	0.138	-0.011
-473.259	-74.292	-0.333	-0.122
-472.245	-95.687	-0.080	0.022
-471.230	-123.832	0.398	-0.064
-470.216	800.000	0.087	-0.308
-469.201	-200.000	-0.020	0.180
-468.186	-200.000	0.078	0.351
-467.172	-50.797	-0.409	0.195
-466.157	-88.755	0.170	-0.051
-465.143	-9.314	0.285	0.193
-464.128	643.523	0.041	0.107
-463.113	-34.301	-0.226	0.125
-462.099	-200.000	-0.029	0.413
-461.084	-42.166	-0.177	0.091
-460.070	539.051	-0.152	0.366
-459.055	3.485	-0.177	-0.130
-458.040	7.313	0.196	-0.148
-457.026	511.710	0.083	-0.194
-456.011	230.801	-0.075	0.125
-454.997	-85.348	-0.178	0.056
-453.982	-127.557	0.415	-0.061
-452.968	800.000	-0.052	-0.214
-451.953	51.680	-0.085	0.081
-450.938	-136.247	0.233	0.028
-449.924	280.188	-0.134	0.242
-448.909	37.498	-0.097	0.087
-447.895	-81.901	-0.128	-0.042
-446.880	150.238	-0.311	-0.427
-445.865	192.843	0.057	0.087
-444.851	125.595	0.108	0.138
-443.836	-115.363	-0.040	-0.008
-442.822	-128.383	-0.340	-0.049
-441.807	-17.086	-0.077	-0.049
-440.792	-5.916	0.072	-0.050
-439.778	207.539	-0.056	-0.088
-438.763	-60.871	-0.139	0.060
-437.749	-200.000	-0.020	0.123
-436.734	90.010	-0.159	-0.179
-435.719	466.906	-0.047	-0.106
-434.705	-139.417	0.174	-0.019
-433.690	-108.140	-0.163	-0.036
-432.676	-200.000	0.001	-0.135
-431.661	32.864	0.076	0.066
-430.646	238.673	-0.036	-0.060
-429.632	84.879	-0.100	-0.111
-428.617	-77.137	-0.152	0.054
-427.603	800.000	-0.029	-0.121
-426.588	-94.034	-0.092	0.025
-425.573	10.366	0.114	-0.088
-424.559	800.000	-0.063	-0.212
-423.544	76.665	0.068	0.073
-422.530	601.230	-0.039	-0.098
-421.515	260.633	0.032	0.056
-420.500	30.039	0.041	-0.035
-419.486	-103.156	0.106	0.025
-418.471	77.322	0.106	-0.114
-417.457	35.708	0.124	0.110
-416.442	332.801	0.170	0.332
-415.428	116.247	-0.183	0.226
-414.413	50.913	0.132	0.126
-413.398	379.676	0.175	0.363
-412.384	-103.721	0.203	0.048
-411.369	12.055	-0.272	0.212
-410.355	-127.372	-0.231	-0.034
-409.340	800.000	0.062	0.215
-408.325	48.132	-0.245	0.232
-407.311	-159.753	-0.182	0.010
-406.296	-200.000	-0.008	-0.056
-405.282	-54.025	-0.292	-0.134
-404.267	-200.000	-0.051	0.236
-403.252	274.359	0.128	-0.228
-402.238	786.696	-0.111	-0.307
-401.223	-129.586	0.173	-0.024
-400.209	130.509	-0.249	-0.322
-399.194	361.485	-0.097	-0.196
-398.179	61.732	0.082	0.083
-397.165	-162.043	0.191	-0.010
-396.150	32.893	0.084	0.073
-395.136	-79.043	-0.519	0.178
-394.121	-52.269	0.130	-0.061
-393.106	-1.851	-0.110	0.078
-392.092	-146.573	0.101	0.009
-391.077	116.980	0.083	-0.103
-390.063	-74.681	0.174	0.063
-389.048	-162.969	-0.286	-0.014
-388.033	-182.794	0.251	0.005
-387.019	-200.000	-0.042	-0.226
-386.004	-171.662	-0.072	-0.002
-384.990	-96.230	0.154	-0.041
-383.975	39.450	0.134	0.121
-382.960	338.313	0.079	0.155
-381.946	-109.531	-0.350	-0.075
-380.931	-20.219	-0.174	-0.108
-379.917	52.941	-0.073	-0.071
-378.902	-95.676	0.350	0.094
-377.888	800.000	-0.045	-0.129
-376.873	-134.187	-0.196	-0.024
-375.858	39.389	0.072	0.065
-374.844	-24.062	0.296	-0.178
-373.829	800.000	0.041	-0.149
-372.815	-26.851	0.227	-0.134
-371.800	781.225	-0.033	-0.090
-370.785	20.044	-0.158	0.129
-369.771	69.214	-0.264	0.274
-368.756	56.546	-0.173	0.169
-367.742	300.747	0.126	0.234
-366.727	92.477	-0.239	-0.272
-365.712	315.153	0.132	-0.250
-364.698	213.711	0.091	-0.146
-363.683	-77.171	-0.164	0.058
-362.669	28.686	-0.107	-0.091
-361.654	-86.476	-0.140	-0.043
-360.639	35.413	-0.443	0.392
-359.625	340.568	0.136	0.268
-358.610	-200.000	0.007	0.062
-357.596	126.808	-0.106	-0.136
-356.581	3.396	0.175	-0.128
-355.566	45.982	0.304	-0.283
-354.552	102.272	0.202	-0.237
-353.537	-96.275	0.115	-0.031
-352.523	423.347	0.111	-0.240
-351.508	-130.234	-0.189	0.026
-350.493	800.000	0.067	0.243
-349.479	296.957	-0.184	0.340
-348.464	79.112	0.129	0.140
-347.450	680.833	0.114	-0.299
-346.435	38.796	0.168	-0.151
-345.420	323.746	-0.095	-0.182
-344.406	415.806	-0.090	-0.193
-343.391	-200.000	0.005	-0.295
-342.377	800.000	-0.028	0.118
-341.362	76.884	-0.074	-0.079
-340.348	-84.124	0.118	-0.038
-339.333	-32.594	0.138	-0.078
-338.318	800.000	-0.066	-0.274
-337.304	-200.000	-0.061	-0.502
-336.289	60.809	0.096	0.095
-335.275	-200.000	-0.026	0.542
-334.260	-173.541	-0.174	-0.005
-333.245	-121.199	0.202	0.034
-332.231	-200.000	0.015	-0.074
-331.216	235.827	0.069	-0.115
-330.202	-200.000	-0.027	0.133
-329.187	-101.346	-0.237	-0.058
-328.172	-200.000	0.047	-0.248
-327.158	-46.587	0.475	-0.234
-326.143	-161.183	0.445	0.023
-325.129	-200.000	0.007	0.354
-324.114	753.341	0.052	0.142
-323.099	270.679	-0.153	-0.271
-322.085	-18.636	0.176	0.110
-321.070	-166.201	-0.093	0.004
-320.056	-84.592	0.192	-0.061
-319.041	-25.261	0.185	0.110
-318.026	-113.440	-0.221	0.043
-317.012	104.904	0.094	0.112
-315.997	-94.063	0.318	-0.088
-314.983	800.000	-0.027	0.110
-313.968	66.877	0.289	-0.296
-312.953	139.094	0.087	0.115
-311.939	-38.857	0.137	-0.073
-310.924	800.000	-0.039	-0.111
-309.910	13.031	0.158	0.123
-308.895	108.840	-0.221	0.266
-307.880	-200.000	0.030	0.172
-306.866	41.108	0.170	-0.154
-305.851	-33.656	-0.433	-0.240
-304.837	155.949	-0.170	-0.235
-303.822	43.903	-0.159	-0.146
-302.807	-87.068	0.072	0.022
-301.793	-200.000	0.008	0.114
-300.778	130.770	0.181	-0.233
-299.764	56.334	-0.272	-0.266
-298.749	-200.000	0.002	0.124
-297.735	283.947	0.054	-0.097
-296.720	-100.848	-0.113	0.028
-295.705	-13.912	-0.132	0.086
-294.691	-43.228	-0.193	-0.098
-293.676	519.659	0.093	-0.219
-292.662	-61.676	0.184	-0.077
-291.647	-163.989	0.217	0.010
-290.632	14.163	-0.131	-0.102
-289.618	-200.000	-0.066	-0.353
-288.603	800.000	0.088	-0.294
-287.589	40.216	0.066	-0.060
-286.574	-75.649	0.125	-0.044
-285.559	-158.196	-0.261	-0.015
-284.545	120.757	0.108	-0.135
-283.530	13.569	0.164	-0.128
-282.516	-200.000	-0.034	0.155
-281.501	166.080	-0.242	-0.344
-280.486	345.412	-0.111	-0.220
-279.472	244.364	0.076	0.128
-278.457	521.518	-0.090	-0.211
-277.443	-200.000	0.036	0.333
-276.428	-116.340	-0.219	0.041
-275.413	69.194	0.067	0.069
-274.399	-200.000	-0.046	0.209
-273.384	-35.140	0.401	0.219
-272.370	528.448	-0.032	0.076
-271.355	-163.866	-0.115	-0.005
-270.340	-102.145	0.128	0.031
-269.326	14.215	-0.096	0.075
-268.311	-172.231	0.125	-0.004
-267.297	-200.000	0.060	0.339
-266.282	-200.000	-0.019	0.285
-265.267	-15.468	-0.238	-0.152
-264.253	208.897	0.056	0.088
-263.238	-81.152	-0.156	0.052
-262.224	-75.251	0.010	0.004
-261.209	160.156	0.082	0.114
-260.195	40.413	0.163	0.148
-259.180	-162.362	0.067	0.003
-258.165	600.371	-0.027	0.066
-257.151	-200.000	0.025	0.170
-256.136	-200.000	-0.055	0.294
-255.122	800.000	-0.073	-0.203
-254.107	-34.044	0.182	-0.100
-253.092	-200.000	-0.025	0.180
-252.078	493.830	0.102	-0.235
-251.063	62.247	-0.147	0.147
-250.049	-200.000	-0.045	-0.201
-249.034	-106.826	0.114	-0.025
-248.019	-200.000	-0.072	0.366
-247.005	-200.000	-0.014	0.071
-245.990	-6.502	0.138	-0.094
-244.976	357.017	-0.031	-0.061
-243.961	64.103	0.174	0.175
-242.946	-138.026	-0.165	-0.018
-241.932	91.558	-0.095	0.107
-240.917	-200.000	-0.013	0.097
-239.903	32.784	0.075	-0.065
-238.888	-41.712	0.062	-0.032
-237.873	-78.298	0.274	0.094
-236.859	-189.162	0.119	-0.001
-235.844	-165.908	0.392	0.017
-234.830	-134.515	-0.419	-0.051
-233.815	-112.908	0.207	0.041
-232.800	122.274	-0.170	-0.213
-231.786	-177.407	0.368	-0.009
-230.771	84.648	0.080	0.088
-229.757	-200.000	-0.014	0.277
-228.742	800.000	-0.065	-0.245
-227.727	-6.986	-0.085	-0.058
-226.713	-62.528	-0.052	0.022
-225.698	-200.000	0.025	-0.202
-224.684	237.972	0.114	0.190
-223.669	33.088	-0.136	-0.118
-222.655	-99.796	0.225	0.056
-221.640	-147.562	-0.302	0.025
-220.625	-200.000	0.012	-0.184
-219.611	74.433	-0.315	0.332
-218.596	-135.917	0.091	-0.011
-217.582	800.000	0.052	-0.148
-216.567	-200.000	0.027	-0.121
-215.552	72.112	-0.277	0.288
-214.538	-71.720	-0.065	0.024
-213.523	-148.094	0.094	0.008
-212.509	30.396	0.067	-0.057
-211.494	-48.845	-0.251	-0.120
-210.479	-50.110	0.242	0.115
-209.465	-99.416	-0.203	0.051
-208.450	16.556	-0.136	0.107
-207.436	25.005	0.194	-0.162
-206.421	-200.000	0.001	0.048
-205.406	-157.745	0.151	0.009
-204.392	-73.857	0.157	0.057
-203.377	-127.810	0.316	0.046
-202.363	-126.917	0.379	0.056
-201.348	-102.068	-0.089	-0.022
-200.333	72.201	-0.164	0.171
-199.319	353.140	0.040	0.079
-198.304	-200.000	0.083	0.383
-197.290	-46.439	-0.125	-0.062
-196.275	153.984	-0.117	-0.161
-195.260	-150.954	0.093	-0.007
-194.246	-75.626	-0.012	-0.004
-193.231	-100.879	-0.255	-0.063
-192.217	308.377	-0.108	-0.202
-191.202	22.102	0.175	0.143
-190.187	-200.000	-0.033	-0.189
-189.173	323.092	-0.224	0.428
-188.158	-200.000	0.039	-0.222
-187.144	196.097	-0.118	0.179
-186.129	150.173	0.197	0.268
-185.114	-119.036	-0.417	0.073
-184.100	800.000	0.017	-0.070
-183.085	-28.329	0.082	0.047
-182.071	-65.347	0.324	-0.130
-181.056	-83.694	0.106	0.034
-180.042	-4.797	-0.220	-0.152
-179.027	-200.000	0.026	-0.261
-178.012	-120.686	0.237	0.040
-176.998	43.049	-0.066	0.060
-175.983	-200.000	0.050	-0.380
-174.969	800.000	0.075	-0.269
-173.954	270.631	-0.114	0.201
-172.939	117.314	0.015	0.018
-171.925	-74.970	0.160	-0.057
-170.910	291.354	-0.199	-0.361
-169.896	216.167	0.134	0.213
-168.881	446.881	-0.069	0.151
-167.866	-144.346	0.625	0.058
-166.852	-48.037	-0.223	0.108
-165.837	-71.917	0.385	-0.143
-164.823	-200.000	-0.002	-0.104
-163.808	800.000	-0.085	0.261
-162.793	251.127	-0.230	-0.392
-161.779	-200.000	0.014	0.153
-160.764	-134.334	0.419	0.051
-159.750	-200.000	-0.031	0.206
-158.735	41.081	0.097	0.087
-157.720	800.000	-0.101	0.282
-156.706	-82.177	0.438	-0.143
-155.691	-200.000	0.009	0.066
-154.677	-89.494	-0.090	0.026
-153.662	-200.000	0.048	-0.273
-152.647	241.297	-0.040	-0.066
-151.633	800.000	-0.046	0.128
-150.618	-90.278	0.179	-0.052
-149.604	102.101	0.124	-0.145
-148.589	-200.000	0.001	0.472
-147.574	584.480	0.035	-0.085
-146.560	121.028	0.203	-0.252
-145.545	12.528	0.117	-0.090
-144.531	330.494	0.077	-0.147
-143.516	769.868	0.089	-0.243
-142.502	-200.000	-0.027	0.133
-141.487	800.000	0.079	0.326
-140.472	-22.542	-0.055	0.033
-139.458	147.864	0.032	0.043
-138.443	342.751	-0.037	-0.073
-137.429	-200.000	-0.027	0.124
-136.414	7.509	-0.315	0.235
-135.399	-200.000	-0.056	-0.000
-134.385	-200.000	0.004	0.228
-133.370	-95.514	-0.475	0.127
-132.356	328.843	-0.072	-0.138
-131.341	228.007	0.201	0.327
-130.326	497.663	0.128	0.295
-129.312	-200.000	0.029	-0.242
-128.297	544.221	0.035	-0.083
-127.283	-61.458	-0.145	-0.061
-126.268	-83.312	-0.154	0.049
-125.253	-128.899	0.136	-0.019
-124.239	218.963	-0.165	-0.263
-123.224	453.537	0.096	0.213
-122.210	-20.137	0.163	0.101
-121.195	800.000	0.101	0.296
