DTS Sentinel unit serial number:	SN413079Multiplexer serial number:	ORYXHardware model number:	OX4-SRSoftware version number:	ORYX F/W v4.00 Oryx Data Collector v3.7.2.0data status	okinstallation	princeton_trtdifferential loss correction	single-endedforward channel	channel 3reverse channel	N/Adate	2019/09/11time	12:34:11forward acquisition time	60.00reverse acquisition time	0.00gamma	496.2192k internal	0.2294k external	0.2294temperature offset calibration	0.9936default loss term (dB/km)	0.3790temperature slope calibration	1.0000multiplexer offset coefficient	1.0000multiplexer slope coefficient	1.0000fibre end	0.00T internal ref (°C)	40.62T ext. ref 1 (°C)	0.21T ext. ref 2 (°C)	37.83length (m)	temperature (°C)	Stokes	anti-Stokes-747.200	-200.000	-0.048	-0.371
-746.185	-200.000	0.038	0.396
-745.171	372.390	-0.058	-0.120
-744.156	193.515	0.082	0.126
-743.142	-64.264	-0.134	-0.056
-742.127	-35.208	0.388	0.216
-741.112	48.072	0.239	-0.228
-740.098	606.038	0.071	0.181
-739.083	55.344	-0.117	0.116
-738.069	800.000	0.041	0.169
-737.054	-200.000	-0.043	-0.204
-736.039	156.395	-0.080	-0.113
-735.025	-153.204	0.164	-0.012
-734.010	-200.000	0.022	0.353
-732.996	-200.000	0.051	-0.315
-731.981	-24.705	0.013	0.008
-730.966	-200.000	0.013	0.130
-729.952	679.506	-0.070	-0.186
-728.937	-104.063	-0.239	-0.057
-727.923	-43.254	-0.217	-0.112
-726.908	670.749	0.044	-0.117
-725.894	146.005	-0.175	0.240
-724.879	-200.000	-0.008	0.324
-723.864	17.401	-0.192	-0.156
-722.850	-200.000	-0.042	0.330
-721.835	-177.067	-0.344	0.009
-720.821	422.191	-0.033	0.073
-719.806	-137.413	0.051	0.006
-718.791	93.072	-0.025	-0.029
-717.777	-200.000	-0.019	-0.161
-716.762	697.549	-0.023	-0.062
-715.748	100.787	-0.149	0.177
-714.733	800.000	-0.090	0.334
-713.718	-54.332	-0.103	0.048
-712.704	38.858	-0.065	0.060
-711.689	-200.000	0.076	0.387
-710.675	266.408	0.056	-0.100
-709.660	-62.178	0.267	0.114
-708.645	-154.138	0.200	-0.014
-707.631	130.460	-0.042	0.055
-706.616	42.745	-0.130	-0.121
-705.602	-200.000	0.024	-0.445
-704.587	190.048	-0.113	-0.173
-703.572	1.011	0.166	0.121
-702.558	-200.000	0.011	-0.225
-701.543	284.825	-0.248	-0.456
-700.529	238.962	0.170	-0.288
-699.514	-0.472	-0.164	0.119
-698.499	72.631	-0.116	-0.123
-697.485	0.738	-0.051	-0.037
-696.470	407.411	0.055	-0.119
-695.456	-85.643	-0.030	-0.009
-694.441	54.320	-0.159	-0.156
-693.426	21.508	-0.170	-0.142
-692.412	-54.233	0.101	-0.047
-691.397	800.000	-0.102	0.355
-690.383	800.000	-0.027	-0.109
-689.368	155.268	0.230	0.324
-688.354	310.101	0.172	-0.328
-687.339	-197.575	0.151	0.001
-686.324	21.615	-0.188	-0.156
-685.310	800.000	-0.026	-0.086
-684.295	800.000	-0.039	0.146
-683.281	649.653	-0.068	-0.177
-682.266	-109.425	-0.147	-0.032
-681.251	-200.000	-0.012	-0.184
-680.237	194.556	-0.141	-0.218
-679.222	800.000	-0.079	0.267
-678.208	-13.580	0.619	0.409
-677.193	-151.240	-0.267	0.020
-676.178	-172.510	-0.230	-0.007
-675.164	90.103	0.243	0.277
-674.149	-54.245	-0.077	-0.036
-673.135	800.000	-0.061	0.202
-672.120	5.502	0.137	-0.103
-671.105	464.994	0.046	-0.104
-670.091	-200.000	0.178	0.001
-669.076	17.175	0.260	-0.210
-668.062	-200.000	-0.008	-0.059
-667.047	-159.472	-0.254	0.014
-666.032	-200.000	-0.028	0.150
-665.018	-200.000	0.015	0.173
-664.003	319.822	-0.086	-0.166
-662.989	-100.898	-0.129	0.032
-661.974	-200.000	0.083	0.425
-660.959	800.000	-0.043	-0.123
-659.945	466.046	0.022	-0.050
-658.930	-81.807	-0.396	-0.132
-657.916	-96.546	0.084	0.023
-656.901	800.000	0.071	-0.286
-655.886	-144.724	-0.133	-0.012
-654.872	-109.006	-0.219	0.048
-653.857	93.646	0.147	0.170
-652.843	-200.000	0.022	-0.222
-651.828	-60.980	-0.291	0.125
-650.814	-109.425	-0.056	-0.012
-649.799	-122.602	-0.300	0.050
-648.784	-200.000	0.012	0.117
-647.770	-200.000	-0.036	0.207
-646.755	183.354	-0.173	0.261
-645.741	800.000	-0.060	-0.188
-644.726	453.849	0.080	-0.181
-643.711	800.000	-0.098	-0.308
-642.697	-104.491	-0.136	-0.032
-641.682	65.824	-0.180	0.186
-640.668	-11.436	0.039	-0.026
-639.653	636.912	-0.095	0.246
-638.638	-35.588	-0.158	0.087
-637.624	425.305	-0.055	0.120
-636.609	-200.000	-0.005	-0.292
-635.595	-91.651	0.144	-0.042
-634.580	132.742	-0.130	-0.171
-633.565	1.881	-0.335	-0.246
-632.551	63.003	0.150	0.153
-631.536	273.177	0.134	-0.241
-630.522	505.722	0.075	0.177
-629.507	92.908	-0.225	0.259
-628.492	82.716	-0.153	0.170
-627.478	-3.483	-0.208	-0.147
-626.463	295.200	-0.223	0.416
-625.449	29.099	-0.219	0.189
-624.434	40.205	0.307	-0.282
-623.419	-200.000	-0.001	0.451
-622.405	-133.417	0.247	0.032
-621.390	-102.035	0.483	-0.118
-620.376	-141.914	0.084	-0.009
-619.361	-200.000	-0.002	-0.155
-618.346	42.994	-0.200	-0.186
-617.332	-137.427	-0.224	-0.026
-616.317	100.798	0.260	-0.308
-615.303	83.487	-0.097	0.108
-614.288	217.598	-0.098	0.160
-613.273	-16.161	0.276	0.178
-612.259	155.061	-0.086	0.121
-611.244	102.608	-0.069	-0.082
-610.230	262.123	0.101	-0.178
-609.215	-124.440	0.168	0.027
-608.201	-6.384	-0.280	0.194
-607.186	-100.916	0.196	0.049
-606.171	800.000	0.085	-0.264
-605.157	-200.000	-0.006	-0.219
-604.142	-200.000	-0.081	-0.362
-603.128	-99.044	-0.238	-0.061
-602.113	-44.317	0.163	0.083
-601.098	86.473	-0.073	0.082
-600.084	800.000	0.051	-0.172
-599.069	86.402	0.216	0.242
-598.055	-161.973	-0.178	-0.009
-597.040	153.632	0.162	-0.225
-596.025	147.792	0.242	0.331
-595.011	-115.798	0.135	0.026
-593.996	800.000	0.032	-0.121
-592.982	-200.000	0.021	-0.107
-591.967	-32.466	0.204	-0.116
-590.952	263.144	0.117	-0.206
-589.938	-147.376	-0.049	0.004
-588.923	-117.940	0.178	-0.032
-587.909	-150.189	-0.174	0.014
-586.894	176.742	-0.239	-0.354
-585.879	-94.689	0.218	0.060
-584.865	-200.000	-0.021	0.157
-583.850	-8.861	0.050	-0.034
-582.836	50.118	-0.123	0.118
-581.821	-65.201	0.083	0.034
-580.806	54.733	-0.315	0.309
-579.792	-200.000	0.060	-0.338
-578.777	35.305	-0.143	0.127
-577.763	480.533	-0.110	0.253
-576.748	54.840	0.238	0.233
-575.733	800.000	0.027	-0.088
-574.719	-200.000	-0.032	-0.291
-573.704	-200.000	-0.006	-0.324
-572.690	-39.888	-0.194	-0.103
-571.675	-145.230	0.023	0.002
-570.661	800.000	-0.009	0.029
-569.646	2.653	-0.033	-0.024
-568.631	530.462	-0.077	0.184
-567.617	-46.456	0.320	0.159
-566.602	143.941	0.091	-0.123
-565.588	58.667	-0.243	-0.242
-564.573	-34.153	-0.444	0.248
-563.558	-200.000	0.041	-0.474
-562.544	-96.146	-0.059	0.016
-561.529	-200.000	0.038	0.327
-560.515	-200.000	0.001	-0.384
-559.500	-200.000	-0.005	-0.309
-558.485	-147.282	0.110	-0.010
-557.471	124.523	0.105	0.135
-556.456	-36.426	0.170	-0.093
-555.442	21.244	0.180	-0.149
-554.427	81.256	0.188	-0.206
-553.412	-61.812	-0.103	0.044
-552.398	-200.000	-0.007	-0.163
-551.383	80.421	0.124	0.136
-550.369	800.000	-0.089	-0.338
-549.354	-117.460	-0.101	-0.018
-548.339	-144.012	0.126	-0.012
-547.325	-43.464	-0.273	-0.140
-546.310	122.324	0.080	-0.101
-545.296	-114.715	0.067	-0.013
-544.281	-52.921	-0.295	-0.138
-543.266	104.563	-0.173	-0.207
-542.252	48.823	0.185	-0.176
-541.237	800.000	-0.049	-0.205
-540.223	-137.730	0.078	-0.009
-539.208	-200.000	0.038	-0.215
-538.193	-200.000	-0.031	-0.255
-537.179	-117.218	0.274	-0.051
-536.164	-139.687	-0.137	0.015
-535.150	800.000	0.061	0.208
-534.135	-200.000	0.017	0.286
-533.121	800.000	-0.021	-0.079
-532.106	151.745	0.084	0.115
-531.091	6.609	-0.487	-0.367
-530.077	-200.000	-0.067	-0.362
-529.062	-94.889	-0.189	0.052
-528.048	-200.000	0.029	0.185
-527.033	71.526	0.134	-0.141
-526.018	227.234	0.177	-0.291
-525.004	-33.025	0.307	-0.173
-523.989	43.042	-0.120	0.111
-522.975	-194.913	0.239	-0.002
-521.960	696.938	0.056	-0.149
-520.945	-21.777	-0.397	-0.245
-519.931	-200.000	-0.046	0.250
-518.916	-14.971	-0.158	-0.103
-517.902	70.940	-0.129	-0.136
-516.887	-102.820	-0.059	0.014
-515.872	800.000	-0.068	-0.263
-514.858	66.267	-0.301	0.310
-513.843	364.651	-0.045	0.092
-512.829	-176.882	0.212	-0.005
-511.814	-96.541	0.365	0.098
-510.799	485.707	-0.152	0.352
-509.785	56.420	0.190	0.187
-508.770	731.355	0.098	-0.264
-507.756	244.040	-0.039	0.066
-506.741	586.678	-0.155	0.387
-505.726	-96.754	-0.180	0.048
-504.712	188.595	0.169	0.257
-503.697	-1.087	-0.310	0.222
-502.683	294.430	-0.091	-0.168
-501.668	-83.736	-0.250	0.081
-500.653	6.570	-0.069	-0.052
-499.639	-200.000	-0.032	-0.346
-498.624	-118.527	0.055	-0.010
-497.610	46.154	0.088	-0.083
-496.595	20.310	0.299	0.245
-495.581	-151.304	0.271	0.020
-494.566	437.045	-0.144	-0.318
-493.551	-36.037	-0.107	0.059
-492.537	0.719	-0.262	-0.190
-491.522	608.349	-0.085	-0.215
-490.508	46.851	0.271	0.255
-489.493	30.651	0.086	0.075
-488.478	-200.000	-0.013	0.082
-487.464	-75.466	0.265	0.096
-486.449	45.013	-0.177	0.165
-485.435	285.385	-0.143	-0.261
-484.420	-107.491	0.281	-0.062
-483.405	-200.000	0.000	-0.186
-482.391	-30.897	0.148	-0.085
-481.376	-140.532	-0.171	-0.018
-480.362	-5.685	-0.295	-0.204
-479.347	-92.513	-0.079	-0.022
-478.332	46.010	0.216	-0.203
-477.318	-200.000	0.068	-0.367
-476.303	-177.977	-0.151	-0.004
-475.289	556.688	-0.219	-0.535
-474.274	-76.344	-0.293	-0.104
-473.259	66.366	-0.093	-0.096
-472.245	-178.682	0.162	0.004
-471.230	34.530	0.203	0.179
-470.216	-200.000	-0.009	-0.165
-469.201	-200.000	0.037	-0.540
-468.186	339.840	-0.075	-0.148
-467.172	246.130	-0.073	0.125
-466.157	-20.787	0.220	-0.137
-465.143	288.144	-0.177	-0.325
-464.128	-81.994	0.104	-0.034
-463.113	800.000	-0.044	-0.124
-462.099	-200.000	-0.011	-0.288
-461.084	800.000	0.018	-0.056
-460.070	723.927	-0.050	0.134
-459.055	-113.923	0.191	-0.038
-458.040	49.165	-0.262	0.249
-457.026	164.914	-0.052	0.074
-456.011	-200.000	-0.007	0.355
-454.997	76.017	-0.278	-0.297
-453.982	-50.876	0.277	-0.132
-452.968	800.000	0.087	0.257
-451.953	-110.956	-0.111	-0.023
-450.938	39.980	0.080	-0.073
-449.924	-78.011	-0.227	-0.079
-448.909	-59.753	0.220	-0.095
-447.895	-120.569	0.380	0.065
-446.880	35.131	-0.253	0.224
-445.865	16.271	-0.199	-0.158
-444.851	-71.394	-0.199	0.075
-443.836	-7.758	0.051	-0.035
-442.822	-56.134	0.214	0.096
-441.807	-108.401	0.306	0.067
-440.792	-77.734	0.293	0.102
-439.778	-114.583	0.315	0.061
-438.763	47.685	0.229	0.216
-437.749	800.000	-0.061	-0.195
-436.734	-200.000	0.019	-0.203
-435.719	227.952	0.157	-0.257
-434.705	800.000	0.041	-0.131
-433.690	1.694	-0.192	0.139
-432.676	-64.095	0.542	-0.223
-431.661	-18.327	-0.106	0.067
-430.646	-200.000	0.053	0.506
-429.632	-173.419	0.386	0.012
-428.617	368.960	-0.086	-0.175
-427.603	128.521	-0.140	0.180
-426.588	4.144	0.328	0.243
-425.573	322.167	-0.112	0.215
-424.559	-94.736	0.167	0.046
-423.544	120.540	0.047	0.058
-422.530	-200.000	-0.036	0.194
-421.515	-59.236	-0.096	0.042
-420.500	-200.000	0.052	0.236
-419.486	-200.000	-0.022	-0.255
-418.471	5.842	0.198	0.148
-417.457	361.161	0.141	-0.286
-416.442	800.000	0.087	0.292
-415.428	-35.382	0.064	0.035
-414.413	73.790	0.293	-0.310
-413.398	-67.722	-0.173	0.068
-412.384	-16.533	-0.140	0.089
-411.369	471.064	-0.095	0.216
-410.355	-200.000	-0.024	0.109
-409.340	-105.244	0.199	0.046
-408.325	-200.000	0.075	0.398
-407.311	60.193	0.092	0.092
-406.296	-1.010	0.172	-0.123
-405.282	-200.000	0.002	0.017
-404.267	19.914	0.092	0.075
-403.252	-200.000	0.008	0.246
-402.238	-61.994	-0.218	-0.092
-401.223	250.040	-0.067	0.115
-400.209	70.401	0.293	0.306
-399.194	549.812	-0.132	0.319
-398.179	800.000	0.078	0.322
-397.165	-200.000	-0.010	0.047
-396.150	84.145	-0.095	0.105
-395.136	-49.386	0.252	-0.121
-394.121	-90.158	0.103	-0.030
-393.106	-78.581	-0.162	-0.056
-392.092	-89.409	-0.039	0.012
-391.077	91.282	-0.075	-0.085
-390.063	800.000	0.027	-0.097
-389.048	-8.685	-0.270	0.183
-388.033	50.907	-0.163	0.156
-387.019	-88.109	-0.267	0.081
-386.004	-200.000	0.042	0.213
-384.990	229.097	0.122	0.200
-383.975	25.019	0.185	-0.155
-382.960	-52.259	-0.242	-0.113
-381.946	-200.000	-0.015	0.117
-380.931	-119.648	-0.203	0.035
-379.917	-200.000	-0.077	0.366
-378.902	357.216	-0.117	-0.235
-377.888	-31.116	-0.062	0.035
-376.873	52.703	0.265	0.255
-375.858	573.704	-0.064	-0.157
-374.844	21.226	-0.129	0.105
-373.829	30.692	-0.253	0.218
-372.815	-200.000	-0.000	0.176
-371.800	-44.476	-0.203	-0.103
-370.785	-200.000	0.049	0.673
-369.771	800.000	0.061	0.228
-368.756	-57.350	-0.268	-0.119
-367.742	-162.580	0.317	-0.016
-366.727	18.792	0.111	-0.089
-365.712	-200.000	-0.017	0.165
-364.698	-109.254	-0.275	-0.059
-363.683	523.656	0.089	0.211
-362.669	-51.794	0.247	-0.116
-361.654	-41.884	-0.365	0.189
-360.639	-1.876	0.121	-0.086
-359.625	507.896	-0.036	-0.083
-358.610	94.725	0.155	-0.177
-357.596	-131.439	0.251	0.033
-356.581	-8.664	-0.255	0.173
-355.566	121.347	-0.076	0.095
-354.552	142.388	0.111	-0.148
-353.537	800.000	0.052	-0.170
-352.523	-200.000	0.092	0.435
-351.508	333.004	-0.108	0.210
-350.493	-85.320	0.265	-0.083
-349.479	181.230	-0.089	0.132
-348.464	-200.000	-0.108	0.554
-347.450	-200.000	0.017	-0.207
-346.435	800.000	0.053	0.209
-345.420	-200.000	-0.011	0.172
-344.406	-47.585	-0.036	-0.017
-343.391	-133.439	0.396	0.050
-342.377	-162.844	-0.183	0.009
-341.362	68.318	-0.037	-0.038
-340.348	-83.211	-0.120	-0.039
-339.333	-86.801	-0.245	-0.075
-338.318	800.000	-0.090	0.341
-337.304	144.150	0.025	0.034
-336.289	-12.512	0.140	0.092
-335.275	-51.263	-0.029	-0.014
-334.260	-200.000	-0.022	0.177
-333.245	238.094	0.234	-0.391
-332.231	-116.938	-0.388	-0.071
-331.216	121.256	0.059	0.074
-330.202	-200.000	-0.016	0.081
-329.187	-16.599	-0.210	-0.134
-328.172	7.297	0.171	0.128
-327.158	31.230	-0.122	-0.106
-326.143	26.294	0.200	0.168
-325.129	354.243	-0.139	0.278
-324.114	54.030	-0.036	-0.035
-323.099	-21.170	0.168	0.103
-322.085	-81.239	-0.056	0.018
-321.070	-200.000	0.000	0.028
-320.056	-98.160	0.248	-0.064
-319.041	-123.924	-0.376	-0.060
-318.026	-111.604	-0.087	0.018
-317.012	-2.621	0.151	0.107
-315.997	-90.203	-0.171	-0.050
-314.983	526.202	-0.157	-0.371
-313.968	216.227	-0.124	-0.198
-312.953	-200.000	-0.003	-0.188
-311.939	-200.000	0.005	-0.250
-310.924	190.079	-0.094	-0.142
-309.910	648.840	0.107	0.275
-308.895	78.249	0.066	-0.070
-307.880	-97.749	-0.141	-0.037
-306.866	-2.053	0.118	-0.083
-305.851	-20.710	-0.114	-0.070
-304.837	-122.031	0.248	-0.041
-303.822	258.562	-0.149	-0.258
-302.807	-154.350	-0.174	-0.012
-301.793	-200.000	0.027	0.177
-300.778	-59.580	0.107	0.046
-299.764	-93.529	0.484	-0.135
-298.749	184.776	0.055	0.083
-297.735	217.017	0.092	-0.146
-296.720	-150.407	0.434	0.034
-295.705	-200.000	-0.017	0.278
-294.691	146.932	0.117	0.158
-293.676	590.601	-0.087	-0.215
-292.662	141.873	0.079	0.106
-291.647	88.360	-0.264	0.294
-290.632	800.000	-0.087	0.290
-289.618	219.076	-0.151	0.243
-288.603	-121.565	-0.118	-0.020
-287.589	43.655	0.171	0.157
-286.574	345.923	0.062	0.123
-285.559	20.556	-0.131	0.106
-284.545	438.907	0.057	0.126
-283.530	-102.021	-0.231	-0.056
-282.516	-3.357	0.125	-0.087
-281.501	-158.777	0.254	0.015
-280.486	-160.421	-0.434	0.023
-279.472	-122.610	0.178	-0.029
-278.457	-33.493	0.171	-0.095
-277.443	8.038	-0.092	-0.069
-276.428	-200.000	-0.068	0.376
-275.413	-13.370	0.389	-0.254
-274.399	-200.000	-0.021	-0.144
-273.384	800.000	0.070	0.214
-272.370	144.566	-0.101	0.136
-271.355	-200.000	-0.013	-0.159
-270.340	59.590	-0.247	-0.244
-269.326	-200.000	-0.051	-0.307
-268.311	281.635	-0.074	0.134
-267.297	-161.812	0.258	-0.013
-266.282	-70.809	0.096	0.036
-265.267	-200.000	-0.041	0.312
-264.253	231.447	-0.039	0.065
-263.238	370.242	-0.150	0.306
-262.224	-82.887	-0.360	0.117
-261.209	60.096	0.243	-0.241
-260.195	-37.071	-0.154	-0.083
-259.180	-200.000	0.032	-0.142
-258.165	800.000	-0.029	0.082
-257.151	131.144	0.063	-0.082
-256.136	-200.000	0.009	0.152
-255.122	-57.060	0.153	-0.067
-254.107	260.973	-0.172	-0.299
-253.092	-200.000	-0.001	0.037
-252.078	800.000	0.032	-0.121
-251.063	800.000	0.017	-0.049
-250.049	-88.950	-0.222	0.066
-249.034	-200.000	0.036	0.193
-248.019	122.413	-0.087	0.109
-247.005	-106.405	0.105	-0.024
-245.990	-33.078	-0.200	0.111
-244.976	71.407	0.210	-0.218
-243.961	129.001	-0.024	0.030
-242.946	-84.480	-0.249	0.079
-241.932	324.566	-0.056	-0.107
-240.917	-16.151	-0.181	-0.115
-239.903	-127.665	-0.205	-0.030
-238.888	-58.729	0.322	0.140
-237.873	-90.356	0.206	-0.060
-236.859	-33.635	0.126	-0.070
-235.844	-200.000	-0.018	0.265
-234.830	-200.000	0.024	-0.299
-233.815	225.258	-0.014	0.022
-232.800	-200.000	-0.049	0.481
-231.786	149.007	-0.102	-0.139
-230.771	787.978	0.057	-0.158
-229.757	-200.000	0.008	-0.147
-228.742	-200.000	-0.018	0.154
-227.727	172.036	-0.111	0.159
-226.713	-2.674	0.235	0.165
-225.698	-200.000	0.003	-0.078
-224.684	-19.181	-0.142	-0.089
-223.669	52.216	0.243	0.232
-222.655	-50.748	-0.249	-0.118
-221.640	-46.438	0.261	0.128
-220.625	546.928	0.047	-0.113
-219.611	-75.181	-0.123	0.044
-218.596	-52.592	-0.201	0.093
-217.582	-58.413	0.135	-0.059
-216.567	315.722	-0.067	0.127
-215.552	-21.539	0.053	-0.033
-214.538	800.000	-0.152	-0.453
-213.523	-200.000	0.052	-0.260
-212.509	20.527	-0.145	0.117
-211.494	-84.342	0.200	-0.064
-210.479	-192.081	-0.222	0.002
-209.465	-56.699	0.100	-0.044
-208.450	656.170	0.043	-0.112
-207.436	483.933	-0.073	0.167
-206.421	475.738	-0.120	0.272
-205.406	-37.184	-0.250	0.134
-204.392	-200.000	-0.004	-0.471
-203.377	85.017	0.154	-0.169
-202.363	99.966	0.268	0.311
-201.348	-200.000	-0.013	0.133
-200.333	45.980	-0.243	-0.225
-199.319	-131.248	-0.135	-0.018
-198.304	-133.614	0.132	0.017
-197.290	222.624	-0.324	-0.523
-196.275	-49.684	0.347	-0.165
-195.260	77.474	0.137	-0.146
-194.246	-200.000	-0.015	-0.120
-193.231	-80.394	0.358	-0.120
-192.217	-39.589	0.109	0.057
-191.202	-46.025	-0.125	-0.062
-190.187	199.428	0.099	0.152
-189.173	-137.502	-0.039	0.004
-188.158	291.275	0.017	-0.031
-187.144	800.000	-0.057	0.176
-186.129	31.540	-0.215	0.185
-185.114	94.487	0.110	0.125
-184.100	-100.243	-0.113	-0.028
-183.085	-200.000	-0.019	-0.086
-182.071	-167.703	0.192	0.008
-181.056	384.446	0.088	0.182
-180.042	315.072	0.090	0.171
-179.027	745.539	0.072	-0.194
-178.012	503.908	0.051	0.118
-176.998	404.624	-0.023	-0.048
-175.983	-45.019	0.223	-0.111
-174.969	23.405	-0.091	0.075
-173.954	-107.841	-0.487	-0.106
-172.939	92.233	-0.161	-0.181
-171.925	-30.118	0.067	0.038
-170.910	-71.577	0.212	-0.079
-169.896	-165.651	-0.084	-0.004
-168.881	-132.786	-0.152	-0.019
-167.866	104.235	0.170	0.200
-166.852	-115.483	0.282	-0.053
-165.837	147.420	0.151	0.203
-164.823	148.316	0.138	0.186
-163.808	108.434	-0.184	-0.220
-162.793	-41.965	-0.036	-0.018
-161.779	800.000	0.148	-0.468
-160.764	-45.825	-0.246	0.121
-159.750	54.512	0.106	0.102
-158.735	800.000	-0.045	0.164
-157.720	-21.705	-0.321	0.195
-156.706	31.868	0.248	-0.214
-155.691	-200.000	0.029	-0.163
-154.677	107.516	0.194	-0.231
-153.662	-29.651	-0.263	0.150
-152.647	5.251	0.144	0.106
-151.633	-75.571	0.112	0.040
-150.618	-200.000	0.013	-0.095
-149.604	-5.412	0.135	0.093
-148.589	360.259	-0.088	0.176
-147.574	60.512	0.072	0.072
-146.560	199.929	-0.076	0.117
-145.545	122.463	-0.252	0.315
-144.531	-154.502	0.482	0.032
-143.516	-200.000	-0.008	-0.505
-142.502	175.515	-0.109	-0.158
-141.487	800.000	0.098	0.333
-140.472	114.572	0.047	-0.058
-139.458	7.228	0.102	0.076
-138.443	101.534	-0.225	0.262
-137.429	-121.648	0.059	-0.010
-136.414	763.503	0.071	0.191
-135.399	-41.871	-0.094	0.048
-134.385	800.000	-0.078	-0.268
-133.370	-30.493	-0.159	0.090
-132.356	296.535	-0.143	0.262
-131.341	-138.287	0.143	0.016
-130.326	22.012	0.167	0.136
-129.312	-128.830	0.070	0.010
-128.297	-116.970	0.372	0.068
-127.283	-200.000	0.037	-0.334
-126.268	-200.000	0.069	0.438
-125.253	-105.046	-0.346	0.079
-124.239	244.409	0.111	0.187
-123.224	-200.000	-0.005	-0.109
-122.210	-200.000	0.003	-0.131
-121.195	800.000	-0.100	-0.351
