DTS Sentinel unit serial number:	SN413079Multiplexer serial number:	ORYXHardware model number:	OX4-SRSoftware version number:	ORYX F/W v4.00 Oryx Data Collector v3.7.2.0data status	okinstallation	princeton_trtdifferential loss correction	single-endedforward channel	channel 3reverse channel	N/Adate	2019/09/11time	02:30:10forward acquisition time	60.00reverse acquisition time	0.00gamma	496.2192k internal	0.2332k external	0.2332temperature offset calibration	0.9911default loss term (dB/km)	0.3790temperature slope calibration	1.0000multiplexer offset coefficient	1.0000multiplexer slope coefficient	1.0000fibre end	0.00T internal ref (°C)	29.25T ext. ref 1 (°C)	-0.29T ext. ref 2 (°C)	23.39length (m)	temperature (°C)	Stokes	anti-Stokes-747.200	800.000	0.095	0.313
-746.185	364.034	-0.241	0.487
-745.171	163.943	0.174	0.247
-744.156	800.000	-0.029	0.126
-743.142	-118.435	-0.382	-0.068
-742.127	-200.000	-0.014	0.267
-741.112	-115.786	-0.193	0.036
-740.098	-49.098	0.325	0.156
-739.083	222.097	-0.147	-0.238
-738.069	1.367	-0.283	0.205
-737.054	-30.815	0.118	-0.067
-736.039	800.000	-0.119	-0.337
-735.025	457.254	-0.128	0.286
-734.010	-163.967	-0.382	0.018
-732.996	-200.000	0.014	0.199
-731.981	-200.000	-0.014	-0.080
-730.966	10.248	-0.193	-0.148
-729.952	193.776	-0.135	-0.206
-728.937	-200.000	-0.005	-0.154
-727.923	284.978	-0.125	0.226
-726.908	-72.526	0.157	0.058
-725.894	-184.226	-0.190	-0.003
-724.879	56.949	-0.140	0.137
-723.864	-107.468	-0.167	0.037
-722.850	-126.485	-0.480	-0.072
-721.835	0.438	0.452	-0.324
-720.821	-153.245	0.098	-0.007
-719.806	-59.826	-0.177	-0.076
-718.791	436.994	-0.067	0.148
-717.777	-200.000	-0.034	0.193
-716.762	-87.474	0.173	0.053
-715.748	-200.000	0.024	0.257
-714.733	92.803	0.225	-0.255
-713.718	-119.908	-0.307	-0.053
-712.704	800.000	0.059	0.195
-711.689	431.691	-0.072	0.156
-710.675	-137.926	0.181	-0.020
-709.660	56.112	0.012	0.012
-708.645	800.000	0.059	0.239
-707.631	-200.000	0.049	0.277
-706.616	-135.844	0.277	-0.033
-705.602	-21.488	0.260	0.159
-704.587	262.625	-0.009	0.016
-703.572	385.578	0.060	0.125
-702.558	-65.105	-0.323	0.131
-701.543	-111.739	-0.139	0.028
-700.529	299.252	0.025	0.046
-699.514	347.909	0.133	0.263
-698.499	-163.244	0.171	-0.008
-697.485	800.000	0.075	-0.264
-696.470	-39.547	-0.056	-0.029
-695.456	800.000	0.084	-0.339
-694.441	63.339	-0.043	-0.043
-693.426	510.957	-0.168	0.393
-692.412	139.928	-0.147	-0.194
-691.397	-108.877	-0.150	-0.032
-690.383	126.269	0.205	-0.260
-689.368	184.844	-0.174	0.259
-688.354	-116.233	0.138	0.026
-687.339	-197.050	0.130	0.001
-686.324	-192.502	-0.247	-0.002
-685.310	11.922	-0.113	-0.087
-684.295	-200.000	-0.001	-0.189
-683.281	80.722	0.067	0.072
-682.266	800.000	-0.020	0.077
-681.251	193.843	-0.111	0.169
-680.237	-61.908	0.349	0.146
-679.222	4.644	-0.087	-0.064
-678.208	-29.895	-0.109	-0.062
-677.193	110.264	-0.163	-0.197
-676.178	0.229	0.027	0.019
-675.164	-200.000	-0.060	-0.401
-674.149	88.359	-0.034	-0.038
-673.135	213.014	0.248	-0.394
-672.120	-200.000	0.028	0.254
-671.105	268.633	-0.037	-0.064
-670.091	711.932	0.089	-0.238
-669.076	55.461	-0.143	-0.139
-668.062	-61.610	-0.113	-0.048
-667.047	-184.899	0.221	0.004
-666.032	-3.114	-0.254	-0.178
-665.018	116.440	-0.065	0.080
-664.003	-200.000	-0.093	0.432
-662.989	-12.097	0.160	-0.105
-661.974	-139.317	-0.223	0.024
-660.959	364.656	-0.196	0.395
-659.945	-71.890	0.237	0.089
-658.930	800.000	-0.037	0.121
-657.916	-96.179	0.357	0.095
-656.901	-200.000	0.010	-0.120
-655.886	-57.273	-0.367	0.162
-654.872	105.263	-0.121	-0.143
-653.857	108.277	0.158	-0.188
-652.843	107.228	-0.222	-0.265
-651.828	205.016	-0.116	-0.180
-650.814	-130.166	-0.300	0.041
-649.799	-129.742	0.241	-0.033
-648.784	4.176	0.003	0.002
-647.770	-93.484	0.191	-0.053
-646.755	11.557	0.119	-0.091
-645.741	-200.000	-0.009	0.128
-644.726	-12.086	-0.274	-0.180
-643.711	800.000	-0.025	0.081
-642.697	81.081	-0.037	0.040
-641.682	-200.000	0.011	-0.280
-640.668	-160.850	-0.222	-0.012
-639.653	-137.550	-0.100	-0.011
-638.638	-200.000	-0.018	0.298
-637.624	489.138	-0.131	-0.301
-636.609	201.377	-0.066	0.103
-635.595	-200.000	0.038	-0.369
-634.580	316.430	0.030	0.056
-633.565	503.484	-0.040	-0.094
-632.551	-9.809	-0.080	-0.053
-631.536	51.394	-0.018	-0.017
-630.522	-200.000	-0.003	-0.056
-629.507	17.394	0.273	0.217
-628.492	-178.510	0.232	-0.005
-627.478	63.629	0.163	0.164
-626.463	214.715	0.164	0.259
-625.449	63.958	-0.108	-0.109
-624.434	-131.386	0.251	-0.033
-623.419	-72.717	-0.103	0.038
-622.405	-101.224	0.239	0.059
-621.390	-200.000	0.010	-0.279
-620.376	-200.000	-0.060	-0.305
-619.361	630.612	-0.063	-0.159
-618.346	391.978	-0.035	0.073
-617.332	32.552	0.218	0.189
-616.317	-200.000	-0.018	-0.099
-615.303	285.440	-0.112	0.202
-614.288	517.295	0.048	-0.112
-613.273	-72.140	-0.145	0.054
-612.259	-10.846	0.123	0.081
-611.244	-37.642	0.140	-0.075
-610.230	-98.429	0.202	-0.052
-609.215	-200.000	0.005	0.120
-608.201	-200.000	0.046	0.230
-607.186	-135.440	-0.422	0.050
-606.171	661.391	-0.026	0.067
-605.157	-73.080	0.118	-0.043
-604.142	71.992	-0.048	0.050
-603.128	-200.000	0.033	-0.151
-602.113	800.000	-0.106	-0.319
-601.098	-0.057	-0.032	-0.023
-600.084	320.899	-0.170	0.323
-599.069	-17.998	-0.126	-0.079
-598.055	800.000	-0.045	-0.154
-597.040	518.983	0.080	-0.188
-596.025	800.000	-0.090	-0.252
-595.011	-45.922	-0.039	-0.019
-593.996	-113.503	0.212	-0.042
-592.982	-147.338	0.431	-0.037
-591.967	-103.512	0.202	0.047
-590.952	70.235	-0.234	-0.242
-589.938	-172.937	0.104	0.003
-588.923	39.689	0.218	-0.196
-587.909	287.151	-0.177	0.320
-586.894	446.595	0.095	0.209
-585.879	-16.560	0.160	-0.101
-584.865	-107.202	-0.200	-0.044
-583.850	206.944	0.174	-0.271
-582.836	-74.457	0.056	0.020
-581.821	118.654	-0.060	0.074
-580.806	458.979	-0.185	0.411
-579.792	49.181	-0.301	0.282
-578.777	4.586	-0.237	0.174
-577.763	-200.000	-0.047	-0.337
-576.748	800.000	-0.063	-0.174
-575.733	-54.205	0.075	0.034
-574.719	-200.000	0.011	-0.124
-573.704	217.473	-0.073	-0.117
-572.690	-84.253	-0.085	-0.027
-571.675	499.406	-0.141	0.325
-570.661	-200.000	-0.037	-0.252
-569.646	-193.713	0.320	-0.003
-568.631	-55.736	-0.124	0.055
-567.617	-110.780	-0.132	0.027
-566.602	159.104	-0.108	-0.150
-565.588	-200.000	0.008	-0.093
-564.573	22.266	0.188	0.153
-563.558	90.477	0.154	0.173
-562.544	-109.958	0.304	0.064
-561.529	-42.817	-0.208	-0.105
-560.515	-166.424	0.271	-0.011
-559.500	-155.829	0.109	0.007
-558.485	-118.544	-0.246	0.044
-557.471	-28.187	0.118	0.068
-556.456	-39.743	0.070	-0.036
-555.442	-166.844	-0.268	-0.011
-554.427	-200.000	0.022	0.402
-553.412	-14.485	-0.226	0.145
-552.398	-99.283	0.112	0.028
-551.383	93.793	0.146	-0.165
-550.369	-200.000	-0.024	-0.310
-549.354	-200.000	0.018	-0.152
-548.339	-200.000	0.014	0.193
-547.325	800.000	-0.023	-0.066
-546.310	800.000	-0.042	0.165
-545.296	50.736	0.231	-0.218
-544.281	-105.216	-0.286	-0.065
-543.266	460.052	0.056	0.125
-542.252	-200.000	0.037	-0.243
-541.237	-87.643	-0.305	-0.092
-540.223	-200.000	-0.014	-0.124
-539.208	-83.501	-0.280	-0.089
-538.193	56.493	-0.060	-0.059
-537.179	-24.913	-0.150	-0.089
-536.164	45.883	0.158	0.146
-535.150	102.005	0.153	0.178
-534.135	745.598	0.075	-0.201
-533.121	100.212	0.105	0.121
-532.106	259.685	0.044	0.075
-531.091	-0.400	0.033	0.023
-530.077	-18.090	-0.235	-0.147
-529.062	80.410	0.185	-0.199
-528.048	-94.139	-0.449	0.123
-527.033	-145.295	-0.088	0.008
-526.018	-200.000	-0.004	0.085
-525.004	-73.634	-0.109	-0.040
-523.989	800.000	0.089	-0.264
-522.975	265.909	0.063	0.109
-521.960	800.000	0.103	-0.353
-520.945	-200.000	0.005	-0.245
-519.931	-116.802	0.312	0.057
-518.916	-200.000	0.011	0.132
-517.902	86.759	0.139	-0.153
-516.887	-200.000	0.031	-0.196
-515.872	187.908	0.092	0.137
-514.858	59.558	0.276	-0.271
-513.843	-200.000	-0.033	0.203
-512.829	800.000	0.017	-0.065
-511.814	-27.716	0.283	-0.164
-510.799	-131.551	0.199	-0.026
-509.785	184.944	-0.134	-0.197
-508.770	-69.564	0.304	-0.116
-507.756	-150.160	-0.055	0.004
-506.741	-122.078	-0.155	-0.025
-505.726	115.376	0.137	-0.167
-504.712	-111.073	-0.142	-0.029
-503.697	11.883	0.033	-0.026
-502.683	-154.134	-0.168	-0.011
-501.668	45.897	0.206	-0.190
-500.653	-75.677	-0.071	-0.025
-499.639	72.100	0.160	-0.166
-498.624	210.152	0.120	0.188
-497.610	-200.000	-0.006	0.089
-496.595	-200.000	-0.134	0.603
-495.581	60.443	0.269	-0.265
-494.566	-165.182	0.201	0.009
-493.551	800.000	-0.043	0.151
-492.537	-200.000	-0.048	0.218
-491.522	-138.062	0.121	-0.013
-490.508	133.144	-0.188	-0.241
-489.493	253.282	-0.158	-0.268
-488.478	146.221	-0.127	0.169
-487.464	-107.324	-0.355	-0.078
-486.449	94.175	0.013	-0.015
-485.435	141.210	-0.146	-0.193
-484.420	-62.834	0.141	-0.058
-483.405	-73.081	-0.033	-0.012
-482.391	-152.034	-0.253	0.018
-481.376	-33.835	0.213	-0.117
-480.362	324.633	0.110	0.209
-479.347	-13.167	-0.196	-0.127
-478.332	-99.642	-0.163	0.041
-477.318	800.000	-0.058	-0.170
-476.303	800.000	0.067	0.215
-475.289	-52.204	-0.170	0.078
-474.274	649.965	0.044	-0.112
-473.259	-160.617	0.264	-0.014
-472.245	-123.819	-0.105	0.017
-471.230	-178.389	-0.124	0.003
-470.216	77.336	-0.071	-0.075
-469.201	-42.150	-0.184	0.094
-468.186	-200.000	-0.019	0.431
-467.172	20.580	0.043	0.035
-466.157	-164.351	0.178	0.008
-465.143	-200.000	0.010	0.227
-464.128	-124.296	-0.173	0.027
-463.113	-200.000	0.014	0.273
-462.099	-74.869	0.246	-0.088
-461.084	-9.415	-0.090	-0.060
-460.070	-200.000	0.003	0.243
-459.055	-53.433	-0.223	0.102
-458.040	232.953	0.096	0.157
-457.026	-93.818	-0.207	-0.057
-456.011	657.594	0.079	0.202
-454.997	-200.000	-0.011	0.210
-453.982	-79.743	-0.138	0.046
-452.968	-49.432	0.254	-0.121
-451.953	86.460	-0.058	-0.064
-450.938	-200.000	0.074	0.324
-449.924	50.608	0.137	-0.129
-448.909	-109.080	0.176	-0.037
-447.895	-200.000	-0.040	-0.395
-446.880	-200.000	-0.015	-0.065
-445.865	-37.980	0.233	0.123
-444.851	553.034	0.036	-0.086
-443.836	-25.348	-0.481	-0.283
-442.822	-62.750	-0.242	-0.100
-441.807	-37.204	-0.078	-0.041
-440.792	-59.948	0.262	0.111
-439.778	-97.501	-0.255	0.066
-438.763	800.000	0.052	-0.225
-437.749	30.077	0.149	0.126
-436.734	-56.951	-0.125	-0.055
-435.719	56.453	-0.385	-0.372
-434.705	-200.000	-0.073	-0.471
-433.690	-200.000	0.028	0.280
-432.676	-38.750	-0.157	-0.083
-431.661	-45.331	-0.369	0.182
-430.646	800.000	-0.043	0.175
-429.632	-64.171	-0.318	-0.129
-428.617	-18.449	0.068	-0.042
-427.603	180.505	0.059	-0.086
-426.588	30.446	0.129	-0.109
-425.573	-65.742	0.024	-0.010
-424.559	94.876	0.108	0.122
-423.544	59.587	-0.103	-0.101
-422.530	-69.271	-0.051	0.019
-421.515	-68.730	0.213	-0.082
-420.500	72.968	-0.098	-0.102
-419.486	-200.000	-0.046	0.293
-418.471	-16.009	-0.252	-0.159
-417.457	-106.089	-0.019	-0.004
-416.442	-122.669	0.094	-0.015
-415.428	-200.000	-0.014	0.067
-414.413	-156.185	-0.198	0.012
-413.398	800.000	0.037	0.156
-412.384	242.477	-0.042	0.070
-411.369	753.390	0.130	-0.350
-410.355	201.344	-0.123	0.188
-409.340	-200.000	-0.038	-0.209
-408.325	-103.250	0.310	0.073
-407.311	281.054	0.142	0.252
-406.296	-8.974	-0.195	0.130
-405.282	230.377	0.039	-0.064
-404.267	-101.032	0.191	0.046
-403.252	800.000	-0.089	0.336
-402.238	-47.258	0.102	0.049
-401.223	800.000	0.057	-0.200
-400.209	-17.400	0.137	-0.086
-399.194	-200.000	0.026	-0.217
-398.179	-63.256	0.097	-0.040
-397.165	-126.822	0.363	0.053
-396.150	44.458	-0.098	0.089
-395.136	48.714	-0.113	-0.105
-394.121	139.457	0.316	-0.413
-393.106	284.381	-0.107	-0.192
-392.092	-200.000	-0.008	0.102
-391.077	12.328	-0.299	0.228
-390.063	-200.000	0.069	0.307
-389.048	-200.000	0.012	-0.142
-388.033	32.125	-0.243	0.208
-387.019	225.854	0.100	0.160
-386.004	272.125	0.106	0.185
-384.990	-19.747	-0.283	-0.174
-383.975	-37.406	0.166	0.088
-382.960	17.256	0.240	0.189
-381.946	800.000	-0.071	0.246
-380.931	-160.945	-0.229	0.012
-379.917	64.952	0.195	0.196
-378.902	422.911	-0.134	0.286
-377.888	14.821	-0.015	-0.012
-376.873	-200.000	0.052	0.248
-375.858	-91.352	0.238	-0.067
-374.844	-57.449	0.420	-0.183
-373.829	800.000	-0.065	-0.182
-372.815	-20.304	0.039	-0.024
-371.800	-200.000	0.013	0.295
-370.785	159.069	0.136	0.188
-369.771	42.345	0.168	0.151
-368.756	800.000	-0.048	-0.173
-367.742	-58.014	0.289	0.125
-366.727	4.545	0.123	-0.089
-365.712	-124.811	-0.314	0.048
-364.698	-1.415	0.421	0.294
-363.683	133.897	0.042	0.054
-362.669	-200.000	0.043	0.263
-361.654	155.554	-0.122	-0.166
-360.639	-200.000	0.057	0.388
-359.625	582.495	-0.071	0.171
-358.610	402.030	0.031	0.065
-357.596	170.357	0.072	-0.102
-356.581	800.000	0.101	-0.290
-355.566	287.995	-0.200	0.358
-354.552	183.259	-0.136	0.200
-353.537	13.858	0.064	-0.049
-352.523	432.061	-0.128	0.276
-351.508	169.715	-0.232	0.329
-350.493	-200.000	0.032	-0.279
-349.479	-200.000	-0.021	-0.144
-348.464	-200.000	0.065	-0.309
-347.450	75.562	0.181	-0.190
-346.435	-67.479	0.231	-0.090
-345.420	-74.699	0.214	-0.076
-344.406	-129.504	0.317	-0.043
-343.391	-43.572	-0.404	-0.202
-342.377	-129.687	0.573	0.078
-341.362	-116.515	0.178	0.033
-340.348	200.240	-0.166	0.253
-339.333	800.000	-0.081	-0.282
-338.318	477.941	-0.080	0.179
-337.304	455.966	-0.159	-0.350
-336.289	-200.000	0.027	0.133
-335.275	-162.817	-0.284	0.014
-334.260	800.000	0.056	-0.240
-333.245	800.000	0.127	-0.396
-332.231	-200.000	0.025	-0.234
-331.216	-44.720	-0.269	-0.133
-330.202	-101.291	0.120	0.029
-329.187	301.961	-0.102	-0.186
-328.172	-200.000	-0.026	0.145
-327.158	800.000	-0.056	0.221
-326.143	-200.000	0.032	0.238
-325.129	-89.489	0.258	0.075
-324.114	-108.835	-0.274	-0.058
-323.099	-72.336	0.132	-0.048
-322.085	800.000	-0.076	0.241
-321.070	-82.117	-0.248	-0.080
-320.056	-130.246	0.125	0.017
-319.041	-169.454	0.174	-0.006
-318.026	-29.483	0.201	-0.114
-317.012	-200.000	0.009	0.231
-315.997	233.342	0.032	0.052
-314.983	273.712	-0.100	0.175
-313.968	-200.000	-0.080	-0.593
-312.953	56.405	-0.178	-0.171
-311.939	-10.398	-0.193	0.126
-310.924	-200.000	-0.027	0.207
-309.910	-58.091	-0.121	0.052
-308.895	-85.110	-0.241	-0.075
-307.880	32.434	-0.104	-0.089
-306.866	-200.000	0.039	0.183
-305.851	-200.000	0.048	0.210
-304.837	460.998	0.127	0.280
-303.822	-169.522	0.079	-0.003
-302.807	-85.099	0.141	-0.044
-301.793	-115.569	-0.080	0.015
-300.778	-200.000	0.028	0.204
-299.764	800.000	-0.047	-0.134
-298.749	-200.000	-0.015	0.228
-297.735	-200.000	0.017	0.187
-296.720	-200.000	0.000	0.111
-295.705	-200.000	-0.031	0.353
-294.691	-44.166	-0.126	0.062
-293.676	-200.000	0.024	0.329
-292.662	234.854	0.086	0.140
-291.647	-57.697	0.195	-0.085
-290.632	-0.360	-0.347	-0.244
-289.618	406.418	-0.150	-0.314
-288.603	-74.823	-0.486	-0.172
-287.589	21.746	-0.190	0.153
-286.574	63.827	-0.068	0.068
-285.559	-200.000	0.048	-0.249
-284.545	157.384	0.111	-0.151
-283.530	-161.410	-0.507	-0.026
-282.516	-12.813	-0.274	0.177
-281.501	-23.202	0.547	0.325
-280.486	-25.316	-0.090	-0.053
-279.472	14.556	-0.275	-0.212
-278.457	199.829	-0.020	-0.030
-277.443	-200.000	-0.045	-0.449
-276.428	171.592	0.124	-0.176
-275.413	-143.510	0.214	0.020
-274.399	116.151	-0.049	-0.060
-273.384	18.312	0.068	-0.053
-272.370	-200.000	-0.045	-0.242
-271.355	-36.106	-0.094	-0.050
-270.340	112.993	-0.027	-0.032
-269.326	800.000	0.015	-0.058
-268.311	476.646	-0.079	0.177
-267.297	800.000	-0.039	0.146
-266.282	24.754	0.116	0.095
-265.267	-153.731	-0.251	0.017
-264.253	261.421	-0.049	-0.084
-263.238	-112.197	0.188	0.037
-262.224	800.000	0.054	-0.154
-261.209	176.263	-0.054	-0.078
-260.195	-31.355	0.326	0.181
-259.180	800.000	-0.019	-0.057
-258.165	389.373	0.084	0.172
-257.151	-200.000	-0.051	-0.232
-256.136	-123.415	0.585	-0.092
-255.122	800.000	0.068	-0.271
-254.107	222.715	-0.031	0.050
-253.092	29.970	-0.249	-0.209
-252.078	49.787	0.048	-0.045
-251.063	315.160	-0.125	0.233
-250.049	146.066	0.268	0.355
-249.034	99.833	0.084	0.096
-248.019	-200.000	0.031	0.149
-247.005	-129.880	-0.309	0.042
-245.990	-163.135	0.292	-0.014
-244.976	139.720	-0.065	0.084
-243.961	-69.564	-0.138	0.052
-242.946	-64.017	0.171	0.069
-241.932	800.000	-0.085	0.243
-240.917	-156.981	0.062	-0.004
-239.903	-90.691	0.235	0.067
-238.888	-148.106	-0.102	-0.008
-237.873	800.000	-0.097	-0.294
-236.859	-99.418	0.219	-0.054
-235.844	-3.452	0.307	0.211
-234.830	-140.129	-0.316	0.033
-233.815	14.588	-0.087	-0.067
-232.800	-44.460	-0.155	-0.076
-231.786	263.350	0.115	0.196
-230.771	800.000	0.052	-0.213
-229.757	-200.000	0.004	0.090
-228.742	-94.711	0.113	0.030
-227.727	74.590	0.037	-0.038
-226.713	-200.000	0.032	0.305
-225.698	27.135	-0.168	-0.139
-224.684	-200.000	0.126	0.595
-223.669	-5.290	-0.297	-0.201
-222.655	-36.826	-0.157	-0.083
-221.640	-200.000	0.019	0.223
-220.625	330.642	-0.220	-0.418
-219.611	800.000	-0.093	-0.261
-218.596	246.591	0.079	0.132
-217.582	-73.476	-0.142	-0.051
-216.567	696.302	0.083	0.214
-215.552	-1.897	0.135	-0.093
-214.538	185.574	0.193	-0.282
-213.523	-155.276	0.207	-0.013
-212.509	142.093	0.080	-0.104
-211.494	-38.357	-0.207	0.108
-210.479	-200.000	0.045	0.309
-209.465	-148.985	-0.358	-0.028
-208.450	-64.196	0.224	0.090
-207.436	-29.425	-0.036	-0.020
-206.421	-200.000	-0.014	-0.149
-205.406	-64.418	0.178	0.071
-204.392	800.000	-0.026	0.076
-203.377	94.260	0.174	0.195
-202.363	-52.022	0.205	0.094
-201.348	300.272	0.113	-0.206
-200.333	221.747	-0.134	0.212
-199.319	-200.000	-0.004	0.279
-198.304	-200.000	0.061	-0.298
-197.290	-156.101	-0.128	-0.008
-196.275	465.252	0.093	-0.204
-195.260	-140.312	-0.037	-0.004
-194.246	46.120	0.414	-0.378
-193.231	-64.480	0.110	0.044
-192.217	800.000	-0.065	0.198
-191.202	-113.108	-0.239	-0.047
-190.187	29.870	-0.046	-0.039
-189.173	-41.111	0.250	-0.127
-188.158	-200.000	0.003	0.032
-187.144	101.256	0.214	-0.246
-186.129	155.129	-0.150	-0.204
-185.114	-95.904	-0.086	-0.023
-184.100	800.000	-0.037	-0.101
-183.085	136.468	-0.287	0.369
-182.071	49.384	-0.148	-0.137
-181.056	800.000	-0.030	0.104
-180.042	453.802	0.164	-0.358
-179.027	781.604	0.020	-0.053
-178.012	-200.000	-0.042	-0.415
-176.998	-77.764	0.119	-0.041
-175.983	-79.045	0.061	0.020
-174.969	310.519	0.191	0.352
-173.954	-169.104	-0.386	-0.014
-172.939	-95.919	-0.256	0.067
-171.925	-200.000	-0.049	-0.238
-170.910	43.331	0.004	0.004
-169.896	40.989	-0.168	0.149
-168.881	-102.687	-0.286	-0.067
-167.866	800.000	0.098	0.422
-166.852	-26.228	-0.433	0.250
-165.837	-17.524	-0.084	-0.052
-164.823	-8.859	0.241	0.159
-163.808	800.000	-0.083	0.258
-162.793	228.370	-0.103	-0.166
-161.779	-25.853	-0.196	-0.113
-160.764	-85.324	0.299	0.092
-159.750	-32.316	0.104	0.057
-158.735	-145.963	-0.219	0.019
-157.720	-154.128	0.448	-0.030
-156.706	23.967	0.247	-0.200
-155.691	12.949	-0.170	-0.129
-154.677	276.811	0.183	0.319
-153.662	800.000	-0.053	-0.160
-152.647	-200.000	-0.005	0.265
-151.633	-14.803	-0.080	-0.050
-150.618	-200.000	0.015	-0.375
-149.604	-105.035	0.290	-0.065
-148.589	39.648	-0.240	0.212
-147.574	-13.232	-0.286	0.183
-146.560	92.698	-0.130	0.144
-145.545	-131.460	-0.449	0.058
-144.531	800.000	0.064	-0.235
-143.516	674.008	0.072	-0.184
-142.502	-89.831	-0.161	0.046
-141.487	-200.000	0.018	0.122
-140.472	57.758	0.194	0.186
-139.458	-2.995	-0.144	-0.099
-138.443	800.000	0.064	0.217
-137.429	102.039	0.044	0.051
-136.414	8.326	0.226	0.167
-135.399	-200.000	-0.020	-0.097
-134.385	487.863	-0.074	-0.165
-133.370	-147.184	-0.398	0.033
-132.356	-86.291	0.155	0.047
-131.341	800.000	0.053	0.223
-130.326	-100.009	0.118	-0.029
-129.312	-68.766	-0.480	-0.182
-128.297	132.976	0.066	-0.084
-127.283	-33.460	0.090	0.049
-126.268	49.749	0.296	-0.274
-125.253	56.376	-0.287	-0.274
-124.239	49.194	-0.147	0.135
-123.224	684.436	-0.089	0.227
-122.210	22.263	0.096	0.077
