DTS Sentinel unit serial number:	SN413079Multiplexer serial number:	ORYXHardware model number:	OX4-SRSoftware version number:	ORYX F/W v4.00 Oryx Data Collector v3.7.2.0data status	okinstallation	princeton_trtdifferential loss correction	single-endedforward channel	channel 3reverse channel	N/Adate	2019/09/12time	00:26:11forward acquisition time	60.00reverse acquisition time	0.00gamma	496.2192k internal	0.2318k external	0.2318temperature offset calibration	1.0070default loss term (dB/km)	0.3790temperature slope calibration	1.0000multiplexer offset coefficient	1.0000multiplexer slope coefficient	1.0000fibre end	0.00T internal ref (°C)	33.44T ext. ref 1 (°C)	2.04T ext. ref 2 (°C)	27.53length (m)	temperature (°C)	Stokes	anti-Stokes-747.200	160.783	0.037	-0.052
-746.185	185.434	0.242	0.363
-745.171	16.540	0.182	-0.146
-744.156	-82.475	-0.383	0.126
-743.142	733.169	0.057	0.154
-742.127	-200.000	0.018	0.497
-741.112	404.414	0.192	-0.410
-740.098	431.886	0.105	0.231
-739.083	-75.990	0.124	0.044
-738.069	473.011	-0.022	0.051
-737.054	33.438	-0.020	-0.017
-736.039	278.572	-0.127	-0.230
-735.025	-200.000	-0.025	0.219
-734.010	88.243	-0.152	0.171
-732.996	38.680	-0.153	-0.138
-731.981	-200.000	-0.011	-0.083
-730.966	800.000	0.077	0.232
-729.952	293.238	-0.032	-0.059
-728.937	-200.000	0.019	-0.118
-727.923	800.000	0.076	-0.232
-726.908	-40.989	-0.238	0.124
-725.894	800.000	-0.019	0.063
-724.879	151.970	0.133	-0.184
-723.864	217.763	-0.046	0.074
-722.850	-200.000	0.008	0.215
-721.835	-66.324	0.147	0.059
-720.821	800.000	-0.067	-0.188
-719.806	428.675	0.172	-0.376
-718.791	-35.087	-0.148	-0.081
-717.777	800.000	-0.087	-0.246
-716.762	-200.000	-0.107	0.480
-715.748	-22.381	-0.196	-0.120
-714.733	-200.000	-0.238	-0.000
-713.718	800.000	0.083	-0.297
-712.704	-92.766	-0.133	-0.038
-711.689	83.288	0.040	-0.044
-710.675	-77.896	-0.471	0.164
-709.660	76.359	-0.065	0.069
-708.645	-200.000	-0.018	-0.213
-707.631	-117.561	0.267	0.049
-706.616	-200.000	0.002	0.126
-705.602	221.913	0.079	0.129
-704.587	387.452	-0.164	-0.342
-703.572	-153.917	-0.270	-0.019
-702.558	126.147	0.102	0.130
-701.543	-21.864	0.158	0.097
-700.529	-126.943	0.462	-0.069
-699.514	-105.684	0.247	-0.057
-698.499	-148.765	-0.443	-0.036
-697.485	-200.000	0.033	0.240
-696.470	-19.534	-0.448	-0.280
-695.456	800.000	0.051	-0.145
-694.441	-102.089	-0.063	0.015
-693.426	-136.140	-0.202	-0.024
-692.412	-111.450	0.365	0.075
-691.397	800.000	-0.056	-0.229
-690.383	-200.000	0.009	-0.115
-689.368	-200.000	0.011	0.062
-688.354	139.767	0.009	0.011
-687.339	-200.000	-0.010	-0.110
-686.324	-200.000	0.062	-0.288
-685.310	109.104	-0.173	0.209
-684.295	-200.000	-0.006	0.271
-683.281	800.000	-0.056	0.180
-682.266	-157.623	0.259	0.016
-681.251	-200.000	-0.011	0.133
-680.237	-75.323	-0.318	-0.115
-679.222	-200.000	0.086	-0.451
-678.208	800.000	-0.022	0.074
-677.193	-60.108	0.203	-0.087
-676.178	-32.888	0.169	-0.095
-675.164	-119.064	-0.085	0.015
-674.149	-146.742	0.074	-0.006
-673.135	-181.592	0.411	-0.008
-672.120	370.973	-0.106	-0.217
-671.105	-29.534	0.254	-0.146
-670.091	77.766	0.264	0.284
-669.076	-8.194	-0.161	-0.109
-668.062	326.234	0.145	-0.279
-667.047	203.013	-0.234	-0.365
-666.032	-108.199	-0.085	-0.019
-665.018	-74.908	0.092	-0.033
-664.003	-200.000	-0.027	0.287
-662.989	-200.000	0.005	-0.189
-661.974	-56.088	-0.160	-0.072
-660.959	-200.000	0.014	-0.101
-659.945	-128.502	-0.158	0.023
-658.930	-10.355	-0.270	0.181
-657.916	184.862	0.026	0.039
-656.901	-54.829	0.149	-0.068
-655.886	-86.912	-0.245	0.075
-654.872	127.971	-0.068	0.087
-653.857	120.962	0.141	-0.176
-652.843	-200.000	0.044	-0.306
-651.828	-200.000	0.003	0.091
-650.814	-64.779	0.391	0.160
-649.799	180.674	0.022	-0.033
-648.784	579.229	-0.094	0.232
-647.770	209.515	0.084	0.132
-646.755	-56.532	-0.435	0.195
-645.741	307.578	-0.034	-0.064
-644.726	271.860	-0.104	-0.185
-643.711	151.677	0.241	0.331
-642.697	-200.000	0.006	-0.134
-641.682	800.000	-0.075	-0.317
-640.668	-98.982	-0.254	-0.065
-639.653	34.279	-0.149	0.131
-638.638	-37.608	0.170	-0.091
-637.624	250.918	-0.054	0.092
-636.609	800.000	0.076	-0.260
-635.595	-200.000	-0.021	-0.184
-634.580	-127.006	-0.107	0.016
-633.565	161.482	0.079	0.111
-632.551	-1.072	0.360	0.256
-631.536	317.885	0.054	-0.104
-630.522	-62.785	-0.192	-0.080
-629.507	-38.177	0.347	0.185
-628.492	-200.000	0.072	0.489
-627.478	-4.192	-0.127	0.089
-626.463	-153.594	-0.097	-0.007
-625.449	-200.000	0.027	-0.133
-624.434	-200.000	-0.033	-0.346
-623.419	800.000	0.046	-0.182
-622.405	-29.217	-0.196	0.113
-621.390	-135.255	0.561	0.068
-620.376	-200.000	-0.031	-0.351
-619.361	28.037	-0.097	-0.082
-618.346	-184.887	0.263	-0.004
-617.332	154.984	0.082	-0.114
-616.317	353.222	0.047	0.093
-615.303	-108.300	-0.390	-0.085
-614.288	-107.487	0.488	-0.108
-613.273	800.000	0.039	-0.161
-612.259	-98.915	-0.157	-0.040
-611.244	-29.919	0.193	0.111
-610.230	800.000	-0.049	-0.164
-609.215	-101.673	-0.254	0.062
-608.201	-17.422	-0.286	-0.181
-607.186	-147.692	0.071	0.006
-606.171	-149.027	0.159	0.013
-605.157	-66.968	0.189	0.075
-604.142	744.443	0.038	0.103
-603.128	-200.000	0.043	0.243
-602.113	-112.504	-0.214	-0.043
-601.098	-200.000	0.015	-0.238
-600.084	64.871	-0.217	-0.221
-599.069	350.555	-0.024	-0.048
-598.055	-158.724	-0.140	-0.008
-597.040	388.111	-0.026	-0.054
-596.025	-31.526	0.110	-0.062
-595.011	56.377	0.122	0.119
-593.996	-200.000	0.034	0.167
-592.982	800.000	-0.024	0.078
-591.967	132.422	-0.359	-0.466
-590.952	-171.110	-0.036	0.001
-589.938	10.327	0.195	0.150
-588.923	-49.359	0.201	-0.096
-587.909	-25.376	-0.119	-0.071
-586.894	31.657	-0.152	-0.132
-585.879	-42.303	-0.439	-0.226
-584.865	-200.000	-0.004	0.151
-583.850	-172.124	-0.182	0.006
-582.836	-39.373	0.140	-0.074
-581.821	412.550	-0.042	-0.089
-580.806	-200.000	-0.075	0.338
-579.792	-105.671	0.137	0.031
-578.777	277.925	-0.081	-0.144
-577.763	800.000	-0.041	-0.153
-576.748	138.657	0.040	0.053
-575.733	-120.355	-0.062	0.011
-574.719	-40.550	-0.088	-0.046
-573.704	129.649	-0.154	0.199
-572.690	87.833	-0.078	0.086
-571.675	-162.185	-0.038	0.002
-570.661	-200.000	0.004	-0.044
-569.646	-200.000	-0.004	-0.056
-568.631	-200.000	-0.028	-0.145
-567.617	-200.000	-0.045	-0.245
-566.602	-200.000	0.006	-0.052
-565.588	800.000	-0.020	-0.072
-564.573	-39.558	0.235	0.124
-563.558	36.671	0.324	0.288
-562.544	800.000	-0.100	-0.349
-561.529	-176.173	-0.038	0.001
-560.515	47.561	-0.201	-0.188
-559.500	57.818	-0.045	0.044
-558.485	148.698	-0.120	0.163
-557.471	83.757	0.255	-0.279
-556.456	-200.000	-0.125	0.000
-555.442	16.059	-0.192	-0.152
-554.427	-156.592	0.175	0.011
-553.412	-200.000	0.000	-0.452
-552.398	-200.000	-0.001	0.184
-551.383	-56.374	0.242	-0.108
-550.369	254.912	-0.064	0.110
-549.354	249.519	-0.129	0.219
-548.339	273.900	0.076	-0.136
-547.325	800.000	-0.056	-0.165
-546.310	-200.000	-0.040	-0.198
-545.296	-123.465	-0.551	-0.088
-544.281	345.044	0.055	0.108
-543.266	-200.000	-0.053	-0.237
-542.252	-93.086	0.207	-0.058
-541.237	-124.317	0.180	-0.028
-540.223	133.531	0.348	0.452
-539.208	800.000	-0.141	-0.591
-538.193	-92.686	-0.116	0.033
-537.179	-8.956	-0.061	-0.041
-536.164	716.765	-0.153	0.409
-535.150	-75.090	0.184	0.066
-534.135	56.936	-0.191	-0.187
-533.121	800.000	0.094	-0.291
-532.106	107.644	-0.247	0.295
-531.091	-90.442	-0.070	-0.020
-530.077	200.953	0.021	-0.032
-529.062	-200.000	-0.039	-0.204
-528.048	800.000	-0.096	-0.316
-527.033	-95.173	0.295	-0.080
-526.018	-132.551	0.329	-0.042
-525.004	279.274	0.112	0.200
-523.989	146.768	-0.239	-0.322
-522.975	97.277	-0.019	0.022
-521.960	183.345	0.178	-0.264
-520.945	-80.683	0.132	0.044
-519.931	116.685	0.202	0.249
-518.916	505.021	-0.089	0.207
-517.902	225.607	0.089	0.144
-516.887	197.546	0.159	-0.244
-515.872	269.902	0.088	-0.156
-514.858	-200.000	-0.002	-0.136
-513.843	-13.655	-0.112	0.073
-512.829	-23.749	-0.173	-0.104
-511.814	-200.000	0.014	-0.214
-510.799	535.529	0.130	0.309
-509.785	-200.000	0.001	0.347
-508.770	-30.810	-0.118	0.067
-507.756	423.001	0.139	-0.300
-506.741	17.987	-0.393	-0.314
-505.726	-189.027	0.140	0.002
-504.712	-200.000	-0.012	-0.191
-503.697	267.340	0.027	-0.048
-502.683	-83.582	-0.187	-0.060
-501.668	636.815	-0.121	0.307
-500.653	135.328	0.101	-0.132
-499.639	-136.022	-0.336	-0.040
-498.624	147.567	0.245	0.330
-497.610	-157.643	-0.259	0.015
-496.595	113.934	0.082	0.100
-495.581	-156.030	-0.095	-0.006
-494.566	800.000	0.067	-0.275
-493.551	800.000	0.079	-0.243
-492.537	127.830	0.174	0.221
-491.522	84.975	0.151	-0.166
-490.508	-200.000	0.014	0.082
-489.493	98.790	0.282	0.326
-488.478	-200.000	-0.007	0.067
-487.464	-105.069	-0.217	-0.050
-486.449	-51.224	0.110	-0.052
-485.435	-100.119	0.283	0.071
-484.420	-17.996	0.325	0.204
-483.405	800.000	-0.051	-0.161
-482.391	-200.000	-0.032	-0.171
-481.376	-60.043	-0.207	-0.088
-480.362	9.014	0.130	-0.098
-479.347	-22.385	-0.224	0.136
-478.332	-114.692	-0.034	-0.006
-477.318	800.000	-0.025	0.072
-476.303	-119.448	0.135	0.023
-475.289	800.000	0.031	-0.112
-474.274	-22.458	-0.193	-0.117
-473.259	-172.159	-0.229	-0.007
-472.245	1.788	-0.280	-0.202
-471.230	-200.000	-0.057	0.362
-470.216	130.950	-0.031	-0.040
-469.201	-118.107	-0.156	0.028
-468.186	-97.093	-0.076	-0.020
-467.172	-61.222	0.279	0.118
-466.157	-120.294	0.050	0.009
-465.143	-168.598	-0.173	0.007
-464.128	-200.000	0.028	-0.200
-463.113	-94.979	0.030	0.008
-462.099	-200.000	-0.019	-0.104
-461.084	56.094	-0.211	0.205
-460.070	-101.689	-0.292	0.071
-459.055	800.000	-0.041	0.153
-458.040	612.302	0.053	-0.133
-457.026	800.000	-0.080	-0.293
-456.011	-84.564	-0.289	-0.091
-454.997	170.008	-0.094	-0.135
-453.982	3.658	-0.164	-0.120
-452.968	-60.549	0.124	-0.052
-451.953	74.942	0.181	0.190
-450.938	-68.553	-0.197	-0.076
-449.924	-61.399	-0.214	-0.090
-448.909	319.803	-0.086	-0.163
-447.895	-200.000	-0.020	0.094
-446.880	370.718	-0.097	-0.196
-445.865	541.717	0.046	-0.109
-444.851	543.503	-0.085	-0.203
-443.836	800.000	0.120	-0.379
-442.822	800.000	-0.044	0.136
-441.807	648.165	0.051	-0.131
-440.792	176.072	0.140	0.204
-439.778	-49.608	-0.113	-0.054
-438.763	-136.439	-0.198	-0.023
-437.749	153.025	0.118	-0.162
-436.734	-68.963	-0.220	-0.085
-435.719	-2.001	0.268	0.188
-434.705	160.045	-0.117	-0.163
-433.690	800.000	0.050	-0.185
-432.676	383.819	-0.046	0.094
-431.661	30.005	0.163	0.139
-430.646	390.057	0.064	0.133
-429.632	-64.007	-0.162	0.066
-428.617	-81.313	-0.187	-0.062
-427.603	308.998	-0.117	-0.219
-426.588	-200.000	0.025	-0.170
-425.573	25.720	0.071	0.059
-424.559	-137.745	-0.099	-0.011
-423.544	-200.000	-0.203	-0.001
-422.530	-55.013	0.131	-0.059
-421.515	-141.649	-0.283	0.028
-420.500	-0.161	0.206	0.147
-419.486	-84.523	0.204	0.064
-418.471	800.000	0.032	0.096
-417.457	66.533	0.024	0.024
-416.442	369.954	0.092	-0.187
-415.428	6.422	0.339	-0.252
-414.413	-115.471	0.243	-0.046
-413.398	190.856	-0.145	-0.219
-412.384	164.804	0.108	-0.152
-411.369	-126.054	-0.276	0.041
-410.355	-200.000	-0.005	0.152
-409.340	508.814	0.046	0.106
-408.325	82.216	0.278	0.301
-407.311	682.535	0.129	0.336
-406.296	800.000	-0.022	0.071
-405.282	-16.255	-0.152	0.096
-404.267	800.000	-0.051	0.181
-403.252	-95.920	0.204	0.054
-402.238	37.463	0.092	-0.081
-401.223	112.983	-0.121	0.146
-400.209	150.720	0.151	0.205
-399.194	163.793	0.281	-0.395
-398.179	-38.624	0.109	0.058
-397.165	238.809	0.132	0.220
-396.150	-37.205	0.094	0.050
-395.136	78.773	0.027	0.029
-394.121	287.690	-0.056	0.101
-393.106	800.000	0.005	-0.016
-392.092	129.158	0.088	0.112
-391.077	61.016	-0.010	-0.010
-390.063	-200.000	0.030	0.310
-389.048	27.708	0.085	0.072
-388.033	-200.000	-0.045	-0.203
-387.019	120.090	0.087	-0.107
-386.004	-200.000	0.004	-0.030
-384.990	-104.862	-0.255	-0.058
-383.975	-8.578	-0.302	0.203
-382.960	-26.864	-0.407	0.237
-381.946	530.867	0.123	0.290
-380.931	-200.000	0.037	-0.315
-379.917	48.413	-0.194	-0.182
-378.902	800.000	-0.159	0.448
-377.888	-98.023	-0.204	-0.052
-376.873	-142.131	-0.287	0.028
-375.858	-200.000	-0.013	0.061
-374.844	199.386	-0.106	-0.161
-373.829	28.557	-0.306	0.258
-372.815	550.026	-0.102	-0.243
-371.800	345.070	0.145	0.284
-370.785	-93.411	-0.364	-0.101
-369.771	-108.809	0.033	-0.007
-368.756	354.494	0.163	0.323
-367.742	163.027	0.089	-0.125
-366.727	-200.000	0.009	0.241
-365.712	800.000	-0.081	-0.293
-364.698	800.000	0.071	0.239
-363.683	-158.041	-0.244	0.014
-362.669	-195.154	-0.281	-0.002
-361.654	9.993	0.166	-0.125
-360.639	800.000	0.050	0.144
-359.625	-7.825	0.093	-0.063
-358.610	-18.475	-0.142	-0.089
-357.596	36.854	-0.123	-0.108
-356.581	82.407	0.143	-0.155
-355.566	288.438	0.028	-0.051
-354.552	800.000	0.053	0.160
-353.537	-189.240	-0.285	-0.003
-352.523	256.973	0.053	-0.090
-351.508	-148.501	0.208	0.017
-350.493	45.238	-0.294	0.270
-349.479	379.543	-0.097	-0.199
-348.464	-200.000	-0.014	0.103
-347.450	276.854	0.062	0.110
-346.435	76.547	0.183	0.193
-345.420	-200.000	-0.005	-0.079
-344.406	-200.000	0.023	0.104
-343.391	-10.734	0.216	-0.142
-342.377	-2.796	0.190	0.133
-341.362	113.436	0.063	-0.077
-340.348	-57.028	0.118	-0.052
-339.333	36.482	0.326	-0.287
-338.318	72.106	-0.132	0.137
-337.304	-64.741	-0.258	-0.104
-336.289	0.424	0.106	0.075
-335.275	-200.000	0.024	0.257
-334.260	-200.000	0.011	-0.134
-333.245	733.513	-0.058	-0.154
-332.231	800.000	0.047	0.164
-331.216	-102.697	0.139	0.033
-330.202	117.623	0.197	-0.242
-329.187	94.283	0.140	0.158
-328.172	69.083	-0.194	0.199
-327.158	-200.000	-0.010	0.463
-326.143	800.000	0.095	-0.339
-325.129	-200.000	0.045	0.333
-324.114	-200.000	0.025	-0.116
-323.099	-17.306	0.253	0.159
-322.085	-56.752	0.269	0.118
-321.070	-172.017	-0.328	0.011
-320.056	-185.668	0.017	0.000
-319.041	405.913	0.032	-0.068
-318.026	800.000	-0.050	0.196
-317.012	-86.431	-0.177	0.054
-315.997	-200.000	-0.043	-0.281
-314.983	-63.080	0.201	-0.082
-313.968	800.000	0.031	0.121
-312.953	-153.806	-0.260	0.018
-311.939	269.479	0.114	0.199
-310.924	329.784	-0.103	0.196
-309.910	-90.328	0.039	0.011
-308.895	-124.027	0.136	-0.021
-307.880	-200.000	-0.006	-0.149
-306.866	450.638	-0.120	-0.263
-305.851	-77.164	0.137	-0.047
-304.837	-74.674	-0.124	0.044
-303.822	508.070	-0.090	-0.209
-302.807	800.000	0.065	-0.239
-301.793	-200.000	-0.016	-0.270
-300.778	10.055	0.292	-0.221
-299.764	41.790	0.141	0.127
-298.749	-200.000	-0.001	-0.194
-297.735	756.205	0.041	0.110
-296.720	800.000	0.042	0.147
-295.705	47.272	-0.147	0.136
-294.691	-10.698	-0.265	-0.174
-293.676	193.012	0.206	0.309
-292.662	62.675	0.104	0.104
-291.647	502.282	-0.098	0.226
-290.632	177.717	0.110	-0.159
-289.618	247.057	-0.130	0.218
-288.603	-75.372	-0.205	-0.073
-287.589	-92.208	-0.223	0.063
-286.574	800.000	0.102	-0.305
-285.559	-24.108	0.251	-0.149
-284.545	-200.000	-0.015	-0.155
-283.530	200.716	-0.260	-0.397
-282.516	447.277	0.069	0.150
-281.501	207.803	-0.175	-0.271
-280.486	189.783	0.056	-0.084
-279.472	106.237	-0.097	-0.115
-278.457	177.510	0.158	-0.229
-277.443	-122.492	0.264	0.043
-276.428	386.214	-0.062	-0.126
-275.413	56.141	-0.129	-0.125
-274.399	-2.414	-0.194	0.135
-273.384	297.764	0.044	-0.081
-272.370	138.827	0.116	-0.152
-271.355	239.344	0.179	0.296
-270.340	74.832	0.232	0.243
-269.326	-200.000	0.007	-0.151
-268.311	20.979	0.047	-0.038
-267.297	-133.015	0.144	-0.018
-266.282	782.612	0.173	0.471
-265.267	-200.000	-0.015	0.188
-264.253	69.837	0.118	-0.121
-263.238	-174.903	0.302	0.008
-262.224	73.995	-0.138	-0.143
-261.209	800.000	-0.050	0.141
-260.195	800.000	0.050	0.155
-259.180	800.000	-0.054	0.231
-258.165	29.118	0.172	-0.145
-257.151	254.391	-0.168	0.286
-256.136	-26.266	-0.181	0.105
-255.122	374.870	-0.090	0.182
-254.107	-200.000	0.028	-0.156
-253.092	0.938	0.199	0.142
-252.078	-65.821	0.233	-0.092
-251.063	-119.740	0.500	-0.086
-250.049	246.017	-0.174	0.291
-249.034	102.955	0.046	-0.053
-248.019	50.834	0.295	-0.278
-247.005	296.240	0.240	0.436
-245.990	328.170	0.145	-0.276
-244.976	-0.508	-0.175	-0.123
-243.961	-200.000	-0.040	0.723
-242.946	-136.154	-0.276	-0.032
-241.932	-130.325	-0.104	-0.014
-240.917	-67.241	0.286	0.112
-239.903	-200.000	-0.001	0.110
-238.888	-200.000	0.022	-0.250
-237.873	-200.000	-0.018	-0.137
-236.859	47.428	0.014	-0.013
-235.844	-69.494	-0.331	-0.126
-234.830	125.752	0.089	-0.112
-233.815	-139.598	0.372	0.039
-232.800	48.618	0.112	-0.104
-231.786	160.508	0.216	-0.299
-230.771	-13.003	-0.309	0.200
-229.757	-11.224	-0.146	0.095
-228.742	-200.000	-0.022	0.117
-227.727	-200.000	-0.026	0.121
-226.713	-36.311	0.082	0.044
-225.698	-40.259	0.306	0.158
-224.684	-200.000	-0.029	0.138
-223.669	800.000	-0.096	-0.403
-222.655	555.545	-0.081	0.194
-221.640	-200.000	-0.020	0.271
-220.625	800.000	0.037	0.128
-219.611	39.045	0.297	0.263
-218.596	-42.209	-0.204	0.104
-217.582	800.000	0.038	-0.140
-216.567	-72.083	-0.166	0.061
-215.552	107.475	-0.068	0.081
-214.538	-200.000	0.004	0.262
-213.523	-102.285	0.074	0.018
-212.509	140.987	-0.198	-0.259
-211.494	-200.000	-0.018	-0.135
-210.479	-200.000	0.044	0.255
-209.465	800.000	0.094	0.271
-208.450	78.312	-0.107	0.113
-207.436	167.566	-0.167	0.236
-206.421	-101.548	0.381	-0.092
-205.406	-88.091	-0.260	-0.077
-204.392	-6.448	-0.352	0.238
-203.377	800.000	0.100	-0.322
-202.363	186.610	-0.055	-0.081
-201.348	-35.519	-0.185	-0.100
-200.333	-141.657	0.072	-0.007
-199.319	158.646	-0.136	-0.187
-198.304	3.531	0.136	-0.098
-197.290	34.234	0.109	0.094
-196.275	800.000	-0.033	0.115
-195.260	141.853	0.028	0.037
-194.246	-125.961	0.167	0.025
-193.231	-90.745	0.150	0.043
-192.217	-105.070	0.158	0.036
-191.202	800.000	-0.039	-0.146
-190.187	-142.236	0.108	-0.011
-189.173	-70.958	0.120	0.045
-188.158	-76.793	0.130	0.045
-187.144	800.000	-0.092	-0.280
-186.129	-97.968	-0.186	0.047
-185.114	-64.947	-0.179	0.071
-184.100	-132.616	0.174	-0.022
-183.085	-66.579	-0.184	-0.072
-182.071	-200.000	0.021	0.477
-181.056	318.910	0.051	-0.095
-180.042	344.710	-0.078	0.152
-179.027	-106.938	-0.204	-0.045
-178.012	38.816	0.379	-0.335
-176.998	342.124	-0.064	-0.125
-175.983	224.470	0.130	0.209
-174.969	-23.528	-0.185	-0.110
-173.954	-91.197	0.313	-0.089
-172.939	473.668	-0.085	0.190
-171.925	-13.346	0.215	-0.138
-170.910	-119.958	-0.123	0.021
-169.896	-200.000	0.042	0.186
-168.881	210.855	-0.122	0.189
-167.866	87.491	0.303	0.332
-166.852	-79.559	0.365	0.122
-165.837	246.681	-0.090	-0.150
-164.823	-13.382	-0.126	0.081
-163.808	304.103	0.181	0.332
-162.793	568.721	0.092	-0.221
-161.779	-28.184	-0.311	0.178
-160.764	93.460	-0.239	0.267
-159.750	30.734	0.211	0.178
-158.735	-40.902	-0.222	0.114
-157.720	-114.881	0.273	-0.051
-156.706	-106.370	0.202	-0.045
-155.691	-147.859	0.128	-0.011
-154.677	617.949	0.047	-0.116
-153.662	-86.013	0.164	0.050
-152.647	60.504	-0.108	-0.105
-151.633	-90.354	-0.569	0.163
-150.618	-153.722	0.012	-0.001
-149.604	800.000	0.093	-0.376
-148.589	-82.517	-0.220	0.071
-147.574	-96.527	-0.122	-0.032
-146.560	-129.310	0.220	0.030
-145.545	13.532	-0.050	0.038
-144.531	328.967	-0.165	0.313
-143.516	-14.049	0.090	0.058
-142.502	154.264	-0.150	-0.203
-141.487	106.332	-0.181	-0.212
-140.472	-104.870	0.167	-0.038
-139.458	-100.104	0.505	-0.124
-138.443	-10.012	-0.207	0.136
-137.429	310.540	-0.048	-0.089
-136.414	-105.524	0.204	-0.046
-135.399	198.299	-0.045	-0.067
-134.385	-159.559	0.436	0.024
-133.370	-40.359	-0.009	-0.005
-132.356	800.000	0.073	-0.232
-131.341	-25.257	-0.142	0.083
-130.326	20.218	-0.055	-0.044
-129.312	342.420	-0.108	-0.209
-128.297	-9.753	0.193	0.127
-127.283	-200.000	0.025	0.253
-126.268	615.895	-0.064	0.158
-125.253	113.828	0.031	0.038
-124.239	205.509	0.164	0.252
-123.224	800.000	-0.067	0.252
-122.210	-128.588	0.054	-0.008
