DTS Sentinel unit serial number:	SN413079Multiplexer serial number:	ORYXHardware model number:	OX4-SRSoftware version number:	ORYX F/W v4.00 Oryx Data Collector v3.7.2.0data status	okinstallation	princeton_trtdifferential loss correction	single-endedforward channel	channel 3reverse channel	N/Adate	2019/09/11time	08:54:11forward acquisition time	60.00reverse acquisition time	0.00gamma	496.2192k internal	0.2309k external	0.2309temperature offset calibration	0.9940default loss term (dB/km)	0.3790temperature slope calibration	1.0000multiplexer offset coefficient	1.0000multiplexer slope coefficient	1.0000fibre end	0.00T internal ref (°C)	33.94T ext. ref 1 (°C)	0.08T ext. ref 2 (°C)	30.78length (m)	temperature (°C)	Stokes	anti-Stokes-747.200	-103.056	-0.178	0.043
-746.185	-20.245	-0.151	-0.094
-745.171	-200.000	-0.001	-0.049
-744.156	-200.000	-0.007	0.307
-743.142	-119.258	0.337	0.060
-742.127	-200.000	0.014	0.187
-741.112	607.450	0.143	0.361
-740.098	706.543	-0.085	0.229
-739.083	153.943	-0.077	0.107
-738.069	694.857	-0.105	0.281
-737.054	-73.203	-0.226	0.084
-736.039	-47.384	-0.210	-0.104
-735.025	-88.330	0.354	-0.108
-734.010	-98.472	-0.206	-0.054
-732.996	37.948	-0.173	-0.157
-731.981	-18.757	0.040	-0.025
-730.966	375.489	-0.074	-0.153
-729.952	-135.228	0.157	-0.019
-728.937	129.495	-0.077	-0.100
-727.923	-27.466	-0.126	-0.074
-726.908	-155.627	0.244	0.016
-725.894	-200.000	-0.080	0.378
-724.879	-22.751	-0.189	-0.116
-723.864	358.569	-0.087	0.177
-722.850	127.663	0.065	-0.084
-721.835	-171.417	-0.083	0.003
-720.821	19.179	0.122	-0.100
-719.806	47.631	-0.262	-0.248
-718.791	-44.337	0.172	0.087
-717.777	-52.980	0.117	0.055
-716.762	-66.522	0.190	-0.076
-715.748	321.181	-0.115	-0.221
-714.733	21.687	-0.184	0.152
-713.718	-154.891	-0.175	-0.012
-712.704	531.412	0.131	0.315
-711.689	607.371	-0.095	0.240
-710.675	165.457	-0.366	-0.525
-709.660	800.000	-0.117	-0.448
-708.645	-200.000	0.006	-0.180
-707.631	-166.177	-0.180	0.008
-706.616	-133.746	-0.208	-0.026
-705.602	-200.000	0.024	-0.408
-704.587	800.000	-0.115	-0.371
-703.572	5.382	0.121	-0.091
-702.558	-89.405	-0.294	-0.088
-701.543	136.816	-0.122	0.162
-700.529	-115.248	-0.235	0.045
-699.514	61.514	-0.222	0.224
-698.499	-128.877	-0.235	0.034
-697.485	-136.499	0.114	-0.013
-696.470	139.748	0.389	-0.519
-695.456	800.000	0.074	-0.224
-694.441	338.404	0.215	-0.424
-693.426	389.325	0.240	-0.505
-692.412	48.278	0.155	-0.147
-691.397	83.353	-0.153	0.168
-690.383	-10.380	0.198	-0.133
-689.368	-200.000	-0.018	-0.129
-688.354	561.231	-0.070	0.171
-687.339	-200.000	0.013	-0.082
-686.324	-200.000	0.302	0.001
-685.310	-194.255	0.217	-0.002
-684.295	-195.251	-0.254	0.002
-683.281	-200.000	-0.014	0.077
-682.266	68.028	0.142	-0.147
-681.251	-200.000	0.000	-0.178
-680.237	-200.000	-0.013	-0.165
-679.222	-200.000	0.001	0.244
-678.208	-58.093	0.167	0.074
-677.193	-50.463	0.140	-0.067
-676.178	198.927	0.165	0.257
-675.164	-200.000	0.015	0.102
-674.149	-106.098	-0.130	-0.030
-673.135	159.958	0.181	-0.256
-672.120	-67.437	-0.163	-0.065
-671.105	160.434	-0.220	-0.311
-670.091	291.859	0.147	-0.271
-669.076	800.000	-0.216	-0.659
-668.062	800.000	-0.049	-0.169
-667.047	-150.992	-0.286	0.022
-666.032	-112.237	-0.183	0.037
-665.018	192.894	-0.117	0.179
-664.003	-104.720	0.010	-0.002
-662.989	98.843	-0.071	-0.083
-661.974	-86.581	0.166	0.051
-660.959	44.809	-0.159	0.148
-659.945	9.590	-0.424	-0.325
-658.930	397.444	-0.069	-0.146
-657.916	305.166	0.129	-0.242
-656.901	253.824	0.075	-0.130
-655.886	-200.000	-0.037	-0.246
-654.872	470.363	-0.136	-0.311
-653.857	692.175	0.076	0.203
-652.843	800.000	0.032	0.135
-651.828	-34.933	-0.096	0.053
-650.814	158.201	0.042	0.059
-649.799	6.439	0.150	-0.113
-648.784	-134.272	0.248	-0.031
-647.770	800.000	0.019	0.067
-646.755	459.831	0.037	-0.084
-645.741	800.000	-0.091	0.350
-644.726	159.884	0.010	0.015
-643.711	-200.000	0.001	0.053
-642.697	203.874	-0.016	-0.026
-641.682	800.000	0.155	-0.436
-640.668	690.016	0.116	-0.306
-639.653	-200.000	-0.029	-0.283
-638.638	245.448	0.124	-0.210
-637.624	-44.556	0.290	0.147
-636.609	-2.213	-0.078	-0.056
-635.595	153.600	0.043	-0.060
-634.580	278.717	-0.046	0.083
-633.565	-200.000	0.006	0.165
-632.551	-4.064	-0.320	0.225
-631.536	-110.215	-0.220	-0.046
-630.522	-95.118	-0.248	0.068
-629.507	-123.755	-0.069	-0.011
-628.492	-200.000	0.112	-0.558
-627.478	124.737	0.077	0.099
-626.463	4.777	-0.238	0.177
-625.449	800.000	-0.065	0.228
-624.434	142.462	-0.068	0.091
-623.419	779.201	-0.043	0.118
-622.405	159.235	-0.143	-0.202
-621.390	-93.221	0.190	-0.053
-620.376	-0.077	-0.106	0.077
-619.361	-35.327	-0.148	-0.082
-618.346	-200.000	-0.004	-0.173
-617.332	-200.000	0.026	-0.268
-616.317	-110.788	-0.197	0.041
-615.303	0.735	0.303	-0.219
-614.288	21.577	-0.068	-0.056
-613.273	-19.994	-0.096	-0.060
-612.259	-54.447	-0.254	-0.116
-611.244	-175.661	-0.327	-0.009
-610.230	-129.574	-0.132	-0.018
-609.215	-83.864	0.184	-0.059
-608.201	335.264	0.124	0.243
-607.186	-200.000	-0.090	0.602
-606.171	-87.000	-0.105	0.032
-605.157	-96.637	0.107	0.028
-604.142	-162.578	0.188	-0.009
-603.128	-59.048	0.091	-0.040
-602.113	-102.678	-0.295	0.071
-601.098	14.395	0.181	0.142
-600.084	30.076	0.185	0.159
-599.069	800.000	0.045	-0.190
-598.055	193.273	-0.190	0.291
-597.040	-39.271	0.185	-0.098
-596.025	-200.000	0.041	0.334
-595.011	-170.937	0.310	-0.011
-593.996	316.140	0.152	0.289
-592.982	122.497	-0.097	0.123
-591.967	-200.000	0.015	0.184
-590.952	295.828	0.015	-0.028
-589.938	249.902	-0.098	0.168
-588.923	102.498	-0.103	0.122
-587.909	-4.180	-0.141	-0.098
-586.894	760.319	-0.102	-0.279
-585.879	-26.006	-0.376	-0.223
-584.865	-19.500	-0.280	-0.175
-583.850	-75.823	-0.308	0.110
-582.836	-200.000	0.003	-0.201
-581.821	44.015	-0.332	0.307
-580.806	129.734	0.134	0.172
-579.792	4.678	0.274	0.203
-578.777	-200.000	-0.029	0.351
-577.763	-51.770	-0.209	0.098
-576.748	45.061	-0.117	0.109
-575.733	467.892	-0.115	0.261
-574.719	-77.095	-0.338	0.119
-573.704	-106.561	-0.159	-0.036
-572.690	135.688	0.119	-0.156
-571.675	42.869	-0.064	-0.059
-570.661	51.783	-0.069	0.066
-569.646	800.000	-0.112	0.362
-568.631	589.373	0.078	-0.194
-567.617	-91.681	-0.107	-0.031
-566.602	-75.060	-0.165	0.060
-565.588	404.567	-0.093	0.197
-564.573	-200.000	0.035	0.205
-563.558	-165.653	0.265	0.012
-562.544	285.740	0.071	-0.128
-561.529	-21.810	0.187	0.115
-560.515	44.328	0.061	-0.057
-559.500	304.194	-0.023	-0.042
-558.485	247.205	-0.106	-0.180
-557.471	-200.000	-0.045	-0.206
-556.456	-28.735	0.060	-0.035
-555.442	511.579	0.101	0.236
-554.427	-163.609	-0.393	0.019
-553.412	-58.108	0.053	-0.023
-552.398	315.542	-0.101	0.193
-551.383	800.000	-0.083	0.310
-550.369	162.777	-0.083	-0.117
-549.354	-45.909	-0.325	-0.162
-548.339	-23.446	-0.316	0.191
-547.325	-200.000	0.039	0.304
-546.310	-53.697	0.095	-0.044
-545.296	318.746	0.141	-0.269
-544.281	-27.042	-0.261	-0.153
-543.266	-22.084	-0.057	-0.035
-542.252	-45.505	-0.275	0.137
-541.237	-200.000	-0.504	0.000
-540.223	201.121	-0.088	-0.137
-539.208	213.006	0.225	-0.358
-538.193	-200.000	0.023	0.109
-537.179	-0.750	0.400	-0.286
-536.164	-64.939	0.214	-0.087
-535.150	-200.000	-0.027	-0.259
-534.135	-200.000	-0.037	-0.175
-533.121	50.324	0.168	-0.160
-532.106	17.896	-0.107	-0.086
-531.091	-140.688	0.279	0.029
-530.077	282.746	-0.014	-0.025
-529.062	-90.957	0.226	-0.066
-528.048	438.831	0.081	0.178
-527.033	102.038	0.206	-0.242
-526.018	-17.452	0.070	-0.044
-525.004	-200.000	-0.030	-0.270
-523.989	302.300	0.087	-0.162
-522.975	-4.304	0.185	-0.129
-521.960	-200.000	0.007	0.054
-520.945	-58.035	-0.293	-0.129
-519.931	-200.000	-0.007	-0.210
-518.916	-200.000	0.029	0.306
-517.902	-200.000	0.018	-0.105
-516.887	48.557	0.124	-0.117
-515.872	-200.000	0.078	0.361
-514.858	800.000	0.067	-0.229
-513.843	3.481	-0.083	-0.061
-512.829	-200.000	-0.018	0.210
-511.814	-43.799	-0.135	0.069
-510.799	465.625	0.148	-0.334
-509.785	234.025	-0.083	-0.138
-508.770	-78.441	0.127	0.044
-507.756	-200.000	-0.016	0.119
-506.741	-19.737	0.137	0.085
-505.726	-69.503	-0.107	0.041
-504.712	-71.919	-0.125	-0.047
-503.697	18.863	-0.127	0.102
-502.683	-76.880	-0.198	-0.070
-501.668	65.731	-0.291	-0.297
-500.653	56.876	-0.096	-0.094
-499.639	-200.000	-0.079	0.386
-498.624	202.552	-0.158	-0.245
-497.610	332.629	0.179	0.347
-496.595	-200.000	-0.037	0.205
-495.581	-88.586	-0.052	0.016
-494.566	150.301	-0.090	-0.123
-493.551	-200.000	0.028	0.296
-492.537	361.720	0.040	-0.080
-491.522	-200.000	0.000	0.106
-490.508	-72.230	0.425	0.158
-489.493	27.546	-0.339	0.287
-488.478	123.637	0.088	-0.111
-487.464	-200.000	-0.001	0.103
-486.449	47.895	-0.112	0.106
-485.435	-200.000	0.011	-0.099
-484.420	109.653	0.142	0.171
-483.405	-27.320	-0.167	-0.098
-482.391	-12.850	-0.104	0.068
-481.376	-67.495	-0.274	-0.108
-480.362	800.000	-0.052	0.192
-479.347	-200.000	-0.074	-0.363
-478.332	800.000	-0.120	0.362
-477.318	-7.630	0.056	-0.038
-476.303	69.304	0.185	0.191
-475.289	82.504	-0.217	-0.237
-474.274	390.137	0.170	-0.354
-473.259	44.262	0.241	-0.222
-472.245	-58.839	0.176	-0.076
-471.230	-148.925	-0.126	-0.010
-470.216	-168.777	0.200	0.008
-469.201	-40.064	-0.244	-0.128
-468.186	449.370	0.178	-0.394
-467.172	11.245	0.144	-0.111
-466.157	-56.278	-0.221	-0.099
-465.143	172.805	-0.193	-0.280
-464.128	213.386	-0.220	-0.350
-463.113	-5.248	0.203	-0.141
-462.099	402.846	-0.045	0.095
-461.084	-54.693	-0.226	-0.103
-460.070	301.297	-0.018	-0.034
-459.055	-38.102	0.313	-0.167
-458.040	16.271	0.106	-0.084
-457.026	-200.000	-0.000	-0.094
-456.011	-200.000	0.078	0.370
-454.997	-113.525	-0.228	0.045
-453.982	26.719	0.073	-0.062
-452.968	53.802	-0.023	0.022
-451.953	-114.795	-0.304	0.058
-450.938	361.713	-0.128	0.258
-449.924	-200.000	0.027	0.153
-448.909	27.894	0.277	0.235
-447.895	34.687	0.355	-0.312
-446.880	511.640	-0.081	-0.190
-445.865	-1.115	0.041	0.029
-444.851	232.510	-0.052	-0.085
-443.836	-110.736	-0.327	0.068
-442.822	48.913	0.210	0.198
-441.807	-200.000	0.101	-0.451
-440.792	-12.354	-0.127	-0.083
-439.778	-65.301	-0.200	-0.081
-438.763	112.278	0.038	-0.046
-437.749	-96.649	0.386	-0.102
-436.734	-59.137	-0.234	0.101
-435.719	246.956	-0.290	0.491
-434.705	-111.327	-0.077	0.016
-433.690	-200.000	0.041	0.000
-432.676	800.000	-0.086	0.286
-431.661	-200.000	-0.025	0.184
-430.646	-62.588	0.129	-0.054
-429.632	-108.608	-0.116	-0.025
-428.617	-135.144	0.259	0.031
-427.603	279.193	-0.118	-0.211
-426.588	26.136	0.215	-0.180
-425.573	-200.000	-0.005	-0.229
-424.559	-142.409	0.256	-0.025
-423.544	-200.000	-0.011	-0.054
-422.530	-200.000	-0.055	-0.452
-421.515	217.777	0.038	-0.060
-420.500	-128.782	-0.106	-0.015
-419.486	277.041	0.107	0.190
-418.471	-129.801	0.165	0.023
-417.457	-33.234	0.153	0.085
-416.442	9.086	0.270	-0.204
-415.428	216.271	0.125	0.200
-414.413	-125.682	0.200	-0.030
-413.398	-24.368	-0.180	0.108
-412.384	-200.000	-0.001	-0.176
-411.369	-19.772	0.111	-0.069
-410.355	800.000	0.053	0.205
-409.340	-67.320	0.408	0.161
-408.325	-87.687	-0.057	0.017
-407.311	-40.404	0.201	-0.105
-406.296	304.546	-0.226	-0.421
-405.282	-66.652	-0.071	-0.028
-404.267	-116.143	0.040	0.007
-403.252	-200.000	-0.015	-0.109
-402.238	-200.000	0.158	-0.000
-401.223	198.082	0.137	-0.209
-400.209	-69.452	-0.254	-0.098
-399.194	4.413	-0.156	0.115
-398.179	-166.283	0.316	0.013
-397.165	800.000	0.064	0.254
-396.150	800.000	0.022	0.089
-395.136	236.759	-0.094	-0.156
-394.121	-98.411	0.137	-0.035
-393.106	310.119	-0.272	0.511
-392.092	-60.042	0.279	-0.120
-391.077	14.881	0.169	0.132
-390.063	88.889	0.218	0.243
-389.048	148.630	-0.150	-0.204
-388.033	266.564	0.026	0.045
-387.019	-186.661	-0.263	-0.004
-386.004	-15.797	-0.070	0.044
-384.990	234.276	0.059	-0.097
-383.975	-200.000	-0.027	-0.152
-382.960	42.286	0.167	-0.152
-381.946	800.000	0.043	-0.184
-380.931	-200.000	0.014	0.167
-379.917	-30.711	-0.214	-0.121
-378.902	-49.892	0.100	0.048
-377.888	-5.385	-0.176	0.121
-376.873	640.961	-0.046	-0.118
-375.858	-110.506	-0.253	0.052
-374.844	33.202	-0.194	0.169
-373.829	122.602	0.107	-0.134
-372.815	539.545	0.055	0.131
-371.800	410.456	-0.103	0.218
-370.785	-52.509	0.274	0.127
-369.771	-200.000	-0.005	-0.183
-368.756	800.000	-0.017	0.061
-367.742	-110.901	-0.185	-0.038
-366.727	36.308	-0.107	0.095
-365.712	-155.372	0.577	0.037
-364.698	800.000	-0.062	0.218
-363.683	238.242	0.040	-0.066
-362.669	-62.690	-0.249	-0.103
-361.654	163.090	0.095	0.134
-360.639	-164.264	0.171	0.008
-359.625	652.808	-0.199	-0.511
-358.610	-4.170	0.341	0.236
-357.596	121.600	-0.117	0.146
-356.581	800.000	0.013	-0.051
-355.566	353.626	-0.130	0.258
-354.552	79.909	0.081	-0.087
-353.537	6.151	0.152	-0.113
-352.523	-23.727	-0.082	-0.049
-351.508	71.024	0.168	0.174
-350.493	43.065	0.048	0.044
-349.479	721.928	-0.083	0.220
-348.464	176.020	0.091	0.132
-347.450	-200.000	-0.019	0.180
-346.435	-200.000	-0.031	-0.150
-345.420	349.391	0.084	-0.165
-344.406	77.804	0.212	0.226
-343.391	-200.000	0.036	-0.324
-342.377	278.198	-0.063	-0.112
-341.362	-61.748	-0.256	0.107
-340.348	-63.526	-0.250	-0.103
-339.333	800.000	-0.158	-0.442
-338.318	-200.000	-0.033	0.372
-337.304	-107.163	0.412	0.091
-336.289	-200.000	0.019	-0.111
-335.275	-29.169	-0.152	0.087
-334.260	-142.064	-0.142	-0.014
-333.245	538.467	0.089	-0.212
-332.231	88.007	0.145	-0.160
-331.216	800.000	-0.053	0.146
-330.202	-3.575	-0.239	0.166
-329.187	-200.000	0.021	0.196
-328.172	-200.000	0.030	0.233
-327.158	113.432	-0.166	-0.202
-326.143	308.686	0.124	0.231
-325.129	-200.000	0.005	0.117
-324.114	-63.878	0.169	0.069
-323.099	124.733	0.051	-0.065
-322.085	-150.774	-0.139	-0.011
-321.070	6.325	0.203	0.150
-320.056	555.383	0.063	0.151
-319.041	142.722	0.174	0.231
-318.026	-115.687	0.386	0.072
-317.012	-25.270	-0.173	0.102
-315.997	-200.000	0.012	0.345
-314.983	-73.491	0.270	-0.098
-313.968	6.771	0.106	-0.079
-312.953	7.609	-0.078	0.058
-311.939	-6.094	-0.237	-0.162
-310.924	187.277	-0.139	-0.208
-309.910	95.221	-0.048	-0.054
-308.895	-200.000	0.027	0.208
-307.880	-45.991	0.161	0.079
-306.866	-50.599	0.219	-0.103
-305.851	541.933	0.053	-0.127
-304.837	28.571	0.164	0.139
-303.822	-74.431	-0.168	0.060
-302.807	-36.051	-0.155	-0.083
-301.793	-200.000	0.025	0.125
-300.778	-200.000	0.003	-0.039
-299.764	-42.145	0.258	0.132
-298.749	-200.000	-0.055	0.325
-297.735	-23.008	-0.223	-0.134
-296.720	187.122	0.092	0.137
-295.705	-158.687	-0.386	0.022
-294.691	77.881	0.057	0.060
-293.676	11.857	-0.008	0.006
-292.662	-121.929	-0.163	0.027
-291.647	297.605	-0.064	0.117
-290.632	-112.345	-0.251	-0.050
-289.618	800.000	0.027	-0.102
-288.603	-200.000	-0.036	0.352
-287.589	-141.770	-0.122	0.012
-286.574	-129.309	-0.331	-0.046
-285.559	-123.577	0.114	-0.018
-284.545	-52.718	-0.023	0.011
-283.530	47.832	0.179	0.167
-282.516	-200.000	0.029	0.379
-281.501	186.813	-0.089	-0.132
-280.486	800.000	-0.042	-0.130
-279.472	-200.000	0.004	0.024
-278.457	135.536	-0.143	-0.185
-277.443	-118.809	0.201	0.035
-276.428	567.174	0.104	-0.252
-275.413	-86.173	-0.278	-0.086
-274.399	-31.782	-0.257	0.144
-273.384	-200.000	0.022	0.131
-272.370	800.000	0.091	0.269
-271.355	-81.075	-0.367	0.121
-270.340	-69.967	-0.221	0.084
-269.326	-51.401	0.194	-0.090
-268.311	237.578	-0.059	-0.097
-267.297	-102.540	0.227	-0.054
-266.282	-200.000	0.013	-0.081
-265.267	10.914	-0.237	-0.180
-264.253	-18.188	-0.207	-0.129
-263.238	24.950	0.239	0.198
-262.224	85.926	0.163	0.179
-261.209	-46.146	-0.347	-0.170
-260.195	800.000	-0.010	0.037
-259.180	179.982	-0.140	0.205
-258.165	592.194	-0.045	-0.111
-257.151	800.000	-0.136	-0.561
-256.136	-44.623	0.166	-0.083
-255.122	40.897	-0.307	0.276
-254.107	207.345	-0.196	0.305
-253.092	-163.658	-0.152	0.007
-252.078	1.697	0.257	0.185
-251.063	181.220	-0.204	-0.299
-250.049	-200.000	-0.059	-0.321
-249.034	213.623	0.074	0.117
-248.019	800.000	-0.035	-0.117
-247.005	-58.663	0.070	-0.030
-245.990	-48.732	0.451	0.216
-244.976	-108.108	0.294	0.064
-243.961	800.000	0.079	-0.337
-242.946	-142.817	0.241	0.023
-241.932	-30.054	-0.208	-0.118
-240.917	21.403	0.290	-0.235
-239.903	-88.211	0.100	0.030
-238.888	-162.119	-0.205	-0.010
-237.873	34.380	-0.053	-0.046
-236.859	-161.613	-0.058	-0.003
-235.844	800.000	0.052	0.143
-234.830	-99.132	0.587	-0.148
-233.815	-146.585	0.331	-0.029
-232.800	186.164	-0.132	-0.195
-231.786	93.455	0.030	0.034
-230.771	-21.781	0.111	0.067
-229.757	92.618	0.206	0.232
-228.742	-41.109	-0.016	0.008
-227.727	102.016	0.032	0.037
-226.713	800.000	0.015	-0.065
-225.698	388.715	0.070	-0.145
-224.684	65.705	-0.213	-0.215
-223.669	-200.000	-0.009	0.528
-222.655	-83.521	0.064	-0.020
-221.640	-42.377	0.098	-0.050
-220.625	800.000	-0.031	-0.102
-219.611	496.041	-0.161	0.369
-218.596	215.436	-0.229	0.361
-217.582	748.356	0.020	-0.055
-216.567	52.810	-0.165	-0.157
-215.552	164.430	0.114	-0.161
-214.538	-112.390	0.137	0.027
-213.523	800.000	0.015	0.051
-212.509	-197.124	0.280	-0.002
-211.494	-118.842	0.379	-0.066
-210.479	-63.074	-0.278	-0.114
-209.465	125.241	-0.072	0.090
-208.450	-200.000	0.030	0.229
-207.436	800.000	-0.043	-0.140
-206.421	-120.457	0.204	0.034
-205.406	-73.294	0.090	0.033
-204.392	-19.543	-0.290	-0.178
-203.377	-200.000	-0.014	-0.064
-202.363	59.632	0.174	-0.171
-201.348	-200.000	0.013	0.428
-200.333	133.275	0.111	0.143
-199.319	-200.000	-0.035	-0.154
-198.304	-44.625	0.236	-0.117
-197.290	-200.000	0.066	-0.374
-196.275	40.076	-0.177	0.158
-195.260	-7.212	0.143	-0.096
-194.246	38.309	0.370	0.328
-193.231	156.640	-0.123	-0.169
-192.217	-200.000	0.018	0.116
-191.202	-78.763	-0.022	0.007
-190.187	-108.267	-0.103	-0.022
-189.173	14.280	0.265	0.205
-188.158	274.104	-0.222	-0.390
-187.144	-77.305	0.038	0.013
-186.129	800.000	0.036	-0.130
-185.114	239.688	-0.056	0.093
-184.100	-117.813	0.439	-0.078
-183.085	-171.988	-0.350	0.011
-182.071	57.580	0.006	-0.006
-181.056	-29.903	0.256	0.145
-180.042	63.955	-0.134	-0.134
-179.027	-145.573	0.057	-0.005
-178.012	150.809	0.172	-0.232
-176.998	101.803	-0.121	0.140
-175.983	214.505	0.085	-0.134
-174.969	-129.945	-0.200	0.027
-173.954	611.085	0.073	0.181
-172.939	304.391	0.070	-0.130
-171.925	-200.000	0.022	-0.280
-170.910	97.243	-0.073	0.083
-169.896	-126.317	-0.084	-0.012
-168.881	-189.648	0.208	-0.002
-167.866	-78.746	-0.291	0.098
-166.852	-73.075	0.423	-0.154
-165.837	-102.714	0.267	0.063
-164.823	409.218	0.134	0.282
-163.808	-108.845	0.278	0.059
-162.793	-71.605	-0.178	-0.066
-161.779	114.970	0.050	0.061
-160.764	800.000	-0.012	0.045
-159.750	800.000	-0.199	-0.553
-158.735	-74.701	0.108	-0.038
-157.720	-139.957	0.123	-0.013
-156.706	800.000	-0.074	0.281
-155.691	-200.000	-0.004	-0.094
-154.677	-129.963	-0.235	0.032
-153.662	-200.000	-0.039	0.254
-152.647	800.000	0.106	-0.370
-151.633	800.000	-0.045	-0.162
-150.618	402.284	0.110	-0.230
-149.604	27.395	0.238	0.198
-148.589	-105.818	0.197	-0.044
-147.574	-200.000	0.063	0.301
-146.560	-38.019	-0.136	-0.072
-145.545	273.467	-0.067	-0.117
-144.531	-200.000	0.005	-0.286
-143.516	-108.057	0.320	-0.069
-142.502	800.000	-0.040	-0.132
-141.487	-64.939	-0.116	0.046
-140.472	-42.721	-0.342	-0.173
-139.458	-133.257	0.089	-0.011
-138.443	-145.330	0.095	0.008
-137.429	-112.700	0.294	-0.058
-136.414	60.398	-0.111	-0.109
-135.399	-35.973	0.124	-0.067
-134.385	-75.812	-0.180	-0.063
-133.370	-135.259	0.366	-0.044
-132.356	-200.000	0.018	0.161
-131.341	800.000	0.051	0.180
-130.326	276.904	-0.155	-0.273
-129.312	-200.000	-0.025	-0.272
-128.297	-55.952	0.230	-0.102
-127.283	99.063	0.156	0.179
-126.268	227.024	0.125	0.201
-125.253	-200.000	0.016	-0.183
-124.239	-200.000	-0.083	-0.453
-123.224	-129.830	-0.119	0.016
-122.210	-19.408	-0.153	-0.094
