DTS Sentinel unit serial number:	SN413079Multiplexer serial number:	ORYXHardware model number:	OX4-SRSoftware version number:	ORYX F/W v4.00 Oryx Data Collector v3.7.2.0data status	okinstallation	princeton_trtdifferential loss correction	single-endedforward channel	channel 3reverse channel	N/Adate	2019/09/11time	03:26:11forward acquisition time	60.00reverse acquisition time	0.00gamma	496.2192k internal	0.2331k external	0.2331temperature offset calibration	0.9911default loss term (dB/km)	0.3790temperature slope calibration	1.0000multiplexer offset coefficient	1.0000multiplexer slope coefficient	1.0000fibre end	0.00T internal ref (°C)	29.44T ext. ref 1 (°C)	-0.29T ext. ref 2 (°C)	24.22length (m)	temperature (°C)	Stokes	anti-Stokes-747.200	-153.250	-0.269	-0.019
-746.185	-52.750	-0.152	-0.070
-745.171	196.625	0.068	-0.105
-744.156	-200.000	0.013	0.179
-743.142	305.065	0.180	0.336
-742.127	800.000	-0.117	0.385
-741.112	-200.000	-0.034	-0.268
-740.098	2.336	-0.208	0.151
-739.083	-35.042	0.336	-0.185
-738.069	452.824	-0.098	0.219
-737.054	-146.155	0.051	0.004
-736.039	-200.000	-0.034	-0.364
-735.025	254.016	-0.123	0.211
-734.010	800.000	-0.015	-0.045
-732.996	-49.461	-0.144	0.069
-731.981	-97.358	-0.259	-0.068
-730.966	-62.166	-0.179	-0.075
-729.952	-120.931	-0.292	0.049
-728.937	-40.995	-0.311	0.162
-727.923	-200.000	-0.002	-0.158
-726.908	-151.188	-0.223	0.017
-725.894	467.406	0.063	-0.142
-724.879	800.000	0.064	-0.209
-723.864	66.110	-0.238	-0.243
-722.850	591.546	0.073	0.182
-721.835	28.375	-0.269	0.228
-720.821	466.142	-0.135	0.304
-719.806	-200.000	-0.047	-0.253
-718.791	-90.368	-0.232	-0.068
-717.777	-167.108	-0.133	-0.005
-716.762	78.595	-0.230	0.248
-715.748	137.784	-0.178	0.234
-714.733	383.008	-0.060	-0.124
-713.718	-63.437	0.040	0.017
-712.704	-125.850	0.193	0.029
-711.689	-100.310	0.347	0.087
-710.675	108.576	0.053	-0.064
-709.660	-32.176	0.224	0.126
-708.645	-100.000	-0.137	-0.034
-707.631	800.000	-0.040	0.172
-706.616	800.000	-0.139	-0.420
-705.602	-200.000	0.055	-0.438
-704.587	-136.396	0.246	-0.029
-703.572	-136.585	-0.179	-0.021
-702.558	576.780	-0.042	0.104
-701.543	211.295	0.136	0.215
-700.529	-200.000	-0.067	0.305
-699.514	-200.000	0.010	0.074
-698.499	-15.377	-0.156	0.100
-697.485	268.528	-0.108	-0.189
-696.470	534.802	0.080	-0.191
-695.456	-120.405	-0.152	-0.026
-694.441	73.377	0.043	-0.045
-693.426	-121.767	-0.136	0.023
-692.412	800.000	0.042	0.180
-691.397	31.610	0.069	0.059
-690.383	-40.703	0.227	0.118
-689.368	383.583	-0.147	0.304
-688.354	175.005	-0.090	0.132
-687.339	-200.000	0.021	0.220
-686.324	139.576	0.029	0.038
-685.310	-200.000	0.057	-0.583
-684.295	-200.000	-0.042	-0.246
-683.281	-48.292	-0.090	-0.044
-682.266	-10.356	0.249	-0.165
-681.251	3.471	-0.117	-0.086
-680.237	-200.000	-0.004	0.080
-679.222	-63.075	-0.107	0.044
-678.208	-107.539	-0.272	-0.060
-677.193	40.361	0.294	0.265
-676.178	-138.624	-0.141	-0.016
-675.164	-48.231	-0.253	0.123
-674.149	-9.834	-0.018	0.012
-673.135	-22.945	-0.220	-0.133
-672.120	-92.830	-0.018	-0.005
-671.105	57.592	0.241	0.237
-670.091	107.589	0.092	-0.110
-669.076	-80.161	-0.166	-0.056
-668.062	800.000	0.038	0.161
-667.047	667.231	-0.081	-0.211
-666.032	-5.514	0.223	-0.154
-665.018	157.016	0.126	-0.175
-664.003	291.082	0.217	0.397
-662.989	-200.000	-0.059	-0.309
-661.974	42.060	0.155	0.141
-660.959	66.938	0.246	-0.251
-659.945	321.094	-0.113	-0.215
-658.930	-20.234	0.211	-0.130
-657.916	108.746	0.297	-0.356
-656.901	-200.000	0.018	-0.224
-655.886	-160.722	0.275	-0.015
-654.872	-200.000	-0.000	0.071
-653.857	800.000	0.106	-0.349
-652.843	-26.870	-0.277	-0.162
-651.828	-200.000	0.012	0.070
-650.814	800.000	-0.058	0.161
-649.799	-173.532	0.166	-0.005
-648.784	-1.872	0.485	-0.342
-647.770	-200.000	-0.000	-0.197
-646.755	32.009	-0.093	-0.080
-645.741	-65.895	-0.261	-0.105
-644.726	800.000	-0.039	0.142
-643.711	-50.988	0.110	-0.052
-642.697	53.205	-0.283	0.272
-641.682	-200.000	0.043	-0.364
-640.668	-200.000	-0.020	-0.299
-639.653	-145.166	-0.286	0.026
-638.638	-200.000	-0.003	0.166
-637.624	95.020	0.211	0.241
-636.609	-200.000	-0.017	-0.237
-635.595	-200.000	0.047	0.310
-634.580	-37.387	-0.449	-0.240
-633.565	257.919	0.138	0.238
-632.551	-135.705	-0.258	0.031
-631.536	-200.000	-0.013	0.325
-630.522	119.582	0.097	-0.120
-629.507	-166.004	0.276	-0.012
-628.492	-63.009	-0.228	-0.094
-627.478	-200.000	0.064	0.379
-626.463	-200.000	0.020	-0.109
-625.449	161.761	0.332	-0.466
-624.434	-77.903	-0.314	-0.109
-623.419	-68.228	-0.048	-0.019
-622.405	190.780	-0.121	-0.182
-621.390	-33.115	0.246	-0.137
-620.376	224.801	-0.110	-0.178
-619.361	-121.325	-0.196	-0.033
-618.346	134.040	0.172	0.223
-617.332	-15.276	0.221	-0.141
-616.317	147.113	0.382	0.514
-615.303	252.733	0.167	-0.285
-614.288	-200.000	-0.025	-0.432
-613.273	-4.261	-0.164	0.114
-612.259	79.451	0.114	-0.123
-611.244	26.746	0.075	-0.063
-610.230	-200.000	-0.009	-0.318
-609.215	-116.756	-0.039	-0.007
-608.201	-95.715	0.162	0.043
-607.186	59.423	-0.065	0.064
-606.171	800.000	-0.032	-0.123
-605.157	-153.727	0.305	0.021
-604.142	377.211	0.073	0.150
-603.128	-17.059	0.295	-0.186
-602.113	-69.330	0.202	0.078
-601.098	-90.783	0.304	0.088
-600.084	18.787	-0.077	0.062
-599.069	-136.232	-0.382	0.045
-598.055	304.306	0.118	-0.218
-597.040	655.884	-0.018	-0.045
-596.025	411.304	0.116	0.245
-595.011	197.867	-0.242	0.370
-593.996	67.159	0.104	-0.106
-592.982	-200.000	-0.003	-0.047
-591.967	796.002	-0.109	-0.299
-590.952	-200.000	-0.008	0.170
-589.938	-200.000	-0.056	0.330
-588.923	800.000	0.062	-0.206
-587.909	-15.622	0.248	0.158
-586.894	-116.585	-0.416	0.077
-585.879	65.185	0.159	0.161
-584.865	16.881	-0.195	-0.154
-583.850	-14.774	0.162	-0.104
-582.836	241.616	0.043	-0.072
-581.821	148.247	-0.116	0.156
-580.806	-64.641	-0.037	0.015
-579.792	-96.819	-0.039	0.010
-578.777	189.575	-0.101	0.151
-577.763	-53.405	0.065	0.030
-576.748	56.867	-0.260	-0.253
-575.733	147.649	-0.167	-0.226
-574.719	-42.135	-0.120	-0.061
-573.704	-9.560	0.085	0.056
-572.690	-17.518	0.237	0.149
-571.675	174.843	-0.231	0.335
-570.661	-108.822	0.351	-0.075
-569.646	-60.575	0.088	-0.037
-568.631	-200.000	-0.056	0.272
-567.617	124.360	0.165	-0.207
-566.602	53.250	0.114	0.109
-565.588	-200.000	0.030	0.142
-564.573	43.627	0.132	0.121
-563.558	-29.407	-0.021	-0.012
-562.544	15.668	0.154	0.121
-561.529	178.960	-0.153	-0.223
-560.515	-175.064	0.009	-0.000
-559.500	800.000	-0.196	-0.547
-558.485	150.380	-0.117	0.159
-557.471	-66.069	0.397	-0.158
-556.456	-0.984	-0.264	-0.187
-555.442	-35.911	0.167	0.090
-554.427	-149.438	-0.161	0.013
-553.412	33.802	-0.154	-0.134
-552.398	-200.000	0.002	0.179
-551.383	-71.774	0.095	0.035
-550.369	-200.000	-0.004	0.252
-549.354	277.054	-0.011	0.019
-548.339	729.696	-0.060	-0.161
-547.325	70.915	-0.168	-0.174
-546.310	-152.330	0.261	-0.019
-545.296	175.390	-0.101	0.146
-544.281	800.000	-0.095	0.360
-543.266	26.375	0.103	-0.086
-542.252	-130.340	-0.084	-0.011
-541.237	-175.033	-0.110	-0.003
-540.223	-100.472	0.285	-0.070
-539.208	391.321	-0.111	-0.230
-538.193	-200.000	-0.070	-0.323
-537.179	-20.889	-0.303	-0.185
-536.164	117.075	0.017	0.021
-535.150	35.139	-0.242	-0.212
-534.135	-38.967	0.109	-0.057
-533.121	-11.791	0.193	-0.127
-532.106	800.000	-0.052	-0.206
-531.091	-200.000	0.029	0.307
-530.077	-75.331	0.195	-0.070
-529.062	50.207	0.290	0.273
-528.048	-122.288	0.164	0.027
-527.033	782.363	-0.070	0.192
-526.018	254.571	-0.202	0.345
-525.004	75.084	-0.135	0.142
-523.989	116.163	0.233	0.285
-522.975	22.707	0.358	0.292
-521.960	-38.551	0.097	0.051
-520.945	-32.659	-0.093	0.052
-519.931	-71.367	0.216	0.081
-518.916	-93.642	0.186	0.051
-517.902	469.074	0.034	0.077
-516.887	199.397	-0.062	0.095
-515.872	800.000	0.101	0.285
-514.858	-32.784	0.119	0.066
-513.843	301.122	-0.176	-0.324
-512.829	-79.686	0.151	0.051
-511.814	-200.000	-0.003	0.074
-510.799	-163.312	-0.176	-0.008
-509.785	-44.032	0.044	-0.022
-508.770	-51.930	0.209	-0.097
-507.756	799.055	-0.135	-0.371
-506.741	325.223	0.087	-0.165
-505.726	566.017	-0.047	0.113
-504.712	-151.993	0.325	-0.024
-503.697	110.780	0.167	-0.200
-502.683	-200.000	0.006	-0.079
-501.668	436.102	0.140	0.304
-500.653	-151.424	-0.271	-0.020
-499.639	800.000	-0.029	-0.083
-498.624	-114.037	0.175	0.034
-497.610	-106.269	-0.142	0.032
-496.595	-155.771	-0.136	-0.009
-495.581	-147.923	0.473	-0.039
-494.566	-200.000	0.009	0.135
-493.551	-199.187	-0.258	0.001
-492.537	34.158	0.129	0.112
-491.522	800.000	-0.007	-0.023
-490.508	97.906	-0.063	0.072
-489.493	244.449	-0.115	0.193
-488.478	394.726	-0.052	-0.107
-487.464	726.435	0.020	0.054
-486.449	133.481	-0.063	-0.081
-485.435	-187.756	0.287	0.004
-484.420	-200.000	0.044	-0.252
-483.405	451.504	0.231	0.508
-482.391	-27.926	-0.283	-0.163
-481.376	-200.000	-0.017	0.077
-480.362	800.000	0.144	0.420
-479.347	58.991	-0.201	-0.196
-478.332	83.160	-0.081	-0.088
-477.318	-43.193	0.265	-0.134
-476.303	207.067	-0.088	-0.137
-475.289	-100.134	-0.230	0.057
-474.274	115.690	-0.203	0.247
-473.259	-200.000	0.005	-0.031
-472.245	-75.787	-0.191	-0.067
-471.230	-200.000	-0.020	-0.205
-470.216	103.794	0.137	0.160
-469.201	-112.947	-0.196	-0.039
-468.186	-64.015	0.234	0.095
-467.172	117.842	0.152	0.187
-466.157	-39.274	0.051	-0.027
-465.143	-48.998	0.078	-0.037
-464.128	-78.049	0.089	-0.031
-463.113	67.207	0.275	-0.279
-462.099	235.876	0.047	-0.077
-461.084	350.232	-0.062	-0.122
-460.070	-174.958	-0.413	-0.012
-459.055	-36.873	-0.088	-0.047
-458.040	-31.044	0.186	-0.104
-457.026	0.014	-0.306	-0.217
-456.011	-39.011	-0.165	-0.086
-454.997	441.285	-0.264	-0.575
-453.982	479.386	0.100	-0.226
-452.968	284.251	0.104	0.186
-451.953	536.407	0.094	0.222
-450.938	-100.658	-0.174	0.043
-449.924	335.606	0.167	-0.322
-448.909	-64.676	-0.436	-0.176
-447.895	444.633	0.078	-0.170
-446.880	-200.000	0.023	-0.168
-445.865	800.000	-0.169	0.473
-444.851	-200.000	-0.002	-0.170
-443.836	524.619	-0.126	-0.296
-442.822	800.000	-0.084	-0.330
-441.807	145.151	0.221	-0.294
-440.792	11.852	-0.165	0.126
-439.778	-66.062	0.293	-0.116
-438.763	117.317	0.183	0.224
-437.749	149.165	-0.103	0.138
-436.734	-200.000	0.137	-0.001
-435.719	800.000	-0.054	-0.213
-434.705	-80.882	-0.260	0.086
-433.690	-200.000	0.016	0.087
-432.676	-200.000	0.004	-0.140
-431.661	-147.882	0.362	0.030
-430.646	-146.271	0.171	-0.015
-429.632	148.197	0.087	-0.117
-428.617	800.000	0.019	0.056
-427.603	-200.000	0.031	0.415
-426.588	45.675	0.195	-0.179
-425.573	15.162	-0.270	-0.210
-424.559	-200.000	-0.015	-0.172
-423.544	-142.321	-0.152	0.015
-422.530	-112.544	0.203	-0.040
-421.515	69.111	-0.200	-0.204
-420.500	76.062	0.158	-0.166
-419.486	704.806	-0.145	-0.381
-418.471	-200.000	0.021	0.230
-417.457	800.000	0.039	0.164
-416.442	304.457	-0.055	0.102
-415.428	230.551	0.170	0.277
-414.413	800.000	0.089	0.320
-413.398	800.000	0.073	0.242
-412.384	148.390	0.169	0.226
-411.369	-16.760	0.019	0.012
-410.355	84.359	-0.232	0.252
-409.340	28.449	-0.206	-0.173
-408.325	249.094	-0.159	-0.267
-407.311	-80.742	0.396	-0.131
-406.296	-80.762	-0.064	0.021
-405.282	800.000	-0.023	0.066
-404.267	800.000	0.090	0.250
-403.252	-74.947	-0.104	-0.037
-402.238	-11.972	0.153	0.099
-401.223	-150.158	-0.556	-0.043
-400.209	-143.891	-0.189	0.018
-399.194	103.881	0.147	0.171
-398.179	-156.586	0.394	-0.024
-397.165	-152.251	0.129	0.009
-396.150	-131.340	-0.168	-0.022
-395.136	-10.645	0.063	-0.041
-394.121	-200.000	0.002	-0.168
-393.106	15.066	0.298	-0.232
-392.092	-53.579	-0.458	0.208
-391.077	-25.343	0.138	0.081
-390.063	13.412	0.042	-0.032
-389.048	-48.234	0.066	0.032
-388.033	-47.545	-0.222	0.107
-387.019	-200.000	-0.002	0.217
-386.004	800.000	-0.019	-0.065
-384.990	-4.571	0.256	0.176
-383.975	281.123	-0.141	0.251
-382.960	-58.497	-0.314	0.135
-381.946	457.948	-0.015	-0.032
-380.931	-200.000	0.015	0.096
-379.917	-44.012	-0.195	-0.097
-378.902	-200.000	0.006	0.048
-377.888	439.165	-0.020	0.044
-376.873	-95.743	0.140	0.037
-375.858	-200.000	0.028	0.331
-374.844	-200.000	-0.004	0.205
-373.829	134.224	-0.202	0.260
-372.815	-105.062	-0.514	0.117
-371.800	-148.593	-0.111	0.009
-370.785	74.106	0.119	0.123
-369.771	206.329	0.027	-0.042
-368.756	125.552	0.217	-0.272
-367.742	-200.000	-0.002	0.243
-366.727	45.381	-0.215	0.197
-365.712	55.624	-0.381	-0.366
-364.698	-131.227	-0.302	0.040
-363.683	28.852	-0.045	-0.038
-362.669	800.000	-0.085	-0.250
-361.654	-12.769	-0.150	0.097
-360.639	-200.000	-0.006	0.034
-359.625	-64.789	-0.126	0.051
-358.610	-200.000	0.016	-0.208
-357.596	6.502	-0.070	0.052
-356.581	80.248	-0.358	0.382
-355.566	73.387	-0.228	-0.237
-354.552	105.746	0.130	0.152
-353.537	-200.000	-0.047	0.276
-352.523	800.000	0.014	0.042
-351.508	94.870	-0.127	-0.144
-350.493	140.489	-0.211	0.276
-349.479	531.887	-0.016	0.038
-348.464	800.000	-0.053	0.158
-347.450	-39.197	0.085	-0.044
-346.435	245.771	-0.075	0.126
-345.420	644.740	0.024	-0.061
-344.406	-104.969	0.197	0.045
-343.391	6.128	-0.140	-0.103
-342.377	-200.000	0.040	-0.448
-341.362	233.574	0.022	0.036
-340.348	289.287	0.043	-0.077
-339.333	-55.491	0.166	-0.074
-338.318	-57.135	0.412	-0.180
-337.304	-200.000	-0.023	-0.244
-336.289	144.275	0.152	0.201
-335.275	353.950	0.051	0.101
-334.260	-17.266	-0.199	-0.124
-333.245	-67.269	0.055	0.022
-332.231	528.989	0.126	-0.294
-331.216	-200.000	0.043	-0.337
-330.202	800.000	-0.074	0.318
-329.187	8.423	0.257	0.191
-328.172	-105.875	0.411	0.092
-327.158	-200.000	-0.003	-0.323
-326.143	84.437	-0.223	0.242
-325.129	-200.000	0.040	0.319
-324.114	-49.255	0.403	-0.191
-323.099	800.000	0.019	0.069
-322.085	-200.000	-0.028	-0.121
-321.070	79.004	0.312	-0.330
-320.056	175.212	-0.106	0.152
-319.041	800.000	0.062	-0.178
-318.026	-200.000	-0.033	0.187
-317.012	-35.555	0.229	0.123
-315.997	-25.381	0.177	-0.104
-314.983	-200.000	-0.080	-0.389
-313.968	-148.633	0.053	-0.004
-312.953	28.022	-0.132	-0.110
-311.939	504.499	0.086	-0.197
-310.924	67.159	0.369	-0.372
-309.910	172.500	0.129	-0.184
-308.895	-72.161	0.069	0.025
-307.880	108.925	0.222	-0.263
-306.866	-0.726	0.033	0.023
-305.851	-171.641	0.197	0.006
-304.837	128.544	-0.217	0.274
-303.822	-200.000	-0.024	-0.105
-302.807	-138.704	-0.193	-0.021
-301.793	13.884	-0.386	-0.297
-300.778	-200.000	-0.025	0.140
-299.764	-96.503	-0.227	0.059
-298.749	168.352	-0.074	0.105
-297.735	216.230	-0.009	-0.014
-296.720	-81.120	0.123	-0.040
-295.705	67.551	-0.120	0.121
-294.691	800.000	0.079	-0.281
-293.676	-200.000	-0.030	-0.165
-292.662	-113.458	0.434	0.084
-291.647	136.548	-0.248	0.320
-290.632	-141.235	0.281	-0.028
-289.618	800.000	0.091	0.295
-288.603	-1.917	-0.070	0.049
-287.589	-73.752	-0.340	0.122
-286.574	-71.015	-0.412	0.153
-285.559	57.699	-0.364	-0.352
-284.545	130.355	0.041	0.052
-283.530	262.138	0.125	0.214
-282.516	800.000	-0.005	-0.015
-281.501	-119.195	0.148	0.026
-280.486	-150.935	0.160	-0.012
-279.472	132.384	0.054	-0.068
-278.457	-139.839	-0.390	0.041
-277.443	800.000	-0.012	-0.051
-276.428	33.214	0.088	0.075
-275.413	-70.088	0.049	0.019
-274.399	-89.950	0.233	-0.067
-273.384	1.741	0.153	-0.109
-272.370	13.064	0.221	-0.169
-271.355	86.062	-0.168	0.182
-270.340	-200.000	0.009	-0.095
-269.326	148.631	-0.118	0.158
-268.311	-94.036	0.114	-0.031
-267.297	-4.633	0.253	0.172
-266.282	76.950	-0.177	-0.186
-265.267	-3.801	0.043	-0.029
-264.253	204.321	-0.298	0.457
-263.238	-57.963	0.157	0.068
-262.224	280.289	0.178	-0.315
-261.209	461.286	-0.081	-0.179
-260.195	-145.857	-0.213	0.019
-259.180	76.005	0.073	0.076
-258.165	-89.754	0.176	-0.051
-257.151	-32.752	-0.004	0.002
-256.136	27.822	0.268	-0.223
-255.122	-127.918	-0.325	-0.046
-254.107	-161.796	-0.228	0.011
-253.092	-50.268	-0.435	0.203
-252.078	-2.278	-0.206	-0.142
-251.063	181.677	-0.149	0.216
-250.049	-190.806	0.061	0.001
-249.034	22.909	0.172	0.139
-248.019	-97.244	0.098	-0.025
-247.005	-162.888	0.211	0.010
-245.990	70.591	0.077	-0.079
-244.976	-200.000	-0.001	-0.055
-243.961	351.295	0.115	-0.224
-242.946	-8.562	0.161	-0.106
-241.932	-80.974	0.178	0.058
-240.917	-200.000	-0.003	-0.141
-239.903	303.246	-0.089	0.162
-238.888	-12.888	-0.142	0.091
-237.873	-200.000	0.044	0.226
-236.859	-200.000	0.042	0.241
-235.844	327.319	-0.163	-0.308
-234.830	262.798	-0.171	-0.294
-233.815	110.712	-0.102	0.121
-232.800	235.366	0.124	-0.202
-231.786	330.325	0.231	-0.439
-230.771	33.435	-0.100	-0.086
-229.757	-124.354	0.233	0.036
-228.742	-200.000	-0.078	0.371
-227.727	-200.000	-0.077	0.353
-226.713	-93.851	-0.379	0.103
-225.698	-38.347	0.317	-0.165
-224.684	-84.532	0.432	0.134
-223.669	800.000	0.128	0.408
-222.655	-107.703	0.154	-0.033
-221.640	-98.293	-0.286	0.072
-220.625	-200.000	0.017	-0.272
-219.611	-22.962	-0.049	0.029
-218.596	86.979	0.201	-0.219
-217.582	119.576	-0.105	-0.128
-216.567	99.635	-0.108	-0.124
-215.552	299.101	-0.211	0.383
-214.538	259.661	0.086	0.146
-213.523	-75.893	0.057	0.020
-212.509	800.000	-0.055	-0.187
-211.494	-70.397	-0.308	0.115
-210.479	-135.037	-0.210	-0.025
-209.465	-32.840	-0.213	-0.117
-208.450	-88.586	0.457	-0.134
-207.436	-139.395	-0.209	0.022
-206.421	-100.525	-0.199	0.049
-205.406	789.904	-0.031	-0.085
-204.392	800.000	-0.019	0.065
-203.377	-105.607	-0.076	-0.017
-202.363	-101.380	-0.300	-0.072
-201.348	-146.580	0.097	-0.008
-200.333	11.497	-0.321	0.242
-199.319	653.694	0.096	-0.242
-198.304	27.856	-0.221	-0.183
-197.290	-132.514	-0.121	0.015
-196.275	-73.726	0.120	-0.043
-195.260	299.526	0.089	0.162
-194.246	582.632	-0.122	-0.295
-193.231	-72.736	-0.174	-0.063
-192.217	-86.722	-0.137	-0.041
-191.202	-25.601	0.180	-0.105
-190.187	-13.571	0.022	0.014
-189.173	2.640	-0.129	0.092
-188.158	-200.000	0.001	0.333
-187.144	-134.247	0.266	0.032
-186.129	-200.000	-0.018	0.213
-185.114	38.043	0.237	0.208
-184.100	-5.650	-0.121	0.082
-183.085	-152.056	-0.184	-0.013
-182.071	-155.082	0.098	0.006
-181.056	-72.945	-0.410	-0.148
-180.042	-200.000	0.010	0.303
-179.027	800.000	-0.091	0.296
-178.012	3.677	0.116	0.083
-176.998	90.814	-0.213	0.235
-175.983	-31.125	-0.235	-0.131
-174.969	800.000	-0.068	-0.224
-173.954	800.000	-0.061	-0.177
-172.939	252.817	-0.087	-0.146
-171.925	118.296	0.239	0.290
-170.910	26.833	0.390	0.322
-169.896	-55.626	0.274	0.121
-168.881	-200.000	-0.011	-0.327
-167.866	-78.567	-0.134	0.045
-166.852	332.844	-0.135	0.257
-165.837	4.664	-0.066	-0.048
-164.823	163.981	-0.060	-0.083
-163.808	97.944	0.188	-0.212
-162.793	-104.890	0.173	-0.039
-161.779	-200.000	-0.010	0.262
-160.764	-100.086	0.253	0.062
-159.750	800.000	0.073	-0.220
-158.735	-200.000	0.012	-0.127
-157.720	800.000	0.068	0.278
-156.706	221.278	-0.115	0.182
-155.691	392.783	-0.165	0.337
-154.677	-141.042	0.081	0.008
-153.662	-118.989	-0.161	-0.028
-152.647	-73.743	-0.323	-0.116
-151.633	-126.819	0.432	-0.063
-150.618	-200.000	0.021	0.273
-149.604	-151.914	-0.411	0.030
-148.589	265.530	-0.197	0.337
-147.574	-200.000	0.008	-0.103
-146.560	-58.858	-0.022	0.010
-145.545	-200.000	-0.023	-0.118
-144.531	62.205	0.128	0.126
-143.516	118.006	0.288	-0.349
-142.502	800.000	0.096	0.285
-141.487	36.386	0.236	-0.205
-140.472	-43.077	0.055	0.027
-139.458	-17.161	0.125	0.077
-138.443	-17.645	0.161	-0.099
-137.429	218.579	-0.143	-0.225
-136.414	-108.597	-0.413	0.087
-135.399	313.719	-0.143	0.264
-134.385	-108.178	-0.123	-0.026
-133.370	-117.933	-0.174	-0.031
-132.356	-200.000	-0.022	0.215
-131.341	335.083	-0.127	-0.242
-130.326	-200.000	0.011	-0.308
-129.312	-104.556	0.489	-0.111
-128.297	16.405	-0.165	-0.128
-127.283	-88.632	0.091	0.027
-126.268	71.426	0.296	0.302
-125.253	-200.000	-0.010	-0.120
-124.239	-200.000	-0.063	-0.347
-123.224	32.332	-0.204	0.173
-122.210	-124.547	-0.329	-0.050
