DTS Sentinel unit serial number:	SN413079Multiplexer serial number:	ORYXHardware model number:	OX4-SRSoftware version number:	ORYX F/W v4.00 Oryx Data Collector v3.7.2.0data status	okinstallation	princeton_trtdifferential loss correction	single-endedforward channel	channel 3reverse channel	N/Adate	2019/09/11time	19:58:11forward acquisition time	60.00reverse acquisition time	0.00gamma	496.2192k internal	0.2299k external	0.2299temperature offset calibration	1.0022default loss term (dB/km)	0.3790temperature slope calibration	1.0000multiplexer offset coefficient	1.0000multiplexer slope coefficient	1.0000fibre end	0.00T internal ref (°C)	38.91T ext. ref 1 (°C)	1.38T ext. ref 2 (°C)	32.00length (m)	temperature (°C)	Stokes	anti-Stokes-747.200	438.217	0.020	-0.045
-746.185	30.033	-0.098	-0.085
-745.171	-200.000	0.022	-0.197
-744.156	0.656	-0.190	0.139
-743.142	-55.670	-0.243	0.111
-742.127	437.656	-0.166	0.369
-741.112	644.914	0.025	0.064
-740.098	-36.445	-0.184	-0.101
-739.083	43.339	0.111	0.103
-738.069	-145.719	0.120	-0.011
-737.054	-139.853	-0.205	-0.022
-736.039	-44.251	-0.121	-0.062
-735.025	92.832	0.129	-0.149
-734.010	89.884	-0.149	0.170
-732.996	686.825	-0.088	-0.236
-731.981	800.000	-0.027	-0.114
-730.966	180.924	-0.237	-0.356
-729.952	49.923	0.117	0.112
-728.937	-200.000	-0.010	-0.374
-727.923	-24.325	-0.188	-0.114
-726.908	140.976	-0.158	-0.213
-725.894	3.052	0.195	0.145
-724.879	-28.084	-0.126	-0.074
-723.864	-131.355	-0.396	-0.053
-722.850	169.653	0.137	-0.199
-721.835	-64.547	-0.350	0.145
-720.821	58.589	-0.394	0.395
-719.806	-39.962	-0.155	-0.083
-718.791	78.998	-0.593	-0.647
-717.777	-127.275	-0.411	-0.061
-716.762	-137.666	-0.195	-0.022
-715.748	-167.169	-0.256	0.011
-714.733	-127.081	0.192	0.029
-713.718	53.400	0.219	0.214
-712.704	800.000	-0.123	0.435
-711.689	82.207	-0.175	0.194
-710.675	131.902	-0.094	0.123
-709.660	266.988	-0.103	0.183
-708.645	370.588	-0.101	0.209
-707.631	292.121	-0.107	-0.199
-706.616	280.178	0.148	0.269
-705.602	-200.000	0.005	-0.084
-704.587	800.000	-0.028	-0.085
-703.572	118.923	-0.108	-0.136
-702.558	105.747	0.133	-0.160
-701.543	-122.367	-0.105	0.017
-700.529	-158.721	-0.115	0.007
-699.514	9.424	0.220	0.170
-698.499	428.345	0.013	0.029
-697.485	-35.935	-0.094	-0.052
-696.470	-116.397	-0.141	-0.026
-695.456	-200.000	0.029	-0.185
-694.441	-107.822	0.204	-0.045
-693.426	-52.029	0.205	0.097
-692.412	711.466	0.134	0.362
-691.397	-200.000	-0.018	-0.320
-690.383	-63.338	0.191	-0.080
-689.368	-110.605	0.406	-0.085
-688.354	-200.000	-0.030	-0.211
-687.339	6.352	0.263	0.199
-686.324	-85.270	0.090	0.029
-685.310	-193.979	-0.237	-0.002
-684.295	-34.867	-0.240	-0.133
-683.281	-45.792	-0.458	-0.230
-682.266	-87.278	-0.294	0.091
-681.251	-200.000	0.069	-0.336
-680.237	-200.000	-0.032	-0.283
-679.222	65.061	-0.153	0.158
-678.208	167.907	0.036	-0.052
-677.193	104.248	0.201	0.241
-676.178	186.332	-0.076	-0.116
-675.164	-15.795	0.239	-0.155
-674.149	-115.074	-0.137	-0.026
-673.135	-57.203	0.082	-0.037
-672.120	-53.250	-0.224	0.105
-671.105	-140.420	-0.227	-0.024
-670.091	-200.000	-0.039	0.194
-669.076	-123.466	0.185	0.030
-668.062	5.135	-0.138	0.104
-667.047	-121.011	0.116	0.020
-666.032	-20.131	-0.074	0.047
-665.018	-200.000	-0.015	0.111
-664.003	-174.156	-0.058	-0.002
-662.989	791.689	0.123	-0.344
-661.974	-113.372	-0.093	0.019
-660.959	-80.753	0.150	-0.051
-659.945	800.000	0.067	-0.223
-658.930	-39.989	-0.040	-0.021
-657.916	34.622	-0.092	-0.082
-656.901	-200.000	0.022	0.233
-655.886	-66.292	0.146	-0.059
-654.872	-200.000	-0.017	-0.128
-653.857	-57.220	-0.152	-0.068
-652.843	-78.848	-0.279	0.097
-651.828	-29.446	0.159	-0.092
-650.814	37.672	-0.087	-0.078
-649.799	-200.000	0.020	0.100
-648.784	-200.000	-0.018	-0.100
-647.770	-200.000	0.018	-0.280
-646.755	-200.000	0.015	-0.239
-645.741	800.000	-0.053	0.197
-644.726	-182.370	-0.303	0.006
-643.711	69.255	-0.118	-0.123
-642.697	-47.850	0.326	-0.161
-641.682	-200.000	-0.013	-0.112
-640.668	-56.167	0.239	-0.108
-639.653	-10.358	0.191	0.129
-638.638	228.184	-0.096	0.159
-637.624	4.988	0.227	-0.170
-636.609	-94.165	0.167	-0.046
-635.595	-68.364	-0.182	-0.072
-634.580	128.369	-0.180	0.233
-633.565	-12.690	-0.197	-0.130
-632.551	-90.775	-0.190	0.056
-631.536	-31.863	-0.171	0.097
-630.522	-56.219	-0.421	-0.190
-629.507	20.666	-0.136	0.112
-628.492	8.446	0.187	0.143
-627.478	52.045	0.228	0.221
-626.463	717.699	-0.125	0.337
-625.449	-56.738	0.075	0.034
-624.434	-159.715	0.247	0.014
-623.419	800.000	-0.019	-0.080
-622.405	318.551	-0.132	0.254
-621.390	694.412	0.118	0.315
-620.376	-200.000	-0.011	0.063
-619.361	141.267	0.166	-0.223
-618.346	-200.000	0.004	-0.288
-617.332	447.203	-0.053	-0.118
-616.317	-200.000	0.007	0.073
-615.303	-64.532	-0.470	-0.194
-614.288	-87.848	0.194	-0.059
-613.273	-111.829	-0.558	-0.114
-612.259	5.781	-0.137	-0.103
-611.244	-71.701	0.426	0.161
-610.230	-200.000	-0.026	0.150
-609.215	-79.111	0.175	-0.060
-608.201	-160.382	-0.398	-0.022
-607.186	-55.512	-0.360	0.164
-606.171	-92.971	-0.245	0.069
-605.157	238.344	-0.050	0.085
-604.142	124.944	-0.199	0.255
-603.128	217.590	-0.191	-0.309
-602.113	-139.453	0.328	0.036
-601.098	-200.000	-0.021	0.122
-600.084	190.963	-0.111	0.169
-599.069	-68.739	-0.283	0.111
-598.055	-200.000	-0.029	-0.429
-597.040	206.434	-0.140	-0.221
-596.025	195.668	-0.144	0.221
-595.011	110.097	0.192	-0.234
-593.996	-49.901	0.181	0.087
-592.982	-29.048	0.220	-0.128
-591.967	-4.754	0.161	0.113
-590.952	296.459	0.106	0.197
-589.938	-142.788	-0.220	0.022
-588.923	261.466	0.228	-0.401
-587.909	-125.596	-0.240	-0.037
-586.894	27.467	-0.239	-0.203
-585.879	94.821	0.218	0.252
-584.865	6.372	-0.112	0.084
-583.850	-36.868	-0.239	0.130
-582.836	538.442	-0.129	-0.312
-581.821	-63.036	-0.144	-0.060
-580.806	227.914	0.124	0.205
-579.792	113.059	-0.090	0.111
-578.777	800.000	-0.038	-0.120
-577.763	-176.686	0.341	0.009
-576.748	-152.935	-0.256	0.018
-575.733	-69.835	-0.255	0.099
-574.719	295.437	-0.070	-0.130
-573.704	-159.117	-0.403	0.023
-572.690	178.805	0.123	-0.183
-571.675	-200.000	0.010	0.254
-570.661	90.561	-0.318	0.361
-569.646	-200.000	-0.012	0.056
-568.631	24.948	0.074	-0.062
-567.617	-200.000	0.011	-0.501
-566.602	-53.645	-0.151	0.070
-565.588	-91.671	-0.246	0.071
-564.573	-126.098	-0.219	-0.033
-563.558	-200.000	-0.022	0.373
-562.544	-119.063	0.225	-0.040
-561.529	800.000	-0.038	0.155
-560.515	-144.569	0.194	0.018
-559.500	25.256	-0.104	0.087
-558.485	-101.375	0.429	-0.106
-557.471	-70.072	-0.211	0.081
-556.456	54.147	0.040	-0.039
-555.442	-101.763	0.210	-0.052
-554.427	131.084	0.009	-0.012
-553.412	85.265	-0.224	-0.249
-552.398	15.019	0.244	-0.194
-551.383	800.000	0.079	-0.232
-550.369	67.550	-0.131	0.135
-549.354	-77.093	-0.241	-0.085
-548.339	134.317	-0.254	0.333
-547.325	-200.000	0.025	0.341
-546.310	-102.960	0.243	0.058
-545.296	-200.000	0.033	-0.495
-544.281	590.682	-0.071	0.178
-543.266	-133.735	-0.191	0.024
-542.252	-73.346	0.246	-0.091
-541.237	467.756	0.137	-0.311
-540.223	-200.000	0.023	-0.114
-539.208	-61.074	0.326	-0.139
-538.193	-51.320	0.200	-0.095
-537.179	-32.238	-0.149	-0.084
-536.164	800.000	0.046	-0.131
-535.150	116.440	0.129	0.161
-534.135	800.000	-0.111	-0.405
-533.121	15.111	0.270	0.214
-532.106	800.000	-0.090	0.254
-531.091	-135.846	0.366	0.044
-530.077	-80.332	-0.279	0.094
-529.062	-9.780	0.031	0.021
-528.048	-200.000	0.027	-0.176
-527.033	-84.227	0.051	0.016
-526.018	-135.471	0.333	0.040
-525.004	24.848	0.104	0.087
-523.989	-200.000	-0.032	-0.275
-522.975	40.800	0.157	-0.144
-521.960	-200.000	-0.027	-0.251
-520.945	112.136	0.020	0.024
-519.931	-113.477	0.337	-0.067
-518.916	378.762	0.111	-0.230
-517.902	89.191	-0.429	-0.483
-516.887	-200.000	-0.044	0.326
-515.872	-52.330	-0.228	-0.107
-514.858	738.969	-0.086	-0.233
-513.843	86.190	0.028	-0.031
-512.829	72.101	-0.139	-0.146
-511.814	55.601	0.157	0.154
-510.799	-200.000	-0.007	-0.155
-509.785	-200.000	-0.020	0.426
-508.770	-110.652	0.244	-0.051
-507.756	-118.067	-0.045	0.008
-506.741	71.072	-0.115	0.121
-505.726	-28.291	-0.069	0.041
-504.712	-115.728	0.036	0.007
-503.697	55.956	-0.159	-0.156
-502.683	-10.323	0.045	0.030
-501.668	-9.769	0.233	-0.157
-500.653	46.594	-0.177	-0.166
-499.639	74.926	-0.182	0.194
-498.624	-112.322	0.247	0.050
-497.610	-130.661	-0.270	-0.037
-496.595	140.714	0.210	0.280
-495.581	-200.000	0.072	-0.321
-494.566	515.860	-0.010	-0.024
-493.551	502.053	0.172	0.402
-492.537	272.642	0.100	0.179
-491.522	141.835	0.131	-0.176
-490.508	701.057	0.106	0.281
-489.493	-200.000	0.030	-0.265
-488.478	-64.054	0.087	0.036
-487.464	-62.354	0.097	-0.041
-486.449	105.336	-0.227	-0.271
-485.435	384.560	-0.071	-0.147
-484.420	-179.520	-0.198	0.004
-483.405	-200.000	-0.007	0.280
-482.391	-116.273	-0.341	0.064
-481.376	316.741	-0.104	0.198
-480.362	-12.479	0.295	0.195
-479.347	107.014	-0.088	0.105
-478.332	592.572	0.084	-0.211
-477.318	74.137	0.159	-0.168
-476.303	67.903	0.228	-0.235
-475.289	800.000	0.022	0.091
-474.274	59.616	0.175	0.174
-473.259	79.834	0.135	-0.147
-472.245	302.180	0.073	-0.137
-471.230	-121.227	0.058	-0.010
-470.216	496.797	-0.082	-0.190
-469.201	14.679	-0.279	0.220
-468.186	446.989	0.033	0.072
-467.172	150.395	-0.076	-0.104
-466.157	-179.127	0.016	-0.000
-465.143	-65.573	-0.271	0.110
-464.128	-88.743	0.325	-0.098
-463.113	-144.930	0.057	-0.005
-462.099	-200.000	-0.029	0.481
-461.084	-7.909	0.350	0.239
-460.070	-172.784	0.177	0.006
-459.055	800.000	-0.022	-0.089
-458.040	-200.000	0.039	-0.363
-457.026	-54.271	0.080	-0.037
-456.011	-122.083	-0.271	-0.045
-454.997	24.226	0.112	0.093
-453.982	59.588	0.173	-0.172
-452.968	-77.541	-0.130	-0.046
-451.953	-153.090	0.198	-0.014
-450.938	14.108	0.098	0.077
-449.924	-200.000	-0.003	0.147
-448.909	623.545	-0.057	0.145
-447.895	-117.120	-0.448	0.082
-446.880	107.651	-0.164	-0.196
-445.865	154.347	-0.066	-0.091
-444.851	7.978	-0.333	0.252
-443.836	42.813	-0.124	0.114
-442.822	-66.652	-0.226	-0.090
-441.807	-200.000	-0.026	0.315
-440.792	-200.000	0.034	0.196
-439.778	-78.049	0.064	-0.022
-438.763	800.000	-0.106	0.401
-437.749	-200.000	-0.003	0.112
-436.734	-108.505	-0.222	-0.048
-435.719	109.969	0.144	0.175
-434.705	412.850	-0.098	0.211
-433.690	800.000	0.079	0.267
-432.676	42.918	0.141	0.129
-431.661	256.977	0.096	0.166
-430.646	32.268	-0.106	0.092
-429.632	-193.962	0.186	-0.002
-428.617	800.000	-0.133	0.372
-427.603	38.708	-0.216	0.195
-426.588	-200.000	-0.011	-0.261
-425.573	-64.720	0.230	0.094
-424.559	-26.247	-0.228	0.135
-423.544	122.772	-0.066	-0.083
-422.530	-24.435	-0.065	0.039
-421.515	800.000	0.054	-0.230
-420.500	-53.773	0.223	-0.103
-419.486	800.000	0.141	0.420
-418.471	296.586	0.109	-0.202
-417.457	-149.350	-0.334	0.027
-416.442	176.133	-0.040	-0.059
-415.428	38.678	-0.070	-0.063
-414.413	-200.000	-0.059	-0.443
-413.398	46.519	-0.075	-0.070
-412.384	269.052	-0.070	0.124
-411.369	800.000	0.020	0.069
-410.355	190.421	0.089	0.135
-409.340	315.251	0.112	-0.212
-408.325	-89.168	-0.287	-0.085
-407.311	800.000	-0.081	-0.264
-406.296	-200.000	0.012	0.128
-405.282	456.742	0.061	-0.136
-404.267	-200.000	-0.032	0.239
-403.252	800.000	-0.074	0.312
-402.238	29.990	0.176	0.151
-401.223	58.704	0.239	-0.237
-400.209	-84.778	-0.492	-0.156
-399.194	-90.219	-0.315	-0.092
-398.179	9.610	-0.171	0.131
-397.165	708.933	-0.091	-0.242
-396.150	-157.675	0.098	0.006
-395.136	-55.509	-0.072	-0.032
-394.121	-9.129	-0.201	-0.136
-393.106	352.471	-0.182	0.362
-392.092	-163.231	0.438	0.021
-391.077	-93.006	-0.121	0.034
-390.063	-6.469	0.342	-0.235
-389.048	643.186	-0.119	-0.306
-388.033	-176.580	0.273	-0.007
-387.019	-141.747	0.249	0.025
-386.004	-96.460	-0.170	-0.045
-384.990	-60.849	-0.155	-0.066
-383.975	-143.714	-0.394	0.038
-382.960	800.000	-0.070	-0.251
-381.946	19.452	0.174	-0.141
-380.931	-91.065	0.146	-0.042
-379.917	631.034	-0.044	0.113
-378.902	-53.027	-0.297	-0.138
-377.888	-125.001	-0.161	0.025
-376.873	106.419	-0.215	0.257
-375.858	51.061	-0.198	-0.189
-374.844	-200.000	-0.006	-0.181
-373.829	-182.446	-0.396	-0.007
-372.815	139.172	-0.236	-0.312
-371.800	611.573	-0.007	0.018
-370.785	-71.385	-0.274	0.103
-369.771	-200.000	0.011	0.284
-368.756	-129.234	0.327	-0.046
-367.742	58.162	-0.119	-0.117
-366.727	74.839	-0.285	0.301
-365.712	89.191	0.097	-0.108
-364.698	-73.519	-0.073	-0.027
-363.683	-168.621	-0.301	-0.012
-362.669	-24.879	0.141	-0.084
-361.654	800.000	0.107	-0.336
-360.639	-111.654	-0.214	-0.044
-359.625	11.499	0.128	0.099
-358.610	-136.740	0.243	0.028
-357.596	800.000	-0.050	-0.206
-356.581	-31.324	-0.104	-0.059
-355.566	147.263	-0.019	0.026
-354.552	-98.544	0.256	-0.066
-353.537	800.000	-0.100	-0.286
-352.523	-200.000	-0.324	0.000
-351.508	680.930	0.064	-0.167
-350.493	-130.165	0.089	0.012
-349.479	-200.000	-0.003	0.026
-348.464	271.380	-0.171	0.303
-347.450	764.934	-0.151	0.412
-346.435	-149.689	-0.425	0.034
-345.420	-200.000	0.034	0.223
-344.406	-164.367	0.124	0.006
-343.391	217.785	-0.151	0.242
-342.377	29.618	-0.195	-0.166
-341.362	-48.282	-0.263	0.127
-340.348	-29.124	-0.042	-0.024
-339.333	-12.694	-0.028	0.018
-338.318	-200.000	0.015	0.108
-337.304	207.108	-0.157	-0.245
-336.289	142.919	-0.120	-0.160
-335.275	-18.190	0.262	-0.164
-334.260	112.026	-0.171	-0.207
-333.245	-160.116	0.159	0.009
-332.231	800.000	0.081	0.251
-331.216	66.944	0.099	0.101
-330.202	7.260	0.268	0.201
-329.187	800.000	-0.108	-0.342
-328.172	-200.000	0.072	-0.352
-327.158	22.317	-0.066	-0.054
-326.143	7.603	0.271	-0.204
-325.129	72.010	0.114	0.119
-324.114	-88.773	0.288	-0.086
-323.099	-139.127	0.448	0.049
-322.085	581.897	-0.048	0.118
-321.070	800.000	-0.047	0.159
-320.056	77.156	0.431	-0.459
-319.041	270.788	-0.089	-0.157
-318.026	535.029	0.105	-0.250
-317.012	231.283	0.111	0.182
-315.997	800.000	-0.093	-0.275
-314.983	-31.958	-0.103	0.058
-313.968	44.857	-0.162	-0.150
-312.953	-19.113	-0.053	0.033
-311.939	800.000	0.042	-0.175
-310.924	98.504	-0.173	0.201
-309.910	247.808	0.130	-0.220
-308.895	-93.195	-0.140	-0.039
-307.880	-11.675	-0.159	-0.104
-306.866	-200.000	-0.008	0.060
-305.851	-200.000	0.023	-0.106
-304.837	-41.108	-0.248	0.128
-303.822	-65.129	0.309	0.125
-302.807	26.059	0.108	-0.090
-301.793	-111.611	0.256	0.052
-300.778	-200.000	0.020	0.198
-299.764	-63.405	-0.212	-0.087
-298.749	-124.585	-0.277	-0.043
-297.735	-200.000	0.004	-0.107
-296.720	-136.897	-0.225	-0.026
-295.705	38.170	-0.099	0.088
-294.691	29.379	0.027	0.023
-293.676	800.000	-0.111	-0.320
-292.662	108.076	-0.275	-0.328
-291.647	388.441	0.070	-0.146
-290.632	-71.771	0.484	0.181
-289.618	16.982	-0.189	-0.150
-288.603	-170.172	0.236	0.008
-287.589	800.000	0.032	0.124
-286.574	-129.360	0.263	-0.037
-285.559	800.000	0.023	0.080
-284.545	-28.595	0.255	0.147
-283.530	84.204	-0.108	-0.118
-282.516	-9.022	0.077	0.051
-281.501	-113.649	-0.208	-0.041
-280.486	-67.669	-0.239	0.094
-279.472	120.964	-0.112	-0.140
-278.457	28.129	-0.221	-0.187
-277.443	104.321	0.089	-0.104
-276.428	17.425	0.149	0.118
-275.413	679.699	0.101	0.263
-274.399	-49.984	0.108	-0.051
-273.384	154.828	0.103	-0.142
-272.370	11.312	0.188	-0.144
-271.355	356.435	-0.073	0.147
-270.340	-200.000	-0.002	0.079
-269.326	236.684	0.070	0.116
-268.311	-114.543	0.138	-0.026
-267.297	-171.209	0.244	-0.008
-266.282	-61.172	0.361	-0.152
-265.267	536.125	0.029	0.070
-264.253	-200.000	0.013	0.402
-263.238	800.000	0.016	0.057
-262.224	-161.992	0.151	-0.008
-261.209	-151.432	-0.326	-0.024
-260.195	178.934	0.064	0.094
-259.180	485.040	-0.108	0.246
-258.165	316.142	0.058	-0.110
-257.151	-34.635	0.539	0.295
-256.136	58.276	-0.246	0.242
-255.122	207.545	0.074	0.116
-254.107	-130.186	-0.121	0.017
-253.092	238.330	0.209	-0.348
-252.078	-200.000	-0.043	0.247
-251.063	559.720	0.130	0.313
-250.049	-84.240	-0.209	-0.066
-249.034	256.819	-0.065	0.111
-248.019	518.939	-0.029	0.067
-247.005	504.011	0.026	-0.060
-245.990	-41.250	0.250	-0.129
-244.976	60.986	0.064	-0.064
-243.961	8.419	0.164	-0.123
-242.946	-116.676	-0.160	-0.029
-241.932	-72.463	0.221	-0.082
-240.917	-200.000	-0.056	-0.458
-239.903	-38.711	0.108	-0.057
-238.888	-137.885	0.414	0.046
-237.873	-193.959	0.204	0.002
-236.859	-90.322	0.314	0.091
-235.844	-97.379	-0.088	-0.023
-234.830	57.560	0.112	0.109
-233.815	-143.753	0.389	-0.037
-232.800	-200.000	0.032	0.181
-231.786	66.524	-0.053	0.054
-230.771	-12.906	-0.111	0.072
-229.757	-38.575	0.077	0.041
-228.742	-104.193	-0.217	0.050
-227.727	87.451	0.081	0.089
-226.713	800.000	-0.058	-0.199
-225.698	101.272	0.085	-0.099
-224.684	590.333	-0.078	0.192
-223.669	-200.000	-0.007	-0.031
-222.655	800.000	-0.036	0.115
-221.640	6.439	0.149	-0.110
-220.625	23.761	-0.172	-0.142
-219.611	-200.000	-0.028	-0.244
-218.596	301.375	0.047	-0.087
-217.582	399.197	-0.140	0.294
-216.567	-137.466	-0.254	0.029
-215.552	800.000	-0.025	-0.090
-214.538	-200.000	-0.018	-0.183
-213.523	-51.853	-0.111	-0.052
-212.509	47.603	-0.063	0.059
-211.494	104.395	-0.229	0.269
-210.479	800.000	0.028	-0.105
-209.465	-115.539	0.226	0.042
-208.450	26.287	-0.179	0.150
-207.436	26.252	0.208	-0.173
-206.421	159.232	0.123	-0.171
-205.406	-106.876	-0.114	0.025
-204.392	0.720	0.053	0.038
-203.377	-17.531	0.287	-0.180
-202.363	-185.586	-0.103	-0.002
-201.348	-6.240	0.090	-0.061
-200.333	190.489	0.145	0.218
-199.319	488.585	-0.051	0.117
-198.304	124.268	-0.129	0.162
-197.290	-88.348	0.155	0.046
-196.275	214.155	-0.168	-0.266
-195.260	-200.000	0.056	-0.283
-194.246	106.054	0.116	0.138
-193.231	142.642	-0.110	-0.145
-192.217	-85.238	0.225	0.070
-191.202	424.420	0.076	0.163
-190.187	256.067	-0.094	-0.160
-189.173	-196.674	0.146	-0.001
-188.158	-32.435	0.532	0.296
-187.144	165.372	-0.127	0.179
-186.129	247.996	0.153	0.259
-185.114	-200.000	-0.015	-0.095
-184.100	46.194	-0.090	0.084
-183.085	-110.820	0.413	-0.085
-182.071	-193.159	-0.092	-0.001
-181.056	-87.093	0.187	-0.057
-180.042	206.488	0.171	0.265
-179.027	-54.661	0.119	-0.054
-178.012	800.000	0.030	0.091
-176.998	800.000	0.015	0.058
-175.983	-200.000	-0.003	0.194
-174.969	800.000	0.040	0.132
-173.954	-8.644	-0.059	0.040
-172.939	0.350	0.104	-0.074
-171.925	-200.000	0.003	0.145
-170.910	-1.194	0.257	0.181
-169.896	94.085	-0.196	-0.222
-168.881	-200.000	-0.291	0.000
-167.866	-200.000	0.027	-0.166
-166.852	41.434	-0.324	0.293
-165.837	800.000	-0.031	0.119
-164.823	367.550	0.109	-0.220
-163.808	281.041	-0.006	0.011
-162.793	-125.831	0.106	-0.016
-161.779	36.915	0.167	-0.147
-160.764	16.146	0.128	0.100
-159.750	638.533	0.070	-0.177
-158.735	260.344	0.089	0.154
-157.720	55.212	0.227	0.219
-156.706	37.132	0.247	0.218
-155.691	173.033	-0.038	0.054
-154.677	-200.000	-0.035	0.361
-153.662	-89.572	0.184	-0.054
-152.647	-130.461	-0.052	-0.007
-151.633	-200.000	0.004	-0.096
-150.618	-100.591	-0.329	-0.081
-149.604	-73.710	0.161	-0.058
-148.589	-107.741	-0.100	0.022
-147.574	-85.437	0.228	0.071
-146.560	-74.890	-0.150	-0.054
-145.545	-66.436	-0.200	0.079
-144.531	104.122	-0.330	0.387
-143.516	-38.443	-0.152	0.080
-142.502	-47.401	0.060	-0.029
-141.487	71.722	-0.025	-0.026
-140.472	-114.290	-0.098	0.019
-139.458	800.000	-0.037	-0.156
-138.443	800.000	0.024	-0.076
-137.429	-64.692	-0.205	-0.083
-136.414	231.200	-0.136	0.221
-135.399	-200.000	-0.075	-0.334
-134.385	127.068	0.168	0.213
-133.370	291.711	0.116	-0.210
-132.356	33.282	-0.248	-0.214
-131.341	800.000	0.060	0.218
-130.326	-140.433	-0.071	0.007
-129.312	132.939	-0.221	0.284
-128.297	346.007	-0.136	0.266
-127.283	136.215	0.201	0.261
-126.268	800.000	-0.045	0.149
-125.253	9.825	0.129	-0.098
-124.239	-8.543	-0.096	0.064
-123.224	148.386	-0.093	0.125
-122.210	-46.866	-0.223	0.109
-121.195	406.769	0.064	0.135
