DTS Sentinel unit serial number:	SN413079Multiplexer serial number:	ORYXHardware model number:	OX4-SRSoftware version number:	ORYX F/W v4.00 Oryx Data Collector v3.7.2.0data status	okinstallation	princeton_trtdifferential loss correction	single-endedforward channel	channel 3reverse channel	N/Adate	2019/09/10time	20:26:10forward acquisition time	60.00reverse acquisition time	0.00gamma	496.2192k internal	0.2326k external	0.2326temperature offset calibration	0.9917default loss term (dB/km)	0.3790temperature slope calibration	1.0000multiplexer offset coefficient	1.0000multiplexer slope coefficient	1.0000fibre end	0.00T internal ref (°C)	32.08T ext. ref 1 (°C)	-0.31T ext. ref 2 (°C)	25.25length (m)	temperature (°C)	Stokes	anti-Stokes-747.200	3.165	-0.170	-0.125
-746.185	-121.329	-0.077	-0.013
-745.171	800.000	-0.067	-0.199
-744.156	100.635	-0.266	0.312
-743.142	800.000	-0.142	0.513
-742.127	682.818	-0.104	0.273
-741.112	580.518	-0.167	-0.413
-740.098	188.025	-0.257	0.387
-739.083	-122.658	0.191	0.031
-738.069	800.000	0.052	0.151
-737.054	245.245	0.097	0.164
-736.039	-14.532	-0.126	-0.082
-735.025	-6.327	0.203	-0.140
-734.010	-200.000	-0.055	-0.244
-732.996	203.642	-0.050	-0.078
-731.981	24.463	0.045	0.038
-730.966	201.971	0.154	-0.240
-729.952	30.229	-0.115	-0.099
-728.937	44.300	-0.266	0.246
-727.923	-200.000	-0.012	0.281
-726.908	-48.142	-0.241	-0.117
-725.894	13.500	-0.324	-0.253
-724.879	-181.164	-0.230	-0.005
-723.864	-200.000	-0.033	0.383
-722.850	3.538	-0.205	0.151
-721.835	-55.088	0.175	0.079
-720.821	66.149	0.053	-0.054
-719.806	800.000	-0.012	-0.041
-718.791	59.824	-0.061	0.060
-717.777	-200.000	-0.064	-0.300
-716.762	-167.294	0.339	-0.014
-715.748	-131.122	-0.159	-0.021
-714.733	800.000	-0.004	-0.012
-713.718	38.652	-0.117	-0.105
-712.704	-138.160	0.110	-0.012
-711.689	-200.000	-0.021	0.305
-710.675	89.876	0.110	0.124
-709.660	-200.000	-0.002	0.165
-708.645	-100.526	0.275	-0.069
-707.631	96.567	-0.135	-0.156
-706.616	-140.098	-0.323	-0.034
-705.602	-146.836	0.159	0.014
-704.587	-200.000	0.017	0.369
-703.572	101.957	-0.221	-0.260
-702.558	-35.093	0.154	-0.084
-701.543	-102.113	0.278	0.068
-700.529	800.000	0.059	0.166
-699.514	-139.055	-0.192	0.021
-698.499	800.000	-0.068	0.296
-697.485	631.601	0.051	0.129
-696.470	800.000	-0.062	-0.254
-695.456	27.547	-0.239	0.203
-694.441	-90.243	0.183	0.054
-693.426	551.508	0.093	-0.225
-692.412	-52.462	0.226	0.105
-691.397	-200.000	0.006	0.248
-690.383	-127.604	0.168	-0.024
-689.368	-85.771	-0.024	0.007
-688.354	-200.000	-0.008	-0.126
-687.339	-2.639	0.077	-0.054
-686.324	-46.726	0.256	0.126
-685.310	131.644	0.267	-0.345
-684.295	92.074	0.120	-0.136
-683.281	-105.175	-0.162	0.037
-682.266	34.878	0.095	-0.084
-681.251	-114.569	-0.237	-0.046
-680.237	62.674	-0.124	-0.125
-679.222	-200.000	0.037	-0.204
-678.208	101.882	-0.042	0.049
-677.193	-74.126	-0.183	0.067
-676.178	-54.458	-0.202	0.092
-675.164	-107.796	-0.207	0.045
-674.149	-146.814	-0.149	0.013
-673.135	-200.000	-0.014	-0.121
-672.120	99.066	0.126	-0.146
-671.105	-71.451	-0.297	-0.112
-670.091	800.000	0.016	-0.051
-669.076	113.170	-0.203	-0.248
-668.062	800.000	-0.072	0.203
-667.047	-200.000	-0.001	0.353
-666.032	-200.000	-0.054	-0.330
-665.018	-200.000	-0.033	-0.237
-664.003	-21.461	0.158	-0.097
-662.989	-90.720	0.135	0.039
-661.974	69.419	-0.115	-0.119
-660.959	33.196	-0.224	-0.195
-659.945	-73.588	-0.280	0.103
-658.930	-169.013	-0.113	-0.004
-657.916	-71.025	-0.171	0.065
-656.901	110.232	0.130	-0.157
-655.886	-10.742	-0.100	-0.066
-654.872	268.052	0.193	-0.339
-653.857	-108.824	0.192	0.041
-652.843	131.375	-0.048	-0.062
-651.828	-86.647	-0.461	-0.142
-650.814	37.096	-0.119	-0.106
-649.799	442.600	-0.110	0.243
-648.784	-200.000	-0.002	-0.191
-647.770	-94.341	0.144	0.039
-646.755	-22.323	-0.036	-0.022
-645.741	-118.131	-0.136	-0.024
-644.726	190.000	-0.110	-0.166
-643.711	-86.902	-0.133	-0.041
-642.697	800.000	-0.065	-0.286
-641.682	51.563	-0.125	-0.119
-640.668	-72.868	-0.209	-0.077
-639.653	-70.181	0.288	-0.110
-638.638	-103.095	0.014	0.003
-637.624	28.398	-0.046	0.039
-636.609	186.455	0.166	-0.248
-635.595	-173.991	0.130	0.004
-634.580	-66.653	-0.205	0.082
-633.565	20.086	-0.313	0.254
-632.551	149.870	-0.119	0.163
-631.536	-99.193	-0.256	0.065
-630.522	-74.371	0.173	-0.063
-629.507	20.038	0.177	-0.143
-628.492	-200.000	-0.002	-0.051
-627.478	-90.090	-0.350	0.102
-626.463	227.599	0.082	-0.135
-625.449	364.621	0.001	-0.003
-624.434	5.252	0.140	-0.104
-623.419	-65.592	-0.184	-0.074
-622.405	-90.213	-0.168	-0.049
-621.390	-13.034	-0.197	0.129
-620.376	-82.342	0.250	-0.082
-619.361	-52.024	-0.440	-0.205
-618.346	-200.000	0.045	-0.359
-617.332	89.792	0.084	-0.094
-616.317	-200.000	0.011	0.205
-615.303	-200.000	-0.001	-0.294
-614.288	-200.000	0.051	-0.276
-613.273	800.000	0.039	-0.132
-612.259	-35.846	0.172	-0.094
-611.244	-11.149	-0.139	0.092
-610.230	-110.465	0.286	0.060
-609.215	-200.000	0.040	0.228
-608.201	-53.901	-0.133	-0.061
-607.186	114.878	-0.099	0.122
-606.171	-51.217	0.134	-0.063
-605.157	-82.500	0.209	-0.068
-604.142	-20.433	0.047	-0.029
-603.128	800.000	-0.030	-0.116
-602.113	-198.467	0.225	-0.001
-601.098	800.000	-0.052	-0.220
-600.084	-47.381	-0.190	-0.093
-599.069	800.000	-0.070	0.236
-598.055	30.413	0.143	-0.123
-597.040	-40.330	-0.021	-0.011
-596.025	168.800	0.072	-0.103
-595.011	-200.000	0.007	-0.209
-593.996	-200.000	0.000	-0.013
-592.982	260.393	0.059	0.103
-591.967	7.351	-0.301	-0.226
-590.952	-200.000	-0.001	0.095
-589.938	79.199	0.185	0.198
-588.923	-200.000	0.034	-0.449
-587.909	28.763	0.099	-0.084
-586.894	-200.000	0.002	-0.105
-585.879	113.743	-0.037	0.045
-584.865	-145.587	0.418	0.038
-583.850	192.441	0.086	-0.131
-582.836	199.417	-0.068	0.104
-581.821	329.013	0.125	0.242
-580.806	-111.707	0.137	-0.028
-579.792	-23.252	-0.144	-0.087
-578.777	-78.149	-0.423	-0.146
-577.763	462.705	0.109	0.244
-576.748	-73.816	-0.179	-0.065
-575.733	-200.000	0.005	0.137
-574.719	105.445	-0.031	0.036
-573.704	-200.000	0.022	-0.204
-572.690	-66.204	0.155	-0.062
-571.675	-82.369	0.149	0.048
-570.661	116.274	0.156	0.192
-569.646	-72.199	-0.299	0.111
-568.631	-147.058	-0.135	-0.012
-567.617	-38.033	0.195	-0.103
-566.602	-200.000	-0.036	-0.277
-565.588	-0.119	0.235	-0.167
-564.573	179.780	0.099	-0.145
-563.558	133.719	-0.150	0.194
-562.544	-200.000	-0.013	0.075
-561.529	-155.177	0.382	0.025
-560.515	30.614	-0.353	-0.302
-559.500	44.975	0.048	-0.044
-558.485	800.000	0.066	-0.205
-557.471	-122.897	-0.179	-0.029
-556.456	146.417	0.149	-0.200
-555.442	-156.667	0.200	-0.012
-554.427	-92.690	-0.084	0.023
-553.412	135.043	-0.028	-0.037
-552.398	800.000	0.144	0.420
-551.383	-152.343	-0.316	-0.023
-550.369	-170.010	0.091	0.003
-549.354	-154.769	0.088	0.006
-548.339	-200.000	-0.016	0.221
-547.325	648.804	-0.069	-0.178
-546.310	-200.000	-0.037	0.197
-545.296	-131.867	0.142	-0.019
-544.281	-120.071	0.200	0.034
-543.266	-58.360	-0.214	-0.093
-542.252	307.643	0.119	-0.222
-541.237	800.000	-0.053	-0.186
-540.223	800.000	0.029	0.128
-539.208	800.000	0.099	0.376
-538.193	-200.000	-0.077	0.480
-537.179	277.974	0.021	0.037
-536.164	800.000	-0.145	-0.401
-535.150	45.624	-0.186	0.172
-534.135	-84.965	-0.165	0.052
-533.121	328.509	0.093	0.179
-532.106	800.000	0.067	0.264
-531.091	172.793	-0.150	-0.216
-530.077	-137.547	-0.298	0.034
-529.062	-200.000	0.036	-0.371
-528.048	-61.972	0.335	-0.140
-527.033	429.879	0.090	0.194
-526.018	9.227	0.103	-0.078
-525.004	30.079	-0.082	0.070
-523.989	-91.375	0.113	-0.032
-522.975	-72.423	-0.104	-0.039
-521.960	-29.606	0.024	-0.014
-520.945	35.600	0.069	0.060
-519.931	204.542	0.030	-0.046
-518.916	-28.296	0.191	0.110
-517.902	-200.000	-0.068	-0.362
-516.887	232.604	-0.073	0.119
-515.872	53.363	-0.181	-0.174
-514.858	-135.721	0.240	0.028
-513.843	-104.624	0.152	0.035
-512.829	-1.325	0.245	0.173
-511.814	2.578	0.034	0.025
-510.799	-67.401	-0.213	-0.084
-509.785	83.991	0.097	0.106
-508.770	294.632	0.120	0.219
-507.756	800.000	-0.058	0.175
-506.741	0.573	-0.101	0.072
-505.726	-200.000	0.020	0.245
-504.712	162.377	0.073	0.103
-503.697	196.137	0.083	-0.127
-502.683	757.339	0.055	-0.149
-501.668	-30.257	-0.228	0.129
-500.653	-145.881	0.320	0.028
-499.639	-200.000	0.037	0.166
-498.624	-152.400	-0.158	-0.011
-497.610	-19.496	0.142	0.088
-496.595	0.381	-0.222	0.158
-495.581	56.915	-0.411	0.400
-494.566	-57.554	0.101	-0.044
-493.551	125.597	0.146	-0.184
-492.537	789.155	0.094	0.258
-491.522	632.181	-0.057	0.143
-490.508	-200.000	-0.002	-0.328
-489.493	-200.000	-0.005	-0.146
-488.478	-200.000	-0.044	-0.375
-487.464	-126.102	-0.249	0.037
-486.449	-156.146	-0.194	0.012
-485.435	-0.466	0.282	0.200
-484.420	-132.717	-0.372	0.048
-483.405	90.681	-0.197	-0.220
-482.391	-200.000	0.034	-0.310
-481.376	-83.649	-0.151	-0.048
-480.362	-28.175	0.044	-0.025
-479.347	800.000	0.024	0.092
-478.332	-37.287	-0.103	0.055
-477.318	-69.788	0.174	0.066
-476.303	559.625	-0.076	-0.184
-475.289	117.493	0.439	-0.539
-474.274	744.993	0.032	-0.086
-473.259	800.000	-0.089	-0.279
-472.245	800.000	0.080	0.240
-471.230	-1.911	0.148	-0.104
-470.216	41.593	-0.041	-0.037
-469.201	-200.000	-0.014	0.146
-468.186	-200.000	0.031	0.334
-467.172	64.432	0.368	-0.370
-466.157	-68.966	0.074	0.029
-465.143	-200.000	0.006	-0.150
-464.128	-134.628	-0.194	-0.024
-463.113	-89.211	0.043	0.013
-462.099	-28.453	-0.369	-0.212
-461.084	800.000	-0.052	-0.219
-460.070	554.077	0.124	0.298
-459.055	-47.408	0.414	-0.201
-458.040	-66.130	0.115	0.046
-457.026	138.449	-0.250	0.327
-456.011	-200.000	-0.100	0.473
-454.997	-200.000	-0.016	-0.138
-453.982	23.009	0.181	0.148
-452.968	-92.856	-0.240	0.067
-451.953	-200.000	-0.091	-0.669
-450.938	23.769	0.021	-0.018
-449.924	10.632	-0.176	0.134
-448.909	800.000	-0.100	-0.295
-447.895	159.338	0.141	-0.196
-446.880	322.195	-0.082	-0.155
-445.865	76.045	-0.157	0.166
-444.851	-147.084	0.149	0.013
-443.836	406.096	0.086	-0.181
-442.822	-200.000	0.037	-0.182
-441.807	-156.213	-0.304	-0.019
-440.792	42.196	0.133	-0.120
-439.778	46.851	0.153	-0.142
-438.763	-147.972	0.130	0.011
-437.749	-200.000	0.006	0.291
-436.734	-65.439	0.108	0.043
-435.719	208.879	-0.225	0.350
-434.705	-39.271	-0.271	0.142
-433.690	-121.240	0.445	-0.074
-432.676	422.581	-0.223	0.477
-431.661	-97.058	0.281	0.073
-430.646	8.783	0.144	0.108
-429.632	178.829	-0.044	-0.065
-428.617	-45.953	-0.253	0.124
-427.603	25.174	-0.125	0.104
-426.588	-77.433	0.118	0.041
-425.573	-133.159	-0.288	-0.036
-424.559	78.862	-0.211	-0.225
-423.544	800.000	0.084	0.268
-422.530	-91.979	-0.180	-0.051
-421.515	-200.000	-0.016	0.123
-420.500	15.571	0.239	-0.187
-419.486	-73.925	-0.245	0.089
-418.471	-11.688	0.059	0.038
-417.457	-200.000	0.040	-0.247
-416.442	-45.582	0.137	0.068
-415.428	-151.070	-0.159	0.012
-414.413	211.720	0.152	0.238
-413.398	-200.000	-0.011	-0.280
-412.384	-19.610	-0.146	-0.090
-411.369	15.141	-0.189	0.147
-410.355	-109.006	-0.178	-0.038
-409.340	-193.852	0.094	0.001
-408.325	-200.000	-0.008	0.180
-407.311	-200.000	0.019	0.156
-406.296	-199.637	-0.434	0.002
-405.282	800.000	-0.043	-0.135
-404.267	101.411	0.177	0.205
-403.252	-16.008	-0.163	0.103
-402.238	-161.610	0.428	-0.022
-401.223	-115.226	0.128	-0.024
-400.209	69.198	-0.234	-0.240
-399.194	251.269	-0.023	-0.039
-398.179	126.633	0.180	-0.227
-397.165	162.704	0.095	-0.132
-396.150	-32.704	-0.116	0.064
-395.136	82.074	-0.073	-0.079
-394.121	429.510	0.059	0.127
-393.106	-134.418	0.092	0.011
-392.092	-200.000	0.041	0.192
-391.077	-130.296	0.140	-0.019
-390.063	-59.050	0.052	0.023
-389.048	-200.000	0.028	0.205
-388.033	307.887	0.051	0.095
-387.019	-100.436	-0.182	0.045
-386.004	39.810	-0.095	-0.085
-384.990	-1.448	0.068	0.048
-383.975	612.123	0.137	-0.341
-382.960	130.527	-0.226	0.288
-381.946	87.590	0.169	0.186
-380.931	-200.000	0.023	0.131
-379.917	339.001	0.077	-0.150
-378.902	53.534	-0.130	-0.124
-377.888	800.000	-0.071	0.241
-376.873	367.463	0.096	-0.193
-375.858	-49.171	-0.061	0.029
-374.844	-52.191	0.174	-0.080
-373.829	-21.809	0.192	-0.116
-372.815	-200.000	-0.015	0.165
-371.800	28.062	-0.051	-0.042
-370.785	258.713	-0.165	-0.283
-369.771	-28.389	0.068	-0.039
-368.756	49.730	-0.272	-0.255
-367.742	-147.986	0.113	-0.009
-366.727	800.000	0.034	-0.120
-365.712	-200.000	-0.029	-0.210
-364.698	153.310	0.204	-0.278
-363.683	800.000	0.015	-0.046
-362.669	-13.656	0.274	-0.176
-361.654	-158.191	0.107	0.006
-360.639	-200.000	0.001	0.074
-359.625	800.000	-0.024	0.095
-358.610	-200.000	0.019	-0.147
-357.596	157.921	-0.016	-0.022
-356.581	235.460	0.048	-0.079
-355.566	725.964	-0.107	-0.284
-354.552	-21.601	-0.137	-0.083
-353.537	284.470	-0.101	-0.181
-352.523	-200.000	-0.010	0.228
-351.508	31.809	0.294	0.251
-350.493	-200.000	0.004	0.382
-349.479	81.663	0.008	0.009
-348.464	-18.142	-0.108	0.067
-347.450	-76.900	-0.301	-0.104
-346.435	130.901	0.250	-0.319
-345.420	486.835	0.011	0.026
-344.406	-123.791	0.142	0.022
-343.391	-67.887	-0.035	0.014
-342.377	-4.970	0.165	0.113
-341.362	277.269	0.066	-0.117
-340.348	-200.000	0.072	0.412
-339.333	-193.731	-0.477	-0.004
-338.318	800.000	-0.032	-0.105
-337.304	244.499	-0.151	0.251
-336.289	-23.136	0.152	0.091
-335.275	-154.904	-0.242	0.016
-334.260	800.000	0.104	-0.318
-333.245	87.381	-0.121	0.133
-332.231	-200.000	-0.002	0.012
-331.216	-142.470	-0.179	0.017
-330.202	56.657	-0.178	0.171
-329.187	-16.792	-0.337	0.211
-328.172	-14.242	0.171	0.110
-327.158	800.000	-0.121	0.394
-326.143	288.814	0.084	0.151
-325.129	-82.407	-0.358	-0.115
-324.114	-129.364	-0.214	-0.029
-323.099	800.000	-0.093	-0.282
-322.085	40.814	-0.173	-0.155
-321.070	76.030	0.075	-0.079
-320.056	-200.000	0.008	-0.101
-319.041	-200.000	0.016	0.082
-318.026	800.000	0.056	-0.210
-317.012	216.425	0.033	-0.052
-315.997	18.069	-0.120	0.095
-314.983	444.285	0.073	-0.160
-313.968	308.107	0.069	0.127
-312.953	-12.887	0.285	0.184
-311.939	-154.711	0.400	-0.026
-310.924	800.000	0.062	0.224
-309.910	800.000	-0.095	0.286
-308.895	-200.000	0.048	0.248
-307.880	-64.989	0.102	0.041
-306.866	-152.943	0.229	0.016
-305.851	89.932	0.201	-0.223
-304.837	-41.461	-0.115	0.059
-303.822	-200.000	-0.010	0.201
-302.807	302.444	-0.151	0.276
-301.793	-76.031	0.180	-0.063
-300.778	800.000	0.074	0.260
-299.764	91.803	0.013	-0.014
-298.749	-12.133	-0.140	0.091
-297.735	75.783	-0.175	0.183
-296.720	328.361	0.159	0.303
-295.705	-111.743	0.197	0.039
-294.691	-12.487	0.179	0.116
-293.676	800.000	-0.096	-0.275
-292.662	-109.165	0.396	0.083
-291.647	223.349	-0.082	0.132
-290.632	-8.130	-0.216	-0.144
-289.618	-200.000	-0.032	-0.142
-288.603	-200.000	-0.061	-0.475
-287.589	800.000	-0.154	-0.422
-286.574	-67.374	0.477	-0.186
-285.559	778.058	-0.061	0.165
-284.545	294.133	-0.125	0.226
-283.530	8.693	0.193	0.144
-282.516	-200.000	0.086	-0.386
-281.501	800.000	0.067	0.239
-280.486	-163.959	-0.122	-0.006
-279.472	-0.896	0.106	0.074
-278.457	-99.121	0.264	0.066
-277.443	138.075	-0.172	0.223
-276.428	-89.153	0.152	0.044
-275.413	24.463	-0.238	-0.195
-274.399	-8.721	0.251	-0.167
-273.384	-129.108	-0.307	0.042
-272.370	-130.251	-0.216	0.029
-271.355	-77.872	-0.216	-0.074
-270.340	565.357	0.090	0.216
-269.326	-46.738	-0.319	-0.155
-268.311	66.178	-0.233	-0.235
-267.297	161.941	-0.122	-0.169
-266.282	-64.394	-0.057	-0.023
-265.267	-54.581	0.280	-0.125
-264.253	-56.980	-0.077	-0.034
-263.238	146.386	0.038	0.050
-262.224	-127.771	-0.314	0.045
-261.209	800.000	-0.024	0.070
-260.195	490.576	0.147	0.333
-259.180	194.806	-0.127	0.190
-258.165	800.000	0.101	0.284
-257.151	-102.274	0.194	0.046
-256.136	800.000	0.019	0.053
-255.122	34.458	0.062	-0.054
-254.107	-125.374	0.254	0.038
-253.092	387.150	-0.047	-0.097
-252.078	800.000	0.031	-0.096
-251.063	-133.193	0.379	0.047
-250.049	759.657	0.073	0.197
-249.034	217.735	-0.096	0.151
-248.019	800.000	0.044	0.136
-247.005	-11.702	-0.117	0.076
-245.990	-200.000	0.033	0.160
-244.976	800.000	0.129	0.363
-243.961	31.361	0.025	-0.022
-242.946	800.000	0.019	-0.064
-241.932	800.000	0.125	-0.355
-240.917	-131.598	-0.312	-0.041
-239.903	384.116	-0.076	-0.156
-238.888	386.262	-0.096	0.196
-237.873	800.000	0.082	-0.252
-236.859	-130.779	0.360	0.048
-235.844	-200.000	0.001	-0.043
-234.830	-200.000	0.018	-0.079
-233.815	-86.214	0.305	-0.093
-232.800	3.117	-0.228	-0.164
-231.786	-60.932	-0.139	0.058
-230.771	-95.790	0.282	0.074
-229.757	360.491	-0.160	0.316
-228.742	9.597	-0.181	0.136
-227.727	-58.447	-0.190	0.082
-226.713	-200.000	0.006	0.235
-225.698	-7.822	0.171	-0.114
-224.684	-65.965	0.206	0.081
-223.669	20.327	0.155	-0.124
-222.655	-190.969	0.254	-0.003
-221.640	107.069	-0.174	0.204
-220.625	4.509	-0.194	-0.141
-219.611	161.488	0.099	0.137
-218.596	800.000	-0.098	0.297
-217.582	-200.000	-0.005	-0.089
-216.567	235.356	0.070	-0.115
-215.552	-117.252	0.350	-0.063
-214.538	189.794	-0.153	0.226
-213.523	-65.039	0.147	-0.058
-212.509	352.943	-0.070	0.137
-211.494	85.262	0.113	0.122
-210.479	-24.976	-0.211	0.123
-209.465	441.353	0.054	0.118
-208.450	107.979	0.084	-0.098
-207.436	127.685	0.186	-0.233
-206.421	-109.713	-0.157	0.033
-205.406	254.626	-0.096	0.163
-204.392	-200.000	-0.005	-0.044
-203.377	-153.826	0.250	0.017
-202.363	-200.000	0.002	-0.130
-201.348	-85.402	-0.112	-0.035
-200.333	73.843	0.086	0.089
-199.319	-115.122	0.235	0.044
-198.304	-142.083	0.167	-0.016
-197.290	800.000	-0.066	-0.241
-196.275	-200.000	0.013	0.194
-195.260	-200.000	0.001	-0.061
-194.246	317.030	0.048	0.089
-193.231	416.693	-0.162	0.342
-192.217	585.346	-0.119	0.289
-191.202	-43.644	-0.136	0.067
-190.187	-200.000	0.067	0.492
-189.173	-130.370	0.037	-0.005
-188.158	149.013	0.121	-0.162
-187.144	561.176	0.063	0.150
-186.129	137.323	0.132	0.170
-185.114	18.633	-0.105	0.083
-184.100	654.970	0.077	-0.195
-183.085	449.078	-0.058	-0.125
-182.071	-175.054	-0.272	0.007
-181.056	-200.000	0.044	-0.234
-180.042	111.077	0.119	0.142
-179.027	-200.000	-0.027	0.116
-178.012	800.000	0.067	-0.214
-176.998	-115.770	0.267	0.049
-175.983	13.464	-0.095	-0.073
-174.969	-94.716	-0.060	-0.016
-173.954	-41.008	-0.359	-0.183
-172.939	-47.860	-0.255	-0.122
-171.925	433.507	-0.182	-0.389
-170.910	-178.496	-0.169	-0.004
-169.896	179.654	0.162	0.235
-168.881	668.466	0.066	-0.168
-167.866	-121.525	-0.552	0.090
-166.852	332.700	0.012	-0.023
-165.837	568.097	0.027	0.064
-164.823	-181.381	-0.131	-0.003
-163.808	60.446	-0.142	0.139
-162.793	-126.292	0.245	0.036
-161.779	-200.000	-0.013	-0.128
-160.764	800.000	0.051	-0.152
-159.750	-146.230	0.220	0.019
-158.735	-200.000	0.018	0.098
-157.720	-200.000	-0.058	-0.325
-156.706	555.341	-0.094	0.223
-155.691	-67.752	0.046	0.018
-154.677	222.326	-0.141	0.224
-153.662	51.713	0.119	-0.111
-152.647	243.237	-0.071	-0.118
-151.633	800.000	0.090	-0.249
-150.618	800.000	-0.046	0.139
-149.604	59.241	-0.068	-0.066
-148.589	-136.459	-0.130	-0.015
-147.574	-163.941	-0.114	0.005
-146.560	-76.593	-0.126	0.044
-145.545	256.985	0.129	0.218
-144.531	-48.756	-0.244	0.116
-143.516	-19.615	0.192	0.117
-142.502	-200.000	-0.006	0.381
-141.487	-40.752	-0.167	-0.085
-140.472	35.540	-0.236	-0.204
-139.458	10.145	-0.122	-0.091
-138.443	800.000	0.048	0.201
-137.429	-138.022	0.477	-0.052
-136.414	-200.000	-0.004	0.019
-135.399	219.786	-0.154	-0.243
-134.385	-149.862	-0.481	0.037
-133.370	116.512	-0.250	-0.301
-132.356	-46.566	-0.204	-0.098
-131.341	197.685	0.115	0.172
-130.326	-34.786	0.208	0.112
-129.312	625.870	0.064	0.158
-128.297	442.888	-0.055	-0.120
-127.283	94.953	-0.190	0.212
-126.268	-36.594	0.199	0.105
-125.253	290.549	0.157	0.282
-124.239	-75.370	0.068	-0.024
-123.224	-200.000	0.007	0.065
-122.210	800.000	-0.102	-0.357
-121.195	60.363	0.364	0.355
