DTS Sentinel unit serial number:	SN413079Multiplexer serial number:	ORYXHardware model number:	OX4-SRSoftware version number:	ORYX F/W v4.00 Oryx Data Collector v3.7.2.0data status	okinstallation	princeton_trtdifferential loss correction	single-endedforward channel	channel 3reverse channel	N/Adate	2019/09/10time	20:42:11forward acquisition time	60.00reverse acquisition time	0.00gamma	496.2192k internal	0.2327k external	0.2327temperature offset calibration	0.9921default loss term (dB/km)	0.3790temperature slope calibration	1.0000multiplexer offset coefficient	1.0000multiplexer slope coefficient	1.0000fibre end	0.00T internal ref (°C)	31.87T ext. ref 1 (°C)	-0.31T ext. ref 2 (°C)	25.24length (m)	temperature (°C)	Stokes	anti-Stokes-747.200	-200.000	-0.032	0.420
-746.185	94.222	-0.394	0.451
-745.171	800.000	-0.048	0.196
-744.156	1.558	-0.195	0.142
-743.142	-163.100	0.137	-0.007
-742.127	800.000	-0.094	0.337
-741.112	-169.395	-0.156	-0.006
-740.098	123.553	0.246	0.311
-739.083	498.802	-0.060	0.140
-738.069	800.000	-0.045	0.163
-737.054	70.922	-0.287	-0.300
-736.039	-47.433	-0.257	-0.126
-735.025	-140.249	0.063	0.007
-734.010	-24.214	-0.173	-0.104
-732.996	73.049	-0.113	0.119
-731.981	111.864	-0.227	0.276
-730.966	-200.000	-0.046	0.419
-729.952	22.667	-0.108	-0.089
-728.937	-23.367	-0.201	-0.122
-727.923	25.854	0.253	-0.213
-726.908	-200.000	0.025	-0.292
-725.894	800.000	-0.073	-0.239
-724.879	800.000	-0.106	-0.331
-723.864	-152.779	0.065	0.005
-722.850	-103.787	-0.055	-0.013
-721.835	-64.257	-0.406	0.167
-720.821	-73.680	0.206	-0.076
-719.806	-8.833	0.433	0.292
-718.791	-200.000	-0.004	-0.252
-717.777	-200.000	0.026	-0.147
-716.762	-22.157	-0.355	-0.217
-715.748	10.971	0.037	0.029
-714.733	-92.601	0.168	-0.047
-713.718	171.216	0.280	-0.405
-712.704	122.814	-0.238	-0.300
-711.689	-9.725	-0.205	0.137
-710.675	361.022	0.114	-0.230
-709.660	-133.141	0.337	0.043
-708.645	-94.274	-0.217	0.060
-707.631	39.064	0.148	-0.133
-706.616	800.000	-0.128	-0.417
-705.602	-123.077	-0.062	0.010
-704.587	-200.000	-0.043	-0.341
-703.572	150.791	0.214	0.293
-702.558	41.795	-0.143	0.131
-701.543	102.664	0.350	-0.412
-700.529	-155.194	-0.172	0.011
-699.514	-200.000	-0.052	0.288
-698.499	800.000	0.012	0.049
-697.485	14.113	-0.122	0.096
-696.470	-200.000	0.003	-0.295
-695.456	426.026	-0.108	0.235
-694.441	800.000	-0.046	-0.146
-693.426	800.000	-0.114	-0.468
-692.412	800.000	-0.069	-0.265
-691.397	224.995	0.182	0.296
-690.383	46.201	-0.263	-0.246
-689.368	-200.000	0.106	0.502
-688.354	-200.000	0.038	0.223
-687.339	-46.176	-0.402	-0.199
-686.324	-17.216	0.261	-0.165
-685.310	166.296	0.232	-0.331
-684.295	-4.444	-0.497	-0.346
-683.281	800.000	-0.082	-0.261
-682.266	-22.099	-0.272	0.166
-681.251	-7.948	0.035	-0.024
-680.237	258.972	-0.220	0.382
-679.222	-147.426	-0.224	-0.019
-678.208	-200.000	0.004	-0.350
-677.193	-8.771	0.247	-0.167
-676.178	425.159	0.117	0.252
-675.164	800.000	-0.116	-0.321
-674.149	-120.452	0.018	-0.003
-673.135	-16.638	0.332	0.211
-672.120	192.618	0.111	-0.169
-671.105	-200.000	-0.004	0.073
-670.091	159.234	0.139	-0.194
-669.076	800.000	-0.065	-0.250
-668.062	257.190	0.073	0.127
-667.047	115.786	0.096	0.118
-666.032	28.698	-0.225	0.192
-665.018	138.023	-0.345	-0.455
-664.003	-157.416	-0.071	-0.004
-662.989	-45.276	-0.284	0.142
-661.974	-200.000	0.016	-0.260
-660.959	-200.000	0.010	-0.289
-659.945	-200.000	-0.027	-0.229
-658.930	-67.953	0.340	0.133
-657.916	-68.426	0.089	0.035
-656.901	99.751	-0.216	0.252
-655.886	-101.921	0.227	-0.055
-654.872	-26.848	0.338	-0.199
-653.857	75.573	0.126	-0.133
-652.843	-31.414	-0.305	0.173
-651.828	-20.882	0.198	-0.122
-650.814	-200.000	0.044	0.249
-649.799	230.789	-0.094	0.155
-648.784	338.072	0.148	-0.290
-647.770	800.000	0.071	-0.238
-646.755	-155.467	0.328	-0.021
-645.741	148.637	-0.025	-0.034
-644.726	107.667	0.289	-0.346
-643.711	18.258	-0.053	-0.042
-642.697	10.364	0.288	-0.220
-641.682	-200.000	0.007	0.351
-640.668	-200.000	0.037	0.190
-639.653	259.461	0.051	0.089
-638.638	800.000	0.075	0.298
-637.624	54.015	-0.105	0.101
-636.609	800.000	-0.061	-0.248
-635.595	800.000	-0.089	-0.247
-634.580	-124.685	0.330	0.051
-633.565	579.214	0.143	-0.352
-632.551	54.628	-0.029	0.028
-631.536	-169.231	-0.240	0.009
-630.522	238.872	-0.092	0.153
-629.507	-200.000	-0.015	0.187
-628.492	-200.000	-0.033	-0.200
-627.478	800.000	0.078	0.293
-626.463	-29.872	-0.122	-0.070
-625.449	292.337	0.122	-0.224
-624.434	800.000	0.042	-0.133
-623.419	-106.389	-0.053	-0.012
-622.405	800.000	0.127	0.426
-621.390	-123.945	-0.187	-0.029
-620.376	541.400	0.091	-0.217
-619.361	664.844	0.151	0.392
-618.346	-138.649	0.131	0.014
-617.332	-34.227	-0.183	-0.101
-616.317	-95.413	0.103	0.028
-615.303	85.240	-0.099	0.109
-614.288	108.436	-0.065	-0.078
-613.273	-96.158	-0.184	0.049
-612.259	-11.517	-0.334	0.220
-611.244	166.757	-0.175	0.248
-610.230	-40.140	0.103	-0.054
-609.215	150.628	-0.108	0.147
-608.201	-158.725	0.105	-0.006
-607.186	141.450	-0.213	-0.283
-606.171	-137.050	-0.266	-0.030
-605.157	-200.000	-0.023	-0.179
-604.142	377.540	-0.049	-0.100
-603.128	-40.516	-0.313	0.163
-602.113	126.024	-0.086	-0.109
-601.098	25.475	0.096	-0.080
-600.084	-200.000	-0.043	-0.355
-599.069	144.165	-0.059	-0.079
-598.055	-200.000	-0.015	0.232
-597.040	-16.291	0.367	0.233
-596.025	62.636	-0.147	-0.147
-595.011	-61.836	-0.149	0.062
-593.996	588.590	-0.012	0.029
-592.982	-0.999	-0.221	0.157
-591.967	77.656	-0.138	0.147
-590.952	-82.550	-0.246	0.080
-589.938	-108.469	0.308	0.066
-588.923	-200.000	0.069	-0.321
-587.909	57.303	0.207	-0.202
-586.894	-25.669	0.065	0.038
-585.879	7.467	0.239	-0.179
-584.865	65.263	0.213	0.216
-583.850	-139.229	-0.255	-0.028
-582.836	800.000	0.107	-0.302
-581.821	-76.675	0.381	-0.134
-580.806	-200.000	-0.019	-0.238
-579.792	124.320	0.064	-0.080
-578.777	-20.364	-0.222	0.137
-577.763	157.356	0.132	-0.183
-576.748	345.434	0.043	0.086
-575.733	-55.097	-0.099	-0.044
-574.719	-158.399	-0.220	0.013
-573.704	787.935	-0.119	0.326
-572.690	-200.000	0.055	0.316
-571.675	-160.491	-0.179	-0.010
-570.661	33.199	-0.163	-0.142
-569.646	-69.502	-0.257	-0.098
-568.631	196.268	0.249	-0.380
-567.617	-103.294	0.240	0.057
-566.602	-39.978	0.399	0.208
-565.588	38.515	0.207	-0.184
-564.573	607.181	-0.074	-0.185
-563.558	-200.000	-0.041	-0.439
-562.544	-200.000	-0.024	-0.208
-561.529	-81.166	-0.131	-0.043
-560.515	-179.138	0.093	0.002
-559.500	201.524	0.170	-0.261
-558.485	-92.831	-0.168	0.047
-557.471	-200.000	0.018	-0.260
-556.456	-138.455	0.125	-0.014
-555.442	-200.000	-0.001	0.186
-554.427	92.983	-0.205	0.232
-553.412	800.000	-0.086	-0.346
-552.398	-52.642	-0.327	-0.151
-551.383	-27.489	-0.318	-0.185
-550.369	-163.615	-0.336	0.016
-549.354	-200.000	0.008	0.212
-548.339	-137.677	-0.448	0.050
-547.325	-97.029	0.153	-0.040
-546.310	-167.374	-0.184	-0.007
-545.296	394.263	0.057	-0.118
-544.281	308.362	-0.073	-0.136
-543.266	-200.000	0.018	-0.080
-542.252	-145.957	-0.139	-0.012
-541.237	-84.701	0.062	-0.020
-540.223	-200.000	0.009	-0.102
-539.208	66.179	-0.019	-0.019
-538.193	-200.000	-0.003	-0.117
-537.179	-200.000	-0.003	-0.137
-536.164	800.000	-0.070	-0.197
-535.150	-26.371	-0.144	-0.084
-534.135	231.753	0.156	0.256
-533.121	-58.919	0.063	0.027
-532.106	800.000	-0.044	0.129
-531.091	131.339	0.093	0.120
-530.077	-91.911	0.408	0.116
-529.062	800.000	-0.081	0.274
-528.048	63.740	-0.051	0.051
-527.033	800.000	0.135	0.377
-526.018	-2.964	-0.130	-0.091
-525.004	-200.000	0.006	0.307
-523.989	-200.000	0.015	0.312
-522.975	-170.084	-0.095	-0.003
-521.960	536.260	-0.085	0.201
-520.945	-41.226	0.233	0.120
-519.931	-151.788	0.239	0.018
-518.916	-80.643	-0.175	-0.058
-517.902	800.000	0.082	0.316
-516.887	120.299	-0.239	-0.297
-515.872	36.834	-0.193	-0.170
-514.858	-194.558	-0.386	-0.003
-513.843	800.000	0.104	-0.405
-512.829	-200.000	0.064	-0.434
-511.814	-107.591	-0.176	-0.038
-510.799	-200.000	-0.049	0.306
-509.785	-56.953	-0.139	-0.061
-508.770	-200.000	-0.014	-0.207
-507.756	10.282	0.296	-0.225
-506.741	800.000	-0.072	-0.205
-505.726	800.000	0.073	0.296
-504.712	-92.486	0.190	-0.053
-503.697	-200.000	0.033	0.183
-502.683	-77.981	0.379	-0.131
-501.668	-76.901	0.161	-0.056
-500.653	-131.285	-0.303	0.040
-499.639	41.759	-0.244	0.221
-498.624	232.046	-0.158	-0.259
-497.610	-150.612	-0.212	0.016
-496.595	421.676	0.018	0.038
-495.581	-145.409	0.249	0.022
-494.566	-57.130	0.108	-0.048
-493.551	89.523	-0.182	-0.203
-492.537	-81.871	-0.208	0.068
-491.522	-109.197	0.106	0.023
-490.508	-114.827	0.232	-0.044
-489.493	800.000	-0.040	0.126
-488.478	417.953	0.089	-0.191
-487.464	72.869	0.223	-0.233
-486.449	800.000	0.040	0.135
-485.435	800.000	-0.088	0.247
-484.420	70.660	-0.250	-0.258
-483.405	92.637	-0.051	-0.057
-482.391	800.000	-0.076	-0.217
-481.376	416.582	-0.137	0.292
-480.362	-152.326	0.275	0.020
-479.347	-200.000	0.037	-0.343
-478.332	133.842	-0.062	-0.079
-477.318	800.000	0.053	0.220
-476.303	800.000	0.052	0.194
-475.289	-138.692	0.198	-0.022
-474.274	52.293	-0.199	-0.189
-473.259	121.592	0.123	-0.153
-472.245	-31.157	0.325	0.183
-471.230	-200.000	-0.018	-0.154
-470.216	-108.118	0.227	0.049
-469.201	-93.314	0.197	0.054
-468.186	-200.000	0.002	0.170
-467.172	117.038	-0.080	-0.098
-466.157	-200.000	0.001	0.237
-465.143	-200.000	0.029	0.139
-464.128	528.358	-0.085	0.201
-463.113	222.534	0.075	0.121
-462.099	-71.758	-0.157	0.058
-461.084	-87.166	0.129	-0.039
-460.070	-48.477	-0.164	-0.079
-459.055	800.000	0.030	-0.128
-458.040	-83.115	-0.398	0.128
-457.026	50.679	-0.141	-0.133
-456.011	-107.608	0.446	0.097
-454.997	174.787	-0.087	-0.125
-453.982	133.317	0.233	-0.300
-452.968	276.676	0.057	-0.101
-451.953	-149.141	-0.142	-0.011
-450.938	43.052	-0.266	-0.242
-449.924	-200.000	-0.005	-0.306
-448.909	-165.794	0.207	-0.009
-447.895	-154.986	0.318	0.021
-446.880	-86.365	0.290	0.089
-445.865	-195.378	-0.454	-0.003
-444.851	-200.000	-0.318	0.000
-443.836	-200.000	0.023	0.171
-442.822	-89.590	-0.047	-0.014
-441.807	3.964	0.107	0.078
-440.792	-20.851	0.340	0.207
-439.778	800.000	-0.044	0.125
-438.763	-21.328	0.232	0.141
-437.749	46.166	0.257	0.237
-436.734	-110.978	-0.323	0.066
-435.719	409.016	0.082	0.172
-434.705	32.945	0.152	0.132
-433.690	-92.435	-0.076	0.021
-432.676	259.609	-0.088	-0.152
-431.661	-200.000	-0.009	0.110
-430.646	800.000	-0.048	-0.193
-429.632	-200.000	-0.005	0.073
-428.617	-76.875	0.156	0.054
-427.603	73.454	0.210	0.219
-426.588	-200.000	0.030	0.137
-425.573	60.113	0.037	0.036
-424.559	-156.636	-0.147	0.009
-423.544	15.169	-0.099	0.078
-422.530	-36.739	-0.129	0.069
-421.515	19.397	-0.145	-0.116
-420.500	-134.004	-0.365	0.045
-419.486	-200.000	0.023	-0.283
-418.471	-200.000	0.056	-0.263
-417.457	-50.796	0.373	-0.174
-416.442	-118.991	0.160	0.028
-415.428	-200.000	0.049	-0.286
-414.413	-48.189	0.310	0.149
-413.398	40.056	0.055	0.049
-412.384	586.319	0.128	0.314
-411.369	800.000	-0.069	0.261
-410.355	169.427	0.090	-0.128
-409.340	-170.348	-0.232	-0.008
-408.325	-70.239	-0.235	0.089
-407.311	-29.107	-0.117	-0.067
-406.296	-98.110	-0.369	0.094
-405.282	118.145	0.098	0.120
-404.267	800.000	0.131	0.428
-403.252	64.751	-0.147	0.148
-402.238	-115.631	-0.235	0.044
-401.223	123.778	-0.150	-0.187
-400.209	800.000	0.041	0.165
-399.194	62.481	0.269	-0.267
-398.179	154.738	-0.150	-0.205
-397.165	-137.883	-0.088	0.010
-396.150	9.599	-0.188	-0.141
-395.136	-163.784	-0.290	0.014
-394.121	263.690	0.180	-0.312
-393.106	34.393	0.091	-0.079
-392.092	-118.028	0.213	-0.038
-391.077	80.797	0.206	-0.221
-390.063	122.939	-0.084	0.104
-389.048	-200.000	0.007	-0.075
-388.033	-200.000	0.026	-0.120
-387.019	-77.644	-0.279	0.096
-386.004	-42.127	-0.265	-0.134
-384.990	800.000	0.040	-0.112
-383.975	-151.701	0.197	0.014
-382.960	121.900	-0.065	0.081
-381.946	88.847	-0.180	0.199
-380.931	-88.391	0.087	0.026
-379.917	-200.000	-0.016	-0.282
-378.902	-200.000	0.064	0.285
-377.888	95.906	-0.195	-0.221
-376.873	-60.084	0.077	-0.033
-375.858	21.227	0.130	0.105
-374.844	448.933	0.113	0.248
-373.829	450.708	0.059	-0.130
-372.815	481.283	-0.093	-0.210
-371.800	98.895	-0.241	-0.277
-370.785	-109.936	-0.154	-0.032
-369.771	10.676	-0.453	0.343
-368.756	94.270	0.149	-0.168
-367.742	-130.590	-0.393	-0.053
-366.727	-200.000	0.043	-0.306
-365.712	17.822	0.284	-0.225
-364.698	-37.326	-0.070	0.037
-363.683	-126.513	0.298	0.044
-362.669	569.788	0.070	-0.170
-361.654	-200.000	-0.017	0.092
-360.639	-2.100	-0.291	0.203
-359.625	59.331	-0.142	-0.139
-358.610	139.050	-0.161	0.211
-357.596	-117.203	-0.202	-0.036
-356.581	464.612	0.015	0.034
-355.566	-200.000	0.054	0.330
-354.552	-153.693	-0.169	-0.012
-353.537	78.632	-0.225	0.239
-352.523	-106.070	-0.093	-0.021
-351.508	774.618	0.054	-0.146
-350.493	615.550	-0.080	-0.200
-349.479	800.000	0.072	-0.261
-348.464	-96.637	-0.250	0.065
-347.450	-200.000	0.028	-0.132
-346.435	-200.000	0.002	0.127
-345.420	-180.407	0.114	-0.002
-344.406	42.054	-0.223	-0.201
-343.391	10.952	0.088	0.067
-342.377	-200.000	-0.027	0.186
-341.362	252.490	-0.160	-0.271
-340.348	-200.000	0.031	-0.147
-339.333	-133.512	0.070	-0.009
-338.318	15.761	-0.080	-0.062
-337.304	-22.561	0.130	0.078
-336.289	-148.504	0.071	-0.006
-335.275	172.262	0.090	0.128
-334.260	84.607	-0.231	0.250
-333.245	-62.362	-0.273	0.113
-332.231	94.124	0.069	0.077
-331.216	-96.257	0.307	-0.081
-330.202	800.000	0.072	0.287
-329.187	-92.344	0.311	0.087
-328.172	-92.573	-0.223	0.062
-327.158	294.790	0.076	0.138
-326.143	113.730	0.266	-0.320
-325.129	-83.483	-0.186	0.059
-324.114	205.389	0.217	0.335
-323.099	-200.000	-0.020	-0.190
-322.085	26.395	-0.037	0.030
-321.070	176.027	0.088	-0.127
-320.056	-112.531	-0.330	-0.065
-319.041	-125.200	0.457	0.069
-318.026	-108.442	-0.394	0.084
-317.012	98.512	0.105	-0.120
-315.997	21.852	-0.133	-0.107
-314.983	-183.847	0.337	0.006
-313.968	121.043	0.108	-0.133
-312.953	-106.922	-0.128	-0.028
-311.939	270.332	0.165	-0.288
-310.924	-200.000	0.016	-0.273
-309.910	444.927	0.085	-0.185
-308.895	113.293	-0.215	-0.259
-307.880	-75.739	-0.141	-0.050
-306.866	337.447	0.141	-0.271
-305.851	216.152	0.127	0.201
-304.837	2.767	0.454	-0.326
-303.822	-200.000	-0.077	0.349
-302.807	355.024	0.033	0.065
-301.793	397.619	0.068	0.140
-300.778	-200.000	0.030	-0.234
-299.764	-135.873	-0.266	-0.031
-298.749	-20.802	0.136	0.082
-297.735	55.376	-0.154	-0.148
-296.720	139.173	-0.032	0.041
-295.705	757.156	0.180	0.482
-294.691	-200.000	-0.083	-0.395
-293.676	373.413	-0.063	-0.127
-292.662	-82.848	0.225	0.072
-291.647	168.548	0.078	-0.110
-290.632	-125.494	-0.139	0.021
-289.618	45.585	0.105	-0.096
-288.603	42.803	-0.110	0.099
-287.589	439.519	0.167	0.362
-286.574	800.000	0.010	0.034
-285.559	20.384	-0.065	-0.052
-284.545	-200.000	-0.007	-0.091
-283.530	-200.000	-0.019	-0.207
-282.516	163.602	0.155	0.215
-281.501	182.067	0.113	0.164
-280.486	-14.967	0.076	-0.048
-279.472	316.056	-0.080	0.150
-278.457	-41.311	-0.070	0.035
-277.443	110.613	0.161	-0.191
-276.428	33.441	0.107	-0.092
-275.413	283.605	0.128	0.228
-274.399	-148.154	-0.268	-0.022
-273.384	452.095	-0.049	0.107
-272.370	-157.636	0.196	-0.012
-271.355	101.554	0.207	-0.239
-270.340	800.000	-0.065	-0.199
-269.326	-200.000	-0.037	0.231
-268.311	-172.947	-0.218	0.007
-267.297	-9.740	0.276	-0.182
-266.282	-200.000	-0.001	-0.201
-265.267	90.529	0.136	0.151
-264.253	-100.650	-0.218	0.053
-263.238	341.461	0.114	0.221
-262.224	-121.217	0.386	0.064
-261.209	167.745	0.105	-0.148
-260.195	429.696	-0.095	-0.204
-259.180	-99.872	0.229	-0.057
-258.165	27.297	0.130	-0.108
-257.151	119.766	-0.118	0.145
-256.136	-60.473	0.181	-0.076
-255.122	501.921	-0.090	0.206
-254.107	255.513	0.037	-0.062
-253.092	-19.089	-0.059	-0.036
-252.078	-53.974	0.267	0.120
-251.063	-200.000	0.003	0.108
-250.049	-93.318	0.195	0.053
-249.034	-31.405	-0.267	0.149
-248.019	-177.251	-0.145	-0.004
-247.005	411.522	-0.051	-0.108
-245.990	76.533	-0.084	-0.088
-244.976	125.145	-0.071	0.088
-243.961	800.000	0.047	-0.150
-242.946	-200.000	-0.026	-0.217
-241.932	-200.000	-0.026	0.116
-240.917	-92.312	0.207	-0.058
-239.903	177.035	0.159	0.228
-238.888	121.158	-0.106	0.130
-237.873	134.918	-0.208	0.267
-236.859	648.905	-0.063	0.160
-235.844	-200.000	0.011	0.197
-234.830	324.299	0.088	0.167
-233.815	30.036	-0.013	-0.011
-232.800	473.697	0.089	-0.199
-231.786	-91.354	0.257	0.073
-230.771	-116.096	-0.151	-0.028
-229.757	254.613	-0.261	0.440
-228.742	-3.349	0.243	-0.167
-227.727	17.225	0.144	-0.113
-226.713	-64.205	-0.020	-0.008
-225.698	-12.032	0.203	-0.131
-224.684	176.177	0.034	0.049
-223.669	-155.550	-0.161	0.010
-222.655	57.273	-0.088	0.085
-221.640	-57.553	0.125	-0.054
-220.625	800.000	0.034	0.098
-219.611	-200.000	0.043	0.331
-218.596	-200.000	-0.037	0.411
-217.582	58.587	-0.169	0.163
-216.567	-158.263	0.264	-0.015
-215.552	800.000	0.029	0.115
-214.538	-154.456	-0.075	-0.005
-213.523	488.389	0.080	-0.180
-212.509	800.000	-0.133	-0.417
-211.494	-200.000	0.033	-0.463
-210.479	98.707	0.094	0.107
-209.465	-62.216	-0.093	-0.038
-208.450	-200.000	-0.029	-0.174
-207.436	-122.414	0.110	-0.018
-206.421	256.658	-0.139	0.235
-205.406	-200.000	-0.054	-0.503
-204.392	-180.466	-0.278	0.006
-203.377	-200.000	0.006	-0.186
-202.363	-35.858	-0.285	-0.152
-201.348	110.784	0.077	0.091
-200.333	-116.923	-0.078	0.014
-199.319	74.956	-0.279	0.291
-198.304	-200.000	-0.016	0.458
-197.290	-200.000	-0.009	0.238
-196.275	7.113	-0.094	-0.070
-195.260	-33.627	0.293	-0.160
-194.246	800.000	0.086	0.276
-193.231	88.183	-0.121	0.132
-192.217	214.216	0.177	-0.277
-191.202	-76.602	0.169	0.059
-190.187	800.000	0.056	0.161
-189.173	381.643	0.169	0.343
-188.158	-117.838	-0.172	0.030
-187.144	29.766	-0.232	0.195
-186.129	-96.383	-0.189	0.049
-185.114	1.397	0.187	0.133
-184.100	176.870	-0.178	0.255
-183.085	295.385	0.142	0.257
-182.071	-75.741	0.068	0.024
-181.056	-100.959	-0.297	-0.072
-180.042	800.000	-0.074	-0.205
-179.027	-58.320	0.300	-0.129
-178.012	-134.512	0.241	-0.029
-176.998	766.674	0.073	0.195
-175.983	200.261	-0.039	0.058
-174.969	-48.166	0.085	-0.040
-173.954	-52.707	-0.339	-0.154
-172.939	-27.418	0.162	-0.093
-171.925	-47.643	0.146	0.070
-170.910	800.000	0.057	0.224
-169.896	-68.876	0.188	-0.072
-168.881	800.000	0.052	0.182
-167.866	404.629	0.031	-0.064
-166.852	-200.000	-0.020	0.156
-165.837	-200.000	-0.050	0.422
-164.823	-99.162	0.037	-0.009
-163.808	-86.815	-0.150	-0.045
-162.793	136.817	0.146	-0.188
-161.779	167.177	-0.135	0.189
-160.764	-84.607	-0.070	-0.022
-159.750	-200.000	-0.080	0.422
-158.735	-200.000	-0.007	-0.076
-157.720	-200.000	0.020	-0.105
-156.706	-200.000	-0.005	-0.118
-155.691	4.618	0.156	-0.113
-154.677	320.703	-0.151	0.282
-153.662	-114.212	0.250	0.048
-152.647	448.842	-0.026	-0.058
-151.633	273.645	0.109	0.190
-150.618	-124.121	-0.357	-0.055
-149.604	-45.512	-0.289	0.141
-148.589	-200.000	-0.017	-0.093
-147.574	800.000	0.028	0.115
-146.560	45.309	0.104	-0.095
-145.545	26.230	-0.043	-0.035
-144.531	53.067	0.169	-0.159
-143.516	-62.650	-0.228	0.093
-142.502	668.528	0.114	0.290
-141.487	800.000	0.082	0.337
-140.472	129.026	-0.108	0.136
-139.458	180.420	-0.060	-0.087
-138.443	140.105	-0.272	0.353
-137.429	300.302	0.143	-0.260
-136.414	-62.993	0.235	-0.096
-135.399	800.000	0.115	0.354
-134.385	23.059	-0.292	0.236
-133.370	-141.698	-0.449	-0.044
-132.356	155.754	-0.060	0.081
-131.341	615.443	0.086	-0.213
-130.326	-123.003	0.468	-0.074
-129.312	13.786	0.266	0.204
-128.297	-1.704	-0.113	-0.078
-127.283	329.600	0.124	0.234
-126.268	-200.000	0.032	-0.298
-125.253	-48.889	-0.103	-0.049
-124.239	-200.000	-0.032	0.228
-123.224	-200.000	-0.020	-0.145
-122.210	-113.879	0.249	0.048
