DTS Sentinel unit serial number:	SN413079Multiplexer serial number:	ORYXHardware model number:	OX4-SRSoftware version number:	ORYX F/W v4.00 Oryx Data Collector v3.7.2.0data status	okinstallation	princeton_trtdifferential loss correction	single-endedforward channel	channel 3reverse channel	N/Adate	2019/09/11time	16:14:10forward acquisition time	60.00reverse acquisition time	0.00gamma	496.2192k internal	0.2287k external	0.2287temperature offset calibration	0.9989default loss term (dB/km)	0.3790temperature slope calibration	1.0000multiplexer offset coefficient	1.0000multiplexer slope coefficient	1.0000fibre end	0.00T internal ref (°C)	43.31T ext. ref 1 (°C)	1.06T ext. ref 2 (°C)	39.56length (m)	temperature (°C)	Stokes	anti-Stokes-747.200	800.000	-0.066	0.255
-746.185	-66.435	0.221	0.090
-745.171	-200.000	0.009	0.290
-744.156	59.067	-0.142	0.144
-743.142	52.075	0.099	-0.097
-742.127	-96.050	0.123	0.033
-741.112	-43.604	0.180	0.093
-740.098	298.651	-0.233	0.440
-739.083	118.609	0.291	0.368
-738.069	-1.379	-0.241	0.174
-737.054	-98.544	0.145	0.038
-736.039	-131.052	-0.437	-0.060
-735.025	-170.377	0.171	0.006
-734.010	709.125	0.070	0.189
-732.996	800.000	0.008	-0.026
-731.981	428.900	-0.111	0.245
-730.966	-200.000	0.014	-0.322
-729.952	161.012	-0.079	-0.113
-728.937	223.668	-0.207	-0.343
-727.923	337.234	-0.035	-0.069
-726.908	-19.812	-0.302	0.192
-725.894	-46.194	-0.445	0.224
-724.879	590.539	-0.096	0.243
-723.864	-137.742	0.178	-0.020
-722.850	-97.259	-0.131	-0.035
-721.835	-30.425	-0.169	-0.098
-720.821	-200.000	-0.000	0.217
-719.806	39.414	-0.085	0.078
-718.791	265.456	0.011	0.020
-717.777	291.072	0.076	-0.141
-716.762	-84.620	0.104	-0.034
-715.748	-159.445	-0.101	0.006
-714.733	288.729	0.051	0.094
-713.718	-70.798	-0.115	-0.044
-712.704	-127.178	0.092	-0.014
-711.689	-111.117	-0.051	0.011
-710.675	-80.506	0.286	0.098
-709.660	-153.793	-0.116	0.008
-708.645	134.203	-0.026	-0.035
-707.631	-120.371	0.119	0.021
-706.616	-49.043	0.274	0.134
-705.602	-166.317	-0.159	-0.007
-704.587	-200.000	0.004	0.101
-703.572	-62.516	0.136	-0.058
-702.558	800.000	0.065	-0.229
-701.543	-200.000	0.004	0.061
-700.529	-200.000	-0.028	-0.182
-699.514	76.336	0.083	-0.090
-698.499	800.000	0.089	-0.369
-697.485	679.820	-0.012	0.033
-696.470	-4.117	-0.093	-0.066
-695.456	137.516	-0.056	-0.075
-694.441	47.212	0.030	0.028
-693.426	23.519	0.134	0.113
-692.412	-46.671	0.173	-0.087
-691.397	-117.246	-0.260	0.048
-690.383	-116.412	-0.301	-0.057
-689.368	-174.806	-0.119	-0.003
-688.354	83.132	-0.207	0.231
-687.339	7.716	-0.063	-0.048
-686.324	-200.000	0.014	0.293
-685.310	-200.000	0.006	-0.101
-684.295	-96.500	0.159	-0.043
-683.281	-200.000	-0.002	0.025
-682.266	-107.497	-0.314	0.070
-681.251	-15.126	-0.257	-0.168
-680.237	68.395	0.273	0.287
-679.222	273.294	-0.070	-0.127
-678.208	570.700	0.158	-0.393
-677.193	-200.000	-0.051	-0.271
-676.178	569.476	0.081	-0.201
-675.164	800.000	-0.091	-0.281
-674.149	355.374	0.219	-0.446
-673.135	240.622	-0.070	-0.119
-672.120	-131.937	0.194	0.026
-671.105	386.408	-0.125	-0.263
-670.091	-102.912	-0.215	-0.052
-669.076	73.928	-0.124	0.133
-668.062	610.720	-0.084	0.215
-667.047	-200.000	-0.022	0.110
-666.032	800.000	0.059	-0.195
-665.018	-99.238	-0.264	0.068
-664.003	-191.328	-0.248	0.003
-662.989	-200.000	0.002	-0.042
-661.974	91.477	0.116	0.133
-660.959	-200.000	-0.029	-0.261
-659.945	-4.684	0.184	0.130
-658.930	110.489	-0.057	0.070
-657.916	-200.000	-0.014	-0.103
-656.901	513.939	-0.050	-0.119
-655.886	-150.156	0.186	-0.015
-654.872	91.350	-0.233	0.268
-653.857	231.811	-0.056	0.095
-652.843	800.000	-0.009	-0.036
-651.828	-140.195	0.221	-0.024
-650.814	391.482	0.091	0.192
-649.799	-44.384	-0.073	0.037
-648.784	61.891	-0.064	0.065
-647.770	22.322	-0.198	0.166
-646.755	-85.364	0.171	0.054
-645.741	-92.811	0.318	-0.091
-644.726	380.031	-0.164	-0.343
-643.711	-96.755	0.186	-0.050
-642.697	610.918	-0.078	-0.198
-641.682	-96.971	-0.130	-0.035
-640.668	800.000	-0.030	0.095
-639.653	-200.000	-0.013	0.264
-638.638	-66.338	-0.124	0.050
-637.624	-113.890	-0.140	-0.028
-636.609	-135.703	0.107	-0.013
-635.595	-121.748	-0.188	-0.032
-634.580	3.258	-0.200	-0.149
-633.565	327.714	-0.037	0.072
-632.551	-200.000	0.006	-0.304
-631.536	29.413	0.193	-0.168
-630.522	-43.863	0.218	0.112
-629.507	146.510	0.104	-0.143
-628.492	7.027	-0.186	0.141
-627.478	-125.867	-0.140	0.022
-626.463	-4.958	-0.379	-0.266
-625.449	-200.000	0.027	-0.298
-624.434	-62.609	0.217	-0.092
-623.419	27.646	0.073	-0.063
-622.405	43.748	-0.162	-0.152
-621.390	558.399	-0.080	0.198
-620.376	20.721	0.181	-0.150
-619.361	304.138	-0.147	-0.279
-618.346	4.909	0.125	-0.094
-617.332	85.204	0.168	-0.188
-616.317	-200.000	0.079	0.526
-615.303	-70.474	0.369	-0.143
-614.288	184.283	0.166	-0.251
-613.273	-5.095	-0.108	0.076
-612.259	392.750	0.098	0.208
-611.244	175.116	0.126	0.186
-610.230	-32.862	0.114	0.064
-609.215	800.000	0.024	0.070
-608.201	-90.875	0.128	0.038
-607.186	800.000	-0.099	0.283
-606.171	224.948	-0.097	0.161
-605.157	486.816	-0.115	0.267
-604.142	-107.727	-0.488	-0.109
-603.128	188.098	0.195	-0.298
-602.113	-9.518	0.138	0.094
-601.098	1.885	-0.031	0.023
-600.084	-68.248	0.039	-0.015
-599.069	17.954	0.147	0.120
-598.055	-132.662	-0.094	0.012
-597.040	-83.688	-0.221	-0.072
-596.025	73.916	0.169	-0.180
-595.011	-116.713	-0.208	0.039
-593.996	800.000	-0.121	-0.527
-592.982	794.372	0.070	-0.195
-591.967	-53.235	-0.218	0.102
-590.952	-108.415	-0.231	-0.051
-589.938	-200.000	0.025	0.223
-588.923	17.015	-0.163	-0.131
-587.909	-200.000	-0.047	-0.227
-586.894	800.000	0.038	-0.111
-585.879	235.098	0.063	-0.107
-584.865	33.425	0.206	0.182
-583.850	-160.700	0.457	0.025
-582.836	78.737	-0.102	0.111
-581.821	-86.295	-0.471	0.148
-580.806	-200.000	0.026	0.203
-579.792	234.789	-0.043	-0.072
-578.777	-200.000	-0.029	0.236
-577.763	-200.000	-0.007	-0.095
-576.748	800.000	0.130	-0.421
-575.733	-139.238	0.218	-0.024
-574.719	170.759	-0.108	-0.158
-573.704	-166.004	-0.190	0.008
-572.690	117.116	0.091	-0.113
-571.675	-200.000	-0.013	0.167
-570.661	101.875	-0.030	0.036
-569.646	-5.375	0.077	0.054
-568.631	-200.000	-0.023	0.289
-567.617	-83.052	0.288	0.095
-566.602	5.080	0.062	-0.046
-565.588	-69.327	-0.273	0.107
-564.573	331.434	-0.128	-0.251
-563.558	209.687	-0.144	-0.230
-562.544	-130.861	-0.100	-0.014
-561.529	49.889	-0.164	-0.158
-560.515	-61.694	0.060	0.026
-559.500	339.118	0.039	0.077
-558.485	-105.816	-0.138	-0.032
-557.471	-200.000	-0.067	-0.360
-556.456	-187.595	-0.257	0.003
-555.442	800.000	0.088	0.341
-554.427	-149.549	-0.465	-0.037
-553.412	-200.000	-0.015	-0.138
-552.398	142.509	0.168	0.227
-551.383	-200.000	-0.019	0.087
-550.369	-200.000	-0.001	0.204
-549.354	37.186	0.272	-0.245
-548.339	-200.000	-0.029	-0.160
-547.325	28.116	0.057	-0.049
-546.310	475.494	-0.104	0.240
-545.296	36.662	-0.161	0.145
-544.281	800.000	0.049	0.210
-543.266	-27.426	0.259	0.153
-542.252	-200.000	-0.080	0.383
-541.237	5.286	0.068	-0.051
-540.223	-109.116	0.161	0.035
-539.208	-175.867	-0.017	-0.000
-538.193	-131.199	0.435	0.059
-537.179	26.501	0.454	-0.386
-536.164	-6.055	-0.255	0.177
-535.150	-200.000	0.001	0.388
-534.135	-200.000	-0.015	0.315
-533.121	311.302	0.108	-0.206
-532.106	-127.245	-0.153	0.023
-531.091	-49.828	0.144	-0.069
-530.077	550.621	-0.026	-0.063
-529.062	-131.650	-0.053	0.007
-528.048	-75.121	-0.136	-0.049
-527.033	-16.352	-0.198	-0.128
-526.018	398.998	0.199	-0.423
-525.004	-200.000	-0.002	0.056
-523.989	800.000	0.067	0.220
-522.975	-18.697	0.130	-0.083
-521.960	151.004	0.116	0.160
-520.945	-95.705	0.167	-0.045
-519.931	800.000	0.117	0.330
-518.916	20.280	0.071	-0.058
-517.902	-106.852	-0.209	0.047
-516.887	800.000	0.083	-0.242
-515.872	-48.482	0.159	0.078
-514.858	-200.000	-0.163	0.001
-513.843	-178.934	-0.254	0.006
-512.829	105.192	-0.043	-0.052
-511.814	-200.000	0.070	-0.332
-510.799	800.000	0.036	0.112
-509.785	-76.830	0.112	0.040
-508.770	-63.701	-0.289	0.121
-507.756	-67.693	-0.146	-0.058
-506.741	63.212	-0.111	0.113
-505.726	30.188	0.138	0.120
-504.712	56.599	-0.146	0.144
-503.697	195.683	0.127	-0.196
-502.683	191.103	0.093	-0.142
-501.668	82.774	-0.196	0.217
-500.653	-109.979	0.136	0.029
-499.639	42.942	0.296	0.274
-498.624	135.503	-0.176	0.233
-497.610	-200.000	-0.290	-0.001
-496.595	52.768	-0.137	-0.133
-495.581	-200.000	0.017	-0.168
-494.566	-200.000	-0.020	0.483
-493.551	-200.000	0.004	0.165
-492.537	-60.076	-0.142	0.062
-491.522	-45.320	-0.340	0.171
-490.508	800.000	0.005	-0.018
-489.493	-44.926	0.163	0.083
-488.478	800.000	-0.108	-0.359
-487.464	-200.000	-0.011	-0.239
-486.449	-153.588	-0.260	0.018
-485.435	-168.081	-0.122	-0.005
-484.420	119.795	0.262	0.329
-483.405	-94.961	0.063	0.017
-482.391	-113.227	0.316	0.063
-481.376	-35.370	-0.067	-0.037
-480.362	595.251	-0.082	-0.207
-479.347	116.414	0.103	-0.128
-478.332	-47.063	-0.085	0.042
-477.318	375.176	-0.080	0.164
-476.303	-200.000	0.035	0.166
-475.289	-200.000	0.140	0.000
-474.274	338.683	0.200	-0.394
-473.259	-47.833	0.164	-0.081
-472.245	214.391	0.121	-0.194
-471.230	-200.000	0.040	-0.294
-470.216	261.904	-0.110	0.194
-469.201	-89.824	0.099	-0.029
-468.186	577.310	0.090	0.223
-467.172	-200.000	-0.005	-0.151
-466.157	50.520	0.247	0.237
-465.143	-71.518	-0.220	0.083
-464.128	16.006	0.062	0.050
-463.113	25.957	-0.164	0.138
-462.099	-200.000	0.007	-0.164
-461.084	26.352	-0.051	0.044
-460.070	800.000	0.027	0.081
-459.055	-99.883	-0.148	-0.038
-458.040	800.000	-0.044	-0.175
-457.026	372.204	0.087	-0.179
-456.011	103.079	0.064	0.076
-454.997	-39.630	0.070	0.037
-453.982	-200.000	-0.016	-0.147
-452.968	-200.000	-0.037	-0.293
-451.953	800.000	-0.129	-0.367
-450.938	800.000	0.023	-0.094
-449.924	0.897	-0.189	0.138
-448.909	-200.000	-0.001	0.218
-447.895	169.400	0.216	0.313
-446.880	92.847	0.159	-0.182
-445.865	-200.000	-0.009	-0.084
-444.851	316.904	0.043	0.081
-443.836	-94.838	-0.167	0.046
-442.822	556.083	0.043	-0.104
-441.807	12.273	-0.144	0.113
-440.792	-15.046	-0.309	-0.201
-439.778	-200.000	-0.001	-0.180
-438.763	-69.335	-0.037	-0.014
-437.749	196.613	-0.068	-0.104
-436.734	-200.000	0.015	-0.349
-435.719	-30.600	-0.098	0.056
-434.705	119.781	0.198	-0.249
-433.690	-51.942	-0.204	0.096
-432.676	120.483	0.114	-0.143
-431.661	800.000	-0.051	-0.213
-430.646	-154.160	-0.267	0.018
-429.632	-153.969	0.307	0.021
-428.617	-41.389	0.154	0.080
-427.603	-82.908	-0.097	0.032
-426.588	31.677	0.093	0.081
-425.573	-60.647	-0.174	0.075
-424.559	-114.945	-0.079	-0.015
-423.544	-72.242	-0.050	-0.019
-422.530	-92.399	0.185	0.053
-421.515	800.000	0.141	0.522
-420.500	61.287	-0.165	0.166
-419.486	486.998	0.053	-0.122
-418.471	280.682	0.109	-0.198
-417.457	688.422	0.113	0.300
-416.442	-128.069	0.070	-0.010
-415.428	18.925	0.219	0.177
-414.413	603.022	-0.085	-0.215
-413.398	425.179	-0.105	0.228
-412.384	50.723	-0.074	-0.071
-411.369	-139.682	0.037	-0.004
-410.355	-180.706	-0.226	-0.005
-409.340	-200.000	-0.021	0.128
-408.325	-126.465	0.071	0.011
-407.311	-200.000	-0.048	0.263
-406.296	605.869	-0.133	0.335
-405.282	800.000	0.064	-0.259
-404.267	108.534	-0.164	0.199
-403.252	-200.000	0.002	0.248
-402.238	800.000	0.075	0.249
-401.223	-200.000	-0.030	-0.147
-400.209	-200.000	-0.029	0.167
-399.194	548.058	0.076	0.183
-398.179	-61.935	-0.388	-0.164
-397.165	-73.238	0.180	-0.067
-396.150	49.778	-0.240	0.229
-395.136	-141.598	-0.160	-0.016
-394.121	-200.000	0.004	0.159
-393.106	620.658	-0.018	0.046
-392.092	-19.011	0.174	0.109
-391.077	309.084	-0.125	0.235
-390.063	-39.267	-0.182	0.097
-389.048	6.880	0.221	-0.166
-388.033	71.736	0.155	0.163
-387.019	34.065	-0.176	0.155
-386.004	16.171	-0.317	-0.253
-384.990	141.929	-0.096	0.129
-383.975	113.817	0.019	-0.023
-382.960	-112.266	-0.136	-0.028
-381.946	-200.000	-0.001	-0.112
-380.931	-88.284	0.314	-0.095
-379.917	75.626	-0.088	-0.094
-378.902	105.518	-0.113	-0.135
-377.888	-98.671	0.397	-0.102
-376.873	77.940	-0.109	-0.117
-375.858	168.427	-0.081	-0.117
-374.844	800.000	0.062	0.217
-373.829	48.250	-0.177	-0.168
-372.815	-200.000	-0.018	-0.226
-371.800	28.831	-0.173	0.148
-370.785	-200.000	-0.048	-0.491
-369.771	-54.582	0.054	0.025
-368.756	-0.836	-0.112	0.080
-367.742	-177.232	0.216	-0.005
-366.727	800.000	0.044	0.136
-365.712	-200.000	-0.029	-0.205
-364.698	-62.695	0.146	-0.061
-363.683	-99.327	0.238	-0.061
-362.669	-68.875	-0.095	0.037
-361.654	153.170	0.091	0.125
-360.639	-98.374	-0.028	-0.007
-359.625	320.095	-0.219	0.420
-358.610	-200.000	-0.068	-0.336
-357.596	800.000	0.121	-0.341
-356.581	800.000	0.071	-0.306
-355.566	27.966	0.015	0.013
-354.552	61.338	0.103	0.104
-353.537	-101.196	0.165	0.041
-352.523	-39.563	-0.145	0.077
-351.508	-125.738	0.340	-0.052
-350.493	-200.000	-0.026	-0.168
-349.479	74.266	-0.232	-0.247
-348.464	-102.883	-0.311	0.075
-347.450	676.738	-0.070	0.184
-346.435	-200.000	-0.056	0.524
-345.420	-200.000	-0.040	-0.204
-344.406	335.839	0.093	-0.183
-343.391	-200.000	-0.008	-0.119
-342.377	-97.259	-0.093	-0.024
-341.362	-85.736	-0.180	0.056
-340.348	-200.000	0.000	-0.096
-339.333	800.000	-0.110	0.326
-338.318	-59.317	-0.212	-0.092
-337.304	425.316	-0.123	0.267
-336.289	656.075	0.086	0.222
-335.275	800.000	-0.066	-0.266
-334.260	-50.950	0.167	0.079
-333.245	-94.365	0.137	-0.038
-332.231	-200.000	-0.033	-0.227
-331.216	-200.000	0.029	0.130
-330.202	-150.790	-0.232	0.018
-329.187	800.000	0.018	0.062
-328.172	-200.000	0.009	0.084
-327.158	260.174	-0.120	0.210
-326.143	18.940	0.141	0.114
-325.129	374.435	0.168	-0.345
-324.114	5.561	0.090	-0.067
-323.099	-111.894	0.184	0.037
-322.085	128.615	0.027	0.035
-321.070	86.761	-0.068	-0.076
-320.056	-200.000	-0.006	0.032
-319.041	377.705	0.160	-0.330
-318.026	-12.637	0.366	-0.241
-317.012	-94.002	-0.315	0.087
-315.997	800.000	0.059	0.230
-314.983	400.119	0.125	-0.265
-313.968	-83.294	0.169	-0.055
-312.953	100.568	0.100	0.117
-311.939	-200.000	0.008	-0.048
-310.924	187.238	0.048	0.072
-309.910	-131.253	0.134	0.018
-308.895	800.000	-0.047	0.179
-307.880	119.388	0.111	0.139
-306.866	140.844	0.082	-0.109
-305.851	-42.073	-0.113	-0.058
-304.837	-200.000	-0.093	-0.536
-303.822	207.775	-0.068	-0.107
-302.807	697.388	-0.053	0.140
-301.793	692.860	0.125	0.331
-300.778	-54.199	0.057	-0.026
-299.764	-74.447	0.210	-0.076
-298.749	-5.101	-0.197	-0.136
-297.735	-190.051	-0.081	-0.001
-296.720	186.798	0.222	0.334
-295.705	599.986	0.098	-0.246
-294.691	800.000	-0.050	0.141
-293.676	-151.156	0.274	0.021
-292.662	-118.428	0.165	0.030
-291.647	-200.000	-0.011	0.195
-290.632	800.000	0.037	-0.135
-289.618	204.097	-0.048	0.075
-288.603	621.935	0.075	-0.189
-287.589	520.134	0.132	-0.313
-286.574	-42.207	0.320	-0.165
-285.559	32.746	0.208	-0.181
-284.545	245.520	0.231	-0.392
-283.530	-78.086	0.035	-0.012
-282.516	-50.697	0.159	0.075
-281.501	187.201	-0.174	0.261
-280.486	-96.856	-0.157	-0.041
-279.472	778.088	0.123	0.339
-278.457	114.458	-0.111	-0.137
-277.443	-200.000	-0.027	-0.233
-276.428	123.455	-0.073	0.093
-275.413	800.000	0.076	0.253
-274.399	58.536	0.208	-0.205
-273.384	-200.000	0.069	0.372
-272.370	-24.211	0.416	0.250
-271.355	-14.062	0.093	0.060
-270.340	-200.000	0.012	0.080
-269.326	108.105	0.107	-0.128
-268.311	47.113	-0.166	0.156
-267.297	134.029	-0.148	-0.193
-266.282	-200.000	-0.033	0.174
-265.267	2.223	0.119	-0.086
-264.253	-166.929	0.509	-0.021
-263.238	-7.868	0.223	0.152
-262.224	88.799	0.224	0.251
-261.209	-35.037	0.259	0.142
-260.195	-151.162	0.237	-0.018
-259.180	-72.550	0.082	-0.030
-258.165	671.574	0.034	0.088
-257.151	239.981	0.138	0.231
-256.136	-41.253	-0.085	0.044
-255.122	-135.845	-0.177	0.021
-254.107	-200.000	-0.058	0.348
-253.092	800.000	-0.020	-0.078
-252.078	-200.000	0.000	0.306
-251.063	724.073	-0.039	0.103
-250.049	-137.763	0.139	-0.016
-249.034	565.242	-0.080	-0.195
-248.019	-105.823	-0.438	-0.099
-247.005	325.758	0.193	-0.372
-245.990	461.386	-0.045	0.100
-244.976	-200.000	0.052	0.312
-243.961	-103.654	0.198	0.047
-242.946	-9.245	-0.154	-0.103
-241.932	203.453	0.216	0.336
-240.917	112.976	-0.194	0.237
-239.903	-62.163	0.443	0.186
-238.888	-200.000	0.084	-0.576
-237.873	241.980	0.101	0.169
-236.859	-200.000	0.025	0.566
-235.844	190.973	0.050	0.076
-234.830	-85.453	-0.161	0.050
-233.815	-35.556	-0.271	-0.148
-232.800	-32.165	-0.096	-0.054
-231.786	-59.114	-0.376	-0.163
-230.771	285.364	-0.217	-0.394
-229.757	45.299	0.108	-0.100
-228.742	-200.000	-0.081	0.361
-227.727	-200.000	0.012	-0.100
-226.713	-200.000	-0.045	0.223
-225.698	-200.000	-0.021	0.119
-224.684	170.726	-0.088	0.127
-223.669	51.192	0.052	-0.049
-222.655	-128.726	-0.434	-0.062
-221.640	-111.216	0.113	-0.023
-220.625	-200.000	-0.029	-0.243
-219.611	-132.048	-0.205	-0.027
-218.596	-200.000	-0.095	-0.427
-217.582	664.482	0.068	0.177
-216.567	158.152	0.136	0.190
-215.552	74.997	0.091	-0.096
-214.538	-200.000	0.001	0.084
-213.523	216.043	-0.337	-0.539
-212.509	-200.000	-0.028	0.195
-211.494	-200.000	0.029	-0.244
-210.479	-200.000	-0.043	0.221
-209.465	800.000	-0.067	0.290
-208.450	-176.124	0.324	0.009
-207.436	-200.000	0.013	-0.296
-206.421	800.000	-0.037	-0.133
-205.406	-200.000	0.010	0.042
-204.392	-200.000	-0.056	0.293
-203.377	-200.000	0.049	-0.308
-202.363	-138.660	-0.198	0.022
-201.348	165.724	-0.254	-0.360
-200.333	-200.000	-0.024	-0.228
-199.319	-200.000	0.002	0.209
-198.304	758.185	-0.035	0.096
-197.290	22.487	-0.338	-0.277
-196.275	-128.044	-0.193	0.028
-195.260	152.361	0.013	0.018
-194.246	393.054	0.142	0.297
-193.231	49.674	0.025	-0.024
-192.217	205.293	0.139	0.217
-191.202	55.009	-0.257	0.249
-190.187	28.717	-0.148	-0.126
-189.173	800.000	-0.059	-0.256
-188.158	83.789	0.130	-0.142
-187.144	258.597	0.244	0.422
-186.129	-92.670	-0.247	-0.070
-185.114	-147.601	0.306	0.026
-184.100	10.871	-0.336	-0.258
-183.085	800.000	0.046	-0.200
-182.071	214.913	0.165	-0.263
-181.056	-50.559	0.030	0.014
-180.042	42.909	-0.264	-0.241
-179.027	-200.000	-0.026	-0.124
-178.012	-200.000	0.009	-0.122
-176.998	800.000	0.110	-0.325
-175.983	551.661	-0.205	0.494
-174.969	614.796	-0.053	0.132
-173.954	310.316	0.124	-0.232
-172.939	78.318	0.167	-0.178
-171.925	-77.498	0.171	-0.059
-170.910	-5.697	0.317	0.218
-169.896	287.573	0.193	-0.351
-168.881	-200.000	-0.050	0.268
-167.866	-200.000	-0.030	0.142
-166.852	3.811	-0.272	-0.200
-165.837	96.635	0.093	-0.107
-164.823	777.890	0.133	-0.364
-163.808	-122.388	-0.315	-0.051
-162.793	800.000	0.040	0.150
-161.779	32.392	0.228	0.197
-160.764	800.000	0.067	0.222
-159.750	345.612	0.040	0.079
-158.735	800.000	-0.141	-0.570
-157.720	-107.851	-0.294	-0.064
-156.706	-200.000	0.089	0.447
-155.691	500.423	0.061	0.140
-154.677	800.000	-0.111	0.367
-153.662	-200.000	0.002	-0.080
-152.647	-55.465	-0.272	0.122
-151.633	-200.000	0.019	-0.191
-150.618	-93.742	0.273	-0.075
-149.604	800.000	0.014	-0.049
-148.589	-85.398	-0.189	0.059
-147.574	-200.000	-0.005	-0.222
-146.560	64.822	0.155	-0.157
-145.545	800.000	-0.054	0.205
-144.531	328.642	0.209	-0.402
-143.516	21.957	0.229	0.187
-142.502	-178.745	0.425	-0.010
-141.487	-51.742	0.347	-0.162
-140.472	-162.324	0.278	-0.014
-139.458	800.000	0.018	0.076
-138.443	16.876	-0.304	0.241
-137.429	277.423	0.095	-0.170
-136.414	-91.659	-0.182	0.052
-135.399	-38.577	-0.372	-0.197
-134.385	-99.509	0.150	-0.038
-133.370	800.000	-0.032	-0.130
-132.356	42.792	0.114	0.104
-131.341	517.477	0.142	-0.333
-130.326	383.566	-0.165	0.340
-129.312	237.308	0.111	0.184
-128.297	800.000	-0.089	-0.269
-127.283	-200.000	-0.017	0.105
-126.268	-200.000	-0.009	0.084
-125.253	-25.774	0.172	0.101
-124.239	800.000	-0.041	0.139
-123.224	459.642	-0.150	0.334
-122.210	-109.317	-0.172	-0.037
-121.195	49.826	-0.216	0.204
