DTS Sentinel unit serial number:	SN413079Multiplexer serial number:	ORYXHardware model number:	OX4-SRSoftware version number:	ORYX F/W v4.00 Oryx Data Collector v3.7.2.0data status	okinstallation	princeton_trtdifferential loss correction	single-endedforward channel	channel 3reverse channel	N/Adate	2019/09/11time	03:18:10forward acquisition time	60.00reverse acquisition time	0.00gamma	496.2192k internal	0.2331k external	0.2331temperature offset calibration	0.9911default loss term (dB/km)	0.3790temperature slope calibration	1.0000multiplexer offset coefficient	1.0000multiplexer slope coefficient	1.0000fibre end	0.00T internal ref (°C)	29.37T ext. ref 1 (°C)	-0.29T ext. ref 2 (°C)	24.14length (m)	temperature (°C)	Stokes	anti-Stokes-747.200	800.000	0.059	-0.199
-746.185	-139.158	-0.196	-0.021
-745.171	-200.000	0.013	-0.164
-744.156	57.909	0.138	-0.136
-743.142	-109.719	0.205	0.043
-742.127	-53.897	0.082	-0.038
-741.112	-200.000	0.029	0.289
-740.098	729.539	-0.136	0.365
-739.083	121.231	0.031	0.039
-738.069	227.960	0.113	0.185
-737.054	-200.000	-0.067	0.345
-736.039	-200.000	0.009	0.211
-735.025	-54.962	0.056	0.025
-734.010	-174.141	-0.459	-0.013
-732.996	154.196	-0.191	-0.264
-731.981	-40.111	0.037	-0.019
-730.966	-11.555	-0.250	0.166
-729.952	-46.254	-0.248	-0.123
-728.937	60.332	-0.291	-0.289
-727.923	53.203	0.125	0.120
-726.908	-200.000	-0.011	-0.248
-725.894	-110.967	-0.280	-0.058
-724.879	-58.893	-0.066	-0.029
-723.864	98.899	-0.126	0.146
-722.850	251.236	0.071	-0.122
-721.835	800.000	-0.073	-0.210
-720.821	800.000	-0.016	-0.058
-719.806	81.239	-0.183	-0.199
-718.791	97.148	0.030	-0.035
-717.777	800.000	0.053	0.168
-716.762	-85.744	-0.189	0.059
-715.748	-147.997	0.064	0.005
-714.733	606.848	-0.089	0.222
-713.718	100.456	-0.359	-0.419
-712.704	329.642	0.186	-0.359
-711.689	323.359	-0.074	0.142
-710.675	-200.000	0.047	-0.398
-709.660	800.000	0.079	-0.276
-708.645	-67.415	0.334	0.132
-707.631	105.464	0.109	-0.130
-706.616	28.364	-0.215	0.182
-705.602	227.311	-0.049	-0.080
-704.587	-38.033	-0.192	-0.102
-703.572	238.668	-0.045	0.075
-702.558	-109.881	-0.156	-0.033
-701.543	133.404	0.052	0.067
-700.529	210.604	-0.238	-0.375
-699.514	-200.000	0.056	-0.289
-698.499	-200.000	-0.052	-0.251
-697.485	-200.000	0.023	-0.395
-696.470	800.000	-0.136	0.454
-695.456	-166.722	0.232	0.010
-694.441	245.080	-0.118	0.200
-693.426	-179.486	0.162	0.004
-692.412	-200.000	-0.081	-0.374
-691.397	-200.000	-0.016	-0.145
-690.383	-200.000	-0.001	-0.076
-689.368	89.210	-0.250	-0.280
-688.354	101.794	-0.047	-0.056
-687.339	-135.976	0.271	0.032
-686.324	-26.990	-0.316	-0.185
-685.310	441.159	0.077	-0.170
-684.295	169.342	-0.085	-0.122
-683.281	132.235	-0.131	-0.170
-682.266	80.839	0.164	-0.178
-681.251	-40.790	-0.084	-0.044
-680.237	25.662	-0.175	-0.147
-679.222	508.836	-0.089	-0.207
-678.208	382.804	-0.158	-0.327
-677.193	184.272	0.130	-0.193
-676.178	-52.102	0.353	0.164
-675.164	484.742	0.129	-0.295
-674.149	-88.507	-0.273	-0.082
-673.135	-155.529	0.046	-0.003
-672.120	3.573	-0.070	0.051
-671.105	-200.000	0.014	-0.095
-670.091	-92.602	0.131	0.037
-669.076	-119.563	-0.562	0.098
-668.062	19.753	-0.232	-0.187
-667.047	-200.000	-0.006	0.080
-666.032	-101.164	-0.068	-0.017
-665.018	138.635	-0.125	0.164
-664.003	-113.082	0.102	0.020
-662.989	-135.220	-0.164	0.020
-661.974	508.315	0.171	-0.399
-660.959	-199.375	0.167	-0.001
-659.945	-200.000	-0.020	-0.294
-658.930	6.576	0.244	0.182
-657.916	-137.174	0.214	-0.024
-656.901	13.668	-0.164	-0.128
-655.886	-56.062	-0.154	-0.069
-654.872	-76.194	-0.311	0.110
-653.857	-200.000	0.001	0.301
-652.843	-200.000	0.002	-0.077
-651.828	-85.311	0.044	-0.014
-650.814	37.317	-0.361	-0.321
-649.799	-92.169	0.179	-0.051
-648.784	193.918	0.103	0.157
-647.770	-5.434	0.132	-0.091
-646.755	9.192	0.112	-0.085
-645.741	-200.000	0.016	0.358
-644.726	14.760	0.119	-0.093
-643.711	-200.000	0.056	-0.249
-642.697	27.825	-0.341	-0.288
-641.682	-34.678	0.084	-0.046
-640.668	448.617	0.046	-0.101
-639.653	-200.000	0.030	0.160
-638.638	438.191	-0.081	0.177
-637.624	-131.496	0.058	-0.008
-636.609	4.228	-0.104	-0.077
-635.595	-36.042	0.235	-0.127
-634.580	-104.886	0.359	-0.083
-633.565	-200.000	-0.029	0.253
-632.551	-100.308	0.119	-0.030
-631.536	-25.232	0.218	-0.129
-630.522	-82.014	-0.232	0.076
-629.507	64.949	-0.274	-0.278
-628.492	-101.524	0.047	-0.012
-627.478	-92.588	-0.258	-0.073
-626.463	143.368	0.158	0.211
-625.449	548.538	-0.133	-0.319
-624.434	800.000	-0.077	-0.222
-623.419	-70.163	0.335	0.128
-622.405	-5.072	0.190	0.131
-621.390	161.627	0.042	0.059
-620.376	340.946	-0.032	0.062
-619.361	226.178	0.089	0.144
-618.346	-118.588	-0.294	0.052
-617.332	-0.231	-0.114	-0.082
-616.317	-200.000	-0.003	-0.123
-615.303	-105.288	0.083	0.019
-614.288	-36.012	0.232	0.126
-613.273	-0.037	-0.121	-0.086
-612.259	-42.516	0.188	-0.096
-611.244	69.560	-0.094	-0.097
-610.230	534.146	-0.043	-0.101
-609.215	-22.897	-0.202	0.122
-608.201	368.900	-0.061	-0.124
-607.186	66.691	-0.175	-0.178
-606.171	62.209	0.218	0.218
-605.157	-20.528	0.072	-0.044
-604.142	-157.181	0.208	0.013
-603.128	-190.174	-0.148	0.002
-602.113	-5.839	0.066	0.045
-601.098	800.000	-0.113	-0.425
-600.084	114.584	0.068	-0.083
-599.069	57.687	-0.167	-0.163
-598.055	-61.628	0.234	0.098
-597.040	98.959	0.266	-0.307
-596.025	-39.864	0.195	0.102
-595.011	409.775	-0.070	-0.149
-593.996	-200.000	0.020	-0.322
-592.982	-69.697	0.110	-0.042
-591.967	-121.785	-0.274	0.045
-590.952	-89.907	-0.237	-0.069
-589.938	-98.739	0.151	0.038
-588.923	-38.718	0.056	0.030
-587.909	192.307	-0.190	-0.286
-586.894	33.733	0.172	-0.150
-585.879	41.626	0.108	0.098
-584.865	-200.000	-0.014	0.232
-583.850	-200.000	-0.087	0.430
-582.836	634.402	0.124	-0.314
-581.821	-52.863	-0.234	0.108
-580.806	-51.439	-0.223	0.104
-579.792	-200.000	0.028	-0.184
-578.777	-85.622	-0.300	0.093
-577.763	81.496	0.399	-0.432
-576.748	27.032	-0.022	0.019
-575.733	113.197	-0.176	-0.214
-574.719	-24.052	-0.257	-0.153
-573.704	800.000	-0.028	0.080
-572.690	-104.043	0.106	0.025
-571.675	-200.000	-0.032	-0.273
-570.661	131.938	-0.111	0.142
-569.646	72.264	-0.247	0.257
-568.631	570.652	0.111	0.269
-567.617	335.466	-0.033	-0.063
-566.602	445.952	-0.158	-0.346
-565.588	-99.748	-0.230	-0.058
-564.573	-70.655	0.149	-0.056
-563.558	54.156	0.046	-0.044
-562.544	800.000	-0.063	0.218
-561.529	-10.181	0.215	-0.143
-560.515	283.890	0.064	0.115
-559.500	-122.336	0.249	-0.041
-558.485	297.542	-0.034	0.063
-557.471	-47.922	-0.271	0.131
-556.456	800.000	0.040	0.122
-555.442	-200.000	0.048	0.286
-554.427	175.911	-0.045	-0.065
-553.412	100.858	-0.087	-0.101
-552.398	-33.841	-0.252	0.139
-551.383	-58.161	0.092	0.040
-550.369	-86.241	-0.049	-0.015
-549.354	-69.555	0.053	0.020
-548.339	-172.227	-0.084	0.003
-547.325	800.000	-0.103	0.374
-546.310	-53.167	0.337	-0.155
-545.296	800.000	-0.051	-0.165
-544.281	-200.000	-0.018	-0.106
-543.266	188.047	0.041	-0.061
-542.252	-32.931	-0.030	0.017
-541.237	-83.260	-0.315	-0.101
-540.223	-121.825	-0.284	0.047
-539.208	367.354	-0.234	-0.472
-538.193	-103.672	-0.105	0.024
-537.179	-14.436	-0.333	-0.214
-536.164	765.824	0.184	-0.498
-535.150	800.000	0.127	-0.494
-534.135	341.618	-0.168	0.328
-533.121	800.000	0.038	-0.104
-532.106	800.000	-0.066	0.184
-531.091	33.620	-0.101	0.088
-530.077	-154.726	0.141	0.009
-529.062	448.563	0.125	-0.274
-528.048	296.788	-0.061	-0.111
-527.033	-200.000	-0.033	0.172
-526.018	266.530	-0.078	-0.136
-525.004	800.000	-0.015	-0.058
-523.989	-200.000	-0.048	0.223
-522.975	180.899	0.088	-0.128
-521.960	290.064	-0.117	0.213
-520.945	-141.953	0.131	0.013
-519.931	-200.000	-0.044	0.257
-518.916	-69.148	0.129	-0.050
-517.902	-50.499	0.268	0.126
-516.887	-33.638	0.151	-0.083
-515.872	-71.978	0.171	-0.063
-514.858	800.000	-0.068	-0.221
-513.843	14.876	-0.186	0.145
-512.829	21.542	0.171	-0.138
-511.814	40.524	0.036	-0.033
-510.799	-200.000	-0.052	-0.237
-509.785	337.917	0.138	0.268
-508.770	0.313	-0.173	0.123
-507.756	56.002	-0.211	0.204
-506.741	291.951	-0.256	0.464
-505.726	-200.000	-0.036	0.338
-504.712	-17.950	-0.259	-0.162
-503.697	203.319	-0.056	0.087
-502.683	800.000	-0.029	-0.125
-501.668	72.315	-0.164	0.171
-500.653	537.039	0.147	-0.349
-499.639	-200.000	0.035	-0.184
-498.624	-200.000	-0.039	-0.294
-497.610	24.412	-0.186	-0.153
-496.595	95.995	-0.081	0.092
-495.581	791.974	0.104	0.284
-494.566	-200.000	0.038	0.226
-493.551	-150.720	-0.252	-0.019
-492.537	200.810	-0.136	-0.208
-491.522	-74.439	0.224	0.080
-490.508	-174.023	-0.081	-0.002
-489.493	-200.000	-0.004	-0.045
-488.478	180.958	-0.088	-0.129
-487.464	-105.787	-0.099	-0.022
-486.449	-94.973	-0.272	0.073
-485.435	92.957	0.242	-0.272
-484.420	-25.068	0.267	-0.157
-483.405	800.000	-0.084	0.266
-482.391	272.528	0.014	0.024
-481.376	51.751	-0.074	0.070
-480.362	11.479	-0.170	-0.129
-479.347	421.606	-0.101	0.215
-478.332	601.269	0.136	0.335
-477.318	-110.259	0.244	0.051
-476.303	-200.000	-0.021	0.123
-475.289	-186.353	-0.093	0.001
-474.274	-13.706	0.218	-0.141
-473.259	-7.977	-0.225	-0.151
-472.245	-92.415	-0.192	0.054
-471.230	-200.000	-0.003	0.215
-470.216	-200.000	0.036	0.353
-469.201	13.195	0.121	0.093
-468.186	-126.001	-0.153	0.023
-467.172	-175.010	0.181	-0.005
-466.157	430.978	-0.185	0.398
-465.143	-126.768	-0.134	-0.020
-464.128	291.557	0.106	0.192
-463.113	-25.234	-0.354	-0.209
-462.099	-200.000	0.009	0.051
-461.084	-70.750	0.211	0.079
-460.070	14.869	-0.085	0.066
-459.055	34.142	0.113	0.098
-458.040	284.513	0.048	-0.086
-457.026	137.238	0.051	0.066
-456.011	434.733	0.114	0.247
-454.997	-62.758	0.243	-0.100
-453.982	-69.589	-0.305	-0.116
-452.968	-48.747	-0.429	0.205
-451.953	-123.297	-0.360	0.057
-450.938	-133.723	-0.350	0.043
-449.924	-45.933	0.114	-0.056
-448.909	-69.472	-0.279	0.106
-447.895	-140.713	-0.216	0.022
-446.880	252.624	0.125	-0.212
-445.865	186.867	0.165	-0.244
-444.851	-54.794	-0.050	-0.022
-443.836	-200.000	-0.050	0.233
-442.822	144.513	0.119	0.158
-441.807	-13.276	0.197	0.127
-440.792	-200.000	-0.010	0.240
-439.778	-63.150	0.197	-0.081
-438.763	-200.000	0.002	0.230
-437.749	-11.842	0.015	0.010
-436.734	-200.000	-0.004	0.058
-435.719	-37.078	-0.143	0.076
-434.705	-52.969	-0.337	-0.154
-433.690	72.828	0.133	0.138
-432.676	800.000	-0.040	-0.145
-431.661	25.617	0.075	-0.062
-430.646	17.236	0.088	-0.069
-429.632	-200.000	0.038	0.388
-428.617	-83.401	-0.142	-0.045
-427.603	-56.730	0.327	0.144
-426.588	210.065	-0.095	-0.148
-425.573	5.291	0.285	0.209
-424.559	800.000	0.047	0.148
-423.544	-159.826	-0.139	0.008
-422.530	-200.000	0.007	0.445
-421.515	-87.097	-0.255	-0.077
-420.500	-175.757	0.100	-0.003
-419.486	449.822	0.081	-0.178
-418.471	-131.863	0.179	0.023
-417.457	-45.682	-0.230	-0.113
-416.442	231.220	0.042	-0.068
-415.428	92.753	0.047	0.052
-414.413	-110.241	0.073	0.015
-413.398	-101.838	0.286	0.069
-412.384	-32.720	0.266	-0.147
-411.369	47.684	-0.322	-0.298
-410.355	-173.482	-0.178	0.005
-409.340	77.204	0.115	0.121
-408.325	800.000	0.048	-0.209
-407.311	64.362	0.095	0.095
-406.296	-1.831	0.085	0.059
-405.282	800.000	0.017	0.057
-404.267	-105.973	-0.186	0.042
-403.252	-151.177	0.247	0.018
-402.238	595.833	-0.125	-0.308
-401.223	800.000	-0.067	0.233
-400.209	-68.857	0.111	0.042
-399.194	-58.099	-0.113	-0.049
-398.179	3.489	0.121	-0.088
-397.165	-200.000	0.046	0.334
-396.150	361.411	0.076	-0.151
-395.136	-87.734	-0.260	-0.078
-394.121	-146.385	0.342	0.030
-393.106	-200.000	0.005	0.147
-392.092	-51.316	-0.291	-0.135
-391.077	800.000	-0.134	0.547
-390.063	-200.000	0.044	-0.425
-389.048	-124.276	0.097	-0.015
-388.033	-142.664	-0.186	-0.018
-387.019	-122.459	-0.216	-0.035
-386.004	-37.053	0.190	-0.101
-384.990	-150.205	-0.268	-0.021
-383.975	80.653	-0.179	-0.191
-382.960	181.518	0.174	0.254
-381.946	92.370	0.171	0.192
-380.931	98.901	0.155	-0.178
-379.917	-101.154	0.211	0.051
-378.902	-200.000	0.053	0.300
-377.888	-200.000	-0.020	-0.360
-376.873	0.452	0.286	-0.203
-375.858	800.000	-0.035	0.098
-374.844	65.474	-0.284	0.286
-373.829	-200.000	0.018	-0.095
-372.815	552.110	-0.132	-0.315
-371.800	738.378	0.049	0.130
-370.785	704.298	-0.121	-0.317
-369.771	62.313	0.133	0.132
-368.756	-133.079	-0.425	0.053
-367.742	194.132	0.062	0.094
-366.727	-186.355	0.291	0.004
-365.712	-44.317	0.168	-0.084
-364.698	-86.482	0.208	0.063
-363.683	-200.000	0.025	-0.117
-362.669	-119.549	0.057	-0.010
-361.654	-164.150	-0.097	-0.004
-360.639	-128.858	-0.390	-0.054
-359.625	98.228	0.050	0.057
-358.610	130.604	-0.012	0.016
-357.596	-11.072	0.090	-0.059
-356.581	800.000	0.075	0.224
-355.566	-200.000	-0.092	-0.432
-354.552	-35.588	0.122	0.066
-353.537	201.434	0.103	-0.158
-352.523	-151.892	-0.219	0.016
-351.508	45.045	0.338	-0.308
-350.493	-78.905	0.282	-0.095
-349.479	800.000	0.042	0.115
-348.464	-200.000	0.036	-0.171
-347.450	797.330	-0.012	-0.032
-346.435	0.053	-0.116	0.082
-345.420	-64.744	0.131	0.053
-344.406	800.000	-0.043	-0.162
-343.391	-91.760	0.299	0.084
-342.377	130.642	-0.230	-0.292
-341.362	-105.071	0.090	0.020
-340.348	85.815	0.189	0.206
-339.333	-200.000	-0.044	0.195
-338.318	-131.832	0.216	-0.028
-337.304	-104.217	-0.173	0.040
-336.289	-168.251	0.260	0.010
-335.275	37.222	-0.097	-0.085
-334.260	51.425	-0.126	-0.119
-333.245	800.000	0.138	-0.480
-332.231	-75.233	0.252	0.089
-331.216	197.229	0.129	0.195
-330.202	166.453	-0.100	0.141
-329.187	116.897	-0.180	-0.219
-328.172	-200.000	-0.002	-0.125
-327.158	265.647	0.060	-0.104
-326.143	573.056	-0.151	-0.364
-325.129	-62.151	0.218	-0.090
-324.114	17.856	0.081	0.064
-323.099	111.170	-0.136	0.162
-322.085	-200.000	-0.079	-0.458
-321.070	94.927	0.162	-0.182
-320.056	-5.805	-0.197	0.134
-319.041	347.295	0.184	-0.359
-318.026	-19.693	0.107	-0.066
-317.012	-200.000	0.055	0.371
-315.997	800.000	0.021	-0.088
-314.983	-200.000	0.019	-0.225
-313.968	16.175	0.188	0.147
-312.953	81.356	-0.066	0.071
-311.939	-161.810	0.121	0.006
-310.924	-96.967	-0.288	-0.075
-309.910	-200.000	0.028	0.298
-308.895	-78.398	0.278	0.094
-307.880	26.917	-0.156	-0.129
-306.866	-181.319	0.228	0.004
-305.851	-150.018	0.273	-0.021
-304.837	-200.000	-0.023	0.346
-303.822	178.478	-0.051	-0.074
-302.807	-130.272	-0.097	-0.013
-301.793	41.116	0.178	-0.159
-300.778	456.144	-0.214	0.471
-299.764	-29.445	-0.240	0.136
-298.749	800.000	0.047	-0.150
-297.735	-83.813	0.190	0.060
-296.720	-12.076	-0.238	-0.154
-295.705	-200.000	-0.003	-0.066
-294.691	-200.000	-0.009	-0.104
-293.676	558.962	-0.064	0.153
-292.662	42.725	0.097	0.087
-291.647	103.768	-0.163	0.190
-290.632	-44.854	0.103	0.051
-289.618	41.974	-0.355	0.318
-288.603	255.982	0.170	-0.289
-287.589	-94.573	0.487	-0.131
-286.574	-91.953	-0.123	-0.034
-285.559	223.287	-0.131	-0.210
-284.545	70.389	0.069	0.070
-283.530	800.000	0.053	-0.162
-282.516	-35.170	0.269	0.145
-281.501	-43.668	0.246	0.123
-280.486	26.987	0.208	0.172
-279.472	-132.145	-0.165	0.021
-278.457	-43.426	-0.140	-0.070
-277.443	41.128	-0.132	-0.118
-276.428	403.451	-0.020	0.042
-275.413	-200.000	0.027	0.347
-274.399	-95.662	-0.283	0.075
-273.384	111.786	0.117	-0.140
-272.370	-155.211	0.233	0.015
-271.355	800.000	-0.023	0.076
-270.340	-200.000	-0.016	0.155
-269.326	28.021	-0.282	-0.235
-268.311	-200.000	0.009	-0.212
-267.297	800.000	-0.017	-0.073
-266.282	9.444	-0.228	0.171
-265.267	-32.475	0.102	0.056
-264.253	-1.632	-0.137	0.095
-263.238	800.000	-0.081	0.238
-262.224	-126.169	0.190	0.028
-261.209	15.260	0.314	-0.243
-260.195	-67.601	0.161	-0.062
-259.180	-200.000	-0.023	-0.141
-258.165	76.485	-0.057	-0.059
-257.151	-82.426	-0.241	0.077
-256.136	-28.016	-0.245	0.140
-255.122	-200.000	-0.020	0.087
-254.107	-200.000	-0.020	-0.268
-253.092	-108.322	-0.193	-0.041
-252.078	-30.627	-0.112	0.062
-251.063	-189.464	-0.102	-0.001
-250.049	-200.000	-0.076	0.374
-249.034	-175.413	0.533	-0.014
-248.019	-74.525	0.029	0.010
-247.005	800.000	-0.033	-0.131
-245.990	800.000	0.043	-0.150
-244.976	-200.000	0.062	-0.345
-243.961	-25.468	0.203	0.118
-242.946	-103.571	0.164	0.038
-241.932	-200.000	-0.027	-0.300
-240.917	109.235	0.063	0.075
-239.903	-200.000	0.032	0.292
-238.888	-88.804	0.364	0.107
-237.873	306.494	-0.026	0.047
-236.859	-200.000	-0.001	0.183
-235.844	-70.357	-0.157	-0.059
-234.830	-200.000	-0.050	0.318
-233.815	-75.280	-0.048	0.017
-232.800	-108.786	-0.263	0.056
-231.786	721.464	-0.057	0.149
-230.771	800.000	-0.068	0.232
-229.757	-168.902	0.064	-0.002
-228.742	-23.095	0.154	-0.092
-227.727	-200.000	-0.036	-0.197
-226.713	-200.000	0.011	-0.210
-225.698	-200.000	0.001	0.227
-224.684	-200.000	0.018	-0.169
-223.669	-200.000	-0.029	0.212
-222.655	800.000	0.063	0.225
-221.640	12.239	0.176	0.133
-220.625	-6.742	-0.056	0.038
-219.611	-51.285	-0.224	-0.103
-218.596	220.016	0.060	0.096
-217.582	-55.615	0.252	0.111
-216.567	-200.000	-0.033	-0.220
-215.552	124.607	-0.222	-0.275
-214.538	276.130	0.164	-0.288
-213.523	19.908	-0.174	-0.138
-212.509	-79.281	0.273	-0.091
-211.494	800.000	-0.074	0.248
-210.479	290.008	0.026	-0.046
-209.465	-42.229	0.226	0.114
-208.450	377.142	0.136	-0.274
-207.436	-200.000	0.011	-0.126
-206.421	-200.000	0.012	0.208
-205.406	800.000	-0.016	0.048
-204.392	153.611	0.150	0.202
-203.377	524.100	0.073	-0.168
-202.363	-94.459	0.104	0.028
-201.348	-200.000	0.042	0.362
-200.333	68.894	0.202	0.205
-199.319	-121.246	-0.307	-0.051
-198.304	-123.716	-0.411	-0.064
-197.290	111.035	0.178	-0.211
-196.275	472.114	-0.059	-0.130
-195.260	-41.122	0.045	0.023
-194.246	130.439	-0.173	0.218
-193.231	-173.873	-0.163	0.005
-192.217	82.857	-0.088	0.094
-191.202	-143.895	-0.163	0.015
-190.187	14.531	0.239	-0.184
-189.173	-25.296	-0.172	-0.100
-188.158	267.029	0.126	0.217
-187.144	-119.291	0.175	0.030
-186.129	-86.711	-0.056	0.017
-185.114	-100.884	0.327	0.079
-184.100	-200.000	0.014	-0.227
-183.085	21.052	0.108	0.086
-182.071	94.858	0.230	0.257
-181.056	130.224	0.129	0.163
-180.042	-200.000	-0.023	0.177
-179.027	-200.000	-0.038	-0.227
-178.012	-75.709	-0.183	-0.064
-176.998	-30.777	0.037	0.020
-175.983	-147.118	-0.265	0.022
-174.969	-59.842	-0.287	0.121
-173.954	-102.454	0.084	0.020
-172.939	-4.062	0.163	-0.111
-171.925	25.087	0.117	-0.096
-170.910	-200.000	0.028	-0.209
-169.896	-200.000	-0.004	0.429
-168.881	432.423	0.049	0.104
-167.866	-175.376	-0.474	0.013
-166.852	-30.906	-0.133	0.074
-165.837	-200.000	0.078	0.398
-164.823	-93.805	-0.194	0.053
-163.808	420.569	0.102	-0.215
-162.793	-73.331	0.265	0.096
-161.779	60.787	-0.273	0.266
-160.764	800.000	0.032	0.125
-159.750	251.066	0.122	-0.204
-158.735	43.780	0.101	-0.091
-157.720	-154.088	-0.113	0.008
-156.706	255.241	0.054	-0.091
-155.691	800.000	-0.103	-0.289
-154.677	428.517	-0.103	-0.219
-153.662	-61.186	0.111	0.046
-152.647	800.000	0.049	0.181
-151.633	-60.789	-0.200	-0.083
-150.618	800.000	-0.121	-0.366
-149.604	-78.262	-0.270	0.091
-148.589	166.521	0.066	-0.091
-147.574	11.384	0.154	-0.116
-146.560	179.632	-0.235	-0.338
-145.545	446.891	-0.072	-0.157
-144.531	-200.000	0.073	0.328
-143.516	10.209	-0.145	-0.108
-142.502	-200.000	-0.038	0.262
-141.487	556.382	-0.069	0.163
-140.472	-200.000	-0.004	-0.122
-139.458	800.000	-0.067	0.207
-138.443	-69.167	0.120	0.046
-137.429	-72.043	-0.195	0.071
-136.414	33.045	0.300	0.256
-135.399	425.334	0.103	0.217
-134.385	162.159	0.208	0.287
-133.370	-3.764	0.249	0.170
-132.356	41.926	0.156	0.139
-131.341	-102.350	-0.038	-0.009
-130.326	-127.727	-0.226	0.032
-129.312	134.391	-0.188	-0.240
-128.297	-127.933	-0.320	-0.045
-127.283	204.895	0.170	-0.260
-126.268	709.248	-0.039	-0.102
-125.253	-200.000	-0.042	-0.196
-124.239	-198.917	0.249	0.001
-123.224	56.619	0.359	0.343
-122.210	-93.713	-0.179	0.049
-121.195	-200.000	-0.002	-0.173
