DTS Sentinel unit serial number:	SN413079Multiplexer serial number:	ORYXHardware model number:	OX4-SRSoftware version number:	ORYX F/W v4.00 Oryx Data Collector v3.7.2.0data status	okinstallation	princeton_trtdifferential loss correction	single-endedforward channel	channel 3reverse channel	N/Adate	2019/09/11time	12:14:11forward acquisition time	60.00reverse acquisition time	0.00gamma	496.2192k internal	0.2294k external	0.2294temperature offset calibration	0.9934default loss term (dB/km)	0.3790temperature slope calibration	1.0000multiplexer offset coefficient	1.0000multiplexer slope coefficient	1.0000fibre end	0.00T internal ref (°C)	39.86T ext. ref 1 (°C)	0.20T ext. ref 2 (°C)	38.21length (m)	temperature (°C)	Stokes	anti-Stokes-747.200	-66.465	0.385	-0.156
-746.185	-28.930	-0.193	0.113
-745.171	-109.941	0.027	0.006
-744.156	-10.182	-0.281	0.191
-743.142	120.472	0.087	0.110
-742.127	347.878	-0.197	0.396
-741.112	-175.184	0.261	-0.007
-740.098	-200.000	0.026	0.166
-739.083	-200.000	0.016	-0.115
-738.069	109.076	0.087	-0.107
-737.054	-178.169	-0.328	0.008
-736.039	-32.442	0.085	0.048
-735.025	800.000	0.088	0.386
-734.010	-15.574	0.241	-0.157
-732.996	91.460	-0.286	-0.329
-731.981	800.000	0.050	0.171
-730.966	-200.000	0.011	-0.148
-729.952	-31.854	-0.241	-0.138
-728.937	795.411	0.124	0.350
-727.923	-158.994	0.277	-0.016
-726.908	-135.749	-0.520	-0.063
-725.894	35.017	-0.211	0.189
-724.879	-200.000	0.058	0.332
-723.864	-200.000	0.009	0.104
-722.850	34.997	0.205	-0.184
-721.835	63.647	0.179	-0.184
-720.821	-200.000	-0.013	-0.080
-719.806	-52.878	-0.200	-0.094
-718.791	-200.000	-0.035	0.203
-717.777	800.000	0.040	0.136
-716.762	290.533	0.147	0.273
-715.748	10.519	-0.111	0.086
-714.733	32.083	0.346	0.305
-713.718	800.000	-0.062	-0.237
-712.704	-200.000	0.002	-0.124
-711.689	161.783	-0.176	0.252
-710.675	172.964	0.182	-0.267
-709.660	61.993	0.110	-0.112
-708.645	529.738	-0.064	-0.154
-707.631	800.000	0.075	-0.325
-706.616	-44.438	0.181	-0.092
-705.602	-200.000	-0.003	-0.225
-704.587	-153.643	-0.139	-0.010
-703.572	-123.016	-0.354	0.058
-702.558	-44.915	-0.273	0.139
-701.543	419.764	-0.186	-0.406
-700.529	112.827	-0.054	0.066
-699.514	-38.226	0.282	-0.153
-698.499	168.945	-0.154	-0.225
-697.485	-200.000	0.049	-0.230
-696.470	60.675	-0.149	0.151
-695.456	-168.199	-0.052	0.002
-694.441	11.532	-0.133	0.104
-693.426	158.071	-0.109	0.155
-692.412	-61.337	0.280	-0.120
-691.397	231.162	-0.187	0.312
-690.383	-105.042	-0.272	-0.064
-689.368	800.000	-0.052	0.218
-688.354	800.000	0.065	-0.221
-687.339	-165.508	-0.026	0.001
-686.324	800.000	0.066	-0.245
-685.310	381.981	0.100	-0.209
-684.295	-200.000	-0.040	0.216
-683.281	19.643	0.335	-0.275
-682.266	800.000	-0.032	0.094
-681.251	27.247	0.063	-0.054
-680.237	157.920	-0.323	-0.457
-679.222	-200.000	0.028	-0.299
-678.208	-78.451	0.278	0.097
-677.193	-200.000	-0.026	-0.214
-676.178	-135.702	-0.243	-0.029
-675.164	167.910	-0.060	0.088
-674.149	-126.542	0.169	-0.026
-673.135	5.312	-0.147	-0.111
-672.120	-183.398	0.299	-0.005
-671.105	-66.919	0.219	0.088
-670.091	54.358	-0.036	0.035
-669.076	800.000	0.068	-0.263
-668.062	-156.051	0.091	-0.006
-667.047	-177.249	0.381	0.010
-666.032	-29.371	-0.275	0.160
-665.018	130.046	0.084	-0.110
-664.003	181.864	-0.101	-0.151
-662.989	-37.761	0.069	-0.037
-661.974	-181.194	0.071	-0.001
-660.959	-76.951	0.292	0.104
-659.945	252.381	0.092	0.161
-658.930	-53.559	-0.044	-0.021
-657.916	387.161	-0.206	0.435
-656.901	126.417	0.136	-0.176
-655.886	800.000	0.018	-0.053
-654.872	800.000	0.083	0.307
-653.857	800.000	-0.058	-0.199
-652.843	-149.879	0.172	-0.014
-651.828	-200.000	-0.026	0.167
-650.814	208.293	-0.108	0.172
-649.799	-200.000	0.037	-0.326
-648.784	-16.569	0.178	-0.115
-647.770	-112.076	-0.070	0.014
-646.755	11.519	-0.171	-0.134
-645.741	-140.628	0.069	-0.007
-644.726	171.079	-0.259	-0.378
-643.711	152.438	-0.102	-0.142
-642.697	-76.924	-0.141	0.050
-641.682	-124.895	-0.273	0.043
-640.668	-119.073	0.055	-0.010
-639.653	-137.376	-0.132	-0.015
-638.638	-47.070	0.114	-0.057
-637.624	-200.000	0.028	-0.320
-636.609	0.453	0.154	-0.112
-635.595	127.962	0.074	0.096
-634.580	-138.031	-0.024	-0.003
-633.565	456.498	-0.087	-0.197
-632.551	219.005	0.248	-0.404
-631.536	-200.000	0.003	-0.227
-630.522	-200.000	0.001	-0.263
-629.507	33.820	-0.055	-0.048
-628.492	-103.913	-0.112	-0.027
-627.478	204.142	0.219	0.345
-626.463	-31.741	-0.480	-0.274
-625.449	98.940	0.141	0.166
-624.434	-37.578	-0.125	0.068
-623.419	201.120	0.189	-0.296
-622.405	17.759	-0.169	0.137
-621.390	-200.000	-0.008	0.091
-620.376	800.000	-0.070	0.305
-619.361	513.304	-0.104	-0.246
-618.346	-149.427	0.252	0.020
-617.332	157.429	0.073	0.103
-616.317	66.783	-0.090	-0.094
-615.303	7.266	-0.148	-0.112
-614.288	728.739	0.079	-0.215
-613.273	-116.854	0.128	-0.024
-612.259	-144.500	0.136	-0.013
-611.244	376.863	-0.159	-0.331
-610.230	-9.419	0.276	-0.188
-609.215	800.000	-0.083	0.255
-608.201	-17.272	-0.096	0.062
-607.186	-200.000	-0.047	-0.311
-606.171	620.291	0.028	-0.071
-605.157	-200.000	0.181	0.001
-604.142	383.118	0.117	-0.244
-603.128	42.701	-0.207	-0.192
-602.113	-94.967	0.060	-0.016
-601.098	-200.000	0.047	-0.416
-600.084	800.000	0.047	-0.198
-599.069	-108.109	-0.068	0.015
-598.055	-141.783	-0.288	0.029
-597.040	264.550	-0.066	-0.116
-596.025	800.000	-0.053	0.201
-595.011	-140.256	0.050	-0.005
-593.996	-200.000	-0.009	-0.083
-592.982	169.248	-0.092	-0.133
-591.967	-159.578	-0.171	0.010
-590.952	5.727	-0.065	-0.049
-589.938	-36.566	-0.374	-0.204
-588.923	-200.000	-0.002	0.028
-587.909	-37.304	0.045	-0.025
-586.894	-40.489	0.126	-0.066
-585.879	-200.000	-0.005	-0.179
-584.865	15.470	0.316	0.252
-583.850	157.767	0.085	-0.119
-582.836	-88.820	-0.242	-0.073
-581.821	-94.227	-0.061	0.017
-580.806	560.897	-0.099	0.243
-579.792	-200.000	0.009	-0.141
-578.777	-200.000	-0.021	-0.225
-577.763	152.654	0.163	-0.226
-576.748	-39.120	0.133	-0.071
-575.733	-102.328	0.306	-0.075
-574.719	85.113	0.238	-0.266
-573.704	175.847	0.086	-0.127
-572.690	150.702	0.012	-0.017
-571.675	-200.000	-0.036	0.243
-570.661	80.950	-0.275	0.301
-569.646	-74.136	0.150	-0.055
-568.631	287.092	0.186	-0.341
-567.617	767.754	0.036	-0.100
-566.602	-53.676	-0.157	0.073
-565.588	252.540	0.097	0.167
-564.573	-122.159	0.217	0.036
-563.558	-138.102	0.383	0.043
-562.544	-63.582	-0.088	0.037
-561.529	800.000	0.027	-0.115
-560.515	-188.013	-0.144	-0.002
-559.500	-17.090	-0.257	0.165
-558.485	-61.387	-0.103	-0.044
-557.471	8.761	-0.106	-0.081
-556.456	-200.000	0.067	0.390
-555.442	-29.477	-0.101	-0.059
-554.427	195.236	0.135	0.209
-553.412	-200.000	0.017	-0.173
-552.398	-141.562	-0.253	0.026
-551.383	378.593	0.059	-0.123
-550.369	-132.629	-0.374	-0.049
-549.354	-141.622	-0.148	-0.015
-548.339	48.849	0.121	-0.115
-547.325	-200.000	-0.001	0.055
-546.310	-118.284	-0.436	-0.079
-545.296	-200.000	0.051	0.312
-544.281	725.660	0.038	0.103
-543.266	-200.000	0.011	-0.270
-542.252	-200.000	-0.057	-0.325
-541.237	501.813	-0.073	-0.172
-540.223	400.345	-0.042	0.089
-539.208	56.513	-0.115	-0.113
-538.193	63.103	-0.083	-0.084
-537.179	-4.427	-0.092	0.064
-536.164	13.081	0.060	-0.047
-535.150	-66.087	-0.179	0.073
-534.135	-200.000	-0.031	0.292
-533.121	-113.227	-0.166	-0.033
-532.106	-50.265	-0.336	-0.161
-531.091	-183.186	-0.132	0.002
-530.077	-37.351	0.121	0.066
-529.062	-60.427	-0.111	0.048
-528.048	645.727	-0.131	-0.338
-527.033	174.276	-0.082	-0.120
-526.018	800.000	-0.076	-0.275
-525.004	86.822	-0.225	-0.252
-523.989	-200.000	-0.006	-0.135
-522.975	-7.247	0.102	0.070
-521.960	-162.473	0.235	0.012
-520.945	-142.392	-0.120	0.012
-519.931	733.638	0.086	-0.233
-518.916	-92.622	-0.400	-0.114
-517.902	372.412	0.036	0.075
-516.887	800.000	0.026	0.088
-515.872	-166.188	-0.110	-0.005
-514.858	159.357	-0.114	0.161
-513.843	186.612	0.076	0.115
-512.829	689.074	0.116	-0.307
-511.814	499.157	0.097	-0.226
-510.799	-33.038	-0.438	-0.246
-509.785	104.629	-0.206	0.246
-508.770	86.261	-0.039	0.044
-507.756	436.827	-0.047	0.104
-506.741	30.170	-0.066	-0.057
-505.726	-200.000	0.037	0.212
-504.712	54.034	0.182	-0.178
-503.697	-200.000	-0.024	0.153
-502.683	-87.079	-0.080	0.025
-501.668	87.725	-0.171	-0.192
-500.653	91.055	0.106	0.120
-499.639	-61.369	0.201	0.086
-498.624	43.245	-0.240	0.222
-497.610	313.849	0.125	0.239
-496.595	800.000	0.109	-0.379
-495.581	-140.088	-0.189	0.020
-494.566	779.151	-0.072	0.200
-493.551	-52.180	-0.253	0.119
-492.537	-76.221	0.102	0.037
-491.522	66.728	0.107	0.110
-490.508	-29.128	0.137	-0.079
-489.493	-122.532	0.147	0.024
-488.478	197.782	-0.084	-0.131
-487.464	-17.039	-0.105	-0.067
-486.449	-200.000	0.006	0.264
-485.435	187.635	0.283	0.427
-484.420	92.131	0.059	-0.067
-483.405	-48.110	0.250	-0.122
-482.391	-155.075	0.206	-0.014
-481.376	-135.295	-0.118	-0.014
-480.362	-112.564	-0.336	0.068
-479.347	800.000	-0.079	0.252
-478.332	-40.410	0.210	0.110
-477.318	800.000	-0.065	0.268
-476.303	-48.971	0.077	0.037
-475.289	19.237	0.046	-0.037
-474.274	-48.839	0.140	-0.068
-473.259	-200.000	-0.001	-0.114
-472.245	3.975	-0.114	0.084
-471.230	67.390	0.234	-0.242
-470.216	488.181	0.094	-0.217
-469.201	-200.000	-0.039	-0.189
-468.186	236.831	0.047	0.079
-467.172	-51.187	0.031	0.015
-466.157	-35.826	-0.161	-0.088
-465.143	-115.655	-0.146	-0.028
-464.128	54.533	-0.150	0.147
-463.113	27.154	0.094	0.080
-462.099	-18.392	0.248	-0.157
-461.084	654.822	-0.022	-0.057
-460.070	-81.341	-0.376	-0.126
-459.055	258.440	-0.085	0.148
-458.040	711.005	0.069	-0.184
-457.026	800.000	0.036	0.160
-456.011	251.844	-0.258	0.445
-454.997	-63.380	0.207	-0.086
-453.982	-103.090	0.306	0.073
-452.968	156.752	0.201	0.281
-451.953	586.106	0.076	0.189
-450.938	-200.000	-0.010	-0.220
-449.924	-200.000	-0.040	-0.320
-448.909	8.720	-0.176	-0.134
-447.895	33.654	-0.011	-0.010
-446.880	-200.000	0.067	-0.329
-445.865	-71.402	0.101	-0.038
-444.851	-149.486	-0.483	-0.039
-443.836	-200.000	0.054	-0.269
-442.822	357.549	0.095	0.192
-441.807	91.656	0.134	0.153
-440.792	415.250	-0.055	-0.120
-439.778	-59.062	0.288	-0.126
-438.763	800.000	-0.127	0.399
-437.749	345.344	0.122	-0.242
-436.734	11.679	0.151	-0.117
-435.719	-128.354	0.149	-0.021
-434.705	179.295	0.057	0.084
-433.690	-88.298	-0.185	0.056
-432.676	11.982	0.152	-0.118
-431.661	456.938	-0.073	0.165
-430.646	89.563	0.084	0.095
-429.632	258.868	0.205	-0.357
-428.617	800.000	-0.040	0.155
-427.603	59.691	-0.194	0.194
-426.588	-200.000	-0.020	-0.255
-425.573	17.983	-0.266	-0.214
-424.559	-95.926	-0.394	-0.106
-423.544	-166.241	-0.271	0.012
-422.530	239.410	-0.070	-0.118
-421.515	-8.896	0.315	-0.213
-420.500	-77.374	0.160	0.056
-419.486	800.000	0.070	0.210
-418.471	468.441	0.141	0.320
-417.457	-200.000	-0.062	0.426
-416.442	175.464	-0.064	-0.094
-415.428	-165.820	-0.154	-0.007
-414.413	45.434	-0.084	0.078
-413.398	-200.000	-0.041	0.222
-412.384	251.362	-0.083	0.142
-411.369	-12.582	-0.048	0.032
-410.355	91.058	-0.194	0.219
-409.340	580.148	-0.105	0.259
-408.325	800.000	0.058	-0.238
-407.311	157.638	-0.019	0.026
-406.296	-200.000	-0.059	-0.460
-405.282	22.311	-0.327	-0.270
-404.267	-127.587	-0.258	-0.038
-403.252	-200.000	0.070	-0.519
-402.238	-70.437	-0.180	0.069
-401.223	61.061	0.117	-0.118
-400.209	-25.849	0.191	0.114
-399.194	-114.428	-0.153	-0.030
-398.179	150.554	-0.249	0.342
-397.165	-104.222	0.052	0.012
-396.150	22.904	-0.252	0.208
-395.136	-134.281	0.062	-0.008
-394.121	586.134	0.111	0.276
-393.106	380.063	-0.224	0.463
-392.092	73.833	0.318	-0.336
-391.077	113.489	0.107	0.131
-390.063	214.838	0.100	0.161
-389.048	-33.142	0.273	0.153
-388.033	-137.952	-0.287	0.032
-387.019	15.223	0.069	-0.054
-386.004	80.052	-0.188	0.204
-384.990	-5.121	0.184	-0.127
-383.975	-26.380	-0.124	-0.073
-382.960	-200.000	-0.030	-0.228
-381.946	-200.000	-0.040	0.241
-380.931	-85.302	0.084	-0.026
-379.917	247.076	0.066	-0.113
-378.902	98.988	-0.114	0.132
-377.888	49.047	-0.103	-0.098
-376.873	243.359	0.085	0.144
-375.858	176.747	0.181	-0.265
-374.844	-139.546	0.011	0.001
-373.829	-200.000	-0.002	0.069
-372.815	382.582	0.104	0.215
-371.800	-4.752	-0.157	-0.109
-370.785	66.420	-0.212	0.217
-369.771	383.530	0.073	0.152
-368.756	-106.044	-0.088	0.020
-367.742	-123.231	0.282	0.045
-366.727	47.227	-0.323	-0.303
-365.712	317.593	0.111	-0.211
-364.698	-50.748	0.388	0.184
-363.683	523.375	0.102	0.241
-362.669	21.369	-0.227	-0.186
-361.654	800.000	-0.058	-0.186
-360.639	-64.238	-0.313	-0.128
-359.625	95.386	-0.103	0.118
-358.610	-51.010	-0.088	-0.042
-357.596	-200.000	-0.074	-0.383
-356.581	-70.349	-0.080	-0.031
-355.566	-200.000	-0.065	0.569
-354.552	64.656	-0.260	-0.265
-353.537	348.664	0.039	0.078
-352.523	-196.315	-0.152	-0.001
-351.508	412.219	-0.064	0.137
-350.493	106.440	0.105	0.126
-349.479	-36.578	0.179	0.097
-348.464	-200.000	-0.002	0.042
-347.450	800.000	0.020	-0.085
-346.435	800.000	0.058	0.213
-345.420	-91.434	-0.465	-0.134
-344.406	-26.180	0.097	0.057
-343.391	-33.683	-0.430	0.239
-342.377	-91.900	-0.195	-0.056
-341.362	-200.000	0.013	0.062
-340.348	800.000	-0.128	0.384
-339.333	-81.553	-0.134	-0.044
-338.318	-121.229	-0.110	-0.019
-337.304	-88.329	-0.256	0.077
-336.289	-124.914	0.339	0.053
-335.275	199.271	0.075	-0.116
-334.260	-46.806	0.487	0.240
-333.245	24.497	0.151	0.126
-332.231	-200.000	0.028	0.249
-331.216	-200.000	-0.013	-0.149
-330.202	-16.851	-0.022	-0.014
-329.187	-200.000	0.015	-0.184
-328.172	-19.396	-0.110	-0.069
-327.158	-84.516	0.328	-0.104
-326.143	-80.615	0.320	-0.107
-325.129	51.724	-0.117	-0.112
-324.114	419.157	-0.100	0.214
-323.099	603.184	-0.075	-0.188
-322.085	-75.861	0.266	-0.095
-321.070	-150.787	0.267	0.020
-320.056	-110.518	0.241	0.050
-319.041	5.858	-0.070	0.052
-318.026	-121.547	0.156	0.026
-317.012	763.745	0.022	-0.059
-315.997	0.313	-0.082	0.059
-314.983	34.194	-0.215	-0.188
-313.968	-200.000	0.010	0.263
-312.953	-19.594	0.150	-0.093
-311.939	-139.727	0.082	-0.009
-310.924	800.000	0.063	-0.269
-309.910	-156.331	0.273	0.017
-308.895	2.820	0.028	-0.020
-307.880	126.116	0.041	0.052
-306.866	-200.000	-0.050	0.498
-305.851	-45.020	0.236	0.118
-304.837	-101.111	0.327	-0.081
-303.822	-200.000	0.043	-0.264
-302.807	-105.863	0.513	-0.116
-301.793	800.000	0.035	0.100
-300.778	288.884	0.108	-0.197
-299.764	51.773	0.053	-0.051
-298.749	-143.949	0.075	-0.007
-297.735	-200.000	0.009	-0.182
-296.720	-7.911	0.140	-0.095
-295.705	263.555	-0.063	0.109
-294.691	-69.468	-0.257	0.099
-293.676	-97.848	-0.098	0.025
-292.662	218.017	-0.023	0.037
-291.647	-200.000	0.019	0.153
-290.632	800.000	-0.095	0.359
-289.618	-200.000	-0.009	0.140
-288.603	-200.000	-0.089	0.416
-287.589	-51.257	0.352	-0.166
-286.574	238.739	-0.249	-0.416
-285.559	38.394	-0.056	0.050
-284.545	203.302	0.081	-0.126
-283.530	-200.000	0.069	0.420
-282.516	-200.000	-0.035	0.312
-281.501	-105.849	0.012	-0.003
-280.486	-56.288	0.180	-0.080
-279.472	-81.555	0.117	-0.038
-278.457	800.000	0.044	0.177
-277.443	-200.000	0.030	0.252
-276.428	17.273	0.163	-0.130
-275.413	-69.270	0.109	0.042
-274.399	266.645	0.166	0.291
-273.384	-53.142	-0.301	0.139
-272.370	14.576	0.148	-0.116
-271.355	60.148	0.176	0.175
-270.340	152.210	0.123	-0.168
-269.326	19.866	0.167	-0.135
-268.311	800.000	0.045	-0.129
-267.297	100.163	0.141	0.165
-266.282	344.811	-0.043	-0.084
-265.267	-200.000	-0.017	-0.238
-264.253	492.563	0.145	-0.333
-263.238	52.746	-0.246	0.236
-262.224	-0.377	-0.092	0.066
-261.209	-93.549	0.321	-0.089
-260.195	800.000	0.079	-0.268
-259.180	148.836	0.090	-0.122
-258.165	189.499	0.060	0.091
-257.151	24.065	0.065	0.053
-256.136	83.215	-0.098	0.107
-255.122	-131.106	-0.078	-0.010
-254.107	-99.796	0.091	0.023
-253.092	-134.144	0.251	0.031
-252.078	509.395	0.075	0.174
-251.063	-151.213	0.261	0.020
-250.049	-200.000	0.009	-0.077
-249.034	124.965	-0.133	0.168
-248.019	800.000	-0.055	-0.240
-247.005	-76.856	0.222	-0.078
-245.990	169.941	-0.107	0.154
-244.976	-42.836	0.342	0.175
-243.961	-200.000	0.004	-0.053
-242.946	-87.729	-0.151	-0.046
-241.932	-96.756	0.276	0.073
-240.917	-75.710	-0.203	0.072
-239.903	800.000	0.081	-0.311
-238.888	204.772	-0.143	0.222
-237.873	800.000	0.042	0.132
-236.859	154.729	0.172	-0.236
-235.844	800.000	0.022	-0.089
-234.830	-78.242	0.181	-0.062
-233.815	-200.000	0.005	-0.086
-232.800	451.655	-0.052	0.115
-231.786	-62.802	-0.270	0.112
-230.771	-103.124	-0.165	0.039
-229.757	-200.000	-0.008	0.045
-228.742	800.000	-0.104	-0.436
-227.727	39.291	-0.083	0.074
-226.713	178.686	-0.150	-0.219
-225.698	-200.000	-0.006	0.124
-224.684	-200.000	0.011	-0.157
-223.669	-200.000	0.033	0.264
-222.655	353.605	0.046	-0.092
-221.640	-48.619	0.307	-0.148
-220.625	-159.928	-0.133	0.007
-219.611	-200.000	-0.019	0.377
-218.596	-200.000	-0.015	0.093
-217.582	-19.367	-0.133	0.083
-216.567	355.637	-0.159	-0.317
-215.552	-33.641	-0.244	0.135
-214.538	-121.491	0.193	-0.032
-213.523	-200.000	0.002	-0.128
-212.509	-94.814	-0.092	0.025
-211.494	192.016	0.060	-0.091
-210.479	199.033	0.125	-0.193
-209.465	9.544	0.112	-0.085
-208.450	215.655	-0.056	0.089
-207.436	800.000	-0.053	0.227
-206.421	-81.404	-0.308	0.102
-205.406	-200.000	-0.276	-0.000
-204.392	-69.294	-0.157	0.060
-203.377	20.784	0.208	0.168
-202.363	-143.251	-0.249	-0.024
-201.348	-53.643	-0.128	0.058
-200.333	-121.377	-0.181	-0.030
-199.319	176.730	0.126	-0.183
-198.304	203.423	-0.133	-0.207
-197.290	800.000	0.089	-0.352
-196.275	180.949	0.074	0.109
-195.260	69.313	-0.219	-0.226
-194.246	186.421	-0.042	-0.063
-193.231	-200.000	0.077	0.792
-192.217	147.368	0.296	0.399
-191.202	-200.000	0.058	-0.453
-190.187	149.162	0.055	0.074
-189.173	200.856	0.090	0.138
-188.158	113.339	0.160	0.195
-187.144	-24.018	0.442	-0.264
-186.129	-153.075	-0.207	-0.015
-185.114	-93.391	-0.077	0.021
-184.100	800.000	-0.113	0.319
-183.085	55.979	-0.225	0.218
-182.071	-182.116	0.173	0.003
-181.056	800.000	0.025	-0.107
-180.042	-143.010	0.204	-0.020
-179.027	-66.866	0.047	0.019
-178.012	1.857	-0.217	0.156
-176.998	-100.939	0.070	0.017
-175.983	-106.224	0.270	0.060
-174.969	-34.502	0.188	0.103
-173.954	528.198	0.170	0.400
-172.939	-71.648	-0.124	0.046
-171.925	56.982	0.193	0.188
-170.910	126.171	0.196	0.248
-169.896	-181.769	-0.255	0.005
-168.881	301.744	-0.020	0.036
-167.866	121.604	-0.124	0.154
-166.852	25.738	0.257	0.214
-165.837	104.608	0.250	0.294
-164.823	113.600	-0.045	-0.055
-163.808	676.470	-0.056	0.147
-162.793	-200.000	-0.017	-0.108
-161.779	327.183	-0.029	-0.056
-160.764	-200.000	0.005	-0.036
-159.750	80.511	0.097	0.105
-158.735	-91.620	0.210	0.060
-157.720	550.742	-0.051	-0.123
-156.706	76.569	0.082	0.087
-155.691	-39.874	0.184	0.096
-154.677	800.000	0.101	0.405
-153.662	-152.478	-0.224	-0.016
-152.647	96.305	0.188	0.215
-151.633	800.000	-0.051	0.209
-150.618	-136.760	-0.465	-0.054
-149.604	29.966	0.094	-0.080
-148.589	-0.775	-0.218	0.155
-147.574	208.179	0.021	0.034
-146.560	-31.494	-0.188	-0.105
-145.545	165.641	-0.105	-0.148
-144.531	-131.041	0.211	0.028
-143.516	-129.490	0.219	0.030
-142.502	800.000	0.056	0.243
-141.487	-18.058	-0.279	0.174
-140.472	-116.673	0.188	-0.035
-139.458	-64.114	-0.406	0.165
-138.443	-125.702	0.119	-0.018
-137.429	126.605	0.123	-0.156
-136.414	-200.000	-0.039	0.216
-135.399	-70.047	-0.099	0.038
-134.385	25.746	0.157	-0.131
-133.370	67.320	-0.149	-0.152
-132.356	146.225	-0.091	0.122
-131.341	-48.138	0.154	0.074
-130.326	136.670	-0.304	-0.397
-129.312	-160.110	-0.383	-0.021
-128.297	-118.456	0.314	0.056
-127.283	133.610	-0.130	-0.168
-126.268	-124.733	-0.136	0.021
-125.253	800.000	-0.056	0.226
-124.239	-200.000	-0.061	-0.287
-123.224	-200.000	-0.010	-0.063
-122.210	-46.272	-0.268	0.132
-121.195	55.514	0.413	0.399
