DTS Sentinel unit serial number:	SN413079Multiplexer serial number:	ORYXHardware model number:	OX4-SRSoftware version number:	ORYX F/W v4.00 Oryx Data Collector v3.7.2.0data status	okinstallation	princeton_trtdifferential loss correction	single-endedforward channel	channel 3reverse channel	N/Adate	2019/09/11time	00:26:11forward acquisition time	60.00reverse acquisition time	0.00gamma	496.2192k internal	0.2331k external	0.2331temperature offset calibration	0.9914default loss term (dB/km)	0.3790temperature slope calibration	1.0000multiplexer offset coefficient	1.0000multiplexer slope coefficient	1.0000fibre end	0.00T internal ref (°C)	29.25T ext. ref 1 (°C)	-0.33T ext. ref 2 (°C)	22.87length (m)	temperature (°C)	Stokes	anti-Stokes-747.200	-51.817	-0.175	-0.082
-746.185	-127.211	-0.212	0.031
-745.171	27.830	-0.249	0.211
-744.156	-91.194	-0.184	0.053
-743.142	800.000	-0.051	-0.148
-742.127	226.211	0.014	0.023
-741.112	-200.000	0.033	-0.238
-740.098	800.000	0.093	0.374
-739.083	-37.338	0.137	0.073
-738.069	17.299	-0.223	-0.178
-737.054	-63.964	0.227	0.093
-736.039	266.869	-0.121	-0.212
-735.025	65.369	-0.116	0.118
-734.010	-200.000	0.000	0.004
-732.996	-185.450	0.257	-0.004
-731.981	-56.569	0.305	-0.136
-730.966	-121.502	-0.115	-0.019
-729.952	-155.923	-0.164	-0.010
-728.937	-27.608	0.065	0.038
-727.923	8.797	-0.359	-0.273
-726.908	-200.000	0.047	0.237
-725.894	489.751	-0.019	0.044
-724.879	-122.644	-0.275	-0.045
-723.864	800.000	-0.060	-0.197
-722.850	-25.669	-0.394	0.234
-721.835	800.000	-0.051	0.168
-720.821	246.119	-0.255	0.433
-719.806	-89.370	-0.013	0.004
-718.791	98.792	0.058	-0.068
-717.777	-1.430	-0.171	-0.121
-716.762	-200.000	-0.033	-0.302
-715.748	198.572	0.067	0.103
-714.733	-85.220	0.169	0.053
-713.718	-200.000	-0.024	-0.321
-712.704	-112.650	-0.297	-0.059
-711.689	266.913	-0.059	-0.104
-710.675	800.000	-0.039	-0.145
-709.660	137.040	-0.174	0.228
-708.645	-0.552	-0.164	-0.117
-707.631	255.153	-0.091	-0.157
-706.616	-8.697	-0.215	0.145
-705.602	-200.000	0.001	0.129
-704.587	800.000	0.092	-0.273
-703.572	-200.000	0.017	-0.215
-702.558	28.245	-0.176	-0.149
-701.543	524.432	0.055	0.130
-700.529	800.000	-0.036	0.113
-699.514	-87.884	-0.307	0.093
-698.499	-113.528	0.151	-0.030
-697.485	358.266	0.114	0.229
-696.470	71.379	-0.097	0.101
-695.456	573.413	-0.061	-0.148
-694.441	43.288	0.146	0.134
-693.426	219.480	-0.239	-0.384
-692.412	-12.946	0.182	-0.119
-691.397	591.099	-0.063	-0.157
-690.383	-200.000	-0.044	-0.245
-689.368	-40.104	-0.110	-0.057
-688.354	-137.075	-0.191	-0.022
-687.339	278.680	0.060	0.108
-686.324	-200.000	0.030	0.302
-685.310	67.560	-0.280	-0.287
-684.295	98.050	-0.197	0.228
-683.281	73.667	-0.154	0.162
-682.266	-17.775	-0.113	-0.071
-681.251	-169.016	0.493	0.018
-680.237	-36.590	0.136	0.073
-679.222	77.062	0.301	-0.321
-678.208	-38.991	-0.235	-0.124
-677.193	28.598	-0.086	0.073
-676.178	-62.578	-0.110	0.046
-675.164	453.029	-0.068	-0.150
-674.149	800.000	0.045	0.158
-673.135	-67.663	-0.207	-0.081
-672.120	-99.398	0.038	-0.010
-671.105	800.000	-0.010	0.028
-670.091	28.650	0.126	0.107
-669.076	303.669	0.192	-0.358
-668.062	-200.000	0.011	0.165
-667.047	3.507	0.180	-0.132
-666.032	-200.000	-0.012	-0.111
-665.018	-31.055	-0.189	0.107
-664.003	-200.000	-0.017	-0.127
-662.989	667.169	-0.023	0.059
-661.974	-177.897	-0.114	0.003
-660.959	-200.000	0.010	-0.053
-659.945	-22.671	0.078	0.048
-658.930	-200.000	-0.058	-0.264
-657.916	-96.344	0.160	-0.043
-656.901	-166.374	-0.245	0.010
-655.886	535.668	0.051	0.121
-654.872	93.303	-0.219	0.249
-653.857	800.000	0.137	-0.477
-652.843	554.493	-0.065	0.157
-651.828	-51.848	-0.215	0.100
-650.814	125.717	0.216	0.273
-649.799	195.699	0.171	-0.260
-648.784	-200.000	-0.005	-0.181
-647.770	-199.557	0.332	-0.002
-646.755	-69.772	-0.244	0.094
-645.741	587.391	-0.086	0.213
-644.726	-200.000	0.001	-0.037
-643.711	-27.953	0.079	0.046
-642.697	170.486	0.149	0.214
-641.682	800.000	0.048	-0.191
-640.668	-110.268	0.088	-0.018
-639.653	800.000	0.053	0.184
-638.638	423.859	-0.045	-0.098
-637.624	-100.722	0.112	0.028
-636.609	223.464	0.168	0.272
-635.595	-32.646	0.013	0.007
-634.580	1.169	0.076	-0.054
-633.565	-200.000	-0.018	0.080
-632.551	800.000	-0.008	0.027
-631.536	-1.880	-0.145	-0.102
-630.522	-12.922	-0.168	0.110
-629.507	19.797	-0.048	-0.039
-628.492	106.049	-0.151	-0.179
-627.478	177.312	0.102	0.149
-626.463	72.679	0.209	0.219
-625.449	-20.384	0.194	-0.119
-624.434	-200.000	0.040	0.189
-623.419	30.608	-0.072	0.061
-622.405	-66.321	0.414	-0.165
-621.390	800.000	-0.060	-0.241
-620.376	388.877	-0.053	-0.110
-619.361	439.630	-0.104	-0.228
-618.346	-110.102	0.236	0.049
-617.332	594.039	0.131	-0.324
-616.317	-92.056	-0.074	0.021
-615.303	-44.083	-0.165	0.083
-614.288	20.305	-0.208	-0.168
-613.273	290.856	0.055	0.100
-612.259	-114.839	-0.177	0.034
-611.244	33.130	0.135	-0.117
-610.230	269.984	0.221	-0.389
-609.215	-200.000	0.028	-0.245
-608.201	-109.011	-0.368	0.079
-607.186	93.878	-0.261	-0.296
-606.171	-200.000	-0.012	0.131
-605.157	800.000	0.085	-0.237
-604.142	800.000	-0.066	0.214
-603.128	-200.000	0.062	0.299
-602.113	30.278	0.111	0.095
-601.098	461.831	-0.069	0.153
-600.084	43.678	0.264	-0.242
-599.069	-200.000	-0.021	0.222
-598.055	-71.306	0.157	-0.059
-597.040	-102.498	-0.042	-0.010
-596.025	-74.282	-0.189	0.068
-595.011	800.000	0.019	-0.082
-593.996	70.618	0.080	0.083
-592.982	-27.028	-0.207	-0.121
-591.967	303.602	0.166	0.308
-590.952	667.912	0.084	0.219
-589.938	397.034	-0.130	0.273
-588.923	-39.750	-0.057	-0.030
-587.909	170.458	-0.131	0.188
-586.894	-94.461	-0.113	0.031
-585.879	800.000	0.047	-0.179
-584.865	15.290	-0.221	0.173
-583.850	468.137	-0.027	-0.061
-582.836	-200.000	-0.034	-0.255
-581.821	-21.397	-0.174	-0.106
-580.806	383.613	-0.177	-0.365
-579.792	800.000	-0.077	-0.224
-578.777	-151.985	0.294	-0.021
-577.763	-97.117	0.193	0.050
-576.748	-192.408	-0.247	-0.002
-575.733	43.745	0.197	0.181
-574.719	205.545	-0.150	0.233
-573.704	-29.164	-0.371	0.212
-572.690	-104.045	0.160	0.037
-571.675	-40.495	0.259	-0.135
-570.661	191.273	0.067	0.101
-569.646	800.000	-0.053	-0.155
-568.631	-9.091	-0.492	0.329
-567.617	-141.335	-0.142	-0.014
-566.602	-30.884	-0.040	-0.022
-565.588	223.363	-0.098	0.159
-564.573	-74.077	-0.257	0.093
-563.558	-117.449	-0.249	-0.045
-562.544	-200.000	0.038	0.199
-561.529	-51.939	0.250	-0.116
-560.515	-125.918	0.024	-0.004
-559.500	9.337	0.165	-0.124
-558.485	15.658	-0.107	0.084
-557.471	800.000	0.030	-0.100
-556.456	15.807	-0.131	0.103
-555.442	-200.000	0.017	-0.126
-554.427	33.587	0.192	-0.167
-553.412	-200.000	0.014	0.103
-552.398	216.237	-0.116	-0.184
-551.383	33.350	-0.152	-0.131
-550.369	-114.312	0.336	-0.065
-549.354	457.185	0.055	0.123
-548.339	101.002	-0.084	0.098
-547.325	-200.000	0.059	0.324
-546.310	415.057	0.070	0.149
-545.296	-5.445	0.067	-0.046
-544.281	800.000	0.005	0.017
-543.266	102.250	-0.207	0.242
-542.252	-56.772	0.188	0.083
-541.237	95.689	0.162	-0.184
-540.223	-83.488	0.113	0.036
-539.208	800.000	0.049	0.201
-538.193	629.844	-0.034	0.086
-537.179	121.653	-0.121	0.150
-536.164	14.760	0.176	0.138
-535.150	-55.201	0.040	-0.018
-534.135	293.445	0.101	0.184
-533.121	-141.965	-0.284	0.028
-532.106	-125.161	0.181	0.028
-531.091	-155.037	0.169	0.011
-530.077	-44.008	0.208	0.104
-529.062	144.610	-0.179	-0.239
-528.048	106.245	-0.053	-0.063
-527.033	-71.820	-0.090	0.033
-526.018	401.405	0.157	-0.328
-525.004	-79.281	-0.309	-0.105
-523.989	16.413	0.069	0.054
-522.975	800.000	-0.115	-0.319
-521.960	-151.091	0.098	-0.007
-520.945	-200.000	-0.073	-0.350
-519.931	-125.778	0.351	-0.053
-518.916	-19.244	-0.266	0.165
-517.902	800.000	0.077	0.253
-516.887	-113.101	-0.177	0.035
-515.872	35.385	-0.162	-0.142
-514.858	-148.306	0.174	0.014
-513.843	-61.194	0.349	-0.147
-512.829	379.170	0.111	0.226
-511.814	-200.000	-0.053	0.325
-510.799	-57.219	-0.310	-0.136
-509.785	-68.996	-0.390	-0.150
-508.770	-70.919	-0.102	-0.038
-507.756	800.000	0.048	-0.209
-506.741	-200.000	0.023	-0.321
-505.726	-2.263	-0.096	-0.067
-504.712	-200.000	-0.024	-0.133
-503.697	-62.520	0.178	0.074
-502.683	132.199	0.113	0.145
-501.668	142.333	0.155	0.205
-500.653	-105.639	0.048	0.011
-499.639	37.033	-0.409	0.360
-498.624	47.161	0.094	-0.088
-497.610	393.564	0.034	0.071
-496.595	90.167	0.144	0.160
-495.581	-97.243	0.122	0.032
-494.566	-90.357	0.149	0.043
-493.551	-200.000	-0.035	-0.289
-492.537	-119.408	-0.063	0.011
-491.522	-200.000	-0.006	-0.168
-490.508	-200.000	-0.053	0.303
-489.493	-200.000	0.037	-0.262
-488.478	-40.865	0.307	0.158
-487.464	-200.000	0.051	-0.235
-486.449	332.145	-0.130	-0.250
-485.435	266.839	-0.103	-0.180
-484.420	420.339	0.137	0.291
-483.405	-161.279	-0.168	-0.009
-482.391	-150.607	-0.096	-0.007
-481.376	302.702	0.037	0.068
-480.362	800.000	-0.059	-0.167
-479.347	4.661	-0.096	0.070
-478.332	-157.236	-0.507	-0.031
-477.318	-144.925	0.411	0.037
-476.303	32.400	0.090	0.077
-475.289	5.169	-0.280	0.205
-474.274	-125.587	-0.327	0.049
-473.259	-36.443	0.437	-0.234
-472.245	-75.724	-0.222	-0.079
-471.230	227.323	-0.097	-0.158
-470.216	800.000	0.029	-0.106
-469.201	70.786	-0.194	-0.200
-468.186	462.631	0.172	-0.383
-467.172	58.113	0.096	-0.093
-466.157	800.000	-0.072	-0.209
-465.143	33.589	0.073	0.063
-464.128	306.029	0.049	0.092
-463.113	-200.000	-0.043	0.288
-462.099	300.046	0.127	0.233
-461.084	800.000	0.087	-0.330
-460.070	-103.763	0.212	0.049
-459.055	280.211	0.103	0.183
-458.040	277.920	-0.088	-0.156
-457.026	-95.373	-0.252	0.068
-456.011	24.153	0.072	0.059
-454.997	-147.421	0.302	-0.025
-453.982	-25.923	-0.214	-0.125
-452.968	-140.535	-0.362	0.037
-451.953	800.000	-0.070	-0.209
-450.938	-28.088	-0.083	0.048
-449.924	-14.587	0.248	0.158
-448.909	-2.513	0.059	0.041
-447.895	-200.000	0.002	0.044
-446.880	159.794	0.174	-0.242
-445.865	-120.037	0.213	-0.036
-444.851	-6.685	0.188	0.127
-443.836	-172.116	0.275	-0.009
-442.822	75.504	0.098	0.102
-441.807	800.000	0.058	0.174
-440.792	242.104	-0.220	-0.365
-439.778	-200.000	0.045	-0.251
-438.763	7.409	0.022	-0.017
-437.749	75.692	-0.056	-0.059
-436.734	-58.636	-0.396	-0.171
-435.719	-168.385	0.122	-0.005
-434.705	152.768	-0.072	0.098
-433.690	-164.629	0.173	0.008
-432.676	51.416	-0.234	-0.221
-431.661	-166.098	-0.293	0.012
-430.646	71.776	-0.133	0.137
-429.632	164.217	0.097	0.136
-428.617	403.321	-0.010	0.022
-427.603	-200.000	-0.005	-0.075
-426.588	-105.249	0.159	0.036
-425.573	-6.678	-0.098	0.066
-424.559	-45.849	0.203	-0.100
-423.544	51.268	0.160	0.151
-422.530	-117.393	0.100	-0.018
-421.515	220.406	0.072	0.115
-420.500	497.866	-0.056	0.129
-419.486	70.222	0.175	0.180
-418.471	58.950	-0.232	-0.227
-417.457	81.024	-0.086	0.092
-416.442	-200.000	-0.052	0.230
-415.428	-139.517	0.178	0.019
-414.413	23.931	0.145	-0.119
-413.398	-70.187	0.207	0.078
-412.384	-182.602	-0.495	-0.009
-411.369	800.000	-0.075	-0.230
-410.355	395.345	0.205	0.425
-409.340	-31.697	0.063	-0.035
-408.325	29.167	0.176	-0.148
-407.311	-200.000	-0.024	-0.108
-406.296	-122.988	0.327	0.052
-405.282	-200.000	-0.009	0.139
-404.267	141.271	-0.108	-0.142
-403.252	800.000	0.031	0.092
-402.238	120.308	-0.131	0.161
-401.223	800.000	-0.053	-0.148
-400.209	800.000	-0.021	-0.060
-399.194	-174.879	-0.359	0.010
-398.179	42.335	-0.108	-0.097
-397.165	-152.587	-0.260	0.018
-396.150	31.291	-0.130	-0.111
-395.136	499.384	0.088	0.201
-394.121	15.790	-0.174	0.136
-393.106	-46.845	0.150	-0.073
-392.092	-200.000	0.017	-0.215
-391.077	305.782	0.173	0.320
-390.063	-27.036	0.042	-0.024
-389.048	-75.299	-0.152	0.054
-388.033	134.579	0.119	0.153
-387.019	317.349	-0.117	-0.220
-386.004	-139.177	-0.520	-0.056
-384.990	5.662	0.117	-0.086
-383.975	-80.145	-0.254	-0.084
-382.960	18.972	-0.099	-0.078
-381.946	-40.636	0.310	-0.160
-380.931	-200.000	-0.006	-0.046
-379.917	-102.255	0.137	0.033
-378.902	-200.000	-0.017	-0.139
-377.888	47.288	0.218	-0.202
-376.873	77.722	-0.178	-0.188
-375.858	800.000	0.010	0.038
-374.844	242.682	-0.061	0.101
-373.829	13.530	-0.204	0.157
-372.815	279.614	0.225	0.399
-371.800	-200.000	0.045	-0.195
-370.785	-200.000	0.016	-0.120
-369.771	-58.613	0.044	0.019
-368.756	-55.254	-0.033	-0.015
-367.742	-27.203	0.188	0.109
-366.727	21.679	0.108	0.087
-365.712	184.007	0.248	0.364
-364.698	-200.000	-0.048	0.224
-363.683	92.726	-0.255	0.285
-362.669	-200.000	-0.023	-0.153
-361.654	-118.349	-0.163	-0.029
-360.639	-8.749	0.073	-0.049
-359.625	11.161	-0.395	0.300
-358.610	-23.913	0.248	0.147
-357.596	-12.815	-0.120	-0.078
-356.581	224.244	-0.177	-0.283
-355.566	35.223	-0.140	-0.122
-354.552	-63.494	-0.124	-0.051
-353.537	-18.829	0.134	-0.083
-352.523	-33.128	0.029	0.016
-351.508	195.572	0.145	-0.218
-350.493	-107.539	0.112	-0.024
-349.479	-104.285	-0.427	-0.098
-348.464	-54.854	-0.349	0.156
-347.450	51.491	-0.121	-0.114
-346.435	-200.000	0.005	0.130
-345.420	91.453	0.306	0.341
-344.406	400.390	-0.069	-0.144
-343.391	-157.084	-0.023	0.001
-342.377	13.081	0.081	0.062
-341.362	800.000	-0.044	-0.187
-340.348	800.000	0.065	0.270
-339.333	138.434	-0.051	0.067
-338.318	-45.489	-0.149	0.073
-337.304	-61.890	0.444	-0.184
-336.289	339.124	-0.102	-0.198
-335.275	-82.381	-0.179	0.058
-334.260	2.781	0.262	0.188
-333.245	-200.000	-0.013	0.279
-332.231	99.174	0.048	-0.055
-331.216	-40.089	0.211	-0.109
-330.202	87.071	-0.107	0.117
-329.187	236.283	0.083	-0.135
-328.172	-128.985	0.100	0.014
-327.158	-59.101	0.104	-0.044
-326.143	800.000	-0.025	0.095
-325.129	211.784	-0.180	0.280
-324.114	-200.000	-0.000	0.176
-323.099	156.319	0.130	-0.177
-322.085	-92.406	-0.271	0.075
-321.070	-76.070	0.213	0.075
-320.056	86.617	-0.182	-0.199
-319.041	36.338	-0.280	0.244
-318.026	-5.586	0.072	0.049
-317.012	-8.722	0.151	-0.100
-315.997	-186.037	0.453	-0.007
-314.983	211.248	0.168	0.261
-313.968	-2.481	0.481	0.333
-312.953	-70.395	0.043	-0.016
-311.939	-163.299	0.077	-0.004
-310.924	-122.807	0.206	0.033
-309.910	-200.000	0.062	0.345
-308.895	-55.802	0.039	-0.017
-307.880	-109.665	0.220	-0.046
-306.866	160.756	-0.075	-0.104
-305.851	14.993	0.193	-0.149
-304.837	33.449	-0.081	-0.069
-303.822	-130.603	0.107	0.014
-302.807	-57.217	-0.174	-0.076
-301.793	-56.455	0.103	-0.045
-300.778	46.135	-0.187	-0.171
-299.764	-20.329	0.251	0.153
-298.749	100.887	0.058	0.067
-297.735	98.060	0.044	-0.050
-296.720	-172.142	-0.343	-0.011
-295.705	800.000	0.007	-0.025
-294.691	94.303	0.318	0.357
-293.676	800.000	-0.056	0.186
-292.662	-163.161	-0.261	-0.012
-291.647	-200.000	0.005	0.126
-290.632	-172.905	0.132	0.004
-289.618	-139.446	-0.303	-0.032
-288.603	-200.000	0.002	-0.251
-287.589	800.000	-0.088	-0.242
-286.574	-200.000	-0.002	0.101
-285.559	125.960	-0.076	-0.094
-284.545	-157.123	-0.159	0.010
-283.530	-200.000	0.001	-0.060
-282.516	-51.755	-0.337	0.155
-281.501	-200.000	0.029	0.259
-280.486	-152.501	-0.436	0.031
-279.472	-57.058	-0.166	-0.072
-278.457	-200.000	-0.010	-0.189
-277.443	-26.103	-0.368	0.214
-276.428	-16.377	-0.155	-0.097
-275.413	-90.532	0.427	0.122
-274.399	40.263	0.163	-0.145
-273.384	-82.441	-0.159	-0.051
-272.370	53.357	0.148	-0.140
-271.355	405.231	0.046	-0.095
-270.340	-60.128	0.503	-0.212
-269.326	-143.573	0.239	0.022
-268.311	-41.962	-0.195	-0.099
-267.297	47.734	-0.146	0.135
-266.282	-98.632	-0.241	0.061
-265.267	-200.000	0.000	0.434
-264.253	-200.000	0.040	-0.326
-263.238	800.000	0.029	-0.092
-262.224	-120.540	-0.226	0.038
-261.209	-37.539	-0.213	-0.112
-260.195	171.655	0.203	-0.288
-259.180	-178.428	-0.036	-0.001
-258.165	-25.772	-0.059	-0.034
-257.151	99.365	0.242	-0.276
-256.136	198.322	-0.083	0.126
-255.122	-200.000	0.006	0.034
-254.107	99.140	0.123	-0.141
-253.092	31.767	-0.225	-0.191
-252.078	-191.126	0.514	0.005
-251.063	292.632	-0.054	0.096
-250.049	800.000	0.026	-0.082
-249.034	185.932	0.035	0.052
-248.019	481.465	0.073	0.163
-247.005	30.684	0.209	-0.177
-245.990	6.832	0.177	0.130
-244.976	-76.040	-0.172	-0.060
-243.961	-130.669	-0.065	0.009
-242.946	-200.000	-0.016	0.075
-241.932	-200.000	0.014	0.097
-240.917	1.093	-0.105	-0.074
-239.903	-200.000	0.012	0.215
-238.888	-29.755	-0.137	-0.077
-237.873	800.000	0.050	0.158
-236.859	-200.000	-0.021	0.222
-235.844	-60.798	0.145	-0.061
-234.830	139.110	0.113	0.146
-233.815	-200.000	-0.077	0.345
-232.800	-73.563	-0.311	0.112
-231.786	-86.414	-0.140	0.042
-230.771	151.545	-0.119	-0.160
-229.757	49.745	0.250	-0.232
-228.742	60.138	-0.149	0.145
-227.727	-152.620	-0.134	-0.009
-226.713	87.035	0.101	0.110
-225.698	-28.670	-0.207	-0.117
-224.684	-130.481	-0.138	-0.018
-223.669	-34.134	0.047	-0.026
-222.655	63.835	0.260	0.258
-221.640	-6.782	-0.091	0.061
-220.625	65.946	-0.033	0.033
-219.611	58.091	-0.274	0.264
-218.596	-52.378	0.207	0.094
-217.582	-86.795	0.208	-0.063
-216.567	800.000	0.035	-0.143
-215.552	-26.700	-0.189	-0.109
-214.538	62.100	0.044	0.043
-213.523	35.723	-0.196	0.170
-212.509	57.717	0.099	0.095
-211.494	800.000	-0.049	0.159
-210.479	-200.000	-0.005	-0.112
-209.465	-200.000	-0.036	-0.232
-208.450	31.435	-0.166	0.141
-207.436	-135.012	0.336	0.040
-206.421	-200.000	-0.006	-0.224
-205.406	-69.428	0.409	0.154
-204.392	209.230	0.057	-0.088
-203.377	-200.000	-0.007	0.236
-202.363	-53.821	0.408	-0.183
-201.348	-174.853	-0.169	-0.005
-200.333	-200.000	0.016	0.251
-199.319	-200.000	0.003	0.222
-198.304	271.834	-0.068	-0.118
-197.290	-200.000	0.042	-0.183
-196.275	-200.000	0.008	-0.201
-195.260	-35.558	-0.439	-0.235
-194.246	711.198	0.035	0.091
-193.231	292.955	0.062	0.111
-192.217	215.366	-0.095	-0.149
-191.202	-47.474	-0.245	-0.117
-190.187	422.617	-0.127	-0.269
-189.173	225.195	0.123	-0.195
-188.158	-200.000	-0.014	0.127
-187.144	662.511	0.021	0.054
-186.129	284.560	0.160	-0.283
-185.114	32.935	0.217	-0.185
-184.100	107.907	-0.170	-0.200
-183.085	-4.845	-0.346	-0.235
-182.071	619.336	-0.121	-0.299
-181.056	-71.164	0.139	0.052
-180.042	-181.292	0.088	0.002
-179.027	16.176	0.084	0.065
-178.012	800.000	-0.097	0.383
-176.998	-161.618	0.039	0.002
-175.983	-11.569	0.094	-0.061
-174.969	68.871	0.302	0.305
-173.954	-61.912	-0.073	0.030
-172.939	-83.126	0.432	-0.137
-171.925	-32.422	-0.101	0.055
-170.910	-200.000	0.008	0.092
-169.896	-3.904	-0.236	-0.161
-168.881	-200.000	0.041	0.338
-167.866	-43.331	0.202	-0.100
-166.852	274.704	0.063	-0.109
-165.837	408.144	0.027	0.055
-164.823	90.474	0.026	-0.029
-163.808	800.000	0.101	-0.279
-162.793	-143.756	-0.139	0.013
-161.779	192.183	0.213	-0.316
-160.764	114.250	-0.328	0.392
-159.750	800.000	-0.028	-0.079
-158.735	-19.013	0.172	0.105
-157.720	-200.000	-0.009	-0.209
-156.706	55.052	-0.280	0.266
-155.691	103.167	-0.187	-0.216
-154.677	-154.045	0.189	0.013
-153.662	249.908	-0.075	-0.124
-152.647	3.773	0.162	-0.117
-151.633	199.731	-0.021	-0.032
-150.618	382.867	0.109	0.221
-149.604	-200.000	-0.072	0.398
-148.589	30.744	0.246	0.207
-147.574	800.000	-0.037	0.109
-146.560	-76.562	-0.241	0.083
-145.545	-200.000	-0.048	0.643
-144.531	-63.784	-0.261	0.105
-143.516	50.231	0.199	-0.185
-142.502	174.247	-0.079	-0.112
-141.487	390.228	-0.052	0.106
-140.472	-127.554	0.128	0.018
-139.458	-153.169	0.167	-0.011
-138.443	441.757	-0.104	0.225
-137.429	307.393	-0.075	-0.137
-136.414	-200.000	-0.016	0.296
-135.399	-200.000	0.064	0.453
-134.385	-200.000	-0.029	-0.146
-133.370	306.928	-0.214	-0.391
-132.356	-76.311	0.134	0.046
-131.341	202.057	-0.153	0.232
-130.326	-23.118	-0.271	0.161
-129.312	-90.900	0.382	0.108
-128.297	-28.439	0.144	-0.082
-127.283	69.854	-0.148	0.150
-126.268	106.197	-0.137	0.159
-125.253	-200.000	0.062	0.281
-124.239	-103.947	0.062	0.014
-123.224	35.135	-0.186	0.160
-122.210	98.916	0.040	0.045
-121.195	520.675	-0.125	0.288
-120.180	717.332	-0.079	-0.207
