DTS Sentinel unit serial number:	SN413079Multiplexer serial number:	ORYXHardware model number:	OX4-SRSoftware version number:	ORYX F/W v4.00 Oryx Data Collector v3.7.2.0data status	okinstallation	princeton_trtdifferential loss correction	single-endedforward channel	channel 3reverse channel	N/Adate	2019/09/11time	14:14:11forward acquisition time	60.00reverse acquisition time	0.00gamma	496.2192k internal	0.2292k external	0.2292temperature offset calibration	0.9978default loss term (dB/km)	0.3790temperature slope calibration	1.0000multiplexer offset coefficient	1.0000multiplexer slope coefficient	1.0000fibre end	0.00T internal ref (°C)	41.94T ext. ref 1 (°C)	0.89T ext. ref 2 (°C)	37.65length (m)	temperature (°C)	Stokes	anti-Stokes-747.200	68.331	0.307	-0.322
-746.185	53.596	0.058	0.057
-745.171	-168.321	-0.124	-0.005
-744.156	399.164	0.151	0.324
-743.142	-157.437	0.233	-0.014
-742.127	-113.665	0.178	0.036
-741.112	-200.000	0.045	-0.312
-740.098	-200.000	0.038	0.323
-739.083	100.562	-0.155	0.185
-738.069	-200.000	-0.009	0.191
-737.054	592.527	-0.072	0.183
-736.039	-200.000	-0.020	-0.119
-735.025	-16.811	0.227	-0.147
-734.010	-200.000	-0.034	-0.204
-732.996	222.523	-0.086	-0.141
-731.981	76.269	-0.082	0.089
-730.966	-151.281	-0.351	0.027
-729.952	-74.312	-0.394	0.146
-728.937	-89.374	-0.296	-0.089
-727.923	-200.000	0.012	-0.070
-726.908	-200.000	0.004	-0.038
-725.894	158.140	0.049	0.070
-724.879	115.494	0.116	-0.145
-723.864	340.675	-0.064	0.129
-722.850	-90.667	-0.463	-0.137
-721.835	800.000	0.144	0.504
-720.821	698.853	-0.113	-0.304
-719.806	-154.273	-0.194	-0.013
-718.791	-115.970	0.155	-0.030
-717.777	1.070	-0.160	0.117
-716.762	-95.833	0.135	-0.037
-715.748	510.266	0.110	-0.261
-714.733	800.000	0.060	-0.234
-713.718	50.277	-0.325	0.314
-712.704	85.450	-0.165	-0.185
-711.689	100.090	-0.062	0.074
-710.675	-66.253	-0.158	-0.064
-709.660	-29.309	-0.293	0.172
-708.645	800.000	0.020	0.059
-707.631	800.000	0.054	-0.173
-706.616	-132.690	0.277	-0.036
-705.602	598.759	0.076	0.193
-704.587	-49.098	-0.355	0.174
-703.572	-56.500	-0.169	0.076
-702.558	-151.510	-0.190	0.014
-701.543	-200.000	-0.037	-0.198
-700.529	415.948	-0.102	-0.223
-699.514	172.305	0.175	-0.257
-698.499	-107.541	-0.188	-0.042
-697.485	-15.104	0.242	0.158
-696.470	-22.405	0.216	0.133
-695.456	-69.824	-0.230	-0.090
-694.441	412.765	-0.149	0.324
-693.426	-134.758	-0.323	-0.040
-692.412	-118.084	0.130	-0.024
-691.397	800.000	0.064	-0.184
-690.383	285.695	-0.141	0.259
-689.368	38.118	-0.172	0.156
-688.354	-166.526	0.139	0.006
-687.339	-182.205	-0.244	-0.005
-686.324	-98.617	-0.087	0.023
-685.310	-200.000	0.009	0.171
-684.295	-200.000	0.078	-0.482
-683.281	246.241	-0.256	-0.440
-682.266	-153.891	0.179	0.012
-681.251	800.000	0.070	-0.209
-680.237	159.724	-0.105	-0.149
-679.222	800.000	-0.029	-0.115
-678.208	-29.854	0.355	-0.206
-677.193	-158.161	-0.393	-0.023
-676.178	-200.000	0.015	-0.200
-675.164	-200.000	0.033	-0.210
-674.149	-200.000	-0.019	-0.256
-673.135	-200.000	-0.001	-0.093
-672.120	-135.002	-0.254	0.031
-671.105	-43.838	0.164	-0.084
-670.091	-14.845	-0.165	0.108
-669.076	-70.176	-0.380	0.148
-668.062	-200.000	-0.014	-0.119
-667.047	-200.000	-0.065	0.404
-666.032	724.683	0.134	-0.365
-665.018	730.970	0.053	0.145
-664.003	-14.426	0.123	-0.081
-662.989	-77.144	0.181	0.064
-661.974	497.593	0.038	-0.090
-660.959	229.408	0.127	-0.211
-659.945	103.247	-0.059	-0.071
-658.930	82.118	-0.045	-0.049
-657.916	-47.705	0.248	0.123
-656.901	-110.378	-0.295	0.063
-655.886	139.977	0.123	0.166
-654.872	467.860	0.031	-0.070
-653.857	-11.163	-0.080	-0.054
-652.843	579.260	0.084	-0.210
-651.828	-200.000	0.049	-0.242
-650.814	800.000	0.060	-0.191
-649.799	34.456	0.323	0.287
-648.784	243.528	0.087	-0.149
-647.770	-85.738	0.020	-0.006
-646.755	-15.966	0.103	0.067
-645.741	-171.228	0.341	-0.012
-644.726	576.825	-0.048	0.121
-643.711	5.444	-0.283	-0.213
-642.697	800.000	0.031	-0.129
-641.682	347.161	0.135	0.271
-640.668	56.488	-0.153	0.152
-639.653	218.213	-0.058	-0.094
-638.638	-74.487	-0.303	0.111
-637.624	800.000	-0.066	0.269
-636.609	136.837	0.006	0.008
-635.595	-200.000	-0.014	-0.086
-634.580	-67.832	0.182	0.072
-633.565	-6.953	-0.189	-0.131
-632.551	-180.584	0.138	0.003
-631.536	800.000	-0.064	0.266
-630.522	-133.792	-0.156	-0.020
-629.507	105.840	0.219	0.264
-628.492	563.500	-0.190	0.470
-627.478	-200.000	0.025	0.322
-626.463	-200.000	0.045	0.258
-625.449	378.157	-0.137	-0.285
-624.434	14.765	-0.240	-0.191
-623.419	13.717	-0.107	0.085
-622.405	354.657	0.056	-0.113
-621.390	-53.714	0.074	0.034
-620.376	800.000	-0.018	-0.072
-619.361	-137.142	-0.449	0.052
-618.346	382.535	-0.056	-0.117
-617.332	64.466	-0.173	-0.177
-616.317	-15.290	-0.366	0.238
-615.303	-102.741	0.088	0.021
-614.288	800.000	-0.023	-0.069
-613.273	101.908	0.294	-0.349
-612.259	94.058	-0.308	-0.356
-611.244	767.501	-0.058	0.160
-610.230	596.429	0.050	-0.125
-609.215	45.124	0.064	0.060
-608.201	800.000	-0.119	0.424
-607.186	-200.000	-0.011	0.187
-606.171	-200.000	0.009	0.220
-605.157	-108.284	0.363	0.080
-604.142	-200.000	-0.017	0.086
-603.128	129.825	-0.080	-0.105
-602.113	-55.304	-0.046	0.021
-601.098	169.942	0.027	-0.039
-600.084	308.296	0.102	0.195
-599.069	-128.172	-0.197	-0.029
-598.055	557.077	0.042	-0.103
-597.040	-65.899	0.044	-0.018
-596.025	-119.453	-0.275	0.049
-595.011	-120.207	-0.076	0.013
-593.996	32.167	-0.196	-0.172
-592.982	-39.905	-0.301	-0.160
-591.967	-156.594	0.165	-0.010
-590.952	-200.000	0.001	0.042
-589.938	-127.744	-0.191	0.028
-588.923	-27.828	-0.281	0.166
-587.909	412.209	-0.057	-0.122
-586.894	28.255	-0.040	0.035
-585.879	800.000	0.052	-0.209
-584.865	-67.304	0.141	-0.057
-583.850	-172.780	0.053	-0.002
-582.836	14.292	0.132	-0.105
-581.821	-52.341	0.112	-0.053
-580.806	427.930	0.045	-0.099
-579.792	332.302	0.119	0.234
-578.777	-41.334	-0.151	0.079
-577.763	104.707	0.200	0.240
-576.748	66.194	0.184	0.190
-575.733	-117.344	-0.081	0.015
-574.719	-36.909	-0.185	0.101
-573.704	136.767	0.078	-0.103
-572.690	-198.670	0.184	0.001
-571.675	-20.719	0.135	-0.084
-570.661	-200.000	-0.014	0.121
-569.646	-94.955	0.232	0.064
-568.631	-122.614	-0.165	0.027
-567.617	-108.926	-0.168	-0.037
-566.602	-50.566	-0.215	-0.103
-565.588	0.837	0.062	-0.045
-564.573	-128.328	0.108	0.016
-563.558	800.000	0.031	-0.089
-562.544	169.638	-0.151	-0.219
-561.529	-152.625	-0.320	0.023
-560.515	85.469	-0.251	0.280
-559.500	-69.718	0.163	-0.063
-558.485	-111.838	0.211	0.043
-557.471	85.081	-0.219	0.244
-556.456	-200.000	0.015	0.093
-555.442	-84.537	-0.203	-0.065
-554.427	-161.729	0.186	0.010
-553.412	-59.419	0.217	0.095
-552.398	-200.000	0.024	0.110
-551.383	37.731	-0.295	0.266
-550.369	-9.834	-0.085	-0.058
-549.354	-183.797	0.538	0.009
-548.339	128.117	0.116	-0.149
-547.325	170.594	-0.256	-0.372
-546.310	-114.327	0.376	-0.073
-545.296	-200.000	-0.013	0.201
-544.281	671.546	0.066	-0.175
-543.266	453.804	-0.020	-0.045
-542.252	-89.092	0.144	0.043
-541.237	800.000	-0.057	-0.180
-540.223	-42.612	-0.221	-0.114
-539.208	-134.180	-0.088	-0.011
-538.193	-134.361	0.241	0.030
-537.179	469.263	0.106	-0.242
-536.164	76.186	-0.277	-0.298
-535.150	200.692	0.068	0.106
-534.135	77.921	-0.054	0.058
-533.121	46.882	-0.199	0.188
-532.106	800.000	0.085	0.239
-531.091	-200.000	-0.027	-0.139
-530.077	37.861	-0.144	-0.130
-529.062	800.000	0.088	-0.344
-528.048	-200.000	-0.036	0.212
-527.033	-26.458	-0.231	-0.138
-526.018	222.513	0.162	-0.264
-525.004	-61.072	-0.353	-0.151
-523.989	264.915	-0.072	-0.127
-522.975	-200.000	-0.018	-0.267
-521.960	624.178	-0.074	-0.190
-520.945	800.000	-0.049	0.154
-519.931	-101.455	-0.106	-0.026
-518.916	227.227	-0.078	0.128
-517.902	-158.961	-0.154	-0.009
-516.887	305.598	0.159	-0.300
-515.872	-121.205	0.115	-0.020
-514.858	386.493	0.058	-0.122
-513.843	800.000	-0.076	-0.258
-512.829	-28.740	0.138	0.081
-511.814	-200.000	0.019	-0.171
-510.799	747.059	-0.057	-0.154
-509.785	-200.000	-0.024	-0.115
-508.770	-79.733	0.133	0.045
-507.756	407.402	-0.085	0.183
-506.741	-123.904	-0.109	0.017
-505.726	12.213	0.124	0.097
-504.712	800.000	0.115	0.427
-503.697	-200.000	-0.017	0.329
-502.683	-41.191	-0.092	0.048
-501.668	27.274	-0.167	-0.142
-500.653	-127.911	-0.118	0.017
-499.639	-127.347	-0.091	0.013
-498.624	-101.375	-0.369	0.091
-497.610	77.537	0.109	0.118
-496.595	33.894	-0.203	0.179
-495.581	285.617	0.036	-0.065
-494.566	-200.000	-0.008	0.063
-493.551	-200.000	-0.018	0.274
-492.537	-50.927	0.237	0.113
-491.522	136.844	0.229	-0.303
-490.508	-175.757	0.177	0.005
-489.493	-200.000	-0.029	0.155
-488.478	800.000	-0.060	0.176
-487.464	10.223	-0.357	0.275
-486.449	-115.042	0.234	-0.045
-485.435	656.578	-0.181	-0.471
-484.420	-183.848	0.152	0.003
-483.405	-167.626	0.062	-0.003
-482.391	119.482	0.134	0.168
-481.376	-138.275	-0.056	0.006
-480.362	-57.711	0.239	0.106
-479.347	-84.848	0.141	-0.045
-478.332	-35.002	0.183	0.101
-477.318	-31.620	-0.054	0.031
-476.303	610.269	-0.028	0.071
-475.289	-200.000	-0.050	-0.221
-474.274	-120.127	0.134	-0.023
-473.259	-186.315	-0.112	0.002
-472.245	-41.138	-0.128	-0.067
-471.230	59.350	0.176	-0.175
-470.216	-138.622	-0.293	-0.033
-469.201	91.552	-0.149	0.170
-468.186	660.700	0.141	0.367
-467.172	55.267	0.240	-0.235
-466.157	400.627	0.081	0.171
-465.143	-200.000	-0.305	0.001
-464.128	-10.116	0.176	0.118
-463.113	-139.909	0.309	0.033
-462.099	-200.000	-0.020	-0.383
-461.084	-71.192	0.436	0.166
-460.070	800.000	0.152	-0.525
-459.055	-44.365	-0.402	-0.204
-458.040	-84.596	0.084	-0.027
-457.026	182.555	-0.098	0.146
-456.011	-200.000	-0.028	-0.227
-454.997	800.000	0.029	0.104
-453.982	-154.233	-0.207	-0.014
-452.968	-200.000	-0.022	-0.410
-451.953	-200.000	-0.023	0.224
-450.938	15.083	-0.340	-0.270
-449.924	22.052	0.155	-0.128
-448.909	166.549	0.065	-0.093
-447.895	-24.794	-0.267	0.161
-446.880	800.000	-0.005	-0.019
-445.865	-200.000	-0.046	-0.255
-444.851	-200.000	-0.001	-0.220
-443.836	164.798	0.232	-0.330
-442.822	800.000	-0.101	-0.286
-441.807	60.419	-0.224	-0.224
-440.792	213.295	0.305	0.487
-439.778	-141.910	-0.303	0.031
-438.763	-200.000	-0.005	-0.258
-437.749	-83.515	0.221	-0.072
-436.734	-101.850	-0.193	0.047
-435.719	341.327	0.065	-0.129
-434.705	-155.990	-0.425	-0.027
-433.690	28.849	0.422	0.362
-432.676	800.000	0.082	0.236
-431.661	6.348	-0.269	-0.202
-430.646	41.383	0.283	-0.259
-429.632	150.997	-0.087	0.120
-428.617	800.000	-0.057	-0.209
-427.603	-148.304	0.261	-0.022
-426.588	-200.000	-0.011	0.255
-425.573	11.510	-0.057	-0.044
-424.559	42.730	-0.027	-0.025
-423.544	-121.561	-0.342	0.057
-422.530	92.809	0.104	0.119
-421.515	-200.000	-0.028	-0.180
-420.500	-200.000	0.047	-0.251
-419.486	341.936	-0.129	-0.255
-418.471	-200.000	-0.142	0.000
-417.457	64.110	0.151	0.154
-416.442	-19.892	-0.218	-0.136
-415.428	0.213	-0.323	-0.233
-414.413	-153.734	0.485	0.034
-413.398	-39.309	0.284	-0.151
-412.384	-1.864	-0.214	-0.152
-411.369	-153.655	0.431	0.030
-410.355	-25.796	-0.331	-0.197
-409.340	-55.927	0.293	-0.132
-408.325	31.988	0.227	0.198
-407.311	-158.935	-0.092	0.005
-406.296	-188.854	-0.471	0.006
-405.282	350.772	0.115	-0.229
-404.267	117.352	0.060	-0.074
-403.252	-181.227	-0.425	-0.009
-402.238	31.520	-0.185	-0.160
-401.223	800.000	-0.033	-0.100
-400.209	1.185	-0.158	0.115
-399.194	-31.008	-0.468	-0.267
-398.179	29.092	-0.257	-0.220
-397.165	-134.014	0.157	0.020
-396.150	116.726	0.127	0.157
-395.136	-122.902	0.471	-0.077
-394.121	49.380	0.079	-0.075
-393.106	311.787	0.075	0.141
-392.092	199.750	0.068	0.105
-391.077	89.423	0.093	-0.105
-390.063	-13.545	-0.096	-0.063
-389.048	517.080	-0.036	-0.085
-388.033	-200.000	-0.035	-0.258
-387.019	-200.000	0.032	0.267
-386.004	-72.820	-0.106	-0.039
-384.990	800.000	0.026	0.073
-383.975	-59.536	-0.393	0.170
-382.960	-55.730	0.159	-0.072
-381.946	-102.886	-0.449	-0.108
-380.931	-105.597	-0.363	0.083
-379.917	9.471	0.213	0.163
-378.902	-200.000	-0.007	-0.070
-377.888	-75.301	-0.249	-0.090
-376.873	-89.586	-0.132	-0.039
-375.858	661.454	0.175	0.455
-374.844	36.275	-0.115	0.102
-373.829	-200.000	0.022	-0.279
-372.815	-200.000	0.001	-0.037
-371.800	234.236	-0.112	0.186
-370.785	-59.861	-0.233	0.101
-369.771	-20.997	-0.424	-0.262
-368.756	800.000	-0.075	0.276
-367.742	110.772	-0.239	0.290
-366.727	413.668	-0.208	0.447
-365.712	288.455	0.083	-0.152
-364.698	495.238	-0.074	-0.172
-363.683	800.000	-0.081	-0.281
-362.669	-65.979	-0.173	-0.070
-361.654	-57.661	0.150	0.066
-360.639	164.247	0.136	0.193
-359.625	-32.987	0.458	0.256
-358.610	-61.199	0.309	-0.131
-357.596	-122.974	0.075	0.012
-356.581	-200.000	-0.029	-0.140
-355.566	-38.107	-0.241	-0.129
-354.552	-101.504	0.399	0.098
-353.537	508.248	-0.064	0.150
-352.523	-101.310	-0.306	-0.075
-351.508	-67.062	0.382	-0.152
-350.493	-200.000	0.007	-0.031
-349.479	205.275	0.130	0.204
-348.464	-200.000	0.009	0.214
-347.450	-200.000	0.073	0.351
-346.435	-160.578	-0.385	0.021
-345.420	-6.600	0.105	0.072
-344.406	-200.000	0.028	-0.133
-343.391	-200.000	0.023	-0.168
-342.377	-7.740	-0.145	-0.099
-341.362	800.000	-0.068	-0.289
-340.348	-200.000	-0.042	-0.233
-339.333	-103.047	0.290	-0.069
-338.318	595.788	-0.051	0.127
-337.304	-120.561	0.093	0.016
-336.289	800.000	0.012	-0.050
-335.275	136.572	0.103	0.135
-334.260	-99.938	0.116	0.029
-333.245	-129.492	-0.182	-0.025
-332.231	641.649	0.118	-0.303
-331.216	-200.000	-0.032	0.173
-330.202	-12.939	0.111	0.073
-329.187	800.000	0.091	0.264
-328.172	800.000	0.113	-0.354
-327.158	128.569	0.214	-0.274
-326.143	-130.816	-0.374	0.050
-325.129	344.927	0.239	0.472
-324.114	800.000	-0.056	0.177
-323.099	36.847	-0.020	0.018
-322.085	215.707	-0.172	0.275
-321.070	116.903	0.185	0.229
-320.056	120.227	0.201	0.252
-319.041	-127.665	0.173	0.025
-318.026	800.000	-0.080	-0.271
-317.012	-46.008	0.192	0.095
-315.997	-200.000	-0.000	0.140
-314.983	-104.015	-0.185	0.043
-313.968	336.907	-0.204	-0.398
-312.953	-84.175	-0.070	0.022
-311.939	-136.717	-0.029	0.003
-310.924	800.000	0.112	-0.421
-309.910	242.565	0.105	0.178
-308.895	-200.000	0.034	-0.264
-307.880	12.608	0.113	0.088
-306.866	57.372	-0.154	-0.152
-305.851	-200.000	-0.025	0.205
-304.837	-200.000	0.003	-0.050
-303.822	-36.778	-0.165	-0.089
-302.807	-113.806	0.296	-0.058
-301.793	-126.281	-0.315	-0.047
-300.778	-28.160	0.378	0.220
-299.764	-51.735	0.248	-0.116
-298.749	-0.328	0.354	-0.253
-297.735	151.936	0.249	-0.341
-296.720	78.405	0.106	-0.114
-295.705	-155.160	0.060	0.004
-294.691	-32.621	-0.327	-0.183
-293.676	-58.154	0.183	0.080
-292.662	-118.457	-0.027	-0.005
-291.647	-175.119	-0.173	0.005
-290.632	206.615	0.125	0.196
-289.618	-54.654	0.182	0.083
-288.603	149.817	-0.048	0.066
-287.589	-200.000	0.038	0.168
-286.574	-200.000	-0.020	-0.194
-285.559	796.492	-0.095	-0.262
-284.545	60.280	0.235	0.233
-283.530	-200.000	0.016	-0.073
-282.516	-10.693	0.221	-0.147
-281.501	-130.997	0.161	0.022
-280.486	-94.358	-0.043	-0.012
-279.472	800.000	-0.103	-0.335
-278.457	-92.521	-0.045	0.013
-277.443	-200.000	0.014	0.140
-276.428	-130.381	-0.229	-0.031
-275.413	-200.000	-0.010	0.143
-274.399	-155.317	-0.122	-0.008
-273.384	-200.000	0.035	-0.177
-272.370	-21.544	-0.370	-0.227
-271.355	-124.148	0.100	-0.016
-270.340	479.121	0.068	-0.154
-269.326	-123.688	0.053	-0.008
-268.311	169.339	0.149	-0.214
-267.297	-98.171	0.183	0.047
-266.282	-58.969	0.119	0.051
-265.267	30.578	0.147	0.126
-264.253	155.860	0.089	0.123
-263.238	-25.653	0.115	-0.068
-262.224	-44.963	-0.251	-0.125
-261.209	314.227	0.208	-0.394
-260.195	118.287	-0.072	0.090
-259.180	-200.000	-0.018	0.103
-258.165	644.297	-0.102	0.262
-257.151	800.000	0.123	0.504
-256.136	-149.216	0.319	0.026
-255.122	-179.918	0.156	0.003
-254.107	-27.012	0.110	0.064
-253.092	10.394	-0.171	0.131
-252.078	295.757	-0.030	-0.055
-251.063	-94.351	-0.136	0.037
-250.049	-135.677	0.091	-0.011
-249.034	67.894	0.156	0.160
-248.019	-15.424	0.212	0.136
-247.005	-97.967	0.305	-0.079
-245.990	126.599	0.116	-0.147
-244.976	474.553	-0.020	-0.046
-243.961	800.000	-0.030	0.092
-242.946	-77.959	-0.228	-0.079
-241.932	317.283	-0.085	-0.161
-240.917	-200.000	-0.013	0.415
-239.903	-200.000	0.008	0.205
-238.888	-200.000	0.030	-0.204
-237.873	-35.637	-0.145	0.079
-236.859	116.314	-0.285	0.350
-235.844	800.000	-0.132	0.419
-234.830	43.272	-0.141	0.130
-233.815	-178.973	0.380	0.009
-232.800	-78.265	0.272	-0.094
-231.786	800.000	-0.024	-0.103
-230.771	213.331	0.186	0.295
-229.757	-73.532	0.038	0.014
-228.742	27.696	-0.171	-0.144
-227.727	-106.092	0.212	0.048
-226.713	59.326	-0.038	-0.038
-225.698	-137.657	0.046	-0.005
-224.684	306.634	-0.130	0.243
-223.669	-77.767	-0.300	0.104
-222.655	-79.750	0.271	0.092
-221.640	79.933	-0.154	0.166
-220.625	-149.287	0.156	-0.013
-219.611	-64.762	0.042	0.017
-218.596	150.968	-0.057	0.077
-217.582	-84.439	-0.079	-0.025
-216.567	-200.000	0.003	-0.329
-215.552	800.000	-0.066	0.187
-214.538	-200.000	0.045	0.360
-213.523	800.000	0.016	0.045
-212.509	-200.000	0.003	-0.106
-211.494	-66.770	0.214	-0.085
-210.479	-200.000	0.002	-0.122
-209.465	-200.000	0.018	-0.187
-208.450	-200.000	-0.009	0.433
-207.436	-3.480	-0.087	-0.061
-206.421	800.000	-0.065	-0.235
-205.406	-125.286	0.168	-0.026
-204.392	152.650	0.063	0.086
-203.377	800.000	-0.094	0.398
-202.363	-79.737	0.056	-0.019
-201.348	-200.000	0.029	0.260
-200.333	-60.802	0.145	-0.062
-199.319	-143.710	0.062	0.006
-198.304	-136.379	0.162	-0.019
-197.290	-52.529	0.178	-0.083
-196.275	147.418	0.106	0.143
-195.260	-200.000	-0.052	0.381
-194.246	483.035	-0.128	0.290
-193.231	-200.000	-0.080	-0.416
-192.217	-179.978	-0.051	-0.001
-191.202	286.352	0.062	0.112
-190.187	70.379	0.097	0.101
-189.173	-1.557	-0.222	-0.157
-188.158	-45.821	0.199	0.098
-187.144	-53.527	0.095	-0.044
-186.129	-78.483	-0.222	0.076
-185.114	-34.852	-0.104	0.057
-184.100	-136.631	-0.108	0.013
-183.085	30.226	0.225	0.192
-182.071	-200.000	-0.094	-0.434
-181.056	68.141	-0.046	-0.047
-180.042	-200.000	0.039	-0.296
-179.027	-65.497	0.392	0.158
-178.012	17.620	0.031	0.025
-176.998	55.381	0.220	0.213
-175.983	-19.186	0.131	0.081
-174.969	150.786	-0.108	-0.147
-173.954	-119.905	-0.232	-0.040
-172.939	196.817	0.106	0.162
-171.925	-57.603	0.194	-0.085
-170.910	-97.424	-0.323	-0.084
-169.896	53.712	0.310	0.298
-168.881	800.000	0.013	0.056
-167.866	-3.452	0.099	0.069
-166.852	400.804	-0.062	-0.129
-165.837	-121.169	0.153	-0.026
-164.823	-104.195	-0.233	0.054
-163.808	-96.287	0.324	-0.086
-162.793	-43.399	0.174	0.088
-161.779	-71.544	-0.304	0.114
-160.764	81.803	-0.072	-0.079
-159.750	88.618	-0.157	-0.175
-158.735	-106.738	0.199	0.044
-157.720	190.551	0.213	-0.320
-156.706	-23.309	-0.174	0.105
-155.691	407.076	-0.179	-0.377
-154.677	769.516	-0.038	-0.105
-153.662	703.401	-0.073	0.191
-152.647	73.685	0.072	-0.075
-151.633	-200.000	0.033	0.199
-150.618	-200.000	-0.006	-0.254
-149.604	139.614	0.055	0.072
-148.589	-108.130	0.229	0.050
-147.574	-200.000	0.017	-0.097
-146.560	-3.866	0.028	0.020
-145.545	-125.861	0.193	0.029
-144.531	-132.964	-0.097	0.012
-143.516	351.372	-0.074	0.146
-142.502	-200.000	0.001	0.211
-141.487	774.357	0.113	0.307
-140.472	-116.018	-0.178	0.033
-139.458	-59.781	-0.206	0.088
-138.443	-200.000	-0.004	-0.093
-137.429	-62.407	0.197	0.082
-136.414	800.000	0.055	-0.183
-135.399	800.000	0.105	-0.296
-134.385	-65.963	-0.069	-0.028
-133.370	713.912	0.024	-0.064
-132.356	-98.467	0.108	0.028
-131.341	189.941	0.118	-0.177
-130.326	31.493	-0.073	0.062
-129.312	716.971	0.055	-0.145
-128.297	247.383	0.227	0.384
-127.283	-80.873	0.127	0.042
-126.268	68.668	-0.210	-0.216
-125.253	-9.561	-0.217	-0.145
-124.239	17.043	0.092	0.073
-123.224	-50.589	0.223	-0.105
-122.210	385.910	0.054	0.112
