DTS Sentinel unit serial number:	SN413079Multiplexer serial number:	ORYXHardware model number:	OX4-SRSoftware version number:	ORYX F/W v4.00 Oryx Data Collector v3.7.2.0data status	okinstallation	princeton_trtdifferential loss correction	single-endedforward channel	channel 3reverse channel	N/Adate	2019/09/11time	21:06:11forward acquisition time	60.00reverse acquisition time	0.00gamma	496.2192k internal	0.2308k external	0.2308temperature offset calibration	1.0033default loss term (dB/km)	0.3790temperature slope calibration	1.0000multiplexer offset coefficient	1.0000multiplexer slope coefficient	1.0000fibre end	0.00T internal ref (°C)	36.55T ext. ref 1 (°C)	1.56T ext. ref 2 (°C)	30.67length (m)	temperature (°C)	Stokes	anti-Stokes-747.200	85.225	-0.136	0.152
-746.185	88.780	0.085	-0.096
-745.171	-38.532	-0.110	0.059
-744.156	-121.747	-0.188	-0.032
-743.142	-146.616	-0.305	0.027
-742.127	159.638	0.091	0.129
-741.112	-200.000	-0.141	-0.001
-740.098	-200.000	-0.009	0.296
-739.083	-131.399	-0.157	-0.021
-738.069	-200.000	-0.004	0.209
-737.054	33.667	0.170	0.150
-736.039	-45.211	-0.250	0.126
-735.025	-200.000	0.003	0.279
-734.010	11.334	-0.328	-0.255
-732.996	-110.130	-0.534	-0.113
-731.981	157.000	0.123	-0.172
-730.966	-141.370	-0.470	0.048
-729.952	78.991	-0.245	0.267
-728.937	-200.000	0.005	-0.598
-727.923	-60.405	-0.113	-0.049
-726.908	-28.729	-0.313	-0.183
-725.894	630.732	0.067	-0.172
-724.879	-64.649	-0.321	-0.132
-723.864	356.267	0.088	-0.177
-722.850	-78.883	0.385	-0.133
-721.835	-102.907	0.121	-0.029
-720.821	800.000	0.031	0.127
-719.806	-200.000	-0.035	0.159
-718.791	-33.564	0.198	0.111
-717.777	80.375	0.146	-0.159
-716.762	-200.000	-0.034	-0.199
-715.748	710.770	-0.081	-0.218
-714.733	-40.958	-0.194	0.102
-713.718	800.000	-0.018	-0.054
-712.704	-200.000	-0.055	-0.279
-711.689	61.572	0.184	-0.186
-710.675	-132.382	-0.243	-0.032
-709.660	-200.000	-0.019	-0.099
-708.645	-110.603	0.182	-0.038
-707.631	-200.000	-0.016	0.123
-706.616	800.000	0.048	0.192
-705.602	-200.000	0.016	0.214
-704.587	800.000	0.085	-0.302
-703.572	24.148	-0.378	0.317
-702.558	-171.383	-0.146	0.005
-701.543	-51.144	0.236	0.112
-700.529	35.766	-0.166	0.149
-699.514	384.622	0.249	0.521
-698.499	800.000	-0.043	-0.162
-697.485	-104.704	-0.504	-0.118
-696.470	-20.237	-0.130	0.081
-695.456	34.170	-0.207	0.183
-694.441	149.784	0.120	0.165
-693.426	115.919	0.044	0.055
-692.412	-200.000	0.016	0.108
-691.397	19.116	-0.212	-0.173
-690.383	-59.864	0.150	0.065
-689.368	127.113	-0.107	-0.137
-688.354	-188.959	-0.115	-0.001
-687.339	-116.898	0.049	-0.009
-686.324	-200.000	-0.011	-0.279
-685.310	800.000	0.102	-0.312
-684.295	60.890	-0.219	-0.221
-683.281	-124.960	-0.321	0.050
-682.266	-12.369	-0.273	-0.181
-681.251	-200.000	0.001	0.037
-680.237	-3.216	-0.180	-0.127
-679.222	327.966	0.103	0.201
-678.208	-19.659	-0.246	-0.154
-677.193	-200.000	0.024	-0.297
-676.178	-178.825	0.228	0.005
-675.164	-15.523	-0.109	-0.070
-674.149	428.334	-0.115	-0.252
-673.135	-127.058	-0.097	-0.014
-672.120	88.902	0.167	-0.188
-671.105	68.518	-0.095	0.099
-670.091	-200.000	-0.001	-0.138
-669.076	-5.398	0.127	0.088
-668.062	28.268	-0.087	-0.074
-667.047	-200.000	-0.031	0.230
-666.032	-200.000	0.048	0.355
-665.018	-200.000	-0.020	0.090
-664.003	-200.000	0.009	-0.120
-662.989	358.852	-0.167	-0.339
-661.974	-99.473	-0.425	-0.108
-660.959	262.026	-0.020	0.035
-659.945	-42.922	-0.105	0.054
-658.930	-47.428	-0.307	-0.151
-657.916	-96.240	-0.219	0.059
-656.901	-104.123	0.209	-0.049
-655.886	-146.896	-0.215	-0.019
-654.872	-189.600	0.084	-0.001
-653.857	177.330	0.041	-0.060
-652.843	36.001	0.129	0.115
-651.828	-62.318	-0.049	-0.021
-650.814	-76.808	-0.263	-0.093
-649.799	800.000	-0.017	-0.070
-648.784	-53.091	0.092	-0.043
-647.770	5.261	-0.273	0.204
-646.755	137.968	0.044	0.058
-645.741	5.349	0.048	0.036
-644.726	12.595	-0.301	0.235
-643.711	-119.850	0.246	0.043
-642.697	-82.628	-0.206	0.068
-641.682	-79.893	-0.422	-0.144
-640.668	117.762	-0.151	-0.188
-639.653	-200.000	0.010	0.061
-638.638	800.000	0.030	-0.118
-637.624	116.648	-0.175	0.218
-636.609	21.191	0.323	-0.265
-635.595	800.000	-0.046	-0.137
-634.580	-158.881	-0.369	0.021
-633.565	-65.930	0.158	0.064
-632.551	265.035	0.131	0.231
-631.536	287.789	0.105	0.192
-630.522	325.115	0.064	-0.124
-629.507	-90.237	0.085	0.025
-628.492	-18.067	0.195	0.124
-627.478	9.933	-0.229	0.176
-626.463	-200.000	0.004	0.072
-625.449	182.434	0.100	0.149
-624.434	187.907	0.099	0.149
-623.419	800.000	0.010	-0.034
-622.405	-200.000	-0.061	-0.272
-621.390	-91.746	-0.158	-0.045
-620.376	-83.086	0.128	0.042
-619.361	-86.265	0.423	0.132
-618.346	-137.530	0.175	0.020
-617.332	-200.000	-0.036	0.186
-616.317	173.290	-0.214	0.312
-615.303	-200.000	0.061	0.485
-614.288	-8.705	0.055	0.037
-613.273	301.514	0.239	0.447
-612.259	-200.000	0.068	-0.514
-611.244	-200.000	-0.097	0.508
-610.230	-15.932	0.244	-0.157
-609.215	190.852	0.090	0.137
-608.201	-171.023	0.171	-0.006
-607.186	-200.000	-0.024	0.228
-606.171	-85.649	0.160	-0.050
-605.157	-152.550	-0.477	-0.034
-604.142	-177.941	-0.211	0.005
-603.128	150.134	-0.074	-0.102
-602.113	800.000	-0.069	-0.247
-601.098	-200.000	-0.021	-0.113
-600.084	550.890	-0.060	-0.146
-599.069	344.792	-0.033	0.065
-598.055	-200.000	0.008	-0.089
-597.040	125.619	-0.034	-0.043
-596.025	-129.989	-0.136	-0.019
-595.011	21.178	-0.109	0.089
-593.996	-144.613	-0.422	-0.039
-592.982	-137.224	-0.037	0.004
-591.967	800.000	-0.026	0.074
-590.952	569.882	0.093	0.229
-589.938	-14.879	0.311	0.202
-588.923	-55.144	-0.104	-0.047
-587.909	-200.000	-0.019	-0.174
-586.894	6.149	0.150	-0.112
-585.879	288.911	-0.042	-0.077
-584.865	-200.000	0.017	0.111
-583.850	800.000	-0.086	-0.272
-582.836	239.900	-0.071	0.119
-581.821	17.189	-0.144	0.115
-580.806	-200.000	-0.001	-0.311
-579.792	800.000	0.059	-0.169
-578.777	218.782	-0.095	-0.153
-577.763	4.202	0.115	-0.085
-576.748	800.000	0.043	-0.128
-575.733	58.070	0.308	-0.305
-574.719	24.718	-0.161	0.135
-573.704	49.286	0.057	0.054
-572.690	-200.000	0.009	0.045
-571.675	800.000	-0.047	0.194
-570.661	97.404	0.175	0.202
-569.646	-200.000	-0.040	0.458
-568.631	398.097	0.053	-0.113
-567.617	183.664	0.068	-0.102
-566.602	-17.294	-0.259	-0.165
-565.588	310.711	-0.081	-0.153
-564.573	-126.157	0.224	0.034
-563.558	-200.000	-0.006	-0.106
-562.544	-198.502	0.090	0.001
-561.529	446.906	0.082	-0.182
-560.515	12.760	-0.168	0.131
-559.500	8.064	0.029	-0.022
-558.485	73.529	-0.258	0.273
-557.471	53.073	-0.104	0.100
-556.456	-74.283	-0.176	0.064
-555.442	-83.536	0.090	-0.029
-554.427	-200.000	-0.003	-0.168
-553.412	800.000	0.027	-0.118
-552.398	-133.065	-0.324	0.041
-551.383	800.000	0.070	0.204
-550.369	-99.479	-0.156	0.040
-549.354	800.000	0.142	-0.471
-548.339	-36.350	-0.441	-0.240
-547.325	308.887	0.040	-0.075
-546.310	-200.000	0.012	-0.307
-545.296	-200.000	-0.084	-0.564
-544.281	800.000	-0.089	-0.271
-543.266	-92.513	-0.191	-0.054
-542.252	-200.000	-0.017	-0.189
-541.237	-200.000	-0.003	0.504
-540.223	800.000	0.076	-0.266
-539.208	-115.595	0.225	0.043
-538.193	-180.862	-0.207	0.004
-537.179	-112.245	0.234	0.047
-536.164	30.862	-0.138	0.119
-535.150	478.920	0.030	0.069
-534.135	-23.316	-0.293	0.178
-533.121	298.354	0.037	-0.068
-532.106	-200.000	-0.046	0.423
-531.091	-30.680	-0.273	-0.156
-530.077	-22.116	-0.075	-0.046
-529.062	13.977	-0.233	-0.183
-528.048	800.000	-0.069	-0.207
-527.033	331.846	-0.094	0.183
-526.018	-200.000	-0.022	0.271
-525.004	-40.691	-0.152	-0.080
-523.989	-70.447	-0.180	-0.069
-522.975	327.992	-0.103	-0.200
-521.960	800.000	-0.072	-0.272
-520.945	-200.000	-0.033	-0.154
-519.931	-200.000	-0.004	-0.177
-518.916	-200.000	0.044	-0.301
-517.902	-87.445	-0.138	-0.042
-516.887	-84.497	-0.102	-0.032
-515.872	-12.535	-0.246	0.162
-514.858	-79.597	-0.185	0.063
-513.843	-83.967	0.349	-0.112
-512.829	407.927	0.042	0.089
-511.814	-59.930	0.222	-0.096
-510.799	5.427	-0.141	0.105
-509.785	800.000	-0.106	0.322
-508.770	-200.000	0.012	0.085
-507.756	40.876	-0.161	-0.146
-506.741	-148.073	0.156	-0.013
-505.726	20.515	0.254	-0.207
-504.712	238.015	-0.051	-0.085
-503.697	-200.000	0.000	0.082
-502.683	-113.191	-0.385	0.076
-501.668	-200.000	-0.015	-0.170
-500.653	155.191	-0.231	-0.320
-499.639	-175.774	-0.146	-0.004
-498.624	-200.000	-0.024	0.139
-497.610	218.814	0.163	0.262
-496.595	253.120	0.035	-0.060
-495.581	-121.242	-0.162	0.027
-494.566	-46.071	0.202	-0.100
-493.551	800.000	-0.055	-0.180
-492.537	-167.991	-0.126	0.005
-491.522	79.171	-0.155	0.167
-490.508	25.062	-0.136	-0.114
-489.493	160.717	0.170	-0.240
-488.478	384.294	-0.121	0.252
-487.464	-65.272	-0.212	-0.086
-486.449	-8.036	0.189	0.128
-485.435	70.518	-0.084	0.087
-484.420	-78.465	0.199	-0.069
-483.405	800.000	-0.155	0.431
-482.391	347.972	0.091	-0.180
-481.376	29.194	-0.102	-0.087
-480.362	-200.000	0.040	-0.305
-479.347	-114.633	0.222	-0.043
-478.332	256.337	-0.115	0.199
-477.318	-151.710	0.283	-0.021
-476.303	-84.596	0.272	0.086
-475.289	-104.688	-0.371	0.086
-474.274	120.411	-0.106	0.132
-473.259	654.092	0.036	0.092
-472.245	-70.967	-0.187	-0.071
-471.230	274.015	0.021	0.038
-470.216	-162.060	-0.315	-0.016
-469.201	14.087	-0.248	0.194
-468.186	-200.000	0.005	0.195
-467.172	-55.233	0.242	-0.109
-466.157	35.973	-0.083	-0.074
-465.143	800.000	0.128	-0.403
-464.128	-107.421	-0.103	-0.023
-463.113	198.749	0.057	0.088
-462.099	-138.868	-0.429	0.047
-461.084	7.413	0.243	-0.183
-460.070	-95.680	-0.314	-0.084
-459.055	800.000	0.061	-0.191
-458.040	-38.758	-0.174	-0.092
-457.026	-67.440	0.460	-0.182
-456.011	-200.000	0.008	0.109
-454.997	77.427	0.094	0.100
-453.982	-200.000	-0.029	0.148
-452.968	192.366	-0.143	0.218
-451.953	211.533	-0.139	-0.220
-450.938	727.747	0.107	0.286
-449.924	-3.577	0.054	0.038
-448.909	-31.407	0.098	0.055
-447.895	800.000	0.036	0.107
-446.880	-67.160	0.331	0.131
-445.865	33.848	-0.204	-0.178
-444.851	-200.000	-0.041	0.221
-443.836	444.041	-0.077	-0.169
-442.822	-73.454	-0.419	-0.154
-441.807	46.658	-0.240	0.224
-440.792	61.301	0.189	-0.189
-439.778	-132.341	-0.284	0.037
-438.763	21.803	-0.342	-0.280
-437.749	-14.832	0.188	0.121
-436.734	-135.470	0.205	0.025
-435.719	178.810	-0.091	-0.134
-434.705	19.270	0.139	-0.112
-433.690	44.610	0.215	-0.199
-432.676	-200.000	0.023	-0.138
-431.661	-72.779	-0.183	0.068
-430.646	303.320	-0.181	-0.337
-429.632	-46.751	-0.426	0.209
-428.617	191.465	-0.221	0.334
-427.603	-200.000	0.048	-0.347
-426.588	83.099	0.312	-0.341
-425.573	138.467	0.157	0.207
-424.559	800.000	-0.137	0.386
-423.544	-200.000	0.027	-0.160
-422.530	-32.232	-0.121	0.068
-421.515	-8.020	-0.111	0.075
-420.500	-135.950	0.129	-0.015
-419.486	-50.105	-0.389	-0.185
-418.471	187.389	0.050	0.075
-417.457	-200.000	0.001	0.051
-416.442	283.359	0.091	0.164
-415.428	-105.281	-0.148	-0.034
-414.413	-126.282	0.303	-0.045
-413.398	265.970	-0.140	-0.244
-412.384	-142.598	-0.328	-0.032
-411.369	-35.105	0.219	-0.120
-410.355	-81.882	0.102	0.034
-409.340	-200.000	0.011	0.446
-408.325	147.801	0.070	0.094
-407.311	-186.318	0.250	0.004
-406.296	-62.772	-0.128	0.053
-405.282	212.038	0.082	-0.130
-404.267	800.000	-0.045	-0.136
-403.252	-200.000	-0.012	-0.081
-402.238	-200.000	-0.004	0.176
-401.223	155.554	0.007	-0.009
-400.209	-109.471	-0.454	0.096
-399.194	406.849	-0.049	0.104
-398.179	-81.211	0.141	-0.047
-397.165	478.418	-0.063	0.143
-396.150	-200.000	0.075	0.369
-395.136	-200.000	-0.010	-0.146
-394.121	388.785	-0.193	0.401
-393.106	22.287	-0.121	-0.099
-392.092	362.857	0.102	-0.205
-391.077	-71.306	0.261	0.098
-390.063	800.000	0.108	-0.388
-389.048	-108.293	0.326	-0.071
-388.033	800.000	-0.075	-0.226
-387.019	-200.000	-0.037	-0.295
-386.004	149.354	-0.070	-0.095
-384.990	-30.279	0.147	-0.084
-383.975	131.946	-0.110	0.142
-382.960	-200.000	-0.010	0.129
-381.946	33.497	0.266	0.232
-380.931	176.074	0.089	0.130
-379.917	-200.000	0.035	-0.156
-378.902	-200.000	-0.000	-0.242
-377.888	-200.000	-0.031	-0.262
-376.873	42.512	0.111	-0.102
-375.858	567.083	-0.207	-0.504
-374.844	57.550	-0.104	-0.102
-373.829	253.242	-0.077	-0.132
-372.815	164.858	0.144	0.204
-371.800	59.777	0.176	0.174
-370.785	800.000	0.029	0.089
-369.771	216.332	-0.054	-0.086
-368.756	78.841	-0.176	0.188
-367.742	-56.809	0.190	0.084
-366.727	131.188	-0.269	0.346
-365.712	358.870	0.031	0.061
-364.698	674.098	0.114	0.296
-363.683	-200.000	-0.033	-0.359
-362.669	-97.714	0.188	-0.049
-361.654	-62.616	0.205	0.085
-360.639	7.723	0.191	-0.143
-359.625	426.668	-0.098	-0.212
-358.610	-33.984	0.345	-0.190
-357.596	238.158	0.122	-0.203
-356.581	120.735	0.178	0.221
-355.566	-200.000	-0.009	-0.164
-354.552	251.889	-0.055	0.093
-353.537	-129.482	0.343	-0.048
-352.523	209.818	0.120	0.188
-351.508	-36.550	0.246	0.133
-350.493	-164.547	-0.164	0.007
-349.479	-164.751	0.245	0.011
-348.464	-65.586	0.239	-0.096
-347.450	-39.747	0.326	-0.171
-346.435	-163.020	0.247	-0.012
-345.420	-147.132	-0.270	0.023
-344.406	-200.000	-0.018	-0.288
-343.391	-200.000	0.039	-0.205
-342.377	-200.000	-0.001	-0.078
-341.362	149.193	0.067	-0.091
-340.348	687.012	0.149	0.389
-339.333	-15.775	0.213	0.136
-338.318	-156.727	-0.075	0.005
-337.304	-48.313	-0.158	0.076
-336.289	-28.838	0.332	-0.191
-335.275	-134.252	-0.317	-0.039
-334.260	215.541	-0.065	-0.103
-333.245	522.693	0.095	-0.223
-332.231	384.695	0.102	0.211
-331.216	-100.329	0.215	-0.053
-330.202	-200.000	0.032	0.294
-329.187	277.455	-0.113	0.201
-328.172	417.252	-0.069	0.147
-327.158	56.899	-0.215	0.210
-326.143	5.808	0.188	-0.139
-325.129	30.598	0.065	0.055
-324.114	120.909	-0.038	-0.047
-323.099	-52.901	0.207	-0.095
-322.085	-181.695	0.288	0.006
-321.070	-200.000	-0.008	-0.115
-320.056	800.000	0.086	-0.372
-319.041	-110.742	-0.111	0.023
-318.026	417.769	-0.092	0.196
-317.012	-107.643	0.032	-0.007
-315.997	-200.000	-0.001	0.094
-314.983	197.286	0.103	-0.157
-313.968	342.383	-0.151	-0.295
-312.953	154.439	0.085	-0.117
-311.939	800.000	-0.047	-0.155
-310.924	37.533	-0.081	0.072
-309.910	164.938	0.148	0.209
-308.895	-154.123	-0.299	-0.020
-307.880	-200.000	-0.052	0.228
-306.866	10.837	-0.098	0.075
-305.851	70.621	0.190	0.197
-304.837	-118.825	0.203	-0.036
-303.822	-170.377	-0.032	-0.001
-302.807	-200.000	-0.006	0.307
-301.793	800.000	0.087	0.326
-300.778	-200.000	0.047	0.211
-299.764	-110.201	-0.099	0.021
-298.749	153.998	-0.070	-0.096
-297.735	-4.552	0.142	0.098
-296.720	-200.000	0.042	0.269
-295.705	231.512	0.068	0.111
-294.691	71.944	-0.098	0.102
-293.676	-14.172	-0.128	0.082
-292.662	-5.736	-0.127	0.087
-291.647	1.396	0.183	-0.131
-290.632	126.976	-0.113	0.143
-289.618	128.642	0.110	0.139
-288.603	76.747	0.075	-0.079
-287.589	-108.124	-0.286	-0.062
-286.574	-130.184	0.423	0.058
-285.559	-132.302	0.135	-0.017
-284.545	-43.567	-0.203	-0.102
-283.530	118.056	0.063	0.077
-282.516	55.996	0.090	-0.088
-281.501	-103.053	-0.176	0.042
-280.486	800.000	-0.015	0.046
-279.472	493.909	-0.009	-0.021
-278.457	-71.167	0.107	-0.040
-277.443	-200.000	-0.000	0.170
-276.428	-142.024	-0.119	0.012
-275.413	317.136	0.091	-0.171
-274.399	134.668	-0.169	0.219
-273.384	-200.000	-0.000	0.127
-272.370	-200.000	0.003	-0.154
-271.355	-200.000	0.022	-0.127
-270.340	515.439	-0.015	0.034
-269.326	201.031	0.070	-0.107
-268.311	64.477	0.077	0.077
-267.297	41.862	-0.290	0.262
-266.282	-96.819	0.081	-0.021
-265.267	-133.716	-0.071	0.009
-264.253	66.135	-0.059	-0.060
-263.238	-200.000	-0.007	-0.274
-262.224	21.205	0.081	-0.066
-261.209	-42.829	0.170	0.086
-260.195	-64.079	0.100	0.041
-259.180	-200.000	-0.039	0.226
-258.165	-70.649	0.416	0.157
-257.151	130.030	-0.112	0.143
-256.136	197.639	0.208	0.317
-255.122	256.909	0.067	0.115
-254.107	800.000	0.102	0.295
-253.092	-22.114	-0.164	0.099
-252.078	-200.000	0.000	-0.364
-251.063	-200.000	0.013	0.170
-250.049	125.177	0.152	-0.191
-249.034	338.864	-0.081	-0.158
-248.019	4.201	-0.165	0.120
-247.005	-60.147	-0.128	-0.054
-245.990	-98.072	0.208	-0.053
-244.976	51.877	-0.060	0.057
-243.961	311.535	-0.145	-0.271
-242.946	800.000	0.052	0.212
-241.932	316.819	0.042	0.078
-240.917	56.542	0.290	-0.281
-239.903	-22.905	-0.161	0.097
-238.888	20.247	0.113	0.091
-237.873	568.138	-0.088	-0.213
-236.859	6.322	0.156	-0.116
-235.844	96.795	0.134	-0.153
-234.830	800.000	-0.104	0.385
-233.815	-123.419	0.112	0.018
-232.800	800.000	0.065	-0.192
-231.786	3.838	-0.155	0.113
-230.771	-63.975	-0.245	-0.100
-229.757	-38.112	0.151	-0.080
-228.742	-138.781	-0.298	0.032
-227.727	351.271	-0.092	-0.182
-226.713	-47.086	-0.106	-0.052
-225.698	284.044	0.082	-0.147
-224.684	-200.000	0.019	-0.235
-223.669	15.976	0.050	0.039
-222.655	118.317	-0.150	0.184
-221.640	800.000	0.102	-0.363
-220.625	800.000	0.020	0.061
-219.611	243.864	0.080	0.133
-218.596	-21.968	-0.151	0.091
-217.582	-200.000	-0.038	0.240
-216.567	33.427	-0.040	-0.035
-215.552	-200.000	-0.023	0.108
-214.538	244.982	-0.110	0.185
-213.523	-104.580	0.104	-0.024
-212.509	-200.000	0.039	0.414
-211.494	-11.650	-0.088	-0.057
-210.479	-10.625	0.250	-0.165
-209.465	12.120	0.049	-0.038
-208.450	253.693	0.191	0.324
-207.436	224.215	0.203	0.327
-206.421	-135.211	0.103	0.012
-205.406	445.154	0.042	0.091
-204.392	-94.891	0.319	0.086
-203.377	27.418	0.053	-0.044
-202.363	790.143	-0.044	-0.121
-201.348	108.423	0.021	-0.025
-200.333	-14.296	0.143	0.092
-199.319	-200.000	-0.012	-0.306
-198.304	-200.000	-0.039	0.327
-197.290	-76.681	0.184	0.064
-196.275	359.256	-0.136	-0.271
-195.260	800.000	-0.018	-0.060
-194.246	414.720	-0.039	0.082
-193.231	-200.000	-0.019	0.172
-192.217	-64.537	-0.271	-0.110
-191.202	-8.038	-0.191	-0.128
-190.187	6.938	0.158	-0.117
-189.173	396.191	0.068	-0.142
-188.158	41.677	0.270	0.243
-187.144	691.116	-0.032	-0.084
-186.129	-112.846	0.267	0.053
-185.114	-200.000	-0.003	-0.042
-184.100	146.020	0.046	0.061
-183.085	800.000	0.003	-0.010
-182.071	-132.203	-0.269	-0.035
-181.056	-147.294	0.219	-0.018
-180.042	-74.488	0.193	-0.069
-179.027	788.326	0.020	-0.056
-178.012	-122.965	0.148	0.024
-176.998	26.880	-0.224	0.186
-175.983	135.369	-0.062	0.080
-174.969	-81.449	0.189	-0.062
-173.954	-17.741	-0.088	0.055
-172.939	17.134	0.198	0.156
-171.925	59.820	-0.126	0.124
-170.910	-200.000	0.070	-0.331
-169.896	800.000	0.065	-0.184
-168.881	121.514	-0.096	-0.119
-167.866	349.808	-0.081	0.160
-166.852	52.115	-0.236	-0.223
-165.837	-100.702	0.176	0.043
-164.823	-147.962	0.198	-0.016
-163.808	62.778	0.234	-0.232
-162.793	729.160	-0.123	-0.326
-161.779	-200.000	0.026	-0.449
-160.764	-144.950	-0.141	-0.013
-159.750	139.004	0.023	-0.030
-158.735	42.845	0.279	-0.253
-157.720	-191.757	0.172	0.002
-156.706	125.528	-0.036	-0.045
-155.691	-21.592	0.141	-0.086
-154.677	-200.000	-0.060	0.523
-153.662	-200.000	-0.054	0.239
-152.647	-96.037	-0.093	-0.025
-151.633	281.744	-0.124	0.220
-150.618	-122.711	0.041	0.007
-149.604	-115.498	0.332	0.062
-148.589	-43.606	0.110	-0.055
-147.574	602.629	-0.094	0.233
-146.560	-200.000	0.052	-0.286
-145.545	723.657	-0.132	-0.348
-144.531	106.372	0.116	0.137
-143.516	-200.000	-0.029	0.227
-142.502	59.761	0.253	-0.248
-141.487	-113.047	0.129	-0.025
-140.472	-63.418	0.084	-0.034
-139.458	669.869	0.069	0.177
-138.443	147.797	0.041	0.055
-137.429	-200.000	0.001	0.093
-136.414	-200.000	0.003	-0.114
-135.399	382.471	-0.092	0.187
-134.385	-200.000	0.006	0.235
-133.370	-174.569	0.212	-0.006
-132.356	-123.566	-0.242	-0.038
-131.341	-79.561	0.303	-0.102
-130.326	149.814	-0.169	0.228
-129.312	129.586	0.113	0.143
-128.297	-83.873	0.069	0.022
-127.283	-200.000	0.021	-0.112
-126.268	-200.000	-0.011	0.124
-125.253	-82.277	-0.256	-0.083
-124.239	-7.283	0.434	-0.292
-123.224	-186.786	-0.327	-0.005
-122.210	107.428	0.109	-0.129
