DTS Sentinel unit serial number:	SN413079Multiplexer serial number:	ORYXHardware model number:	OX4-SRSoftware version number:	ORYX F/W v4.00 Oryx Data Collector v3.7.2.0data status	okinstallation	princeton_trtdifferential loss correction	single-endedforward channel	channel 3reverse channel	N/Adate	2019/09/10time	21:34:11forward acquisition time	60.00reverse acquisition time	0.00gamma	496.2192k internal	0.2328k external	0.2328temperature offset calibration	0.9921default loss term (dB/km)	0.3790temperature slope calibration	1.0000multiplexer offset coefficient	1.0000multiplexer slope coefficient	1.0000fibre end	0.00T internal ref (°C)	31.06T ext. ref 1 (°C)	-0.31T ext. ref 2 (°C)	24.52length (m)	temperature (°C)	Stokes	anti-Stokes-747.200	-56.314	-0.317	0.142
-746.185	273.530	-0.098	0.175
-745.171	148.794	0.053	-0.072
-744.156	-200.000	0.012	0.109
-743.142	-111.043	-0.112	0.023
-742.127	513.335	-0.176	0.413
-741.112	-200.000	-0.053	0.428
-740.098	645.340	-0.103	0.264
-739.083	-200.000	-0.013	0.303
-738.069	-90.843	-0.093	-0.027
-737.054	-6.766	0.175	0.120
-736.039	59.165	-0.338	-0.335
-735.025	-95.784	0.201	-0.054
-734.010	-200.000	0.024	0.135
-732.996	-163.587	-0.612	-0.029
-731.981	25.695	-0.140	0.117
-730.966	-179.779	-0.243	0.005
-729.952	245.951	-0.058	0.099
-728.937	-133.270	0.053	0.007
-727.923	800.000	-0.056	-0.173
-726.908	20.593	-0.163	0.133
-725.894	-200.000	-0.051	-0.291
-724.879	-100.449	-0.269	0.067
-723.864	-200.000	0.042	0.281
-722.850	-153.236	-0.113	-0.008
-721.835	-200.000	0.013	0.056
-720.821	102.068	-0.031	-0.037
-719.806	-68.183	-0.258	0.101
-718.791	-200.000	-0.040	-0.183
-717.777	22.246	0.300	-0.247
-716.762	-6.742	-0.117	-0.080
-715.748	-12.834	-0.078	-0.051
-714.733	-200.000	-0.028	-0.273
-713.718	-74.759	-0.088	0.032
-712.704	-200.000	-0.118	-0.550
-711.689	-102.602	-0.058	0.014
-710.675	-200.000	-0.184	0.001
-709.660	312.400	-0.050	0.094
-708.645	-60.714	-0.229	0.098
-707.631	272.250	-0.024	0.042
-706.616	-200.000	0.088	0.440
-705.602	0.013	0.231	0.166
-704.587	-172.448	0.249	0.008
-703.572	271.590	-0.124	-0.220
-702.558	800.000	0.074	0.264
-701.543	296.067	0.101	0.186
-700.529	9.357	-0.390	-0.297
-699.514	-42.088	-0.434	0.224
-698.499	-200.000	0.032	0.319
-697.485	57.226	-0.073	0.071
-696.470	-200.000	0.048	-0.271
-695.456	-29.721	-0.256	-0.147
-694.441	-200.000	0.003	-0.151
-693.426	141.398	-0.177	-0.236
-692.412	-200.000	-0.012	0.163
-691.397	-39.629	0.051	0.027
-690.383	96.630	0.048	-0.055
-689.368	36.320	-0.140	-0.124
-688.354	-55.637	-0.153	-0.069
-687.339	-78.949	-0.247	-0.085
-686.324	169.760	0.270	0.388
-685.310	-60.836	-0.094	0.040
-684.295	110.923	-0.153	0.186
-683.281	497.644	0.080	0.185
-682.266	-7.452	-0.517	-0.352
-681.251	-116.440	-0.187	0.035
-680.237	564.618	-0.101	-0.246
-679.222	-131.949	0.208	0.027
-678.208	800.000	0.051	0.218
-677.193	-62.672	0.043	0.018
-676.178	180.452	-0.277	-0.408
-675.164	-136.958	-0.138	-0.016
-674.149	800.000	0.019	0.075
-673.135	-145.631	-0.241	-0.022
-672.120	800.000	-0.077	0.314
-671.105	800.000	0.053	-0.196
-670.091	-151.788	0.286	-0.021
-669.076	9.541	0.129	-0.099
-668.062	420.731	-0.047	-0.102
-667.047	209.849	-0.076	0.121
-666.032	-59.280	-0.087	-0.038
-665.018	-148.392	-0.163	0.013
-664.003	-200.000	0.021	-0.380
-662.989	29.921	0.294	-0.252
-661.974	-200.000	0.014	0.179
-660.959	-200.000	0.007	0.194
-659.945	366.904	0.136	0.275
-658.930	494.002	0.080	0.185
-657.916	-65.153	-0.152	0.062
-656.901	-115.485	0.086	0.016
-655.886	800.000	0.077	0.328
-654.872	-98.069	-0.256	0.066
-653.857	-200.000	-0.006	0.240
-652.843	-5.766	-0.281	0.193
-651.828	-62.824	-0.215	0.089
-650.814	-39.205	0.004	-0.002
-649.799	-107.330	-0.112	-0.025
-648.784	-44.151	0.427	-0.215
-647.770	-118.170	-0.399	-0.071
-646.755	-73.019	-0.540	-0.199
-645.741	87.972	0.153	-0.171
-644.726	800.000	0.082	0.275
-643.711	-108.140	-0.372	0.081
-642.697	47.300	0.124	0.116
-641.682	-53.529	-0.232	0.107
-640.668	54.451	-0.176	-0.170
-639.653	-162.186	-0.232	-0.012
-638.638	-116.467	0.254	0.047
-637.624	-200.000	-0.012	-0.354
-636.609	63.522	-0.141	-0.142
-635.595	-97.058	-0.262	0.069
-634.580	18.570	-0.177	-0.142
-633.565	-12.684	0.218	0.143
-632.551	216.428	-0.212	0.338
-631.536	-83.318	-0.081	0.026
-630.522	54.551	0.279	0.270
-629.507	-200.000	-0.009	-0.118
-628.492	-16.032	-0.187	-0.119
-627.478	-58.657	-0.224	-0.097
-626.463	-200.000	0.023	-0.200
-625.449	-142.803	0.251	-0.025
-624.434	800.000	0.062	0.181
-623.419	262.338	-0.120	0.209
-622.405	-52.507	0.243	-0.113
-621.390	57.986	-0.055	0.054
-620.376	-86.228	0.379	-0.117
-619.361	800.000	-0.075	-0.280
-618.346	-2.565	-0.320	-0.224
-617.332	-30.298	0.145	0.083
-616.317	-19.315	0.103	-0.064
-615.303	-123.150	0.182	-0.029
-614.288	-200.000	0.003	0.092
-613.273	-200.000	-0.017	-0.143
-612.259	65.296	-0.049	-0.049
-611.244	45.530	-0.213	0.197
-610.230	346.861	0.155	0.306
-609.215	-200.000	0.026	0.274
-608.201	-200.000	0.021	0.254
-607.186	77.230	0.265	-0.282
-606.171	31.796	-0.380	-0.327
-605.157	800.000	-0.007	0.026
-604.142	697.504	0.083	-0.220
-603.128	70.463	0.153	0.158
-602.113	97.524	-0.044	0.051
-601.098	-29.086	-0.194	0.112
-600.084	44.691	0.178	0.164
-599.069	153.849	-0.109	0.150
-598.055	-139.025	-0.166	0.018
-597.040	-28.275	-0.094	-0.054
-596.025	-56.234	-0.086	0.039
-595.011	-200.000	0.074	-0.403
-593.996	24.872	0.282	-0.234
-592.982	7.359	0.206	0.154
-591.967	3.858	0.204	0.149
-590.952	-200.000	0.002	-0.064
-589.938	137.986	-0.122	0.160
-588.923	105.627	0.112	0.133
-587.909	-20.994	0.156	-0.095
-586.894	146.040	-0.095	-0.127
-585.879	9.300	-0.215	-0.163
-584.865	65.716	0.244	-0.248
-583.850	161.357	0.033	0.046
-582.836	-89.566	-0.237	-0.070
-581.821	35.117	-0.095	-0.083
-580.806	-123.657	-0.080	-0.013
-579.792	-200.000	-0.000	0.103
-578.777	800.000	0.103	0.287
-577.763	-200.000	0.015	0.200
-576.748	800.000	-0.047	0.203
-575.733	-200.000	0.003	0.062
-574.719	-181.246	-0.175	-0.003
-573.704	-200.000	-0.077	-0.394
-572.690	800.000	-0.106	0.433
-571.675	-75.529	0.407	0.145
-570.661	50.820	-0.093	0.088
-569.646	336.832	-0.058	0.113
-568.631	55.626	-0.293	0.284
-567.617	-127.659	-0.227	-0.033
-566.602	-133.816	0.270	-0.034
-565.588	-200.000	-0.000	0.193
-564.573	164.388	0.190	-0.268
-563.558	800.000	0.006	-0.019
-562.544	157.668	0.104	-0.144
-561.529	90.284	-0.141	-0.158
-560.515	178.070	0.128	-0.186
-559.500	-67.179	-0.360	-0.142
-558.485	-200.000	-0.026	0.166
-557.471	1.852	0.116	0.083
-556.456	698.973	0.160	0.420
-555.442	248.562	-0.051	0.086
-554.427	-151.465	0.163	0.012
-553.412	-200.000	0.055	-0.364
-552.398	348.493	-0.077	-0.151
-551.383	-200.000	0.051	0.278
-550.369	-182.793	-0.324	-0.006
-549.354	-89.480	0.206	-0.061
-548.339	-132.234	0.301	0.039
-547.325	60.194	0.273	-0.270
-546.310	37.754	-0.122	-0.108
-545.296	192.361	0.240	0.363
-544.281	347.758	-0.154	-0.303
-543.266	126.319	0.243	-0.307
-542.252	216.046	-0.175	0.279
-541.237	38.668	-0.078	0.070
-540.223	138.608	-0.062	-0.081
-539.208	649.454	-0.056	0.142
-538.193	229.331	0.174	-0.284
-537.179	-200.000	-0.027	0.169
-536.164	305.811	0.017	-0.031
-535.150	83.531	-0.029	-0.032
-534.135	-200.000	0.017	-0.104
-533.121	-200.000	-0.089	-0.395
-532.106	80.069	0.155	-0.167
-531.091	0.099	0.026	-0.018
-530.077	-70.492	-0.170	0.064
-529.062	91.072	-0.080	-0.090
-528.048	27.669	0.267	-0.225
-527.033	49.442	0.064	-0.060
-526.018	-105.647	0.232	0.052
-525.004	10.621	0.216	-0.165
-523.989	159.971	0.157	-0.219
-522.975	290.724	0.200	-0.363
-521.960	-200.000	-0.011	-0.142
-520.945	-200.000	0.012	0.143
-519.931	153.155	0.074	0.101
-518.916	800.000	-0.025	-0.087
-517.902	683.952	0.037	0.095
-516.887	-124.458	0.166	-0.026
-515.872	-146.237	-0.064	0.006
-514.858	-81.997	-0.216	0.071
-513.843	-118.469	-0.405	0.072
-512.829	-13.790	0.284	-0.183
-511.814	343.156	-0.061	-0.120
-510.799	57.215	-0.163	-0.159
-509.785	-73.160	0.149	0.055
-508.770	322.550	0.242	0.461
-507.756	-200.000	0.013	0.193
-506.741	-183.132	0.031	0.001
-505.726	-200.000	0.003	-0.238
-504.712	36.288	-0.157	-0.138
-503.697	101.703	-0.082	0.095
-502.683	800.000	-0.092	0.274
-501.668	63.886	-0.245	0.246
-500.653	-37.741	-0.075	-0.040
-499.639	-47.452	-0.391	0.190
-498.624	-25.200	0.095	-0.056
-497.610	800.000	0.022	0.072
-496.595	-200.000	-0.080	-0.384
-495.581	155.907	0.041	-0.056
-494.566	-69.233	-0.037	0.014
-493.551	-34.208	-0.341	-0.187
-492.537	-45.859	-0.205	0.101
-491.522	144.967	-0.144	0.193
-490.508	-25.283	-0.238	0.141
-489.493	-200.000	-0.013	-0.151
-488.478	-200.000	0.007	0.436
-487.464	-200.000	0.014	0.123
-486.449	192.843	0.108	0.162
-485.435	-72.576	0.292	-0.107
-484.420	800.000	-0.065	0.190
-483.405	-164.907	-0.128	-0.006
-482.391	16.161	0.196	-0.154
-481.376	457.917	-0.047	-0.104
-480.362	-170.487	0.198	-0.007
-479.347	-200.000	0.018	0.221
-478.332	-200.000	0.023	-0.141
-477.318	800.000	-0.065	0.234
-476.303	80.476	0.258	0.277
-475.289	-200.000	-0.001	0.142
-474.274	-200.000	0.274	-0.000
-473.259	-51.578	-0.401	0.187
-472.245	-200.000	-0.019	-0.098
-471.230	-200.000	-0.028	-0.355
-470.216	-40.634	-0.118	-0.061
-469.201	-24.306	0.184	-0.109
-468.186	362.231	0.014	-0.028
-467.172	-58.690	0.638	-0.276
-466.157	-200.000	-0.006	0.058
-465.143	-85.513	0.278	0.086
-464.128	270.467	-0.116	-0.203
-463.113	535.992	-0.203	0.481
-462.099	-200.000	-0.016	0.082
-461.084	-156.868	0.190	0.012
-460.070	43.840	0.167	-0.153
-459.055	800.000	-0.089	0.256
-458.040	221.232	0.162	0.258
-457.026	-14.998	0.267	0.170
-456.011	-184.304	0.075	-0.001
-454.997	91.465	-0.132	0.148
-453.982	-80.900	-0.080	0.026
-452.968	-181.865	0.137	0.003
-451.953	-129.635	0.158	-0.022
-450.938	54.364	0.201	-0.192
-449.924	289.791	-0.130	0.235
-448.909	401.182	-0.166	0.348
-447.895	-177.892	0.178	0.004
-446.880	-41.232	0.181	-0.093
-445.865	52.971	-0.136	0.129
-444.851	-21.553	-0.312	0.189
-443.836	197.521	0.186	0.283
-442.822	-95.031	-0.271	-0.073
-441.807	574.571	-0.090	0.220
-440.792	-200.000	-0.042	-0.421
-439.778	281.668	0.058	-0.103
-438.763	297.343	0.060	-0.110
-437.749	-24.004	0.502	0.299
-436.734	24.484	-0.111	0.091
-435.719	-200.000	-0.035	-0.361
-434.705	355.891	-0.035	-0.069
-433.690	-30.274	0.021	0.012
-432.676	22.974	-0.176	-0.144
-431.661	167.467	-0.209	0.296
-430.646	-32.963	0.102	0.057
-429.632	553.502	0.030	0.072
-428.617	-200.000	-0.006	0.183
-427.603	-151.823	0.186	-0.014
-426.588	-77.035	0.219	-0.076
-425.573	-95.805	-0.442	-0.117
-424.559	92.403	0.089	-0.099
-423.544	-164.363	-0.220	0.010
-422.530	113.617	0.123	0.149
-421.515	800.000	-0.097	-0.300
-420.500	619.370	-0.087	-0.218
-419.486	-200.000	0.046	-0.261
-418.471	-109.307	0.202	0.043
-417.457	510.468	0.170	-0.394
-416.442	-200.000	0.030	-0.156
-415.428	70.006	-0.065	-0.066
-414.413	-111.795	-0.179	0.036
-413.398	-37.325	0.261	-0.139
-412.384	-42.091	0.055	0.028
-411.369	-113.975	-0.335	-0.065
-410.355	-200.000	0.002	-0.041
-409.340	-10.877	-0.298	0.196
-408.325	-200.000	-0.078	-0.402
-407.311	-93.231	0.434	-0.120
-406.296	329.753	0.187	-0.358
-405.282	-200.000	0.043	-0.401
-404.267	800.000	-0.009	-0.031
-403.252	-8.121	-0.177	-0.118
-402.238	-108.104	-0.453	-0.097
-401.223	-121.169	0.358	-0.060
-400.209	800.000	-0.085	0.326
-399.194	-89.780	0.075	0.022
-398.179	130.220	0.139	0.176
-397.165	21.919	0.184	-0.149
-396.150	-173.604	0.202	0.006
-395.136	800.000	-0.078	-0.314
-394.121	-74.217	0.138	-0.049
-393.106	-4.819	0.066	-0.045
-392.092	-79.903	-0.401	0.134
-391.077	-147.161	-0.338	-0.029
-390.063	505.369	0.095	0.219
-389.048	169.126	0.059	-0.084
-388.033	184.328	0.111	0.164
-387.019	-114.716	-0.237	0.045
-386.004	784.810	0.024	-0.065
-384.990	-37.633	-0.222	-0.117
-383.975	180.146	-0.095	-0.138
-382.960	476.016	0.051	0.115
-381.946	-139.935	0.230	-0.024
-380.931	28.024	0.165	0.138
-379.917	10.602	-0.222	0.168
-378.902	23.102	-0.206	-0.168
-377.888	-45.324	-0.190	0.094
-376.873	-103.325	-0.190	-0.044
-375.858	-200.000	-0.032	0.148
-374.844	64.068	-0.167	0.166
-373.829	104.385	-0.066	-0.077
-372.815	36.714	-0.139	0.122
-371.800	-36.577	-0.200	0.107
-370.785	153.119	-0.136	0.185
-369.771	155.070	0.123	-0.168
-368.756	800.000	-0.064	-0.269
-367.742	-86.110	-0.251	0.077
-366.727	176.630	-0.150	0.217
-365.712	140.969	0.107	-0.140
-364.698	-1.692	-0.235	-0.164
-363.683	-200.000	0.021	-0.170
-362.669	104.793	0.247	-0.289
-361.654	174.625	0.086	0.124
-360.639	11.107	-0.137	0.104
-359.625	-200.000	-0.017	0.251
-358.610	-200.000	-0.027	-0.364
-357.596	-200.000	-0.001	0.576
-356.581	524.697	-0.172	0.403
-355.566	-102.212	-0.188	0.045
-354.552	-17.663	0.118	-0.074
-353.537	239.947	-0.157	-0.259
-352.523	27.182	0.167	0.139
-351.508	82.707	0.080	0.086
-350.493	-200.000	-0.002	0.141
-349.479	-25.292	0.136	0.080
-348.464	-138.934	-0.458	0.049
-347.450	-200.000	0.012	0.130
-346.435	407.447	0.079	0.165
-345.420	-180.583	0.214	-0.004
-344.406	-200.000	-0.068	-0.000
-343.391	800.000	0.117	-0.403
-342.377	149.802	-0.145	-0.195
-341.362	70.194	0.092	0.094
-340.348	159.122	0.234	0.323
-339.333	800.000	-0.062	0.209
-338.318	54.737	-0.127	0.122
-337.304	-200.000	0.018	0.081
-336.289	-42.937	-0.308	-0.155
-335.275	-64.104	0.282	-0.114
-334.260	334.847	0.230	0.441
-333.245	-200.000	-0.006	0.106
-332.231	-200.000	-0.060	0.491
-331.216	390.094	0.097	0.199
-330.202	-46.241	-0.297	0.145
-329.187	800.000	-0.022	-0.064
-328.172	-200.000	-0.026	0.134
-327.158	-69.347	-0.132	-0.050
-326.143	425.416	0.092	-0.195
-325.129	199.662	0.268	-0.408
-324.114	800.000	-0.035	0.116
-323.099	-102.535	-0.128	0.030
-322.085	2.922	-0.127	-0.092
-321.070	-141.840	-0.180	0.018
-320.056	-200.000	0.011	0.278
-319.041	-83.939	-0.077	-0.024
-318.026	-200.000	0.021	0.250
-317.012	138.670	0.219	-0.284
-315.997	-46.172	0.341	-0.166
-314.983	800.000	0.086	-0.257
-313.968	-200.000	-0.007	-0.157
-312.953	-200.000	-0.003	0.036
-311.939	-20.665	0.211	0.128
-310.924	532.588	-0.113	-0.264
-309.910	800.000	-0.062	0.182
-308.895	-34.274	-0.026	-0.014
-307.880	293.444	-0.050	-0.091
-306.866	-101.798	0.117	0.028
-305.851	-55.888	0.096	0.042
-304.837	-23.357	0.193	0.115
-303.822	723.203	0.097	-0.257
-302.807	127.489	0.160	0.201
-301.793	109.627	0.102	-0.121
-300.778	-64.318	0.207	0.083
-299.764	76.622	-0.127	0.133
-298.749	405.418	0.103	0.216
-297.735	22.533	-0.063	0.051
-296.720	-90.708	0.193	-0.055
-295.705	23.861	-0.211	0.172
-294.691	-177.334	-0.058	0.001
-293.676	8.650	0.228	-0.170
-292.662	27.417	-0.158	-0.132
-291.647	-3.473	0.261	0.180
-290.632	48.779	-0.085	-0.079
-289.618	8.946	-0.249	-0.186
-288.603	69.334	0.289	-0.294
-287.589	81.450	0.074	-0.080
-286.574	347.311	-0.073	-0.143
-285.559	68.732	-0.216	0.220
-284.545	15.629	0.070	0.055
-283.530	800.000	-0.027	-0.114
-282.516	-167.683	0.255	-0.010
-281.501	194.231	-0.122	-0.184
-280.486	-77.975	0.192	0.065
-279.472	-200.000	-0.005	0.026
-278.457	-200.000	0.017	-0.161
-277.443	-119.132	-0.180	0.031
-276.428	508.738	-0.085	-0.196
-275.413	76.372	0.338	0.355
-274.399	-129.083	-0.115	0.016
-273.384	199.122	-0.047	0.071
-272.370	344.630	-0.076	-0.148
-271.355	-11.850	0.303	0.196
-270.340	-141.250	0.123	-0.012
-269.326	-55.101	0.174	-0.077
-268.311	-200.000	0.008	-0.145
-267.297	262.276	0.095	0.163
-266.282	165.673	-0.159	0.222
-265.267	-121.436	-0.079	0.013
-264.253	78.504	-0.181	-0.191
-263.238	-200.000	0.025	-0.115
-262.224	-169.970	-0.220	-0.008
-261.209	-156.510	0.114	-0.007
-260.195	-200.000	0.033	-0.147
-259.180	-200.000	-0.029	0.225
-258.165	29.136	-0.206	0.173
-257.151	-150.117	-0.099	-0.008
-256.136	-200.000	0.006	0.156
-255.122	-92.540	0.279	-0.077
-254.107	326.154	0.077	0.145
-253.092	-87.788	-0.323	0.096
-252.078	-77.548	0.020	-0.007
-251.063	-200.000	0.027	0.165
-250.049	94.528	0.294	0.330
-249.034	72.438	0.070	-0.072
-248.019	-18.467	-0.537	0.331
-247.005	-75.354	-0.334	0.118
-245.990	-53.481	0.184	-0.083
-244.976	-63.571	0.169	0.068
-243.961	341.334	-0.062	0.120
-242.946	14.923	-0.157	0.121
-241.932	-67.615	0.197	0.076
-240.917	-200.000	0.011	0.132
-239.903	-59.250	0.113	-0.048
-238.888	800.000	0.132	0.369
-237.873	-128.711	0.298	0.042
-236.859	311.416	0.187	0.346
-235.844	81.005	-0.324	-0.345
-234.830	-52.269	-0.254	-0.116
-233.815	-51.063	0.199	0.092
-232.800	-139.362	0.428	-0.045
-231.786	52.004	0.130	-0.123
-230.771	-47.665	-0.224	-0.107
-229.757	81.381	0.086	-0.091
-228.742	-25.302	-0.197	0.115
-227.727	-173.044	-0.241	-0.007
-226.713	143.396	0.114	-0.150
-225.698	-47.055	0.251	0.121
-224.684	433.788	0.072	-0.155
-223.669	-97.827	-0.288	-0.074
-222.655	-113.390	0.135	0.026
-221.640	-148.249	0.117	-0.010
-220.625	-93.270	0.308	0.084
-219.611	-142.245	0.285	0.028
-218.596	-51.489	-0.358	-0.165
-217.582	211.268	-0.176	0.273
-216.567	-200.000	-0.015	-0.111
-215.552	185.699	-0.265	-0.389
-214.538	49.966	-0.158	-0.147
-213.523	520.907	0.110	0.255
-212.509	36.942	-0.265	-0.231
-211.494	548.262	-0.051	-0.120
-210.479	560.331	-0.217	0.517
-209.465	35.523	-0.288	-0.250
-208.450	47.683	-0.264	-0.243
-207.436	-82.028	-0.134	-0.043
-206.421	464.377	-0.027	0.059
-205.406	149.864	-0.086	0.115
-204.392	-200.000	0.128	-0.000
-203.377	68.229	0.318	0.321
-202.363	-63.567	0.163	-0.066
-201.348	-25.615	0.103	0.060
-200.333	-200.000	-0.041	-0.272
-199.319	-200.000	0.026	-0.629
-198.304	-200.000	-0.006	-0.455
-197.290	57.946	0.202	0.195
-196.275	49.835	-0.245	0.228
-195.260	-22.062	0.165	-0.099
-194.246	-32.694	-0.232	0.127
-193.231	-15.025	0.230	0.145
-192.217	-200.000	-0.008	-0.230
-191.202	-77.860	0.246	0.084
-190.187	-138.993	-0.244	0.026
-189.173	-27.239	-0.206	-0.118
-188.158	440.097	0.090	0.193
-187.144	492.844	-0.063	0.143
-186.129	-200.000	0.012	-0.104
-185.114	800.000	-0.063	0.173
-184.100	349.943	-0.143	-0.278
-183.085	-94.163	0.087	0.023
-182.071	-37.670	0.220	0.115
-181.056	-162.567	0.157	-0.008
-180.042	800.000	-0.079	-0.334
-179.027	-200.000	-0.007	0.114
-178.012	-9.037	-0.230	-0.152
-176.998	542.136	0.062	-0.146
-175.983	-200.000	0.019	-0.174
-174.969	-103.889	0.114	-0.026
-173.954	-90.746	-0.117	0.033
-172.939	117.830	0.100	0.121
-171.925	-43.669	0.286	0.142
-170.910	800.000	0.048	-0.168
-169.896	21.509	0.305	0.244
-168.881	21.281	-0.301	-0.241
-167.866	-83.916	0.145	0.045
-166.852	-200.000	-0.005	-0.061
-165.837	35.329	0.257	0.222
-164.823	200.557	-0.106	0.161
-163.808	-8.675	-0.102	-0.067
-162.793	-34.872	-0.227	-0.122
-161.779	206.699	-0.120	-0.183
-160.764	-153.612	0.424	-0.029
-159.750	59.170	-0.068	0.066
-158.735	-200.000	-0.035	0.169
-157.720	114.834	0.014	0.017
-156.706	-40.760	0.076	-0.039
-155.691	-22.096	0.192	-0.115
-154.677	800.000	-0.107	0.361
-153.662	-47.996	-0.050	-0.024
-152.647	155.883	-0.380	-0.515
-151.633	612.222	0.154	-0.378
-150.618	176.467	0.203	0.290
-149.604	-200.000	0.071	-0.332
-148.589	-149.306	0.178	-0.014
-147.574	800.000	-0.049	-0.197
-146.560	-83.672	-0.239	-0.075
-145.545	9.171	-0.277	-0.206
-144.531	33.803	0.145	0.124
-143.516	-31.777	-0.181	-0.100
-142.502	101.341	0.165	0.190
-141.487	-200.000	0.000	-0.126
-140.472	800.000	0.075	0.218
-139.458	83.215	0.161	0.173
-138.443	-144.538	0.275	0.025
-137.429	800.000	-0.198	0.575
-136.414	-39.299	-0.133	-0.069
-135.399	-80.381	0.229	0.075
-134.385	-82.326	-0.182	-0.058
-133.370	96.017	0.230	-0.258
-132.356	242.219	0.124	-0.204
-131.341	-114.782	0.041	0.008
-130.326	151.960	-0.094	0.127
-129.312	-60.563	0.293	-0.122
-128.297	214.805	-0.256	-0.399
-127.283	754.550	0.073	-0.193
-126.268	-178.304	-0.107	0.002
-125.253	-200.000	-0.052	-0.288
-124.239	-101.570	0.223	0.053
-123.224	2.915	-0.194	0.138
-122.210	-17.403	-0.195	0.121
-121.195	800.000	0.035	0.112
