DTS Sentinel unit serial number:	SN413079Multiplexer serial number:	ORYXHardware model number:	OX4-SRSoftware version number:	ORYX F/W v4.00 Oryx Data Collector v3.7.2.0data status	okinstallation	princeton_trtdifferential loss correction	single-endedforward channel	channel 3reverse channel	N/Adate	2019/09/11time	10:34:11forward acquisition time	60.00reverse acquisition time	0.00gamma	496.2192k internal	0.2298k external	0.2298temperature offset calibration	0.9941default loss term (dB/km)	0.3790temperature slope calibration	1.0000multiplexer offset coefficient	1.0000multiplexer slope coefficient	1.0000fibre end	0.00T internal ref (°C)	36.50T ext. ref 1 (°C)	0.16T ext. ref 2 (°C)	33.42length (m)	temperature (°C)	Stokes	anti-Stokes-747.200	-127.233	-0.189	-0.028
-746.185	800.000	0.049	0.190
-745.171	-59.197	-0.124	-0.055
-744.156	-88.623	0.303	-0.092
-743.142	573.951	-0.062	-0.155
-742.127	170.066	0.050	0.073
-741.112	-200.000	-0.071	-0.410
-740.098	-46.757	-0.204	0.102
-739.083	-200.000	0.011	-0.169
-738.069	19.767	-0.153	0.125
-737.054	31.065	-0.437	0.382
-736.039	27.033	0.210	0.180
-735.025	140.604	-0.197	0.265
-734.010	7.814	-0.189	0.144
-732.996	-118.285	-0.244	0.044
-731.981	-200.000	-0.016	-0.115
-730.966	102.118	-0.167	0.199
-729.952	-57.693	0.132	0.059
-728.937	800.000	-0.025	-0.080
-727.923	-10.775	-0.318	-0.215
-726.908	117.709	0.072	0.090
-725.894	-9.441	0.373	-0.254
-724.879	76.572	0.120	0.130
-723.864	112.657	-0.298	0.368
-722.850	800.000	-0.064	0.232
-721.835	-0.846	-0.279	0.202
-720.821	-11.833	-0.013	0.009
-719.806	14.539	-0.203	0.162
-718.791	-111.130	-0.222	-0.046
-717.777	-119.937	0.102	-0.018
-716.762	35.239	-0.087	-0.078
-715.748	54.108	-0.146	-0.143
-714.733	75.370	-0.108	0.116
-713.718	75.094	-0.140	-0.150
-712.704	143.919	0.046	-0.062
-711.689	-12.155	-0.081	0.054
-710.675	-107.336	-0.292	0.066
-709.660	-200.000	0.004	-0.146
-708.645	-138.906	-0.132	0.015
-707.631	468.740	0.045	0.103
-706.616	-63.619	0.198	0.083
-705.602	39.194	0.117	0.107
-704.587	-31.539	-0.359	-0.205
-703.572	-104.009	0.382	0.091
-702.558	-72.685	-0.423	-0.159
-701.543	-35.511	-0.145	0.080
-700.529	-12.035	0.111	-0.074
-699.514	-78.212	-0.146	0.051
-698.499	790.714	-0.075	-0.211
-697.485	-200.000	-0.020	0.212
-696.470	-161.309	0.034	0.002
-695.456	413.283	-0.145	-0.315
-694.441	800.000	0.080	0.254
-693.426	800.000	0.109	-0.323
-692.412	-20.653	-0.245	-0.153
-691.397	303.348	-0.175	-0.331
-690.383	51.638	0.332	0.321
-689.368	126.286	-0.194	0.250
-688.354	-200.000	0.037	0.243
-687.339	119.902	-0.053	-0.067
-686.324	-111.400	-0.396	0.082
-685.310	-63.123	-0.290	0.122
-684.295	199.481	-0.025	-0.039
-683.281	-150.968	-0.201	-0.015
-682.266	-48.176	0.156	-0.077
-681.251	-200.000	0.009	0.229
-680.237	-29.390	0.224	0.130
-679.222	575.733	0.127	0.317
-678.208	-80.357	-0.220	-0.075
-677.193	-200.000	-0.011	0.261
-676.178	-80.918	-0.363	-0.123
-675.164	800.000	0.073	0.260
-674.149	66.516	0.047	0.049
-673.135	135.989	-0.097	0.129
-672.120	-95.569	0.098	-0.027
-671.105	92.129	-0.163	0.187
-670.091	222.979	0.095	-0.155
-669.076	121.686	-0.032	-0.040
-668.062	-200.000	-0.002	-0.181
-667.047	93.122	0.183	-0.211
-666.032	30.037	-0.121	-0.105
-665.018	238.252	0.066	-0.111
-664.003	-96.195	0.226	0.061
-662.989	274.680	0.109	-0.196
-661.974	-200.000	-0.009	0.088
-660.959	-25.031	0.211	0.128
-659.945	17.518	-0.150	-0.121
-658.930	-26.335	-0.378	0.226
-657.916	800.000	0.006	0.024
-656.901	800.000	0.052	-0.195
-655.886	800.000	-0.024	0.102
-654.872	-106.212	0.285	-0.065
-653.857	-200.000	-0.008	0.115
-652.843	245.230	-0.089	0.153
-651.828	-109.142	0.177	0.038
-650.814	-80.903	0.173	-0.058
-649.799	737.266	-0.016	0.044
-648.784	59.936	0.217	-0.218
-647.770	-132.165	0.276	-0.036
-646.755	571.554	0.084	0.207
-645.741	-57.755	0.217	0.097
-644.726	-200.000	-0.005	-0.051
-643.711	59.005	0.084	0.084
-642.697	113.503	-0.179	-0.221
-641.682	46.652	-0.168	-0.159
-640.668	-16.953	0.163	-0.105
-639.653	-53.785	0.271	-0.126
-638.638	-111.433	0.031	0.006
-637.624	-144.382	-0.166	-0.016
-636.609	402.901	-0.092	-0.197
-635.595	51.251	-0.119	-0.115
-634.580	-200.000	0.018	0.256
-633.565	86.038	0.362	-0.405
-632.551	29.776	-0.119	0.103
-631.536	121.081	-0.037	0.047
-630.522	533.699	-0.100	0.241
-629.507	-33.705	-0.180	-0.101
-628.492	-200.000	-0.063	-0.298
-627.478	800.000	0.081	-0.239
-626.463	-200.000	0.014	0.251
-625.449	-79.067	-0.220	-0.076
-624.434	800.000	-0.108	0.316
-623.419	98.868	-0.264	-0.310
-622.405	-15.742	0.329	-0.213
-621.390	274.222	-0.116	-0.208
-620.376	33.200	-0.185	0.163
-619.361	-119.232	0.328	0.058
-618.346	-28.362	-0.251	0.147
-617.332	-55.938	0.104	0.047
-616.317	-19.560	0.266	-0.167
-615.303	-105.081	-0.139	0.032
-614.288	-200.000	0.045	-0.221
-613.273	-200.000	-0.009	0.168
-612.259	-111.248	-0.099	-0.021
-611.244	-158.027	0.144	-0.009
-610.230	-111.912	-0.346	-0.071
-609.215	26.996	0.051	0.043
-608.201	800.000	-0.034	-0.122
-607.186	-57.525	-0.415	-0.185
-606.171	46.500	-0.099	-0.094
-605.157	-23.171	0.071	-0.043
-604.142	436.511	-0.150	-0.332
-603.128	-53.809	-0.249	-0.115
-602.113	24.475	0.063	0.053
-601.098	710.313	-0.123	0.331
-600.084	399.069	-0.047	0.101
-599.069	-4.351	0.040	0.028
-598.055	-39.639	-0.127	-0.067
-597.040	-200.000	0.068	0.377
-596.025	-67.592	-0.334	0.133
-595.011	-200.000	-0.009	0.359
-593.996	378.748	-0.076	-0.158
-592.982	-7.397	-0.117	0.080
-591.967	-57.774	-0.427	-0.190
-590.952	30.424	-0.253	-0.220
-589.938	265.736	0.049	0.087
-588.923	82.006	0.219	-0.241
-587.909	-44.064	0.307	-0.157
-586.894	-200.000	-0.029	0.135
-585.879	-200.000	-0.015	0.328
-584.865	60.170	-0.084	-0.084
-583.850	-63.076	0.179	-0.075
-582.836	275.884	0.106	0.190
-581.821	-121.270	0.066	0.011
-580.806	-84.263	0.187	0.060
-579.792	136.676	0.100	0.133
-578.777	553.204	0.118	-0.288
-577.763	-103.762	0.387	-0.092
-576.748	13.172	0.150	-0.118
-575.733	-113.282	0.299	-0.060
-574.719	-91.411	0.172	-0.050
-573.704	739.833	-0.039	0.107
-572.690	784.814	-0.053	-0.147
-571.675	28.401	0.130	0.112
-570.661	35.430	0.083	-0.073
-569.646	27.101	-0.091	0.077
-568.631	272.084	0.134	-0.240
-567.617	597.953	-0.118	-0.297
-566.602	-78.889	-0.176	0.061
-565.588	29.292	-0.074	0.063
-564.573	800.000	-0.042	-0.173
-563.558	70.069	0.156	0.163
-562.544	589.502	0.105	-0.262
-561.529	419.915	-0.033	0.072
-560.515	-73.452	0.139	0.052
-559.500	800.000	0.041	-0.183
-558.485	-174.820	-0.490	0.014
-557.471	800.000	-0.114	0.338
-556.456	629.037	-0.063	-0.162
-555.442	136.037	0.074	0.098
-554.427	85.346	-0.042	-0.047
-553.412	-200.000	0.056	0.454
-552.398	94.598	0.252	-0.291
-551.383	216.014	0.258	-0.416
-550.369	-200.000	0.003	0.133
-549.354	229.365	0.092	-0.152
-548.339	83.016	-0.064	0.071
-547.325	-143.398	-0.169	-0.016
-546.310	-5.849	-0.263	0.182
-545.296	-103.662	0.219	0.052
-544.281	-183.494	-0.202	-0.004
-543.266	-77.236	0.107	0.038
-542.252	784.731	-0.058	0.160
-541.237	235.170	0.149	-0.249
-540.223	443.802	-0.145	0.321
-539.208	123.074	-0.062	0.079
-538.193	-200.000	-0.046	0.333
-537.179	151.931	0.113	0.157
-536.164	215.295	0.085	0.136
-535.150	-24.894	-0.248	-0.149
-534.135	-121.001	-0.176	0.030
-533.121	487.016	-0.170	-0.394
-532.106	-120.503	-0.274	-0.047
-531.091	67.439	0.110	-0.114
-530.077	-47.069	-0.155	-0.077
-529.062	0.896	0.324	0.235
-528.048	-120.163	-0.170	0.029
-527.033	-200.000	-0.014	0.424
-526.018	87.041	0.091	-0.102
-525.004	-52.564	0.122	-0.057
-523.989	-16.360	0.337	0.216
-522.975	406.017	0.100	-0.214
-521.960	202.032	-0.054	0.085
-520.945	-200.000	0.037	0.165
-519.931	800.000	-0.048	0.164
-518.916	-200.000	-0.058	-0.431
-517.902	-137.685	-0.306	0.035
-516.887	192.518	-0.037	-0.057
-515.872	-81.873	-0.195	0.064
-514.858	-55.262	0.122	0.055
-513.843	-188.748	-0.230	0.003
-512.829	545.707	0.039	0.093
-511.814	-200.000	0.029	0.185
-510.799	-65.028	0.192	-0.078
-509.785	-192.022	0.170	0.002
-508.770	244.095	-0.107	-0.182
-507.756	-200.000	0.004	-0.033
-506.741	-57.789	0.074	0.033
-505.726	59.792	0.079	0.078
-504.712	-20.170	-0.158	-0.098
-503.697	127.067	-0.254	0.326
-502.683	-200.000	0.017	-0.206
-501.668	-200.000	-0.026	-0.281
-500.653	166.209	-0.097	0.139
-499.639	-134.909	0.289	0.035
-498.624	-200.000	-0.048	0.317
-497.610	-24.082	0.161	0.097
-496.595	-200.000	0.004	-0.068
-495.581	-17.561	0.255	-0.162
-494.566	-159.219	0.259	-0.015
-493.551	800.000	-0.045	-0.149
-492.537	-200.000	-0.021	-0.168
-491.522	-31.215	-0.241	-0.137
-490.508	-200.000	0.062	0.554
-489.493	65.326	-0.204	-0.209
-488.478	576.064	0.041	-0.101
-487.464	27.650	-0.048	-0.041
-486.449	800.000	0.058	0.233
-485.435	-100.050	0.292	-0.073
-484.420	529.341	-0.168	0.401
-483.405	-97.286	-0.392	0.103
-482.391	-200.000	-0.047	-0.332
-481.376	-10.636	0.229	0.153
-480.362	800.000	-0.092	-0.284
-479.347	608.999	0.024	-0.061
-478.332	746.448	-0.063	0.172
-477.318	-84.187	-0.185	0.059
-476.303	-21.196	-0.293	0.181
-475.289	-119.649	0.294	-0.051
-474.274	120.453	-0.085	0.107
-473.259	-200.000	0.006	0.154
-472.245	-200.000	0.001	0.147
-471.230	-64.937	0.032	0.013
-470.216	800.000	-0.053	0.208
-469.201	41.566	0.365	0.334
-468.186	-48.280	0.169	0.082
-467.172	-200.000	0.004	0.098
-466.157	126.733	-0.183	0.234
-465.143	-200.000	0.007	-0.201
-464.128	-36.329	0.090	0.049
-463.113	-129.483	0.386	0.054
-462.099	-24.454	-0.500	-0.301
-461.084	26.946	-0.234	-0.198
-460.070	-23.473	-0.288	-0.175
-459.055	800.000	-0.114	-0.321
-458.040	800.000	-0.063	-0.206
-457.026	212.654	0.051	-0.081
-456.011	-200.000	0.043	0.226
-454.997	85.637	0.059	-0.066
-453.982	-88.796	0.082	0.024
-452.968	-106.783	0.209	-0.047
-451.953	69.631	0.201	-0.209
-450.938	-167.392	-0.270	-0.011
-449.924	-24.591	-0.316	-0.190
-448.909	-200.000	0.035	-0.184
-447.895	-119.466	0.132	-0.023
-446.880	314.553	0.074	-0.140
-445.865	92.429	0.333	0.378
-444.851	119.848	-0.282	-0.352
-443.836	183.522	-0.160	-0.239
-442.822	-138.012	0.124	0.014
-441.807	-122.857	-0.371	0.060
-440.792	-145.066	-0.262	-0.024
-439.778	-10.875	0.064	-0.042
-438.763	-200.000	-0.031	-0.341
-437.749	-200.000	0.001	-0.241
-436.734	-50.905	0.104	-0.049
-435.719	387.899	-0.054	-0.113
-434.705	-26.128	-0.146	-0.087
-433.690	237.199	-0.030	0.050
-432.676	260.535	-0.246	-0.428
-431.661	648.348	0.147	-0.380
-430.646	-0.946	0.281	-0.201
-429.632	-61.364	-0.024	-0.010
-428.617	-82.944	-0.249	0.081
-427.603	-150.615	-0.293	-0.023
-426.588	150.641	0.111	0.152
-425.573	-29.596	-0.100	0.057
-424.559	427.173	0.018	-0.040
-423.544	-200.000	-0.025	-0.343
-422.530	-133.749	-0.129	0.016
-421.515	-60.739	0.215	0.092
-420.500	102.665	-0.387	0.457
-419.486	-8.829	0.322	0.217
-418.471	91.126	0.110	0.125
-417.457	16.841	0.316	0.252
-416.442	-133.168	-0.291	-0.037
-415.428	-200.000	0.008	-0.185
-414.413	169.655	-0.076	-0.109
-413.398	-200.000	0.001	-0.330
-412.384	800.000	0.059	-0.181
-411.369	-200.000	-0.039	-0.174
-410.355	234.090	0.138	0.230
-409.340	724.870	-0.054	0.145
-408.325	-74.465	-0.133	-0.048
-407.311	-59.294	0.107	-0.046
-406.296	-132.708	-0.378	-0.049
-405.282	20.957	0.114	-0.093
-404.267	-49.066	0.180	-0.087
-403.252	-143.517	-0.142	-0.014
-402.238	-154.077	-0.168	0.011
-401.223	-52.301	-0.419	0.195
-400.209	-200.000	0.036	0.173
-399.194	-112.214	0.276	-0.056
-398.179	-94.206	0.245	0.068
-397.165	-179.210	-0.193	-0.004
-396.150	-200.000	0.443	-0.001
-395.136	143.102	-0.225	0.301
-394.121	-200.000	-0.017	-0.106
-393.106	265.613	-0.113	0.199
-392.092	-25.930	-0.224	-0.133
-391.077	-77.870	0.115	-0.040
-390.063	30.732	-0.128	-0.110
-389.048	-200.000	-0.015	-0.068
-388.033	-200.000	0.025	0.120
-387.019	-200.000	-0.009	0.191
-386.004	88.515	-0.115	-0.129
-384.990	-43.162	-0.299	0.153
-383.975	-11.114	-0.310	0.206
-382.960	468.499	-0.048	0.108
-381.946	800.000	-0.041	-0.135
-380.931	-91.014	0.108	0.031
-379.917	-200.000	0.010	0.071
-378.902	320.042	-0.086	0.164
-377.888	-200.000	-0.057	0.376
-376.873	-4.996	-0.209	0.145
-375.858	565.322	0.086	0.210
-374.844	108.733	0.090	0.108
-373.829	800.000	0.029	-0.113
-372.815	548.347	0.071	-0.171
-371.800	40.411	0.329	0.298
-370.785	-30.149	-0.179	-0.102
-369.771	-24.989	-0.131	0.078
-368.756	-200.000	0.020	-0.415
-367.742	-200.000	-0.013	-0.281
-366.727	8.080	0.186	0.141
-365.712	-148.756	-0.335	0.027
-364.698	323.167	0.203	-0.389
-363.683	-45.405	-0.579	-0.289
-362.669	800.000	-0.042	0.159
-361.654	-171.584	0.262	-0.009
-360.639	52.470	-0.029	-0.027
-359.625	800.000	0.100	0.436
-358.610	426.896	-0.123	-0.266
-357.596	566.640	-0.131	-0.320
-356.581	9.080	-0.162	-0.123
-355.566	-19.187	0.270	0.169
-354.552	800.000	-0.046	0.138
-353.537	-25.426	0.122	-0.073
-352.523	42.614	0.020	0.018
-351.508	-91.049	0.331	-0.095
-350.493	63.386	-0.074	0.075
-349.479	774.703	0.092	0.252
-348.464	50.137	0.249	-0.236
-347.450	-191.980	0.241	-0.002
-346.435	66.345	0.153	-0.156
-345.420	-92.421	-0.112	0.032
-344.406	282.308	-0.067	0.120
-343.391	-86.261	-0.209	0.065
-342.377	-21.304	-0.135	0.083
-341.362	101.216	-0.126	0.148
-340.348	-132.021	0.226	0.030
-339.333	758.007	-0.028	-0.076
-338.318	76.368	-0.270	-0.287
-337.304	-200.000	-0.006	-0.049
-336.289	800.000	-0.071	0.232
-335.275	-200.000	0.006	-0.272
-334.260	41.000	0.157	-0.142
-333.245	26.020	0.227	0.190
-332.231	-138.694	-0.178	0.020
-331.216	329.823	-0.198	-0.382
-330.202	346.533	-0.192	0.379
-329.187	-41.926	0.294	0.152
-328.172	-94.768	-0.284	-0.077
-327.158	252.990	0.083	-0.143
-326.143	158.399	-0.060	0.084
-325.129	197.915	0.065	0.099
-324.114	800.000	-0.118	-0.507
-323.099	-151.464	0.197	-0.015
-322.085	-23.033	0.260	0.157
-321.070	9.689	-0.222	-0.169
-320.056	206.663	0.047	-0.073
-319.041	800.000	0.045	0.171
-318.026	-151.958	0.264	-0.019
-317.012	751.499	-0.109	-0.295
-315.997	800.000	-0.063	0.241
-314.983	10.531	0.323	0.247
-313.968	-59.510	0.165	-0.071
-312.953	322.446	0.107	-0.204
-311.939	800.000	0.047	0.146
-310.924	462.413	-0.113	-0.253
-309.910	201.968	-0.173	-0.267
-308.895	257.101	0.047	0.081
-307.880	-200.000	0.039	0.286
-306.866	-1.724	-0.147	0.104
-305.851	-200.000	-0.030	0.284
-304.837	-61.490	0.212	-0.089
-303.822	139.370	-0.003	-0.004
-302.807	-200.000	0.056	0.317
-301.793	-15.241	-0.300	-0.193
-300.778	-135.595	-0.414	0.049
-299.764	57.192	0.044	0.043
-298.749	53.871	-0.153	-0.148
-297.735	-92.882	0.371	0.104
-296.720	53.208	0.205	0.197
-295.705	-98.424	-0.057	-0.015
-294.691	-110.173	0.151	0.032
-293.676	252.395	0.038	-0.065
-292.662	482.298	-0.025	0.056
-291.647	82.360	0.040	0.043
-290.632	-200.000	-0.046	-0.425
-289.618	800.000	0.114	-0.335
-288.603	800.000	0.083	-0.260
-287.589	-60.935	0.131	-0.056
-286.574	800.000	0.060	0.176
-285.559	-119.266	0.157	0.027
-284.545	2.811	-0.096	0.070
-283.530	554.822	0.097	0.233
-282.516	-200.000	-0.041	0.255
-281.501	-19.170	0.143	0.089
-280.486	153.964	-0.121	0.166
-279.472	800.000	0.116	0.326
-278.457	197.683	0.013	-0.020
-277.443	-200.000	0.005	-0.100
-276.428	381.708	0.154	0.318
-275.413	-22.680	0.107	-0.065
-274.399	-14.862	0.251	0.162
-273.384	55.550	-0.146	0.141
-272.370	264.236	0.045	-0.079
-271.355	217.083	0.266	-0.424
-270.340	-100.857	0.146	-0.036
-269.326	-58.560	-0.153	-0.067
-268.311	-89.617	-0.024	0.007
-267.297	-200.000	0.001	-0.179
-266.282	-150.358	0.148	-0.011
-265.267	489.212	0.149	0.342
-264.253	-7.172	-0.189	-0.129
-263.238	-50.457	0.122	0.057
-262.224	-71.253	-0.058	0.022
-261.209	-200.000	-0.023	0.161
-260.195	142.773	0.037	0.050
-259.180	151.339	-0.206	-0.280
-258.165	-142.326	0.147	-0.015
-257.151	-156.389	-0.242	0.015
-256.136	-34.224	0.287	0.158
-255.122	-200.000	0.002	0.248
-254.107	49.926	0.140	-0.132
-253.092	-76.358	0.190	0.067
-252.078	800.000	0.086	-0.308
-251.063	-151.057	-0.219	0.016
-250.049	435.559	-0.083	0.180
-249.034	-200.000	-0.032	0.225
-248.019	-57.403	0.109	0.048
-247.005	-84.605	0.276	0.087
-245.990	101.480	-0.011	-0.013
-244.976	686.084	0.140	0.367
-243.961	-84.650	-0.225	-0.071
-242.946	6.108	0.023	0.017
-241.932	28.412	0.229	0.194
-240.917	37.814	0.032	-0.029
-239.903	800.000	-0.075	-0.264
-238.888	-115.734	0.278	-0.052
-237.873	-200.000	-0.038	0.212
-236.859	-32.679	-0.132	0.073
-235.844	-84.570	-0.304	-0.096
-234.830	-123.300	-0.429	-0.069
-233.815	-200.000	0.016	-0.160
-232.800	800.000	0.037	-0.143
-231.786	246.635	0.090	0.152
-230.771	94.371	0.093	-0.106
-229.757	-200.000	0.013	-0.142
-228.742	99.151	0.138	-0.159
-227.727	-0.309	0.061	0.043
-226.713	438.112	0.147	-0.322
-225.698	306.417	0.112	-0.209
-224.684	50.721	-0.323	0.306
-223.669	23.588	-0.077	-0.063
-222.655	389.082	0.059	0.122
-221.640	-74.112	0.235	0.085
-220.625	-54.541	-0.111	-0.050
-219.611	-200.000	0.019	0.302
-218.596	150.311	0.110	0.149
-217.582	-10.896	-0.183	0.121
-216.567	-157.775	-0.240	0.014
-215.552	174.044	0.385	0.556
-214.538	-200.000	-0.353	-0.002
-213.523	-126.587	-0.165	-0.024
-212.509	-146.902	0.230	0.020
-211.494	242.702	-0.122	0.204
-210.479	-35.948	0.332	0.180
-209.465	-113.693	-0.244	0.048
-208.450	-200.000	0.000	0.074
-207.436	-107.281	0.203	0.045
-206.421	-134.698	0.142	0.017
-205.406	-200.000	-0.001	-0.059
-204.392	-200.000	-0.019	0.095
-203.377	37.643	-0.283	0.251
-202.363	0.806	0.255	0.183
-201.348	113.166	-0.176	0.213
-200.333	-190.755	0.197	-0.002
-199.319	800.000	0.019	0.081
-198.304	-200.000	0.014	-0.279
-197.290	61.111	0.235	-0.233
-196.275	800.000	0.083	-0.233
-195.260	688.616	0.051	-0.134
-194.246	650.578	-0.062	0.159
-193.231	-103.150	-0.174	-0.041
-192.217	-200.000	0.017	0.092
-191.202	800.000	0.106	0.296
-190.187	-54.523	-0.201	-0.091
-189.173	79.511	0.290	0.311
-188.158	546.787	0.114	0.273
-187.144	-81.170	-0.162	-0.053
-186.129	-200.000	-0.044	0.230
-185.114	55.610	0.186	0.180
-184.100	284.232	0.079	-0.142
-183.085	108.507	-0.051	-0.061
-182.071	800.000	0.063	0.178
-181.056	799.454	0.081	0.224
-180.042	-95.344	-0.257	-0.069
-179.027	800.000	-0.110	0.477
-178.012	-109.545	0.149	-0.032
-176.998	672.031	0.090	-0.232
-175.983	-93.158	-0.377	0.105
-174.969	-68.741	0.337	0.130
-173.954	0.124	0.031	0.022
-172.939	10.744	0.072	0.055
-171.925	800.000	-0.047	-0.190
-170.910	-81.348	-0.369	-0.121
-169.896	-9.555	-0.099	0.066
-168.881	464.088	0.104	0.232
-167.866	-85.479	0.167	-0.052
-166.852	120.294	0.071	-0.088
-165.837	-32.435	0.088	-0.049
-164.823	133.993	0.269	-0.348
-163.808	689.169	0.078	-0.204
-162.793	99.451	0.123	-0.142
-161.779	-200.000	0.027	-0.334
-160.764	426.322	-0.063	-0.135
-159.750	-200.000	-0.013	-0.322
-158.735	-200.000	0.033	-0.259
-157.720	538.783	0.072	-0.172
-156.706	800.000	0.042	0.177
-155.691	-155.743	-0.263	0.017
-154.677	-65.429	0.117	0.047
-153.662	800.000	-0.141	0.427
-152.647	75.951	-0.205	-0.216
-151.633	43.854	0.184	-0.168
-150.618	13.881	-0.114	-0.088
-149.604	800.000	0.020	0.066
-148.589	786.684	0.072	-0.196
-147.574	-51.770	0.346	-0.161
-146.560	800.000	-0.088	-0.293
-145.545	236.725	0.120	0.198
-144.531	-200.000	0.004	0.147
-143.516	-54.705	0.131	-0.059
-142.502	610.884	0.097	0.243
-141.487	-120.337	-0.121	-0.021
-140.472	551.254	-0.121	0.289
-139.458	800.000	0.013	0.046
-138.443	-16.239	0.228	0.145
-137.429	54.957	-0.151	0.145
-136.414	-93.301	-0.096	0.026
-135.399	-1.312	0.282	0.199
-134.385	19.256	-0.271	0.217
-133.370	-49.335	-0.392	0.187
-132.356	-86.780	0.301	-0.092
-131.341	-54.961	-0.249	0.112
-130.326	-119.776	0.171	-0.029
-129.312	-200.000	-0.004	-0.030
-128.297	24.597	0.077	-0.064
-127.283	-53.704	0.374	-0.170
-126.268	31.166	-0.215	0.184
-125.253	800.000	-0.047	-0.138
-124.239	123.043	-0.088	0.109
-123.224	23.313	0.306	-0.250
-122.210	-66.399	-0.225	-0.089
-121.195	9.590	-0.176	-0.133
-120.180	147.588	-0.171	0.229
