DTS Sentinel unit serial number:	SN413079Multiplexer serial number:	ORYXHardware model number:	OX4-SRSoftware version number:	ORYX F/W v4.00 Oryx Data Collector v3.7.2.0data status	okinstallation	princeton_trtdifferential loss correction	single-endedforward channel	channel 3reverse channel	N/Adate	2019/09/12time	01:30:11forward acquisition time	60.00reverse acquisition time	0.00gamma	496.2192k internal	0.2320k external	0.2320temperature offset calibration	1.0072default loss term (dB/km)	0.3790temperature slope calibration	1.0000multiplexer offset coefficient	1.0000multiplexer slope coefficient	1.0000fibre end	0.00T internal ref (°C)	32.94T ext. ref 1 (°C)	2.10T ext. ref 2 (°C)	27.87length (m)	temperature (°C)	Stokes	anti-Stokes-747.200	800.000	0.094	0.291
-746.185	256.841	-0.114	0.198
-745.171	53.562	-0.209	0.203
-744.156	-77.028	-0.287	0.101
-743.142	-170.069	0.435	-0.016
-742.127	31.881	-0.201	0.175
-741.112	-200.000	0.006	-0.113
-740.098	19.181	0.031	-0.025
-739.083	7.544	-0.255	0.193
-738.069	800.000	0.015	0.060
-737.054	-99.380	-0.106	0.027
-736.039	-126.032	-0.334	0.051
-735.025	-97.982	0.181	-0.047
-734.010	-12.395	-0.243	-0.161
-732.996	-90.659	-0.121	0.035
-731.981	169.583	-0.046	0.067
-730.966	-11.523	0.205	0.136
-729.952	800.000	-0.060	-0.216
-728.937	-156.296	-0.471	0.030
-727.923	-104.155	0.317	0.075
-726.908	-119.016	-0.373	0.066
-725.894	-23.418	0.199	-0.121
-724.879	-65.624	-0.091	-0.037
-723.864	-3.661	-0.263	0.185
-722.850	800.000	-0.020	0.087
-721.835	-107.921	-0.227	0.050
-720.821	-130.353	-0.227	0.031
-719.806	-111.533	-0.289	0.059
-718.791	-46.965	-0.071	0.035
-717.777	800.000	-0.018	-0.075
-716.762	-104.211	0.299	-0.070
-715.748	65.011	0.085	0.087
-714.733	800.000	-0.116	-0.369
-713.718	-2.093	0.063	0.045
-712.704	48.868	-0.287	0.272
-711.689	-115.681	-0.154	0.029
-710.675	78.391	-0.104	-0.112
-709.660	-155.179	0.379	-0.025
-708.645	109.186	-0.266	0.322
-707.631	-200.000	0.036	0.180
-706.616	-200.000	0.028	0.136
-705.602	-181.063	-0.122	0.002
-704.587	19.828	0.370	-0.301
-703.572	-16.543	-0.113	0.072
-702.558	-55.479	-0.083	0.038
-701.543	179.734	-0.228	-0.337
-700.529	-200.000	-0.071	-0.477
-699.514	704.659	0.118	-0.315
-698.499	131.294	-0.163	0.212
-697.485	-5.615	-0.102	-0.071
-696.470	156.188	-0.073	-0.102
-695.456	-200.000	-0.001	-0.238
-694.441	-111.536	0.298	0.061
-693.426	37.786	0.104	-0.093
-692.412	200.963	-0.126	-0.195
-691.397	-70.826	-0.351	-0.134
-690.383	264.153	0.105	-0.184
-689.368	-200.000	0.041	-0.409
-688.354	-200.000	0.059	-0.487
-687.339	1.012	0.375	-0.271
-686.324	-86.683	-0.402	-0.124
-685.310	-111.506	-0.136	0.028
-684.295	-10.651	-0.309	-0.206
-683.281	-156.781	-0.349	-0.022
-682.266	185.660	0.039	0.058
-681.251	-51.285	0.253	0.119
-680.237	-77.604	0.029	0.010
-679.222	-4.391	-0.416	-0.290
-678.208	218.786	0.044	0.071
-677.193	-200.000	-0.236	0.001
-676.178	-200.000	0.032	0.178
-675.164	800.000	0.065	-0.281
-674.149	-28.847	-0.058	-0.034
-673.135	-172.005	0.151	-0.005
-672.120	702.238	0.143	-0.380
-671.105	152.741	-0.054	-0.074
-670.091	800.000	0.055	-0.162
-669.076	-76.932	-0.127	0.045
-668.062	-136.355	-0.369	0.043
-667.047	-74.275	0.140	0.051
-666.032	65.946	0.215	-0.220
-665.018	169.955	0.140	-0.202
-664.003	-200.000	0.011	-0.147
-662.989	800.000	0.067	-0.266
-661.974	-143.485	-0.234	-0.022
-660.959	402.920	-0.046	0.098
-659.945	800.000	0.040	0.119
-658.930	102.813	-0.180	0.212
-657.916	-200.000	-0.011	-0.348
-656.901	111.935	0.163	0.198
-655.886	-14.604	-0.105	0.068
-654.872	-58.480	-0.043	0.019
-653.857	43.767	0.148	-0.137
-652.843	800.000	-0.061	0.214
-651.828	352.351	0.175	-0.349
-650.814	420.101	-0.070	-0.150
-649.799	431.299	-0.094	0.206
-648.784	-200.000	-0.032	0.172
-647.770	241.030	-0.087	0.146
-646.755	-200.000	-0.006	-0.196
-645.741	-72.556	-0.177	0.066
-644.726	-200.000	-0.042	-0.313
-643.711	-69.411	-0.273	-0.106
-642.697	-200.000	0.021	-0.241
-641.682	-107.079	0.520	0.116
-640.668	-18.999	0.109	-0.068
-639.653	-200.000	0.045	-0.239
-638.638	-77.991	-0.243	0.084
-637.624	278.281	0.090	-0.162
-636.609	800.000	-0.067	-0.253
-635.595	-107.668	-0.079	-0.017
-634.580	-200.000	0.036	-0.170
-633.565	89.349	0.090	-0.102
-632.551	378.042	0.124	-0.255
-631.536	52.391	0.100	-0.096
-630.522	475.783	0.093	-0.211
-629.507	715.823	-0.079	0.211
-628.492	-116.170	-0.314	0.059
-627.478	800.000	0.099	0.281
-626.463	156.981	-0.137	-0.191
-625.449	-200.000	0.002	-0.082
-624.434	-27.261	0.190	-0.111
-623.419	553.977	-0.104	-0.251
-622.405	-200.000	0.022	-0.256
-621.390	-200.000	-0.018	0.226
-620.376	-40.631	0.403	0.211
-619.361	-200.000	-0.026	0.177
-618.346	-50.757	-0.119	-0.056
-617.332	15.381	-0.328	0.259
-616.317	-200.000	-0.042	0.186
-615.303	95.633	-0.085	-0.098
-614.288	-68.487	-0.137	0.053
-613.273	-81.531	-0.254	-0.084
-612.259	800.000	-0.080	-0.248
-611.244	-84.512	-0.385	-0.122
-610.230	-46.067	0.343	0.170
-609.215	89.051	0.116	-0.130
-608.201	-38.118	-0.051	0.027
-607.186	104.371	0.142	-0.169
-606.171	-74.517	-0.049	-0.018
-605.157	-99.734	0.349	-0.088
-604.142	-137.343	0.153	0.017
-603.128	-200.000	-0.016	-0.097
-602.113	-200.000	-0.062	-0.284
-601.098	-70.173	0.091	-0.035
-600.084	603.277	-0.066	-0.166
-599.069	587.224	-0.038	0.095
-598.055	610.005	0.028	0.070
-597.040	-61.025	0.242	-0.103
-596.025	-45.176	-0.090	-0.045
-595.011	-44.334	-0.217	-0.109
-593.996	190.460	0.104	-0.157
-592.982	291.860	-0.179	-0.328
-591.967	261.593	0.106	0.185
-590.952	602.134	-0.113	-0.283
-589.938	800.000	0.025	-0.108
-588.923	-128.351	-0.020	0.003
-587.909	101.603	-0.269	0.315
-586.894	50.418	0.093	-0.089
-585.879	-72.202	0.139	-0.052
-584.865	-7.935	0.099	0.067
-583.850	-130.692	0.171	0.023
-582.836	-200.000	0.023	0.123
-581.821	-148.269	0.078	0.006
-580.806	800.000	0.075	-0.305
-579.792	16.416	-0.145	0.115
-578.777	252.033	0.146	0.249
-577.763	33.619	0.192	0.168
-576.748	75.089	0.203	0.215
-575.733	30.474	0.261	0.224
-574.719	8.368	-0.239	-0.180
-573.704	-11.539	-0.016	-0.011
-572.690	-0.832	-0.108	0.077
-571.675	800.000	-0.090	0.322
-570.661	-81.326	0.151	0.050
-569.646	-30.890	-0.219	0.124
-568.631	66.076	-0.118	-0.120
-567.617	169.323	-0.051	0.074
-566.602	-62.038	-0.236	0.099
-565.588	800.000	-0.093	-0.307
-564.573	-47.734	-0.126	0.061
-563.558	234.883	0.099	-0.164
-562.544	4.922	-0.074	-0.054
-561.529	85.296	-0.075	0.083
-560.515	-89.837	0.099	-0.029
-559.500	780.050	0.107	-0.293
-558.485	449.887	-0.149	0.330
-557.471	-117.607	0.144	0.026
-556.456	800.000	0.088	-0.250
-555.442	-99.768	-0.301	0.076
-554.427	66.037	-0.083	0.084
-553.412	-200.000	0.017	-0.096
-552.398	-61.842	0.265	-0.111
-551.383	-31.680	0.261	0.147
-550.369	46.984	-0.039	-0.037
-549.354	-120.167	-0.165	-0.028
-548.339	-200.000	0.049	0.269
-547.325	-51.678	-0.089	-0.041
-546.310	-124.301	0.383	0.060
-545.296	-143.636	0.363	0.035
-544.281	-23.508	0.050	-0.030
-543.266	-159.548	0.304	-0.017
-542.252	284.897	0.073	-0.132
-541.237	283.631	-0.079	0.143
-540.223	-96.886	-0.072	0.019
-539.208	-93.193	-0.212	0.059
-538.193	-30.007	-0.135	-0.077
-537.179	166.073	0.046	-0.065
-536.164	-150.532	0.283	0.022
-535.150	-106.982	0.165	-0.037
-534.135	-200.000	-0.058	0.408
-533.121	230.486	0.055	-0.090
-532.106	-157.103	-0.339	-0.021
-531.091	-200.000	0.022	-0.101
-530.077	-74.318	-0.204	0.074
-529.062	42.949	0.226	0.206
-528.048	800.000	0.052	-0.199
-527.033	-78.089	-0.300	0.103
-526.018	509.236	-0.026	-0.060
-525.004	-45.060	0.177	0.088
-523.989	-130.014	-0.044	0.006
-522.975	-200.000	-0.064	-0.507
-521.960	181.621	0.356	-0.526
-520.945	-134.233	-0.070	0.009
-519.931	-200.000	0.012	0.173
-518.916	-20.624	-0.446	0.274
-517.902	-200.000	-0.027	-0.166
-516.887	150.190	0.261	-0.355
-515.872	-67.597	0.392	-0.154
-514.858	800.000	0.089	-0.384
-513.843	-54.174	0.483	0.220
-512.829	15.783	0.175	0.138
-511.814	800.000	0.044	-0.173
-510.799	-200.000	0.004	-0.204
-509.785	-29.545	0.203	0.116
-508.770	-200.000	-0.011	0.285
-507.756	335.927	0.212	-0.413
-506.741	52.241	-0.062	-0.060
-505.726	-58.070	-0.170	0.074
-504.712	-200.000	0.204	-0.001
-503.697	-48.428	-0.318	-0.153
-502.683	-200.000	-0.044	0.346
-501.668	69.071	0.198	-0.204
-500.653	164.265	-0.128	-0.181
-499.639	-20.741	-0.156	-0.096
-498.624	40.001	0.118	-0.106
-497.610	125.801	0.067	0.085
-496.595	784.159	-0.030	0.082
-495.581	606.925	-0.048	-0.119
-494.566	10.270	-0.168	0.128
-493.551	368.736	-0.094	-0.190
-492.537	-148.519	-0.082	-0.007
-491.522	-41.456	-0.298	-0.154
-490.508	-200.000	-0.034	0.357
-489.493	185.397	-0.171	0.255
-488.478	109.214	0.208	0.250
-487.464	800.000	-0.050	0.196
-486.449	800.000	0.017	0.065
-485.435	302.240	-0.087	-0.161
-484.420	800.000	0.022	-0.079
-483.405	263.329	-0.163	0.283
-482.391	-129.429	0.269	0.037
-481.376	-93.571	-0.058	-0.016
-480.362	403.792	0.085	0.180
-479.347	-56.526	-0.435	0.193
-478.332	137.965	-0.042	-0.054
-477.318	212.074	0.120	-0.189
-476.303	-127.809	0.244	0.035
-475.289	478.934	-0.023	0.052
-474.274	800.000	-0.092	-0.363
-473.259	77.874	0.160	-0.170
-472.245	14.726	0.155	-0.121
-471.230	-19.905	-0.285	-0.176
-470.216	664.827	-0.084	-0.218
-469.201	-200.000	-0.009	-0.051
-468.186	-200.000	0.094	-0.741
-467.172	-59.920	0.149	-0.064
-466.157	-200.000	-0.014	0.216
-465.143	-81.181	0.183	0.060
-464.128	76.766	0.211	-0.224
-463.113	-200.000	-0.002	-0.117
-462.099	800.000	0.097	0.384
-461.084	-66.081	0.129	0.052
-460.070	341.323	0.121	0.236
-459.055	-87.905	-0.220	-0.066
-458.040	31.330	0.200	-0.172
-457.026	-95.738	0.342	0.091
-456.011	-200.000	0.007	-0.057
-454.997	9.600	0.241	-0.182
-453.982	735.144	-0.136	-0.365
-452.968	800.000	0.036	-0.128
-451.953	-177.458	0.397	0.010
-450.938	19.750	-0.247	0.199
-449.924	-92.984	-0.160	-0.045
-448.909	-200.000	0.013	-0.255
-447.895	157.395	0.157	0.217
-446.880	800.000	-0.043	-0.188
-445.865	43.045	-0.295	0.269
-444.851	800.000	-0.006	0.024
-443.836	-8.068	-0.181	0.122
-442.822	103.927	0.149	-0.175
-441.807	-200.000	0.001	0.070
-440.792	-200.000	0.023	-0.232
-439.778	125.039	0.117	-0.148
-438.763	74.935	-0.145	-0.153
-437.749	-78.370	-0.311	-0.107
-436.734	89.485	-0.013	0.015
-435.719	-77.517	-0.169	-0.058
-434.705	-200.000	-0.041	-0.431
-433.690	-29.740	0.111	-0.063
-432.676	64.086	-0.126	-0.126
-431.661	800.000	-0.098	0.369
-430.646	116.503	-0.172	0.211
-429.632	-40.847	-0.347	-0.179
-428.617	-154.232	0.201	-0.014
-427.603	-128.513	0.165	0.023
-426.588	-200.000	0.019	0.159
-425.573	-71.283	-0.146	0.055
-424.559	-200.000	-0.042	0.268
-423.544	359.593	0.094	-0.187
-422.530	40.997	0.062	0.056
-421.515	89.209	0.188	-0.209
-420.500	-62.063	0.274	-0.114
-419.486	-98.399	0.262	0.067
-418.471	372.221	-0.117	0.237
-417.457	156.885	-0.271	0.374
-416.442	-200.000	0.036	0.456
-415.428	677.009	-0.131	0.340
-414.413	-200.000	0.075	0.350
-413.398	-55.966	-0.364	-0.162
-412.384	86.655	0.236	-0.260
-411.369	585.511	0.141	-0.346
-410.355	-165.356	0.228	-0.010
-409.340	88.592	-0.029	0.032
-408.325	-200.000	-0.002	-0.390
-407.311	-88.097	0.261	0.078
-406.296	171.071	0.135	-0.193
-405.282	-200.000	0.058	-0.326
-404.267	-78.167	0.144	0.049
-403.252	-18.006	0.177	-0.111
-402.238	17.792	-0.207	0.164
-401.223	-122.098	0.172	-0.028
-400.209	800.000	0.101	0.368
-399.194	-200.000	-0.064	0.327
-398.179	-200.000	-0.069	0.450
-397.165	-27.803	0.204	-0.118
-396.150	-43.589	-0.352	-0.177
-395.136	14.394	-0.307	-0.239
-394.121	-200.000	-0.035	0.244
-393.106	267.430	-0.125	-0.217
-392.092	-113.169	0.176	0.035
-391.077	141.732	0.134	0.178
-390.063	226.684	-0.178	-0.289
-389.048	-200.000	0.010	-0.149
-388.033	4.919	-0.214	-0.157
-387.019	26.232	-0.111	0.093
-386.004	-82.724	0.034	0.011
-384.990	328.469	0.200	-0.384
-383.975	-99.751	0.169	0.042
-382.960	122.576	-0.081	0.101
-381.946	64.984	0.203	-0.205
-380.931	-108.151	0.327	0.071
-379.917	-68.661	-0.157	-0.061
-378.902	-200.000	-0.025	-0.162
-377.888	51.136	-0.253	0.240
-376.873	219.753	-0.222	0.354
-375.858	329.223	0.061	0.116
-374.844	-66.752	-0.236	0.093
-373.829	497.113	0.172	-0.395
-372.815	59.294	0.240	-0.236
-371.800	91.965	0.137	-0.154
-370.785	-200.000	0.004	0.221
-369.771	-160.894	0.128	0.007
-368.756	-158.641	-0.059	0.003
-367.742	25.441	0.269	-0.223
-366.727	107.092	-0.354	0.419
-365.712	800.000	0.150	0.459
-364.698	-200.000	0.012	-0.389
-363.683	47.742	0.151	0.141
-362.669	49.206	0.097	0.090
-361.654	142.219	0.134	-0.177
-360.639	440.860	0.121	-0.263
-359.625	-6.410	0.237	0.161
-358.610	-200.000	0.053	0.284
-357.596	-33.514	-0.269	-0.148
-356.581	800.000	0.102	-0.353
-355.566	303.224	0.064	-0.119
-354.552	520.718	-0.103	0.240
-353.537	164.420	0.142	-0.199
-352.523	-40.610	0.075	-0.039
-351.508	13.608	0.211	-0.163
-350.493	-26.445	0.131	-0.076
-349.479	-200.000	-0.008	0.150
-348.464	-87.161	-0.209	0.063
-347.450	800.000	-0.039	0.141
-346.435	794.511	-0.005	0.013
-345.420	-141.763	-0.281	-0.028
-344.406	800.000	-0.083	0.250
-343.391	264.251	-0.080	0.138
-342.377	-200.000	-0.024	0.280
-341.362	-139.403	0.084	-0.009
-340.348	800.000	-0.045	-0.143
-339.333	700.192	0.112	0.293
-338.318	547.615	0.129	0.308
-337.304	189.094	0.069	0.103
-336.289	-200.000	-0.122	0.000
-335.275	-200.000	0.072	0.519
-334.260	-200.000	0.021	0.093
-333.245	-25.113	-0.195	0.115
-332.231	67.362	0.177	-0.179
-331.216	56.309	-0.205	-0.198
-330.202	66.797	-0.095	-0.096
-329.187	183.692	0.236	0.347
-328.172	-101.151	-0.203	0.049
-327.158	157.981	-0.181	-0.250
-326.143	107.711	0.149	-0.176
-325.129	-200.000	0.050	0.312
-324.114	17.469	-0.065	0.052
-323.099	97.353	-0.093	0.106
-322.085	-15.842	-0.328	0.208
-321.070	800.000	-0.063	0.205
-320.056	-75.017	-0.376	0.134
-319.041	308.201	0.169	0.314
-318.026	-58.121	0.049	-0.021
-317.012	144.871	-0.165	-0.219
-315.997	216.951	0.092	-0.145
-314.983	130.924	0.031	-0.040
-313.968	92.862	-0.116	0.131
-312.953	-200.000	-0.002	0.154
-311.939	800.000	0.050	-0.201
-310.924	-15.212	0.145	-0.092
-309.910	-166.246	-0.231	-0.010
-308.895	-74.768	-0.165	0.059
-307.880	-87.636	-0.149	-0.045
-306.866	126.302	0.122	0.154
-305.851	-27.966	-0.192	0.111
-304.837	98.698	0.177	-0.203
-303.822	278.357	-0.161	-0.286
-302.807	-200.000	-0.044	-0.306
-301.793	800.000	0.007	-0.023
-300.778	-61.490	0.166	0.069
-299.764	21.096	0.180	0.145
-298.749	-177.955	-0.116	0.003
-297.735	800.000	0.063	0.188
-296.720	97.501	-0.102	0.116
-295.705	800.000	-0.090	-0.298
-294.691	800.000	0.023	-0.075
-293.676	-163.523	-0.199	-0.009
-292.662	-135.561	0.146	-0.017
-291.647	21.876	-0.166	0.134
-290.632	-200.000	0.014	0.172
-289.618	787.261	-0.096	0.262
-288.603	-200.000	-0.004	-0.186
-287.589	-60.370	0.023	0.010
-286.574	42.299	0.159	0.144
-285.559	-65.284	-0.181	-0.072
-284.545	-70.342	-0.098	-0.037
-283.530	-200.000	-0.047	0.209
-282.516	-200.000	-0.042	0.340
-281.501	-20.628	-0.078	0.047
-280.486	800.000	0.046	0.154
-279.472	-200.000	-0.018	-0.270
-278.457	-200.000	0.014	-0.236
-277.443	-44.948	-0.505	0.250
-276.428	176.841	0.085	-0.122
-275.413	44.176	0.149	-0.136
-274.399	149.906	-0.094	-0.127
-273.384	762.098	-0.122	0.330
-272.370	-99.650	-0.180	0.045
-271.355	3.207	0.315	0.227
-270.340	800.000	-0.043	-0.158
-269.326	595.610	0.068	0.167
-268.311	-22.696	0.159	0.095
-267.297	-157.575	0.425	-0.025
-266.282	-183.615	-0.230	0.004
-265.267	800.000	0.122	-0.379
-264.253	8.556	0.033	0.025
-263.238	-200.000	0.040	0.200
-262.224	-102.034	-0.195	0.047
-261.209	-50.142	0.363	0.171
-260.195	-98.962	0.304	0.077
-259.180	-19.304	0.114	0.070
-258.165	800.000	-0.039	0.129
-257.151	800.000	-0.028	-0.122
-256.136	-70.466	-0.141	0.053
-255.122	-200.000	-0.035	0.205
-254.107	121.599	0.031	-0.038
-253.092	-43.171	-0.036	0.018
-252.078	-94.806	-0.204	-0.055
-251.063	333.477	0.077	0.147
-250.049	-167.296	0.076	0.003
-249.034	-28.296	-0.174	0.100
-248.019	-55.022	-0.315	0.141
-247.005	255.088	0.075	-0.127
-245.990	800.000	-0.025	0.091
-244.976	-200.000	0.001	-0.213
-243.961	-58.932	-0.162	-0.069
-242.946	-106.510	-0.168	0.037
-241.932	-16.334	0.146	-0.092
-240.917	-91.819	0.245	-0.069
-239.903	49.673	-0.182	0.170
-238.888	43.101	-0.210	-0.190
-237.873	114.244	-0.081	-0.097
-236.859	-200.000	0.067	-0.314
-235.844	147.522	-0.162	-0.216
-234.830	-40.381	0.091	-0.047
-233.815	-200.000	-0.078	0.455
-232.800	800.000	-0.061	0.178
-231.786	-145.626	-0.206	0.018
-230.771	396.828	-0.104	0.214
-229.757	-83.332	0.295	0.094
-228.742	48.783	-0.099	-0.092
-227.727	125.049	0.042	-0.053
-226.713	-167.939	-0.182	0.007
-225.698	-200.000	0.021	0.197
-224.684	-57.069	0.238	0.104
-223.669	105.161	0.218	-0.255
-222.655	335.308	-0.158	0.304
-221.640	-63.838	0.169	0.068
-220.625	65.983	0.255	0.256
-219.611	350.887	0.079	0.155
-218.596	148.116	-0.154	0.206
-217.582	210.469	0.087	-0.135
-216.567	35.024	0.257	0.223
-215.552	-48.709	-0.105	0.050
-214.538	501.249	-0.042	-0.096
-213.523	-61.401	0.249	-0.104
-212.509	28.149	0.156	-0.131
-211.494	-200.000	0.024	0.142
-210.479	-154.667	0.165	-0.011
-209.465	312.628	-0.161	-0.300
-208.450	-200.000	-0.084	-0.471
-207.436	-8.690	0.285	-0.190
-206.421	-144.019	-0.180	0.017
-205.406	416.221	-0.119	-0.251
-204.392	-85.138	-0.114	-0.035
-203.377	-70.922	0.431	0.161
-202.363	543.559	-0.016	-0.038
-201.348	-73.969	-0.150	-0.054
-200.333	800.000	-0.038	-0.110
-199.319	36.806	0.085	0.074
-198.304	-72.218	-0.026	-0.010
-197.290	272.620	0.183	0.320
-196.275	-200.000	0.050	-0.283
-195.260	-5.073	0.250	0.170
-194.246	257.273	-0.094	-0.160
-193.231	-200.000	-0.023	-0.188
-192.217	-200.000	0.024	0.204
-191.202	41.275	-0.022	0.020
-190.187	-144.923	-0.215	-0.019
-189.173	537.568	-0.161	0.378
-188.158	-93.761	-0.411	0.112
-187.144	800.000	-0.093	-0.254
-186.129	-196.180	0.159	-0.001
-185.114	-177.440	-0.259	0.006
-184.100	-59.296	-0.236	-0.100
-183.085	15.399	-0.168	0.131
-182.071	-30.784	0.216	0.121
-181.056	264.534	-0.108	0.187
-180.042	91.184	0.023	-0.026
-179.027	-200.000	-0.028	0.331
-178.012	284.561	0.043	0.076
-176.998	-78.475	-0.131	-0.044
-175.983	-107.113	-0.240	-0.052
-174.969	247.445	-0.044	0.073
-173.954	97.045	0.133	0.151
-172.939	-200.000	0.008	-0.318
-171.925	-200.000	0.011	-0.282
-170.910	800.000	-0.042	0.116
-169.896	-179.442	0.468	0.010
-168.881	-114.993	-0.217	-0.041
-167.866	385.262	0.086	0.176
-166.852	-155.557	-0.322	0.021
-165.837	-200.000	0.023	0.133
-164.823	-200.000	0.043	0.328
-163.808	448.989	-0.180	0.393
-162.793	800.000	-0.044	-0.181
-161.779	118.035	-0.148	-0.181
-160.764	-2.983	-0.242	0.167
-159.750	309.614	-0.043	0.079
-158.735	800.000	-0.132	-0.372
-157.720	430.704	0.121	0.258
-156.706	-139.835	-0.118	0.012
-155.691	60.156	0.086	0.084
-154.677	-31.048	0.120	-0.067
-153.662	-120.767	-0.317	-0.053
-152.647	581.171	0.091	-0.220
-151.633	-6.205	0.256	0.172
-150.618	800.000	0.048	0.137
-149.604	800.000	0.061	0.257
-148.589	-84.075	-0.075	-0.024
-147.574	-200.000	0.558	0.002
-146.560	202.536	-0.210	0.320
-145.545	44.174	-0.102	-0.093
-144.531	-28.203	-0.209	0.119
-143.516	-8.116	0.176	-0.117
-142.502	72.355	0.195	-0.201
-141.487	-200.000	-0.055	0.254
-140.472	-107.434	-0.199	0.043
-139.458	-69.895	0.145	0.055
-138.443	-200.000	0.001	-0.122
-137.429	-101.282	0.052	-0.013
-136.414	140.902	0.166	-0.217
-135.399	201.220	-0.127	-0.193
-134.385	54.687	0.188	-0.179
-133.370	320.931	0.123	-0.232
-132.356	214.379	0.117	-0.183
-131.341	-85.351	0.250	0.077
-130.326	64.082	0.096	0.095
-129.312	-163.517	0.144	-0.007
-128.297	-149.604	-0.096	-0.007
-127.283	23.090	0.276	-0.224
-126.268	56.153	0.144	-0.138
-125.253	-23.359	-0.213	0.126
-124.239	-86.039	-0.299	0.091
-123.224	-78.987	-0.402	-0.135
-122.210	-127.658	-0.369	0.053
-121.195	250.933	-0.069	0.115
