DTS Sentinel unit serial number:	SN413079Multiplexer serial number:	ORYXHardware model number:	OX4-SRSoftware version number:	ORYX F/W v4.00 Oryx Data Collector v3.7.2.0data status	okinstallation	princeton_trtdifferential loss correction	single-endedforward channel	channel 3reverse channel	N/Adate	2019/09/11time	01:02:11forward acquisition time	60.00reverse acquisition time	0.00gamma	496.2192k internal	0.2332k external	0.2332temperature offset calibration	0.9913default loss term (dB/km)	0.3790temperature slope calibration	1.0000multiplexer offset coefficient	1.0000multiplexer slope coefficient	1.0000fibre end	0.00T internal ref (°C)	29.14T ext. ref 1 (°C)	-0.31T ext. ref 2 (°C)	22.97length (m)	temperature (°C)	Stokes	anti-Stokes-747.200	-171.133	0.046	0.002
-746.185	-182.496	-0.289	-0.005
-745.171	-132.934	-0.045	0.006
-744.156	-200.000	0.043	0.230
-743.142	-200.000	0.010	0.273
-742.127	63.621	-0.196	-0.198
-741.112	-200.000	-0.062	-0.347
-740.098	318.098	0.105	0.200
-739.083	31.175	-0.178	0.154
-738.069	-56.599	-0.146	0.065
-737.054	-81.632	-0.134	0.044
-736.039	-16.603	-0.164	0.105
-735.025	-73.719	0.270	-0.099
-734.010	-88.871	-0.189	0.056
-732.996	3.378	-0.148	-0.108
-731.981	116.054	0.128	0.157
-730.966	7.839	0.377	0.284
-729.952	-194.467	-0.147	0.001
-728.937	67.253	0.070	-0.072
-727.923	573.604	-0.178	-0.437
-726.908	-57.716	0.126	-0.055
-725.894	235.760	-0.130	-0.217
-724.879	566.211	-0.057	-0.140
-723.864	-10.888	-0.263	0.174
-722.850	800.000	0.066	0.186
-721.835	800.000	0.058	-0.220
-720.821	-200.000	0.019	-0.211
-719.806	-118.682	-0.180	-0.032
-718.791	367.483	-0.164	0.333
-717.777	800.000	-0.080	-0.289
-716.762	800.000	0.025	0.079
-715.748	-200.000	0.011	-0.185
-714.733	78.464	-0.136	-0.146
-713.718	523.992	0.031	-0.073
-712.704	109.528	0.243	0.292
-711.689	393.046	0.087	-0.182
-710.675	-52.910	-0.242	0.112
-709.660	-128.090	-0.203	0.029
-708.645	29.474	-0.106	0.091
-707.631	124.688	0.246	0.311
-706.616	334.263	-0.072	0.140
-705.602	87.310	-0.114	-0.127
-704.587	-13.357	0.094	-0.061
-703.572	269.684	-0.162	-0.286
-702.558	-16.474	0.396	0.252
-701.543	-35.029	-0.103	-0.057
-700.529	-6.500	-0.128	0.088
-699.514	306.910	0.112	0.210
-698.499	327.865	0.107	-0.206
-697.485	-40.020	0.093	-0.048
-696.470	-200.000	-0.001	0.191
-695.456	542.987	-0.096	0.230
-694.441	-61.742	0.021	0.009
-693.426	-134.049	0.086	0.011
-692.412	3.962	0.241	0.177
-691.397	800.000	-0.022	-0.077
-690.383	136.957	0.273	-0.359
-689.368	-1.243	0.179	0.127
-688.354	137.025	0.054	0.071
-687.339	566.847	-0.011	0.026
-686.324	113.300	-0.191	0.233
-685.310	10.956	-0.096	-0.074
-684.295	-200.000	-0.005	-0.054
-683.281	-200.000	-0.026	0.139
-682.266	-105.930	-0.422	-0.095
-681.251	-83.158	-0.050	-0.016
-680.237	-89.312	0.300	-0.089
-679.222	331.031	0.054	-0.104
-678.208	229.099	-0.132	0.217
-677.193	31.023	-0.192	-0.165
-676.178	800.000	0.043	0.144
-675.164	10.710	-0.120	-0.092
-674.149	-20.588	-0.242	-0.149
-673.135	-200.000	0.062	-0.381
-672.120	342.881	-0.204	-0.401
-671.105	-181.048	0.148	-0.003
-670.091	24.411	-0.125	0.103
-669.076	353.029	0.087	0.174
-668.062	-128.999	-0.276	0.039
-667.047	-200.000	0.081	-0.356
-666.032	35.867	-0.116	-0.102
-665.018	-200.000	-0.002	0.257
-664.003	34.779	-0.320	0.281
-662.989	-200.000	0.010	-0.215
-661.974	-118.743	-0.215	-0.038
-660.959	59.836	0.142	0.141
-659.945	-24.431	-0.407	-0.243
-658.930	-138.515	-0.318	-0.035
-657.916	48.169	0.071	-0.067
-656.901	-77.480	-0.185	-0.064
-655.886	800.000	0.061	0.174
-654.872	-39.991	-0.230	-0.120
-653.857	438.269	-0.042	-0.092
-652.843	285.711	-0.149	-0.270
-651.828	172.957	0.100	-0.145
-650.814	-60.437	0.089	-0.038
-649.799	800.000	-0.072	-0.215
-648.784	-200.000	-0.134	-0.614
-647.770	428.976	-0.177	0.383
-646.755	-83.224	0.288	0.093
-645.741	-200.000	0.005	0.046
-644.726	-88.981	0.118	0.035
-643.711	328.034	0.129	0.248
-642.697	-165.177	-0.311	-0.014
-641.682	-137.255	-0.156	-0.018
-640.668	-57.342	0.207	-0.091
-639.653	-115.858	-0.189	-0.035
-638.638	22.991	-0.201	-0.165
-637.624	-90.013	0.232	-0.068
-636.609	800.000	0.045	-0.144
-635.595	800.000	-0.004	0.011
-634.580	162.203	0.059	-0.083
-633.565	-200.000	0.080	0.378
-632.551	-200.000	-0.025	0.118
-631.536	255.122	-0.221	-0.379
-630.522	-200.000	-0.027	-0.579
-629.507	-143.325	0.166	0.016
-628.492	316.246	0.115	-0.218
-627.478	-76.626	0.104	0.037
-626.463	800.000	0.067	0.206
-625.449	-75.675	-0.135	0.048
-624.434	28.427	-0.290	-0.245
-623.419	27.117	-0.078	0.066
-622.405	-138.732	-0.042	-0.005
-621.390	632.583	0.044	-0.113
-620.376	-32.316	0.079	-0.044
-619.361	-54.795	-0.176	-0.080
-618.346	82.330	0.302	0.328
-617.332	51.505	0.232	0.220
-616.317	451.385	0.033	-0.073
-615.303	46.653	0.141	0.131
-614.288	-53.501	0.537	0.246
-613.273	-93.559	0.337	0.093
-612.259	-101.754	-0.355	0.086
-611.244	-74.667	0.167	-0.060
-610.230	-82.202	-0.233	0.076
-609.215	-93.236	0.104	-0.029
-608.201	-51.560	-0.198	0.093
-607.186	-200.000	-0.037	-0.322
-606.171	85.588	0.291	-0.320
-605.157	711.723	-0.119	0.315
-604.142	59.266	-0.211	-0.207
-603.128	-200.000	0.005	-0.277
-602.113	-200.000	-0.016	0.188
-601.098	123.026	0.215	-0.269
-600.084	-200.000	-0.052	-0.351
-599.069	-11.329	0.228	-0.150
-598.055	12.738	-0.241	0.186
-597.040	58.752	0.164	-0.161
-596.025	21.954	-0.340	0.277
-595.011	69.436	0.155	-0.160
-593.996	-16.159	-0.335	-0.213
-592.982	-200.000	-0.018	0.396
-591.967	575.341	-0.024	-0.060
-590.952	-122.409	0.216	0.035
-589.938	142.523	-0.091	-0.120
-588.923	261.977	0.179	-0.310
-587.909	130.906	0.022	0.029
-586.894	-200.000	-0.024	-0.141
-585.879	-54.031	0.382	-0.174
-584.865	-50.271	-0.277	0.131
-583.850	7.709	-0.141	0.105
-582.836	-60.214	-0.072	-0.031
-581.821	-21.084	-0.232	-0.142
-580.806	-125.696	0.080	0.012
-579.792	232.834	-0.023	0.038
-578.777	-138.425	-0.324	0.036
-577.763	800.000	0.032	-0.090
-576.748	-158.607	0.027	0.002
-575.733	800.000	-0.102	-0.300
-574.719	203.257	-0.085	0.131
-573.704	-200.000	0.032	-0.272
-572.690	0.942	-0.342	0.245
-571.675	-200.000	-0.011	-0.323
-570.661	-43.601	-0.132	-0.067
-569.646	152.492	-0.106	-0.145
-568.631	-48.486	-0.111	-0.054
-567.617	5.443	-0.077	-0.057
-566.602	162.423	0.018	0.025
-565.588	-135.050	-0.144	-0.017
-564.573	150.212	-0.203	-0.276
-563.558	-76.109	-0.374	0.132
-562.544	800.000	-0.063	-0.222
-561.529	53.786	0.196	-0.188
-560.515	259.942	0.173	0.299
-559.500	-19.854	0.121	0.074
-558.485	136.442	-0.255	0.332
-557.471	-46.645	0.214	0.105
-556.456	-200.000	0.000	-0.113
-555.442	-200.000	0.006	-0.205
-554.427	-94.151	0.365	0.100
-553.412	-200.000	0.033	0.174
-552.398	490.511	-0.040	0.091
-551.383	-200.000	-0.033	0.227
-550.369	78.071	-0.093	-0.099
-549.354	63.109	-0.171	0.171
-548.339	-200.000	0.014	0.132
-547.325	65.322	-0.200	0.202
-546.310	14.778	-0.280	0.219
-545.296	675.326	0.111	-0.289
-544.281	237.340	-0.116	0.193
-543.266	-200.000	0.080	-0.449
-542.252	-40.304	0.365	0.189
-541.237	-124.872	0.283	-0.044
-540.223	-69.807	-0.152	0.058
-539.208	-33.888	-0.192	-0.105
-538.193	-150.664	0.096	0.007
-537.179	-108.638	-0.358	-0.077
-536.164	-200.000	-0.053	0.324
-535.150	-200.000	-0.012	0.249
-534.135	-29.542	-0.365	0.208
-533.121	538.678	-0.042	-0.100
-532.106	-200.000	-0.037	0.200
-531.091	11.917	0.219	0.168
-530.077	169.098	0.091	0.130
-529.062	-200.000	-0.005	-0.374
-528.048	-200.000	0.057	-0.365
-527.033	-200.000	0.036	0.335
-526.018	-70.566	-0.069	0.026
-525.004	251.547	0.121	-0.206
-523.989	40.344	0.228	0.204
-522.975	45.973	0.205	0.190
-521.960	131.921	-0.131	0.168
-520.945	515.739	-0.112	0.260
-519.931	-58.077	0.290	-0.126
-518.916	81.675	-0.122	-0.132
-517.902	-192.025	-0.177	0.002
-516.887	800.000	0.019	0.073
-515.872	-73.127	-0.033	0.012
-514.858	41.281	-0.177	0.160
-513.843	305.424	0.095	-0.177
-512.829	-200.000	-0.006	-0.124
-511.814	-33.435	-0.226	-0.125
-510.799	-103.400	0.143	-0.034
-509.785	-163.010	-0.170	0.008
-508.770	44.158	-0.124	0.114
-507.756	41.618	0.209	-0.189
-506.741	13.960	0.197	0.153
-505.726	122.288	0.192	0.239
-504.712	0.687	-0.194	-0.138
-503.697	-56.404	0.017	-0.008
-502.683	-55.018	-0.404	0.181
-501.668	73.568	-0.087	0.091
-500.653	-6.833	0.308	-0.209
-499.639	-200.000	-0.027	0.374
-498.624	-200.000	0.017	-0.229
-497.610	440.134	-0.044	-0.097
-496.595	-8.294	-0.086	-0.058
-495.581	369.539	0.092	-0.185
-494.566	-69.794	0.255	0.097
-493.551	-77.780	0.045	-0.016
-492.537	-113.983	0.207	-0.040
-491.522	779.421	-0.055	-0.150
-490.508	367.683	-0.163	0.328
-489.493	-200.000	-0.039	0.395
-488.478	-6.096	-0.072	0.049
-487.464	-18.043	-0.383	-0.239
-486.449	5.395	0.232	-0.170
-485.435	3.427	-0.071	-0.052
-484.420	-32.610	0.187	-0.104
-483.405	241.287	-0.039	0.065
-482.391	163.322	0.206	0.289
-481.376	-62.510	-0.026	0.011
-480.362	-17.678	0.105	-0.066
-479.347	-59.059	0.061	-0.026
-478.332	-139.416	-0.379	-0.040
-477.318	-100.035	0.438	0.109
-476.303	382.596	0.073	-0.150
-475.289	198.923	-0.048	-0.073
-474.274	-105.347	0.171	-0.039
-473.259	800.000	0.050	0.186
-472.245	80.448	-0.141	0.151
-471.230	378.006	-0.043	-0.087
-470.216	800.000	0.035	0.152
-469.201	-200.000	0.040	-0.178
-468.186	-200.000	-0.025	-0.137
-467.172	-200.000	0.015	0.202
-466.157	800.000	-0.040	0.151
-465.143	11.109	-0.050	0.038
-464.128	-119.349	0.224	0.039
-463.113	-200.000	-0.021	0.119
-462.099	26.515	-0.127	0.106
-461.084	100.469	0.202	0.234
-460.070	800.000	-0.067	-0.196
-459.055	77.484	0.209	0.221
-458.040	-49.523	0.149	-0.071
-457.026	135.701	-0.162	-0.210
-456.011	-55.532	0.300	-0.134
-454.997	-97.398	-0.200	0.052
-453.982	-46.528	0.089	-0.043
-452.968	5.645	0.275	-0.203
-451.953	-200.000	0.032	0.168
-450.938	-184.775	-0.247	0.004
-449.924	-200.000	-0.025	0.278
-448.909	296.714	0.143	-0.261
-447.895	45.673	-0.166	-0.153
-446.880	-200.000	-0.047	0.320
-445.865	194.867	0.109	0.165
-444.851	125.353	0.043	-0.053
-443.836	-175.476	0.225	-0.006
-442.822	800.000	0.077	0.266
-441.807	-200.000	0.040	-0.234
-440.792	760.524	-0.081	-0.217
-439.778	-119.108	0.101	0.018
-438.763	-2.236	0.153	0.106
-437.749	197.849	-0.179	0.272
-436.734	400.789	-0.238	0.497
-435.719	800.000	-0.012	-0.035
-434.705	-100.461	-0.378	-0.093
-433.690	155.804	0.112	0.153
-432.676	800.000	-0.071	-0.281
-431.661	662.646	-0.092	-0.236
-430.646	-47.249	-0.092	-0.045
-429.632	800.000	0.027	0.081
-428.617	26.679	-0.107	-0.089
-427.603	-200.000	-0.142	-0.000
-426.588	-200.000	-0.020	0.407
-425.573	158.724	0.097	0.133
-424.559	-200.000	-0.027	-0.261
-423.544	800.000	0.095	0.366
-422.530	162.223	0.185	-0.257
-421.515	-48.535	0.062	0.030
-420.500	-200.000	0.008	0.068
-419.486	-140.238	0.214	-0.022
-418.471	48.656	-0.136	-0.127
-417.457	-70.158	0.228	-0.086
-416.442	-172.421	-0.176	0.006
-415.428	-200.000	0.020	-0.379
-414.413	167.282	0.178	-0.251
-413.398	405.727	-0.085	0.178
-412.384	-104.297	-0.120	-0.028
-411.369	-200.000	0.045	-0.350
-410.355	800.000	0.119	-0.409
-409.340	724.293	-0.029	0.076
-408.325	220.905	0.136	0.217
-407.311	402.152	0.108	0.225
-406.296	170.718	0.043	-0.061
-405.282	131.085	-0.089	0.114
-404.267	-126.345	-0.157	0.023
-403.252	-200.000	0.009	0.203
-402.238	-52.140	0.122	0.056
-401.223	-9.888	-0.123	-0.081
-400.209	-60.544	0.304	0.128
-399.194	-46.749	-0.420	-0.204
-398.179	-93.818	0.091	0.025
-397.165	-24.004	-0.271	0.161
-396.150	-173.866	0.295	-0.009
-395.136	-3.536	-0.124	0.086
-394.121	10.030	-0.280	0.211
-393.106	-200.000	-0.004	-0.150
-392.092	-100.359	0.118	0.029
-391.077	770.137	0.066	-0.179
-390.063	-92.455	-0.332	-0.093
-389.048	-143.447	-0.089	-0.008
-388.033	-200.000	0.052	0.291
-387.019	39.859	-0.099	-0.088
-386.004	176.712	-0.103	-0.149
-384.990	-19.732	-0.262	-0.160
-383.975	-10.551	0.057	0.038
-382.960	-73.182	0.260	0.094
-381.946	86.659	-0.130	0.142
-380.931	-138.640	0.461	-0.050
-379.917	-200.000	-0.013	-0.080
-378.902	-200.000	-0.048	-0.231
-377.888	-34.261	-0.326	0.177
-376.873	669.089	0.120	0.308
-375.858	88.222	0.213	-0.235
-374.844	-148.099	0.202	-0.017
-373.829	-41.049	0.275	0.141
-372.815	18.503	-0.181	0.144
-371.800	-158.149	-0.108	0.006
-370.785	-74.806	0.126	-0.045
-369.771	240.228	0.231	0.382
-368.756	-84.658	-0.100	-0.031
-367.742	-122.239	0.139	-0.022
-366.727	-107.615	-0.091	-0.020
-365.712	800.000	0.085	-0.311
-364.698	273.798	-0.128	0.224
-363.683	-66.760	0.176	-0.069
-362.669	-9.322	0.199	0.132
-361.654	-133.601	0.064	-0.008
-360.639	-200.000	-0.006	0.032
-359.625	-96.659	0.106	0.028
-358.610	18.543	0.068	-0.054
-357.596	56.789	0.374	-0.361
-356.581	-75.363	-0.157	-0.055
-355.566	33.890	-0.328	0.283
-354.552	403.599	0.052	0.109
-353.537	-200.000	-0.038	-0.284
-352.523	312.618	0.114	-0.212
-351.508	-69.390	-0.182	-0.069
-350.493	-6.148	0.132	-0.090
-349.479	5.079	0.285	0.208
-348.464	311.176	-0.192	-0.357
-347.450	20.039	-0.178	-0.142
-346.435	-200.000	0.014	0.291
-345.420	33.092	-0.281	0.242
-344.406	86.287	-0.111	-0.121
-343.391	773.116	0.037	0.099
-342.377	226.671	-0.036	0.057
-341.362	-63.896	0.096	0.039
-340.348	-200.000	0.027	0.310
-339.333	230.164	-0.029	0.046
-338.318	-131.478	0.151	0.020
-337.304	-129.719	-0.106	0.014
-336.289	-200.000	0.020	-0.237
-335.275	-145.703	0.316	0.028
-334.260	-50.428	-0.184	0.086
-333.245	-97.724	0.370	0.095
-332.231	-166.052	-0.109	-0.005
-331.216	401.843	0.116	-0.242
-330.202	-45.366	0.255	0.125
-329.187	800.000	0.063	-0.255
-328.172	800.000	0.067	-0.233
-327.158	800.000	0.069	-0.194
-326.143	-23.896	0.177	0.105
-325.129	94.496	0.140	-0.158
-324.114	-72.781	-0.260	-0.095
-323.099	-200.000	-0.021	-0.216
-322.085	800.000	0.035	-0.123
-321.070	-71.445	0.208	-0.077
-320.056	-175.422	0.269	-0.007
-319.041	-200.000	-0.029	-0.301
-318.026	221.613	0.077	-0.122
-317.012	79.729	0.173	-0.184
-315.997	800.000	0.078	0.293
-314.983	-158.182	-0.178	0.010
-313.968	-73.528	0.316	0.114
-312.953	-171.737	0.135	0.004
-311.939	64.967	0.235	0.235
-310.924	133.465	0.155	-0.198
-309.910	-40.033	-0.030	0.015
-308.895	3.275	-0.125	-0.090
-307.880	161.610	-0.136	-0.189
-306.866	11.750	-0.024	0.018
-305.851	-61.438	-0.117	0.049
-304.837	699.792	-0.005	0.013
-303.822	-19.811	-0.056	-0.034
-302.807	-200.000	-0.027	-0.344
-301.793	286.311	-0.141	0.251
-300.778	-29.689	-0.279	-0.157
-299.764	-200.000	0.023	0.235
-298.749	-147.054	0.302	0.026
-297.735	120.121	0.178	-0.219
-296.720	69.563	-0.314	0.320
-295.705	-200.000	-0.004	-0.080
-294.691	-34.514	-0.231	0.125
-293.676	78.944	0.152	0.160
-292.662	-200.000	-0.343	0.000
-291.647	45.915	-0.156	-0.142
-290.632	-168.041	0.075	0.003
-289.618	-56.773	-0.368	0.161
-288.603	-33.011	0.139	0.076
-287.589	-10.136	0.298	-0.196
-286.574	305.969	-0.050	-0.092
-285.559	-62.132	-0.179	0.074
-284.545	-200.000	-0.011	0.150
-283.530	-200.000	-0.021	0.228
-282.516	-200.000	0.022	0.129
-281.501	-66.278	0.300	-0.118
-280.486	-179.706	0.205	-0.004
-279.472	-131.414	-0.104	-0.014
-278.457	752.086	0.114	-0.305
-277.443	38.902	-0.118	-0.104
-276.428	85.089	0.101	0.110
-275.413	-138.091	0.175	0.019
-274.399	-28.769	-0.269	-0.153
-273.384	-200.000	-0.021	-0.092
-272.370	-137.502	-0.171	-0.019
-271.355	7.350	-0.042	-0.031
-270.340	261.918	0.057	0.098
-269.326	-200.000	0.116	0.000
-268.311	800.000	0.111	-0.329
-267.297	306.364	-0.152	0.280
-266.282	-59.963	0.245	0.103
-265.267	186.337	-0.224	0.329
-264.253	800.000	0.040	0.140
-263.238	-122.172	-0.187	-0.030
-262.224	-164.311	0.326	0.015
-261.209	-60.343	0.059	0.025
-260.195	-200.000	-0.062	-0.324
-259.180	-200.000	-0.046	-0.209
-258.165	-36.216	-0.239	-0.127
-257.151	13.140	-0.119	0.091
-256.136	-113.091	0.411	0.080
-255.122	-14.987	-0.377	-0.238
-254.107	74.446	-0.157	0.163
-253.092	-80.688	-0.183	0.060
-252.078	-130.769	0.156	0.021
-251.063	-200.000	-0.016	-0.297
-250.049	-101.304	-0.378	0.091
-249.034	252.151	0.067	0.113
-248.019	322.727	-0.145	-0.272
-247.005	800.000	0.041	-0.145
-245.990	-40.128	-0.160	-0.082
-244.976	800.000	0.087	0.282
-243.961	-76.694	-0.189	0.065
-242.946	31.682	-0.108	0.091
-241.932	147.198	-0.221	0.293
-240.917	773.354	0.076	0.205
-239.903	258.010	-0.114	-0.194
-238.888	104.354	0.221	0.257
-237.873	-123.430	-0.249	0.039
-236.859	0.932	0.262	0.186
-235.844	800.000	0.051	-0.186
-234.830	364.333	-0.097	0.193
-233.815	-61.346	0.168	0.070
-232.800	-134.178	0.379	0.046
-231.786	205.751	0.245	0.375
-230.771	-200.000	0.018	0.111
-229.757	247.538	-0.055	0.091
-228.742	114.146	0.089	0.107
-227.727	79.894	-0.132	-0.139
-226.713	-89.160	0.201	-0.059
-225.698	17.180	0.134	0.105
-224.684	-51.789	-0.317	-0.145
-223.669	-200.000	0.014	-0.323
-222.655	-82.852	0.084	-0.027
-221.640	26.848	0.274	-0.226
-220.625	104.865	-0.178	-0.207
-219.611	528.877	-0.152	0.354
-218.596	202.137	-0.185	0.281
-217.582	61.187	0.176	-0.172
-216.567	116.820	-0.120	0.146
-215.552	-126.078	0.126	0.019
-214.538	615.416	0.098	-0.242
-213.523	-200.000	0.021	-0.103
-212.509	-48.127	0.146	0.070
-211.494	231.417	-0.043	-0.069
-210.479	-20.451	-0.161	-0.097
-209.465	-76.783	-0.051	-0.017
-208.450	-7.132	0.197	-0.131
-207.436	-87.897	-0.256	-0.076
-206.421	21.684	0.023	-0.018
-205.406	-83.972	-0.131	0.041
-204.392	188.245	-0.187	0.275
-203.377	-10.740	0.056	0.037
-202.363	-73.885	0.272	-0.097
-201.348	-120.567	-0.466	0.078
-200.333	-96.810	0.319	-0.082
-199.319	-34.315	-0.289	-0.156
-198.304	-41.100	-0.150	0.076
-197.290	-147.133	0.244	0.021
-196.275	-178.459	-0.201	0.005
-195.260	800.000	-0.009	-0.034
-194.246	41.720	-0.227	-0.202
-193.231	-159.789	-0.311	-0.017
-192.217	-200.000	-0.030	0.158
-191.202	3.933	0.096	0.069
-190.187	2.727	0.326	0.233
-189.173	-200.000	-0.067	0.323
-188.158	800.000	-0.054	0.165
-187.144	-200.000	0.036	-0.207
-186.129	130.231	-0.108	-0.136
-185.114	-200.000	0.046	-0.389
-184.100	800.000	0.020	-0.064
-183.085	366.597	0.076	-0.150
-182.071	-167.176	0.576	-0.023
-181.056	800.000	-0.029	0.100
-180.042	-200.000	0.052	-0.232
-179.027	213.378	0.036	0.056
-178.012	104.794	-0.202	0.235
-176.998	-155.290	0.244	-0.016
-175.983	-50.173	-0.121	0.056
-174.969	293.814	-0.200	0.359
-173.954	64.926	-0.245	0.244
-172.939	93.648	0.293	0.326
-171.925	126.273	-0.056	-0.070
-170.910	32.368	0.134	-0.114
-169.896	-200.000	0.011	0.123
-168.881	320.090	-0.033	-0.062
-167.866	800.000	-0.106	-0.298
-166.852	-200.000	0.032	0.250
-165.837	-53.297	0.095	0.043
-164.823	-35.865	0.095	0.051
-163.808	-118.222	-0.096	0.017
-162.793	-44.336	-0.139	-0.068
-161.779	-156.521	-0.114	-0.007
-160.764	-60.746	0.078	-0.032
-159.750	120.441	0.048	0.059
-158.735	4.658	-0.202	-0.146
-157.720	18.141	-0.157	-0.123
-156.706	338.138	-0.061	-0.117
-155.691	70.288	-0.051	-0.051
-154.677	537.363	-0.065	-0.152
-153.662	180.405	-0.218	0.315
-152.647	-39.172	-0.055	0.028
-151.633	-35.287	0.477	0.255
-150.618	730.787	0.021	-0.055
-149.604	-200.000	-0.010	0.235
-148.589	-200.000	0.047	0.274
-147.574	-98.460	-0.203	0.051
-146.560	-119.735	-0.138	-0.023
-145.545	-142.292	0.108	-0.011
-144.531	-64.286	0.200	-0.080
-143.516	27.723	0.271	0.224
-142.502	215.074	0.035	-0.055
-141.487	239.025	0.180	0.294
-140.472	279.239	-0.068	0.119
-139.458	-157.800	-0.259	0.015
-138.443	-23.659	0.035	-0.020
-137.429	-200.000	-0.084	-0.401
-136.414	-162.786	-0.471	-0.023
-135.399	301.444	0.180	0.327
-134.385	103.140	-0.154	0.177
-133.370	-200.000	-0.053	-0.274
-132.356	800.000	-0.131	-0.365
-131.341	-25.555	0.381	0.221
-130.326	-31.001	0.150	-0.083
-129.312	420.562	-0.051	0.106
-128.297	800.000	0.012	-0.050
-127.283	-72.405	-0.358	0.130
-126.268	-62.927	0.321	0.130
-125.253	800.000	0.020	-0.066
-124.239	51.726	-0.154	0.143
-123.224	212.118	0.176	-0.272
-122.210	-10.788	0.238	-0.154
-121.195	-111.452	0.269	-0.054
