DTS Sentinel unit serial number:	SN413079Multiplexer serial number:	ORYXHardware model number:	OX4-SRSoftware version number:	ORYX F/W v4.00 Oryx Data Collector v3.7.2.0data status	okinstallation	princeton_trtdifferential loss correction	single-endedforward channel	channel 3reverse channel	N/Adate	2019/09/10time	16:22:11forward acquisition time	60.00reverse acquisition time	0.00gamma	496.2192k internal	0.2298k external	0.2298temperature offset calibration	0.9912default loss term (dB/km)	0.3790temperature slope calibration	1.0000multiplexer offset coefficient	1.0000multiplexer slope coefficient	1.0000fibre end	0.00T internal ref (°C)	38.19T ext. ref 1 (°C)	-0.25T ext. ref 2 (°C)	30.85length (m)	temperature (°C)	Stokes	anti-Stokes-747.200	-17.388	-0.078	0.050
-746.185	-121.766	0.311	-0.052
-745.171	-52.496	-0.106	0.050
-744.156	-199.617	-0.203	0.001
-743.142	-200.000	-0.043	-0.339
-742.127	-44.312	0.045	0.023
-741.112	0.244	-0.105	0.076
-740.098	-200.000	0.024	0.304
-739.083	-67.457	-0.318	-0.127
-738.069	117.577	0.097	0.122
-737.054	-129.917	-0.196	0.027
-736.039	300.740	-0.119	-0.224
-735.025	-104.822	-0.081	-0.019
-734.010	-81.551	-0.250	-0.084
-732.996	-121.084	0.072	0.012
-731.981	2.462	-0.192	-0.142
-730.966	353.397	0.082	-0.166
-729.952	245.466	-0.251	-0.431
-728.937	-83.209	0.179	-0.059
-727.923	-144.810	-0.175	0.016
-726.908	-4.728	0.091	-0.064
-725.894	-134.279	0.042	-0.005
-724.879	-88.191	-0.158	0.048
-723.864	42.722	0.237	-0.221
-722.850	-92.989	-0.133	-0.038
-721.835	605.246	0.118	-0.301
-720.821	162.928	-0.189	0.271
-719.806	-12.080	-0.052	-0.035
-718.791	462.848	-0.137	-0.311
-717.777	241.210	0.140	0.238
-716.762	-200.000	0.005	0.187
-715.748	-74.519	0.338	-0.124
-714.733	800.000	0.083	0.250
-713.718	339.509	-0.047	0.093
-712.704	-157.162	-0.066	-0.004
-711.689	335.504	-0.092	-0.182
-710.675	800.000	-0.017	-0.055
-709.660	-200.000	0.001	-0.304
-708.645	-200.000	0.002	0.071
-707.631	-126.180	-0.223	-0.034
-706.616	22.316	-0.148	0.123
-705.602	-112.378	0.071	0.015
-704.587	23.685	-0.067	-0.056
-703.572	518.288	-0.084	-0.202
-702.558	92.270	-0.031	0.036
-701.543	519.379	-0.225	0.536
-700.529	293.153	0.094	0.174
-699.514	306.248	-0.138	-0.261
-698.499	-24.188	-0.230	-0.140
-697.485	210.805	-0.172	0.276
-696.470	-200.000	0.021	-0.197
-695.456	800.000	-0.050	-0.162
-694.441	800.000	-0.146	-0.410
-693.426	-200.000	0.005	-0.186
-692.412	70.618	0.170	0.179
-691.397	163.331	0.066	-0.095
-690.383	-140.487	0.291	0.031
-689.368	-25.606	-0.144	-0.086
-688.354	-65.179	0.063	0.026
-687.339	800.000	0.054	0.185
-686.324	800.000	-0.063	0.225
-685.310	-59.187	0.270	0.118
-684.295	402.280	0.023	0.050
-683.281	381.679	0.069	-0.145
-682.266	-200.000	0.032	-0.172
-681.251	130.284	-0.069	-0.090
-680.237	-200.000	0.060	0.271
-679.222	295.497	-0.118	0.220
-678.208	-200.000	-0.016	0.146
-677.193	800.000	-0.074	-0.286
-676.178	124.865	-0.197	-0.252
-675.164	-120.240	-0.229	-0.040
-674.149	-200.000	-0.005	0.043
-673.135	108.959	-0.324	-0.395
-672.120	-15.185	0.267	-0.174
-671.105	800.000	-0.055	-0.215
-670.091	50.972	0.237	0.229
-669.076	-57.204	-0.289	-0.129
-668.062	-200.000	-0.062	-0.313
-667.047	-92.560	-0.284	0.081
-666.032	-40.122	-0.227	-0.120
-665.018	-200.000	0.007	-0.053
-664.003	-134.223	-0.283	-0.036
-662.989	-200.000	-0.060	0.341
-661.974	281.271	0.088	0.161
-660.959	322.831	-0.122	0.236
-659.945	-116.110	0.255	0.048
-658.930	20.986	0.090	0.074
-657.916	-128.907	-0.322	0.046
-656.901	63.328	0.187	-0.191
-655.886	-12.222	0.422	-0.281
-654.872	-17.881	0.298	-0.190
-653.857	96.090	0.151	0.176
-652.843	-200.000	-0.049	0.374
-651.828	-33.692	-0.072	-0.041
-650.814	-174.370	-0.279	0.008
-649.799	-200.000	-0.047	-0.236
-648.784	63.601	0.059	-0.060
-647.770	99.975	-0.062	0.073
-646.755	490.543	0.027	0.064
-645.741	-123.724	-0.242	-0.039
-644.726	-200.000	-0.000	0.188
-643.711	76.889	0.121	0.130
-642.697	141.369	0.145	-0.195
-641.682	168.121	0.040	-0.058
-640.668	-56.710	-0.193	0.087
-639.653	-4.867	-0.088	-0.062
-638.638	-101.318	0.368	0.091
-637.624	-86.689	-0.069	-0.022
-636.609	16.146	-0.121	0.097
-635.595	-52.629	0.500	0.235
-634.580	84.445	0.109	-0.121
-633.565	800.000	0.058	-0.207
-632.551	-80.164	-0.383	-0.130
-631.536	-121.731	-0.394	-0.066
-630.522	-200.000	-0.013	0.204
-629.507	-44.470	0.385	-0.196
-628.492	355.583	0.081	0.164
-627.478	135.550	0.139	-0.184
-626.463	10.254	-0.168	-0.130
-625.449	79.440	0.158	0.172
-624.434	-190.124	-0.344	0.004
-623.419	623.087	0.029	0.075
-622.405	-142.728	-0.160	-0.016
-621.390	-200.000	0.001	-0.251
-620.376	-120.863	0.368	0.063
-619.361	-115.415	-0.344	-0.066
-618.346	-200.000	-0.014	0.174
-617.332	1.770	-0.237	0.173
-616.317	60.391	0.148	-0.149
-615.303	-86.446	0.122	-0.038
-614.288	7.683	0.209	0.159
-613.273	800.000	-0.080	-0.337
-612.259	-97.338	-0.064	0.017
-611.244	196.989	-0.073	-0.114
-610.230	-200.000	0.004	0.031
-609.215	426.739	0.182	0.399
-608.201	-94.341	-0.357	-0.099
-607.186	90.719	-0.060	0.068
-606.171	-34.094	0.234	0.131
-605.157	-78.168	-0.091	-0.032
-604.142	-12.759	0.083	-0.055
-603.128	-84.541	-0.038	-0.012
-602.113	118.605	0.136	0.170
-601.098	128.795	0.148	-0.192
-600.084	-54.736	0.187	0.086
-599.069	800.000	0.035	-0.127
-598.055	-200.000	0.005	-0.024
-597.040	-200.000	-0.011	0.082
-596.025	-149.495	-0.141	0.011
-595.011	800.000	0.090	-0.349
-593.996	76.345	-0.174	-0.187
-592.982	-24.824	-0.264	-0.159
-591.967	248.751	0.199	0.343
-590.952	-39.386	-0.162	-0.086
-589.938	-200.000	0.036	-0.162
-588.923	-105.719	0.263	0.060
-587.909	79.386	0.059	0.064
-586.894	-94.556	-0.095	-0.026
-585.879	-142.425	0.367	0.037
-584.865	156.220	0.171	-0.239
-583.850	-45.090	0.112	0.057
-582.836	288.599	0.169	-0.311
-581.821	7.550	-0.252	-0.191
-580.806	139.251	-0.159	-0.213
-579.792	183.300	0.104	0.156
-578.777	-123.147	0.305	0.050
-577.763	-164.226	-0.058	0.003
-576.748	800.000	-0.125	-0.404
-575.733	212.916	-0.112	-0.179
-574.719	-50.539	-0.148	-0.071
-573.704	-24.689	-0.150	-0.090
-572.690	-200.000	0.025	0.148
-571.675	800.000	-0.068	-0.251
-570.661	734.426	-0.044	-0.121
-569.646	111.190	-0.089	0.108
-568.631	-39.973	-0.306	-0.162
-567.617	-124.300	0.361	0.057
-566.602	57.825	0.080	-0.080
-565.588	78.619	-0.151	-0.164
-564.573	249.620	-0.135	-0.232
-563.558	338.909	0.175	-0.345
-562.544	-2.005	-0.191	0.136
-561.529	347.262	-0.084	-0.167
-560.515	-74.511	0.548	-0.200
-559.500	42.551	-0.181	-0.167
-558.485	-103.997	0.411	-0.097
-557.471	100.508	0.205	0.242
-556.456	-107.911	0.165	0.036
-555.442	-8.297	-0.118	-0.080
-554.427	14.184	0.239	-0.188
-553.412	-118.571	-0.117	-0.021
-552.398	95.179	-0.069	-0.080
-551.383	-200.000	0.006	-0.163
-550.369	466.457	-0.153	0.346
-549.354	-98.752	-0.145	0.037
-548.339	-175.689	0.089	-0.002
-547.325	238.562	-0.132	0.221
-546.310	800.000	-0.016	0.066
-545.296	-4.037	-0.406	0.285
-544.281	266.282	-0.201	0.356
-543.266	-145.575	0.133	0.012
-542.252	-73.382	-0.290	-0.107
-541.237	-24.594	-0.231	-0.139
-540.223	-24.890	-0.261	0.157
-539.208	-128.351	-0.406	0.058
-538.193	-200.000	-0.014	-0.464
-537.179	22.463	0.175	0.145
-536.164	-117.176	0.071	-0.013
-535.150	-152.025	-0.130	-0.010
-534.135	221.968	0.115	0.188
-533.121	-200.000	-0.052	0.321
-532.106	-69.978	0.130	0.050
-531.091	-166.493	-0.106	0.004
-530.077	-43.149	-0.107	-0.055
-529.062	800.000	0.169	-0.487
-528.048	800.000	0.052	-0.216
-527.033	800.000	0.036	0.109
-526.018	484.628	-0.100	0.229
-525.004	256.760	-0.080	-0.139
-523.989	265.648	-0.097	-0.172
-522.975	188.153	-0.160	-0.243
-521.960	800.000	-0.017	-0.076
-520.945	-200.000	0.036	-0.362
-519.931	256.516	0.110	0.191
-518.916	800.000	0.019	0.059
-517.902	138.301	0.003	0.004
-516.887	16.884	0.186	-0.149
-515.872	5.484	0.082	-0.061
-514.858	-200.000	-0.160	-0.000
-513.843	-200.000	0.047	-0.242
-512.829	604.213	-0.127	-0.321
-511.814	-41.649	0.205	0.106
-510.799	-87.230	-0.343	0.106
-509.785	-98.204	-0.346	0.090
-508.770	675.973	0.043	-0.114
-507.756	-71.170	0.110	-0.042
-506.741	81.191	0.147	-0.160
-505.726	-138.765	-0.041	0.005
-504.712	-111.986	-0.394	-0.080
-503.697	800.000	-0.089	-0.254
-502.683	43.974	0.333	0.308
-501.668	19.835	-0.039	0.032
-500.653	267.043	-0.168	-0.297
-499.639	-200.000	-0.036	0.160
-498.624	-119.577	-0.570	-0.100
-497.610	191.727	0.176	0.268
-496.595	-131.521	-0.268	0.036
-495.581	800.000	-0.010	-0.040
-494.566	250.288	0.307	0.526
-493.551	-52.364	0.193	-0.090
-492.537	-71.121	-0.133	0.050
-491.522	800.000	-0.062	-0.183
-490.508	800.000	0.063	-0.259
-489.493	-37.512	-0.107	-0.058
-488.478	507.007	-0.145	-0.341
-487.464	517.004	0.211	-0.499
-486.449	583.921	0.049	0.121
-485.435	189.213	-0.077	0.117
-484.420	-134.031	-0.276	-0.035
-483.405	59.048	0.060	-0.060
-482.391	-116.248	-0.100	0.019
-481.376	41.455	0.035	0.032
-480.362	-77.493	-0.164	0.058
-479.347	319.961	0.126	-0.242
-478.332	-155.378	-0.419	-0.027
-477.318	392.433	-0.142	0.299
-476.303	-52.875	0.130	0.061
-475.289	-141.008	0.193	0.020
-474.274	800.000	-0.064	-0.193
-473.259	-150.002	-0.246	0.019
-472.245	318.951	0.116	-0.222
-471.230	-154.336	-0.261	0.018
-470.216	-60.519	-0.036	0.015
-469.201	73.299	0.141	-0.149
-468.186	-200.000	0.007	-0.177
-467.172	341.897	0.124	-0.246
-466.157	414.775	0.031	-0.067
-465.143	-113.147	0.214	0.043
-464.128	-103.009	-0.599	-0.143
-463.113	-200.000	0.012	0.129
-462.099	-143.208	-0.504	0.049
-461.084	52.687	0.267	-0.257
-460.070	75.898	-0.164	0.175
-459.055	-155.557	0.204	0.013
-458.040	598.537	-0.036	0.091
-457.026	-200.000	-0.004	-0.046
-456.011	369.334	-0.088	-0.181
-454.997	-12.956	-0.053	0.035
-453.982	-200.000	0.006	0.214
-452.968	-76.350	0.351	0.125
-451.953	-66.044	0.277	-0.112
-450.938	225.112	0.255	0.417
-449.924	-200.000	-0.002	0.014
-448.909	-71.216	-0.339	0.128
-447.895	-117.016	0.153	0.028
-446.880	87.054	0.177	0.197
-445.865	-200.000	-0.008	0.101
-444.851	-121.044	-0.160	-0.027
-443.836	-200.000	0.216	0.000
-442.822	325.040	-0.116	-0.224
-441.807	221.591	0.063	0.102
-440.792	800.000	-0.115	0.415
-439.778	-10.103	0.095	0.063
-438.763	628.421	-0.152	-0.388
-437.749	-45.451	0.301	0.150
-436.734	112.643	-0.061	-0.075
-435.719	-6.911	-0.271	-0.185
-434.705	594.306	-0.087	0.217
-433.690	-200.000	0.034	0.231
-432.676	-200.000	0.036	0.173
-431.661	348.613	0.093	0.185
-430.646	-89.961	-0.151	0.045
-429.632	-80.081	-0.062	0.021
-428.617	-200.000	0.037	0.205
-427.603	40.059	-0.331	0.300
-426.588	87.222	0.194	0.216
-425.573	800.000	0.088	0.298
-424.559	-90.018	0.240	-0.071
-423.544	-147.287	0.374	-0.032
-422.530	247.524	0.093	0.159
-421.515	-200.000	0.042	0.246
-420.500	-148.224	0.129	0.011
-419.486	-200.000	0.036	-0.243
-418.471	-63.394	0.086	-0.036
-417.457	94.114	-0.036	-0.042
-416.442	-200.000	0.005	0.431
-415.428	122.043	0.103	0.130
-414.413	-30.892	0.035	-0.020
-413.398	145.225	0.070	-0.094
-412.384	-63.892	0.152	0.063
-411.369	609.971	0.109	-0.274
-410.355	-200.000	0.019	-0.296
-409.340	144.989	-0.088	-0.119
-408.325	-155.669	-0.460	0.030
-407.311	-39.168	0.267	0.141
-406.296	4.800	0.187	-0.138
-405.282	800.000	0.046	-0.178
-404.267	-132.236	0.371	-0.048
-403.252	-195.298	0.240	0.002
-402.238	24.691	0.136	-0.114
-401.223	405.813	0.156	0.331
-400.209	800.000	-0.139	0.406
-399.194	234.868	-0.181	-0.300
-398.179	139.225	-0.102	-0.135
-397.165	800.000	-0.083	-0.309
-396.150	80.319	0.052	-0.057
-395.136	432.222	0.041	0.091
-394.121	-17.899	0.283	-0.179
-393.106	132.224	0.155	-0.202
-392.092	232.666	0.040	0.066
-391.077	-200.000	0.036	0.207
-390.063	800.000	-0.175	0.502
-389.048	5.235	0.122	-0.091
-388.033	-200.000	-0.039	-0.490
-387.019	-100.352	0.377	-0.094
-386.004	-43.266	-0.165	0.084
-384.990	-8.857	0.115	0.078
-383.975	-122.878	-0.084	-0.014
-382.960	749.331	0.006	-0.016
-381.946	-27.935	-0.267	-0.156
-380.931	-200.000	-0.037	0.345
-379.917	-133.602	0.061	0.008
-378.902	-170.883	0.133	-0.005
-377.888	102.984	0.173	-0.204
-376.873	92.825	0.197	0.223
-375.858	-69.263	0.298	-0.115
-374.844	-35.353	-0.186	0.102
-373.829	-31.257	0.086	0.049
-372.815	-200.000	-0.033	0.273
-371.800	-17.965	-0.216	0.136
-370.785	-35.438	-0.090	0.049
-369.771	-103.149	-0.111	0.026
-368.756	115.343	-0.232	0.285
-367.742	390.086	-0.237	-0.494
-366.727	125.001	0.192	0.244
-365.712	143.597	-0.196	0.262
-364.698	-98.672	0.240	-0.062
-363.683	676.219	0.082	0.213
-362.669	-200.000	-0.002	-0.074
-361.654	800.000	-0.066	0.246
-360.639	10.465	0.271	-0.207
-359.625	53.028	-0.074	-0.072
-358.610	88.396	-0.121	0.136
-357.596	-3.112	0.327	-0.229
-356.581	-76.525	-0.304	-0.107
-355.566	67.111	-0.181	0.186
-354.552	-159.531	-0.099	0.006
-353.537	125.315	0.188	0.238
-352.523	-10.943	0.131	-0.087
-351.508	46.594	-0.206	-0.192
-350.493	50.662	-0.356	0.338
-349.479	101.405	0.116	0.136
-348.464	53.137	0.254	0.245
-347.450	27.932	0.245	0.208
-346.435	-13.352	0.213	-0.139
-345.420	-200.000	-0.028	0.177
-344.406	800.000	0.086	-0.249
-343.391	94.111	-0.197	-0.225
-342.377	418.016	0.041	0.089
-341.362	-48.453	-0.226	-0.110
-340.348	-200.000	-0.006	0.102
-339.333	365.151	-0.165	0.334
-338.318	-31.885	-0.119	-0.067
-337.304	56.335	-0.054	0.053
-336.289	632.763	-0.149	0.379
-335.275	-200.000	-0.039	0.225
-334.260	-200.000	0.009	0.239
-333.245	800.000	0.034	0.097
-332.231	11.299	0.091	-0.070
-331.216	-40.074	-0.241	-0.126
-330.202	-112.286	0.279	0.056
-329.187	-121.761	0.193	-0.032
-328.172	-169.620	-0.182	-0.007
-327.158	-10.338	-0.307	0.205
-326.143	-4.769	0.045	0.031
-325.129	723.338	0.083	-0.222
-324.114	72.613	-0.041	-0.043
-323.099	-78.484	0.114	-0.039
-322.085	135.243	0.146	-0.190
-321.070	-75.083	-0.210	-0.075
-320.056	248.887	0.148	-0.251
-319.041	-200.000	-0.041	0.182
-318.026	-73.507	0.234	0.086
-317.012	800.000	-0.058	0.225
-315.997	70.505	-0.231	-0.240
-314.983	714.329	-0.078	-0.207
-313.968	10.231	-0.084	-0.064
-312.953	-72.578	-0.218	-0.081
-311.939	-198.146	0.408	0.002
-310.924	171.808	0.221	0.318
-309.910	-16.930	0.271	0.172
-308.895	-185.421	-0.400	-0.006
-307.880	183.889	-0.075	0.111
-306.866	240.112	-0.165	0.276
-305.851	205.316	0.124	0.193
-304.837	800.000	0.089	0.369
-303.822	6.062	0.029	-0.022
-302.807	347.323	-0.192	-0.379
-301.793	-172.034	0.113	-0.004
-300.778	208.826	0.074	0.116
-299.764	-144.317	-0.253	0.024
-298.749	22.497	-0.036	-0.030
-297.735	-200.000	0.050	-0.288
-296.720	-200.000	0.043	-0.491
-295.705	-55.141	0.163	0.074
-294.691	-4.636	0.146	0.101
-293.676	57.049	-0.267	-0.261
-292.662	800.000	0.053	0.213
-291.647	-89.922	-0.136	0.040
-290.632	-200.000	0.017	-0.209
-289.618	-89.078	0.066	-0.020
-288.603	273.278	0.104	0.184
-287.589	-200.000	-0.008	-0.068
-286.574	-200.000	0.003	0.109
-285.559	596.660	0.110	-0.274
-284.545	21.655	0.214	-0.175
-283.530	-132.077	-0.121	0.016
-282.516	-78.316	0.051	0.017
-281.501	132.803	0.253	0.328
-280.486	-170.118	0.182	0.006
-279.472	606.701	-0.091	-0.226
-278.457	-14.152	0.098	0.063
-277.443	-181.106	-0.176	-0.004
-276.428	-119.373	-0.410	-0.071
-275.413	-200.000	0.015	0.231
-274.399	-115.081	0.042	0.008
-273.384	-48.809	0.034	-0.016
-272.370	111.333	-0.131	0.159
-271.355	-105.341	0.107	0.024
-270.340	-200.000	0.014	0.183
-269.326	-200.000	0.077	-0.612
-268.311	-200.000	0.011	-0.326
-267.297	800.000	-0.087	0.291
-266.282	-10.317	-0.245	-0.163
-265.267	-90.450	0.171	0.050
-264.253	215.728	-0.126	0.201
-263.238	-5.696	0.263	0.180
-262.224	-14.731	0.201	0.130
-261.209	-140.359	-0.102	-0.011
-260.195	-107.230	-0.209	0.046
-259.180	118.924	0.046	-0.057
-258.165	-83.235	-0.112	-0.036
-257.151	-138.587	0.141	0.015
-256.136	-33.001	-0.217	-0.121
-255.122	-56.448	-0.296	-0.132
-254.107	144.280	0.070	0.094
-253.092	-23.867	-0.424	-0.254
-252.078	510.807	-0.168	-0.391
-251.063	-162.002	0.403	0.020
-250.049	-27.299	-0.398	-0.232
-249.034	5.792	-0.051	0.038
-248.019	-200.000	0.040	-0.203
-247.005	800.000	-0.092	0.324
-245.990	6.227	0.185	-0.137
-244.976	-26.924	0.240	-0.140
-243.961	-151.089	0.381	-0.029
-242.946	50.545	0.144	-0.137
-241.932	-58.126	0.193	0.084
-240.917	-164.703	-0.175	0.008
-239.903	-140.434	0.360	-0.038
-238.888	408.632	0.091	0.192
-237.873	-73.680	0.161	0.059
-236.859	-160.425	-0.162	-0.009
-235.844	-121.576	-0.412	0.068
-234.830	299.386	-0.167	0.308
-233.815	-66.388	0.021	-0.008
-232.800	-200.000	0.034	-0.394
-231.786	48.479	-0.113	-0.106
-230.771	200.834	-0.013	-0.020
-229.757	401.098	-0.048	0.100
-228.742	-107.057	0.202	0.045
-227.727	800.000	-0.049	0.147
-226.713	-42.260	0.210	-0.107
-225.698	86.793	0.262	0.289
-224.684	-126.014	-0.221	-0.033
-223.669	267.135	0.118	-0.206
-222.655	2.011	0.176	-0.127
-221.640	-200.000	0.029	0.291
-220.625	-65.915	0.234	-0.094
-219.611	-200.000	0.027	-0.131
-218.596	-200.000	0.012	0.061
-217.582	-24.610	-0.336	-0.200
-216.567	10.045	-0.107	0.081
-215.552	137.896	-0.073	0.095
-214.538	-125.749	-0.531	-0.080
-213.523	-76.644	-0.104	0.037
-212.509	-0.756	0.183	0.130
-211.494	32.870	-0.269	0.233
-210.479	32.870	-0.321	0.277
-209.465	376.337	0.033	0.068
-208.450	28.865	0.218	-0.185
-207.436	348.566	-0.046	0.092
-206.421	800.000	0.035	0.102
-205.406	-88.950	0.109	0.032
-204.392	-48.166	-0.290	0.140
-203.377	-74.701	0.243	-0.087
-202.363	467.587	-0.089	0.199
-201.348	137.793	0.307	0.401
-200.333	151.829	0.117	0.160
-199.319	-87.214	0.085	0.026
-198.304	-200.000	0.001	-0.092
-197.290	187.259	-0.132	0.197
-196.275	504.464	0.070	-0.161
-195.260	-36.534	-0.236	0.127
-194.246	-169.344	0.145	-0.005
-193.231	-129.621	-0.097	-0.013
-192.217	-120.342	0.209	0.035
-191.202	6.999	-0.252	0.188
-190.187	19.648	0.094	-0.076
-189.173	5.781	0.226	-0.167
-188.158	47.255	-0.137	0.127
-187.144	-200.000	0.037	0.246
-186.129	35.355	0.054	0.048
-185.114	-95.476	-0.190	0.051
-184.100	-126.195	0.316	0.047
-183.085	288.453	0.138	0.249
-182.071	82.447	0.190	-0.206
-181.056	102.282	-0.133	0.155
-180.042	-200.000	-0.037	-0.250
-179.027	-200.000	-0.014	0.152
-178.012	-200.000	0.009	-0.139
-176.998	-38.371	0.229	-0.121
-175.983	-106.489	-0.255	0.057
-174.969	165.794	-0.196	-0.277
-173.954	-69.953	-0.037	0.014
-172.939	48.432	0.311	-0.291
-171.925	743.458	0.095	-0.256
-170.910	305.541	0.117	0.217
-169.896	145.211	-0.089	0.118
-168.881	-77.745	-0.179	0.062
-167.866	-79.691	-0.175	-0.059
-166.852	71.920	-0.149	0.155
-165.837	-137.609	0.295	0.033
-164.823	-196.109	0.264	-0.002
-163.808	-200.000	-0.006	0.314
-162.793	307.722	-0.050	-0.093
-161.779	230.452	-0.078	0.127
-160.764	-100.457	-0.184	-0.045
-159.750	-81.626	0.306	0.100
-158.735	40.652	0.320	0.288
-157.720	377.992	-0.058	-0.118
-156.706	-59.391	0.241	0.103
-155.691	-177.387	-0.228	-0.006
-154.677	-97.827	-0.199	0.051
-153.662	-4.071	-0.051	-0.035
-152.647	-200.000	0.040	-0.257
-151.633	0.003	0.235	-0.167
-150.618	800.000	-0.056	0.160
-149.604	-129.196	0.290	-0.040
-148.589	-45.056	-0.099	0.049
-147.574	167.487	-0.148	0.210
-146.560	-28.290	0.388	-0.223
-145.545	-200.000	-0.009	0.149
-144.531	69.840	0.267	0.274
-143.516	-26.785	0.306	-0.178
-142.502	-162.339	0.225	-0.011
-141.487	-101.623	-0.337	0.081
-140.472	14.611	-0.063	-0.049
-139.458	-172.539	0.067	0.002
-138.443	-110.423	0.132	0.027
-137.429	166.108	-0.086	-0.121
-136.414	800.000	-0.031	-0.095
-135.399	286.949	0.125	-0.224
-134.385	-10.082	-0.059	-0.039
-133.370	294.309	0.102	-0.185
-132.356	1.700	0.108	-0.077
-131.341	-92.884	-0.112	-0.031
-130.326	-200.000	-0.032	0.347
-129.312	68.645	-0.189	0.193
-128.297	-47.717	0.261	-0.126
-127.283	393.361	-0.070	-0.144
-126.268	147.023	-0.038	-0.050
-125.253	-145.110	-0.217	0.020
-124.239	-200.000	0.016	0.118
-123.224	195.169	-0.129	-0.196
-122.210	-54.780	0.274	-0.123
-121.195	253.671	-0.131	0.224
