DTS Sentinel unit serial number:	SN413079Multiplexer serial number:	ORYXHardware model number:	OX4-SRSoftware version number:	ORYX F/W v4.00 Oryx Data Collector v3.7.2.0data status	okinstallation	princeton_trtdifferential loss correction	single-endedforward channel	channel 3reverse channel	N/Adate	2019/09/12time	06:10:11forward acquisition time	60.00reverse acquisition time	0.00gamma	496.2192k internal	0.2320k external	0.2320temperature offset calibration	1.0031default loss term (dB/km)	0.3790temperature slope calibration	1.0000multiplexer offset coefficient	1.0000multiplexer slope coefficient	1.0000fibre end	0.00T internal ref (°C)	32.12T ext. ref 1 (°C)	1.54T ext. ref 2 (°C)	27.36length (m)	temperature (°C)	Stokes	anti-Stokes-747.200	38.210	0.211	0.190
-746.185	198.380	-0.160	0.248
-745.171	-50.997	-0.110	0.052
-744.156	110.657	-0.188	0.228
-743.142	42.332	-0.088	0.081
-742.127	200.891	0.201	0.312
-741.112	-200.000	-0.001	0.130
-740.098	-146.613	-0.414	0.036
-739.083	54.499	-0.200	0.195
-738.069	-200.000	-0.097	0.442
-737.054	-200.000	0.019	0.153
-736.039	-69.793	-0.335	0.129
-735.025	75.224	-0.169	0.180
-734.010	-53.415	-0.071	-0.033
-732.996	-67.229	0.159	-0.063
-731.981	800.000	-0.028	0.119
-730.966	104.571	0.139	-0.166
-729.952	0.448	0.118	-0.085
-728.937	800.000	0.038	-0.129
-727.923	250.784	0.139	-0.238
-726.908	-8.359	-0.155	-0.105
-725.894	78.340	0.097	-0.105
-724.879	-200.000	0.011	0.156
-723.864	66.516	0.091	-0.094
-722.850	2.474	0.358	0.262
-721.835	475.747	-0.067	0.153
-720.821	-57.273	-0.100	-0.045
-719.806	-80.382	-0.208	-0.070
-718.791	129.676	0.215	-0.278
-717.777	110.011	0.023	0.028
-716.762	-123.419	-0.509	-0.082
-715.748	775.346	0.084	-0.231
-714.733	-5.903	-0.058	-0.040
-713.718	-80.896	-0.365	-0.122
-712.704	35.091	-0.211	0.186
-711.689	231.842	0.270	-0.447
-710.675	0.216	-0.042	0.030
-709.660	5.001	-0.028	0.020
-708.645	-200.000	-0.011	-0.163
-707.631	-25.062	0.129	0.077
-706.616	-55.468	-0.199	0.090
-705.602	800.000	-0.009	0.032
-704.587	-200.000	-0.001	0.065
-703.572	-29.051	-0.116	-0.067
-702.558	-140.153	-0.154	0.016
-701.543	-38.660	0.255	0.136
-700.529	-73.332	0.126	-0.047
-699.514	-102.837	0.093	0.022
-698.499	-23.952	-0.366	-0.221
-697.485	-92.731	0.231	-0.065
-696.470	22.972	-0.359	0.297
-695.456	-176.196	0.162	0.004
-694.441	796.220	-0.019	0.052
-693.426	62.823	0.224	0.226
-692.412	-23.345	-0.255	-0.155
-691.397	-200.000	-0.018	0.431
-690.383	46.994	-0.154	0.144
-689.368	-153.412	-0.347	-0.024
-688.354	213.490	-0.130	-0.207
-687.339	-47.099	0.059	-0.029
-686.324	73.874	-0.110	-0.116
-685.310	-200.000	-0.008	-0.093
-684.295	76.196	0.116	-0.123
-683.281	-64.728	-0.326	-0.133
-682.266	100.893	-0.133	-0.156
-681.251	-200.000	-0.009	0.103
-680.237	-200.000	0.140	-0.000
-679.222	47.579	-0.039	0.037
-678.208	-44.881	-0.493	0.248
-677.193	-1.398	0.164	-0.117
-676.178	-25.263	-0.094	-0.056
-675.164	283.328	-0.252	-0.457
-674.149	-114.103	-0.195	0.038
-673.135	108.407	-0.178	-0.215
-672.120	800.000	-0.013	0.036
-671.105	-44.865	-0.299	0.150
-670.091	-129.040	0.075	0.011
-669.076	-35.222	-0.286	0.157
-668.062	-200.000	-0.018	-0.196
-667.047	248.406	0.267	0.456
-666.032	29.397	0.280	0.240
-665.018	-95.322	-0.265	0.072
-664.003	-200.000	-0.053	-0.435
-662.989	800.000	0.044	-0.175
-661.974	-200.000	-0.035	-0.184
-660.959	768.063	0.170	-0.467
-659.945	63.399	-0.070	0.071
-658.930	365.946	-0.165	0.335
-657.916	-200.000	0.001	-0.095
-656.901	-16.986	-0.060	-0.038
-655.886	-200.000	0.008	0.131
-654.872	-37.597	0.256	-0.137
-653.857	170.515	-0.141	-0.204
-652.843	-200.000	0.002	0.067
-651.828	-200.000	0.036	0.163
-650.814	9.653	-0.228	-0.174
-649.799	16.789	0.142	-0.113
-648.784	-86.432	-0.097	0.030
-647.770	-35.735	-0.008	-0.004
-646.755	-65.116	0.083	-0.034
-645.741	-136.962	0.097	0.011
-644.726	314.072	0.125	0.237
-643.711	7.099	-0.206	0.155
-642.697	393.106	-0.078	-0.163
-641.682	-10.102	-0.287	-0.192
-640.668	603.123	-0.115	0.289
-639.653	-200.000	-0.001	0.024
-638.638	620.776	0.073	-0.184
-637.624	-194.215	0.147	0.001
-636.609	-43.340	-0.403	-0.205
-635.595	77.841	0.086	0.092
-634.580	-51.309	-0.043	0.020
-633.565	-200.000	0.025	-0.337
-632.551	612.002	-0.138	-0.348
-631.536	102.101	-0.106	0.124
-630.522	-15.840	-0.236	-0.151
-629.507	484.290	-0.127	0.291
-628.492	141.818	0.061	0.082
-627.478	63.746	0.106	-0.107
-626.463	-200.000	-0.020	-0.138
-625.449	-60.385	-0.478	0.205
-624.434	110.240	-0.222	-0.269
-623.419	-200.000	0.023	-0.189
-622.405	311.763	-0.179	-0.339
-621.390	41.960	-0.223	0.203
-620.376	-81.957	-0.158	0.052
-619.361	3.512	0.124	-0.091
-618.346	43.096	-0.193	0.177
-617.332	761.233	0.124	0.339
-616.317	133.079	-0.116	-0.151
-615.303	-76.122	0.259	-0.092
-614.288	-3.509	0.166	-0.116
-613.273	-200.000	-0.004	0.205
-612.259	800.000	0.016	0.064
-611.244	30.986	0.060	0.052
-610.230	-77.541	-0.434	-0.151
-609.215	-53.492	0.226	-0.104
-608.201	800.000	-0.033	-0.097
-607.186	-200.000	0.035	-0.250
-606.171	27.050	0.210	-0.177
-605.157	-200.000	-0.046	-0.275
-604.142	305.480	-0.095	0.178
-603.128	50.888	-0.092	-0.087
-602.113	-139.650	0.075	-0.008
-601.098	-103.848	0.135	0.032
-600.084	-32.443	0.139	-0.078
-599.069	-146.035	-0.108	-0.010
-598.055	117.962	-0.062	0.077
-597.040	-82.793	0.121	0.039
-596.025	-50.787	-0.128	0.060
-595.011	-130.527	0.249	-0.034
-593.996	-200.000	-0.027	0.419
-592.982	-17.158	-0.244	-0.154
-591.967	-200.000	0.058	0.437
-590.952	142.361	-0.093	0.124
-589.938	-90.495	0.298	-0.087
-588.923	800.000	-0.065	0.193
-587.909	-100.979	0.143	-0.035
-586.894	108.629	-0.127	-0.153
-585.879	291.108	-0.192	-0.351
-584.865	-200.000	-0.019	-0.137
-583.850	-193.661	0.314	-0.003
-582.836	-25.708	-0.281	0.167
-581.821	-13.414	-0.126	0.082
-580.806	-137.807	0.088	-0.010
-579.792	142.899	0.102	-0.136
-578.777	-79.919	-0.556	0.188
-577.763	52.330	0.382	0.366
-576.748	-200.000	0.005	-0.101
-575.733	504.440	-0.130	0.303
-574.719	-154.651	0.333	0.022
-573.704	-63.668	-0.114	-0.047
-572.690	-1.990	0.187	-0.132
-571.675	-44.123	0.185	0.093
-570.661	12.978	0.156	0.121
-569.646	-125.330	0.218	-0.033
-568.631	-116.749	-0.175	-0.032
-567.617	18.786	0.281	0.226
-566.602	12.732	-0.209	0.162
-565.588	800.000	-0.128	0.368
-564.573	800.000	0.059	0.193
-563.558	290.730	0.074	0.134
-562.544	-200.000	-0.094	-0.458
-561.529	51.660	-0.197	-0.189
-560.515	-200.000	0.012	-0.192
-559.500	-24.873	-0.137	0.082
-558.485	558.074	0.106	0.256
-557.471	800.000	0.051	-0.159
-556.456	530.546	-0.034	-0.080
-555.442	665.052	0.040	0.104
-554.427	329.297	-0.040	-0.078
-553.412	-15.095	0.162	0.104
-552.398	-200.000	-0.062	0.294
-551.383	-130.979	-0.175	0.023
-550.369	800.000	0.043	0.186
-549.354	69.772	0.150	-0.155
-548.339	93.610	-0.170	-0.193
-547.325	135.775	0.170	-0.222
-546.310	223.167	-0.093	-0.151
-545.296	-99.474	0.437	-0.110
-544.281	53.222	-0.125	0.120
-543.266	-142.281	0.362	0.036
-542.252	-9.822	0.214	-0.143
-541.237	151.142	0.136	-0.186
-540.223	217.023	-0.188	-0.300
-539.208	9.229	-0.245	-0.186
-538.193	205.176	-0.333	0.518
-537.179	-20.875	-0.230	0.141
-536.164	-53.776	-0.168	0.077
-535.150	-159.622	-0.107	-0.006
-534.135	0.189	0.253	-0.181
-533.121	137.940	0.122	-0.160
-532.106	129.090	-0.121	0.155
-531.091	122.402	-0.250	0.314
-530.077	101.016	0.200	-0.234
-529.062	-112.299	-0.333	-0.067
-528.048	-11.024	-0.210	-0.139
-527.033	-160.292	-0.356	0.019
-526.018	215.664	0.067	0.107
-525.004	63.917	-0.165	-0.166
-523.989	-141.418	0.100	0.010
-522.975	800.000	0.072	-0.214
-521.960	-128.643	0.054	-0.008
-520.945	311.616	-0.047	0.089
-519.931	800.000	-0.019	-0.082
-518.916	-200.000	0.006	-0.250
-517.902	800.000	-0.041	-0.168
-516.887	-200.000	-0.004	-0.039
-515.872	245.725	-0.082	-0.139
-514.858	-200.000	0.010	0.224
-513.843	-200.000	-0.018	-0.239
-512.829	-117.107	0.403	-0.074
-511.814	-33.896	0.201	0.111
-510.799	-106.799	0.391	-0.087
-509.785	457.531	0.094	0.209
-508.770	12.582	-0.090	0.070
-507.756	88.624	-0.182	0.202
-506.741	-40.725	-0.209	-0.109
-505.726	-26.922	-0.262	-0.153
-504.712	119.435	0.107	-0.132
-503.697	103.101	-0.083	0.097
-502.683	240.358	0.081	-0.136
-501.668	-87.003	-0.018	-0.006
-500.653	-115.085	-0.302	0.057
-499.639	22.415	-0.209	0.171
-498.624	326.304	-0.171	0.328
-497.610	147.392	-0.295	-0.398
-496.595	275.897	-0.086	0.153
-495.581	-150.657	0.163	0.012
-494.566	114.348	0.170	0.207
-493.551	-164.661	0.272	0.012
-492.537	-115.371	0.180	0.034
-491.522	251.803	0.121	-0.206
-490.508	-72.439	-0.213	0.079
-489.493	-27.859	0.195	-0.113
-488.478	210.556	-0.118	-0.185
-487.464	800.000	-0.038	0.152
-486.449	800.000	0.039	-0.162
-485.435	-200.000	-0.031	-0.398
-484.420	-99.903	0.444	0.111
-483.405	28.846	-0.135	0.114
-482.391	1.097	-0.259	-0.186
-481.376	798.532	0.037	-0.102
-480.362	616.687	0.088	0.220
-479.347	-29.934	-0.221	-0.126
-478.332	-30.277	-0.327	0.186
-477.318	800.000	-0.052	-0.163
-476.303	-200.000	0.014	0.071
-475.289	448.798	0.095	0.210
-474.274	184.481	-0.060	-0.089
-473.259	-177.126	-0.191	0.005
-472.245	-112.518	-0.091	0.018
-471.230	-200.000	-0.002	-0.172
-470.216	73.840	0.165	0.173
-469.201	-200.000	0.013	-0.649
-468.186	-200.000	0.041	-0.249
-467.172	382.239	0.067	0.139
-466.157	800.000	0.028	-0.120
-465.143	-143.763	0.284	0.027
-464.128	-48.066	0.194	0.094
-463.113	-67.751	0.231	0.090
-462.099	-46.100	0.037	0.018
-461.084	-133.618	-0.043	0.005
-460.070	-191.192	0.243	0.003
-459.055	-200.000	-0.043	-0.268
-458.040	-120.706	-0.331	-0.056
-457.026	-200.000	-0.047	-0.311
-456.011	635.275	0.070	-0.178
-454.997	89.067	0.021	0.024
-453.982	9.847	-0.186	-0.141
-452.968	-64.639	-0.127	-0.051
-451.953	-15.144	-0.229	0.146
-450.938	564.325	0.136	-0.330
-449.924	-189.599	0.127	0.001
-448.909	-32.032	-0.147	0.082
-447.895	-11.767	-0.081	0.053
-446.880	-89.711	0.305	-0.089
-445.865	-200.000	0.022	-0.325
-444.851	26.294	0.050	-0.042
-443.836	-112.174	0.132	-0.027
-442.822	-81.423	-0.007	0.002
-441.807	158.521	0.113	0.157
-440.792	32.828	0.223	0.193
-439.778	241.946	0.026	-0.043
-438.763	176.587	0.041	0.060
-437.749	-72.104	-0.335	-0.124
-436.734	220.587	-0.087	0.140
-435.719	-200.000	-0.031	-0.161
-434.705	-200.000	0.023	0.207
-433.690	800.000	0.023	0.079
-432.676	236.917	0.246	-0.407
-431.661	488.848	0.075	0.170
-430.646	-93.219	0.213	0.059
-429.632	749.619	0.096	0.259
-428.617	-74.763	-0.232	0.083
-427.603	464.204	0.111	-0.248
-426.588	-97.903	-0.202	0.052
-425.573	17.507	0.264	0.210
-424.559	-82.143	-0.190	0.062
-423.544	800.000	-0.076	-0.246
-422.530	15.980	-0.135	0.106
-421.515	142.406	0.134	-0.177
-420.500	-103.364	-0.173	-0.041
-419.486	-200.000	0.009	0.386
-418.471	-80.653	-0.153	0.051
-417.457	-18.942	-0.237	-0.147
-416.442	800.000	0.094	0.371
-415.428	213.283	-0.066	-0.104
-414.413	10.625	0.339	0.258
-413.398	-200.000	0.010	0.202
-412.384	304.927	0.096	0.178
-411.369	-142.505	-0.088	0.009
-410.355	-55.042	0.242	0.109
-409.340	-200.000	-0.028	0.242
-408.325	8.560	-0.043	-0.032
-407.311	398.143	-0.058	-0.120
-406.296	50.631	0.139	-0.131
-405.282	800.000	0.091	0.263
-404.267	-57.489	0.091	-0.040
-403.252	77.040	-0.242	-0.256
-402.238	-21.484	0.358	-0.218
-401.223	153.791	0.138	-0.189
-400.209	67.402	0.221	-0.225
-399.194	-105.071	-0.085	-0.019
-398.179	46.184	0.027	0.025
-397.165	-123.447	0.214	-0.034
-396.150	-200.000	-0.074	0.000
-395.136	-200.000	-0.032	-0.304
-394.121	19.894	0.214	-0.172
-393.106	-106.541	0.153	0.034
-392.092	22.688	0.141	0.115
-391.077	800.000	-0.120	0.341
-390.063	532.796	-0.162	-0.383
-389.048	-15.388	-0.085	-0.054
-388.033	645.899	0.067	0.170
-387.019	800.000	-0.038	-0.113
-386.004	-68.876	0.476	0.183
-384.990	-200.000	0.017	-0.143
-383.975	-200.000	-0.024	0.112
-382.960	-155.322	0.236	0.015
-381.946	340.922	-0.156	0.303
-380.931	159.502	0.180	-0.250
-379.917	48.772	-0.135	-0.126
-378.902	800.000	0.066	-0.256
-377.888	513.652	0.040	-0.092
-376.873	-13.650	0.102	0.066
-375.858	-142.313	-0.192	0.019
-374.844	-22.841	0.253	-0.152
-373.829	-200.000	-0.028	-0.281
-372.815	-41.616	0.177	-0.090
-371.800	-19.991	0.047	0.029
-370.785	-57.026	-0.086	-0.038
-369.771	-200.000	-0.034	0.161
-368.756	116.739	-0.075	0.091
-367.742	-159.796	-0.358	0.020
-366.727	800.000	-0.055	-0.205
-365.712	-84.812	0.185	-0.058
-364.698	17.352	-0.052	0.041
-363.683	-200.000	-0.008	-0.109
-362.669	-200.000	-0.001	0.071
-361.654	526.990	0.119	-0.278
-360.639	-65.344	0.191	-0.076
-359.625	0.314	-0.083	-0.059
-358.610	-200.000	0.057	0.594
-357.596	570.738	-0.063	0.153
-356.581	197.183	0.088	-0.133
-355.566	800.000	-0.033	0.099
-354.552	-104.891	0.192	0.044
-353.537	-97.782	0.160	0.041
-352.523	800.000	0.080	0.231
-351.508	-93.937	-0.174	-0.048
-350.493	370.220	-0.086	-0.174
-349.479	-15.407	0.114	-0.073
-348.464	-200.000	-0.039	0.295
-347.450	800.000	0.051	0.168
-346.435	-200.000	-0.025	0.128
-345.420	102.560	-0.096	0.112
-344.406	-139.824	0.215	-0.023
-343.391	-119.264	0.244	-0.042
-342.377	-16.149	-0.172	-0.109
-341.362	-121.545	0.311	0.051
-340.348	144.899	-0.141	-0.188
-339.333	-168.399	0.490	0.019
-338.318	-82.900	-0.119	-0.038
-337.304	635.393	0.036	0.092
-336.289	651.586	0.049	0.124
-335.275	-110.789	-0.227	0.047
-334.260	478.577	-0.177	0.400
-333.245	62.844	0.070	-0.070
-332.231	-200.000	0.005	-0.028
-331.216	84.854	-0.150	0.164
-330.202	480.948	0.072	-0.162
-329.187	-139.528	-0.255	-0.027
-328.172	429.075	-0.161	0.346
-327.158	800.000	0.081	0.228
-326.143	-200.000	-0.045	0.234
-325.129	-33.318	0.101	-0.056
-324.114	135.668	0.095	0.123
-323.099	800.000	0.058	0.162
-322.085	-92.740	-0.189	0.053
-321.070	299.830	0.122	-0.225
-320.056	32.923	-0.154	-0.133
-319.041	4.814	0.357	0.261
-318.026	-78.513	-0.427	-0.145
-317.012	12.119	-0.047	-0.036
-315.997	-63.033	-0.104	0.043
-314.983	-97.011	-0.198	-0.051
-313.968	-33.314	0.126	0.069
-312.953	136.793	-0.053	-0.069
-311.939	44.803	0.043	0.039
-310.924	-113.002	0.138	0.027
-309.910	-17.868	0.143	-0.089
-308.895	-40.300	0.080	0.041
-307.880	800.000	0.053	-0.179
-306.866	603.603	0.062	0.152
-305.851	226.102	0.077	-0.125
-304.837	-200.000	0.020	0.146
-303.822	-200.000	0.064	0.394
-302.807	-141.394	-0.088	-0.009
-301.793	-174.999	-0.176	0.005
-300.778	-54.393	-0.077	-0.035
-299.764	-137.143	-0.331	-0.038
-298.749	141.472	0.145	0.191
-297.735	65.978	0.332	0.334
-296.720	-40.560	0.299	-0.154
-295.705	800.000	-0.022	-0.082
-294.691	800.000	0.062	0.240
-293.676	490.581	-0.071	-0.161
-292.662	9.173	-0.080	-0.060
-291.647	-31.955	0.238	0.132
-290.632	-118.058	0.039	-0.007
-289.618	63.707	0.159	0.158
-288.603	-200.000	0.005	0.214
-287.589	162.563	-0.073	0.102
-286.574	231.692	0.246	0.401
-285.559	-67.103	-0.212	0.083
-284.545	800.000	0.034	0.095
-283.530	-200.000	0.024	-0.131
-282.516	-107.751	0.106	-0.023
-281.501	-200.000	0.027	0.314
-280.486	136.874	0.060	-0.078
-279.472	-24.960	0.175	0.103
-278.457	-23.663	0.167	-0.099
-277.443	115.044	0.135	0.163
-276.428	-54.906	-0.086	0.039
-275.413	-200.000	-0.000	0.296
-274.399	180.648	-0.222	0.323
-273.384	800.000	0.021	-0.080
-272.370	-99.364	0.231	-0.058
-271.355	800.000	0.083	-0.248
-270.340	-200.000	-0.007	0.221
-269.326	-149.360	0.090	-0.007
-268.311	331.562	-0.095	0.181
-267.297	40.337	0.081	-0.072
-266.282	137.767	-0.151	-0.196
-265.267	800.000	0.078	-0.233
-264.253	-30.092	-0.067	0.038
-263.238	154.872	0.098	-0.134
-262.224	800.000	-0.108	0.339
-261.209	-62.712	-0.195	0.080
-260.195	262.121	-0.113	0.194
-259.180	-108.857	0.201	0.043
-258.165	-200.000	0.065	-0.311
-257.151	-19.823	-0.189	0.116
-256.136	-86.489	-0.087	0.026
-255.122	312.931	0.126	-0.235
-254.107	-52.678	0.357	-0.163
-253.092	-200.000	-0.055	0.380
-252.078	102.528	-0.114	0.132
-251.063	48.072	-0.199	0.184
-250.049	573.553	-0.124	0.300
-249.034	-200.000	0.025	-0.448
-248.019	-200.000	0.005	-0.129
-247.005	402.954	0.031	0.065
-245.990	585.941	-0.016	-0.039
-244.976	192.110	-0.149	-0.223
-243.961	141.358	0.172	-0.226
-242.946	800.000	0.084	0.333
-241.932	9.700	-0.148	-0.111
-240.917	-39.307	-0.172	0.090
-239.903	-89.216	0.102	-0.030
-238.888	197.889	-0.193	0.292
-237.873	289.739	0.034	-0.061
-236.859	205.153	0.218	-0.336
-235.844	800.000	0.060	-0.202
-234.830	-200.000	0.065	0.571
-233.815	-50.691	0.087	-0.041
-232.800	-66.076	0.162	-0.064
-231.786	-48.410	0.171	-0.082
-230.771	-102.550	0.242	-0.057
-229.757	15.124	-0.283	0.219
-228.742	-200.000	-0.004	-0.030
-227.727	370.992	-0.138	-0.277
-226.713	-58.341	-0.302	-0.130
-225.698	10.823	-0.167	0.126
-224.684	-200.000	-0.382	-0.002
-223.669	-143.105	-0.200	0.019
-222.655	-172.550	-0.298	0.009
-221.640	107.733	0.098	0.115
-220.625	800.000	0.105	-0.300
-219.611	153.732	-0.180	-0.245
-218.596	-89.746	-0.215	-0.062
-217.582	253.187	0.146	0.247
-216.567	-44.019	-0.277	0.138
-215.552	800.000	-0.025	0.068
-214.538	197.800	0.096	-0.146
-213.523	354.503	-0.186	0.365
-212.509	-195.114	0.378	-0.003
-211.494	-200.000	-0.017	-0.189
-210.479	-168.204	-0.216	0.008
-209.465	-137.214	-0.208	0.023
-208.450	-121.727	-0.398	0.065
-207.436	-18.397	0.200	0.124
-206.421	97.534	0.217	-0.246
-205.406	-156.709	-0.162	-0.010
-204.392	161.649	0.016	-0.022
-203.377	-24.544	-0.204	0.120
-202.363	656.625	0.128	0.327
-201.348	-93.712	-0.117	0.032
-200.333	-18.193	-0.087	0.054
-199.319	-127.869	0.114	0.016
-198.304	-0.846	0.406	-0.285
-197.290	143.720	-0.097	0.128
-196.275	-200.000	-0.014	-0.234
-195.260	800.000	-0.007	-0.029
-194.246	-112.746	-0.115	0.023
-193.231	-109.401	0.084	0.018
-192.217	-200.000	0.064	-0.385
-191.202	141.412	0.265	-0.347
-190.187	-62.560	-0.070	-0.029
-189.173	594.221	-0.042	-0.103
-188.158	-200.000	0.004	0.147
-187.144	-39.715	0.224	0.116
-186.129	-46.822	-0.165	0.080
-185.114	-200.000	0.005	-0.122
-184.100	16.931	0.213	-0.167
-183.085	9.994	-0.439	0.330
-182.071	-84.680	0.238	-0.074
-181.056	671.003	0.028	-0.073
-180.042	31.215	0.154	0.130
-179.027	-200.000	0.011	-0.085
-178.012	-54.159	0.125	-0.056
-176.998	50.268	0.311	0.290
-175.983	-200.000	-0.061	0.303
-174.969	208.642	-0.115	-0.178
-173.954	411.379	-0.043	0.091
-172.939	-101.513	-0.120	-0.029
-171.925	-200.000	-0.026	0.430
-170.910	-200.000	0.022	-0.130
-169.896	800.000	0.063	-0.174
-168.881	194.821	0.186	0.279
-167.866	-200.000	-0.030	-0.463
-166.852	229.076	0.145	-0.235
-165.837	351.842	-0.035	-0.068
-164.823	-200.000	-0.044	0.202
-163.808	-83.149	0.273	-0.087
-162.793	81.415	-0.149	-0.159
-161.779	-34.058	-0.100	-0.054
-160.764	-200.000	0.003	-0.048
-159.750	-200.000	-0.004	0.145
-158.735	-124.735	-0.780	0.119
-157.720	-106.924	0.106	0.023
-156.706	2.230	-0.270	-0.193
-155.691	-54.513	-0.379	-0.169
-154.677	228.304	-0.099	-0.159
-153.662	650.335	-0.018	0.045
-152.647	45.101	0.230	-0.210
-151.633	-182.467	0.358	0.007
-150.618	118.743	-0.143	-0.174
-149.604	79.386	0.061	0.065
-148.589	368.280	0.128	0.255
-147.574	619.309	0.058	-0.144
-146.560	-34.112	0.080	0.043
-145.545	-200.000	0.005	-0.204
-144.531	-102.363	-0.314	-0.074
-143.516	-95.021	0.160	0.043
-142.502	41.744	0.199	-0.178
-141.487	-200.000	0.017	0.138
-140.472	800.000	-0.074	0.228
-139.458	-30.953	-0.207	0.116
-138.443	205.237	-0.055	-0.084
-137.429	2.629	-0.150	-0.107
-136.414	11.844	0.073	-0.055
-135.399	-129.262	0.192	0.026
-134.385	118.776	-0.071	-0.087
-133.370	-117.801	0.158	-0.028
-132.356	-37.071	0.072	-0.038
-131.341	83.092	-0.229	-0.246
-130.326	-76.830	-0.174	0.060
-129.312	669.651	-0.100	0.255
-128.297	800.000	-0.062	-0.261
-127.283	15.910	-0.111	-0.086
-126.268	-200.000	-0.007	0.040
-125.253	800.000	0.074	0.243
-124.239	-166.042	-0.039	0.002
-123.224	-86.370	-0.219	-0.066
-122.210	2.421	-0.041	-0.029
-121.195	-44.486	0.287	0.142
