DTS Sentinel unit serial number:	SN413079Multiplexer serial number:	ORYXHardware model number:	OX4-SRSoftware version number:	ORYX F/W v4.00 Oryx Data Collector v3.7.2.0data status	okinstallation	princeton_trtdifferential loss correction	single-endedforward channel	channel 3reverse channel	N/Adate	2019/09/11time	05:22:11forward acquisition time	60.00reverse acquisition time	0.00gamma	496.2192k internal	0.2330k external	0.2330temperature offset calibration	0.9907default loss term (dB/km)	0.3790temperature slope calibration	1.0000multiplexer offset coefficient	1.0000multiplexer slope coefficient	1.0000fibre end	0.00T internal ref (°C)	29.44T ext. ref 1 (°C)	-0.25T ext. ref 2 (°C)	23.48length (m)	temperature (°C)	Stokes	anti-Stokes-747.200	800.000	-0.026	0.112
-746.185	-73.489	0.180	0.066
-745.171	399.652	-0.223	-0.470
-744.156	-98.864	0.203	-0.052
-743.142	576.510	-0.158	-0.389
-742.127	152.210	-0.059	0.081
-741.112	30.365	0.047	0.040
-740.098	-164.351	-0.156	-0.007
-739.083	-21.164	0.227	-0.140
-738.069	298.451	0.089	0.165
-737.054	22.847	0.240	0.198
-736.039	158.348	0.113	0.157
-735.025	-165.094	0.318	-0.014
-734.010	-86.442	0.172	-0.053
-732.996	-106.404	-0.378	-0.085
-731.981	128.292	0.143	0.183
-730.966	-200.000	-0.048	-0.330
-729.952	-61.198	-0.088	-0.037
-728.937	-51.241	-0.116	-0.055
-727.923	31.203	0.319	0.275
-726.908	64.417	0.085	0.087
-725.894	-76.075	-0.321	0.114
-724.879	-146.952	0.128	-0.011
-723.864	8.019	-0.167	0.126
-722.850	-52.740	-0.080	0.037
-721.835	190.043	0.035	0.052
-720.821	194.607	0.074	-0.113
-719.806	24.926	0.110	-0.092
-718.791	-200.000	-0.013	0.072
-717.777	-200.000	-0.007	-0.142
-716.762	-120.000	-0.069	-0.012
-715.748	-195.932	0.244	0.002
-714.733	24.299	-0.144	-0.120
-713.718	160.091	-0.068	0.096
-712.704	800.000	0.031	0.132
-711.689	-21.171	-0.113	-0.069
-710.675	29.002	0.136	-0.116
-709.660	112.849	0.048	0.058
-708.645	-200.000	0.002	0.188
-707.631	81.297	0.037	-0.040
-706.616	266.141	0.091	0.159
-705.602	-170.815	-0.188	0.006
-704.587	21.524	-0.397	0.325
-703.572	219.855	0.095	0.153
-702.558	210.844	0.128	-0.202
-701.543	800.000	-0.093	-0.301
-700.529	87.963	0.049	-0.055
-699.514	-15.591	-0.238	0.153
-698.499	437.978	0.195	0.427
-697.485	-87.772	0.223	-0.067
-696.470	111.905	0.063	-0.076
-695.456	-200.000	0.049	0.460
-694.441	12.788	-0.488	-0.379
-693.426	-200.000	0.031	0.169
-692.412	-120.110	-0.229	-0.039
-691.397	-200.000	0.023	0.149
-690.383	84.164	-0.233	-0.256
-689.368	-127.613	0.283	0.041
-688.354	50.040	-0.085	-0.081
-687.339	578.071	0.070	-0.171
-686.324	800.000	0.056	-0.206
-685.310	-200.000	0.155	0.001
-684.295	-2.228	-0.183	-0.129
-683.281	-200.000	-0.018	0.101
-682.266	17.812	-0.044	0.036
-681.251	-39.986	0.114	0.060
-680.237	-123.559	0.185	0.029
-679.222	800.000	0.096	-0.392
-678.208	145.679	-0.172	-0.232
-677.193	-120.851	0.221	-0.037
-676.178	-200.000	0.013	-0.230
-675.164	-154.111	-0.091	0.006
-674.149	800.000	-0.204	-0.609
-673.135	117.594	-0.249	-0.308
-672.120	-82.517	-0.316	-0.103
-671.105	232.639	0.153	0.253
-670.091	167.430	-0.236	-0.337
-669.076	-37.435	-0.320	0.172
-668.062	-97.861	-0.303	-0.079
-667.047	-40.633	0.198	0.103
-666.032	88.556	0.158	-0.177
-665.018	-8.096	0.154	-0.104
-664.003	-98.074	-0.182	-0.047
-662.989	-76.151	0.097	-0.034
-661.974	-200.000	-0.052	-0.281
-660.959	354.268	-0.042	-0.083
-659.945	-200.000	-0.047	-0.252
-658.930	92.801	-0.083	0.095
-657.916	-51.314	-0.077	0.036
-656.901	-60.136	-0.072	-0.031
-655.886	-52.171	0.150	0.070
-654.872	800.000	-0.034	0.112
-653.857	105.488	-0.151	-0.179
-652.843	-200.000	0.017	-0.160
-651.828	-6.589	-0.244	-0.166
-650.814	11.785	0.099	-0.077
-649.799	-200.000	0.007	-0.216
-648.784	-9.187	-0.283	-0.190
-647.770	-163.505	-0.245	0.012
-646.755	-138.338	0.116	-0.013
-645.741	365.963	-0.211	0.427
-644.726	177.988	0.126	-0.185
-643.711	-200.000	-0.057	-0.266
-642.697	65.193	-0.226	0.229
-641.682	-200.000	-0.055	0.255
-640.668	-200.000	-0.005	-0.041
-639.653	84.148	0.095	0.104
-638.638	-200.000	-0.005	-0.097
-637.624	-200.000	0.041	-0.346
-636.609	103.636	-0.112	-0.132
-635.595	-182.051	-0.303	-0.006
-634.580	-127.399	0.126	0.018
-633.565	-85.759	0.279	0.087
-632.551	11.260	-0.186	-0.142
-631.536	625.372	-0.039	0.099
-630.522	-200.000	0.026	0.204
-629.507	-54.089	0.236	-0.108
-628.492	-63.130	-0.231	0.095
-627.478	235.004	0.114	0.189
-626.463	-144.145	-0.213	-0.020
-625.449	-200.000	0.021	-0.324
-624.434	62.688	-0.056	0.056
-623.419	-200.000	0.012	-0.067
-622.405	-75.363	0.253	-0.090
-621.390	-77.337	0.300	-0.104
-620.376	-57.135	0.453	-0.200
-619.361	800.000	0.081	-0.294
-618.346	88.072	-0.169	-0.187
-617.332	-200.000	-0.011	-0.185
-616.317	-68.815	-0.257	0.099
-615.303	97.744	-0.349	-0.402
-614.288	-200.000	0.068	0.370
-613.273	800.000	0.097	-0.280
-612.259	-191.740	-0.131	0.001
-611.244	-6.459	0.195	0.133
-610.230	-200.000	-0.024	0.294
-609.215	-112.251	0.298	-0.060
-608.201	-2.085	-0.147	-0.103
-607.186	800.000	-0.023	0.066
-606.171	112.522	-0.135	0.164
-605.157	634.487	-0.062	0.156
-604.142	9.529	-0.257	0.195
-603.128	110.820	0.148	-0.178
-602.113	-171.905	-0.315	-0.010
-601.098	330.327	-0.056	-0.107
-600.084	800.000	-0.062	0.247
-599.069	-80.554	-0.375	-0.125
-598.055	800.000	0.070	-0.239
-597.040	-22.432	0.150	-0.091
-596.025	-200.000	-0.004	0.090
-595.011	-56.572	0.318	0.141
-593.996	668.857	-0.092	0.239
-592.982	-68.136	0.178	0.069
-591.967	-200.000	0.045	-0.302
-590.952	161.634	0.185	-0.259
-589.938	-111.616	-0.205	0.042
-588.923	-150.612	0.356	0.027
-587.909	800.000	-0.057	-0.170
-586.894	-71.356	0.159	-0.060
-585.879	-62.172	-0.228	0.095
-584.865	149.000	0.140	0.189
-583.850	-110.889	-0.259	0.053
-582.836	800.000	0.041	-0.132
-581.821	-143.554	0.336	-0.032
-580.806	-200.000	-0.048	0.766
-579.792	-200.000	-0.000	0.141
-578.777	-147.017	-0.252	-0.022
-577.763	-117.368	0.223	-0.040
-576.748	89.639	-0.163	0.181
-575.733	124.383	0.223	-0.281
-574.719	119.605	0.080	-0.099
-573.704	153.350	-0.100	-0.137
-572.690	112.411	-0.255	0.308
-571.675	371.851	-0.011	-0.022
-570.661	800.000	0.102	-0.331
-569.646	389.457	0.117	-0.242
-568.631	-146.968	-0.050	-0.004
-567.617	315.878	0.036	0.067
-566.602	144.076	-0.125	0.167
-565.588	-200.000	0.004	-0.123
-564.573	606.816	0.069	0.171
-563.558	37.382	-0.075	0.066
-562.544	800.000	0.086	0.331
-561.529	171.171	-0.042	0.060
-560.515	771.450	0.089	0.243
-559.500	78.026	-0.171	0.182
-558.485	-124.745	-0.167	0.026
-557.471	-174.036	-0.128	-0.004
-556.456	800.000	0.107	-0.340
-555.442	-200.000	0.048	0.346
-554.427	112.836	-0.050	-0.060
-553.412	-166.836	-0.275	-0.011
-552.398	-49.898	-0.183	0.087
-551.383	21.050	-0.125	-0.101
-550.369	-147.739	-0.095	-0.008
-549.354	-128.738	-0.230	-0.032
-548.339	-124.630	0.412	-0.064
-547.325	373.807	-0.067	0.135
-546.310	30.504	-0.178	-0.152
-545.296	-39.105	-0.187	-0.098
-544.281	-189.606	0.095	0.001
-543.266	360.855	-0.119	0.238
-542.252	-56.908	0.298	-0.131
-541.237	-21.283	0.141	-0.086
-540.223	580.844	-0.121	0.295
-539.208	13.128	0.159	-0.123
-538.193	291.591	0.179	-0.326
-537.179	-22.672	-0.234	-0.141
-536.164	800.000	0.043	0.134
-535.150	-200.000	0.007	0.220
-534.135	558.122	-0.086	-0.207
-533.121	23.236	0.181	-0.149
-532.106	242.956	-0.125	-0.209
-531.091	-200.000	-0.009	-0.059
-530.077	-143.024	0.064	0.006
-529.062	-168.926	-0.116	-0.004
-528.048	-42.212	-0.313	-0.160
-527.033	-199.728	-0.330	-0.002
-526.018	-200.000	-0.008	0.042
-525.004	-200.000	0.004	-0.208
-523.989	24.123	0.084	-0.069
-522.975	-72.915	-0.066	-0.024
-521.960	472.528	0.131	0.295
-520.945	-84.474	0.099	-0.031
-519.931	20.937	-0.220	-0.178
-518.916	46.546	0.116	-0.107
-517.902	800.000	-0.042	0.122
-516.887	-90.681	-0.096	0.028
-515.872	215.216	0.032	-0.050
-514.858	438.878	-0.082	-0.179
-513.843	523.641	-0.177	-0.415
-512.829	426.586	0.211	0.455
-511.814	-200.000	0.014	0.066
-510.799	95.735	-0.171	-0.194
-509.785	-200.000	0.005	0.086
-508.770	-45.589	0.328	0.162
-507.756	-200.000	-0.007	-0.279
-506.741	-200.000	0.005	-0.178
-505.726	127.206	-0.115	-0.145
-504.712	24.621	-0.291	-0.240
-503.697	53.223	0.200	0.191
-502.683	63.914	-0.194	-0.195
-501.668	800.000	-0.024	0.085
-500.653	-27.655	0.049	-0.028
-499.639	-55.030	-0.046	-0.020
-498.624	-200.000	0.012	0.099
-497.610	800.000	-0.099	-0.400
-496.595	-200.000	0.048	0.241
-495.581	800.000	0.113	0.411
-494.566	-94.624	0.185	-0.050
-493.551	-200.000	-0.002	-0.055
-492.537	800.000	-0.022	0.061
-491.522	-25.725	-0.186	-0.109
-490.508	-87.531	0.243	-0.073
-489.493	-89.243	-0.563	0.166
-488.478	-152.517	0.573	-0.041
-487.464	-5.142	-0.100	0.069
-486.449	-12.665	-0.316	-0.206
-485.435	-200.000	-0.020	0.249
-484.420	623.558	0.150	0.376
-483.405	361.566	0.040	-0.080
-482.391	285.299	0.129	-0.232
-481.376	108.206	-0.132	-0.157
-480.362	357.536	-0.046	-0.091
-479.347	-30.613	-0.173	-0.098
-478.332	-200.000	-0.026	0.190
-477.318	-51.805	0.012	0.006
-476.303	800.000	0.021	0.083
-475.289	-28.471	-0.041	-0.023
-474.274	-159.337	0.145	-0.008
-473.259	800.000	0.042	-0.155
-472.245	542.804	0.104	0.248
-471.230	81.274	-0.209	0.225
-470.216	-90.817	-0.224	0.064
-469.201	84.707	0.237	0.259
-468.186	-35.741	0.304	0.164
-467.172	60.025	0.186	-0.183
-466.157	-44.171	-0.309	-0.154
-465.143	309.285	0.068	0.127
-464.128	27.801	-0.248	-0.208
-463.113	-51.021	-0.103	-0.048
-462.099	-22.413	-0.291	0.176
-461.084	-38.334	0.263	0.138
-460.070	35.095	0.051	0.045
-459.055	165.721	0.106	-0.149
-458.040	65.858	-0.149	-0.150
-457.026	800.000	0.065	0.220
-456.011	800.000	-0.064	-0.191
-454.997	-14.702	-0.093	-0.059
-453.982	108.599	0.081	-0.096
-452.968	-25.745	0.167	0.098
-451.953	-13.818	0.172	-0.110
-450.938	-32.303	-0.133	-0.074
-449.924	-200.000	0.023	0.265
-448.909	-121.494	-0.061	0.010
-447.895	-98.988	0.138	0.035
-446.880	44.798	0.088	0.081
-445.865	-44.522	-0.138	-0.069
-444.851	253.358	0.072	-0.123
-443.836	-41.447	0.150	0.077
-442.822	28.052	0.168	-0.141
-441.807	-157.330	-0.212	0.013
-440.792	3.393	0.182	-0.132
-439.778	-200.000	-0.005	0.088
-438.763	255.841	0.082	0.140
-437.749	254.116	-0.092	0.156
-436.734	10.722	0.045	-0.034
-435.719	-50.744	0.162	0.076
-434.705	230.686	-0.168	-0.273
-433.690	-66.624	0.252	-0.099
-432.676	438.943	0.046	0.100
-431.661	-56.032	0.035	-0.015
-430.646	-200.000	0.019	-0.133
-429.632	41.923	-0.233	-0.210
-428.617	800.000	-0.088	0.370
-427.603	-75.237	0.136	-0.048
-426.588	-200.000	-0.003	-0.111
-425.573	381.805	0.087	0.178
-424.559	-113.594	-0.314	-0.061
-423.544	-22.068	0.044	-0.027
-422.530	-72.225	0.120	0.044
-421.515	-76.878	-0.218	-0.076
-420.500	-178.191	-0.402	0.009
-419.486	-200.000	-0.004	-0.091
-418.471	-45.075	-0.390	-0.193
-417.457	-200.000	0.008	0.106
-416.442	-127.214	-0.159	0.023
-415.428	-70.750	0.273	-0.103
-414.413	800.000	-0.058	0.192
-413.398	461.100	0.052	-0.115
-412.384	449.878	0.069	0.151
-411.369	-108.949	0.169	0.036
-410.355	213.735	0.098	0.154
-409.340	-94.032	-0.110	-0.030
-408.325	-101.832	-0.046	-0.011
-407.311	12.638	-0.156	-0.120
-406.296	-80.668	-0.180	0.059
-405.282	-174.427	0.311	0.009
-404.267	-200.000	-0.019	0.239
-403.252	3.625	0.060	0.043
-402.238	-99.818	0.106	-0.026
-401.223	800.000	-0.031	0.088
-400.209	-200.000	0.044	0.307
-399.194	-105.658	-0.218	0.049
-398.179	88.302	-0.104	-0.115
-397.165	606.227	0.078	-0.194
-396.150	800.000	-0.017	-0.065
-395.136	-99.495	0.177	-0.044
-394.121	-119.632	0.204	0.035
-393.106	-60.961	0.172	-0.072
-392.092	565.919	0.124	0.299
-391.077	-44.066	0.304	-0.152
-390.063	165.187	-0.086	0.121
-389.048	-58.898	0.380	0.163
-388.033	800.000	-0.114	-0.330
-387.019	-100.723	0.069	-0.017
-386.004	-62.080	0.113	-0.047
-384.990	-200.000	0.018	0.138
-383.975	115.868	-0.163	0.198
-382.960	78.058	0.107	-0.113
-381.946	-44.792	0.480	0.237
-380.931	-200.000	0.025	0.154
-379.917	-7.693	0.242	-0.162
-378.902	0.878	-0.034	-0.024
-377.888	415.818	-0.066	0.140
-376.873	-47.946	0.069	0.033
-375.858	-66.929	0.245	0.096
-374.844	34.042	-0.099	0.086
-373.829	-146.982	-0.350	0.030
-372.815	-124.287	0.088	-0.014
-371.800	-1.611	0.103	-0.072
-370.785	768.312	-0.049	-0.133
-369.771	217.608	-0.074	-0.117
-368.756	469.696	-0.023	0.052
-367.742	-200.000	-0.048	-0.326
-366.727	-55.505	0.199	0.088
-365.712	107.282	-0.093	0.109
-364.698	-148.498	0.148	0.012
-363.683	-118.900	-0.169	-0.030
-362.669	-200.000	-0.033	-0.143
-361.654	66.910	-0.107	-0.108
-360.639	-62.710	-0.010	0.004
-359.625	-96.900	0.313	-0.081
-358.610	650.161	-0.116	-0.296
-357.596	-49.222	0.264	-0.125
-356.581	-84.878	0.360	0.112
-355.566	222.503	-0.068	-0.108
-354.552	-200.000	0.053	-0.285
-353.537	-65.423	-0.055	-0.022
-352.523	-187.546	-0.487	-0.006
-351.508	38.525	0.251	-0.222
-350.493	800.000	-0.016	-0.054
-349.479	-200.000	0.054	0.258
-348.464	44.770	-0.176	0.160
-347.450	-200.000	-0.003	0.080
-346.435	15.217	0.236	-0.184
-345.420	-200.000	0.045	-0.226
-344.406	800.000	0.065	-0.193
-343.391	106.301	-0.011	0.013
-342.377	-200.000	0.065	-0.341
-341.362	-191.698	0.055	-0.001
-340.348	-200.000	0.031	-0.182
-339.333	8.781	-0.214	-0.159
-338.318	-113.393	0.099	-0.019
-337.304	78.499	-0.079	-0.084
-336.289	14.395	-0.223	0.173
-335.275	-142.283	0.266	-0.026
-334.260	583.295	0.104	-0.253
-333.245	132.673	-0.028	-0.036
-332.231	7.125	-0.179	-0.132
-331.216	-4.542	-0.245	-0.168
-330.202	-14.230	-0.186	0.119
-329.187	68.171	0.092	0.094
-328.172	9.439	-0.106	-0.080
-327.158	-13.040	-0.234	-0.151
-326.143	-167.941	-0.190	0.007
-325.129	800.000	0.089	-0.266
-324.114	-188.677	0.033	0.000
-323.099	331.016	0.142	-0.271
-322.085	58.873	0.071	-0.069
-321.070	-57.318	0.123	-0.054
-320.056	-200.000	-0.043	-0.438
-319.041	216.846	-0.091	-0.144
-318.026	-187.249	-0.284	0.004
-317.012	-60.694	0.203	0.085
-315.997	-200.000	0.051	0.239
-314.983	-19.778	-0.199	-0.122
-313.968	29.336	0.314	-0.264
-312.953	800.000	0.049	-0.171
-311.939	30.862	0.226	-0.192
-310.924	-105.687	-0.144	-0.032
-309.910	-200.000	0.016	-0.207
-308.895	-200.000	0.002	0.052
-307.880	800.000	0.114	0.384
-306.866	-200.000	-0.024	0.325
-305.851	-7.595	0.258	0.173
-304.837	-200.000	-0.010	0.291
-303.822	800.000	0.054	0.216
-302.807	800.000	-0.038	-0.109
-301.793	-200.000	0.000	0.077
-300.778	73.477	0.082	0.085
-299.764	-28.587	-0.236	0.135
-298.749	-144.524	-0.097	-0.009
-297.735	84.467	0.034	0.037
-296.720	-24.745	0.166	0.097
-295.705	-142.649	0.269	-0.026
-294.691	43.264	0.048	0.043
-293.676	-25.582	-0.399	0.233
-292.662	800.000	0.023	0.067
-291.647	-2.500	-0.127	0.088
-290.632	-26.080	-0.469	-0.273
-289.618	-12.483	0.256	-0.165
-288.603	-147.019	0.337	0.029
-287.589	800.000	-0.110	0.313
-286.574	-200.000	0.034	0.499
-285.559	-135.174	-0.275	-0.033
-284.545	59.761	0.191	-0.186
-283.530	41.522	0.181	-0.162
-282.516	800.000	-0.087	-0.290
-281.501	-10.946	-0.182	0.118
-280.486	-200.000	0.017	-0.325
-279.472	-200.000	0.023	0.144
-278.457	-64.185	0.047	0.019
-277.443	-147.389	0.066	-0.006
-276.428	587.629	-0.016	0.039
-275.413	-98.715	0.241	0.061
-274.399	-136.679	0.049	-0.006
-273.384	229.082	-0.015	-0.024
-272.370	-200.000	0.027	0.253
-271.355	-93.573	-0.396	0.108
-270.340	-200.000	-0.032	0.194
-269.326	-52.406	0.246	0.113
-268.311	-156.007	0.473	0.030
-267.297	800.000	0.045	-0.170
-266.282	96.966	-0.265	0.300
-265.267	-122.611	-0.102	-0.016
-264.253	672.975	0.137	0.351
-263.238	-10.459	0.114	0.075
-262.224	-34.940	0.288	-0.155
-261.209	-90.063	-0.191	-0.055
-260.195	800.000	-0.057	-0.218
-259.180	-125.856	-0.110	-0.016
-258.165	-200.000	0.002	0.036
-257.151	12.628	-0.234	-0.179
-256.136	24.569	0.195	-0.159
-255.122	-154.521	0.255	-0.017
-254.107	6.476	-0.289	-0.212
-253.092	24.586	0.166	-0.135
-252.078	-81.420	0.045	0.015
-251.063	800.000	-0.016	0.058
-250.049	800.000	-0.052	0.176
-249.034	-16.942	0.233	0.145
-248.019	679.247	-0.094	-0.242
-247.005	-67.149	-0.220	0.086
-245.990	-166.334	-0.185	-0.008
-244.976	786.167	0.080	0.216
-243.961	-54.999	-0.229	-0.102
-242.946	-16.503	-0.108	0.068
-241.932	-200.000	0.042	-0.229
-240.917	96.599	0.234	0.264
-239.903	-200.000	0.036	0.162
-238.888	14.269	0.245	0.188
-237.873	306.666	0.059	-0.109
-236.859	350.928	0.074	-0.145
-235.844	-200.000	-0.015	0.339
-234.830	233.426	0.084	-0.136
-233.815	65.756	-0.093	0.093
-232.800	-95.007	-0.102	-0.027
-231.786	-200.000	-0.017	0.188
-230.771	-200.000	0.013	-0.125
-229.757	-79.155	-0.181	0.061
-228.742	-37.410	-0.259	-0.137
-227.727	800.000	-0.055	-0.164
-226.713	-101.540	0.066	0.016
-225.698	44.136	-0.278	0.251
-224.684	800.000	0.080	0.289
-223.669	129.788	-0.070	0.088
-222.655	-200.000	0.440	-0.000
-221.640	-90.103	0.234	0.067
-220.625	152.177	-0.202	-0.272
-219.611	-77.177	0.168	0.058
-218.596	-55.700	0.106	-0.047
-217.582	-72.217	-0.229	-0.084
-216.567	1.899	-0.073	-0.052
-215.552	4.669	-0.259	0.187
-214.538	175.579	-0.079	-0.113
-213.523	-200.000	-0.001	0.253
-212.509	-200.000	-0.045	0.493
-211.494	-53.241	0.355	0.161
-210.479	-130.653	-0.356	-0.047
-209.465	-40.255	-0.648	0.332
-208.450	-58.883	0.237	-0.101
-207.436	-176.350	0.112	0.003
-206.421	-34.588	-0.209	-0.113
-205.406	-47.733	0.107	0.051
-204.392	34.163	-0.244	0.210
-203.377	8.912	0.203	-0.151
-202.363	-59.030	0.231	0.098
-201.348	-123.385	0.220	0.035
-200.333	92.895	-0.035	0.039
-199.319	-60.592	0.251	0.105
-198.304	-82.365	0.577	0.185
-197.290	-22.796	-0.054	0.032
-196.275	16.473	-0.301	-0.234
-195.260	-200.000	-0.008	-0.240
-194.246	-112.088	-0.241	0.048
-193.231	182.513	0.139	0.201
-192.217	-70.483	-0.119	0.044
-191.202	-200.000	0.037	0.290
-190.187	-200.000	-0.018	0.099
-189.173	62.248	-0.062	0.061
-188.158	800.000	-0.113	-0.440
-187.144	-47.634	-0.095	-0.046
-186.129	-147.178	0.133	-0.011
-185.114	-107.712	-0.245	0.053
-184.100	111.317	0.006	-0.007
-183.085	-55.778	-0.123	-0.054
-182.071	33.567	-0.141	0.121
-181.056	800.000	-0.020	-0.085
-180.042	-13.172	0.144	-0.092
-179.027	800.000	-0.081	0.320
-178.012	-141.881	0.188	0.019
-176.998	800.000	-0.106	0.312
-175.983	-8.570	0.020	-0.013
-174.969	14.510	-0.272	-0.209
-173.954	62.891	0.103	0.102
-172.939	209.491	-0.083	-0.128
-171.925	800.000	0.167	0.487
-170.910	611.019	0.066	-0.161
-169.896	179.680	-0.100	0.144
-168.881	-172.593	0.471	0.015
-167.866	49.448	0.119	0.110
-166.852	-78.294	-0.412	0.139
-165.837	585.972	-0.165	0.398
-164.823	83.132	0.104	0.111
-163.808	30.742	-0.222	-0.187
-162.793	-162.988	-0.063	0.003
-161.779	-91.831	0.205	0.057
-160.764	0.193	0.132	-0.093
-159.750	-200.000	-0.044	0.192
-158.735	800.000	0.053	0.222
-157.720	-200.000	-0.014	0.118
-156.706	-81.617	0.300	-0.097
-155.691	265.406	0.111	-0.190
-154.677	273.766	-0.265	-0.462
-153.662	-2.147	0.251	-0.173
-152.647	102.058	0.123	-0.141
-151.633	-59.933	0.239	-0.100
-150.618	-200.000	0.044	-0.223
-149.604	-200.000	-0.026	0.164
-148.589	58.378	-0.118	0.114
-147.574	-117.609	0.191	-0.034
-146.560	-83.125	0.111	-0.035
-145.545	147.030	-0.191	0.253
-144.531	800.000	0.124	-0.338
-143.516	800.000	0.080	-0.267
-142.502	22.747	-0.217	0.175
-141.487	-0.185	0.231	0.162
-140.472	40.423	0.099	0.087
-139.458	-200.000	-0.034	-0.288
-138.443	-200.000	0.055	-0.356
-137.429	-48.885	0.221	-0.104
-136.414	-36.579	-0.257	0.136
-135.399	654.416	-0.024	0.061
-134.385	-50.809	0.309	0.143
-133.370	-200.000	-0.041	0.206
-132.356	343.934	0.097	-0.187
-131.341	-93.790	0.138	-0.037
-130.326	8.296	-0.220	-0.163
-129.312	94.085	0.175	0.196
-128.297	-9.109	-0.270	-0.177
-127.283	-200.000	0.016	0.342
-126.268	4.481	-0.106	0.077
-125.253	-98.651	-0.301	-0.075
-124.239	-97.828	0.251	0.064
-123.224	2.306	0.223	0.159
-122.210	-20.257	-0.121	0.073
-121.195	-200.000	-0.001	0.314
