DTS Sentinel unit serial number:	SN413079Multiplexer serial number:	ORYXHardware model number:	OX4-SRSoftware version number:	ORYX F/W v4.00 Oryx Data Collector v3.7.2.0data status	okinstallation	princeton_trtdifferential loss correction	single-endedforward channel	channel 3reverse channel	N/Adate	2019/09/11time	14:38:11forward acquisition time	60.00reverse acquisition time	0.00gamma	496.2192k internal	0.2291k external	0.2291temperature offset calibration	0.9984default loss term (dB/km)	0.3790temperature slope calibration	1.0000multiplexer offset coefficient	1.0000multiplexer slope coefficient	1.0000fibre end	0.00T internal ref (°C)	42.31T ext. ref 1 (°C)	0.92T ext. ref 2 (°C)	37.50length (m)	temperature (°C)	Stokes	anti-Stokes-747.200	-159.888	0.303	0.017
-746.185	800.000	-0.032	0.139
-745.171	520.489	-0.075	-0.179
-744.156	56.128	-0.267	0.265
-743.142	-200.000	-0.003	-0.021
-742.127	-200.000	-0.025	0.226
-741.112	-200.000	0.036	0.213
-740.098	-54.956	-0.213	0.098
-739.083	295.256	0.145	-0.272
-738.069	800.000	-0.027	-0.085
-737.054	-200.000	0.036	0.169
-736.039	-200.000	-0.046	-0.328
-735.025	800.000	-0.041	-0.159
-734.010	-200.000	-0.040	0.230
-732.996	20.065	-0.149	-0.123
-731.981	55.299	-0.273	-0.270
-730.966	-200.000	0.045	-0.410
-729.952	-7.094	0.267	0.185
-728.937	-200.000	0.016	0.243
-727.923	674.126	-0.019	0.051
-726.908	-90.145	0.203	0.060
-725.894	294.970	-0.205	-0.383
-724.879	800.000	-0.087	-0.335
-723.864	-200.000	-0.024	-0.369
-722.850	-68.196	-0.066	-0.026
-721.835	-200.000	-0.013	0.146
-720.821	41.719	-0.135	-0.125
-719.806	800.000	0.096	-0.361
-718.791	-129.744	-0.315	-0.044
-717.777	20.763	-0.176	0.146
-716.762	-200.000	0.005	-0.260
-715.748	406.515	0.015	0.033
-714.733	-147.230	0.365	-0.032
-713.718	-120.446	0.178	-0.031
-712.704	-200.000	0.022	-0.223
-711.689	800.000	0.086	0.264
-710.675	-148.678	-0.051	0.004
-709.660	-23.905	-0.188	-0.115
-708.645	-200.000	0.004	-0.086
-707.631	33.662	-0.137	-0.122
-706.616	391.833	-0.137	0.291
-705.602	-123.350	-0.179	0.029
-704.587	-72.999	-0.260	-0.098
-703.572	-200.000	0.071	0.483
-702.558	521.565	0.089	0.215
-701.543	453.336	0.121	-0.275
-700.529	800.000	0.090	0.393
-699.514	414.142	0.046	-0.099
-698.499	800.000	-0.042	-0.184
-697.485	-101.954	-0.200	0.049
-696.470	-200.000	-0.003	0.245
-695.456	206.178	-0.058	-0.093
-694.441	-200.000	0.001	0.141
-693.426	-13.670	-0.111	0.073
-692.412	-200.000	0.025	-0.276
-691.397	-200.000	0.041	-0.224
-690.383	245.991	0.060	0.103
-689.368	72.227	-0.214	0.227
-688.354	-185.096	-0.161	-0.003
-687.339	50.254	-0.159	0.153
-686.324	15.122	-0.203	-0.162
-685.310	36.733	-0.276	0.249
-684.295	65.145	0.317	-0.328
-683.281	-23.060	-0.245	0.151
-682.266	358.713	-0.129	-0.263
-681.251	-200.000	0.076	-0.417
-680.237	293.673	0.059	-0.109
-679.222	-200.000	-0.005	0.345
-678.208	-65.834	0.389	-0.159
-677.193	-37.633	-0.139	0.075
-676.178	-200.000	-0.021	-0.382
-675.164	291.446	0.064	0.118
-674.149	-200.000	-0.021	0.387
-673.135	194.412	-0.039	0.061
-672.120	-200.000	-0.017	-0.252
-671.105	-68.093	-0.133	0.053
-670.091	-91.777	0.155	0.045
-669.076	-200.000	-0.042	0.328
-668.062	125.041	0.060	0.077
-667.047	2.247	-0.143	0.105
-666.032	-84.114	0.136	-0.044
-665.018	-59.962	0.266	0.116
-664.003	268.206	-0.056	0.100
-662.989	-144.236	-0.254	0.024
-661.974	-161.825	0.376	0.020
-660.959	-200.000	0.036	-0.214
-659.945	500.407	-0.061	0.145
-658.930	800.000	-0.152	-0.434
-657.916	-168.080	0.285	-0.011
-656.901	15.523	-0.114	0.092
-655.886	-200.000	-0.032	-0.203
-654.872	-168.321	0.056	-0.002
-653.857	-121.395	0.400	-0.068
-652.843	201.037	0.126	0.198
-651.828	688.750	0.031	0.083
-650.814	-200.000	0.007	0.166
-649.799	-58.244	0.111	-0.049
-648.784	-8.768	-0.273	-0.187
-647.770	297.541	0.108	0.203
-646.755	-54.885	0.112	-0.051
-645.741	-70.505	0.216	0.084
-644.726	735.320	-0.016	0.045
-643.711	128.280	-0.085	-0.111
-642.697	54.714	-0.168	-0.166
-641.682	800.000	0.028	0.113
-640.668	55.451	-0.153	-0.152
-639.653	-65.463	-0.160	0.065
-638.638	-32.442	-0.282	0.161
-637.624	-53.185	-0.335	0.157
-636.609	-200.000	0.087	-0.390
-635.595	800.000	-0.098	-0.287
-634.580	-200.000	0.010	0.058
-633.565	439.150	-0.150	0.334
-632.551	121.035	-0.277	-0.352
-631.536	-67.285	-0.183	0.073
-630.522	693.319	0.162	-0.433
-629.507	651.425	-0.137	0.359
-628.492	122.389	0.030	0.039
-627.478	628.352	0.077	0.198
-626.463	20.272	-0.113	0.093
-625.449	-72.297	0.245	-0.093
-624.434	-153.866	-0.104	0.007
-623.419	111.939	0.105	-0.129
-622.405	-131.043	0.225	-0.031
-621.390	48.179	0.111	-0.106
-620.376	-147.773	0.111	-0.009
-619.361	-85.486	0.171	-0.054
-618.346	800.000	0.069	-0.288
-617.332	-200.000	0.061	0.367
-616.317	-141.232	-0.341	-0.035
-615.303	800.000	0.054	-0.163
-614.288	-200.000	-0.059	0.297
-613.273	59.502	0.242	0.243
-612.259	281.782	-0.122	0.223
-611.244	-200.000	0.043	0.217
-610.230	339.584	0.072	0.144
-609.215	590.266	0.048	-0.120
-608.201	36.268	0.268	-0.241
-607.186	-157.246	-0.241	-0.015
-606.171	800.000	0.061	-0.177
-605.157	-87.400	0.119	-0.037
-604.142	17.835	-0.071	-0.057
-603.128	-78.246	0.029	0.010
-602.113	347.612	0.096	-0.194
-601.098	-118.463	0.202	-0.036
-600.084	14.274	-0.140	0.111
-599.069	185.772	0.092	-0.140
-598.055	-200.000	0.024	-0.539
-597.040	-12.554	0.108	0.072
-596.025	563.721	-0.115	-0.284
-595.011	-117.872	-0.212	-0.039
-593.996	-181.242	0.389	-0.008
-592.982	49.774	0.187	-0.180
-591.967	6.594	-0.104	-0.079
-590.952	51.974	0.175	-0.170
-589.938	-77.039	-0.135	0.048
-588.923	452.207	-0.061	-0.137
-587.909	-174.822	0.290	0.008
-586.894	193.221	-0.247	0.380
-585.879	-97.199	0.226	0.060
-584.865	-108.831	-0.363	0.079
-583.850	-47.384	-0.049	-0.024
-582.836	-200.000	-0.256	0.001
-581.821	-108.032	0.103	0.023
-580.806	-200.000	-0.001	-0.332
-579.792	-77.153	-0.304	-0.108
-578.777	-200.000	-0.023	-0.341
-577.763	-101.805	-0.082	-0.020
-576.748	-200.000	-0.026	0.292
-575.733	651.487	0.127	-0.331
-574.719	800.000	-0.053	0.166
-573.704	-200.000	-0.010	0.129
-572.690	-200.000	-0.064	0.368
-571.675	-107.017	-0.324	0.073
-570.661	446.175	-0.199	0.444
-569.646	800.000	-0.077	0.236
-568.631	800.000	0.067	0.256
-567.617	48.187	0.167	0.159
-566.602	-60.884	-0.200	-0.086
-565.588	800.000	-0.154	-0.437
-564.573	800.000	-0.021	-0.093
-563.558	800.000	-0.096	-0.411
-562.544	597.838	0.044	-0.110
-561.529	-72.917	0.271	0.101
-560.515	329.353	0.166	0.324
-559.500	800.000	-0.078	0.228
-558.485	800.000	0.046	-0.157
-557.471	773.754	0.023	0.064
-556.456	52.240	-0.233	0.226
-555.442	-138.167	-0.222	-0.025
-554.427	562.066	-0.172	-0.423
-553.412	39.705	0.360	-0.328
-552.398	104.854	0.186	-0.223
-551.383	297.623	0.033	-0.062
-550.369	-200.000	-0.020	-0.151
-549.354	139.789	-0.062	-0.084
-548.339	-45.569	0.071	0.036
-547.325	-101.993	0.480	0.118
-546.310	800.000	-0.089	-0.287
-545.296	0.191	-0.242	0.175
-544.281	17.175	0.238	0.192
-543.266	401.326	-0.007	-0.016
-542.252	-98.478	-0.073	-0.019
-541.237	164.388	-0.157	0.225
-540.223	240.540	-0.139	-0.236
-539.208	-135.325	-0.160	-0.019
-538.193	235.706	-0.099	0.166
-537.179	37.905	-0.113	0.102
-536.164	-158.256	-0.133	-0.008
-535.150	-35.170	-0.345	0.191
-534.135	30.035	-0.135	-0.117
-533.121	36.281	0.171	-0.153
-532.106	372.574	0.113	-0.234
-531.091	164.233	0.051	-0.073
-530.077	-47.317	-0.161	-0.080
-529.062	499.098	0.069	0.162
-528.048	42.991	-0.147	-0.136
-527.033	-174.251	-0.181	-0.005
-526.018	104.518	0.118	0.142
-525.004	23.341	0.242	0.202
-523.989	237.028	-0.142	0.238
-522.975	-200.000	0.025	-0.341
-521.960	-118.557	-0.162	0.029
-520.945	-200.000	0.009	0.255
-519.931	-55.870	-0.227	-0.103
-518.916	-103.041	-0.360	-0.087
-517.902	527.824	0.035	0.084
-516.887	93.969	-0.175	0.202
-515.872	-123.386	0.249	-0.040
-514.858	308.551	0.029	-0.056
-513.843	780.463	0.131	-0.363
-512.829	800.000	0.141	-0.395
-511.814	-70.903	0.379	0.145
-510.799	-125.641	0.089	-0.014
-509.785	357.049	-0.050	-0.101
-508.770	23.987	0.084	-0.070
-507.756	800.000	0.092	-0.265
-506.741	91.637	-0.167	0.191
-505.726	229.590	-0.059	0.097
-504.712	800.000	-0.096	0.333
-503.697	197.371	-0.084	0.131
-502.683	-82.469	-0.229	-0.075
-501.668	-51.853	-0.145	0.068
-500.653	310.369	0.082	-0.156
-499.639	-19.095	-0.292	0.184
-498.624	-139.042	0.174	-0.019
-497.610	-136.146	-0.135	-0.016
-496.595	421.699	0.202	0.440
-495.581	32.571	-0.171	0.150
-494.566	800.000	0.027	-0.090
-493.551	-200.000	-0.076	-0.394
-492.537	-92.290	0.263	-0.075
-491.522	-200.000	-0.027	-0.219
-490.508	267.831	-0.178	0.316
-489.493	-200.000	-0.049	-0.232
-488.478	-106.516	0.269	-0.061
-487.464	-50.534	-0.425	-0.203
-486.449	-50.149	0.326	0.156
-485.435	-71.088	0.176	0.067
-484.420	-200.000	-0.029	0.374
-483.405	128.101	-0.159	0.205
-482.391	268.096	-0.039	-0.068
-481.376	19.746	0.202	-0.165
-480.362	334.434	-0.101	-0.197
-479.347	459.358	-0.202	0.456
-478.332	80.715	0.224	0.245
-477.318	555.470	-0.113	0.276
-476.303	427.271	-0.171	-0.374
-475.289	-200.000	-0.030	-0.343
-474.274	-7.963	-0.201	0.137
-473.259	-11.932	0.033	0.022
-472.245	-97.220	-0.068	-0.018
-471.230	-200.000	0.006	-0.273
-470.216	120.014	0.241	0.303
-469.201	-119.003	0.249	0.044
-468.186	497.389	-0.027	0.062
-467.172	91.120	-0.216	0.245
-466.157	1.953	0.154	-0.112
-465.143	-200.000	-0.015	0.129
-464.128	-200.000	-0.056	0.296
-463.113	-200.000	-0.022	-0.165
-462.099	800.000	0.044	-0.186
-461.084	-36.346	0.102	-0.056
-460.070	-200.000	0.021	-0.355
-459.055	-85.111	0.389	-0.123
-458.040	302.725	-0.069	0.129
-457.026	-200.000	-0.003	-0.120
-456.011	800.000	-0.028	0.090
-454.997	216.002	-0.108	0.174
-453.982	-14.855	-0.077	0.050
-452.968	-200.000	-0.032	0.159
-451.953	-138.485	0.257	-0.029
-450.938	143.047	0.185	-0.249
-449.924	647.992	-0.052	-0.135
-448.909	-160.867	-0.160	0.009
-447.895	-200.000	-0.002	-0.147
-446.880	800.000	0.045	-0.196
-445.865	585.351	-0.062	0.155
-444.851	-41.909	0.233	0.121
-443.836	-62.659	-0.207	0.087
-442.822	-54.705	-0.230	-0.105
-441.807	2.971	-0.227	-0.167
-440.792	-200.000	-0.013	0.264
-439.778	7.659	-0.259	0.196
-438.763	800.000	-0.085	0.289
-437.749	88.931	-0.236	0.266
-436.734	-104.967	-0.292	0.068
-435.719	209.729	0.129	0.204
-434.705	-127.621	-0.113	-0.017
-433.690	-9.591	-0.184	-0.124
-432.676	30.249	-0.084	0.072
-431.661	-79.735	-0.039	0.013
-430.646	80.536	-0.094	0.102
-429.632	-31.736	0.231	0.131
-428.617	-200.000	-0.011	0.170
-427.603	-119.214	0.242	-0.043
-426.588	-200.000	0.002	0.103
-425.573	800.000	0.053	-0.190
-424.559	-200.000	0.029	-0.135
-423.544	-19.112	0.188	0.118
-422.530	-89.120	0.184	-0.055
-421.515	609.915	-0.060	0.151
-420.500	470.592	-0.079	-0.180
-419.486	-120.416	-0.125	0.022
-418.471	-48.998	0.276	-0.134
-417.457	5.717	-0.209	0.156
-416.442	-78.866	-0.319	0.110
-415.428	-200.000	0.008	-0.184
-414.413	-200.000	-0.000	0.178
-413.398	26.343	0.155	0.131
-412.384	-200.000	-0.028	-0.197
-411.369	-91.186	0.274	0.079
-410.355	-200.000	-0.058	-0.314
-409.340	-122.610	0.090	0.015
-408.325	108.615	-0.066	-0.080
-407.311	130.762	-0.090	0.117
-406.296	-89.428	0.495	0.147
-405.282	573.327	0.098	0.241
-404.267	6.389	0.119	-0.089
-403.252	63.223	0.082	-0.083
-402.238	800.000	0.027	-0.097
-401.223	261.487	0.116	-0.202
-400.209	111.728	-0.213	0.259
-399.194	800.000	0.066	0.209
-398.179	52.355	0.189	-0.183
-397.165	13.519	0.113	0.088
-396.150	93.097	-0.135	0.154
-395.136	-11.660	0.110	0.073
-394.121	-112.534	-0.056	-0.011
-393.106	-16.931	0.269	-0.172
-392.092	-111.291	0.047	0.010
-391.077	-158.508	-0.074	0.004
-390.063	66.378	0.126	0.129
-389.048	9.009	-0.231	0.176
-388.033	-112.407	0.366	-0.074
-387.019	-106.239	0.080	-0.018
-386.004	62.141	-0.080	0.080
-384.990	800.000	-0.046	-0.130
-383.975	22.515	0.094	-0.077
-382.960	-143.549	0.248	-0.024
-381.946	73.485	-0.202	0.214
-380.931	-24.519	-0.061	0.037
-379.917	650.333	-0.041	-0.106
-378.902	142.474	0.078	-0.105
-377.888	-84.732	0.146	0.047
-376.873	-68.672	-0.020	0.008
-375.858	64.901	-0.151	-0.154
-374.844	-170.544	0.169	0.006
-373.829	26.879	0.016	-0.014
-372.815	178.934	0.020	0.030
-371.800	4.691	-0.103	-0.076
-370.785	800.000	-0.062	-0.215
-369.771	-69.001	0.122	-0.047
-368.756	-200.000	0.035	-0.215
-367.742	503.679	0.079	0.184
-366.727	505.284	0.162	-0.379
-365.712	-26.782	-0.349	-0.206
-364.698	800.000	-0.080	0.315
-363.683	599.827	0.101	0.252
-362.669	6.258	0.172	0.129
-361.654	-200.000	0.050	-0.228
-360.639	755.678	0.076	-0.207
-359.625	-151.473	-0.183	0.014
-358.610	-108.519	-0.052	-0.011
-357.596	57.957	0.223	0.220
-356.581	497.218	-0.226	0.525
-355.566	-48.695	-0.413	0.200
-354.552	174.596	-0.191	0.279
-353.537	-86.761	0.122	-0.038
-352.523	-110.643	0.139	0.029
-351.508	442.924	-0.079	0.174
-350.493	-60.811	0.127	0.054
-349.479	-200.000	0.051	0.332
-348.464	511.096	-0.061	-0.144
-347.450	177.842	-0.202	-0.296
-346.435	350.198	0.081	-0.162
-345.420	292.314	0.097	0.179
-344.406	-200.000	-0.002	0.270
-343.391	72.135	0.072	-0.075
-342.377	-49.095	-0.017	0.008
-341.362	-143.786	0.177	0.017
-340.348	16.405	-0.248	-0.197
-339.333	640.281	0.123	-0.316
-338.318	-200.000	-0.003	0.409
-337.304	-200.000	-0.011	0.053
-336.289	-74.581	-0.230	0.084
-335.275	135.221	-0.103	-0.134
-334.260	649.717	-0.022	-0.056
-333.245	163.929	-0.058	0.083
-332.231	-200.000	-0.017	0.228
-331.216	-184.539	0.297	0.005
-330.202	-96.958	0.406	0.107
-329.187	278.931	-0.165	0.297
-328.172	-200.000	-0.032	0.196
-327.158	69.059	-0.073	-0.076
-326.143	800.000	-0.061	-0.200
-325.129	-200.000	0.014	0.142
-324.114	54.051	-0.110	0.107
-323.099	-173.481	-0.158	-0.005
-322.085	-100.382	-0.151	0.038
-321.070	265.454	0.069	0.122
-320.056	800.000	0.078	-0.248
-319.041	800.000	-0.052	0.172
-318.026	-77.212	-0.091	0.032
-317.012	800.000	0.010	-0.027
-315.997	74.599	0.118	0.125
-314.983	285.449	0.019	-0.035
-313.968	-200.000	0.015	-0.344
-312.953	-84.932	-0.296	-0.094
-311.939	703.294	-0.110	0.291
-310.924	634.337	0.099	0.253
-309.910	549.284	-0.077	0.185
-308.895	-79.817	0.232	-0.079
-307.880	77.351	0.034	0.036
-306.866	124.351	0.289	-0.366
-305.851	800.000	0.082	0.237
-304.837	-91.079	0.251	0.073
-303.822	-154.572	0.316	-0.021
-302.807	-139.420	-0.111	0.012
-301.793	662.859	-0.125	0.324
-300.778	-200.000	0.047	-0.287
-299.764	188.707	0.149	-0.225
-298.749	-0.890	0.184	0.131
-297.735	-9.611	0.073	0.049
-296.720	244.066	0.079	0.134
-295.705	144.953	-0.109	-0.146
-294.691	30.927	-0.115	-0.099
-293.676	-110.080	-0.164	-0.034
-292.662	-200.000	-0.033	-0.205
-291.647	800.000	0.107	-0.398
-290.632	111.111	0.106	-0.129
-289.618	-200.000	0.011	-0.135
-288.603	-69.615	0.310	-0.120
-287.589	203.169	-0.141	0.220
-286.574	800.000	0.097	-0.347
-285.559	-81.651	-0.149	-0.049
-284.545	701.046	0.093	-0.247
-283.530	621.630	0.103	-0.262
-282.516	-53.834	0.148	-0.068
-281.501	-118.257	-0.184	-0.033
-280.486	8.205	-0.312	0.235
-279.472	-200.000	0.006	-0.230
-278.457	-200.000	0.005	-0.108
-277.443	-200.000	-0.026	-0.429
-276.428	37.791	-0.214	0.191
-275.413	-98.878	0.410	0.105
-274.399	-151.879	0.083	-0.006
-273.384	162.701	-0.088	0.124
-272.370	301.512	0.132	0.246
-271.355	-200.000	0.060	0.314
-270.340	-48.586	0.259	0.125
-269.326	-13.004	0.096	0.063
-268.311	-61.385	-0.060	-0.025
-267.297	-67.933	0.285	0.112
-266.282	-200.000	-0.022	-0.166
-265.267	489.618	0.027	0.061
-264.253	-132.475	-0.197	-0.026
-263.238	800.000	0.033	-0.110
-262.224	121.143	0.187	0.234
-261.209	-165.438	-0.206	-0.009
-260.195	359.740	0.011	-0.021
-259.180	11.520	0.202	0.156
-258.165	-142.086	0.190	0.019
-257.151	51.821	-0.228	0.218
-256.136	-16.697	-0.046	0.029
-255.122	5.499	-0.116	-0.086
-254.107	-104.694	-0.089	-0.021
-253.092	-20.660	-0.096	0.059
-252.078	-200.000	-0.052	-0.316
-251.063	51.860	0.033	0.032
-250.049	54.819	-0.206	-0.200
-249.034	-145.903	-0.060	0.005
-248.019	-79.346	-0.353	0.120
-247.005	800.000	-0.054	-0.151
-245.990	-200.000	0.028	-0.226
-244.976	800.000	-0.061	-0.230
-243.961	-200.000	-0.041	-0.381
-242.946	-99.632	-0.088	0.022
-241.932	-65.039	0.172	0.070
-240.917	381.645	-0.049	-0.102
-239.903	43.068	0.360	-0.330
-238.888	557.787	-0.053	-0.127
-237.873	451.167	-0.131	-0.290
-236.859	-142.477	-0.138	-0.014
-235.844	-56.673	0.268	0.119
-234.830	-78.475	-0.272	-0.093
-233.815	-180.019	-0.053	0.001
-232.800	800.000	-0.061	-0.257
-231.786	2.018	0.175	-0.127
-230.771	205.885	0.164	0.257
-229.757	-92.963	-0.237	-0.066
-228.742	-200.000	-0.023	0.265
-227.727	-200.000	-0.027	-0.162
-226.713	800.000	0.077	0.221
-225.698	800.000	0.014	0.048
-224.684	302.878	-0.093	0.173
-223.669	-130.444	-0.172	0.023
-222.655	800.000	-0.017	-0.073
-221.640	-130.824	0.298	0.040
-220.625	255.034	0.070	-0.121
-219.611	-38.799	0.217	0.115
-218.596	-103.812	0.268	0.063
-217.582	140.809	0.067	-0.089
-216.567	234.382	-0.166	0.274
-215.552	-81.817	-0.197	-0.065
-214.538	-200.000	0.023	0.141
-213.523	-200.000	0.001	0.045
-212.509	-21.694	0.175	-0.107
-211.494	-158.412	-0.527	0.031
-210.479	-200.000	-0.013	-0.213
-209.465	-62.357	0.238	0.099
-208.450	-200.000	0.289	-0.001
-207.436	-128.876	0.426	0.060
-206.421	41.727	0.136	-0.124
-205.406	71.791	0.125	-0.131
-204.392	800.000	-0.118	0.337
-203.377	-118.608	0.402	0.071
-202.363	-121.839	0.196	-0.032
-201.348	-72.984	0.149	-0.055
-200.333	-75.182	0.123	0.044
-199.319	72.711	0.033	0.035
-198.304	-30.601	-0.284	-0.161
-197.290	-11.170	0.218	0.144
-196.275	-11.864	0.231	0.152
-195.260	194.706	0.067	-0.102
-194.246	341.899	-0.094	0.184
-193.231	372.455	0.076	-0.156
-192.217	-30.441	0.176	0.100
-191.202	-200.000	-0.053	0.463
-190.187	-11.034	0.183	0.121
-189.173	-62.835	-0.122	-0.051
-188.158	-200.000	-0.021	0.151
-187.144	19.505	-0.127	0.103
-186.129	-24.587	-0.274	0.164
-185.114	336.658	0.149	-0.289
-184.100	-144.626	-0.257	-0.024
-183.085	-3.229	-0.235	-0.164
-182.071	-147.768	-0.216	-0.018
-181.056	800.000	-0.038	0.124
-180.042	-22.122	-0.157	0.095
-179.027	76.591	-0.050	0.053
-178.012	800.000	0.053	0.153
-176.998	800.000	0.043	0.150
-175.983	800.000	0.119	-0.398
-174.969	-38.494	0.331	-0.175
-173.954	353.168	0.102	-0.202
-172.939	-48.522	0.027	-0.013
-171.925	-72.234	-0.350	-0.130
-170.910	313.088	-0.017	0.033
-169.896	-89.362	0.144	0.042
-168.881	-200.000	-0.021	0.178
-167.866	545.351	0.044	-0.105
-166.852	73.591	-0.208	-0.219
-165.837	67.863	-0.055	0.056
-164.823	11.179	-0.136	0.104
-163.808	126.217	-0.230	-0.291
-162.793	39.414	-0.190	0.170
-161.779	-90.039	0.351	0.103
-160.764	621.954	0.105	0.265
-159.750	5.829	0.165	-0.122
-158.735	575.340	-0.049	0.120
-157.720	-5.005	-0.091	-0.063
-156.706	394.706	-0.117	0.245
-155.691	-46.472	0.211	-0.104
-154.677	124.146	-0.076	-0.095
-153.662	151.050	-0.258	-0.352
-152.647	-84.738	0.218	0.069
-151.633	-140.342	-0.128	0.013
-150.618	122.545	-0.215	-0.269
-149.604	210.106	-0.063	0.099
-148.589	-200.000	0.033	-0.179
-147.574	-198.689	-0.026	-0.000
-146.560	-107.959	-0.228	-0.050
-145.545	-120.165	0.136	0.023
-144.531	275.134	0.152	0.270
-143.516	320.746	-0.071	-0.134
-142.502	-58.492	0.325	0.141
-141.487	-200.000	-0.012	-0.163
-140.472	-89.304	0.248	-0.073
-139.458	2.351	-0.196	0.142
-138.443	-46.003	0.064	0.032
-137.429	-132.056	-0.158	-0.021
-136.414	347.277	0.152	-0.299
-135.399	-71.082	0.210	-0.079
-134.385	-200.000	-0.028	0.207
-133.370	-130.485	-0.278	-0.038
-132.356	323.541	-0.054	0.103
-131.341	-200.000	0.023	0.108
-130.326	167.873	-0.126	0.180
-129.312	-120.490	0.295	0.050
-128.297	-0.420	0.079	-0.056
-127.283	135.970	0.065	0.084
-126.268	172.387	-0.032	0.046
-125.253	-38.104	-0.248	-0.132
-124.239	-58.673	-0.215	-0.093
-123.224	186.839	0.156	-0.232
-122.210	-187.669	0.116	-0.002
