DTS Sentinel unit serial number:	SN413079Multiplexer serial number:	ORYXHardware model number:	OX4-SRSoftware version number:	ORYX F/W v4.00 Oryx Data Collector v3.7.2.0data status	okinstallation	princeton_trtdifferential loss correction	single-endedforward channel	channel 3reverse channel	N/Adate	2019/09/11time	02:14:11forward acquisition time	60.00reverse acquisition time	0.00gamma	496.2192k internal	0.2332k external	0.2332temperature offset calibration	0.9912default loss term (dB/km)	0.3790temperature slope calibration	1.0000multiplexer offset coefficient	1.0000multiplexer slope coefficient	1.0000fibre end	0.00T internal ref (°C)	29.19T ext. ref 1 (°C)	-0.31T ext. ref 2 (°C)	23.34length (m)	temperature (°C)	Stokes	anti-Stokes-747.200	-13.031	-0.048	0.032
-746.185	-18.671	0.142	0.089
-745.171	-53.038	0.532	0.246
-744.156	102.935	-0.186	-0.220
-743.142	4.296	0.157	0.116
-742.127	150.204	-0.087	-0.119
-741.112	-31.581	-0.269	-0.152
-740.098	-12.724	-0.136	0.089
-739.083	-200.000	-0.008	-0.060
-738.069	215.706	0.108	-0.173
-737.054	5.754	-0.228	0.170
-736.039	-58.969	-0.198	-0.086
-735.025	-20.252	0.205	-0.127
-734.010	20.063	0.064	0.052
-732.996	-173.981	-0.422	0.012
-731.981	-124.075	-0.051	0.008
-730.966	-55.358	0.225	0.102
-729.952	252.671	0.152	-0.261
-728.937	13.258	-0.282	0.220
-727.923	-80.058	0.104	-0.035
-726.908	232.286	-0.111	-0.183
-725.894	-200.000	-0.020	0.317
-724.879	-37.099	-0.041	-0.022
-723.864	-59.370	-0.129	-0.056
-722.850	-78.654	-0.382	0.131
-721.835	128.112	-0.073	0.093
-720.821	102.424	0.275	-0.323
-719.806	-66.284	-0.337	0.135
-718.791	-200.000	-0.054	-0.281
-717.777	364.127	0.080	-0.161
-716.762	216.691	0.157	-0.252
-715.748	-21.186	0.459	-0.282
-714.733	225.030	-0.171	0.277
-713.718	-107.815	0.074	-0.016
-712.704	66.992	-0.271	-0.277
-711.689	800.000	-0.015	0.059
-710.675	-126.764	0.065	-0.010
-709.660	108.349	0.225	-0.270
-708.645	67.981	0.056	0.058
-707.631	421.343	-0.101	0.218
-706.616	-33.148	0.339	-0.189
-705.602	60.956	-0.238	-0.237
-704.587	-200.000	0.050	0.282
-703.572	467.238	-0.070	0.158
-702.558	-60.102	0.068	-0.029
-701.543	507.943	0.016	-0.037
-700.529	-128.234	-0.362	0.052
-699.514	-93.580	0.252	0.070
-698.499	-83.056	-0.148	0.048
-697.485	800.000	0.106	0.331
-696.470	577.782	-0.032	-0.078
-695.456	27.352	-0.169	0.142
-694.441	13.934	0.311	0.243
-693.426	578.285	0.098	-0.241
-692.412	-125.608	-0.094	0.014
-691.397	-102.825	0.266	0.064
-690.383	616.746	-0.055	-0.139
-689.368	53.546	-0.065	-0.062
-688.354	-2.331	0.081	-0.057
-687.339	-25.080	-0.138	0.082
-686.324	-81.119	-0.123	0.041
-685.310	2.407	-0.198	0.144
-684.295	-200.000	-0.015	-0.156
-683.281	-200.000	0.004	-0.237
-682.266	27.626	0.104	-0.088
-681.251	122.257	-0.161	-0.202
-680.237	83.775	-0.090	-0.098
-679.222	-12.692	0.081	-0.053
-678.208	-24.471	-0.250	-0.149
-677.193	800.000	-0.021	0.068
-676.178	-4.524	-0.085	-0.059
-675.164	-38.154	0.269	-0.143
-674.149	-199.752	0.057	-0.000
-673.135	-200.000	-0.005	-0.051
-672.120	7.299	0.177	0.133
-671.105	217.895	-0.048	-0.076
-670.091	490.221	0.155	-0.356
-669.076	-71.288	-0.045	-0.017
-668.062	-30.832	-0.048	0.027
-667.047	192.010	-0.084	0.127
-666.032	-200.000	0.026	-0.221
-665.018	-121.708	0.205	-0.034
-664.003	225.279	0.050	0.081
-662.989	73.884	-0.292	-0.307
-661.974	-200.000	0.052	-0.239
-660.959	-31.513	-0.308	-0.174
-659.945	-65.419	0.182	0.073
-658.930	800.000	0.022	-0.079
-657.916	800.000	0.068	-0.272
-656.901	41.208	-0.143	0.130
-655.886	441.413	0.161	-0.353
-654.872	-44.795	0.213	0.107
-653.857	23.572	0.191	-0.158
-652.843	-164.155	-0.261	0.012
-651.828	47.585	-0.111	-0.104
-650.814	-128.841	0.605	-0.085
-649.799	-48.679	0.142	0.069
-648.784	-200.000	-0.026	-0.224
-647.770	-97.337	-0.074	-0.019
-646.755	84.428	-0.160	-0.176
-645.741	178.033	0.058	-0.085
-644.726	41.410	0.116	-0.105
-643.711	-75.211	0.056	0.020
-642.697	17.146	0.170	-0.135
-641.682	-200.000	0.039	-0.345
-640.668	9.562	-0.272	-0.207
-639.653	191.586	-0.197	-0.298
-638.638	-1.782	-0.137	-0.096
-637.624	-18.572	0.121	0.076
-636.609	-200.000	-0.024	-0.238
-635.595	-56.454	-0.231	-0.103
-634.580	-121.986	-0.414	-0.068
-633.565	-64.170	0.144	0.059
-632.551	-70.046	0.201	-0.077
-631.536	73.332	-0.106	0.112
-630.522	800.000	-0.132	-0.469
-629.507	-111.028	-0.104	0.021
-628.492	-20.775	0.096	0.059
-627.478	-200.000	0.044	0.222
-626.463	216.836	-0.097	-0.155
-625.449	47.884	-0.087	-0.081
-624.434	172.634	-0.153	-0.221
-623.419	-180.782	-0.131	-0.003
-622.405	-200.000	0.021	0.237
-621.390	-165.140	0.174	0.008
-620.376	-136.965	-0.453	0.052
-619.361	129.958	-0.224	-0.287
-618.346	-113.573	0.081	-0.016
-617.332	-131.117	-0.132	0.018
-616.317	14.740	0.264	0.206
-615.303	190.602	0.139	0.209
-614.288	471.312	0.179	0.402
-613.273	109.040	-0.125	0.149
-612.259	63.197	-0.049	-0.049
-611.244	98.166	0.119	-0.137
-610.230	541.927	0.089	0.213
-609.215	-124.077	0.047	0.007
-608.201	-78.908	-0.371	-0.126
-607.186	-118.049	0.246	-0.044
-606.171	120.513	-0.073	-0.091
-605.157	-200.000	-0.020	-0.118
-604.142	76.582	-0.056	0.059
-603.128	-200.000	-0.021	0.128
-602.113	429.353	-0.066	-0.142
-601.098	522.061	0.087	-0.204
-600.084	105.331	-0.188	0.222
-599.069	22.394	0.195	0.160
-598.055	-13.474	0.197	-0.128
-597.040	-200.000	0.030	-0.395
-596.025	50.512	-0.125	0.118
-595.011	-1.644	-0.226	-0.159
-593.996	-200.000	-0.016	0.130
-592.982	-102.978	-0.222	-0.053
-591.967	375.046	-0.196	-0.399
-590.952	515.941	-0.092	0.214
-589.938	-200.000	-0.005	0.041
-588.923	-200.000	0.023	0.172
-587.909	125.180	-0.137	0.173
-586.894	522.179	0.098	0.230
-585.879	-11.550	-0.079	0.052
-584.865	198.562	-0.155	-0.238
-583.850	-200.000	-0.008	0.214
-582.836	253.901	0.005	0.008
-581.821	432.365	0.070	0.152
-580.806	-138.837	0.157	0.017
-579.792	649.601	-0.138	-0.352
-578.777	-57.831	0.373	-0.163
-577.763	146.107	-0.045	0.060
-576.748	800.000	0.137	-0.421
-575.733	-76.372	0.229	-0.080
-574.719	67.212	-0.420	0.428
-573.704	-143.076	0.258	0.025
-572.690	150.374	0.255	-0.346
-571.675	-122.944	-0.324	0.052
-570.661	-127.692	-0.050	0.007
-569.646	-96.546	-0.460	-0.121
-568.631	-54.866	0.306	0.138
-567.617	219.414	0.046	-0.074
-566.602	-21.257	0.152	-0.093
-565.588	800.000	-0.006	0.021
-564.573	-104.971	-0.139	-0.032
-563.558	-32.379	-0.267	-0.149
-562.544	216.992	-0.046	-0.073
-561.529	-116.985	0.130	-0.024
-560.515	-76.732	-0.233	-0.082
-559.500	-78.913	-0.327	-0.111
-558.485	-146.505	0.249	-0.022
-557.471	-200.000	0.004	-0.102
-556.456	-71.458	-0.283	0.106
-555.442	-200.000	0.016	0.184
-554.427	225.237	-0.080	-0.129
-553.412	-142.493	-0.131	-0.013
-552.398	-82.875	-0.163	-0.052
-551.383	135.620	-0.097	0.126
-550.369	3.162	0.315	-0.229
-549.354	-71.275	0.152	-0.057
-548.339	17.850	0.271	0.216
-547.325	325.537	-0.032	-0.061
-546.310	309.489	-0.213	-0.398
-545.296	-200.000	0.003	0.072
-544.281	477.643	0.117	0.264
-543.266	116.323	0.156	0.191
-542.252	800.000	-0.038	-0.105
-541.237	-107.604	-0.164	-0.036
-540.223	800.000	-0.048	0.149
-539.208	57.002	0.208	-0.202
-538.193	-101.472	-0.358	-0.087
-537.179	-124.345	-0.032	-0.005
-536.164	111.505	0.094	-0.114
-535.150	752.621	-0.005	0.013
-534.135	-200.000	-0.035	-0.469
-533.121	-130.287	0.431	-0.058
-532.106	-200.000	0.031	-0.505
-531.091	800.000	-0.025	-0.100
-530.077	-160.237	0.308	-0.017
-529.062	-200.000	0.035	0.197
-528.048	-46.691	-0.068	0.033
-527.033	87.445	0.084	0.093
-526.018	-200.000	0.026	-0.142
-525.004	274.336	-0.084	0.148
-523.989	-147.821	-0.201	-0.017
-522.975	242.514	-0.177	-0.295
-521.960	-46.409	0.422	0.207
-520.945	462.263	0.137	-0.304
-519.931	-152.476	-0.135	-0.010
-518.916	-62.811	-0.123	0.051
-517.902	-86.026	-0.210	-0.065
-516.887	-73.312	-0.198	-0.072
-515.872	-122.035	0.122	0.020
-514.858	134.676	-0.255	-0.330
-513.843	-179.228	-0.509	0.011
-512.829	332.184	0.099	-0.191
-511.814	516.769	-0.021	-0.048
-510.799	-9.886	0.290	-0.193
-509.785	466.473	-0.125	0.278
-508.770	800.000	-0.042	-0.151
-507.756	209.884	0.063	0.098
-506.741	-24.762	-0.223	0.132
-505.726	201.227	-0.197	0.302
-504.712	-86.045	0.207	0.064
-503.697	139.296	0.090	-0.118
-502.683	-200.000	-0.047	-0.324
-501.668	800.000	-0.169	0.525
-500.653	115.345	0.133	-0.161
-499.639	8.169	-0.179	-0.134
-498.624	572.912	-0.073	0.178
-497.610	149.347	-0.110	0.148
-496.595	545.662	-0.073	-0.175
-495.581	668.232	0.054	-0.140
-494.566	-200.000	0.026	-0.183
-493.551	-9.070	-0.242	-0.162
-492.537	800.000	-0.029	0.085
-491.522	-200.000	0.062	0.285
-490.508	79.705	-0.145	0.155
-489.493	800.000	-0.037	0.138
-488.478	157.087	-0.148	-0.203
-487.464	-200.000	0.017	-0.202
-486.449	-200.000	0.023	0.245
-485.435	466.472	0.111	0.248
-484.420	319.882	0.090	-0.170
-483.405	-200.000	-0.082	0.376
-482.391	-28.027	0.116	0.067
-481.376	-0.380	0.098	-0.069
-480.362	-100.275	0.154	-0.038
-479.347	-8.175	-0.108	-0.072
-478.332	-200.000	0.031	0.205
-477.318	45.007	0.238	-0.218
-476.303	81.106	0.081	0.087
-475.289	800.000	-0.069	0.297
-474.274	135.344	-0.299	0.387
-473.259	800.000	-0.013	-0.055
-472.245	800.000	0.093	-0.333
-471.230	44.509	0.190	0.174
-470.216	-98.066	0.198	-0.051
-469.201	-103.804	-0.305	-0.071
-468.186	228.943	0.189	-0.307
-467.172	218.279	-0.114	-0.181
-466.157	-200.000	0.001	-0.294
-465.143	-125.437	0.107	0.016
-464.128	311.819	-0.107	-0.199
-463.113	136.846	-0.110	0.143
-462.099	-115.803	-0.349	0.065
-461.084	-49.914	0.364	0.172
-460.070	8.676	-0.270	0.203
-459.055	683.569	-0.111	0.289
-458.040	49.110	0.217	0.202
-457.026	230.497	0.144	-0.234
-456.011	10.789	-0.119	0.090
-454.997	240.448	-0.092	0.153
-453.982	-171.050	0.464	-0.016
-452.968	800.000	0.006	0.023
-451.953	800.000	-0.010	0.035
-450.938	-28.901	0.183	-0.105
-449.924	18.372	0.128	0.102
-448.909	-148.137	-0.119	0.010
-447.895	-108.945	-0.219	0.047
-446.880	-89.220	-0.179	-0.052
-445.865	-200.000	0.002	-0.133
-444.851	59.462	0.243	0.239
-443.836	-200.000	0.060	-0.320
-442.822	268.288	0.045	0.078
-441.807	184.159	0.140	0.206
-440.792	138.798	-0.084	0.110
-439.778	-37.994	0.203	-0.107
-438.763	-157.180	-0.160	0.010
-437.749	98.615	0.179	0.205
-436.734	99.512	-0.245	-0.282
-435.719	-95.308	0.198	0.053
-434.705	275.730	-0.113	-0.200
-433.690	63.893	0.194	0.194
-432.676	800.000	-0.039	-0.159
-431.661	-139.852	0.050	0.005
-430.646	-200.000	-0.063	-0.308
-429.632	699.148	0.058	-0.153
-428.617	-175.765	0.128	0.003
-427.603	-200.000	0.054	0.375
-426.588	-147.788	-0.195	0.016
-425.573	-84.510	0.081	0.025
-424.559	-80.425	0.186	0.062
-423.544	-24.695	0.265	-0.157
-422.530	213.153	0.058	0.090
-421.515	-200.000	0.005	-0.573
-420.500	259.981	0.071	0.121
-419.486	-200.000	0.009	0.078
-418.471	-51.413	-0.157	0.073
-417.457	83.638	-0.060	0.065
-416.442	32.710	0.102	0.087
-415.428	-117.406	0.060	-0.011
-414.413	-52.171	-0.121	-0.056
-413.398	-200.000	0.019	-0.303
-412.384	219.282	0.077	-0.122
-411.369	130.306	0.111	-0.141
-410.355	25.347	-0.180	0.149
-409.340	108.399	0.201	0.238
-408.325	-90.425	-0.259	-0.075
-407.311	-65.646	-0.128	0.051
-406.296	-120.013	0.237	-0.040
-405.282	64.361	0.137	-0.137
-404.267	-200.000	0.016	0.095
-403.252	-103.186	0.279	0.066
-402.238	-128.565	-0.065	-0.009
-401.223	800.000	0.066	0.246
-400.209	-28.703	0.089	0.051
-399.194	-200.000	-0.033	0.250
-398.179	-200.000	0.018	0.282
-397.165	-200.000	0.003	-0.205
-396.150	262.629	0.035	0.061
-395.136	-174.448	-0.013	-0.000
-394.121	285.940	0.069	-0.123
-393.106	132.928	-0.125	-0.160
-392.092	21.178	0.293	-0.236
-391.077	30.077	0.085	-0.072
-390.063	72.747	-0.110	-0.113
-389.048	411.253	-0.006	-0.013
-388.033	-200.000	-0.050	-0.320
-387.019	-170.811	0.180	0.006
-386.004	-80.411	-0.337	0.112
-384.990	-101.419	0.147	0.036
-383.975	-200.000	0.004	-0.206
-382.960	800.000	-0.084	-0.296
-381.946	-11.774	0.176	-0.114
-380.931	16.974	-0.148	-0.116
-379.917	302.518	0.165	0.303
-378.902	-57.764	-0.163	0.071
-377.888	506.007	-0.090	0.207
-376.873	88.605	-0.236	0.260
-375.858	-26.969	0.125	-0.073
-374.844	740.139	0.114	0.304
-373.829	-84.901	-0.071	0.022
-372.815	800.000	-0.030	-0.096
-371.800	277.516	-0.182	0.321
-370.785	275.255	-0.125	0.220
-369.771	-200.000	-0.082	-0.440
-368.756	220.795	0.025	0.040
-367.742	-6.297	0.091	0.061
-366.727	78.802	-0.076	0.080
-365.712	215.045	-0.086	0.135
-364.698	-15.767	-0.087	-0.055
-363.683	-200.000	0.071	-0.588
-362.669	-80.474	-0.033	-0.011
-361.654	-62.700	0.265	-0.109
-360.639	-200.000	-0.038	0.168
-359.625	-9.353	-0.063	0.041
-358.610	-9.383	-0.203	0.134
-357.596	800.000	0.068	0.203
-356.581	621.539	-0.067	-0.167
-355.566	-160.083	0.295	-0.016
-354.552	-200.000	0.046	0.271
-353.537	34.193	0.225	0.195
-352.523	-200.000	-0.020	-0.123
-351.508	0.954	0.159	0.113
-350.493	-200.000	-0.015	0.094
-349.479	-40.812	0.216	0.111
-348.464	-200.000	0.032	-0.244
-347.450	147.017	0.065	-0.086
-346.435	374.389	0.056	0.113
-345.420	72.329	0.145	-0.150
-344.406	-121.863	0.192	-0.031
-343.391	-107.581	-0.140	0.030
-342.377	-149.912	-0.185	0.014
-341.362	-30.340	0.510	0.287
-340.348	-73.736	-0.041	-0.015
-339.333	-91.526	-0.269	0.076
-338.318	-113.076	-0.056	0.011
-337.304	400.584	0.052	-0.108
-336.289	-200.000	0.073	0.362
-335.275	800.000	0.034	0.106
-334.260	781.170	-0.065	-0.175
-333.245	-165.137	0.152	-0.007
-332.231	-50.360	-0.366	0.171
-331.216	-133.743	-0.416	0.051
-330.202	-86.955	-0.390	-0.118
-329.187	-169.606	0.595	0.021
-328.172	-77.907	-0.257	0.088
-327.158	800.000	-0.079	-0.273
-326.143	-76.698	-0.199	0.069
-325.129	126.952	-0.050	0.063
-324.114	0.724	0.106	-0.075
-323.099	133.444	-0.217	0.278
-322.085	-62.865	0.220	-0.090
-321.070	375.538	-0.114	-0.231
-320.056	800.000	0.038	-0.124
-319.041	-200.000	0.005	0.126
-318.026	25.117	-0.233	0.191
-317.012	128.161	0.126	0.158
-315.997	-171.811	0.300	0.010
-314.983	-129.043	-0.138	0.019
-313.968	-159.253	0.341	-0.019
-312.953	-120.147	0.069	-0.012
-311.939	-129.064	0.316	0.044
-310.924	207.629	-0.120	0.185
-309.910	241.432	0.091	0.151
-308.895	-25.467	0.143	0.083
-307.880	189.923	0.029	-0.044
-306.866	800.000	-0.036	0.145
-305.851	800.000	0.123	0.430
-304.837	-112.307	-0.343	0.068
-303.822	-200.000	0.007	0.285
-302.807	-23.771	-0.210	0.124
-301.793	-200.000	0.028	0.151
-300.778	71.611	-0.226	0.232
-299.764	-187.942	-0.042	-0.001
-298.749	-103.175	0.255	0.060
-297.735	-146.672	0.310	-0.027
-296.720	-60.579	-0.076	-0.032
-295.705	-200.000	-0.002	0.194
-294.691	62.004	0.189	0.187
-293.676	0.167	0.303	0.213
-292.662	800.000	0.066	0.199
-291.647	-117.498	-0.132	0.024
-290.632	100.067	0.140	-0.160
-289.618	800.000	-0.042	-0.130
-288.603	60.769	-0.071	-0.070
-287.589	208.537	0.124	0.191
-286.574	-200.000	0.025	0.406
-285.559	-200.000	0.052	-0.326
-284.545	-136.396	0.157	-0.018
-283.530	-151.473	0.329	0.024
-282.516	-200.000	0.003	-0.084
-281.501	615.824	-0.136	0.337
-280.486	313.050	-0.104	0.193
-279.472	-139.049	-0.224	0.024
-278.457	-122.238	-0.132	0.021
-277.443	112.545	-0.064	0.077
-276.428	-121.568	-0.138	0.023
-275.413	335.088	-0.003	-0.005
-274.399	152.074	-0.052	0.071
-273.384	94.815	-0.197	0.221
-272.370	-158.162	0.180	-0.010
-271.355	125.174	-0.176	-0.219
-270.340	800.000	0.089	-0.304
-269.326	-153.439	-0.315	-0.022
-268.311	443.795	0.167	0.363
-267.297	-27.875	-0.074	-0.042
-266.282	495.005	0.108	-0.245
-265.267	89.433	0.069	0.076
-264.253	111.658	0.032	-0.038
-263.238	54.262	0.258	-0.245
-262.224	0.233	0.368	-0.259
-261.209	-96.358	-0.243	0.064
-260.195	-109.324	0.327	0.068
-259.180	-178.943	0.349	0.008
-258.165	54.306	0.137	-0.130
-257.151	251.364	0.009	-0.016
-256.136	298.428	-0.143	-0.260
-255.122	-9.379	0.246	-0.162
-254.107	-115.286	0.418	-0.078
-253.092	394.727	-0.066	-0.136
-252.078	-105.992	-0.341	0.076
-251.063	-134.281	0.179	0.022
-250.049	-107.494	0.093	0.020
-249.034	-113.739	-0.470	0.090
-248.019	532.935	-0.136	0.317
-247.005	13.245	-0.334	-0.255
-245.990	-62.102	0.175	-0.072
-244.976	-110.931	-0.076	0.016
-243.961	359.871	-0.046	0.091
-242.946	-200.000	-0.010	0.173
-241.932	-200.000	0.003	0.406
-240.917	432.544	-0.058	-0.124
-239.903	49.251	0.058	-0.054
-238.888	-60.397	-0.223	0.094
-237.873	216.810	0.078	-0.123
-236.859	-200.000	0.002	-0.313
-235.844	116.797	-0.204	-0.247
-234.830	61.014	0.360	0.353
-233.815	800.000	-0.045	0.165
-232.800	800.000	0.068	0.274
-231.786	-47.925	-0.385	-0.184
-230.771	173.948	0.166	0.237
-229.757	56.902	0.112	-0.108
-228.742	-39.193	0.236	-0.122
-227.727	-42.449	0.201	0.101
-226.713	-200.000	-0.026	0.419
-225.698	153.888	-0.267	-0.360
-224.684	-104.138	0.271	-0.062
-223.669	159.390	0.065	0.089
-222.655	-200.000	-0.018	0.193
-221.640	284.863	0.044	0.078
-220.625	-200.000	0.027	0.375
-219.611	-200.000	0.022	0.233
-218.596	-13.134	0.234	-0.150
-217.582	137.694	0.031	-0.041
-216.567	-200.000	0.035	-0.210
-215.552	292.126	-0.105	-0.189
-214.538	-77.251	-0.119	-0.041
-213.523	-76.870	-0.054	-0.019
-212.509	106.791	-0.079	0.092
-211.494	-200.000	0.015	0.130
-210.479	200.005	-0.076	0.116
-209.465	95.158	-0.328	-0.368
-208.450	800.000	0.077	-0.262
-207.436	-200.000	-0.088	-0.407
-206.421	10.280	0.300	-0.225
-205.406	48.032	-0.220	0.203
-204.392	103.175	0.143	-0.165
-203.377	79.046	0.128	-0.135
-202.363	111.287	0.197	0.234
-201.348	192.028	-0.149	0.222
-200.333	101.703	0.222	-0.255
-199.319	800.000	-0.061	0.196
-198.304	800.000	-0.053	0.203
-197.290	-49.192	0.308	0.145
-196.275	156.018	-0.289	-0.393
-195.260	17.154	0.379	0.296
-194.246	800.000	0.064	0.240
-193.231	-200.000	0.027	-0.224
-192.217	-140.559	0.111	0.011
-191.202	-49.454	0.256	0.120
-190.187	-12.199	-0.278	0.179
-189.173	-33.365	-0.565	-0.308
-188.158	-64.967	0.328	0.130
-187.144	-38.184	0.119	-0.062
-186.129	-133.529	-0.197	-0.024
-185.114	-17.092	0.110	-0.068
-184.100	-73.628	-0.204	-0.073
-183.085	88.869	-0.182	0.199
-182.071	800.000	0.080	-0.229
-181.056	-200.000	-0.029	0.133
-180.042	692.316	-0.069	0.179
-179.027	3.678	0.256	-0.184
-178.012	280.355	-0.224	-0.394
-176.998	29.286	-0.207	-0.173
-175.983	-2.936	0.274	0.189
-174.969	-34.942	-0.178	0.095
-173.954	-200.000	0.055	0.392
-172.939	510.689	-0.066	0.150
-171.925	41.927	-0.054	-0.048
-170.910	-127.735	0.136	-0.019
-169.896	758.301	-0.135	-0.359
-168.881	55.721	0.132	-0.126
-167.866	800.000	-0.053	0.213
-166.852	800.000	-0.027	-0.098
-165.837	-131.793	0.214	0.028
-164.823	-200.000	0.019	-0.177
-163.808	-200.000	-0.030	-0.232
-162.793	62.761	-0.306	0.301
-161.779	-164.707	0.086	-0.004
-160.764	422.535	0.019	0.040
-159.750	5.992	-0.051	0.037
-158.735	-200.000	0.034	0.220
-157.720	-117.308	0.069	0.012
-156.706	-93.991	-0.189	-0.051
-155.691	-200.000	0.039	0.393
-154.677	-136.722	-0.236	-0.027
-153.662	135.384	0.119	0.153
-152.647	23.753	0.261	-0.211
-151.633	-130.001	-0.238	-0.032
-150.618	-103.966	-0.106	-0.024
-149.604	103.274	0.143	-0.165
-148.589	-127.901	0.234	-0.033
-147.574	-110.478	-0.210	0.043
-146.560	-200.000	-0.012	-0.064
-145.545	800.000	-0.033	0.142
-144.531	800.000	0.060	-0.206
-143.516	800.000	0.036	0.152
-142.502	800.000	0.067	0.252
-141.487	-148.667	0.233	0.019
-140.472	-103.782	-0.112	0.026
-139.458	-89.683	-0.239	-0.069
-138.443	-200.000	-0.020	0.093
-137.429	800.000	0.061	0.172
-136.414	68.230	-0.104	-0.105
-135.399	199.716	0.114	0.172
-134.385	633.504	0.133	0.332
-133.370	486.625	-0.127	0.284
-132.356	-200.000	0.007	0.033
-131.341	-85.598	-0.133	-0.040
-130.326	245.065	-0.090	0.149
-129.312	227.331	-0.041	0.065
-128.297	-152.632	-0.165	0.012
-127.283	116.019	0.180	-0.216
-126.268	-41.621	0.228	-0.115
-125.253	-152.651	-0.355	-0.025
-124.239	-95.301	0.360	-0.095
-123.224	59.797	-0.160	-0.155
-122.210	25.991	0.046	-0.038
-121.195	5.051	0.293	0.212
