DTS Sentinel unit serial number:	SN413079Multiplexer serial number:	ORYXHardware model number:	OX4-SRSoftware version number:	ORYX F/W v4.00 Oryx Data Collector v3.7.2.0data status	okinstallation	princeton_trtdifferential loss correction	single-endedforward channel	channel 3reverse channel	N/Adate	2019/09/11time	15:38:11forward acquisition time	60.00reverse acquisition time	0.00gamma	496.2192k internal	0.2290k external	0.2290temperature offset calibration	0.9984default loss term (dB/km)	0.3790temperature slope calibration	1.0000multiplexer offset coefficient	1.0000multiplexer slope coefficient	1.0000fibre end	0.00T internal ref (°C)	42.81T ext. ref 1 (°C)	0.99T ext. ref 2 (°C)	37.03length (m)	temperature (°C)	Stokes	anti-Stokes-747.200	800.000	0.036	0.147
-746.185	-88.419	0.363	0.111
-745.171	-173.451	-0.368	0.011
-744.156	-200.000	-0.012	0.168
-743.142	14.451	-0.285	0.228
-742.127	-111.062	0.278	0.059
-741.112	4.856	0.304	0.229
-740.098	-83.325	-0.096	-0.031
-739.083	-15.967	-0.085	-0.055
-738.069	-120.670	-0.154	0.027
-737.054	533.126	0.148	-0.358
-736.039	-200.000	0.035	0.166
-735.025	159.980	-0.116	0.165
-734.010	-113.873	0.232	0.046
-732.996	82.705	-0.183	-0.204
-731.981	-200.000	0.013	-0.159
-730.966	-92.205	0.310	0.089
-729.952	171.676	-0.084	-0.124
-728.937	-200.000	0.036	-0.231
-727.923	800.000	-0.087	0.332
-726.908	684.722	0.071	0.189
-725.894	800.000	-0.064	-0.251
-724.879	-14.094	-0.217	-0.143
-723.864	105.252	-0.103	0.124
-722.850	-200.000	-0.022	-0.187
-721.835	-175.486	-0.180	0.005
-720.821	52.307	-0.080	-0.078
-719.806	228.642	-0.064	-0.108
-718.791	-102.557	0.073	-0.018
-717.777	-200.000	-0.021	-0.144
-716.762	-25.367	-0.111	-0.067
-715.748	63.033	-0.255	-0.262
-714.733	-77.190	0.204	-0.073
-713.718	-133.470	-0.317	-0.041
-712.704	-58.899	-0.125	0.055
-711.689	443.594	0.035	-0.078
-710.675	-119.231	0.266	0.048
-709.660	-7.036	0.239	-0.166
-708.645	-154.291	-0.075	0.005
-707.631	-159.492	-0.237	0.013
-706.616	122.914	0.225	-0.289
-705.602	-87.166	-0.193	-0.060
-704.587	-64.764	-0.180	-0.074
-703.572	377.189	-0.131	-0.274
-702.558	-200.000	-0.010	-0.171
-701.543	-51.530	0.075	-0.036
-700.529	-200.000	0.012	0.121
-699.514	-116.303	0.225	0.043
-698.499	800.000	-0.026	-0.110
-697.485	-41.087	-0.120	0.063
-696.470	94.253	0.130	0.150
-695.456	800.000	-0.048	0.187
-694.441	209.403	-0.057	0.092
-693.426	172.795	-0.194	0.286
-692.412	800.000	-0.049	0.183
-691.397	-90.181	-0.210	0.063
-690.383	-193.938	-0.176	-0.002
-689.368	800.000	-0.090	0.264
-688.354	194.767	0.092	-0.143
-687.339	-42.719	-0.202	0.105
-686.324	200.523	0.071	0.112
-685.310	800.000	-0.041	0.131
-684.295	-145.271	-0.207	0.019
-683.281	-200.000	0.006	0.042
-682.266	-63.615	0.147	0.061
-681.251	134.431	-0.174	-0.230
-680.237	800.000	-0.114	-0.395
-679.222	-200.000	-0.011	-0.082
-678.208	765.662	-0.049	0.136
-677.193	11.811	-0.287	-0.225
-676.178	704.381	-0.063	-0.171
-675.164	467.491	-0.173	-0.397
-674.149	-70.593	-0.308	-0.119
-673.135	-142.275	0.224	0.023
-672.120	-17.006	-0.172	0.111
-671.105	-49.257	0.288	-0.140
-670.091	-36.217	-0.139	-0.077
-669.076	16.108	-0.067	-0.054
-668.062	-107.132	-0.250	0.056
-667.047	289.071	-0.102	0.190
-666.032	-200.000	0.021	-0.127
-665.018	-72.785	0.176	-0.066
-664.003	-18.609	0.194	-0.123
-662.989	-184.035	0.216	0.004
-661.974	-200.000	0.009	-0.178
-660.959	-34.961	0.110	0.061
-659.945	-200.000	0.062	-0.333
-658.930	210.777	0.049	-0.079
-657.916	-200.000	-0.004	0.040
-656.901	-48.197	0.317	-0.156
-655.886	100.591	0.153	-0.181
-654.872	-102.006	-0.317	0.078
-653.857	11.056	-0.196	0.153
-652.843	16.610	-0.196	-0.158
-651.828	-70.421	0.321	0.124
-650.814	-83.047	0.072	-0.024
-649.799	156.416	0.037	0.052
-648.784	800.000	-0.039	-0.129
-647.770	-153.954	-0.341	-0.024
-646.755	-200.000	0.005	-0.087
-645.741	-16.544	-0.290	-0.188
-644.726	-200.000	0.022	-0.347
-643.711	-68.799	0.216	0.085
-642.697	72.639	0.229	0.244
-641.682	-56.055	-0.149	0.068
-640.668	523.433	0.126	-0.302
-639.653	-200.000	-0.025	-0.403
-638.638	800.000	0.069	0.204
-637.624	-200.000	-0.209	-0.000
-636.609	489.369	0.176	-0.411
-635.595	-61.926	-0.249	0.106
-634.580	800.000	-0.044	0.183
-633.565	91.448	0.229	-0.263
-632.551	-1.699	-0.115	-0.083
-631.536	250.835	0.187	0.324
-630.522	-200.000	0.005	-0.097
-629.507	-62.869	-0.269	0.114
-628.492	-105.864	0.202	-0.047
-627.478	-192.135	0.256	0.003
-626.463	800.000	-0.014	-0.062
-625.449	197.898	-0.123	-0.191
-624.434	285.583	0.133	-0.244
-623.419	21.561	-0.054	0.045
-622.405	-63.989	-0.301	-0.125
-621.390	-200.000	-0.077	-0.386
-620.376	-10.249	-0.242	-0.163
-619.361	125.330	0.157	-0.202
-618.346	-163.885	-0.445	0.021
-617.332	-200.000	-0.016	-0.232
-616.317	-200.000	-0.019	0.309
-615.303	134.537	0.024	-0.032
-614.288	-81.828	-0.047	0.016
-613.273	-101.382	0.165	-0.041
-612.259	-200.000	-0.023	-0.171
-611.244	-108.951	0.172	-0.037
-610.230	120.848	0.084	0.106
-609.215	-137.227	0.206	-0.024
-608.201	-200.000	-0.004	0.048
-607.186	-77.298	-0.224	-0.079
-606.171	-200.000	-0.008	0.150
-605.157	85.447	-0.118	0.132
-604.142	330.949	-0.088	0.172
-603.128	184.824	-0.052	-0.079
-602.113	-200.000	-0.110	-0.592
-601.098	75.608	-0.180	-0.193
-600.084	120.594	-0.073	0.093
-599.069	-200.000	0.051	0.281
-598.055	-197.502	0.213	-0.001
-597.040	-34.330	-0.112	0.063
-596.025	-126.327	0.373	0.057
-595.011	108.582	0.238	-0.290
-593.996	-33.745	0.286	0.161
-592.982	-200.000	0.004	-0.070
-591.967	-106.912	-0.195	-0.044
-590.952	-125.420	-0.040	0.006
-589.938	559.121	-0.060	-0.148
-588.923	-97.670	-0.207	-0.055
-587.909	-7.625	0.239	-0.164
-586.894	-98.147	-0.289	0.076
-585.879	237.753	0.045	0.076
-584.865	-89.410	-0.389	-0.117
-583.850	21.930	0.212	-0.176
-582.836	70.689	0.041	-0.044
-581.821	-24.282	-0.291	0.177
-580.806	800.000	-0.011	-0.035
-579.792	-135.716	-0.307	0.037
-578.777	-66.112	0.180	-0.073
-577.763	-116.863	-0.263	-0.049
-576.748	39.891	0.174	0.159
-575.733	424.513	0.090	0.197
-574.719	-23.138	-0.323	0.198
-573.704	341.457	0.105	0.209
-572.690	531.881	0.022	0.052
-571.675	-170.075	0.299	0.011
-570.661	-62.614	-0.114	-0.048
-569.646	800.000	0.079	-0.303
-568.631	-57.525	-0.086	0.038
-567.617	-33.430	-0.059	0.033
-566.602	175.572	-0.138	0.204
-565.588	-46.703	0.217	0.108
-564.573	-136.552	-0.192	-0.023
-563.558	-33.562	0.117	-0.066
-562.544	22.346	-0.179	0.149
-561.529	183.832	0.162	-0.244
-560.515	800.000	0.071	-0.279
-559.500	-84.998	-0.346	-0.110
-558.485	-120.586	-0.090	-0.016
-557.471	21.399	-0.490	-0.405
-556.456	45.408	-0.106	0.100
-555.442	-91.186	-0.289	-0.084
-554.427	13.797	0.289	-0.229
-553.412	-46.742	-0.326	0.162
-552.398	567.989	0.194	0.479
-551.383	1.012	0.175	-0.128
-550.369	281.828	-0.029	0.053
-549.354	-117.600	-0.030	0.005
-548.339	-24.354	-0.142	-0.086
-547.325	-200.000	0.004	0.196
-546.310	56.451	0.004	0.004
-545.296	-154.944	-0.082	-0.005
-544.281	78.929	-0.212	0.230
-543.266	171.836	-0.125	0.183
-542.252	125.324	-0.052	-0.067
-541.237	-68.911	0.146	-0.057
-540.223	-29.479	-0.014	-0.008
-539.208	800.000	-0.053	0.160
-538.193	418.496	-0.105	0.229
-537.179	-89.119	0.065	0.019
-536.164	-37.888	-0.132	0.071
-535.150	546.471	0.062	-0.150
-534.135	-106.844	0.078	0.017
-533.121	800.000	-0.050	-0.175
-532.106	-82.211	-0.180	0.060
-531.091	-45.545	-0.255	-0.128
-530.077	-115.036	0.392	-0.076
-529.062	-114.255	0.165	0.032
-528.048	388.346	-0.079	-0.165
-527.033	-102.995	0.071	0.017
-526.018	800.000	-0.050	0.221
-525.004	241.352	0.058	-0.098
-523.989	-141.918	-0.090	0.009
-522.975	-200.000	0.014	0.227
-521.960	66.145	0.080	0.082
-520.945	-200.000	0.070	0.355
-519.931	-10.911	-0.247	-0.165
-518.916	-77.406	0.171	0.060
-517.902	800.000	-0.063	0.199
-516.887	-91.230	-0.071	-0.021
-515.872	25.118	0.224	-0.188
-514.858	800.000	-0.115	-0.456
-513.843	800.000	-0.038	-0.137
-512.829	-9.122	0.255	0.173
-511.814	60.634	0.042	0.043
-510.799	800.000	-0.031	0.133
-509.785	45.330	0.154	-0.144
-508.770	208.862	-0.246	-0.391
-507.756	111.037	-0.049	-0.060
-506.741	286.086	-0.131	0.239
-505.726	-100.890	0.279	-0.070
-504.712	-27.370	0.079	-0.047
-503.697	-200.000	-0.013	0.134
-502.683	-200.000	0.007	-0.136
-501.668	26.468	0.081	-0.069
-500.653	-109.727	0.300	0.064
-499.639	-43.758	-0.165	0.084
-498.624	-75.859	0.056	0.020
-497.610	184.497	0.217	0.326
-496.595	-79.954	-0.221	0.075
-495.581	-200.000	0.051	-0.403
-494.566	-88.748	0.252	-0.076
-493.551	67.816	0.139	-0.144
-492.537	800.000	-0.050	0.161
-491.522	224.431	0.225	0.369
-490.508	59.791	-0.075	0.075
-489.493	-69.372	-0.117	-0.046
-488.478	800.000	-0.040	0.154
-487.464	13.383	0.071	0.056
-486.449	456.071	0.073	-0.164
-485.435	-44.512	-0.050	0.025
-484.420	-56.838	-0.451	-0.202
-483.405	132.053	-0.168	-0.219
-482.391	107.758	0.335	0.404
-481.376	-9.460	0.127	-0.086
-480.362	472.030	-0.054	0.123
-479.347	-33.633	-0.365	0.204
-478.332	351.861	0.040	0.080
-477.318	-200.000	0.001	-0.004
-476.303	-200.000	0.010	0.073
-475.289	-135.323	0.138	0.017
-474.274	469.094	0.035	-0.080
-473.259	-3.509	-0.234	-0.165
-472.245	-142.253	0.226	0.023
-471.230	89.535	-0.220	-0.249
-470.216	543.977	-0.069	0.166
-469.201	57.799	0.040	0.040
-468.186	-124.398	-0.088	0.014
-467.172	-200.000	-0.001	-0.069
-466.157	28.048	-0.075	-0.064
-465.143	-15.129	0.142	0.092
-464.128	800.000	-0.051	0.158
-463.113	165.809	0.120	-0.172
-462.099	-91.197	-0.137	-0.040
-461.084	208.142	0.172	0.273
-460.070	273.211	0.094	-0.169
-459.055	-39.401	-0.205	0.109
-458.040	-63.954	-0.157	-0.065
-457.026	-200.000	-0.010	0.085
-456.011	32.017	-0.145	0.127
-454.997	-200.000	-0.055	-0.255
-453.982	-200.000	0.013	0.089
-452.968	-200.000	-0.009	0.156
-451.953	-72.585	-0.280	-0.105
-450.938	245.447	-0.160	0.273
-449.924	-200.000	0.034	0.326
-448.909	168.277	0.095	-0.137
-447.895	181.434	-0.082	-0.122
-446.880	-200.000	0.035	-0.227
-445.865	-200.000	0.033	0.287
-444.851	51.807	-0.203	-0.195
-443.836	7.605	0.264	-0.200
-442.822	96.029	-0.071	0.082
-441.807	226.476	0.127	-0.208
-440.792	-200.000	0.001	0.143
-439.778	800.000	-0.019	-0.079
-438.763	-200.000	-0.001	-0.092
-437.749	-33.174	-0.094	-0.052
-436.734	51.944	0.099	-0.095
-435.719	-29.454	0.167	-0.097
-434.705	-200.000	-0.013	-0.243
-433.690	-107.483	0.264	-0.059
-432.676	-149.358	-0.201	-0.016
-431.661	79.800	-0.153	-0.166
-430.646	-7.487	-0.067	0.046
-429.632	38.568	0.100	-0.090
-428.617	31.834	-0.258	0.225
-427.603	57.402	-0.142	0.141
-426.588	-90.939	-0.181	-0.053
-425.573	-119.391	0.280	0.049
-424.559	120.336	0.264	0.332
-423.544	-200.000	0.001	0.047
-422.530	-200.000	0.011	-0.128
-421.515	246.335	-0.082	-0.139
-420.500	-93.177	-0.057	-0.016
-419.486	-200.000	-0.014	-0.219
-418.471	-108.104	0.102	0.022
-417.457	800.000	0.008	-0.029
-416.442	-120.161	0.413	-0.071
-415.428	800.000	0.071	0.202
-414.413	-106.651	-0.306	-0.069
-413.398	76.300	-0.077	-0.082
-412.384	525.231	0.053	-0.126
-411.369	84.420	-0.185	0.205
-410.355	101.966	0.022	0.026
-409.340	-110.084	0.376	0.080
-408.325	-117.355	0.385	-0.071
-407.311	208.687	-0.074	0.117
-406.296	298.712	0.027	0.050
-405.282	138.805	0.253	0.336
-404.267	62.586	0.166	0.167
-403.252	403.901	-0.172	0.367
-402.238	-110.573	0.138	-0.029
-401.223	377.400	-0.129	0.267
-400.209	-200.000	-0.017	0.108
-399.194	800.000	0.058	0.194
-398.179	-200.000	-0.008	0.195
-397.165	279.967	0.153	-0.276
-396.150	40.491	0.360	-0.328
-395.136	-200.000	-0.007	0.191
-394.121	39.556	0.101	0.092
-393.106	-71.092	0.173	0.066
-392.092	-17.972	-0.070	0.044
-391.077	213.894	0.161	-0.258
-390.063	-200.000	0.020	-0.094
-389.048	-67.781	0.186	-0.073
-388.033	-129.537	0.266	-0.037
-387.019	-86.046	-0.262	0.082
-386.004	105.211	-0.197	-0.235
-384.990	35.833	0.270	0.239
-383.975	800.000	-0.039	-0.163
-382.960	17.295	0.167	0.134
-381.946	-117.320	0.270	-0.050
-380.931	-200.000	-0.009	-0.214
-379.917	-152.547	0.166	-0.012
-378.902	197.447	0.109	0.167
-377.888	-200.000	-0.009	0.274
-376.873	800.000	-0.084	-0.286
-375.858	-200.000	-0.015	-0.100
-374.844	424.417	-0.103	0.225
-373.829	-200.000	0.020	-0.148
-372.815	800.000	-0.011	-0.034
-371.800	579.591	-0.116	-0.287
-370.785	11.848	-0.295	-0.229
-369.771	76.643	0.301	-0.322
-368.756	-147.982	-0.150	0.013
-367.742	-200.000	-0.019	0.281
-366.727	800.000	0.048	0.152
-365.712	-56.308	-0.286	0.128
-364.698	143.231	0.141	0.189
-363.683	674.629	0.091	-0.240
-362.669	-25.766	-0.157	0.093
-361.654	800.000	0.102	-0.394
-360.639	376.900	-0.122	-0.252
-359.625	491.634	0.132	-0.306
-358.610	-118.477	0.136	-0.024
-357.596	64.494	-0.297	-0.302
-356.581	800.000	-0.047	-0.150
-355.566	-200.000	-0.019	0.109
-354.552	-200.000	-0.032	-0.194
-353.537	-185.248	-0.075	0.001
-352.523	652.112	0.114	0.296
-351.508	800.000	0.068	0.271
-350.493	116.881	0.203	-0.251
-349.479	-79.801	-0.203	-0.069
-348.464	-41.979	-0.158	0.082
-347.450	800.000	0.059	0.259
-346.435	-41.336	-0.094	-0.049
-345.420	-184.444	0.172	-0.003
-344.406	79.781	0.127	-0.137
-343.391	-124.481	-0.524	0.082
-342.377	60.872	0.100	-0.100
-341.362	800.000	-0.105	0.337
-340.348	-3.000	0.107	0.075
-339.333	113.979	0.326	0.399
-338.318	80.297	-0.008	0.009
-337.304	214.776	-0.144	-0.230
-336.289	-151.637	-0.185	0.014
-335.275	3.874	-0.042	-0.031
-334.260	-102.566	-0.162	0.039
-333.245	453.123	-0.068	-0.152
-332.231	-126.033	-0.344	0.052
-331.216	-200.000	-0.048	0.259
-330.202	55.657	0.125	-0.122
-329.187	19.953	-0.214	-0.174
-328.172	-71.887	-0.273	-0.103
-327.158	-200.000	-0.010	-0.423
-326.143	73.970	-0.162	-0.172
-325.129	131.864	0.233	0.303
-324.114	691.666	-0.085	0.224
-323.099	-34.943	0.043	-0.024
-322.085	562.845	0.078	-0.190
-321.070	281.271	0.062	0.113
-320.056	-200.000	-0.001	-0.297
-319.041	63.065	0.252	0.254
-318.026	604.118	0.096	-0.240
-317.012	173.838	0.143	-0.208
-315.997	54.959	0.081	-0.079
-314.983	-200.000	0.012	-0.138
-313.968	-122.901	-0.183	-0.030
-312.953	249.319	-0.096	0.163
-311.939	115.680	0.100	0.123
-310.924	40.211	0.336	0.304
-309.910	-115.964	0.269	0.051
-308.895	800.000	-0.081	-0.333
-307.880	-10.542	-0.312	0.208
-306.866	106.619	0.133	-0.159
-305.851	660.498	-0.133	0.344
-304.837	-200.000	-0.004	0.129
-303.822	46.018	0.128	-0.120
-302.807	179.758	0.125	0.184
-301.793	-116.065	0.274	-0.051
-300.778	-200.000	0.001	0.116
-299.764	-9.995	-0.130	0.087
-298.749	36.509	-0.131	-0.117
-297.735	340.145	-0.084	-0.166
-296.720	-102.065	-0.213	0.052
-295.705	531.773	-0.175	-0.418
-294.691	491.848	-0.060	0.139
-293.676	-59.523	0.271	-0.117
-292.662	-116.079	0.279	0.052
-291.647	26.278	0.434	0.365
-290.632	-200.000	-0.004	0.154
-289.618	197.068	0.296	-0.455
-288.603	-142.677	-0.090	0.009
-287.589	-46.831	0.064	-0.031
-286.574	-158.140	0.042	0.003
-285.559	135.894	-0.137	-0.180
-284.545	54.085	0.323	-0.313
-283.530	-128.752	0.358	0.051
-282.516	-115.678	0.209	-0.039
-281.501	16.097	-0.031	-0.024
-280.486	-200.000	-0.015	-0.190
-279.472	6.509	0.032	-0.024
-278.457	347.195	0.035	0.068
-277.443	-200.000	-0.001	-0.221
-276.428	-171.651	0.152	-0.005
-275.413	332.454	-0.161	0.313
-274.399	484.139	-0.205	0.470
-273.384	-21.929	0.388	0.237
-272.370	-88.451	0.023	0.007
-271.355	62.235	-0.069	0.069
-270.340	316.903	-0.097	0.184
-269.326	-49.885	0.098	0.047
-268.311	-109.240	0.164	-0.035
-267.297	157.093	0.060	-0.084
-266.282	-70.530	0.177	-0.067
-265.267	-145.010	-0.278	-0.026
-264.253	-200.000	0.018	0.243
-263.238	-181.455	-0.135	0.003
-262.224	111.970	-0.153	-0.186
-261.209	-57.214	0.186	0.082
-260.195	108.783	0.113	-0.136
-259.180	-28.876	-0.103	0.059
-258.165	132.895	0.210	-0.273
-257.151	-101.613	0.247	0.060
-256.136	-200.000	-0.451	-0.000
-255.122	-200.000	-0.003	0.187
-254.107	7.905	-0.073	-0.055
-253.092	-12.054	-0.108	-0.071
-252.078	-80.929	-0.170	-0.057
-251.063	186.184	0.188	0.281
-250.049	-10.309	-0.143	0.095
-249.034	308.260	0.058	-0.108
-248.019	89.823	0.222	0.249
-247.005	63.337	-0.388	-0.391
-245.990	80.188	0.270	0.292
-244.976	27.370	-0.103	-0.087
-243.961	-200.000	-0.025	-0.171
-242.946	-20.194	-0.308	0.191
-241.932	-123.037	-0.382	0.062
-240.917	82.367	-0.208	0.227
-239.903	-135.596	-0.303	0.036
-238.888	232.365	-0.036	-0.059
-237.873	27.403	0.108	0.091
-236.859	59.857	0.125	0.124
-235.844	-140.240	0.187	-0.020
-234.830	11.029	-0.177	-0.136
-233.815	-38.890	0.017	0.009
-232.800	-36.668	-0.043	-0.023
-231.786	637.275	-0.053	-0.136
-230.771	-95.049	0.192	-0.052
-229.757	71.010	0.050	0.052
-228.742	-154.729	0.278	0.019
-227.727	-138.544	0.295	0.033
-226.713	-124.336	-0.136	-0.021
-225.698	-10.942	-0.178	-0.118
-224.684	-108.631	-0.113	0.024
-223.669	302.181	0.131	0.243
-222.655	32.680	-0.096	-0.083
-221.640	-200.000	-0.020	-0.457
-220.625	-200.000	-0.011	-0.405
-219.611	-11.248	-0.159	0.105
-218.596	9.696	-0.132	0.101
-217.582	610.005	-0.124	0.312
-216.567	800.000	-0.036	0.144
-215.552	-2.035	0.168	-0.118
-214.538	26.441	-0.137	-0.115
-213.523	-113.922	-0.257	0.050
-212.509	-117.544	0.266	0.048
-211.494	287.438	0.195	-0.354
-210.479	800.000	0.022	0.098
-209.465	389.646	-0.054	0.113
-208.450	273.074	-0.244	0.432
-207.436	-70.757	-0.288	-0.109
-206.421	597.614	0.001	0.003
-205.406	32.996	-0.185	0.160
-204.392	236.559	-0.089	0.148
-203.377	-200.000	-0.006	-0.211
-202.363	-148.750	-0.360	0.029
-201.348	-200.000	-0.007	0.272
-200.333	-200.000	0.112	-0.554
-199.319	-200.000	0.033	-0.263
-198.304	-21.910	0.161	0.098
-197.290	47.355	0.204	0.190
-196.275	-121.563	0.332	-0.055
-195.260	-32.197	0.168	0.094
-194.246	-149.352	-0.247	0.020
-193.231	-6.482	-0.144	0.099
-192.217	220.230	0.144	0.231
-191.202	800.000	-0.031	0.110
-190.187	800.000	0.068	0.205
-189.173	5.866	-0.189	0.141
-188.158	530.652	-0.028	0.066
-187.144	-27.324	0.085	0.049
-186.129	-200.000	0.009	0.197
-185.114	-200.000	0.013	0.069
-184.100	800.000	0.090	0.314
-183.085	-56.719	-0.120	0.053
-182.071	-57.172	0.354	-0.156
-181.056	258.185	-0.130	0.225
-180.042	-86.153	0.421	0.130
-179.027	-37.773	0.293	-0.156
-178.012	-200.000	-0.008	-0.149
-176.998	-58.172	0.233	-0.102
-175.983	800.000	0.113	0.347
-174.969	-154.614	0.228	0.015
-173.954	91.348	0.058	0.065
-172.939	45.067	0.128	0.118
-171.925	53.124	-0.169	0.162
-170.910	626.369	0.143	0.360
-169.896	188.047	-0.101	-0.152
-168.881	-30.716	0.050	-0.028
-167.866	300.887	0.018	-0.034
-166.852	800.000	0.126	0.364
-165.837	-58.008	-0.245	0.107
-164.823	-99.012	-0.276	-0.070
-163.808	-144.464	-0.174	0.016
-162.793	-146.290	-0.250	-0.022
-161.779	-100.509	-0.145	-0.036
-160.764	-146.876	0.125	0.011
-159.750	205.301	-0.191	-0.297
-158.735	-108.021	0.170	-0.037
-157.720	284.407	-0.094	0.169
-156.706	78.653	0.146	0.157
-155.691	-142.802	0.257	0.025
-154.677	-200.000	0.024	-0.260
-153.662	-121.401	0.226	0.038
-152.647	-86.737	0.105	0.032
-151.633	-95.859	-0.255	-0.068
-150.618	71.380	0.041	0.042
-149.604	-106.994	0.241	-0.053
-148.589	412.768	0.053	0.113
-147.574	21.469	0.298	-0.243
-146.560	800.000	0.027	0.080
-145.545	229.928	0.088	0.143
-144.531	-195.283	0.200	-0.002
-143.516	800.000	-0.028	-0.118
-142.502	127.433	-0.119	0.152
-141.487	-141.144	0.035	-0.004
-140.472	-4.389	-0.113	0.078
-139.458	-200.000	-0.045	0.290
-138.443	-93.532	0.133	-0.037
-137.429	516.118	0.192	0.448
-136.414	-174.364	0.210	0.006
-135.399	-56.197	0.224	0.100
-134.385	192.750	-0.122	0.184
-133.370	8.326	-0.077	0.058
-132.356	800.000	-0.066	0.199
-131.341	-32.003	-0.386	-0.216
-130.326	190.896	-0.113	-0.170
-129.312	-42.283	0.123	0.063
-128.297	-123.516	-0.169	-0.027
-127.283	-200.000	0.009	-0.121
-126.268	-57.390	0.130	0.057
-125.253	-88.043	0.416	-0.125
-124.239	-79.582	0.252	0.085
-123.224	-123.302	-0.185	-0.030
-122.210	112.999	-0.178	-0.215
