DTS Sentinel unit serial number:	SN413079Multiplexer serial number:	ORYXHardware model number:	OX4-SRSoftware version number:	ORYX F/W v4.00 Oryx Data Collector v3.7.2.0data status	okinstallation	princeton_trtdifferential loss correction	single-endedforward channel	channel 3reverse channel	N/Adate	2019/09/11time	15:46:11forward acquisition time	60.00reverse acquisition time	0.00gamma	496.2192k internal	0.2290k external	0.2290temperature offset calibration	0.9984default loss term (dB/km)	0.3790temperature slope calibration	1.0000multiplexer offset coefficient	1.0000multiplexer slope coefficient	1.0000fibre end	0.00T internal ref (°C)	42.86T ext. ref 1 (°C)	1.01T ext. ref 2 (°C)	37.85length (m)	temperature (°C)	Stokes	anti-Stokes-747.200	-200.000	-0.077	0.470
-746.185	-200.000	-0.036	0.350
-745.171	800.000	0.054	-0.232
-744.156	140.704	-0.168	0.228
-743.142	-94.200	-0.352	0.099
-742.127	52.407	0.159	0.155
-741.112	-200.000	-0.011	0.397
-740.098	-41.690	-0.222	-0.117
-739.083	-200.000	-0.020	0.096
-738.069	-23.531	-0.129	0.080
-737.054	-139.035	-0.142	-0.016
-736.039	-14.014	0.226	0.150
-735.025	-108.037	0.373	-0.083
-734.010	-124.821	0.040	-0.006
-732.996	-200.000	0.001	0.195
-731.981	-43.614	-0.105	0.054
-730.966	148.956	0.021	0.030
-729.952	-200.000	0.003	0.091
-728.937	147.210	-0.080	0.110
-727.923	-72.763	-0.223	-0.084
-726.908	23.979	0.039	0.033
-725.894	-200.000	0.002	0.111
-724.879	-12.757	0.170	-0.113
-723.864	768.581	0.026	-0.073
-722.850	-200.000	0.002	-0.314
-721.835	81.691	-0.177	-0.196
-720.821	-75.250	0.283	-0.103
-719.806	-36.624	0.268	-0.148
-718.791	-86.597	-0.361	-0.113
-717.777	800.000	0.040	0.119
-716.762	89.832	0.204	0.233
-715.748	56.286	-0.055	0.055
-714.733	-200.000	-0.014	0.202
-713.718	-120.292	0.031	0.005
-712.704	-69.098	0.137	0.054
-711.689	-59.386	-0.129	-0.057
-710.675	800.000	-0.033	0.107
-709.660	-68.223	-0.403	0.161
-708.645	37.919	-0.189	-0.172
-707.631	-5.283	-0.241	0.170
-706.616	77.264	-0.137	0.149
-705.602	129.599	-0.053	0.070
-704.587	286.880	0.133	-0.246
-703.572	-55.256	0.198	-0.091
-702.558	-65.846	0.175	-0.071
-701.543	150.490	0.039	0.054
-700.529	65.618	-0.373	-0.386
-699.514	-39.650	-0.279	0.149
-698.499	324.191	-0.121	0.237
-697.485	800.000	0.077	0.235
-696.470	329.828	-0.262	0.515
-695.456	2.974	-0.197	0.146
-694.441	-98.879	-0.165	-0.043
-693.426	340.608	0.091	0.182
-692.412	9.684	0.185	-0.144
-691.397	31.620	0.011	0.010
-690.383	173.952	0.202	-0.299
-689.368	-11.886	-0.065	-0.044
-688.354	-55.060	0.183	-0.084
-687.339	287.272	-0.079	-0.146
-686.324	14.824	0.264	-0.211
-685.310	-145.917	-0.308	-0.028
-684.295	-200.000	-0.002	0.034
-683.281	289.899	-0.051	0.094
-682.266	68.452	0.147	0.154
-681.251	800.000	0.076	-0.269
-680.237	109.224	0.065	0.080
-679.222	800.000	-0.089	0.356
-678.208	800.000	0.041	0.149
-677.193	-122.292	0.574	-0.096
-676.178	800.000	-0.063	0.221
-675.164	-132.104	-0.306	0.041
-674.149	-72.718	-0.228	-0.086
-673.135	40.252	-0.053	-0.049
-672.120	800.000	0.046	-0.163
-671.105	9.160	0.165	0.127
-670.091	536.052	0.062	-0.150
-669.076	-122.955	-0.360	-0.059
-668.062	800.000	-0.030	0.128
-667.047	-200.000	0.029	-0.318
-666.032	-200.000	-0.001	0.146
-665.018	800.000	-0.050	0.150
-664.003	-200.000	0.011	0.210
-662.989	-135.353	0.083	-0.010
-661.974	-174.643	-0.224	0.006
-660.959	-15.041	-0.262	-0.172
-659.945	270.788	-0.156	-0.280
-658.930	329.096	0.066	-0.129
-657.916	493.673	0.092	-0.216
-656.901	-200.000	-0.024	-0.152
-655.886	-155.758	0.332	-0.022
-654.872	-101.390	0.456	-0.114
-653.857	800.000	0.050	0.151
-652.843	289.214	0.082	-0.152
-651.828	38.675	0.139	0.127
-650.814	-150.315	-0.240	-0.019
-649.799	800.000	0.034	0.101
-648.784	-200.000	0.009	-0.164
-647.770	-116.874	0.304	-0.057
-646.755	-200.000	-0.036	0.214
-645.741	485.485	-0.133	-0.309
-644.726	800.000	-0.058	-0.192
-643.711	-161.009	0.240	0.013
-642.697	-200.000	-0.120	0.584
-641.682	-200.000	0.011	-0.225
-640.668	19.144	0.163	0.133
-639.653	132.501	-0.103	-0.135
-638.638	40.302	-0.132	0.121
-637.624	800.000	-0.064	-0.260
-636.609	63.734	0.126	0.129
-635.595	104.705	-0.246	0.296
-634.580	-69.480	-0.302	-0.118
-633.565	109.057	0.033	0.040
-632.551	432.277	-0.164	-0.362
-631.536	-200.000	0.002	0.048
-630.522	197.277	-0.112	0.174
-629.507	1.545	-0.139	-0.102
-628.492	-75.719	-0.177	-0.064
-627.478	-200.000	-0.003	-0.185
-626.463	-93.637	-0.214	-0.060
-625.449	-116.984	0.293	0.055
-624.434	800.000	-0.045	0.173
-623.419	800.000	-0.090	0.323
-622.405	-200.000	0.008	-0.067
-621.390	546.348	-0.108	-0.263
-620.376	173.692	0.152	0.224
-619.361	-186.243	-0.429	0.006
-618.346	-20.753	0.151	0.095
-617.332	144.020	0.159	0.216
-616.317	134.754	0.031	-0.041
-615.303	46.192	-0.170	-0.160
-614.288	0.034	0.061	0.044
-613.273	689.727	0.046	0.124
-612.259	-200.000	0.026	-0.127
-611.244	242.045	-0.087	0.148
-610.230	21.337	-0.057	0.047
-609.215	76.448	0.096	-0.104
-608.201	474.902	-0.015	-0.034
-607.186	-8.110	0.162	-0.111
-606.171	-22.896	-0.406	0.250
-605.157	800.000	-0.033	0.095
-604.142	17.170	-0.093	-0.075
-603.128	563.193	-0.065	0.160
-602.113	88.340	0.171	-0.194
-601.098	-31.846	0.274	0.157
-600.084	33.849	-0.200	0.178
-599.069	184.617	0.085	-0.128
-598.055	-117.735	-0.017	-0.003
-597.040	800.000	-0.083	0.261
-596.025	800.000	0.102	0.294
-595.011	-85.090	-0.163	0.052
-593.996	-200.000	0.026	0.210
-592.982	189.327	-0.119	0.182
-591.967	800.000	-0.045	0.172
-590.952	577.852	-0.077	-0.191
-589.938	800.000	0.191	-0.595
-588.923	42.121	-0.108	0.100
-587.909	-28.209	-0.204	0.120
-586.894	-41.321	0.282	0.148
-585.879	800.000	-0.066	0.200
-584.865	-70.035	-0.190	-0.074
-583.850	260.958	0.219	-0.385
-582.836	-76.241	-0.478	0.171
-581.821	-34.956	0.072	0.040
-580.806	-200.000	-0.017	-0.080
-579.792	-23.718	-0.048	-0.029
-578.777	710.676	0.088	-0.237
-577.763	290.838	0.114	-0.212
-576.748	151.616	0.065	0.090
-575.733	-57.675	0.006	-0.003
-574.719	762.584	-0.077	-0.214
-573.704	800.000	0.046	-0.138
-572.690	-135.419	-0.213	0.026
-571.675	-68.947	-0.130	0.051
-570.661	-130.270	0.289	0.040
-569.646	375.434	0.114	-0.237
-568.631	-200.000	-0.012	-0.074
-567.617	118.610	-0.178	-0.224
-566.602	59.644	0.074	-0.074
-565.588	68.240	0.092	0.096
-564.573	-21.575	-0.109	-0.068
-563.558	-33.141	-0.208	-0.117
-562.544	-185.013	0.511	-0.008
-561.529	-200.000	0.016	0.147
-560.515	-51.942	-0.330	0.156
-559.500	800.000	-0.164	0.613
-558.485	183.928	-0.117	-0.176
-557.471	-71.283	-0.278	0.106
-556.456	191.856	-0.061	-0.093
-555.442	-200.000	0.042	0.190
-554.427	182.625	-0.050	-0.074
-553.412	-45.964	0.249	-0.125
-552.398	136.345	0.206	-0.273
-551.383	-178.614	0.370	-0.009
-550.369	38.651	0.274	0.249
-549.354	25.176	0.231	0.195
-548.339	-134.289	0.203	-0.025
-547.325	-200.000	0.002	0.284
-546.310	800.000	0.028	-0.116
-545.296	444.788	-0.104	-0.231
-544.281	353.921	0.025	0.051
-543.266	-98.589	-0.194	-0.050
-542.252	800.000	-0.024	0.085
-541.237	72.334	-0.137	-0.145
-540.223	118.679	0.069	0.086
-539.208	154.584	-0.186	0.260
-538.193	-34.940	-0.078	0.044
-537.179	-200.000	-0.020	-0.200
-536.164	-109.028	-0.297	-0.064
-535.150	71.388	0.173	-0.183
-534.135	-200.000	-0.002	0.029
-533.121	10.435	0.230	-0.178
-532.106	490.362	-0.077	-0.180
-531.091	177.778	-0.159	0.235
-530.077	-26.197	0.096	-0.058
-529.062	-200.000	-0.026	-0.266
-528.048	-55.952	0.171	0.077
-527.033	-96.320	0.169	0.045
-526.018	-99.012	-0.214	-0.055
-525.004	86.840	0.149	-0.167
-523.989	-76.059	-0.452	0.162
-522.975	-200.000	0.051	-0.294
-521.960	-85.203	0.012	-0.004
-520.945	-121.419	0.238	-0.040
-519.931	161.986	-0.175	0.249
-518.916	-8.709	0.292	-0.199
-517.902	-17.114	-0.065	0.041
-516.887	-175.624	-0.192	0.005
-515.872	-151.228	-0.245	0.019
-514.858	-200.000	0.010	-0.113
-513.843	-19.442	0.192	-0.121
-512.829	90.902	0.121	-0.138
-511.814	210.942	-0.219	0.350
-510.799	-200.000	-0.039	0.307
-509.785	50.302	0.264	0.253
-508.770	-49.356	-0.313	-0.152
-507.756	-91.418	0.197	-0.057
-506.741	313.149	-0.177	0.338
-505.726	2.362	0.211	0.155
-504.712	116.581	0.081	0.101
-503.697	-117.357	0.316	0.058
-502.683	-166.139	0.112	-0.005
-501.668	-200.000	0.029	-0.174
-500.653	-111.577	-0.084	-0.017
-499.639	800.000	0.040	0.115
-498.624	-34.374	0.098	0.054
-497.610	132.596	0.044	-0.057
-496.595	-81.912	0.138	0.046
-495.581	299.253	0.180	0.336
-494.566	-106.756	-0.146	0.033
-493.551	36.107	0.199	-0.178
-492.537	320.200	-0.136	0.263
-491.522	-200.000	0.003	-0.103
-490.508	-200.000	-0.014	-0.086
-489.493	-97.390	0.268	0.071
-488.478	-200.000	-0.073	-0.340
-487.464	800.000	-0.068	-0.191
-486.449	103.705	0.110	0.131
-485.435	677.916	-0.038	-0.100
-484.420	-200.000	-0.011	-0.234
-483.405	-118.566	0.276	-0.050
-482.391	-70.995	0.216	0.082
-481.376	-127.872	-0.589	-0.086
-480.362	-7.040	-0.098	-0.067
-479.347	257.351	-0.104	-0.181
-478.332	-200.000	0.025	0.153
-477.318	317.506	-0.198	0.380
-476.303	-20.375	0.477	-0.298
-475.289	95.197	-0.200	0.231
-474.274	102.683	-0.121	-0.143
-473.259	-200.000	-0.066	-0.365
-472.245	-200.000	-0.016	-0.243
-471.230	-92.991	-0.183	0.052
-470.216	186.656	-0.048	0.072
-469.201	11.694	0.047	-0.037
-468.186	-200.000	0.019	-0.116
-467.172	-200.000	0.030	-0.230
-466.157	-18.569	-0.127	-0.080
-465.143	57.624	-0.078	0.078
-464.128	66.820	0.033	0.034
-463.113	-156.128	0.239	-0.015
-462.099	-200.000	0.045	0.210
-461.084	-19.002	-0.200	0.126
-460.070	-8.070	0.265	-0.181
-459.055	-57.665	-0.070	-0.031
-458.040	800.000	0.078	-0.304
-457.026	206.495	-0.120	0.189
-456.011	424.676	0.157	0.342
-454.997	-22.835	0.179	0.109
-453.982	127.440	0.106	-0.137
-452.968	262.858	-0.131	0.231
-451.953	-138.376	-0.162	0.018
-450.938	-28.131	0.190	0.112
-449.924	-200.000	-0.069	0.330
-448.909	-200.000	-0.029	-0.381
-447.895	-200.000	0.014	-0.292
-446.880	539.440	0.103	0.249
-445.865	253.122	-0.140	0.241
-444.851	121.375	0.019	0.024
-443.836	-137.582	-0.137	0.016
-442.822	-200.000	-0.013	0.159
-441.807	-200.000	0.055	-0.284
-440.792	547.769	-0.038	-0.093
-439.778	330.405	0.122	-0.238
-438.763	-200.000	0.191	0.000
-437.749	-164.084	-0.138	0.006
-436.734	-200.000	0.042	-0.329
-435.719	-200.000	0.007	0.136
-434.705	800.000	0.106	0.437
-433.690	-3.032	-0.309	0.218
-432.676	-24.614	-0.216	0.130
-431.661	318.163	0.015	0.028
-430.646	85.275	-0.146	-0.163
-429.632	97.362	0.137	0.160
-428.617	74.272	-0.104	-0.111
-427.603	42.727	-0.197	-0.182
-426.588	6.990	0.270	0.204
-425.573	-200.000	-0.030	-0.158
-424.559	-184.168	0.131	0.002
-423.544	-91.934	-0.170	0.049
-422.530	-52.891	-0.272	0.127
-421.515	-144.786	-0.566	0.053
-420.500	-200.000	0.017	-0.301
-419.486	-200.000	-0.014	0.093
-418.471	-100.339	0.304	0.076
-417.457	-86.937	-0.186	-0.057
-416.442	627.599	-0.141	-0.360
-415.428	58.558	-0.279	-0.277
-414.413	-31.360	0.048	-0.027
-413.398	11.349	-0.166	0.128
-412.384	0.339	-0.109	0.079
-411.369	210.849	0.086	-0.136
-410.355	-38.966	0.186	0.099
-409.340	95.346	0.196	-0.226
-408.325	-101.860	-0.146	0.036
-407.311	448.949	-0.116	-0.259
-406.296	118.421	0.018	0.022
-405.282	47.943	-0.113	-0.107
-404.267	-91.175	0.136	-0.039
-403.252	-200.000	0.007	0.225
-402.238	-176.655	0.245	0.006
-401.223	65.454	-0.204	0.209
-400.209	-59.212	0.166	0.072
-399.194	28.951	0.265	-0.227
-398.179	47.803	0.166	-0.157
-397.165	263.747	-0.029	0.050
-396.150	-142.019	-0.145	0.015
-395.136	-84.706	-0.398	0.127
-394.121	-200.000	-0.009	-0.125
-393.106	177.713	0.028	0.041
-392.092	31.359	0.110	-0.096
-391.077	114.106	0.092	0.113
-390.063	-86.783	-0.474	-0.146
-389.048	106.152	-0.162	-0.194
-388.033	800.000	-0.078	-0.257
-387.019	-115.211	0.351	-0.067
-386.004	271.861	0.143	-0.255
-384.990	-200.000	-0.016	0.098
-383.975	800.000	-0.026	0.099
-382.960	800.000	-0.081	-0.285
-381.946	142.012	-0.107	-0.143
-380.931	-156.454	0.128	-0.008
-379.917	-200.000	0.002	-0.061
-378.902	-55.326	0.238	0.108
-377.888	115.226	0.111	-0.137
-376.873	330.354	0.116	0.226
-375.858	422.148	-0.165	0.357
-374.844	-99.500	0.181	0.046
-373.829	57.461	-0.192	-0.190
-372.815	800.000	-0.013	-0.039
-371.800	54.957	0.194	0.189
-370.785	-149.287	0.380	-0.031
-369.771	-165.188	-0.057	-0.003
-368.756	65.361	0.194	-0.198
-367.742	-200.000	-0.051	0.381
-366.727	-200.000	0.015	0.138
-365.712	55.900	0.210	0.205
-364.698	800.000	0.048	-0.157
-363.683	208.419	0.086	0.135
-362.669	430.878	-0.158	0.345
-361.654	56.850	-0.194	0.191
-360.639	-200.000	-0.054	-0.258
-359.625	-140.060	-0.178	0.019
-358.610	800.000	-0.069	-0.265
-357.596	-200.000	0.023	-0.343
-356.581	-200.000	-0.010	0.095
-355.566	800.000	0.058	0.163
-354.552	41.120	0.107	-0.098
-353.537	111.315	0.205	-0.250
-352.523	-34.004	-0.134	0.074
-351.508	-117.340	-0.075	-0.014
-350.493	-30.101	-0.181	0.104
-349.479	-18.420	-0.262	0.165
-348.464	-200.000	0.002	-0.248
-347.450	-63.795	-0.189	0.078
-346.435	-103.274	-0.277	0.066
-345.420	-43.856	0.274	0.139
-344.406	-96.464	-0.149	0.040
-343.391	-111.160	0.238	-0.049
-342.377	222.856	0.103	0.167
-341.362	-200.000	0.040	0.238
-340.348	-42.589	-0.138	0.071
-339.333	54.519	-0.098	-0.095
-338.318	800.000	0.019	-0.069
-337.304	52.796	-0.165	0.159
-336.289	-85.053	-0.221	0.070
-335.275	800.000	0.055	-0.154
-334.260	377.974	0.109	0.226
-333.245	62.865	-0.183	0.185
-332.231	8.914	-0.247	-0.188
-331.216	800.000	0.031	0.101
-330.202	140.849	0.120	-0.160
-329.187	-75.214	-0.330	-0.119
-328.172	320.259	-0.164	0.313
-327.158	-77.685	-0.149	0.052
-326.143	202.524	-0.135	0.210
-325.129	-183.821	-0.129	0.002
-324.114	-145.426	-0.453	-0.041
-323.099	-44.995	-0.288	0.145
-322.085	438.338	0.155	-0.341
-321.070	751.203	0.109	-0.295
-320.056	246.107	-0.098	-0.166
-319.041	-200.000	-0.026	-0.228
-318.026	-137.236	0.133	0.015
-317.012	-89.606	0.175	-0.052
-315.997	12.825	-0.105	-0.081
-314.983	61.405	0.074	-0.075
-313.968	76.209	0.145	0.154
-312.953	-88.228	0.160	-0.048
-311.939	-111.040	-0.298	0.062
-310.924	666.293	-0.027	0.071
-309.910	-200.000	0.045	-0.320
-308.895	115.724	0.024	-0.030
-307.880	125.990	0.109	-0.138
-306.866	-57.746	0.331	-0.146
-305.851	-200.000	-0.033	0.153
-304.837	-124.492	0.318	-0.050
-303.822	720.791	-0.069	0.184
-302.807	-200.000	-0.051	0.453
-301.793	-200.000	-0.007	0.184
-300.778	35.335	0.093	0.082
-299.764	135.540	-0.113	0.148
-298.749	69.747	-0.119	-0.123
-297.735	27.123	-0.262	-0.222
-296.720	-62.701	0.187	-0.078
-295.705	-200.000	-0.033	0.261
-294.691	-200.000	-0.059	-0.310
-293.676	-145.219	0.209	-0.019
-292.662	215.913	-0.108	-0.172
-291.647	-174.894	-0.186	0.005
-290.632	-200.000	-0.030	0.205
-289.618	-200.000	-0.027	0.196
-288.603	-58.162	0.329	0.144
-287.589	59.552	-0.062	-0.062
-286.574	308.447	0.073	0.137
-285.559	-37.774	0.083	0.044
-284.545	-96.637	0.187	-0.050
-283.530	-200.000	0.027	-0.441
-282.516	-130.479	0.096	0.013
-281.501	-117.691	-0.089	-0.016
-280.486	-18.320	-0.220	-0.139
-279.472	601.486	0.073	-0.181
-278.457	-150.085	-0.252	0.020
-277.443	131.561	-0.189	0.244
-276.428	55.590	-0.156	0.152
-275.413	800.000	-0.016	0.069
-274.399	800.000	0.079	-0.275
-273.384	129.367	-0.030	-0.038
-272.370	-29.709	0.354	-0.203
-271.355	800.000	0.057	-0.202
-270.340	284.730	-0.177	0.320
-269.326	220.459	0.040	-0.064
-268.311	-200.000	-0.042	-0.278
-267.297	65.522	0.034	0.035
-266.282	457.046	0.044	-0.099
-265.267	-135.040	0.162	-0.020
-264.253	-200.000	-0.018	0.160
-263.238	-142.191	0.081	0.008
-262.224	161.772	-0.286	0.403
-261.209	-82.703	-0.463	-0.151
-260.195	-200.000	-0.063	-0.435
-259.180	-139.957	0.151	0.016
-258.165	-51.514	0.097	-0.046
-257.151	-72.332	0.084	-0.031
-256.136	-3.254	0.150	-0.105
-255.122	60.072	-0.072	-0.072
-254.107	-53.114	-0.191	-0.088
-253.092	492.215	-0.074	0.172
-252.078	-200.000	-0.019	-0.131
-251.063	500.481	0.086	0.199
-250.049	-200.000	0.004	0.046
-249.034	311.810	0.087	-0.164
-248.019	-198.864	0.290	0.002
-247.005	34.067	0.187	-0.164
-245.990	58.851	-0.043	-0.042
-244.976	-99.325	-0.279	-0.071
-243.961	-68.273	-0.199	0.078
-242.946	196.332	-0.191	-0.292
-241.932	1.776	0.246	0.178
-240.917	-166.254	0.306	0.013
-239.903	-84.315	-0.284	0.090
-238.888	335.826	0.073	0.142
-237.873	211.617	0.063	0.099
-236.859	-108.098	-0.253	-0.055
-235.844	-200.000	0.003	-0.057
-234.830	53.672	-0.050	-0.049
-233.815	-33.501	-0.155	0.086
-232.800	59.753	0.150	0.148
-231.786	145.010	-0.123	0.165
-230.771	-126.884	0.261	-0.039
-229.757	-200.000	-0.012	-0.192
-228.742	227.500	0.103	0.169
-227.727	205.258	0.178	0.277
-226.713	800.000	0.093	-0.370
-225.698	-200.000	-0.065	-0.552
-224.684	-200.000	-0.031	-0.204
-223.669	-15.100	-0.215	0.139
-222.655	-200.000	-0.022	0.121
-221.640	-20.616	0.399	-0.246
-220.625	-200.000	0.038	0.245
-219.611	-93.144	0.100	-0.028
-218.596	-108.294	0.158	0.034
-217.582	227.707	0.032	0.053
-216.567	-200.000	0.012	0.294
-215.552	-16.555	0.056	-0.036
-214.538	72.296	-0.117	0.122
-213.523	-110.065	-0.228	-0.048
-212.509	-44.390	0.318	0.160
-211.494	-137.840	0.234	-0.026
-210.479	-116.499	0.531	0.098
-209.465	142.543	-0.030	0.040
-208.450	-125.949	0.085	-0.013
-207.436	-114.416	0.089	0.017
-206.421	-108.691	0.106	0.023
-205.406	589.587	0.066	0.163
-204.392	197.866	-0.052	-0.080
-203.377	-74.863	0.008	-0.003
-202.363	800.000	0.025	0.073
-201.348	6.557	-0.280	0.208
-200.333	48.147	0.263	0.247
-199.319	-67.070	-0.351	0.139
-198.304	180.642	-0.134	0.197
-197.290	-101.493	0.290	-0.071
-196.275	-200.000	-0.024	-0.159
-195.260	-200.000	0.032	-0.190
-194.246	473.162	0.101	-0.228
-193.231	-43.966	-0.065	-0.033
-192.217	-39.496	0.296	0.156
-191.202	61.484	-0.194	-0.194
-190.187	57.083	-0.121	-0.118
-189.173	103.158	0.214	0.252
-188.158	-174.109	0.382	0.011
-187.144	-57.377	-0.133	-0.058
-186.129	-200.000	-0.014	-0.311
-185.114	534.307	-0.013	-0.032
-184.100	-200.000	-0.004	0.047
-183.085	419.699	0.086	-0.184
-182.071	596.465	0.055	-0.136
-181.056	152.686	0.121	0.165
-180.042	-200.000	-0.029	0.167
-179.027	-200.000	-0.020	-0.177
-178.012	86.704	0.028	-0.031
-176.998	-200.000	-0.033	-0.467
-175.983	502.407	-0.093	-0.214
-174.969	11.845	-0.300	-0.231
-173.954	26.132	0.323	0.271
-172.939	242.474	-0.212	0.355
-171.925	-127.076	0.392	-0.058
-170.910	-18.169	0.136	-0.085
-169.896	-115.133	0.273	0.052
-168.881	344.122	-0.053	0.104
-167.866	-200.000	0.027	0.149
-166.852	800.000	0.079	-0.246
-165.837	-73.352	-0.111	0.041
-164.823	508.011	-0.078	0.183
-163.808	-200.000	-0.051	0.422
-162.793	249.450	0.167	-0.283
-161.779	245.640	0.137	-0.231
-160.764	-200.000	-0.022	0.243
-159.750	-200.000	0.011	0.189
-158.735	-81.586	0.113	-0.037
-157.720	284.569	0.113	0.204
-156.706	-150.821	0.206	0.016
-155.691	-97.101	0.211	0.055
-154.677	169.054	0.158	0.225
-153.662	9.712	-0.135	0.103
-152.647	149.174	0.265	0.359
-151.633	-99.392	-0.231	-0.058
-150.618	-67.854	-0.032	-0.013
-149.604	-200.000	0.007	-0.035
-148.589	800.000	0.086	0.323
-147.574	800.000	-0.096	0.333
-146.560	800.000	0.062	0.179
-145.545	63.603	0.219	0.220
-144.531	-200.000	-0.057	0.395
-143.516	-200.000	-0.015	-0.449
-142.502	-33.667	-0.278	-0.153
-141.487	16.109	0.129	0.102
-140.472	44.111	-0.108	0.099
-139.458	36.470	-0.418	-0.369
-138.443	71.465	0.102	-0.106
-137.429	-200.000	-0.017	-0.188
-136.414	-200.000	0.024	0.188
-135.399	-37.679	0.226	-0.121
-134.385	82.122	-0.017	-0.018
-133.370	-15.279	-0.214	-0.137
-132.356	-169.160	-0.043	0.002
-131.341	-18.518	-0.334	0.208
-130.326	134.391	0.185	0.240
-129.312	-190.436	-0.129	-0.001
-128.297	-104.460	-0.185	-0.043
-127.283	800.000	-0.052	0.187
-126.268	-181.043	-0.235	0.005
-125.253	373.883	0.058	0.117
-124.239	103.838	0.122	0.143
-123.224	-128.835	-0.335	0.047
-122.210	78.712	-0.128	0.137
-121.195	625.482	-0.056	0.142
