DTS Sentinel unit serial number:	SN413079Multiplexer serial number:	ORYXHardware model number:	OX4-SRSoftware version number:	ORYX F/W v4.00 Oryx Data Collector v3.7.2.0data status	okinstallation	princeton_trtdifferential loss correction	single-endedforward channel	channel 3reverse channel	N/Adate	2019/09/11time	09:02:11forward acquisition time	60.00reverse acquisition time	0.00gamma	496.2192k internal	0.2309k external	0.2309temperature offset calibration	0.9944default loss term (dB/km)	0.3790temperature slope calibration	1.0000multiplexer offset coefficient	1.0000multiplexer slope coefficient	1.0000fibre end	0.00T internal ref (°C)	34.12T ext. ref 1 (°C)	0.14T ext. ref 2 (°C)	30.43length (m)	temperature (°C)	Stokes	anti-Stokes-747.200	800.000	-0.039	0.134
-746.185	127.255	-0.205	0.265
-745.171	-200.000	0.054	-0.295
-744.156	125.335	-0.122	-0.156
-743.142	619.727	-0.100	0.256
-742.127	-200.000	0.017	0.453
-741.112	-56.194	0.231	-0.105
-740.098	800.000	0.105	0.335
-739.083	159.521	0.134	-0.190
-738.069	800.000	0.103	0.300
-737.054	-90.743	-0.139	0.041
-736.039	334.338	0.064	0.126
-735.025	80.645	0.182	0.199
-734.010	130.064	-0.195	-0.254
-732.996	-19.498	-0.261	-0.165
-731.981	-97.571	0.112	-0.030
-730.966	385.921	0.092	-0.194
-729.952	297.629	-0.049	0.092
-728.937	287.054	0.103	0.190
-727.923	800.000	-0.071	-0.282
-726.908	-164.577	-0.283	0.013
-725.894	-200.000	0.018	-0.338
-724.879	-165.041	0.044	-0.002
-723.864	137.888	-0.151	-0.201
-722.850	-200.000	0.028	-0.144
-721.835	-116.203	0.222	0.042
-720.821	646.737	0.032	0.084
-719.806	-179.565	0.329	-0.007
-718.791	-200.000	-0.039	0.215
-717.777	800.000	0.081	-0.321
-716.762	800.000	-0.020	0.062
-715.748	186.787	0.094	0.142
-714.733	-200.000	-0.072	0.373
-713.718	-200.000	-0.003	0.039
-712.704	-200.000	-0.030	-0.135
-711.689	277.217	0.052	-0.094
-710.675	-84.052	-0.093	-0.030
-709.660	-132.835	0.256	-0.033
-708.645	16.797	-0.389	-0.312
-707.631	-200.000	-0.015	-0.184
-706.616	800.000	0.056	-0.159
-705.602	140.301	-0.270	-0.361
-704.587	-102.661	0.162	0.039
-703.572	233.971	0.159	0.266
-702.558	206.018	0.129	-0.203
-701.543	-123.796	0.131	0.021
-700.529	800.000	0.088	-0.342
-699.514	244.963	-0.096	0.163
-698.499	800.000	0.067	0.206
-697.485	-200.000	-0.025	-0.228
-696.470	-200.000	-0.071	0.326
-695.456	-125.128	-0.221	0.034
-694.441	-78.164	0.219	0.077
-693.426	138.841	0.119	0.159
-692.412	-24.728	0.077	0.046
-691.397	489.009	0.048	0.110
-690.383	-141.399	0.169	-0.017
-689.368	48.442	-0.244	0.232
-688.354	33.579	0.252	-0.222
-687.339	-200.000	0.091	0.487
-686.324	-200.000	-0.007	-0.179
-685.310	-194.824	-0.190	-0.001
-684.295	100.294	0.045	-0.053
-683.281	6.660	-0.075	0.056
-682.266	-200.000	0.012	-0.206
-681.251	71.259	-0.168	-0.177
-680.237	-146.089	0.370	0.033
-679.222	-200.000	0.001	-0.317
-678.208	359.815	0.172	0.350
-677.193	-156.014	-0.370	0.024
-676.178	185.253	0.265	-0.398
-675.164	295.155	-0.076	0.141
-674.149	444.129	-0.150	-0.334
-673.135	-109.425	-0.117	-0.025
-672.120	-126.177	0.065	-0.010
-671.105	-200.000	-0.020	0.301
-670.091	275.566	-0.009	0.017
-669.076	242.452	0.261	-0.442
-668.062	-24.343	0.060	0.036
-667.047	146.854	-0.125	0.170
-666.032	8.742	-0.171	0.131
-665.018	34.857	-0.279	0.248
-664.003	243.608	0.075	-0.128
-662.989	-172.063	0.159	-0.005
-661.974	249.508	0.088	-0.151
-660.959	-78.926	0.439	-0.151
-659.945	-172.993	-0.419	-0.013
-658.930	-65.229	0.200	0.082
-657.916	-158.310	-0.072	0.004
-656.901	163.097	-0.036	0.051
-655.886	-200.000	-0.020	0.179
-654.872	-159.088	-0.129	0.007
-653.857	-84.775	-0.100	0.032
-652.843	22.583	0.086	0.071
-651.828	304.902	0.046	0.086
-650.814	110.691	-0.056	0.068
-649.799	-53.344	-0.171	0.079
-648.784	-1.925	0.148	0.105
-647.770	-200.000	-0.023	-0.241
-646.755	-72.694	0.118	-0.044
-645.741	33.705	-0.256	-0.225
-644.726	-6.368	-0.212	0.147
-643.711	800.000	-0.068	0.274
-642.697	77.533	0.088	0.095
-641.682	3.163	-0.213	0.157
-640.668	800.000	-0.148	-0.439
-639.653	197.067	-0.156	0.241
-638.638	199.589	-0.245	0.380
-637.624	137.322	0.152	0.202
-636.609	466.887	0.046	0.105
-635.595	61.385	0.114	-0.114
-634.580	-173.791	0.282	-0.008
-633.565	-72.056	-0.398	-0.150
-632.551	-77.724	-0.161	0.056
-631.536	-125.563	-0.450	0.069
-630.522	-72.903	0.427	0.159
-629.507	188.269	0.160	0.241
-628.492	-200.000	0.101	0.458
-627.478	481.988	0.098	-0.226
-626.463	800.000	0.143	-0.462
-625.449	44.841	-0.056	-0.052
-624.434	24.035	-0.222	-0.185
-623.419	800.000	0.042	0.152
-622.405	-33.211	0.293	0.164
-621.390	208.219	0.076	-0.120
-620.376	168.251	0.064	-0.093
-619.361	104.953	0.275	0.328
-618.346	99.738	0.255	0.299
-617.332	800.000	0.056	0.165
-616.317	-84.949	0.184	-0.058
-615.303	147.656	0.094	0.128
-614.288	-200.000	0.013	-0.207
-613.273	-43.496	0.281	0.143
-612.259	800.000	0.032	0.118
-611.244	2.013	-0.272	-0.199
-610.230	-60.152	-0.092	0.039
-609.215	800.000	-0.051	-0.195
-608.201	-182.796	0.154	0.003
-607.186	72.743	0.065	0.068
-606.171	4.099	0.260	-0.192
-605.157	181.914	0.244	-0.364
-604.142	587.826	0.049	-0.123
-603.128	133.679	-0.131	0.171
-602.113	-108.990	0.054	0.012
-601.098	76.476	-0.126	0.135
-600.084	236.061	0.133	-0.223
-599.069	557.203	0.074	-0.180
-598.055	-200.000	0.008	0.126
-597.040	-200.000	0.013	0.147
-596.025	460.992	-0.038	-0.086
-595.011	316.518	-0.055	0.104
-593.996	800.000	-0.029	-0.100
-592.982	800.000	-0.019	0.081
-591.967	100.721	-0.140	0.164
-590.952	125.193	0.083	-0.105
-589.938	-21.185	-0.289	-0.178
-588.923	160.274	-0.030	0.043
-587.909	-50.154	-0.152	-0.072
-586.894	27.038	-0.163	0.138
-585.879	800.000	0.068	0.278
-584.865	113.428	0.144	0.176
-583.850	180.370	-0.085	-0.127
-582.836	-136.412	0.302	0.035
-581.821	800.000	0.075	-0.259
-580.806	800.000	0.074	0.217
-579.792	129.729	-0.268	-0.347
-578.777	-158.045	-0.227	0.013
-577.763	507.446	0.149	-0.349
-576.748	21.052	0.097	0.079
-575.733	-16.501	0.085	-0.054
-574.719	-63.731	0.165	0.068
-573.704	76.053	-0.147	-0.157
-572.690	-72.761	0.229	-0.085
-571.675	164.452	0.257	-0.365
-570.661	-200.000	-0.008	0.269
-569.646	-85.804	-0.115	-0.036
-568.631	-44.033	-0.086	0.044
-567.617	44.687	-0.146	0.136
-566.602	-117.586	-0.119	-0.022
-565.588	-94.556	0.098	-0.027
-564.573	84.386	-0.130	-0.144
-563.558	76.458	0.145	-0.155
-562.544	-117.865	0.227	-0.041
-561.529	-106.524	-0.474	0.107
-560.515	-102.552	-0.244	0.059
-559.500	-76.821	0.169	-0.060
-558.485	32.823	-0.201	0.175
-557.471	27.965	-0.181	-0.154
-556.456	-200.000	-0.040	-0.249
-555.442	2.429	0.320	-0.233
-554.427	-55.087	0.131	-0.060
-553.412	132.319	0.173	-0.225
-552.398	-63.995	0.064	0.027
-551.383	36.189	0.243	0.216
-550.369	-87.648	0.183	-0.056
-549.354	-2.967	-0.022	-0.015
-548.339	-94.407	-0.199	-0.055
-547.325	800.000	0.048	0.154
-546.310	-2.958	-0.109	0.077
-545.296	12.978	0.181	-0.141
-544.281	188.627	-0.112	-0.168
-543.266	-23.783	0.128	0.077
-542.252	382.880	-0.159	-0.330
-541.237	-121.552	-0.352	0.059
-540.223	181.852	0.111	-0.165
-539.208	-173.725	-0.564	-0.017
-538.193	-90.686	0.263	0.077
-537.179	-50.735	-0.089	-0.042
-536.164	-53.411	0.089	-0.041
-535.150	-192.061	0.108	-0.001
-534.135	-87.500	0.430	-0.131
-533.121	-46.159	0.356	0.176
-532.106	-16.465	0.021	-0.013
-531.091	-26.268	0.086	-0.051
-530.077	-36.366	-0.116	0.063
-529.062	-12.793	0.083	-0.054
-528.048	620.129	0.189	-0.479
-527.033	-89.877	-0.103	0.030
-526.018	34.650	0.216	0.190
-525.004	342.462	-0.097	-0.191
-523.989	-200.000	-0.014	-0.189
-522.975	66.609	-0.145	0.149
-521.960	-141.685	0.214	0.022
-520.945	-67.869	-0.439	0.173
-519.931	268.106	-0.148	-0.261
-518.916	164.488	-0.014	-0.020
-517.902	109.298	-0.230	0.277
-516.887	304.788	0.088	0.165
-515.872	-79.802	0.348	0.118
-514.858	-200.000	-0.046	-0.204
-513.843	-200.000	0.025	0.180
-512.829	-9.625	0.068	0.046
-511.814	-130.895	-0.343	0.046
-510.799	166.681	0.125	0.179
-509.785	-97.090	-0.371	-0.098
-508.770	69.871	-0.059	-0.061
-507.756	263.542	-0.071	-0.124
-506.741	354.227	-0.176	0.351
-505.726	-60.300	-0.094	0.040
-504.712	-200.000	-0.047	0.258
-503.697	-43.657	-0.219	-0.111
-502.683	-37.215	0.172	-0.093
-501.668	-78.867	-0.110	-0.038
-500.653	233.371	-0.095	-0.158
-499.639	261.666	-0.115	0.200
-498.624	-150.675	0.159	-0.012
-497.610	-33.010	0.163	0.091
-496.595	770.980	0.028	0.077
-495.581	-50.036	0.358	-0.171
-494.566	-26.155	0.358	0.212
-493.551	-200.000	0.019	-0.186
-492.537	-200.000	0.034	-0.154
-491.522	32.376	0.173	-0.150
-490.508	267.993	0.056	0.098
-489.493	-22.687	0.330	-0.201
-488.478	-118.456	0.262	-0.047
-487.464	316.290	0.030	-0.057
-486.449	-153.118	-0.324	0.023
-485.435	95.971	-0.251	-0.288
-484.420	-111.429	-0.287	0.059
-483.405	-22.383	-0.258	-0.157
-482.391	-92.194	0.228	0.065
-481.376	29.936	-0.081	0.069
-480.362	-200.000	0.021	-0.124
-479.347	-87.427	-0.318	-0.097
-478.332	-169.104	-0.163	-0.006
-477.318	-200.000	-0.017	0.087
-476.303	600.517	-0.126	0.313
-475.289	42.858	0.142	0.130
-474.274	546.596	-0.120	0.288
-473.259	602.494	0.019	-0.048
-472.245	115.338	0.113	-0.139
-471.230	-103.795	0.050	0.012
-470.216	-200.000	-0.349	0.001
-469.201	-140.587	-0.133	-0.014
-468.186	-77.576	0.096	-0.033
-467.172	149.157	0.176	0.239
-466.157	231.003	-0.062	-0.102
-465.143	-125.392	0.168	0.026
-464.128	135.719	-0.169	-0.222
-463.113	479.026	0.066	-0.150
-462.099	-52.533	0.105	-0.049
-461.084	-36.588	-0.169	-0.091
-460.070	35.074	-0.127	-0.112
-459.055	362.450	-0.063	0.126
-458.040	105.865	-0.141	-0.167
-457.026	-68.913	0.101	0.039
-456.011	56.820	0.160	-0.157
-454.997	166.093	-0.060	-0.085
-453.982	-200.000	-0.010	0.054
-452.968	-200.000	0.004	-0.098
-451.953	-156.753	-0.338	-0.021
-450.938	187.724	-0.106	-0.159
-449.924	2.805	0.137	0.100
-448.909	800.000	-0.076	0.267
-447.895	-60.470	-0.210	-0.090
-446.880	800.000	-0.065	-0.239
-445.865	198.074	-0.075	-0.115
-444.851	-200.000	-0.006	-0.068
-443.836	-28.326	-0.138	-0.080
-442.822	12.838	0.268	0.208
-441.807	-35.786	0.351	-0.191
-440.792	-96.954	-0.422	-0.111
-439.778	-4.003	0.303	-0.211
-438.763	-124.771	0.269	-0.042
-437.749	-62.890	-0.177	0.074
-436.734	143.744	0.130	0.175
-435.719	-161.899	0.208	-0.011
-434.705	114.109	-0.076	-0.093
-433.690	-36.863	0.271	-0.146
-432.676	-4.619	-0.117	0.081
-431.661	800.000	0.134	-0.411
-430.646	-29.712	-0.060	0.035
-429.632	85.301	-0.176	-0.193
-428.617	-169.268	0.338	-0.013
-427.603	-153.323	-0.204	-0.014
-426.588	261.428	0.176	0.305
-425.573	-44.549	-0.228	-0.114
-424.559	-60.808	0.129	-0.055
-423.544	219.055	-0.106	0.170
-422.530	-26.254	-0.119	0.070
-421.515	-118.862	-0.061	-0.011
-420.500	-200.000	0.014	0.087
-419.486	442.462	0.043	-0.094
-418.471	22.450	-0.057	0.047
-417.457	-148.182	0.268	0.022
-416.442	800.000	0.073	-0.213
-415.428	-62.392	0.204	-0.085
-414.413	628.046	0.043	-0.109
-413.398	65.057	-0.279	-0.283
-412.384	800.000	0.032	-0.097
-411.369	-158.836	0.137	0.008
-410.355	-33.850	0.165	0.091
-409.340	800.000	-0.058	-0.209
-408.325	724.128	-0.082	-0.218
-407.311	-39.681	-0.248	-0.130
-406.296	-200.000	0.022	-0.304
-405.282	-145.743	-0.314	0.028
-404.267	239.337	-0.091	-0.153
-403.252	-90.015	0.176	0.051
-402.238	734.376	-0.120	0.323
-401.223	-5.975	-0.153	0.105
-400.209	-200.000	-0.003	0.060
-399.194	41.890	-0.206	-0.187
-398.179	-41.712	-0.354	0.182
-397.165	-198.264	-0.151	0.001
-396.150	784.819	-0.036	-0.098
-395.136	-84.757	-0.149	0.047
-394.121	600.438	0.106	0.264
-393.106	-11.491	0.440	-0.290
-392.092	800.000	-0.063	-0.186
-391.077	800.000	0.018	0.076
-390.063	97.389	-0.115	0.132
-389.048	800.000	0.048	0.148
-388.033	-56.387	-0.305	-0.136
-387.019	-99.869	-0.177	-0.044
-386.004	179.437	-0.164	0.240
-384.990	-17.497	-0.209	-0.132
-383.975	-145.215	0.188	-0.017
-382.960	143.068	0.098	-0.130
-381.946	-200.000	-0.020	0.093
-380.931	800.000	-0.043	0.121
-379.917	-200.000	-0.006	-0.129
-378.902	-136.675	0.183	0.021
-377.888	-54.434	-0.161	0.073
-376.873	-0.398	0.228	0.162
-375.858	348.313	-0.079	-0.156
-374.844	-167.530	-0.104	0.004
-373.829	466.857	-0.090	0.202
-372.815	-120.362	0.118	-0.020
-371.800	-27.298	-0.317	-0.185
-370.785	800.000	-0.107	-0.319
-369.771	-83.472	-0.259	0.083
-368.756	-84.357	-0.023	-0.007
-367.742	61.783	-0.107	-0.107
-366.727	-200.000	-0.009	-0.429
-365.712	800.000	-0.037	0.126
-364.698	72.097	0.150	0.157
-363.683	800.000	-0.125	0.440
-362.669	800.000	-0.078	0.301
-361.654	-200.000	-0.001	0.086
-360.639	106.973	-0.108	0.129
-359.625	725.735	0.098	0.263
-358.610	-27.838	-0.282	-0.163
-357.596	61.788	0.256	-0.255
-356.581	800.000	0.097	0.299
-355.566	-200.000	-0.025	-0.130
-354.552	225.776	0.103	-0.166
-353.537	70.311	-0.209	-0.217
-352.523	325.235	0.153	0.293
-351.508	54.558	0.140	-0.135
-350.493	406.926	-0.170	0.360
-349.479	342.192	0.118	0.230
-348.464	-77.765	-0.239	-0.083
-347.450	-200.000	-0.026	-0.415
-346.435	-164.385	-0.227	-0.010
-345.420	484.607	-0.014	-0.033
-344.406	15.927	-0.158	0.124
-343.391	-119.753	-0.366	0.063
-342.377	-13.240	0.148	-0.096
-341.362	86.557	0.398	-0.439
-340.348	83.019	-0.175	0.191
-339.333	-36.801	-0.153	-0.082
-338.318	-137.531	0.376	-0.042
-337.304	-200.000	-0.025	-0.112
-336.289	73.409	0.183	0.192
-335.275	800.000	-0.122	-0.361
-334.260	-44.022	-0.181	0.091
-333.245	-200.000	-0.031	-0.216
-332.231	-32.575	-0.209	-0.116
-331.216	-182.939	0.238	0.004
-330.202	45.703	-0.057	0.052
-329.187	-23.809	0.109	0.065
-328.172	144.540	0.136	-0.182
-327.158	-3.090	0.075	0.052
-326.143	71.754	-0.247	-0.257
-325.129	192.724	-0.066	-0.100
-324.114	224.045	-0.145	0.235
-323.099	-200.000	0.020	0.087
-322.085	34.700	-0.069	0.061
-321.070	648.051	-0.048	-0.123
-320.056	-79.428	0.079	0.027
-319.041	-116.097	0.025	0.005
-318.026	-156.237	-0.225	-0.014
-317.012	-106.411	-0.289	-0.065
-315.997	-200.000	0.009	0.110
-314.983	88.207	-0.137	-0.152
-313.968	69.442	-0.121	-0.124
-312.953	25.375	0.180	-0.150
-311.939	-104.449	-0.156	-0.036
-310.924	-135.532	0.293	0.035
-309.910	-117.161	0.357	0.065
-308.895	-30.948	0.061	0.034
-307.880	-94.067	-0.354	-0.097
-306.866	800.000	0.046	0.172
-305.851	-89.828	0.122	0.036
-304.837	-161.446	-0.100	0.005
-303.822	800.000	0.031	0.118
-302.807	255.644	-0.079	-0.135
-301.793	-200.000	0.051	0.285
-300.778	135.286	-0.112	0.146
-299.764	-68.910	0.329	-0.127
-298.749	-200.000	-0.006	0.173
-297.735	153.209	0.263	-0.359
-296.720	150.237	0.169	-0.230
-295.705	-115.356	-0.210	-0.039
-294.691	133.979	-0.175	-0.227
-293.676	152.273	0.204	0.278
-292.662	-200.000	0.008	-0.385
-291.647	15.944	-0.130	0.102
-290.632	106.748	-0.207	-0.246
-289.618	289.241	0.215	0.390
-288.603	52.842	0.042	0.040
-287.589	-123.881	0.348	0.055
-286.574	-81.143	0.403	0.133
-285.559	665.634	-0.038	0.098
-284.545	85.356	0.066	-0.072
-283.530	177.356	-0.095	-0.138
-282.516	-200.000	0.034	0.282
-281.501	201.692	0.295	0.454
-280.486	-27.946	-0.291	-0.168
-279.472	-54.864	-0.170	0.077
-278.457	104.333	-0.231	-0.271
-277.443	-70.427	-0.153	0.058
-276.428	-200.000	-0.023	-0.237
-275.413	-200.000	-0.050	0.260
-274.399	-69.447	0.078	0.030
-273.384	98.914	-0.104	-0.120
-272.370	49.369	-0.165	0.155
-271.355	-200.000	0.025	-0.301
-270.340	5.843	-0.174	-0.128
-269.326	-200.000	0.029	0.224
-268.311	800.000	0.027	0.110
-267.297	-46.813	0.205	0.100
-266.282	-73.550	-0.107	0.039
-265.267	800.000	-0.040	0.169
-264.253	-8.638	0.261	0.175
-263.238	4.619	-0.137	0.100
-262.224	205.836	-0.121	0.188
-261.209	-200.000	-0.011	-0.312
-260.195	-8.343	-0.305	-0.205
-259.180	-135.924	-0.258	0.030
-258.165	36.432	0.252	-0.222
-257.151	-103.010	0.161	-0.038
-256.136	-97.527	-0.185	0.048
-255.122	-73.118	-0.125	-0.046
-254.107	190.693	-0.016	-0.024
-253.092	56.284	-0.159	-0.154
-252.078	-104.206	-0.272	0.063
-251.063	21.485	-0.239	0.194
-250.049	-88.601	0.318	-0.094
-249.034	649.761	0.010	0.026
-248.019	539.947	0.102	0.243
-247.005	-79.484	-0.084	0.028
-245.990	653.847	0.137	0.351
-244.976	170.498	0.090	0.128
-243.961	434.335	0.172	0.372
-242.946	-152.462	0.127	-0.009
-241.932	256.907	0.192	0.328
-240.917	173.283	0.168	0.242
-239.903	-200.000	0.008	0.114
-238.888	106.807	-0.175	-0.207
-237.873	45.595	0.126	-0.116
-236.859	171.671	0.230	-0.329
-235.844	-104.748	0.168	0.038
-234.830	146.262	-0.094	-0.126
-233.815	-99.433	-0.163	0.041
-232.800	628.125	-0.146	0.368
-231.786	-21.632	0.087	-0.053
-230.771	24.935	-0.125	0.103
-229.757	-103.549	0.171	0.040
-228.742	-200.000	0.012	-0.272
-227.727	-150.233	0.219	0.017
-226.713	-200.000	-0.031	-0.288
-225.698	-200.000	0.024	0.271
-224.684	-200.000	-0.004	0.166
-223.669	-10.063	-0.283	-0.188
-222.655	0.114	0.331	0.235
-221.640	79.400	-0.090	-0.096
-220.625	65.210	-0.029	-0.029
-219.611	-101.540	-0.150	-0.036
-218.596	-14.815	0.139	-0.089
-217.582	272.499	-0.198	0.347
-216.567	-200.000	-0.026	0.322
-215.552	-147.272	-0.108	0.009
-214.538	-120.892	-0.129	-0.022
-213.523	-200.000	0.006	-0.266
-212.509	-200.000	-0.044	-0.277
-211.494	593.265	0.152	-0.373
-210.479	-33.582	0.136	0.075
-209.465	-200.000	-0.049	0.245
-208.450	-46.680	0.233	0.113
-207.436	3.535	0.168	0.122
-206.421	369.761	-0.092	0.185
-205.406	350.776	0.022	0.043
-204.392	-185.950	-0.293	-0.004
-203.377	44.480	0.093	0.085
-202.363	800.000	-0.046	0.193
-201.348	280.033	0.187	0.333
-200.333	-1.874	-0.046	0.032
-199.319	208.396	-0.103	0.160
-198.304	-115.520	-0.389	-0.073
-197.290	-23.855	-0.141	-0.084
-196.275	-114.130	0.363	0.070
-195.260	-85.055	0.373	-0.116
-194.246	-71.832	0.195	0.072
-193.231	67.661	0.125	-0.127
-192.217	172.302	-0.112	-0.160
-191.202	-102.405	0.328	-0.078
-190.187	-15.080	0.190	-0.121
-189.173	-108.979	0.187	0.040
-188.158	-38.702	0.365	0.191
-187.144	691.928	0.030	0.079
-186.129	117.071	0.084	-0.102
-185.114	-200.000	-0.033	-0.280
-184.100	-200.000	-0.048	0.275
-183.085	140.052	0.101	-0.132
-182.071	124.760	-0.266	0.333
-181.056	-123.201	0.208	-0.033
-180.042	800.000	0.050	0.151
-179.027	-200.000	0.060	0.360
-178.012	-20.441	0.314	-0.192
-176.998	302.923	-0.123	0.225
-175.983	769.937	0.076	0.205
-174.969	-88.952	0.167	0.049
-173.954	206.781	0.114	0.176
-172.939	-200.000	0.030	0.343
-171.925	39.547	-0.115	-0.102
-170.910	138.428	-0.059	0.077
-169.896	114.827	0.212	-0.257
-168.881	-200.000	0.099	0.551
-167.866	-2.320	-0.068	-0.048
-166.852	14.357	-0.220	-0.170
-165.837	245.571	-0.071	-0.119
-164.823	-200.000	0.034	-0.283
-163.808	50.544	0.055	0.051
-162.793	9.628	-0.017	-0.013
-161.779	89.030	-0.229	0.253
-160.764	-200.000	0.042	-0.252
-159.750	-200.000	0.034	-0.425
-158.735	-119.615	0.316	0.054
-157.720	-108.510	0.153	-0.033
-156.706	-10.446	0.279	0.183
-155.691	92.146	0.217	0.243
-154.677	-200.000	-0.026	-0.137
-153.662	800.000	-0.120	0.390
-152.647	187.597	-0.297	0.441
-151.633	-139.984	0.081	0.008
-150.618	-200.000	-0.046	-0.210
-149.604	-109.799	-0.113	-0.024
-148.589	364.660	-0.063	0.126
-147.574	80.137	-0.029	-0.031
-146.560	317.748	0.134	-0.252
-145.545	-47.483	-0.155	-0.075
-144.531	-173.388	0.389	0.012
-143.516	0.472	-0.126	0.089
-142.502	-128.615	0.188	-0.026
-141.487	-200.000	-0.009	0.264
-140.472	-116.405	-0.146	0.027
-139.458	-91.030	-0.284	-0.081
-138.443	-7.896	-0.168	-0.113
-137.429	800.000	0.025	0.072
-136.414	136.440	0.158	-0.205
-135.399	312.274	0.046	0.085
-134.385	-39.923	-0.175	0.091
-133.370	-92.435	-0.278	-0.077
-132.356	163.358	-0.059	0.082
-131.341	-128.887	-0.533	-0.074
-130.326	416.738	-0.058	0.124
-129.312	-79.241	0.363	-0.122
-128.297	800.000	-0.054	0.230
-127.283	-151.292	-0.172	0.013
-126.268	-135.415	0.189	0.022
-125.253	299.346	0.266	0.486
-124.239	-66.938	0.270	-0.106
-123.224	-51.611	0.219	-0.101
-122.210	68.751	-0.194	0.197
-121.195	620.215	0.159	0.396
