DTS Sentinel unit serial number:	SN413079Multiplexer serial number:	ORYXHardware model number:	OX4-SRSoftware version number:	ORYX F/W v4.00 Oryx Data Collector v3.7.2.0data status	okinstallation	princeton_trtdifferential loss correction	single-endedforward channel	channel 3reverse channel	N/Adate	2019/09/11time	20:58:10forward acquisition time	60.00reverse acquisition time	0.00gamma	496.2192k internal	0.2307k external	0.2307temperature offset calibration	1.0034default loss term (dB/km)	0.3790temperature slope calibration	1.0000multiplexer offset coefficient	1.0000multiplexer slope coefficient	1.0000fibre end	0.00T internal ref (°C)	36.75T ext. ref 1 (°C)	1.62T ext. ref 2 (°C)	30.72length (m)	temperature (°C)	Stokes	anti-Stokes-747.200	-109.069	0.110	0.024
-746.185	-76.362	-0.182	0.065
-745.171	-191.530	0.170	-0.002
-744.156	-104.528	0.160	-0.038
-743.142	204.400	-0.196	0.310
-742.127	-200.000	-0.001	0.042
-741.112	344.500	0.113	0.225
-740.098	427.769	-0.148	0.326
-739.083	81.280	0.225	0.247
-738.069	800.000	0.121	0.519
-737.054	800.000	0.059	0.229
-736.039	69.313	0.155	-0.162
-735.025	-200.000	0.024	0.176
-734.010	-178.006	-0.076	0.002
-732.996	-92.950	0.162	0.046
-731.981	106.836	-0.221	0.267
-730.966	-40.662	-0.274	-0.144
-729.952	92.377	-0.225	-0.258
-728.937	-200.000	0.003	-0.264
-727.923	-24.162	-0.250	-0.152
-726.908	-23.546	0.365	-0.222
-725.894	77.988	-0.370	-0.400
-724.879	-200.000	0.023	0.267
-723.864	-193.592	0.266	-0.002
-722.850	51.289	-0.195	0.188
-721.835	97.133	0.153	-0.178
-720.821	-55.877	-0.122	0.055
-719.806	800.000	0.117	0.449
-718.791	-15.498	-0.099	0.064
-717.777	-20.424	-0.154	-0.096
-716.762	-200.000	0.010	-0.106
-715.748	-90.606	0.225	0.066
-714.733	-172.156	0.265	0.009
-713.718	-144.575	-0.116	0.011
-712.704	-200.000	0.009	-0.329
-711.689	-41.413	0.216	-0.113
-710.675	-143.247	-0.468	-0.046
-709.660	493.565	0.049	-0.114
-708.645	-52.377	-0.194	0.091
-707.631	144.802	-0.133	-0.181
-706.616	169.365	0.092	0.134
-705.602	99.811	-0.282	0.332
-704.587	128.694	-0.041	0.053
-703.572	-36.242	-0.271	0.149
-702.558	-132.019	0.080	-0.011
-701.543	76.434	-0.219	0.236
-700.529	-114.736	-0.055	0.011
-699.514	-36.800	-0.118	0.064
-698.499	-171.869	-0.297	0.010
-697.485	-3.130	0.174	-0.123
-696.470	352.543	0.112	0.225
-695.456	800.000	0.039	0.147
-694.441	-91.064	-0.244	-0.071
-693.426	-200.000	0.009	-0.147
-692.412	7.286	0.124	0.094
-691.397	-33.364	0.195	-0.110
-690.383	363.373	0.124	-0.252
-689.368	-23.840	-0.091	0.055
-688.354	-14.062	0.320	0.209
-687.339	-117.807	0.063	0.011
-686.324	155.284	0.150	0.210
-685.310	-200.000	0.022	0.288
-684.295	-84.067	0.134	0.043
-683.281	-200.000	-0.056	-0.289
-682.266	358.741	0.152	-0.309
-681.251	-143.496	-0.473	0.046
-680.237	569.650	0.014	-0.033
-679.222	54.026	0.240	-0.234
-678.208	190.408	-0.215	-0.327
-677.193	39.452	-0.407	0.370
-676.178	-200.000	0.040	0.369
-675.164	-36.449	0.261	-0.143
-674.149	-109.181	0.271	0.058
-673.135	30.607	0.133	0.116
-672.120	470.890	-0.022	0.050
-671.105	-119.511	0.132	0.023
-670.091	-200.000	-0.012	-0.258
-669.076	70.847	0.103	0.108
-668.062	-86.298	0.172	-0.054
-667.047	180.264	-0.285	0.424
-666.032	-12.181	0.231	-0.153
-665.018	373.775	-0.077	0.160
-664.003	-188.475	-0.090	-0.001
-662.989	-40.674	-0.237	0.125
-661.974	-44.112	-0.090	0.046
-660.959	28.737	-0.080	-0.069
-659.945	123.800	0.187	-0.238
-658.930	-124.230	0.277	0.044
-657.916	5.006	-0.046	-0.035
-656.901	-64.116	-0.122	-0.050
-655.886	800.000	0.035	0.114
-654.872	364.443	-0.111	-0.225
-653.857	-200.000	0.027	-0.361
-652.843	-101.054	-0.226	-0.056
-651.828	86.174	-0.074	0.082
-650.814	109.815	-0.142	-0.173
-649.799	-200.000	0.065	-0.404
-648.784	-103.766	0.283	-0.067
-647.770	-200.000	-0.017	0.116
-646.755	800.000	0.092	-0.317
-645.741	-200.000	-0.020	-0.435
-644.726	-2.763	0.218	-0.154
-643.711	-20.720	-0.147	-0.091
-642.697	553.041	0.117	0.284
-641.682	-35.215	-0.187	-0.103
-640.668	-180.424	-0.357	-0.008
-639.653	-29.118	-0.221	0.128
-638.638	-178.758	0.273	-0.006
-637.624	-94.702	-0.142	-0.039
-636.609	-200.000	-0.042	0.243
-635.595	-200.000	-0.006	-0.116
-634.580	20.886	-0.517	-0.424
-633.565	800.000	0.096	0.269
-632.551	-51.173	-0.251	0.119
-631.536	34.066	-0.149	-0.131
-630.522	492.055	0.114	0.264
-629.507	-200.000	0.001	-0.166
-628.492	-200.000	0.019	0.169
-627.478	-119.533	-0.283	-0.050
-626.463	713.308	-0.020	-0.054
-625.449	168.133	-0.160	0.230
-624.434	207.670	0.205	0.325
-623.419	120.697	-0.075	-0.094
-622.405	-107.132	0.249	0.056
-621.390	-63.879	0.132	0.055
-620.376	-200.000	0.002	-0.366
-619.361	181.978	0.045	-0.067
-618.346	44.160	-0.039	0.036
-617.332	-200.000	-0.045	-0.239
-616.317	121.033	-0.181	-0.228
-615.303	378.334	0.060	0.124
-614.288	-200.000	0.038	0.465
-613.273	-99.739	-0.082	-0.021
-612.259	-200.000	-0.018	-0.476
-611.244	-7.529	0.295	-0.202
-610.230	66.355	0.036	0.037
-609.215	-100.306	-0.094	-0.024
-608.201	-200.000	-0.011	-0.143
-607.186	-35.173	-0.144	0.079
-606.171	83.646	0.103	0.114
-605.157	28.796	0.175	-0.150
-604.142	-1.600	-0.273	-0.195
-603.128	-156.634	0.148	0.009
-602.113	-110.844	-0.052	0.011
-601.098	800.000	0.063	-0.217
-600.084	-200.000	0.028	-0.203
-599.069	-72.868	0.081	0.030
-598.055	52.625	0.170	0.165
-597.040	-200.000	-0.061	-0.338
-596.025	47.218	-0.259	-0.244
-595.011	-59.299	0.114	-0.050
-593.996	-129.514	0.237	-0.033
-592.982	-104.882	-0.201	-0.047
-591.967	-45.481	0.128	-0.064
-590.952	-123.617	0.263	0.042
-589.938	795.016	-0.057	0.159
-588.923	269.195	-0.135	0.240
-587.909	442.987	-0.011	0.024
-586.894	209.784	-0.062	0.098
-585.879	567.316	-0.071	-0.174
-584.865	-111.637	-0.172	-0.035
-583.850	800.000	-0.087	-0.299
-582.836	135.187	-0.250	-0.328
-581.821	-22.114	-0.096	0.059
-580.806	493.328	-0.106	-0.245
-579.792	219.640	-0.169	0.273
-578.777	19.937	-0.150	-0.122
-577.763	-200.000	-0.022	-0.347
-576.748	-41.133	0.018	-0.009
-575.733	-72.809	0.064	0.024
-574.719	-200.000	-0.035	-0.246
-573.704	800.000	-0.067	0.194
-572.690	-200.000	-0.037	0.243
-571.675	800.000	-0.074	-0.216
-570.661	62.735	0.200	-0.202
-569.646	-200.000	0.016	0.157
-568.631	-200.000	0.055	-0.543
-567.617	-105.362	-0.427	-0.098
-566.602	117.357	-0.086	0.107
-565.588	-197.586	-0.277	-0.002
-564.573	-177.417	0.331	0.008
-563.558	-182.571	-0.404	0.007
-562.544	574.486	0.061	0.149
-561.529	-200.000	0.023	-0.180
-560.515	64.864	-0.089	0.090
-559.500	-89.198	0.187	0.056
-558.485	-13.039	-0.276	-0.181
-557.471	-64.311	-0.361	-0.148
-556.456	671.232	0.090	-0.235
-555.442	-4.213	-0.079	-0.055
-554.427	-176.406	0.366	-0.010
-553.412	-15.802	-0.136	-0.087
-552.398	-200.000	0.038	-0.226
-551.383	686.114	-0.064	0.168
-550.369	-200.000	0.035	0.377
-549.354	-200.000	-0.019	0.089
-548.339	143.125	-0.100	0.135
-547.325	800.000	-0.065	0.186
-546.310	258.377	0.094	-0.163
-545.296	121.340	0.033	-0.042
-544.281	-108.227	-0.276	-0.060
-543.266	800.000	-0.052	-0.178
-542.252	-35.112	0.201	0.110
-541.237	-69.877	-0.322	-0.124
-540.223	-41.375	-0.100	-0.052
-539.208	-164.039	0.078	-0.004
-538.193	-200.000	-0.002	0.018
-537.179	-200.000	0.025	0.255
-536.164	-75.145	-0.518	0.187
-535.150	800.000	-0.063	0.175
-534.135	315.501	0.021	0.040
-533.121	-119.123	0.160	-0.028
-532.106	-200.000	-0.021	-0.238
-531.091	10.262	0.087	-0.067
-530.077	-123.066	-0.256	0.041
-529.062	106.192	0.111	0.133
-528.048	30.921	-0.062	0.053
-527.033	-55.365	0.148	-0.067
-526.018	-134.801	0.123	-0.015
-525.004	56.287	0.169	0.165
-523.989	60.747	0.178	0.178
-522.975	7.236	0.035	-0.026
-521.960	349.569	0.144	0.286
-520.945	232.789	-0.098	0.162
-519.931	-91.694	0.133	0.038
-518.916	324.476	-0.185	0.356
-517.902	-200.000	0.079	-0.520
-516.887	-138.790	0.198	-0.022
-515.872	10.139	0.166	0.127
-514.858	800.000	0.065	0.220
-513.843	59.529	-0.036	0.036
-512.829	-200.000	-0.008	0.244
-511.814	12.558	-0.262	0.203
-510.799	-91.751	0.406	0.116
-509.785	-109.609	-0.472	-0.100
-508.770	-200.000	0.035	0.406
-507.756	4.467	0.113	-0.083
-506.741	193.197	-0.204	0.311
-505.726	355.461	0.104	0.208
-504.712	520.853	0.048	0.113
-503.697	-77.682	-0.380	0.132
-502.683	800.000	-0.096	-0.364
-501.668	-200.000	-0.040	0.192
-500.653	98.271	-0.045	-0.052
-499.639	-97.239	0.067	0.018
-498.624	-78.235	-0.304	0.105
-497.610	517.188	0.069	-0.162
-496.595	-30.482	0.285	0.163
-495.581	29.273	0.098	-0.084
-494.566	-118.158	0.270	0.048
-493.551	-29.709	0.240	-0.138
-492.537	52.847	-0.103	-0.099
-491.522	800.000	0.083	0.282
-490.508	800.000	0.114	-0.425
-489.493	-121.855	0.116	0.019
-488.478	73.454	-0.050	0.052
-487.464	-83.568	-0.143	0.046
-486.449	-161.488	-0.231	-0.012
-485.435	800.000	-0.126	-0.372
-484.420	-9.642	0.239	-0.161
-483.405	41.135	-0.142	0.129
-482.391	800.000	-0.062	0.243
-481.376	-200.000	0.010	0.075
-480.362	-58.923	-0.102	0.044
-479.347	76.954	-0.163	0.174
-478.332	-200.000	-0.023	0.111
-477.318	-200.000	-0.027	-0.165
-476.303	569.264	0.048	0.117
-475.289	49.190	-0.196	0.185
-474.274	800.000	0.100	-0.408
-473.259	188.523	0.189	0.284
-472.245	-200.000	0.004	-0.200
-471.230	112.895	-0.246	-0.299
-470.216	239.879	0.131	0.220
-469.201	272.088	-0.057	0.101
-468.186	-131.504	0.213	-0.028
-467.172	-154.389	0.054	-0.004
-466.157	-200.000	0.005	0.112
-465.143	-139.721	-0.169	-0.018
-464.128	-86.186	-0.270	0.084
-463.113	800.000	-0.037	0.102
-462.099	-66.307	-0.072	-0.029
-461.084	-102.146	-0.179	0.043
-460.070	23.615	-0.168	-0.139
-459.055	121.550	0.059	-0.074
-458.040	-91.761	-0.181	0.052
-457.026	-200.000	0.039	0.245
-456.011	50.404	0.184	0.174
-454.997	515.220	0.067	-0.158
-453.982	-86.832	-0.264	0.081
-452.968	-142.262	-0.213	-0.021
-451.953	-200.000	-0.002	0.414
-450.938	384.662	0.092	0.190
-449.924	-200.000	-0.001	-0.270
-448.909	-40.526	0.268	0.140
-447.895	48.344	-0.090	-0.084
-446.880	136.729	0.218	-0.286
-445.865	-50.404	0.063	-0.030
-444.851	-200.000	0.058	0.268
-443.836	800.000	-0.014	-0.059
-442.822	-200.000	-0.006	0.054
-441.807	800.000	-0.074	0.294
-440.792	51.133	0.166	-0.158
-439.778	118.971	0.140	-0.173
-438.763	-114.249	-0.414	-0.080
-437.749	49.846	-0.143	-0.135
-436.734	176.489	-0.017	0.025
-435.719	232.855	0.062	-0.102
-434.705	129.427	-0.095	0.123
-433.690	-23.103	0.255	-0.154
-432.676	-122.106	-0.076	0.013
-431.661	-106.757	-0.074	-0.017
-430.646	-98.294	-0.113	0.029
-429.632	-74.948	-0.158	0.057
-428.617	-170.718	0.375	-0.013
-427.603	-200.000	0.028	-0.174
-426.588	12.717	0.162	0.126
-425.573	232.410	0.054	0.088
-424.559	2.781	0.235	0.171
-423.544	251.907	-0.083	-0.143
-422.530	-80.428	-0.111	-0.037
-421.515	124.415	0.095	-0.120
-420.500	339.796	-0.117	-0.229
-419.486	-200.000	0.026	0.161
-418.471	75.197	0.051	0.054
-417.457	-200.000	0.058	0.387
-416.442	276.761	-0.227	-0.405
-415.428	-200.000	0.015	-0.104
-414.413	-125.557	0.113	0.017
-413.398	562.574	0.110	-0.266
-412.384	148.367	-0.213	-0.289
-411.369	195.003	-0.131	0.199
-410.355	239.331	0.128	-0.213
-409.340	-155.033	-0.080	0.005
-408.325	19.347	0.320	0.258
-407.311	-200.000	0.038	-0.166
-406.296	-75.062	-0.179	0.064
-405.282	-200.000	0.052	-0.255
-404.267	-80.959	-0.298	0.099
-403.252	-176.824	-0.120	-0.003
-402.238	-55.348	0.189	0.085
-401.223	-57.833	0.246	0.108
-400.209	224.834	-0.123	-0.199
-399.194	186.649	0.145	-0.217
-398.179	-200.000	-0.027	0.223
-397.165	144.118	-0.049	0.066
-396.150	-57.047	0.213	0.094
-395.136	-200.000	0.010	-0.286
-394.121	-133.768	0.203	0.025
-393.106	152.753	0.134	0.184
-392.092	-200.000	-0.021	-0.227
-391.077	-7.411	-0.148	-0.100
-390.063	800.000	0.101	-0.381
-389.048	-200.000	-0.005	-0.171
-388.033	271.299	0.097	-0.171
-387.019	398.377	-0.039	0.081
-386.004	-200.000	-0.004	0.217
-384.990	461.723	-0.077	0.172
-383.975	-52.589	0.144	0.066
-382.960	-151.409	0.269	0.020
-381.946	-133.578	0.239	0.030
-380.931	76.964	-0.108	0.115
-379.917	-47.332	0.109	-0.053
-378.902	-200.000	-0.161	-0.000
-377.888	248.766	0.038	0.065
-376.873	26.772	0.159	0.134
-375.858	656.456	-0.010	0.026
-374.844	72.823	-0.134	0.140
-373.829	-92.214	0.146	0.041
-372.815	-50.046	0.046	-0.022
-371.800	54.116	0.168	0.162
-370.785	30.701	0.220	-0.189
-369.771	52.776	-0.110	-0.106
-368.756	21.546	-0.068	-0.055
-367.742	800.000	0.041	-0.139
-366.727	4.258	0.026	0.019
-365.712	-81.841	-0.075	-0.025
-364.698	700.411	-0.074	0.194
-363.683	68.428	0.102	-0.105
-362.669	800.000	-0.095	-0.285
-361.654	-122.184	0.337	-0.055
-360.639	139.575	-0.139	-0.184
-359.625	25.926	0.048	0.040
-358.610	-96.095	-0.111	0.029
-357.596	38.682	0.213	-0.190
-356.581	-91.372	0.265	-0.076
-355.566	-200.000	0.010	0.195
-354.552	-32.154	-0.158	0.088
-353.537	-101.950	0.138	-0.033
-352.523	147.432	0.157	-0.212
-351.508	-200.000	-0.013	0.089
-350.493	-200.000	-0.002	-0.224
-349.479	-42.414	-0.237	-0.121
-348.464	348.335	-0.053	0.105
-347.450	165.849	-0.186	0.263
-346.435	-144.931	-0.147	-0.013
-345.420	-200.000	0.062	-0.302
-344.406	-40.408	0.164	-0.085
-343.391	-171.327	0.343	-0.012
-342.377	-200.000	0.006	0.218
-341.362	-200.000	-0.061	0.441
-340.348	-200.000	0.004	-0.294
-339.333	-73.373	-0.230	-0.084
-338.318	-175.958	0.048	-0.001
-337.304	-200.000	-0.001	-0.218
-336.289	-47.404	-0.253	-0.123
-335.275	173.588	0.031	0.045
-334.260	-62.547	-0.056	0.023
-333.245	345.349	-0.087	-0.171
-332.231	751.958	-0.071	0.192
-331.216	-35.694	0.052	0.028
-330.202	49.100	-0.212	0.200
-329.187	800.000	-0.009	0.039
-328.172	-200.000	0.013	0.095
-327.158	800.000	-0.140	0.386
-326.143	246.308	-0.110	0.185
-325.129	-200.000	0.017	0.297
-324.114	71.689	-0.098	0.102
-323.099	-200.000	-0.013	0.130
-322.085	-144.828	0.069	-0.006
-321.070	753.997	0.050	0.136
-320.056	-123.234	-0.130	0.021
-319.041	800.000	0.041	-0.177
-318.026	138.824	0.136	0.179
-317.012	800.000	0.098	-0.384
-315.997	71.392	0.156	-0.162
-314.983	9.363	0.203	-0.154
-313.968	-107.038	0.151	-0.033
-312.953	-49.807	0.090	0.043
-311.939	-200.000	0.186	0.000
-310.924	-200.000	0.002	0.114
-309.910	-99.352	-0.180	-0.045
-308.895	-75.811	-0.106	0.038
-307.880	800.000	0.050	0.149
-306.866	-200.000	0.045	0.217
-305.851	48.415	0.077	-0.072
-304.837	133.169	-0.159	-0.205
-303.822	-46.298	0.116	-0.057
-302.807	-118.656	0.233	-0.041
-301.793	-64.225	0.044	-0.018
-300.778	67.404	0.345	0.352
-299.764	-101.993	-0.133	-0.032
-298.749	800.000	-0.044	0.128
-297.735	-39.698	0.233	0.122
-296.720	-200.000	-0.037	0.310
-295.705	-161.667	0.036	0.002
-294.691	42.896	0.145	-0.132
-293.676	-129.372	0.093	0.013
-292.662	-74.971	-0.183	-0.065
-291.647	-96.374	-0.060	-0.016
-290.632	-95.313	0.191	-0.051
-289.618	-45.415	0.283	0.140
-288.603	-41.796	-0.159	0.082
-287.589	-151.855	0.481	0.035
-286.574	154.828	0.021	-0.029
-285.559	290.084	0.120	-0.217
-284.545	406.059	-0.093	-0.197
-283.530	-200.000	-0.002	0.033
-282.516	800.000	0.087	0.252
-281.501	106.889	0.114	-0.135
-280.486	-84.812	0.369	0.116
-279.472	50.992	0.114	-0.108
-278.457	-89.423	-0.139	-0.041
-277.443	408.054	0.096	0.202
-276.428	-142.808	0.229	0.022
-275.413	-166.931	-0.393	-0.016
-274.399	-200.000	-0.012	-0.219
-273.384	-200.000	-0.045	0.217
-272.370	-200.000	0.003	-0.177
-271.355	-200.000	0.008	-0.042
-270.340	117.523	-0.056	0.069
-269.326	-3.713	0.008	-0.006
-268.311	21.547	0.094	-0.076
-267.297	-74.223	-0.136	0.049
-266.282	91.036	-0.202	0.226
-265.267	165.186	-0.113	0.159
-264.253	-60.895	-0.207	-0.087
-263.238	-200.000	0.018	-0.446
-262.224	-23.429	0.127	0.076
-261.209	-148.875	0.292	-0.024
-260.195	421.876	-0.183	0.391
-259.180	-48.279	0.152	-0.073
-258.165	-89.924	0.206	0.060
-257.151	-47.536	0.289	0.140
-256.136	-61.862	0.176	0.073
-255.122	-200.000	-0.003	-0.101
-254.107	-155.355	-0.040	0.003
-253.092	-200.000	-0.017	-0.524
-252.078	-79.188	0.057	-0.019
-251.063	800.000	-0.081	-0.242
-250.049	-75.559	-0.292	0.104
-249.034	-160.950	0.267	0.014
-248.019	-127.811	-0.518	0.074
-247.005	-200.000	-0.007	0.259
-245.990	-127.202	0.088	0.013
-244.976	-139.664	0.114	-0.012
-243.961	-26.852	0.104	-0.061
-242.946	71.295	-0.169	-0.175
-241.932	-32.690	-0.170	-0.094
-240.917	75.633	-0.134	0.141
-239.903	466.815	-0.062	-0.138
-238.888	16.946	0.280	-0.221
-237.873	100.362	0.231	-0.267
-236.859	161.099	-0.088	-0.123
-235.844	800.000	0.040	-0.149
-234.830	23.703	-0.167	0.137
-233.815	800.000	-0.043	0.150
-232.800	-157.434	0.120	-0.007
-231.786	-157.538	-0.235	-0.014
-230.771	370.355	-0.028	0.057
-229.757	-42.254	0.217	0.110
-228.742	-200.000	-0.035	-0.217
-227.727	42.439	-0.095	-0.086
-226.713	13.355	-0.272	0.210
-225.698	-70.511	-0.272	-0.102
-224.684	331.302	-0.175	0.337
-223.669	-77.555	0.119	0.041
-222.655	245.896	0.010	-0.018
-221.640	-200.000	-0.030	0.201
-220.625	427.653	-0.086	0.184
-219.611	227.449	-0.114	0.184
-218.596	642.935	0.047	-0.119
-217.582	53.284	-0.207	0.198
-216.567	-137.985	0.038	0.004
-215.552	199.779	0.163	0.249
-214.538	243.593	0.113	0.189
-213.523	-159.467	0.277	-0.015
-212.509	-106.756	0.092	-0.020
-211.494	800.000	-0.174	-0.606
-210.479	800.000	-0.043	0.156
-209.465	108.286	-0.104	0.123
-208.450	50.055	0.219	-0.206
-207.436	-200.000	0.024	0.131
-206.421	-200.000	0.021	0.105
-205.406	-86.721	0.257	0.078
-204.392	-200.000	0.027	0.171
-203.377	159.756	-0.088	-0.122
-202.363	-200.000	-0.038	0.373
-201.348	222.521	0.228	0.366
-200.333	-200.000	-0.034	0.273
-199.319	162.346	0.077	-0.108
-198.304	628.403	-0.040	0.100
-197.290	199.254	-0.051	-0.078
-196.275	800.000	-0.187	-0.537
-195.260	266.410	0.131	-0.228
-194.246	-129.042	-0.299	0.042
-193.231	-127.291	-0.310	-0.045
-192.217	-200.000	0.110	-0.492
-191.202	-200.000	-0.062	0.296
-190.187	175.518	0.214	-0.309
-189.173	-49.077	0.135	0.064
-188.158	-74.554	0.212	0.076
-187.144	190.427	0.148	0.221
-186.129	-200.000	0.053	-0.254
-185.114	-40.005	-0.029	-0.015
-184.100	-28.337	0.219	0.126
-183.085	107.575	-0.251	-0.298
-182.071	800.000	-0.100	0.376
-181.056	-200.000	-0.021	0.146
-180.042	192.052	-0.129	0.193
-179.027	-139.392	-0.145	-0.016
-178.012	88.655	-0.030	-0.033
-176.998	87.723	0.098	0.108
-175.983	-176.926	-0.340	-0.009
-174.969	-118.883	-0.228	-0.040
-173.954	-171.036	0.060	-0.002
-172.939	279.087	0.062	0.109
-171.925	150.197	0.238	-0.321
-170.910	-85.027	0.091	-0.028
-169.896	800.000	0.027	0.074
-168.881	-200.000	0.003	0.337
-167.866	-89.582	0.187	-0.055
-166.852	-46.991	0.212	0.103
-165.837	-43.982	-0.122	0.061
-164.823	-200.000	-0.019	0.187
-163.808	-96.165	-0.153	-0.040
-162.793	87.868	-0.164	0.181
-161.779	800.000	-0.031	0.131
-160.764	-200.000	-0.035	0.268
-159.750	-200.000	0.006	-0.244
-158.735	49.347	0.231	-0.216
-157.720	800.000	-0.064	0.213
-156.706	67.211	-0.175	-0.177
-155.691	689.707	0.056	0.146
-154.677	-68.477	0.100	-0.038
-153.662	363.041	-0.108	-0.215
-152.647	-60.315	0.131	-0.055
-151.633	168.992	0.160	0.226
-150.618	-136.359	0.311	-0.036
-149.604	-43.730	-0.391	-0.196
-148.589	218.831	0.196	0.311
-147.574	-52.258	-0.092	-0.042
-146.560	642.074	-0.009	-0.022
-145.545	-60.295	0.386	-0.163
-144.531	800.000	-0.058	0.188
-143.516	730.866	-0.048	0.127
-142.502	145.399	-0.164	-0.218
-141.487	112.499	0.129	-0.155
-140.472	-63.505	0.386	0.158
-139.458	40.185	0.133	-0.119
-138.443	46.281	0.169	0.155
-137.429	-200.000	0.013	0.245
-136.414	-84.620	0.265	-0.083
-135.399	-200.000	-0.001	0.185
-134.385	474.933	0.159	0.357
-133.370	-159.187	0.264	0.015
-132.356	-45.199	-0.283	-0.139
-131.341	29.189	-0.078	0.066
-130.326	433.334	0.111	0.240
-129.312	546.547	0.054	-0.129
-128.297	-135.830	0.156	0.018
-127.283	-78.999	0.302	-0.102
-126.268	-154.353	-0.030	0.002
-125.253	-195.644	0.321	-0.002
-124.239	-200.000	-0.028	0.149
-123.224	-53.695	0.189	0.085
-122.210	-200.000	-0.021	-0.176
