DTS Sentinel unit serial number:	SN413079Multiplexer serial number:	ORYXHardware model number:	OX4-SRSoftware version number:	ORYX F/W v4.00 Oryx Data Collector v3.7.2.0data status	okinstallation	princeton_trtdifferential loss correction	single-endedforward channel	channel 3reverse channel	N/Adate	2019/09/12time	04:06:11forward acquisition time	60.00reverse acquisition time	0.00gamma	496.2192k internal	0.2322k external	0.2322temperature offset calibration	1.0064default loss term (dB/km)	0.3790temperature slope calibration	1.0000multiplexer offset coefficient	1.0000multiplexer slope coefficient	1.0000fibre end	0.00T internal ref (°C)	32.00T ext. ref 1 (°C)	2.21T ext. ref 2 (°C)	26.00length (m)	temperature (°C)	Stokes	anti-Stokes-747.200	3.502	0.400	0.295
-746.185	-12.082	-0.137	0.090
-745.171	103.061	0.069	-0.081
-744.156	22.368	0.249	0.205
-743.142	-200.000	0.016	0.307
-742.127	-42.893	-0.136	0.070
-741.112	-200.000	-0.003	-0.026
-740.098	520.457	-0.159	0.376
-739.083	-11.480	0.369	-0.245
-738.069	69.412	-0.054	0.056
-737.054	-89.588	0.377	-0.112
-736.039	-22.135	-0.076	-0.047
-735.025	-110.583	-0.112	-0.023
-734.010	25.654	0.067	-0.057
-732.996	-114.482	-0.052	-0.010
-731.981	61.883	-0.181	-0.182
-730.966	393.965	-0.100	-0.210
-729.952	-27.777	0.188	0.110
-728.937	-200.000	0.017	-0.143
-727.923	-200.000	0.058	-0.272
-726.908	-25.372	0.230	-0.137
-725.894	21.728	0.246	0.202
-724.879	-200.000	0.007	-0.315
-723.864	-160.052	0.220	0.012
-722.850	-200.000	0.003	-0.039
-721.835	-200.000	0.037	-0.431
-720.821	-64.025	0.200	-0.082
-719.806	-50.840	0.311	-0.147
-718.791	-139.604	0.165	0.018
-717.777	-33.327	0.211	0.118
-716.762	154.559	-0.124	-0.171
-715.748	-59.617	-0.189	-0.082
-714.733	234.768	0.189	0.315
-713.718	800.000	0.135	-0.559
-712.704	800.000	0.020	-0.088
-711.689	398.044	0.112	0.237
-710.675	132.707	-0.117	0.152
-709.660	-200.000	-0.026	-0.280
-708.645	800.000	0.148	-0.564
-707.631	386.180	0.090	0.187
-706.616	-200.000	-0.038	0.207
-705.602	-200.000	-0.009	-0.152
-704.587	101.942	0.187	-0.220
-703.572	-200.000	-0.060	0.308
-702.558	-137.559	0.350	0.040
-701.543	33.298	0.133	0.117
-700.529	800.000	-0.050	-0.195
-699.514	800.000	-0.084	-0.297
-698.499	800.000	-0.028	0.102
-697.485	-60.982	0.104	0.044
-696.470	-103.759	0.515	-0.122
-695.456	-40.515	0.216	-0.113
-694.441	-200.000	0.053	-0.499
-693.426	-7.112	-0.125	-0.086
-692.412	-138.583	-0.286	-0.032
-691.397	17.626	-0.050	-0.040
-690.383	-121.481	-0.212	0.036
-689.368	800.000	-0.016	0.052
-688.354	137.121	-0.117	0.154
-687.339	-3.177	0.101	0.071
-686.324	-200.000	0.001	0.325
-685.310	121.244	-0.187	0.235
-684.295	284.053	-0.185	-0.335
-683.281	15.496	-0.225	-0.178
-682.266	-177.007	-0.419	0.011
-681.251	-127.397	-0.382	0.056
-680.237	800.000	0.038	0.129
-679.222	41.148	-0.217	0.197
-678.208	-200.000	-0.002	0.442
-677.193	-91.956	-0.336	0.096
-676.178	800.000	0.030	-0.108
-675.164	317.199	-0.079	0.151
-674.149	54.574	-0.149	0.145
-673.135	800.000	0.064	-0.233
-672.120	-117.434	0.231	-0.042
-671.105	-31.684	0.075	-0.043
-670.091	-200.000	0.005	0.192
-669.076	142.722	-0.076	0.101
-668.062	-150.079	0.373	0.029
-667.047	135.720	0.241	0.315
-666.032	-200.000	-0.075	0.375
-665.018	-200.000	0.016	-0.107
-664.003	800.000	0.043	0.124
-662.989	330.719	0.055	0.106
-661.974	-79.892	0.162	-0.055
-660.959	-54.676	-0.265	0.121
-659.945	-104.438	0.398	0.093
-658.930	-138.382	-0.244	0.027
-657.916	-99.343	0.143	0.036
-656.901	-200.000	-0.028	0.207
-655.886	-35.653	-0.151	0.082
-654.872	33.255	-0.092	-0.080
-653.857	518.957	-0.076	0.178
-652.843	-88.085	0.021	-0.006
-651.828	-32.027	-0.276	-0.155
-650.814	202.540	0.170	0.264
-649.799	57.690	-0.218	-0.214
-648.784	-79.901	0.417	0.141
-647.770	-124.983	-0.230	0.036
-646.755	239.081	-0.137	0.230
-645.741	800.000	-0.053	0.154
-644.726	125.895	-0.133	0.169
-643.711	-148.280	0.294	-0.024
-642.697	-108.816	-0.339	-0.073
-641.682	800.000	-0.007	-0.024
-640.668	-200.000	0.009	0.280
-639.653	169.265	0.146	0.209
-638.638	13.932	0.039	0.031
-637.624	26.923	-0.188	-0.158
-636.609	18.164	0.144	0.115
-635.595	-36.065	0.115	-0.063
-634.580	-77.642	0.201	0.070
-633.565	7.009	0.089	0.067
-632.551	133.417	-0.179	0.233
-631.536	-96.437	0.300	-0.080
-630.522	-147.365	-0.251	0.021
-629.507	6.624	-0.130	-0.097
-628.492	-50.759	0.085	-0.040
-627.478	800.000	-0.053	0.176
-626.463	-30.878	-0.080	-0.046
-625.449	55.524	0.100	-0.098
-624.434	116.483	0.076	-0.093
-623.419	-200.000	0.162	0.000
-622.405	-200.000	0.067	-0.359
-621.390	587.465	-0.064	-0.158
-620.376	-81.226	-0.022	-0.007
-619.361	-200.000	-0.018	-0.125
-618.346	-92.775	-0.142	-0.040
-617.332	342.924	-0.018	0.035
-616.317	94.314	0.218	-0.249
-615.303	-44.514	0.069	-0.035
-614.288	34.224	-0.019	0.017
-613.273	-111.205	0.357	-0.073
-612.259	264.970	-0.082	0.143
-611.244	295.980	-0.120	0.222
-610.230	-88.175	0.085	0.026
-609.215	11.596	0.210	-0.162
-608.201	249.274	-0.124	0.212
-607.186	-88.609	-0.237	-0.071
-606.171	-200.000	0.032	-0.341
-605.157	444.684	0.121	0.268
-604.142	-57.616	-0.101	-0.044
-603.128	151.065	-0.114	0.156
-602.113	800.000	-0.066	-0.202
-601.098	-111.843	-0.090	0.018
-600.084	96.621	0.149	0.171
-599.069	36.045	-0.198	0.175
-598.055	-46.175	-0.215	-0.106
-597.040	-47.754	-0.101	-0.049
-596.025	-103.768	0.223	-0.052
-595.011	-200.000	0.019	-0.113
-593.996	-200.000	0.067	0.406
-592.982	195.776	-0.112	0.171
-591.967	-5.474	-0.072	0.050
-590.952	-19.384	-0.176	0.109
-589.938	52.463	-0.131	0.126
-588.923	-26.655	-0.272	0.160
-587.909	-200.000	-0.026	-0.364
-586.894	609.109	-0.069	-0.174
-585.879	-83.112	-0.085	-0.028
-584.865	-200.000	-0.044	0.220
-583.850	27.093	0.154	0.130
-582.836	-118.897	0.100	-0.018
-581.821	-160.451	0.293	0.016
-580.806	14.600	0.093	-0.073
-579.792	541.412	0.124	-0.296
-578.777	225.985	-0.061	0.100
-577.763	21.513	-0.076	0.062
-576.748	-200.000	-0.005	-0.026
-575.733	-115.396	0.078	-0.015
-574.719	-133.817	-0.223	-0.028
-573.704	-21.585	0.074	0.045
-572.690	99.288	-0.149	-0.173
-571.675	-48.539	0.260	-0.126
-570.661	-200.000	-0.009	0.118
-569.646	-200.000	-0.026	0.193
-568.631	-70.171	-0.034	0.013
-567.617	800.000	0.059	0.173
-566.602	-200.000	-0.000	0.210
-565.588	419.448	0.052	-0.112
-564.573	90.575	0.137	-0.154
-563.558	-40.489	-0.074	-0.039
-562.544	290.302	0.093	0.170
-561.529	121.172	-0.075	-0.094
-560.515	-14.308	0.242	-0.157
-559.500	67.630	0.156	-0.159
-558.485	-200.000	0.029	-0.250
-557.471	11.783	-0.213	-0.164
-556.456	-167.044	0.161	-0.007
-555.442	338.740	-0.163	0.318
-554.427	800.000	0.072	0.230
-553.412	250.196	0.073	0.124
-552.398	98.931	0.090	0.104
-551.383	258.982	-0.177	-0.305
-550.369	700.167	-0.148	0.391
-549.354	-104.969	-0.404	0.093
-548.339	-22.693	0.146	0.088
-547.325	-200.000	0.036	0.188
-546.310	217.992	0.125	-0.200
-545.296	-30.817	0.413	-0.234
-544.281	-200.000	-0.013	0.159
-543.266	49.891	0.263	0.249
-542.252	235.454	0.054	-0.089
-541.237	-200.000	-0.056	-0.328
-540.223	-78.964	0.141	-0.048
-539.208	-200.000	0.019	-0.198
-538.193	56.907	-0.032	0.031
-537.179	-20.147	-0.269	-0.166
-536.164	800.000	0.095	0.402
-535.150	-83.572	-0.064	-0.020
-534.135	-157.218	0.138	-0.008
-533.121	18.659	0.097	0.078
-532.106	-156.225	-0.495	-0.031
-531.091	800.000	-0.040	0.145
-530.077	-155.433	-0.036	0.002
-529.062	-164.432	-0.281	0.013
-528.048	652.801	0.104	-0.266
-527.033	-69.006	0.113	-0.044
-526.018	-200.000	0.020	0.256
-525.004	-33.177	0.397	0.220
-523.989	524.808	0.109	0.257
-522.975	-99.886	-0.201	0.050
-521.960	800.000	0.052	-0.162
-520.945	800.000	-0.111	0.320
-519.931	-192.242	0.209	-0.002
-518.916	571.218	0.170	-0.415
-517.902	111.772	0.028	-0.034
-516.887	-200.000	0.024	-0.258
-515.872	110.003	-0.238	0.286
-514.858	800.000	-0.060	-0.208
-513.843	-139.906	0.166	0.018
-512.829	-178.963	0.253	-0.006
-511.814	332.947	0.071	-0.136
-510.799	-200.000	0.077	0.366
-509.785	100.523	0.056	-0.065
-508.770	-117.548	0.389	-0.070
-507.756	-200.000	-0.009	-0.099
-506.741	-52.693	-0.230	-0.106
-505.726	462.565	-0.041	0.092
-504.712	-168.411	0.048	0.002
-503.697	-65.307	-0.345	0.139
-502.683	-122.824	-0.356	0.057
-501.668	21.756	-0.204	-0.166
-500.653	-200.000	-0.042	0.197
-499.639	98.347	0.141	0.163
-498.624	-70.184	0.212	0.081
-497.610	-79.441	-0.140	0.047
-496.595	800.000	0.142	-0.423
-495.581	-200.000	-0.027	-0.151
-494.566	258.347	-0.064	0.111
-493.551	194.000	-0.098	0.149
-492.537	795.495	-0.113	-0.312
-491.522	-198.332	-0.087	-0.001
-490.508	-113.345	-0.148	0.029
-489.493	800.000	-0.092	0.340
-488.478	28.242	0.068	-0.057
-487.464	279.060	0.046	-0.082
-486.449	83.788	0.209	0.228
-485.435	59.048	-0.166	0.163
-484.420	103.057	-0.177	0.207
-483.405	800.000	-0.047	0.150
-482.391	800.000	0.075	0.275
-481.376	-93.154	0.356	-0.099
-480.362	-131.210	0.320	0.042
-479.347	-73.288	-0.350	0.128
-478.332	800.000	0.051	0.142
-477.318	800.000	-0.048	0.136
-476.303	-200.000	0.040	0.244
-475.289	33.514	0.068	-0.059
-474.274	247.892	-0.056	0.095
-473.259	-65.340	-0.268	-0.108
-472.245	-106.094	-0.349	-0.078
-471.230	-200.000	-0.015	-0.083
-470.216	-53.118	0.176	0.081
-469.201	26.622	-0.100	-0.084
-468.186	-176.787	-0.289	-0.007
-467.172	30.205	-0.030	0.026
-466.157	142.412	-0.054	0.071
-465.143	-47.184	0.155	0.076
-464.128	-92.456	0.451	0.127
-463.113	34.828	-0.117	0.102
-462.099	159.625	-0.218	0.303
-461.084	-130.327	0.248	-0.034
-460.070	-200.000	-0.060	0.340
-459.055	800.000	-0.054	-0.224
-458.040	-37.696	0.249	-0.132
-457.026	767.287	0.093	0.254
-456.011	-159.256	0.282	0.016
-454.997	800.000	0.032	0.123
-453.982	-179.933	-0.393	0.008
-452.968	800.000	-0.077	-0.315
-451.953	-200.000	0.009	-0.109
-450.938	157.292	-0.179	-0.248
-449.924	-133.729	0.311	-0.039
-448.909	-200.000	0.012	-0.122
-447.895	47.853	-0.105	0.098
-446.880	497.756	0.079	0.180
-445.865	28.296	-0.222	-0.188
-444.851	800.000	-0.027	0.101
-443.836	800.000	-0.076	-0.283
-442.822	197.892	-0.175	0.266
-441.807	19.532	0.354	0.284
-440.792	-41.843	0.146	-0.075
-439.778	248.323	-0.190	-0.321
-438.763	-73.076	-0.213	-0.078
-437.749	43.083	-0.327	0.297
-436.734	321.122	-0.091	0.172
-435.719	-145.207	0.165	0.015
-434.705	-101.157	-0.272	0.066
-433.690	800.000	0.078	0.256
-432.676	301.607	0.098	-0.181
-431.661	800.000	0.026	0.107
-430.646	-132.444	-0.320	-0.041
-429.632	-26.457	0.149	-0.087
-428.617	303.659	-0.047	0.087
-427.603	4.413	-0.124	-0.090
-426.588	190.532	0.214	-0.320
-425.573	-102.830	-0.337	0.080
-424.559	-14.992	0.174	-0.111
-423.544	-73.569	-0.339	-0.123
-422.530	-56.541	0.270	0.119
-421.515	487.830	-0.036	0.082
-420.500	800.000	0.128	0.404
-419.486	800.000	-0.046	0.170
-418.471	707.930	0.133	-0.351
-417.457	800.000	0.120	0.357
-416.442	598.619	0.030	-0.073
-415.428	-20.636	0.290	0.177
-414.413	-200.000	-0.017	0.074
-413.398	-16.143	-0.441	0.280
-412.384	0.534	0.164	0.117
-411.369	-200.000	0.033	-0.225
-410.355	403.862	-0.050	0.104
-409.340	800.000	-0.021	-0.057
-408.325	-76.877	-0.354	-0.123
-407.311	579.867	-0.056	-0.136
-406.296	800.000	-0.014	-0.059
-405.282	-200.000	-0.015	0.074
-404.267	31.286	-0.297	-0.254
-403.252	-81.956	0.222	0.072
-402.238	-200.000	-0.012	-0.139
-401.223	4.314	0.105	0.076
-400.209	-101.743	-0.346	0.084
-399.194	800.000	-0.028	0.106
-398.179	-200.000	-0.014	-0.199
-397.165	-114.415	0.300	0.057
-396.150	379.135	0.040	0.082
-395.136	-200.000	0.000	0.205
-394.121	61.371	0.030	-0.030
-393.106	-107.653	-0.079	-0.017
-392.092	800.000	0.082	-0.336
-391.077	-200.000	0.035	0.218
-390.063	-3.001	-0.145	0.101
-389.048	-200.000	-0.043	0.399
-388.033	-200.000	-0.010	-0.235
-387.019	-200.000	0.007	0.157
-386.004	800.000	0.035	-0.148
-384.990	345.899	0.032	0.063
-383.975	151.679	-0.185	-0.251
-382.960	104.389	-0.312	-0.365
-381.946	-59.463	-0.130	0.056
-380.931	61.963	-0.115	0.114
-379.917	-200.000	0.032	0.546
-378.902	-200.000	-0.038	-0.178
-377.888	-48.589	-0.115	-0.055
-376.873	55.547	-0.160	-0.154
-375.858	-43.744	0.023	-0.011
-374.844	800.000	-0.019	0.074
-373.829	-49.403	-0.229	0.109
-372.815	-124.487	0.038	0.006
-371.800	-107.110	-0.110	0.024
-370.785	-200.000	0.062	0.270
-369.771	-47.793	0.246	-0.119
-368.756	-72.297	-0.339	-0.125
-367.742	800.000	-0.027	-0.085
-366.727	-32.720	0.120	-0.067
-365.712	-80.869	0.258	-0.085
-364.698	-166.087	-0.142	-0.006
-363.683	119.702	-0.024	-0.030
-362.669	-200.000	-0.004	0.034
-361.654	186.396	0.283	-0.420
-360.639	-116.246	-0.398	0.073
-359.625	-200.000	0.030	-0.134
-358.610	43.439	0.115	0.105
-357.596	174.011	-0.171	0.246
-356.581	6.832	0.156	-0.115
-355.566	477.208	0.114	-0.257
-354.552	-200.000	0.020	0.158
-353.537	800.000	0.057	0.160
-352.523	197.156	0.095	0.144
-351.508	-8.034	0.330	-0.221
-350.493	800.000	-0.083	-0.349
-349.479	-197.375	0.295	-0.002
-348.464	48.589	0.123	0.115
-347.450	-109.227	-0.253	-0.053
-346.435	-104.984	0.327	-0.075
-345.420	-200.000	0.012	0.347
-344.406	243.629	-0.187	-0.312
-343.391	443.676	-0.041	-0.090
-342.377	462.515	0.066	-0.147
-341.362	-200.000	-0.010	0.056
-340.348	103.440	-0.094	-0.109
-339.333	44.052	0.219	0.200
-338.318	53.503	0.203	-0.193
-337.304	-35.561	0.107	0.057
-336.289	-59.874	-0.262	-0.111
-335.275	-96.090	0.227	0.060
-334.260	146.332	-0.107	0.143
-333.245	-40.067	-0.153	0.079
-332.231	-55.818	0.174	0.077
-331.216	-56.598	0.211	-0.093
-330.202	125.611	0.109	-0.136
-329.187	271.066	0.128	-0.223
-328.172	800.000	0.145	0.534
-327.158	12.931	0.416	-0.320
-326.143	94.380	0.045	-0.050
-325.129	101.186	0.396	0.458
-324.114	-119.507	0.097	0.017
-323.099	78.722	-0.160	-0.170
-322.085	-158.961	-0.188	-0.011
-321.070	-54.817	-0.083	0.037
-320.056	-200.000	0.027	-0.252
-319.041	218.056	-0.104	0.164
-318.026	227.943	0.095	0.154
-317.012	173.065	-0.183	0.262
-315.997	571.514	0.050	0.120
-314.983	800.000	0.084	-0.357
-313.968	-200.000	0.003	-0.161
-312.953	47.274	-0.139	-0.129
-311.939	-12.181	0.148	-0.096
-310.924	15.610	-0.216	0.168
-309.910	-130.872	0.128	-0.017
-308.895	-85.524	0.294	0.091
-307.880	-200.000	0.027	-0.164
-306.866	-88.586	0.182	0.054
-305.851	-56.874	-0.335	-0.147
-304.837	-200.000	-0.024	-0.184
-303.822	-194.244	0.175	-0.001
-302.807	43.382	0.220	-0.200
-301.793	800.000	0.059	-0.181
-300.778	253.162	-0.054	0.091
-299.764	291.976	-0.067	0.121
-298.749	-200.000	0.001	0.219
-297.735	737.714	-0.024	0.064
-296.720	-200.000	-0.003	-0.125
-295.705	800.000	-0.040	-0.166
-294.691	800.000	-0.020	-0.068
-293.676	-148.898	0.166	-0.013
-292.662	-118.831	0.359	0.063
-291.647	0.814	0.449	-0.319
-290.632	499.699	-0.188	0.431
-289.618	-86.477	-0.327	-0.100
-288.603	-108.222	-0.011	0.002
-287.589	-16.096	-0.362	0.228
-286.574	-83.502	0.236	-0.075
-285.559	-71.981	0.263	0.097
-284.545	-154.433	0.356	0.024
-283.530	102.772	0.058	-0.067
-282.516	-66.057	0.069	-0.028
-281.501	11.380	0.189	-0.144
-280.486	-36.394	0.092	0.049
-279.472	174.827	0.055	-0.079
-278.457	800.000	-0.054	-0.203
-277.443	-200.000	0.070	-0.309
-276.428	78.829	-0.239	-0.254
-275.413	-83.607	0.095	0.030
-274.399	-200.000	-0.025	0.277
-273.384	-200.000	0.011	-0.136
-272.370	800.000	-0.121	0.384
-271.355	-200.000	-0.033	-0.517
-270.340	-8.483	0.079	-0.053
-269.326	48.213	-0.217	-0.201
-268.311	35.864	-0.075	-0.065
-267.297	-45.915	-0.229	-0.112
-266.282	-200.000	-0.028	-0.458
-265.267	135.111	0.088	0.113
-264.253	110.378	0.040	0.047
-263.238	-200.000	-0.034	-0.170
-262.224	-130.922	-0.132	-0.018
-261.209	24.698	-0.052	0.043
-260.195	227.890	-0.126	-0.204
-259.180	800.000	0.177	0.493
-258.165	61.953	0.218	-0.216
-257.151	134.093	0.038	0.049
-256.136	-200.000	0.055	0.368
-255.122	583.333	0.108	-0.263
-254.107	30.793	0.419	0.355
-253.092	-176.264	-0.278	-0.007
-252.078	47.704	0.031	-0.029
-251.063	-64.617	-0.192	0.077
-250.049	-200.000	-0.034	0.249
-249.034	-67.136	0.317	-0.124
-248.019	-200.000	0.010	-0.044
-247.005	800.000	-0.077	0.322
-245.990	-120.516	0.321	-0.054
-244.976	-154.100	-0.087	-0.006
-243.961	-200.000	0.053	0.285
-242.946	-89.741	0.255	0.074
-241.932	-122.964	-0.260	0.041
-240.917	184.720	-0.123	-0.181
-239.903	800.000	0.082	-0.255
-238.888	156.275	-0.110	0.150
-237.873	403.826	-0.065	0.135
-236.859	-68.379	0.112	-0.043
-235.844	-200.000	0.052	0.252
-234.830	-200.000	0.021	-0.469
-233.815	207.623	0.182	-0.281
-232.800	-70.934	-0.340	0.127
-231.786	115.451	0.185	0.224
-230.771	-200.000	0.089	-0.510
-229.757	75.295	-0.157	0.164
-228.742	83.364	0.251	0.270
-227.727	-129.936	0.348	0.047
-226.713	-83.157	-0.068	-0.022
-225.698	-172.528	0.093	0.003
-224.684	23.230	0.057	0.047
-223.669	366.109	-0.102	-0.204
-222.655	-32.383	-0.149	-0.082
-221.640	-200.000	0.016	-0.199
-220.625	333.681	-0.099	0.189
-219.611	-118.289	-0.081	-0.014
-218.596	-96.796	0.277	-0.072
-217.582	-36.837	-0.129	-0.069
-216.567	186.228	-0.079	-0.116
-215.552	-200.000	-0.019	0.134
-214.538	-17.333	0.173	-0.108
-213.523	76.363	0.124	0.130
-212.509	78.339	-0.224	0.236
-211.494	-154.438	-0.247	-0.016
-210.479	783.672	-0.051	-0.138
-209.465	800.000	-0.102	-0.423
-208.450	-200.000	0.091	-0.513
-207.436	251.355	-0.093	0.156
-206.421	128.552	-0.041	-0.051
-205.406	-55.649	0.283	0.125
-204.392	122.310	-0.042	0.052
-203.377	-200.000	0.007	-0.233
-202.363	-72.411	0.086	0.032
-201.348	494.293	0.057	0.130
-200.333	282.976	-0.053	0.095
-199.319	-170.698	0.102	-0.003
-198.304	679.195	-0.108	-0.279
-197.290	110.632	-0.191	-0.227
-196.275	-200.000	-0.000	-0.082
-195.260	-200.000	-0.318	-0.000
-194.246	-200.000	-0.251	0.000
-193.231	-80.172	-0.174	0.058
-192.217	73.009	0.133	0.138
-191.202	192.890	-0.235	-0.350
-190.187	284.122	-0.178	-0.316
-189.173	-184.455	-0.179	-0.003
-188.158	84.196	-0.232	0.250
-187.144	229.766	0.105	-0.169
-186.129	-200.000	-0.005	-0.239
-185.114	78.843	0.207	0.219
-184.100	216.735	-0.259	0.407
-183.085	800.000	-0.044	-0.172
-182.071	18.771	-0.121	-0.096
-181.056	-105.735	0.142	0.032
-180.042	5.269	-0.196	0.143
-179.027	10.851	-0.228	0.172
-178.012	-89.975	0.222	0.064
-176.998	-74.701	-0.216	-0.077
-175.983	209.577	-0.151	0.235
-174.969	-200.000	-0.012	-0.117
-173.954	800.000	-0.061	0.191
-172.939	-60.996	0.211	-0.088
-171.925	-129.608	-0.074	-0.010
-170.910	-21.349	-0.148	0.090
-169.896	-115.468	0.183	-0.034
-168.881	30.725	0.039	0.033
-167.866	-111.285	-0.221	0.045
-166.852	-200.000	-0.055	-0.292
-165.837	142.522	-0.098	-0.128
-164.823	-92.598	-0.193	-0.053
-163.808	100.114	0.278	0.318
-162.793	487.451	0.120	-0.272
-161.779	-39.370	-0.119	-0.062
-160.764	582.756	-0.018	0.043
-159.750	800.000	0.049	-0.134
-158.735	-92.000	-0.165	0.046
-157.720	64.715	0.230	-0.229
-156.706	95.353	-0.143	-0.161
-155.691	38.564	0.105	-0.092
-154.677	564.983	0.060	-0.143
-153.662	-41.128	0.110	-0.056
-152.647	-40.612	-0.313	0.160
-151.633	-124.523	0.429	0.066
-150.618	127.145	-0.134	-0.168
-149.604	-114.059	0.256	0.049
-148.589	-46.515	0.216	0.105
-147.574	-200.000	-0.027	-0.210
-146.560	-91.525	0.112	-0.032
-145.545	-37.071	-0.174	-0.092
-144.531	228.638	0.073	-0.118
-143.516	800.000	0.054	0.185
-142.502	32.399	0.221	-0.188
-141.487	171.859	0.115	0.162
-140.472	-144.109	-0.230	-0.021
-139.458	-25.154	-0.212	-0.124
-138.443	-48.196	-0.082	0.039
-137.429	-14.705	-0.124	-0.079
-136.414	-56.217	0.164	0.072
-135.399	-128.738	-0.249	0.035
-134.385	78.186	0.280	0.294
-133.370	-58.189	0.237	-0.102
-132.356	101.995	-0.370	0.427
-131.341	580.572	0.148	-0.359
-130.326	405.888	-0.121	0.253
-129.312	-61.235	-0.246	-0.102
-128.297	31.201	0.184	0.156
-127.283	406.914	0.044	0.093
-126.268	250.505	0.085	0.143
-125.253	-81.023	-0.069	-0.023
-124.239	20.378	0.139	-0.110
-123.224	223.423	-0.056	0.089
-122.210	-89.122	0.132	-0.038
-121.195	645.898	0.042	-0.107
