DTS Sentinel unit serial number:	SN413079Multiplexer serial number:	ORYXHardware model number:	OX4-SRSoftware version number:	ORYX F/W v4.00 Oryx Data Collector v3.7.2.0data status	okinstallation	princeton_trtdifferential loss correction	single-endedforward channel	channel 3reverse channel	N/Adate	2019/09/12time	00:54:11forward acquisition time	60.00reverse acquisition time	0.00gamma	496.2192k internal	0.2319k external	0.2319temperature offset calibration	1.0064default loss term (dB/km)	0.3790temperature slope calibration	1.0000multiplexer offset coefficient	1.0000multiplexer slope coefficient	1.0000fibre end	0.00T internal ref (°C)	33.25T ext. ref 1 (°C)	2.05T ext. ref 2 (°C)	28.05length (m)	temperature (°C)	Stokes	anti-Stokes-747.200	330.771	-0.267	0.521
-746.185	4.522	-0.200	-0.148
-745.171	-149.917	0.169	-0.013
-744.156	800.000	-0.095	0.333
-743.142	-120.693	-0.124	0.021
-742.127	-34.180	-0.148	0.082
-741.112	181.990	0.139	-0.208
-740.098	-81.409	-0.125	0.042
-739.083	-81.136	0.063	0.021
-738.069	-123.041	-0.221	-0.036
-737.054	4.709	0.159	0.118
-736.039	-88.750	-0.447	-0.134
-735.025	146.809	-0.114	0.156
-734.010	-92.766	-0.407	0.115
-732.996	-38.727	-0.385	0.205
-731.981	615.507	-0.060	-0.151
-730.966	-146.947	-0.238	0.021
-729.952	-200.000	0.002	-0.145
-728.937	-5.415	0.140	-0.097
-727.923	32.920	-0.161	0.141
-726.908	-200.000	-0.023	-0.215
-725.894	74.698	-0.069	0.073
-724.879	108.623	0.142	-0.172
-723.864	402.406	0.108	0.229
-722.850	800.000	-0.059	-0.224
-721.835	800.000	-0.067	0.199
-720.821	-73.594	-0.337	0.124
-719.806	447.755	0.128	-0.284
-718.791	193.508	0.100	-0.152
-717.777	91.759	0.206	-0.234
-716.762	13.411	0.129	-0.101
-715.748	36.846	0.351	-0.313
-714.733	84.286	0.020	0.022
-713.718	-72.022	0.252	-0.095
-712.704	201.721	-0.036	0.056
-711.689	-102.610	0.219	-0.053
-710.675	404.357	0.070	0.150
-709.660	193.773	-0.217	0.332
-708.645	-14.835	0.303	-0.197
-707.631	-73.242	-0.256	-0.095
-706.616	88.860	0.152	-0.170
-705.602	317.972	-0.084	0.160
-704.587	800.000	-0.077	-0.247
-703.572	-51.246	0.237	-0.112
-702.558	-108.691	-0.142	-0.031
-701.543	0.872	0.133	-0.096
-700.529	254.568	0.164	-0.283
-699.514	800.000	-0.122	0.387
-698.499	-200.000	0.072	-0.370
-697.485	-175.387	-0.115	-0.003
-696.470	-28.393	-0.324	-0.189
-695.456	-41.662	0.310	0.161
-694.441	-158.843	-0.276	0.016
-693.426	-200.000	-0.020	0.326
-692.412	-200.000	0.020	0.167
-691.397	-1.776	-0.260	0.185
-690.383	-76.394	-0.089	-0.032
-689.368	174.702	0.042	-0.061
-688.354	52.201	0.119	0.114
-687.339	63.907	0.237	0.240
-686.324	-121.187	0.276	-0.047
-685.310	800.000	-0.042	0.140
-684.295	7.049	-0.055	0.041
-683.281	-33.437	-0.465	-0.259
-682.266	-69.754	0.083	-0.032
-681.251	-200.000	0.009	-0.101
-680.237	222.217	0.142	-0.231
-679.222	800.000	0.077	-0.291
-678.208	78.652	0.315	-0.340
-677.193	130.515	0.113	0.146
-676.178	38.301	0.093	-0.083
-675.164	81.573	-0.219	-0.240
-674.149	-74.784	-0.154	-0.056
-673.135	316.616	0.124	-0.236
-672.120	-156.478	0.371	0.023
-671.105	216.557	0.175	-0.281
-670.091	-200.000	-0.004	0.123
-669.076	-79.733	-0.059	0.020
-668.062	-200.000	0.037	-0.377
-667.047	-200.000	0.007	0.153
-666.032	-6.031	-0.023	-0.016
-665.018	-151.183	-0.174	0.013
-664.003	800.000	-0.044	-0.158
-662.989	725.926	-0.062	-0.167
-661.974	164.674	-0.066	-0.094
-660.959	104.882	0.139	-0.166
-659.945	543.582	-0.062	-0.149
-658.930	7.855	0.070	-0.053
-657.916	-200.000	-0.024	-0.513
-656.901	44.954	-0.109	-0.102
-655.886	195.634	-0.090	-0.138
-654.872	-60.588	0.235	-0.101
-653.857	-107.069	-0.142	-0.032
-652.843	-7.890	0.079	0.054
-651.828	800.000	0.118	-0.379
-650.814	-106.076	0.352	0.080
-649.799	174.268	0.124	0.181
-648.784	-121.816	-0.209	0.035
-647.770	-200.000	0.004	-0.037
-646.755	-121.450	0.163	0.027
-645.741	-95.381	0.281	-0.076
-644.726	737.925	-0.017	-0.046
-643.711	136.620	0.215	0.282
-642.697	-200.000	-0.007	-0.146
-641.682	-200.000	-0.022	0.185
-640.668	378.404	-0.099	-0.205
-639.653	294.405	0.101	-0.186
-638.638	-171.097	0.184	-0.006
-637.624	-127.285	0.288	0.042
-636.609	-2.933	0.166	-0.117
-635.595	65.027	-0.192	-0.195
-634.580	351.682	-0.054	-0.108
-633.565	-136.341	0.174	-0.020
-632.551	-200.000	-0.016	-0.432
-631.536	446.450	0.021	0.047
-630.522	-39.188	0.286	-0.151
-629.507	709.112	0.175	0.466
-628.492	-182.481	0.492	-0.009
-627.478	96.188	-0.092	-0.106
-626.463	342.112	-0.123	-0.242
-625.449	-76.325	0.446	0.158
-624.434	-200.000	-0.035	0.253
-623.419	356.582	0.125	-0.251
-622.405	12.179	0.169	-0.131
-621.390	-110.416	-0.226	-0.047
-620.376	-143.115	0.025	0.002
-619.361	-200.000	-0.045	0.287
-618.346	-41.346	-0.308	-0.160
-617.332	-200.000	0.019	0.093
-616.317	149.951	-0.229	-0.313
-615.303	64.123	0.058	0.059
-614.288	-53.726	0.329	-0.151
-613.273	274.816	0.135	-0.241
-612.259	85.984	0.023	-0.025
-611.244	-104.595	0.244	-0.057
-610.230	-127.251	0.366	-0.054
-609.215	-55.745	0.176	0.079
-608.201	247.740	-0.053	-0.090
-607.186	193.929	-0.034	-0.051
-606.171	-26.953	-0.053	-0.031
-605.157	787.507	-0.167	-0.461
-604.142	-19.858	-0.240	-0.149
-603.128	-45.884	0.062	0.031
-602.113	61.425	-0.095	-0.095
-601.098	344.510	0.077	-0.152
-600.084	366.929	-0.055	-0.111
-599.069	-200.000	0.232	-0.001
-598.055	26.617	-0.229	-0.193
-597.040	152.600	0.113	-0.155
-596.025	-179.229	0.270	0.006
-595.011	713.710	-0.043	-0.115
-593.996	-80.576	-0.136	0.046
-592.982	241.454	0.170	0.286
-591.967	80.423	-0.219	0.237
-590.952	335.356	-0.167	0.327
-589.938	-116.623	0.185	-0.034
-588.923	-92.415	-0.316	-0.089
-587.909	250.315	-0.209	-0.356
-586.894	-98.667	-0.132	0.034
-585.879	361.647	0.123	-0.248
-584.865	-24.047	0.052	-0.031
-583.850	800.000	0.032	0.113
-582.836	9.577	-0.333	-0.253
-581.821	-200.000	0.019	-0.574
-580.806	635.564	0.025	-0.063
-579.792	-200.000	-0.013	-0.179
-578.777	20.710	0.266	0.216
-577.763	-200.000	0.009	0.246
-576.748	-106.824	-0.172	-0.038
-575.733	800.000	0.035	0.110
-574.719	388.034	-0.139	-0.288
-573.704	-5.666	-0.142	0.098
-572.690	99.755	0.142	-0.165
-571.675	599.990	0.052	-0.131
-570.661	-172.718	0.048	0.002
-569.646	-200.000	0.015	0.350
-568.631	34.747	-0.173	-0.152
-567.617	800.000	0.101	0.280
-566.602	-9.944	0.162	-0.108
-565.588	-200.000	-0.037	0.664
-564.573	-116.624	0.016	0.003
-563.558	-145.708	0.124	0.011
-562.544	482.771	-0.046	0.106
-561.529	724.318	-0.112	-0.300
-560.515	-200.000	0.002	-0.033
-559.500	548.913	-0.099	-0.239
-558.485	-85.814	-0.233	-0.072
-557.471	26.487	-0.059	0.050
-556.456	-200.000	0.005	0.236
-555.442	-200.000	0.026	-0.147
-554.427	-2.907	0.019	0.013
-553.412	143.730	-0.025	0.033
-552.398	66.496	0.128	0.131
-551.383	-200.000	0.017	-0.099
-550.369	74.239	-0.239	-0.252
-549.354	-200.000	-0.006	0.110
-548.339	-71.938	-0.575	-0.215
-547.325	-200.000	0.023	-0.188
-546.310	25.719	0.193	-0.162
-545.296	200.497	0.074	-0.115
-544.281	-200.000	0.067	-0.487
-543.266	579.479	-0.073	0.179
-542.252	-73.384	0.114	0.042
-541.237	-76.446	0.170	-0.060
-540.223	-200.000	0.001	-0.360
-539.208	-200.000	0.068	-0.317
-538.193	-7.279	-0.097	-0.066
-537.179	112.179	-0.154	0.186
-536.164	163.205	-0.060	-0.084
-535.150	98.451	0.098	-0.113
-534.135	349.915	-0.110	0.217
-533.121	330.248	0.147	-0.285
-532.106	22.950	0.269	-0.221
-531.091	70.853	-0.241	0.251
-530.077	-200.000	0.049	-0.417
-529.062	79.191	-0.088	-0.094
-528.048	4.603	0.187	-0.138
-527.033	-121.448	0.173	0.029
-526.018	201.046	-0.098	0.151
-525.004	-200.000	0.064	-0.304
-523.989	-136.144	-0.053	0.006
-522.975	-200.000	-0.096	0.424
-521.960	211.992	0.154	0.244
-520.945	71.223	0.075	-0.078
-519.931	-78.952	-0.164	-0.056
-518.916	28.821	0.132	0.112
-517.902	-56.696	-0.276	-0.122
-516.887	-157.103	0.223	0.014
-515.872	-71.005	-0.140	-0.053
-514.858	-30.260	0.136	0.077
-513.843	-200.000	0.077	-0.458
-512.829	-32.821	0.131	-0.073
-511.814	64.067	-0.188	-0.190
-510.799	-131.716	0.193	0.025
-509.785	97.887	-0.141	-0.163
-508.770	-75.629	0.216	0.077
-507.756	-37.958	-0.281	0.150
-506.741	-200.000	-0.063	0.304
-505.726	-149.317	0.372	0.030
-504.712	226.990	0.089	0.145
-503.697	-126.311	-0.107	0.016
-502.683	292.066	-0.020	-0.037
-501.668	-200.000	0.001	0.156
-500.653	157.266	-0.045	0.063
-499.639	350.381	-0.072	-0.142
-498.624	29.052	0.034	0.029
-497.610	-95.741	0.217	-0.058
-496.595	-9.908	0.050	0.033
-495.581	-15.949	-0.078	-0.049
-494.566	-85.879	-0.403	-0.125
-493.551	-200.000	-0.014	0.126
-492.537	800.000	-0.123	0.393
-491.522	55.619	0.112	-0.109
-490.508	800.000	0.041	0.160
-489.493	48.791	0.166	-0.156
-488.478	298.078	0.060	0.111
-487.464	25.220	-0.082	-0.068
-486.449	-144.249	-0.292	0.027
-485.435	244.452	-0.068	0.115
-484.420	-39.858	0.106	-0.055
-483.405	-200.000	0.028	0.143
-482.391	800.000	-0.047	0.185
-481.376	280.537	0.094	0.169
-480.362	13.619	-0.330	0.256
-479.347	582.291	-0.072	0.177
-478.332	-35.456	-0.226	0.123
-477.318	12.001	-0.117	0.090
-476.303	-200.000	-0.064	0.373
-475.289	230.656	0.172	0.281
-474.274	-60.507	0.211	0.090
-473.259	-164.407	0.130	0.006
-472.245	-200.000	-0.019	-0.207
-471.230	-200.000	-0.025	-0.250
-470.216	54.433	-0.210	0.203
-469.201	15.930	0.116	0.092
-468.186	22.893	-0.313	0.257
-467.172	-97.548	-0.182	-0.047
-466.157	291.617	-0.089	0.162
-465.143	-128.361	0.113	-0.016
-464.128	-124.313	-0.154	0.024
-463.113	158.967	0.086	0.120
-462.099	336.039	-0.070	0.136
-461.084	252.411	-0.151	0.258
-460.070	-156.482	-0.140	0.009
-459.055	-136.169	0.253	-0.030
-458.040	-64.428	-0.065	-0.026
-457.026	-200.000	0.045	-0.296
-456.011	-91.130	-0.208	-0.060
-454.997	-200.000	-0.037	0.182
-453.982	-71.739	0.290	-0.108
-452.968	-46.731	0.308	-0.151
-451.953	118.519	-0.143	-0.176
-450.938	-200.000	0.001	-0.074
-449.924	-200.000	0.022	0.301
-448.909	-74.102	0.425	0.154
-447.895	800.000	-0.019	0.055
-446.880	-106.325	0.169	0.038
-445.865	-47.938	-0.133	0.065
-444.851	254.588	0.062	0.107
-443.836	-163.704	-0.134	-0.006
-442.822	-128.849	-0.117	-0.016
-441.807	-110.277	-0.166	-0.035
-440.792	-57.056	0.222	-0.098
-439.778	-146.014	-0.258	-0.023
-438.763	306.032	0.099	-0.184
-437.749	-114.189	0.125	-0.024
-436.734	-56.876	-0.077	0.034
-435.719	-2.145	-0.241	-0.170
-434.705	27.112	0.190	0.159
-433.690	568.472	0.133	-0.324
-432.676	65.549	-0.123	-0.124
-431.661	800.000	0.104	-0.328
-430.646	70.346	-0.217	-0.224
-429.632	-113.440	-0.160	-0.031
-428.617	800.000	-0.082	-0.266
-427.603	-134.019	-0.273	-0.034
-426.588	8.556	0.156	0.118
-425.573	-51.481	0.177	-0.083
-424.559	16.872	-0.048	-0.038
-423.544	100.119	-0.080	0.093
-422.530	-10.850	0.059	0.039
-421.515	-48.974	-0.091	-0.044
-420.500	-52.618	0.088	0.041
-419.486	-43.429	0.066	0.034
-418.471	-27.933	0.177	0.102
-417.457	-73.075	0.244	-0.089
-416.442	282.423	0.104	-0.186
-415.428	476.432	0.083	0.187
-414.413	-133.011	-0.177	-0.022
-413.398	123.953	-0.247	-0.310
-412.384	366.486	0.220	-0.443
-411.369	-200.000	0.028	-0.188
-410.355	-41.741	-0.103	0.053
-409.340	196.923	-0.094	-0.142
-408.325	0.059	0.257	0.183
-407.311	-76.962	0.064	0.022
-406.296	154.208	-0.174	0.238
-405.282	-200.000	-0.020	-0.100
-404.267	42.202	-0.178	0.162
-403.252	-103.872	0.296	0.069
-402.238	235.085	0.081	0.134
-401.223	89.051	0.163	-0.181
-400.209	-200.000	-0.008	0.121
-399.194	48.653	-0.193	0.181
-398.179	800.000	-0.095	0.351
-397.165	-73.188	-0.146	0.054
-396.150	-106.925	0.197	-0.043
-395.136	-36.825	-0.061	0.032
-394.121	-162.675	-0.215	-0.011
-393.106	-25.422	0.210	-0.124
-392.092	-62.736	0.079	-0.032
-391.077	-150.211	-0.299	-0.023
-390.063	-51.665	-0.251	-0.117
-389.048	-64.173	0.152	-0.062
-388.033	-52.459	-0.123	0.057
-387.019	-26.564	0.112	0.065
-386.004	29.942	0.154	-0.131
-384.990	-104.338	0.349	0.081
-383.975	-200.000	-0.005	0.149
-382.960	282.632	-0.115	-0.206
-381.946	-125.070	-0.382	0.059
-380.931	-200.000	-0.021	0.121
-379.917	7.609	0.103	-0.077
-378.902	29.520	0.169	-0.143
-377.888	-148.606	0.179	-0.015
-376.873	-38.400	0.214	0.113
-375.858	157.281	-0.265	0.366
-374.844	142.001	0.154	0.203
-373.829	-155.850	-0.225	0.014
-372.815	223.695	-0.236	0.380
-371.800	-9.053	0.084	0.056
-370.785	-200.000	0.000	0.126
-369.771	800.000	0.034	0.098
-368.756	-124.226	0.188	-0.029
-367.742	-94.975	-0.392	0.106
-366.727	-26.503	-0.249	-0.146
-365.712	-51.088	0.098	0.046
-364.698	-96.862	-0.163	0.043
-363.683	-78.300	-0.294	-0.101
-362.669	-48.732	-0.175	-0.084
-361.654	-37.833	-0.334	-0.177
-360.639	-200.000	-0.000	-0.043
-359.625	800.000	0.011	0.037
-358.610	-101.917	-0.438	0.106
-357.596	-200.000	-0.013	-0.189
-356.581	602.900	-0.031	0.078
-355.566	-17.287	0.264	0.166
-354.552	88.965	0.175	-0.194
-353.537	800.000	0.071	0.278
-352.523	-122.906	-0.268	-0.043
-351.508	121.576	0.167	-0.208
-350.493	-73.562	-0.165	0.060
-349.479	-200.000	0.002	-0.023
-348.464	-0.792	0.116	-0.082
-347.450	119.095	-0.135	0.167
-346.435	800.000	-0.094	0.274
-345.420	800.000	-0.017	-0.046
-344.406	-51.581	0.128	0.060
-343.391	-200.000	-0.001	0.020
-342.377	9.445	0.178	-0.134
-341.362	333.627	-0.290	-0.559
-340.348	-7.865	-0.094	0.063
-339.333	315.139	-0.041	-0.077
-338.318	-101.266	-0.014	-0.003
-337.304	-33.866	-0.078	-0.043
-336.289	-106.790	-0.089	-0.020
-335.275	-200.000	-0.008	0.257
-334.260	-102.018	-0.254	-0.061
-333.245	-100.684	0.189	0.046
-332.231	-42.318	-0.411	0.209
-331.216	-200.000	0.013	-0.072
-330.202	-200.000	-0.030	0.188
-329.187	440.112	-0.071	-0.155
-328.172	-134.375	0.371	-0.045
-327.158	56.335	0.120	-0.116
-326.143	-200.000	0.007	-0.078
-325.129	185.802	0.106	-0.158
-324.114	-99.034	0.300	0.076
-323.099	14.300	0.181	-0.141
-322.085	334.385	-0.022	-0.042
-321.070	322.179	-0.121	0.229
-320.056	-85.925	0.152	-0.047
-319.041	-200.000	0.005	0.035
-318.026	18.443	-0.087	-0.070
-317.012	-77.525	-0.049	0.017
-315.997	800.000	0.033	0.100
-314.983	800.000	0.098	0.344
-313.968	0.727	0.117	-0.083
-312.953	40.910	0.181	-0.162
-311.939	48.390	-0.086	0.080
-310.924	-156.470	-0.096	0.006
-309.910	71.187	-0.204	-0.210
-308.895	652.272	0.075	0.190
-307.880	44.984	-0.137	0.126
-306.866	-12.483	-0.177	0.115
-305.851	-26.528	0.087	0.051
-304.837	195.609	-0.109	0.165
-303.822	-200.000	0.046	-0.352
-302.807	-48.879	-0.522	-0.249
-301.793	-81.304	0.109	-0.036
-300.778	-200.000	-0.046	-0.224
-299.764	570.553	-0.142	0.343
-298.749	45.566	0.190	-0.174
-297.735	99.996	-0.270	-0.311
-296.720	62.507	-0.195	0.194
-295.705	99.929	0.127	-0.147
-294.691	258.746	0.230	0.395
-293.676	-86.049	-0.138	-0.042
-292.662	128.100	0.123	-0.156
-291.647	-11.544	0.155	0.101
-290.632	-40.063	-0.296	0.153
-289.618	-190.852	-0.207	0.002
-288.603	650.687	0.049	-0.126
-287.589	770.248	0.091	0.246
-286.574	-200.000	-0.048	-0.288
-285.559	-200.000	0.007	0.324
-284.545	393.792	-0.114	0.237
-283.530	-169.427	-0.389	-0.014
-282.516	-200.000	0.041	-0.374
-281.501	-200.000	0.018	0.170
-280.486	-80.305	0.069	-0.023
-279.472	-102.249	0.149	-0.036
-278.457	202.123	-0.129	0.198
-277.443	20.119	0.042	0.034
-276.428	-200.000	-0.023	-0.232
-275.413	207.426	-0.071	-0.109
-274.399	-200.000	0.011	0.445
-273.384	-200.000	0.010	0.130
-272.370	-29.300	-0.489	0.278
-271.355	60.705	-0.274	-0.270
-270.340	800.000	0.131	0.405
-269.326	64.145	0.137	-0.137
-268.311	-171.379	-0.247	0.008
-267.297	-200.000	0.011	0.265
-266.282	-66.044	0.309	-0.122
-265.267	800.000	-0.059	0.184
-264.253	-31.841	0.293	0.163
-263.238	252.197	-0.190	0.321
-262.224	-50.613	-0.098	-0.046
-261.209	103.810	0.167	0.195
-260.195	-200.000	0.020	0.161
-259.180	-200.000	0.043	0.239
-258.165	-144.378	0.323	-0.030
-257.151	-200.000	0.001	-0.218
-256.136	161.634	-0.201	0.279
-255.122	-34.411	0.170	0.093
-254.107	53.337	0.211	-0.201
-253.092	-200.000	-0.005	0.046
-252.078	-106.695	-0.203	-0.045
-251.063	111.261	0.102	0.122
-250.049	-200.000	0.055	0.303
-249.034	-111.267	-0.158	0.032
-248.019	800.000	0.036	0.139
-247.005	32.983	0.098	0.084
-245.990	545.472	0.078	0.184
-244.976	264.047	-0.152	0.262
-243.961	14.354	0.200	0.154
-242.946	-1.081	0.165	0.116
-241.932	87.109	-0.237	-0.260
-240.917	-200.000	-0.042	0.204
-239.903	800.000	0.054	-0.161
-238.888	-47.159	0.337	-0.163
-237.873	-25.202	-0.035	0.021
-236.859	-106.727	-0.023	-0.005
-235.844	465.902	0.064	0.142
-234.830	635.438	0.115	0.290
-233.815	-6.453	0.321	-0.217
-232.800	462.726	0.124	-0.274
-231.786	-136.321	-0.214	-0.025
-230.771	-200.000	0.014	0.062
-229.757	78.161	-0.087	-0.092
-228.742	-95.678	0.478	-0.127
-227.727	-140.626	-0.390	-0.040
-226.713	45.216	-0.119	0.108
-225.698	-23.368	-0.136	0.081
-224.684	-23.809	0.185	0.110
-223.669	151.591	0.227	0.307
-222.655	371.891	0.090	0.182
-221.640	800.000	0.033	-0.092
-220.625	67.604	-0.042	0.042
-219.611	143.996	-0.144	-0.190
-218.596	275.107	-0.060	-0.105
-217.582	-74.027	-0.317	-0.114
-216.567	800.000	-0.065	0.222
-215.552	-134.431	0.432	0.052
-214.538	302.640	0.090	0.165
-213.523	101.245	0.107	-0.123
-212.509	326.196	-0.080	0.152
-211.494	148.440	-0.080	-0.107
-210.479	266.660	0.087	-0.150
-209.465	191.606	0.192	0.287
-208.450	-84.548	0.250	-0.078
-207.436	-91.126	-0.359	-0.102
-206.421	215.231	-0.045	0.070
-205.406	18.223	0.178	-0.141
-204.392	-91.812	0.109	0.031
-203.377	-200.000	-0.047	0.322
-202.363	187.238	0.137	-0.202
-201.348	36.829	-0.131	0.115
-200.333	-66.969	0.406	0.159
-199.319	-200.000	0.007	0.083
-198.304	666.994	-0.036	0.091
-197.290	148.459	-0.235	-0.314
-196.275	-128.402	0.203	0.029
-195.260	-95.886	0.120	0.032
-194.246	-26.193	0.164	-0.096
-193.231	146.979	-0.258	-0.343
-192.217	347.031	0.042	-0.082
-191.202	614.229	0.037	-0.092
-190.187	-200.000	0.035	0.182
-189.173	64.640	-0.070	0.070
-188.158	-200.000	-0.029	-0.340
-187.144	-45.449	0.076	-0.037
-186.129	3.279	-0.206	0.149
-185.114	223.631	-0.143	-0.229
-184.100	800.000	0.044	-0.161
-183.085	-200.000	0.022	-0.211
-182.071	-106.697	-0.323	0.071
-181.056	77.524	-0.176	0.185
-180.042	-200.000	0.012	-0.265
-179.027	-199.610	-0.209	0.001
-178.012	-115.329	-0.123	-0.023
-176.998	28.865	0.172	0.144
-175.983	-125.541	0.234	-0.035
-174.969	-200.000	0.004	0.306
-173.954	63.293	-0.198	-0.197
-172.939	-88.611	0.260	0.077
-171.925	126.481	0.076	-0.095
-170.910	-200.000	-0.040	0.378
-169.896	800.000	0.051	-0.190
-168.881	-8.336	-0.144	-0.096
-167.866	212.899	-0.078	-0.122
-166.852	-39.973	-0.228	0.118
-165.837	-200.000	-0.001	-0.056
-164.823	158.952	0.187	-0.258
-163.808	149.412	0.145	-0.194
-162.793	-65.857	-0.114	0.045
-161.779	-69.004	0.242	-0.092
-160.764	-106.676	0.381	0.084
-159.750	-65.172	-0.183	-0.073
-158.735	-200.000	0.029	0.188
-157.720	-89.722	0.526	-0.152
-156.706	-95.366	-0.140	0.037
-155.691	-140.464	-0.278	0.029
-154.677	-59.521	-0.252	0.107
-153.662	164.054	-0.085	-0.119
-152.647	-70.263	0.417	0.157
-151.633	-200.000	0.044	0.368
-150.618	257.893	-0.097	-0.164
-149.604	800.000	-0.053	-0.224
-148.589	353.251	-0.031	-0.060
-147.574	-116.506	-0.140	-0.025
-146.560	-94.358	0.325	0.088
-145.545	205.273	-0.100	0.153
-144.531	102.823	0.185	-0.214
-143.516	-24.043	-0.278	-0.164
-142.502	133.398	-0.099	-0.126
-141.487	69.238	0.194	-0.197
-140.472	33.130	-0.124	0.106
-139.458	-83.088	-0.345	-0.110
-138.443	19.636	0.130	0.103
-137.429	66.525	-0.075	-0.075
-136.414	440.803	0.143	0.310
-135.399	51.385	0.095	-0.089
-134.385	-113.899	0.137	0.026
-133.370	-55.671	0.211	-0.093
-132.356	-48.959	-0.331	-0.157
-131.341	46.531	0.270	-0.247
-130.326	-21.081	-0.128	0.077
-129.312	304.220	0.045	0.083
-128.297	-200.000	-0.023	-0.541
-127.283	31.975	-0.202	-0.172
-126.268	-152.317	-0.362	-0.026
-125.253	-119.930	-0.313	0.053
-124.239	-67.684	0.212	-0.082
-123.224	235.751	-0.040	-0.066
-122.210	-114.739	0.186	-0.035
-121.195	-200.000	-0.016	-0.311
