DTS Sentinel unit serial number:	SN413079Multiplexer serial number:	ORYXHardware model number:	OX4-SRSoftware version number:	ORYX F/W v4.00 Oryx Data Collector v3.7.2.0data status	okinstallation	princeton_trtdifferential loss correction	single-endedforward channel	channel 3reverse channel	N/Adate	2019/09/12time	01:38:10forward acquisition time	60.00reverse acquisition time	0.00gamma	496.2192k internal	0.2320k external	0.2320temperature offset calibration	1.0067default loss term (dB/km)	0.3790temperature slope calibration	1.0000multiplexer offset coefficient	1.0000multiplexer slope coefficient	1.0000fibre end	0.00T internal ref (°C)	32.87T ext. ref 1 (°C)	2.07T ext. ref 2 (°C)	27.58length (m)	temperature (°C)	Stokes	anti-Stokes-747.200	339.615	-0.150	-0.296
-746.185	-88.426	-0.018	-0.005
-745.171	-133.556	0.151	-0.019
-744.156	284.421	-0.233	0.424
-743.142	-109.998	0.057	0.012
-742.127	-200.000	-0.027	0.315
-741.112	76.789	-0.040	-0.043
-740.098	78.049	0.227	0.245
-739.083	333.664	-0.060	0.117
-738.069	127.743	-0.163	0.210
-737.054	8.489	-0.252	-0.192
-736.039	-200.000	-0.009	-0.243
-735.025	-104.209	-0.046	-0.011
-734.010	-115.938	-0.365	0.069
-732.996	-200.000	-0.019	-0.261
-731.981	800.000	-0.141	-0.419
-730.966	800.000	-0.072	-0.310
-729.952	389.767	-0.063	-0.131
-728.937	16.030	0.387	-0.308
-727.923	-4.566	-0.252	-0.176
-726.908	254.777	0.205	-0.355
-725.894	800.000	-0.078	0.262
-724.879	543.970	0.022	-0.053
-723.864	-33.162	-0.129	0.072
-722.850	-116.209	0.225	-0.042
-721.835	-82.390	-0.283	-0.093
-720.821	32.450	-0.058	0.050
-719.806	153.462	-0.190	-0.263
-718.791	169.320	-0.168	-0.242
-717.777	-116.714	0.217	0.040
-716.762	800.000	0.049	0.204
-715.748	-85.259	-0.310	0.098
-714.733	64.935	-0.281	-0.287
-713.718	-55.830	-0.038	-0.017
-712.704	301.023	0.168	-0.313
-711.689	19.905	-0.194	0.158
-710.675	-51.297	-0.330	0.156
-709.660	-200.000	0.020	-0.205
-708.645	-20.426	0.127	0.079
-707.631	631.822	0.097	0.248
-706.616	-16.690	-0.131	-0.084
-705.602	-200.000	0.009	-0.052
-704.587	19.863	0.102	0.083
-703.572	-69.196	-0.285	0.110
-702.558	-200.000	0.033	-0.188
-701.543	309.927	-0.098	-0.186
-700.529	-59.404	0.187	-0.081
-699.514	-15.088	-0.089	-0.058
-698.499	351.760	-0.106	-0.211
-697.485	-112.119	0.213	-0.043
-696.470	-40.063	-0.191	0.100
-695.456	312.863	0.116	0.220
-694.441	800.000	0.023	-0.084
-693.426	-17.303	-0.140	0.089
-692.412	-172.530	-0.157	0.005
-691.397	48.053	-0.081	-0.077
-690.383	-12.854	0.129	-0.085
-689.368	-200.000	0.026	0.124
-688.354	-200.000	0.164	0.001
-687.339	163.402	-0.083	0.118
-686.324	-145.427	0.091	0.008
-685.310	-200.000	-0.004	-0.059
-684.295	-129.288	0.223	-0.031
-683.281	-124.659	0.254	-0.040
-682.266	103.896	-0.102	0.121
-681.251	428.963	-0.154	0.336
-680.237	576.982	0.021	-0.053
-679.222	-200.000	-0.002	-0.232
-678.208	75.704	0.209	-0.223
-677.193	23.933	0.035	-0.029
-676.178	85.155	0.107	-0.118
-675.164	71.837	-0.040	0.042
-674.149	-200.000	-0.007	-0.039
-673.135	-99.621	0.181	-0.046
-672.120	666.515	0.044	-0.113
-671.105	-40.313	-0.506	-0.266
-670.091	-112.094	0.169	-0.034
-669.076	-123.247	0.269	0.043
-668.062	-166.762	0.199	0.008
-667.047	-200.000	-0.002	0.177
-666.032	310.153	-0.112	0.212
-665.018	-96.513	0.265	-0.071
-664.003	22.261	-0.097	-0.080
-662.989	-200.000	-0.024	-0.263
-661.974	-30.304	-0.061	-0.035
-660.959	-64.791	0.074	-0.030
-659.945	167.760	0.228	0.326
-658.930	-89.615	0.270	0.080
-657.916	84.323	-0.085	0.094
-656.901	-31.596	-0.412	0.233
-655.886	-162.035	-0.432	0.022
-654.872	263.968	-0.107	0.187
-653.857	-95.104	-0.167	0.045
-652.843	107.602	-0.216	0.259
-651.828	705.831	-0.009	0.025
-650.814	70.234	0.055	0.057
-649.799	-12.264	-0.084	-0.056
-648.784	109.157	-0.141	0.170
-647.770	56.566	-0.287	0.281
-646.755	331.749	0.064	-0.124
-645.741	106.454	-0.104	0.124
-644.726	-39.492	0.317	0.167
-643.711	-43.043	0.426	0.218
-642.697	800.000	-0.024	-0.093
-641.682	78.398	-0.277	-0.298
-640.668	800.000	0.132	0.452
-639.653	-42.421	0.141	0.072
-638.638	800.000	0.040	-0.128
-637.624	800.000	0.038	-0.110
-636.609	800.000	0.041	0.113
-635.595	-59.266	0.229	-0.099
-634.580	-200.000	0.023	0.354
-633.565	27.193	0.234	0.198
-632.551	-200.000	0.010	0.112
-631.536	-67.000	-0.191	-0.076
-630.522	1.399	-0.190	0.137
-629.507	43.355	0.080	-0.074
-628.492	-105.852	0.099	0.022
-627.478	-94.847	0.140	-0.038
-626.463	-94.201	0.185	0.051
-625.449	-61.463	-0.131	-0.055
-624.434	-34.222	0.305	-0.168
-623.419	-200.000	-0.051	0.225
-622.405	-152.055	-0.184	0.014
-621.390	-144.258	0.213	0.020
-620.376	-200.000	0.022	-0.379
-619.361	50.586	0.237	-0.226
-618.346	800.000	-0.059	0.189
-617.332	87.258	0.031	-0.034
-616.317	181.592	0.294	0.435
-615.303	-200.000	-0.013	-0.226
-614.288	66.098	-0.051	0.052
-613.273	-39.007	-0.167	0.088
-612.259	330.295	0.236	0.457
-611.244	-200.000	-0.003	-0.256
-610.230	222.172	0.246	0.398
-609.215	-127.507	-0.155	0.023
-608.201	670.957	-0.105	0.274
-607.186	277.678	-0.084	-0.150
-606.171	591.974	0.178	-0.443
-605.157	800.000	-0.057	-0.205
-604.142	112.166	0.137	0.167
-603.128	-72.790	0.151	-0.056
-602.113	-151.096	-0.208	0.016
-601.098	-8.716	-0.405	0.274
-600.084	-170.844	-0.111	-0.004
-599.069	349.361	0.113	-0.224
-598.055	72.782	-0.153	0.161
-597.040	86.495	-0.305	0.338
-596.025	-72.069	-0.127	-0.047
-595.011	800.000	-0.091	0.335
-593.996	-115.001	0.355	0.068
-592.982	800.000	-0.141	0.413
-591.967	-68.828	-0.229	-0.089
-590.952	-200.000	-0.024	-0.184
-589.938	134.263	0.052	-0.067
-588.923	-200.000	0.009	0.107
-587.909	-200.000	0.002	0.363
-586.894	-155.558	0.170	-0.011
-585.879	800.000	0.077	-0.259
-584.865	188.298	0.170	-0.255
-583.850	-200.000	0.006	-0.344
-582.836	-200.000	0.005	0.118
-581.821	-200.000	0.040	0.222
-580.806	800.000	-0.051	0.193
-579.792	-29.339	-0.256	0.147
-578.777	800.000	-0.081	-0.260
-577.763	-44.081	0.051	0.026
-576.748	37.654	-0.324	0.289
-575.733	689.144	0.084	-0.222
-574.719	-200.000	-0.014	-0.191
-573.704	-110.784	0.039	-0.008
-572.690	-175.441	-0.313	0.009
-571.675	800.000	-0.087	-0.295
-570.661	-81.838	-0.065	-0.022
-569.646	-24.702	-0.096	0.058
-568.631	653.211	-0.045	-0.115
-567.617	690.871	0.124	-0.327
-566.602	-200.000	-0.035	0.218
-565.588	-200.000	-0.002	0.038
-564.573	62.433	0.179	-0.180
-563.558	-65.037	-0.382	0.155
-562.544	-63.258	0.133	-0.055
-561.529	163.108	-0.130	0.183
-560.515	-75.211	0.217	-0.078
-559.500	338.779	-0.095	0.185
-558.485	259.792	-0.219	0.379
-557.471	696.732	-0.099	-0.262
-556.456	-200.000	0.022	0.119
-555.442	-74.787	-0.131	-0.047
-554.427	-50.353	-0.091	0.043
-553.412	144.132	0.101	0.136
-552.398	159.525	0.109	0.152
-551.383	-103.278	-0.126	0.030
-550.369	-116.855	0.146	-0.027
-549.354	140.743	0.411	-0.545
-548.339	25.956	-0.382	0.320
-547.325	800.000	-0.027	-0.112
-546.310	137.751	-0.080	0.105
-545.296	795.113	0.026	-0.072
-544.281	261.476	0.059	0.102
-543.266	-123.942	0.306	-0.048
-542.252	109.807	-0.234	0.281
-541.237	-33.222	-0.184	0.102
-540.223	0.914	0.150	-0.108
-539.208	800.000	-0.091	-0.256
-538.193	-200.000	-0.015	0.309
-537.179	139.780	0.160	0.212
-536.164	-200.000	0.012	-0.196
-535.150	63.397	-0.006	0.006
-534.135	44.860	0.105	-0.097
-533.121	197.873	0.108	-0.166
-532.106	800.000	-0.034	-0.102
-531.091	-192.657	0.018	0.000
-530.077	32.394	0.226	0.195
-529.062	-10.563	0.035	0.023
-528.048	-200.000	0.007	0.120
-527.033	-200.000	-0.010	0.153
-526.018	-200.000	0.028	0.192
-525.004	2.930	0.101	0.074
-523.989	22.036	-0.094	0.077
-522.975	227.790	-0.032	-0.052
-521.960	93.268	-0.007	0.008
-520.945	147.121	-0.116	-0.157
-519.931	21.766	-0.097	0.079
-518.916	353.214	0.149	0.296
-517.902	35.137	-0.024	0.021
-516.887	4.937	0.094	0.069
-515.872	33.855	0.157	0.137
-514.858	-153.349	0.313	0.022
-513.843	769.574	-0.062	-0.170
-512.829	800.000	0.054	-0.191
-511.814	89.911	-0.128	-0.143
-510.799	-28.674	0.265	0.153
-509.785	-101.902	-0.230	-0.056
-508.770	-200.000	-0.000	-0.234
-507.756	-139.123	0.432	-0.047
-506.741	-200.000	-0.003	-0.060
-505.726	-200.000	0.023	-0.236
-504.712	-40.499	-0.158	-0.082
-503.697	16.635	0.152	-0.120
-502.683	301.377	-0.093	-0.172
-501.668	-105.323	-0.207	-0.047
-500.653	221.279	-0.191	-0.307
-499.639	-87.395	0.128	0.039
-498.624	-200.000	0.008	-0.121
-497.610	-200.000	-0.020	0.146
-496.595	5.058	-0.291	0.214
-495.581	-200.000	-0.007	0.066
-494.566	299.722	0.272	0.503
-493.551	-170.932	0.313	-0.011
-492.537	-40.557	-0.183	0.095
-491.522	-200.000	0.013	-0.177
-490.508	-111.511	-0.231	-0.047
-489.493	32.705	0.157	-0.136
-488.478	52.962	-0.081	-0.078
-487.464	-69.479	0.143	-0.055
-486.449	165.694	-0.161	0.228
-485.435	-21.144	-0.343	-0.210
-484.420	361.594	0.055	-0.110
-483.405	-132.424	-0.184	-0.024
-482.391	-50.639	-0.172	-0.081
-481.376	-200.000	0.067	-0.466
-480.362	-24.925	0.135	-0.080
-479.347	84.098	0.096	0.105
-478.332	156.159	0.150	-0.208
-477.318	-200.000	0.011	-0.562
-476.303	800.000	0.120	-0.416
-475.289	-172.754	0.355	0.011
-474.274	63.468	0.150	0.151
-473.259	800.000	-0.076	0.242
-472.245	-200.000	-0.001	0.262
-471.230	-112.387	-0.163	0.033
-470.216	-66.199	0.079	-0.032
-469.201	-146.346	0.188	-0.016
-468.186	-133.941	-0.056	-0.007
-467.172	-200.000	0.036	0.317
-466.157	-97.828	0.166	-0.043
-465.143	-133.891	-0.217	-0.027
-464.128	745.138	-0.085	-0.228
-463.113	-200.000	0.009	-0.068
-462.099	98.429	-0.078	-0.090
-461.084	102.436	0.302	0.353
-460.070	43.872	-0.151	0.139
-459.055	138.382	-0.184	-0.242
-458.040	-200.000	-0.013	0.175
-457.026	-130.535	-0.125	-0.017
-456.011	-200.000	-0.009	0.071
-454.997	29.734	0.060	-0.051
-453.982	23.385	-0.211	0.174
-452.968	-200.000	-0.052	0.231
-451.953	-200.000	-0.064	0.316
-450.938	-12.877	0.141	0.091
-449.924	-74.676	-0.118	0.042
-448.909	-111.303	0.232	0.047
-447.895	-142.622	-0.320	-0.031
-446.880	800.000	0.033	0.104
-445.865	-200.000	0.057	0.272
-444.851	-200.000	-0.012	0.199
-443.836	-57.892	0.141	0.061
-442.822	50.697	0.162	0.153
-441.807	-51.264	0.268	-0.126
-440.792	236.922	-0.083	0.137
-439.778	-200.000	-0.003	-0.083
-438.763	-12.828	0.143	-0.093
-437.749	80.500	-0.168	0.180
-436.734	-200.000	-0.051	-0.475
-435.719	-37.127	0.281	0.151
-434.705	5.755	0.187	-0.138
-433.690	261.812	0.094	-0.163
-432.676	35.308	-0.353	-0.310
-431.661	-200.000	-0.008	0.233
-430.646	-200.000	-0.037	-0.289
-429.632	358.385	-0.105	0.209
-428.617	-55.427	0.078	-0.035
-427.603	-94.866	0.055	-0.015
-426.588	-132.629	-0.439	-0.056
-425.573	-18.948	-0.132	-0.082
-424.559	-78.888	-0.088	0.030
-423.544	-138.610	-0.109	0.012
-422.530	129.442	0.160	-0.203
-421.515	-27.964	0.148	0.086
-420.500	146.820	-0.177	-0.237
-419.486	-111.586	-0.132	-0.027
-418.471	-200.000	0.011	0.140
-417.457	-74.680	0.078	-0.028
-416.442	-94.949	-0.182	0.049
-415.428	-200.000	-0.157	0.000
-414.413	133.602	-0.359	-0.463
-413.398	6.809	-0.218	-0.162
-412.384	20.070	-0.073	0.059
-411.369	-71.578	-0.107	-0.040
-410.355	161.118	-0.140	-0.196
-409.340	98.309	-0.048	0.055
-408.325	24.065	0.132	-0.109
-407.311	9.266	0.375	-0.283
-406.296	-113.340	-0.365	0.071
-405.282	187.473	-0.204	0.304
-404.267	-69.684	0.274	0.104
-403.252	3.896	0.210	-0.153
-402.238	-99.187	-0.184	-0.046
-401.223	-102.360	-0.433	0.104
-400.209	369.636	-0.180	-0.364
-399.194	139.397	-0.163	0.214
-398.179	375.752	-0.060	0.123
-397.165	62.669	-0.101	0.100
-396.150	-101.698	-0.452	-0.109
-395.136	-5.241	0.208	-0.143
-394.121	-52.768	-0.199	0.092
-393.106	515.689	-0.083	0.194
-392.092	-200.000	-0.016	-0.106
-391.077	288.482	0.110	0.199
-390.063	-22.704	0.119	0.071
-389.048	-200.000	-0.005	-0.240
-388.033	-111.635	-0.292	-0.059
-387.019	34.345	-0.259	-0.226
-386.004	-41.614	-0.298	-0.153
-384.990	13.349	-0.309	0.239
-383.975	221.751	-0.123	0.197
-382.960	-19.953	-0.155	0.095
-381.946	10.568	-0.327	-0.249
-380.931	-12.158	-0.147	-0.096
-379.917	800.000	-0.066	0.262
-378.902	-177.832	0.080	-0.002
-377.888	-183.466	0.205	0.004
-376.873	60.050	0.211	-0.208
-375.858	-109.166	0.138	-0.029
-374.844	-132.666	-0.144	0.018
-373.829	158.411	0.143	-0.198
-372.815	42.230	0.084	-0.076
-371.800	233.683	-0.065	0.106
-370.785	-68.210	-0.219	0.085
-369.771	-48.956	-0.074	0.036
-368.756	-92.932	0.132	-0.037
-367.742	800.000	0.064	-0.276
-366.727	-28.625	-0.292	-0.168
-365.712	800.000	0.060	0.227
-364.698	26.650	0.215	-0.179
-363.683	-80.880	-0.208	0.069
-362.669	9.263	0.289	-0.217
-361.654	225.185	0.107	-0.172
-360.639	800.000	-0.190	-0.541
-359.625	68.762	-0.150	-0.154
-358.610	52.999	0.137	-0.131
-357.596	14.628	-0.256	0.199
-356.581	-103.898	0.249	-0.058
-355.566	-25.428	0.353	0.208
-354.552	181.369	-0.073	-0.107
-353.537	506.336	-0.042	0.098
-352.523	-25.046	-0.172	0.102
-351.508	-133.700	0.216	-0.027
-350.493	-56.204	-0.253	0.112
-349.479	800.000	0.009	0.027
-348.464	-200.000	0.045	-0.283
-347.450	154.352	-0.107	0.146
-346.435	121.720	0.199	-0.247
-345.420	663.898	0.078	-0.199
-344.406	9.819	-0.034	0.026
-343.391	800.000	-0.062	0.193
-342.377	205.867	0.076	-0.118
-341.362	-162.185	-0.309	0.015
-340.348	800.000	-0.059	0.173
-339.333	-200.000	0.068	0.355
-338.318	185.614	-0.171	0.253
-337.304	159.115	-0.099	-0.137
-336.289	-200.000	-0.001	-0.090
-335.275	-200.000	-0.004	-0.090
-334.260	-62.668	0.129	-0.053
-333.245	407.518	0.063	-0.132
-332.231	76.767	-0.178	0.188
-331.216	158.822	0.031	-0.043
-330.202	410.940	0.116	-0.245
-329.187	269.706	-0.173	-0.302
-328.172	-14.340	0.156	-0.100
-327.158	800.000	0.089	-0.380
-326.143	368.380	0.140	-0.281
-325.129	27.638	-0.038	-0.032
-324.114	-183.066	0.328	0.006
-323.099	22.473	0.362	0.294
-322.085	138.426	-0.136	0.178
-321.070	-91.570	0.197	-0.056
-320.056	-38.715	0.135	0.071
-319.041	-200.000	-0.058	0.272
-318.026	-75.907	-0.387	-0.136
-317.012	205.700	-0.254	0.393
-315.997	27.485	-0.232	0.194
-314.983	-200.000	-0.015	-0.404
-313.968	347.816	-0.145	0.284
-312.953	-33.569	0.314	0.172
-311.939	800.000	-0.099	0.288
-310.924	-118.766	0.030	0.005
-309.910	-130.520	0.298	-0.040
-308.895	368.756	-0.043	0.086
-307.880	192.956	-0.121	0.182
-306.866	557.782	-0.077	0.184
-305.851	-200.000	0.133	-0.000
-304.837	483.186	-0.220	0.498
-303.822	129.435	0.052	0.066
-302.807	800.000	-0.021	-0.088
-301.793	552.428	0.069	-0.165
-300.778	-39.841	0.229	0.119
-299.764	22.074	-0.111	-0.090
-298.749	-21.824	-0.342	-0.207
-297.735	-185.876	0.192	0.003
-296.720	-100.801	-0.274	-0.067
-295.705	-5.474	0.101	-0.069
-294.691	800.000	-0.032	-0.136
-293.676	-126.809	0.287	-0.042
-292.662	114.964	0.258	-0.313
-291.647	-73.350	0.442	-0.161
-290.632	-89.069	0.122	0.036
-289.618	-60.627	-0.202	0.085
-288.603	261.020	-0.134	-0.231
-287.589	-200.000	0.081	-0.463
-286.574	800.000	-0.106	-0.296
-285.559	71.560	0.291	0.300
-284.545	157.823	-0.116	0.159
-283.530	55.873	0.085	0.081
-282.516	-92.246	0.430	-0.121
-281.501	153.931	0.219	0.298
-280.486	13.405	0.093	0.071
-279.472	-200.000	0.011	-0.227
-278.457	215.677	-0.176	0.277
-277.443	428.624	-0.178	-0.381
-276.428	-76.190	0.166	-0.058
-275.413	800.000	0.096	0.366
-274.399	-45.667	-0.156	0.076
-273.384	-23.810	0.086	0.051
-272.370	-31.123	-0.061	-0.034
-271.355	21.068	0.171	-0.138
-270.340	800.000	0.194	0.531
-269.326	-200.000	0.035	-0.204
-268.311	-74.242	0.212	-0.076
-267.297	-161.764	-0.156	0.008
-266.282	247.848	-0.030	0.050
-265.267	-174.791	-0.546	0.015
-264.253	2.683	0.185	-0.133
-263.238	157.574	-0.122	-0.167
-262.224	-38.492	0.072	0.038
-261.209	152.132	0.254	-0.344
-260.195	525.068	0.117	-0.273
-259.180	-39.328	-0.462	-0.240
-258.165	-200.000	0.003	0.309
-257.151	131.695	-0.153	0.195
-256.136	314.077	0.082	0.153
-255.122	35.546	-0.168	0.146
-254.107	-193.877	-0.211	0.002
-253.092	43.659	-0.154	0.140
-252.078	199.637	0.135	-0.205
-251.063	140.952	0.162	0.212
-250.049	-117.754	0.098	0.017
-249.034	-23.382	0.343	-0.204
-248.019	16.072	-0.277	0.216
-247.005	-91.110	-0.480	-0.137
-245.990	204.689	-0.255	0.392
-244.976	-23.334	-0.526	-0.313
-243.961	60.374	0.302	0.296
-242.946	272.915	0.112	0.195
-241.932	250.654	0.050	-0.084
-240.917	114.098	-0.196	0.236
-239.903	304.809	-0.132	0.244
-238.888	-109.534	-0.321	0.067
-237.873	-101.907	-0.167	0.040
-236.859	-200.000	-0.011	-0.167
-235.844	-52.948	0.151	0.069
-234.830	-152.888	-0.093	-0.007
-233.815	160.494	0.236	0.327
-232.800	-200.000	-0.008	0.050
-231.786	-179.043	-0.214	-0.005
-230.771	-34.841	0.312	0.169
-229.757	-29.851	-0.170	-0.096
-228.742	800.000	0.018	-0.074
-227.727	-200.000	0.000	-0.314
-226.713	-98.037	0.184	0.047
-225.698	31.323	0.261	-0.222
-224.684	-184.410	0.292	-0.005
-223.669	800.000	-0.061	0.175
-222.655	87.698	-0.183	0.201
-221.640	800.000	0.085	0.301
-220.625	-77.412	-0.251	0.086
-219.611	-155.229	-0.225	-0.015
-218.596	-200.000	0.008	-0.091
-217.582	115.727	0.090	0.109
-216.567	-101.098	0.371	-0.090
-215.552	-40.059	0.180	-0.093
-214.538	-118.071	-0.155	-0.027
-213.523	182.920	-0.107	-0.156
-212.509	414.444	0.141	-0.298
-211.494	556.777	0.039	0.093
-210.479	-47.067	0.246	-0.119
-209.465	-28.550	0.261	0.149
-208.450	140.786	0.091	-0.119
-207.436	-138.421	0.206	0.023
-206.421	-103.158	-0.076	-0.018
-205.406	477.645	0.081	-0.181
-204.392	275.079	-0.026	0.045
-203.377	-200.000	-0.005	-0.166
-202.363	182.338	-0.151	-0.221
-201.348	-24.816	0.365	-0.215
-200.333	-37.953	-0.237	-0.124
-199.319	-200.000	-0.003	0.078
-198.304	-35.372	-0.129	0.069
-197.290	-6.658	-0.116	-0.078
-196.275	208.192	-0.040	0.063
-195.260	-71.873	0.500	0.184
-194.246	520.116	0.086	-0.200
-193.231	138.529	0.133	-0.173
-192.217	-123.983	0.092	0.014
-191.202	121.419	0.118	-0.146
-190.187	139.119	-0.154	0.201
-189.173	800.000	0.102	0.393
-188.158	-6.192	0.144	-0.097
-187.144	445.471	-0.206	0.448
-186.129	-200.000	-0.043	-0.197
-185.114	104.805	0.168	-0.196
-184.100	-33.801	0.337	-0.184
-183.085	126.253	0.224	-0.281
-182.071	-59.739	0.290	0.123
-181.056	-200.000	-0.020	-0.228
-180.042	-95.866	-0.251	-0.066
-179.027	-77.467	-0.175	-0.060
-178.012	-91.571	-0.247	0.070
-176.998	56.935	0.145	-0.140
-175.983	800.000	0.043	-0.162
-174.969	-200.000	-0.020	0.092
-173.954	800.000	-0.130	0.461
-172.939	189.349	0.149	0.221
-171.925	-184.276	0.208	-0.003
-170.910	800.000	-0.105	-0.301
-169.896	-80.673	0.487	-0.160
-168.881	517.574	-0.083	-0.191
-167.866	-200.000	-0.007	0.293
-166.852	-200.000	-0.004	0.190
-165.837	-92.664	0.057	-0.016
-164.823	-133.841	-0.315	-0.039
-163.808	-3.177	-0.279	0.192
-162.793	-38.455	0.094	0.049
-161.779	-109.137	0.231	0.049
-160.764	-39.576	0.316	-0.163
-159.750	-50.169	-0.281	-0.132
-158.735	-111.809	0.258	-0.052
-157.720	61.291	-0.207	-0.203
-156.706	426.444	0.124	-0.264
-155.691	-200.000	-0.033	0.175
-154.677	-117.088	-0.054	-0.010
-153.662	-85.442	0.242	0.075
-152.647	-12.859	0.308	0.198
-151.633	-73.705	0.259	0.093
-150.618	-61.824	-0.220	0.091
-149.604	320.272	0.058	-0.109
-148.589	-8.418	-0.167	-0.111
-147.574	-200.000	0.035	-0.302
-146.560	42.909	0.129	0.117
-145.545	256.993	0.073	0.124
-144.531	521.071	-0.037	-0.085
-143.516	56.642	0.084	0.081
-142.502	-7.056	0.158	-0.106
-141.487	-200.000	0.022	-0.133
-140.472	-83.188	0.191	-0.061
-139.458	-200.000	-0.036	-0.380
-138.443	-121.593	-0.337	-0.055
-137.429	800.000	-0.031	0.113
-136.414	-200.000	-0.015	-0.159
-135.399	-57.906	0.219	-0.094
-134.385	95.401	-0.180	-0.203
-133.370	73.628	-0.113	0.117
-132.356	-200.000	-0.004	-0.066
-131.341	605.967	-0.026	0.065
-130.326	469.393	0.018	-0.041
-129.312	-175.792	0.141	0.004
-128.297	800.000	0.097	-0.296
-127.283	-33.567	0.348	-0.190
-126.268	800.000	-0.077	0.217
-125.253	12.770	-0.169	-0.129
-124.239	-113.668	0.138	0.027
-123.224	67.798	0.145	-0.147
-122.210	-168.630	-0.321	-0.012
