DTS Sentinel unit serial number:	SN413079Multiplexer serial number:	ORYXHardware model number:	OX4-SRSoftware version number:	ORYX F/W v4.00 Oryx Data Collector v3.7.2.0data status	okinstallation	princeton_trtdifferential loss correction	single-endedforward channel	channel 3reverse channel	N/Adate	2019/09/11time	11:50:11forward acquisition time	60.00reverse acquisition time	0.00gamma	496.2192k internal	0.2291k external	0.2291temperature offset calibration	0.9944default loss term (dB/km)	0.3790temperature slope calibration	1.0000multiplexer offset coefficient	1.0000multiplexer slope coefficient	1.0000fibre end	0.00T internal ref (°C)	38.81T ext. ref 1 (°C)	0.19T ext. ref 2 (°C)	36.81length (m)	temperature (°C)	Stokes	anti-Stokes-747.200	78.432	-0.099	-0.108
-746.185	768.667	0.123	0.342
-745.171	-200.000	0.031	-0.206
-744.156	-87.159	-0.118	-0.037
-743.142	35.139	-0.296	-0.265
-742.127	276.647	-0.102	-0.186
-741.112	-99.511	-0.077	-0.020
-740.098	310.976	-0.024	0.046
-739.083	326.721	0.053	0.103
-738.069	252.717	0.092	0.161
-737.054	-15.647	-0.255	-0.166
-736.039	51.164	0.067	0.065
-735.025	-109.573	0.283	-0.061
-734.010	117.896	-0.220	-0.278
-732.996	-86.880	-0.207	0.065
-731.981	355.855	0.212	-0.433
-730.966	-200.000	-0.006	-0.108
-729.952	-55.260	-0.060	0.027
-728.937	213.396	-0.189	-0.306
-727.923	-173.067	0.076	-0.002
-726.908	-131.830	-0.080	0.011
-725.894	108.106	-0.060	-0.073
-724.879	-82.586	-0.120	-0.040
-723.864	309.904	0.089	-0.170
-722.850	476.393	0.087	-0.202
-721.835	-59.739	0.383	-0.168
-720.821	-179.225	0.030	-0.001
-719.806	263.486	-0.033	-0.059
-718.791	800.000	-0.023	0.082
-717.777	-92.658	-0.427	-0.122
-716.762	-200.000	-0.033	0.216
-715.748	567.707	0.155	-0.386
-714.733	661.397	0.114	0.300
-713.718	800.000	-0.055	0.187
-712.704	-16.162	-0.230	0.149
-711.689	-200.000	0.037	0.274
-710.675	800.000	-0.032	0.116
-709.660	-157.301	0.213	0.013
-708.645	-101.473	0.243	0.060
-707.631	-38.076	-0.198	0.107
-706.616	-92.922	0.211	-0.060
-705.602	-91.565	0.046	0.013
-704.587	800.000	-0.075	0.238
-703.572	-181.004	-0.246	-0.005
-702.558	-126.984	-0.133	-0.020
-701.543	10.286	0.387	-0.301
-700.529	235.348	-0.053	0.089
-699.514	56.270	-0.296	0.294
-698.499	116.077	-0.181	0.227
-697.485	673.676	0.080	-0.213
-696.470	-200.000	0.012	0.129
-695.456	-55.989	-0.179	-0.081
-694.441	122.556	0.075	0.096
-693.426	99.042	-0.168	0.199
-692.412	-5.570	-0.177	-0.124
-691.397	-120.227	-0.229	0.040
-690.383	24.966	-0.161	-0.136
-689.368	-200.000	-0.025	-0.217
-688.354	176.098	0.139	0.206
-687.339	-129.777	-0.120	-0.017
-686.324	-71.552	-0.341	-0.130
-685.310	800.000	0.105	-0.343
-684.295	-13.386	-0.133	-0.088
-683.281	-13.234	0.192	0.127
-682.266	-139.147	0.275	0.030
-681.251	800.000	-0.086	-0.281
-680.237	-119.455	-0.447	-0.079
-679.222	-180.077	0.138	-0.003
-678.208	423.494	-0.029	-0.065
-677.193	-171.383	-0.082	0.003
-676.178	39.776	0.309	0.283
-675.164	635.677	-0.107	-0.277
-674.149	800.000	0.044	-0.167
-673.135	384.589	-0.152	0.321
-672.120	-101.717	0.202	-0.050
-671.105	-39.966	-0.096	-0.051
-670.091	-52.739	0.096	-0.045
-669.076	-59.331	0.126	0.055
-668.062	-38.133	-0.184	0.100
-667.047	717.989	0.022	-0.061
-666.032	-133.246	-0.153	-0.020
-665.018	-200.000	-0.026	-0.222
-664.003	65.413	0.070	-0.073
-662.989	-125.672	-0.189	-0.029
-661.974	-135.177	-0.417	0.051
-660.959	47.216	0.207	-0.197
-659.945	-148.792	0.037	-0.003
-658.930	-6.445	-0.133	-0.093
-657.916	211.652	-0.173	0.277
-656.901	-79.480	-0.212	-0.073
-655.886	800.000	0.067	-0.190
-654.872	-113.666	0.281	0.056
-653.857	117.709	-0.150	0.189
-652.843	-80.277	0.356	-0.122
-651.828	505.516	-0.157	-0.371
-650.814	-200.000	0.057	-0.355
-649.799	126.429	-0.082	0.106
-648.784	-79.225	-0.147	-0.051
-647.770	-26.342	-0.191	-0.114
-646.755	-18.140	0.221	-0.141
-645.741	-200.000	-0.005	-0.301
-644.726	-200.000	0.014	-0.254
-643.711	62.905	0.204	0.208
-642.697	309.668	-0.067	0.129
-641.682	88.800	-0.119	-0.135
-640.668	-200.000	-0.003	-0.325
-639.653	78.955	-0.165	-0.180
-638.638	-200.000	-0.011	-0.197
-637.624	84.386	-0.143	-0.159
-636.609	-94.809	-0.314	-0.087
-635.595	79.700	-0.097	-0.106
-634.580	-200.000	0.004	-0.230
-633.565	684.045	0.091	-0.242
-632.551	600.250	0.043	-0.108
-631.536	-200.000	-0.021	-0.256
-630.522	-40.373	0.324	-0.172
-629.507	165.459	0.235	-0.339
-628.492	-38.913	-0.455	-0.244
-627.478	4.074	-0.077	0.058
-626.463	131.878	-0.084	-0.110
-625.449	793.977	-0.025	-0.071
-624.434	135.349	-0.181	-0.240
-623.419	67.205	0.157	0.163
-622.405	800.000	-0.091	-0.325
-621.390	33.334	0.126	0.112
-620.376	800.000	0.097	0.286
-619.361	800.000	-0.031	-0.098
-618.346	326.871	-0.115	-0.225
-617.332	-11.237	0.065	0.044
-616.317	-200.000	0.028	-0.199
-615.303	-200.000	-0.021	-0.155
-614.288	-35.799	-0.078	-0.043
-613.273	-200.000	-0.006	-0.214
-612.259	-106.300	-0.136	-0.031
-611.244	39.638	0.079	-0.073
-610.230	-200.000	-0.052	-0.236
-609.215	-175.642	0.266	0.007
-608.201	-7.556	0.128	-0.088
-607.186	-96.933	-0.089	0.024
-606.171	800.000	-0.055	-0.192
-605.157	-200.000	0.045	-0.264
-604.142	-200.000	0.017	0.107
-603.128	279.921	-0.095	-0.173
-602.113	69.759	-0.164	0.172
-601.098	-86.227	0.294	0.092
-600.084	93.369	0.170	0.196
-599.069	800.000	-0.096	0.279
-598.055	39.869	0.132	-0.121
-597.040	229.753	0.007	-0.012
-596.025	-82.799	-0.179	-0.059
-595.011	180.564	0.099	-0.147
-593.996	342.063	-0.208	-0.415
-592.982	16.357	0.148	-0.119
-591.967	-68.199	0.162	0.064
-590.952	-100.512	-0.314	0.079
-589.938	199.197	-0.149	-0.233
-588.923	-200.000	0.069	-0.350
-587.909	-64.610	-0.353	0.146
-586.894	-42.380	-0.221	-0.115
-585.879	-102.694	-0.173	-0.042
-584.865	140.344	0.164	0.220
-583.850	-117.680	-0.475	0.087
-582.836	432.607	0.114	-0.252
-581.821	-200.000	-0.015	-0.179
-580.806	331.709	0.117	-0.229
-579.792	50.612	-0.150	-0.145
-578.777	-200.000	-0.025	-0.314
-577.763	-200.000	0.031	0.190
-576.748	-160.067	-0.052	-0.003
-575.733	-82.868	0.214	0.070
-574.719	-200.000	0.021	0.237
-573.704	78.345	-0.198	0.215
-572.690	-60.255	-0.075	-0.033
-571.675	-56.015	0.630	0.285
-570.661	60.805	-0.155	-0.156
-569.646	-163.856	-0.355	0.017
-568.631	245.325	-0.164	0.280
-567.617	-26.665	0.305	-0.182
-566.602	9.742	0.075	0.058
-565.588	800.000	-0.078	0.224
-564.573	800.000	0.058	0.187
-563.558	190.122	0.116	0.177
-562.544	-58.542	0.269	0.119
-561.529	-101.492	-0.106	-0.026
-560.515	-33.130	-0.250	0.141
-559.500	800.000	-0.054	-0.182
-558.485	-200.000	0.010	0.173
-557.471	-200.000	0.023	0.280
-556.456	-72.451	-0.136	0.051
-555.442	-103.417	-0.134	-0.032
-554.427	-116.305	-0.181	-0.034
-553.412	-112.256	-0.184	-0.038
-552.398	620.361	0.038	0.098
-551.383	-61.688	-0.051	0.022
-550.369	-33.750	0.075	0.042
-549.354	370.454	0.108	-0.223
-548.339	-38.219	0.269	0.145
-547.325	-200.000	0.035	-0.176
-546.310	-63.551	-0.176	0.074
-545.296	14.887	-0.115	0.091
-544.281	-200.000	-0.033	0.206
-543.266	-44.295	-0.136	0.069
-542.252	89.648	0.180	0.204
-541.237	-70.296	0.302	0.116
-540.223	-121.744	-0.252	0.042
-539.208	183.044	-0.275	0.413
-538.193	49.766	-0.320	-0.306
-537.179	-200.000	-0.028	0.189
-536.164	-200.000	-0.025	-0.174
-535.150	-151.447	0.216	-0.016
-534.135	569.399	0.054	0.133
-533.121	365.903	-0.057	-0.117
-532.106	297.387	0.039	-0.072
-531.091	-195.759	0.266	-0.002
-530.077	-200.000	0.023	0.275
-529.062	-200.000	0.018	-0.159
-528.048	-200.000	0.022	-0.182
-527.033	287.817	0.067	-0.123
-526.018	-47.887	-0.292	-0.143
-525.004	800.000	-0.019	0.067
-523.989	259.874	-0.121	0.212
-522.975	-120.450	-0.299	-0.052
-521.960	220.114	-0.056	-0.091
-520.945	-200.000	-0.013	0.170
-519.931	-200.000	-0.001	-0.239
-518.916	2.866	0.445	0.328
-517.902	409.158	0.142	0.305
-516.887	800.000	-0.062	-0.212
-515.872	-44.178	-0.043	-0.022
-514.858	-170.644	0.147	0.005
-513.843	89.885	0.323	0.366
-512.829	-50.169	0.151	0.072
-511.814	800.000	-0.057	-0.172
-510.799	-101.838	-0.167	-0.041
-509.785	17.941	0.168	0.136
-508.770	13.011	-0.130	-0.102
-507.756	-149.100	-0.426	-0.035
-506.741	-200.000	-0.027	0.339
-505.726	52.630	0.284	-0.275
-504.712	-200.000	-0.001	-0.013
-503.697	-200.000	-0.004	-0.095
-502.683	800.000	0.005	-0.015
-501.668	134.211	0.212	-0.279
-500.653	-166.859	0.309	0.013
-499.639	-200.000	0.011	0.063
-498.624	-28.533	0.084	-0.049
-497.610	476.477	0.137	0.315
-496.595	222.315	0.175	0.285
-495.581	-100.715	-0.236	0.059
-494.566	-186.647	0.363	-0.005
-493.551	-71.941	-0.426	-0.161
-492.537	-39.924	0.189	-0.100
-491.522	-81.646	0.287	0.095
-490.508	-200.000	0.023	0.159
-489.493	800.000	-0.009	0.028
-488.478	11.995	-0.233	0.181
-487.464	-71.455	-0.257	-0.097
-486.449	-35.575	-0.412	0.226
-485.435	69.834	0.206	-0.215
-484.420	-200.000	-0.033	0.384
-483.405	800.000	0.058	0.201
-482.391	25.318	-0.209	-0.176
-481.376	42.142	0.222	-0.204
-480.362	-8.410	-0.201	0.137
-479.347	117.782	0.126	-0.157
-478.332	800.000	0.015	0.055
-477.318	35.895	-0.168	-0.150
-476.303	117.373	0.153	-0.190
-475.289	-67.491	0.148	-0.059
-474.274	317.848	0.050	0.096
-473.259	-11.787	0.160	0.106
-472.245	225.774	-0.111	-0.182
-471.230	179.490	-0.133	-0.197
-470.216	243.440	0.162	0.275
-469.201	-200.000	0.043	0.282
-468.186	-129.597	-0.357	-0.050
-467.172	800.000	0.050	-0.159
-466.157	-90.715	-0.042	0.012
-465.143	-200.000	0.006	-0.175
-464.128	47.029	0.360	0.339
-463.113	116.951	0.181	0.225
-462.099	-24.377	-0.328	-0.198
-461.084	-5.823	0.126	0.088
-460.070	-89.310	0.295	0.088
-459.055	19.864	-0.065	0.053
-458.040	-49.363	-0.279	-0.135
-457.026	-200.000	0.043	0.218
-456.011	-61.360	0.189	-0.081
-454.997	-112.044	-0.155	0.032
-453.982	-86.423	-0.268	-0.083
-452.968	-137.095	0.196	-0.023
-451.953	-46.528	-0.146	-0.072
-450.938	-200.000	0.035	0.237
-449.924	-160.648	0.130	-0.007
-448.909	-18.580	-0.135	0.085
-447.895	72.627	0.122	0.129
-446.880	22.417	-0.211	0.174
-445.865	486.818	-0.054	0.125
-444.851	-138.010	0.248	0.028
-443.836	167.763	0.142	0.204
-442.822	701.327	-0.139	-0.370
-441.807	34.169	0.049	0.043
-440.792	35.825	0.352	0.313
-439.778	-114.052	-0.027	0.005
-438.763	800.000	-0.052	-0.163
-437.749	800.000	0.068	-0.194
-436.734	533.966	-0.056	0.134
-435.719	28.221	-0.181	-0.155
-434.705	-25.562	0.101	-0.060
-433.690	170.562	0.066	0.096
-432.676	143.013	-0.044	0.060
-431.661	482.132	0.092	-0.211
-430.646	219.681	-0.163	0.264
-429.632	-200.000	-0.003	-0.281
-428.617	150.949	0.058	0.080
-427.603	-69.490	0.120	0.047
-426.588	-0.772	0.314	-0.225
-425.573	710.517	-0.040	0.108
-424.559	-200.000	0.225	0.000
-423.544	-200.000	-0.054	0.336
-422.530	427.950	0.024	0.052
-421.515	-98.409	0.312	0.081
-420.500	450.845	-0.096	0.215
-419.486	786.866	-0.036	0.099
-418.471	12.883	-0.126	-0.098
-417.457	-44.965	-0.114	-0.058
-416.442	-200.000	0.007	0.068
-415.428	-121.931	0.339	0.056
-414.413	23.920	-0.194	-0.162
-413.398	99.310	0.098	-0.114
-412.384	-44.813	-0.303	-0.153
-411.369	800.000	-0.030	0.087
-410.355	280.799	0.123	-0.223
-409.340	91.160	0.133	-0.151
-408.325	-200.000	0.022	0.170
-407.311	77.614	-0.213	-0.229
-406.296	-1.187	-0.190	-0.136
-405.282	113.924	0.074	0.091
-404.267	-134.944	-0.393	-0.048
-403.252	-200.000	0.054	0.462
-402.238	-71.155	0.123	-0.047
-401.223	192.612	0.166	-0.253
-400.209	-200.000	-0.010	-0.150
-399.194	-38.108	0.351	-0.188
-398.179	99.330	-0.082	-0.096
-397.165	-29.949	0.014	0.008
-396.150	-54.783	-0.148	-0.068
-395.136	-37.110	-0.025	0.013
-394.121	-160.814	0.177	-0.009
-393.106	-41.596	-0.026	0.013
-392.092	-200.000	0.001	0.274
-391.077	228.621	0.220	0.362
-390.063	-41.342	0.374	0.194
-389.048	20.595	-0.078	-0.063
-388.033	-156.056	0.185	-0.012
-387.019	297.204	-0.144	-0.266
-386.004	796.297	0.026	-0.071
-384.990	265.424	-0.053	-0.094
-383.975	505.233	0.023	-0.055
-382.960	-69.837	-0.249	0.096
-381.946	800.000	0.102	0.286
-380.931	-187.367	-0.361	-0.005
-379.917	29.436	-0.249	0.214
-378.902	-200.000	0.009	-0.468
-377.888	-173.927	-0.227	-0.007
-376.873	1.735	0.208	0.151
-375.858	122.886	-0.090	0.114
-374.844	-162.148	0.244	-0.012
-373.829	-106.354	-0.220	-0.050
-372.815	45.269	-0.190	-0.177
-371.800	105.450	0.099	-0.118
-370.785	56.749	-0.178	0.175
-369.771	-200.000	-0.002	-0.245
-368.756	800.000	0.040	0.121
-367.742	-132.517	0.300	-0.039
-366.727	-61.515	-0.102	0.043
-365.712	-74.197	0.280	0.102
-364.698	-29.841	-0.235	0.135
-363.683	89.676	0.134	-0.151
-362.669	352.677	-0.105	-0.211
-361.654	211.149	0.249	-0.395
-360.639	-74.778	0.077	0.028
-359.625	800.000	-0.074	0.320
-358.610	30.624	0.241	0.208
-357.596	-106.956	-0.140	0.031
-356.581	-126.488	0.213	-0.032
-355.566	65.173	-0.073	0.074
-354.552	-64.209	0.280	-0.115
-353.537	34.457	-0.190	-0.167
-352.523	-155.212	0.109	-0.007
-351.508	800.000	-0.050	0.150
-350.493	63.098	0.060	0.060
-349.479	167.287	-0.108	-0.155
-348.464	800.000	-0.080	0.301
-347.450	202.073	0.079	0.124
-346.435	3.422	0.176	-0.129
-345.420	-41.713	0.081	-0.042
-344.406	-44.292	-0.154	0.078
-343.391	800.000	-0.055	0.169
-342.377	51.725	-0.158	-0.151
-341.362	-200.000	-0.040	0.311
-340.348	-125.272	-0.299	-0.046
-339.333	229.690	0.058	-0.096
-338.318	-70.508	-0.316	-0.121
-337.304	156.794	-0.051	-0.071
-336.289	-118.499	0.140	0.025
-335.275	-46.640	0.062	0.031
-334.260	-72.784	-0.267	0.099
-333.245	-200.000	-0.002	-0.031
-332.231	62.023	0.101	0.101
-331.216	146.579	0.058	-0.079
-330.202	-98.589	0.188	0.048
-329.187	-200.000	-0.034	-0.379
-328.172	-200.000	0.009	0.140
-327.158	208.847	-0.234	0.369
-326.143	-200.000	0.135	-0.626
-325.129	109.150	-0.049	-0.059
-324.114	-110.241	-0.412	-0.086
-323.099	227.142	-0.163	0.267
-322.085	-200.000	-0.001	-0.144
-321.070	-200.000	-0.068	-0.381
-320.056	-100.698	-0.167	0.041
-319.041	2.800	0.247	0.181
-318.026	-141.754	-0.180	0.018
-317.012	13.001	0.220	-0.171
-315.997	-140.356	-0.268	0.028
-314.983	-24.072	-0.111	0.067
-313.968	-115.732	0.238	-0.045
-312.953	-200.000	0.023	-0.322
-311.939	800.000	-0.076	-0.235
-310.924	-200.000	-0.010	0.097
-309.910	-55.420	0.237	0.107
-308.895	745.133	-0.051	-0.137
-307.880	-200.000	0.027	-0.323
-306.866	51.163	-0.176	0.168
-305.851	-72.393	-0.141	0.053
-304.837	124.177	-0.198	-0.251
-303.822	-126.652	0.493	0.074
-302.807	-74.273	0.236	0.086
-301.793	232.060	-0.107	0.177
-300.778	-108.554	0.149	-0.032
-299.764	576.341	-0.116	-0.284
-298.749	-97.323	-0.147	-0.039
-297.735	163.901	0.089	-0.126
-296.720	195.501	0.187	-0.285
-295.705	800.000	0.057	0.216
-294.691	76.928	0.046	0.050
-293.676	800.000	0.073	-0.317
-292.662	71.204	0.064	-0.066
-291.647	369.122	-0.079	0.160
-290.632	61.542	-0.169	-0.169
-289.618	43.235	0.178	0.163
-288.603	-108.561	-0.033	0.007
-287.589	39.458	-0.114	-0.102
-286.574	-35.404	0.062	0.034
-285.559	27.307	0.179	0.151
-284.545	98.036	-0.191	0.221
-283.530	-150.419	-0.582	-0.045
-282.516	281.371	-0.114	-0.205
-281.501	-46.229	-0.226	0.112
-280.486	-39.876	-0.074	0.039
-279.472	-68.412	-0.204	0.079
-278.457	-23.020	-0.113	0.068
-277.443	238.567	0.083	0.139
-276.428	-109.119	-0.195	0.042
-275.413	-126.848	0.154	-0.023
-274.399	37.576	-0.116	0.103
-273.384	-46.725	-0.088	0.043
-272.370	-40.897	0.416	0.216
-271.355	721.762	0.066	0.178
-270.340	800.000	-0.053	-0.198
-269.326	-60.202	-0.295	-0.126
-268.311	-47.900	-0.066	0.032
-267.297	101.348	-0.049	-0.057
-266.282	-71.067	-0.400	0.151
-265.267	-73.810	0.285	-0.104
-264.253	-55.067	0.401	0.181
-263.238	-79.027	0.056	-0.019
-262.224	4.235	0.142	0.105
-261.209	107.686	-0.037	-0.044
-260.195	670.720	-0.088	0.229
-259.180	-92.718	-0.223	0.063
-258.165	-55.963	-0.177	0.079
-257.151	236.032	0.085	0.142
-256.136	-120.109	-0.214	-0.037
-255.122	249.276	-0.125	0.213
-254.107	-200.000	-0.022	0.110
-253.092	289.132	0.215	0.391
-252.078	-200.000	-0.023	0.136
-251.063	-51.454	-0.243	-0.114
-250.049	136.553	0.172	0.225
-249.034	-34.749	0.196	-0.108
-248.019	89.135	-0.121	-0.135
-247.005	-200.000	0.005	0.223
-245.990	148.181	-0.061	0.082
-244.976	79.463	0.117	0.126
-243.961	-123.243	0.174	0.028
-242.946	375.342	0.097	-0.198
-241.932	-8.973	-0.293	0.197
-240.917	-200.000	0.007	-0.136
-239.903	121.464	0.162	0.202
-238.888	800.000	0.146	0.489
-237.873	-93.885	-0.066	0.018
-236.859	-116.761	0.066	-0.012
-235.844	-200.000	0.086	-0.416
-234.830	299.375	0.210	-0.388
-233.815	-158.307	-0.158	0.009
-232.800	17.153	0.066	0.053
-231.786	70.405	-0.094	0.097
-230.771	-76.763	0.355	-0.125
-229.757	-83.754	0.027	-0.009
-228.742	-200.000	0.042	-0.193
-227.727	73.808	0.139	-0.146
-226.713	244.969	0.094	-0.159
-225.698	71.573	0.110	0.115
-224.684	-112.627	0.036	-0.007
-223.669	70.568	-0.168	0.174
-222.655	384.095	-0.117	-0.242
-221.640	-156.289	0.183	-0.012
-220.625	-113.976	0.177	0.035
-219.611	96.242	0.038	0.043
-218.596	800.000	0.022	0.093
-217.582	19.824	0.112	-0.091
-216.567	-200.000	-0.070	0.432
-215.552	-8.067	-0.301	0.203
-214.538	62.129	0.149	-0.149
-213.523	-36.640	0.163	0.088
-212.509	-170.805	0.319	-0.011
-211.494	800.000	-0.056	0.227
-210.479	221.271	0.055	-0.089
-209.465	536.106	0.137	-0.325
-208.450	-89.886	0.074	0.022
-207.436	-20.566	-0.092	-0.056
-206.421	-200.000	-0.022	0.151
-205.406	-74.899	0.109	-0.039
-204.392	32.620	-0.120	-0.104
-203.377	800.000	0.016	-0.049
-202.363	166.485	-0.243	-0.345
-201.348	157.616	0.109	0.151
-200.333	-126.900	0.380	-0.056
-199.319	82.878	-0.255	0.278
-198.304	800.000	-0.006	0.022
-197.290	381.124	0.014	-0.029
-196.275	70.070	0.174	-0.180
-195.260	-17.088	-0.168	-0.106
-194.246	-148.671	0.384	-0.031
-193.231	12.001	0.399	-0.308
-192.217	-35.128	0.030	-0.016
-191.202	800.000	-0.043	-0.175
-190.187	800.000	0.051	-0.164
-189.173	-2.730	0.266	-0.186
-188.158	-107.348	-0.241	-0.053
-187.144	559.799	-0.070	0.168
-186.129	-156.476	0.214	0.013
-185.114	136.806	0.067	0.088
-184.100	26.029	-0.256	0.214
-183.085	800.000	0.055	0.186
-182.071	-190.031	-0.240	-0.003
-181.056	-200.000	-0.020	0.105
-180.042	126.516	0.231	0.293
-179.027	47.484	0.148	-0.138
-178.012	-5.047	-0.154	0.106
-176.998	-82.969	0.276	-0.089
-175.983	-200.000	0.038	0.179
-174.969	289.291	-0.005	-0.009
-173.954	-64.789	-0.276	0.112
-172.939	800.000	0.075	0.214
-171.925	-98.964	-0.205	0.052
-170.910	29.378	-0.179	0.152
-169.896	-200.000	0.013	0.238
-168.881	800.000	-0.069	-0.249
-167.866	-88.282	0.110	0.033
-166.852	185.857	0.152	-0.226
-165.837	247.491	-0.174	0.295
-164.823	318.383	-0.091	0.173
-163.808	-133.920	-0.190	0.024
-162.793	-200.000	0.004	0.051
-161.779	14.173	0.317	0.247
-160.764	-13.148	-0.175	-0.114
-159.750	-125.568	0.255	0.039
-158.735	60.490	-0.089	0.088
-157.720	60.955	-0.169	0.168
-156.706	69.147	0.270	0.278
-155.691	-154.292	-0.370	-0.025
-154.677	-46.278	-0.306	0.150
-153.662	-13.013	0.286	-0.186
-152.647	-131.030	0.057	0.008
-151.633	-84.928	0.327	0.103
-150.618	283.341	0.175	0.314
-149.604	-21.770	0.245	0.149
-148.589	-55.795	0.364	-0.163
-147.574	49.622	0.314	0.296
-146.560	118.272	-0.097	-0.120
-145.545	144.104	0.122	0.163
-144.531	-104.500	0.229	0.053
-143.516	31.579	-0.334	-0.288
-142.502	-35.450	0.220	-0.119
-141.487	-200.000	-0.076	-0.501
-140.472	800.000	-0.066	-0.231
-139.458	8.035	-0.058	-0.043
-138.443	-124.377	0.308	0.048
-137.429	-29.273	0.074	-0.042
-136.414	-152.198	0.179	0.013
-135.399	146.414	-0.111	0.149
-134.385	-31.153	-0.248	0.140
-133.370	1.069	-0.133	0.095
-132.356	-43.669	-0.289	-0.146
-131.341	800.000	-0.101	0.292
-130.326	-200.000	0.015	0.449
-129.312	53.974	-0.219	-0.210
-128.297	-51.573	-0.104	0.049
-127.283	86.941	0.215	-0.237
-126.268	-200.000	0.008	-0.427
-125.253	784.903	-0.068	-0.186
-124.239	800.000	0.153	0.582
-123.224	800.000	0.032	0.106
-122.210	800.000	0.026	-0.104
-121.195	-41.289	-0.137	0.070
