DTS Sentinel unit serial number:	SN413079Multiplexer serial number:	ORYXHardware model number:	OX4-SRSoftware version number:	ORYX F/W v4.00 Oryx Data Collector v3.7.2.0data status	okinstallation	princeton_trtdifferential loss correction	single-endedforward channel	channel 3reverse channel	N/Adate	2019/09/11time	09:38:10forward acquisition time	60.00reverse acquisition time	0.00gamma	496.2192k internal	0.2304k external	0.2304temperature offset calibration	0.9941default loss term (dB/km)	0.3790temperature slope calibration	1.0000multiplexer offset coefficient	1.0000multiplexer slope coefficient	1.0000fibre end	0.00T internal ref (°C)	34.81T ext. ref 1 (°C)	0.10T ext. ref 2 (°C)	31.42length (m)	temperature (°C)	Stokes	anti-Stokes-747.200	152.830	-0.131	0.182
-746.185	-200.000	0.001	0.306
-745.171	-68.308	0.248	0.098
-744.156	-200.000	0.032	0.260
-743.142	204.801	-0.200	-0.316
-742.127	-24.134	-0.120	0.073
-741.112	-158.299	0.041	-0.002
-740.098	800.000	-0.040	-0.155
-739.083	44.899	-0.146	0.137
-738.069	-101.636	-0.229	-0.057
-737.054	225.590	-0.091	0.151
-736.039	21.945	-0.134	0.111
-735.025	-28.561	0.184	-0.108
-734.010	-149.947	-0.345	0.027
-732.996	90.052	-0.311	0.353
-731.981	337.463	-0.120	0.237
-730.966	-200.000	-0.026	-0.309
-729.952	92.818	-0.139	-0.160
-728.937	141.378	0.125	-0.169
-727.923	-81.914	-0.159	0.053
-726.908	-200.000	-0.019	-0.134
-725.894	-152.204	-0.290	0.021
-724.879	-94.755	-0.154	0.042
-723.864	287.253	-0.130	-0.239
-722.850	137.501	-0.103	-0.137
-721.835	-48.999	-0.243	-0.118
-720.821	-154.777	0.074	0.005
-719.806	-71.361	-0.250	-0.095
-718.791	466.531	-0.070	-0.159
-717.777	27.574	0.023	0.019
-716.762	15.983	-0.142	-0.113
-715.748	-200.000	0.009	0.112
-714.733	95.384	0.199	-0.231
-713.718	604.904	0.037	-0.095
-712.704	-200.000	0.090	-0.426
-711.689	800.000	0.106	-0.333
-710.675	358.167	0.025	-0.050
-709.660	352.256	0.060	-0.120
-708.645	-99.881	-0.184	-0.047
-707.631	4.176	0.254	0.189
-706.616	800.000	0.070	-0.217
-705.602	125.983	0.177	0.228
-704.587	-128.617	0.057	0.008
-703.572	-52.352	0.284	0.134
-702.558	-200.000	-0.010	0.195
-701.543	25.316	0.249	-0.211
-700.529	425.248	0.129	0.282
-699.514	80.667	0.194	-0.213
-698.499	-200.000	-0.091	-0.443
-697.485	16.466	-0.171	0.137
-696.470	-200.000	0.049	0.279
-695.456	-122.601	0.119	0.020
-694.441	-200.000	-0.013	0.271
-693.426	-200.000	-0.019	0.261
-692.412	-102.696	-0.453	-0.110
-691.397	-200.000	-0.045	-0.300
-690.383	-107.953	-0.022	-0.005
-689.368	176.645	-0.173	-0.256
-688.354	-135.476	-0.141	0.017
-687.339	-110.529	-0.041	0.009
-686.324	-58.904	-0.442	-0.194
-685.310	233.531	-0.109	0.182
-684.295	24.679	0.130	-0.109
-683.281	-125.410	-0.139	0.021
-682.266	169.281	-0.156	-0.226
-681.251	-12.018	0.185	0.123
-680.237	-172.220	-0.307	-0.010
-679.222	-200.000	0.018	-0.156
-678.208	800.000	0.059	-0.177
-677.193	-200.000	-0.035	0.217
-676.178	-200.000	0.000	0.036
-675.164	-29.251	-0.148	-0.086
-674.149	-11.430	0.165	-0.110
-673.135	18.654	0.154	-0.125
-672.120	800.000	-0.046	-0.180
-671.105	91.281	0.032	0.036
-670.091	-33.470	-0.074	-0.041
-669.076	97.120	0.104	0.122
-668.062	-98.903	-0.088	-0.023
-667.047	148.604	-0.099	-0.136
-666.032	-137.325	0.160	-0.018
-665.018	-200.000	-0.000	0.139
-664.003	-85.919	0.078	-0.024
-662.989	-94.064	-0.145	-0.040
-661.974	-200.000	0.012	0.311
-660.959	3.571	0.253	0.188
-659.945	5.154	-0.257	-0.192
-658.930	129.967	-0.006	0.008
-657.916	-200.000	-0.015	-0.213
-656.901	-32.449	-0.315	-0.178
-655.886	222.257	-0.110	-0.180
-654.872	53.770	-0.100	0.097
-653.857	-200.000	-0.017	-0.094
-652.843	186.950	0.214	0.324
-651.828	-200.000	-0.015	0.306
-650.814	-200.000	0.006	-0.083
-649.799	-200.000	0.003	-0.170
-648.784	800.000	0.041	-0.161
-647.770	800.000	0.084	-0.366
-646.755	-46.020	-0.088	-0.044
-645.741	-200.000	0.015	-0.412
-644.726	-11.654	0.024	0.016
-643.711	-2.974	-0.273	0.194
-642.697	-200.000	0.002	-0.261
-641.682	63.522	0.173	-0.176
-640.668	31.032	-0.084	-0.073
-639.653	-200.000	0.001	-0.007
-638.638	-200.000	-0.010	-0.203
-637.624	129.453	-0.111	-0.143
-636.609	-200.000	0.025	0.189
-635.595	216.551	-0.037	0.059
-634.580	146.379	0.114	0.156
-633.565	265.892	-0.055	0.097
-632.551	-67.429	0.089	-0.035
-631.536	-1.062	-0.267	-0.191
-630.522	-173.413	-0.145	0.004
-629.507	-82.780	0.205	-0.067
-628.492	-200.000	-0.021	0.173
-627.478	-160.285	-0.156	0.009
-626.463	-14.300	0.208	0.136
-625.449	132.634	0.153	-0.200
-624.434	-51.937	0.183	-0.086
-623.419	-200.000	0.002	0.060
-622.405	407.651	-0.173	-0.370
-621.390	-200.000	-0.027	-0.186
-620.376	181.190	0.094	0.139
-619.361	39.763	0.120	-0.109
-618.346	168.779	0.112	0.162
-617.332	800.000	-0.075	-0.299
-616.317	-86.784	0.484	0.150
-615.303	87.690	0.172	-0.193
-614.288	-63.411	-0.225	0.094
-613.273	485.414	-0.098	0.227
-612.259	-200.000	0.001	-0.281
-611.244	-55.009	0.350	-0.160
-610.230	-72.937	0.133	0.050
-609.215	800.000	0.045	-0.184
-608.201	-9.507	-0.253	0.171
-607.186	-200.000	0.022	-0.277
-606.171	-53.840	-0.258	-0.119
-605.157	800.000	-0.145	-0.599
-604.142	-184.170	-0.460	-0.008
-603.128	66.015	0.242	0.249
-602.113	21.425	0.371	-0.305
-601.098	-104.207	-0.152	0.036
-600.084	221.955	0.261	-0.426
-599.069	4.173	0.149	-0.110
-598.055	28.257	0.449	-0.384
-597.040	-131.161	-0.078	0.010
-596.025	800.000	0.076	-0.244
-595.011	87.039	-0.103	-0.115
-593.996	-163.164	0.359	0.017
-592.982	-137.194	0.203	0.023
-591.967	-73.473	0.172	0.063
-590.952	286.261	-0.155	-0.283
-589.938	-164.576	-0.245	0.011
-588.923	205.859	-0.101	0.159
-587.909	746.102	-0.086	0.234
-586.894	291.418	0.071	0.131
-585.879	105.552	0.008	0.010
-584.865	251.622	0.111	0.190
-583.850	-140.609	0.503	-0.053
-582.836	-33.207	-0.275	0.154
-581.821	-69.504	-0.292	-0.113
-580.806	-73.145	0.205	0.076
-579.792	523.569	-0.114	-0.272
-578.777	800.000	0.067	-0.237
-577.763	-200.000	0.022	0.247
-576.748	417.556	-0.083	-0.179
-575.733	-46.164	-0.196	0.097
-574.719	-87.810	-0.055	-0.017
-573.704	-97.123	-0.206	-0.054
-572.690	-192.296	-0.163	-0.002
-571.675	-47.054	-0.167	0.082
-570.661	-8.718	-0.219	0.149
-569.646	-153.435	0.224	-0.016
-568.631	-39.661	-0.208	-0.110
-567.617	107.904	-0.097	0.117
-566.602	139.008	0.115	-0.153
-565.588	-78.846	-0.232	-0.080
-564.573	-190.130	0.323	0.004
-563.558	391.165	-0.039	0.081
-562.544	82.262	0.106	-0.116
-561.529	91.481	-0.012	-0.014
-560.515	-200.000	0.027	0.329
-559.500	-52.413	0.009	0.004
-558.485	194.849	0.097	0.149
-557.471	137.605	0.227	-0.300
-556.456	-200.000	-0.088	-0.489
-555.442	306.611	-0.114	-0.215
-554.427	800.000	0.008	0.033
-553.412	-106.584	-0.271	0.061
-552.398	121.767	-0.142	-0.180
-551.383	-200.000	-0.021	0.140
-550.369	-117.647	0.322	-0.059
-549.354	195.632	-0.079	0.121
-548.339	-142.014	-0.350	0.035
-547.325	-75.908	0.242	0.087
-546.310	800.000	-0.072	0.256
-545.296	-200.000	0.048	0.323
-544.281	200.133	-0.029	0.045
-543.266	800.000	0.058	0.212
-542.252	-4.720	0.368	0.256
-541.237	-43.044	-0.206	-0.105
-540.223	-200.000	0.052	0.322
-539.208	-115.302	-0.044	-0.008
-538.193	-99.143	0.062	-0.016
-537.179	-18.934	0.288	-0.181
-536.164	-59.714	-0.294	-0.127
-535.150	43.513	-0.070	-0.064
-534.135	-111.297	-0.118	0.024
-533.121	-200.000	-0.052	-0.301
-532.106	-200.000	-0.015	0.087
-531.091	800.000	0.105	0.328
-530.077	-63.577	0.106	-0.044
-529.062	800.000	-0.040	0.163
-528.048	6.574	-0.244	-0.183
-527.033	800.000	-0.024	0.086
-526.018	-68.404	0.121	-0.048
-525.004	139.346	-0.066	0.088
-523.989	-190.193	0.140	-0.002
-522.975	800.000	0.052	-0.178
-521.960	43.770	0.216	0.199
-520.945	95.880	-0.107	-0.123
-519.931	-200.000	0.039	-0.363
-518.916	-200.000	0.005	-0.073
-517.902	-115.995	0.392	0.074
-516.887	218.685	-0.219	0.352
-515.872	-200.000	-0.056	0.304
-514.858	-24.014	0.005	-0.003
-513.843	595.176	0.116	0.289
-512.829	-16.020	0.120	0.077
-511.814	800.000	0.042	0.150
-510.799	-105.861	0.104	0.024
-509.785	20.947	-0.172	-0.141
-508.770	3.212	-0.360	-0.264
-507.756	395.070	0.082	0.171
-506.741	-200.000	-0.016	-0.074
-505.726	-20.712	-0.026	-0.016
-504.712	-49.833	0.148	-0.071
-503.697	17.103	0.025	-0.020
-502.683	-46.412	0.325	0.161
-501.668	-150.451	-0.256	0.020
-500.653	-193.268	0.252	-0.002
-499.639	-111.064	0.274	-0.057
-498.624	265.195	-0.161	0.284
-497.610	18.590	0.255	0.205
-496.595	-128.685	-0.080	0.011
-495.581	244.499	-0.049	-0.082
-494.566	-15.756	-0.107	-0.069
-493.551	-106.031	0.254	-0.058
-492.537	32.728	0.292	0.254
-491.522	-67.178	0.143	-0.057
-490.508	-83.678	-0.402	0.129
-489.493	68.881	0.167	-0.173
-488.478	-67.310	0.147	-0.058
-487.464	-200.000	-0.343	-0.001
-486.449	113.203	0.025	0.030
-485.435	-120.376	0.131	0.022
-484.420	-200.000	0.012	-0.191
-483.405	-166.198	-0.249	-0.011
-482.391	26.810	-0.328	0.277
-481.376	-2.596	0.172	-0.121
-480.362	-200.000	-0.013	-0.149
-479.347	-69.300	0.161	-0.062
-478.332	156.131	0.109	0.152
-477.318	167.842	-0.057	0.081
-476.303	-80.398	0.211	-0.071
-475.289	11.382	0.142	0.110
-474.274	-87.606	-0.262	0.080
-473.259	235.700	0.121	0.201
-472.245	178.992	-0.145	0.214
-471.230	4.927	0.096	-0.071
-470.216	-51.723	-0.196	-0.092
-469.201	-200.000	0.005	-0.212
-468.186	474.476	-0.105	-0.238
-467.172	137.189	0.221	0.291
-466.157	585.365	-0.091	-0.224
-465.143	-30.419	0.201	-0.115
-464.128	-60.325	0.225	0.096
-463.113	-200.000	-0.008	0.186
-462.099	-200.000	0.009	-0.045
-461.084	308.508	0.085	0.161
-460.070	-79.887	0.107	-0.036
-459.055	162.521	-0.030	-0.042
-458.040	209.427	-0.136	0.214
-457.026	-69.795	-0.260	-0.100
-456.011	29.596	0.136	0.116
-454.997	-83.176	-0.226	0.073
-453.982	-200.000	0.022	0.221
-452.968	-0.047	-0.183	0.131
-451.953	15.676	-0.113	0.090
-450.938	-168.045	-0.111	0.004
-449.924	12.284	0.040	-0.031
-448.909	15.831	0.238	0.188
-447.895	183.907	-0.065	0.097
-446.880	-56.866	-0.100	-0.044
-445.865	-200.000	0.029	0.175
-444.851	-200.000	-0.056	0.370
-443.836	-16.853	0.123	-0.078
-442.822	-200.000	-0.020	0.328
-441.807	418.738	0.134	0.289
-440.792	7.683	-0.311	0.234
-439.778	800.000	0.032	0.110
-438.763	41.995	0.246	-0.225
-437.749	-158.061	0.103	0.006
-436.734	-83.416	0.146	-0.047
-435.719	-200.000	-0.010	0.078
-434.705	800.000	0.059	0.247
-433.690	99.916	0.236	0.275
-432.676	-55.743	0.184	0.083
-431.661	800.000	-0.070	-0.259
-430.646	-176.632	-0.061	-0.002
-429.632	-97.432	-0.231	0.060
-428.617	-78.583	0.231	-0.080
-427.603	-108.704	-0.394	-0.085
-426.588	-76.483	0.029	-0.010
-425.573	800.000	0.085	-0.261
-424.559	-200.000	0.033	0.266
-423.544	294.256	0.137	0.252
-422.530	244.507	0.115	0.194
-421.515	800.000	-0.076	-0.225
-420.500	-9.299	0.126	-0.085
-419.486	-149.611	-0.187	0.015
-418.471	-171.514	-0.220	-0.007
-417.457	-34.809	-0.186	0.102
-416.442	178.020	-0.224	-0.328
-415.428	-131.011	-0.188	0.025
-414.413	21.062	-0.152	-0.124
-413.398	257.169	-0.113	-0.195
-412.384	-27.299	0.206	-0.120
-411.369	-200.000	-0.021	-0.129
-410.355	273.739	0.054	0.096
-409.340	486.545	0.103	0.237
-408.325	-34.328	-0.253	0.140
-407.311	-200.000	-0.018	-0.142
-406.296	-110.637	0.370	0.077
-405.282	-200.000	-0.009	0.090
-404.267	-29.344	-0.398	0.229
-403.252	234.275	0.167	-0.277
-402.238	-200.000	0.022	-0.222
-401.223	-23.185	-0.058	-0.035
-400.209	-9.172	-0.425	-0.285
-399.194	-31.041	-0.094	0.053
-398.179	800.000	0.086	0.337
-397.165	-23.405	0.229	-0.138
-396.150	51.956	-0.099	0.094
-395.136	800.000	-0.079	0.342
-394.121	144.854	0.107	0.144
-393.106	202.957	0.055	-0.085
-392.092	-27.980	0.209	0.122
-391.077	-173.833	-0.384	-0.011
-390.063	-37.580	-0.251	-0.134
-389.048	80.251	0.232	-0.251
-388.033	-62.611	0.412	0.172
-387.019	1.123	0.412	-0.297
-386.004	-31.063	0.096	-0.055
-384.990	25.524	0.070	-0.059
-383.975	-82.907	-0.090	0.029
-382.960	210.304	-0.044	-0.069
-381.946	114.459	-0.125	0.153
-380.931	-73.723	-0.293	-0.107
-379.917	509.257	-0.074	0.172
-378.902	-19.825	0.061	0.038
-377.888	800.000	-0.128	0.383
-376.873	-200.000	0.037	-0.185
-375.858	261.028	-0.061	0.106
-374.844	-102.597	0.233	-0.056
-373.829	381.310	-0.201	0.414
-372.815	-124.755	0.347	0.054
-371.800	-22.663	0.042	0.025
-370.785	3.740	0.256	0.188
-369.771	800.000	0.015	0.056
-368.756	6.827	0.120	0.090
-367.742	-61.502	-0.108	0.046
-366.727	32.999	-0.120	-0.105
-365.712	81.743	0.069	-0.075
-364.698	13.948	0.059	-0.046
-363.683	-84.606	-0.052	0.016
-362.669	800.000	-0.076	-0.233
-361.654	-64.990	0.203	0.082
-360.639	469.246	0.156	-0.352
-359.625	-93.592	-0.042	-0.012
-358.610	17.444	-0.177	-0.141
-357.596	321.623	-0.173	-0.330
-356.581	-110.992	-0.292	0.060
-355.566	-48.884	0.041	-0.020
-354.552	800.000	0.090	-0.260
-353.537	408.521	-0.063	0.134
-352.523	-66.171	-0.142	-0.057
-351.508	-200.000	-0.001	-0.058
-350.493	54.696	0.041	0.039
-349.479	-200.000	0.001	-0.265
-348.464	-165.507	-0.255	-0.011
-347.450	622.773	-0.055	-0.140
-346.435	225.431	-0.062	-0.101
-345.420	-200.000	0.016	-0.214
-344.406	-62.709	0.353	-0.147
-343.391	3.937	0.118	-0.087
-342.377	720.691	0.058	0.155
-341.362	120.097	-0.140	-0.174
-340.348	-57.271	-0.113	0.050
-339.333	16.654	0.070	0.055
-338.318	41.969	-0.116	0.106
-337.304	-200.000	0.002	0.031
-336.289	-14.426	0.062	0.040
-335.275	-200.000	-0.019	0.162
-334.260	131.650	-0.131	-0.169
-333.245	-44.267	-0.148	0.074
-332.231	59.015	-0.115	0.114
-331.216	800.000	0.055	-0.162
-330.202	800.000	0.111	0.327
-329.187	129.943	-0.112	0.144
-328.172	65.427	-0.224	0.227
-327.158	800.000	-0.067	0.255
-326.143	-51.791	0.152	-0.071
-325.129	-200.000	-0.004	0.022
-324.114	374.005	0.027	0.055
-323.099	351.519	-0.222	0.441
-322.085	-103.284	-0.048	-0.011
-321.070	187.759	0.166	0.248
-320.056	70.910	0.290	-0.301
-319.041	233.865	0.127	0.210
-318.026	135.379	0.197	0.257
-317.012	165.641	-0.074	-0.105
-315.997	-200.000	-0.001	-0.251
-314.983	-82.283	-0.139	-0.045
-313.968	-32.849	-0.124	-0.069
-312.953	31.864	-0.226	-0.195
-311.939	27.040	0.155	-0.130
-310.924	-17.911	0.363	0.228
-309.910	800.000	0.058	0.211
-308.895	-87.638	-0.102	0.031
-307.880	-43.645	0.230	0.116
-306.866	20.195	-0.170	0.137
-305.851	-200.000	-0.060	0.265
-304.837	198.731	-0.019	-0.029
-303.822	34.339	0.104	0.091
-302.807	-5.217	0.161	0.111
-301.793	-179.405	-0.248	0.005
-300.778	-200.000	0.001	0.188
-299.764	-11.391	-0.244	0.161
-298.749	800.000	0.039	-0.147
-297.735	7.306	-0.292	-0.218
-296.720	-200.000	-0.043	0.224
-295.705	38.512	0.252	0.225
-294.691	-16.261	-0.143	-0.091
-293.676	233.001	-0.106	-0.174
-292.662	123.678	0.402	-0.504
-291.647	200.673	0.253	-0.389
-290.632	265.690	-0.128	0.224
-289.618	110.457	-0.014	-0.017
-288.603	-140.395	0.156	-0.016
-287.589	-91.648	-0.144	0.041
-286.574	-200.000	0.023	0.223
-285.559	323.073	0.033	-0.063
-284.545	800.000	-0.058	-0.243
-283.530	10.189	0.164	-0.125
-282.516	-24.259	-0.088	0.052
-281.501	102.911	-0.089	-0.105
-280.486	-136.830	-0.181	0.021
-279.472	261.786	0.113	-0.196
-278.457	147.098	-0.259	-0.348
-277.443	515.616	0.084	-0.196
-276.428	128.809	-0.213	-0.272
-275.413	-97.843	0.286	0.074
-274.399	-200.000	-0.030	0.190
-273.384	-200.000	-0.040	0.289
-272.370	108.982	-0.009	0.011
-271.355	175.679	-0.160	-0.232
-270.340	39.610	-0.067	0.060
-269.326	800.000	-0.030	0.097
-268.311	-38.633	0.158	0.083
-267.297	-44.714	-0.061	-0.030
-266.282	-78.257	0.386	0.133
-265.267	-200.000	0.015	0.335
-264.253	17.884	-0.292	0.232
-263.238	374.778	0.100	-0.204
-262.224	800.000	-0.033	0.109
-261.209	-41.023	-0.253	0.131
-260.195	-200.000	0.021	-0.150
-259.180	-183.521	-0.422	-0.007
-258.165	-146.769	-0.147	0.013
-257.151	-90.996	-0.047	0.014
-256.136	800.000	-0.016	-0.057
-255.122	69.420	-0.104	0.107
-254.107	-88.125	-0.378	-0.113
-253.092	-200.000	-0.036	-0.206
-252.078	-72.735	-0.234	0.086
-251.063	58.200	0.176	0.173
-250.049	97.721	-0.261	0.300
-249.034	-200.000	0.008	0.278
-248.019	-102.908	-0.297	-0.071
-247.005	55.790	-0.102	-0.099
-245.990	800.000	0.114	-0.373
-244.976	409.677	0.074	0.157
-243.961	-142.835	0.213	-0.021
-242.946	54.657	-0.125	0.120
-241.932	800.000	0.021	0.063
-240.917	7.483	-0.273	0.204
-239.903	-200.000	-0.045	0.202
-238.888	249.146	0.055	0.094
-237.873	358.229	0.089	0.177
-236.859	208.302	-0.039	-0.061
-235.844	-115.943	-0.215	-0.040
-234.830	97.708	0.082	-0.094
-233.815	364.549	0.103	0.208
-232.800	280.151	-0.026	0.046
-231.786	767.985	-0.081	-0.221
-230.771	800.000	0.043	-0.137
-229.757	-78.209	0.235	-0.080
-228.742	-200.000	-0.017	-0.159
-227.727	-53.930	-0.262	-0.119
-226.713	-200.000	-0.065	0.357
-225.698	-160.731	0.136	0.007
-224.684	47.773	-0.100	-0.093
-223.669	-88.770	0.170	0.050
-222.655	72.952	0.270	0.281
-221.640	-77.462	0.291	-0.101
-220.625	51.626	-0.188	0.178
-219.611	-200.000	-0.021	-0.151
-218.596	-200.000	0.005	0.191
-217.582	390.194	-0.106	-0.219
-216.567	-200.000	0.074	-0.343
-215.552	49.411	-0.185	-0.174
-214.538	-162.981	0.138	0.007
-213.523	-200.000	-0.126	0.000
-212.509	800.000	-0.042	-0.125
-211.494	444.504	-0.112	0.246
-210.479	184.006	0.079	-0.116
-209.465	-123.871	0.166	0.026
-208.450	52.727	0.031	-0.030
-207.436	-200.000	0.001	-0.072
-206.421	-200.000	0.030	0.517
-205.406	368.088	0.139	-0.280
-204.392	800.000	-0.042	-0.117
-203.377	-200.000	-0.006	-0.270
-202.363	800.000	-0.073	-0.263
-201.348	9.171	0.155	0.116
-200.333	-70.040	-0.201	0.076
-199.319	-12.762	-0.058	-0.038
-198.304	11.731	-0.083	-0.064
-197.290	-200.000	-0.003	-0.130
-196.275	-200.000	0.069	-0.320
-195.260	226.215	-0.067	0.109
-194.246	-93.309	0.164	-0.045
-193.231	410.136	-0.101	0.214
-192.217	-200.000	0.037	0.248
-191.202	-118.895	-0.053	-0.009
-190.187	134.632	-0.049	0.063
-189.173	-43.510	-0.375	0.189
-188.158	49.918	0.108	0.102
-187.144	-71.185	-0.056	-0.021
-186.129	117.393	-0.079	0.097
-185.114	105.612	0.149	0.176
-184.100	-115.154	-0.328	-0.062
-183.085	3.111	-0.274	-0.198
-182.071	-185.758	0.247	0.004
-181.056	-146.116	0.254	0.022
-180.042	11.604	0.036	0.028
-179.027	-200.000	-0.024	-0.537
-178.012	-110.984	0.279	0.057
-176.998	800.000	0.053	0.204
-175.983	268.257	0.085	-0.149
-174.969	613.467	-0.028	0.070
-173.954	800.000	0.054	-0.169
-172.939	-99.067	0.297	0.075
-171.925	12.537	0.147	0.113
-170.910	-76.277	0.072	0.025
-169.896	123.571	-0.094	0.117
-168.881	148.240	0.150	-0.202
-167.866	592.628	-0.072	0.177
-166.852	169.487	-0.152	-0.216
-165.837	800.000	-0.177	0.506
-164.823	-33.151	0.092	0.051
-163.808	89.896	-0.057	0.063
-162.793	-200.000	-0.026	0.150
-161.779	-200.000	0.040	-0.187
-160.764	-135.911	0.265	0.031
-159.750	-56.483	0.198	-0.087
-158.735	202.510	-0.106	-0.163
-157.720	204.572	-0.125	-0.193
-156.706	-159.830	0.349	-0.019
-155.691	35.163	-0.026	0.022
-154.677	-200.000	0.024	-0.257
-153.662	-136.497	-0.207	-0.024
-152.647	800.000	0.040	-0.174
-151.633	-124.191	0.227	0.035
-150.618	-115.553	0.226	0.042
-149.604	-10.833	0.329	0.216
-148.589	-55.904	0.345	0.153
-147.574	115.732	-0.106	-0.129
-146.560	-200.000	0.022	-0.310
-145.545	275.104	0.096	0.170
-144.531	800.000	0.021	-0.060
-143.516	53.301	-0.237	-0.226
-142.502	125.539	0.141	0.177
-141.487	175.899	-0.067	0.097
-140.472	800.000	0.066	-0.222
-139.458	-112.239	-0.280	-0.056
-138.443	138.613	-0.177	-0.231
-137.429	-62.535	0.054	-0.022
-136.414	-200.000	0.013	-0.320
-135.399	320.541	0.053	-0.100
-134.385	350.187	0.124	0.243
-133.370	29.094	0.371	0.313
-132.356	88.557	0.109	0.120
-131.341	128.245	0.186	0.235
-130.326	50.405	0.244	-0.230
-129.312	275.130	-0.145	0.256
-128.297	14.176	-0.195	0.151
-127.283	-143.713	0.441	-0.042
-126.268	-164.561	-0.080	0.004
-125.253	800.000	0.007	-0.032
-124.239	530.217	-0.201	0.471
-123.224	18.349	-0.206	0.164
-122.210	-26.332	0.028	0.016
-121.195	112.766	0.240	-0.288
