DTS Sentinel unit serial number:	SN413079Multiplexer serial number:	ORYXHardware model number:	OX4-SRSoftware version number:	ORYX F/W v4.00 Oryx Data Collector v3.7.2.0data status	okinstallation	princeton_trtdifferential loss correction	single-endedforward channel	channel 3reverse channel	N/Adate	2019/09/11time	22:02:10forward acquisition time	60.00reverse acquisition time	0.00gamma	496.2192k internal	0.2312k external	0.2312temperature offset calibration	1.0044default loss term (dB/km)	0.3790temperature slope calibration	1.0000multiplexer offset coefficient	1.0000multiplexer slope coefficient	1.0000fibre end	0.00T internal ref (°C)	35.50T ext. ref 1 (°C)	1.78T ext. ref 2 (°C)	29.51length (m)	temperature (°C)	Stokes	anti-Stokes-747.200	-110.526	-0.412	-0.087
-746.185	-8.866	0.214	0.145
-745.171	-200.000	0.056	0.344
-744.156	427.387	-0.109	0.240
-743.142	-200.000	-0.042	0.250
-742.127	-200.000	0.041	0.270
-741.112	800.000	-0.048	0.209
-740.098	-6.170	0.037	0.025
-739.083	-43.383	0.262	-0.134
-738.069	800.000	-0.086	0.248
-737.054	-37.048	0.298	0.162
-736.039	262.193	-0.166	-0.291
-735.025	-200.000	0.011	0.418
-734.010	51.435	-0.142	-0.137
-732.996	-1.615	-0.241	0.172
-731.981	39.024	-0.075	0.068
-730.966	-66.685	-0.164	-0.066
-729.952	-200.000	0.025	-0.240
-728.937	257.183	-0.072	-0.126
-727.923	-77.581	0.383	-0.135
-726.908	-45.589	-0.270	0.136
-725.894	262.199	-0.224	0.393
-724.879	-14.070	-0.317	0.208
-723.864	-115.069	-0.199	0.038
-722.850	530.132	-0.061	-0.147
-721.835	-200.000	0.028	-0.135
-720.821	-101.800	0.265	0.065
-719.806	-15.331	0.310	0.201
-718.791	-114.843	0.180	-0.035
-717.777	-200.000	0.021	0.106
-716.762	287.388	0.197	-0.361
-715.748	93.872	-0.284	-0.327
-714.733	-2.332	-0.111	0.079
-713.718	603.598	-0.170	0.429
-712.704	800.000	0.071	0.214
-711.689	-84.595	0.265	-0.085
-710.675	3.348	-0.067	0.050
-709.660	-8.766	0.113	-0.077
-708.645	800.000	-0.039	0.148
-707.631	-114.071	-0.193	-0.038
-706.616	-82.155	0.180	0.059
-705.602	17.300	-0.108	-0.086
-704.587	-171.483	-0.123	-0.004
-703.572	116.682	0.083	-0.103
-702.558	-200.000	-0.015	-0.087
-701.543	-60.040	-0.152	0.066
-700.529	-48.823	-0.093	0.045
-699.514	39.938	-0.201	0.183
-698.499	28.312	-0.138	0.118
-697.485	29.063	0.124	-0.107
-696.470	107.607	-0.129	-0.156
-695.456	131.198	-0.140	-0.182
-694.441	-74.152	0.294	0.108
-693.426	-200.000	-0.003	-0.145
-692.412	-200.000	-0.056	0.255
-691.397	-58.913	0.194	-0.085
-690.383	227.305	-0.040	-0.066
-689.368	-200.000	-0.063	0.290
-688.354	23.956	0.131	0.109
-687.339	126.412	-0.288	-0.369
-686.324	-54.709	0.076	0.035
-685.310	-104.076	-0.185	0.044
-684.295	27.539	-0.136	0.116
-683.281	208.030	0.150	-0.238
-682.266	-200.000	0.052	-0.342
-681.251	-97.489	0.321	0.085
-680.237	-85.374	-0.372	0.117
-679.222	-39.061	0.119	-0.063
-678.208	16.412	0.109	-0.087
-677.193	19.468	-0.258	-0.210
-676.178	223.090	-0.256	-0.418
-675.164	319.853	-0.121	-0.233
-674.149	284.029	0.115	-0.210
-673.135	-200.000	0.026	0.270
-672.120	-200.000	-0.002	0.207
-671.105	-200.000	0.000	0.046
-670.091	61.716	0.090	-0.091
-669.076	212.248	-0.022	0.035
-668.062	177.422	0.208	-0.307
-667.047	-82.178	-0.221	-0.073
-666.032	-153.210	0.463	-0.033
-665.018	-170.495	-0.063	-0.002
-664.003	800.000	0.027	-0.081
-662.989	-88.644	-0.151	-0.046
-661.974	-200.000	0.018	0.152
-660.959	-190.915	-0.043	-0.000
-659.945	800.000	-0.070	-0.251
-658.930	-65.784	0.209	0.085
-657.916	-200.000	0.034	0.224
-656.901	330.127	0.182	0.355
-655.886	-152.537	-0.117	-0.008
-654.872	800.000	-0.087	0.335
-653.857	104.415	0.106	0.126
-652.843	-194.116	-0.126	-0.001
-651.828	-22.485	-0.221	-0.136
-650.814	-200.000	0.018	-0.145
-649.799	172.324	0.150	0.219
-648.784	800.000	-0.040	-0.131
-647.770	287.087	0.060	0.110
-646.755	-200.000	-0.020	-0.096
-645.741	-200.000	-0.003	-0.041
-644.726	-50.231	0.263	0.126
-643.711	-200.000	-0.013	-0.109
-642.697	33.537	0.050	-0.044
-641.682	-96.948	0.073	0.019
-640.668	355.613	-0.014	0.029
-639.653	-87.507	-0.170	0.052
-638.638	100.916	-0.118	0.139
-637.624	800.000	0.081	-0.315
-636.609	60.518	0.359	-0.359
-635.595	-24.121	-0.100	-0.061
-634.580	333.217	-0.060	0.117
-633.565	-117.879	0.269	-0.049
-632.551	656.202	0.076	-0.196
-631.536	-62.613	-0.124	-0.052
-630.522	-30.034	0.047	-0.027
-629.507	800.000	0.115	0.379
-628.492	-59.913	-0.143	0.062
-627.478	-200.000	-0.025	0.209
-626.463	800.000	-0.072	0.279
-625.449	465.800	-0.052	0.118
-624.434	670.114	-0.120	-0.313
-623.419	193.308	0.139	-0.212
-622.405	-193.217	-0.184	-0.002
-621.390	375.360	-0.005	0.010
-620.376	-138.258	0.135	-0.015
-619.361	-200.000	-0.017	0.272
-618.346	-24.295	0.042	0.025
-617.332	213.628	-0.285	0.454
-616.317	-14.726	-0.202	0.131
-615.303	118.558	-0.228	-0.284
-614.288	800.000	0.018	-0.062
-613.273	346.701	-0.124	0.247
-612.259	290.850	0.072	0.133
-611.244	-200.000	0.003	0.219
-610.230	704.827	-0.046	-0.122
-609.215	-0.728	0.362	-0.259
-608.201	-104.843	-0.151	-0.035
-607.186	60.424	0.097	0.097
-606.171	68.964	-0.173	-0.179
-605.157	-67.199	-0.131	0.052
-604.142	-28.623	0.273	0.159
-603.128	800.000	-0.013	-0.037
-602.113	-101.188	-0.178	0.044
-601.098	800.000	0.016	0.058
-600.084	-43.228	-0.240	-0.123
-599.069	-40.923	0.543	0.284
-598.055	102.065	-0.227	-0.268
-597.040	-185.815	0.315	0.005
-596.025	753.987	0.041	0.112
-595.011	-109.835	0.302	0.064
-593.996	800.000	-0.058	-0.246
-592.982	-200.000	0.003	0.135
-591.967	143.811	-0.063	-0.085
-590.952	-33.263	-0.145	-0.081
-589.938	99.384	-0.107	-0.125
-588.923	11.788	0.256	-0.198
-587.909	142.400	0.146	-0.196
-586.894	105.422	0.115	-0.137
-585.879	533.606	-0.070	-0.167
-584.865	147.716	-0.126	0.171
-583.850	-15.999	-0.268	-0.172
-582.836	70.134	-0.139	-0.144
-581.821	366.413	0.078	0.158
-580.806	124.042	0.247	0.312
-579.792	-101.373	-0.266	-0.065
-578.777	-200.000	-0.009	-0.080
-577.763	131.393	-0.192	0.248
-576.748	373.039	0.114	-0.233
-575.733	767.254	0.097	0.265
-574.719	-178.602	0.134	-0.003
-573.704	162.164	-0.114	0.161
-572.690	-200.000	0.032	0.183
-571.675	30.327	0.148	-0.128
-570.661	-200.000	0.054	-0.419
-569.646	-200.000	-0.072	0.327
-568.631	-142.968	-0.080	0.008
-567.617	-92.072	-0.103	0.030
-566.602	3.071	-0.082	-0.060
-565.588	-140.289	0.266	0.028
-564.573	499.138	-0.089	-0.207
-563.558	-200.000	0.005	0.160
-562.544	-200.000	0.021	0.203
-561.529	468.348	0.121	0.273
-560.515	-23.011	-0.095	0.058
-559.500	-136.095	-0.085	-0.010
-558.485	-173.312	-0.136	-0.004
-557.471	-82.173	0.043	0.014
-556.456	-76.855	0.157	-0.055
-555.442	69.021	-0.164	0.170
-554.427	440.956	0.047	-0.103
-553.412	-34.231	0.067	0.037
-552.398	-2.095	-0.033	-0.023
-551.383	61.688	-0.063	-0.063
-550.369	-161.311	-0.077	-0.004
-549.354	710.033	0.029	-0.077
-548.339	-200.000	-0.028	-0.175
-547.325	-146.492	0.172	-0.015
-546.310	800.000	-0.096	0.337
-545.296	83.119	-0.209	0.229
-544.281	90.034	0.093	0.105
-543.266	27.746	-0.140	0.118
-542.252	-76.198	0.192	-0.068
-541.237	70.272	-0.218	0.227
-540.223	800.000	-0.105	0.319
-539.208	190.742	0.069	0.104
-538.193	-75.116	-0.217	0.078
-537.179	75.117	0.022	0.023
-536.164	199.976	0.137	0.211
-535.150	47.221	0.291	0.272
-534.135	7.443	-0.129	0.097
-533.121	143.631	0.062	0.083
-532.106	-82.303	-0.328	0.108
-531.091	-200.000	0.007	-0.140
-530.077	-200.000	-0.030	0.242
-529.062	17.888	-0.070	-0.056
-528.048	797.560	-0.132	0.365
-527.033	-200.000	-0.007	-0.126
-526.018	-176.567	-0.178	-0.005
-525.004	-29.814	0.271	0.156
-523.989	-17.900	0.133	-0.084
-522.975	-123.408	-0.354	0.057
-521.960	171.287	-0.147	-0.213
-520.945	179.574	-0.091	0.133
-519.931	-200.000	0.048	-0.285
-518.916	-30.316	0.316	-0.180
-517.902	-200.000	-0.459	-0.001
-516.887	-200.000	-0.017	-0.228
-515.872	3.745	-0.273	0.201
-514.858	372.612	0.101	-0.207
-513.843	-200.000	-0.022	0.212
-512.829	-86.713	-0.118	0.036
-511.814	79.839	-0.154	-0.166
-510.799	800.000	-0.034	0.126
-509.785	47.193	0.238	0.223
-508.770	177.614	-0.165	0.241
-507.756	-42.601	-0.182	0.093
-506.741	37.755	0.043	0.039
-505.726	-107.187	0.251	0.056
-504.712	-61.811	0.067	-0.028
-503.697	-92.224	-0.166	-0.047
-502.683	-53.012	0.209	-0.097
-501.668	434.521	0.104	0.226
-500.653	183.367	0.129	0.191
-499.639	-19.834	-0.168	-0.104
-498.624	471.023	0.124	-0.280
-497.610	-113.337	0.165	-0.032
-496.595	800.000	0.022	-0.077
-495.581	-103.388	0.167	0.040
-494.566	-200.000	-0.034	-0.177
-493.551	-87.865	0.320	0.097
-492.537	-120.715	-0.113	-0.019
-491.522	3.942	0.241	0.177
-490.508	42.047	-0.056	0.051
-489.493	-173.299	-0.538	-0.016
-488.478	-200.000	-0.014	0.113
-487.464	-34.043	-0.229	-0.127
-486.449	40.393	0.104	0.094
-485.435	-139.907	0.197	-0.021
-484.420	89.739	-0.149	0.167
-483.405	-57.641	0.039	0.017
-482.391	-57.182	-0.312	-0.138
-481.376	800.000	0.049	-0.143
-480.362	-41.744	-0.325	-0.168
-479.347	-99.095	-0.013	-0.003
-478.332	-84.187	-0.185	-0.059
-477.318	-115.476	0.246	-0.047
-476.303	-96.252	0.256	-0.068
-475.289	-54.994	0.216	0.098
-474.274	1.976	0.112	0.081
-473.259	261.335	0.077	-0.133
-472.245	206.532	0.089	-0.140
-471.230	194.121	-0.057	0.087
-470.216	-200.000	0.027	0.173
-469.201	800.000	-0.013	0.040
-468.186	800.000	0.013	0.037
-467.172	800.000	0.051	-0.220
-466.157	-15.918	0.175	-0.112
-465.143	-200.000	0.006	0.110
-464.128	-200.000	-0.007	-0.169
-463.113	159.446	-0.149	-0.208
-462.099	800.000	-0.017	0.070
-461.084	800.000	-0.061	-0.247
-460.070	59.221	0.276	-0.273
-459.055	-155.379	-0.155	-0.010
-458.040	-197.974	0.299	-0.002
-457.026	800.000	-0.016	0.061
-456.011	-92.050	0.126	-0.036
-454.997	338.671	0.038	0.075
-453.982	-142.277	0.227	-0.023
-452.968	-104.501	-0.165	0.038
-451.953	-107.479	0.241	-0.053
-450.938	11.236	0.151	-0.116
-449.924	-200.000	0.036	-0.196
-448.909	-200.000	-0.049	0.341
-447.895	246.292	0.061	-0.102
-446.880	354.251	0.168	-0.334
-445.865	47.754	0.284	-0.266
-444.851	6.366	0.310	0.231
-443.836	-200.000	-0.014	-0.105
-442.822	-14.944	0.157	-0.101
-441.807	328.345	0.170	-0.328
-440.792	-200.000	-0.058	-0.374
-439.778	2.887	-0.161	-0.117
-438.763	-34.463	0.209	0.115
-437.749	288.039	-0.059	0.107
-436.734	130.961	-0.026	-0.033
-435.719	-126.187	-0.206	0.031
-434.705	488.505	-0.013	-0.030
-433.690	-166.187	0.237	0.010
-432.676	-13.884	-0.243	0.158
-431.661	-110.499	0.291	-0.061
-430.646	480.899	-0.179	-0.408
-429.632	240.610	-0.049	0.082
-428.617	-147.316	-0.157	-0.013
-427.603	-200.000	0.018	-0.216
-426.588	156.164	-0.099	-0.137
-425.573	92.597	0.163	-0.184
-424.559	-109.053	-0.025	0.005
-423.544	1.997	-0.223	-0.162
-422.530	-0.562	0.111	-0.079
-421.515	800.000	0.054	-0.166
-420.500	-200.000	0.022	0.320
-419.486	-71.038	0.031	-0.012
-418.471	67.813	-0.143	-0.146
-417.457	-128.767	0.045	0.006
-416.442	-174.099	0.319	-0.009
-415.428	-200.000	-0.120	-0.000
-414.413	-35.636	-0.514	-0.279
-413.398	122.604	0.196	-0.245
-412.384	-117.790	0.138	-0.025
-411.369	10.756	0.314	-0.240
-410.355	-141.547	0.355	-0.036
-409.340	800.000	-0.040	-0.127
-408.325	42.778	-0.318	-0.290
-407.311	146.599	-0.182	0.245
-406.296	-59.104	0.163	0.070
-405.282	-200.000	-0.033	-0.304
-404.267	100.339	0.242	-0.281
-403.252	-41.120	0.188	-0.097
-402.238	-128.016	-0.095	-0.014
-401.223	-57.146	-0.192	-0.085
-400.209	84.919	0.179	-0.196
-399.194	-166.618	-0.278	0.012
-398.179	111.710	0.188	-0.227
-397.165	-81.532	-0.117	-0.039
-396.150	-200.000	-0.013	0.064
-395.136	-60.207	0.453	-0.193
-394.121	210.572	0.176	0.276
-393.106	-75.970	0.249	0.088
-392.092	-172.996	-0.197	-0.006
-391.077	-150.441	0.222	0.017
-390.063	-12.470	0.091	0.059
-389.048	112.269	0.105	0.127
-388.033	-177.346	0.162	0.004
-387.019	283.254	-0.105	-0.188
-386.004	-106.195	0.163	-0.037
-384.990	147.406	-0.046	0.062
-383.975	-95.354	-0.263	0.071
-382.960	-44.091	-0.365	0.183
-381.946	23.137	-0.222	-0.182
-380.931	-37.267	-0.266	0.142
-379.917	90.891	0.053	0.059
-378.902	-200.000	0.001	-0.107
-377.888	800.000	-0.035	0.098
-376.873	61.450	0.058	-0.058
-375.858	-130.428	0.217	0.029
-374.844	-200.000	-0.018	0.256
-373.829	4.423	-0.055	-0.040
-372.815	-200.000	-0.070	0.436
-371.800	165.016	-0.020	0.028
-370.785	-94.628	-0.164	-0.045
-369.771	-200.000	-0.026	0.247
-368.756	-69.333	-0.115	0.044
-367.742	-200.000	-0.067	-0.345
-366.727	767.159	-0.091	-0.247
-365.712	-119.014	0.080	0.014
-364.698	-200.000	-0.034	0.208
-363.683	-95.038	-0.291	-0.079
-362.669	46.454	-0.190	0.176
-361.654	-85.212	0.286	0.089
-360.639	-137.590	-0.059	0.007
-359.625	800.000	-0.062	0.264
-358.610	168.791	0.119	0.170
-357.596	-200.000	-0.006	0.032
-356.581	-124.048	-0.284	0.045
-355.566	-200.000	-0.066	-0.338
-354.552	800.000	-0.094	0.293
-353.537	-104.853	-0.277	-0.063
-352.523	-173.072	0.313	0.010
-351.508	-128.930	-0.053	-0.007
-350.493	136.346	0.240	-0.313
-349.479	144.681	-0.152	-0.203
-348.464	130.617	0.042	0.054
-347.450	250.338	0.173	0.294
-346.435	800.000	0.139	0.512
-345.420	-62.646	0.244	-0.101
-344.406	800.000	-0.059	-0.203
-343.391	-54.065	0.257	-0.117
-342.377	208.215	-0.086	-0.135
-341.362	26.222	0.290	-0.242
-340.348	-44.949	-0.174	-0.087
-339.333	-200.000	-0.053	-0.382
-338.318	-104.310	-0.115	0.027
-337.304	43.210	-0.107	-0.097
-336.289	189.296	-0.101	-0.151
-335.275	800.000	0.063	0.230
-334.260	-85.170	-0.306	-0.096
-333.245	470.737	-0.095	0.213
-332.231	-150.535	-0.116	0.009
-331.216	-108.427	-0.222	0.048
-330.202	62.389	0.059	0.059
-329.187	800.000	-0.068	0.285
-328.172	800.000	-0.172	0.551
-327.158	800.000	0.057	-0.188
-326.143	800.000	-0.052	-0.180
-325.129	89.569	-0.124	-0.139
-324.114	-7.886	-0.198	-0.133
-323.099	800.000	0.036	-0.125
-322.085	197.285	-0.183	-0.279
-321.070	-29.069	0.198	0.114
-320.056	-93.323	-0.149	-0.041
-319.041	-88.802	-0.215	0.064
-318.026	-28.957	-0.289	-0.166
-317.012	-200.000	0.003	-0.034
-315.997	-116.782	-0.173	-0.032
-314.983	-145.326	-0.252	0.023
-313.968	-120.901	-0.315	0.053
-312.953	800.000	-0.148	0.463
-311.939	-200.000	0.010	0.236
-310.924	228.131	0.021	0.033
-309.910	233.096	0.062	0.101
-308.895	52.516	-0.189	-0.180
-307.880	-190.120	0.201	-0.002
-306.866	156.872	0.144	0.198
-305.851	-158.123	-0.051	-0.003
-304.837	-11.499	0.065	0.043
-303.822	-43.021	0.374	-0.189
-302.807	-15.002	-0.342	-0.219
-301.793	71.868	-0.160	-0.166
-300.778	172.068	0.318	-0.456
-299.764	-200.000	0.003	0.322
-298.749	-182.055	-0.347	-0.007
-297.735	-200.000	0.026	-0.117
-296.720	-53.456	-0.064	-0.029
-295.705	114.299	0.145	0.176
-294.691	275.897	-0.158	0.280
-293.676	-163.241	0.143	-0.007
-292.662	343.265	0.104	-0.204
-291.647	-5.558	-0.160	0.110
-290.632	-103.872	0.447	0.104
-289.618	-63.441	0.298	0.122
-288.603	-200.000	0.004	0.024
-287.589	186.653	0.184	0.273
-286.574	-127.281	-0.130	0.019
-285.559	-140.516	-0.227	0.024
-284.545	-200.000	0.332	0.000
-283.530	75.894	0.093	0.098
-282.516	800.000	-0.115	-0.354
-281.501	54.840	0.082	-0.079
-280.486	-127.500	-0.207	0.030
-279.472	24.989	-0.121	0.100
-278.457	267.274	0.057	0.100
-277.443	-200.000	-0.049	0.551
-276.428	33.571	0.251	0.217
-275.413	-150.625	-0.156	0.012
-274.399	23.605	-0.202	-0.166
-273.384	-140.823	0.236	-0.024
-272.370	-106.094	-0.296	0.066
-271.355	133.816	0.068	-0.088
-270.340	-83.372	-0.166	0.053
-269.326	-118.973	-0.100	-0.018
-268.311	-180.339	-0.193	-0.004
-267.297	-84.139	0.241	0.076
-266.282	327.792	0.128	-0.246
-265.267	-200.000	-0.007	-0.489
-264.253	63.729	0.181	0.181
-263.238	23.211	0.067	0.055
-262.224	-200.000	0.028	0.366
-261.209	-200.000	0.023	-0.137
-260.195	-8.430	0.088	0.059
-259.180	186.370	0.051	0.075
-258.165	224.130	-0.063	-0.101
-257.151	-106.574	0.243	0.054
-256.136	104.226	-0.154	0.180
-255.122	-200.000	-0.013	0.194
-254.107	309.241	-0.088	0.165
-253.092	-185.270	0.404	0.006
-252.078	392.744	-0.168	0.349
-251.063	800.000	0.048	-0.165
-250.049	494.628	-0.042	0.096
-249.034	-200.000	-0.023	0.193
-248.019	8.747	-0.153	-0.115
-247.005	-200.000	-0.023	0.233
-245.990	-200.000	-0.009	0.055
-244.976	-200.000	-0.011	0.242
-243.961	23.806	0.142	0.117
-242.946	274.516	-0.085	-0.150
-241.932	-32.361	-0.112	0.062
-240.917	-58.343	-0.216	-0.093
-239.903	-200.000	0.047	-0.290
-238.888	57.292	0.134	0.130
-237.873	-124.487	-0.231	0.036
-236.859	-92.980	0.177	0.049
-235.844	800.000	-0.047	-0.160
-234.830	-200.000	-0.007	-0.320
-233.815	169.002	-0.141	-0.201
-232.800	-73.426	0.194	0.070
-231.786	364.289	-0.136	-0.273
-230.771	20.564	0.211	-0.170
-229.757	361.853	0.115	-0.229
-228.742	-124.495	-0.313	0.048
-227.727	285.969	-0.059	0.106
-226.713	-77.201	0.149	-0.052
-225.698	-89.771	0.184	0.054
-224.684	-0.248	-0.287	0.203
-223.669	226.804	0.112	-0.181
-222.655	128.487	0.127	-0.161
-221.640	-115.738	-0.127	0.024
-220.625	-81.899	-0.143	0.046
-219.611	-200.000	0.053	0.263
-218.596	278.930	0.054	-0.095
-217.582	-95.374	0.402	-0.107
-216.567	5.068	0.200	0.147
-215.552	-200.000	-0.011	0.328
-214.538	-106.660	0.101	0.022
-213.523	800.000	-0.028	-0.107
-212.509	172.259	-0.176	0.252
-211.494	-65.323	0.156	0.062
-210.479	800.000	-0.101	-0.402
-209.465	-200.000	0.026	-0.125
-208.450	-75.672	0.346	-0.122
-207.436	-78.467	0.032	-0.011
-206.421	-200.000	-0.035	-0.169
-205.406	-41.775	-0.228	0.116
-204.392	-50.742	0.135	-0.063
-203.377	203.235	0.234	-0.360
-202.363	37.604	0.090	0.080
-201.348	-2.264	-0.264	-0.184
-200.333	323.930	0.055	0.104
-199.319	126.609	-0.153	0.193
-198.304	-51.069	0.216	-0.101
-197.290	800.000	0.055	-0.218
-196.275	-91.604	-0.429	-0.121
-195.260	-200.000	-0.028	0.319
-194.246	-200.000	0.023	-0.216
-193.231	133.688	0.144	0.185
-192.217	800.000	-0.094	0.358
-191.202	800.000	0.037	0.104
-190.187	-22.849	-0.105	-0.063
-189.173	-200.000	0.032	-0.201
-188.158	126.232	0.094	0.118
-187.144	-200.000	0.033	-0.162
-186.129	-139.534	0.176	0.019
-185.114	-45.382	0.281	0.138
-184.100	-11.534	0.246	-0.161
-183.085	155.487	-0.172	0.235
-182.071	572.258	0.066	0.160
-181.056	163.564	0.182	-0.254
-180.042	-186.861	0.160	0.002
-179.027	-7.074	0.280	-0.188
-178.012	-134.443	-0.287	0.035
-176.998	-48.973	-0.138	0.065
-175.983	-52.333	0.258	0.118
-174.969	-200.000	-0.022	-0.107
-173.954	-200.000	-0.026	0.000
-172.939	-200.000	-0.023	-0.231
-171.925	243.908	-0.057	-0.094
-170.910	97.826	0.222	-0.253
-169.896	-60.176	-0.194	-0.082
-168.881	267.787	0.033	0.058
-167.866	-200.000	-0.028	-0.169
-166.852	463.493	-0.052	0.115
-165.837	-179.528	0.123	0.003
-164.823	6.840	-0.206	-0.152
-163.808	-9.941	-0.070	-0.046
-162.793	0.368	0.087	-0.061
-161.779	139.053	0.069	0.090
-160.764	800.000	-0.049	0.136
-159.750	290.008	0.125	0.225
-158.735	800.000	0.029	0.089
-157.720	-200.000	-0.007	0.387
-156.706	-30.348	0.062	-0.035
-155.691	-27.870	-0.149	0.086
-154.677	-153.585	-0.201	0.014
-153.662	-119.034	-0.172	0.030
-152.647	294.940	-0.087	0.158
-151.633	-103.277	-0.454	0.106
-150.618	-76.084	0.177	0.062
-149.604	-200.000	0.025	0.218
-148.589	-45.841	-0.261	0.128
-147.574	-73.805	0.224	0.081
-146.560	473.519	0.013	-0.028
-145.545	800.000	0.058	-0.160
-144.531	-79.949	-0.062	-0.021
-143.516	-194.042	0.180	0.001
-142.502	109.733	0.115	-0.136
-141.487	800.000	-0.092	-0.265
-140.472	-200.000	0.034	0.162
-139.458	800.000	0.024	-0.075
-138.443	-149.749	0.135	0.011
-137.429	-57.548	-0.463	0.201
-136.414	-200.000	0.017	-0.172
-135.399	-200.000	-0.027	-0.191
-134.385	-69.956	0.187	-0.071
-133.370	-110.190	0.099	-0.020
-132.356	-48.101	0.259	0.124
-131.341	107.954	-0.157	0.185
-130.326	400.162	-0.134	-0.278
-129.312	-170.618	0.026	0.001
-128.297	-200.000	0.048	0.262
-127.283	-93.850	0.147	-0.040
-126.268	-122.864	0.193	0.031
-125.253	-200.000	0.008	0.234
-124.239	-200.000	0.038	-0.231
-123.224	-113.988	0.381	-0.073
-122.210	59.206	-0.194	0.189
