DTS Sentinel unit serial number:	SN413079Multiplexer serial number:	ORYXHardware model number:	OX4-SRSoftware version number:	ORYX F/W v4.00 Oryx Data Collector v3.7.2.0data status	okinstallation	princeton_trtdifferential loss correction	single-endedforward channel	channel 3reverse channel	N/Adate	2019/09/12time	00:34:11forward acquisition time	60.00reverse acquisition time	0.00gamma	496.2192k internal	0.2318k external	0.2318temperature offset calibration	1.0064default loss term (dB/km)	0.3790temperature slope calibration	1.0000multiplexer offset coefficient	1.0000multiplexer slope coefficient	1.0000fibre end	0.00T internal ref (°C)	33.37T ext. ref 1 (°C)	2.07T ext. ref 2 (°C)	28.09length (m)	temperature (°C)	Stokes	anti-Stokes-747.200	800.000	0.085	-0.282
-746.185	-200.000	-0.005	0.095
-745.171	382.311	0.154	0.321
-744.156	382.111	0.055	-0.114
-743.142	-41.252	0.128	-0.067
-742.127	502.300	-0.246	0.576
-741.112	-79.935	-0.165	0.056
-740.098	37.897	0.171	0.154
-739.083	-172.602	-0.239	-0.008
-738.069	-200.000	-0.023	0.165
-737.054	675.393	-0.052	-0.136
-736.039	159.507	-0.085	-0.119
-735.025	94.891	-0.121	0.139
-734.010	-200.000	0.018	-0.120
-732.996	-200.000	-0.063	0.332
-731.981	10.525	-0.125	-0.096
-730.966	212.629	-0.250	-0.398
-729.952	-200.000	-0.019	-0.214
-728.937	-162.838	-0.317	-0.016
-727.923	-11.239	0.330	0.220
-726.908	-200.000	0.062	-0.368
-725.894	-66.948	-0.198	-0.079
-724.879	800.000	-0.081	-0.282
-723.864	263.603	-0.147	-0.259
-722.850	14.208	0.251	0.198
-721.835	-122.108	0.390	-0.065
-720.821	-46.780	0.142	0.070
-719.806	-200.000	0.014	0.184
-718.791	-131.647	-0.319	-0.042
-717.777	84.873	-0.036	-0.040
-716.762	-52.311	-0.219	0.102
-715.748	-8.288	-0.362	-0.246
-714.733	143.396	0.081	-0.109
-713.718	-200.000	-0.055	-0.358
-712.704	9.988	0.288	0.221
-711.689	-64.579	-0.510	-0.209
-710.675	116.418	0.042	-0.052
-709.660	381.139	0.059	0.121
-708.645	633.887	-0.111	0.285
-707.631	-102.536	-0.005	-0.001
-706.616	-64.556	-0.192	-0.079
-705.602	63.424	-0.197	-0.200
-704.587	143.170	0.100	-0.134
-703.572	107.498	0.032	-0.039
-702.558	-138.850	-0.304	0.033
-701.543	184.319	-0.129	0.193
-700.529	98.662	0.210	0.245
-699.514	-200.000	-0.000	-0.197
-698.499	-120.273	0.268	0.046
-697.485	-200.000	-0.013	0.152
-696.470	23.244	0.282	0.234
-695.456	-124.242	-0.129	-0.020
-694.441	-158.836	0.258	-0.015
-693.426	-183.461	-0.292	0.005
-692.412	-200.000	0.069	0.405
-691.397	72.601	0.352	0.371
-690.383	655.134	-0.071	-0.184
-689.368	-200.000	0.007	0.043
-688.354	-64.021	-0.175	0.072
-687.339	147.082	-0.071	-0.096
-686.324	-200.000	0.005	0.285
-685.310	308.809	0.080	-0.151
-684.295	704.198	0.044	-0.116
-683.281	-181.361	0.221	-0.004
-682.266	-82.885	0.302	0.099
-681.251	34.011	0.067	0.059
-680.237	-86.758	0.093	0.029
-679.222	42.998	0.071	-0.065
-678.208	22.389	0.405	-0.334
-677.193	-200.000	0.014	-0.327
-676.178	-54.053	0.051	0.023
-675.164	69.818	-0.080	0.084
-674.149	-136.819	0.232	0.027
-673.135	-118.127	-0.184	-0.033
-672.120	800.000	-0.040	-0.159
-671.105	-86.539	0.356	0.110
-670.091	-4.616	-0.192	-0.134
-669.076	252.296	-0.100	-0.171
-668.062	163.476	-0.050	0.070
-667.047	-200.000	0.008	0.309
-666.032	-117.773	0.131	0.024
-665.018	800.000	-0.026	-0.113
-664.003	-46.711	0.080	-0.040
-662.989	-34.576	0.169	0.094
-661.974	-161.407	-0.246	-0.013
-660.959	800.000	0.121	-0.425
-659.945	-71.010	0.185	0.070
-658.930	614.433	-0.086	-0.216
-657.916	355.567	-0.119	-0.240
-656.901	800.000	-0.066	0.270
-655.886	-57.197	0.368	-0.163
-654.872	278.702	-0.122	-0.220
-653.857	-200.000	-0.066	-0.310
-652.843	800.000	0.059	-0.211
-651.828	-200.000	-0.048	-0.260
-650.814	800.000	0.148	-0.438
-649.799	202.475	-0.185	0.288
-648.784	80.616	0.060	-0.065
-647.770	-200.000	-0.274	-0.000
-646.755	-81.775	-0.036	0.012
-645.741	-59.310	0.132	-0.057
-644.726	-76.779	-0.147	-0.052
-643.711	-139.966	0.323	-0.034
-642.697	-39.978	-0.386	-0.203
-641.682	-80.136	0.213	-0.072
-640.668	163.836	-0.177	0.252
-639.653	-200.000	0.038	-0.312
-638.638	83.878	0.032	0.036
-637.624	-109.926	0.163	-0.034
-636.609	91.911	-0.121	-0.137
-635.595	-131.082	0.133	0.018
-634.580	360.545	0.052	0.106
-633.565	-106.840	-0.274	0.061
-632.551	-200.000	-0.032	0.292
-631.536	390.631	-0.107	0.223
-630.522	644.253	-0.075	-0.192
-629.507	395.488	-0.036	-0.076
-628.492	-96.158	-0.234	0.063
-627.478	-107.435	0.226	0.050
-626.463	800.000	0.073	-0.217
-625.449	316.915	-0.080	-0.153
-624.434	-99.904	-0.128	-0.032
-623.419	-200.000	-0.020	0.296
-622.405	-3.089	-0.117	0.082
-621.390	-53.999	0.260	-0.119
-620.376	-89.885	0.172	-0.051
-619.361	48.496	0.209	0.197
-618.346	1.786	0.140	0.101
-617.332	-200.000	-0.048	0.224
-616.317	14.287	0.104	-0.082
-615.303	-200.000	0.021	-0.207
-614.288	410.294	-0.055	-0.117
-613.273	573.999	-0.047	-0.116
-612.259	115.332	0.168	-0.207
-611.244	-42.115	-0.171	0.088
-610.230	-132.753	-0.146	0.019
-609.215	333.124	-0.047	-0.091
-608.201	-93.596	-0.454	-0.126
-607.186	-200.000	-0.029	0.141
-606.171	61.776	0.240	0.240
-605.157	-98.438	-0.106	0.027
-604.142	-200.000	-0.002	-0.159
-603.128	-47.757	0.269	0.131
-602.113	194.701	-0.107	0.163
-601.098	-65.106	-0.250	0.101
-600.084	202.937	-0.056	-0.088
-599.069	206.126	-0.168	0.263
-598.055	-135.644	-0.356	0.042
-597.040	-200.000	-0.052	-0.306
-596.025	-75.477	0.134	-0.048
-595.011	-60.539	-0.288	0.123
-593.996	-200.000	-0.038	0.477
-592.982	-132.367	0.216	-0.028
-591.967	0.546	-0.245	-0.176
-590.952	-200.000	-0.005	0.083
-589.938	-137.424	-0.428	-0.049
-588.923	345.169	-0.146	-0.288
-587.909	800.000	-0.083	-0.230
-586.894	54.704	0.122	0.118
-585.879	-200.000	0.078	0.439
-584.865	-119.827	-0.259	-0.045
-583.850	10.163	0.178	0.136
-582.836	-200.000	0.001	-0.178
-581.821	594.005	-0.060	-0.148
-580.806	-48.604	-0.447	-0.216
-579.792	-107.917	-0.226	-0.049
-578.777	-56.558	0.152	-0.068
-577.763	671.468	-0.059	0.154
-576.748	241.626	0.114	-0.192
-575.733	-77.116	0.393	-0.138
-574.719	647.032	-0.081	-0.207
-573.704	-20.893	-0.157	0.097
-572.690	-20.476	0.194	-0.120
-571.675	54.535	0.048	0.047
-570.661	-47.531	-0.105	0.051
-569.646	-119.663	0.187	0.032
-568.631	800.000	0.077	-0.229
-567.617	-85.324	-0.366	-0.115
-566.602	85.730	-0.070	-0.077
-565.588	-179.937	-0.163	-0.003
-564.573	800.000	0.050	-0.192
-563.558	-152.059	0.054	0.004
-562.544	-95.754	-0.192	0.052
-561.529	185.687	-0.107	-0.160
-560.515	-194.121	-0.079	-0.001
-559.500	39.235	-0.043	0.038
-558.485	-40.485	0.344	-0.179
-557.471	800.000	0.106	0.299
-556.456	-200.000	-0.017	0.230
-555.442	259.206	-0.217	0.376
-554.427	-146.170	0.215	-0.019
-553.412	529.636	-0.076	-0.180
-552.398	-200.000	-0.018	-0.227
-551.383	-72.890	-0.022	-0.008
-550.369	-100.122	0.185	-0.046
-549.354	-34.326	0.140	-0.077
-548.339	800.000	0.066	-0.226
-547.325	156.487	-0.029	-0.040
-546.310	-200.000	0.011	-0.135
-545.296	-59.862	-0.306	-0.131
-544.281	800.000	-0.017	-0.059
-543.266	24.700	-0.093	-0.078
-542.252	800.000	0.029	0.109
-541.237	-10.179	-0.183	-0.122
-540.223	202.764	-0.112	-0.173
-539.208	800.000	0.072	-0.263
-538.193	-8.476	0.146	-0.099
-537.179	380.721	-0.039	0.080
-536.164	-25.174	0.269	-0.160
-535.150	-39.454	0.310	0.163
-534.135	33.512	-0.089	0.078
-533.121	524.689	-0.052	0.123
-532.106	-22.456	0.189	-0.115
-531.091	800.000	0.033	0.122
-530.077	-14.493	-0.274	-0.177
-529.062	-200.000	0.004	-0.278
-528.048	-136.484	-0.082	0.010
-527.033	-180.074	-0.408	0.009
-526.018	-200.000	0.012	-0.079
-525.004	241.710	0.157	-0.264
-523.989	407.352	-0.171	0.364
-522.975	800.000	-0.095	-0.268
-521.960	560.365	-0.005	0.011
-520.945	-200.000	-0.004	-0.184
-519.931	155.665	-0.099	0.136
-518.916	-104.677	0.315	-0.073
-517.902	-128.578	0.040	-0.006
-516.887	392.636	-0.108	-0.226
-515.872	-200.000	0.043	-0.412
-514.858	-200.000	-0.007	-0.068
-513.843	-200.000	0.020	-0.291
-512.829	50.381	0.226	0.214
-511.814	115.929	-0.162	0.198
-510.799	-14.432	0.309	-0.200
-509.785	148.452	0.093	-0.126
-508.770	12.141	0.284	0.219
-507.756	-130.873	0.282	0.038
-506.741	-200.000	0.036	-0.195
-505.726	46.678	-0.143	-0.133
-504.712	-88.781	-0.357	-0.106
-503.697	-52.351	0.085	0.039
-502.683	54.998	0.136	0.132
-501.668	-173.297	0.046	-0.001
-500.653	169.069	0.060	-0.086
-499.639	-123.082	-0.241	0.039
-498.624	55.256	0.189	0.183
-497.610	-116.865	-0.295	-0.054
-496.595	240.908	0.162	0.271
-495.581	112.125	0.136	-0.164
-494.566	800.000	0.027	-0.103
-493.551	-72.561	-0.150	0.055
-492.537	-200.000	0.217	0.001
-491.522	-160.266	-0.188	0.010
-490.508	14.338	0.207	-0.162
-489.493	-136.272	-0.016	-0.002
-488.478	-52.884	0.157	0.072
-487.464	-200.000	-0.004	0.041
-486.449	204.028	-0.234	0.364
-485.435	118.061	0.016	-0.020
-484.420	800.000	-0.052	-0.164
-483.405	800.000	-0.081	-0.313
-482.391	-20.783	-0.323	-0.198
-481.376	-192.259	-0.337	0.003
-480.362	6.559	0.149	0.111
-479.347	-200.000	-0.035	-0.257
-478.332	19.621	-0.241	-0.194
-477.318	-200.000	-0.006	0.205
-476.303	-77.800	0.488	-0.169
-475.289	193.515	-0.136	0.207
-474.274	-200.000	-0.020	0.211
-473.259	-200.000	0.002	0.037
-472.245	359.977	0.099	-0.198
-471.230	-119.720	0.072	-0.013
-470.216	-163.208	0.110	-0.005
-469.201	-12.067	-0.139	0.091
-468.186	-147.217	0.131	0.011
-467.172	173.893	-0.129	-0.187
-466.157	-78.143	-0.175	0.060
-465.143	61.574	0.179	-0.178
-464.128	-22.341	0.532	0.323
-463.113	53.984	-0.147	-0.141
-462.099	758.374	-0.121	-0.328
-461.084	-90.655	0.228	0.066
-460.070	-110.063	-0.291	-0.061
-459.055	-0.198	0.131	-0.093
-458.040	201.134	-0.088	-0.136
-457.026	-74.304	-0.040	0.015
-456.011	-99.860	-0.227	0.057
-454.997	-17.552	0.311	0.195
-453.982	261.628	-0.178	0.308
-452.968	800.000	-0.064	0.208
-451.953	-28.797	-0.040	0.023
-450.938	-31.705	-0.120	-0.067
-449.924	-200.000	0.062	0.402
-448.909	85.573	0.207	0.228
-447.895	-193.271	0.195	-0.002
-446.880	252.796	0.131	0.224
-445.865	115.110	0.264	-0.322
-444.851	-113.220	-0.274	0.054
-443.836	-9.139	0.150	0.100
-442.822	64.355	-0.234	-0.236
-441.807	-13.808	-0.137	-0.088
-440.792	800.000	0.094	0.350
-439.778	208.838	-0.026	0.040
-438.763	-133.724	0.154	-0.019
-437.749	-200.000	0.035	-0.207
-436.734	-21.847	-0.230	-0.140
-435.719	-200.000	-0.013	-0.110
-434.705	413.456	-0.108	0.229
-433.690	-61.679	-0.048	0.020
-432.676	17.011	0.133	-0.105
-431.661	-200.000	-0.033	-0.571
-430.646	94.846	-0.164	0.187
-429.632	-50.500	0.320	0.151
-428.617	88.911	-0.354	0.393
-427.603	-101.997	-0.232	-0.056
-426.588	31.758	-0.040	-0.034
-425.573	-200.000	0.005	0.136
-424.559	800.000	0.041	-0.120
-423.544	437.348	0.088	0.191
-422.530	480.191	0.173	-0.393
-421.515	134.508	-0.040	-0.052
-420.500	-180.242	0.273	0.006
-419.486	-131.073	0.183	0.024
-418.471	-200.000	0.028	-0.341
-417.457	616.965	-0.063	-0.157
-416.442	-32.689	-0.237	0.132
-415.428	-26.541	0.237	0.139
-414.413	-66.196	0.289	0.115
-413.398	8.011	0.028	-0.021
-412.384	24.467	0.259	-0.214
-411.369	-200.000	0.021	-0.137
-410.355	-200.000	-0.007	0.288
-409.340	327.665	-0.162	0.310
-408.325	-110.640	-0.363	-0.075
-407.311	107.104	-0.028	0.033
-406.296	209.439	-0.173	0.271
-405.282	-166.526	0.497	-0.021
-404.267	57.323	-0.166	0.162
-403.252	-13.494	-0.365	0.237
-402.238	-1.605	-0.131	0.092
-401.223	45.196	0.131	0.121
-400.209	-200.000	-0.033	-0.289
-399.194	-88.661	-0.170	-0.051
-398.179	-10.953	-0.129	-0.085
-397.165	768.692	0.059	0.160
-396.150	0.266	0.387	0.275
-395.136	-200.000	-0.022	0.198
-394.121	-129.760	-0.144	-0.020
-393.106	-59.537	-0.211	0.091
-392.092	800.000	0.061	-0.173
-391.077	706.005	-0.071	0.188
-390.063	-200.000	-0.006	0.066
-389.048	800.000	0.132	-0.364
-388.033	113.641	0.194	-0.236
-387.019	-74.187	0.092	0.033
-386.004	117.041	-0.237	0.291
-384.990	353.466	0.227	0.450
-383.975	-200.000	0.039	0.170
-382.960	409.380	-0.108	-0.229
-381.946	17.979	-0.328	0.261
-380.931	18.464	0.101	0.081
-379.917	-108.795	0.320	-0.068
-378.902	-87.353	-0.150	-0.045
-377.888	-200.000	0.006	-0.086
-376.873	7.427	0.147	-0.110
-375.858	659.191	0.110	-0.283
-374.844	-200.000	0.024	0.114
-373.829	-25.519	-0.131	-0.077
-372.815	-178.666	0.119	0.003
-371.800	-200.000	0.020	0.184
-370.785	-22.309	-0.086	0.052
-369.771	389.710	0.102	0.211
-368.756	112.147	-0.241	0.290
-367.742	-200.000	-0.004	0.370
-366.727	-200.000	0.003	0.020
-365.712	-43.146	0.166	-0.084
-364.698	245.555	0.037	-0.062
-363.683	-200.000	-0.006	0.095
-362.669	-6.842	-0.188	0.128
-361.654	-29.439	0.326	-0.186
-360.639	426.790	-0.101	-0.216
-359.625	574.556	0.184	0.446
-358.610	-191.273	-0.052	-0.001
-357.596	800.000	0.081	-0.282
-356.581	-60.981	0.230	-0.097
-355.566	-69.919	-0.289	-0.110
-354.552	-200.000	-0.005	-0.039
-353.537	800.000	-0.020	0.071
-352.523	252.309	0.065	-0.111
-351.508	715.634	0.053	0.141
-350.493	221.471	0.144	0.230
-349.479	800.000	0.084	0.331
-348.464	44.548	0.257	-0.235
-347.450	-147.315	0.185	0.016
-346.435	-142.313	0.231	0.023
-345.420	-48.734	0.329	0.157
-344.406	-122.801	-0.406	-0.065
-343.391	-200.000	-0.039	0.453
-342.377	658.182	-0.098	0.250
-341.362	800.000	-0.046	-0.179
-340.348	-124.275	-0.119	0.019
-339.333	800.000	0.056	-0.207
-338.318	700.390	0.084	0.219
-337.304	800.000	0.027	0.116
-336.289	-171.860	0.085	-0.003
-335.275	-86.481	0.136	-0.042
-334.260	800.000	0.089	-0.246
-333.245	20.333	-0.129	-0.104
-332.231	-164.635	0.051	0.002
-331.216	-200.000	-0.009	-0.043
-330.202	-36.934	-0.209	0.111
-329.187	-94.248	0.213	-0.058
-328.172	-99.775	0.317	0.079
-327.158	-200.000	-0.009	-0.154
-326.143	-109.982	0.483	-0.101
-325.129	249.243	0.118	0.198
-324.114	-124.058	-0.212	-0.033
-323.099	71.954	0.102	0.105
-322.085	594.984	-0.092	-0.226
-321.070	-72.107	-0.309	-0.114
-320.056	278.862	0.061	-0.108
-319.041	423.259	-0.129	0.277
-318.026	-171.593	0.200	0.007
-317.012	-114.331	-0.250	-0.048
-315.997	-90.259	-0.455	0.132
-314.983	-139.641	-0.483	-0.051
-313.968	-200.000	0.022	0.346
-312.953	468.039	-0.095	0.213
-311.939	800.000	-0.106	0.442
-310.924	174.357	-0.087	0.125
-309.910	-149.455	-0.358	-0.028
-308.895	105.835	0.284	0.335
-307.880	800.000	0.088	0.344
-306.866	-118.523	0.397	-0.070
-305.851	800.000	-0.100	-0.279
-304.837	-88.170	-0.322	-0.096
-303.822	-88.556	-0.184	-0.055
-302.807	117.141	0.223	0.272
-301.793	-130.995	-0.126	0.017
-300.778	60.917	-0.284	-0.280
-299.764	-200.000	-0.007	0.288
-298.749	273.445	-0.071	-0.124
-297.735	201.081	-0.150	0.230
-296.720	-88.221	0.072	-0.022
-295.705	800.000	-0.069	0.230
-294.691	751.441	-0.057	0.154
-293.676	146.496	-0.162	-0.216
-292.662	186.296	0.101	-0.149
-291.647	245.568	-0.064	0.108
-290.632	-200.000	-0.009	-0.354
-289.618	-53.056	-0.282	-0.129
-288.603	-141.938	-0.340	0.034
-287.589	-40.867	0.048	0.025
-286.574	-147.060	0.128	0.011
-285.559	-32.634	-0.092	0.051
-284.545	-51.260	0.211	-0.098
-283.530	288.905	0.217	0.391
-282.516	-20.740	0.004	-0.002
-281.501	-200.000	0.019	-0.286
-280.486	-61.789	-0.070	-0.029
-279.472	167.970	0.198	-0.279
-278.457	16.862	0.290	0.228
-277.443	164.475	0.138	-0.194
-276.428	-22.268	0.139	-0.084
-275.413	-69.685	0.124	0.047
-274.399	1.822	-0.088	0.063
-273.384	232.598	-0.117	0.190
-272.370	-54.688	0.052	0.024
-271.355	-200.000	-0.000	-0.021
-270.340	51.901	0.300	-0.284
-269.326	-90.859	-0.011	0.003
-268.311	-116.289	0.375	0.069
-267.297	-200.000	-0.011	-0.057
-266.282	-66.725	0.246	-0.097
-265.267	-200.000	-0.005	-0.156
-264.253	-94.046	0.198	0.054
-263.238	-50.239	-0.053	0.025
-262.224	800.000	0.076	-0.271
-261.209	-18.837	0.220	-0.136
-260.195	-200.000	-0.051	0.295
-259.180	27.138	0.323	-0.269
-258.165	-200.000	0.043	-0.215
-257.151	-66.956	0.121	-0.048
-256.136	314.910	-0.114	0.213
-255.122	-1.295	-0.190	0.133
-254.107	26.187	-0.141	-0.117
-253.092	-200.000	0.058	0.362
-252.078	-68.637	-0.279	0.107
-251.063	-71.868	0.298	-0.110
-250.049	-18.084	-0.181	0.112
-249.034	45.598	0.236	0.216
-248.019	-6.682	-0.081	-0.055
-247.005	-200.000	0.027	-0.251
-245.990	-200.000	-0.093	-0.436
-244.976	27.898	0.142	-0.119
-243.961	800.000	-0.062	-0.193
-242.946	-90.723	-0.124	-0.036
-241.932	-50.888	-0.208	0.097
-240.917	579.051	0.030	-0.073
-239.903	-121.930	0.336	-0.055
-238.888	185.115	-0.233	-0.343
-237.873	198.229	0.147	-0.223
-236.859	-58.948	-0.169	0.072
-235.844	-89.325	0.282	0.083
-234.830	-200.000	-0.004	-0.061
-233.815	-129.100	0.035	0.005
-232.800	-82.650	-0.259	0.083
-231.786	-7.864	-0.213	0.142
-230.771	207.901	0.059	-0.092
-229.757	465.879	-0.074	0.164
-228.742	-85.837	0.201	-0.062
-227.727	54.460	-0.147	0.141
-226.713	-136.228	-0.132	0.015
-225.698	-200.000	-0.066	0.395
-224.684	129.542	-0.160	-0.203
-223.669	-45.314	-0.265	-0.130
-222.655	-23.404	-0.150	-0.089
-221.640	-81.599	0.183	-0.060
-220.625	309.283	0.114	0.211
-219.611	-97.583	-0.222	0.057
-218.596	-52.190	-0.266	-0.122
-217.582	50.171	0.252	0.236
-216.567	-147.184	0.187	-0.016
-215.552	-200.000	0.019	-0.257
-214.538	141.923	-0.116	-0.152
-213.523	-200.000	-0.015	-0.078
-212.509	386.702	0.082	0.169
-211.494	-110.779	0.093	0.019
-210.479	33.404	0.117	0.101
-209.465	-19.694	0.104	0.064
-208.450	-43.003	-0.148	0.074
-207.436	-200.000	0.045	0.216
-206.421	-200.000	-0.042	0.273
-205.406	-200.000	0.002	0.049
-204.392	85.074	-0.212	0.231
-203.377	74.692	-0.212	0.221
-202.363	-117.001	0.080	0.014
-201.348	-200.000	0.017	0.130
-200.333	-200.000	0.016	0.182
-199.319	169.067	0.092	-0.130
-198.304	21.230	0.178	-0.143
-197.290	19.955	-0.125	-0.100
-196.275	-177.703	-0.133	0.003
-195.260	-86.006	-0.278	-0.085
-194.246	800.000	-0.055	-0.198
-193.231	-183.392	0.408	-0.007
-192.217	-200.000	-0.018	0.301
-191.202	-200.000	-0.004	0.082
-190.187	-123.177	0.411	-0.065
-189.173	-5.760	-0.427	-0.289
-188.158	149.262	0.136	0.182
-187.144	-97.588	0.210	-0.054
-186.129	800.000	0.041	-0.167
-185.114	10.260	0.102	-0.077
-184.100	-51.797	0.380	-0.175
-183.085	129.695	-0.037	0.047
-182.071	-77.639	-0.141	0.048
-181.056	-200.000	-0.005	0.077
-180.042	-7.402	0.142	-0.095
-179.027	678.400	-0.040	-0.104
-178.012	-132.845	-0.090	-0.011
-176.998	-59.599	-0.145	-0.061
-175.983	451.977	0.019	0.042
-174.969	-162.030	-0.067	0.003
-173.954	-200.000	0.010	-0.121
-172.939	203.035	-0.081	-0.125
-171.925	-98.440	0.166	-0.042
-170.910	-119.925	0.218	-0.037
-169.896	-200.000	-0.006	-0.176
-168.881	-31.296	0.402	0.224
-167.866	10.723	0.275	0.207
-166.852	310.543	-0.070	-0.129
-165.837	7.904	0.225	-0.167
-164.823	-200.000	-0.025	-0.140
-163.808	23.265	-0.066	-0.053
-162.793	-120.865	-0.042	0.007
-161.779	59.378	0.182	0.177
-160.764	-87.012	-0.190	0.057
-159.750	92.369	0.126	-0.141
-158.735	207.622	-0.128	0.198
-157.720	-9.267	-0.254	-0.168
-156.706	-200.000	0.065	0.424
-155.691	345.865	-0.086	0.167
-154.677	-27.973	0.344	0.197
-153.662	80.301	-0.263	-0.280
-152.647	-200.000	-0.036	-0.184
-151.633	-131.153	0.263	0.035
-150.618	75.509	0.095	-0.099
-149.604	800.000	-0.104	-0.332
-148.589	30.237	-0.177	0.149
-147.574	-60.381	0.375	-0.158
-146.560	373.590	0.132	-0.266
-145.545	173.811	-0.194	0.277
-144.531	800.000	0.031	-0.117
-143.516	-200.000	0.016	-0.491
-142.502	-137.242	0.476	0.053
-141.487	68.361	0.288	-0.292
-140.472	126.759	-0.177	0.222
-139.458	147.396	0.038	0.050
-138.443	-200.000	0.024	-0.406
-137.429	-154.638	0.247	-0.016
-136.414	-96.076	-0.206	0.054
-135.399	800.000	0.080	0.337
-134.385	-200.000	0.055	0.260
-133.370	194.618	0.155	-0.232
-132.356	-98.285	-0.207	-0.053
-131.341	-11.731	0.214	0.139
-130.326	137.947	0.147	0.191
-129.312	-149.274	0.234	0.018
-128.297	-200.000	-0.015	-0.097
-127.283	483.076	0.174	-0.391
-126.268	-45.465	-0.153	0.075
-125.253	-200.000	0.009	-0.363
-124.239	-117.824	0.138	0.024
-123.224	-2.662	-0.201	0.139
