DTS Sentinel unit serial number:	SN413079Multiplexer serial number:	ORYXHardware model number:	OX4-SRSoftware version number:	ORYX F/W v4.00 Oryx Data Collector v3.7.2.0data status	okinstallation	princeton_trtdifferential loss correction	single-endedforward channel	channel 3reverse channel	N/Adate	2019/09/10time	22:30:10forward acquisition time	60.00reverse acquisition time	0.00gamma	496.2192k internal	0.2331k external	0.2331temperature offset calibration	0.9919default loss term (dB/km)	0.3790temperature slope calibration	1.0000multiplexer offset coefficient	1.0000multiplexer slope coefficient	1.0000fibre end	0.00T internal ref (°C)	30.36T ext. ref 1 (°C)	-0.31T ext. ref 2 (°C)	23.74length (m)	temperature (°C)	Stokes	anti-Stokes-747.200	54.014	0.104	-0.101
-746.185	800.000	0.173	0.526
-745.171	-200.000	0.037	0.341
-744.156	210.680	-0.020	-0.032
-743.142	-107.824	0.314	0.069
-742.127	-200.000	0.140	0.000
-741.112	548.724	-0.054	-0.129
-740.098	800.000	-0.099	0.340
-739.083	90.643	0.011	0.012
-738.069	-10.736	0.102	-0.068
-737.054	110.060	-0.274	-0.331
-736.039	-58.553	-0.177	0.077
-735.025	668.707	0.013	0.034
-734.010	157.521	-0.192	-0.267
-732.996	-159.482	-0.036	0.002
-731.981	-200.000	-0.028	0.198
-730.966	800.000	-0.056	-0.174
-729.952	107.613	-0.292	-0.350
-728.937	-177.602	0.118	0.003
-727.923	90.931	-0.227	-0.256
-726.908	263.134	-0.080	-0.140
-725.894	-131.739	-0.233	0.031
-724.879	123.638	0.116	-0.147
-723.864	-200.000	-0.025	0.133
-722.850	-161.875	-0.548	0.028
-721.835	-200.000	0.062	-0.275
-720.821	-102.314	-0.114	-0.028
-719.806	-4.190	0.171	-0.119
-718.791	53.475	-0.152	0.147
-717.777	367.773	0.171	-0.347
-716.762	800.000	-0.032	-0.098
-715.748	565.699	0.040	0.097
-714.733	-140.711	0.189	0.020
-713.718	-200.000	-0.033	0.144
-712.704	456.724	-0.053	-0.118
-711.689	5.278	0.203	-0.151
-710.675	-154.814	0.324	0.022
-709.660	-5.342	-0.311	0.215
-708.645	-61.672	-0.419	0.177
-707.631	50.823	0.099	0.095
-706.616	120.261	-0.149	0.186
-705.602	-200.000	0.035	-0.243
-704.587	-1.216	0.234	-0.166
-703.572	57.044	0.065	-0.063
-702.558	58.045	0.063	0.062
-701.543	28.528	-0.222	0.188
-700.529	-55.204	-0.263	-0.119
-699.514	407.742	-0.044	0.093
-698.499	-62.673	-0.228	0.095
-697.485	13.304	0.153	-0.119
-696.470	-54.516	-0.104	0.047
-695.456	-160.341	-0.213	0.012
-694.441	-48.326	-0.312	0.151
-693.426	-173.981	-0.155	0.005
-692.412	694.103	-0.055	0.144
-691.397	85.673	0.071	0.078
-690.383	-128.088	0.058	-0.008
-689.368	-200.000	-0.002	-0.176
-688.354	-2.796	-0.270	0.189
-687.339	-200.000	-0.062	0.368
-686.324	-174.129	-0.418	-0.012
-685.310	100.649	0.083	0.096
-684.295	442.613	-0.123	0.270
-683.281	800.000	-0.077	0.219
-682.266	53.530	-0.191	-0.184
-681.251	-50.429	-0.373	0.177
-680.237	82.949	-0.315	0.344
-679.222	-88.918	0.265	0.079
-678.208	-200.000	-0.020	-0.354
-677.193	-23.367	0.116	0.070
-676.178	-137.942	-0.124	-0.014
-675.164	150.214	-0.019	0.026
-674.149	140.926	0.119	0.157
-673.135	-55.553	0.146	0.066
-672.120	71.328	-0.298	0.311
-671.105	-14.131	0.213	0.138
-670.091	-200.000	0.009	-0.063
-669.076	-200.000	0.017	-0.316
-668.062	99.414	0.239	0.278
-667.047	175.437	0.126	0.184
-666.032	0.756	-0.227	-0.163
-665.018	-76.865	0.108	0.038
-664.003	175.759	0.206	-0.301
-662.989	800.000	-0.039	0.142
-661.974	-114.482	-0.317	-0.061
-660.959	5.539	-0.084	-0.062
-659.945	73.058	-0.154	0.162
-658.930	781.674	0.153	0.421
-657.916	800.000	-0.079	0.252
-656.901	-160.338	0.080	-0.004
-655.886	257.060	0.196	0.338
-654.872	-125.137	-0.170	0.026
-653.857	-41.506	-0.218	0.112
-652.843	149.698	0.102	-0.139
-651.828	-162.711	0.285	0.014
-650.814	517.284	-0.148	0.347
-649.799	800.000	0.163	0.459
-648.784	-200.000	0.024	-0.312
-647.770	207.645	-0.123	-0.192
-646.755	800.000	0.083	-0.232
-645.741	-200.000	-0.051	-0.254
-644.726	-200.000	-0.011	-0.049
-643.711	85.310	-0.107	0.118
-642.697	339.339	0.139	0.272
-641.682	119.790	-0.235	-0.292
-640.668	-129.760	-0.303	-0.042
-639.653	308.162	0.076	0.141
-638.638	-200.000	0.026	0.315
-637.624	-78.991	-0.495	-0.169
-636.609	139.229	-0.069	0.091
-635.595	541.009	0.082	0.197
-634.580	800.000	0.092	-0.284
-633.565	-100.670	0.046	0.011
-632.551	173.927	-0.276	-0.399
-631.536	20.428	-0.392	-0.318
-630.522	800.000	0.040	-0.116
-629.507	294.707	-0.153	0.280
-628.492	489.547	0.097	-0.221
-627.478	-200.000	-0.017	0.130
-626.463	-200.000	0.047	-0.280
-625.449	-77.922	-0.082	0.028
-624.434	487.120	-0.044	0.102
-623.419	70.720	-0.127	0.131
-622.405	221.923	0.136	-0.220
-621.390	143.021	-0.286	0.381
-620.376	244.228	-0.233	0.393
-619.361	14.637	-0.139	-0.109
-618.346	-0.756	-0.158	0.112
-617.332	20.296	0.159	-0.129
-616.317	71.474	-0.211	0.219
-615.303	-92.681	-0.054	-0.015
-614.288	-141.279	-0.356	0.036
-613.273	795.232	0.094	-0.258
-612.259	326.781	-0.143	0.275
-611.244	390.088	-0.145	-0.301
-610.230	63.866	-0.188	-0.189
-609.215	587.430	-0.047	0.117
-608.201	-200.000	-0.013	0.203
-607.186	-200.000	0.003	0.126
-606.171	-39.268	0.213	0.112
-605.157	-200.000	-0.019	0.094
-604.142	246.251	0.038	0.063
-603.128	-76.873	0.271	-0.095
-602.113	800.000	0.056	0.243
-601.098	800.000	-0.038	-0.130
-600.084	-74.352	-0.208	0.075
-599.069	168.171	-0.085	0.122
-598.055	-114.885	0.172	0.033
-597.040	438.806	-0.051	-0.110
-596.025	-143.692	-0.246	-0.023
-595.011	79.608	0.107	0.115
-593.996	716.677	-0.148	-0.394
-592.982	163.635	0.269	-0.379
-591.967	-68.294	-0.035	0.014
-590.952	292.585	-0.192	-0.350
-589.938	-24.321	-0.037	0.022
-588.923	-11.011	-0.230	0.152
-587.909	-200.000	-0.010	-0.387
-586.894	77.586	0.099	0.105
-585.879	-49.339	-0.354	-0.169
-584.865	-13.678	0.155	0.100
-583.850	329.085	-0.090	-0.173
-582.836	37.316	-0.171	-0.152
-581.821	-200.000	0.010	0.259
-580.806	120.530	0.134	0.167
-579.792	168.356	-0.232	0.330
-578.777	800.000	0.012	-0.046
-577.763	622.982	-0.069	0.173
-576.748	-38.428	0.211	0.112
-575.733	151.587	-0.212	0.289
-574.719	-9.403	0.106	0.071
-573.704	-36.822	0.163	-0.087
-572.690	767.977	-0.117	0.317
-571.675	162.390	-0.096	0.134
-570.661	-98.107	0.357	-0.092
-569.646	41.549	-0.223	-0.202
-568.631	25.177	0.179	-0.149
-567.617	688.349	0.098	0.257
-566.602	-107.778	0.297	-0.065
-565.588	43.145	-0.197	0.179
-564.573	533.739	-0.058	-0.137
-563.558	800.000	-0.020	0.064
-562.544	-49.210	0.054	0.026
-561.529	-200.000	0.000	-0.032
-560.515	492.737	-0.091	0.208
-559.500	800.000	-0.079	0.326
-558.485	170.151	0.075	-0.107
-557.471	-58.127	0.373	0.163
-556.456	787.616	0.041	-0.112
-555.442	800.000	0.026	0.114
-554.427	-131.647	0.248	0.033
-553.412	-176.354	0.184	-0.005
-552.398	-109.111	-0.184	-0.039
-551.383	-138.944	0.541	0.059
-550.369	692.387	0.183	0.478
-549.354	14.212	0.226	0.176
-548.339	800.000	0.061	-0.210
-547.325	-103.238	-0.036	0.009
-546.310	-145.787	-0.281	0.025
-545.296	-5.977	-0.214	-0.146
-544.281	-200.000	0.031	-0.178
-543.266	409.750	-0.079	-0.168
-542.252	-200.000	0.005	-0.515
-541.237	800.000	-0.085	-0.299
-540.223	-66.064	-0.203	0.081
-539.208	68.171	0.068	-0.069
-538.193	68.548	-0.016	0.016
-537.179	-200.000	0.026	0.242
-536.164	800.000	0.011	-0.046
-535.150	424.994	-0.124	0.266
-534.135	-200.000	0.032	-0.195
-533.121	-98.015	-0.398	0.102
-532.106	-200.000	-0.003	0.118
-531.091	800.000	0.034	-0.127
-530.077	-39.740	0.058	-0.030
-529.062	154.972	-0.100	-0.138
-528.048	-200.000	0.008	-0.198
-527.033	-200.000	-0.008	-0.072
-526.018	291.088	0.039	-0.071
-525.004	326.415	-0.118	0.225
-523.989	91.086	-0.047	0.052
-522.975	55.231	-0.126	-0.122
-521.960	72.760	0.219	-0.228
-520.945	-151.267	-0.052	-0.004
-519.931	-128.814	0.260	-0.037
-518.916	645.936	-0.072	0.183
-517.902	244.216	-0.124	0.208
-516.887	247.924	-0.168	-0.283
-515.872	-58.515	0.176	-0.076
-514.858	-200.000	-0.001	-0.147
-513.843	-124.550	-0.490	0.076
-512.829	-148.127	-0.379	0.031
-511.814	396.372	0.017	-0.035
-510.799	-120.129	0.166	0.028
-509.785	-53.926	-0.166	-0.075
-508.770	-58.029	-0.239	-0.104
-507.756	-85.906	0.344	-0.106
-506.741	-126.101	-0.085	-0.013
-505.726	49.717	0.179	0.168
-504.712	281.210	-0.124	-0.221
-503.697	450.818	-0.040	-0.089
-502.683	800.000	-0.019	-0.080
-501.668	269.320	0.154	-0.269
-500.653	412.187	-0.059	0.124
-499.639	39.287	0.165	0.147
-498.624	167.298	0.090	0.128
-497.610	800.000	0.108	-0.319
-496.595	154.891	0.044	-0.060
-495.581	-138.932	-0.169	-0.018
-494.566	11.795	0.093	-0.071
-493.551	95.066	-0.193	-0.219
-492.537	30.505	-0.275	0.234
-491.522	-57.037	0.265	0.117
-490.508	195.319	0.107	-0.163
-489.493	-200.000	-0.032	0.346
-488.478	-200.000	0.012	-0.175
-487.464	562.635	0.115	0.276
-486.449	800.000	-0.037	-0.147
-485.435	-131.496	-0.200	0.026
-484.420	-141.358	-0.094	0.009
-483.405	-200.000	-0.043	-0.350
-482.391	-29.248	0.187	-0.107
-481.376	6.125	-0.197	0.146
-480.362	40.868	-0.195	-0.175
-479.347	-200.000	-0.024	0.459
-478.332	219.779	-0.064	-0.102
-477.318	206.796	0.162	-0.251
-476.303	-34.695	-0.350	-0.191
-475.289	2.774	-0.144	-0.104
-474.274	800.000	0.012	-0.049
-473.259	-78.681	0.102	0.035
-472.245	-49.742	-0.189	-0.089
-471.230	409.159	0.059	0.124
-470.216	197.141	-0.180	0.273
-469.201	-52.221	0.181	0.083
-468.186	-200.000	0.023	-0.193
-467.172	-40.600	0.148	-0.076
-466.157	301.114	0.155	0.284
-465.143	-5.843	-0.102	-0.070
-464.128	-152.577	0.196	-0.014
-463.113	345.478	-0.237	0.463
-462.099	-200.000	-0.001	-0.091
-461.084	22.018	0.161	-0.130
-460.070	298.659	0.164	0.300
-459.055	-200.000	-0.030	0.189
-458.040	-50.684	-0.252	0.118
-457.026	-59.637	-0.305	0.130
-456.011	-13.946	-0.262	0.169
-454.997	-200.000	0.000	0.070
-453.982	295.173	-0.065	-0.118
-452.968	-125.139	-0.229	0.035
-451.953	373.897	-0.210	0.425
-450.938	800.000	0.051	0.219
-449.924	-13.534	-0.374	-0.241
-448.909	-200.000	-0.001	-0.072
-447.895	788.620	-0.082	0.223
-446.880	-168.090	-0.216	-0.008
-445.865	-109.810	0.202	-0.042
-444.851	-103.359	-0.124	-0.029
-443.836	183.853	0.180	-0.265
-442.822	-20.367	-0.233	0.143
-441.807	96.770	0.123	-0.141
-440.792	-127.422	0.100	-0.014
-439.778	52.592	0.074	-0.070
-438.763	-91.767	-0.265	-0.075
-437.749	6.018	0.535	0.394
-436.734	-114.952	0.232	0.044
-435.719	-48.611	0.228	0.109
-434.705	-200.000	0.031	0.519
-433.690	38.487	-0.104	-0.093
-432.676	-200.000	-0.012	0.184
-431.661	-140.221	0.131	0.014
-430.646	800.000	0.053	-0.178
-429.632	19.855	0.314	-0.251
-428.617	-200.000	0.001	0.205
-427.603	56.165	-0.220	0.212
-426.588	-135.490	-0.251	0.030
-425.573	-34.022	0.357	-0.195
-424.559	-66.599	0.149	0.059
-423.544	19.326	0.184	-0.147
-422.530	-49.366	0.200	0.095
-421.515	-124.776	0.163	-0.025
-420.500	-200.000	0.034	0.311
-419.486	298.683	-0.107	-0.196
-418.471	-64.893	-0.083	0.033
-417.457	-111.631	-0.192	0.039
-416.442	-200.000	-0.029	0.211
-415.428	162.828	0.089	0.124
-414.413	508.571	0.040	0.092
-413.398	-35.391	-0.124	-0.067
-412.384	-200.000	-0.008	0.146
-411.369	-87.609	0.181	-0.054
-410.355	-153.616	0.224	0.015
-409.340	-52.178	-0.126	0.058
-408.325	-110.196	0.185	-0.038
-407.311	245.180	0.141	0.235
-406.296	33.684	0.160	-0.138
-405.282	800.000	0.009	-0.028
-404.267	-200.000	-0.015	-0.096
-403.252	-170.756	0.378	-0.013
-402.238	-71.115	-0.044	0.016
-401.223	-40.647	-0.200	-0.103
-400.209	51.657	0.162	-0.153
-399.194	63.808	-0.413	-0.412
-398.179	62.607	0.074	0.073
-397.165	52.530	-0.154	-0.146
-396.150	433.422	-0.051	0.110
-395.136	-78.903	0.221	-0.075
-394.121	1.230	-0.164	-0.117
-393.106	44.578	0.176	-0.161
-392.092	-125.328	0.119	0.018
-391.077	-50.245	0.091	0.043
-390.063	-200.000	0.018	-0.164
-389.048	52.566	-0.155	0.147
-388.033	111.083	0.168	-0.201
-387.019	-46.004	0.032	-0.016
-386.004	73.204	-0.092	0.095
-384.990	800.000	0.067	0.264
-383.975	54.913	-0.122	0.117
-382.960	-200.000	-0.016	0.209
-381.946	52.216	0.076	0.072
-380.931	-57.565	-0.200	0.087
-379.917	-181.826	0.356	-0.007
-378.902	106.078	0.138	-0.163
-377.888	-13.160	0.045	0.029
-376.873	35.848	0.103	-0.090
-375.858	-124.342	0.016	0.002
-374.844	-7.642	0.081	-0.054
-373.829	179.183	0.051	-0.074
-372.815	-25.059	-0.303	-0.178
-371.800	-77.894	-0.134	0.046
-370.785	-93.678	0.079	-0.022
-369.771	-151.474	-0.180	0.013
-368.756	-200.000	0.010	-0.058
-367.742	-155.838	-0.186	0.012
-366.727	157.977	0.217	0.298
-365.712	221.478	-0.112	-0.179
-364.698	-78.668	-0.257	-0.087
-363.683	64.895	-0.083	-0.083
-362.669	189.536	-0.190	-0.282
-361.654	350.181	-0.027	0.053
-360.639	800.000	-0.120	0.377
-359.625	176.048	-0.161	0.232
-358.610	-104.414	0.037	0.009
-357.596	-200.000	0.056	0.243
-356.581	-40.865	-0.271	0.139
-355.566	-140.139	-0.109	0.011
-354.552	2.878	-0.241	0.173
-353.537	-22.226	-0.227	-0.137
-352.523	800.000	-0.013	-0.047
-351.508	-200.000	0.041	0.225
-350.493	504.422	-0.172	-0.395
-349.479	175.581	-0.217	-0.312
-348.464	-104.269	-0.245	-0.056
-347.450	-50.636	-0.090	0.042
-346.435	87.141	0.117	-0.128
-345.420	-200.000	-0.053	0.259
-344.406	-73.805	0.208	-0.075
-343.391	-179.886	0.269	-0.006
-342.377	306.547	0.156	0.287
-341.362	-23.383	0.469	0.279
-340.348	-126.854	-0.107	-0.016
-339.333	12.514	-0.107	0.082
-338.318	800.000	-0.049	-0.171
-337.304	74.790	0.112	-0.117
-336.289	-75.083	0.407	-0.144
-335.275	-118.638	-0.346	-0.061
-334.260	357.396	0.084	-0.167
-333.245	551.791	0.060	-0.143
-332.231	-18.690	0.160	-0.099
-331.216	-14.658	0.030	-0.019
-330.202	800.000	0.044	0.129
-329.187	-15.070	0.223	0.141
-328.172	34.439	0.226	-0.196
-327.158	800.000	0.034	0.145
-326.143	-200.000	0.007	-0.199
-325.129	-110.019	-0.084	0.017
-324.114	437.294	0.130	0.282
-323.099	-114.148	0.174	-0.033
-322.085	100.077	0.276	0.316
-321.070	-44.278	-0.194	-0.096
-320.056	122.968	-0.088	0.110
-319.041	7.290	-0.147	-0.109
-318.026	-200.000	-0.024	-0.197
-317.012	3.560	-0.254	-0.184
-315.997	800.000	0.077	-0.242
-314.983	-200.000	0.012	-0.365
-313.968	-135.001	0.259	0.031
-312.953	-32.173	0.291	0.161
-311.939	-111.755	0.086	0.017
-310.924	-200.000	-0.159	0.000
-309.910	-191.799	-0.323	-0.003
-308.895	-48.991	0.100	0.048
-307.880	-130.014	-0.203	-0.027
-306.866	214.697	0.136	-0.213
-305.851	27.298	-0.176	-0.146
-304.837	525.355	-0.087	0.202
-303.822	140.125	-0.130	0.169
-302.807	-70.663	0.308	-0.115
-301.793	-148.911	0.243	0.019
-300.778	86.214	0.146	0.159
-299.764	-200.000	0.034	-0.179
-298.749	38.757	0.359	0.317
-297.735	-64.175	0.160	-0.065
-296.720	187.002	0.242	-0.357
-295.705	-200.000	0.025	0.309
-294.691	800.000	0.023	-0.066
-293.676	800.000	-0.015	0.057
-292.662	-115.718	-0.349	0.065
-291.647	-118.722	0.088	-0.015
-290.632	-28.966	0.116	0.066
-289.618	227.833	-0.208	0.335
-288.603	-192.750	-0.188	0.002
-287.589	-83.018	0.378	0.121
-286.574	667.900	-0.011	0.028
-285.559	64.879	0.245	0.244
-284.545	-108.902	-0.247	-0.052
-283.530	800.000	0.143	0.495
-282.516	17.776	0.272	0.214
-281.501	17.821	0.024	0.019
-280.486	297.916	0.087	-0.158
-279.472	-93.176	0.087	-0.024
-278.457	-200.000	0.032	-0.327
-277.443	776.609	-0.048	-0.131
-276.428	632.897	0.075	-0.189
-275.413	380.772	0.104	-0.210
-274.399	-72.300	-0.208	0.076
-273.384	-16.980	-0.034	0.021
-272.370	520.851	-0.028	0.065
-271.355	164.443	-0.057	0.080
-270.340	-113.320	-0.294	-0.057
-269.326	800.000	0.105	-0.420
-268.311	-64.000	0.174	-0.070
-267.297	-36.598	-0.143	-0.076
-266.282	-200.000	-0.025	0.133
-265.267	175.800	0.077	0.110
-264.253	444.485	-0.040	-0.086
-263.238	274.053	0.126	0.220
-262.224	101.393	-0.169	-0.195
-261.209	37.155	0.137	0.120
-260.195	800.000	-0.020	0.066
-259.180	95.756	0.283	0.319
-258.165	15.226	0.317	0.246
-257.151	36.430	0.112	0.097
-256.136	383.180	-0.116	0.235
-255.122	-41.844	-0.316	-0.160
-254.107	-200.000	0.007	0.124
-253.092	-200.000	0.040	0.180
-252.078	595.251	-0.061	0.149
-251.063	37.339	-0.288	-0.252
-250.049	-100.885	0.269	-0.065
-249.034	-92.546	0.120	0.033
-248.019	295.120	0.023	0.041
-247.005	273.536	0.189	0.330
-245.990	-144.493	0.153	0.014
-244.976	-200.000	-0.043	0.218
-243.961	-200.000	0.002	-0.204
-242.946	-10.885	0.204	-0.133
-241.932	800.000	0.102	-0.340
-240.917	-81.238	-0.162	0.053
-239.903	-47.051	0.130	-0.063
-238.888	-75.180	0.352	0.124
-237.873	30.372	-0.083	-0.070
-236.859	-200.000	-0.056	-0.277
-235.844	201.647	-0.063	0.095
-234.830	-7.483	0.283	-0.189
-233.815	-110.742	-0.278	0.057
-232.800	-65.908	-0.176	-0.069
-231.786	-200.000	-0.004	0.150
-230.771	800.000	-0.086	-0.237
-229.757	284.030	-0.099	-0.175
-228.742	-84.501	0.164	0.051
-227.727	800.000	-0.086	0.238
-226.713	-129.459	-0.348	0.048
-225.698	167.944	0.224	0.314
-224.684	-200.000	0.028	0.174
-223.669	176.272	-0.136	-0.195
-222.655	597.511	0.164	-0.400
-221.640	140.536	0.212	0.276
-220.625	-200.000	0.008	0.354
-219.611	-39.362	-0.180	-0.093
-218.596	364.261	0.125	-0.248
-217.582	209.829	0.096	0.149
-216.567	-65.152	0.111	-0.044
-215.552	-120.200	-0.404	-0.068
-214.538	-107.250	0.344	0.075
-213.523	-200.000	-0.029	-0.199
-212.509	-200.000	-0.001	0.355
-211.494	127.395	0.141	-0.176
-210.479	91.957	0.203	0.225
-209.465	588.043	0.115	-0.280
-208.450	202.585	0.077	0.117
-207.436	800.000	-0.062	-0.195
-206.421	-200.000	-0.022	-0.379
-205.406	-200.000	0.070	-0.345
-204.392	80.702	0.191	-0.202
-203.377	-69.326	-0.414	0.157
-202.363	-200.000	0.017	-0.194
-201.348	-200.000	0.074	-0.337
-200.333	800.000	0.084	-0.331
-199.319	404.336	-0.055	-0.113
-198.304	166.634	0.047	-0.066
-197.290	-112.962	0.096	-0.019
-196.275	26.768	-0.106	-0.088
-195.260	-83.053	0.116	-0.037
-194.246	-200.000	0.099	-0.000
-193.231	-41.547	0.132	0.067
-192.217	-4.401	-0.251	-0.171
-191.202	800.000	-0.060	-0.197
-190.187	410.944	0.113	-0.236
-189.173	-43.545	-0.104	0.052
-188.158	800.000	0.110	-0.332
-187.144	792.720	0.087	-0.235
-186.129	-162.873	0.273	-0.013
-185.114	165.206	0.162	-0.225
-184.100	-200.000	0.027	-0.147
-183.085	800.000	0.069	0.227
-182.071	800.000	-0.033	-0.104
-181.056	41.161	-0.127	0.113
-180.042	-179.538	0.215	-0.005
-179.027	71.802	-0.123	-0.126
-178.012	-51.488	-0.282	0.130
-176.998	6.677	0.193	0.141
-175.983	-200.000	-0.040	-0.198
-174.969	422.489	-0.087	-0.184
-173.954	-200.000	-0.012	0.057
-172.939	8.069	-0.119	-0.088
-171.925	560.537	0.123	-0.292
-170.910	54.676	-0.329	0.312
-169.896	-165.639	-0.153	-0.007
-168.881	-63.691	0.342	-0.138
-167.866	237.953	-0.105	0.171
-166.852	250.483	0.070	-0.118
-165.837	735.691	0.106	0.279
-164.823	439.943	-0.071	0.152
-163.808	109.670	-0.120	0.142
-162.793	-128.341	0.255	-0.036
-161.779	-200.000	0.019	0.207
-160.764	-169.333	-0.203	-0.007
-159.750	-200.000	0.028	0.225
-158.735	-179.074	-0.165	-0.004
-157.720	-102.102	0.267	-0.063
-156.706	-200.000	-0.006	-0.156
-155.691	800.000	0.062	0.196
-154.677	218.312	0.179	0.281
-153.662	-200.000	0.026	0.121
-152.647	-111.052	0.180	0.036
-151.633	725.473	-0.121	0.316
-150.618	-200.000	-0.012	0.182
-149.604	51.647	-0.078	0.073
-148.589	-64.623	0.425	0.170
-147.574	-29.691	0.296	-0.166
-146.560	189.184	-0.076	0.112
-145.545	207.188	-0.145	0.222
-144.531	217.933	0.189	0.296
-143.516	79.425	0.137	-0.144
-142.502	120.486	-0.213	-0.260
-141.487	34.963	-0.214	0.184
-140.472	283.944	0.087	-0.153
-139.458	-43.511	-0.216	-0.107
-138.443	-113.353	0.272	0.052
-137.429	800.000	0.057	-0.216
-136.414	-146.626	0.338	-0.029
-135.399	5.487	0.105	-0.076
-134.385	800.000	-0.075	-0.208
-133.370	-135.134	0.463	0.055
-132.356	800.000	-0.069	-0.197
-131.341	-148.140	0.399	0.032
-130.326	219.483	-0.082	0.129
-129.312	-200.000	0.011	-0.153
-128.297	-200.000	0.013	0.058
-127.283	278.248	0.165	0.288
-126.268	-6.620	0.197	-0.132
-125.253	-89.112	0.060	-0.018
-124.239	-68.738	-0.180	-0.068
-123.224	77.722	-0.175	0.183
-122.210	28.788	0.145	0.120
-121.195	280.448	0.199	0.350
-120.180	268.954	0.210	0.362
