DTS Sentinel unit serial number:	SN413079Multiplexer serial number:	ORYXHardware model number:	OX4-SRSoftware version number:	ORYX F/W v4.00 Oryx Data Collector v3.7.2.0data status	okinstallation	princeton_trtdifferential loss correction	single-endedforward channel	channel 3reverse channel	N/Adate	2019/09/12time	04:54:10forward acquisition time	60.00reverse acquisition time	0.00gamma	496.2192k internal	0.2323k external	0.2323temperature offset calibration	1.0053default loss term (dB/km)	0.3790temperature slope calibration	1.0000multiplexer offset coefficient	1.0000multiplexer slope coefficient	1.0000fibre end	0.00T internal ref (°C)	31.69T ext. ref 1 (°C)	1.85T ext. ref 2 (°C)	27.18length (m)	temperature (°C)	Stokes	anti-Stokes-747.200	800.000	-0.093	0.378
-746.185	34.704	-0.241	0.212
-745.171	-200.000	-0.070	0.478
-744.156	-200.000	0.058	0.354
-743.142	10.051	-0.175	-0.134
-742.127	-0.413	-0.304	-0.218
-741.112	561.447	-0.108	-0.263
-740.098	-39.282	0.251	0.133
-739.083	800.000	-0.086	0.343
-738.069	26.741	-0.396	0.335
-737.054	649.384	-0.144	0.373
-736.039	-42.067	-0.296	0.153
-735.025	-69.397	0.186	0.072
-734.010	-75.889	0.076	0.027
-732.996	-48.963	-0.261	-0.126
-731.981	-96.057	-0.182	-0.049
-730.966	-200.000	0.035	0.421
-729.952	-131.165	-0.019	-0.003
-728.937	489.586	0.098	-0.226
-727.923	244.072	0.148	-0.251
-726.908	-42.298	-0.170	-0.088
-725.894	-200.000	-0.064	-0.446
-724.879	31.408	0.186	0.161
-723.864	638.064	0.030	0.076
-722.850	800.000	0.046	-0.159
-721.835	-82.828	-0.176	0.057
-720.821	800.000	0.075	0.220
-719.806	3.468	-0.187	-0.137
-718.791	-66.538	-0.347	0.139
-717.777	800.000	-0.100	0.341
-716.762	-0.750	-0.018	-0.013
-715.748	461.751	-0.110	0.248
-714.733	-37.060	-0.163	0.088
-713.718	481.660	0.105	-0.241
-712.704	-200.000	-0.023	-0.177
-711.689	75.120	-0.172	0.183
-710.675	-38.190	0.211	0.113
-709.660	-81.268	0.190	-0.063
-708.645	196.795	-0.032	-0.049
-707.631	362.229	0.038	-0.077
-706.616	101.234	0.145	-0.170
-705.602	800.000	-0.042	-0.127
-704.587	-125.429	0.117	0.018
-703.572	-73.087	0.059	0.022
-702.558	-200.000	-0.029	-0.271
-701.543	-200.000	-0.007	-0.052
-700.529	162.816	0.123	-0.174
-699.514	411.028	0.084	0.180
-698.499	-200.000	-0.023	-0.125
-697.485	-94.089	-0.256	0.071
-696.470	471.948	0.119	0.270
-695.456	669.706	-0.073	-0.189
-694.441	-200.000	0.028	-0.137
-693.426	23.124	0.130	0.108
-692.412	-9.279	0.162	-0.109
-691.397	319.943	0.258	-0.494
-690.383	-200.000	-0.047	0.222
-689.368	-121.246	-0.503	0.085
-688.354	-50.382	0.136	0.065
-687.339	46.232	-0.089	0.083
-686.324	-200.000	0.052	0.594
-685.310	-200.000	0.065	-0.320
-684.295	51.874	0.356	0.341
-683.281	-200.000	-0.003	-0.180
-682.266	-37.033	-0.155	-0.084
-681.251	-138.243	-0.166	-0.018
-680.237	58.405	-0.138	-0.136
-679.222	-90.292	0.187	-0.055
-678.208	0.419	0.157	-0.113
-677.193	-200.000	-0.023	0.107
-676.178	-200.000	0.002	0.122
-675.164	549.235	-0.024	0.057
-674.149	-149.002	-0.309	-0.025
-673.135	255.095	-0.129	-0.222
-672.120	-70.774	0.272	-0.104
-671.105	140.470	-0.192	-0.255
-670.091	306.643	0.074	-0.140
-669.076	788.492	-0.107	-0.297
-668.062	152.816	0.035	0.049
-667.047	-99.103	0.066	-0.017
-666.032	-112.966	0.302	-0.060
-665.018	-112.690	0.019	0.004
-664.003	72.211	0.027	0.029
-662.989	269.892	0.051	-0.091
-661.974	-118.851	-0.140	0.025
-660.959	284.852	0.141	0.256
-659.945	-150.037	0.237	-0.019
-658.930	-200.000	-0.001	0.146
-657.916	-127.959	0.339	-0.049
-656.901	-200.000	-0.061	-0.391
-655.886	119.255	-0.052	0.065
-654.872	-200.000	-0.049	0.259
-653.857	-103.265	0.295	0.070
-652.843	3.859	-0.146	-0.107
-651.828	-121.441	0.153	-0.026
-650.814	-200.000	0.025	0.174
-649.799	123.641	-0.037	0.046
-648.784	-152.353	0.069	-0.005
-647.770	-174.371	-0.265	0.008
-646.755	-116.867	0.069	-0.013
-645.741	79.936	0.128	0.138
-644.726	4.742	0.143	0.106
-643.711	-117.125	0.245	0.045
-642.697	-18.257	0.028	0.018
-641.682	-93.692	0.158	-0.044
-640.668	-200.000	0.038	0.171
-639.653	127.936	0.037	-0.047
-638.638	570.356	0.135	0.329
-637.624	8.027	-0.052	0.039
-636.609	29.511	0.218	0.186
-635.595	583.513	-0.183	0.452
-634.580	-9.923	-0.015	0.010
-633.565	639.323	0.022	-0.057
-632.551	-200.000	0.050	-0.235
-631.536	-136.078	-0.283	0.033
-630.522	92.314	-0.159	0.181
-629.507	9.091	0.082	0.062
-628.492	-200.000	0.051	-0.277
-627.478	-133.032	0.121	0.015
-626.463	-174.754	-0.263	0.007
-625.449	-20.053	0.139	-0.086
-624.434	116.047	-0.148	0.182
-623.419	800.000	-0.033	-0.093
-622.405	-200.000	0.002	-0.016
-621.390	-200.000	-0.027	-0.199
-620.376	-87.609	-0.283	0.086
-619.361	-200.000	0.023	-0.105
-618.346	-88.001	-0.145	-0.044
-617.332	554.628	-0.124	0.300
-616.317	-41.838	0.300	0.154
-615.303	800.000	-0.036	-0.122
-614.288	-78.718	0.199	-0.068
-613.273	-108.202	-0.340	0.074
-612.259	-16.527	0.064	-0.041
-611.244	-88.402	0.290	0.087
-610.230	388.553	0.084	-0.175
-609.215	194.427	0.150	0.229
-608.201	800.000	-0.046	0.145
-607.186	299.955	-0.021	0.039
-606.171	622.239	0.158	-0.401
-605.157	-58.294	-0.029	-0.013
-604.142	-200.000	-0.066	0.295
-603.128	566.095	0.037	-0.090
-602.113	-200.000	0.026	-0.188
-601.098	0.846	0.261	-0.188
-600.084	68.185	-0.049	-0.051
-599.069	252.161	0.108	0.185
-598.055	800.000	-0.081	-0.259
-597.040	-200.000	-0.006	-0.407
-596.025	45.173	0.232	0.215
-595.011	-141.875	0.066	0.007
-593.996	176.686	0.103	-0.151
-592.982	164.997	-0.264	-0.374
-591.967	-200.000	0.011	-0.123
-590.952	-9.219	-0.147	-0.099
-589.938	-48.150	-0.321	-0.156
-588.923	168.496	-0.110	-0.157
-587.909	-12.092	-0.304	-0.200
-586.894	489.710	0.108	0.248
-585.879	190.343	0.097	-0.147
-584.865	800.000	0.017	-0.062
-583.850	-200.000	0.001	-0.150
-582.836	113.818	0.016	-0.020
-581.821	45.851	0.279	0.259
-580.806	549.624	-0.127	-0.304
-579.792	211.667	-0.127	-0.200
-578.777	160.387	0.230	0.322
-577.763	-23.287	-0.254	0.153
-576.748	-51.805	0.063	-0.029
-575.733	800.000	-0.031	-0.117
-574.719	-50.549	0.324	-0.153
-573.704	13.667	-0.168	-0.131
-572.690	-57.707	-0.151	0.066
-571.675	555.498	0.019	0.046
-570.661	62.937	-0.221	-0.222
-569.646	-200.000	0.024	-0.142
-568.631	105.051	-0.040	-0.048
-567.617	139.534	-0.235	-0.310
-566.602	800.000	-0.030	0.110
-565.588	-135.158	-0.276	-0.033
-564.573	800.000	-0.153	-0.535
-563.558	28.340	0.083	-0.070
-562.544	69.663	0.017	0.018
-561.529	100.846	0.071	-0.082
-560.515	-68.610	0.125	-0.049
-559.500	-27.036	-0.132	0.077
-558.485	-65.052	0.273	-0.110
-557.471	-200.000	0.040	-0.179
-556.456	-40.852	0.074	0.038
-555.442	-118.652	0.077	-0.014
-554.427	250.170	-0.158	0.269
-553.412	-200.000	-0.033	0.197
-552.398	-3.284	-0.169	-0.118
-551.383	773.674	-0.046	0.127
-550.369	49.096	-0.201	-0.189
-549.354	800.000	-0.063	-0.219
-548.339	-200.000	0.033	0.227
-547.325	-117.566	-0.417	0.075
-546.310	-200.000	0.003	-0.256
-545.296	-76.749	-0.075	0.026
-544.281	48.013	0.289	-0.271
-543.266	350.127	0.083	-0.164
-542.252	-200.000	-0.005	0.128
-541.237	740.021	-0.071	-0.192
-540.223	39.140	-0.087	0.078
-539.208	165.172	0.050	0.071
-538.193	-107.455	0.189	0.042
-537.179	-162.730	0.364	0.018
-536.164	-142.326	-0.024	-0.002
-535.150	-200.000	0.007	-0.061
-534.135	-200.000	-0.046	-0.214
-533.121	-29.080	0.115	-0.066
-532.106	265.042	-0.088	-0.154
-531.091	236.784	-0.134	-0.222
-530.077	800.000	-0.084	-0.335
-529.062	-163.169	-0.112	0.005
-528.048	-108.086	-0.158	0.034
-527.033	-29.223	-0.176	0.101
-526.018	-81.361	0.174	-0.057
-525.004	800.000	-0.027	-0.103
-523.989	462.445	0.095	-0.212
-522.975	-30.763	-0.130	0.074
-521.960	800.000	-0.088	-0.276
-520.945	-141.307	0.340	-0.035
-519.931	-57.282	0.108	0.048
-518.916	-139.874	0.065	0.007
-517.902	800.000	-0.038	0.145
-516.887	163.301	0.075	-0.106
-515.872	-200.000	-0.045	0.398
-514.858	-36.900	0.171	0.092
-513.843	373.225	0.098	-0.199
-512.829	-200.000	0.006	0.049
-511.814	-114.437	-0.294	0.057
-510.799	-200.000	0.011	0.051
-509.785	-10.870	-0.319	-0.211
-508.770	-110.158	0.338	-0.071
-507.756	-200.000	0.005	0.570
-506.741	45.999	-0.190	0.176
-505.726	-123.172	0.328	-0.053
-504.712	-138.422	0.360	-0.040
-503.697	-50.681	0.246	-0.116
-502.683	258.730	-0.209	-0.361
-501.668	-108.956	-0.184	-0.039
-500.653	35.234	0.168	-0.147
-499.639	173.565	-0.121	-0.175
-498.624	800.000	0.121	-0.372
-497.610	-53.004	0.041	0.019
-496.595	-200.000	-0.006	0.116
-495.581	303.449	0.109	-0.202
-494.566	-159.923	-0.280	0.015
-493.551	-140.061	0.182	0.019
-492.537	58.163	-0.263	-0.258
-491.522	-54.389	0.172	0.078
-490.508	59.611	-0.020	0.020
-489.493	-200.000	0.021	0.091
-488.478	-16.024	0.263	0.167
-487.464	-122.219	-0.054	0.009
-486.449	67.791	-0.082	0.084
-485.435	31.483	0.116	0.100
-484.420	800.000	-0.044	0.149
-483.405	-84.257	-0.133	-0.042
-482.391	-144.159	0.091	0.009
-481.376	21.882	0.205	-0.167
-480.362	-93.981	0.095	0.026
-479.347	46.104	0.235	-0.217
-478.332	-200.000	-0.009	0.056
-477.318	800.000	-0.059	0.210
-476.303	1.035	0.047	-0.033
-475.289	401.546	-0.139	0.293
-474.274	-79.206	-0.163	-0.055
-473.259	800.000	0.030	-0.093
-472.245	-63.190	0.444	-0.183
-471.230	-4.369	0.237	0.164
-470.216	-158.449	0.176	-0.010
-469.201	109.310	-0.153	0.183
-468.186	-200.000	0.013	-0.132
-467.172	15.547	-0.173	0.136
-466.157	274.939	-0.079	0.139
-465.143	128.628	-0.123	0.157
-464.128	-200.000	0.024	-0.113
-463.113	301.093	-0.139	0.257
-462.099	-111.933	-0.092	-0.019
-461.084	800.000	0.081	-0.239
-460.070	-163.596	-0.090	-0.004
-459.055	-79.245	-0.231	0.078
-458.040	53.900	-0.121	0.116
-457.026	-59.499	-0.229	-0.098
-456.011	45.152	0.057	0.052
-454.997	-112.367	-0.116	0.023
-453.982	-51.961	-0.024	0.011
-452.968	682.292	-0.161	0.420
-451.953	-200.000	0.019	-0.122
-450.938	669.419	-0.127	-0.328
-449.924	-200.000	0.013	0.143
-448.909	-73.307	-0.173	-0.063
-447.895	-89.841	-0.161	0.047
-446.880	-123.825	-0.202	0.032
-445.865	174.101	-0.084	-0.121
-444.851	41.221	-0.055	0.050
-443.836	13.499	0.189	-0.147
-442.822	-171.287	-0.345	0.012
-441.807	-99.390	0.265	0.067
-440.792	-45.064	0.228	-0.113
-439.778	24.163	-0.139	-0.114
-438.763	499.116	-0.054	-0.125
-437.749	511.371	-0.061	-0.141
-436.734	-127.212	-0.225	0.033
-435.719	-50.958	-0.380	-0.178
-434.705	800.000	0.043	0.185
-433.690	-99.715	-0.129	0.032
-432.676	-200.000	-0.009	-0.369
-431.661	-8.477	-0.086	0.058
-430.646	379.254	-0.035	-0.071
-429.632	387.852	-0.059	-0.122
-428.617	-139.003	-0.241	0.026
-427.603	-163.732	0.122	-0.006
-426.588	800.000	0.099	0.380
-425.573	318.444	0.075	-0.141
-424.559	144.538	0.175	0.233
-423.544	-200.000	-0.043	0.576
-422.530	224.324	0.112	0.180
-421.515	-125.680	-0.234	0.035
-420.500	-200.000	0.042	-0.244
-419.486	800.000	0.101	-0.283
-418.471	-59.407	0.167	-0.072
-417.457	512.469	-0.120	-0.278
-416.442	800.000	-0.020	0.065
-415.428	800.000	-0.055	0.155
-414.413	103.250	-0.142	0.166
-413.398	342.858	-0.030	-0.059
-412.384	800.000	-0.106	-0.306
-411.369	-115.241	-0.368	0.069
-410.355	-100.729	0.021	-0.005
-409.340	800.000	0.011	0.039
-408.325	-48.364	0.131	-0.063
-407.311	-32.472	0.292	0.162
-406.296	71.354	-0.073	0.075
-405.282	-100.036	0.203	-0.050
-404.267	-0.843	0.141	0.099
-403.252	93.233	-0.034	-0.039
-402.238	-50.302	-0.276	-0.130
-401.223	-200.000	-0.004	0.032
-400.209	-200.000	-0.007	0.431
-399.194	2.926	0.068	0.049
-398.179	-101.208	0.252	0.061
-397.165	800.000	-0.046	0.176
-396.150	258.591	-0.104	0.178
-395.136	-200.000	-0.018	0.088
-394.121	6.964	0.197	-0.146
-393.106	-200.000	0.058	-0.476
-392.092	-125.584	0.239	0.036
-391.077	-108.876	-0.216	0.046
-390.063	454.485	-0.035	0.077
-389.048	397.766	0.127	-0.265
-388.033	250.212	-0.256	-0.432
-387.019	800.000	0.049	0.193
-386.004	-46.966	0.182	0.089
-384.990	-85.909	-0.085	0.026
-383.975	-51.716	-0.100	0.046
-382.960	65.893	-0.248	0.251
-381.946	-127.092	-0.143	0.021
-380.931	182.092	-0.248	0.364
-379.917	-158.462	0.110	0.006
-378.902	69.328	-0.294	-0.301
-377.888	115.605	-0.047	-0.057
-376.873	800.000	-0.049	0.207
-375.858	-120.527	-0.024	0.004
-374.844	-104.616	-0.190	-0.044
-373.829	800.000	0.079	0.342
-372.815	13.969	-0.158	-0.123
-371.800	192.458	-0.181	0.272
-370.785	-200.000	-0.030	0.263
-369.771	444.898	0.049	-0.107
-368.756	-200.000	0.012	0.070
-367.742	800.000	-0.051	0.168
-366.727	157.834	-0.253	-0.349
-365.712	-200.000	-0.048	-0.430
-364.698	315.676	-0.082	-0.154
-363.683	274.210	0.118	0.208
-362.669	-200.000	0.033	-0.202
-361.654	-200.000	0.010	-0.125
-360.639	-13.536	0.082	-0.053
-359.625	-179.892	0.131	0.003
-358.610	187.648	0.238	0.354
-357.596	-144.784	-0.010	-0.001
-356.581	-200.000	0.033	0.210
-355.566	10.471	-0.074	-0.056
-354.552	100.575	-0.078	-0.090
-353.537	160.723	-0.132	-0.184
-352.523	-95.488	0.145	0.039
-351.508	-97.090	-0.093	-0.024
-350.493	-45.682	0.205	-0.101
-349.479	289.157	-0.112	0.202
-348.464	-134.653	-0.191	0.023
-347.450	-151.724	0.044	0.003
-346.435	-66.104	0.143	0.057
-345.420	8.256	-0.220	0.164
-344.406	-118.408	-0.222	-0.039
-343.391	162.940	-0.202	0.282
-342.377	138.962	0.056	-0.073
-341.362	-103.541	-0.110	0.026
-340.348	126.619	0.190	-0.239
-339.333	295.290	0.154	-0.281
-338.318	-200.000	0.005	-0.120
-337.304	800.000	0.034	0.094
-336.289	-43.563	0.258	-0.130
-335.275	150.255	-0.257	-0.346
-334.260	-10.862	0.357	0.234
-333.245	346.398	-0.095	-0.186
-332.231	119.877	0.073	0.089
-331.216	-118.940	-0.088	0.015
-330.202	-134.659	0.101	-0.012
-329.187	211.358	0.166	0.259
-328.172	-28.414	0.316	-0.181
-327.158	-128.100	0.137	0.020
-326.143	252.749	-0.009	0.015
-325.129	-89.749	-0.453	0.132
-324.114	-73.312	0.107	0.039
-323.099	-9.700	-0.203	-0.134
-322.085	31.490	-0.083	-0.071
-321.070	-101.771	0.206	0.050
-320.056	26.418	0.158	-0.131
-319.041	2.327	0.117	-0.084
-318.026	-122.486	0.273	0.044
-317.012	-50.901	0.151	-0.070
-315.997	-200.000	-0.021	0.233
-314.983	-86.960	0.231	0.070
-313.968	-143.488	0.267	-0.025
-312.953	348.209	0.048	-0.095
-311.939	23.341	0.107	0.087
-310.924	-88.280	0.140	-0.042
-309.910	-200.000	0.003	0.020
-308.895	67.212	0.035	0.035
-307.880	-116.548	-0.448	-0.082
-306.866	-124.123	0.220	-0.034
-305.851	33.601	0.051	-0.044
-304.837	50.446	0.104	-0.097
-303.822	93.749	0.268	0.302
-302.807	-200.000	-0.088	0.494
-301.793	125.050	-0.181	-0.226
-300.778	-155.247	-0.237	-0.015
-299.764	-32.729	-0.294	0.162
-298.749	-77.468	-0.047	0.016
-297.735	213.820	-0.118	0.186
-296.720	323.232	0.044	-0.083
-295.705	337.924	-0.105	0.202
-294.691	-77.654	-0.260	0.089
-293.676	-72.879	-0.211	0.077
-292.662	-200.000	0.083	0.445
-291.647	375.707	-0.133	-0.270
-290.632	-64.003	0.319	0.129
-289.618	-149.857	0.245	0.019
-288.603	-154.604	-0.051	0.003
-287.589	61.362	-0.266	0.262
-286.574	800.000	0.094	-0.349
-285.559	63.886	-0.082	-0.082
-284.545	-200.000	0.061	0.359
-283.530	10.086	-0.107	0.080
-282.516	14.184	-0.173	-0.134
-281.501	23.883	0.155	0.127
-280.486	424.199	0.129	-0.276
-279.472	303.164	0.047	0.087
-278.457	800.000	0.103	-0.403
-277.443	-86.484	-0.077	0.023
-276.428	800.000	0.068	0.245
-275.413	-31.486	0.119	-0.067
-274.399	-62.879	0.322	0.132
-273.384	79.580	-0.165	-0.176
-272.370	-75.383	0.150	0.053
-271.355	800.000	-0.081	0.281
-270.340	-58.004	0.128	-0.055
-269.326	503.766	0.025	-0.058
-268.311	739.777	-0.101	-0.268
-267.297	-200.000	0.042	-0.233
-266.282	271.118	0.056	0.098
-265.267	-137.453	-0.268	-0.030
-264.253	-89.956	0.200	0.058
-263.238	-7.376	-0.115	0.077
-262.224	-200.000	-0.078	-0.375
-261.209	-200.000	0.009	-0.309
-260.195	-44.660	-0.055	-0.027
-259.180	-200.000	0.056	0.246
-258.165	380.291	0.136	-0.277
-257.151	305.175	-0.066	-0.122
-256.136	-27.951	0.208	-0.120
-255.122	800.000	-0.007	-0.025
-254.107	-200.000	-0.043	-0.463
-253.092	-200.000	-0.006	-0.173
-252.078	-28.555	0.198	0.113
-251.063	-200.000	0.040	0.182
-250.049	-38.039	0.224	-0.118
-249.034	-119.718	0.496	0.085
-248.019	-200.000	0.053	0.258
-247.005	302.239	0.119	0.219
-245.990	-200.000	0.074	0.364
-244.976	-63.179	0.132	0.054
-243.961	-50.705	0.509	-0.237
-242.946	-72.528	-0.287	-0.105
-241.932	-106.620	-0.455	-0.100
-240.917	45.842	0.180	0.165
-239.903	42.647	0.067	-0.061
-238.888	373.698	-0.315	0.634
-237.873	517.843	0.063	0.145
-236.859	143.716	0.082	-0.108
-235.844	-127.138	0.257	-0.037
-234.830	271.882	0.141	0.246
-233.815	-1.243	0.078	-0.054
-232.800	-108.145	0.258	-0.055
-231.786	-70.379	0.116	-0.043
-230.771	19.920	0.052	-0.042
-229.757	-62.168	0.104	-0.043
-228.742	17.425	0.099	-0.078
-227.727	19.356	-0.292	-0.232
-226.713	800.000	0.050	-0.168
-225.698	30.193	0.122	-0.103
-224.684	-200.000	-0.003	-0.162
-223.669	-50.413	-0.048	0.023
-222.655	243.247	-0.019	0.031
-221.640	21.659	-0.046	-0.037
-220.625	298.343	-0.015	0.027
-219.611	-104.179	0.073	-0.017
-218.596	-200.000	0.003	-0.114
-217.582	186.868	-0.118	0.174
-216.567	800.000	-0.055	0.182
-215.552	-66.239	0.125	0.049
-214.538	-6.212	0.294	-0.199
-213.523	117.322	-0.092	0.112
-212.509	-138.298	0.246	0.027
-211.494	-107.285	-0.241	-0.052
-210.479	183.885	-0.152	-0.223
-209.465	-179.509	-0.273	0.006
-208.450	-200.000	-0.014	-0.096
-207.436	-55.742	-0.345	0.153
-206.421	85.887	-0.117	0.127
-205.406	32.351	0.139	-0.119
-204.392	-148.725	-0.232	-0.019
-203.377	53.202	0.227	-0.215
-202.363	340.299	-0.105	-0.202
-201.348	-166.845	0.164	-0.007
-200.333	800.000	-0.085	0.272
-199.319	-45.607	-0.189	0.093
-198.304	800.000	0.086	-0.340
-197.290	705.441	-0.144	-0.376
-196.275	4.744	-0.165	0.120
-195.260	-63.094	0.169	0.069
-194.246	-70.422	0.423	-0.158
-193.231	493.723	0.055	0.124
-192.217	189.078	0.227	0.335
-191.202	15.554	-0.206	0.160
-190.187	800.000	-0.066	0.239
-189.173	-159.121	-0.199	0.011
-188.158	-71.730	-0.205	0.075
-187.144	-143.927	-0.102	-0.010
-186.129	-1.668	-0.311	0.216
-185.114	800.000	-0.049	0.165
-184.100	93.480	-0.187	0.209
-183.085	800.000	0.135	0.503
-182.071	-60.508	-0.293	0.123
-181.056	144.027	0.275	-0.362
-180.042	-133.840	0.499	0.061
-179.027	64.611	0.153	0.153
-178.012	-200.000	-0.032	0.208
-176.998	552.725	-0.128	0.303
-175.983	-57.139	-0.241	-0.105
-174.969	-200.000	0.036	-0.254
-173.954	3.267	0.153	-0.110
-172.939	368.222	-0.206	0.412
-171.925	-130.112	-0.220	-0.030
-170.910	800.000	0.053	0.159
-169.896	800.000	0.038	0.138
-168.881	-102.400	0.154	-0.036
-167.866	-57.839	0.320	-0.138
-166.852	209.480	0.029	-0.045
-165.837	-6.477	0.289	0.194
-164.823	800.000	0.051	0.202
-163.808	-200.000	0.035	0.264
-162.793	118.151	-0.155	0.189
-161.779	8.000	-0.098	0.073
-160.764	-60.279	-0.054	0.023
-159.750	-154.811	0.163	-0.011
-158.735	45.070	0.089	0.081
-157.720	150.097	0.070	0.094
-156.706	800.000	-0.092	-0.392
-155.691	-101.295	-0.081	-0.020
-154.677	-200.000	-0.024	0.348
-153.662	-171.555	0.311	-0.010
-152.647	-94.540	-0.096	0.026
-151.633	637.380	-0.130	0.327
-150.618	311.391	-0.141	-0.261
-149.604	800.000	-0.078	-0.292
-148.589	642.321	0.026	0.065
-147.574	-200.000	0.030	0.347
-146.560	-29.310	0.179	-0.101
-145.545	-9.112	-0.189	0.125
-144.531	800.000	0.168	-0.550
-143.516	-18.411	-0.178	-0.110
-142.502	768.905	-0.063	-0.169
-141.487	-200.000	-0.007	0.048
-140.472	800.000	-0.059	-0.190
-139.458	42.373	-0.212	0.190
-138.443	800.000	0.057	0.179
-137.429	-200.000	0.020	0.211
-136.414	800.000	-0.132	0.534
-135.399	-77.774	-0.256	0.087
-134.385	-65.387	0.106	-0.042
-133.370	-97.248	0.146	-0.038
-132.356	104.063	-0.287	-0.332
-131.341	256.222	-0.113	0.191
-130.326	319.418	-0.017	-0.032
-129.312	121.145	-0.135	0.165
-128.297	238.989	-0.025	-0.041
-127.283	23.364	0.308	0.249
-126.268	328.176	0.035	0.065
-125.253	75.298	0.249	-0.259
-124.239	466.612	0.134	0.295
-123.224	428.531	0.043	-0.091
-122.210	-51.731	-0.069	-0.032
-121.195	733.059	0.084	0.222
