DTS Sentinel unit serial number:	SN413079Multiplexer serial number:	ORYXHardware model number:	OX4-SRSoftware version number:	ORYX F/W v4.00 Oryx Data Collector v3.7.2.0data status	okinstallation	princeton_trtdifferential loss correction	single-endedforward channel	channel 3reverse channel	N/Adate	2019/09/11time	22:14:11forward acquisition time	60.00reverse acquisition time	0.00gamma	496.2192k internal	0.2313k external	0.2313temperature offset calibration	1.0044default loss term (dB/km)	0.3790temperature slope calibration	1.0000multiplexer offset coefficient	1.0000multiplexer slope coefficient	1.0000fibre end	0.00T internal ref (°C)	35.31T ext. ref 1 (°C)	1.76T ext. ref 2 (°C)	29.67length (m)	temperature (°C)	Stokes	anti-Stokes-747.200	-186.958	-0.071	0.001
-746.185	15.187	-0.203	-0.162
-745.171	110.649	0.105	0.128
-744.156	800.000	-0.015	0.045
-743.142	-71.294	0.291	0.111
-742.127	-63.188	-0.219	0.092
-741.112	-8.566	-0.229	0.156
-740.098	296.233	0.122	0.226
-739.083	-38.956	-0.063	-0.034
-738.069	663.016	0.130	0.339
-737.054	800.000	-0.031	0.119
-736.039	800.000	-0.089	0.375
-735.025	389.200	0.117	0.245
-734.010	717.445	0.020	-0.055
-732.996	800.000	0.042	0.133
-731.981	-68.408	0.329	-0.129
-730.966	-29.839	-0.253	-0.146
-729.952	800.000	0.101	-0.311
-728.937	-200.000	0.052	-0.511
-727.923	-141.732	0.156	-0.016
-726.908	-200.000	-0.011	-0.069
-725.894	316.908	0.241	-0.461
-724.879	143.297	0.063	-0.085
-723.864	-200.000	0.025	-0.344
-722.850	75.574	-0.094	-0.101
-721.835	176.828	0.139	0.206
-720.821	-199.923	0.169	0.001
-719.806	-154.584	-0.173	0.012
-718.791	184.199	0.060	0.090
-717.777	-0.875	-0.122	-0.087
-716.762	152.150	0.096	0.133
-715.748	8.506	-0.160	-0.122
-714.733	345.671	0.181	0.361
-713.718	63.155	0.103	-0.105
-712.704	510.219	-0.114	0.270
-711.689	217.139	-0.107	-0.172
-710.675	-36.533	0.250	-0.136
-709.660	-102.106	-0.068	-0.017
-708.645	453.076	0.058	-0.130
-707.631	-200.000	0.016	0.196
-706.616	192.173	0.164	-0.250
-705.602	-16.016	-0.227	0.146
-704.587	319.244	0.130	0.250
-703.572	196.067	0.098	-0.151
-702.558	-87.968	0.213	0.065
-701.543	800.000	-0.093	-0.284
-700.529	-200.000	-0.230	0.000
-699.514	-163.695	-0.058	0.003
-698.499	-200.000	-0.001	-0.019
-697.485	-28.292	0.098	0.057
-696.470	-18.090	-0.165	-0.105
-695.456	-200.000	-0.010	-0.311
-694.441	78.044	-0.146	-0.158
-693.426	144.426	-0.152	0.206
-692.412	-37.464	-0.087	-0.047
-691.397	426.263	-0.056	0.122
-690.383	-7.430	0.321	-0.220
-689.368	-200.000	-0.033	0.199
-688.354	-26.807	0.389	-0.230
-687.339	800.000	0.120	-0.487
-686.324	800.000	-0.069	-0.273
-685.310	-61.151	-0.115	0.049
-684.295	-39.915	0.195	-0.103
-683.281	175.302	0.136	0.200
-682.266	361.926	0.082	-0.166
-681.251	-200.000	-0.067	-0.312
-680.237	800.000	-0.091	0.360
-679.222	224.488	0.113	-0.184
-678.208	-200.000	-0.044	-0.199
-677.193	-200.000	-0.003	-0.146
-676.178	-200.000	-0.058	-0.267
-675.164	116.722	-0.098	0.122
-674.149	-200.000	-0.031	0.215
-673.135	-154.641	-0.102	-0.007
-672.120	68.280	-0.077	-0.080
-671.105	36.860	-0.241	-0.215
-670.091	605.101	-0.114	-0.287
-669.076	-200.000	-0.033	-0.367
-668.062	-1.420	0.110	0.079
-667.047	122.048	0.030	0.038
-666.032	5.840	-0.036	-0.027
-665.018	326.750	0.162	-0.314
-664.003	800.000	0.032	-0.100
-662.989	19.381	-0.043	0.035
-661.974	98.668	0.109	-0.127
-660.959	38.364	0.071	-0.064
-659.945	-54.620	0.439	0.201
-658.930	-69.057	-0.079	-0.031
-657.916	649.155	0.118	-0.305
-656.901	59.263	-0.161	-0.160
-655.886	637.214	0.194	-0.497
-654.872	102.793	-0.042	-0.050
-653.857	-200.000	0.024	0.166
-652.843	-105.616	-0.067	-0.015
-651.828	-14.336	-0.189	0.123
-650.814	-113.380	-0.238	0.047
-649.799	336.749	0.142	-0.278
-648.784	91.909	-0.082	-0.093
-647.770	-200.000	0.011	0.117
-646.755	156.504	-0.066	-0.092
-645.741	220.136	-0.007	0.011
-644.726	-73.038	0.117	-0.043
-643.711	33.038	0.146	0.128
-642.697	-5.055	-0.164	-0.114
-641.682	-67.692	0.073	0.029
-640.668	25.451	0.049	0.041
-639.653	17.922	-0.048	0.038
-638.638	10.151	0.090	0.069
-637.624	-11.995	-0.243	-0.161
-636.609	77.082	-0.122	-0.131
-635.595	250.056	0.168	-0.288
-634.580	-110.282	-0.137	0.029
-633.565	116.570	-0.146	0.181
-632.551	76.583	0.022	-0.023
-631.536	82.842	-0.221	-0.242
-630.522	613.652	-0.095	-0.240
-629.507	27.304	-0.159	-0.135
-628.492	226.952	0.064	-0.105
-627.478	-77.178	-0.196	0.069
-626.463	578.728	-0.054	-0.135
-625.449	252.200	0.242	-0.417
-624.434	157.633	-0.135	-0.188
-623.419	-200.000	0.003	0.226
-622.405	1.725	-0.081	-0.059
-621.390	800.000	0.052	0.169
-620.376	224.984	-0.159	-0.260
-619.361	-200.000	0.001	-0.074
-618.346	800.000	0.125	-0.386
-617.332	-19.428	0.449	-0.281
-616.317	-115.129	0.170	-0.033
-615.303	-200.000	0.006	0.142
-614.288	86.410	0.292	0.324
-613.273	1.251	-0.169	0.122
-612.259	794.536	0.097	0.270
-611.244	-37.770	0.196	-0.105
-610.230	-62.157	-0.147	0.062
-609.215	386.841	0.161	-0.335
-608.201	93.907	-0.180	0.206
-607.186	-200.000	-0.017	-0.163
-606.171	-109.436	0.069	0.015
-605.157	27.641	-0.076	-0.065
-604.142	10.002	0.095	-0.073
-603.128	-13.813	-0.231	-0.151
-602.113	-151.164	-0.290	0.022
-601.098	-9.297	-0.181	-0.122
-600.084	-200.000	0.083	-0.418
-599.069	58.688	0.185	0.183
-598.055	53.371	0.183	0.177
-597.040	-0.702	0.064	0.046
-596.025	306.417	0.164	0.307
-595.011	800.000	0.095	0.324
-593.996	304.381	0.119	0.224
-592.982	-127.728	-0.259	-0.038
-591.967	57.884	0.146	0.144
-590.952	37.654	-0.123	0.110
-589.938	-57.732	-0.204	-0.090
-588.923	91.073	0.021	-0.024
-587.909	603.166	0.055	-0.139
-586.894	-150.488	-0.192	-0.015
-585.879	152.292	-0.107	-0.147
-584.865	-13.164	-0.334	-0.219
-583.850	187.795	0.237	0.356
-582.836	-37.181	-0.193	-0.104
-581.821	-118.497	-0.222	0.040
-580.806	-51.185	-0.381	0.180
-579.792	-18.686	0.231	-0.145
-578.777	800.000	-0.010	0.031
-577.763	2.367	-0.180	0.131
-576.748	209.810	0.100	-0.158
-575.733	-130.638	0.063	-0.008
-574.719	-21.709	-0.262	-0.161
-573.704	-4.915	0.039	0.027
-572.690	315.360	-0.064	0.122
-571.675	-9.787	-0.304	-0.204
-570.661	-34.838	-0.170	-0.093
-569.646	49.806	0.256	0.243
-568.631	547.803	-0.070	-0.169
-567.617	143.055	0.155	0.208
-566.602	150.380	-0.168	-0.230
-565.588	55.763	-0.040	0.039
-564.573	-200.000	-0.007	-0.151
-563.558	-102.654	-0.127	-0.030
-562.544	-200.000	-0.027	-0.143
-561.529	-21.551	-0.236	0.145
-560.515	-85.566	0.203	-0.064
-559.500	714.960	0.059	-0.159
-558.485	-93.229	0.160	0.045
-557.471	-200.000	-0.097	0.690
-556.456	-200.000	-0.016	-0.182
-555.442	-200.000	0.006	0.354
-554.427	-200.000	-0.042	0.214
-553.412	683.682	-0.025	0.065
-552.398	-200.000	0.056	-0.289
-551.383	50.223	0.228	-0.217
-550.369	-200.000	0.013	0.117
-549.354	-118.435	-0.335	0.060
-548.339	-84.457	0.193	0.061
-547.325	-120.867	-0.113	0.019
-546.310	-200.000	0.057	0.261
-545.296	-119.965	0.219	0.038
-544.281	125.816	-0.068	-0.087
-543.266	-79.525	0.258	0.088
-542.252	430.314	-0.034	0.074
-541.237	-66.570	-0.272	0.109
-540.223	299.455	-0.095	-0.176
-539.208	-113.096	0.459	-0.091
-538.193	675.723	-0.082	0.213
-537.179	155.300	0.078	0.108
-536.164	-181.566	0.381	-0.007
-535.150	173.756	-0.256	0.372
-534.135	218.646	0.137	-0.221
-533.121	-172.023	-0.504	0.016
-532.106	52.133	-0.143	0.137
-531.091	-3.887	0.247	-0.172
-530.077	-67.268	0.151	-0.060
-529.062	60.208	0.280	0.278
-528.048	264.150	-0.114	-0.199
-527.033	800.000	-0.033	-0.102
-526.018	-177.867	-0.269	0.006
-525.004	-200.000	-0.009	0.216
-523.989	-106.266	0.156	0.035
-522.975	-46.449	-0.289	-0.143
-521.960	123.717	0.150	0.189
-520.945	337.128	-0.110	-0.214
-519.931	-200.000	-0.065	0.000
-518.916	74.669	0.081	-0.085
-517.902	-63.525	0.190	0.078
-516.887	-17.691	0.210	0.132
-515.872	186.094	-0.108	0.161
-514.858	726.686	0.055	-0.147
-513.843	-46.245	0.132	0.066
-512.829	11.025	0.052	0.040
-511.814	800.000	-0.089	-0.249
-510.799	93.027	-0.177	-0.201
-509.785	-35.887	-0.189	-0.103
-508.770	-68.946	0.080	-0.031
-507.756	9.447	-0.189	-0.143
-506.741	29.268	0.210	-0.179
-505.726	9.498	0.187	0.142
-504.712	-60.005	0.217	-0.093
-503.697	-21.133	-0.299	0.184
-502.683	-107.455	-0.184	-0.041
-501.668	800.000	0.069	-0.200
-500.653	98.381	0.089	-0.103
-499.639	252.342	0.109	0.186
-498.624	-200.000	0.003	0.040
-497.610	-200.000	0.050	0.276
-496.595	800.000	0.065	0.185
-495.581	687.438	0.150	0.393
-494.566	-136.218	0.278	-0.033
-493.551	-181.678	-0.021	0.000
-492.537	-200.000	0.036	0.327
-491.522	513.676	-0.077	-0.181
-490.508	-79.751	-0.259	-0.088
-489.493	-200.000	-0.004	-0.334
-488.478	19.103	-0.175	-0.141
-487.464	-91.950	-0.363	-0.103
-486.449	266.584	0.020	0.035
-485.435	-200.000	-0.011	0.175
-484.420	36.157	0.176	-0.156
-483.405	180.052	0.079	-0.116
-482.391	78.357	0.182	-0.195
-481.376	-33.140	-0.097	-0.054
-480.362	586.597	-0.139	0.342
-479.347	-160.191	-0.249	-0.014
-478.332	479.746	0.031	-0.069
-477.318	74.892	0.128	0.136
-476.303	800.000	-0.070	0.232
-475.289	293.493	-0.171	0.313
-474.274	102.937	-0.156	-0.183
-473.259	800.000	-0.086	-0.272
-472.245	190.073	0.174	-0.263
-471.230	61.155	0.228	-0.227
-470.216	-200.000	0.080	0.362
-469.201	711.791	-0.087	-0.232
-468.186	-200.000	0.041	-0.224
-467.172	90.415	-0.140	0.157
-466.157	-79.085	-0.249	0.085
-465.143	-137.406	-0.323	0.037
-464.128	141.722	0.244	-0.325
-463.113	58.052	0.159	0.156
-462.099	-69.306	-0.172	-0.066
-461.084	-133.407	0.154	-0.019
-460.070	-24.015	-0.147	-0.088
-459.055	381.454	0.055	0.113
-458.040	341.922	-0.083	0.163
-457.026	-39.372	0.312	-0.164
-456.011	447.522	-0.154	-0.339
-454.997	-200.000	0.020	-0.216
-453.982	58.374	-0.276	0.271
-452.968	-100.498	-0.128	0.032
-451.953	53.080	0.156	0.149
-450.938	-72.846	0.431	-0.159
-449.924	-80.940	-0.151	0.050
-448.909	238.402	-0.057	0.095
-447.895	-8.980	-0.275	-0.185
-446.880	195.480	0.092	0.139
-445.865	95.615	0.066	0.075
-444.851	202.928	0.130	-0.202
-443.836	109.656	-0.060	-0.072
-442.822	297.124	-0.115	-0.211
-441.807	650.615	-0.039	-0.101
-440.792	-44.663	-0.258	0.129
-439.778	55.451	0.037	-0.036
-438.763	1.810	0.204	0.147
-437.749	800.000	-0.047	-0.147
-436.734	194.899	-0.161	-0.245
-435.719	-9.044	-0.245	-0.164
-434.705	-200.000	0.040	-0.211
-433.690	264.275	-0.082	-0.143
-432.676	-45.244	0.093	-0.046
-431.661	800.000	-0.048	-0.143
-430.646	0.983	-0.029	0.021
-429.632	-200.000	0.003	-0.276
-428.617	-96.725	0.222	-0.059
-427.603	-158.860	-0.363	0.021
-426.588	-69.709	0.250	0.096
-425.573	-200.000	0.010	-0.116
-424.559	-200.000	-0.022	-0.115
-423.544	-115.155	-0.133	0.025
-422.530	-52.184	0.182	0.084
-421.515	800.000	-0.069	-0.245
-420.500	800.000	-0.010	0.032
-419.486	-200.000	-0.012	-0.077
-418.471	-200.000	-0.049	-0.353
-417.457	170.090	0.243	0.348
-416.442	105.649	-0.053	0.062
-415.428	800.000	0.025	0.080
-414.413	800.000	0.077	-0.253
-413.398	-2.733	-0.267	-0.187
-412.384	173.147	-0.086	-0.124
-411.369	800.000	0.054	-0.177
-410.355	185.968	0.115	-0.171
-409.340	-73.232	0.091	-0.033
-408.325	-90.125	-0.046	-0.013
-407.311	70.777	-0.221	-0.229
-406.296	334.100	0.071	0.138
-405.282	-143.480	-0.205	0.020
-404.267	118.471	0.018	-0.022
-403.252	-72.061	-0.317	0.118
-402.238	57.605	-0.098	-0.095
-401.223	257.375	-0.114	0.196
-400.209	800.000	-0.035	0.106
-399.194	-148.934	-0.270	-0.022
-398.179	468.106	0.093	0.209
-397.165	800.000	0.115	0.328
-396.150	-91.104	-0.483	-0.139
-395.136	266.090	0.120	0.209
-394.121	504.545	-0.058	-0.134
-393.106	77.851	0.233	0.248
-392.092	-160.907	-0.321	-0.017
-391.077	-133.315	0.261	-0.033
-390.063	336.328	-0.099	-0.192
-389.048	-200.000	0.022	-0.117
-388.033	-110.776	-0.363	0.075
-387.019	-105.777	0.207	-0.047
-386.004	800.000	-0.037	0.146
-384.990	189.183	-0.169	-0.253
-383.975	800.000	0.020	-0.086
-382.960	-25.090	0.340	0.202
-381.946	-139.518	-0.050	0.005
-380.931	775.660	0.121	-0.331
-379.917	-49.690	0.073	-0.035
-378.902	-84.491	0.404	-0.128
-377.888	-200.000	0.011	0.158
-376.873	-110.477	0.175	-0.036
-375.858	-126.659	0.187	0.028
-374.844	419.780	0.125	0.267
-373.829	-83.776	-0.239	0.076
-372.815	719.259	0.097	-0.257
-371.800	800.000	0.038	0.148
-370.785	-9.516	-0.250	0.167
-369.771	-112.890	0.129	0.026
-368.756	137.123	-0.287	-0.375
-367.742	257.662	-0.080	-0.138
-366.727	-180.252	-0.348	-0.007
-365.712	-78.728	-0.134	-0.046
-364.698	-130.415	0.079	-0.011
-363.683	-30.561	-0.234	-0.132
-362.669	-139.876	-0.248	0.026
-361.654	454.720	-0.019	-0.042
-360.639	-200.000	0.018	0.202
-359.625	82.149	0.179	0.194
-358.610	-33.614	0.191	-0.105
-357.596	-200.000	0.053	0.326
-356.581	-13.354	-0.226	-0.147
-355.566	-96.839	0.280	-0.074
-354.552	-200.000	0.004	0.262
-353.537	-5.659	0.199	-0.137
-352.523	155.025	0.134	-0.183
-351.508	431.132	0.046	0.100
-350.493	800.000	-0.041	0.168
-349.479	800.000	-0.086	-0.245
-348.464	218.890	0.099	0.159
-347.450	-200.000	0.015	0.103
-346.435	157.519	-0.351	0.485
-345.420	-111.017	-0.098	-0.020
-344.406	73.236	0.137	0.143
-343.391	-200.000	-0.003	0.132
-342.377	800.000	0.053	-0.151
-341.362	-136.961	0.339	0.039
-340.348	261.250	-0.120	-0.207
-339.333	-25.826	-0.123	-0.072
-338.318	-196.350	-0.179	-0.001
-337.304	3.976	-0.136	-0.099
-336.289	-0.610	0.209	-0.148
-335.275	167.272	-0.122	0.172
-334.260	-200.000	0.028	0.201
-333.245	-200.000	0.012	0.208
-332.231	-200.000	0.014	-0.076
-331.216	-162.453	0.334	-0.016
-330.202	-55.964	0.152	0.068
-329.187	158.873	-0.084	0.116
-328.172	20.059	0.173	0.139
-327.158	554.797	0.098	-0.235
-326.143	800.000	0.101	0.344
-325.129	23.994	-0.087	-0.072
-324.114	-200.000	0.012	0.110
-323.099	-114.963	0.133	0.025
-322.085	-200.000	-0.047	-0.255
-321.070	352.328	-0.107	0.211
-320.056	-61.582	0.176	-0.074
-319.041	-99.441	0.274	0.069
-318.026	-200.000	0.074	0.338
-317.012	-200.000	0.010	-0.360
-315.997	-149.369	0.064	-0.005
-314.983	-32.403	-0.249	0.138
-313.968	-200.000	-0.000	-0.123
-312.953	-59.612	-0.263	0.113
-311.939	800.000	0.076	-0.280
-310.924	-16.249	0.132	-0.084
-309.910	-80.794	-0.125	-0.041
-308.895	121.125	0.013	0.016
-307.880	-54.926	-0.156	0.070
-306.866	235.033	0.187	0.307
-305.851	98.932	-0.085	0.098
-304.837	-70.817	-0.294	0.110
-303.822	-65.590	-0.141	-0.057
-302.807	-68.632	-0.242	0.093
-301.793	-200.000	-0.020	-0.249
-300.778	83.035	0.203	-0.220
-299.764	79.036	-0.050	0.053
-298.749	630.886	-0.081	-0.204
-297.735	-200.000	0.038	-0.239
-296.720	-166.168	0.287	0.012
-295.705	385.416	-0.018	-0.038
-294.691	19.536	0.148	0.118
-293.676	-84.987	0.134	0.042
-292.662	156.851	-0.098	0.135
-291.647	9.092	-0.076	0.057
-290.632	-200.000	0.019	0.219
-289.618	-60.259	-0.191	0.081
-288.603	-73.663	0.326	0.118
-287.589	-143.619	0.325	-0.031
-286.574	-103.901	-0.087	-0.020
-285.559	175.695	0.114	-0.165
-284.545	-79.047	0.241	0.082
-283.530	-120.832	-0.434	0.073
-282.516	-200.000	0.004	0.021
-281.501	-172.340	-0.062	-0.002
-280.486	35.399	0.210	-0.183
-279.472	-121.530	-0.407	0.067
-278.457	800.000	-0.035	-0.145
-277.443	606.657	0.062	-0.154
-276.428	800.000	-0.088	0.252
-275.413	-200.000	0.017	0.190
-274.399	-9.508	0.312	0.207
-273.384	-164.123	0.217	-0.010
-272.370	-147.255	0.030	-0.003
-271.355	170.462	-0.153	-0.219
-270.340	51.013	0.221	0.209
-269.326	181.056	0.026	0.038
-268.311	-200.000	0.044	0.237
-267.297	-143.464	0.342	-0.033
-266.282	367.423	0.186	0.374
-265.267	-200.000	0.034	-0.184
-264.253	-81.621	0.230	-0.075
-263.238	-200.000	0.027	0.377
-262.224	-200.000	-0.035	-0.164
-261.209	-154.231	0.499	-0.034
-260.195	-86.359	0.097	-0.030
-259.180	-200.000	0.007	0.142
-258.165	411.457	0.063	0.134
-257.151	-3.819	0.176	-0.122
-256.136	-88.942	0.140	0.041
-255.122	-152.533	0.069	-0.005
-254.107	54.777	0.158	0.152
-253.092	-200.000	0.047	0.214
-252.078	519.362	-0.162	-0.378
-251.063	-121.039	-0.187	-0.031
-250.049	30.366	0.185	0.158
-249.034	-127.553	-0.280	0.040
-248.019	80.781	0.273	-0.293
-247.005	16.604	0.116	0.091
-245.990	374.320	-0.059	-0.120
-244.976	87.764	0.155	0.171
-243.961	800.000	0.046	0.127
-242.946	-93.504	-0.041	0.011
-241.932	-200.000	-0.006	0.094
-240.917	-29.015	-0.180	-0.103
-239.903	800.000	0.077	0.308
-238.888	11.689	0.137	-0.104
-237.873	-91.879	0.193	-0.054
-236.859	-20.502	-0.249	0.152
-235.844	337.182	-0.091	0.175
-234.830	-200.000	-0.012	-0.178
-233.815	77.707	-0.087	-0.092
-232.800	11.926	-0.248	0.189
-231.786	-144.666	0.345	-0.032
-230.771	-106.046	-0.254	-0.057
-229.757	-200.000	-0.027	-0.190
-228.742	-200.000	0.007	-0.057
-227.727	-200.000	0.008	0.160
-226.713	-67.295	0.040	-0.016
-225.698	29.869	0.103	0.087
-224.684	318.981	0.081	-0.152
-223.669	-200.000	0.050	0.300
-222.655	-75.390	-0.258	-0.091
-221.640	16.500	-0.120	0.094
-220.625	-109.893	0.339	0.071
-219.611	-66.076	0.374	0.148
-218.596	800.000	0.044	0.148
-217.582	-63.092	0.181	0.074
-216.567	84.623	-0.113	-0.123
-215.552	42.758	-0.138	-0.125
-214.538	-8.681	0.195	-0.130
-213.523	-200.000	0.001	-0.227
-212.509	626.280	-0.121	0.302
-211.494	312.768	-0.222	0.414
-210.479	139.649	0.047	0.062
-209.465	125.958	0.118	0.148
-208.450	-188.909	-0.089	-0.001
-207.436	-110.717	0.171	0.035
-206.421	-18.685	0.254	-0.158
-205.406	-200.000	-0.029	-0.151
-204.392	453.827	-0.098	-0.215
-203.377	-183.849	0.280	0.005
-202.363	-160.210	-0.096	0.005
-201.348	-148.093	-0.563	-0.046
-200.333	-111.542	0.222	0.045
-199.319	167.564	-0.220	-0.311
-198.304	141.009	-0.190	-0.249
-197.290	-117.973	-0.470	0.083
-196.275	-200.000	-0.032	0.159
-195.260	-108.098	0.310	-0.067
-194.246	67.349	-0.081	-0.082
-193.231	-200.000	0.058	0.361
-192.217	339.738	-0.127	-0.245
-191.202	800.000	-0.035	-0.141
-190.187	-163.113	-0.191	0.009
-189.173	137.886	-0.238	-0.309
-188.158	35.162	0.103	-0.090
-187.144	-200.000	0.010	-0.050
-186.129	800.000	0.045	0.177
-185.114	-200.000	-0.020	0.195
-184.100	-25.930	0.164	-0.096
-183.085	-17.391	0.291	0.182
-182.071	165.445	0.062	0.086
-181.056	-188.802	0.217	0.003
-180.042	93.176	0.176	0.198
-179.027	-160.749	-0.209	-0.011
-178.012	-200.000	0.031	-0.375
-176.998	-106.803	-0.406	-0.089
-175.983	4.649	0.418	0.305
-174.969	-28.995	0.274	0.156
-173.954	143.067	-0.192	0.253
-172.939	-14.259	-0.367	-0.234
-171.925	-118.938	0.163	0.028
-170.910	-37.526	-0.307	0.162
-169.896	-59.207	-0.341	0.146
-168.881	-117.480	-0.269	0.048
-167.866	-71.773	-0.205	0.076
-166.852	-151.517	-0.155	0.011
-165.837	-134.774	0.430	0.052
-164.823	-96.002	-0.241	0.064
-163.808	64.106	0.125	0.125
-162.793	52.291	-0.287	-0.272
-161.779	14.374	-0.142	-0.110
-160.764	-18.451	0.154	0.096
-159.750	-41.913	0.357	0.181
-158.735	-193.908	0.130	-0.001
-157.720	92.691	0.202	0.226
-156.706	800.000	0.131	0.408
-155.691	364.543	0.023	0.047
-154.677	-71.281	0.229	-0.085
-153.662	130.877	0.269	-0.342
-152.647	-200.000	-0.015	0.223
-151.633	55.366	0.128	-0.123
-150.618	793.910	0.041	-0.111
-149.604	800.000	-0.126	0.440
-148.589	-121.668	0.124	-0.020
-147.574	52.901	-0.082	-0.078
-146.560	-200.000	0.003	-0.216
-145.545	151.597	-0.126	-0.171
-144.531	-23.074	0.151	-0.090
-143.516	-200.000	0.004	0.103
-142.502	-67.825	0.095	-0.037
-141.487	284.065	-0.126	-0.225
-140.472	124.473	0.249	0.310
-139.458	124.340	-0.225	0.280
-138.443	-4.105	0.183	-0.126
-137.429	58.309	0.124	0.120
-136.414	-168.906	0.135	0.005
-135.399	-158.991	0.360	-0.020
-134.385	-200.000	-0.010	0.270
-133.370	717.948	0.124	-0.326
-132.356	-96.601	-0.068	-0.018
-131.341	211.965	0.095	-0.148
-130.326	-47.450	0.123	0.059
-129.312	800.000	-0.035	0.136
-128.297	-151.620	-0.269	0.020
-127.283	-25.953	-0.263	-0.153
-126.268	86.465	0.162	-0.176
-125.253	-114.861	0.155	0.029
-124.239	-95.600	0.158	-0.042
-123.224	315.443	0.146	0.272
-122.210	-155.309	-0.276	0.018
-121.195	-72.235	-0.360	0.132
