DTS Sentinel unit serial number:	SN413079Multiplexer serial number:	ORYXHardware model number:	OX4-SRSoftware version number:	ORYX F/W v4.00 Oryx Data Collector v3.7.2.0data status	okinstallation	princeton_trtdifferential loss correction	single-endedforward channel	channel 3reverse channel	N/Adate	2019/09/11time	23:34:11forward acquisition time	60.00reverse acquisition time	0.00gamma	496.2192k internal	0.2318k external	0.2318temperature offset calibration	1.0053default loss term (dB/km)	0.3790temperature slope calibration	1.0000multiplexer offset coefficient	1.0000multiplexer slope coefficient	1.0000fibre end	0.00T internal ref (°C)	34.19T ext. ref 1 (°C)	1.87T ext. ref 2 (°C)	28.83length (m)	temperature (°C)	Stokes	anti-Stokes-747.200	108.303	0.034	0.041
-746.185	800.000	0.048	0.197
-745.171	-200.000	0.006	0.269
-744.156	-134.432	-0.260	0.032
-743.142	-105.578	-0.098	0.022
-742.127	244.161	-0.111	0.189
-741.112	450.883	0.023	0.051
-740.098	-142.763	0.406	-0.040
-739.083	201.691	0.159	-0.247
-738.069	173.107	-0.239	0.348
-737.054	-200.000	0.024	0.182
-736.039	7.694	0.455	0.345
-735.025	-5.790	0.332	-0.230
-734.010	25.362	-0.225	-0.189
-732.996	32.746	-0.201	0.176
-731.981	-21.783	0.265	-0.163
-730.966	162.053	-0.103	0.146
-729.952	-117.639	0.179	-0.033
-728.937	73.502	0.298	-0.316
-727.923	47.789	-0.296	-0.280
-726.908	-83.120	0.252	0.082
-725.894	-71.131	-0.149	0.057
-724.879	-200.000	-0.025	0.185
-723.864	800.000	-0.021	-0.076
-722.850	-200.000	0.115	0.564
-721.835	-200.000	-0.020	-0.124
-720.821	800.000	-0.049	-0.144
-719.806	-67.428	-0.280	0.111
-718.791	-17.497	-0.119	-0.075
-717.777	285.481	-0.041	-0.076
-716.762	25.223	0.190	-0.160
-715.748	800.000	-0.029	-0.107
-714.733	-12.450	-0.174	-0.115
-713.718	-101.882	0.311	-0.076
-712.704	151.610	-0.064	-0.088
-711.689	-41.381	0.233	-0.121
-710.675	195.063	-0.187	-0.287
-709.660	-75.367	0.277	-0.100
-708.645	-136.552	-0.249	0.029
-707.631	-176.667	-0.044	-0.001
-706.616	-109.843	0.306	0.065
-705.602	42.709	-0.274	-0.252
-704.587	-200.000	-0.021	-0.182
-703.572	123.988	-0.214	-0.272
-702.558	247.848	-0.151	-0.257
-701.543	-89.056	-0.108	-0.032
-700.529	14.204	-0.384	-0.302
-699.514	266.082	-0.126	0.223
-698.499	228.905	0.138	-0.227
-697.485	-119.281	0.098	0.017
-696.470	-43.129	-0.128	-0.066
-695.456	96.121	0.081	-0.093
-694.441	-200.000	-0.064	0.299
-693.426	-131.134	-0.327	0.044
-692.412	-75.586	0.245	-0.088
-691.397	12.076	-0.216	-0.168
-690.383	174.374	-0.299	-0.436
-689.368	-179.907	0.183	-0.004
-688.354	106.083	-0.164	-0.196
-687.339	-72.074	-0.151	-0.056
-686.324	-30.553	-0.119	0.068
-685.310	800.000	0.087	-0.320
-684.295	-200.000	0.088	-0.495
-683.281	-200.000	0.048	-0.231
-682.266	-22.174	-0.169	0.104
-681.251	774.083	0.028	0.078
-680.237	-59.342	0.070	-0.030
-679.222	-95.348	-0.219	-0.059
-678.208	800.000	-0.013	-0.042
-677.193	-200.000	-0.051	0.227
-676.178	-65.875	-0.082	0.033
-675.164	-78.536	0.294	0.101
-674.149	681.525	-0.126	0.331
-673.135	-18.499	-0.126	-0.080
-672.120	270.924	-0.075	-0.132
-671.105	-189.946	-0.227	0.003
-670.091	-91.050	0.136	0.040
-669.076	-200.000	-0.006	0.139
-668.062	-132.698	-0.280	-0.036
-667.047	-62.303	0.272	-0.114
-666.032	667.319	0.078	-0.204
-665.018	-200.000	0.029	0.258
-664.003	270.882	0.020	-0.036
-662.989	-40.922	0.173	-0.090
-661.974	-200.000	0.041	0.324
-660.959	415.331	0.041	0.089
-659.945	463.248	0.079	-0.178
-658.930	779.362	-0.159	0.440
-657.916	-60.348	-0.151	0.065
-656.901	-34.676	-0.062	0.034
-655.886	-40.351	-0.120	-0.063
-654.872	74.453	0.094	0.099
-653.857	-78.278	-0.354	-0.123
-652.843	-127.695	-0.228	-0.033
-651.828	-34.263	-0.387	-0.214
-650.814	-200.000	0.000	-0.262
-649.799	-200.000	-0.006	0.359
-648.784	-71.092	-0.358	0.136
-647.770	800.000	0.135	0.401
-646.755	-22.596	-0.172	0.105
-645.741	-66.724	0.290	0.116
-644.726	54.807	0.295	-0.287
-643.711	-200.000	-0.054	0.402
-642.697	482.046	0.091	0.209
-641.682	-200.000	-0.016	-0.258
-640.668	35.455	0.134	-0.118
-639.653	259.137	0.034	0.059
-638.638	-34.922	-0.215	-0.119
-637.624	641.806	0.173	-0.444
-636.609	196.177	0.035	-0.053
-635.595	800.000	0.073	-0.215
-634.580	-200.000	-0.003	0.122
-633.565	-74.457	-0.215	-0.078
-632.551	177.400	-0.114	-0.168
-631.536	-54.301	-0.072	-0.033
-630.522	174.765	-0.248	-0.362
-629.507	-48.946	0.226	0.109
-628.492	95.290	0.210	0.241
-627.478	-23.258	-0.220	0.133
-626.463	800.000	0.044	0.145
-625.449	-68.592	0.474	0.185
-624.434	-200.000	0.018	0.303
-623.419	-29.889	-0.208	0.120
-622.405	-155.597	0.150	0.010
-621.390	-200.000	0.020	0.210
-620.376	-92.397	-0.276	-0.078
-619.361	35.032	-0.163	-0.144
-618.346	800.000	0.050	0.203
-617.332	-200.000	0.013	0.163
-616.317	-200.000	0.005	0.020
-615.303	-56.440	-0.340	0.152
-614.288	-200.000	-0.005	-0.060
-613.273	800.000	0.037	-0.150
-612.259	421.294	0.076	0.164
-611.244	-141.856	-0.020	-0.002
-610.230	-147.762	-0.309	-0.026
-609.215	578.278	0.165	0.407
-608.201	-200.000	0.015	0.084
-607.186	-124.452	0.395	-0.062
-606.171	-41.879	-0.201	-0.104
-605.157	73.379	0.338	0.356
-604.142	-72.871	0.290	-0.107
-603.128	80.507	-0.138	0.149
-602.113	-164.998	-0.472	-0.021
-601.098	45.102	-0.161	0.150
-600.084	-200.000	-0.070	-0.325
-599.069	-132.238	0.323	-0.042
-598.055	-17.003	0.263	-0.167
-597.040	-16.791	0.270	-0.172
-596.025	117.919	-0.206	0.255
-595.011	-4.074	-0.112	-0.078
-593.996	176.621	0.160	0.235
-592.982	-98.020	-0.199	0.052
-591.967	-55.894	0.493	-0.221
-590.952	800.000	0.119	-0.340
-589.938	-1.324	-0.241	-0.171
-588.923	-13.496	-0.311	0.203
-587.909	185.198	0.126	-0.189
-586.894	-44.742	0.129	0.065
-585.879	-9.949	0.288	0.193
-584.865	-200.000	0.034	0.186
-583.850	424.682	-0.082	-0.177
-582.836	130.391	0.053	0.068
-581.821	-0.119	0.057	-0.041
-580.806	800.000	-0.051	-0.213
-579.792	-200.000	-0.003	-0.138
-578.777	560.874	0.193	0.469
-577.763	437.450	0.134	-0.293
-576.748	-76.862	0.182	-0.064
-575.733	4.224	-0.136	0.100
-574.719	97.950	-0.222	0.257
-573.704	-76.589	0.264	-0.093
-572.690	-176.627	-0.182	0.005
-571.675	-162.331	-0.102	0.005
-570.661	-200.000	0.012	-0.060
-569.646	-57.629	-0.287	0.126
-568.631	-200.000	-0.017	-0.111
-567.617	-200.000	0.001	-0.171
-566.602	-31.829	0.150	-0.084
-565.588	-120.462	-0.360	-0.062
-564.573	344.028	-0.184	0.363
-563.558	101.380	0.137	-0.160
-562.544	800.000	0.036	0.125
-561.529	24.968	0.084	0.070
-560.515	-25.460	-0.147	0.087
-559.500	496.013	-0.038	0.088
-558.485	-200.000	0.020	0.112
-557.471	502.946	-0.017	-0.039
-556.456	-200.000	-0.016	0.407
-555.442	800.000	0.033	0.109
-554.427	44.595	-0.172	0.159
-553.412	-200.000	0.014	-0.214
-552.398	289.065	-0.206	0.375
-551.383	-47.724	-0.039	0.019
-550.369	-14.159	-0.082	0.053
-549.354	75.482	0.119	-0.126
-548.339	800.000	0.068	-0.288
-547.325	-200.000	0.037	0.215
-546.310	333.874	0.138	-0.268
-545.296	192.989	0.141	0.214
-544.281	213.538	0.168	0.267
-543.266	-200.000	-0.010	-0.374
-542.252	117.237	-0.222	-0.274
-541.237	800.000	-0.187	0.534
-540.223	-200.000	0.017	-0.151
-539.208	-71.167	0.111	-0.042
-538.193	-200.000	0.006	-0.276
-537.179	-167.168	0.246	-0.010
-536.164	-40.305	-0.099	-0.052
-535.150	11.442	0.164	-0.126
-534.135	149.734	0.100	-0.135
-533.121	-67.694	0.160	0.063
-532.106	-8.344	0.048	0.033
-531.091	361.706	-0.106	0.213
-530.077	-137.012	0.132	-0.015
-529.062	-66.122	0.173	-0.069
-528.048	81.362	-0.170	0.185
-527.033	200.942	-0.115	-0.178
-526.018	139.783	-0.178	-0.235
-525.004	800.000	0.028	0.117
-523.989	-155.588	0.378	0.024
-522.975	-200.000	0.036	0.167
-521.960	-90.963	0.028	-0.008
-520.945	71.190	-0.168	0.175
-519.931	67.049	-0.254	0.259
-518.916	77.773	-0.032	0.034
-517.902	49.677	0.157	-0.149
-516.887	-182.538	0.206	-0.004
-515.872	-6.819	0.165	0.112
-514.858	387.299	-0.088	-0.182
-513.843	83.760	0.152	-0.167
-512.829	800.000	-0.061	0.195
-511.814	528.170	0.118	-0.279
-510.799	-59.389	-0.229	-0.099
-509.785	252.141	0.152	-0.260
-508.770	403.960	0.077	0.162
-507.756	-200.000	-0.032	-0.141
-506.741	241.856	-0.059	-0.099
-505.726	65.508	-0.287	-0.291
-504.712	-128.013	-0.283	-0.041
-503.697	800.000	-0.073	-0.239
-502.683	349.488	0.092	0.182
-501.668	-147.541	-0.454	0.038
-500.653	-200.000	0.028	0.492
-499.639	-200.000	-0.012	0.116
-498.624	-200.000	0.029	0.276
-497.610	-65.177	0.384	-0.155
-496.595	-89.452	-0.011	0.003
-495.581	800.000	0.059	0.233
-494.566	-16.231	-0.085	-0.054
-493.551	-34.483	0.216	-0.119
-492.537	116.204	0.076	0.093
-491.522	-200.000	-0.005	0.124
-490.508	800.000	0.104	-0.378
-489.493	-25.763	-0.167	-0.099
-488.478	800.000	0.048	-0.160
-487.464	-200.000	-0.034	0.528
-486.449	-200.000	-0.027	0.132
-485.435	-200.000	-0.037	-0.180
-484.420	190.206	-0.123	-0.185
-483.405	-41.690	0.279	0.143
-482.391	130.821	0.190	0.245
-481.376	-116.543	-0.182	-0.034
-480.362	9.955	-0.305	-0.232
-479.347	-164.313	0.257	-0.012
-478.332	134.610	-0.170	0.221
-477.318	-66.344	-0.216	0.086
-476.303	763.228	0.105	-0.285
-475.289	-29.098	-0.357	-0.205
-474.274	-7.908	0.116	0.079
-473.259	800.000	-0.135	0.410
-472.245	619.030	0.074	0.185
-471.230	125.403	0.122	0.154
-470.216	-200.000	0.014	0.322
-469.201	148.422	0.121	0.164
-468.186	-148.976	-0.142	0.011
-467.172	-200.000	0.003	-0.270
-466.157	235.509	-0.213	-0.352
-465.143	-16.992	0.316	-0.199
-464.128	217.367	0.091	-0.146
-463.113	-154.527	0.345	-0.023
-462.099	33.903	0.180	0.157
-461.084	-99.288	0.071	-0.018
-460.070	77.396	-0.103	-0.110
-459.055	-136.463	-0.422	-0.049
-458.040	-119.635	-0.162	0.028
-457.026	92.033	-0.033	0.037
-456.011	-128.963	0.416	-0.058
-454.997	186.058	-0.052	-0.077
-453.982	800.000	-0.071	-0.232
-452.968	39.109	0.259	-0.232
-451.953	-200.000	0.019	-0.192
-450.938	-124.597	-0.148	-0.023
-449.924	800.000	0.057	-0.181
-448.909	158.843	0.318	-0.442
-447.895	306.857	-0.192	-0.357
-446.880	-70.898	0.071	0.027
-445.865	29.001	0.119	0.101
-444.851	-141.509	-0.420	-0.043
-443.836	-120.210	0.523	-0.089
-442.822	800.000	-0.099	0.282
-441.807	800.000	-0.132	-0.376
-440.792	-200.000	0.075	-0.335
-439.778	206.667	0.069	0.107
-438.763	-152.628	-0.103	0.007
-437.749	-200.000	-0.003	-0.145
-436.734	67.424	-0.273	-0.279
-435.719	48.935	0.399	-0.375
-434.705	127.275	-0.148	0.188
-433.690	-200.000	-0.018	-0.212
-432.676	-64.509	0.268	0.109
-431.661	-60.075	-0.391	-0.167
-430.646	255.065	-0.150	0.256
-429.632	-200.000	0.032	0.253
-428.617	800.000	-0.036	-0.127
-427.603	-113.700	0.338	-0.066
-426.588	-11.706	0.242	-0.159
-425.573	-200.000	-0.018	0.092
-424.559	187.527	0.160	-0.238
-423.544	-65.669	-0.266	0.107
-422.530	26.077	-0.190	-0.159
-421.515	-131.110	-0.227	-0.030
-420.500	132.129	0.133	-0.171
-419.486	-150.209	0.036	-0.003
-418.471	-200.000	0.078	-0.341
-417.457	-135.043	0.111	0.013
-416.442	-163.433	0.077	0.004
-415.428	-34.415	0.158	-0.087
-414.413	119.883	0.151	0.187
-413.398	-200.000	-0.046	0.366
-412.384	10.992	-0.189	-0.144
-411.369	-79.952	0.231	-0.078
-410.355	800.000	-0.108	0.369
-409.340	-2.055	-0.110	0.077
-408.325	800.000	-0.054	-0.190
-407.311	-200.000	0.039	0.268
-406.296	-160.245	-0.139	0.008
-405.282	-47.527	0.300	0.145
-404.267	-200.000	0.090	-0.543
-403.252	14.471	0.291	-0.227
-402.238	259.372	-0.141	0.243
-401.223	135.683	-0.026	-0.034
-400.209	-148.748	-0.098	-0.008
-399.194	44.224	-0.264	-0.242
-398.179	-79.980	-0.163	0.055
-397.165	261.651	0.134	-0.231
-396.150	-38.863	0.190	-0.100
-395.136	129.047	-0.276	0.351
-394.121	313.663	-0.120	-0.224
-393.106	49.968	-0.209	-0.197
-392.092	44.411	-0.082	0.075
-391.077	-9.948	-0.044	-0.029
-390.063	-200.000	-0.005	-0.354
-389.048	800.000	0.054	0.155
-388.033	-59.164	0.151	0.065
-387.019	27.240	-0.281	0.236
-386.004	523.676	0.152	0.356
-384.990	-7.944	0.191	0.128
-383.975	125.377	-0.095	-0.120
-382.960	-124.768	-0.112	-0.017
-381.946	115.802	0.205	0.250
-380.931	-200.000	-0.040	-0.189
-379.917	-90.128	0.188	-0.055
-378.902	-200.000	-0.021	0.100
-377.888	142.959	-0.124	0.164
-376.873	744.383	-0.087	0.234
-375.858	-52.215	0.148	-0.069
-374.844	-26.884	0.106	-0.062
-373.829	-177.534	-0.156	0.004
-372.815	72.954	0.278	0.290
-371.800	-110.038	0.510	0.106
-370.785	800.000	0.096	0.411
-369.771	800.000	-0.131	0.431
-368.756	-21.432	-0.169	0.103
-367.742	-111.634	0.302	-0.061
-366.727	58.149	0.122	-0.120
-365.712	289.215	-0.102	-0.184
-364.698	-94.440	-0.152	0.041
-363.683	160.448	-0.239	0.333
-362.669	368.034	-0.129	0.261
-361.654	307.561	0.109	0.203
-360.639	-105.223	0.105	0.024
-359.625	-97.418	-0.072	-0.019
-358.610	241.616	-0.102	-0.170
-357.596	88.259	-0.125	-0.139
-356.581	-200.000	-0.021	-0.322
-355.566	235.041	0.069	-0.113
-354.552	145.830	0.037	-0.050
-353.537	153.746	-0.050	-0.068
-352.523	-190.138	0.072	0.001
-351.508	224.911	-0.126	-0.203
-350.493	-181.941	0.309	0.006
-349.479	-200.000	-0.014	-0.074
-348.464	65.491	-0.288	-0.291
-347.450	-34.118	0.106	-0.058
-346.435	-89.522	0.187	-0.055
-345.420	645.237	-0.104	-0.264
-344.406	255.093	0.150	-0.256
-343.391	350.108	-0.136	0.267
-342.377	-200.000	-0.005	-0.062
-341.362	800.000	0.016	-0.056
-340.348	312.330	-0.107	-0.201
-339.333	800.000	-0.057	0.181
-338.318	331.431	-0.048	-0.093
-337.304	285.242	0.166	-0.297
-336.289	280.740	0.207	0.369
-335.275	-27.564	0.145	0.084
-334.260	142.764	0.094	0.124
-333.245	-200.000	-0.004	0.034
-332.231	-21.924	-0.208	-0.126
-331.216	800.000	0.035	0.110
-330.202	162.229	-0.244	-0.340
-329.187	-44.545	-0.324	0.162
-328.172	0.824	0.201	0.144
-327.158	34.050	0.288	-0.250
-326.143	101.699	-0.092	-0.107
-325.129	116.930	0.077	0.094
-324.114	-136.924	0.102	0.012
-323.099	113.211	-0.099	0.120
-322.085	-200.000	-0.024	-0.120
-321.070	800.000	0.010	-0.032
-320.056	324.191	0.220	0.418
-319.041	-200.000	-0.017	-0.075
-318.026	-145.650	-0.093	-0.008
-317.012	238.703	0.058	0.096
-315.997	277.054	-0.162	0.286
-314.983	-200.000	0.028	0.149
-313.968	2.517	-0.117	-0.085
-312.953	-200.000	-0.018	-0.425
-311.939	-75.097	-0.179	-0.064
-310.924	-134.075	-0.204	-0.025
-309.910	-134.493	-0.474	0.058
-308.895	-126.314	0.109	0.016
-307.880	-23.921	-0.216	0.129
-306.866	57.127	0.101	0.098
-305.851	470.930	0.072	0.162
-304.837	350.074	0.161	0.317
-303.822	153.210	0.065	0.088
-302.807	-161.911	-0.007	-0.000
-301.793	339.578	-0.053	-0.103
-300.778	-200.000	-0.017	0.152
-299.764	-109.165	-0.089	0.019
-298.749	-200.000	-0.008	0.127
-297.735	628.696	0.098	-0.246
-296.720	-171.382	-0.176	-0.006
-295.705	414.028	0.072	0.152
-294.691	113.599	-0.230	-0.278
-293.676	32.402	-0.116	-0.099
-292.662	-200.000	0.090	0.426
-291.647	-75.841	0.213	0.075
-290.632	507.392	-0.087	-0.201
-289.618	28.982	0.174	-0.147
-288.603	309.028	-0.092	0.171
-287.589	-63.146	0.171	0.070
-286.574	291.042	-0.077	-0.139
-285.559	56.940	0.004	-0.004
-284.545	34.731	-0.035	0.030
-283.530	800.000	0.102	0.323
-282.516	-93.923	0.164	-0.045
-281.501	157.736	-0.320	0.441
-280.486	-96.551	-0.094	0.025
-279.472	15.542	-0.198	0.154
-278.457	69.497	-0.160	0.164
-277.443	223.422	-0.124	-0.199
-276.428	66.440	0.014	0.014
-275.413	800.000	-0.067	0.186
-274.399	-48.597	0.088	0.042
-273.384	557.161	-0.033	-0.079
-272.370	-200.000	0.035	0.242
-271.355	643.762	-0.052	0.131
-270.340	3.679	-0.265	-0.192
-269.326	419.474	0.141	0.301
-268.311	-127.851	0.118	0.017
-267.297	-177.929	0.071	0.002
-266.282	-37.139	0.285	0.151
-265.267	379.851	0.103	-0.210
-264.253	-40.789	-0.323	-0.166
-263.238	-116.445	0.223	0.041
-262.224	160.488	0.036	-0.051
-261.209	131.628	-0.068	-0.087
-260.195	-133.101	-0.306	-0.038
-259.180	800.000	0.149	-0.475
-258.165	-200.000	-0.030	0.177
-257.151	-40.923	-0.069	-0.035
-256.136	-200.000	-0.037	-0.213
-255.122	-36.886	0.071	0.038
-254.107	-26.344	-0.090	-0.053
-253.092	800.000	0.066	-0.182
-252.078	-47.953	-0.111	-0.053
-251.063	-97.443	-0.140	0.036
-250.049	45.873	-0.149	-0.137
-249.034	147.941	0.094	-0.126
-248.019	-102.179	-0.329	-0.079
-247.005	-200.000	-0.027	0.166
-245.990	-200.000	-0.019	0.162
-244.976	-12.073	0.101	-0.066
-243.961	103.636	-0.108	0.126
-242.946	61.102	0.100	-0.098
-241.932	101.733	0.278	-0.322
-240.917	-72.563	-0.074	-0.027
-239.903	108.938	-0.087	0.103
-238.888	-21.053	0.068	0.041
-237.873	-143.334	-0.202	0.019
-236.859	178.744	-0.087	-0.126
-235.844	142.749	-0.264	-0.348
-234.830	-200.000	-0.062	-0.276
-233.815	-176.130	-0.435	0.011
-232.800	23.030	-0.246	-0.201
-231.786	-89.032	0.456	-0.134
-230.771	33.242	0.337	-0.290
-229.757	64.284	-0.115	-0.115
-228.742	-200.000	0.055	-0.244
-227.727	519.690	-0.089	-0.206
-226.713	-115.304	0.291	0.055
-225.698	185.335	0.158	0.233
-224.684	800.000	0.044	0.121
-223.669	156.491	0.109	0.150
-222.655	-6.064	-0.091	-0.062
-221.640	-60.410	0.169	-0.071
-220.625	-200.000	-0.004	-0.017
-219.611	-149.515	-0.031	-0.002
-218.596	-200.000	0.021	-0.257
-217.582	-157.210	0.219	0.013
-216.567	-121.849	-0.299	-0.049
-215.552	113.269	-0.190	-0.228
-214.538	800.000	0.111	0.337
-213.523	158.882	-0.060	0.082
-212.509	-115.777	0.046	0.009
-211.494	152.122	0.036	-0.048
-210.479	-200.000	0.021	-0.138
-209.465	-200.000	0.027	0.151
-208.450	410.762	0.060	0.127
-207.436	-112.629	0.233	0.046
-206.421	140.553	0.267	0.350
-205.406	800.000	0.044	-0.139
-204.392	-9.170	-0.126	0.083
-203.377	53.756	0.280	-0.266
-202.363	-55.113	0.100	0.044
-201.348	-124.955	0.160	0.024
-200.333	785.582	0.068	-0.186
-199.319	-31.732	0.269	0.150
-198.304	-2.331	-0.226	-0.157
-197.290	-103.835	0.300	0.069
-196.275	-132.630	0.062	0.008
-195.260	-200.000	0.029	-0.132
-194.246	368.263	0.173	-0.347
-193.231	-200.000	0.029	-0.224
-192.217	-106.587	0.094	0.021
-191.202	525.123	-0.003	-0.008
-190.187	-200.000	-0.001	0.195
-189.173	-47.003	-0.191	0.093
-188.158	-200.000	-0.043	0.285
-187.144	209.603	-0.099	0.154
-186.129	-34.356	0.034	-0.018
-185.114	-157.150	0.087	-0.005
-184.100	-200.000	0.000	-0.006
-183.085	-55.032	-0.282	-0.126
-182.071	101.035	-0.080	0.092
-181.056	739.912	0.104	-0.278
-180.042	-132.959	-0.379	0.048
-179.027	-200.000	-0.013	0.130
-178.012	800.000	0.040	-0.144
-176.998	-47.527	-0.328	0.158
-175.983	800.000	-0.051	0.172
-174.969	-97.130	-0.095	-0.025
-173.954	-176.970	-0.087	-0.002
-172.939	185.437	-0.099	-0.145
-171.925	-27.275	0.343	0.197
-170.910	-26.291	-0.106	-0.061
-169.896	121.862	-0.055	-0.068
-168.881	-85.539	-0.323	-0.099
-167.866	-200.000	-0.021	0.268
-166.852	-124.534	0.229	-0.035
-165.837	-55.648	0.121	0.054
-164.823	-91.026	0.107	-0.030
-163.808	-24.189	-0.163	-0.096
-162.793	43.301	0.154	0.139
-161.779	-73.764	-0.380	0.137
-160.764	-65.351	-0.171	-0.068
-159.750	26.753	-0.140	0.116
-158.735	123.410	0.220	0.273
-157.720	84.364	0.158	0.171
-156.706	800.000	-0.085	-0.360
-155.691	-85.802	-0.272	-0.083
-154.677	486.715	0.076	0.172
-153.662	-200.000	0.027	0.280
-152.647	-68.509	0.069	0.026
-151.633	-200.000	-0.010	0.043
-150.618	60.876	0.125	0.123
-149.604	-32.281	0.040	0.022
-148.589	800.000	-0.112	-0.384
-147.574	-20.720	0.297	-0.180
-146.560	110.783	-0.083	-0.099
-145.545	379.223	-0.211	0.427
-144.531	-4.068	-0.231	-0.159
-143.516	-200.000	0.006	-0.035
-142.502	326.578	0.051	0.097
-141.487	-43.878	0.204	-0.101
-140.472	-200.000	0.023	-0.281
-139.458	8.898	0.109	-0.081
-138.443	26.334	0.182	-0.150
-137.429	800.000	-0.071	0.287
-136.414	67.655	0.212	0.214
-135.399	800.000	0.042	0.145
-134.385	-129.603	0.146	-0.020
-133.370	-95.540	0.204	-0.054
-132.356	800.000	0.104	-0.333
-131.341	-145.559	-0.100	-0.009
-130.326	38.363	0.222	-0.196
-129.312	-4.091	0.012	0.008
-128.297	-92.847	0.156	-0.043
-127.283	-200.000	-0.044	0.308
-126.268	-200.000	-0.002	-0.153
-125.253	800.000	0.069	-0.259
-124.239	-140.062	-0.277	-0.029
-123.224	-86.432	-0.293	-0.089
-122.210	-116.280	0.050	-0.009
