DTS Sentinel unit serial number:	SN413079Multiplexer serial number:	ORYXHardware model number:	OX4-SRSoftware version number:	ORYX F/W v4.00 Oryx Data Collector v3.7.2.0data status	okinstallation	princeton_trtdifferential loss correction	single-endedforward channel	channel 3reverse channel	N/Adate	2019/09/10time	16:54:11forward acquisition time	60.00reverse acquisition time	0.00gamma	496.2192k internal	0.2299k external	0.2299temperature offset calibration	0.9909default loss term (dB/km)	0.3790temperature slope calibration	1.0000multiplexer offset coefficient	1.0000multiplexer slope coefficient	1.0000fibre end	0.00T internal ref (°C)	37.62T ext. ref 1 (°C)	-0.31T ext. ref 2 (°C)	32.54length (m)	temperature (°C)	Stokes	anti-Stokes-747.200	103.999	0.230	0.276
-746.185	-200.000	-0.001	0.134
-745.171	-96.905	-0.272	0.073
-744.156	-200.000	-0.007	0.078
-743.142	183.779	-0.076	0.115
-742.127	27.106	-0.321	0.275
-741.112	309.538	0.139	-0.266
-740.098	-136.641	-0.094	-0.011
-739.083	-200.000	-0.007	0.430
-738.069	-152.594	-0.272	-0.020
-737.054	5.421	0.275	-0.207
-736.039	-179.584	-0.417	0.009
-735.025	-90.070	0.077	0.023
-734.010	247.790	-0.145	-0.250
-732.996	800.000	-0.118	-0.428
-731.981	-200.000	-0.062	0.333
-730.966	-33.835	0.236	0.133
-729.952	91.195	-0.119	-0.137
-728.937	139.589	-0.139	-0.186
-727.923	-200.000	-0.038	0.177
-726.908	-200.000	0.026	0.452
-725.894	-70.655	0.033	0.013
-724.879	800.000	-0.044	-0.171
-723.864	356.801	-0.119	-0.242
-722.850	-31.815	0.057	0.033
-721.835	-132.106	0.240	0.032
-720.821	-1.466	-0.290	-0.209
-719.806	-71.605	-0.355	-0.135
-718.791	121.142	-0.251	-0.319
-717.777	-200.000	-0.031	-0.298
-716.762	-87.795	-0.121	-0.037
-715.748	800.000	0.062	0.205
-714.733	-70.268	-0.154	0.059
-713.718	-169.966	-0.544	0.020
-712.704	-200.000	-0.063	0.300
-711.689	-88.952	0.121	-0.037
-710.675	459.931	-0.116	0.262
-709.660	108.754	0.039	0.047
-708.645	197.109	0.091	-0.141
-707.631	-40.714	0.236	0.125
-706.616	800.000	0.013	0.052
-705.602	-26.107	-0.145	0.087
-704.587	-200.000	-0.040	-0.390
-703.572	-50.905	-0.061	0.029
-702.558	302.797	-0.124	-0.233
-701.543	420.665	-0.074	-0.161
-700.529	-196.628	0.081	-0.001
-699.514	527.498	0.071	-0.171
-698.499	-97.172	0.107	0.029
-697.485	-106.163	-0.287	0.066
-696.470	-200.000	0.003	-0.212
-695.456	-60.331	-0.164	-0.071
-694.441	-15.395	0.218	0.142
-693.426	-102.798	-0.183	0.044
-692.412	-77.978	0.244	0.086
-691.397	800.000	0.091	-0.387
-690.383	-122.729	0.134	-0.022
-689.368	120.789	0.062	-0.079
-688.354	-200.000	0.041	-0.244
-687.339	52.287	-0.297	0.289
-686.324	49.621	0.159	-0.152
-685.310	93.957	0.098	0.113
-684.295	-55.407	-0.204	0.093
-683.281	8.194	0.083	0.064
-682.266	-48.907	-0.060	0.029
-681.251	-44.697	-0.207	-0.105
-680.237	-72.195	-0.101	-0.038
-679.222	81.362	0.148	0.163
-678.208	74.814	0.215	0.231
-677.193	25.025	0.173	0.146
-676.178	800.000	-0.063	-0.182
-675.164	120.300	0.170	-0.214
-674.149	-12.204	0.265	0.176
-673.135	452.199	0.035	0.078
-672.120	478.031	-0.104	0.240
-671.105	-200.000	0.019	0.383
-670.091	-98.085	-0.266	-0.070
-669.076	48.545	-0.137	0.130
-668.062	190.241	0.041	-0.063
-667.047	800.000	-0.103	0.315
-666.032	-200.000	-0.035	-0.305
-665.018	98.211	0.085	-0.099
-664.003	-148.635	0.234	-0.019
-662.989	-12.472	0.218	-0.145
-661.974	-71.053	-0.058	-0.022
-660.959	-200.000	-0.015	-0.218
-659.945	-73.403	-0.142	0.053
-658.930	-200.000	0.009	-0.105
-657.916	-200.000	-0.016	0.139
-656.901	410.940	0.117	-0.253
-655.886	-32.721	-0.227	0.129
-654.872	-83.259	-0.273	0.089
-653.857	37.862	0.091	0.083
-652.843	-110.047	-0.126	-0.027
-651.828	543.439	-0.048	-0.116
-650.814	-8.177	-0.114	0.078
-649.799	203.164	-0.078	0.123
-648.784	-150.092	-0.095	-0.008
-647.770	2.817	-0.298	0.220
-646.755	153.885	-0.194	-0.271
-645.741	569.136	-0.266	-0.657
-644.726	-147.686	0.208	0.018
-643.711	12.450	0.263	0.206
-642.697	-200.000	-0.015	0.138
-641.682	-136.786	-0.123	-0.014
-640.668	800.000	0.029	0.089
-639.653	-81.729	-0.276	-0.092
-638.638	-200.000	-0.007	-0.111
-637.624	-96.301	0.297	-0.080
-636.609	-49.777	-0.317	-0.153
-635.595	-150.871	-0.221	0.017
-634.580	198.990	-0.111	-0.172
-633.565	71.746	0.040	-0.042
-632.551	-55.299	-0.210	0.096
-631.536	-20.045	0.223	-0.140
-630.522	230.080	0.134	-0.223
-629.507	85.310	-0.089	0.099
-628.492	-200.000	-0.187	-0.000
-627.478	-37.310	0.196	-0.106
-626.463	-200.000	0.054	0.391
-625.449	563.423	-0.041	-0.100
-624.434	235.232	-0.049	-0.083
-623.419	-200.000	-0.106	0.000
-622.405	230.552	0.030	0.050
-621.390	24.509	0.254	0.213
-620.376	40.923	0.349	0.320
-619.361	4.305	-0.161	0.120
-618.346	800.000	-0.047	0.168
-617.332	60.276	-0.311	-0.313
-616.317	800.000	0.079	0.253
-615.303	-155.006	0.192	0.013
-614.288	-200.000	-0.001	-0.309
-613.273	122.339	-0.151	-0.191
-612.259	-94.953	0.467	-0.128
-611.244	-125.183	0.083	-0.013
-610.230	-34.810	-0.141	-0.078
-609.215	-38.726	-0.270	0.144
-608.201	-200.000	0.013	-0.095
-607.186	408.617	0.057	0.123
-606.171	38.953	-0.086	0.078
-605.157	386.902	0.017	0.035
-604.142	-200.000	0.003	0.035
-603.128	-71.061	-0.117	-0.045
-602.113	600.053	-0.044	0.111
-601.098	39.813	0.281	-0.256
-600.084	-74.364	0.256	0.094
-599.069	-200.000	0.012	-0.286
-598.055	-161.029	-0.635	0.034
-597.040	-53.976	-0.109	0.050
-596.025	800.000	-0.093	-0.313
-595.011	3.026	-0.199	0.147
-593.996	120.130	-0.176	0.222
-592.982	-200.000	-0.026	-0.178
-591.967	11.829	-0.234	0.182
-590.952	-200.000	0.029	-0.269
-589.938	295.232	-0.056	-0.104
-588.923	-200.000	0.081	0.538
-587.909	462.425	0.081	0.184
-586.894	-7.280	-0.153	0.105
-585.879	800.000	-0.075	-0.219
-584.865	40.277	0.140	-0.128
-583.850	-70.199	0.177	-0.068
-582.836	800.000	0.050	0.177
-581.821	-200.000	0.019	0.180
-580.806	-67.354	0.301	0.120
-579.792	-130.908	-0.356	-0.048
-578.777	-200.000	0.009	-0.075
-577.763	202.236	-0.170	0.266
-576.748	-107.786	0.225	-0.050
-575.733	158.025	0.086	-0.121
-574.719	128.856	-0.301	-0.389
-573.704	188.685	-0.259	-0.392
-572.690	120.918	-0.128	-0.161
-571.675	-182.591	0.213	-0.004
-570.661	-200.000	-0.031	0.259
-569.646	680.123	-0.105	0.277
-568.631	349.424	0.178	-0.357
-567.617	-200.000	-0.024	-0.129
-566.602	626.958	-0.030	0.077
-565.588	353.640	-0.037	-0.074
-564.573	85.592	-0.225	0.251
-563.558	-200.000	0.004	-0.121
-562.544	-44.649	-0.076	0.039
-561.529	-112.355	-0.380	0.077
-560.515	294.535	-0.127	-0.234
-559.500	124.130	0.107	0.136
-558.485	-1.780	-0.048	0.034
-557.471	-157.067	0.304	0.019
-556.456	-67.189	-0.366	0.146
-555.442	2.333	0.236	-0.173
-554.427	-92.465	-0.307	-0.087
-553.412	-113.144	-0.202	0.040
-552.398	-200.000	-0.134	-0.610
-551.383	-45.497	-0.315	0.158
-550.369	230.311	-0.171	-0.284
-549.354	13.415	-0.306	-0.240
-548.339	800.000	0.016	0.061
-547.325	-104.594	-0.169	0.040
-546.310	72.848	-0.248	0.263
-545.296	-95.069	0.136	-0.037
-544.281	234.646	0.126	0.210
-543.266	770.033	-0.124	0.341
-542.252	321.725	-0.054	-0.105
-541.237	-44.496	0.270	0.137
-540.223	-148.074	0.200	0.017
-539.208	-146.120	-0.189	0.017
-538.193	65.826	-0.074	0.076
-537.179	-92.342	0.080	-0.023
-536.164	605.917	0.129	-0.326
-535.150	-151.557	0.205	0.015
-534.135	-144.206	-0.196	-0.019
-533.121	-200.000	-0.015	0.225
-532.106	336.704	-0.142	-0.278
-531.091	-200.000	-0.027	0.206
-530.077	143.069	-0.116	0.156
-529.062	-200.000	0.013	-0.083
-528.048	-200.000	0.025	-0.440
-527.033	-137.590	-0.331	0.038
-526.018	-89.032	-0.293	-0.088
-525.004	120.035	0.109	0.137
-523.989	800.000	0.093	-0.304
-522.975	-63.639	-0.153	0.064
-521.960	-200.000	0.019	-0.117
-520.945	-172.562	0.389	-0.012
-519.931	75.924	0.215	0.229
-518.916	46.961	0.230	-0.216
-517.902	-7.356	0.320	0.220
-516.887	-20.600	0.235	0.146
-515.872	659.522	-0.136	-0.354
-514.858	-38.909	-0.265	-0.141
-513.843	-190.618	0.456	0.005
-512.829	158.190	0.138	-0.194
-511.814	26.780	-0.276	0.234
-510.799	-62.477	0.261	0.110
-509.785	744.612	-0.056	-0.152
-508.770	-118.339	-0.224	-0.040
-507.756	-200.000	-0.074	0.388
-506.741	-76.961	-0.105	0.037
-505.726	-200.000	-0.038	0.463
-504.712	-80.463	0.337	0.114
-503.697	7.910	-0.199	0.151
-502.683	242.517	0.049	0.082
-501.668	98.504	0.262	-0.306
-500.653	-121.171	-0.160	-0.027
-499.639	-200.000	-0.004	-0.174
-498.624	-12.018	-0.065	-0.043
-497.610	6.931	-0.174	0.131
-496.595	-60.287	-0.170	-0.073
-495.581	800.000	0.105	-0.319
-494.566	-200.000	0.058	-0.310
-493.551	-33.776	-0.130	-0.073
-492.537	518.821	0.082	-0.193
-491.522	-32.032	-0.107	0.060
-490.508	800.000	-0.039	0.172
-489.493	-70.462	0.158	0.060
-488.478	-200.000	0.080	-0.394
-487.464	-40.251	-0.220	-0.115
-486.449	41.519	0.077	-0.070
-485.435	-200.000	0.023	-0.152
-484.420	74.747	-0.227	-0.241
-483.405	231.234	0.167	0.277
-482.391	-121.832	0.228	-0.038
-481.376	800.000	0.007	0.029
-480.362	-8.606	-0.301	0.204
-479.347	800.000	0.023	0.088
-478.332	-200.000	0.030	-0.208
-477.318	391.346	0.189	0.395
-476.303	800.000	0.090	0.253
-475.289	499.359	0.022	0.052
-474.274	-200.000	0.052	-0.354
-473.259	-139.649	-0.281	-0.030
-472.245	-57.118	0.020	-0.009
-471.230	56.212	0.213	-0.209
-470.216	420.107	-0.055	0.118
-469.201	303.609	-0.075	-0.140
-468.186	35.867	-0.151	-0.134
-467.172	-35.692	0.114	-0.063
-466.157	440.243	-0.189	0.418
-465.143	-1.955	0.115	0.081
-464.128	800.000	0.065	-0.230
-463.113	26.070	0.162	-0.136
-462.099	612.925	0.059	0.148
-461.084	-160.784	0.197	-0.011
-460.070	800.000	0.062	0.172
-459.055	343.152	-0.108	-0.213
-458.040	116.205	-0.169	0.208
-457.026	550.838	0.090	0.218
-456.011	800.000	-0.048	0.169
-454.997	-98.126	-0.100	0.026
-453.982	-200.000	-0.025	-0.371
-452.968	-2.444	-0.054	0.038
-451.953	46.717	-0.089	0.084
-450.938	-200.000	-0.007	-0.051
-449.924	23.537	-0.183	0.152
-448.909	16.409	0.075	-0.060
-447.895	800.000	-0.108	0.408
-446.880	185.864	-0.049	0.074
-445.865	-157.100	0.289	-0.018
-444.851	333.575	-0.121	0.236
-443.836	-55.091	0.141	-0.064
-442.822	-78.187	0.406	-0.141
-441.807	279.514	-0.092	-0.165
-440.792	123.536	0.138	0.175
-439.778	-200.000	-0.021	0.270
-438.763	-200.000	-0.005	0.192
-437.749	434.645	0.023	-0.050
-436.734	-5.986	0.352	-0.243
-435.719	-200.000	0.037	-0.190
-434.705	-136.051	0.222	0.026
-433.690	-42.538	0.132	0.068
-432.676	-200.000	0.047	-0.318
-431.661	-89.150	0.145	0.043
-430.646	82.721	-0.135	-0.147
-429.632	16.957	0.128	-0.102
-428.617	314.321	0.073	0.138
-427.603	-200.000	-0.016	-0.179
-426.588	3.120	0.299	0.219
-425.573	-131.693	-0.117	0.016
-424.559	59.293	-0.220	0.218
-423.544	-106.339	-0.195	0.044
-422.530	-27.377	0.029	0.017
-421.515	583.177	-0.050	0.122
-420.500	90.681	0.146	0.165
-419.486	45.461	-0.083	0.077
-418.471	-31.960	-0.059	0.033
-417.457	577.177	0.081	0.199
-416.442	800.000	-0.053	-0.161
-415.428	-188.665	0.234	-0.003
-414.413	172.507	-0.041	-0.059
-413.398	-59.898	-0.145	0.063
-412.384	163.391	0.035	-0.050
-411.369	-200.000	-0.005	-0.231
-410.355	119.951	-0.202	-0.252
-409.340	-146.079	0.208	-0.019
-408.325	-103.053	0.251	-0.060
-407.311	-28.071	0.314	-0.183
-406.296	-58.581	0.141	-0.062
-405.282	-105.253	-0.213	0.049
-404.267	-131.915	0.364	0.048
-403.252	800.000	-0.048	0.163
-402.238	44.953	-0.159	0.148
-401.223	-122.302	-0.109	-0.018
-400.209	-141.524	0.579	0.059
-399.194	115.169	0.174	0.213
-398.179	-200.000	0.056	0.328
-397.165	-121.861	0.222	0.037
-396.150	-78.924	0.124	-0.042
-395.136	-10.051	-0.132	-0.088
-394.121	1.914	-0.453	-0.329
-393.106	74.974	0.323	-0.342
-392.092	-3.383	-0.088	-0.061
-391.077	608.819	0.063	0.159
-390.063	-141.329	0.156	-0.016
-389.048	-200.000	-0.005	-0.196
-388.033	-52.448	-0.322	0.150
-387.019	-180.176	-0.241	0.005
-386.004	-76.382	0.109	-0.038
-384.990	-117.172	0.384	0.070
-383.975	-200.000	0.002	0.061
-382.960	132.039	-0.181	-0.235
-381.946	-59.203	0.186	-0.080
-380.931	-200.000	-0.001	0.036
-379.917	147.615	-0.136	0.184
-378.902	94.558	-0.130	0.148
-377.888	-132.020	-0.349	-0.046
-376.873	437.164	0.051	0.112
-375.858	414.936	-0.065	-0.138
-374.844	129.928	-0.020	0.026
-373.829	-200.000	-0.029	0.209
-372.815	93.125	-0.433	-0.492
-371.800	126.475	-0.162	0.206
-370.785	686.842	-0.125	-0.328
-369.771	680.145	0.066	0.172
-368.756	8.571	0.216	0.164
-367.742	70.493	-0.157	0.163
-366.727	-49.875	-0.351	-0.167
-365.712	-70.897	-0.117	0.044
-364.698	-93.341	0.191	-0.053
-363.683	-200.000	-0.009	-0.041
-362.669	-200.000	0.003	-0.084
-361.654	-121.169	0.151	-0.025
-360.639	-40.742	-0.175	-0.091
-359.625	-106.689	-0.243	-0.054
-358.610	246.644	0.062	0.105
-357.596	-149.599	-0.361	-0.029
-356.581	800.000	0.069	0.218
-355.566	-76.288	-0.173	0.061
-354.552	677.429	0.035	-0.093
-353.537	-200.000	-0.001	0.030
-352.523	-200.000	0.018	-0.275
-351.508	-18.598	-0.179	0.112
-350.493	82.084	0.103	-0.112
-349.479	612.865	0.027	0.068
-348.464	119.576	0.086	-0.107
-347.450	-200.000	0.005	0.348
-346.435	800.000	-0.070	0.282
-345.420	-200.000	0.016	0.187
-344.406	800.000	0.057	0.240
-343.391	254.151	0.079	0.136
-342.377	-93.651	-0.153	-0.043
-341.362	-200.000	-0.019	-0.252
-340.348	-79.512	-0.131	0.045
-339.333	-200.000	0.002	-0.143
-338.318	-37.340	0.389	-0.209
-337.304	-200.000	-0.030	-0.444
-336.289	800.000	-0.146	0.499
-335.275	332.560	0.083	0.162
-334.260	-50.410	-0.177	0.084
-333.245	800.000	-0.091	0.352
-332.231	-36.961	0.068	0.037
-331.216	-45.424	0.308	0.153
-330.202	41.210	0.196	0.178
-329.187	-150.250	-0.183	-0.014
-328.172	159.771	-0.136	-0.190
-327.158	0.159	-0.285	-0.204
-326.143	800.000	-0.156	-0.456
-325.129	24.102	-0.049	-0.041
-324.114	-200.000	-0.082	0.487
-323.099	143.924	0.142	0.190
-322.085	800.000	-0.019	-0.073
-321.070	-169.624	0.441	0.016
-320.056	-182.584	-0.134	-0.002
-319.041	800.000	0.021	-0.067
-318.026	665.899	-0.051	0.132
-317.012	677.237	0.059	0.154
-315.997	-73.312	0.172	-0.063
-314.983	128.041	0.072	0.092
-313.968	533.107	0.041	-0.097
-312.953	93.934	-0.127	-0.144
-311.939	31.887	0.079	-0.068
-310.924	-16.414	-0.120	-0.076
-309.910	186.784	0.243	0.364
-308.895	121.323	-0.107	0.133
-307.880	178.927	-0.109	0.160
-306.866	-200.000	0.058	0.329
-305.851	-200.000	0.009	0.047
-304.837	800.000	-0.108	-0.434
-303.822	596.278	-0.034	-0.084
-302.807	25.417	0.193	0.161
-301.793	275.605	0.071	-0.126
-300.778	78.704	-0.164	0.176
-299.764	-200.000	0.004	0.060
-298.749	140.774	0.147	0.194
-297.735	41.342	0.152	0.138
-296.720	497.020	0.055	0.127
-295.705	-71.556	0.216	-0.081
-294.691	-85.818	0.194	-0.060
-293.676	-93.126	0.182	-0.051
-292.662	12.597	0.080	0.062
-291.647	-130.646	0.110	0.015
-290.632	-143.574	0.077	0.007
-289.618	31.619	-0.118	0.102
-288.603	-76.021	0.238	0.084
-287.589	48.202	0.196	-0.183
-286.574	-200.000	-0.007	0.107
-285.559	800.000	0.060	-0.233
-284.545	-200.000	-0.040	0.206
-283.530	-200.000	0.016	0.173
-282.516	-156.078	0.162	0.010
-281.501	-5.919	-0.206	-0.141
-280.486	97.920	0.051	-0.058
-279.472	-8.021	0.080	-0.054
-278.457	-112.820	-0.047	0.009
-277.443	-113.992	-0.257	-0.050
-276.428	186.657	0.097	0.144
-275.413	800.000	0.026	-0.110
-274.399	187.625	0.133	0.198
-273.384	-200.000	0.044	-0.318
-272.370	79.961	0.093	-0.100
-271.355	-82.506	0.173	-0.056
-270.340	290.487	0.126	-0.229
-269.326	-68.260	-0.181	-0.070
-268.311	-200.000	-0.076	0.374
-267.297	4.277	-0.128	0.094
-266.282	-153.814	-0.431	0.030
-265.267	800.000	-0.072	0.232
-264.253	-200.000	0.037	-0.174
-263.238	512.793	-0.055	-0.128
-262.224	-200.000	-0.007	0.124
-261.209	800.000	-0.015	-0.054
-260.195	-99.429	-0.169	0.043
-259.180	-53.214	-0.329	-0.151
-258.165	26.274	0.140	0.117
-257.151	-34.084	0.142	-0.078
-256.136	168.670	0.219	0.313
-255.122	180.064	-0.076	0.111
-254.107	447.166	0.100	0.221
-253.092	800.000	0.037	-0.142
-252.078	15.386	-0.176	-0.139
-251.063	-121.594	0.044	-0.007
-250.049	-60.058	-0.148	-0.063
-249.034	-200.000	-0.058	0.273
-248.019	800.000	0.030	0.110
-247.005	-68.585	-0.159	-0.062
-245.990	299.772	0.042	-0.077
-244.976	217.126	0.114	-0.181
-243.961	101.103	0.175	-0.204
-242.946	142.813	0.107	0.142
-241.932	-77.340	-0.170	0.059
-240.917	-200.000	-0.016	-0.182
-239.903	-65.044	0.282	-0.114
-238.888	-107.736	0.277	-0.060
-237.873	-200.000	0.023	0.177
-236.859	-129.508	0.140	-0.019
-235.844	-21.959	-0.354	0.215
-234.830	25.241	-0.294	0.244
-233.815	-200.000	-0.001	-0.068
-232.800	-47.577	0.139	0.068
-231.786	103.615	0.214	-0.251
-230.771	800.000	-0.094	0.372
-229.757	75.268	-0.207	-0.218
-228.742	154.100	0.225	0.309
-227.727	-34.692	-0.157	-0.086
-226.713	-200.000	0.074	-0.397
-225.698	-46.600	0.379	0.186
-224.684	234.161	0.055	-0.091
-223.669	-200.000	-0.055	-0.370
-222.655	-200.000	0.040	-0.267
-221.640	167.274	0.105	-0.149
-220.625	253.599	0.179	-0.306
-219.611	44.791	0.259	-0.238
-218.596	2.901	-0.238	0.173
-217.582	-84.782	-0.085	0.027
-216.567	-63.726	0.039	0.016
-215.552	-58.394	0.061	-0.027
-214.538	68.574	0.129	-0.133
-213.523	-86.680	0.316	-0.097
-212.509	800.000	-0.022	-0.074
-211.494	-76.553	0.051	0.018
-210.479	-178.719	-0.152	0.003
-209.465	42.795	0.100	0.091
-208.450	-200.000	-0.013	0.170
-207.436	135.698	0.129	0.167
-206.421	151.996	0.033	0.045
-205.406	108.901	0.110	0.132
-204.392	83.553	-0.135	-0.147
-203.377	115.064	-0.201	-0.245
-202.363	219.930	0.125	-0.200
-201.348	405.675	-0.096	0.203
-200.333	51.597	-0.082	-0.078
-199.319	-124.442	0.246	0.038
-198.304	44.648	0.198	-0.182
-197.290	604.799	-0.059	-0.146
-196.275	155.690	0.275	0.379
-195.260	-53.332	0.139	0.064
-194.246	-129.902	0.161	-0.022
-193.231	-35.879	0.103	0.055
-192.217	475.095	0.087	-0.196
-191.202	-140.691	0.205	-0.021
-190.187	-151.012	0.173	-0.013
-189.173	-116.594	0.166	0.030
-188.158	117.068	-0.197	0.241
-187.144	-150.269	-0.510	-0.039
-186.129	-143.011	-0.195	-0.019
-185.114	-185.761	-0.434	-0.006
-184.100	-200.000	0.010	0.117
-183.085	-200.000	-0.029	-0.308
-182.071	484.768	0.061	-0.139
-181.056	488.224	0.110	-0.251
-180.042	-115.165	0.081	-0.015
-179.027	234.583	-0.178	0.292
-178.012	-96.343	0.132	-0.035
-176.998	-200.000	-0.050	-0.267
-175.983	800.000	-0.076	0.259
-174.969	-36.083	0.250	-0.135
-173.954	-200.000	0.031	-0.151
-172.939	292.682	-0.077	0.139
-171.925	800.000	0.092	0.362
-170.910	-57.419	0.322	0.141
-169.896	46.955	0.253	0.235
-168.881	-200.000	-0.011	-0.146
-167.866	-200.000	-0.153	-0.001
-166.852	375.397	0.118	0.241
-165.837	154.779	-0.059	0.081
-164.823	501.923	-0.090	0.206
-163.808	168.558	0.164	0.233
-162.793	-138.539	-0.272	0.030
-161.779	800.000	-0.071	-0.199
-160.764	140.145	-0.078	-0.103
-159.750	175.057	0.091	-0.131
-158.735	797.396	0.043	-0.119
-157.720	-200.000	-0.006	0.156
-156.706	-73.510	-0.128	-0.046
-155.691	-145.289	0.218	-0.020
-154.677	-200.000	-0.010	-0.050
-153.662	-12.913	-0.262	0.170
-152.647	-43.901	-0.194	-0.097
-151.633	630.366	0.062	-0.156
-150.618	-116.508	0.456	0.084
-149.604	-129.757	0.281	-0.039
-148.589	-200.000	0.004	0.161
-147.574	-115.991	-0.370	0.069
-146.560	-200.000	0.053	-0.340
-145.545	41.208	0.182	-0.164
-144.531	-66.443	-0.163	-0.065
-143.516	103.709	0.232	-0.271
-142.502	-69.448	0.175	0.067
-141.487	304.118	-0.048	-0.089
-140.472	225.354	0.108	0.174
-139.458	-141.082	0.210	0.021
-138.443	800.000	0.054	-0.224
-137.429	-200.000	0.033	0.250
-136.414	-200.000	-0.020	0.129
-135.399	-24.797	0.167	0.099
-134.385	-31.900	0.292	0.163
-133.370	-36.405	-0.137	-0.074
-132.356	653.050	0.044	0.112
-131.341	-200.000	0.040	0.227
-130.326	-78.136	0.255	0.087
-129.312	-115.393	-0.170	-0.032
-128.297	800.000	-0.037	0.143
-127.283	-3.674	-0.126	-0.087
-126.268	-200.000	0.025	0.140
-125.253	-19.578	0.029	0.018
-124.239	-200.000	0.013	0.208
-123.224	-66.563	0.298	0.118
-122.210	608.910	0.030	0.075
-121.195	180.420	0.070	-0.103
