DTS Sentinel unit serial number:	SN413079Multiplexer serial number:	ORYXHardware model number:	OX4-SRSoftware version number:	ORYX F/W v4.00 Oryx Data Collector v3.7.2.0data status	okinstallation	princeton_trtdifferential loss correction	single-endedforward channel	channel 3reverse channel	N/Adate	2019/09/11time	14:18:11forward acquisition time	60.00reverse acquisition time	0.00gamma	496.2192k internal	0.2292k external	0.2292temperature offset calibration	0.9975default loss term (dB/km)	0.3790temperature slope calibration	1.0000multiplexer offset coefficient	1.0000multiplexer slope coefficient	1.0000fibre end	0.00T internal ref (°C)	42.00T ext. ref 1 (°C)	0.87T ext. ref 2 (°C)	38.44length (m)	temperature (°C)	Stokes	anti-Stokes-747.200	-137.123	0.016	-0.002
-746.185	-19.064	-0.120	0.077
-745.171	-35.294	0.138	-0.077
-744.156	-85.572	-0.215	0.068
-743.142	424.677	-0.022	0.048
-742.127	-39.365	-0.168	-0.090
-741.112	501.739	0.123	-0.291
-740.098	-116.953	-0.327	0.061
-739.083	198.799	0.189	0.297
-738.069	-27.231	-0.282	0.168
-737.054	-181.941	-0.200	-0.004
-736.039	-155.026	-0.256	0.017
-735.025	13.551	0.078	-0.062
-734.010	800.000	0.033	-0.107
-732.996	-52.577	-0.221	0.105
-731.981	33.474	0.132	-0.117
-730.966	519.342	-0.032	-0.077
-729.952	-108.429	-0.372	-0.082
-728.937	800.000	0.020	-0.074
-727.923	-200.000	-0.022	0.154
-726.908	-13.600	0.346	0.230
-725.894	-178.146	0.148	-0.004
-724.879	79.748	-0.085	-0.093
-723.864	-200.000	-0.038	-0.330
-722.850	287.575	-0.128	-0.237
-721.835	-133.789	-0.214	0.027
-720.821	82.289	0.106	-0.118
-719.806	-38.745	0.245	-0.132
-718.791	238.598	-0.030	0.051
-717.777	47.139	-0.266	0.254
-716.762	26.760	0.338	-0.289
-715.748	-123.452	0.192	0.031
-714.733	157.942	0.181	0.257
-713.718	-200.000	-0.023	-0.327
-712.704	-200.000	-0.040	-0.334
-711.689	-152.646	0.226	-0.016
-710.675	32.921	-0.270	-0.239
-709.660	-59.443	-0.102	-0.045
-708.645	-156.520	0.061	-0.004
-707.631	-118.099	0.062	0.011
-706.616	-47.857	0.343	0.170
-705.602	-51.081	-0.199	-0.096
-704.587	482.449	-0.034	-0.079
-703.572	127.614	-0.167	-0.217
-702.558	-14.087	0.124	-0.081
-701.543	-12.356	0.092	0.061
-700.529	621.636	0.053	0.136
-699.514	800.000	-0.099	-0.335
-698.499	-134.881	-0.587	0.073
-697.485	-178.053	-0.270	-0.007
-696.470	800.000	-0.098	-0.283
-695.456	-37.714	-0.310	0.169
-694.441	785.152	-0.046	-0.129
-693.426	-200.000	0.002	0.164
-692.412	62.610	0.186	-0.190
-691.397	-200.000	-0.000	-0.082
-690.383	-122.893	-0.193	0.032
-689.368	451.947	0.074	-0.168
-688.354	-1.838	-0.277	-0.199
-687.339	-52.697	-0.429	-0.202
-686.324	800.000	-0.128	-0.383
-685.310	-200.000	0.007	-0.099
-684.295	251.899	-0.129	0.225
-683.281	-200.000	-0.013	-0.198
-682.266	39.369	-0.247	0.225
-681.251	-69.478	-0.186	0.073
-680.237	-48.008	-0.125	-0.061
-679.222	-141.705	0.094	0.010
-678.208	105.370	-0.108	0.130
-677.193	207.817	-0.070	-0.112
-676.178	175.986	-0.015	0.023
-675.164	-36.675	-0.098	0.054
-674.149	-200.000	0.009	-0.374
-673.135	-11.946	-0.077	-0.052
-672.120	-146.856	-0.258	0.023
-671.105	165.725	-0.170	-0.245
-670.091	-55.769	-0.062	-0.028
-669.076	-10.249	0.179	0.121
-668.062	-128.823	-0.127	-0.018
-667.047	607.378	0.210	-0.534
-666.032	146.957	0.238	-0.326
-665.018	81.890	0.158	0.174
-664.003	800.000	0.048	0.160
-662.989	-155.759	-0.416	-0.027
-661.974	-140.362	0.245	0.026
-660.959	194.956	0.013	-0.020
-659.945	126.569	-0.220	0.284
-658.930	247.396	0.183	-0.315
-657.916	-157.616	0.192	0.012
-656.901	-115.839	0.239	0.046
-655.886	-135.533	0.222	0.027
-654.872	-200.000	0.026	0.189
-653.857	788.817	0.094	-0.264
-652.843	-161.359	0.239	-0.013
-651.828	-20.424	-0.120	-0.075
-650.814	619.226	-0.032	0.081
-649.799	44.473	0.064	0.060
-648.784	-200.000	0.062	-0.524
-647.770	-176.789	-0.296	0.008
-646.755	503.584	-0.159	-0.374
-645.741	72.314	0.237	-0.251
-644.726	113.455	0.158	-0.196
-643.711	40.173	0.283	-0.259
-642.697	-90.489	-0.163	-0.048
-641.682	526.978	-0.062	-0.150
-640.668	-41.731	0.154	0.081
-639.653	800.000	-0.166	-0.553
-638.638	264.598	-0.092	-0.163
-637.624	73.461	-0.169	-0.180
-636.609	35.812	-0.198	-0.178
-635.595	222.402	0.080	-0.130
-634.580	117.054	0.122	0.152
-633.565	168.070	-0.082	0.118
-632.551	-60.327	-0.231	-0.100
-631.536	75.859	-0.114	-0.122
-630.522	53.081	0.097	-0.095
-629.507	-200.000	0.011	0.268
-628.492	-119.939	-0.178	0.031
-627.478	38.157	0.046	0.042
-626.463	-151.201	-0.289	0.022
-625.449	-88.348	0.114	0.035
-624.434	-200.000	0.011	0.060
-623.419	-136.724	-0.448	0.053
-622.405	3.052	0.058	-0.043
-621.390	133.222	-0.161	-0.212
-620.376	-4.601	-0.377	-0.265
-619.361	-56.678	0.242	0.109
-618.346	-200.000	0.013	0.261
-617.332	400.463	-0.078	0.166
-616.317	-15.976	0.180	-0.117
-615.303	445.597	-0.064	0.142
-614.288	-21.863	-0.252	-0.156
-613.273	118.370	-0.180	0.227
-612.259	236.448	0.179	0.302
-611.244	-18.731	-0.144	-0.091
-610.230	-37.238	-0.113	-0.061
-609.215	-200.000	0.000	0.017
-608.201	344.473	0.095	0.189
-607.186	-58.806	0.059	0.026
-606.171	-77.087	-0.198	0.070
-605.157	466.462	-0.076	0.173
-604.142	-200.000	0.026	0.345
-603.128	-78.563	0.380	0.132
-602.113	-200.000	0.034	-0.270
-601.098	-200.000	0.002	-0.032
-600.084	-83.568	0.125	-0.041
-599.069	-23.069	0.200	-0.123
-598.055	-89.661	0.165	0.049
-597.040	166.905	-0.214	-0.309
-596.025	-200.000	0.041	0.198
-595.011	2.888	-0.212	0.157
-593.996	43.100	0.131	-0.121
-592.982	240.646	-0.213	-0.361
-591.967	16.652	0.109	0.088
-590.952	-6.470	0.266	0.185
-589.938	60.106	0.070	0.070
-588.923	800.000	0.068	-0.294
-587.909	462.205	0.027	0.062
-586.894	553.818	0.046	0.111
-585.879	276.350	-0.130	0.235
-584.865	523.913	-0.051	-0.122
-583.850	800.000	0.135	-0.394
-582.836	-18.160	-0.078	-0.050
-581.821	-200.000	-0.035	-0.167
-580.806	-30.016	0.319	0.185
-579.792	494.632	0.166	0.387
-578.777	743.836	-0.041	0.111
-577.763	-141.667	-0.225	0.023
-576.748	449.782	-0.066	0.149
-575.733	51.825	-0.321	0.311
-574.719	639.696	0.099	-0.256
-573.704	67.950	0.037	-0.038
-572.690	-69.390	-0.322	0.126
-571.675	-200.000	0.018	0.113
-570.661	-66.351	0.227	0.092
-569.646	-125.790	0.310	0.048
-568.631	-79.935	-0.295	-0.101
-567.617	795.121	-0.047	-0.133
-566.602	-151.366	0.316	-0.024
-565.588	-144.622	-0.032	-0.003
-564.573	553.060	-0.050	-0.123
-563.558	23.313	0.237	0.198
-562.544	-98.168	-0.171	-0.045
-561.529	53.668	0.091	-0.089
-560.515	-200.000	-0.040	0.396
-559.500	361.504	0.103	-0.209
-558.485	218.710	0.121	0.196
-557.471	-200.000	-0.011	0.100
-556.456	-127.173	0.054	-0.008
-555.442	-35.161	-0.141	-0.078
-554.427	132.338	0.127	0.166
-553.412	416.235	0.075	0.162
-552.398	-44.543	-0.379	-0.192
-551.383	-132.826	-0.218	-0.028
-550.369	67.901	0.081	-0.085
-549.354	-170.950	0.352	-0.012
-548.339	-99.838	-0.163	0.041
-547.325	-129.650	-0.179	0.025
-546.310	-200.000	0.002	0.144
-545.296	355.720	-0.045	-0.091
-544.281	-200.000	0.030	-0.233
-543.266	-110.259	-0.250	-0.053
-542.252	-165.877	0.071	0.003
-541.237	144.578	0.057	-0.077
-540.223	-13.971	-0.260	0.170
-539.208	-115.481	0.013	0.003
-538.193	39.662	-0.337	-0.306
-537.179	800.000	-0.027	0.091
-536.164	-11.518	0.235	0.157
-535.150	231.750	0.175	-0.291
-534.135	366.339	0.141	0.289
-533.121	-99.144	-0.047	-0.012
-532.106	351.523	0.037	-0.074
-531.091	-146.517	0.259	-0.023
-530.077	-200.000	-0.008	-0.208
-529.062	-130.912	-0.319	-0.043
-528.048	-200.000	0.048	0.332
-527.033	-159.614	0.287	0.016
-526.018	166.108	-0.093	0.133
-525.004	-77.254	-0.224	-0.079
-523.989	800.000	0.063	0.228
-522.975	-129.026	-0.260	-0.037
-521.960	-96.593	-0.101	0.027
-520.945	-19.144	0.272	-0.171
-519.931	-82.374	-0.253	0.083
-518.916	-189.375	-0.338	-0.004
-517.902	-3.006	-0.201	-0.142
-516.887	192.786	0.158	0.243
-515.872	800.000	-0.026	0.100
-514.858	-73.392	-0.174	0.065
-513.843	-47.944	-0.174	-0.085
-512.829	7.795	0.056	0.042
-511.814	800.000	0.040	-0.113
-510.799	-17.362	-0.076	-0.049
-509.785	51.400	-0.304	0.293
-508.770	82.255	-0.071	0.078
-507.756	397.732	-0.081	-0.172
-506.741	-69.435	0.131	0.051
-505.726	-41.365	0.281	-0.147
-504.712	-200.000	0.011	-0.177
-503.697	-162.204	-0.254	0.013
-502.683	-23.153	0.065	0.040
-501.668	36.978	0.108	0.097
-500.653	180.448	0.110	-0.164
-499.639	-74.745	0.165	0.060
-498.624	490.275	0.119	0.277
-497.610	-15.678	0.273	0.177
-496.595	-64.258	0.287	0.118
-495.581	-200.000	0.026	-0.210
-494.566	800.000	-0.094	-0.315
-493.551	-200.000	0.055	0.322
-492.537	21.178	0.232	-0.191
-491.522	-129.257	0.224	0.032
-490.508	-200.000	0.036	-0.188
-489.493	-15.170	0.248	-0.161
-488.478	77.459	-0.258	0.278
-487.464	-125.656	-0.297	0.046
-486.449	178.561	0.133	0.197
-485.435	329.921	0.073	-0.142
-484.420	-200.000	-0.008	-0.054
-483.405	400.295	-0.110	0.234
-482.391	-200.000	0.003	-0.039
-481.376	-139.007	0.085	-0.009
-480.362	-200.000	0.039	0.184
-479.347	-55.370	-0.088	0.040
-478.332	-200.000	0.108	0.000
-477.318	-174.683	0.265	-0.008
-476.303	-200.000	-0.005	0.187
-475.289	-91.537	-0.298	0.086
-474.274	-200.000	0.223	0.000
-473.259	-86.297	0.155	0.048
-472.245	-175.491	0.102	0.003
-471.230	-73.318	-0.364	-0.135
-470.216	138.442	0.172	-0.229
-469.201	590.854	-0.084	0.211
-468.186	137.769	0.037	-0.049
-467.172	-200.000	0.024	0.290
-466.157	487.600	-0.083	-0.193
-465.143	500.922	0.139	-0.325
-464.128	-200.000	-0.011	0.114
-463.113	-200.000	0.033	-0.178
-462.099	-102.235	0.037	0.009
-461.084	-87.083	0.579	-0.178
-460.070	-200.000	0.002	0.222
-459.055	-200.000	0.017	0.229
-458.040	-39.794	-0.249	0.132
-457.026	-82.197	0.235	0.078
-456.011	60.075	0.353	0.353
-454.997	-20.611	-0.131	0.082
-453.982	800.000	-0.055	-0.184
-452.968	-200.000	0.011	-0.091
-451.953	32.087	0.275	0.240
-450.938	-81.621	-0.042	0.014
-449.924	12.918	-0.404	0.316
-448.909	-45.036	-0.051	0.026
-447.895	81.639	0.186	0.204
-446.880	-200.000	-0.013	0.181
-445.865	48.860	-0.158	0.150
-444.851	-98.073	0.245	-0.064
-443.836	-200.000	-0.020	-0.162
-442.822	-200.000	0.027	0.235
-441.807	698.904	-0.053	-0.141
-440.792	-69.595	0.089	-0.034
-439.778	79.029	-0.077	-0.084
-438.763	40.529	-0.293	-0.267
-437.749	-33.799	0.249	0.139
-436.734	4.095	0.383	-0.284
-435.719	219.050	0.133	-0.214
-434.705	-200.000	0.011	-0.183
-433.690	-84.616	-0.143	0.046
-432.676	800.000	0.055	0.190
-431.661	24.058	0.256	0.213
-430.646	-73.973	-0.202	-0.074
-429.632	9.844	0.171	-0.131
-428.617	-200.000	0.001	0.142
-427.603	46.176	-0.322	0.302
-426.588	800.000	-0.010	0.030
-425.573	16.120	0.093	-0.074
-424.559	-71.737	0.298	0.112
-423.544	800.000	-0.109	0.331
-422.530	-93.159	0.306	0.086
-421.515	137.210	0.048	-0.063
-420.500	-101.760	-0.058	-0.014
-419.486	579.994	0.064	0.158
-418.471	6.357	-0.123	0.092
-417.457	-200.000	0.060	0.319
-416.442	137.042	0.021	0.028
-415.428	153.774	0.192	-0.266
-414.413	-55.739	-0.127	0.057
-413.398	-23.772	0.395	-0.239
-412.384	-18.170	-0.230	0.146
-411.369	124.371	-0.112	-0.142
-410.355	-200.000	-0.058	-0.269
-409.340	-49.501	-0.468	-0.225
-408.325	99.245	-0.165	-0.192
-407.311	137.344	-0.272	0.359
-406.296	147.747	-0.142	-0.193
-405.282	190.113	0.032	0.049
-404.267	-61.954	0.174	-0.073
-403.252	800.000	-0.083	0.318
-402.238	800.000	-0.125	0.391
-401.223	-33.642	0.135	0.075
-400.209	-200.000	0.026	-0.374
-399.194	57.786	0.196	-0.193
-398.179	104.707	0.176	0.210
-397.165	135.332	0.190	0.250
-396.150	-36.630	0.162	0.088
-395.136	-144.341	-0.559	0.053
-394.121	549.953	0.054	-0.132
-393.106	-200.000	0.017	0.261
-392.092	-156.568	-0.087	0.005
-391.077	96.794	0.070	0.081
-390.063	800.000	0.087	-0.268
-389.048	800.000	0.042	0.124
-388.033	-27.215	-0.226	-0.133
-387.019	-109.056	-0.148	-0.032
-386.004	41.657	0.136	-0.125
-384.990	-200.000	0.002	-0.248
-383.975	-146.637	-0.044	0.004
-382.960	140.917	0.283	-0.377
-381.946	-140.151	0.210	0.022
-380.931	56.761	-0.144	0.141
-379.917	-200.000	0.040	-0.221
-378.902	-200.000	-0.006	0.411
-377.888	-181.015	-0.071	0.001
-376.873	-7.365	-0.307	-0.210
-375.858	150.598	0.232	-0.318
-374.844	521.750	0.075	-0.176
-373.829	94.048	0.106	-0.122
-372.815	53.700	-0.334	0.323
-371.800	-200.000	0.034	0.205
-370.785	48.372	-0.095	-0.090
-369.771	800.000	0.074	0.206
-368.756	-41.915	0.420	0.217
-367.742	93.212	-0.155	-0.177
-366.727	800.000	0.036	0.152
-365.712	800.000	-0.052	0.150
-364.698	-16.107	0.092	0.059
-363.683	-200.000	0.013	0.190
-362.669	354.696	0.090	-0.180
-361.654	800.000	0.031	0.088
-360.639	200.113	-0.065	0.101
-359.625	-100.441	-0.375	-0.094
-358.610	-69.896	0.362	-0.139
-357.596	410.823	0.112	0.240
-356.581	-111.401	-0.194	-0.040
-355.566	-145.176	-0.320	-0.029
-354.552	800.000	-0.114	0.347
-353.537	800.000	-0.064	0.194
-352.523	237.556	0.210	0.351
-351.508	-200.000	-0.041	0.187
-350.493	218.788	0.155	-0.249
-349.479	-117.651	0.302	0.055
-348.464	-39.201	0.225	0.119
-347.450	37.373	-0.246	-0.220
-346.435	800.000	0.101	-0.317
-345.420	-47.899	0.185	-0.090
-344.406	-59.823	-0.091	-0.039
-343.391	42.590	0.159	0.146
-342.377	800.000	-0.019	-0.059
-341.362	36.588	0.294	0.262
-340.348	-88.095	-0.466	-0.141
-339.333	800.000	-0.013	0.044
-338.318	-58.706	-0.186	0.081
-337.304	-99.350	-0.294	0.075
-336.289	800.000	-0.065	0.184
-335.275	-55.442	-0.185	0.084
-334.260	-111.259	-0.164	0.034
-333.245	-139.758	0.247	0.026
-332.231	-120.684	0.196	0.033
-331.216	97.666	-0.107	-0.123
-330.202	800.000	0.028	0.111
-329.187	-200.000	-0.015	-0.090
-328.172	-133.650	0.064	-0.008
-327.158	-121.818	-0.186	0.031
-326.143	-200.000	0.008	0.062
-325.129	12.421	-0.198	0.154
-324.114	9.272	-0.089	-0.068
-323.099	450.916	0.077	-0.172
-322.085	-200.000	-0.001	-0.176
-321.070	-200.000	0.047	0.287
-320.056	48.074	0.144	-0.135
-319.041	511.124	0.070	-0.164
-318.026	-200.000	0.023	-0.213
-317.012	-97.688	0.165	0.043
-315.997	-61.411	0.189	-0.080
-314.983	12.817	-0.300	-0.234
-313.968	-200.000	-0.048	-0.328
-312.953	337.726	-0.010	-0.020
-311.939	729.967	-0.076	-0.204
-310.924	50.878	0.318	-0.303
-309.910	556.168	-0.084	-0.202
-308.895	-67.094	-0.398	-0.158
-307.880	394.409	0.093	-0.196
-306.866	161.785	-0.058	0.082
-305.851	-172.655	0.118	-0.004
-304.837	58.923	-0.143	0.141
-303.822	284.530	-0.120	0.218
-302.807	7.750	0.197	0.148
-301.793	-58.766	-0.204	0.089
-300.778	37.760	0.128	0.115
-299.764	-145.962	-0.135	-0.012
-298.749	45.496	-0.056	-0.052
-297.735	-46.997	0.265	0.130
-296.720	-93.808	-0.191	-0.053
-295.705	513.403	0.060	0.142
-294.691	500.408	0.145	-0.336
-293.676	111.986	0.137	-0.166
-292.662	-123.848	0.011	-0.002
-291.647	12.786	-0.120	-0.093
-290.632	21.941	-0.187	-0.153
-289.618	165.135	-0.203	-0.288
-288.603	-42.096	0.137	-0.071
-287.589	114.845	-0.083	0.102
-286.574	-73.311	0.138	-0.051
-285.559	800.000	0.039	-0.163
-284.545	73.819	0.251	-0.265
-283.530	-99.168	0.273	0.069
-282.516	-63.564	-0.355	-0.146
-281.501	30.452	0.052	0.045
-280.486	-115.762	-0.290	0.055
-279.472	-12.179	-0.277	0.182
-278.457	197.662	-0.062	0.095
-277.443	-160.758	-0.073	-0.004
-276.428	412.476	0.071	-0.151
-275.413	58.707	0.269	0.266
-274.399	-10.857	-0.299	-0.198
-273.384	783.548	0.017	-0.047
-272.370	682.288	0.113	0.295
-271.355	-8.656	-0.064	0.043
-270.340	8.035	0.129	-0.097
-269.326	-62.866	-0.196	-0.081
-268.311	179.938	0.062	0.092
-267.297	-41.600	0.073	-0.038
-266.282	15.623	0.232	-0.183
-265.267	67.452	0.111	-0.114
-264.253	129.233	-0.139	-0.179
-263.238	-36.496	-0.148	0.080
-262.224	-200.000	-0.224	-0.001
-261.209	422.524	-0.088	0.191
-260.195	800.000	-0.066	0.193
-259.180	27.020	0.046	0.039
-258.165	-161.968	-0.299	-0.015
-257.151	-200.000	0.013	0.220
-256.136	218.684	0.190	0.304
-255.122	-73.667	-0.146	0.054
-254.107	153.957	-0.077	-0.106
-253.092	50.135	0.188	-0.179
-252.078	-21.664	-0.327	0.200
-251.063	-55.352	0.226	0.102
-250.049	-200.000	-0.030	0.250
-249.034	-95.374	-0.130	0.035
-248.019	-122.583	-0.150	0.024
-247.005	-80.951	-0.093	0.031
-245.990	-140.596	-0.320	-0.033
-244.976	312.951	0.084	-0.158
-243.961	72.763	-0.128	-0.134
-242.946	257.004	-0.074	0.127
-241.932	-200.000	-0.014	-0.061
-240.917	-70.898	-0.180	0.068
-239.903	-55.677	-0.209	0.094
-238.888	800.000	-0.066	0.191
-237.873	592.936	0.089	0.222
-236.859	-200.000	0.002	0.034
-235.844	-115.035	0.312	-0.059
-234.830	184.439	0.037	0.056
-233.815	-26.054	-0.210	-0.124
-232.800	-85.636	-0.214	-0.067
-231.786	179.592	-0.076	0.112
-230.771	398.688	0.022	-0.046
-229.757	800.000	0.029	0.117
-228.742	-200.000	0.001	-0.053
-227.727	94.934	-0.199	0.227
-226.713	-200.000	0.017	0.108
-225.698	-56.906	0.168	-0.075
-224.684	221.304	0.011	-0.018
-223.669	291.000	-0.036	-0.066
-222.655	192.767	-0.115	-0.174
-221.640	-200.000	0.018	-0.349
-220.625	125.918	0.150	0.190
-219.611	-54.254	0.300	-0.136
-218.596	-101.119	0.197	0.048
-217.582	133.710	-0.171	0.222
-216.567	-200.000	0.038	-0.194
-215.552	-200.000	-0.009	-0.271
-214.538	-175.984	0.022	0.001
-213.523	-132.828	0.141	-0.018
-212.509	-46.579	0.197	0.097
-211.494	567.413	-0.043	0.104
-210.479	42.961	-0.308	-0.282
-209.465	-136.566	-0.240	0.028
-208.450	-90.740	0.065	0.019
-207.436	59.565	0.161	-0.159
-206.421	-122.277	-0.176	0.029
-205.406	20.742	0.306	0.249
-204.392	-92.631	0.735	0.207
-203.377	180.437	0.266	-0.392
-202.363	-200.000	-0.062	-0.336
-201.348	-91.378	0.301	0.086
-200.333	86.820	-0.124	0.138
-199.319	18.593	0.250	0.201
-198.304	-200.000	-0.032	0.193
-197.290	800.000	-0.103	0.338
-196.275	8.540	-0.369	0.278
-195.260	-4.935	-0.116	0.080
-194.246	171.310	-0.110	-0.158
-193.231	-94.751	0.073	0.020
-192.217	25.517	0.141	-0.117
-191.202	348.365	0.174	0.343
-190.187	-79.239	-0.188	0.064
-189.173	-52.323	0.463	0.215
-188.158	-200.000	0.019	-0.110
-187.144	-9.435	-0.111	0.074
-186.129	800.000	-0.037	0.133
-185.114	-43.712	0.186	-0.094
-184.100	-11.378	-0.191	-0.126
-183.085	121.326	0.045	-0.056
-182.071	127.181	0.183	-0.232
-181.056	30.534	0.151	0.129
-180.042	20.930	0.122	0.099
-179.027	317.673	0.109	-0.206
-178.012	78.624	0.203	-0.217
-176.998	45.989	-0.088	-0.082
-175.983	800.000	0.065	-0.195
-174.969	-119.708	0.187	-0.032
-173.954	-152.517	-0.302	-0.022
-172.939	-52.979	0.297	-0.137
-171.925	-141.080	0.119	-0.012
-170.910	245.136	0.124	-0.210
-169.896	-8.885	-0.221	-0.149
-168.881	-28.468	-0.192	0.111
-167.866	44.868	-0.033	-0.031
-166.852	576.370	-0.034	0.082
-165.837	355.280	-0.075	0.149
-164.823	82.140	-0.095	-0.103
-163.808	800.000	-0.084	-0.305
-162.793	-5.648	0.086	0.059
-161.779	-74.502	-0.109	0.039
-160.764	-25.627	-0.098	0.058
-159.750	-43.143	0.201	0.102
-158.735	-114.109	0.194	0.038
-157.720	75.297	-0.183	0.193
-156.706	8.675	-0.199	0.150
-155.691	-200.000	0.044	-0.385
-154.677	800.000	-0.059	-0.198
-153.662	448.564	0.168	-0.369
-152.647	188.484	0.213	-0.319
-151.633	64.895	-0.190	-0.192
-150.618	236.261	-0.077	0.127
-149.604	-200.000	-0.048	-0.262
-148.589	5.836	0.219	-0.162
-147.574	-87.899	-0.092	-0.028
-146.560	-57.705	-0.121	0.053
-145.545	13.270	0.169	-0.131
-144.531	-106.606	-0.336	-0.075
-143.516	800.000	-0.009	0.027
-142.502	41.050	-0.159	-0.143
-141.487	-49.144	0.518	0.248
-140.472	800.000	-0.044	0.126
-139.458	-106.178	0.079	-0.018
-138.443	800.000	-0.064	-0.279
-137.429	-26.558	-0.237	0.139
-136.414	-59.847	0.320	-0.137
-135.399	-200.000	0.003	-0.141
-134.385	259.559	0.143	0.246
-133.370	667.349	-0.076	0.197
-132.356	-81.157	-0.289	0.096
-131.341	127.663	-0.050	0.064
-130.326	800.000	0.042	-0.142
-129.312	-16.784	0.070	-0.044
-128.297	-83.760	-0.157	-0.050
-127.283	-200.000	0.003	-0.228
-126.268	-94.821	0.174	-0.047
-125.253	207.755	-0.114	-0.177
-124.239	800.000	-0.060	-0.236
-123.224	44.214	0.208	-0.191
-122.210	800.000	0.036	0.102
-121.195	-97.386	0.034	0.009
-120.180	352.673	-0.194	0.384
