DTS Sentinel unit serial number:	SN413079Multiplexer serial number:	ORYXHardware model number:	OX4-SRSoftware version number:	ORYX F/W v4.00 Oryx Data Collector v3.7.2.0data status	okinstallation	princeton_trtdifferential loss correction	single-endedforward channel	channel 3reverse channel	N/Adate	2019/09/11time	22:30:11forward acquisition time	60.00reverse acquisition time	0.00gamma	496.2192k internal	0.2314k external	0.2314temperature offset calibration	1.0052default loss term (dB/km)	0.3790temperature slope calibration	1.0000multiplexer offset coefficient	1.0000multiplexer slope coefficient	1.0000fibre end	0.00T internal ref (°C)	35.06T ext. ref 1 (°C)	1.79T ext. ref 2 (°C)	29.40length (m)	temperature (°C)	Stokes	anti-Stokes-747.200	267.417	-0.140	-0.248
-746.185	211.391	0.167	0.267
-745.171	6.556	0.170	-0.128
-744.156	-31.025	-0.364	0.208
-743.142	124.068	0.230	0.293
-742.127	-200.000	0.019	0.435
-741.112	-200.000	-0.027	0.578
-740.098	-151.735	0.175	-0.013
-739.083	800.000	0.066	-0.217
-738.069	474.870	-0.226	0.517
-737.054	-158.860	0.194	-0.011
-736.039	13.534	0.220	-0.173
-735.025	-170.443	0.388	-0.014
-734.010	484.505	-0.100	-0.231
-732.996	99.979	-0.055	-0.065
-731.981	-12.001	0.013	0.009
-730.966	82.107	0.080	-0.088
-729.952	183.348	-0.172	0.258
-728.937	-113.933	-0.077	0.015
-727.923	-29.768	0.112	-0.065
-726.908	160.729	0.254	0.360
-725.894	-58.381	-0.493	0.217
-724.879	-51.717	-0.191	-0.090
-723.864	142.457	0.090	-0.121
-722.850	335.948	-0.112	0.221
-721.835	-200.000	-0.027	0.126
-720.821	-58.373	0.238	0.105
-719.806	36.998	-0.168	-0.150
-718.791	238.727	0.020	-0.034
-717.777	-99.358	-0.157	0.040
-716.762	212.223	-0.174	-0.278
-715.748	-164.325	0.220	-0.010
-714.733	68.761	-0.179	0.186
-713.718	376.930	0.182	0.377
-712.704	-81.771	-0.076	-0.025
-711.689	547.104	0.040	-0.098
-710.675	-22.394	0.124	-0.076
-709.660	-12.964	0.171	-0.113
-708.645	-200.000	0.019	0.124
-707.631	120.790	0.065	-0.082
-706.616	23.132	0.081	-0.068
-705.602	21.549	-0.270	-0.223
-704.587	-200.000	-0.071	-0.437
-703.572	-153.984	0.078	0.005
-702.558	-58.454	-0.320	0.141
-701.543	-140.574	0.038	-0.004
-700.529	-200.000	0.025	-0.504
-699.514	46.821	-0.096	-0.090
-698.499	-53.702	0.228	0.105
-697.485	-111.965	0.327	-0.067
-696.470	337.214	0.088	-0.173
-695.456	-200.000	-0.033	-0.304
-694.441	-134.825	0.376	-0.046
-693.426	-142.552	-0.074	0.007
-692.412	800.000	0.069	-0.235
-691.397	-200.000	0.009	0.103
-690.383	-200.000	0.027	0.296
-689.368	-200.000	0.014	0.321
-688.354	-75.311	0.214	-0.077
-687.339	143.211	0.177	-0.238
-686.324	127.322	-0.175	-0.225
-685.310	-140.628	0.224	0.023
-684.295	69.673	-0.087	-0.090
-683.281	321.716	0.069	0.133
-682.266	-131.162	-0.259	0.035
-681.251	216.868	-0.126	-0.203
-680.237	-117.775	-0.206	0.037
-679.222	-200.000	-0.153	0.000
-678.208	-83.579	0.142	-0.046
-677.193	-159.312	0.235	-0.013
-676.178	66.808	-0.109	0.113
-675.164	800.000	0.014	0.045
-674.149	-200.000	0.020	0.141
-673.135	-79.480	-0.227	0.077
-672.120	105.986	0.227	-0.272
-671.105	-200.000	0.035	0.156
-670.091	-24.718	0.194	0.116
-669.076	800.000	-0.036	0.138
-668.062	273.422	-0.132	0.235
-667.047	800.000	-0.044	-0.165
-666.032	-53.104	-0.102	0.047
-665.018	-110.237	0.168	-0.035
-664.003	-59.373	0.074	-0.032
-662.989	23.677	-0.189	-0.157
-661.974	-128.964	0.104	-0.015
-660.959	-91.271	-0.161	0.047
-659.945	-69.431	0.292	-0.113
-658.930	800.000	0.060	0.252
-657.916	704.106	0.073	0.195
-656.901	30.792	-0.036	-0.031
-655.886	-36.245	0.279	0.152
-654.872	217.991	0.102	0.164
-653.857	-200.000	0.003	-0.044
-652.843	-193.745	-0.334	0.003
-651.828	-200.000	-0.009	-0.498
-650.814	41.718	-0.097	-0.089
-649.799	-11.511	0.385	-0.256
-648.784	800.000	-0.073	0.278
-647.770	37.868	0.062	0.056
-646.755	-89.627	-0.440	0.130
-645.741	-174.315	-0.089	-0.003
-644.726	175.452	-0.106	0.155
-643.711	174.561	-0.094	0.137
-642.697	800.000	-0.082	-0.256
-641.682	800.000	0.064	-0.267
-640.668	69.232	0.146	-0.152
-639.653	-200.000	0.054	-0.266
-638.638	31.613	-0.151	0.131
-637.624	44.457	-0.217	0.202
-636.609	-14.888	-0.247	0.160
-635.595	628.521	0.051	0.129
-634.580	-43.632	0.071	0.036
-633.565	-68.120	-0.118	-0.046
-632.551	132.004	0.178	-0.232
-631.536	800.000	-0.179	-0.622
-630.522	245.282	0.039	0.067
-629.507	19.640	0.053	0.043
-628.492	-132.827	-0.092	-0.012
-627.478	-105.618	-0.098	0.022
-626.463	87.772	-0.037	-0.041
-625.449	174.590	-0.062	-0.090
-624.434	-200.000	-0.004	0.166
-623.419	800.000	-0.052	-0.194
-622.405	-65.885	0.192	-0.078
-621.390	-9.961	0.333	0.223
-620.376	-200.000	-0.005	-0.131
-619.361	199.910	0.056	-0.086
-618.346	350.862	-0.083	0.166
-617.332	800.000	0.057	0.193
-616.317	-68.551	0.208	0.081
-615.303	22.807	-0.209	0.173
-614.288	-34.178	0.131	0.073
-613.273	-110.381	0.340	0.071
-612.259	-110.043	-0.259	-0.055
-611.244	553.535	0.122	0.296
-610.230	151.560	0.090	-0.123
-609.215	-200.000	-0.011	-0.276
-608.201	-106.135	0.256	0.058
-607.186	177.306	-0.197	0.289
-606.171	328.768	0.087	-0.169
-605.157	-200.000	-0.012	-0.163
-604.142	233.240	-0.208	-0.345
-603.128	423.109	0.166	-0.360
-602.113	-200.000	-0.170	0.001
-601.098	12.236	-0.054	0.042
-600.084	86.158	0.104	0.116
-599.069	-158.212	-0.087	0.005
-598.055	800.000	-0.014	0.055
-597.040	-152.499	0.116	0.008
-596.025	543.021	0.090	-0.217
-595.011	-159.461	-0.054	-0.003
-593.996	86.222	0.166	-0.184
-592.982	331.726	-0.142	-0.275
-591.967	31.831	-0.131	0.114
-590.952	-189.262	0.143	0.002
-589.938	800.000	-0.104	-0.302
-588.923	61.595	-0.255	-0.256
-587.909	613.590	0.096	-0.243
-586.894	2.436	-0.277	0.202
-585.879	-119.161	-0.240	0.042
-584.865	178.341	-0.144	-0.212
-583.850	1.910	-0.112	-0.081
-582.836	-68.488	-0.197	0.077
-581.821	96.227	0.305	-0.351
-580.806	-200.000	-0.053	-0.436
-579.792	-200.000	0.004	0.136
-578.777	-200.000	0.018	0.131
-577.763	-106.507	-0.318	0.072
-576.748	-200.000	-0.020	0.314
-575.733	65.977	0.371	-0.379
-574.719	-25.375	0.365	-0.218
-573.704	-154.973	0.055	-0.004
-572.690	-130.805	-0.221	0.030
-571.675	293.499	-0.239	0.440
-570.661	281.745	-0.009	-0.017
-569.646	-12.985	-0.288	-0.189
-568.631	150.244	-0.176	-0.240
-567.617	622.234	0.124	0.314
-566.602	320.129	-0.119	0.228
-565.588	36.735	0.110	-0.098
-564.573	-33.865	-0.166	0.092
-563.558	-26.435	-0.194	0.115
-562.544	-200.000	0.016	0.134
-561.529	-19.719	0.283	0.176
-560.515	-200.000	-0.020	0.283
-559.500	96.879	0.094	0.109
-558.485	-200.000	-0.010	-0.261
-557.471	-118.088	0.247	-0.044
-556.456	-200.000	0.010	-0.060
-555.442	-200.000	0.070	-0.510
-554.427	138.505	0.141	0.186
-553.412	80.365	-0.188	-0.203
-552.398	-12.700	-0.144	-0.095
-551.383	27.655	0.113	-0.096
-550.369	-133.234	-0.141	0.018
-549.354	176.481	0.154	-0.226
-548.339	726.357	-0.006	-0.016
-547.325	88.493	-0.074	-0.082
-546.310	-82.937	0.202	0.065
-545.296	-26.000	-0.227	0.134
-544.281	80.400	-0.190	0.206
-543.266	266.493	0.101	0.177
-542.252	-91.761	0.341	0.098
-541.237	180.841	0.130	0.192
-540.223	-42.301	0.098	-0.050
-539.208	127.033	0.134	0.171
-538.193	-31.111	0.296	-0.168
-537.179	5.911	-0.348	0.259
-536.164	-42.855	-0.323	-0.165
-535.150	22.026	-0.068	-0.056
-534.135	143.726	0.029	-0.039
-533.121	15.428	0.208	-0.164
-532.106	212.711	-0.179	-0.284
-531.091	60.646	-0.141	-0.140
-530.077	-200.000	0.031	0.358
-529.062	79.623	0.118	-0.128
-528.048	123.778	0.112	0.142
-527.033	789.945	-0.031	-0.085
-526.018	-200.000	0.031	0.152
-525.004	351.295	0.210	-0.419
-523.989	-22.849	-0.089	0.054
-522.975	-200.000	0.009	-0.168
-521.960	263.253	-0.092	-0.161
-520.945	139.973	0.059	0.078
-519.931	-200.000	0.081	-0.384
-518.916	120.744	-0.246	0.307
-517.902	-200.000	-0.061	-0.391
-516.887	217.560	-0.095	-0.151
-515.872	-200.000	0.021	-0.275
-514.858	-20.614	-0.236	-0.145
-513.843	-200.000	0.014	-0.088
-512.829	-71.777	-0.202	0.076
-511.814	-200.000	0.083	-0.423
-510.799	-88.416	-0.244	0.073
-509.785	-77.297	-0.461	0.161
-508.770	-200.000	-0.018	0.260
-507.756	800.000	0.043	-0.123
-506.741	-122.637	0.151	0.025
-505.726	-121.451	-0.375	-0.063
-504.712	69.340	-0.020	-0.020
-503.697	176.913	-0.108	-0.157
-502.683	-78.517	0.069	-0.024
-501.668	168.408	-0.103	-0.147
-500.653	-0.690	-0.141	0.100
-499.639	196.874	0.147	0.225
-498.624	666.238	-0.013	0.035
-497.610	22.026	-0.315	0.258
-496.595	800.000	0.093	-0.279
-495.581	230.048	0.031	-0.051
-494.566	176.954	-0.086	-0.125
-493.551	187.023	0.112	-0.167
-492.537	-157.383	0.329	0.020
-491.522	-33.471	-0.171	-0.095
-490.508	-109.025	-0.037	-0.008
-489.493	98.390	0.203	-0.235
-488.478	800.000	-0.105	0.318
-487.464	428.500	-0.046	0.099
-486.449	196.219	0.078	0.119
-485.435	436.150	0.144	-0.314
-484.420	40.982	0.051	0.046
-483.405	424.626	0.092	-0.199
-482.391	30.771	-0.187	0.160
-481.376	-200.000	0.006	0.029
-480.362	302.459	-0.049	0.091
-479.347	373.326	0.074	-0.151
-478.332	342.738	0.026	0.050
-477.318	-19.528	-0.152	0.095
-476.303	-117.071	0.118	-0.022
-475.289	800.000	-0.049	-0.159
-474.274	-92.193	-0.155	-0.044
-473.259	233.573	-0.121	-0.199
-472.245	-200.000	-0.006	-0.127
-471.230	7.608	-0.110	-0.083
-470.216	-200.000	-0.005	0.084
-469.201	-36.724	0.321	0.173
-468.186	32.184	0.252	-0.218
-467.172	-97.457	0.256	0.067
-466.157	664.295	-0.158	0.409
-465.143	-41.840	-0.135	0.070
-464.128	-21.989	0.138	0.084
-463.113	85.192	0.175	0.193
-462.099	-200.000	-0.059	0.299
-461.084	-93.861	0.120	0.033
-460.070	269.008	-0.240	0.422
-459.055	115.908	-0.441	0.542
-458.040	-18.474	0.234	0.147
-457.026	800.000	0.027	0.103
-456.011	18.667	-0.284	0.228
-454.997	65.423	-0.027	0.028
-453.982	-46.024	0.231	0.114
-452.968	-144.511	-0.495	-0.046
-451.953	-122.811	-0.081	-0.013
-450.938	-28.151	-0.421	-0.244
-449.924	518.525	-0.046	-0.109
-448.909	-199.596	-0.214	0.001
-447.895	326.945	-0.092	0.177
-446.880	128.200	-0.060	0.076
-445.865	244.841	0.160	0.270
-444.851	-143.774	0.190	-0.018
-443.836	-68.354	0.131	-0.051
-442.822	-22.056	-0.224	0.136
-441.807	265.503	0.144	0.252
-440.792	155.265	0.112	0.155
-439.778	207.114	0.156	0.243
-438.763	-85.477	0.243	0.076
-437.749	800.000	0.016	0.060
-436.734	151.084	-0.226	-0.308
-435.719	150.313	-0.145	0.197
-434.705	140.208	-0.185	0.244
-433.690	434.235	-0.052	-0.112
-432.676	266.863	0.112	0.196
-431.661	-124.664	0.238	0.037
-430.646	-100.912	-0.309	-0.076
-429.632	6.759	-0.110	-0.082
-428.617	-129.207	-0.120	-0.017
-427.603	-185.790	-0.414	-0.006
-426.588	33.267	-0.198	-0.172
-425.573	800.000	-0.047	-0.174
-424.559	75.829	0.074	0.079
-423.544	-54.104	-0.066	-0.030
-422.530	800.000	0.002	0.007
-421.515	-99.279	0.152	0.038
-420.500	348.082	-0.101	-0.199
-419.486	77.318	0.237	-0.252
-418.471	-174.761	0.485	0.014
-417.457	-14.415	-0.021	-0.013
-416.442	800.000	0.035	-0.109
-415.428	-164.625	0.248	-0.011
-414.413	-32.661	-0.217	-0.121
-413.398	-104.305	0.457	-0.106
-412.384	88.973	0.193	-0.215
-411.369	-123.713	0.094	0.015
-410.355	-68.204	-0.052	0.020
-409.340	-66.640	-0.266	0.106
-408.325	800.000	-0.013	0.046
-407.311	521.579	-0.203	0.476
-406.296	537.031	-0.043	-0.101
-405.282	-122.015	0.101	-0.017
-404.267	564.159	-0.078	-0.188
-403.252	110.941	-0.072	0.087
-402.238	97.599	-0.260	0.299
-401.223	-200.000	-0.004	0.114
-400.209	95.119	0.105	0.119
-399.194	567.192	-0.052	-0.125
-398.179	-102.966	0.238	-0.056
-397.165	-158.610	0.060	0.003
-396.150	30.435	-0.116	-0.099
-395.136	-200.000	-0.000	0.059
-394.121	2.055	0.077	0.055
-393.106	-21.569	-0.123	-0.075
-392.092	-153.282	0.346	-0.024
-391.077	-91.026	-0.109	0.031
-390.063	138.777	0.165	-0.217
-389.048	-12.364	-0.192	-0.125
-388.033	-25.061	0.328	-0.195
-387.019	-200.000	-0.024	0.116
-386.004	-200.000	0.075	0.369
-384.990	642.946	-0.097	-0.246
-383.975	-94.880	-0.218	-0.059
-382.960	87.847	0.087	0.097
-381.946	16.739	-0.139	0.110
-380.931	-7.813	0.179	-0.121
-379.917	-152.543	-0.167	-0.012
-378.902	800.000	-0.025	0.102
-377.888	-200.000	0.030	-0.283
-376.873	518.844	-0.030	-0.071
-375.858	231.980	-0.140	0.230
-374.844	596.188	-0.092	-0.228
-373.829	-33.869	-0.305	0.168
-372.815	-200.000	-0.070	0.511
-371.800	-173.210	0.129	-0.004
-370.785	178.621	-0.113	-0.165
-369.771	-49.653	0.337	-0.160
-368.756	304.773	-0.237	0.439
-367.742	-28.516	-0.206	0.119
-366.727	-200.000	-0.085	0.392
-365.712	145.447	-0.238	0.319
-364.698	246.196	0.181	-0.305
-363.683	-32.830	-0.205	0.114
-362.669	-15.565	-0.131	-0.084
-361.654	-145.689	0.144	0.013
-360.639	-64.053	0.119	-0.049
-359.625	2.311	-0.319	0.230
-358.610	-104.287	0.179	0.042
-357.596	-101.949	0.194	0.047
-356.581	-200.000	0.236	-0.001
-355.566	-200.000	-0.177	0.000
-354.552	1.577	-0.149	0.107
-353.537	78.013	-0.125	-0.133
-352.523	-79.729	0.460	0.155
-351.508	-19.386	0.296	0.183
-350.493	134.779	-0.073	-0.094
-349.479	-20.977	-0.208	0.127
-348.464	-4.511	-0.074	-0.051
-347.450	-200.000	-0.026	0.204
-346.435	124.692	-0.168	-0.211
-345.420	-151.032	0.335	-0.025
-344.406	-200.000	0.029	-0.129
-343.391	103.255	0.121	0.142
-342.377	-92.164	0.161	-0.045
-341.362	32.039	0.195	-0.168
-340.348	229.779	-0.050	-0.082
-339.333	-35.070	-0.179	0.097
-338.318	340.026	0.141	-0.274
-337.304	580.789	0.079	0.192
-336.289	148.740	0.090	0.122
-335.275	-200.000	0.066	0.354
-334.260	-39.780	-0.295	0.154
-333.245	-35.263	-0.206	0.112
-332.231	265.110	-0.215	0.374
-331.216	151.337	0.093	0.127
-330.202	800.000	0.023	0.066
-329.187	-97.178	0.287	0.075
-328.172	-200.000	-0.065	-0.318
-327.158	-200.000	-0.050	-0.256
-326.143	18.128	-0.108	-0.086
-325.129	-147.795	0.303	-0.025
-324.114	179.919	-0.097	-0.142
-323.099	12.724	0.175	0.135
-322.085	-10.557	0.060	0.040
-321.070	174.422	-0.076	-0.109
-320.056	549.039	-0.120	-0.287
-319.041	-200.000	-0.058	-0.347
-318.026	-48.162	0.145	0.070
-317.012	-145.840	0.232	-0.021
-315.997	-154.297	-0.220	-0.015
-314.983	728.196	0.054	-0.143
-313.968	-67.863	-0.279	0.108
-312.953	-200.000	0.003	0.096
-311.939	175.346	-0.081	-0.117
-310.924	800.000	0.094	-0.301
-309.910	-53.647	0.105	0.048
-308.895	1.981	-0.083	-0.059
-307.880	112.139	-0.026	-0.031
-306.866	-81.004	0.331	0.109
-305.851	440.622	-0.096	-0.210
-304.837	-200.000	-0.008	0.095
-303.822	-6.361	0.050	0.034
-302.807	156.791	-0.149	0.205
-301.793	165.268	-0.141	0.199
-300.778	249.297	0.124	-0.210
-299.764	-99.029	-0.083	-0.021
-298.749	-98.515	-0.303	-0.077
-297.735	-65.378	0.531	-0.213
-296.720	-200.000	0.039	-0.217
-295.705	-62.263	0.226	0.094
-294.691	25.401	-0.297	0.246
-293.676	110.732	-0.027	0.032
-292.662	311.720	-0.090	-0.169
-291.647	-98.409	0.332	-0.085
-290.632	-33.968	0.100	-0.055
-289.618	63.772	0.256	-0.256
-288.603	163.534	0.115	0.161
-287.589	159.090	0.120	0.166
-286.574	-200.000	0.042	0.219
-285.559	800.000	-0.101	-0.343
-284.545	200.895	-0.052	0.080
-283.530	-78.218	-0.162	-0.055
-282.516	288.688	0.121	0.218
-281.501	-117.436	0.224	0.040
-280.486	-200.000	0.064	0.326
-279.472	800.000	0.047	0.159
-278.457	165.173	0.034	0.047
-277.443	-110.519	-0.440	0.091
-276.428	231.340	0.143	0.233
-275.413	-36.061	0.082	-0.044
-274.399	-122.556	0.157	-0.025
-273.384	-86.166	0.369	0.113
-272.370	565.877	0.074	0.179
-271.355	-111.334	0.232	0.047
-270.340	-200.000	0.010	0.094
-269.326	-200.000	-0.017	-0.491
-268.311	800.000	-0.065	0.182
-267.297	800.000	-0.126	-0.389
-266.282	-200.000	0.022	-0.108
-265.267	66.518	-0.134	-0.135
-264.253	-36.939	0.092	0.049
-263.238	339.070	-0.139	-0.270
-262.224	-115.565	0.264	-0.049
-261.209	103.772	0.187	0.219
-260.195	-40.132	-0.403	-0.209
-259.180	-107.385	-0.429	-0.094
-258.165	-142.929	0.336	0.032
-257.151	-86.505	-0.100	0.030
-256.136	-82.398	-0.089	-0.029
-255.122	147.573	-0.249	-0.333
-254.107	180.050	-0.107	0.156
-253.092	64.291	-0.098	0.098
-252.078	-140.759	0.196	-0.020
-251.063	141.257	0.084	-0.110
-250.049	-11.108	0.206	0.135
-249.034	-9.785	-0.079	-0.052
-248.019	-49.019	0.131	0.062
-247.005	225.218	0.066	0.106
-245.990	73.535	0.228	-0.238
-244.976	6.362	0.150	0.111
-243.961	-200.000	-0.092	0.443
-242.946	-102.285	0.137	0.033
-241.932	-119.293	0.369	0.064
-240.917	200.167	0.040	0.061
-239.903	-111.975	-0.412	-0.083
-238.888	-91.526	0.086	-0.024
-237.873	-170.373	0.164	-0.006
-236.859	165.617	0.150	-0.210
-235.844	53.944	0.141	-0.135
-234.830	-200.000	-0.057	-0.419
-233.815	-11.924	-0.293	0.191
-232.800	-74.778	0.133	-0.048
-231.786	800.000	0.069	-0.207
-230.771	-152.623	0.243	0.017
-229.757	-200.000	0.297	-0.001
-228.742	113.297	0.207	0.249
-227.727	-117.121	0.200	-0.036
-226.713	167.972	0.112	-0.158
-225.698	-138.370	-0.108	0.012
-224.684	-71.683	0.089	0.033
-223.669	-136.878	0.120	0.014
-222.655	105.354	-0.080	0.094
-221.640	-70.591	-0.058	0.022
-220.625	-88.411	0.190	-0.056
-219.611	336.570	-0.056	-0.109
-218.596	80.854	-0.174	-0.186
-217.582	133.456	-0.078	0.100
-216.567	81.432	0.257	0.276
-215.552	-52.567	-0.261	-0.120
-214.538	2.322	0.128	0.092
-213.523	-49.516	0.042	-0.020
-212.509	381.660	-0.123	0.252
-211.494	-139.002	-0.291	-0.031
-210.479	-28.290	-0.422	0.242
-209.465	573.951	0.086	0.209
-208.450	197.212	-0.109	-0.165
-207.436	-69.921	-0.338	0.128
-206.421	-87.197	0.198	-0.060
-205.406	-26.507	-0.154	-0.089
-204.392	195.938	0.097	-0.147
-203.377	-200.000	0.000	0.013
-202.363	-96.477	0.241	0.063
-201.348	772.305	0.170	0.461
-200.333	-200.000	0.012	0.327
-199.319	653.218	-0.170	0.433
-198.304	-160.641	-0.277	-0.015
-197.290	-59.741	0.133	-0.056
-196.275	304.615	0.138	-0.254
-195.260	-145.361	0.263	0.024
-194.246	-200.000	-0.036	-0.376
-193.231	253.301	-0.116	0.197
-192.217	800.000	-0.064	-0.258
-191.202	89.278	0.374	0.414
-190.187	12.633	-0.216	-0.166
-189.173	49.267	0.209	0.195
-188.158	697.786	0.036	0.093
-187.144	-200.000	-0.010	-0.419
-186.129	800.000	-0.019	0.068
-185.114	800.000	0.096	-0.328
-184.100	4.168	-0.172	-0.125
-183.085	-121.664	0.111	-0.018
-182.071	-66.581	0.209	-0.082
-181.056	-124.285	-0.342	0.053
-180.042	-200.000	-0.032	0.195
-179.027	-200.000	-0.035	-0.278
-178.012	800.000	-0.052	0.152
-176.998	42.852	-0.065	0.059
-175.983	-4.979	0.175	0.119
-174.969	112.604	0.126	0.151
-173.954	800.000	0.016	0.047
-172.939	37.979	0.114	-0.100
-171.925	311.994	-0.151	0.281
-170.910	284.746	-0.093	-0.166
-169.896	125.195	0.136	0.170
-168.881	-200.000	0.024	-0.207
-167.866	-135.829	-0.221	0.026
-166.852	-69.095	0.266	-0.102
-165.837	275.462	-0.066	0.117
-164.823	153.475	0.207	-0.282
-163.808	-165.837	0.158	0.007
-162.793	-200.000	0.040	0.284
-161.779	-14.117	-0.207	-0.132
-160.764	-59.549	-0.182	0.077
-159.750	-200.000	0.030	0.152
-158.735	-107.547	-0.289	-0.063
-157.720	95.223	0.158	-0.178
-156.706	177.134	0.061	0.088
-155.691	151.603	-0.026	0.035
-154.677	39.846	0.166	0.148
-153.662	692.047	0.045	0.116
-152.647	58.576	0.376	-0.366
-151.633	119.919	-0.088	0.108
-150.618	436.741	0.137	0.295
-149.604	-156.259	-0.141	0.009
-148.589	46.255	-0.075	0.069
-147.574	-200.000	-0.006	-0.120
-146.560	-200.000	-0.013	0.341
-145.545	800.000	0.043	-0.153
-144.531	-149.773	-0.087	-0.007
-143.516	-21.261	0.249	0.151
-142.502	1.628	-0.167	0.119
-141.487	66.066	-0.154	0.155
-140.472	-104.215	0.067	0.015
-139.458	-91.233	-0.109	0.031
-138.443	-44.951	-0.266	-0.131
-137.429	-60.000	-0.302	-0.128
-136.414	-200.000	0.018	0.333
-135.399	42.161	0.179	0.161
-134.385	81.962	-0.135	-0.144
-133.370	797.911	-0.050	0.137
-132.356	-200.000	0.062	0.284
-131.341	273.769	0.143	0.250
-130.326	-39.220	0.174	0.090
-129.312	-200.000	0.062	0.312
-128.297	-200.000	-0.039	0.315
-127.283	-200.000	0.013	-0.064
-126.268	556.847	0.059	0.140
-125.253	-65.058	-0.348	0.139
-124.239	475.697	0.092	0.205
-123.224	-43.131	0.205	-0.103
-122.210	92.452	0.180	0.200
-121.195	316.615	-0.135	0.253
-120.180	-200.000	0.018	-0.256
