DTS Sentinel unit serial number:	SN413079Multiplexer serial number:	ORYXHardware model number:	OX4-SRSoftware version number:	ORYX F/W v4.00 Oryx Data Collector v3.7.2.0data status	okinstallation	princeton_trtdifferential loss correction	single-endedforward channel	channel 3reverse channel	N/Adate	2019/09/11time	05:34:10forward acquisition time	60.00reverse acquisition time	0.00gamma	496.2192k internal	0.2330k external	0.2330temperature offset calibration	0.9913default loss term (dB/km)	0.3790temperature slope calibration	1.0000multiplexer offset coefficient	1.0000multiplexer slope coefficient	1.0000fibre end	0.00T internal ref (°C)	29.41T ext. ref 1 (°C)	-0.25T ext. ref 2 (°C)	23.48length (m)	temperature (°C)	Stokes	anti-Stokes-747.200	-140.083	0.144	0.015
-746.185	-200.000	0.024	0.280
-745.171	-46.997	0.240	0.118
-744.156	79.780	0.263	0.284
-743.142	-8.892	-0.082	-0.055
-742.127	557.665	0.052	-0.126
-741.112	330.745	-0.092	0.178
-740.098	152.215	0.326	0.448
-739.083	-112.758	0.361	-0.072
-738.069	91.792	0.291	0.329
-737.054	450.043	0.093	-0.206
-736.039	6.615	-0.432	-0.323
-735.025	750.158	-0.132	0.358
-734.010	-8.237	-0.116	0.079
-732.996	-100.095	-0.272	-0.068
-731.981	375.820	-0.062	-0.128
-730.966	-19.516	-0.300	-0.187
-729.952	147.139	-0.153	-0.207
-728.937	-200.000	-0.011	-0.087
-727.923	4.025	-0.102	-0.075
-726.908	34.017	0.220	0.193
-725.894	-200.000	0.000	0.048
-724.879	-123.933	-0.126	0.020
-723.864	33.686	0.319	0.279
-722.850	327.342	-0.214	-0.412
-721.835	93.049	0.160	0.182
-720.821	22.038	-0.181	-0.149
-719.806	3.336	-0.067	-0.049
-718.791	28.170	-0.067	-0.057
-717.777	800.000	-0.084	0.249
-716.762	52.124	-0.263	-0.252
-715.748	-107.102	0.066	0.015
-714.733	-102.102	-0.211	0.051
-713.718	-120.939	-0.237	-0.040
-712.704	83.754	0.215	-0.236
-711.689	800.000	-0.092	-0.387
-710.675	-95.632	-0.262	0.071
-709.660	-147.676	0.192	0.016
-708.645	800.000	-0.077	0.274
-707.631	-200.000	0.021	-0.156
-706.616	800.000	0.056	-0.174
-705.602	-80.816	-0.126	-0.042
-704.587	137.205	0.222	-0.292
-703.572	508.353	-0.138	-0.322
-702.558	-200.000	-0.063	-0.340
-701.543	-54.891	0.218	-0.099
-700.529	-52.068	-0.292	0.136
-699.514	-200.000	-0.175	0.000
-698.499	49.084	0.182	0.172
-697.485	-200.000	-0.013	0.151
-696.470	-200.000	-0.005	0.222
-695.456	-200.000	-0.011	-0.234
-694.441	174.349	-0.128	-0.186
-693.426	353.971	-0.163	0.325
-692.412	-200.000	0.069	0.534
-691.397	-31.437	-0.244	-0.138
-690.383	-12.917	0.302	-0.198
-689.368	397.382	-0.077	-0.162
-688.354	-200.000	-0.019	-0.109
-687.339	-50.119	-0.131	-0.062
-686.324	-34.848	0.174	-0.095
-685.310	-200.000	-0.005	0.177
-684.295	-97.074	0.402	-0.106
-683.281	800.000	-0.085	0.243
-682.266	117.947	0.197	-0.244
-681.251	103.577	-0.053	-0.063
-680.237	-200.000	0.021	-0.190
-679.222	-200.000	0.011	-0.221
-678.208	265.507	-0.107	-0.188
-677.193	-7.619	0.088	0.060
-676.178	-56.519	-0.191	0.085
-675.164	-0.466	0.217	0.155
-674.149	203.329	0.065	-0.100
-673.135	6.259	-0.283	0.211
-672.120	691.029	0.128	0.336
-671.105	-33.237	-0.290	-0.161
-670.091	-0.767	-0.128	-0.091
-669.076	119.022	0.197	-0.244
-668.062	499.864	-0.074	-0.172
-667.047	618.046	0.018	0.046
-666.032	-19.199	0.048	0.030
-665.018	-168.017	0.401	0.016
-664.003	-67.831	-0.373	-0.146
-662.989	-18.644	0.265	-0.166
-661.974	9.213	-0.250	-0.189
-660.959	-125.976	-0.119	0.018
-659.945	-118.705	0.158	-0.028
-658.930	-129.605	-0.258	-0.036
-657.916	-200.000	-0.012	-0.104
-656.901	-164.489	-0.155	-0.007
-655.886	308.388	-0.116	0.217
-654.872	267.838	0.058	-0.102
-653.857	1.592	0.252	-0.182
-652.843	-142.117	-0.487	0.049
-651.828	110.154	0.275	-0.332
-650.814	-200.000	-0.077	0.000
-649.799	800.000	0.088	0.271
-648.784	-71.548	-0.121	0.045
-647.770	-106.239	0.503	-0.113
-646.755	183.607	-0.117	0.174
-645.741	800.000	-0.029	0.111
-644.726	185.220	-0.113	-0.168
-643.711	272.320	0.034	-0.060
-642.697	-87.963	-0.296	-0.089
-641.682	-124.112	-0.185	-0.029
-640.668	652.735	-0.083	0.213
-639.653	-61.873	-0.059	0.025
-638.638	79.848	0.055	0.059
-637.624	-134.204	-0.177	0.022
-636.609	-5.966	-0.219	-0.150
-635.595	-200.000	-0.026	-0.276
-634.580	90.338	0.174	0.195
-633.565	-2.116	-0.175	0.123
-632.551	73.475	0.046	0.049
-631.536	90.406	0.151	-0.169
-630.522	-200.000	-0.007	0.195
-629.507	122.475	-0.262	0.328
-628.492	-107.149	-0.061	0.014
-627.478	-154.631	-0.147	-0.010
-626.463	-114.855	-0.206	-0.039
-625.449	-0.771	0.415	-0.295
-624.434	704.786	0.057	-0.152
-623.419	26.922	-0.126	-0.106
-622.405	438.843	0.053	-0.115
-621.390	-200.000	0.021	-0.187
-620.376	-67.179	0.076	0.030
-619.361	97.290	-0.248	-0.286
-618.346	211.096	-0.151	0.238
-617.332	-148.645	-0.448	-0.037
-616.317	28.030	-0.145	0.122
-615.303	207.554	0.028	-0.044
-614.288	38.074	0.164	0.146
-613.273	-142.796	0.257	-0.025
-612.259	-170.146	-0.154	-0.005
-611.244	-57.258	0.249	0.110
-610.230	-200.000	0.060	0.268
-609.215	-120.753	-0.345	-0.058
-608.201	120.332	-0.075	0.093
-607.186	58.355	-0.031	0.031
-606.171	-200.000	0.022	-0.301
-605.157	216.645	-0.039	-0.062
-604.142	0.389	0.210	-0.150
-603.128	149.363	0.200	-0.272
-602.113	20.353	0.142	0.115
-601.098	-117.975	0.097	0.017
-600.084	291.385	0.170	0.311
-599.069	800.000	0.060	-0.193
-598.055	333.000	0.180	-0.349
-597.040	-200.000	0.036	-0.276
-596.025	294.336	0.093	-0.169
-595.011	-137.368	-0.332	-0.038
-593.996	17.742	-0.032	0.026
-592.982	222.341	-0.096	-0.155
-591.967	50.432	0.339	0.320
-590.952	-61.871	0.068	0.029
-589.938	-32.345	-0.312	-0.174
-588.923	26.211	-0.061	-0.051
-587.909	800.000	-0.091	0.290
-586.894	-129.159	0.438	0.061
-585.879	800.000	0.051	-0.161
-584.865	-200.000	-0.012	-0.059
-583.850	-186.366	0.074	0.001
-582.836	800.000	-0.125	-0.369
-581.821	259.330	-0.134	-0.231
-580.806	-200.000	0.019	0.114
-579.792	-15.868	0.125	-0.080
-578.777	-27.145	0.225	-0.131
-577.763	98.843	0.068	0.078
-576.748	26.354	-0.289	0.242
-575.733	800.000	-0.080	-0.263
-574.719	79.396	-0.143	0.154
-573.704	-68.708	0.142	0.055
-572.690	800.000	-0.062	0.223
-571.675	49.325	-0.064	-0.060
-570.661	-39.632	0.181	-0.094
-569.646	800.000	0.072	-0.232
-568.631	171.586	-0.112	0.161
-567.617	268.491	-0.128	-0.224
-566.602	-164.520	-0.228	0.010
-565.588	751.094	-0.069	-0.185
-564.573	540.012	0.075	0.178
-563.558	543.535	-0.072	-0.172
-562.544	-200.000	0.056	-0.559
-561.529	-123.586	0.372	-0.059
-560.515	-17.416	-0.064	0.040
-559.500	55.491	-0.154	-0.149
-558.485	-159.387	-0.249	0.014
-557.471	426.737	-0.077	0.165
-556.456	628.113	0.080	-0.201
-555.442	194.651	0.183	-0.277
-554.427	-200.000	0.009	-0.199
-553.412	800.000	-0.095	-0.286
-552.398	800.000	-0.049	-0.208
-551.383	471.539	-0.118	0.266
-550.369	11.544	-0.111	0.085
-549.354	62.748	-0.123	-0.123
-548.339	800.000	-0.027	0.083
-547.325	385.425	0.138	0.285
-546.310	-83.756	-0.180	0.057
-545.296	121.245	-0.089	-0.111
-544.281	-103.176	0.224	0.053
-543.266	-200.000	0.021	-0.106
-542.252	-200.000	0.021	0.211
-541.237	169.474	0.048	-0.068
-540.223	555.772	-0.144	0.347
-539.208	16.702	0.176	-0.139
-538.193	364.608	0.152	-0.305
-537.179	-141.476	0.328	0.033
-536.164	-132.440	-0.250	-0.032
-535.150	38.863	0.254	-0.226
-534.135	-29.804	0.027	-0.015
-533.121	22.333	0.134	-0.110
-532.106	-131.674	0.196	-0.026
-531.091	-79.937	0.138	-0.046
-530.077	-170.726	-0.061	-0.002
-529.062	266.168	0.039	0.068
-528.048	-17.491	0.208	0.131
-527.033	800.000	0.092	0.308
-526.018	-80.854	0.266	0.088
-525.004	521.084	-0.110	-0.258
-523.989	9.628	-0.078	0.059
-522.975	-30.405	-0.223	-0.126
-521.960	-185.307	-0.316	0.005
-520.945	65.687	0.255	-0.258
-519.931	-182.805	0.106	0.002
-518.916	79.901	-0.167	-0.179
-517.902	99.895	-0.252	-0.291
-516.887	197.406	0.037	-0.057
-515.872	-36.994	0.136	-0.073
-514.858	-59.449	0.166	0.071
-513.843	-200.000	0.023	0.107
-512.829	-180.507	-0.186	-0.004
-511.814	-200.000	-0.017	-0.241
-510.799	174.341	0.168	0.242
-509.785	208.296	-0.118	0.184
-508.770	64.699	0.105	0.105
-507.756	-197.991	0.079	-0.000
-506.741	-97.285	0.080	-0.021
-505.726	-0.598	-0.116	-0.082
-504.712	-99.041	-0.199	-0.050
-503.697	158.503	-0.151	0.209
-502.683	-133.851	0.090	-0.011
-501.668	-137.397	0.334	0.038
-500.653	63.041	-0.060	-0.060
-499.639	296.810	0.037	-0.068
-498.624	-72.832	-0.243	0.089
-497.610	-52.872	-0.232	-0.107
-496.595	-200.000	-0.037	0.252
-495.581	-97.257	0.600	0.156
-494.566	-124.475	-0.283	-0.044
-493.551	-100.832	0.104	0.025
-492.537	-200.000	0.002	0.157
-491.522	385.324	0.077	0.157
-490.508	196.828	-0.074	-0.112
-489.493	-98.852	-0.352	0.089
-488.478	84.834	-0.163	-0.178
-487.464	-200.000	-0.051	0.316
-486.449	512.539	0.106	0.245
-485.435	62.283	0.161	0.160
-484.420	800.000	0.034	0.104
-483.405	520.359	-0.020	0.047
-482.391	-86.695	-0.418	0.127
-481.376	100.752	0.061	0.071
-480.362	91.598	0.108	0.121
-479.347	53.799	-0.150	-0.144
-478.332	-101.352	0.087	-0.021
-477.318	88.141	0.152	0.168
-476.303	-11.310	-0.082	0.054
-475.289	103.696	0.030	0.035
-474.274	0.180	0.240	0.171
-473.259	-171.343	-0.099	-0.003
-472.245	352.537	-0.171	-0.339
-471.230	61.276	-0.187	0.185
-470.216	-200.000	0.019	0.151
-469.201	168.469	-0.119	0.169
-468.186	-111.104	-0.095	0.019
-467.172	-200.000	0.017	-0.143
-466.157	357.510	0.164	-0.326
-465.143	111.740	0.005	-0.006
-464.128	-112.570	0.249	-0.050
-463.113	-34.784	0.414	-0.225
-462.099	800.000	-0.097	0.305
-461.084	156.687	-0.114	-0.157
-460.070	-200.000	0.006	-0.101
-459.055	71.612	-0.054	-0.056
-458.040	-200.000	-0.066	0.340
-457.026	-111.708	-0.310	0.063
-456.011	110.722	-0.074	-0.089
-454.997	-200.000	-0.014	-0.300
-453.982	-22.651	-0.149	0.090
-452.968	4.020	0.118	0.086
-451.953	-44.985	0.083	-0.041
-450.938	542.378	0.094	-0.224
-449.924	-37.309	-0.282	-0.150
-448.909	-129.245	0.197	0.027
-447.895	-35.138	-0.350	-0.190
-446.880	-200.000	-0.015	0.167
-445.865	-2.229	0.084	0.059
-444.851	207.568	-0.062	-0.096
-443.836	-89.685	0.501	0.146
-442.822	375.625	0.210	-0.425
-441.807	167.747	-0.217	0.306
-440.792	-200.000	-0.013	0.375
-439.778	-70.213	0.061	-0.023
-438.763	23.241	0.149	0.122
-437.749	-14.703	-0.094	0.060
-436.734	604.938	0.152	0.376
-435.719	-30.521	-0.166	-0.094
-434.705	92.220	0.104	-0.117
-433.690	-200.000	0.036	-0.208
-432.676	-116.532	0.184	0.034
-431.661	-139.154	-0.141	-0.015
-430.646	-131.002	-0.166	0.022
-429.632	-118.096	0.082	0.015
-428.617	800.000	-0.037	0.115
-427.603	120.023	-0.144	0.178
-426.588	-51.291	-0.240	0.112
-425.573	-200.000	0.034	-0.179
-424.559	-200.000	-0.034	0.424
-423.544	200.051	0.030	-0.046
-422.530	-200.000	0.003	-0.038
-421.515	316.865	0.165	-0.309
-420.500	319.301	0.062	0.117
-419.486	-149.825	-0.169	-0.013
-418.471	662.309	-0.104	-0.267
-417.457	-87.561	0.103	-0.031
-416.442	800.000	-0.037	-0.148
-415.428	151.525	0.180	0.244
-414.413	800.000	0.048	0.168
-413.398	104.405	0.191	0.223
-412.384	-114.661	-0.186	0.035
-411.369	334.351	-0.080	-0.154
-410.355	1.951	-0.227	-0.163
-409.340	-41.638	0.175	-0.090
-408.325	800.000	-0.045	-0.153
-407.311	2.146	-0.291	0.209
-406.296	40.476	-0.022	-0.019
-405.282	-47.543	-0.099	0.048
-404.267	86.403	-0.222	0.243
-403.252	800.000	0.129	0.443
-402.238	-200.000	0.035	-0.285
-401.223	71.300	-0.129	0.133
-400.209	120.234	0.150	0.185
-399.194	30.807	-0.164	-0.140
-398.179	-67.677	0.193	0.075
-397.165	44.008	-0.282	-0.257
-396.150	96.171	0.101	-0.115
-395.136	290.791	0.092	-0.166
-394.121	124.213	0.100	-0.124
-393.106	-127.794	-0.203	0.029
-392.092	-90.705	0.093	-0.027
-391.077	-200.000	0.019	-0.169
-390.063	-124.897	0.077	0.012
-389.048	-144.082	-0.186	-0.017
-388.033	39.281	0.175	0.156
-387.019	-200.000	0.020	-0.184
-386.004	-156.855	0.301	0.018
-384.990	-137.492	-0.076	0.008
-383.975	-200.000	-0.012	0.344
-382.960	395.493	-0.061	-0.126
-381.946	-54.819	-0.134	0.060
-380.931	-103.756	0.211	-0.049
-379.917	241.426	0.056	0.093
-378.902	-200.000	0.023	-0.234
-377.888	-51.499	0.171	-0.079
-376.873	1.312	-0.148	-0.105
-375.858	-200.000	0.006	-0.077
-374.844	-12.929	-0.144	0.093
-373.829	-110.385	0.137	0.028
-372.815	-23.749	0.289	-0.172
-371.800	-129.544	-0.361	0.050
-370.785	81.693	0.230	0.247
-369.771	-132.448	-0.046	0.006
-368.756	-200.000	-0.019	0.152
-367.742	-113.467	0.318	0.062
-366.727	-181.071	-0.322	0.006
-365.712	355.770	-0.002	0.004
-364.698	63.716	0.062	0.062
-363.683	-15.923	0.099	0.062
-362.669	-200.000	0.017	-0.412
-361.654	-200.000	0.009	-0.245
-360.639	-103.376	0.062	-0.015
-359.625	800.000	0.087	-0.322
-358.610	-151.185	0.100	0.007
-357.596	-19.005	0.232	0.143
-356.581	-158.759	-0.177	-0.010
-355.566	34.764	-0.069	-0.059
-354.552	92.505	-0.260	0.291
-353.537	-21.081	0.196	0.119
-352.523	800.000	-0.077	0.271
-351.508	-4.885	-0.152	-0.104
-350.493	136.022	-0.054	-0.069
-349.479	256.473	-0.162	0.276
-348.464	13.496	0.084	0.065
-347.450	-78.043	-0.127	0.043
-346.435	-200.000	0.052	-0.250
-345.420	-60.725	0.234	0.098
-344.406	52.456	0.244	0.231
-343.391	-104.732	0.146	0.033
-342.377	-31.815	-0.194	0.108
-341.362	800.000	-0.061	0.197
-340.348	-117.515	0.271	0.049
-339.333	159.402	0.153	0.211
-338.318	307.290	0.049	0.090
-337.304	-164.238	-0.120	0.005
-336.289	250.039	-0.126	-0.212
-335.275	-136.555	0.116	0.013
-334.260	-13.884	-0.117	-0.075
-333.245	-200.000	0.086	0.456
-332.231	223.899	0.191	0.305
-331.216	-55.508	-0.240	-0.107
-330.202	800.000	-0.010	0.035
-329.187	42.938	0.083	-0.075
-328.172	-83.225	0.258	0.082
-327.158	678.523	0.038	-0.098
-326.143	-200.000	0.184	-0.000
-325.129	-200.000	0.054	0.251
-324.114	-83.593	-0.148	0.047
-323.099	78.445	-0.205	0.217
-322.085	471.334	0.069	-0.154
-321.070	216.640	-0.101	-0.159
-320.056	-87.024	0.328	-0.099
-319.041	800.000	0.065	0.198
-318.026	-88.765	-0.241	0.071
-317.012	128.520	-0.227	-0.287
-315.997	84.289	0.209	0.227
-314.983	-200.000	0.037	0.196
-313.968	81.958	0.172	-0.184
-312.953	800.000	0.045	-0.155
-311.939	-131.592	-0.034	0.004
-310.924	-100.893	0.026	-0.006
-309.910	219.669	0.247	-0.391
-308.895	-34.072	-0.097	0.053
-307.880	9.034	-0.395	0.295
-306.866	5.164	0.218	0.159
-305.851	51.078	0.200	-0.188
-304.837	1.697	-0.163	0.116
-303.822	-156.003	-0.310	0.019
-302.807	-52.575	-0.239	0.109
-301.793	219.382	-0.006	0.009
-300.778	-96.706	0.249	-0.065
-299.764	-136.268	0.069	0.008
-298.749	186.711	0.115	0.169
-297.735	-16.947	-0.455	0.284
-296.720	-200.000	-0.005	-0.234
-295.705	-200.000	-0.021	-0.145
-294.691	13.950	-0.189	0.145
-293.676	525.767	-0.062	0.144
-292.662	800.000	0.017	0.060
-291.647	-119.644	-0.167	0.029
-290.632	-200.000	-0.003	-0.069
-289.618	-8.915	0.571	-0.378
-288.603	-200.000	-0.021	0.189
-287.589	492.887	0.071	-0.162
-286.574	800.000	0.064	-0.241
-285.559	31.943	-0.076	-0.064
-284.545	-72.288	0.139	-0.051
-283.530	558.369	0.106	0.254
-282.516	-187.503	-0.339	-0.004
-281.501	-123.387	0.323	-0.051
-280.486	800.000	0.047	-0.173
-279.472	314.083	0.130	-0.241
-278.457	77.870	0.071	-0.075
-277.443	142.807	0.233	-0.306
-276.428	169.832	-0.105	-0.149
-275.413	-34.908	-0.182	-0.098
-274.399	-163.587	0.248	-0.012
-273.384	800.000	-0.087	0.259
-272.370	-71.742	-0.106	-0.039
-271.355	-139.916	-0.116	-0.012
-270.340	800.000	0.088	-0.288
-269.326	-0.234	0.292	0.205
-268.311	22.693	-0.015	0.012
-267.297	48.352	-0.201	0.186
-266.282	-200.000	0.023	-0.179
-265.267	-69.527	-0.073	0.028
-264.253	-132.950	-0.152	-0.019
-263.238	800.000	0.060	-0.188
-262.224	-25.243	0.204	0.119
-261.209	-46.728	0.182	-0.088
-260.195	-200.000	-0.059	-0.273
-259.180	-200.000	0.046	0.209
-258.165	264.959	0.190	0.327
-257.151	-182.300	-0.243	0.004
-256.136	800.000	-0.085	-0.232
-255.122	-128.378	-0.094	-0.013
-254.107	-76.590	0.486	0.168
-253.092	-49.410	-0.264	0.124
-252.078	420.731	0.192	-0.407
-251.063	-85.699	-0.340	-0.104
-250.049	800.000	0.050	0.158
-249.034	314.965	-0.055	0.102
-248.019	-200.000	0.303	0.001
-247.005	-22.623	0.140	0.084
-245.990	709.997	0.046	-0.120
-244.976	-55.455	-0.167	-0.074
-243.961	12.098	0.092	0.070
-242.946	32.605	-0.116	-0.099
-241.932	-180.789	0.220	0.004
-240.917	-168.878	-0.171	-0.006
-239.903	-138.067	0.216	-0.024
-238.888	130.374	-0.088	0.111
-237.873	-200.000	0.132	-0.001
-236.859	256.213	0.124	-0.210
-235.844	-148.150	-0.452	0.037
-234.830	800.000	-0.139	-0.380
-233.815	340.152	-0.156	-0.299
-232.800	-74.638	0.140	0.050
-231.786	310.409	-0.061	-0.113
-230.771	-111.881	0.421	-0.084
-229.757	-130.412	-0.320	-0.043
-228.742	486.783	0.124	0.278
-227.727	27.226	-0.128	0.106
-226.713	30.605	0.016	-0.013
-225.698	-82.354	-0.115	-0.037
-224.684	100.304	-0.045	0.051
-223.669	-200.000	-0.024	0.250
-222.655	-34.309	0.243	0.132
-221.640	-131.256	-0.032	0.004
-220.625	-156.876	0.088	0.005
-219.611	55.592	0.228	0.218
-218.596	472.799	-0.085	0.189
-217.582	-103.065	-0.164	0.038
-216.567	800.000	0.093	0.294
-215.552	-2.515	0.178	-0.123
-214.538	-200.000	0.009	-0.191
-213.523	37.331	0.042	0.037
-212.509	-99.335	-0.082	0.020
-211.494	-18.150	0.042	-0.026
-210.479	-149.661	0.208	0.016
-209.465	-118.880	-0.507	0.088
-208.450	-200.000	-0.021	0.267
-207.436	20.941	-0.065	-0.052
-206.421	-12.028	-0.103	-0.066
-205.406	255.256	-0.061	-0.103
-204.392	-30.367	-0.225	-0.126
-203.377	-85.437	-0.352	-0.108
-202.363	-200.000	-0.027	0.171
-201.348	209.511	-0.021	0.033
-200.333	224.998	0.188	0.300
-199.319	-200.000	-0.001	-0.006
-198.304	181.962	-0.104	0.151
-197.290	-147.877	0.195	-0.016
-196.275	-163.625	-0.364	0.017
-195.260	496.982	0.168	0.381
-194.246	-60.348	-0.276	0.116
-193.231	-147.486	-0.339	-0.028
-192.217	-102.279	0.310	0.073
-191.202	-34.878	-0.243	-0.131
-190.187	83.418	0.116	0.124
-189.173	-200.000	-0.017	-0.152
-188.158	800.000	0.087	-0.307
-187.144	-88.328	0.062	0.018
-186.129	-100.839	0.398	0.097
-185.114	800.000	0.011	0.046
-184.100	280.208	-0.119	0.210
-183.085	-200.000	0.066	-0.288
-182.071	190.311	-0.064	0.095
-181.056	-51.019	-0.226	0.104
-180.042	84.870	-0.104	0.113
-179.027	-9.705	0.133	0.087
-178.012	522.403	0.017	0.039
-176.998	-200.000	-0.088	0.399
-175.983	-200.000	-0.012	-0.281
-174.969	133.347	0.228	0.291
-173.954	800.000	-0.083	0.273
-172.939	17.254	-0.234	-0.183
-171.925	-200.000	0.013	-0.273
-170.910	158.622	0.167	-0.229
-169.896	-30.750	0.159	-0.089
-168.881	-200.000	-0.001	-0.031
-167.866	118.887	0.211	0.257
-166.852	751.573	-0.062	-0.164
-165.837	-200.000	-0.001	-0.164
-164.823	-200.000	-0.034	-0.149
-163.808	-200.000	0.009	-0.096
-162.793	-200.000	0.009	0.376
-161.779	-139.294	-0.311	0.033
-160.764	244.647	0.111	-0.183
-159.750	-22.010	0.044	0.027
-158.735	181.767	-0.169	-0.245
-157.720	-173.500	-0.069	-0.002
-156.706	-200.000	-0.008	-0.232
-155.691	360.498	0.042	-0.083
-154.677	800.000	-0.103	0.325
-153.662	-39.853	0.191	0.098
-152.647	160.784	-0.078	0.107
-151.633	-5.184	0.181	-0.122
-150.618	800.000	0.122	-0.343
-149.604	46.877	0.015	-0.014
-148.589	-4.516	0.121	0.082
-147.574	367.295	0.247	0.490
-146.560	-200.000	0.003	0.327
-145.545	-55.132	0.204	0.090
-144.531	-15.120	-0.303	-0.191
-143.516	50.407	0.130	-0.121
-142.502	67.721	-0.184	0.185
-141.487	-200.000	-0.041	0.328
-140.472	-5.847	0.330	0.222
-139.458	212.786	0.245	-0.381
-138.443	-123.602	-0.178	0.028
-137.429	-200.000	0.003	0.084
-136.414	-200.000	-0.032	0.153
-135.399	-200.000	-0.057	0.321
-134.385	15.631	-0.326	0.252
-133.370	-121.158	-0.014	-0.002
-132.356	505.635	0.085	0.193
-131.341	-82.226	0.287	-0.092
-130.326	-200.000	-0.022	0.332
-129.312	-46.576	0.218	-0.105
-128.297	-170.355	-0.216	-0.007
-127.283	79.897	-0.108	0.114
-126.268	207.429	0.137	-0.210
-125.253	90.381	0.105	0.115
-124.239	-96.121	0.178	-0.047
-123.224	185.932	-0.165	0.241
-122.210	800.000	-0.061	0.219
-121.195	-7.570	0.115	-0.077
