DTS Sentinel unit serial number:	SN413079Multiplexer serial number:	ORYXHardware model number:	OX4-SRSoftware version number:	ORYX F/W v4.00 Oryx Data Collector v3.7.2.0data status	okinstallation	princeton_trtdifferential loss correction	single-endedforward channel	channel 3reverse channel	N/Adate	2019/09/11time	03:14:11forward acquisition time	60.00reverse acquisition time	0.00gamma	496.2192k internal	0.2332k external	0.2332temperature offset calibration	0.9909default loss term (dB/km)	0.3790temperature slope calibration	1.0000multiplexer offset coefficient	1.0000multiplexer slope coefficient	1.0000fibre end	0.00T internal ref (°C)	29.37T ext. ref 1 (°C)	-0.30T ext. ref 2 (°C)	24.03length (m)	temperature (°C)	Stokes	anti-Stokes-747.200	-21.805	-0.197	0.121
-746.185	612.400	0.112	0.282
-745.171	-83.687	0.232	-0.075
-744.156	87.236	-0.321	0.357
-743.142	115.155	-0.174	0.213
-742.127	-141.574	-0.218	-0.022
-741.112	154.050	0.233	0.322
-740.098	800.000	-0.163	0.546
-739.083	388.309	0.128	-0.267
-738.069	73.669	-0.152	-0.160
-737.054	-15.219	-0.337	-0.217
-736.039	-85.715	-0.288	0.090
-735.025	-18.056	0.198	0.125
-734.010	-200.000	-0.059	-0.336
-732.996	16.302	-0.128	-0.102
-731.981	-43.561	0.241	0.122
-730.966	108.342	-0.228	-0.274
-729.952	172.073	-0.221	-0.319
-728.937	60.071	-0.197	-0.196
-727.923	209.338	-0.059	-0.094
-726.908	800.000	-0.062	-0.181
-725.894	116.192	-0.070	0.087
-724.879	474.734	0.206	0.468
-723.864	-200.000	-0.010	0.309
-722.850	800.000	-0.092	0.277
-721.835	-200.000	-0.016	-0.191
-720.821	123.060	0.080	-0.100
-719.806	-200.000	-0.012	-0.425
-718.791	-200.000	-0.020	0.237
-717.777	-149.272	0.358	0.029
-716.762	154.864	0.035	-0.049
-715.748	800.000	-0.040	0.125
-714.733	-4.143	-0.253	-0.176
-713.718	216.165	0.043	0.069
-712.704	-28.580	-0.170	0.098
-711.689	-200.000	0.005	0.037
-710.675	-95.850	-0.551	0.148
-709.660	-126.720	-0.484	-0.072
-708.645	-86.259	-0.128	0.040
-707.631	-94.119	-0.146	-0.040
-706.616	29.788	-0.054	-0.046
-705.602	-76.468	0.133	0.047
-704.587	1.337	0.074	-0.053
-703.572	-200.000	0.029	-0.364
-702.558	-79.188	-0.327	-0.111
-701.543	800.000	0.005	-0.019
-700.529	-200.000	0.036	-0.316
-699.514	9.021	-0.246	-0.187
-698.499	329.064	-0.114	-0.219
-697.485	-174.477	0.189	0.005
-696.470	95.531	-0.195	0.223
-695.456	-29.466	0.193	0.111
-694.441	-151.136	-0.301	-0.023
-693.426	-47.449	-0.306	-0.150
-692.412	-181.006	0.286	-0.006
-691.397	11.363	0.028	-0.022
-690.383	800.000	0.075	-0.219
-689.368	24.680	0.126	-0.105
-688.354	-42.164	-0.305	-0.156
-687.339	148.960	-0.234	-0.318
-686.324	508.807	-0.095	0.222
-685.310	-200.000	0.003	0.099
-684.295	-151.169	-0.450	0.034
-683.281	456.331	-0.190	-0.423
-682.266	-200.000	-0.042	-0.264
-681.251	20.071	-0.299	-0.242
-680.237	190.286	0.172	0.259
-679.222	53.105	0.067	-0.064
-678.208	105.704	0.211	-0.251
-677.193	800.000	-0.077	-0.270
-676.178	133.471	-0.053	0.069
-675.164	-178.947	0.194	0.004
-674.149	-58.869	-0.151	-0.065
-673.135	-37.658	-0.426	0.228
-672.120	-200.000	0.026	0.274
-671.105	506.911	0.059	0.137
-670.091	414.853	-0.057	-0.122
-669.076	-165.019	0.210	-0.009
-668.062	-31.698	-0.256	0.144
-667.047	29.945	-0.376	0.322
-666.032	128.241	0.140	-0.179
-665.018	-200.000	-0.026	-0.182
-664.003	800.000	-0.134	0.395
-662.989	246.035	0.137	-0.231
-661.974	17.038	-0.182	-0.145
-660.959	267.093	0.126	0.220
-659.945	-4.155	-0.205	-0.142
-658.930	-200.000	-0.020	-0.137
-657.916	-200.000	-0.005	0.105
-656.901	272.232	-0.059	0.105
-655.886	-119.657	0.044	0.008
-654.872	17.110	0.356	0.283
-653.857	-200.000	-0.015	-0.211
-652.843	29.038	0.238	-0.202
-651.828	800.000	-0.056	-0.195
-650.814	9.826	-0.251	-0.191
-649.799	800.000	-0.063	0.238
-648.784	184.216	0.119	-0.177
-647.770	184.641	0.273	-0.405
-646.755	-43.096	0.253	0.129
-645.741	-63.417	0.300	0.124
-644.726	-134.306	0.127	-0.016
-643.711	-88.641	0.169	-0.050
-642.697	-200.000	0.022	-0.147
-641.682	-35.806	-0.161	-0.087
-640.668	800.000	0.020	-0.088
-639.653	-200.000	-0.060	-0.273
-638.638	-17.017	-0.211	-0.134
-637.624	-52.931	-0.058	-0.027
-636.609	91.708	-0.019	0.022
-635.595	-116.817	0.349	0.064
-634.580	-64.538	0.081	0.033
-633.565	-116.775	0.160	0.029
-632.551	-51.021	-0.073	-0.034
-631.536	-86.167	-0.159	-0.049
-630.522	-200.000	0.022	0.154
-629.507	-200.000	0.035	0.284
-628.492	173.603	-0.144	0.208
-627.478	472.728	-0.062	-0.141
-626.463	-86.652	-0.274	-0.084
-625.449	-13.145	-0.304	-0.198
-624.434	481.753	-0.082	0.185
-623.419	-200.000	0.025	0.265
-622.405	-200.000	0.009	0.281
-621.390	173.407	0.078	-0.112
-620.376	613.781	-0.138	0.345
-619.361	411.292	-0.152	-0.323
-618.346	-186.234	0.034	-0.000
-617.332	800.000	-0.031	0.111
-616.317	-200.000	-0.009	-0.361
-615.303	-3.532	-0.202	0.141
-614.288	-54.618	0.382	-0.173
-613.273	87.987	-0.079	-0.088
-612.259	42.812	-0.165	-0.151
-611.244	-59.912	0.260	-0.111
-610.230	66.275	0.168	0.171
-609.215	-112.774	-0.251	-0.050
-608.201	286.697	-0.102	-0.184
-607.186	-104.286	-0.113	0.026
-606.171	-200.000	0.024	-0.167
-605.157	290.098	-0.031	-0.056
-604.142	800.000	0.031	-0.094
-603.128	-112.923	-0.131	0.026
-602.113	-130.515	0.061	0.008
-601.098	13.657	0.225	-0.175
-600.084	-6.044	0.152	0.104
-599.069	35.243	0.198	0.174
-598.055	-61.512	0.295	-0.124
-597.040	221.424	-0.039	-0.063
-596.025	-200.000	-0.026	-0.117
-595.011	-15.436	0.325	0.207
-593.996	-147.583	-0.293	-0.025
-592.982	212.721	0.157	-0.247
-591.967	-200.000	-0.029	-0.404
-590.952	-200.000	0.015	0.280
-589.938	65.401	-0.082	0.083
-588.923	-200.000	-0.143	0.001
-587.909	168.642	-0.151	0.215
-586.894	72.354	-0.282	-0.293
-585.879	800.000	0.040	0.115
-584.865	-0.007	0.139	0.099
-583.850	188.802	0.155	-0.232
-582.836	800.000	-0.088	-0.271
-581.821	-200.000	0.062	0.374
-580.806	-56.428	-0.091	0.040
-579.792	2.877	0.064	-0.046
-578.777	800.000	0.015	-0.055
-577.763	800.000	-0.026	-0.079
-576.748	-200.000	0.071	-0.321
-575.733	130.106	0.159	-0.203
-574.719	80.167	-0.079	0.085
-573.704	800.000	0.116	-0.359
-572.690	4.042	-0.173	0.127
-571.675	33.003	0.102	0.088
-570.661	-200.000	0.016	-0.183
-569.646	249.991	0.095	-0.161
-568.631	-50.527	0.188	0.089
-567.617	-200.000	0.013	0.383
-566.602	-93.284	0.456	-0.127
-565.588	593.736	0.010	-0.025
-564.573	800.000	0.080	-0.338
-563.558	-42.883	-0.103	0.052
-562.544	-200.000	0.012	-0.061
-561.529	107.418	-0.140	-0.167
-560.515	-67.595	0.336	0.132
-559.500	138.856	0.138	-0.181
-558.485	181.934	-0.119	0.176
-557.471	73.374	-0.063	-0.066
-556.456	-116.263	-0.152	0.028
-555.442	104.991	0.098	0.116
-554.427	-200.000	0.171	-0.000
-553.412	800.000	-0.065	-0.183
-552.398	-169.873	-0.053	-0.002
-551.383	-200.000	0.027	0.191
-550.369	777.412	0.027	0.075
-549.354	-200.000	-0.055	0.258
-548.339	82.104	-0.116	0.125
-547.325	-19.518	-0.028	0.017
-546.310	146.788	0.046	0.062
-545.296	25.029	0.161	0.133
-544.281	-9.887	-0.155	0.103
-543.266	56.931	-0.310	-0.302
-542.252	606.668	0.068	-0.170
-541.237	121.568	-0.014	-0.018
-540.223	-200.000	0.014	-0.194
-539.208	219.250	0.111	-0.178
-538.193	643.210	-0.072	0.183
-537.179	-70.771	0.152	-0.057
-536.164	-200.000	-0.240	0.001
-535.150	8.576	-0.277	-0.208
-534.135	88.017	0.064	-0.070
-533.121	-200.000	0.013	0.277
-532.106	184.563	0.241	0.356
-531.091	374.259	-0.048	-0.097
-530.077	131.962	-0.148	-0.190
-529.062	-99.170	-0.429	-0.108
-528.048	35.301	0.117	0.103
-527.033	327.600	0.225	-0.431
-526.018	-91.111	-0.308	-0.088
-525.004	-72.664	0.181	-0.066
-523.989	267.291	-0.216	-0.377
-522.975	800.000	0.016	0.051
-521.960	-158.810	0.256	0.015
-520.945	-28.057	-0.092	0.053
-519.931	-0.209	0.272	0.193
-518.916	-200.000	0.035	0.328
-517.902	-150.645	-0.209	0.016
-516.887	-82.522	-0.304	0.098
-515.872	-24.512	-0.080	-0.048
-514.858	-84.151	0.178	-0.056
-513.843	-200.000	-0.008	0.081
-512.829	-16.093	-0.301	-0.191
-511.814	-200.000	-0.043	0.413
-510.799	-119.302	0.370	-0.064
-509.785	-163.241	-0.114	-0.005
-508.770	-200.000	0.007	0.135
-507.756	800.000	0.064	-0.253
-506.741	174.337	0.141	-0.204
-505.726	-68.331	-0.275	0.107
-504.712	118.922	0.133	-0.163
-503.697	-200.000	0.077	0.434
-502.683	-200.000	-0.002	0.356
-501.668	-6.381	-0.217	-0.148
-500.653	145.590	0.038	0.050
-499.639	-17.750	0.172	-0.108
-498.624	335.676	0.043	-0.083
-497.610	-147.688	0.694	0.058
-496.595	-200.000	0.013	-0.091
-495.581	160.783	-0.091	0.126
-494.566	800.000	0.038	0.151
-493.551	-200.000	0.015	0.103
-492.537	-200.000	0.042	0.237
-491.522	14.216	-0.036	-0.028
-490.508	282.477	0.182	0.326
-489.493	44.724	-0.069	0.063
-488.478	-103.754	-0.221	-0.052
-487.464	10.945	-0.214	0.163
-486.449	800.000	-0.070	0.255
-485.435	-27.090	0.402	0.234
-484.420	-22.021	-0.055	-0.033
-483.405	-200.000	0.062	0.277
-482.391	417.775	0.190	0.404
-481.376	459.713	0.107	0.238
-480.362	800.000	0.075	0.266
-479.347	78.148	0.192	0.204
-478.332	-200.000	-0.019	0.278
-477.318	-69.330	-0.263	0.101
-476.303	-116.073	0.162	-0.030
-475.289	109.616	0.060	0.072
-474.274	-200.000	0.017	0.084
-473.259	4.485	-0.022	-0.016
-472.245	-200.000	0.000	0.021
-471.230	145.902	0.147	-0.196
-470.216	51.440	-0.181	0.172
-469.201	-200.000	0.046	-0.267
-468.186	800.000	-0.035	-0.129
-467.172	-153.797	-0.190	0.013
-466.157	523.997	0.132	-0.309
-465.143	96.627	0.036	0.041
-464.128	30.571	0.165	-0.141
-463.113	-145.033	-0.310	0.028
-462.099	-59.168	0.288	-0.123
-461.084	-85.090	0.052	0.016
-460.070	-112.127	-0.223	0.045
-459.055	103.863	0.144	0.168
-458.040	726.748	-0.054	0.143
-457.026	481.577	-0.061	-0.138
-456.011	-200.000	0.001	-0.174
-454.997	-183.661	0.088	0.002
-453.982	109.455	0.075	-0.089
-452.968	-189.313	-0.698	0.008
-451.953	800.000	0.081	0.248
-450.938	-200.000	0.021	-0.334
-449.924	-18.987	0.073	0.045
-448.909	-48.937	-0.021	0.010
-447.895	264.509	-0.144	0.249
-446.880	83.302	-0.065	0.070
-445.865	-101.295	0.076	-0.018
-444.851	-200.000	-0.014	0.146
-443.836	-155.670	0.185	-0.012
-442.822	800.000	0.022	-0.083
-441.807	-13.851	0.126	0.081
-440.792	786.272	-0.053	-0.144
-439.778	-19.397	0.258	0.159
-438.763	161.867	0.035	-0.048
-437.749	34.522	-0.318	-0.276
-436.734	-120.612	-0.213	0.036
-435.719	-116.372	0.194	-0.036
-434.705	-200.000	-0.023	0.247
-433.690	184.462	0.167	0.246
-432.676	4.992	-0.069	0.050
-431.661	-200.000	0.021	-0.303
-430.646	107.456	0.125	0.147
-429.632	133.959	0.129	-0.167
-428.617	-200.000	-0.006	0.212
-427.603	643.303	0.085	-0.216
-426.588	800.000	-0.040	-0.137
-425.573	-92.836	-0.236	-0.066
-424.559	274.435	-0.051	0.090
-423.544	-13.970	-0.428	0.275
-422.530	-52.752	0.336	-0.154
-421.515	152.827	-0.105	-0.143
-420.500	18.952	0.166	-0.132
-419.486	-125.457	-0.304	-0.046
-418.471	-200.000	0.001	0.127
-417.457	800.000	0.028	-0.109
-416.442	-83.530	-0.104	0.033
-415.428	-78.277	0.314	0.107
-414.413	5.706	0.054	0.039
-413.398	-32.038	0.145	-0.080
-412.384	682.587	-0.087	0.224
-411.369	-200.000	-0.038	0.291
-410.355	-200.000	0.031	-0.138
-409.340	365.406	-0.142	0.284
-408.325	-137.116	-0.105	0.012
-407.311	-95.905	-0.180	-0.048
-406.296	-55.468	-0.353	-0.157
-405.282	800.000	0.095	-0.300
-404.267	-53.037	0.271	0.124
-403.252	-55.570	0.101	0.045
-402.238	-200.000	-0.013	-0.137
-401.223	418.369	0.054	0.115
-400.209	-20.424	0.163	-0.099
-399.194	-14.483	-0.165	0.105
-398.179	20.013	0.073	-0.058
-397.165	-78.272	-0.327	-0.112
-396.150	-200.000	0.035	-0.234
-395.136	29.948	-0.383	0.324
-394.121	767.709	-0.113	-0.306
-393.106	88.183	-0.033	0.036
-392.092	-200.000	-0.007	-0.106
-391.077	-124.364	-0.295	0.046
-390.063	5.623	0.239	-0.175
-389.048	-200.000	-0.001	-0.082
-388.033	162.751	-0.113	-0.157
-387.019	-200.000	0.006	-0.039
-386.004	800.000	-0.035	0.117
-384.990	161.016	-0.065	0.090
-383.975	43.733	-0.273	-0.248
-382.960	-75.175	0.196	-0.070
-381.946	800.000	0.075	0.248
-380.931	-90.172	-0.524	-0.151
-379.917	-200.000	-0.029	-0.191
-378.902	-200.000	0.015	0.233
-377.888	-200.000	-0.016	-0.108
-376.873	221.266	0.059	0.094
-375.858	-162.819	-0.193	-0.009
-374.844	22.965	-0.176	0.143
-373.829	800.000	-0.104	-0.291
-372.815	800.000	-0.027	0.108
-371.800	800.000	-0.031	-0.124
-370.785	643.387	0.164	0.414
-369.771	114.963	0.129	0.156
-368.756	76.657	-0.183	0.192
-367.742	-200.000	0.006	0.229
-366.727	-88.596	-0.110	0.033
-365.712	164.431	-0.116	0.162
-364.698	247.363	0.079	-0.132
-363.683	-200.000	0.012	0.123
-362.669	-200.000	0.001	0.068
-361.654	150.072	0.067	-0.090
-360.639	-95.956	0.149	-0.039
-359.625	800.000	-0.084	-0.240
-358.610	392.783	0.151	-0.311
-357.596	-17.159	-0.098	0.061
-356.581	425.860	0.042	0.089
-355.566	82.103	-0.018	-0.019
-354.552	323.341	0.141	-0.266
-353.537	-0.339	-0.152	-0.107
-352.523	425.663	0.070	-0.150
-351.508	-97.413	0.092	0.024
-350.493	19.873	0.164	-0.131
-349.479	-106.902	-0.236	0.052
-348.464	-200.000	-0.040	0.262
-347.450	81.715	-0.159	0.170
-346.435	-200.000	-0.030	0.310
-345.420	-168.138	0.089	0.003
-344.406	407.023	-0.161	0.337
-343.391	-200.000	0.021	-0.203
-342.377	529.838	0.036	-0.083
-341.362	225.692	0.113	-0.181
-340.348	-200.000	-0.031	0.247
-339.333	260.560	-0.109	-0.186
-338.318	800.000	-0.089	0.253
-337.304	800.000	-0.166	-0.526
-336.289	266.629	0.155	0.268
-335.275	374.340	-0.148	0.298
-334.260	800.000	-0.127	0.382
-333.245	-55.962	0.196	0.086
-332.231	183.344	0.113	-0.165
-331.216	227.457	0.056	-0.091
-330.202	800.000	0.059	-0.253
-329.187	-60.614	-0.166	-0.070
-328.172	-200.000	-0.028	-0.139
-327.158	-77.279	0.209	-0.072
-326.143	-25.953	-0.174	0.102
-325.129	800.000	-0.025	0.089
-324.114	156.247	-0.150	0.205
-323.099	-53.878	0.219	-0.099
-322.085	-60.759	-0.376	-0.158
-321.070	448.145	-0.015	-0.032
-320.056	800.000	0.028	-0.091
-319.041	-129.528	-0.036	-0.005
-318.026	132.706	0.109	-0.139
-317.012	32.301	0.094	-0.080
-315.997	287.622	-0.072	-0.129
-314.983	85.519	0.111	0.121
-313.968	-41.815	-0.141	0.072
-312.953	-200.000	0.013	-0.201
-311.939	33.833	-0.181	0.156
-310.924	-121.336	0.106	0.018
-309.910	-200.000	-0.010	-0.177
-308.895	-16.052	0.167	-0.105
-307.880	-81.784	0.350	0.114
-306.866	214.484	-0.090	-0.141
-305.851	236.027	0.169	-0.277
-304.837	18.119	0.049	0.039
-303.822	-164.556	-0.378	-0.017
-302.807	-53.671	0.224	-0.101
-301.793	-200.000	-0.021	-0.309
-300.778	800.000	0.069	0.214
-299.764	95.513	0.203	0.229
-298.749	346.292	0.062	-0.121
-297.735	-200.000	0.001	-0.103
-296.720	392.683	-0.143	-0.293
-295.705	-141.019	0.124	0.013
-294.691	-200.000	-0.026	0.144
-293.676	86.069	0.043	0.047
-292.662	800.000	-0.024	-0.083
-291.647	360.539	-0.141	0.279
-290.632	-55.467	0.208	-0.092
-289.618	463.430	-0.104	-0.230
-288.603	188.275	0.095	0.141
-287.589	-90.350	-0.051	0.015
-286.574	-137.407	-0.065	0.007
-285.559	-200.000	0.016	-0.144
-284.545	800.000	0.098	0.303
-283.530	800.000	0.041	-0.133
-282.516	563.533	-0.017	-0.042
-281.501	-75.468	0.080	-0.028
-280.486	-180.472	-0.166	-0.003
-279.472	796.022	0.172	-0.467
-278.457	-152.696	0.346	-0.024
-277.443	-200.000	0.046	0.426
-276.428	30.089	-0.132	-0.111
-275.413	-200.000	0.009	0.310
-274.399	152.037	-0.072	0.097
-273.384	-144.871	-0.252	-0.023
-272.370	-172.330	-0.094	-0.003
-271.355	-25.926	0.084	0.049
-270.340	-46.175	0.093	-0.045
-269.326	-200.000	-0.007	-0.335
-268.311	-1.004	-0.385	0.269
-267.297	-105.275	-0.233	-0.052
-266.282	6.104	0.018	-0.013
-265.267	61.744	0.046	0.046
-264.253	169.019	0.105	0.147
-263.238	203.193	0.022	-0.033
-262.224	-34.678	-0.256	0.138
-261.209	549.779	0.069	0.164
-260.195	-200.000	0.007	0.185
-259.180	-200.000	-0.007	0.056
-258.165	636.828	-0.024	0.061
-257.151	-37.149	-0.336	0.178
-256.136	-3.048	0.257	-0.177
-255.122	-200.000	0.007	-0.362
-254.107	746.794	-0.111	0.295
-253.092	800.000	0.130	0.376
-252.078	6.456	0.107	-0.079
-251.063	-103.967	-0.192	0.044
-250.049	381.196	-0.121	-0.244
-249.034	-36.504	-0.075	0.040
-248.019	-121.631	0.354	-0.058
-247.005	44.504	-0.185	0.168
-245.990	398.350	0.162	0.335
-244.976	-171.852	-0.109	0.004
-243.961	-55.677	0.321	-0.142
-242.946	-200.000	-0.043	-0.201
-241.932	-200.000	-0.003	0.142
-240.917	-35.812	0.200	0.107
-239.903	-124.338	0.169	0.026
-238.888	-66.611	0.095	-0.037
-237.873	-109.321	-0.195	0.041
-236.859	182.406	-0.290	0.422
-235.844	180.561	0.116	0.169
-234.830	-200.000	-0.100	0.000
-233.815	-145.550	-0.052	0.005
-232.800	-125.068	0.254	0.038
-231.786	229.727	-0.163	0.262
-230.771	372.730	-0.076	-0.151
-229.757	-71.074	-0.052	0.019
-228.742	-103.842	0.124	0.029
-227.727	1.321	0.253	-0.179
-226.713	-200.000	-0.051	-0.287
-225.698	11.073	-0.246	-0.185
-224.684	-118.858	0.183	-0.032
-223.669	142.845	0.143	0.187
-222.655	584.925	-0.057	0.137
-221.640	24.670	-0.072	-0.059
-220.625	155.439	0.065	-0.088
-219.611	-88.521	-0.135	0.040
-218.596	-113.369	-0.085	-0.016
-217.582	-97.322	0.170	0.044
-216.567	-71.316	0.149	0.055
-215.552	-134.474	0.122	0.015
-214.538	-59.799	0.155	-0.066
-213.523	140.270	-0.046	0.059
-212.509	-79.681	0.218	-0.072
-211.494	-114.090	-0.084	0.016
-210.479	479.957	-0.125	-0.279
-209.465	-50.401	-0.280	0.130
-208.450	800.000	0.099	-0.419
-207.436	118.003	-0.153	0.186
-206.421	-200.000	-0.047	0.305
-205.406	-200.000	-0.001	-0.104
-204.392	-162.918	0.157	0.008
-203.377	800.000	0.059	0.168
-202.363	74.487	-0.059	-0.061
-201.348	-167.430	0.128	0.005
-200.333	-200.000	0.027	-0.200
-199.319	-200.000	-0.049	0.296
-198.304	800.000	0.053	-0.160
-197.290	77.224	-0.233	-0.244
-196.275	-50.509	0.477	-0.221
-195.260	-7.832	-0.154	0.102
-194.246	-200.000	0.009	-0.102
-193.231	-14.343	-0.208	-0.132
-192.217	104.346	-0.234	-0.271
-191.202	-200.000	-0.039	-0.320
-190.187	43.556	0.123	-0.111
-189.173	-92.595	0.489	-0.135
-188.158	-200.000	-0.042	-0.330
-187.144	194.434	-0.067	0.100
-186.129	-136.434	0.168	-0.019
-185.114	208.446	0.036	0.056
-184.100	333.040	0.181	0.345
-183.085	-169.037	-0.303	-0.011
-182.071	-200.000	-0.010	-0.229
-181.056	140.413	0.141	-0.184
-180.042	309.434	-0.097	0.178
-179.027	279.797	0.109	-0.192
-178.012	-200.000	-0.040	-0.223
-176.998	-74.176	0.192	0.068
-175.983	-200.000	-0.020	0.087
-174.969	-120.155	-0.140	-0.024
-173.954	-32.661	0.301	-0.165
-172.939	-200.000	0.060	0.445
-171.925	-200.000	0.063	-0.328
-170.910	-137.470	0.280	0.031
-169.896	296.683	-0.031	-0.056
-168.881	-47.829	0.218	0.104
-167.866	508.937	-0.038	0.086
-166.852	155.254	-0.300	0.406
-165.837	-134.735	0.083	0.010
-164.823	19.591	-0.175	-0.138
-163.808	-142.567	-0.290	-0.028
-162.793	560.628	-0.050	-0.119
-161.779	-147.900	0.200	0.016
-160.764	687.186	0.036	-0.094
-159.750	-125.672	-0.024	0.004
-158.735	272.267	-0.020	0.035
-157.720	-200.000	0.005	0.117
-156.706	-64.294	-0.125	0.050
-155.691	151.195	-0.144	0.193
-154.677	25.830	-0.226	0.185
-153.662	99.178	-0.238	0.271
-152.647	165.867	0.030	-0.042
-151.633	-200.000	0.006	-0.190
-150.618	28.979	-0.228	-0.190
-149.604	409.360	0.177	0.369
-148.589	190.140	-0.206	-0.305
-147.574	-86.883	0.259	-0.078
-146.560	93.457	0.393	-0.437
-145.545	32.739	-0.222	-0.189
-144.531	97.841	0.019	0.022
-143.516	800.000	0.034	0.144
-142.502	-112.647	0.174	-0.034
-141.487	52.939	-0.124	-0.116
-140.472	-11.994	0.101	-0.065
-139.458	260.154	0.098	0.167
-138.443	-17.017	0.274	-0.170
-137.429	-19.413	0.172	-0.105
-136.414	37.050	0.207	-0.180
-135.399	800.000	0.095	0.354
-134.385	-200.000	0.021	0.131
-133.370	-200.000	-0.036	-0.312
-132.356	800.000	0.103	0.391
-131.341	423.849	-0.092	0.194
-130.326	-120.202	-0.250	0.042
-129.312	195.616	0.137	0.205
-128.297	-45.402	-0.246	0.120
-127.283	-200.000	0.009	0.072
-126.268	1.861	0.106	-0.075
-125.253	155.649	0.082	0.111
-124.239	-17.402	-0.063	-0.039
-123.224	124.847	-0.007	0.009
-122.210	-200.000	-0.052	0.290
