DTS Sentinel unit serial number:	SN413079Multiplexer serial number:	ORYXHardware model number:	OX4-SRSoftware version number:	ORYX F/W v4.00 Oryx Data Collector v3.7.2.0data status	okinstallation	princeton_trtdifferential loss correction	single-endedforward channel	channel 3reverse channel	N/Adate	2019/09/11time	20:14:11forward acquisition time	60.00reverse acquisition time	0.00gamma	496.2192k internal	0.2302k external	0.2302temperature offset calibration	1.0020default loss term (dB/km)	0.3790temperature slope calibration	1.0000multiplexer offset coefficient	1.0000multiplexer slope coefficient	1.0000fibre end	0.00T internal ref (°C)	38.22T ext. ref 1 (°C)	1.45T ext. ref 2 (°C)	31.55length (m)	temperature (°C)	Stokes	anti-Stokes-747.200	-53.448	-0.257	-0.120
-746.185	-200.000	-0.026	0.241
-745.171	105.944	0.143	0.173
-744.156	282.520	-0.161	0.294
-743.142	-93.432	0.446	0.126
-742.127	-11.396	-0.398	0.267
-741.112	-157.094	-0.236	0.015
-740.098	800.000	0.030	0.111
-739.083	-180.134	0.468	0.010
-738.069	47.972	-0.163	-0.155
-737.054	-82.175	0.060	0.020
-736.039	-64.447	-0.117	-0.049
-735.025	-200.000	0.031	0.330
-734.010	-142.500	-0.299	-0.030
-732.996	800.000	0.073	-0.246
-731.981	-200.000	-0.037	0.351
-730.966	-54.287	0.215	0.100
-729.952	-81.715	-0.158	0.053
-728.937	-38.081	-0.241	-0.130
-727.923	310.165	-0.081	-0.154
-726.908	206.349	0.285	0.452
-725.894	-200.000	-0.012	-0.257
-724.879	21.003	-0.198	-0.163
-723.864	800.000	0.070	0.258
-722.850	99.196	0.079	0.093
-721.835	-45.083	0.253	0.128
-720.821	-128.419	0.143	-0.021
-719.806	800.000	-0.132	0.480
-718.791	4.828	-0.114	0.085
-717.777	-8.120	0.321	0.220
-716.762	-131.270	0.238	-0.032
-715.748	284.274	-0.140	0.257
-714.733	-110.397	-0.096	0.020
-713.718	-200.000	0.073	0.364
-712.704	369.203	0.105	-0.216
-711.689	-86.232	0.066	-0.021
-710.675	-73.479	0.065	0.024
-709.660	-93.055	0.169	0.048
-708.645	-85.732	0.075	0.024
-707.631	-200.000	0.045	-0.226
-706.616	-12.667	-0.325	-0.216
-705.602	-156.820	0.155	0.010
-704.587	-0.172	0.326	-0.236
-703.572	800.000	-0.063	-0.203
-702.558	350.087	-0.163	0.328
-701.543	-81.109	0.178	0.060
-700.529	303.044	0.046	-0.086
-699.514	201.152	0.135	0.212
-698.499	800.000	-0.015	0.058
-697.485	223.934	0.072	0.118
-696.470	-38.447	0.282	-0.152
-695.456	28.821	0.124	-0.107
-694.441	800.000	0.040	-0.172
-693.426	800.000	0.072	-0.209
-692.412	183.174	0.242	0.364
-691.397	-74.367	-0.299	0.110
-690.383	-18.191	-0.069	-0.044
-689.368	800.000	0.114	-0.410
-688.354	-200.000	-0.006	-0.246
-687.339	-1.944	-0.300	0.215
-686.324	-32.143	0.247	0.140
-685.310	-165.461	0.325	0.014
-684.295	109.490	-0.263	0.321
-683.281	-53.355	-0.305	0.142
-682.266	381.289	0.049	0.103
-681.251	348.021	0.045	0.090
-680.237	-166.353	0.129	-0.006
-679.222	-83.970	0.259	0.084
-678.208	-200.000	-0.061	-0.464
-677.193	-100.471	-0.432	-0.109
-676.178	52.219	-0.226	0.219
-675.164	-200.000	0.037	-0.165
-674.149	5.149	-0.148	-0.111
-673.135	200.289	0.114	-0.178
-672.120	11.428	-0.298	-0.232
-671.105	542.700	-0.059	-0.143
-670.091	-200.000	-0.032	-0.144
-669.076	-111.008	0.297	0.062
-668.062	-200.000	0.009	0.123
-667.047	10.678	-0.340	0.263
-666.032	800.000	0.021	-0.078
-665.018	440.439	0.023	0.051
-664.003	174.951	-0.039	0.058
-662.989	-78.779	0.519	0.180
-661.974	-33.481	0.130	-0.073
-660.959	22.358	-0.106	-0.088
-659.945	12.520	0.160	-0.125
-658.930	-55.588	-0.194	0.088
-657.916	-200.000	0.004	0.108
-656.901	159.498	0.141	-0.200
-655.886	20.757	-0.053	0.043
-654.872	-200.000	0.010	-0.069
-653.857	779.674	0.043	0.120
-652.843	43.490	-0.161	-0.149
-651.828	112.363	-0.037	-0.045
-650.814	-87.084	0.270	-0.083
-649.799	-8.191	0.173	-0.118
-648.784	165.568	-0.202	-0.290
-647.770	369.044	-0.101	0.207
-646.755	260.183	0.078	0.137
-645.741	-95.086	-0.217	-0.059
-644.726	22.603	-0.206	0.171
-643.711	69.406	0.087	-0.091
-642.697	-10.993	0.194	-0.130
-641.682	-135.729	-0.230	-0.028
-640.668	-200.000	0.028	-0.150
-639.653	-200.000	0.015	-0.329
-638.638	67.611	-0.251	0.260
-637.624	800.000	-0.066	-0.191
-636.609	-62.670	0.252	0.106
-635.595	800.000	0.082	0.330
-634.580	-94.185	-0.242	0.067
-633.565	-200.000	-0.007	-0.082
-632.551	676.105	0.092	-0.243
-631.536	450.678	0.041	0.091
-630.522	-64.713	-0.260	-0.107
-629.507	-200.000	0.037	0.217
-628.492	30.750	-0.232	-0.201
-627.478	-47.657	-0.204	0.100
-626.463	138.074	-0.026	0.034
-625.449	28.610	-0.250	-0.215
-624.434	-200.000	-0.003	0.141
-623.419	800.000	-0.051	0.222
-622.405	-72.569	0.095	-0.035
-621.390	603.678	0.094	-0.238
-620.376	203.507	-0.040	0.063
-619.361	-200.000	-0.064	-0.378
-618.346	-156.918	-0.422	-0.026
-617.332	171.208	0.039	0.057
-616.317	-20.803	0.030	-0.019
-615.303	470.524	-0.166	0.380
-614.288	26.899	0.358	0.305
-613.273	-200.000	0.035	0.162
-612.259	-54.660	0.346	0.159
-611.244	-109.172	0.271	-0.058
-610.230	-39.142	0.104	-0.055
-609.215	-127.345	-0.164	0.024
-608.201	10.116	-0.239	-0.184
-607.186	164.629	-0.132	-0.188
-606.171	126.854	-0.136	0.174
-605.157	-83.617	-0.187	-0.060
-604.142	276.920	-0.139	-0.251
-603.128	60.713	0.161	0.161
-602.113	-95.838	0.086	-0.023
-601.098	215.376	0.095	-0.152
-600.084	-56.164	0.196	-0.088
-599.069	-12.902	0.143	0.095
-598.055	-105.888	0.386	0.088
-597.040	46.933	0.145	-0.137
-596.025	17.905	-0.168	0.135
-595.011	321.436	0.177	0.341
-593.996	-15.755	-0.038	0.024
-592.982	544.766	-0.054	-0.132
-591.967	-200.000	0.027	-0.399
-590.952	-200.000	-0.021	0.256
-589.938	-130.731	-0.238	-0.032
-588.923	57.127	-0.076	0.075
-587.909	45.819	-0.171	0.160
-586.894	53.647	-0.106	-0.103
-585.879	-82.765	0.159	0.052
-584.865	382.363	-0.046	-0.095
-583.850	-76.047	-0.243	-0.087
-582.836	-87.898	0.158	0.048
-581.821	207.405	-0.119	-0.188
-580.806	67.821	0.191	-0.197
-579.792	-45.078	-0.021	-0.010
-578.777	174.516	0.101	-0.148
-577.763	800.000	0.114	0.336
-576.748	-200.000	-0.002	-0.305
-575.733	-41.151	0.347	0.181
-574.719	-163.441	0.250	-0.012
-573.704	-47.685	0.207	0.102
-572.690	800.000	0.064	0.181
-571.675	-71.797	0.186	0.070
-570.661	429.423	0.024	0.053
-569.646	16.920	-0.283	0.227
-568.631	385.873	0.062	-0.130
-567.617	-129.078	0.011	0.002
-566.602	148.659	0.098	0.134
-565.588	-68.345	-0.262	0.103
-564.573	257.040	0.173	-0.300
-563.558	20.473	0.223	0.182
-562.544	-47.228	-0.060	-0.030
-561.529	-65.941	0.086	-0.035
-560.515	115.911	-0.104	0.129
-559.500	10.577	-0.297	-0.229
-558.485	800.000	-0.024	-0.073
-557.471	204.159	-0.034	0.054
-556.456	76.357	-0.257	-0.276
-555.442	-5.429	-0.255	-0.177
-554.427	295.844	-0.090	0.167
-553.412	800.000	0.072	0.245
-552.398	-25.054	0.096	-0.057
-551.383	-13.151	0.221	0.145
-550.369	-83.772	-0.539	0.174
-549.354	47.880	-0.066	-0.062
-548.339	8.867	-0.136	-0.104
-547.325	207.558	-0.106	0.168
-546.310	-200.000	-0.011	-0.047
-545.296	-150.661	-0.330	0.025
-544.281	800.000	-0.086	0.258
-543.266	-129.586	-0.160	0.022
-542.252	526.298	0.068	0.161
-541.237	-131.744	0.301	0.040
-540.223	-10.741	0.443	0.296
-539.208	498.793	-0.262	-0.611
-538.193	800.000	0.061	-0.173
-537.179	653.544	-0.037	0.096
-536.164	-24.212	-0.140	0.084
-535.150	-117.227	0.211	-0.039
-534.135	387.886	-0.103	0.215
-533.121	-200.000	0.012	-0.168
-532.106	-74.255	0.347	0.127
-531.091	247.749	-0.176	-0.300
-530.077	106.833	-0.029	-0.035
-529.062	-200.000	0.034	0.194
-528.048	-41.645	0.115	0.060
-527.033	142.951	-0.129	-0.174
-526.018	334.131	0.070	0.138
-525.004	800.000	-0.036	0.154
-523.989	408.067	0.132	0.283
-522.975	382.806	0.039	0.080
-521.960	465.184	0.119	-0.268
-520.945	-110.002	-0.049	0.010
-519.931	-109.551	0.252	-0.054
-518.916	111.497	0.145	-0.177
-517.902	14.045	-0.050	0.039
-516.887	-200.000	-0.017	0.243
-515.872	-70.519	0.184	0.070
-514.858	19.210	0.216	-0.175
-513.843	121.101	-0.148	-0.186
-512.829	-67.185	0.036	0.014
-511.814	179.746	-0.081	-0.121
-510.799	244.508	0.094	0.160
-509.785	-63.462	0.181	-0.075
-508.770	-27.067	-0.102	0.060
-507.756	-29.411	-0.267	-0.154
-506.741	259.016	0.068	-0.118
-505.726	146.944	-0.096	0.131
-504.712	-148.750	-0.217	-0.018
-503.697	43.258	0.074	-0.068
-502.683	-33.339	-0.395	-0.221
-501.668	120.457	-0.065	-0.081
-500.653	800.000	-0.096	0.342
-499.639	-67.638	-0.291	0.115
-498.624	-109.643	-0.078	-0.017
-497.610	-82.234	0.230	-0.076
-496.595	339.618	-0.129	-0.253
-495.581	306.174	0.036	0.069
-494.566	-126.900	-0.212	-0.032
-493.551	-75.435	-0.323	-0.116
-492.537	246.115	0.254	0.432
-491.522	-200.000	-0.004	0.080
-490.508	344.542	-0.111	-0.220
-489.493	-78.798	-0.480	0.165
-488.478	61.635	-0.156	-0.157
-487.464	504.507	0.145	-0.338
-486.449	-73.147	-0.100	0.037
-485.435	199.578	0.141	0.218
-484.420	84.971	0.025	-0.028
-483.405	205.180	0.017	-0.027
-482.391	-200.000	0.012	0.161
-481.376	633.948	0.080	-0.204
-480.362	-200.000	-0.218	-0.000
-479.347	12.212	0.195	0.152
-478.332	401.458	-0.044	-0.093
-477.318	-9.162	0.143	0.097
-476.303	280.337	-0.117	0.211
-475.289	46.700	-0.068	0.064
-474.274	-200.000	-0.040	0.253
-473.259	570.862	-0.038	0.094
-472.245	368.498	-0.042	-0.085
-471.230	366.714	-0.100	-0.204
-470.216	219.669	0.257	0.415
-469.201	140.716	-0.250	-0.334
-468.186	131.639	0.118	-0.153
-467.172	176.590	-0.109	-0.159
-466.157	-200.000	0.154	0.001
-465.143	151.311	-0.076	0.104
-464.128	-1.675	-0.247	0.175
-463.113	44.438	0.082	0.076
-462.099	307.409	0.180	-0.339
-461.084	-183.168	-0.374	0.007
-460.070	190.004	-0.079	0.119
-459.055	800.000	-0.050	0.194
-458.040	-161.303	-0.374	-0.020
-457.026	-27.638	-0.379	-0.222
-456.011	-78.968	0.148	-0.051
-454.997	-69.166	0.233	0.090
-453.982	800.000	0.099	-0.320
-452.968	593.146	0.178	0.444
-451.953	-68.071	0.229	-0.090
-450.938	76.017	-0.058	0.062
-449.924	-200.000	-0.008	0.038
-448.909	367.970	0.093	-0.189
-447.895	-44.732	-0.140	0.070
-446.880	-8.887	0.063	-0.043
-445.865	800.000	-0.035	0.101
-444.851	659.689	-0.209	0.541
-443.836	-55.474	0.179	0.081
-442.822	-127.127	0.283	-0.042
-441.807	-44.337	0.231	0.116
-440.792	28.273	-0.299	0.254
-439.778	800.000	-0.070	-0.227
-438.763	193.921	-0.088	0.134
-437.749	108.751	0.113	-0.136
-436.734	94.344	0.108	-0.123
-435.719	146.910	-0.213	0.288
-434.705	496.388	0.185	-0.429
-433.690	-127.966	-0.407	-0.059
-432.676	88.653	0.051	-0.057
-431.661	-102.654	0.388	-0.093
-430.646	15.500	-0.082	0.065
-429.632	-14.686	-0.242	-0.156
-428.617	-16.389	0.187	0.119
-427.603	231.311	0.141	0.233
-426.588	800.000	0.039	-0.119
-425.573	34.676	-0.159	0.140
-424.559	-132.584	-0.143	0.019
-423.544	0.877	-0.085	-0.061
-422.530	549.698	-0.037	0.089
-421.515	-82.413	0.285	0.093
-420.500	-5.480	0.233	-0.161
-419.486	800.000	-0.028	0.093
-418.471	30.004	-0.217	0.186
-417.457	-200.000	0.011	0.177
-416.442	65.973	-0.216	0.221
-415.428	131.055	-0.045	0.058
-414.413	81.673	-0.102	-0.111
-413.398	122.548	0.048	-0.060
-412.384	-135.897	0.230	0.027
-411.369	30.424	0.145	-0.124
-410.355	340.514	-0.187	0.367
-409.340	150.594	0.085	-0.116
-408.325	-163.613	-0.072	-0.003
-407.311	30.266	-0.046	0.040
-406.296	-200.000	-0.035	0.216
-405.282	-200.000	0.005	-0.227
-404.267	96.662	0.108	-0.124
-403.252	-31.809	-0.146	0.082
-402.238	-98.513	0.336	-0.086
-401.223	370.722	-0.033	0.066
-400.209	156.220	0.020	-0.028
-399.194	270.803	0.067	-0.119
-398.179	25.920	0.107	0.089
-397.165	-87.373	0.191	0.058
-396.150	11.225	0.172	0.132
-395.136	326.867	-0.178	-0.342
-394.121	-200.000	-0.024	0.217
-393.106	800.000	-0.038	-0.161
-392.092	442.147	0.137	-0.301
-391.077	800.000	-0.206	0.649
-390.063	-87.020	-0.324	0.099
-389.048	376.723	0.039	-0.079
-388.033	185.041	-0.047	-0.070
-387.019	-200.000	-0.010	-0.166
-386.004	-62.962	-0.216	0.090
-384.990	282.197	-0.158	-0.285
-383.975	-90.995	0.299	0.086
-382.960	800.000	0.138	0.434
-381.946	-77.568	0.218	0.076
-380.931	84.059	0.156	0.172
-379.917	-136.490	0.315	-0.037
-378.902	74.006	0.135	-0.142
-377.888	-200.000	0.043	-0.480
-376.873	-105.521	0.189	-0.043
-375.858	-126.216	-0.139	0.021
-374.844	-200.000	-0.013	0.221
-373.829	-200.000	0.029	-0.447
-372.815	800.000	-0.093	-0.269
-371.800	314.823	0.031	-0.059
-370.785	-157.996	-0.411	-0.024
-369.771	-42.250	0.032	0.017
-368.756	-74.142	-0.089	0.032
-367.742	81.940	0.229	-0.249
-366.727	-32.903	-0.165	-0.092
-365.712	-104.705	0.141	-0.033
-364.698	-200.000	0.022	-0.357
-363.683	338.281	0.086	-0.168
-362.669	47.801	0.069	0.065
-361.654	444.712	-0.130	0.285
-360.639	-200.000	-0.013	0.089
-359.625	-80.324	-0.264	-0.088
-358.610	-200.000	0.002	0.148
-357.596	246.405	-0.217	0.367
-356.581	-30.664	-0.037	-0.021
-355.566	-46.255	0.308	0.152
-354.552	-100.953	-0.253	0.062
-353.537	-200.000	0.028	0.159
-352.523	294.411	0.075	-0.137
-351.508	366.373	0.142	0.288
-350.493	-200.000	0.061	0.363
-349.479	-200.000	0.031	-0.286
-348.464	-97.092	0.317	0.083
-347.450	-70.642	-0.326	0.124
-346.435	471.858	0.139	-0.315
-345.420	-12.168	0.100	-0.066
-344.406	217.497	-0.071	-0.114
-343.391	-200.000	0.025	0.160
-342.377	28.828	0.150	-0.128
-341.362	342.919	0.125	0.245
-340.348	-48.793	0.286	0.138
-339.333	42.805	-0.254	0.232
-338.318	-103.618	-0.115	0.027
-337.304	800.000	-0.091	0.265
-336.289	163.016	0.180	-0.253
-335.275	169.576	0.094	-0.135
-334.260	-27.697	-0.130	0.075
-333.245	800.000	0.037	-0.155
-332.231	55.342	-0.112	-0.109
-331.216	-8.856	0.051	0.034
-330.202	-200.000	0.021	-0.188
-329.187	-11.655	-0.108	-0.071
-328.172	114.138	-0.057	-0.069
-327.158	-97.671	-0.097	-0.025
-326.143	83.880	0.169	-0.185
-325.129	-113.081	-0.543	0.107
-324.114	-140.920	0.200	-0.021
-323.099	261.505	0.137	-0.238
-322.085	-81.532	-0.114	0.038
-321.070	-66.491	0.390	0.155
-320.056	-136.458	-0.351	0.041
-319.041	-100.993	-0.180	0.044
-318.026	69.703	0.109	-0.113
-317.012	-111.414	0.394	0.080
-315.997	39.074	0.152	0.136
-314.983	-153.177	-0.269	-0.019
-313.968	-65.728	-0.055	0.022
-312.953	-139.446	-0.286	0.031
-311.939	155.076	0.065	-0.090
-310.924	-200.000	0.004	-0.154
-309.910	-93.694	-0.335	0.093
-308.895	-93.924	0.130	0.036
-307.880	-176.115	0.195	-0.005
-306.866	172.337	0.202	-0.291
-305.851	-40.118	-0.139	-0.073
-304.837	-200.000	-0.019	-0.408
-303.822	-200.000	0.019	0.106
-302.807	-97.824	0.028	-0.007
-301.793	100.143	0.102	0.118
-300.778	294.498	-0.274	0.502
-299.764	156.403	-0.125	0.172
-298.749	-81.517	-0.432	0.142
-297.735	327.795	-0.157	-0.302
-296.720	337.911	0.085	-0.165
-295.705	67.426	0.251	-0.256
-294.691	282.649	0.136	0.244
-293.676	-20.134	-0.239	-0.147
-292.662	98.049	-0.258	-0.298
-291.647	-200.000	0.031	0.151
-290.632	-50.197	-0.386	-0.183
-289.618	-200.000	-0.013	0.064
-288.603	443.013	-0.059	-0.130
-287.589	-135.531	0.145	-0.017
-286.574	393.143	0.038	0.078
-285.559	800.000	-0.043	0.151
-284.545	-128.334	-0.431	-0.061
-283.530	-200.000	-0.013	0.087
-282.516	-200.000	0.024	0.126
-281.501	-200.000	-0.055	-0.252
-280.486	-5.614	0.291	-0.199
-279.472	136.325	0.107	-0.140
-278.457	800.000	-0.051	-0.181
-277.443	-147.227	0.110	0.009
-276.428	-31.274	0.086	0.048
-275.413	64.529	-0.102	0.103
-274.399	-24.769	0.334	-0.198
-273.384	21.984	-0.158	0.129
-272.370	72.159	-0.405	0.422
-271.355	79.762	-0.086	-0.093
-270.340	-100.829	0.204	-0.050
-269.326	-45.807	-0.315	-0.156
-268.311	800.000	0.092	-0.291
-267.297	-90.957	0.108	-0.031
-266.282	-19.510	-0.260	0.161
-265.267	-72.535	0.112	-0.041
-264.253	-103.598	0.233	0.055
-263.238	-186.285	-0.208	0.003
-262.224	14.355	0.075	-0.059
-261.209	-72.664	-0.337	0.124
-260.195	-200.000	0.009	0.247
-259.180	-200.000	-0.019	0.337
-258.165	25.112	-0.117	-0.097
-257.151	100.354	-0.057	-0.066
-256.136	55.213	0.174	0.168
-255.122	-149.189	0.130	0.010
-254.107	800.000	-0.065	-0.224
-253.092	114.181	0.200	-0.244
-252.078	720.149	-0.104	-0.276
-251.063	-200.000	0.118	-0.595
-250.049	45.757	-0.397	0.367
-249.034	-140.486	0.174	-0.018
-248.019	800.000	0.092	0.258
-247.005	48.519	0.095	-0.089
-245.990	-41.782	0.271	0.139
-244.976	-136.589	0.357	0.041
-243.961	-92.811	0.381	0.106
-242.946	-114.113	-0.098	0.019
-241.932	143.915	0.061	0.081
-240.917	224.032	0.086	0.139
-239.903	2.151	0.194	-0.140
-238.888	-105.587	0.300	0.068
-237.873	-11.952	0.182	0.119
-236.859	4.198	0.198	-0.145
-235.844	223.986	0.041	-0.066
-234.830	-138.074	0.283	-0.031
-233.815	73.437	0.186	-0.195
-232.800	-128.566	-0.172	-0.024
-231.786	-200.000	-0.028	0.281
-230.771	800.000	-0.088	0.249
-229.757	-81.452	0.167	-0.055
-228.742	-70.919	0.491	-0.185
-227.727	-122.422	0.284	0.046
-226.713	12.968	-0.139	0.107
-225.698	353.462	-0.118	0.233
-224.684	35.282	0.167	0.146
-223.669	-100.608	0.160	0.039
-222.655	193.937	0.036	0.054
-221.640	-2.151	0.119	-0.083
-220.625	775.397	-0.050	0.137
-219.611	-10.003	0.089	-0.059
-218.596	-200.000	-0.049	-0.267
-217.582	-62.058	-0.408	-0.170
-216.567	-185.546	-0.369	-0.006
-215.552	77.452	0.082	-0.087
-214.538	166.646	-0.108	0.153
-213.523	-20.965	0.368	-0.225
-212.509	800.000	-0.054	0.227
-211.494	48.603	0.225	0.211
-210.479	-58.544	0.302	0.131
-209.465	397.811	0.093	0.195
-208.450	11.176	0.188	-0.144
-207.436	800.000	-0.048	-0.177
-206.421	-163.604	0.065	-0.003
-205.406	16.468	0.286	-0.226
-204.392	-27.064	0.376	-0.219
-203.377	150.533	-0.200	-0.271
-202.363	-200.000	-0.055	0.315
-201.348	-2.961	0.103	0.072
-200.333	-100.870	-0.263	0.064
-199.319	4.819	-0.097	0.071
-198.304	74.432	-0.091	0.096
-197.290	-200.000	0.035	-0.155
-196.275	-70.831	0.220	0.083
-195.260	-200.000	0.011	-0.329
-194.246	458.552	-0.046	-0.102
-193.231	-53.318	0.216	0.099
-192.217	-200.000	0.028	-0.169
-191.202	275.936	-0.088	-0.156
-190.187	730.274	0.021	0.055
-189.173	121.887	-0.269	-0.334
-188.158	-56.755	0.418	0.184
-187.144	88.865	-0.186	-0.206
-186.129	212.293	-0.222	-0.349
-185.114	-20.628	-0.126	0.077
-184.100	-200.000	-0.057	0.384
-183.085	128.428	0.235	-0.299
-182.071	800.000	-0.061	0.215
-181.056	55.285	0.016	-0.015
-180.042	-82.994	0.221	0.071
-179.027	-200.000	0.018	0.114
-178.012	800.000	-0.024	0.086
-176.998	-25.149	-0.126	-0.074
-175.983	193.937	0.164	-0.248
-174.969	-200.000	0.006	0.062
-173.954	-39.606	0.195	0.102
-172.939	-139.905	-0.425	0.045
-171.925	-200.000	-0.013	-0.066
-170.910	-84.903	-0.349	0.109
-169.896	-155.016	-0.190	-0.012
-168.881	-166.497	-0.267	0.011
-167.866	94.345	0.340	-0.385
-166.852	-159.361	-0.104	-0.006
-165.837	-60.656	-0.088	-0.037
-164.823	-200.000	-0.013	-0.122
-163.808	109.730	-0.089	0.107
-162.793	106.421	0.185	0.219
-161.779	70.711	0.171	0.177
-160.764	-75.761	-0.236	0.084
-159.750	610.621	-0.168	0.418
-158.735	-123.725	-0.200	-0.031
-157.720	173.416	0.136	-0.195
-156.706	-154.678	0.234	-0.015
-155.691	-139.317	0.195	-0.021
-154.677	-81.822	0.189	-0.062
-153.662	-92.308	0.180	0.050
-152.647	-64.471	0.128	-0.052
-151.633	-61.081	-0.254	-0.107
-150.618	652.537	0.075	0.191
-149.604	-40.023	0.286	0.149
-148.589	665.396	0.110	0.282
-147.574	-200.000	0.008	-0.233
-146.560	-127.506	-0.229	-0.033
-145.545	-79.791	-0.165	-0.055
-144.531	-129.398	0.453	-0.063
-143.516	326.474	0.042	-0.080
-142.502	800.000	0.027	-0.082
-141.487	-200.000	-0.010	-0.176
-140.472	-25.020	0.485	0.286
-139.458	-200.000	0.089	-0.436
-138.443	-38.072	0.191	-0.101
-137.429	-31.536	-0.074	-0.041
-136.414	-200.000	0.006	-0.119
-135.399	509.457	-0.004	-0.010
-134.385	-65.985	-0.251	-0.100
-133.370	-107.257	-0.124	0.027
-132.356	-8.949	0.072	-0.048
-131.341	49.964	-0.278	0.261
-130.326	602.733	-0.045	-0.111
-129.312	800.000	0.082	0.252
-128.297	35.802	-0.244	0.213
-127.283	-200.000	0.038	-0.377
-126.268	-91.972	0.105	-0.030
-125.253	343.613	-0.047	-0.092
-124.239	-200.000	-0.005	0.293
-123.224	800.000	-0.039	0.113
-122.210	299.173	0.060	-0.111
-121.195	89.607	0.113	-0.125
-120.180	-96.602	0.330	0.087
