DTS Sentinel unit serial number:	SN413079Multiplexer serial number:	ORYXHardware model number:	OX4-SRSoftware version number:	ORYX F/W v4.00 Oryx Data Collector v3.7.2.0data status	okinstallation	princeton_trtdifferential loss correction	single-endedforward channel	channel 3reverse channel	N/Adate	2019/09/10time	23:14:10forward acquisition time	60.00reverse acquisition time	0.00gamma	496.2192k internal	0.2331k external	0.2331temperature offset calibration	0.9919default loss term (dB/km)	0.3790temperature slope calibration	1.0000multiplexer offset coefficient	1.0000multiplexer slope coefficient	1.0000fibre end	0.00T internal ref (°C)	29.89T ext. ref 1 (°C)	-0.30T ext. ref 2 (°C)	23.50length (m)	temperature (°C)	Stokes	anti-Stokes-747.200	-70.004	-0.283	0.109
-746.185	-54.820	-0.303	-0.138
-745.171	-128.130	0.281	-0.041
-744.156	495.303	0.098	0.226
-743.142	-23.838	-0.110	-0.066
-742.127	68.062	0.062	-0.064
-741.112	-200.000	0.108	0.724
-740.098	429.361	-0.065	0.140
-739.083	800.000	-0.058	-0.224
-738.069	26.193	-0.182	0.153
-737.054	-200.000	-0.021	-0.183
-736.039	321.970	0.078	-0.149
-735.025	-51.457	0.172	-0.081
-734.010	-200.000	-0.136	-0.610
-732.996	-24.036	-0.286	-0.172
-731.981	193.502	0.108	-0.164
-730.966	2.922	0.265	0.194
-729.952	-125.455	-0.332	0.051
-728.937	62.541	-0.071	0.072
-727.923	-85.835	-0.176	0.055
-726.908	-200.000	-0.068	-0.303
-725.894	-14.106	0.141	-0.092
-724.879	130.434	0.125	-0.161
-723.864	65.581	0.327	-0.333
-722.850	-200.000	0.022	0.129
-721.835	-70.667	-0.009	0.003
-720.821	-72.731	0.225	-0.083
-719.806	10.339	0.076	0.058
-718.791	-200.000	0.029	-0.252
-717.777	-120.039	-0.080	0.014
-716.762	671.639	-0.121	0.315
-715.748	-76.442	-0.205	0.072
-714.733	-200.000	0.049	-0.225
-713.718	44.382	0.065	-0.060
-712.704	598.343	-0.124	-0.310
-711.689	68.157	-0.257	0.264
-710.675	-108.135	-0.144	0.031
-709.660	-182.559	0.028	-0.001
-708.645	-200.000	-0.026	0.122
-707.631	28.453	0.303	0.258
-706.616	95.833	-0.364	-0.417
-705.602	-200.000	-0.016	-0.240
-704.587	-106.297	-0.165	0.037
-703.572	-45.276	-0.270	0.135
-702.558	-153.137	0.150	-0.011
-701.543	3.227	-0.174	-0.127
-700.529	-162.887	0.072	0.004
-699.514	-20.483	-0.035	-0.022
-698.499	-92.198	-0.250	0.071
-697.485	-91.074	-0.419	0.121
-696.470	203.718	0.117	0.182
-695.456	-200.000	0.006	-0.047
-694.441	-112.248	-0.168	-0.034
-693.426	73.962	0.153	0.162
-692.412	-77.352	-0.151	0.053
-691.397	-9.068	-0.273	0.184
-690.383	-128.269	0.344	0.049
-689.368	-200.000	0.003	0.086
-688.354	-20.731	-0.270	-0.166
-687.339	-200.000	-0.096	0.483
-686.324	-200.000	0.025	-0.122
-685.310	-105.504	0.234	0.053
-684.295	-87.038	-0.108	-0.033
-683.281	800.000	-0.079	0.345
-682.266	704.510	0.109	-0.289
-681.251	5.861	-0.201	0.149
-680.237	-116.437	0.164	0.030
-679.222	204.871	0.083	-0.130
-678.208	56.894	-0.150	-0.147
-677.193	37.079	-0.291	0.258
-676.178	103.734	-0.192	-0.226
-675.164	-172.629	0.261	0.008
-674.149	317.178	0.106	-0.201
-673.135	42.591	-0.181	-0.165
-672.120	105.243	0.154	-0.182
-671.105	-144.857	0.178	0.016
-670.091	526.461	-0.048	-0.113
-669.076	-70.316	0.276	-0.105
-668.062	-2.756	0.254	-0.178
-667.047	91.508	0.093	0.104
-666.032	-200.000	0.073	0.637
-665.018	604.626	-0.089	-0.223
-664.003	800.000	-0.063	-0.195
-662.989	-143.696	0.280	-0.027
-661.974	234.782	-0.128	-0.212
-660.959	800.000	-0.101	-0.315
-659.945	-8.393	-0.329	0.222
-658.930	592.690	0.080	0.197
-657.916	2.497	-0.271	0.197
-656.901	276.298	0.065	0.115
-655.886	166.775	0.061	0.087
-654.872	800.000	0.084	-0.286
-653.857	-200.000	0.020	0.160
-652.843	184.281	-0.105	0.156
-651.828	42.915	0.179	0.164
-650.814	-200.000	0.004	0.177
-649.799	-18.356	0.249	0.156
-648.784	512.152	-0.094	0.219
-647.770	800.000	-0.075	-0.249
-646.755	-200.000	-0.039	0.331
-645.741	-86.357	-0.144	-0.045
-644.726	-78.129	0.170	0.059
-643.711	-108.084	-0.225	-0.049
-642.697	512.722	-0.059	0.139
-641.682	-200.000	-0.049	-0.388
-640.668	800.000	-0.059	0.224
-639.653	34.912	-0.190	0.167
-638.638	-71.090	-0.210	0.079
-637.624	13.034	0.339	0.263
-636.609	56.149	-0.313	-0.305
-635.595	-11.638	0.258	-0.170
-634.580	9.006	0.062	-0.047
-633.565	-200.000	-0.008	-0.188
-632.551	-163.743	0.348	0.016
-631.536	-115.427	0.186	-0.035
-630.522	108.060	-0.093	-0.111
-629.507	234.352	-0.173	-0.286
-628.492	-200.000	-0.008	-0.131
-627.478	-200.000	-0.002	-0.054
-626.463	228.775	-0.066	0.108
-625.449	101.353	-0.086	0.100
-624.434	-7.899	0.089	0.060
-623.419	800.000	0.067	0.219
-622.405	800.000	-0.028	0.114
-621.390	-200.000	0.050	-0.312
-620.376	-200.000	0.038	0.277
-619.361	170.809	-0.142	-0.203
-618.346	639.870	-0.087	-0.221
-617.332	800.000	0.069	-0.234
-616.317	-184.659	-0.280	-0.005
-615.303	800.000	0.038	-0.135
-614.288	81.257	0.044	-0.048
-613.273	480.159	0.118	0.268
-612.259	-200.000	-0.001	-0.261
-611.244	-32.005	-0.178	0.100
-610.230	35.211	-0.135	-0.119
-609.215	-200.000	0.017	-0.117
-608.201	-99.291	-0.256	-0.065
-607.186	599.336	-0.116	0.287
-606.171	415.991	0.250	0.534
-605.157	506.506	0.088	0.203
-604.142	449.788	0.062	0.137
-603.128	-80.277	-0.110	0.037
-602.113	-153.883	-0.183	-0.013
-601.098	800.000	-0.072	0.208
-600.084	-200.000	0.017	0.253
-599.069	800.000	-0.041	0.175
-598.055	-91.039	0.073	-0.021
-597.040	479.040	0.039	-0.089
-596.025	-118.152	-0.175	-0.031
-595.011	-10.586	0.301	-0.199
-593.996	334.929	0.035	-0.068
-592.982	-200.000	0.069	-0.318
-591.967	80.486	-0.112	0.121
-590.952	190.571	0.101	0.152
-589.938	111.364	0.281	-0.339
-588.923	-95.307	-0.197	0.053
-587.909	54.600	0.086	-0.083
-586.894	-62.416	-0.154	0.064
-585.879	-81.747	-0.123	0.040
-584.865	-29.069	0.178	-0.102
-583.850	-58.189	-0.166	0.072
-582.836	-112.346	0.203	0.041
-581.821	222.789	0.067	0.108
-580.806	-200.000	0.029	-0.354
-579.792	-57.853	-0.194	0.085
-578.777	-44.212	-0.332	-0.166
-577.763	-200.000	0.023	0.375
-576.748	-116.450	-0.184	0.034
-575.733	64.773	0.158	-0.159
-574.719	-200.000	0.082	-0.421
-573.704	800.000	-0.042	0.133
-572.690	-84.505	0.249	-0.078
-571.675	800.000	-0.126	-0.438
-570.661	314.591	-0.199	0.374
-569.646	-27.644	-0.187	-0.109
-568.631	-200.000	0.000	0.018
-567.617	-200.000	-0.020	-0.112
-566.602	-89.979	-0.249	0.073
-565.588	-29.143	-0.113	0.065
-564.573	-96.240	-0.243	-0.064
-563.558	800.000	-0.009	0.031
-562.544	-32.818	-0.095	-0.053
-561.529	175.739	0.104	0.151
-560.515	78.053	-0.159	-0.170
-559.500	62.958	0.301	0.302
-558.485	249.717	0.073	0.123
-557.471	-56.426	0.176	-0.078
-556.456	231.653	-0.053	-0.086
-555.442	800.000	0.021	0.061
-554.427	136.451	-0.055	-0.071
-553.412	-14.855	0.135	0.087
-552.398	61.191	0.124	-0.123
-551.383	8.134	0.331	0.248
-550.369	-96.427	-0.182	0.048
-549.354	800.000	0.105	0.323
-548.339	-200.000	0.068	0.304
-547.325	75.358	0.118	0.124
-546.310	-97.306	-0.227	-0.059
-545.296	67.235	-0.149	0.151
-544.281	-134.814	0.355	-0.043
-543.266	-200.000	0.014	0.204
-542.252	211.608	-0.251	-0.395
-541.237	54.103	0.129	-0.124
-540.223	-200.000	0.022	-0.178
-539.208	-200.000	0.031	-0.356
-538.193	235.694	0.172	0.283
-537.179	-200.000	-0.024	0.128
-536.164	800.000	0.059	-0.213
-535.150	773.120	0.010	-0.028
-534.135	-84.859	0.080	0.025
-533.121	-27.427	0.163	0.095
-532.106	-200.000	-0.019	0.308
-531.091	800.000	0.044	-0.122
-530.077	800.000	0.056	0.156
-529.062	-200.000	0.015	-0.118
-528.048	280.953	-0.021	0.038
-527.033	97.321	0.124	-0.142
-526.018	102.320	0.133	-0.156
-525.004	-200.000	0.047	-0.205
-523.989	-68.514	0.104	0.040
-522.975	-30.928	0.059	-0.033
-521.960	263.580	0.138	0.240
-520.945	-100.038	0.108	0.027
-519.931	-133.210	-0.332	0.042
-518.916	-38.041	-0.262	-0.139
-517.902	-72.270	0.169	-0.062
-516.887	800.000	-0.043	-0.137
-515.872	-200.000	0.047	0.208
-514.858	-200.000	-0.015	-0.301
-513.843	-152.731	0.453	0.032
-512.829	-42.001	0.271	0.138
-511.814	8.587	0.184	0.138
-510.799	249.937	0.096	0.163
-509.785	67.191	0.181	-0.184
-508.770	-200.000	0.001	0.049
-507.756	73.899	-0.239	-0.250
-506.741	-157.351	-0.290	0.017
-505.726	-29.217	-0.250	-0.143
-504.712	54.952	-0.221	0.213
-503.697	87.035	0.167	0.184
-502.683	-15.376	-0.268	0.171
-501.668	-110.530	-0.305	0.063
-500.653	24.909	0.213	0.176
-499.639	182.106	-0.258	-0.378
-498.624	-8.159	-0.259	-0.174
-497.610	-200.000	-0.011	0.224
-496.595	-200.000	-0.034	0.228
-495.581	-200.000	-0.011	-0.132
-494.566	800.000	0.038	0.130
-493.551	-200.000	0.039	-0.208
-492.537	612.175	0.043	-0.106
-491.522	-83.429	0.135	-0.043
-490.508	-85.882	0.139	-0.043
-489.493	256.886	0.084	0.144
-488.478	138.736	-0.164	0.215
-487.464	800.000	0.028	-0.089
-486.449	315.917	-0.157	0.295
-485.435	-122.554	-0.262	0.042
-484.420	-3.129	0.065	-0.045
-483.405	-7.699	-0.050	-0.034
-482.391	-200.000	-0.016	-0.294
-481.376	162.827	0.196	-0.275
-480.362	-21.496	0.173	-0.105
-479.347	52.007	-0.213	0.202
-478.332	266.831	-0.015	-0.027
-477.318	631.501	-0.077	-0.193
-476.303	-109.268	-0.341	0.072
-475.289	-98.429	0.240	-0.061
-474.274	51.657	0.155	0.147
-473.259	-122.666	0.305	-0.049
-472.245	-67.926	0.203	-0.079
-471.230	-161.128	0.331	-0.017
-470.216	-91.996	-0.147	-0.041
-469.201	734.041	-0.076	0.204
-468.186	-139.259	-0.092	0.010
-467.172	-54.645	-0.268	-0.121
-466.157	800.000	-0.129	0.365
-465.143	800.000	0.074	0.277
-464.128	-43.510	-0.172	0.087
-463.113	713.290	0.047	0.123
-462.099	-16.429	0.248	-0.157
-461.084	-9.867	-0.246	-0.163
-460.070	-42.843	0.133	0.067
-459.055	800.000	0.095	0.288
-458.040	-35.859	-0.156	-0.084
-457.026	282.805	-0.036	-0.064
-456.011	-73.370	-0.135	-0.049
-454.997	15.189	0.203	0.158
-453.982	-42.306	-0.053	-0.027
-452.968	800.000	0.040	-0.131
-451.953	319.581	-0.088	-0.166
-450.938	142.182	0.164	0.216
-449.924	5.141	-0.322	-0.236
-448.909	36.099	0.329	-0.288
-447.895	36.845	0.015	-0.014
-446.880	30.166	-0.104	-0.089
-445.865	409.215	0.146	0.307
-444.851	41.462	0.366	0.329
-443.836	786.438	0.119	0.324
-442.822	-100.651	0.150	0.037
-441.807	289.046	-0.105	0.189
-440.792	-109.471	-0.188	0.040
-439.778	333.035	-0.064	-0.123
-438.763	800.000	0.045	-0.123
-437.749	800.000	-0.034	-0.133
-436.734	130.643	-0.312	-0.398
-435.719	-81.560	0.327	-0.107
-434.705	-82.826	-0.209	0.067
-433.690	-2.166	-0.267	0.186
-432.676	-200.000	0.012	-0.182
-431.661	-168.450	-0.201	0.008
-430.646	28.718	-0.082	-0.069
-429.632	-100.259	-0.479	-0.118
-428.617	-1.880	0.141	-0.099
-427.603	-200.000	-0.050	-0.266
-426.588	-126.056	-0.253	-0.038
-425.573	800.000	-0.082	-0.275
-424.559	108.645	-0.476	-0.565
-423.544	32.692	0.190	0.163
-422.530	-26.670	-0.223	0.130
-421.515	136.238	0.135	0.174
-420.500	-200.000	0.021	0.568
-419.486	-200.000	0.002	-0.034
-418.471	12.647	0.190	-0.146
-417.457	251.921	-0.137	-0.232
-416.442	-136.081	0.291	-0.034
-415.428	279.214	-0.173	-0.307
-414.413	148.406	-0.125	-0.168
-413.398	-200.000	0.038	0.325
-412.384	-59.934	0.184	-0.078
-411.369	-196.134	-0.137	-0.001
-410.355	95.103	0.125	0.141
-409.340	-56.809	0.112	-0.049
-408.325	800.000	-0.046	0.199
-407.311	-48.863	-0.172	0.082
-406.296	-112.250	-0.213	-0.042
-405.282	29.350	-0.120	-0.101
-404.267	800.000	0.124	0.383
-403.252	-200.000	-0.011	0.071
-402.238	0.598	0.090	0.064
-401.223	767.933	-0.060	0.162
-400.209	-200.000	0.033	0.211
-399.194	800.000	-0.079	-0.236
-398.179	-200.000	-0.028	0.449
-397.165	-123.828	0.169	-0.026
-396.150	763.840	-0.043	-0.116
-395.136	363.650	-0.053	0.105
-394.121	-200.000	-0.004	0.120
-393.106	142.486	-0.208	0.274
-392.092	-200.000	-0.017	0.150
-391.077	-60.894	-0.083	-0.035
-390.063	-42.731	-0.342	0.172
-389.048	-123.013	-0.261	0.042
-388.033	81.466	0.122	0.131
-387.019	80.961	0.218	-0.234
-386.004	64.975	0.333	0.333
-384.990	-58.289	0.098	0.042
-383.975	-102.090	-0.223	-0.053
-382.960	-138.921	0.309	-0.033
-381.946	-200.000	-0.057	0.298
-380.931	-76.304	0.112	0.039
-379.917	-200.000	-0.017	0.091
-378.902	25.131	0.118	-0.097
-377.888	82.821	-0.120	-0.130
-376.873	29.607	0.217	-0.184
-375.858	-200.000	0.016	-0.119
-374.844	-30.064	0.091	-0.051
-373.829	-139.178	-0.146	-0.016
-372.815	0.823	0.110	-0.078
-371.800	-71.253	0.137	0.051
-370.785	11.054	-0.108	0.082
-369.771	-200.000	-0.026	-0.224
-368.756	-11.414	0.260	-0.170
-367.742	-106.977	-0.278	0.061
-366.727	-50.322	-0.336	0.158
-365.712	-105.805	0.375	-0.084
-364.698	-200.000	0.045	-0.208
-363.683	-102.849	-0.238	0.056
-362.669	104.624	0.178	0.208
-361.654	-6.268	-0.213	-0.144
-360.639	800.000	0.052	0.204
-359.625	132.738	0.123	-0.158
-358.610	77.049	0.066	0.069
-357.596	-20.326	-0.179	-0.109
-356.581	-135.421	-0.437	-0.052
-355.566	-127.485	0.524	-0.076
-354.552	-17.047	0.161	0.100
-353.537	97.098	0.108	0.123
-352.523	-147.408	-0.124	-0.010
-351.508	800.000	-0.010	0.038
-350.493	800.000	0.069	-0.209
-349.479	800.000	0.086	0.319
-348.464	76.708	0.146	0.154
-347.450	254.384	0.088	-0.148
-346.435	34.733	0.154	0.133
-345.420	-3.465	-0.213	-0.147
-344.406	-130.304	-0.136	-0.018
-343.391	-200.000	0.012	-0.221
-342.377	1.803	0.255	-0.182
-341.362	-70.417	0.354	-0.133
-340.348	-47.097	0.048	0.023
-339.333	-76.658	-0.208	-0.072
-338.318	162.047	-0.058	0.080
-337.304	693.041	-0.022	-0.056
-336.289	800.000	0.044	0.144
-335.275	298.799	-0.103	-0.187
-334.260	-44.512	0.034	-0.017
-333.245	-200.000	0.074	-0.445
-332.231	-67.745	0.220	-0.085
-331.216	-142.980	0.232	-0.022
-330.202	285.257	-0.105	-0.187
-329.187	288.717	0.057	0.103
-328.172	-32.672	-0.244	0.134
-327.158	-13.696	-0.240	0.154
-326.143	-136.029	-0.510	-0.059
-325.129	252.724	-0.053	0.090
-324.114	374.835	0.040	0.082
-323.099	32.270	-0.096	-0.082
-322.085	-22.545	-0.350	0.210
-321.070	-200.000	-0.010	-0.043
-320.056	-200.000	-0.003	-0.214
-319.041	226.342	-0.106	-0.170
-318.026	225.291	-0.151	-0.243
-317.012	-142.817	-0.104	0.010
-315.997	-35.099	-0.179	0.097
-314.983	-121.730	0.103	0.017
-313.968	65.941	0.421	-0.422
-312.953	-64.854	-0.290	-0.116
-311.939	-68.214	-0.236	-0.091
-310.924	128.291	-0.079	0.099
-309.910	-184.480	0.079	0.001
-308.895	-34.032	-0.107	-0.058
-307.880	-200.000	0.005	-0.098
-306.866	-72.958	-0.310	-0.113
-305.851	-36.471	0.180	0.096
-304.837	-117.164	0.218	-0.039
-303.822	305.458	0.056	-0.102
-302.807	29.358	-0.169	0.142
-301.793	84.715	-0.122	0.132
-300.778	122.549	-0.127	-0.157
-299.764	-38.573	0.164	0.086
-298.749	520.177	-0.108	0.250
-297.735	-99.139	0.102	-0.026
-296.720	-105.733	-0.192	0.043
-295.705	-33.586	-0.008	-0.004
-294.691	-200.000	-0.045	0.239
-293.676	-200.000	0.018	0.087
-292.662	800.000	0.065	-0.267
-291.647	800.000	0.040	-0.137
-290.632	-25.256	-0.232	0.136
-289.618	86.702	-0.258	-0.281
-288.603	-122.047	0.199	-0.032
-287.589	278.462	0.117	-0.207
-286.574	-63.877	0.415	-0.168
-285.559	400.584	0.118	0.244
-284.545	13.315	0.114	-0.087
-283.530	177.564	-0.028	-0.040
-282.516	106.963	0.080	0.094
-281.501	-96.510	-0.153	0.040
-280.486	667.597	0.068	-0.175
-279.472	107.644	0.304	-0.358
-278.457	-80.739	0.144	-0.047
-277.443	42.840	0.460	-0.414
-276.428	13.757	-0.063	-0.048
-275.413	-35.795	-0.021	-0.011
-274.399	-200.000	-0.058	-0.257
-273.384	800.000	0.051	0.184
-272.370	-14.372	0.190	0.121
-271.355	-200.000	0.028	-0.125
-270.340	-73.456	0.517	0.187
-269.326	570.760	0.130	0.313
-268.311	-18.556	-0.140	-0.086
-267.297	-4.948	0.112	-0.076
-266.282	-151.550	-0.548	-0.040
-265.267	-200.000	-0.051	0.239
-264.253	203.991	0.148	-0.226
-263.238	-200.000	0.006	-0.265
-262.224	-81.347	0.096	0.031
-261.209	800.000	-0.044	-0.146
-260.195	123.706	-0.151	0.188
-259.180	25.478	0.197	-0.162
-258.165	295.791	0.014	-0.025
-257.151	20.362	0.038	-0.030
-256.136	-200.000	-0.055	0.368
-255.122	-200.000	-0.007	0.135
-254.107	37.069	-0.134	-0.117
-253.092	0.640	-0.197	0.139
-252.078	-60.945	-0.155	-0.065
-251.063	-200.000	-0.021	0.320
-250.049	279.090	-0.158	0.278
-249.034	-200.000	-0.034	-0.151
-248.019	44.982	0.093	0.084
-247.005	800.000	0.052	-0.176
-245.990	-121.225	-0.273	-0.045
-244.976	-50.410	0.332	-0.155
-243.961	-6.350	0.084	-0.056
-242.946	69.575	0.282	-0.287
-241.932	-27.526	0.037	-0.021
-240.917	178.276	0.088	0.127
-239.903	800.000	-0.108	0.355
-238.888	-172.324	0.364	-0.011
-237.873	55.619	0.140	0.134
-236.859	-200.000	-0.029	0.139
-235.844	-185.438	0.326	-0.005
-234.830	135.718	-0.207	0.266
-233.815	800.000	0.008	-0.032
-232.800	-200.000	0.022	0.240
-231.786	645.164	-0.192	0.484
-230.771	-153.235	0.094	0.006
-229.757	-200.000	-0.045	0.215
-228.742	461.244	0.109	-0.240
-227.727	465.222	0.114	-0.251
-226.713	-5.075	0.164	-0.111
-225.698	-131.303	-0.123	-0.016
-224.684	-200.000	0.014	0.096
-223.669	-200.000	-0.008	0.098
-222.655	-5.808	-0.248	-0.167
-221.640	16.155	0.132	0.102
-220.625	80.558	-0.187	0.198
-219.611	-200.000	-0.040	-0.282
-218.596	46.647	-0.159	0.145
-217.582	-102.496	0.148	0.035
-216.567	-147.549	0.279	-0.023
-215.552	-200.000	0.039	0.248
-214.538	-120.797	0.176	0.029
-213.523	391.898	0.061	-0.125
-212.509	800.000	0.055	-0.167
-211.494	800.000	-0.059	-0.187
-210.479	800.000	0.094	-0.329
-209.465	-155.908	0.229	0.014
-208.450	34.878	0.126	-0.108
-207.436	38.442	0.070	-0.062
-206.421	320.590	-0.088	-0.164
-205.406	71.294	0.156	-0.159
-204.392	-49.604	-0.067	0.031
-203.377	13.552	0.064	0.049
-202.363	64.513	0.250	-0.248
-201.348	-200.000	0.008	0.264
-200.333	-200.000	-0.044	0.439
-199.319	9.893	-0.167	0.125
-198.304	-13.581	-0.120	0.077
-197.290	-136.520	-0.268	0.031
-196.275	25.148	0.040	-0.033
-195.260	53.427	-0.177	-0.167
-194.246	604.686	-0.122	-0.300
-193.231	800.000	0.063	0.216
-192.217	136.705	-0.037	0.048
-191.202	-200.000	0.033	-0.299
-190.187	-131.508	-0.275	-0.036
-189.173	-63.332	0.169	0.069
-188.158	800.000	-0.019	0.072
-187.144	7.705	0.132	-0.098
-186.129	-200.000	0.006	-0.050
-185.114	623.110	-0.125	0.309
-184.100	-31.198	0.093	0.052
-183.085	-200.000	0.026	-0.241
-182.071	-13.971	0.102	0.065
-181.056	-55.177	0.270	-0.120
-180.042	594.809	0.077	-0.187
-179.027	-167.700	-0.320	-0.012
-178.012	513.059	0.201	0.460
-176.998	3.024	0.058	0.042
-175.983	69.908	0.121	-0.123
-174.969	800.000	0.124	0.357
-173.954	20.811	-0.071	0.056
-172.939	14.699	-0.097	0.074
-171.925	-47.719	-0.108	-0.052
-170.910	-17.727	-0.415	-0.256
-169.896	90.076	0.109	-0.120
-168.881	-105.350	0.253	0.057
-167.866	220.257	-0.042	0.067
-166.852	-95.348	0.200	0.053
-165.837	-200.000	0.007	-0.239
-164.823	-82.159	0.087	-0.028
-163.808	-154.821	-0.078	-0.005
-162.793	-76.094	0.031	0.011
-161.779	-200.000	-0.107	-0.491
-160.764	-71.566	0.131	-0.048
-159.750	219.144	0.070	0.111
-158.735	-200.000	-0.038	-0.295
-157.720	-200.000	0.002	0.044
-156.706	-200.000	-0.029	0.203
-155.691	-43.091	-0.148	0.074
-154.677	-200.000	0.009	0.408
-153.662	17.236	-0.251	0.196
-152.647	800.000	0.086	0.354
-151.633	-35.511	-0.035	0.019
-150.618	299.712	-0.092	-0.167
-149.604	-64.001	-0.370	0.149
-148.589	-42.402	-0.241	0.121
-147.574	-144.619	-0.491	-0.045
-146.560	800.000	0.031	0.127
-145.545	136.241	-0.109	0.140
-144.531	-20.840	0.134	0.081
-143.516	-169.721	-0.386	-0.014
-142.502	-119.338	0.307	0.052
-141.487	43.592	0.074	-0.067
-140.472	535.271	0.073	-0.170
-139.458	56.060	0.124	-0.119
-138.443	-84.428	-0.239	0.074
-137.429	800.000	-0.029	0.107
-136.414	-8.056	-0.098	-0.065
-135.399	-135.206	0.187	-0.022
-134.385	-200.000	-0.003	0.024
-133.370	280.880	0.143	-0.252
-132.356	-91.922	-0.159	-0.044
-131.341	-187.823	0.145	0.002
-130.326	358.910	-0.043	-0.085
-129.312	-62.677	0.184	-0.075
-128.297	-143.354	-0.126	0.012
-127.283	-200.000	0.012	0.095
-126.268	-168.506	0.202	-0.008
-125.253	115.569	-0.172	0.206
-124.239	-200.000	-0.007	-0.165
-123.224	-139.178	0.096	0.010
-122.210	209.542	0.084	0.129
-121.195	-200.000	0.012	-0.232
