DTS Sentinel unit serial number:	SN413079Multiplexer serial number:	ORYXHardware model number:	OX4-SRSoftware version number:	ORYX F/W v4.00 Oryx Data Collector v3.7.2.0data status	okinstallation	princeton_trtdifferential loss correction	single-endedforward channel	channel 3reverse channel	N/Adate	2019/09/12time	04:10:11forward acquisition time	60.00reverse acquisition time	0.00gamma	496.2192k internal	0.2323k external	0.2323temperature offset calibration	1.0070default loss term (dB/km)	0.3790temperature slope calibration	1.0000multiplexer offset coefficient	1.0000multiplexer slope coefficient	1.0000fibre end	0.00T internal ref (°C)	31.94T ext. ref 1 (°C)	2.22T ext. ref 2 (°C)	25.48length (m)	temperature (°C)	Stokes	anti-Stokes-747.200	299.543	0.240	0.447
-746.185	-200.000	0.021	0.437
-745.171	105.970	0.390	0.466
-744.156	99.482	0.087	0.102
-743.142	720.426	-0.061	0.164
-742.127	293.443	-0.059	-0.109
-741.112	564.501	0.009	-0.022
-740.098	-5.601	-0.270	0.187
-739.083	-159.021	-0.262	-0.015
-738.069	249.571	0.039	0.067
-737.054	-200.000	0.002	-0.470
-736.039	51.225	0.170	-0.163
-735.025	-126.532	0.391	-0.059
-734.010	800.000	-0.138	-0.384
-732.996	342.366	0.087	0.173
-731.981	-143.727	-0.222	-0.021
-730.966	-166.086	0.303	0.013
-729.952	55.510	-0.216	0.211
-728.937	162.226	-0.067	-0.095
-727.923	-200.000	-0.275	-0.000
-726.908	63.372	-0.012	0.012
-725.894	6.651	-0.051	0.038
-724.879	-88.796	-0.231	-0.069
-723.864	-30.072	-0.100	0.057
-722.850	-200.000	-0.020	-0.150
-721.835	800.000	0.107	0.447
-720.821	-67.701	-0.099	0.039
-719.806	448.599	-0.032	0.071
-718.791	-200.000	-0.048	-0.285
-717.777	170.857	-0.162	-0.234
-716.762	3.223	-0.042	-0.031
-715.748	-103.438	0.229	-0.054
-714.733	21.884	0.143	0.118
-713.718	-43.512	-0.223	0.113
-712.704	40.018	-0.166	-0.150
-711.689	-118.272	-0.145	-0.026
-710.675	385.573	0.058	-0.122
-709.660	-200.000	0.001	0.134
-708.645	495.010	-0.022	0.051
-707.631	220.602	0.077	0.124
-706.616	-116.577	0.092	0.017
-705.602	536.241	-0.189	0.453
-704.587	144.983	-0.194	-0.261
-703.572	-200.000	-0.012	0.324
-702.558	734.056	0.132	-0.358
-701.543	133.322	-0.128	0.166
-700.529	-86.177	0.323	0.101
-699.514	-112.623	0.063	-0.013
-698.499	-99.725	0.072	0.018
-697.485	71.721	0.072	0.075
-696.470	-200.000	0.059	0.285
-695.456	-200.000	-0.015	-0.363
-694.441	800.000	-0.055	0.234
-693.426	800.000	0.029	-0.089
-692.412	-57.508	-0.130	-0.058
-691.397	-133.704	-0.343	0.043
-690.383	1.514	-0.336	-0.244
-689.368	-97.249	0.325	-0.086
-688.354	-200.000	-0.015	0.214
-687.339	-200.000	0.004	0.030
-686.324	72.304	-0.062	0.065
-685.310	47.715	-0.232	-0.218
-684.295	-191.670	0.344	-0.003
-683.281	-27.072	-0.542	0.318
-682.266	-18.142	-0.205	0.129
-681.251	-163.173	0.120	0.006
-680.237	-146.203	-0.161	-0.014
-679.222	536.169	-0.074	-0.177
-678.208	-134.304	-0.255	-0.032
-677.193	-21.693	-0.154	-0.094
-676.178	106.005	0.165	-0.197
-675.164	-2.745	0.155	-0.109
-674.149	-31.382	-0.156	-0.088
-673.135	124.097	0.041	0.052
-672.120	-76.421	-0.212	-0.075
-671.105	280.763	0.210	-0.378
-670.091	209.776	0.085	-0.134
-669.076	8.988	0.191	-0.145
-668.062	-134.433	-0.285	-0.035
-667.047	165.829	-0.135	-0.192
-666.032	26.161	-0.338	-0.284
-665.018	-43.074	-0.071	0.036
-664.003	597.195	0.098	0.243
-662.989	-38.851	-0.231	-0.123
-661.974	800.000	-0.074	0.218
-660.959	103.524	0.086	0.102
-659.945	736.910	-0.196	-0.528
-658.930	194.325	-0.265	0.405
-657.916	39.027	-0.293	0.264
-656.901	-116.874	0.378	-0.070
-655.886	-200.000	-0.033	-0.178
-654.872	-109.429	-0.123	0.026
-653.857	-161.516	-0.252	0.013
-652.843	-108.119	-0.337	-0.074
-651.828	386.982	0.008	0.018
-650.814	-200.000	0.005	0.101
-649.799	189.721	-0.064	0.097
-648.784	369.939	-0.209	0.426
-647.770	8.309	0.108	-0.082
-646.755	500.714	-0.118	-0.274
-645.741	69.027	-0.333	-0.345
-644.726	-69.076	0.468	-0.181
-643.711	-16.289	0.204	-0.131
-642.697	-200.000	-0.030	-0.178
-641.682	-19.059	-0.200	0.125
-640.668	-20.421	-0.298	-0.184
-639.653	167.293	-0.164	0.234
-638.638	237.424	0.105	0.175
-637.624	-79.614	-0.350	0.119
-636.609	346.376	-0.049	0.097
-635.595	800.000	-0.051	0.174
-634.580	-122.791	0.400	-0.065
-633.565	-123.403	-0.244	-0.039
-632.551	0.638	0.056	0.040
-631.536	202.434	-0.056	0.086
-630.522	-139.758	0.156	0.017
-629.507	-127.971	-0.141	-0.020
-628.492	98.430	-0.101	-0.117
-627.478	117.083	0.133	-0.164
-626.463	-95.349	0.382	0.103
-625.449	-57.564	0.126	0.056
-624.434	94.085	-0.133	0.152
-623.419	98.154	0.218	-0.253
-622.405	-105.610	0.128	-0.029
-621.390	-129.887	-0.245	0.034
-620.376	151.776	-0.116	-0.159
-619.361	69.102	-0.095	-0.098
-618.346	-200.000	0.053	-0.528
-617.332	-188.330	0.361	0.005
-616.317	-200.000	-0.063	0.321
-615.303	800.000	-0.060	-0.198
-614.288	27.795	-0.197	0.167
-613.273	-77.255	-0.011	0.004
-612.259	84.573	0.150	0.166
-611.244	172.081	0.115	-0.166
-610.230	-115.780	0.115	-0.022
-609.215	59.918	-0.187	-0.186
-608.201	-49.623	-0.154	-0.074
-607.186	46.663	-0.150	0.140
-606.171	800.000	0.013	-0.053
-605.157	11.214	-0.117	-0.090
-604.142	-93.418	0.268	-0.075
-603.128	-144.841	-0.240	0.022
-602.113	-100.809	0.462	0.114
-601.098	-200.000	0.009	-0.105
-600.084	419.742	-0.145	-0.311
-599.069	-63.633	-0.132	0.054
-598.055	-149.831	0.051	-0.004
-597.040	-200.000	-0.075	-0.380
-596.025	112.845	0.238	-0.290
-595.011	-58.663	0.146	-0.064
-593.996	-54.135	-0.207	-0.094
-592.982	252.504	0.082	0.140
-591.967	99.955	-0.092	0.106
-590.952	44.062	-0.218	-0.200
-589.938	199.304	-0.117	-0.180
-588.923	-200.000	0.047	-0.214
-587.909	-21.467	0.312	0.191
-586.894	7.685	0.327	-0.246
-585.879	-39.102	-0.139	0.073
-584.865	33.611	-0.122	-0.106
-583.850	-154.534	-0.265	-0.018
-582.836	-31.271	-0.154	0.087
-581.821	-200.000	-0.026	-0.186
-580.806	119.699	-0.113	0.141
-579.792	6.223	-0.369	-0.274
-578.777	-7.526	0.029	-0.020
-577.763	800.000	0.054	-0.177
-576.748	740.236	-0.149	-0.401
-575.733	-60.898	0.261	-0.111
-574.719	-200.000	-0.020	0.200
-573.704	800.000	0.070	-0.252
-572.690	-200.000	0.043	-0.235
-571.675	800.000	0.035	-0.125
-570.661	-76.712	0.172	0.060
-569.646	529.285	0.011	-0.026
-568.631	410.021	0.141	-0.300
-567.617	-179.509	0.527	0.012
-566.602	-200.000	0.008	0.392
-565.588	-108.061	-0.209	-0.045
-564.573	800.000	0.074	0.255
-563.558	-100.247	0.101	-0.025
-562.544	800.000	0.032	0.110
-561.529	-122.982	0.277	-0.045
-560.515	-200.000	-0.038	-0.257
-559.500	800.000	-0.039	-0.133
-558.485	228.158	0.078	0.127
-557.471	-123.915	0.075	0.012
-556.456	-86.516	0.227	-0.070
-555.442	-0.778	-0.218	0.155
-554.427	-200.000	0.027	0.282
-553.412	-136.436	-0.411	-0.048
-552.398	141.398	0.125	-0.166
-551.383	-4.600	0.321	0.222
-550.369	508.930	-0.038	0.089
-549.354	130.464	0.206	0.264
-548.339	-57.724	-0.325	0.143
-547.325	706.657	0.109	-0.287
-546.310	34.978	0.271	0.238
-545.296	679.037	-0.097	0.254
-544.281	-200.000	-0.016	0.074
-543.266	-140.460	-0.198	0.021
-542.252	37.703	0.083	-0.074
-541.237	278.005	0.148	-0.264
-540.223	-200.000	0.022	-0.116
-539.208	751.966	-0.045	0.120
-538.193	29.820	-0.045	-0.039
-537.179	-200.000	0.011	-0.071
-536.164	-110.343	-0.310	-0.065
-535.150	108.395	0.127	-0.151
-534.135	-200.000	-0.009	0.076
-533.121	-200.000	0.021	-0.110
-532.106	800.000	0.050	0.204
-531.091	-134.505	-0.294	0.036
-530.077	177.654	-0.050	0.072
-529.062	-18.957	-0.185	-0.116
-528.048	-200.000	0.043	-0.368
-527.033	-176.893	0.012	0.000
-526.018	-73.183	0.154	-0.056
-525.004	163.629	0.264	-0.372
-523.989	-191.378	-0.251	-0.003
-522.975	72.764	-0.259	0.271
-521.960	0.783	0.258	-0.185
-520.945	400.554	0.154	-0.323
-519.931	-200.000	0.036	0.302
-518.916	-67.160	0.325	-0.128
-517.902	-87.504	-0.298	-0.090
-516.887	-80.309	-0.043	0.014
-515.872	-200.000	-0.035	-0.295
-514.858	-178.538	-0.231	0.005
-513.843	-95.259	-0.175	0.047
-512.829	-51.562	0.161	-0.075
-511.814	193.721	0.050	0.076
-510.799	16.955	0.210	0.166
-509.785	-97.446	0.292	0.076
-508.770	-189.473	0.281	0.003
-507.756	-200.000	-0.028	-0.125
-506.741	-103.579	0.438	-0.103
-505.726	-200.000	0.032	-0.332
-504.712	-93.372	-0.161	-0.045
-503.697	-53.007	-0.042	-0.019
-502.683	13.423	0.110	-0.085
-501.668	800.000	0.023	0.073
-500.653	-84.383	-0.395	-0.125
-499.639	800.000	0.057	-0.184
-498.624	216.652	0.106	-0.169
-497.610	193.614	-0.234	-0.354
-496.595	-13.576	0.185	-0.120
-495.581	135.775	0.138	0.179
-494.566	67.779	0.206	-0.210
-493.551	56.774	0.074	-0.072
-492.537	309.426	-0.097	0.181
-491.522	-200.000	-0.004	-0.110
-490.508	14.330	0.079	-0.062
-489.493	78.132	0.061	0.065
-488.478	158.061	0.010	-0.013
-487.464	56.535	-0.141	0.137
-486.449	-68.318	0.266	-0.103
-485.435	86.659	-0.199	-0.219
-484.420	-71.002	-0.167	0.063
-483.405	-101.292	0.103	-0.025
-482.391	-9.727	0.270	-0.180
-481.376	-200.000	0.015	-0.103
-480.362	-104.201	0.301	0.070
-479.347	439.992	-0.072	0.157
-478.332	132.694	-0.165	0.213
-477.318	0.057	-0.047	0.034
-476.303	-200.000	0.013	-0.322
-475.289	-200.000	-0.033	-0.158
-474.274	735.221	0.101	0.271
-473.259	421.061	-0.091	0.194
-472.245	-47.332	-0.229	0.112
-471.230	-200.000	-0.025	-0.135
-470.216	99.204	0.100	0.115
-469.201	800.000	0.059	0.227
-468.186	-155.522	0.318	0.020
-467.172	-166.878	0.203	-0.008
-466.157	-78.900	-0.210	-0.072
-465.143	172.082	0.294	0.422
-464.128	-101.648	0.124	-0.030
-463.113	125.698	0.083	0.104
-462.099	-67.923	0.096	-0.037
-461.084	-91.841	-0.216	-0.061
-460.070	-200.000	-0.041	0.228
-459.055	-200.000	-0.044	0.307
-458.040	490.630	-0.132	-0.302
-457.026	800.000	0.120	-0.439
-456.011	-17.391	-0.161	-0.101
-454.997	-200.000	-0.029	-0.192
-453.982	-200.000	0.016	-0.240
-452.968	800.000	-0.153	-0.650
-451.953	342.860	-0.080	0.156
-450.938	230.672	0.043	0.070
-449.924	650.223	0.119	0.304
-448.909	-40.927	-0.230	0.119
-447.895	800.000	0.028	-0.118
-446.880	412.892	-0.055	-0.117
-445.865	-55.780	-0.246	-0.110
-444.851	12.108	0.168	0.129
-443.836	124.054	0.157	0.196
-442.822	-115.440	-0.419	-0.079
-441.807	-71.873	-0.157	-0.058
-440.792	-47.047	0.321	0.156
-439.778	-73.987	0.172	-0.062
-438.763	-113.927	-0.315	-0.061
-437.749	82.233	-0.135	0.146
-436.734	-113.076	0.260	-0.051
-435.719	44.778	0.288	-0.264
-434.705	-92.732	-0.245	0.068
-433.690	-41.930	-0.073	0.037
-432.676	321.667	0.018	-0.034
-431.661	-99.041	-0.093	0.024
-430.646	50.788	0.124	-0.117
-429.632	224.874	-0.092	0.148
-428.617	-77.800	-0.138	-0.047
-427.603	305.307	0.079	-0.146
-426.588	-60.369	0.301	-0.128
-425.573	-48.389	0.174	0.084
-424.559	-140.134	0.528	0.055
-423.544	58.336	-0.170	0.166
-422.530	0.800	-0.042	-0.030
-421.515	-95.022	0.164	-0.044
-420.500	311.527	0.029	0.054
-419.486	312.332	0.117	0.219
-418.471	-175.417	0.273	-0.007
-417.457	311.370	-0.100	0.187
-416.442	-10.833	-0.226	0.149
-415.428	-200.000	-0.029	0.397
-414.413	-66.212	-0.247	0.098
-413.398	108.168	-0.034	-0.040
-412.384	800.000	-0.096	-0.287
-411.369	169.584	-0.172	0.245
-410.355	87.587	0.181	0.200
-409.340	161.400	0.263	-0.367
-408.325	-56.969	-0.106	-0.046
-407.311	-200.000	0.040	-0.199
-406.296	-17.816	0.109	0.068
-405.282	800.000	0.093	0.266
-404.267	8.870	-0.232	0.175
-403.252	386.870	-0.123	0.252
-402.238	-200.000	0.002	-0.211
-401.223	-92.639	0.122	0.034
-400.209	-136.748	0.199	0.023
-399.194	19.666	0.093	0.075
-398.179	-200.000	0.065	0.343
-397.165	-200.000	0.019	-0.173
-396.150	-13.067	-0.334	-0.216
-395.136	-86.655	0.175	0.053
-394.121	-47.138	0.020	-0.010
-393.106	97.139	-0.141	0.161
-392.092	-42.221	-0.274	-0.139
-391.077	-200.000	0.015	-0.214
-390.063	-120.396	0.217	0.037
-389.048	800.000	0.094	0.262
-388.033	-117.158	-0.069	0.013
-387.019	-84.789	0.206	-0.065
-386.004	-29.923	-0.293	-0.166
-384.990	-125.081	0.353	-0.054
-383.975	-28.542	-0.183	0.105
-382.960	-40.812	0.100	-0.051
-381.946	-200.000	0.075	0.395
-380.931	11.607	-0.083	0.063
-379.917	306.238	-0.218	0.403
-378.902	404.737	-0.036	0.075
-377.888	109.617	0.272	-0.325
-376.873	166.239	0.037	0.052
-375.858	800.000	-0.071	0.239
-374.844	4.410	-0.163	0.119
-373.829	70.976	-0.368	0.379
-372.815	-200.000	0.218	0.001
-371.800	19.578	-0.108	-0.087
-370.785	800.000	0.102	-0.303
-369.771	-76.098	0.167	0.059
-368.756	180.939	0.105	0.153
-367.742	-117.607	0.427	0.077
-366.727	-67.286	-0.400	0.157
-365.712	705.114	-0.085	-0.223
-364.698	800.000	0.035	-0.147
-363.683	-123.782	0.206	0.032
-362.669	-200.000	-0.001	-0.384
-361.654	-29.083	0.152	-0.087
-360.639	800.000	-0.092	-0.301
-359.625	-200.000	-0.022	-0.214
-358.610	-111.861	-0.096	-0.019
-357.596	114.279	0.075	-0.091
-356.581	-43.814	0.439	-0.220
-355.566	-200.000	0.008	-0.134
-354.552	-79.297	0.086	0.029
-353.537	-77.727	-0.105	0.036
-352.523	-188.970	0.234	-0.003
-351.508	-14.253	-0.209	-0.134
-350.493	269.900	0.086	0.151
-349.479	800.000	-0.163	-0.505
-348.464	-9.360	-0.300	0.199
-347.450	796.499	-0.116	0.319
-346.435	75.637	-0.268	0.281
-345.420	-175.751	-0.366	0.010
-344.406	-92.447	-0.122	-0.034
-343.391	82.016	0.205	-0.221
-342.377	800.000	-0.069	0.228
-341.362	-107.959	0.133	0.029
-340.348	101.341	0.091	-0.106
-339.333	684.783	0.010	0.026
-338.318	-200.000	-0.027	-0.585
-337.304	-200.000	0.037	0.239
-336.289	-83.968	-0.319	0.101
-335.275	69.267	0.222	0.227
-334.260	800.000	-0.109	0.314
-333.245	-50.567	0.415	-0.194
-332.231	-170.784	-0.217	-0.007
-331.216	-200.000	0.001	-0.157
-330.202	-200.000	0.045	0.281
-329.187	41.910	0.155	-0.140
-328.172	179.000	0.168	0.244
-327.158	-200.000	0.010	-0.317
-326.143	-200.000	-0.089	-0.541
-325.129	-95.497	-0.161	-0.043
-324.114	800.000	-0.024	-0.075
-323.099	-117.288	0.198	-0.036
-322.085	-5.563	-0.170	0.116
-321.070	-200.000	-0.025	0.456
-320.056	427.654	0.048	0.102
-319.041	-50.808	-0.049	-0.023
-318.026	-64.968	-0.391	0.157
-317.012	-131.617	0.304	0.040
-315.997	-200.000	-0.008	-0.222
-314.983	59.996	0.296	0.290
-313.968	-128.827	0.093	-0.013
-312.953	-200.000	0.045	0.229
-311.939	191.529	-0.133	-0.199
-310.924	-109.128	-0.145	-0.031
-309.910	-151.807	0.130	-0.009
-308.895	133.680	-0.074	0.096
-307.880	529.278	-0.151	0.354
-306.866	269.395	0.126	-0.220
-305.851	-79.206	-0.503	0.169
-304.837	75.005	0.025	0.026
-303.822	-92.225	-0.114	-0.032
-302.807	28.457	-0.154	0.129
-301.793	-177.739	-0.106	0.003
-300.778	-200.000	0.031	0.137
-299.764	-47.483	-0.183	-0.088
-298.749	-200.000	-0.011	-0.076
-297.735	244.993	0.072	-0.120
-296.720	12.883	0.294	0.226
-295.705	-9.518	-0.119	0.078
-294.691	115.717	-0.112	0.136
-293.676	124.573	0.048	-0.060
-292.662	-200.000	0.003	0.103
-291.647	584.596	0.146	0.356
-290.632	800.000	0.056	0.202
-289.618	-200.000	-0.011	-0.366
-288.603	-51.531	0.112	0.052
-287.589	262.573	-0.254	-0.438
-286.574	-56.342	0.130	-0.057
-285.559	6.509	0.116	-0.085
-284.545	52.376	-0.169	0.160
-283.530	-200.000	-0.046	0.202
-282.516	-83.698	0.233	-0.074
-281.501	30.026	0.076	0.064
-280.486	173.504	0.167	0.239
-279.472	161.253	0.068	-0.094
-278.457	202.850	0.132	0.202
-277.443	212.034	0.116	0.180
-276.428	-200.000	-0.005	0.062
-275.413	36.260	0.040	0.035
-274.399	683.308	-0.102	0.263
-273.384	38.066	0.237	0.209
-272.370	157.721	0.127	0.174
-271.355	800.000	-0.090	0.330
-270.340	-138.069	-0.147	-0.016
-269.326	-24.126	-0.145	-0.086
-268.311	7.338	0.409	0.303
-267.297	-5.419	-0.167	-0.114
-266.282	426.550	0.136	-0.291
-265.267	31.523	-0.343	0.292
-264.253	669.689	0.110	-0.282
-263.238	-200.000	-0.014	-0.098
-262.224	49.083	0.229	0.213
-261.209	-200.000	0.052	-0.227
-260.195	-200.000	-0.007	-0.235
-259.180	103.036	0.108	0.125
-258.165	115.936	0.117	0.142
-257.151	-159.806	-0.155	-0.008
-256.136	529.144	-0.164	0.383
-255.122	800.000	-0.031	0.110
-254.107	-200.000	-0.008	0.277
-253.092	-175.433	0.116	0.003
-252.078	128.907	-0.128	0.162
-251.063	-200.000	-0.006	0.281
-250.049	-62.687	0.018	-0.007
-249.034	153.860	-0.263	0.357
-248.019	-103.216	-0.198	-0.046
-247.005	125.839	-0.070	0.087
-245.990	-185.253	0.224	-0.003
-244.976	-4.136	0.127	-0.087
-243.961	-117.093	0.296	-0.053
-242.946	44.644	-0.218	-0.198
-241.932	-146.562	-0.134	0.012
-240.917	91.617	-0.055	0.061
-239.903	-5.176	-0.071	0.048
-238.888	800.000	-0.174	-0.527
-237.873	800.000	0.068	-0.223
-236.859	-60.999	-0.215	0.090
-235.844	-38.401	-0.203	0.107
-234.830	800.000	0.037	-0.117
-233.815	-124.346	-0.426	0.066
-232.800	-35.142	-0.186	-0.100
-231.786	384.282	0.102	-0.207
-230.771	-18.294	-0.211	0.131
-229.757	800.000	-0.042	0.161
-228.742	-187.879	-0.425	-0.005
-227.727	53.634	-0.297	0.282
-226.713	142.714	-0.043	-0.057
-225.698	-51.390	-0.172	0.079
-224.684	-200.000	-0.007	0.167
-223.669	405.586	0.177	0.370
-222.655	19.135	-0.050	0.039
-221.640	47.919	-0.282	-0.261
-220.625	-132.046	-0.207	-0.027
-219.611	-14.998	0.122	-0.077
-218.596	5.230	-0.226	0.165
-217.582	-175.462	-0.180	0.005
-216.567	15.945	-0.102	0.080
-215.552	-43.680	-0.087	-0.043
-214.538	119.931	0.043	0.052
-213.523	-200.000	-0.022	-0.132
-212.509	15.294	-0.169	0.131
-211.494	413.591	-0.165	0.347
-210.479	800.000	-0.037	-0.128
-209.465	-116.335	-0.454	-0.083
-208.450	54.159	-0.264	-0.251
-207.436	171.756	0.190	0.270
-206.421	588.454	-0.089	0.217
-205.406	-152.408	0.296	-0.021
-204.392	-200.000	-0.018	0.203
-203.377	-106.124	-0.146	-0.033
-202.363	-152.010	0.401	0.029
-201.348	800.000	0.044	-0.138
-200.333	337.938	-0.148	0.284
-199.319	-4.402	0.196	0.134
-198.304	-200.000	0.032	-0.153
-197.290	-200.000	-0.093	-0.647
-196.275	-126.617	-0.216	0.032
-195.260	800.000	0.056	0.224
-194.246	-103.135	0.144	0.034
-193.231	-42.699	-0.270	-0.136
-192.217	-200.000	-0.003	0.240
-191.202	-200.000	-0.023	0.185
-190.187	-200.000	0.027	0.426
-189.173	-137.785	-0.333	0.037
-188.158	175.159	0.078	0.112
-187.144	-28.054	0.153	-0.088
-186.129	192.333	-0.170	0.253
-185.114	800.000	-0.036	-0.139
-184.100	-87.981	0.070	0.021
-183.085	-200.000	0.058	-0.391
-182.071	-1.893	0.261	0.182
-181.056	-79.448	0.291	-0.097
-180.042	330.252	0.209	-0.397
-179.027	-200.000	-0.003	0.328
-178.012	-200.000	0.030	0.136
-176.998	-4.791	-0.155	0.106
-175.983	-168.079	0.161	-0.006
-174.969	-200.000	0.050	-0.228
-173.954	-109.589	-0.098	0.020
-172.939	105.795	0.221	0.258
-171.925	133.226	0.157	0.200
-170.910	-53.857	0.275	0.124
-169.896	-88.634	0.097	-0.028
-168.881	45.281	-0.058	-0.053
-167.866	-187.991	0.150	-0.002
-166.852	160.290	0.106	0.146
-165.837	-12.117	0.443	-0.287
-164.823	43.058	0.199	0.179
-163.808	-200.000	0.010	-0.102
-162.793	128.863	-0.121	-0.152
-161.779	-86.340	-0.218	-0.066
-160.764	800.000	-0.034	-0.113
-159.750	-147.178	-0.386	0.032
-158.735	348.339	0.136	-0.265
-157.720	302.608	-0.161	0.295
-156.706	749.673	-0.017	0.044
-155.691	-177.348	0.165	0.004
-154.677	-75.733	0.224	-0.078
-153.662	-25.762	-0.052	-0.030
-152.647	59.774	-0.107	-0.104
-151.633	800.000	0.016	-0.063
-150.618	4.160	0.165	0.119
-149.604	-148.420	0.260	0.021
-148.589	-3.015	-0.214	0.147
-147.574	232.727	0.126	-0.204
-146.560	-200.000	0.032	-0.308
-145.545	17.666	0.058	0.046
-144.531	325.051	-0.023	0.044
-143.516	-127.381	-0.161	-0.023
-142.502	-114.183	-0.079	-0.015
-141.487	-69.166	-0.261	-0.099
-140.472	-200.000	0.017	0.224
-139.458	-200.000	0.018	0.171
-138.443	121.838	-0.127	0.157
-137.429	-2.968	0.139	-0.096
-136.414	800.000	0.112	-0.348
-135.399	-77.849	0.047	-0.016
-134.385	-38.418	0.106	-0.055
-133.370	-113.135	-0.212	0.041
-132.356	-62.349	-0.126	0.052
-131.341	-127.324	0.109	0.016
-130.326	707.584	0.173	-0.450
-129.312	-200.000	-0.011	0.276
-128.297	357.490	-0.085	0.167
-127.283	800.000	-0.018	0.063
-126.268	-71.969	0.367	0.134
-125.253	137.915	0.194	-0.250
-124.239	482.380	-0.196	-0.438
-123.224	4.374	0.247	-0.179
-122.210	63.832	-0.042	-0.042
-121.195	117.324	0.167	0.203
