DTS Sentinel unit serial number:	SN413079Multiplexer serial number:	ORYXHardware model number:	OX4-SRSoftware version number:	ORYX F/W v4.00 Oryx Data Collector v3.7.2.0data status	okinstallation	princeton_trtdifferential loss correction	single-endedforward channel	channel 3reverse channel	N/Adate	2019/09/11time	07:54:11forward acquisition time	60.00reverse acquisition time	0.00gamma	496.2192k internal	0.2321k external	0.2321temperature offset calibration	1.0087default loss term (dB/km)	0.3790temperature slope calibration	1.0000multiplexer offset coefficient	1.0000multiplexer slope coefficient	1.0000fibre end	0.00T internal ref (°C)	31.92T ext. ref 1 (°C)	3.86T ext. ref 2 (°C)	28.75length (m)	temperature (°C)	Stokes	anti-Stokes-747.200	155.312	0.160	0.223
-746.185	800.000	0.014	-0.044
-745.171	359.626	0.074	0.150
-744.156	68.885	-0.121	0.126
-743.142	800.000	-0.043	0.184
-742.127	-200.000	0.106	0.611
-741.112	-104.857	0.137	0.032
-740.098	76.676	-0.091	0.097
-739.083	-200.000	0.015	0.238
-738.069	-127.286	0.190	-0.028
-737.054	-19.019	-0.155	0.097
-736.039	-200.000	-0.022	0.161
-735.025	69.771	0.103	-0.108
-734.010	12.490	-0.270	-0.210
-732.996	-148.093	-0.294	-0.025
-731.981	23.868	-0.148	0.123
-730.966	288.858	-0.022	-0.040
-729.952	-200.000	0.020	-0.162
-728.937	-97.008	-0.138	-0.036
-727.923	555.767	-0.069	-0.169
-726.908	730.925	-0.089	0.239
-725.894	-113.458	0.184	-0.036
-724.879	193.350	-0.009	0.014
-723.864	-140.428	0.477	-0.050
-722.850	152.200	-0.126	0.174
-721.835	800.000	-0.027	-0.108
-720.821	-113.471	0.137	-0.027
-719.806	-200.000	-0.002	-0.221
-718.791	369.392	-0.032	0.065
-717.777	225.688	-0.084	0.137
-716.762	-137.662	-0.108	-0.012
-715.748	800.000	-0.052	-0.185
-714.733	-114.879	0.113	-0.022
-713.718	800.000	0.050	-0.160
-712.704	-152.399	-0.155	0.011
-711.689	-164.879	0.139	0.006
-710.675	-132.915	-0.297	-0.038
-709.660	106.310	-0.124	-0.148
-708.645	-1.489	-0.120	0.085
-707.631	-81.312	-0.350	0.116
-706.616	-68.423	-0.159	0.062
-705.602	342.824	-0.159	-0.314
-704.587	-108.049	0.077	-0.017
-703.572	274.533	-0.076	-0.135
-702.558	-72.518	0.061	-0.023
-701.543	800.000	-0.087	-0.361
-700.529	-200.000	0.009	0.057
-699.514	157.466	-0.250	-0.349
-698.499	-159.261	-0.175	0.010
-697.485	-80.747	-0.173	-0.058
-696.470	-47.857	-0.393	-0.192
-695.456	87.466	0.125	0.139
-694.441	-15.920	-0.205	-0.131
-693.426	-100.673	-0.227	0.056
-692.412	-52.283	0.107	0.050
-691.397	-16.046	-0.107	-0.069
-690.383	-164.678	-0.026	0.001
-689.368	-67.118	-0.333	0.132
-688.354	-49.568	0.247	0.119
-687.339	32.145	0.129	-0.112
-686.324	-82.422	0.182	-0.060
-685.310	-150.861	0.095	-0.007
-684.295	800.000	-0.028	0.124
-683.281	25.229	0.182	-0.153
-682.266	34.515	0.271	0.238
-681.251	-122.359	-0.460	0.076
-680.237	800.000	-0.051	0.186
-679.222	215.820	0.135	-0.217
-678.208	-103.711	-0.166	0.039
-677.193	180.136	-0.281	0.415
-676.178	-128.230	0.143	0.021
-675.164	257.906	-0.090	-0.156
-674.149	-41.458	-0.278	0.144
-673.135	-106.561	-0.257	0.058
-672.120	32.303	-0.263	-0.229
-671.105	-200.000	0.000	-0.092
-670.091	-48.927	-0.173	-0.083
-669.076	272.336	-0.080	-0.142
-668.062	411.941	-0.069	-0.148
-667.047	-94.309	0.105	0.029
-666.032	53.828	-0.161	0.156
-665.018	-150.441	-0.284	0.022
-664.003	-113.303	0.345	-0.068
-662.989	-76.750	-0.017	0.006
-661.974	800.000	-0.111	0.452
-660.959	-124.452	-0.303	-0.048
-659.945	-113.855	-0.320	0.063
-658.930	-117.979	-0.153	0.028
-657.916	-113.798	0.122	-0.024
-656.901	125.361	0.116	0.147
-655.886	59.217	-0.174	-0.173
-654.872	-186.917	-0.268	0.004
-653.857	12.090	-0.180	0.140
-652.843	-200.000	0.030	-0.133
-651.828	191.236	0.145	-0.220
-650.814	-22.598	-0.332	-0.202
-649.799	-200.000	-0.041	-0.184
-648.784	-92.107	-0.340	0.097
-647.770	125.038	-0.061	0.077
-646.755	-9.926	-0.401	-0.268
-645.741	222.147	-0.122	-0.197
-644.726	800.000	0.073	-0.289
-643.711	800.000	-0.076	-0.283
-642.697	-200.000	0.025	-0.176
-641.682	-13.659	-0.108	-0.070
-640.668	194.242	0.066	-0.100
-639.653	24.244	0.188	-0.157
-638.638	33.192	-0.222	0.194
-637.624	-200.000	-0.011	0.103
-636.609	-66.693	0.124	0.050
-635.595	32.155	0.219	0.190
-634.580	-128.960	-0.310	-0.044
-633.565	-83.104	0.346	-0.112
-632.551	-3.781	-0.168	0.118
-631.536	-200.000	0.015	0.157
-630.522	353.502	-0.106	-0.211
-629.507	-118.685	0.354	-0.063
-628.492	51.640	-0.225	-0.215
-627.478	-200.000	-0.011	-0.200
-626.463	-112.326	0.139	0.028
-625.449	-100.802	0.019	-0.005
-624.434	364.681	-0.072	-0.146
-623.419	-49.568	0.282	0.135
-622.405	213.963	0.052	-0.083
-621.390	17.552	-0.206	-0.164
-620.376	-200.000	0.035	-0.376
-619.361	-141.754	-0.354	-0.036
-618.346	495.042	0.082	0.190
-617.332	800.000	-0.019	0.055
-616.317	132.774	0.214	0.278
-615.303	-130.769	-0.119	0.016
-614.288	-200.000	-0.008	0.083
-613.273	-200.000	0.033	-0.313
-612.259	79.102	0.138	0.149
-611.244	219.569	-0.146	-0.235
-610.230	-61.402	-0.208	0.088
-609.215	104.245	0.089	0.105
-608.201	-200.000	-0.023	-0.216
-607.186	0.715	-0.159	-0.114
-606.171	-47.665	-0.410	-0.200
-605.157	629.805	0.011	0.028
-604.142	-200.000	-0.004	-0.027
-603.128	-9.616	0.232	-0.155
-602.113	388.200	-0.042	0.087
-601.098	-81.876	0.373	-0.123
-600.084	800.000	0.027	0.097
-599.069	-21.289	-0.193	0.118
-598.055	73.628	-0.171	0.181
-597.040	-200.000	-0.008	-0.229
-596.025	527.367	0.053	-0.125
-595.011	42.985	-0.067	0.061
-593.996	-129.366	0.250	0.035
-592.982	174.880	-0.090	0.131
-591.967	285.610	-0.218	0.395
-590.952	-200.000	-0.004	0.165
-589.938	800.000	0.083	0.274
-588.923	63.653	-0.122	-0.123
-587.909	800.000	-0.022	-0.083
-586.894	800.000	-0.059	-0.182
-585.879	31.314	0.250	0.216
-584.865	-131.253	0.284	-0.038
-583.850	-35.900	-0.246	-0.134
-582.836	-141.941	0.296	-0.030
-581.821	-200.000	-0.020	0.126
-580.806	-116.164	-0.292	0.054
-579.792	-200.000	0.078	-0.386
-578.777	-200.000	-0.026	-0.453
-577.763	374.584	0.094	-0.192
-576.748	9.876	-0.270	0.206
-575.733	-102.391	0.383	-0.092
-574.719	531.555	-0.064	0.152
-573.704	427.624	0.069	-0.149
-572.690	-120.970	-0.061	-0.010
-571.675	-120.420	0.251	0.043
-570.661	199.438	0.054	-0.083
-569.646	-79.686	-0.136	-0.046
-568.631	-76.460	0.286	-0.101
-567.617	435.271	0.073	0.159
-566.602	7.070	-0.392	0.293
-565.588	136.655	-0.063	-0.082
-564.573	-82.135	-0.361	-0.118
-563.558	-59.261	0.293	-0.127
-562.544	-106.491	-0.277	-0.062
-561.529	224.128	-0.039	0.063
-560.515	-85.026	-0.154	-0.048
-559.500	-57.002	0.062	0.027
-558.485	-122.029	-0.255	-0.042
-557.471	257.484	0.152	0.262
-556.456	-200.000	0.053	-0.235
-555.442	-187.019	-0.293	0.004
-554.427	-65.827	-0.179	-0.072
-553.412	-200.000	-0.042	-0.249
-552.398	-186.460	0.052	0.001
-551.383	-26.886	-0.179	-0.105
-550.369	800.000	-0.043	0.186
-549.354	181.389	-0.034	0.051
-548.339	-200.000	-0.034	0.255
-547.325	-7.637	0.056	-0.038
-546.310	-103.187	-0.298	-0.071
-545.296	472.518	0.119	0.269
-544.281	-92.804	0.158	0.044
-543.266	264.858	-0.170	0.297
-542.252	236.761	0.151	-0.251
-541.237	-92.053	0.270	-0.077
-540.223	-166.006	0.263	0.011
-539.208	322.714	0.030	0.057
-538.193	66.131	-0.052	0.053
-537.179	800.000	-0.187	-0.539
-536.164	-139.387	0.065	0.007
-535.150	-97.817	0.270	0.070
-534.135	-200.000	-0.005	-0.107
-533.121	60.341	0.270	-0.268
-532.106	-23.922	-0.261	-0.157
-531.091	70.551	0.161	0.167
-530.077	-98.272	-0.129	-0.033
-529.062	-200.000	0.030	0.362
-528.048	-175.660	-0.176	0.005
-527.033	323.915	0.103	-0.196
-526.018	-200.000	0.078	0.429
-525.004	-101.165	-0.357	-0.088
-523.989	184.419	-0.187	-0.277
-522.975	121.081	-0.127	0.159
-521.960	46.703	0.263	0.244
-520.945	-106.303	-0.283	-0.064
-519.931	118.922	-0.138	-0.171
-518.916	277.618	-0.156	-0.278
-517.902	-0.731	-0.102	0.072
-516.887	121.316	-0.160	0.200
-515.872	303.310	0.057	-0.105
-514.858	-126.319	0.422	-0.063
-513.843	-83.067	-0.489	0.158
-512.829	-42.778	0.209	-0.107
-511.814	-200.000	0.000	0.166
-510.799	-103.241	-0.403	0.095
-509.785	-102.435	0.197	-0.047
-508.770	210.496	-0.065	0.102
-507.756	74.512	-0.329	-0.346
-506.741	-200.000	-0.030	-0.147
-505.726	-50.671	-0.310	-0.146
-504.712	107.266	0.071	-0.084
-503.697	-163.655	0.371	0.018
-502.683	15.204	-0.168	-0.132
-501.668	800.000	0.069	0.257
-500.653	148.414	-0.141	0.190
-499.639	481.463	-0.030	-0.068
-498.624	38.878	-0.175	0.157
-497.610	9.622	0.266	-0.202
-496.595	-200.000	-0.011	-0.248
-495.581	-49.254	-0.226	0.108
-494.566	18.736	0.085	-0.068
-493.551	-127.319	-0.262	0.038
-492.537	-200.000	0.010	-0.197
-491.522	-189.558	0.320	0.004
-490.508	-87.514	-0.147	-0.045
-489.493	204.389	0.232	0.360
-488.478	800.000	-0.147	0.424
-487.464	52.224	-0.116	0.110
-486.449	-93.953	0.103	-0.028
-485.435	-35.549	-0.240	0.130
-484.420	-73.115	-0.252	0.092
-483.405	-200.000	0.001	-0.253
-482.391	800.000	0.073	0.261
-481.376	93.589	0.071	0.081
-480.362	-200.000	-0.055	-0.380
-479.347	101.334	-0.095	-0.110
-478.332	800.000	0.020	0.074
-477.318	-200.000	-0.004	-0.261
-476.303	63.513	0.028	0.029
-475.289	-200.000	-0.006	-0.037
-474.274	-81.608	-0.289	-0.095
-473.259	-6.739	-0.186	0.126
-472.245	120.887	0.048	-0.060
-471.230	105.352	0.197	-0.233
-470.216	-50.552	0.242	-0.114
-469.201	70.675	0.119	-0.124
-468.186	146.454	-0.093	0.124
-467.172	132.549	0.095	-0.122
-466.157	-200.000	-0.003	-0.170
-465.143	385.789	-0.034	0.070
-464.128	-200.000	-0.096	0.475
-463.113	216.089	-0.099	0.158
-462.099	240.341	-0.107	-0.178
-461.084	-152.027	-0.161	-0.012
-460.070	-62.073	0.088	-0.037
-459.055	800.000	0.010	-0.031
-458.040	-80.926	-0.081	-0.027
-457.026	212.054	0.145	-0.229
-456.011	-107.430	-0.094	0.021
-454.997	373.578	-0.037	0.076
-453.982	-200.000	-0.062	-0.299
-452.968	-67.105	0.176	-0.069
-451.953	-200.000	0.024	0.259
-450.938	-137.878	-0.082	-0.009
-449.924	-188.370	0.386	-0.005
-448.909	-119.326	0.199	0.035
-447.895	-200.000	0.065	0.357
-446.880	-78.075	-0.230	0.079
-445.865	800.000	-0.020	0.072
-444.851	-138.928	-0.313	-0.034
-443.836	800.000	0.130	-0.363
-442.822	126.503	-0.033	-0.041
-441.807	-108.025	-0.050	-0.011
-440.792	-69.835	0.071	0.027
-439.778	24.904	0.213	0.177
-438.763	-200.000	0.047	0.310
-437.749	17.024	-0.266	-0.211
-436.734	-71.941	0.505	-0.188
-435.719	-65.881	-0.209	0.083
-434.705	314.618	0.143	0.269
-433.690	-24.453	-0.385	-0.229
-432.676	-184.202	-0.045	-0.001
-431.661	-100.056	-0.114	-0.028
-430.646	0.971	0.063	-0.045
-429.632	597.203	0.123	0.305
-428.617	107.155	-0.146	-0.173
-427.603	-200.000	0.021	-0.196
-426.588	800.000	-0.028	0.103
-425.573	800.000	-0.074	0.250
-424.559	-72.079	0.213	-0.079
-423.544	11.481	0.134	-0.102
-422.530	-102.784	0.081	-0.019
-421.515	800.000	-0.059	0.187
-420.500	159.971	0.149	0.207
-419.486	-147.164	0.367	-0.031
-418.471	675.573	0.082	0.213
-417.457	-76.606	0.187	-0.066
-416.442	-118.398	-0.064	-0.011
-415.428	-196.356	-0.015	-0.000
-414.413	-83.438	-0.169	-0.054
-413.398	800.000	0.033	-0.134
-412.384	-200.000	-0.040	0.284
-411.369	-88.766	0.429	0.127
-410.355	-42.060	-0.277	0.141
-409.340	800.000	-0.038	-0.117
-408.325	-102.088	-0.267	-0.064
-407.311	-144.931	0.401	-0.037
-406.296	137.470	-0.199	0.260
-405.282	43.316	-0.170	0.155
-404.267	-156.677	0.163	-0.010
-403.252	-78.238	-0.100	-0.034
-402.238	-38.930	0.206	-0.108
-401.223	36.362	-0.082	-0.072
-400.209	-66.984	0.132	-0.052
-399.194	256.999	0.012	-0.020
-398.179	-89.114	-0.169	0.050
-397.165	160.852	-0.185	-0.258
-396.150	-72.611	-0.129	-0.047
-395.136	154.744	-0.106	0.146
-394.121	6.512	0.147	-0.109
-393.106	-15.847	0.092	0.059
-392.092	-60.499	0.264	-0.112
-391.077	194.548	-0.194	0.293
-390.063	-200.000	0.036	-0.160
-389.048	153.386	0.192	0.261
-388.033	81.113	-0.045	-0.048
-387.019	167.106	0.204	0.289
-386.004	556.714	-0.126	0.304
-384.990	-63.627	-0.264	-0.108
-383.975	800.000	-0.054	-0.224
-382.960	-14.662	0.242	-0.155
-381.946	31.036	-0.076	-0.065
-380.931	241.198	-0.195	-0.325
-379.917	363.386	0.123	-0.246
-378.902	-200.000	-0.018	-0.424
-377.888	33.502	-0.105	0.090
-376.873	-34.234	-0.273	0.150
-375.858	-116.320	0.117	-0.022
-374.844	-132.094	0.186	0.024
-373.829	-13.224	0.068	0.044
-372.815	-131.367	0.362	-0.048
-371.800	95.983	-0.316	0.360
-370.785	95.271	-0.143	0.162
-369.771	-111.129	0.145	-0.030
-368.756	800.000	0.024	-0.105
-367.742	270.416	0.059	0.103
-366.727	-4.440	0.239	0.164
-365.712	-200.000	0.082	-0.389
-364.698	800.000	0.058	0.180
-363.683	53.043	-0.148	0.141
-362.669	800.000	-0.095	0.292
-361.654	39.148	-0.120	0.107
-360.639	-26.335	-0.283	0.165
-359.625	-110.241	-0.101	0.021
-358.610	126.746	0.115	-0.145
-357.596	186.674	0.196	0.291
-356.581	-200.000	0.048	-0.305
-355.566	65.025	-0.276	0.277
-354.552	-200.000	0.018	-0.081
-353.537	80.924	0.166	0.179
-352.523	-133.471	0.339	-0.042
-351.508	16.632	0.157	-0.123
-350.493	185.068	-0.084	0.124
-349.479	-200.000	0.170	0.000
-348.464	95.349	-0.127	0.144
-347.450	198.685	-0.152	-0.231
-346.435	-124.476	-0.082	-0.013
-345.420	19.122	0.074	0.059
-344.406	-21.957	-0.047	-0.028
-343.391	-109.265	0.123	0.026
-342.377	-98.367	-0.172	0.044
-341.362	548.921	0.102	0.244
-340.348	-200.000	0.015	-0.094
-339.333	-96.020	-0.253	0.067
-338.318	106.647	-0.268	0.316
-337.304	251.652	0.062	0.106
-336.289	146.471	-0.232	0.310
-335.275	162.509	-0.128	0.178
-334.260	-53.934	-0.114	-0.052
-333.245	-200.000	-0.033	-0.255
-332.231	240.296	0.100	0.166
-331.216	-44.526	0.357	-0.178
-330.202	216.649	-0.090	0.142
-329.187	180.206	-0.221	-0.322
-328.172	380.296	-0.015	-0.031
-327.158	20.585	0.023	-0.018
-326.143	-67.442	-0.180	0.070
-325.129	53.872	-0.122	-0.117
-324.114	-111.469	0.086	-0.017
-323.099	131.282	0.069	0.088
-322.085	-127.454	-0.073	0.011
-321.070	-200.000	-0.033	-0.248
-320.056	662.233	-0.028	-0.072
-319.041	-96.749	0.065	0.017
-318.026	21.779	0.271	0.220
-317.012	-15.454	0.128	-0.081
-315.997	80.746	0.238	0.255
-314.983	256.810	-0.214	-0.366
-313.968	291.048	0.162	-0.292
-312.953	-200.000	0.013	-0.197
-311.939	244.220	-0.109	-0.181
-310.924	-200.000	-0.010	-0.272
-309.910	767.441	-0.010	-0.026
-308.895	199.111	0.055	-0.084
-307.880	800.000	-0.081	0.314
-306.866	55.213	0.387	0.372
-305.851	-34.015	-0.533	-0.291
-304.837	-179.357	0.122	-0.003
-303.822	45.687	-0.095	-0.087
-302.807	-42.451	0.204	0.103
-301.793	-37.001	0.170	0.091
-300.778	-200.000	0.012	0.077
-299.764	-159.135	-0.155	-0.009
-298.749	800.000	-0.044	0.167
-297.735	-29.663	0.268	0.152
-296.720	-159.801	-0.098	-0.005
-295.705	-200.000	0.009	0.332
-294.691	146.960	-0.179	-0.239
-293.676	-130.861	-0.357	0.047
-292.662	800.000	-0.061	-0.188
-291.647	-70.061	0.258	0.097
-290.632	172.767	0.207	0.296
-289.618	11.380	0.166	-0.126
-288.603	63.802	0.009	-0.009
-287.589	-62.005	-0.351	-0.145
-286.574	-200.000	0.001	0.137
-285.559	-39.180	-0.090	0.047
-284.545	-200.000	-0.077	0.366
-283.530	238.737	0.187	0.308
-282.516	270.075	0.128	-0.223
-281.501	426.743	0.066	-0.141
-280.486	-200.000	-0.044	0.367
-279.472	-25.420	0.114	-0.067
-278.457	-200.000	0.021	0.293
-277.443	-200.000	-0.038	0.312
-276.428	-118.361	0.385	-0.068
-275.413	-149.406	-0.510	0.040
-274.399	-69.379	-0.197	-0.075
-273.384	98.849	-0.103	-0.118
-272.370	-32.696	0.256	-0.141
-271.355	-200.000	0.025	-0.145
-270.340	73.255	-0.040	-0.041
-269.326	-200.000	-0.024	0.104
-268.311	-131.057	-0.046	-0.006
-267.297	800.000	-0.146	-0.423
-266.282	42.957	0.219	0.198
-265.267	39.593	0.170	-0.151
-264.253	-93.614	-0.102	0.028
-263.238	800.000	0.064	0.230
-262.224	99.466	-0.172	0.198
-261.209	291.979	-0.066	0.119
-260.195	-93.259	0.127	-0.035
-259.180	283.736	-0.027	0.048
-258.165	800.000	0.112	-0.356
-257.151	106.424	0.062	-0.073
-256.136	-89.874	0.336	-0.097
-255.122	800.000	-0.002	-0.008
-254.107	-200.000	-0.011	0.292
-253.092	297.775	0.050	0.091
-252.078	169.065	-0.075	0.106
-251.063	25.960	-0.283	-0.234
-250.049	402.198	0.049	-0.103
-249.034	91.668	0.266	-0.296
-248.019	-132.917	0.276	-0.035
-247.005	-97.296	0.266	-0.069
-245.990	141.456	0.143	0.188
-244.976	-8.390	-0.167	-0.111
-243.961	-200.000	0.042	0.287
-242.946	64.143	0.229	0.228
-241.932	-140.368	0.043	0.004
-240.917	532.184	0.126	-0.295
-239.903	248.831	0.123	-0.207
-238.888	-50.453	0.328	-0.154
-237.873	-60.536	0.548	-0.231
-236.859	-69.937	0.219	0.083
-235.844	-106.120	0.046	0.010
-234.830	800.000	-0.074	0.312
-233.815	-28.197	-0.191	0.110
-232.800	156.606	-0.186	-0.255
-231.786	39.298	-0.243	-0.216
-230.771	161.419	0.108	-0.149
-229.757	62.670	-0.120	-0.119
-228.742	-200.000	0.141	-0.651
-227.727	-12.978	0.147	0.095
-226.713	84.176	-0.153	0.166
-225.698	-86.903	0.237	-0.072
-224.684	37.862	0.116	-0.102
-223.669	800.000	-0.071	-0.242
-222.655	-69.542	0.134	-0.051
-221.640	-166.545	-0.198	-0.008
-220.625	-153.799	0.163	-0.011
-219.611	-85.439	-0.091	-0.028
-218.596	-80.650	-0.083	0.027
-217.582	154.950	0.204	0.278
-216.567	26.614	0.281	-0.233
-215.552	38.390	0.100	-0.088
-214.538	-63.642	0.373	0.151
-213.523	-127.686	-0.325	-0.047
-212.509	11.975	-0.320	-0.243
-211.494	-200.000	0.040	0.215
-210.479	800.000	-0.056	0.182
-209.465	235.513	0.082	0.134
-208.450	-200.000	0.046	-0.264
-207.436	-90.479	-0.252	-0.072
-206.421	-148.022	0.380	-0.031
-205.406	-107.630	0.140	0.030
-204.392	-10.218	0.032	0.021
-203.377	75.769	0.211	0.220
-202.363	115.681	-0.075	0.091
-201.348	-35.525	-0.206	0.111
-200.333	-55.230	0.311	-0.138
-199.319	-0.919	0.271	0.190
-198.304	-85.630	-0.178	-0.055
-197.290	40.286	0.290	0.258
-196.275	17.863	-0.256	0.202
-195.260	800.000	0.035	-0.114
-194.246	279.943	-0.196	-0.347
-193.231	-51.031	0.151	0.070
-192.217	-6.700	0.386	-0.260
-191.202	-200.000	0.026	-0.301
-190.187	121.684	0.167	-0.206
-189.173	75.738	0.082	0.086
-188.158	-200.000	-0.007	0.122
-187.144	-200.000	0.008	-0.052
-186.129	-10.156	-0.003	-0.002
-185.114	-200.000	0.011	0.154
-184.100	-200.000	-0.012	0.070
-183.085	306.341	-0.036	0.066
-182.071	-80.503	0.167	-0.055
-181.056	-200.000	-0.237	-0.001
-180.042	-48.144	0.292	0.139
-179.027	-58.814	0.209	0.090
-178.012	800.000	-0.052	0.198
-176.998	-108.295	-0.088	-0.019
-175.983	138.543	0.220	-0.285
-174.969	108.246	-0.062	0.073
-173.954	22.024	-0.167	-0.135
-172.939	-99.750	-0.241	0.060
-171.925	-173.697	0.129	-0.004
-170.910	-99.891	-0.022	0.005
-169.896	-200.000	-0.030	0.428
-168.881	142.687	-0.148	0.194
-167.866	800.000	-0.042	-0.152
-166.852	-2.360	-0.399	0.276
-165.837	-181.029	-0.264	0.005
-164.823	-135.418	0.255	0.030
-163.808	-197.351	-0.136	-0.001
-162.793	-23.823	-0.389	-0.230
-161.779	-163.393	-0.080	0.004
-160.764	-154.974	-0.199	-0.013
-159.750	90.727	-0.193	0.214
-158.735	-200.000	0.034	0.265
-157.720	380.745	0.176	0.356
-156.706	-200.000	-0.003	-0.105
-155.691	483.724	0.118	0.265
-154.677	-200.000	-0.002	0.132
-153.662	159.194	0.302	0.415
-152.647	800.000	0.070	-0.204
-151.633	-200.000	0.045	0.296
-150.618	-145.008	0.565	0.051
-149.604	-200.000	-0.065	0.588
-148.589	6.388	-0.328	0.241
-147.574	245.930	-0.109	-0.181
-146.560	-27.190	0.129	0.074
-145.545	-155.797	-0.284	-0.018
-144.531	-200.000	0.046	0.242
-143.516	75.068	0.107	-0.111
-142.502	800.000	-0.066	-0.278
-141.487	107.503	-0.255	-0.300
-140.472	68.326	0.116	-0.118
-139.458	-71.794	0.022	0.008
-138.443	209.911	-0.051	-0.080
-137.429	800.000	-0.095	-0.394
-136.414	33.182	0.094	0.080
-135.399	-200.000	0.022	-0.133
-134.385	-44.405	0.014	0.007
-133.370	-45.121	0.071	0.035
-132.356	-14.745	-0.194	-0.123
-131.341	-120.960	0.119	0.020
-130.326	123.428	-0.221	0.273
-129.312	-65.315	0.281	0.112
-128.297	-24.194	0.133	0.078
-127.283	-102.929	-0.414	-0.097
-126.268	113.631	-0.087	0.104
-125.253	-161.412	-0.249	-0.013
-124.239	684.795	0.069	0.177
-123.224	-170.496	0.299	0.010
