DTS Sentinel unit serial number:	SN413079Multiplexer serial number:	ORYXHardware model number:	OX4-SRSoftware version number:	ORYX F/W v4.00 Oryx Data Collector v3.7.2.0data status	okinstallation	princeton_trtdifferential loss correction	single-endedforward channel	channel 3reverse channel	N/Adate	2019/09/11time	09:22:11forward acquisition time	60.00reverse acquisition time	0.00gamma	496.2192k internal	0.2306k external	0.2306temperature offset calibration	0.9942default loss term (dB/km)	0.3790temperature slope calibration	1.0000multiplexer offset coefficient	1.0000multiplexer slope coefficient	1.0000fibre end	0.00T internal ref (°C)	34.53T ext. ref 1 (°C)	0.12T ext. ref 2 (°C)	31.55length (m)	temperature (°C)	Stokes	anti-Stokes-747.200	240.603	-0.054	-0.092
-746.185	-200.000	0.025	0.369
-745.171	-6.517	-0.177	-0.122
-744.156	464.220	0.049	-0.111
-743.142	-69.903	0.310	-0.120
-742.127	221.035	-0.143	0.234
-741.112	-200.000	0.012	-0.247
-740.098	-141.817	-0.264	0.027
-739.083	-162.363	0.509	-0.026
-738.069	185.685	-0.145	0.218
-737.054	-200.000	0.031	-0.327
-736.039	-200.000	-0.003	-0.235
-735.025	-59.112	0.226	0.099
-734.010	32.888	0.248	0.218
-732.996	340.599	-0.051	-0.101
-731.981	800.000	0.055	-0.241
-730.966	613.526	0.025	0.063
-729.952	-79.659	0.211	0.072
-728.937	-120.051	-0.328	-0.057
-727.923	-70.089	-0.266	0.103
-726.908	67.881	-0.206	0.214
-725.894	-27.127	0.198	0.118
-724.879	237.987	-0.076	-0.128
-723.864	135.969	0.144	-0.190
-722.850	-200.000	-0.020	0.108
-721.835	-90.278	-0.172	-0.051
-720.821	43.911	-0.031	-0.029
-719.806	71.258	-0.066	0.069
-718.791	-44.227	0.363	0.185
-717.777	-61.216	0.123	-0.053
-716.762	800.000	-0.044	0.153
-715.748	45.260	0.141	-0.132
-714.733	-144.585	-0.096	0.009
-713.718	244.050	-0.124	-0.211
-712.704	800.000	0.009	-0.040
-711.689	-200.000	-0.016	0.436
-710.675	489.203	-0.152	0.353
-709.660	800.000	0.049	0.167
-708.645	77.994	-0.204	0.221
-707.631	533.404	0.036	-0.086
-706.616	-104.442	0.219	-0.051
-705.602	272.707	-0.061	-0.109
-704.587	-60.618	-0.251	0.108
-703.572	800.000	0.021	0.086
-702.558	283.673	0.209	0.382
-701.543	544.349	-0.036	-0.087
-700.529	-146.312	-0.322	-0.029
-699.514	122.691	-0.078	-0.100
-698.499	-28.816	0.362	0.211
-697.485	-76.385	-0.265	-0.095
-696.470	-67.366	0.224	-0.089
-695.456	-42.755	0.040	0.021
-694.441	800.000	-0.079	-0.298
-693.426	36.244	0.244	-0.218
-692.412	-19.472	0.133	0.084
-691.397	-200.000	0.010	-0.145
-690.383	731.296	-0.062	0.169
-689.368	-200.000	0.001	-0.224
-688.354	738.152	-0.062	0.169
-687.339	-119.036	-0.311	0.055
-686.324	-200.000	-0.037	-0.230
-685.310	-200.000	-0.008	0.084
-684.295	-152.049	-0.344	0.025
-683.281	-200.000	-0.025	0.167
-682.266	-105.776	-0.399	0.091
-681.251	-84.727	0.165	0.053
-680.237	275.350	0.097	0.174
-679.222	800.000	0.093	-0.292
-678.208	800.000	-0.073	-0.227
-677.193	-200.000	0.008	-0.204
-676.178	179.862	-0.136	-0.202
-675.164	400.577	-0.078	-0.166
-674.149	-64.915	-0.314	-0.129
-673.135	93.818	0.075	-0.087
-672.120	-34.443	0.116	-0.065
-671.105	487.938	0.119	-0.276
-670.091	157.231	0.017	-0.023
-669.076	-200.000	0.025	-0.160
-668.062	-12.552	0.230	-0.152
-667.047	-32.023	0.106	0.060
-666.032	-99.111	0.339	-0.087
-665.018	254.903	0.090	0.156
-664.003	-4.915	-0.219	-0.153
-662.989	800.000	-0.090	-0.253
-661.974	-200.000	0.012	-0.103
-660.959	-200.000	-0.025	0.188
-659.945	-168.618	0.475	0.018
-658.930	-200.000	-0.002	-0.136
-657.916	280.324	0.117	-0.212
-656.901	109.515	0.103	0.125
-655.886	-109.089	-0.335	0.072
-654.872	800.000	0.088	0.359
-653.857	-200.000	-0.028	-0.305
-652.843	3.655	-0.213	-0.158
-651.828	344.466	-0.105	0.208
-650.814	62.505	-0.189	0.192
-649.799	-144.627	0.076	0.007
-648.784	12.776	-0.075	-0.059
-647.770	267.573	0.077	-0.137
-646.755	-75.628	0.144	-0.052
-645.741	-64.186	0.209	-0.087
-644.726	-26.178	0.327	0.195
-643.711	794.822	-0.082	0.228
-642.697	1.312	0.126	-0.092
-641.682	-200.000	-0.002	0.081
-640.668	75.299	-0.231	-0.247
-639.653	-145.469	-0.133	0.012
-638.638	-191.093	0.246	-0.003
-637.624	-81.571	0.050	0.017
-636.609	-0.196	-0.114	-0.082
-635.595	132.326	-0.068	0.089
-634.580	-46.168	0.224	0.111
-633.565	171.477	0.042	0.061
-632.551	800.000	0.069	0.254
-631.536	628.855	-0.034	-0.088
-630.522	-200.000	-0.017	0.231
-629.507	-200.000	0.225	-0.001
-628.492	6.300	0.184	-0.138
-627.478	-48.829	0.187	0.091
-626.463	402.700	0.099	0.210
-625.449	-97.265	0.122	-0.032
-624.434	268.425	-0.138	0.245
-623.419	-64.870	-0.259	0.106
-622.405	-200.000	0.011	0.093
-621.390	462.455	0.065	0.147
-620.376	99.755	-0.098	-0.115
-619.361	-128.744	0.205	0.029
-618.346	137.937	0.150	0.198
-617.332	-105.507	0.185	-0.042
-616.317	168.348	0.047	-0.068
-615.303	-70.532	-0.356	-0.136
-614.288	304.003	-0.214	-0.402
-613.273	25.208	-0.202	-0.170
-612.259	414.867	-0.092	0.198
-611.244	-102.664	0.145	-0.035
-610.230	-54.602	-0.155	0.071
-609.215	-106.410	-0.029	0.006
-608.201	159.836	-0.158	0.223
-607.186	51.323	-0.130	-0.124
-606.171	132.813	0.089	-0.116
-605.157	-200.000	0.032	-0.205
-604.142	155.873	0.114	0.160
-603.128	-85.569	-0.211	0.067
-602.113	800.000	-0.006	0.024
-601.098	-190.232	-0.300	0.003
-600.084	-35.886	0.159	0.087
-599.069	-74.177	-0.324	-0.119
-598.055	152.564	0.043	0.060
-597.040	-200.000	-0.104	0.473
-596.025	2.226	-0.067	-0.049
-595.011	-113.525	-0.040	0.008
-593.996	407.462	0.083	-0.177
-592.982	-65.903	-0.450	0.182
-591.967	-30.613	-0.276	-0.158
-590.952	43.112	-0.091	-0.084
-589.938	-135.161	0.174	0.021
-588.923	38.458	0.125	0.113
-587.909	-86.407	-0.285	-0.089
-586.894	-18.878	0.285	0.179
-585.879	-200.000	-0.026	0.222
-584.865	-23.439	-0.085	0.051
-583.850	416.967	0.183	0.394
-582.836	219.187	-0.094	0.152
-581.821	800.000	-0.032	0.126
-580.806	5.485	0.274	0.204
-579.792	-200.000	-0.084	-0.378
-578.777	-6.305	0.237	0.164
-577.763	-200.000	-0.003	0.241
-576.748	-56.839	-0.079	-0.035
-575.733	102.383	0.064	0.076
-574.719	800.000	-0.062	0.260
-573.704	5.692	-0.136	-0.102
-572.690	-37.456	0.099	-0.054
-571.675	-131.917	-0.186	0.025
-570.661	-84.981	-0.328	-0.104
-569.646	-4.291	-0.099	-0.069
-568.631	467.388	0.020	-0.044
-567.617	-84.169	-0.316	0.101
-566.602	800.000	-0.156	-0.555
-565.588	466.816	-0.108	0.244
-564.573	14.523	0.198	0.156
-563.558	222.605	-0.085	0.139
-562.544	-140.972	-0.371	-0.038
-561.529	268.636	0.134	0.238
-560.515	99.461	0.120	-0.140
-559.500	-200.000	0.142	-0.668
-558.485	-200.000	0.015	-0.184
-557.471	-67.551	0.110	0.044
-556.456	800.000	-0.048	-0.163
-555.442	73.300	0.289	-0.306
-554.427	-15.422	0.100	0.065
-553.412	-12.915	-0.237	0.156
-552.398	800.000	-0.068	-0.211
-551.383	-47.043	-0.168	0.083
-550.369	116.745	0.296	0.366
-549.354	-200.000	0.025	0.211
-548.339	-126.994	-0.317	-0.047
-547.325	175.261	-0.090	0.132
-546.310	129.263	-0.161	0.208
-545.296	159.435	0.068	0.095
-544.281	362.025	-0.125	-0.252
-543.266	22.536	0.125	-0.103
-542.252	639.805	-0.087	-0.224
-541.237	-154.777	-0.076	-0.005
-540.223	-200.000	-0.044	0.248
-539.208	-200.000	-0.033	0.316
-538.193	175.976	-0.186	-0.272
-537.179	-79.927	-0.333	0.113
-536.164	37.238	-0.129	0.115
-535.150	-102.825	0.111	-0.027
-534.135	307.835	0.167	-0.314
-533.121	460.377	0.187	-0.420
-532.106	-25.817	0.105	-0.062
-531.091	162.401	0.122	0.172
-530.077	-154.804	-0.372	0.025
-529.062	800.000	-0.055	0.171
-528.048	121.242	0.274	-0.344
-527.033	800.000	0.023	0.090
-526.018	-129.120	-0.164	0.023
-525.004	-56.899	0.163	0.073
-523.989	-200.000	0.002	0.057
-522.975	-39.530	-0.295	-0.156
-521.960	-108.239	0.191	-0.042
-520.945	-11.872	-0.084	-0.055
-519.931	-200.000	-0.010	-0.091
-518.916	-200.000	-0.022	0.114
-517.902	-66.119	-0.179	0.072
-516.887	760.689	-0.120	0.327
-515.872	-126.080	0.140	-0.021
-514.858	96.799	-0.192	-0.222
-513.843	800.000	0.066	0.280
-512.829	385.232	0.116	0.242
-511.814	-200.000	-0.001	-0.285
-510.799	-146.671	-0.132	0.012
-509.785	244.591	0.160	-0.271
-508.770	62.010	-0.126	0.126
-507.756	42.747	-0.216	-0.198
-506.741	-83.970	-0.119	0.038
-505.726	537.505	-0.080	0.193
-504.712	52.342	-0.108	-0.104
-503.697	59.354	0.053	0.053
-502.683	-29.872	0.198	0.114
-501.668	-85.238	0.184	-0.058
-500.653	-129.667	0.135	-0.019
-499.639	-120.990	0.459	0.078
-498.624	-161.521	-0.141	-0.007
-497.610	-71.540	-0.177	-0.067
-496.595	229.909	-0.030	-0.050
-495.581	800.000	0.051	-0.162
-494.566	-5.793	0.156	-0.108
-493.551	113.334	0.081	-0.099
-492.537	55.452	0.141	0.137
-491.522	209.602	0.124	-0.196
-490.508	-182.123	-0.097	-0.002
-489.493	800.000	0.108	-0.364
-488.478	-200.000	-0.016	-0.105
-487.464	714.754	0.051	-0.137
-486.449	-70.509	-0.104	0.040
-485.435	-11.446	-0.319	0.211
-484.420	60.477	0.100	-0.100
-483.405	263.688	-0.105	0.184
-482.391	35.671	0.221	-0.196
-481.376	310.991	0.310	-0.584
-480.362	41.226	-0.162	-0.147
-479.347	-16.670	0.671	-0.427
-478.332	-103.295	0.229	0.055
-477.318	83.575	0.189	0.208
-476.303	-26.669	-0.347	0.204
-475.289	-176.113	-0.070	0.002
-474.274	92.311	-0.127	0.144
-473.259	83.597	-0.107	-0.118
-472.245	-3.480	-0.243	0.170
-471.230	-118.791	0.100	0.018
-470.216	-141.770	0.183	0.018
-469.201	4.061	-0.238	-0.175
-468.186	466.956	0.062	-0.141
-467.172	-27.052	-0.159	0.093
-466.157	282.431	0.062	0.113
-465.143	-196.262	0.244	-0.002
-464.128	800.000	0.060	0.209
-463.113	800.000	-0.056	-0.184
-462.099	-123.155	0.242	-0.039
-461.084	33.324	-0.111	-0.097
-460.070	69.907	-0.032	0.033
-459.055	171.555	-0.200	-0.289
-458.040	390.924	0.123	0.257
-457.026	65.611	0.210	0.214
-456.011	36.436	-0.062	0.055
-454.997	800.000	-0.010	0.038
-453.982	91.161	-0.215	-0.243
-452.968	276.670	0.114	-0.204
-451.953	800.000	-0.078	0.266
-450.938	39.105	0.082	0.074
-449.924	659.652	-0.083	0.214
-448.909	800.000	-0.059	-0.193
-447.895	-56.284	-0.261	0.117
-446.880	-180.135	0.170	-0.004
-445.865	-24.685	0.273	0.163
-444.851	39.714	0.096	0.087
-443.836	118.128	-0.143	-0.177
-442.822	-141.462	0.212	0.022
-441.807	-108.860	-0.250	-0.054
-440.792	-122.176	-0.183	0.030
-439.778	-87.931	-0.067	-0.020
-438.763	332.944	0.282	0.547
-437.749	-9.743	0.114	-0.076
-436.734	800.000	-0.023	-0.091
-435.719	-20.094	-0.253	0.157
-434.705	-61.218	0.095	0.040
-433.690	223.742	0.294	-0.476
-432.676	-80.083	0.187	0.063
-431.661	651.326	-0.027	-0.069
-430.646	-200.000	0.008	0.141
-429.632	125.726	-0.329	0.417
-428.617	-143.960	0.158	-0.015
-427.603	-57.835	0.191	0.084
-426.588	-151.504	0.234	-0.017
-425.573	19.829	0.255	0.206
-424.559	-85.103	-0.165	0.052
-423.544	800.000	0.033	0.093
-422.530	90.726	0.078	0.088
-421.515	-44.181	-0.155	-0.078
-420.500	694.291	0.053	0.139
-419.486	-200.000	-0.017	-0.114
-418.471	127.649	0.146	0.187
-417.457	800.000	-0.008	-0.032
-416.442	287.562	0.177	0.322
-415.428	-37.484	-0.177	0.095
-414.413	0.373	0.222	0.159
-413.398	-79.774	-0.257	-0.087
-412.384	-193.422	-0.316	0.003
-411.369	-200.000	-0.006	-0.084
-410.355	63.085	0.089	0.090
-409.340	-200.000	-0.027	-0.311
-408.325	-64.852	0.252	-0.102
-407.311	-50.714	-0.312	0.147
-406.296	-184.426	-0.132	0.002
-405.282	-160.975	0.364	0.019
-404.267	162.107	-0.056	0.078
-403.252	1.434	0.091	0.065
-402.238	-9.668	-0.162	0.108
-401.223	-122.602	-0.143	-0.023
-400.209	-136.554	-0.247	0.029
-399.194	83.447	0.099	0.108
-398.179	116.081	-0.094	-0.115
-397.165	-200.000	0.017	-0.285
-396.150	0.821	-0.121	0.087
-395.136	-58.792	-0.317	0.138
-394.121	106.198	-0.028	0.033
-393.106	-200.000	-0.005	0.072
-392.092	57.165	-0.114	-0.112
-391.077	-66.039	-0.131	0.053
-390.063	12.022	-0.195	0.150
-389.048	56.322	0.100	-0.098
-388.033	32.159	-0.374	0.324
-387.019	-88.195	-0.070	-0.021
-386.004	-28.435	0.346	-0.200
-384.990	-113.693	0.166	-0.033
-383.975	-125.401	-0.133	-0.020
-382.960	80.926	-0.134	0.145
-381.946	107.783	0.124	0.148
-380.931	-13.975	-0.027	0.017
-379.917	800.000	0.044	0.131
-378.902	-20.336	-0.356	0.220
-377.888	800.000	-0.090	-0.256
-376.873	262.531	0.064	-0.111
-375.858	390.261	0.041	-0.085
-374.844	-200.000	0.013	-0.171
-373.829	-140.049	-0.226	0.024
-372.815	-163.950	-0.510	0.024
-371.800	-95.667	-0.215	-0.058
-370.785	116.777	-0.082	-0.100
-369.771	-80.861	0.137	-0.046
-368.756	662.375	0.038	-0.099
-367.742	-98.336	-0.228	-0.058
-366.727	800.000	0.034	0.149
-365.712	138.384	-0.112	0.148
-364.698	-200.000	0.017	-0.334
-363.683	-43.027	0.063	0.032
-362.669	800.000	0.121	-0.442
-361.654	-88.798	0.094	-0.028
-360.639	125.781	0.022	-0.028
-359.625	-153.086	0.243	-0.017
-358.610	-63.844	-0.197	0.081
-357.596	-30.771	0.070	0.040
-356.581	-82.528	0.194	0.063
-355.566	10.328	-0.289	-0.220
-354.552	204.665	0.246	0.383
-353.537	-110.670	-0.081	0.017
-352.523	-111.534	0.206	-0.042
-351.508	221.414	0.091	-0.147
-350.493	-200.000	0.026	0.123
-349.479	239.041	-0.013	0.022
-348.464	266.214	0.124	0.217
-347.450	104.225	0.137	0.161
-346.435	800.000	0.091	0.310
-345.420	-85.568	-0.239	-0.074
-344.406	-85.193	0.309	-0.097
-343.391	-105.624	0.127	0.029
-342.377	-200.000	-0.014	0.128
-341.362	-41.227	-0.095	-0.049
-340.348	12.394	-0.455	0.351
-339.333	60.814	0.364	0.362
-338.318	-43.808	0.124	0.062
-337.304	52.233	-0.226	0.216
-336.289	-71.783	0.285	-0.106
-335.275	-200.000	0.037	-0.258
-334.260	-200.000	0.007	0.101
-333.245	-184.360	0.249	0.004
-332.231	-40.781	-0.055	0.029
-331.216	59.740	-0.247	-0.244
-330.202	800.000	0.100	0.395
-329.187	35.617	0.067	-0.059
-328.172	-200.000	-0.018	-0.130
-327.158	39.275	-0.214	0.191
-326.143	-100.791	-0.320	0.079
-325.129	221.409	-0.104	-0.167
-324.114	-97.340	0.097	0.025
-323.099	-22.705	0.141	-0.085
-322.085	39.127	0.316	-0.283
-321.070	-103.229	-0.039	0.009
-320.056	321.071	-0.145	-0.275
-319.041	-200.000	0.007	0.319
-318.026	-40.028	0.145	-0.076
-317.012	-146.928	-0.382	-0.033
-315.997	-200.000	0.031	0.262
-314.983	-200.000	0.039	0.187
-313.968	158.488	0.308	0.427
-312.953	166.556	0.229	0.325
-311.939	-139.148	-0.123	0.013
-310.924	800.000	-0.050	-0.158
-309.910	95.956	-0.264	-0.302
-308.895	32.255	0.375	0.324
-307.880	166.480	0.196	0.278
-306.866	132.768	0.084	0.108
-305.851	38.747	0.174	-0.155
-304.837	117.800	-0.041	0.050
-303.822	-200.000	-0.010	-0.131
-302.807	800.000	-0.045	-0.138
-301.793	-102.499	0.047	-0.011
-300.778	281.013	-0.066	0.118
-299.764	800.000	0.104	0.334
-298.749	-114.525	-0.322	-0.062
-297.735	-52.048	-0.372	0.173
-296.720	308.526	-0.160	-0.298
-295.705	290.143	0.054	-0.098
-294.691	-192.615	0.312	-0.003
-293.676	117.288	0.033	0.040
-292.662	-200.000	0.008	-0.114
-291.647	800.000	0.051	0.174
-290.632	37.877	-0.065	0.058
-289.618	39.111	0.176	-0.157
-288.603	82.601	-0.113	0.122
-287.589	-105.747	-0.162	0.037
-286.574	-200.000	-0.028	0.317
-285.559	-73.407	-0.071	0.026
-284.545	15.711	0.191	-0.150
-283.530	20.944	-0.534	-0.432
-282.516	247.628	-0.107	-0.180
-281.501	56.203	-0.329	-0.319
-280.486	-200.000	0.001	-0.066
-279.472	291.444	0.104	0.189
-278.457	800.000	-0.083	0.244
-277.443	-151.789	-0.104	0.008
-276.428	-113.294	-0.257	0.051
-275.413	51.209	0.105	-0.100
-274.399	44.184	-0.179	0.164
-273.384	-200.000	0.076	-0.407
-272.370	-69.307	0.286	-0.110
-271.355	-200.000	0.010	-0.125
-270.340	119.880	-0.154	-0.191
-269.326	-17.415	-0.278	-0.175
-268.311	99.046	-0.098	0.114
-267.297	-100.810	-0.254	0.062
-266.282	400.712	-0.042	0.088
-265.267	713.150	0.111	0.292
-264.253	663.457	-0.077	0.199
-263.238	289.136	0.156	0.282
-262.224	-200.000	-0.002	0.054
-261.209	175.143	-0.272	-0.394
-260.195	-21.423	-0.265	0.161
-259.180	30.020	0.081	0.069
-258.165	380.614	-0.147	-0.301
-257.151	-200.000	-0.048	-0.327
-256.136	-126.499	-0.344	-0.051
-255.122	-200.000	0.003	-0.199
-254.107	79.281	-0.050	-0.054
-253.092	91.512	0.196	-0.219
-252.078	800.000	-0.003	-0.010
-251.063	-31.740	0.243	-0.136
-250.049	170.453	0.092	0.131
-249.034	-133.170	0.394	-0.050
-248.019	-115.993	-0.383	-0.071
-247.005	754.850	0.040	-0.107
-245.990	-16.305	0.425	0.269
-244.976	101.934	-0.076	-0.088
-243.961	213.322	-0.139	-0.219
-242.946	800.000	-0.037	-0.130
-241.932	108.578	-0.160	0.191
-240.917	-200.000	0.031	-0.193
-239.903	54.038	-0.020	-0.019
-238.888	3.467	-0.208	0.151
-237.873	-200.000	0.046	-0.228
-236.859	122.428	0.097	-0.122
-235.844	265.724	0.115	-0.200
-234.830	-135.378	0.125	-0.015
-233.815	-6.114	0.214	0.146
-232.800	23.723	-0.314	-0.258
-231.786	191.286	-0.035	-0.052
-230.771	68.709	0.083	-0.085
-229.757	-20.290	-0.300	-0.184
-228.742	-111.180	-0.236	-0.048
-227.727	-200.000	-0.003	0.075
-226.713	-200.000	0.029	-0.232
-225.698	-22.349	-0.216	0.131
-224.684	800.000	-0.110	-0.309
-223.669	-192.875	0.401	-0.004
-222.655	-66.364	-0.081	0.032
-221.640	68.745	-0.096	0.098
-220.625	-195.845	0.117	0.001
-219.611	28.151	-0.137	-0.115
-218.596	-184.865	0.107	-0.002
-217.582	676.580	0.043	-0.111
-216.567	-200.000	0.050	-0.240
-215.552	103.309	0.044	0.052
-214.538	282.347	0.061	0.108
-213.523	-77.590	0.129	-0.045
-212.509	37.916	0.267	-0.236
-211.494	176.423	-0.090	-0.130
-210.479	565.860	0.040	-0.097
-209.465	429.893	0.141	0.304
-208.450	53.721	-0.112	0.107
-207.436	71.865	0.232	-0.241
-206.421	-200.000	-0.021	-0.128
-205.406	54.442	0.130	0.125
-204.392	60.811	0.096	-0.095
-203.377	-34.418	0.147	0.080
-202.363	-52.933	0.184	0.084
-201.348	30.722	0.090	-0.077
-200.333	-2.651	0.134	0.094
-199.319	153.534	0.120	0.164
-198.304	-104.930	0.362	0.083
-197.290	-200.000	-0.009	-0.040
-196.275	-131.009	0.212	0.028
-195.260	243.196	0.184	-0.307
-194.246	-89.044	-0.170	0.050
-193.231	2.045	-0.100	0.072
-192.217	-37.418	-0.041	-0.022
-191.202	58.117	-0.247	0.241
-190.187	150.583	0.019	0.025
-189.173	71.771	0.065	-0.067
-188.158	-52.363	0.149	-0.069
-187.144	800.000	0.010	-0.041
-186.129	-156.801	0.587	-0.036
-185.114	67.253	-0.174	-0.177
-184.100	800.000	0.060	0.246
-183.085	53.409	0.296	0.282
-182.071	425.976	0.173	-0.372
-181.056	-11.449	-0.035	-0.023
-180.042	150.899	0.066	0.089
-179.027	38.925	0.149	0.133
-178.012	-200.000	0.014	-0.212
-176.998	213.705	-0.049	-0.077
-175.983	353.866	0.117	0.231
-174.969	-125.252	0.182	-0.028
-173.954	98.082	0.088	-0.101
-172.939	-200.000	0.003	-0.142
-171.925	-158.997	0.204	0.012
-170.910	-200.000	-0.001	0.105
-169.896	-128.142	0.407	0.058
-168.881	73.413	0.062	-0.065
-167.866	-200.000	-0.006	-0.277
-166.852	-200.000	0.073	-0.425
-165.837	-44.955	-0.184	-0.091
-164.823	585.450	-0.151	0.369
-163.808	388.366	-0.057	-0.117
-162.793	-75.755	0.163	-0.058
-161.779	125.718	-0.209	-0.262
-160.764	229.377	0.219	0.356
-159.750	101.898	-0.183	0.213
-158.735	84.335	0.028	-0.030
-157.720	-55.611	-0.085	-0.038
-156.706	-31.974	0.061	-0.034
-155.691	-200.000	-0.205	0.000
-154.677	-86.842	0.158	-0.048
-153.662	-200.000	0.005	-0.212
-152.647	166.699	0.059	-0.083
-151.633	-95.550	0.140	0.037
-150.618	-200.000	0.021	0.118
-149.604	-200.000	-0.009	-0.300
-148.589	-114.465	0.184	0.035
-147.574	-99.660	-0.062	0.015
-146.560	-200.000	0.022	0.098
-145.545	17.474	0.327	-0.258
-144.531	93.115	-0.085	-0.095
-143.516	483.731	-0.115	0.261
-142.502	-155.915	0.154	-0.010
-141.487	1.540	-0.288	-0.206
-140.472	-200.000	0.002	-0.097
-139.458	8.642	-0.044	-0.033
-138.443	255.524	-0.063	-0.108
-137.429	125.624	0.249	0.312
-136.414	-162.366	0.227	0.011
-135.399	21.908	-0.201	0.163
-134.385	800.000	-0.101	-0.283
-133.370	4.661	-0.198	-0.144
-132.356	-106.957	0.621	0.137
-131.341	-114.819	0.035	0.007
-130.326	-200.000	-0.000	0.158
-129.312	558.454	-0.056	0.134
-128.297	-131.925	-0.179	-0.023
-127.283	59.139	-0.204	-0.199
-126.268	95.070	0.211	0.238
-125.253	-200.000	-0.035	-0.153
-124.239	-200.000	-0.008	-0.265
-123.224	-47.180	0.288	0.139
-122.210	-48.158	0.248	0.119
-121.195	115.550	-0.138	0.167
-120.180	-200.000	0.017	-0.397
