DTS Sentinel unit serial number:	SN413079Multiplexer serial number:	ORYXHardware model number:	OX4-SRSoftware version number:	ORYX F/W v4.00 Oryx Data Collector v3.7.2.0data status	okinstallation	princeton_trtdifferential loss correction	single-endedforward channel	channel 3reverse channel	N/Adate	2019/09/12time	05:10:10forward acquisition time	60.00reverse acquisition time	0.00gamma	496.2192k internal	0.2322k external	0.2322temperature offset calibration	1.0038default loss term (dB/km)	0.3790temperature slope calibration	1.0000multiplexer offset coefficient	1.0000multiplexer slope coefficient	1.0000fibre end	0.00T internal ref (°C)	31.81T ext. ref 1 (°C)	1.65T ext. ref 2 (°C)	27.15length (m)	temperature (°C)	Stokes	anti-Stokes-747.200	-200.000	0.018	0.241
-746.185	800.000	0.077	0.269
-745.171	237.070	0.184	-0.308
-744.156	-200.000	0.019	0.198
-743.142	27.162	-0.134	0.113
-742.127	-3.546	-0.332	0.233
-741.112	800.000	0.065	0.287
-740.098	-200.000	0.074	0.384
-739.083	234.169	0.087	-0.145
-738.069	-200.000	0.053	0.294
-737.054	-65.764	0.078	-0.032
-736.039	14.558	-0.292	-0.231
-735.025	52.796	0.240	0.231
-734.010	-72.842	-0.314	0.117
-732.996	7.529	-0.106	-0.080
-731.981	-82.750	-0.212	-0.069
-730.966	90.846	0.089	-0.101
-729.952	-128.020	0.167	-0.024
-728.937	14.317	-0.077	0.060
-727.923	800.000	0.038	-0.164
-726.908	109.107	0.035	-0.042
-725.894	153.711	0.033	0.046
-724.879	-16.947	-0.516	-0.329
-723.864	-25.927	0.186	0.111
-722.850	12.383	0.189	0.147
-721.835	-134.980	-0.229	0.028
-720.821	-200.000	0.002	-0.091
-719.806	413.947	0.023	-0.049
-718.791	-101.239	0.369	-0.091
-717.777	-43.534	0.196	-0.100
-716.762	-200.000	0.019	-0.210
-715.748	-88.536	0.061	-0.018
-714.733	2.737	0.177	-0.129
-713.718	800.000	0.040	-0.165
-712.704	-57.540	-0.193	-0.085
-711.689	276.849	0.201	-0.361
-710.675	-47.952	0.284	0.138
-709.660	262.044	-0.115	0.202
-708.645	9.372	-0.202	-0.154
-707.631	-38.769	-0.105	-0.056
-706.616	-200.000	0.014	0.332
-705.602	-200.000	-0.054	-0.249
-704.587	-125.725	-0.334	-0.051
-703.572	114.593	-0.052	0.063
-702.558	261.124	-0.142	-0.248
-701.543	-162.468	0.190	-0.009
-700.529	145.385	0.200	-0.271
-699.514	173.167	0.131	-0.190
-698.499	437.217	0.071	-0.156
-697.485	39.178	0.141	0.127
-696.470	-134.276	-0.351	-0.044
-695.456	655.540	0.027	0.070
-694.441	427.968	0.391	-0.851
-693.426	-47.855	-0.124	-0.061
-692.412	-200.000	-0.006	0.096
-691.397	37.758	-0.143	-0.128
-690.383	592.167	-0.006	0.016
-689.368	800.000	-0.080	0.233
-688.354	-56.463	0.213	0.095
-687.339	-119.691	-0.416	0.073
-686.324	-114.563	-0.301	0.058
-685.310	-200.000	0.011	-0.177
-684.295	128.517	0.042	-0.054
-683.281	-143.903	-0.356	0.034
-682.266	57.084	0.160	-0.157
-681.251	529.243	-0.029	0.070
-680.237	-200.000	0.031	-0.191
-679.222	63.637	0.102	-0.104
-678.208	82.109	-0.060	0.065
-677.193	642.184	-0.166	0.426
-676.178	-158.633	-0.260	-0.015
-675.164	-58.047	0.121	-0.053
-674.149	149.173	0.025	-0.034
-673.135	-200.000	0.000	-0.293
-672.120	111.039	-0.311	0.378
-671.105	-36.302	0.136	-0.074
-670.091	-67.249	0.276	0.109
-669.076	252.740	0.103	-0.177
-668.062	-200.000	-0.068	-0.486
-667.047	-64.058	-0.221	0.091
-666.032	-200.000	-0.263	-0.001
-665.018	-151.876	-0.108	-0.008
-664.003	245.755	-0.138	-0.233
-662.989	-23.466	-0.345	0.209
-661.974	247.158	-0.055	-0.093
-660.959	-200.000	-0.005	0.113
-659.945	-200.000	-0.003	-0.470
-658.930	-66.772	-0.187	-0.075
-657.916	95.344	-0.111	-0.127
-656.901	-37.792	-0.175	0.094
-655.886	250.152	0.135	0.231
-654.872	1.444	-0.344	-0.249
-653.857	800.000	0.036	0.149
-652.843	-200.000	-0.031	0.227
-651.828	0.002	0.254	-0.182
-650.814	336.762	0.017	0.034
-649.799	-147.628	-0.276	0.023
-648.784	-1.832	0.261	-0.185
-647.770	800.000	0.019	-0.080
-646.755	-129.111	-0.348	0.049
-645.741	-200.000	-0.005	-0.106
-644.726	691.016	0.022	-0.057
-643.711	-67.557	-0.307	0.121
-642.697	-111.065	0.412	-0.085
-641.682	-135.117	0.481	-0.058
-640.668	-78.785	0.170	-0.058
-639.653	-47.650	0.285	-0.139
-638.638	465.600	-0.181	-0.408
-637.624	800.000	-0.039	-0.161
-636.609	-200.000	0.036	-0.294
-635.595	-143.988	0.233	0.022
-634.580	-200.000	-0.038	-0.226
-633.565	-200.000	0.039	-0.377
-632.551	-115.897	-0.369	0.069
-631.536	-119.549	-0.035	-0.006
-630.522	142.451	-0.132	-0.177
-629.507	258.792	0.181	0.314
-628.492	186.430	-0.108	0.162
-627.478	-200.000	-0.029	-0.137
-626.463	-24.385	-0.309	0.185
-625.449	-71.211	-0.307	0.116
-624.434	30.135	-0.329	0.282
-623.419	13.300	-0.023	-0.018
-622.405	171.836	-0.117	-0.169
-621.390	-118.728	-0.220	-0.039
-620.376	-58.891	0.268	0.116
-619.361	343.982	0.054	0.106
-618.346	-49.047	0.300	0.144
-617.332	-20.255	0.240	0.149
-616.317	-200.000	-0.008	0.038
-615.303	27.222	-0.368	-0.310
-614.288	-200.000	-0.007	-0.229
-613.273	-157.301	0.160	-0.010
-612.259	299.959	-0.102	-0.189
-611.244	-200.000	-0.029	0.174
-610.230	-155.301	0.184	-0.012
-609.215	-69.840	-0.222	-0.085
-608.201	-91.767	-0.062	0.018
-607.186	-121.231	0.208	-0.035
-606.171	-200.000	-0.019	-0.206
-605.157	-96.258	-0.303	-0.081
-604.142	-200.000	-0.061	-0.287
-603.128	-200.000	-0.009	0.086
-602.113	71.736	-0.312	-0.326
-601.098	-22.239	0.276	-0.168
-600.084	800.000	0.107	0.366
-599.069	209.528	0.033	-0.052
-598.055	-14.146	-0.281	0.182
-597.040	-21.230	-0.257	0.158
-596.025	51.717	0.052	0.050
-595.011	-200.000	-0.085	0.000
-593.996	-109.649	0.252	0.053
-592.982	7.325	-0.271	-0.204
-591.967	-182.762	-0.107	0.002
-590.952	800.000	0.090	-0.351
-589.938	800.000	-0.066	-0.226
-588.923	800.000	-0.048	-0.154
-587.909	26.089	0.352	-0.295
-586.894	-200.000	0.011	-0.175
-585.879	423.125	0.084	-0.182
-584.865	-200.000	0.008	-0.107
-583.850	-184.985	-0.085	0.001
-582.836	28.471	0.246	-0.209
-581.821	201.816	0.092	0.142
-580.806	45.098	-0.051	-0.047
-579.792	800.000	-0.134	0.450
-578.777	800.000	0.092	0.361
-577.763	-192.094	0.185	0.002
-576.748	-18.787	0.381	0.238
-575.733	-163.088	-0.064	-0.003
-574.719	-140.366	0.155	0.016
-573.704	160.403	-0.118	-0.166
-572.690	69.859	-0.124	-0.128
-571.675	-200.000	0.028	-0.147
-570.661	-38.026	-0.245	-0.131
-569.646	35.277	-0.269	0.236
-568.631	156.763	0.135	-0.187
-567.617	-200.000	-0.038	0.190
-566.602	-116.337	-0.355	0.066
-565.588	-144.470	-0.384	0.036
-564.573	-200.000	0.018	-0.177
-563.558	12.426	-0.132	0.102
-562.544	-135.533	-0.124	-0.015
-561.529	-200.000	-0.005	0.045
-560.515	-200.000	-0.026	0.151
-559.500	-200.000	-0.024	-0.547
-558.485	-200.000	-0.046	-0.251
-557.471	-71.268	-0.264	-0.099
-556.456	-42.255	-0.166	0.085
-555.442	800.000	-0.077	0.244
-554.427	-200.000	0.034	0.247
-553.412	262.908	0.115	0.200
-552.398	-124.523	-0.083	-0.013
-551.383	329.013	-0.176	-0.339
-550.369	-135.874	0.393	-0.046
-549.354	650.958	-0.093	0.240
-548.339	237.862	0.139	-0.231
-547.325	-91.267	-0.092	-0.027
-546.310	156.092	-0.093	0.128
-545.296	-69.992	-0.097	-0.037
-544.281	-139.285	-0.233	0.025
-543.266	-200.000	0.024	-0.303
-542.252	151.901	0.058	-0.079
-541.237	-95.385	-0.263	0.071
-540.223	13.796	-0.102	0.079
-539.208	11.138	0.229	0.175
-538.193	800.000	-0.018	-0.071
-537.179	-200.000	0.045	0.435
-536.164	298.244	0.116	-0.214
-535.150	158.631	-0.129	0.179
-534.135	-141.029	-0.048	0.005
-533.121	-200.000	0.052	-0.322
-532.106	39.270	-0.309	0.277
-531.091	-5.148	-0.134	0.092
-530.077	-51.913	0.142	0.066
-529.062	367.216	-0.054	0.109
-528.048	-127.172	0.239	0.035
-527.033	800.000	-0.052	-0.217
-526.018	-49.020	-0.238	-0.114
-525.004	318.288	-0.093	0.177
-523.989	16.912	-0.108	-0.086
-522.975	498.226	0.078	0.179
-521.960	-25.987	-0.034	-0.020
-520.945	318.311	0.121	-0.230
-519.931	61.717	-0.092	0.091
-518.916	-109.613	0.119	0.025
-517.902	800.000	0.024	0.095
-516.887	-189.873	-0.130	-0.001
-515.872	449.499	-0.086	0.190
-514.858	800.000	0.057	-0.244
-513.843	800.000	-0.039	-0.136
-512.829	800.000	0.042	0.171
-511.814	-64.367	-0.192	0.078
-510.799	63.890	-0.105	-0.105
-509.785	273.687	0.182	0.323
-508.770	56.743	-0.132	-0.129
-507.756	-146.968	0.322	-0.028
-506.741	-200.000	-0.044	-0.195
-505.726	82.687	0.442	0.481
-504.712	84.098	-0.144	0.157
-503.697	-200.000	0.036	-0.233
-502.683	-36.087	0.353	-0.191
-501.668	-200.000	-0.195	0.000
-500.653	-200.000	-0.020	-0.115
-499.639	637.235	-0.139	0.353
-498.624	-157.637	0.238	-0.014
-497.610	362.697	0.186	0.374
-496.595	-126.718	0.226	-0.034
-495.581	-200.000	-0.027	-0.158
-494.566	-200.000	-0.071	0.361
-493.551	-200.000	-0.067	-0.341
-492.537	234.125	-0.135	0.222
-491.522	-182.018	0.239	0.005
-490.508	-200.000	-0.011	-0.096
-489.493	-200.000	-0.054	-0.289
-488.478	-166.625	0.317	-0.013
-487.464	506.467	-0.081	0.189
-486.449	438.858	-0.135	0.295
-485.435	-72.874	0.265	-0.098
-484.420	-200.000	0.013	-0.140
-483.405	176.174	-0.124	0.181
-482.391	-40.264	0.121	0.063
-481.376	435.973	-0.139	0.302
-480.362	362.230	-0.069	-0.139
-479.347	-94.142	0.218	-0.060
-478.332	180.259	0.203	0.297
-477.318	81.015	-0.075	0.081
-476.303	198.524	0.094	0.144
-475.289	-200.000	-0.041	0.377
-474.274	-66.632	0.317	0.126
-473.259	-200.000	-0.042	0.244
-472.245	-10.056	-0.417	-0.277
-471.230	98.519	-0.229	-0.263
-470.216	-61.680	-0.038	0.016
-469.201	-176.317	0.145	-0.004
-468.186	-156.672	-0.201	-0.012
-467.172	-200.000	0.007	0.171
-466.157	-61.643	-0.281	-0.118
-465.143	463.136	-0.043	-0.096
-464.128	-200.000	0.029	0.285
-463.113	291.729	-0.049	0.089
-462.099	-114.795	-0.259	-0.049
-461.084	-98.519	0.096	0.025
-460.070	-24.214	-0.188	0.112
-459.055	-53.061	-0.230	0.106
-458.040	-200.000	0.036	0.669
-457.026	-88.387	-0.211	0.063
-456.011	-89.365	0.050	0.015
-454.997	-200.000	-0.008	-0.077
-453.982	-40.674	0.158	-0.082
-452.968	-25.718	0.313	0.185
-451.953	130.478	0.047	-0.060
-450.938	24.620	-0.456	0.377
-449.924	24.184	0.078	-0.064
-448.909	41.475	-0.009	0.008
-447.895	-200.000	-0.054	0.580
-446.880	188.787	0.312	-0.466
-445.865	-14.391	0.086	0.055
-444.851	95.925	-0.109	-0.124
-443.836	-132.689	-0.188	-0.024
-442.822	-54.064	-0.249	-0.113
-441.807	-200.000	-0.037	-0.227
-440.792	55.129	0.146	-0.141
-439.778	-149.824	0.085	0.007
-438.763	-143.599	0.449	-0.043
-437.749	-83.738	0.196	0.062
-436.734	-200.000	-0.030	-0.348
-435.719	-98.636	0.190	-0.048
-434.705	-200.000	0.005	0.131
-433.690	-55.156	-0.430	0.193
-432.676	61.339	-0.166	0.164
-431.661	800.000	-0.127	-0.349
-430.646	571.487	0.077	-0.187
-429.632	-154.624	0.424	-0.028
-428.617	-200.000	-0.030	0.164
-427.603	30.052	0.237	-0.202
-426.588	-47.388	-0.190	-0.092
-425.573	16.295	-0.203	-0.160
-424.559	-171.809	0.211	0.007
-423.544	-200.000	-0.027	-0.382
-422.530	-130.024	0.087	0.012
-421.515	30.208	-0.179	0.153
-420.500	122.123	0.091	-0.114
-419.486	-200.000	0.006	-0.104
-418.471	40.325	0.111	-0.099
-417.457	-200.000	-0.012	-0.097
-416.442	87.248	0.060	-0.066
-415.428	362.600	0.090	-0.181
-414.413	-6.052	0.097	-0.066
-413.398	200.639	-0.150	-0.230
-412.384	-54.860	0.202	-0.091
-411.369	800.000	-0.112	-0.364
-410.355	194.864	-0.073	0.110
-409.340	-87.165	0.085	-0.026
-408.325	-27.409	-0.043	0.025
-407.311	67.662	-0.287	-0.292
-406.296	377.191	-0.072	-0.147
-405.282	-137.413	0.135	0.015
-404.267	-166.482	-0.226	-0.009
-403.252	-200.000	0.012	0.197
-402.238	412.642	-0.049	-0.103
-401.223	-118.702	-0.131	-0.023
-400.209	-81.942	-0.127	0.041
-399.194	800.000	-0.035	-0.155
-398.179	800.000	-0.071	0.240
-397.165	606.569	-0.136	0.339
-396.150	-0.991	-0.134	-0.095
-395.136	384.208	-0.076	0.157
-394.121	-21.159	-0.208	-0.127
-393.106	-139.021	0.124	0.013
-392.092	-200.000	0.007	0.369
-391.077	-138.159	-0.221	0.024
-390.063	800.000	0.050	-0.143
-389.048	-29.423	-0.302	0.172
-388.033	141.549	0.144	-0.190
-387.019	557.080	-0.016	0.038
-386.004	-113.299	-0.140	-0.028
-384.990	-5.469	0.245	-0.168
-383.975	-108.737	-0.133	-0.028
-382.960	263.344	0.042	0.073
-381.946	-39.611	-0.310	0.162
-380.931	-200.000	0.067	0.388
-379.917	191.337	0.178	-0.267
-378.902	-63.065	0.246	0.101
-377.888	267.458	0.128	-0.224
-376.873	-200.000	-0.004	-0.294
-375.858	72.619	-0.145	-0.151
-374.844	139.246	0.189	0.248
-373.829	22.716	0.127	-0.104
-372.815	27.432	0.254	-0.213
-371.800	30.884	-0.120	-0.102
-370.785	698.186	0.051	0.133
-369.771	149.937	0.082	0.110
-368.756	-200.000	-0.004	-0.044
-367.742	755.772	0.095	0.256
-366.727	-49.253	0.199	0.095
-365.712	-200.000	-0.025	-0.185
-364.698	294.996	-0.120	0.219
-363.683	-126.670	-0.216	0.032
-362.669	487.012	-0.078	0.177
-361.654	203.163	-0.064	0.098
-360.639	43.845	0.243	0.221
-359.625	512.445	-0.177	-0.410
-358.610	296.287	-0.100	-0.183
-357.596	174.510	-0.112	-0.161
-356.581	-200.000	-0.013	0.070
-355.566	292.328	0.142	-0.258
-354.552	-149.786	-0.213	-0.017
-353.537	-200.000	-0.063	0.398
-352.523	-126.559	0.266	-0.039
-351.508	-200.000	0.045	0.236
-350.493	-12.336	-0.334	0.217
-349.479	800.000	-0.054	0.180
-348.464	266.258	0.074	-0.128
-347.450	-7.691	0.292	-0.196
-346.435	-159.263	0.035	0.002
-345.420	-61.450	-0.407	0.170
-344.406	-200.000	-0.043	0.194
-343.391	-200.000	0.024	-0.213
-342.377	6.270	-0.139	0.103
-341.362	-59.982	-0.141	-0.060
-340.348	-200.000	-0.009	-0.274
-339.333	-200.000	0.060	0.558
-338.318	205.681	0.034	-0.052
-337.304	-110.386	-0.336	-0.069
-336.289	333.915	-0.095	0.183
-335.275	328.927	0.104	-0.198
-334.260	800.000	0.009	-0.039
-333.245	-91.919	-0.376	0.106
-332.231	426.106	-0.020	0.043
-331.216	-63.728	0.427	-0.174
-330.202	-171.294	-0.160	0.005
-329.187	800.000	-0.064	-0.189
-328.172	-1.898	0.059	0.041
-327.158	800.000	-0.047	-0.145
-326.143	137.325	-0.035	0.045
-325.129	-97.348	0.274	-0.071
-324.114	800.000	0.032	0.103
-323.099	-159.486	0.218	-0.012
-322.085	-27.877	0.159	0.091
-321.070	-141.531	0.321	-0.032
-320.056	94.902	0.164	0.185
-319.041	800.000	0.021	0.067
-318.026	-200.000	-0.008	-0.317
-317.012	262.925	-0.097	-0.168
-315.997	800.000	0.041	0.136
-314.983	-122.867	0.111	-0.018
-313.968	81.191	-0.167	0.180
-312.953	592.448	-0.063	0.154
-311.939	56.404	0.207	0.200
-310.924	-200.000	-0.005	-0.267
-309.910	-84.663	-0.217	-0.068
-308.895	-75.060	0.171	-0.061
-307.880	-25.275	0.086	0.050
-306.866	115.745	0.129	0.156
-305.851	396.199	0.104	-0.215
-304.837	800.000	-0.090	-0.298
-303.822	142.933	0.076	-0.101
-302.807	-151.435	-0.200	-0.015
-301.793	231.237	-0.026	-0.043
-300.778	-29.861	0.027	0.015
-299.764	-200.000	0.033	0.183
-298.749	28.735	-0.144	-0.121
-297.735	-28.105	0.182	0.105
-296.720	-200.000	0.032	0.199
-295.705	-17.710	0.352	-0.219
-294.691	657.499	0.021	0.053
-293.676	-44.207	-0.091	-0.045
-292.662	41.430	0.141	-0.126
-291.647	-75.002	-0.166	0.059
-290.632	-200.000	0.042	-0.184
-289.618	800.000	-0.049	0.214
-288.603	-200.000	-0.013	0.108
-287.589	-200.000	-0.013	0.105
-286.574	-200.000	0.013	-0.118
-285.559	-200.000	0.071	0.358
-284.545	-69.857	0.152	0.058
-283.530	-200.000	0.014	-0.254
-282.516	800.000	-0.016	0.066
-281.501	-16.901	-0.167	-0.105
-280.486	-200.000	0.021	-0.098
-279.472	203.173	0.263	-0.404
-278.457	74.760	0.136	0.142
-277.443	-200.000	-0.050	-0.413
-276.428	800.000	-0.033	-0.108
-275.413	590.696	-0.081	-0.197
-274.399	-26.913	-0.203	-0.118
-273.384	800.000	0.074	-0.313
-272.370	-200.000	0.012	0.138
-271.355	66.979	-0.219	-0.222
-270.340	463.827	-0.072	0.159
-269.326	-24.136	-0.236	0.140
-268.311	-200.000	0.006	-0.210
-267.297	800.000	-0.081	-0.239
-266.282	800.000	-0.127	-0.380
-265.267	316.494	-0.106	-0.199
-264.253	-134.156	-0.196	-0.024
-263.238	-71.886	-0.267	0.099
-262.224	-200.000	0.028	0.269
-261.209	-62.790	0.119	0.049
-260.195	8.534	0.264	0.197
-259.180	424.931	0.088	-0.188
-258.165	645.041	-0.061	0.154
-257.151	-85.488	0.408	0.126
-256.136	-200.000	0.004	-0.174
-255.122	135.810	-0.074	-0.096
-254.107	153.004	0.204	0.276
-253.092	384.516	-0.088	0.181
-252.078	800.000	0.106	0.292
-251.063	-65.925	0.204	-0.081
-250.049	64.529	0.052	-0.052
-249.034	96.072	-0.115	-0.130
-248.019	-200.000	-0.063	0.357
-247.005	583.159	0.102	0.249
-245.990	-200.000	-0.009	-0.050
-244.976	-117.658	-0.260	0.046
-243.961	-169.793	-0.123	0.004
-242.946	48.955	-0.137	0.127
-241.932	-150.234	0.316	-0.024
-240.917	433.269	0.109	-0.234
-239.903	52.309	-0.188	0.178
-238.888	43.092	-0.129	-0.116
-237.873	194.047	0.051	-0.076
-236.859	-107.396	-0.074	-0.016
-235.844	-45.530	-0.224	0.110
-234.830	18.912	-0.175	0.139
-233.815	-123.158	0.325	0.052
-232.800	41.182	0.132	0.118
-231.786	-24.444	-0.027	-0.016
-230.771	-104.387	-0.268	0.061
-229.757	288.953	-0.212	0.380
-228.742	163.622	-0.036	0.050
-227.727	486.040	-0.139	0.313
-226.713	-95.668	0.100	-0.026
-225.698	-167.741	-0.025	-0.001
-224.684	422.828	0.071	-0.151
-223.669	-118.600	-0.247	-0.043
-222.655	-42.162	-0.030	-0.015
-221.640	-37.693	0.226	0.119
-220.625	-92.038	0.562	-0.157
-219.611	800.000	0.065	0.252
-218.596	14.745	0.265	0.205
-217.582	437.360	-0.048	-0.104
-216.567	-64.059	-0.215	-0.087
-215.552	13.117	-0.222	0.170
-214.538	800.000	0.088	0.321
-213.523	-34.619	0.150	0.081
-212.509	-61.097	0.192	-0.080
-211.494	-200.000	0.025	0.195
-210.479	-200.000	-0.006	-0.118
-209.465	-40.535	0.132	-0.068
-208.450	71.235	0.148	-0.152
-207.436	-200.000	-0.030	-0.350
-206.421	800.000	-0.044	-0.133
-205.406	-46.400	0.025	-0.012
-204.392	139.526	0.192	0.250
-203.377	339.648	0.094	0.182
-202.363	-156.899	0.337	-0.020
-201.348	398.888	-0.135	0.280
-200.333	-78.931	0.237	0.080
-199.319	17.431	-0.234	0.184
-198.304	800.000	-0.093	0.339
-197.290	-123.047	-0.192	-0.030
-196.275	-29.069	0.441	0.250
-195.260	-81.082	0.326	-0.107
-194.246	-200.000	0.038	-0.336
-193.231	35.574	0.154	0.134
-192.217	-62.214	-0.229	0.094
-191.202	-45.661	0.328	-0.160
-190.187	-200.000	-0.028	-0.343
-189.173	-146.156	-0.198	0.017
-188.158	196.925	-0.098	0.147
-187.144	93.184	0.182	0.203
-186.129	310.249	0.080	-0.148
-185.114	-35.310	0.250	-0.134
-184.100	17.250	0.234	-0.184
-183.085	-200.000	0.002	-0.142
-182.071	174.250	0.126	0.180
-181.056	-130.123	-0.359	-0.048
-180.042	-87.261	0.084	0.025
-179.027	-164.416	0.176	0.008
-178.012	-51.155	0.060	0.028
-176.998	112.869	0.042	0.050
-175.983	384.003	-0.153	0.312
-174.969	-22.733	0.367	-0.219
-173.954	-90.184	0.382	-0.110
-172.939	-168.347	0.228	0.009
-171.925	-166.177	0.234	0.010
-170.910	-63.918	-0.088	0.036
-169.896	-52.037	-0.133	-0.061
-168.881	800.000	0.009	0.026
-167.866	-28.997	0.195	-0.110
-166.852	800.000	-0.094	0.333
-165.837	274.915	0.146	0.255
-164.823	0.442	-0.306	0.216
-163.808	-200.000	-0.052	0.262
-162.793	-185.214	0.295	-0.005
-161.779	800.000	-0.010	0.029
-160.764	59.303	0.056	0.055
-159.750	184.636	0.060	-0.087
-158.735	800.000	0.128	-0.362
-157.720	-129.981	0.236	0.032
-156.706	-200.000	-0.020	-0.151
-155.691	-103.879	-0.464	-0.107
-154.677	132.453	-0.052	-0.066
-153.662	-200.000	-0.021	0.102
-152.647	257.742	-0.027	-0.046
-151.633	800.000	-0.092	0.289
-150.618	-200.000	-0.012	0.360
-149.604	4.940	-0.135	-0.098
-148.589	58.622	0.162	0.157
-147.574	-33.087	-0.104	0.057
-146.560	-200.000	0.039	0.361
-145.545	-200.000	0.041	0.388
-144.531	89.468	0.132	0.145
-143.516	353.317	0.084	-0.164
-142.502	123.325	-0.100	0.124
-141.487	-35.936	0.246	-0.131
-140.472	-12.232	0.179	-0.115
-139.458	2.408	0.247	-0.176
-138.443	15.243	0.255	0.197
-137.429	-3.424	-0.126	0.086
-136.414	-200.000	0.010	-0.158
-135.399	117.157	-0.111	0.135
-134.385	-41.265	0.223	-0.114
-133.370	68.668	0.088	-0.089
-132.356	596.796	0.045	-0.110
-131.341	800.000	-0.134	-0.392
-130.326	288.969	0.079	-0.142
-129.312	-134.115	-0.139	-0.017
-128.297	-87.218	0.121	0.036
-127.283	558.138	-0.084	-0.200
-126.268	205.301	-0.061	-0.094
-125.253	170.480	0.177	0.250
-124.239	-176.123	0.288	0.007
-123.224	800.000	-0.063	-0.240
