DTS Sentinel unit serial number:	SN413079Multiplexer serial number:	ORYXHardware model number:	OX4-SRSoftware version number:	ORYX F/W v4.00 Oryx Data Collector v3.7.2.0data status	okinstallation	princeton_trtdifferential loss correction	single-endedforward channel	channel 3reverse channel	N/Adate	2019/09/11time	04:18:11forward acquisition time	60.00reverse acquisition time	0.00gamma	496.2192k internal	0.2330k external	0.2330temperature offset calibration	0.9914default loss term (dB/km)	0.3790temperature slope calibration	1.0000multiplexer offset coefficient	1.0000multiplexer slope coefficient	1.0000fibre end	0.00T internal ref (°C)	29.56T ext. ref 1 (°C)	-0.27T ext. ref 2 (°C)	23.37length (m)	temperature (°C)	Stokes	anti-Stokes-747.200	-133.763	-0.150	0.019
-746.185	26.819	0.159	0.134
-745.171	62.832	-0.055	0.056
-744.156	800.000	-0.031	0.097
-743.142	174.872	0.070	-0.102
-742.127	-200.000	-0.057	-0.300
-741.112	-143.075	0.139	-0.014
-740.098	439.687	0.126	0.276
-739.083	131.228	0.172	-0.223
-738.069	-200.000	0.000	-0.085
-737.054	7.726	0.221	0.167
-736.039	-181.210	-0.354	0.007
-735.025	-128.936	0.375	-0.053
-734.010	-200.000	-0.019	-0.129
-732.996	-59.004	-0.444	-0.193
-731.981	-14.960	-0.424	0.274
-730.966	800.000	0.064	-0.198
-729.952	-200.000	-0.012	-0.098
-728.937	-50.630	0.267	0.127
-727.923	270.708	0.195	0.346
-726.908	-14.680	-0.246	-0.159
-725.894	739.156	-0.213	-0.574
-724.879	-200.000	0.078	-0.349
-723.864	-129.927	-0.195	0.027
-722.850	152.826	0.146	0.201
-721.835	800.000	-0.045	0.170
-720.821	-200.000	-0.030	0.277
-719.806	113.525	0.077	-0.094
-718.791	800.000	0.039	0.162
-717.777	800.000	-0.033	-0.114
-716.762	114.708	-0.221	-0.271
-715.748	326.650	0.047	-0.090
-714.733	204.532	-0.111	-0.173
-713.718	-200.000	0.012	-0.408
-712.704	-98.644	-0.332	-0.085
-711.689	-93.082	0.095	0.027
-710.675	17.137	0.330	0.263
-709.660	288.919	-0.125	-0.228
-708.645	-120.295	-0.066	-0.011
-707.631	249.127	0.070	0.120
-706.616	17.344	0.120	-0.095
-705.602	800.000	-0.067	-0.273
-704.587	249.875	-0.055	0.094
-703.572	286.946	-0.140	-0.254
-702.558	41.435	0.262	-0.238
-701.543	-60.826	0.160	-0.068
-700.529	12.208	-0.182	0.141
-699.514	-27.786	0.384	-0.224
-698.499	-200.000	-0.051	-0.251
-697.485	-200.000	0.044	-0.303
-696.470	-64.940	0.117	-0.048
-695.456	-62.957	-0.219	-0.091
-694.441	43.634	0.093	-0.086
-693.426	-37.426	-0.175	-0.094
-692.412	-11.047	0.104	0.069
-691.397	297.151	0.158	-0.291
-690.383	-78.209	0.037	-0.013
-689.368	43.101	0.122	0.112
-688.354	800.000	-0.209	0.625
-687.339	798.568	-0.136	-0.377
-686.324	663.914	-0.063	-0.163
-685.310	320.721	-0.101	-0.193
-684.295	800.000	-0.034	-0.131
-683.281	608.997	-0.045	-0.113
-682.266	-78.585	-0.435	0.149
-681.251	-200.000	-0.041	-0.393
-680.237	-152.254	-0.309	-0.022
-679.222	-163.873	0.153	-0.007
-678.208	-114.517	0.201	0.039
-677.193	218.073	0.164	-0.263
-676.178	-81.580	-0.075	-0.025
-675.164	12.068	-0.158	0.122
-674.149	-198.034	-0.256	-0.002
-673.135	-200.000	0.038	-0.336
-672.120	-117.922	-0.160	-0.029
-671.105	186.797	-0.145	-0.216
-670.091	-165.913	-0.232	-0.010
-669.076	146.421	0.093	0.126
-668.062	-150.237	-0.094	-0.007
-667.047	-93.332	0.051	-0.014
-666.032	800.000	-0.110	0.309
-665.018	-66.543	0.199	0.079
-664.003	-97.519	0.231	0.060
-662.989	104.570	-0.209	-0.247
-661.974	29.992	-0.188	-0.160
-660.959	307.289	0.030	0.057
-659.945	155.871	-0.234	-0.324
-658.930	-118.682	-0.091	-0.016
-657.916	224.896	0.255	-0.415
-656.901	-200.000	-0.015	-0.155
-655.886	-33.510	-0.019	-0.010
-654.872	-117.185	0.145	0.027
-653.857	-181.509	-0.404	-0.008
-652.843	460.433	0.099	0.222
-651.828	112.601	-0.289	-0.352
-650.814	-87.201	0.283	0.086
-649.799	-65.210	-0.337	-0.136
-648.784	-104.989	0.154	-0.035
-647.770	800.000	-0.035	0.115
-646.755	-200.000	0.009	0.062
-645.741	55.105	0.359	-0.348
-644.726	-200.000	0.038	-0.179
-643.711	-70.252	0.158	0.060
-642.697	-124.894	0.290	-0.045
-641.682	-75.765	-0.297	-0.105
-640.668	-200.000	-0.022	0.149
-639.653	230.375	-0.123	-0.202
-638.638	354.418	-0.046	-0.091
-637.624	321.268	0.133	-0.253
-636.609	-200.000	0.026	-0.286
-635.595	70.837	0.250	-0.260
-634.580	-55.859	-0.308	-0.138
-633.565	-57.234	-0.187	0.083
-632.551	-29.531	-0.304	-0.174
-631.536	96.420	-0.269	-0.308
-630.522	-200.000	0.010	-0.174
-629.507	39.606	0.285	-0.256
-628.492	-11.883	-0.141	-0.093
-627.478	66.876	-0.209	0.213
-626.463	92.885	-0.179	0.202
-625.449	23.360	0.252	0.207
-624.434	-200.000	0.026	-0.185
-623.419	-152.932	0.211	0.015
-622.405	106.685	0.153	-0.182
-621.390	-145.049	-0.171	-0.016
-620.376	287.432	-0.229	0.414
-619.361	-200.000	0.030	-0.334
-618.346	-37.250	-0.303	-0.162
-617.332	63.940	-0.223	0.224
-616.317	-75.559	0.367	0.131
-615.303	-185.996	0.077	0.001
-614.288	133.005	0.091	0.118
-613.273	-96.922	-0.196	-0.052
-612.259	-164.536	0.159	0.007
-611.244	-200.000	-0.033	0.199
-610.230	20.250	-0.165	0.134
-609.215	-200.000	0.029	0.128
-608.201	732.906	0.110	-0.295
-607.186	689.818	0.073	0.192
-606.171	30.109	0.191	0.163
-605.157	-52.208	0.294	0.137
-604.142	-110.338	0.282	-0.059
-603.128	800.000	0.084	-0.235
-602.113	4.342	-0.217	-0.159
-601.098	-200.000	-0.012	-0.228
-600.084	800.000	0.067	-0.283
-599.069	-200.000	0.003	-0.377
-598.055	-200.000	0.037	0.329
-597.040	162.062	0.053	-0.074
-596.025	-164.449	0.184	0.008
-595.011	-200.000	0.011	-0.101
-593.996	521.339	-0.020	-0.048
-592.982	-200.000	-0.026	-0.262
-591.967	-101.143	-0.161	0.040
-590.952	-20.094	-0.147	-0.091
-589.938	-60.472	-0.220	0.093
-588.923	306.339	-0.134	-0.250
-587.909	283.916	0.065	0.118
-586.894	49.863	-0.251	-0.237
-585.879	359.663	0.104	-0.208
-584.865	-195.508	0.086	-0.001
-583.850	553.568	0.161	0.387
-582.836	612.189	0.122	0.306
-581.821	191.692	0.009	0.013
-580.806	173.907	-0.112	0.161
-579.792	69.045	-0.084	0.087
-578.777	587.199	-0.152	-0.375
-577.763	-200.000	0.026	-0.210
-576.748	106.357	-0.281	0.333
-575.733	169.312	0.190	0.271
-574.719	178.823	-0.235	-0.344
-573.704	3.822	-0.261	0.191
-572.690	-149.352	0.362	-0.029
-571.675	-200.000	0.000	0.067
-570.661	248.646	-0.286	-0.483
-569.646	-98.166	0.224	0.058
-568.631	-76.553	-0.120	0.042
-567.617	-200.000	-0.003	-0.162
-566.602	-138.014	0.209	0.023
-565.588	283.545	0.043	-0.077
-564.573	-54.470	0.051	0.023
-563.558	-17.618	0.467	0.294
-562.544	344.298	-0.031	0.061
-561.529	-200.000	-0.018	-0.281
-560.515	-200.000	-0.045	-0.317
-559.500	605.521	-0.055	0.138
-558.485	-200.000	0.013	-0.092
-557.471	-46.433	0.045	-0.022
-556.456	524.777	-0.102	-0.241
-555.442	-51.850	0.256	-0.119
-554.427	-172.286	-0.168	-0.005
-553.412	-200.000	0.017	-0.105
-552.398	800.000	-0.086	-0.303
-551.383	23.599	-0.212	-0.175
-550.369	-18.071	0.065	0.041
-549.354	185.812	0.142	-0.211
-548.339	-200.000	-0.025	0.212
-547.325	-81.980	-0.341	-0.111
-546.310	-18.988	0.221	0.137
-545.296	-200.000	-0.053	0.318
-544.281	-58.034	-0.398	-0.174
-543.266	-149.389	-0.184	-0.015
-542.252	2.718	-0.399	0.289
-541.237	46.347	0.229	0.212
-540.223	-140.145	0.036	-0.004
-539.208	-32.977	0.116	0.064
-538.193	53.372	-0.169	-0.162
-537.179	-67.364	-0.138	0.054
-536.164	-200.000	-0.017	0.217
-535.150	55.559	-0.220	0.213
-534.135	800.000	0.076	-0.247
-533.121	162.607	-0.023	-0.032
-532.106	-12.233	0.116	0.076
-531.091	-54.513	-0.202	0.091
-530.077	278.690	-0.229	0.408
-529.062	374.378	-0.125	-0.254
-528.048	50.262	0.012	-0.012
-527.033	-50.039	0.217	-0.103
-526.018	-67.180	0.180	-0.071
-525.004	432.041	0.121	-0.262
-523.989	442.395	-0.102	0.223
-522.975	100.123	0.105	-0.121
-521.960	5.276	-0.290	0.214
-520.945	-94.889	-0.203	0.055
-519.931	800.000	0.077	0.231
-518.916	103.179	0.154	0.180
-517.902	-0.869	0.276	-0.195
-516.887	666.512	0.036	-0.092
-515.872	8.342	-0.112	-0.084
-514.858	-177.259	-0.088	0.002
-513.843	121.921	0.095	-0.119
-512.829	-103.834	0.182	0.043
-511.814	269.358	0.133	0.232
-510.799	734.661	-0.095	-0.255
-509.785	-54.457	-0.256	0.116
-508.770	-123.777	0.358	0.056
-507.756	34.091	0.118	-0.102
-506.741	-62.160	0.296	0.123
-505.726	-200.000	0.000	-0.058
-504.712	-200.000	0.040	-0.198
-503.697	-168.132	0.183	0.007
-502.683	-200.000	-0.037	0.351
-501.668	-103.874	-0.351	0.082
-500.653	800.000	0.094	-0.397
-499.639	24.193	0.126	-0.104
-498.624	-200.000	-0.047	-0.371
-497.610	283.180	0.056	-0.100
-496.595	-109.798	0.183	-0.038
-495.581	800.000	0.014	0.043
-494.566	-139.688	-0.086	-0.009
-493.551	-200.000	-0.027	0.489
-492.537	52.068	0.232	0.220
-491.522	-114.541	0.208	0.040
-490.508	54.334	0.125	-0.120
-489.493	-113.073	0.189	-0.037
-488.478	-57.719	0.248	0.108
-487.464	-130.183	0.066	-0.009
-486.449	-30.750	0.169	0.095
-485.435	-200.000	0.004	-0.049
-484.420	663.806	0.026	-0.066
-483.405	800.000	0.066	0.185
-482.391	-200.000	-0.027	0.123
-481.376	101.454	0.029	0.034
-480.362	558.567	-0.097	-0.233
-479.347	-200.000	0.037	-0.203
-478.332	-200.000	-0.047	-0.265
-477.318	202.329	0.169	0.260
-476.303	562.583	-0.044	0.105
-475.289	76.731	-0.072	0.076
-474.274	68.123	-0.124	-0.126
-473.259	32.056	-0.148	0.127
-472.245	113.014	0.113	0.137
-471.230	393.385	-0.084	-0.174
-470.216	-200.000	-0.086	0.379
-469.201	-200.000	0.091	0.423
-468.186	-96.059	0.045	-0.012
-467.172	-114.230	-0.215	-0.041
-466.157	-136.443	0.334	-0.039
-465.143	800.000	-0.049	0.205
-464.128	51.494	-0.101	-0.095
-463.113	-27.679	0.317	0.183
-462.099	-138.735	-0.227	0.025
-461.084	-53.364	0.438	-0.200
-460.070	800.000	-0.070	-0.204
-459.055	112.343	0.261	-0.314
-458.040	-35.875	-0.270	0.146
-457.026	12.856	-0.202	-0.156
-456.011	-15.702	0.028	0.018
-454.997	-117.098	-0.093	-0.017
-453.982	-114.241	-0.087	-0.017
-452.968	252.838	0.077	-0.131
-451.953	40.396	-0.128	0.115
-450.938	800.000	0.114	-0.344
-449.924	-112.402	-0.069	0.014
-448.909	499.796	-0.024	0.055
-447.895	-59.605	0.084	0.036
-446.880	2.252	0.181	-0.130
-445.865	800.000	-0.090	-0.346
-444.851	-92.770	0.146	0.041
-443.836	-129.975	-0.140	0.019
-442.822	115.941	-0.116	-0.141
-441.807	-200.000	-0.038	0.370
-440.792	92.911	0.151	-0.170
-439.778	131.921	0.095	-0.122
-438.763	800.000	-0.021	-0.078
-437.749	-122.403	-0.309	-0.050
-436.734	50.699	0.164	-0.155
-435.719	-115.763	-0.306	0.057
-434.705	-200.000	-0.016	0.161
-433.690	56.659	-0.257	-0.249
-432.676	-200.000	0.036	0.320
-431.661	-85.585	-0.211	-0.065
-430.646	3.455	0.180	0.130
-429.632	-63.811	0.378	0.154
-428.617	-200.000	-0.026	0.227
-427.603	-200.000	0.029	-0.225
-426.588	98.413	-0.145	0.166
-425.573	24.686	-0.274	0.225
-424.559	412.853	0.183	0.386
-423.544	-75.784	0.133	-0.047
-422.530	-15.900	0.197	-0.124
-421.515	-18.311	-0.109	-0.068
-420.500	613.184	0.022	-0.055
-419.486	108.750	0.123	0.146
-418.471	142.270	0.114	0.150
-417.457	606.186	-0.047	0.117
-416.442	-5.303	-0.078	-0.054
-415.428	451.733	-0.051	-0.112
-414.413	37.695	0.207	0.183
-413.398	-200.000	-0.033	-0.368
-412.384	157.853	0.179	0.247
-411.369	43.451	0.182	0.165
-410.355	241.129	-0.134	0.222
-409.340	-93.131	0.268	-0.074
-408.325	-37.412	-0.213	0.113
-407.311	-200.000	-0.034	0.215
-406.296	383.948	0.077	0.157
-405.282	-114.432	0.140	0.027
-404.267	-200.000	-0.039	0.170
-403.252	356.970	0.111	0.220
-402.238	207.177	-0.016	-0.025
-401.223	-36.964	0.104	-0.055
-400.209	-108.942	-0.286	0.061
-399.194	46.464	-0.096	0.089
-398.179	-29.695	0.228	0.129
-397.165	-91.552	0.230	0.065
-396.150	35.284	0.159	-0.139
-395.136	-84.948	-0.185	0.058
-394.121	-78.955	-0.258	0.087
-393.106	-162.246	0.153	-0.008
-392.092	-107.962	-0.108	0.023
-391.077	82.044	-0.210	0.226
-390.063	128.390	-0.271	-0.342
-389.048	89.444	0.373	-0.413
-388.033	30.826	-0.055	-0.047
-387.019	403.543	0.039	0.081
-386.004	-200.000	0.023	0.132
-384.990	-107.282	-0.331	0.072
-383.975	-160.776	0.303	-0.016
-382.960	-36.661	-0.097	-0.052
-381.946	800.000	-0.027	-0.119
-380.931	-200.000	0.038	0.234
-379.917	29.000	-0.074	-0.062
-378.902	800.000	-0.087	-0.254
-377.888	-34.353	-0.218	0.119
-376.873	269.619	0.179	0.312
-375.858	139.780	0.204	-0.267
-374.844	61.793	-0.070	-0.069
-373.829	-200.000	0.073	-0.400
-372.815	800.000	-0.041	-0.157
-371.800	800.000	0.022	-0.088
-370.785	-200.000	-0.003	0.099
-369.771	203.946	-0.030	0.045
-368.756	-92.110	-0.150	-0.042
-367.742	-200.000	-0.374	0.002
-366.727	149.644	0.005	-0.007
-365.712	-81.097	0.377	0.124
-364.698	-34.626	-0.351	0.191
-363.683	128.965	-0.122	0.154
-362.669	-114.527	0.379	-0.072
-361.654	19.610	0.049	0.039
-360.639	-175.760	0.163	-0.004
-359.625	-159.168	-0.145	0.008
-358.610	-108.378	0.279	-0.060
-357.596	18.591	-0.181	0.143
-356.581	-61.584	0.276	0.115
-355.566	-84.698	0.416	0.130
-354.552	-200.000	-0.071	0.332
-353.537	-200.000	0.004	-0.059
-352.523	32.980	-0.086	0.074
-351.508	800.000	0.044	0.169
-350.493	-9.371	0.120	0.079
-349.479	800.000	0.048	0.203
-348.464	63.261	-0.059	-0.059
-347.450	-135.125	0.120	0.014
-346.435	8.968	-0.217	0.162
-345.420	-95.817	-0.214	-0.057
-344.406	-84.250	0.189	0.059
-343.391	-200.000	-0.028	-0.211
-342.377	-150.065	0.325	0.025
-341.362	-116.667	-0.401	-0.073
-340.348	-124.806	-0.104	-0.016
-339.333	116.478	0.270	0.328
-338.318	-11.849	-0.106	-0.069
-337.304	501.310	-0.127	0.291
-336.289	800.000	0.143	0.483
-335.275	404.722	-0.098	-0.206
-334.260	60.764	-0.204	-0.201
-333.245	800.000	-0.016	0.070
-332.231	-200.000	-0.004	0.076
-331.216	-108.062	0.037	0.008
-330.202	24.143	-0.232	-0.190
-329.187	-32.931	-0.431	0.237
-328.172	800.000	-0.088	0.295
-327.158	190.631	-0.075	0.112
-326.143	393.568	-0.093	-0.192
-325.129	800.000	0.093	-0.266
-324.114	-76.248	-0.208	0.073
-323.099	59.434	-0.094	0.092
-322.085	-13.201	0.100	0.064
-321.070	201.764	0.195	-0.297
-320.056	-61.429	0.057	0.024
-319.041	-82.911	0.297	0.095
-318.026	221.650	0.148	0.235
-317.012	-200.000	0.000	-0.072
-315.997	699.945	-0.017	-0.043
-314.983	-200.000	0.005	0.098
-313.968	259.028	0.031	0.052
-312.953	800.000	-0.097	-0.268
-311.939	272.629	0.154	0.268
-310.924	-112.879	0.212	-0.042
-309.910	-1.763	-0.073	-0.051
-308.895	800.000	0.088	0.257
-307.880	49.220	0.389	-0.362
-306.866	12.148	0.198	-0.151
-305.851	-200.000	-0.010	-0.319
-304.837	541.733	-0.116	-0.274
-303.822	-51.463	-0.206	0.095
-302.807	64.783	0.126	0.126
-301.793	-23.612	0.032	0.019
-300.778	47.472	-0.214	0.198
-299.764	-200.000	0.020	0.295
-298.749	485.731	0.145	0.327
-297.735	-94.842	0.192	-0.052
-296.720	800.000	0.046	-0.151
-295.705	64.327	0.153	-0.152
-294.691	-52.511	0.266	-0.122
-293.676	-19.148	0.090	-0.056
-292.662	-7.353	0.149	0.100
-291.647	800.000	0.118	-0.334
-290.632	-200.000	-0.036	-0.356
-289.618	-118.163	-0.228	0.040
-288.603	-150.430	-0.277	0.021
-287.589	-66.351	-0.204	-0.080
-286.574	-137.222	-0.246	0.028
-285.559	-92.645	0.118	-0.033
-284.545	-200.000	-0.023	0.271
-283.530	744.315	-0.072	0.192
-282.516	-88.719	-0.307	-0.090
-281.501	-96.097	0.247	-0.065
-280.486	-0.654	0.239	-0.168
-279.472	80.566	0.055	-0.058
-278.457	-87.404	-0.592	-0.177
-277.443	800.000	0.086	-0.323
-276.428	-200.000	0.011	-0.204
-275.413	-200.000	-0.078	0.442
-274.399	-169.640	0.291	-0.010
-273.384	-200.000	-0.010	0.235
-272.370	36.241	0.034	0.029
-271.355	127.410	-0.137	-0.172
-270.340	107.502	0.229	0.269
-269.326	53.362	0.118	-0.112
-268.311	-200.000	0.032	-0.171
-267.297	189.345	-0.046	-0.068
-266.282	-62.133	0.192	-0.079
-265.267	-200.000	0.026	0.126
-264.253	800.000	-0.053	0.215
-263.238	-121.521	0.255	-0.042
-262.224	150.982	0.112	0.150
-261.209	-109.637	-0.068	0.014
-260.195	-200.000	-0.009	0.253
-259.180	-51.981	-0.396	-0.182
-258.165	-142.125	0.245	0.024
-257.151	-113.072	-0.410	0.080
-256.136	118.383	-0.181	-0.221
-255.122	-149.216	-0.323	0.025
-254.107	-105.228	-0.092	0.021
-253.092	-200.000	0.054	-0.288
-252.078	109.548	0.178	0.210
-251.063	725.675	0.202	0.531
-250.049	320.375	-0.062	0.117
-249.034	-12.760	-0.188	0.121
-248.019	-53.302	0.108	0.049
-247.005	259.008	-0.087	-0.149
-245.990	-170.258	-0.325	-0.011
-244.976	290.613	-0.068	0.121
-243.961	295.327	0.061	-0.109
-242.946	100.832	-0.016	-0.018
-241.932	-200.000	-0.009	0.180
-240.917	-122.759	-0.553	-0.088
-239.903	-200.000	0.008	0.193
-238.888	436.583	0.075	0.161
-237.873	800.000	-0.018	-0.074
-236.859	-200.000	0.015	-0.097
-235.844	-199.360	-0.265	-0.001
-234.830	-177.860	0.167	0.004
-233.815	-89.143	-0.138	0.040
-232.800	-30.112	-0.219	-0.123
-231.786	84.192	-0.192	0.208
-230.771	137.669	0.025	-0.032
-229.757	-38.709	0.102	-0.053
-228.742	771.479	0.156	0.419
-227.727	69.028	-0.136	0.138
-226.713	-27.862	-0.272	0.155
-225.698	-200.000	-0.018	-0.176
-224.684	18.385	0.075	-0.059
-223.669	422.926	0.164	-0.347
-222.655	55.804	0.225	0.215
-221.640	-62.169	-0.155	-0.064
-220.625	-52.408	-0.150	-0.069
-219.611	-200.000	-0.066	0.324
-218.596	-200.000	0.034	0.182
-217.582	-136.194	-0.153	-0.018
-216.567	-31.140	0.186	0.103
-215.552	62.958	0.258	0.254
-214.538	-20.138	-0.166	-0.101
-213.523	-200.000	-0.015	0.000
-212.509	-117.846	-0.241	0.043
-211.494	237.324	-0.111	0.182
-210.479	-6.714	0.288	-0.193
-209.465	172.685	0.180	-0.255
-208.450	587.381	0.093	0.225
-207.436	207.034	-0.104	0.159
-206.421	-200.000	-0.030	0.372
-205.406	74.421	0.221	0.229
-204.392	-200.000	0.017	-0.303
-203.377	-1.488	0.189	0.132
-202.363	-19.183	-0.054	-0.033
-201.348	184.584	-0.153	-0.224
-200.333	172.534	0.153	0.216
-199.319	800.000	-0.103	0.285
-198.304	-200.000	-0.018	-0.313
-197.290	-49.469	0.067	0.032
-196.275	-53.030	-0.304	0.138
-195.260	-143.415	-0.152	-0.014
-194.246	172.789	0.052	-0.074
-193.231	-200.000	0.038	-0.177
-192.217	-136.309	0.189	-0.022
-191.202	407.819	0.064	0.133
-190.187	800.000	0.065	-0.205
-189.173	296.076	0.019	-0.034
-188.158	-126.201	0.110	0.016
-187.144	-19.101	0.026	-0.016
-186.129	-15.708	-0.044	-0.028
-185.114	-56.220	-0.339	-0.148
-184.100	60.233	-0.215	-0.210
-183.085	-35.442	0.170	-0.091
-182.071	-149.503	0.191	0.015
-181.056	253.660	-0.170	-0.286
-180.042	-38.410	-0.181	0.095
-179.027	-141.356	0.352	-0.035
-178.012	-11.401	-0.132	-0.086
-176.998	32.572	0.071	0.060
-175.983	-84.170	-0.307	-0.096
-174.969	3.378	-0.153	0.110
-173.954	192.648	0.250	-0.371
-172.939	-17.262	0.200	-0.124
-171.925	-75.237	-0.267	0.094
-170.910	-200.000	0.002	0.048
-169.896	21.663	-0.049	-0.039
-168.881	613.089	0.022	-0.053
-167.866	-103.304	-0.060	0.014
-166.852	125.078	0.187	0.232
-165.837	-110.287	0.202	-0.041
-164.823	-145.604	-0.164	-0.014
-163.808	-11.309	0.083	0.054
-162.793	-18.409	0.104	0.064
-161.779	-124.092	-0.137	0.021
-160.764	-138.330	0.058	0.006
-159.750	122.625	0.040	0.049
-158.735	800.000	-0.063	-0.193
-157.720	57.677	-0.100	-0.096
-156.706	258.914	0.134	-0.228
-155.691	35.997	-0.117	-0.101
-154.677	708.293	-0.078	0.204
-153.662	800.000	0.053	-0.199
-152.647	-200.000	-0.038	-0.288
-151.633	12.814	0.098	-0.074
-150.618	29.282	0.135	0.112
-149.604	800.000	0.058	-0.178
-148.589	14.427	0.191	0.146
-147.574	90.742	-0.074	0.082
-146.560	103.410	0.131	-0.151
-145.545	-200.000	-0.034	0.188
-144.531	28.762	0.169	-0.141
-143.516	-94.794	0.163	0.044
-142.502	43.817	0.141	-0.127
-141.487	223.334	-0.050	0.079
-140.472	-104.441	-0.133	0.030
-139.458	-47.879	-0.524	0.249
-138.443	771.972	0.127	0.340
-137.429	-57.059	0.084	-0.037
-136.414	-200.000	0.027	0.360
-135.399	79.345	0.183	0.193
-134.385	-200.000	0.031	0.299
-133.370	510.376	0.152	0.349
-132.356	-20.080	-0.282	0.171
-131.341	-115.230	-0.178	0.033
-130.326	-32.972	0.447	0.244
-129.312	108.024	0.054	-0.063
-128.297	-57.337	0.147	0.063
-127.283	-131.488	-0.165	-0.021
-126.268	-11.411	0.235	0.152
-125.253	-60.351	0.139	-0.058
-124.239	202.669	0.151	0.229
-123.224	-62.558	-0.225	-0.092
-122.210	-67.901	0.107	-0.041
-121.195	540.520	-0.101	0.235
