DTS Sentinel unit serial number:	SN413079Multiplexer serial number:	ORYXHardware model number:	OX4-SRSoftware version number:	ORYX F/W v4.00 Oryx Data Collector v3.7.2.0data status	okinstallation	princeton_trtdifferential loss correction	single-endedforward channel	channel 3reverse channel	N/Adate	2019/09/10time	20:46:11forward acquisition time	60.00reverse acquisition time	0.00gamma	496.2192k internal	0.2327k external	0.2327temperature offset calibration	0.9919default loss term (dB/km)	0.3790temperature slope calibration	1.0000multiplexer offset coefficient	1.0000multiplexer slope coefficient	1.0000fibre end	0.00T internal ref (°C)	31.81T ext. ref 1 (°C)	-0.32T ext. ref 2 (°C)	25.26length (m)	temperature (°C)	Stokes	anti-Stokes-747.200	106.827	0.145	0.174
-746.185	452.579	-0.053	-0.117
-745.171	-9.708	-0.206	-0.138
-744.156	-149.375	-0.300	-0.024
-743.142	-200.000	0.054	-0.330
-742.127	149.685	-0.150	-0.204
-741.112	-124.974	0.432	-0.067
-740.098	-200.000	-0.007	0.264
-739.083	-200.000	0.003	-0.139
-738.069	-103.114	0.244	-0.058
-737.054	82.363	-0.177	0.193
-736.039	576.199	-0.041	-0.100
-735.025	-46.915	0.193	0.095
-734.010	53.517	-0.072	0.070
-732.996	-22.523	0.108	-0.066
-731.981	-128.935	-0.289	0.041
-730.966	-100.308	-0.085	-0.021
-729.952	41.476	0.130	-0.118
-728.937	-79.365	-0.406	0.139
-727.923	255.793	-0.213	0.368
-726.908	102.770	-0.323	-0.381
-725.894	-72.236	0.022	0.008
-724.879	140.150	-0.145	0.193
-723.864	-110.061	-0.197	-0.042
-722.850	-200.000	-0.013	0.169
-721.835	-49.824	0.468	0.224
-720.821	179.405	-0.084	-0.124
-719.806	800.000	0.025	0.097
-718.791	265.219	-0.158	-0.278
-717.777	-200.000	-0.010	-0.070
-716.762	160.262	0.061	0.086
-715.748	48.101	0.248	0.233
-714.733	-70.422	0.147	0.056
-713.718	-200.000	-0.045	-0.389
-712.704	270.253	0.187	-0.332
-711.689	800.000	0.128	0.373
-710.675	33.622	-0.075	0.066
-709.660	13.143	0.128	-0.100
-708.645	259.596	-0.125	-0.217
-707.631	-9.602	0.202	0.136
-706.616	682.133	0.056	0.146
-705.602	-200.000	0.048	-0.273
-704.587	103.526	0.060	0.071
-703.572	-33.564	0.024	0.013
-702.558	40.804	-0.055	-0.050
-701.543	-115.174	-0.151	0.029
-700.529	-4.627	0.149	0.103
-699.514	-200.000	0.004	-0.130
-698.499	-29.889	0.257	0.147
-697.485	-200.000	-0.026	0.266
-696.470	102.764	0.225	-0.265
-695.456	662.531	0.108	0.280
-694.441	800.000	-0.131	-0.406
-693.426	-33.555	0.131	-0.073
-692.412	-200.000	-0.009	0.176
-691.397	115.320	0.231	-0.284
-690.383	-81.791	0.038	-0.013
-689.368	362.453	-0.066	-0.133
-688.354	-200.000	-0.062	0.329
-687.339	467.511	0.067	0.151
-686.324	-200.000	-0.006	-0.105
-685.310	800.000	0.020	-0.062
-684.295	-18.047	0.092	0.058
-683.281	136.802	-0.115	-0.151
-682.266	32.436	-0.102	0.089
-681.251	-200.000	-0.013	-0.065
-680.237	112.089	0.184	0.224
-679.222	-155.197	-0.204	-0.013
-678.208	-5.346	0.137	-0.094
-677.193	-200.000	0.022	-0.129
-676.178	-43.079	-0.238	-0.121
-675.164	-87.100	-0.112	-0.034
-674.149	800.000	-0.046	0.139
-673.135	800.000	-0.076	-0.268
-672.120	-35.769	-0.472	-0.257
-671.105	-121.010	-0.044	-0.007
-670.091	-171.758	0.047	0.002
-669.076	90.967	-0.093	0.105
-668.062	41.839	-0.176	-0.161
-667.047	-200.000	-0.005	0.086
-666.032	479.151	0.057	-0.130
-665.018	-14.975	0.549	0.353
-664.003	-200.000	-0.022	-0.223
-662.989	-177.293	-0.237	0.006
-661.974	546.319	0.227	-0.546
-660.959	757.957	0.041	-0.112
-659.945	-200.000	0.002	0.112
-658.930	180.847	-0.222	-0.328
-657.916	18.358	0.037	-0.030
-656.901	-10.072	0.137	0.092
-655.886	800.000	0.020	0.056
-654.872	800.000	-0.101	0.441
-653.857	23.813	0.185	0.153
-652.843	-119.153	0.244	0.043
-651.828	800.000	0.117	-0.329
-650.814	-95.010	-0.155	-0.042
-649.799	676.170	0.074	-0.193
-648.784	167.559	0.056	-0.080
-647.770	265.445	-0.048	-0.084
-646.755	-200.000	-0.010	0.085
-645.741	-113.105	-0.342	-0.068
-644.726	40.221	-0.163	-0.148
-643.711	-95.013	-0.190	-0.052
-642.697	-140.834	-0.044	0.005
-641.682	-200.000	0.034	-0.182
-640.668	-12.902	0.180	0.118
-639.653	-200.000	-0.011	-0.299
-638.638	28.377	-0.134	0.114
-637.624	208.068	0.171	-0.269
-636.609	164.779	-0.192	-0.272
-635.595	328.311	-0.082	-0.158
-634.580	-200.000	0.023	0.181
-633.565	800.000	-0.093	0.259
-632.551	-200.000	0.017	0.156
-631.536	-101.012	-0.066	0.016
-630.522	35.792	0.220	-0.194
-629.507	156.830	-0.144	-0.200
-628.492	436.242	0.088	-0.193
-627.478	-200.000	-0.018	-0.301
-626.463	-59.783	0.082	0.035
-625.449	72.127	0.113	-0.118
-624.434	-55.206	-0.222	-0.100
-623.419	-76.530	-0.304	0.107
-622.405	-200.000	0.041	-0.190
-621.390	-200.000	-0.028	0.199
-620.376	142.615	-0.022	0.030
-619.361	-114.343	0.231	-0.045
-618.346	34.899	-0.132	-0.116
-617.332	-111.119	-0.221	-0.045
-616.317	-86.507	0.282	-0.087
-615.303	-46.047	-0.155	0.077
-614.288	-39.390	-0.317	-0.167
-613.273	12.562	-0.165	0.128
-612.259	62.862	-0.177	-0.178
-611.244	167.370	0.150	-0.213
-610.230	547.855	-0.075	-0.180
-609.215	-200.000	0.002	0.079
-608.201	619.740	0.074	-0.186
-607.186	579.867	-0.143	-0.351
-606.171	-106.371	-0.122	-0.027
-605.157	-52.154	-0.151	-0.070
-604.142	-70.151	-0.186	-0.071
-603.128	800.000	0.088	0.290
-602.113	-75.918	-0.131	0.047
-601.098	-200.000	-0.050	-0.224
-600.084	50.613	0.055	-0.052
-599.069	-109.588	0.242	-0.051
-598.055	-92.138	-0.213	0.060
-597.040	321.022	0.061	-0.117
-596.025	-200.000	0.026	-0.153
-595.011	144.580	-0.059	-0.078
-593.996	38.540	-0.389	-0.348
-592.982	-3.198	-0.277	0.194
-591.967	800.000	-0.131	0.566
-590.952	-109.788	0.690	0.145
-589.938	360.410	-0.069	0.138
-588.923	-200.000	-0.006	0.190
-587.909	800.000	-0.045	-0.151
-586.894	31.210	0.206	-0.177
-585.879	31.875	0.040	-0.034
-584.865	-200.000	0.046	-0.221
-583.850	-1.973	-0.058	-0.041
-582.836	21.168	-0.215	-0.175
-581.821	800.000	-0.026	-0.102
-580.806	42.702	-0.107	-0.098
-579.792	800.000	0.120	0.336
-578.777	62.386	0.085	-0.085
-577.763	-200.000	-0.022	-0.191
-576.748	-148.195	0.361	-0.030
-575.733	607.440	-0.073	0.183
-574.719	-166.466	0.423	-0.018
-573.704	-156.848	-0.243	0.015
-572.690	-101.897	-0.241	-0.058
-571.675	75.379	0.062	0.065
-570.661	4.364	0.158	0.116
-569.646	-112.590	0.376	-0.075
-568.631	-56.491	0.238	-0.106
-567.617	800.000	-0.124	0.517
-566.602	-25.787	0.319	0.188
-565.588	800.000	-0.069	0.270
-564.573	582.383	0.120	0.294
-563.558	228.573	0.073	-0.120
-562.544	-103.312	0.130	-0.031
-561.529	-94.371	0.083	-0.023
-560.515	-107.488	-0.209	-0.046
-559.500	98.070	-0.149	-0.172
-558.485	187.429	-0.101	-0.151
-557.471	-85.606	0.323	0.101
-556.456	354.640	-0.154	0.307
-555.442	-33.217	0.191	0.106
-554.427	-16.514	-0.091	0.058
-553.412	800.000	-0.071	0.209
-552.398	-92.950	-0.431	-0.120
-551.383	296.512	-0.045	0.082
-550.369	-200.000	0.011	-0.294
-549.354	-102.935	-0.158	0.038
-548.339	-48.316	-0.483	-0.233
-547.325	-200.000	-0.066	-0.344
-546.310	7.464	0.326	0.244
-545.296	-83.924	0.199	-0.064
-544.281	-200.000	-0.060	0.326
-543.266	-159.895	0.450	-0.025
-542.252	-77.875	0.145	-0.050
-541.237	-200.000	-0.013	-0.095
-540.223	-133.103	0.134	-0.017
-539.208	800.000	0.102	0.358
-538.193	10.121	-0.221	0.168
-537.179	2.287	0.149	0.108
-536.164	67.246	0.232	-0.236
-535.150	800.000	0.151	-0.475
-534.135	117.680	0.083	-0.102
-533.121	345.612	0.026	-0.050
-532.106	-66.484	-0.089	0.035
-531.091	-83.337	-0.055	-0.018
-530.077	-160.760	0.321	0.017
-529.062	-77.650	-0.218	0.075
-528.048	-200.000	-0.067	0.312
-527.033	-31.328	-0.242	0.136
-526.018	-147.103	0.317	-0.027
-525.004	-9.741	-0.032	0.021
-523.989	-200.000	-0.022	0.298
-522.975	-128.667	0.326	-0.046
-521.960	-21.196	0.223	-0.137
-520.945	156.288	0.217	0.299
-519.931	107.253	0.290	-0.345
-518.916	800.000	0.100	0.301
-517.902	-25.225	-0.160	-0.095
-516.887	96.193	0.228	0.261
-515.872	-153.444	0.196	-0.014
-514.858	-75.634	0.228	0.081
-513.843	-122.818	0.136	-0.022
-512.829	134.436	-0.074	0.096
-511.814	217.349	-0.007	0.011
-510.799	-200.000	0.008	0.458
-509.785	1.270	0.087	-0.063
-508.770	126.808	0.070	0.089
-507.756	-52.401	0.196	0.090
-506.741	800.000	-0.043	0.131
-505.726	-53.553	-0.122	-0.056
-504.712	33.459	0.290	-0.251
-503.697	800.000	-0.028	0.111
-502.683	197.780	-0.089	-0.136
-501.668	-69.041	-0.332	0.128
-500.653	74.669	-0.149	0.156
-499.639	7.644	-0.175	-0.131
-498.624	103.922	-0.112	0.131
-497.610	-34.568	0.298	0.163
-496.595	-78.376	0.058	-0.020
-495.581	-51.634	0.143	0.067
-494.566	43.265	-0.159	-0.145
-493.551	-11.210	-0.022	-0.015
-492.537	207.842	-0.099	-0.154
-491.522	-200.000	-0.082	0.460
-490.508	60.280	-0.246	-0.243
-489.493	-200.000	-0.005	0.282
-488.478	-82.244	-0.238	0.078
-487.464	-92.522	0.411	-0.115
-486.449	-173.424	0.065	-0.002
-485.435	-12.505	0.280	-0.182
-484.420	800.000	-0.036	-0.122
-483.405	-117.804	0.101	0.018
-482.391	2.442	-0.036	0.026
-481.376	12.098	0.165	0.126
-480.362	621.316	0.143	-0.359
-479.347	159.391	-0.102	0.142
-478.332	-200.000	-0.062	-0.331
-477.318	-155.305	0.223	0.014
-476.303	-146.614	0.197	-0.017
-475.289	-91.318	-0.268	-0.077
-474.274	-32.857	-0.159	-0.088
-473.259	29.585	0.184	0.156
-472.245	-68.244	0.051	0.020
-471.230	123.194	-0.088	0.110
-470.216	117.826	-0.212	-0.260
-469.201	70.293	0.098	0.101
-468.186	-115.464	0.278	-0.052
-467.172	-160.720	-0.279	-0.015
-466.157	-153.233	0.299	0.021
-465.143	-10.032	0.158	-0.105
-464.128	-40.173	0.273	0.142
-463.113	-79.398	-0.167	0.056
-462.099	395.231	0.117	-0.244
-461.084	-21.169	0.138	-0.084
-460.070	-123.608	0.348	0.055
-459.055	800.000	-0.078	0.219
-458.040	-112.615	0.576	0.114
-457.026	-23.401	-0.294	-0.176
-456.011	136.517	0.045	0.059
-454.997	238.576	0.150	0.248
-453.982	-40.139	-0.279	0.145
-452.968	-200.000	0.023	0.131
-451.953	800.000	0.031	0.121
-450.938	800.000	-0.057	-0.178
-449.924	-129.667	0.257	-0.035
-448.909	199.920	0.119	-0.182
-447.895	-100.812	0.224	0.055
-446.880	800.000	0.099	-0.291
-445.865	449.823	0.088	-0.194
-444.851	617.498	-0.088	-0.220
-443.836	-5.009	-0.079	-0.054
-442.822	800.000	0.012	0.049
-441.807	-59.606	-0.219	-0.094
-440.792	-14.192	0.307	0.197
-439.778	-139.129	0.027	-0.003
-438.763	-175.075	-0.367	-0.010
-437.749	-131.129	0.151	-0.020
-436.734	-200.000	0.004	0.197
-435.719	-43.789	0.155	-0.078
-434.705	-72.367	-0.246	0.091
-433.690	800.000	-0.078	-0.283
-432.676	196.089	0.042	-0.064
-431.661	-87.743	0.162	-0.049
-430.646	-65.432	-0.104	-0.042
-429.632	-128.965	0.385	-0.054
-428.617	54.874	0.168	-0.162
-427.603	-86.106	0.033	-0.010
-426.588	-60.904	-0.179	-0.076
-425.573	-96.593	0.144	0.038
-424.559	-132.467	-0.077	0.010
-423.544	118.031	0.389	-0.477
-422.530	-200.000	0.058	-0.338
-421.515	-46.775	-0.154	0.075
-420.500	-200.000	0.014	0.137
-419.486	604.994	-0.031	-0.076
-418.471	441.412	0.030	-0.065
-417.457	-159.423	0.174	-0.010
-416.442	-64.333	0.080	0.032
-415.428	-91.245	0.393	0.112
-414.413	-149.130	-0.309	-0.025
-413.398	-22.847	-0.139	0.083
-412.384	1.442	-0.146	0.105
-411.369	-98.283	-0.354	-0.091
-410.355	119.137	-0.140	-0.172
-409.340	-30.183	-0.181	0.103
-408.325	40.390	-0.077	0.069
-407.311	-52.602	0.121	0.055
-406.296	3.480	-0.193	-0.140
-405.282	-94.321	-0.116	-0.031
-404.267	-161.318	0.395	0.020
-403.252	650.060	-0.097	-0.248
-402.238	-109.601	0.162	-0.034
-401.223	800.000	0.007	0.025
-400.209	291.183	-0.068	-0.124
-399.194	-78.837	-0.425	0.144
-398.179	-200.000	-0.031	0.252
-397.165	-169.861	-0.329	-0.012
-396.150	389.330	-0.098	0.202
-395.136	-200.000	-0.037	0.309
-394.121	-200.000	-0.002	0.303
-393.106	-200.000	-0.035	0.174
-392.092	-69.532	0.053	-0.020
-391.077	8.000	-0.323	-0.241
-390.063	346.632	-0.191	0.373
-389.048	-103.079	0.055	0.013
-388.033	521.713	0.179	0.419
-387.019	409.681	0.129	0.271
-386.004	625.367	0.023	0.059
-384.990	-40.520	0.094	-0.049
-383.975	-200.000	-0.020	-0.181
-382.960	-137.149	0.229	-0.026
-381.946	-93.668	-0.280	-0.077
-380.931	-32.809	-0.201	-0.111
-379.917	-200.000	-0.000	0.215
-378.902	238.882	-0.174	0.288
-377.888	-65.397	0.267	-0.107
-376.873	-200.000	0.028	-0.241
-375.858	-147.803	-0.156	-0.013
-374.844	80.307	0.233	0.250
-373.829	800.000	0.048	0.141
-372.815	197.109	-0.018	0.028
-371.800	-165.373	-0.104	-0.005
-370.785	273.813	-0.027	-0.047
-369.771	800.000	-0.070	-0.266
-368.756	-200.000	-0.009	0.266
-367.742	-57.993	0.192	-0.083
-366.727	413.984	-0.069	0.145
-365.712	445.382	-0.124	0.270
-364.698	62.244	0.008	0.008
-363.683	25.567	0.275	0.228
-362.669	530.173	-0.108	0.253
-361.654	-33.498	-0.143	-0.079
-360.639	-165.797	-0.178	-0.008
-359.625	-11.092	0.069	-0.045
-358.610	-2.751	0.219	-0.152
-357.596	239.006	-0.179	-0.295
-356.581	19.571	0.101	-0.081
-355.566	646.800	0.045	-0.113
-354.552	-200.000	-0.044	-0.232
-353.537	-200.000	0.019	0.227
-352.523	-200.000	-0.073	0.419
-351.508	-110.260	0.110	0.023
-350.493	-67.411	-0.149	0.058
-349.479	32.526	0.232	0.199
-348.464	-200.000	-0.069	0.664
-347.450	98.920	-0.051	0.058
-346.435	800.000	-0.087	-0.256
-345.420	-200.000	0.023	0.221
-344.406	-200.000	0.010	-0.053
-343.391	29.326	0.031	-0.026
-342.377	-99.185	-0.244	-0.061
-341.362	317.456	-0.095	0.179
-340.348	-118.200	0.063	0.011
-339.333	583.452	0.073	-0.178
-338.318	-25.756	0.151	0.088
-337.304	800.000	0.013	-0.053
-336.289	-200.000	-0.041	0.344
-335.275	-200.000	0.086	-0.559
-334.260	-39.542	-0.108	-0.056
-333.245	-89.841	-0.096	-0.028
-332.231	116.603	-0.100	0.122
-331.216	-24.230	0.210	0.124
-330.202	137.478	-0.161	0.209
-329.187	-81.471	-0.160	0.052
-328.172	90.744	-0.151	0.168
-327.158	96.728	0.181	0.205
-326.143	23.734	0.164	-0.134
-325.129	658.680	0.067	0.170
-324.114	-78.013	-0.160	0.055
-323.099	-15.544	0.124	-0.079
-322.085	6.179	0.164	-0.120
-321.070	-200.000	0.026	-0.123
-320.056	-116.043	-0.261	-0.048
-319.041	675.046	-0.160	-0.411
-318.026	-49.944	0.117	-0.055
-317.012	749.990	0.047	-0.126
-315.997	800.000	-0.066	-0.195
-314.983	-200.000	-0.081	-0.473
-313.968	-175.742	-0.232	0.006
-312.953	259.423	0.078	0.134
-311.939	-119.287	-0.061	-0.011
-310.924	-200.000	-0.006	0.064
-309.910	84.603	-0.147	-0.160
-308.895	-112.971	-0.145	0.028
-307.880	-138.838	0.312	-0.034
-306.866	125.475	-0.180	0.225
-305.851	-3.005	-0.034	0.024
-304.837	70.754	-0.125	-0.128
-303.822	115.054	0.167	-0.202
-302.807	-57.392	0.287	0.125
-301.793	554.799	0.105	-0.250
-300.778	99.785	-0.198	-0.227
-299.764	143.048	0.129	0.171
-298.749	318.708	-0.070	-0.131
-297.735	308.700	0.081	-0.150
-296.720	-200.000	0.004	0.063
-295.705	-200.000	0.028	-0.201
-294.691	495.515	-0.028	-0.064
-293.676	800.000	-0.014	0.050
-292.662	265.873	0.166	-0.287
-291.647	-200.000	-0.023	-0.163
-290.632	800.000	0.050	0.216
-289.618	74.392	-0.184	0.192
-288.603	269.554	-0.163	-0.283
-287.589	-200.000	-0.009	0.158
-286.574	-200.000	-0.011	0.178
-285.559	800.000	-0.034	0.099
-284.545	-43.311	0.296	-0.148
-283.530	4.236	0.207	0.150
-282.516	800.000	0.029	0.088
-281.501	-200.000	0.066	0.293
-280.486	441.188	-0.034	-0.074
-279.472	243.327	0.099	0.164
-278.457	-30.035	-0.352	0.198
-277.443	800.000	0.031	0.087
-276.428	47.821	0.119	-0.110
-275.413	710.699	-0.124	-0.326
-274.399	-80.134	-0.215	-0.071
-273.384	-113.691	0.020	0.004
-272.370	800.000	0.120	0.454
-271.355	123.186	0.140	-0.174
-270.340	-21.964	-0.070	0.042
-269.326	800.000	0.091	-0.349
-268.311	-79.268	0.310	-0.104
-267.297	42.895	-0.133	-0.120
-266.282	22.221	-0.098	0.079
-265.267	246.408	0.117	-0.195
-264.253	-200.000	0.039	-0.182
-263.238	-22.697	-0.164	0.098
-262.224	92.133	0.056	-0.062
-261.209	-81.970	0.206	-0.067
-260.195	-93.096	-0.178	-0.049
-259.180	800.000	0.065	0.186
-258.165	92.561	-0.166	0.185
-257.151	35.973	-0.234	0.204
-256.136	-147.903	-0.395	0.033
-255.122	20.271	-0.296	0.237
-254.107	-200.000	0.013	0.108
-253.092	12.366	0.099	-0.076
-252.078	82.361	-0.064	-0.069
-251.063	36.943	-0.102	-0.090
-250.049	195.775	0.075	0.113
-249.034	259.161	0.071	-0.120
-248.019	274.180	-0.201	0.352
-247.005	-13.687	-0.222	0.142
-245.990	-147.183	0.434	0.037
-244.976	556.218	-0.084	-0.200
-243.961	800.000	0.013	0.039
-242.946	-195.747	-0.256	-0.002
-241.932	28.254	-0.129	0.107
-240.917	800.000	-0.110	-0.348
-239.903	-17.301	-0.196	-0.122
-238.888	237.709	0.281	0.460
-237.873	-200.000	-0.021	0.115
-236.859	-200.000	0.034	-0.351
-235.844	148.475	0.103	0.137
-234.830	-139.215	0.305	-0.033
-233.815	402.505	0.057	-0.118
-232.800	68.958	0.180	0.183
-231.786	-200.000	-0.041	0.240
-230.771	-108.697	-0.059	0.013
-229.757	2.362	0.349	0.250
-228.742	-200.000	0.085	0.398
-227.727	-155.554	0.078	0.005
-226.713	16.178	0.210	-0.164
-225.698	219.237	-0.211	-0.333
-224.684	177.381	0.056	-0.080
-223.669	63.273	-0.080	-0.079
-222.655	-51.676	-0.211	0.097
-221.640	-170.271	-0.156	-0.005
-220.625	-92.025	-0.410	0.115
-219.611	56.420	-0.158	-0.151
-218.596	-161.997	-0.327	0.016
-217.582	-30.768	0.222	0.124
-216.567	-176.081	-0.315	-0.008
-215.552	-70.770	0.422	0.157
-214.538	-88.581	0.044	0.013
-213.523	152.398	0.097	0.130
-212.509	80.767	0.079	0.084
-211.494	-65.889	-0.148	0.058
-210.479	-200.000	-0.012	0.207
-209.465	-101.039	0.044	-0.011
-208.450	95.334	0.195	0.219
-207.436	-67.834	-0.374	-0.144
-206.421	-200.000	-0.037	-0.298
-205.406	-99.993	0.134	0.033
-204.392	5.029	0.094	-0.069
-203.377	160.684	-0.092	0.127
-202.363	79.076	-0.050	-0.053
-201.348	-60.820	0.076	-0.032
-200.333	-200.000	0.015	-0.074
-199.319	-148.828	0.123	-0.010
-198.304	157.042	-0.097	-0.133
-197.290	-144.289	-0.154	0.014
-196.275	-200.000	-0.028	0.416
-195.260	-65.196	-0.090	-0.036
-194.246	-200.000	-0.019	-0.228
-193.231	-55.512	-0.159	-0.070
-192.217	-200.000	0.024	-0.143
-191.202	61.749	-0.171	0.168
-190.187	115.054	-0.147	-0.177
-189.173	-139.532	-0.195	-0.021
-188.158	-45.699	-0.253	0.123
-187.144	-200.000	-0.048	-0.260
-186.129	-61.969	0.181	0.075
-185.114	800.000	-0.088	-0.347
-184.100	15.528	-0.221	-0.171
-183.085	-200.000	-0.027	-0.119
-182.071	532.400	-0.113	-0.264
-181.056	66.993	0.222	0.224
-180.042	-200.000	0.002	-0.061
-179.027	-200.000	0.009	0.159
-178.012	-200.000	0.363	0.001
-176.998	-127.734	0.139	-0.020
-175.983	800.000	-0.086	0.239
-174.969	131.683	0.212	-0.269
-173.954	-200.000	0.040	-0.329
-172.939	-200.000	-0.024	0.136
-171.925	12.807	-0.161	0.122
-170.910	670.946	0.047	0.121
-169.896	350.173	-0.029	0.056
-168.881	800.000	0.174	-0.488
-167.866	800.000	0.035	0.127
-166.852	-63.385	-0.348	0.141
-165.837	264.131	-0.051	0.087
-164.823	138.096	-0.063	0.081
-163.808	714.760	0.051	-0.135
-162.793	-179.022	-0.344	0.008
-161.779	-200.000	-0.027	0.161
-160.764	800.000	0.039	-0.127
-159.750	-146.055	0.185	0.016
-158.735	-129.595	-0.343	-0.047
-157.720	-200.000	0.036	-0.345
-156.706	216.796	0.294	0.461
-155.691	59.566	0.070	0.068
-154.677	-200.000	0.012	-0.070
-153.662	72.822	0.142	0.146
-152.647	-14.137	-0.135	0.086
-151.633	-200.000	-0.011	0.049
-150.618	406.753	-0.179	0.372
-149.604	541.442	0.082	0.192
-148.589	365.126	-0.144	-0.285
-147.574	358.652	-0.069	0.136
-146.560	-200.000	0.043	-0.207
-145.545	83.790	-0.154	-0.165
-144.531	-147.594	0.216	-0.018
-143.516	81.976	-0.171	-0.183
-142.502	4.083	0.166	-0.120
-141.487	-200.000	0.016	0.111
-140.472	-60.003	-0.311	-0.131
-139.458	-127.917	0.290	-0.041
-138.443	-74.769	0.151	0.053
-137.429	173.644	0.287	-0.408
-136.414	-31.264	0.235	-0.130
-135.399	-160.136	-0.120	-0.006
-134.385	800.000	0.031	0.099
-133.370	-110.778	-0.289	0.059
-132.356	41.725	0.176	0.157
-131.341	-151.894	0.174	-0.012
-130.326	-200.000	-0.013	-0.194
-129.312	-93.504	0.050	-0.014
-128.297	89.855	0.139	0.153
-127.283	109.208	0.084	0.099
-126.268	-164.597	-0.174	-0.008
-125.253	-80.190	-0.112	0.037
-124.239	-119.624	-0.142	-0.024
-123.224	322.482	0.081	0.152
-122.210	800.000	0.029	-0.124
