DTS Sentinel unit serial number:	SN413079Multiplexer serial number:	ORYXHardware model number:	OX4-SRSoftware version number:	ORYX F/W v4.00 Oryx Data Collector v3.7.2.0data status	okinstallation	princeton_trtdifferential loss correction	single-endedforward channel	channel 3reverse channel	N/Adate	2019/09/11time	13:14:10forward acquisition time	60.00reverse acquisition time	0.00gamma	496.2192k internal	0.2294k external	0.2294temperature offset calibration	0.9973default loss term (dB/km)	0.3790temperature slope calibration	1.0000multiplexer offset coefficient	1.0000multiplexer slope coefficient	1.0000fibre end	0.00T internal ref (°C)	41.94T ext. ref 1 (°C)	0.77T ext. ref 2 (°C)	36.43length (m)	temperature (°C)	Stokes	anti-Stokes-747.200	-59.652	0.154	-0.068
-746.185	316.151	-0.249	0.480
-745.171	165.121	-0.049	-0.070
-744.156	-200.000	-0.050	0.246
-743.142	49.490	0.079	0.076
-742.127	-200.000	0.028	0.376
-741.112	-200.000	-0.012	0.074
-740.098	397.592	0.209	0.447
-739.083	193.284	0.170	-0.263
-738.069	82.373	-0.223	0.247
-737.054	-99.182	-0.416	-0.108
-736.039	800.000	-0.099	0.308
-735.025	800.000	-0.023	0.093
-734.010	-43.640	-0.265	-0.137
-732.996	800.000	-0.090	-0.358
-731.981	800.000	0.044	-0.188
-730.966	-110.843	-0.132	-0.028
-729.952	15.828	-0.228	0.183
-728.937	236.854	-0.143	-0.243
-727.923	-123.743	-0.266	-0.043
-726.908	-23.585	-0.328	0.201
-725.894	-115.666	-0.242	-0.046
-724.879	49.998	0.045	0.044
-723.864	-94.857	-0.121	0.034
-722.850	-114.278	-0.190	0.037
-721.835	-70.540	0.307	-0.119
-720.821	800.000	0.042	0.165
-719.806	-36.320	-0.288	0.159
-718.791	-200.000	-0.003	0.050
-717.777	-200.000	-0.023	-0.122
-716.762	-200.000	0.039	0.196
-715.748	193.890	-0.082	-0.127
-714.733	274.201	-0.144	0.260
-713.718	-45.395	-0.009	0.004
-712.704	-69.346	0.308	-0.121
-711.689	520.229	-0.070	-0.169
-710.675	454.556	0.153	-0.346
-709.660	180.671	0.108	0.162
-708.645	-160.004	-0.252	0.014
-707.631	35.830	0.207	0.186
-706.616	-43.256	-0.265	0.137
-705.602	-36.027	0.201	0.111
-704.587	123.455	-0.087	-0.111
-703.572	-200.000	-0.014	-0.094
-702.558	-47.015	0.085	-0.042
-701.543	-44.350	0.098	-0.050
-700.529	-33.200	0.308	0.174
-699.514	61.446	0.183	-0.185
-698.499	-52.760	-0.098	0.046
-697.485	-176.037	-0.317	0.009
-696.470	-104.023	-0.300	0.071
-695.456	-132.948	-0.069	0.009
-694.441	-54.642	-0.097	-0.045
-693.426	-200.000	-0.037	0.300
-692.412	-200.000	0.082	0.433
-691.397	-11.625	0.210	-0.141
-690.383	800.000	-0.102	-0.319
-689.368	-117.438	-0.538	-0.099
-688.354	-200.000	0.004	0.273
-687.339	-42.698	-0.489	0.254
-686.324	-127.008	0.250	0.037
-685.310	-133.892	-0.184	-0.023
-684.295	695.470	-0.045	0.121
-683.281	-200.000	-0.076	-0.352
-682.266	-5.641	-0.198	-0.139
-681.251	41.024	0.205	0.189
-680.237	-88.874	0.166	0.050
-679.222	167.259	-0.134	-0.194
-678.208	97.611	-0.209	0.246
-677.193	1.940	-0.213	0.157
-676.178	-105.165	-0.165	-0.039
-675.164	-118.406	0.200	0.036
-674.149	-200.000	0.003	0.054
-673.135	-180.898	0.293	0.006
-672.120	800.000	-0.034	-0.137
-671.105	-65.030	0.227	-0.093
-670.091	-128.425	0.153	-0.022
-669.076	268.220	0.069	-0.123
-668.062	135.074	-0.123	-0.163
-667.047	-151.651	0.115	-0.009
-666.032	800.000	0.069	0.243
-665.018	98.805	-0.033	0.038
-664.003	-1.673	0.230	0.165
-662.989	769.931	-0.094	0.262
-661.974	24.524	-0.050	-0.042
-660.959	-200.000	0.026	-0.256
-659.945	-112.650	0.077	0.016
-658.930	87.492	-0.064	-0.072
-657.916	396.795	0.107	0.227
-656.901	496.440	-0.027	-0.063
-655.886	-7.307	0.203	0.140
-654.872	17.666	0.151	-0.123
-653.857	-200.000	-0.004	0.258
-652.843	-44.324	-0.221	0.113
-651.828	800.000	-0.031	0.102
-650.814	-124.147	0.226	-0.036
-649.799	-200.000	-0.016	-0.149
-648.784	800.000	0.086	0.383
-647.770	-200.000	0.063	0.370
-646.755	-200.000	0.024	0.311
-645.741	758.694	-0.038	-0.105
-644.726	800.000	-0.059	-0.196
-643.711	-200.000	0.023	-0.250
-642.697	34.528	-0.052	0.047
-641.682	146.172	-0.163	-0.223
-640.668	46.385	0.099	-0.094
-639.653	-165.804	-0.274	-0.012
-638.638	-172.518	0.164	0.005
-637.624	-83.977	0.202	-0.066
-636.609	-111.023	-0.159	0.033
-635.595	-128.870	-0.184	0.026
-634.580	-61.311	-0.241	0.103
-633.565	-149.436	0.220	-0.018
-632.551	-37.193	0.096	0.052
-631.536	554.231	0.126	-0.309
-630.522	-56.210	0.229	0.104
-629.507	-137.144	0.305	-0.035
-628.492	254.769	0.142	0.248
-627.478	-91.867	0.145	0.042
-626.463	176.722	0.017	0.025
-625.449	-79.667	-0.216	0.074
-624.434	350.681	0.149	-0.299
-623.419	-142.740	0.160	-0.016
-622.405	-59.800	0.171	0.074
-621.390	247.040	-0.177	-0.305
-620.376	-200.000	0.031	-0.343
-619.361	77.284	0.249	-0.269
-618.346	800.000	0.035	0.144
-617.332	10.130	-0.314	0.243
-616.317	-63.525	-0.341	-0.143
-615.303	-15.751	0.166	-0.107
-614.288	-200.000	0.018	0.179
-613.273	-200.000	0.032	0.252
-612.259	384.332	-0.057	-0.119
-611.244	75.998	-0.286	0.308
-610.230	22.127	-0.325	0.270
-609.215	16.101	-0.259	0.208
-608.201	-136.349	0.050	0.006
-607.186	-200.000	-0.009	0.215
-606.171	-200.000	-0.041	-0.204
-605.157	-71.457	0.128	0.049
-604.142	-142.864	-0.055	0.005
-603.128	-27.603	-0.042	0.025
-602.113	682.750	-0.093	0.248
-601.098	-150.768	0.240	-0.019
-600.084	154.241	-0.073	-0.102
-599.069	387.891	0.044	-0.092
-598.055	-65.406	-0.209	-0.086
-597.040	22.174	0.118	-0.098
-596.025	157.750	0.067	0.094
-595.011	-175.306	-0.165	-0.005
-593.996	443.466	0.127	-0.283
-592.982	-61.489	0.244	-0.104
-591.967	81.201	0.041	0.045
-590.952	-135.094	0.258	-0.032
-589.938	-33.632	-0.184	-0.103
-588.923	117.387	-0.082	0.102
-587.909	-161.572	-0.282	-0.015
-586.894	85.663	-0.188	-0.210
-585.879	34.135	-0.170	-0.150
-584.865	-161.659	-0.322	-0.017
-583.850	359.335	0.069	0.141
-582.836	-200.000	0.046	0.271
-581.821	800.000	0.046	-0.129
-580.806	69.311	-0.119	0.124
-579.792	800.000	-0.081	-0.267
-578.777	-38.069	0.116	0.063
-577.763	-200.000	0.038	-0.179
-576.748	-87.888	-0.084	-0.026
-575.733	-9.584	0.286	-0.194
-574.719	50.185	0.132	0.126
-573.704	-200.000	-0.040	-0.213
-572.690	63.361	-0.062	-0.063
-571.675	320.762	0.062	0.119
-570.661	296.281	-0.182	0.340
-569.646	698.649	-0.058	0.156
-568.631	289.025	0.153	-0.281
-567.617	736.237	0.099	-0.268
-566.602	-149.859	0.156	0.012
-565.588	-200.000	0.023	-0.318
-564.573	483.942	-0.110	-0.253
-563.558	87.629	0.050	-0.056
-562.544	-82.106	-0.174	-0.058
-561.529	-200.000	0.022	-0.137
-560.515	383.130	0.189	-0.394
-559.500	-33.095	0.067	-0.038
-558.485	92.428	-0.114	0.131
-557.471	119.442	-0.280	-0.352
-556.456	-4.075	-0.071	0.050
-555.442	96.535	0.082	-0.095
-554.427	-192.172	0.166	0.002
-553.412	775.943	-0.125	-0.346
-552.398	-200.000	-0.023	0.128
-551.383	800.000	0.070	-0.264
-550.369	-36.706	-0.133	0.073
-549.354	-86.765	-0.025	0.008
-548.339	800.000	-0.080	0.266
-547.325	-200.000	0.057	0.348
-546.310	-109.283	-0.259	-0.056
-545.296	-200.000	0.019	-0.178
-544.281	39.754	-0.284	-0.258
-543.266	-84.868	-0.110	0.035
-542.252	320.092	0.180	-0.348
-541.237	234.991	-0.251	-0.420
-540.223	485.789	-0.119	0.275
-539.208	-166.410	-0.236	0.010
-538.193	91.329	0.303	-0.345
-537.179	-109.380	0.133	0.029
-536.164	-149.763	-0.419	-0.033
-535.150	-48.525	0.273	-0.133
-534.135	86.593	-0.086	0.096
-533.121	-75.819	0.498	-0.179
-532.106	-162.814	0.137	0.007
-531.091	203.702	-0.076	-0.119
-530.077	122.666	-0.057	0.072
-529.062	800.000	-0.068	-0.232
-528.048	-98.528	-0.029	-0.008
-527.033	-128.250	0.222	-0.032
-526.018	42.715	0.186	0.172
-525.004	-200.000	0.028	0.213
-523.989	-104.380	-0.156	-0.037
-522.975	428.716	-0.035	-0.076
-521.960	13.428	0.386	0.303
-520.945	-200.000	0.050	0.282
-519.931	129.652	0.075	0.097
-518.916	111.444	-0.162	0.198
-517.902	-93.427	-0.242	0.068
-516.887	-38.678	0.289	0.155
-515.872	56.479	-0.202	0.199
-514.858	-17.732	0.293	0.186
-513.843	107.584	-0.294	-0.355
-512.829	-200.000	0.018	-0.263
-511.814	-128.896	0.148	-0.021
-510.799	140.632	0.116	-0.155
-509.785	266.936	-0.043	0.075
-508.770	-186.341	0.119	0.002
-507.756	-200.000	-0.038	-0.187
-506.741	-12.717	0.039	-0.026
-505.726	150.431	0.122	0.168
-504.712	-61.808	0.078	0.033
-503.697	800.000	-0.123	-0.364
-502.683	-4.473	-0.146	-0.102
-501.668	-78.897	-0.085	-0.029
-500.653	231.159	-0.061	-0.101
-499.639	706.070	-0.020	0.054
-498.624	-11.293	-0.311	0.208
-497.610	447.250	0.042	-0.094
-496.595	292.979	0.117	-0.216
-495.581	79.872	0.195	-0.212
-494.566	-25.055	0.217	-0.131
-493.551	-200.000	0.006	-0.241
-492.537	-40.713	-0.134	-0.070
-491.522	-119.704	-0.298	0.052
-490.508	371.868	-0.064	0.132
-489.493	800.000	-0.057	0.204
-488.478	37.338	-0.200	-0.180
-487.464	185.308	-0.083	-0.125
-486.449	368.930	0.057	-0.117
-485.435	-47.172	-0.145	0.071
-484.420	-80.430	0.473	0.160
-483.405	-93.644	-0.498	-0.139
-482.391	323.030	0.051	-0.099
-481.376	-200.000	0.023	0.119
-480.362	6.470	-0.121	0.091
-479.347	800.000	-0.117	0.514
-478.332	-13.783	-0.236	0.155
-477.318	752.059	-0.060	-0.163
-476.303	53.406	0.053	0.051
-475.289	98.425	0.012	-0.014
-474.274	325.808	-0.126	0.244
-473.259	-82.691	-0.249	-0.082
-472.245	101.994	-0.277	-0.327
-471.230	155.300	0.186	-0.259
-470.216	13.160	0.131	0.103
-469.201	16.093	-0.039	0.031
-468.186	-64.328	0.342	0.141
-467.172	800.000	0.070	0.221
-466.157	-111.362	0.398	-0.082
-465.143	-28.852	-0.055	-0.032
-464.128	-76.916	0.119	0.042
-463.113	-95.643	0.130	0.035
-462.099	51.218	0.247	0.237
-461.084	99.130	-0.071	-0.083
-460.070	-107.636	-0.379	0.084
-459.055	184.683	-0.093	0.140
-458.040	53.339	-0.136	0.132
-457.026	-1.494	0.225	-0.161
-456.011	800.000	-0.115	-0.383
-454.997	-129.889	-0.357	0.049
-453.982	-111.534	-0.335	-0.069
-452.968	-200.000	0.027	-0.196
-451.953	-42.752	0.069	0.035
-450.938	-57.800	0.088	-0.039
-449.924	41.431	-0.144	-0.131
-448.909	-200.000	-0.034	0.380
-447.895	-200.000	-0.007	0.061
-446.880	32.955	0.057	0.050
-445.865	-48.969	0.112	0.054
-444.851	-165.613	-0.132	-0.006
-443.836	-200.000	-0.026	-0.119
-442.822	-129.555	-0.156	-0.022
-441.807	-0.272	-0.257	-0.185
-440.792	-200.000	-0.077	-0.482
-439.778	800.000	-0.044	-0.188
-438.763	800.000	0.027	-0.110
-437.749	21.883	0.119	0.098
-436.734	-94.972	0.228	-0.062
-435.719	800.000	-0.021	0.075
-434.705	-137.800	0.094	-0.011
-433.690	83.376	-0.032	-0.035
-432.676	-69.682	-0.198	0.076
-431.661	173.978	-0.116	0.169
-430.646	-7.538	-0.141	0.096
-429.632	568.982	0.099	0.244
-428.617	161.980	-0.156	-0.221
-427.603	800.000	0.131	0.415
-426.588	0.782	-0.299	0.216
-425.573	168.536	-0.179	0.257
-424.559	206.425	0.091	-0.144
-423.544	-200.000	0.008	0.191
-422.530	-36.168	-0.109	0.059
-421.515	-51.811	0.259	0.122
-420.500	-51.947	0.258	0.121
-419.486	800.000	-0.071	0.217
-418.471	601.451	0.074	-0.186
-417.457	755.226	-0.045	0.123
-416.442	-200.000	0.012	0.132
-415.428	-200.000	-0.036	0.172
-414.413	188.094	0.276	-0.416
-413.398	-102.671	-0.326	-0.079
-412.384	9.920	0.211	0.162
-411.369	132.998	-0.171	-0.222
-410.355	-40.242	-0.172	-0.090
-409.340	-107.718	0.230	-0.051
-408.325	37.542	-0.216	0.194
-407.311	-200.000	-0.017	-0.194
-406.296	-147.948	0.168	-0.014
-405.282	-25.928	0.263	-0.156
-404.267	-65.061	0.263	0.107
-403.252	685.828	0.069	-0.181
-402.238	-120.345	0.216	-0.037
-401.223	-70.853	-0.077	0.029
-400.209	-129.620	0.121	-0.017
-399.194	-200.000	-0.013	0.143
-398.179	507.901	0.030	-0.071
-397.165	800.000	0.068	0.240
-396.150	88.472	-0.045	-0.051
-395.136	-81.581	0.311	0.103
-394.121	-200.000	-0.000	-0.074
-393.106	65.804	-0.312	-0.319
-392.092	-1.681	0.146	-0.104
-391.077	301.652	0.099	-0.184
-390.063	-10.949	0.258	0.172
-389.048	-20.621	-0.190	-0.118
-388.033	800.000	0.078	-0.328
-387.019	800.000	0.053	-0.182
-386.004	-111.166	-0.433	-0.090
-384.990	-25.573	-0.171	-0.102
-383.975	-181.933	0.264	-0.005
-382.960	227.347	0.043	-0.071
-381.946	262.876	0.194	0.339
-380.931	373.804	-0.004	0.008
-379.917	125.272	0.240	0.305
-378.902	181.593	-0.103	0.153
-377.888	-77.888	-0.199	-0.069
-376.873	-200.000	0.028	0.326
-375.858	-139.534	-0.084	0.009
-374.844	-31.400	-0.267	-0.151
-373.829	-185.034	-0.216	-0.003
-372.815	-117.908	0.331	0.060
-371.800	-50.021	-0.252	0.121
-370.785	40.150	-0.121	-0.110
-369.771	-43.700	-0.195	-0.099
-368.756	-199.737	-0.108	0.001
-367.742	800.000	-0.056	0.189
-366.727	-172.849	0.259	0.008
-365.712	-77.000	0.271	-0.095
-364.698	800.000	0.074	0.253
-363.683	348.329	-0.156	0.310
-362.669	-61.742	0.214	0.091
-361.654	73.104	0.192	-0.203
-360.639	-180.006	-0.140	-0.003
-359.625	376.689	0.102	-0.210
-358.610	800.000	0.087	0.243
-357.596	-140.892	-0.207	0.021
-356.581	17.349	-0.027	0.021
-355.566	-149.638	0.093	-0.007
-354.552	63.245	-0.229	0.231
-353.537	-73.800	0.162	0.059
-352.523	800.000	-0.066	0.206
-351.508	20.285	-0.331	-0.269
-350.493	314.751	0.045	0.085
-349.479	-200.000	-0.054	0.434
-348.464	-200.000	0.005	-0.179
-347.450	387.865	-0.042	0.087
-346.435	375.160	0.144	0.296
-345.420	-122.835	0.345	0.056
-344.406	295.090	0.100	0.184
-343.391	134.910	-0.058	0.076
-342.377	-96.809	0.129	-0.034
-341.362	-200.000	0.039	0.180
-340.348	228.532	-0.063	0.104
-339.333	-200.000	-0.023	0.226
-338.318	-132.654	0.113	0.015
-337.304	-11.300	0.313	0.208
-336.289	-63.075	-0.273	-0.114
-335.275	181.101	0.075	0.110
-334.260	-164.673	0.079	-0.004
-333.245	-65.022	0.159	0.065
-332.231	11.380	-0.060	-0.046
-331.216	40.376	0.165	-0.149
-330.202	78.666	0.342	-0.368
-329.187	-0.253	-0.105	-0.075
-328.172	-67.340	-0.025	0.010
-327.158	168.284	0.226	0.323
-326.143	36.931	-0.026	-0.023
-325.129	-200.000	-0.005	-0.270
-324.114	-200.000	0.019	-0.500
-323.099	-34.156	0.170	0.094
-322.085	563.879	-0.077	0.189
-321.070	-200.000	-0.027	0.353
-320.056	-32.568	-0.164	0.092
-319.041	601.642	0.080	0.199
-318.026	53.077	0.377	-0.363
-317.012	-53.907	0.442	0.203
-315.997	-72.203	0.075	0.028
-314.983	-71.221	0.203	0.077
-313.968	312.005	0.126	0.238
-312.953	84.252	-0.122	-0.134
-311.939	800.000	-0.035	-0.097
-310.924	85.845	-0.247	0.273
-309.910	82.754	-0.184	0.201
-308.895	146.889	-0.197	0.267
-307.880	-200.000	-0.030	0.180
-306.866	140.346	-0.034	-0.045
-305.851	800.000	0.085	0.332
-304.837	800.000	0.021	-0.077
-303.822	-36.573	0.211	0.114
-302.807	-167.484	-0.132	0.005
-301.793	-63.809	-0.160	-0.066
-300.778	-81.988	0.180	-0.059
-299.764	-112.343	-0.141	0.028
-298.749	-21.007	-0.163	0.100
-297.735	145.038	-0.164	-0.221
-296.720	-200.000	0.023	0.421
-295.705	94.272	-0.123	0.140
-294.691	-200.000	0.021	-0.100
-293.676	-41.965	-0.279	0.144
-292.662	230.910	-0.092	-0.151
-291.647	121.063	0.100	0.125
-290.632	203.490	0.095	0.148
-289.618	29.511	0.180	0.154
-288.603	159.139	-0.197	0.275
-287.589	-99.174	0.314	0.080
-286.574	344.067	0.069	0.135
-285.559	-200.000	-0.028	-0.298
-284.545	111.861	-0.211	-0.255
-283.530	-59.932	-0.075	0.032
-282.516	581.351	0.022	0.055
-281.501	65.317	0.139	-0.141
-280.486	-71.953	0.145	-0.054
-279.472	800.000	0.047	-0.147
-278.457	374.439	0.154	0.316
-277.443	182.796	-0.230	0.341
-276.428	-200.000	-0.008	0.276
-275.413	197.385	0.080	-0.123
-274.399	273.580	0.036	0.064
-273.384	-141.551	-0.236	0.024
-272.370	-97.525	0.102	0.027
-271.355	-46.280	-0.406	-0.201
-270.340	518.673	0.052	-0.123
-269.326	-51.866	0.234	-0.110
-268.311	-200.000	-0.027	0.120
-267.297	800.000	0.053	-0.178
-266.282	293.714	-0.112	-0.205
-265.267	800.000	0.022	-0.069
-264.253	198.590	0.036	-0.056
-263.238	-200.000	0.005	0.161
-262.224	726.067	0.161	-0.432
-261.209	-43.865	-0.143	-0.072
-260.195	540.806	0.100	0.240
-259.180	312.816	-0.137	-0.259
-258.165	-125.862	-0.069	-0.010
-257.151	-150.321	-0.113	-0.009
-256.136	-131.141	0.423	-0.056
-255.122	-200.000	0.026	0.387
-254.107	94.776	-0.188	-0.214
-253.092	-37.286	0.143	-0.077
-252.078	800.000	0.038	0.150
-251.063	-116.213	-0.194	-0.036
-250.049	160.879	0.060	0.084
-249.034	24.606	-0.143	0.119
-248.019	95.265	0.116	-0.133
-247.005	311.926	-0.185	-0.349
-245.990	-40.520	-0.265	-0.138
-244.976	-105.786	0.222	-0.050
-243.961	800.000	-0.072	-0.225
-242.946	211.346	-0.155	-0.245
-241.932	44.886	0.252	-0.233
-240.917	-48.052	0.218	0.106
-239.903	727.039	-0.056	0.150
-238.888	88.315	-0.074	0.083
-237.873	-138.411	-0.282	-0.031
-236.859	800.000	0.055	0.171
-235.844	40.202	-0.276	-0.249
-234.830	383.198	0.161	0.331
-233.815	259.134	0.161	-0.279
-232.800	58.189	-0.195	0.192
-231.786	-24.235	-0.146	-0.087
-230.771	-200.000	0.041	0.408
-229.757	114.749	-0.042	-0.051
-228.742	800.000	0.030	0.101
-227.727	-83.187	0.105	-0.034
-226.713	404.892	0.122	-0.257
-225.698	-121.453	0.328	-0.055
-224.684	-98.955	-0.197	0.050
-223.669	-18.748	-0.176	-0.110
-222.655	-21.709	0.298	-0.182
-221.640	-88.116	-0.173	0.052
-220.625	194.096	-0.079	-0.120
-219.611	44.506	-0.240	0.221
-218.596	616.399	-0.160	0.401
-217.582	-124.800	0.057	-0.009
-216.567	168.173	0.043	0.061
-215.552	-89.388	-0.095	-0.028
-214.538	-110.751	0.263	-0.054
-213.523	-200.000	0.022	0.362
-212.509	-117.962	0.234	0.042
-211.494	49.473	-0.163	-0.154
-210.479	378.050	0.113	0.232
-209.465	115.731	0.116	-0.142
-208.450	32.922	-0.093	-0.081
-207.436	-200.000	-0.078	-0.441
-206.421	-200.000	0.101	-0.468
-205.406	800.000	-0.026	-0.079
-204.392	265.782	-0.073	0.128
-203.377	-71.551	0.243	0.091
-202.363	-13.464	-0.040	0.026
-201.348	-200.000	0.046	-0.213
-200.333	116.759	-0.168	0.206
-199.319	-116.427	0.196	0.036
-198.304	-200.000	-0.007	-0.134
-197.290	-200.000	-0.018	-0.193
-196.275	4.560	-0.197	0.145
-195.260	-108.364	0.235	0.051
-194.246	-200.000	0.007	-0.239
-193.231	-74.258	0.320	0.116
-192.217	-91.978	-0.208	-0.059
-191.202	-50.895	0.222	-0.104
-190.187	-200.000	0.005	0.229
-189.173	-200.000	0.012	0.091
-188.158	62.810	0.228	-0.228
-187.144	800.000	0.123	-0.429
-186.129	-32.212	-0.264	-0.148
-185.114	800.000	0.097	0.380
-184.100	387.857	0.185	0.383
-183.085	-200.000	0.000	0.075
-182.071	-17.917	-0.057	-0.036
-181.056	17.808	-0.191	-0.152
-180.042	18.702	-0.080	0.064
-179.027	-200.000	0.028	-0.223
-178.012	3.875	-0.312	-0.228
-176.998	-126.505	0.161	0.024
-175.983	-196.243	0.177	-0.001
-174.969	385.993	-0.031	0.064
-173.954	72.170	0.203	-0.211
-172.939	-85.629	0.251	-0.078
-171.925	-106.821	-0.233	-0.052
-170.910	-42.180	-0.456	0.233
-169.896	-200.000	-0.008	0.182
-168.881	-148.309	-0.272	0.022
-167.866	218.016	0.034	-0.054
-166.852	152.223	0.020	0.027
-165.837	-149.697	0.353	-0.028
-164.823	800.000	-0.038	0.107
-163.808	-200.000	0.009	0.338
-162.793	-200.000	-0.008	-0.146
-161.779	-200.000	-0.015	0.233
-160.764	113.321	0.127	-0.155
-159.750	-200.000	-0.002	-0.016
-158.735	-29.638	-0.242	0.138
-157.720	67.276	-0.091	0.093
-156.706	37.535	-0.051	-0.045
-155.691	497.183	0.051	0.118
-154.677	348.095	-0.047	0.093
-153.662	616.789	0.087	-0.219
-152.647	-129.063	0.341	-0.048
-151.633	-200.000	-0.005	0.111
-150.618	265.799	0.122	0.213
-149.604	-33.955	0.274	0.151
-148.589	-24.859	-0.236	0.140
-147.574	534.201	0.079	-0.187
-146.560	-57.761	0.040	-0.017
-145.545	88.954	0.129	0.143
-144.531	33.674	-0.042	0.037
-143.516	-200.000	0.023	0.107
-142.502	218.265	-0.046	0.073
-141.487	-200.000	0.027	0.202
-140.472	-99.760	0.127	0.032
-139.458	68.740	-0.147	0.150
-138.443	6.014	0.092	-0.068
-137.429	800.000	-0.112	0.362
-136.414	69.338	-0.180	0.185
-135.399	62.928	0.302	0.302
-134.385	-62.195	-0.163	0.068
-133.370	-40.957	0.354	0.183
-132.356	-79.969	-0.028	-0.010
-131.341	118.454	0.112	-0.138
-130.326	24.747	0.163	-0.135
-129.312	-42.566	-0.187	-0.095
-128.297	-200.000	-0.049	0.226
-127.283	-171.670	-0.192	0.006
-126.268	-200.000	-0.002	-0.078
-125.253	-138.064	-0.204	-0.023
-124.239	323.114	-0.066	-0.126
-123.224	-161.157	0.203	-0.011
-122.210	-105.259	0.231	0.053
-121.195	-200.000	-0.047	-0.356
