DTS Sentinel unit serial number:	SN413079Multiplexer serial number:	ORYXHardware model number:	OX4-SRSoftware version number:	ORYX F/W v4.00 Oryx Data Collector v3.7.2.0data status	okinstallation	princeton_trtdifferential loss correction	single-endedforward channel	channel 3reverse channel	N/Adate	2019/09/11time	13:54:11forward acquisition time	60.00reverse acquisition time	0.00gamma	496.2192k internal	0.2293k external	0.2293temperature offset calibration	0.9979default loss term (dB/km)	0.3790temperature slope calibration	1.0000multiplexer offset coefficient	1.0000multiplexer slope coefficient	1.0000fibre end	0.00T internal ref (°C)	41.87T ext. ref 1 (°C)	0.88T ext. ref 2 (°C)	36.26length (m)	temperature (°C)	Stokes	anti-Stokes-747.200	50.749	0.334	0.323
-746.185	-200.000	0.026	0.226
-745.171	800.000	-0.085	-0.265
-744.156	49.530	0.264	0.254
-743.142	100.622	0.201	0.239
-742.127	-200.000	-0.072	0.477
-741.112	286.899	0.122	-0.225
-740.098	-200.000	0.008	0.122
-739.083	-200.000	0.005	0.126
-738.069	-17.663	0.309	0.199
-737.054	-29.873	0.167	-0.097
-736.039	23.224	-0.281	-0.236
-735.025	-33.008	0.352	-0.200
-734.010	-17.238	0.263	0.169
-732.996	467.800	-0.137	-0.314
-731.981	404.450	-0.139	0.300
-730.966	-78.365	0.208	0.073
-729.952	-86.973	-0.289	0.090
-728.937	747.492	0.124	-0.341
-727.923	37.867	-0.210	0.191
-726.908	-0.100	0.096	0.070
-725.894	-166.943	-0.247	0.010
-724.879	-200.000	-0.034	0.314
-723.864	-96.346	-0.319	0.086
-722.850	-130.773	-0.179	-0.025
-721.835	-131.559	0.159	-0.021
-720.821	-98.605	0.172	0.045
-719.806	-200.000	-0.007	-0.383
-718.791	54.032	-0.017	-0.017
-717.777	739.296	0.051	0.139
-716.762	-200.000	0.040	-0.354
-715.748	-63.023	0.247	0.104
-714.733	180.300	-0.180	-0.270
-713.718	40.718	-0.114	0.105
-712.704	800.000	0.101	0.365
-711.689	800.000	-0.105	0.337
-710.675	-87.610	-0.307	0.095
-709.660	800.000	-0.032	0.120
-708.645	-131.148	0.034	-0.005
-707.631	-200.000	0.014	-0.128
-706.616	-200.000	-0.045	-0.415
-705.602	-120.364	-0.443	0.077
-704.587	-12.338	-0.124	0.083
-703.572	-200.000	-0.024	-0.182
-702.558	76.298	0.169	-0.183
-701.543	-45.379	-0.222	-0.112
-700.529	133.394	-0.262	0.346
-699.514	-200.000	0.034	0.246
-698.499	32.488	0.166	-0.146
-697.485	-58.389	0.380	0.169
-696.470	37.251	0.218	0.197
-695.456	-200.000	0.019	-0.262
-694.441	415.577	0.134	0.292
-693.426	-70.584	-0.311	0.120
-692.412	-12.148	0.255	0.171
-691.397	186.033	0.208	0.316
-690.383	541.370	-0.103	-0.250
-689.368	-43.983	-0.146	-0.075
-688.354	-47.279	-0.351	0.174
-687.339	48.926	-0.058	0.055
-686.324	81.073	0.138	0.152
-685.310	-65.851	-0.400	0.163
-684.295	800.000	0.027	-0.085
-683.281	-200.000	-0.002	-0.101
-682.266	-200.000	0.033	-0.279
-681.251	694.476	0.122	-0.327
-680.237	-200.000	0.067	-0.422
-679.222	-33.045	-0.076	0.043
-678.208	-200.000	-0.024	0.402
-677.193	-200.000	0.024	-0.112
-676.178	323.359	-0.136	-0.264
-675.164	-44.804	0.089	-0.045
-674.149	-111.716	-0.167	-0.035
-673.135	-119.748	-0.045	0.008
-672.120	-200.000	-0.065	-0.357
-671.105	-102.416	-0.162	-0.040
-670.091	154.986	0.077	-0.108
-669.076	192.787	-0.025	-0.039
-668.062	-5.116	-0.194	0.136
-667.047	-200.000	0.013	0.264
-666.032	-25.553	0.027	0.016
-665.018	108.168	0.134	0.163
-664.003	-124.583	-0.264	-0.042
-662.989	-154.187	0.081	0.006
-661.974	-200.000	-0.034	0.358
-660.959	333.539	0.072	0.142
-659.945	55.305	-0.400	0.395
-658.930	-200.000	0.016	0.186
-657.916	-200.000	0.000	0.126
-656.901	-176.194	-0.152	-0.004
-655.886	-86.750	-0.232	0.072
-654.872	-106.347	0.189	0.043
-653.857	-196.969	-0.392	-0.003
-652.843	316.590	0.090	-0.172
-651.828	-23.988	-0.182	-0.111
-650.814	169.028	0.113	-0.164
-649.799	-136.314	-0.181	-0.021
-648.784	-200.000	0.045	-0.237
-647.770	-95.395	-0.230	0.063
-646.755	251.574	-0.115	0.199
-645.741	800.000	0.063	0.182
-644.726	-46.063	-0.320	0.161
-643.711	800.000	-0.096	-0.273
-642.697	-93.159	0.150	-0.043
-641.682	119.670	0.304	0.384
-640.668	132.465	-0.130	-0.171
-639.653	-200.000	0.028	0.225
-638.638	-133.662	0.318	0.040
-637.624	735.071	0.070	-0.192
-636.609	-106.560	0.054	0.012
-635.595	117.429	-0.071	0.089
-634.580	171.824	-0.080	0.117
-633.565	-21.236	-0.189	-0.118
-632.551	28.103	0.122	0.105
-631.536	-156.056	-0.421	-0.027
-630.522	18.259	-0.124	-0.100
-629.507	162.604	-0.177	0.253
-628.492	147.049	0.155	0.212
-627.478	-118.305	-0.386	-0.070
-626.463	6.517	-0.502	-0.380
-625.449	-40.039	-0.032	-0.017
-624.434	800.000	-0.093	-0.316
-623.419	426.572	-0.057	-0.126
-622.405	370.634	0.065	-0.135
-621.390	800.000	0.128	-0.410
-620.376	800.000	0.113	-0.462
-619.361	-19.973	-0.161	-0.101
-618.346	-26.664	-0.142	-0.084
-617.332	169.703	-0.123	0.180
-616.317	-73.039	0.076	-0.028
-615.303	44.647	-0.074	-0.069
-614.288	52.579	0.063	-0.061
-613.273	-120.006	0.307	0.054
-612.259	22.682	-0.364	-0.303
-611.244	-200.000	0.042	-0.311
-610.230	-200.000	0.003	-0.375
-609.215	-157.857	-0.112	0.007
-608.201	121.020	0.172	0.218
-607.186	-21.908	0.205	-0.127
-606.171	-8.803	-0.299	-0.204
-605.157	331.611	0.014	-0.028
-604.142	-40.321	0.118	0.062
-603.128	-77.371	-0.265	-0.094
-602.113	-200.000	0.007	-0.035
-601.098	-97.675	0.604	0.159
-600.084	127.200	0.127	-0.164
-599.069	-145.013	-0.328	0.030
-598.055	594.439	-0.136	0.341
-597.040	-109.826	0.194	-0.042
-596.025	-76.539	0.037	-0.013
-595.011	-35.187	-0.093	0.052
-593.996	-200.000	0.006	-0.203
-592.982	208.574	-0.027	-0.044
-591.967	792.190	0.105	0.294
-590.952	408.966	-0.029	0.062
-589.938	-200.000	0.033	-0.224
-588.923	319.673	0.087	-0.168
-587.909	-200.000	0.016	-0.100
-586.894	-134.222	0.189	-0.024
-585.879	800.000	0.079	0.341
-584.865	131.936	-0.131	0.172
-583.850	-200.000	-0.014	-0.209
-582.836	-22.199	0.201	0.124
-581.821	197.914	0.138	0.214
-580.806	-200.000	-0.019	0.225
-579.792	123.530	-0.129	-0.165
-578.777	-83.856	-0.208	-0.067
-577.763	-89.696	-0.132	0.039
-576.748	1.486	0.035	-0.025
-575.733	-24.738	-0.271	-0.164
-574.719	-200.000	0.016	-0.285
-573.704	400.781	-0.033	-0.071
-572.690	-104.451	-0.146	-0.034
-571.675	800.000	-0.097	0.426
-570.661	-55.059	-0.316	-0.145
-569.646	-40.853	-0.063	-0.033
-568.631	389.254	0.018	-0.037
-567.617	-200.000	-0.013	-0.310
-566.602	800.000	0.061	-0.242
-565.588	70.656	0.118	0.124
-564.573	25.166	-0.235	0.199
-563.558	-39.919	-0.303	0.161
-562.544	164.607	-0.157	0.225
-561.529	-14.526	-0.353	-0.231
-560.515	295.644	-0.099	-0.185
-559.500	-87.793	0.156	0.048
-558.485	100.487	0.207	0.244
-557.471	800.000	0.031	0.124
-556.456	-63.594	0.075	-0.031
-555.442	-97.850	0.241	0.063
-554.427	74.609	0.179	0.191
-553.412	511.850	0.179	-0.423
-552.398	-200.000	-0.036	0.333
-551.383	-90.867	-0.208	0.061
-550.369	81.296	0.226	-0.248
-549.354	73.389	0.127	0.135
-548.339	595.445	0.049	-0.124
-547.325	-13.740	-0.326	-0.214
-546.310	535.317	0.141	-0.339
-545.296	-200.000	-0.030	0.270
-544.281	258.305	-0.035	-0.061
-543.266	78.059	-0.080	0.087
-542.252	-200.000	0.032	0.158
-541.237	71.993	-0.179	-0.189
-540.223	170.216	-0.084	0.123
-539.208	173.379	0.046	-0.068
-538.193	-137.078	0.217	-0.025
-537.179	293.993	0.190	0.353
-536.164	-105.982	0.234	0.053
-535.150	-40.851	-0.057	0.030
-534.135	116.201	-0.065	0.081
-533.121	230.485	0.119	-0.198
-532.106	-200.000	0.030	-0.243
-531.091	12.250	-0.269	-0.210
-530.077	-98.919	-0.163	0.042
-529.062	440.004	0.197	-0.436
-528.048	-81.852	-0.254	-0.084
-527.033	443.686	0.082	0.182
-526.018	143.512	-0.103	-0.139
-525.004	183.296	-0.127	0.191
-523.989	-29.333	-0.167	0.097
-522.975	116.928	0.104	0.130
-521.960	105.421	-0.068	0.082
-520.945	61.234	0.162	-0.163
-519.931	-200.000	-0.034	0.279
-518.916	-125.154	0.111	0.017
-517.902	91.802	0.264	-0.301
-516.887	-150.295	0.225	-0.018
-515.872	-34.511	-0.403	0.224
-514.858	-200.000	-0.041	0.192
-513.843	-200.000	0.031	-0.443
-512.829	-145.668	0.390	0.035
-511.814	259.164	0.090	-0.157
-510.799	-63.899	-0.214	0.089
-509.785	40.992	0.191	0.175
-508.770	-200.000	0.001	-0.410
-507.756	-200.000	0.017	-0.320
-506.741	229.103	0.032	-0.053
-505.726	800.000	0.048	0.200
-504.712	-118.178	0.134	-0.024
-503.697	-91.625	0.298	-0.086
-502.683	62.290	0.273	-0.276
-501.668	-177.380	0.229	-0.006
-500.653	-200.000	-0.025	0.274
-499.639	-84.155	-0.091	0.029
-498.624	34.843	0.163	0.144
-497.610	-28.226	0.296	-0.173
-496.595	176.780	-0.121	-0.178
-495.581	224.364	0.010	-0.017
-494.566	183.271	0.113	0.169
-493.551	413.106	0.080	-0.173
-492.537	61.048	-0.197	-0.198
-491.522	800.000	0.060	0.227
-490.508	-138.124	-0.236	0.027
-489.493	800.000	-0.103	0.408
-488.478	41.047	0.156	-0.143
-487.464	-200.000	0.016	-0.162
-486.449	800.000	0.107	0.322
-485.435	291.607	0.162	-0.298
-484.420	-156.680	0.239	0.015
-483.405	-83.817	0.272	-0.088
-482.391	-48.992	0.182	0.088
-481.376	-200.000	-0.010	0.294
-480.362	-69.788	0.077	-0.030
-479.347	-98.056	0.312	0.081
-478.332	-66.667	-0.290	0.116
-477.318	800.000	-0.033	-0.095
-476.303	-123.811	-0.180	0.029
-475.289	-30.545	0.049	-0.028
-474.274	800.000	-0.046	0.160
-473.259	-156.785	0.497	0.031
-472.245	-47.769	0.075	-0.037
-471.230	800.000	-0.069	-0.256
-470.216	105.587	-0.175	0.210
-469.201	137.298	-0.189	0.250
-468.186	219.248	0.209	0.339
-467.172	-89.210	-0.264	0.079
-466.157	675.584	-0.125	0.330
-465.143	-200.000	0.007	-0.288
-464.128	212.689	-0.166	-0.265
-463.113	-16.912	-0.278	0.178
-462.099	114.844	-0.193	-0.238
-461.084	287.704	0.109	-0.199
-460.070	-47.931	-0.054	0.027
-459.055	-121.761	-0.130	0.022
-458.040	574.472	0.056	-0.139
-457.026	-36.432	0.403	-0.220
-456.011	-109.041	-0.329	-0.071
-454.997	44.954	-0.199	-0.186
-453.982	-200.000	0.055	0.367
-452.968	165.426	-0.198	0.283
-451.953	800.000	-0.067	0.274
-450.938	-200.000	0.019	-0.247
-449.924	-51.456	0.395	0.186
-448.909	-3.188	-0.221	0.156
-447.895	-39.084	-0.131	0.070
-446.880	31.898	0.334	0.291
-445.865	800.000	-0.021	0.063
-444.851	-50.530	0.201	0.096
-443.836	-90.003	-0.257	0.076
-442.822	155.291	0.158	0.219
-441.807	-96.428	-0.089	-0.024
-440.792	800.000	0.111	0.319
-439.778	-4.814	0.106	0.074
-438.763	424.794	-0.134	-0.292
-437.749	-83.600	0.482	0.156
-436.734	-200.000	-0.015	0.145
-435.719	-71.484	-0.191	0.072
-434.705	-58.540	-0.042	-0.018
-433.690	-17.792	-0.187	-0.118
-432.676	-147.845	0.036	-0.003
-431.661	161.954	0.182	0.258
-430.646	19.587	0.373	-0.303
-429.632	-200.000	0.031	0.227
-428.617	800.000	-0.011	-0.036
-427.603	53.982	0.267	0.259
-426.588	49.828	-0.244	-0.233
-425.573	216.192	-0.055	0.088
-424.559	68.593	-0.172	0.178
-423.544	41.144	-0.183	-0.167
-422.530	29.633	0.144	-0.124
-421.515	800.000	0.049	0.140
-420.500	-56.450	0.153	0.069
-419.486	39.357	-0.200	-0.181
-418.471	355.529	-0.140	-0.280
-417.457	-19.705	-0.126	-0.079
-416.442	-171.812	0.124	0.004
-415.428	-111.252	0.052	0.011
-414.413	14.955	0.174	0.138
-413.398	402.270	0.108	0.230
-412.384	-71.540	0.313	-0.118
-411.369	-10.941	-0.056	0.037
-410.355	-200.000	-0.004	-0.082
-409.340	-200.000	-0.032	0.195
-408.325	-120.662	-0.239	-0.041
-407.311	-141.769	0.282	-0.029
-406.296	3.511	-0.104	0.077
-405.282	800.000	-0.005	-0.021
-404.267	-41.009	-0.170	0.088
-403.252	-138.692	-0.370	-0.041
-402.238	781.652	-0.072	0.199
-401.223	55.539	0.248	-0.242
-400.209	-19.962	-0.271	0.169
-399.194	-34.024	-0.127	0.070
-398.179	-200.000	0.004	0.249
-397.165	800.000	0.151	-0.512
-396.150	-81.920	0.030	0.010
-395.136	-163.819	0.122	0.006
-394.121	75.643	-0.122	0.130
-393.106	-22.227	-0.174	-0.106
-392.092	-72.519	0.114	-0.043
-391.077	69.791	0.244	-0.254
-390.063	800.000	0.041	-0.115
-389.048	64.727	0.188	0.191
-388.033	27.460	0.058	-0.049
-387.019	-17.147	0.097	0.061
-386.004	-76.706	0.176	-0.062
-384.990	169.325	-0.144	0.208
-383.975	-53.437	-0.231	0.107
-382.960	-60.368	0.122	0.053
-381.946	76.277	-0.111	0.119
-380.931	-0.911	-0.247	0.177
-379.917	-78.807	0.088	-0.030
-378.902	-22.983	0.169	-0.103
-377.888	-68.130	0.221	0.087
-376.873	39.601	0.314	0.284
-375.858	-1.780	-0.196	-0.139
-374.844	56.660	0.235	0.231
-373.829	281.552	0.052	-0.093
-372.815	-200.000	-0.000	-0.006
-371.800	273.312	0.080	0.143
-370.785	39.951	0.184	-0.166
-369.771	-200.000	0.003	0.044
-368.756	665.089	-0.074	0.193
-367.742	159.648	0.150	-0.210
-366.727	-167.841	-0.317	0.013
-365.712	26.707	-0.294	0.249
-364.698	-200.000	-0.003	0.030
-363.683	800.000	0.054	-0.153
-362.669	-200.000	-0.046	-0.336
-361.654	-74.410	-0.204	-0.074
-360.639	42.633	0.363	-0.333
-359.625	800.000	-0.078	-0.257
-358.610	-51.377	0.130	-0.061
-357.596	127.871	0.076	-0.097
-356.581	800.000	0.041	0.163
-355.566	5.564	0.003	0.002
-354.552	94.305	0.064	-0.073
-353.537	168.725	-0.170	0.245
-352.523	23.377	-0.209	0.173
-351.508	230.198	-0.157	0.258
-350.493	-84.974	-0.094	-0.030
-349.479	197.124	0.053	-0.082
-348.464	-200.000	-0.029	0.145
-347.450	-200.000	-0.015	-0.282
-346.435	-200.000	0.009	0.221
-345.420	-24.393	-0.237	0.142
-344.406	-153.795	0.356	0.025
-343.391	343.743	0.078	-0.154
-342.377	-200.000	-0.030	0.181
-341.362	-94.031	-0.314	-0.087
-340.348	-31.751	0.112	0.064
-339.333	-200.000	0.050	0.231
-338.318	-109.268	-0.080	-0.017
-337.304	16.066	0.173	0.137
-336.289	586.695	-0.079	0.196
-335.275	-200.000	0.039	-0.179
-334.260	-200.000	0.044	-0.282
-333.245	-105.311	-0.118	-0.027
-332.231	800.000	-0.050	0.168
-331.216	-24.087	-0.254	0.153
-330.202	-200.000	-0.034	0.173
-329.187	-47.220	-0.145	-0.071
-328.172	148.151	-0.072	0.098
-327.158	-200.000	-0.041	0.354
-326.143	-200.000	0.040	-0.341
-325.129	159.332	0.151	0.212
-324.114	-43.821	0.107	-0.054
-323.099	509.409	0.069	-0.162
-322.085	253.784	-0.118	0.202
-321.070	110.586	-0.040	-0.049
-320.056	-172.062	0.056	-0.002
-319.041	-151.348	0.223	0.017
-318.026	800.000	0.083	0.237
-317.012	-56.332	-0.085	-0.038
-315.997	-126.852	0.328	0.049
-314.983	-200.000	0.014	0.161
-313.968	-91.095	0.466	0.135
-312.953	269.952	0.287	-0.508
-311.939	-39.129	-0.128	-0.068
-310.924	1.740	-0.267	0.194
-309.910	108.875	-0.138	-0.166
-308.895	-119.683	0.123	-0.021
-307.880	-63.671	-0.224	-0.092
-306.866	-179.303	0.084	0.002
-305.851	112.583	0.091	-0.111
-304.837	-73.507	0.052	0.019
-303.822	-153.258	0.230	0.016
-302.807	-90.933	0.063	0.018
-301.793	617.919	0.031	-0.078
-300.778	195.832	0.044	-0.067
-299.764	-200.000	0.032	0.352
-298.749	-41.730	0.334	0.173
-297.735	800.000	0.072	0.247
-296.720	-127.117	0.168	0.025
-295.705	6.150	-0.122	-0.091
-294.691	-101.119	-0.015	-0.004
-293.676	-11.841	0.262	0.173
-292.662	151.787	0.183	-0.250
-291.647	-86.338	-0.111	-0.034
-290.632	-145.980	0.074	0.007
-289.618	-70.222	0.102	-0.039
-288.603	192.188	0.025	-0.038
-287.589	-127.017	0.391	-0.058
-286.574	-126.598	-0.061	-0.009
-285.559	-5.800	0.283	-0.195
-284.545	50.236	-0.032	-0.031
-283.530	71.783	-0.096	0.100
-282.516	-82.191	-0.235	0.077
-281.501	-54.557	0.288	-0.131
-280.486	-200.000	0.018	-0.141
-279.472	44.882	-0.187	-0.173
-278.457	-56.510	-0.242	0.108
-277.443	-23.858	0.311	-0.187
-276.428	254.380	0.105	0.180
-275.413	-200.000	-0.063	-0.421
-274.399	-24.555	0.469	-0.280
-273.384	-200.000	-0.044	0.233
-272.370	-191.366	0.065	-0.001
-271.355	-89.465	-0.163	-0.048
-270.340	278.781	-0.041	0.073
-269.326	-113.893	0.230	0.045
-268.311	-34.532	-0.118	-0.065
-267.297	-177.963	-0.190	0.005
-266.282	-20.850	-0.348	0.214
-265.267	716.224	0.059	0.156
-264.253	176.313	0.103	0.150
-263.238	11.652	-0.247	-0.191
-262.224	35.298	-0.314	-0.277
-261.209	-88.099	0.145	-0.044
-260.195	9.094	-0.171	0.129
-259.180	-86.304	-0.114	-0.035
-258.165	-46.465	-0.220	-0.108
-257.151	-79.906	0.209	0.070
-256.136	-200.000	-0.026	-0.358
-255.122	-183.267	-0.208	0.004
-254.107	4.063	0.274	0.201
-253.092	65.782	0.037	-0.037
-252.078	649.852	-0.075	0.194
-251.063	-46.315	0.138	-0.068
-250.049	-200.000	-0.045	0.334
-249.034	-200.000	-0.014	-0.085
-248.019	12.123	0.071	-0.055
-247.005	-134.170	0.298	-0.037
-245.990	800.000	-0.054	-0.225
-244.976	-166.233	0.050	-0.002
-243.961	-64.837	0.086	-0.035
-242.946	1.067	-0.090	-0.065
-241.932	50.051	-0.181	-0.172
-240.917	-200.000	0.034	-0.309
-239.903	249.781	0.122	0.207
-238.888	-144.965	-0.241	-0.022
-237.873	-200.000	0.012	-0.205
-236.859	-115.137	0.159	0.030
-235.844	200.732	0.069	-0.107
-234.830	-139.630	-0.260	-0.028
-233.815	280.372	-0.144	0.258
-232.800	-13.006	-0.158	-0.103
-231.786	800.000	-0.019	0.053
-230.771	468.697	-0.176	0.397
-229.757	48.163	0.215	0.201
-228.742	-71.332	0.229	0.086
-227.727	19.664	-0.151	0.122
-226.713	800.000	0.050	-0.164
-225.698	-200.000	-0.001	0.031
-224.684	55.883	-0.274	0.266
-223.669	-71.978	-0.240	-0.089
-222.655	-200.000	0.003	-0.080
-221.640	-194.677	0.161	0.001
-220.625	-200.000	0.010	-0.045
-219.611	-111.771	-0.312	0.063
-218.596	-20.344	-0.019	0.012
-217.582	-200.000	-0.003	-0.103
-216.567	-104.632	0.050	0.012
-215.552	-200.000	0.033	0.242
-214.538	-34.251	0.150	-0.083
-213.523	-200.000	0.001	-0.014
-212.509	-11.224	-0.099	-0.066
-211.494	-43.141	0.073	0.037
-210.479	-139.144	-0.365	0.039
-209.465	-200.000	-0.033	0.215
-208.450	25.445	-0.189	0.157
-207.436	189.650	0.111	0.166
-206.421	-200.000	0.042	0.273
-205.406	322.860	-0.053	0.101
-204.392	-200.000	-0.342	0.000
-203.377	-200.000	0.028	-0.345
-202.363	-64.910	-0.404	-0.163
-201.348	-54.214	-0.507	0.231
-200.333	800.000	0.052	0.174
-199.319	11.171	-0.058	-0.045
-198.304	115.779	-0.304	-0.373
-197.290	221.673	0.111	-0.179
-196.275	-200.000	0.025	0.286
-195.260	-200.000	0.000	-0.304
-194.246	779.457	-0.059	-0.161
-193.231	263.334	0.043	-0.074
-192.217	-25.756	0.040	0.023
-191.202	-17.910	0.378	-0.237
-190.187	49.634	0.080	-0.075
-189.173	-115.267	0.397	0.075
-188.158	-37.838	-0.013	-0.007
-187.144	589.047	0.066	-0.164
-186.129	-46.356	0.314	-0.154
-185.114	-93.242	0.290	0.081
-184.100	-20.606	0.416	-0.256
-183.085	-120.509	0.302	-0.051
-182.071	800.000	-0.041	-0.146
-181.056	-74.032	0.161	-0.058
-180.042	28.886	-0.183	-0.156
-179.027	800.000	-0.023	0.080
-178.012	-200.000	0.040	0.238
-176.998	-141.840	-0.253	0.025
-175.983	566.166	-0.052	-0.126
-174.969	54.580	-0.176	-0.170
-173.954	289.772	-0.031	0.056
-172.939	-95.440	-0.288	-0.077
-171.925	800.000	-0.066	-0.234
-170.910	-102.031	-0.391	0.094
-169.896	98.501	0.177	-0.204
-168.881	251.159	-0.020	-0.034
-167.866	-59.710	0.139	0.060
-166.852	-106.932	-0.436	0.096
-165.837	149.344	-0.158	0.215
-164.823	-71.986	0.109	0.041
-163.808	-37.536	-0.166	0.088
-162.793	422.737	0.108	0.232
-161.779	-52.117	-0.052	-0.024
-160.764	305.742	0.063	-0.117
-159.750	-148.563	-0.327	0.027
-158.735	9.977	-0.098	0.074
-157.720	116.054	-0.340	0.417
-156.706	65.046	0.399	0.403
-155.691	800.000	0.141	-0.428
-154.677	-113.826	0.032	0.006
-153.662	-101.398	-0.200	0.049
-152.647	-104.980	0.196	0.045
-151.633	278.381	-0.049	0.087
-150.618	-68.975	-0.120	-0.046
-149.604	583.901	-0.134	-0.329
-148.589	-152.305	0.059	0.004
-147.574	-200.000	-0.036	-0.249
-146.560	-191.285	-0.124	0.001
-145.545	375.069	0.057	-0.117
-144.531	-2.088	0.137	-0.096
-143.516	-200.000	-0.040	0.195
-142.502	-49.410	0.347	-0.166
-141.487	-200.000	-0.002	-0.170
-140.472	-133.294	-0.375	-0.047
-139.458	-99.570	-0.266	-0.067
-138.443	-115.173	0.172	-0.033
-137.429	-131.095	0.347	-0.046
-136.414	-113.262	0.101	0.020
-135.399	39.422	-0.155	-0.138
-134.385	65.904	0.115	0.117
-133.370	0.596	0.043	0.031
-132.356	652.378	0.087	-0.222
-131.341	606.248	0.144	-0.358
-130.326	207.616	0.104	-0.162
-129.312	125.550	-0.098	0.124
-128.297	-200.000	0.250	-0.000
-127.283	800.000	0.030	-0.114
-126.268	306.789	0.029	-0.054
-125.253	-83.986	0.126	-0.040
-124.239	216.761	-0.069	-0.109
-123.224	800.000	0.136	0.482
-122.210	800.000	0.060	0.224
-121.195	59.997	-0.211	0.208
