DTS Sentinel unit serial number:	SN413079Multiplexer serial number:	ORYXHardware model number:	OX4-SRSoftware version number:	ORYX F/W v4.00 Oryx Data Collector v3.7.2.0data status	okinstallation	princeton_trtdifferential loss correction	single-endedforward channel	channel 3reverse channel	N/Adate	2019/09/12time	05:30:11forward acquisition time	60.00reverse acquisition time	0.00gamma	496.2192k internal	0.2321k external	0.2321temperature offset calibration	1.0035default loss term (dB/km)	0.3790temperature slope calibration	1.0000multiplexer offset coefficient	1.0000multiplexer slope coefficient	1.0000fibre end	0.00T internal ref (°C)	31.94T ext. ref 1 (°C)	1.61T ext. ref 2 (°C)	27.42length (m)	temperature (°C)	Stokes	anti-Stokes-747.200	800.000	-0.097	0.297
-746.185	104.184	0.116	0.138
-745.171	29.498	-0.228	-0.196
-744.156	-145.436	-0.225	-0.020
-743.142	-95.380	0.246	0.067
-742.127	75.641	-0.214	0.229
-741.112	-94.207	-0.154	0.043
-740.098	213.800	-0.138	0.221
-739.083	800.000	0.023	-0.098
-738.069	136.732	-0.138	0.182
-737.054	0.561	-0.164	-0.118
-736.039	-168.670	-0.604	-0.023
-735.025	81.985	0.342	0.374
-734.010	-66.375	-0.175	-0.070
-732.996	-1.847	-0.194	-0.138
-731.981	0.277	-0.150	-0.108
-730.966	-200.000	-0.029	-0.177
-729.952	800.000	0.058	-0.168
-728.937	150.195	0.090	-0.123
-727.923	-115.380	-0.188	0.036
-726.908	-181.758	-0.420	-0.008
-725.894	-138.744	0.316	-0.035
-724.879	-3.360	-0.129	0.091
-723.864	-111.060	-0.017	-0.004
-722.850	-134.719	0.030	0.004
-721.835	-52.399	-0.132	-0.062
-720.821	800.000	-0.098	0.356
-719.806	-200.000	-0.027	-0.190
-718.791	-123.239	-0.064	-0.010
-717.777	218.602	0.194	-0.313
-716.762	48.247	-0.175	-0.165
-715.748	800.000	-0.057	-0.242
-714.733	61.267	-0.181	-0.182
-713.718	800.000	-0.028	0.102
-712.704	-38.996	-0.335	-0.178
-711.689	-97.602	0.268	0.070
-710.675	-200.000	-0.019	0.130
-709.660	-110.774	-0.065	0.014
-708.645	-99.052	-0.135	0.034
-707.631	475.614	0.102	-0.232
-706.616	800.000	0.075	0.265
-705.602	-200.000	-0.078	0.522
-704.587	373.544	0.153	0.314
-703.572	410.224	0.122	0.262
-702.558	800.000	-0.066	-0.209
-701.543	53.584	0.124	-0.120
-700.529	175.127	-0.120	-0.176
-699.514	-200.000	-0.002	-0.035
-698.499	-187.605	0.565	-0.008
-697.485	138.789	-0.099	-0.132
-696.470	-23.792	-0.262	0.159
-695.456	-111.712	-0.135	0.028
-694.441	-121.640	0.223	-0.037
-693.426	302.555	0.132	0.246
-692.412	226.452	0.154	0.252
-691.397	-43.957	0.142	-0.072
-690.383	197.402	-0.023	0.036
-689.368	-200.000	-0.004	-0.046
-688.354	-200.000	-0.014	-0.277
-687.339	-200.000	0.036	-0.191
-686.324	-70.557	-0.129	0.049
-685.310	-200.000	0.059	-0.272
-684.295	9.542	-0.220	-0.168
-683.281	73.822	0.170	-0.180
-682.266	-30.915	-0.350	0.200
-681.251	-200.000	-0.011	0.113
-680.237	230.665	0.204	0.337
-679.222	20.388	-0.285	-0.232
-678.208	-200.000	-0.054	0.271
-677.193	37.257	0.196	-0.175
-676.178	176.559	0.043	-0.064
-675.164	-200.000	0.002	0.062
-674.149	187.975	-0.124	0.186
-673.135	154.325	-0.163	0.226
-672.120	53.820	-0.201	0.195
-671.105	225.447	-0.100	-0.163
-670.091	-200.000	-0.008	-0.241
-669.076	-163.129	-0.131	0.006
-668.062	-46.527	-0.252	-0.125
-667.047	800.000	0.057	-0.174
-666.032	-99.043	-0.282	-0.072
-665.018	189.040	0.129	-0.194
-664.003	-144.045	0.279	0.026
-662.989	193.269	0.094	0.144
-661.974	147.005	0.130	-0.176
-660.959	-200.000	0.029	0.130
-659.945	-200.000	0.002	-0.184
-658.930	-194.619	0.035	0.000
-657.916	-200.000	0.012	0.192
-656.901	219.233	-0.182	-0.294
-655.886	10.446	0.142	0.109
-654.872	127.236	-0.115	-0.147
-653.857	800.000	0.092	-0.303
-652.843	-151.673	0.090	0.007
-651.828	258.330	-0.132	-0.228
-650.814	43.286	0.228	-0.210
-649.799	194.814	-0.109	0.167
-648.784	-50.388	0.147	-0.070
-647.770	206.901	0.134	-0.211
-646.755	108.650	0.229	-0.275
-645.741	-200.000	0.282	-0.001
-644.726	-103.891	0.570	-0.134
-643.711	-200.000	-0.032	-0.421
-642.697	186.487	-0.118	0.177
-641.682	-189.651	-0.269	-0.003
-640.668	-183.393	-0.168	0.003
-639.653	-200.000	0.045	0.248
-638.638	-200.000	-0.024	-0.140
-637.624	-75.201	0.138	0.050
-636.609	172.456	-0.230	-0.333
-635.595	-171.284	-0.198	0.007
-634.580	-200.000	-0.047	-0.228
-633.565	-200.000	0.010	-0.049
-632.551	800.000	0.037	0.129
-631.536	-120.565	-0.100	0.017
-630.522	-200.000	-0.009	0.090
-629.507	-12.585	-0.124	-0.081
-628.492	800.000	-0.045	-0.184
-627.478	-30.584	-0.210	0.120
-626.463	558.391	0.081	0.196
-625.449	-81.696	-0.215	0.071
-624.434	800.000	0.052	-0.215
-623.419	167.441	-0.112	0.159
-622.405	-149.389	-0.154	-0.012
-621.390	-200.000	0.008	-0.101
-620.376	-139.067	0.276	0.030
-619.361	34.556	-0.236	-0.207
-618.346	-200.000	-0.053	-0.383
-617.332	-33.766	0.075	-0.042
-616.317	229.049	-0.017	0.028
-615.303	800.000	0.067	0.212
-614.288	-49.878	0.039	0.019
-613.273	-52.744	0.273	0.127
-612.259	118.922	0.085	-0.105
-611.244	-173.341	-0.330	-0.010
-610.230	44.808	0.217	0.201
-609.215	91.161	-0.300	0.339
-608.201	-39.174	0.218	0.115
-607.186	-48.898	-0.320	0.154
-606.171	-130.808	-0.283	-0.038
-605.157	-200.000	-0.014	0.263
-604.142	148.911	-0.065	0.089
-603.128	393.408	-0.030	0.063
-602.113	-137.239	-0.350	0.040
-601.098	789.202	0.055	-0.151
-600.084	-200.000	-0.111	-0.559
-599.069	-200.000	0.003	0.276
-598.055	96.272	0.211	-0.243
-597.040	-33.497	-0.076	-0.042
-596.025	-95.360	0.375	-0.101
-595.011	-19.816	-0.097	-0.060
-593.996	177.989	0.106	0.155
-592.982	-200.000	0.040	-0.217
-591.967	340.923	-0.035	0.068
-590.952	287.583	-0.021	0.039
-589.938	-14.745	-0.178	-0.115
-588.923	-76.169	0.223	-0.079
-587.909	800.000	0.211	0.607
-586.894	-31.386	-0.299	-0.169
-585.879	-168.845	0.255	-0.010
-584.865	-200.000	-0.033	0.187
-583.850	180.829	-0.064	0.094
-582.836	-79.551	0.429	0.145
-581.821	800.000	-0.075	-0.226
-580.806	406.077	0.080	-0.170
-579.792	2.336	-0.216	-0.157
-578.777	3.441	0.089	0.065
-577.763	-137.345	0.397	0.045
-576.748	-200.000	-0.006	0.353
-575.733	402.877	-0.104	-0.220
-574.719	-168.300	-0.264	-0.010
-573.704	800.000	0.051	-0.189
-572.690	-40.947	0.288	0.150
-571.675	-131.330	-0.166	-0.022
-570.661	-200.000	-0.048	0.224
-569.646	-200.000	-0.021	-0.316
-568.631	192.856	0.062	0.094
-567.617	-69.542	-0.025	-0.010
-566.602	-143.230	-0.051	0.005
-565.588	-200.000	-0.002	0.140
-564.573	166.841	0.141	0.201
-563.558	314.757	-0.025	-0.048
-562.544	366.949	-0.232	-0.469
-561.529	-200.000	0.019	0.231
-560.515	800.000	0.091	-0.313
-559.500	10.825	0.106	-0.081
-558.485	19.303	0.030	-0.024
-557.471	143.947	-0.075	-0.101
-556.456	-155.554	0.190	-0.012
-555.442	-24.024	-0.220	-0.132
-554.427	-200.000	0.020	-0.197
-553.412	-200.000	-0.057	-0.305
-552.398	-42.824	-0.318	-0.162
-551.383	721.599	0.115	-0.308
-550.369	210.596	-0.227	-0.357
-549.354	66.995	-0.031	0.031
-548.339	-200.000	0.032	0.203
-547.325	-200.000	0.045	-0.374
-546.310	-52.516	-0.216	0.100
-545.296	-8.312	-0.285	-0.192
-544.281	-200.000	0.019	-0.113
-543.266	-59.511	0.209	0.090
-542.252	92.987	0.169	-0.191
-541.237	9.942	-0.109	-0.083
-540.223	13.163	-0.033	-0.025
-539.208	800.000	-0.064	0.222
-538.193	-200.000	0.006	-0.176
-537.179	62.553	-0.061	-0.061
-536.164	800.000	-0.012	-0.054
-535.150	-200.000	0.028	0.183
-534.135	-34.048	0.126	0.070
-533.121	-200.000	-0.012	-0.389
-532.106	-81.618	0.106	-0.035
-531.091	-200.000	0.066	0.331
-530.077	800.000	0.093	0.396
-529.062	131.100	0.152	0.195
-528.048	-68.191	-0.359	0.140
-527.033	-200.000	-0.020	-0.106
-526.018	116.299	0.333	-0.409
-525.004	172.065	0.066	0.095
-523.989	-123.724	-0.242	0.038
-522.975	-200.000	0.001	0.067
-521.960	-87.493	0.160	-0.049
-520.945	129.014	-0.468	0.598
-519.931	-17.805	0.274	0.172
-518.916	-63.767	0.229	0.094
-517.902	-50.834	-0.172	0.081
-516.887	800.000	-0.040	-0.169
-515.872	20.185	0.235	-0.190
-514.858	14.574	0.075	0.059
-513.843	-200.000	0.014	0.195
-512.829	185.382	-0.034	-0.050
-511.814	-37.007	0.027	0.014
-510.799	626.179	-0.073	0.185
-509.785	-137.643	-0.183	-0.021
-508.770	116.711	-0.268	-0.330
-507.756	-143.807	0.213	-0.020
-506.741	-80.826	-0.146	0.048
-505.726	-147.234	0.386	-0.033
-504.712	-24.031	0.134	0.080
-503.697	0.803	-0.311	-0.223
-502.683	800.000	-0.024	-0.083
-501.668	-200.000	0.060	-0.311
-500.653	-152.882	0.199	0.014
-499.639	6.216	-0.349	-0.259
-498.624	800.000	0.038	0.118
-497.610	-99.443	-0.126	0.032
-496.595	113.983	-0.033	0.040
-495.581	-130.203	0.151	-0.021
-494.566	41.615	-0.118	0.107
-493.551	213.376	-0.154	0.244
-492.537	800.000	-0.082	0.347
-491.522	-47.942	0.173	-0.084
-490.508	-22.811	0.340	-0.205
-489.493	-170.861	0.082	0.003
-488.478	42.335	0.212	-0.193
-487.464	800.000	-0.096	-0.268
-486.449	88.978	0.100	-0.111
-485.435	-50.216	-0.054	-0.025
-484.420	192.630	-0.057	-0.085
-483.405	588.498	-0.069	0.170
-482.391	660.568	-0.081	0.208
-481.376	52.272	0.077	0.073
-480.362	179.438	0.189	0.277
-479.347	800.000	-0.104	-0.373
-478.332	-104.211	-0.208	-0.048
-477.318	-11.780	-0.364	0.239
-476.303	-200.000	-0.024	-0.146
-475.289	-200.000	0.022	0.219
-474.274	800.000	-0.046	0.149
-473.259	800.000	-0.095	0.285
-472.245	298.687	0.082	0.151
-471.230	386.073	-0.122	-0.251
-470.216	743.396	0.083	0.223
-469.201	65.418	-0.136	-0.138
-468.186	557.505	-0.140	0.338
-467.172	-21.684	0.078	-0.048
-466.157	382.488	0.045	-0.093
-465.143	173.756	-0.130	0.187
-464.128	-200.000	-0.021	0.110
-463.113	-43.609	0.075	0.038
-462.099	623.245	0.050	-0.125
-461.084	-115.309	-0.344	-0.065
-460.070	-200.000	-0.002	0.183
-459.055	-200.000	0.044	-0.273
-458.040	-141.015	0.111	0.011
-457.026	571.766	0.128	-0.311
-456.011	-200.000	-0.014	0.323
-454.997	-137.355	0.300	0.034
-453.982	-200.000	0.033	0.343
-452.968	800.000	-0.063	0.178
-451.953	-80.782	0.080	-0.026
-450.938	-111.990	0.113	0.023
-449.924	-200.000	0.080	0.477
-448.909	-14.646	0.288	0.185
-447.895	411.861	0.117	-0.248
-446.880	-79.838	0.203	-0.068
-445.865	-200.000	-0.014	-0.137
-444.851	-186.740	-0.275	-0.004
-443.836	-94.425	-0.280	-0.076
-442.822	-3.773	-0.221	0.153
-441.807	-29.953	-0.319	0.182
-440.792	-200.000	-0.103	-0.455
-439.778	-126.726	0.340	-0.050
-438.763	-200.000	0.051	-0.245
-437.749	170.318	-0.275	-0.393
-436.734	153.409	0.108	-0.148
-435.719	-70.961	0.100	0.038
-434.705	-123.837	0.211	-0.033
-433.690	-113.757	-0.345	0.067
-432.676	-53.101	0.354	0.162
-431.661	-39.483	0.119	0.062
-430.646	-147.663	0.046	-0.004
-429.632	800.000	0.053	0.186
-428.617	-84.574	0.066	-0.021
-427.603	23.147	0.190	-0.156
-426.588	88.503	-0.220	0.244
-425.573	8.039	-0.227	-0.170
-424.559	647.341	-0.083	-0.211
-423.544	488.283	0.111	-0.254
-422.530	-200.000	-0.010	0.275
-421.515	243.325	-0.053	0.089
-420.500	-200.000	0.057	0.249
-419.486	-7.808	0.120	0.081
-418.471	202.350	0.101	-0.156
-417.457	800.000	-0.040	0.129
-416.442	10.219	-0.135	0.103
-415.428	5.608	-0.132	0.097
-414.413	-114.994	0.042	0.008
-413.398	-200.000	-0.008	0.037
-412.384	88.024	-0.079	-0.087
-411.369	-99.248	0.186	0.047
-410.355	70.067	0.136	-0.140
-409.340	167.377	0.138	-0.196
-408.325	-200.000	-0.025	-0.130
-407.311	-200.000	-0.043	-0.302
-406.296	-72.596	0.141	-0.052
-405.282	-52.616	0.134	-0.062
-404.267	-200.000	0.016	-0.178
-403.252	-52.183	-0.126	0.058
-402.238	-48.168	-0.089	0.043
-401.223	184.749	-0.113	-0.167
-400.209	-37.157	-0.128	0.068
-399.194	-168.459	0.078	-0.003
-398.179	-120.900	0.196	0.033
-397.165	-200.000	0.009	0.176
-396.150	-130.698	-0.061	0.008
-395.136	-135.072	-0.118	0.014
-394.121	-200.000	-0.038	-0.229
-393.106	-82.473	-0.192	0.062
-392.092	-47.001	0.442	0.215
-391.077	800.000	-0.026	0.091
-390.063	-56.606	-0.256	-0.113
-389.048	45.951	-0.186	0.172
-388.033	-0.697	0.223	-0.157
-387.019	-200.000	-0.031	-0.214
-386.004	-121.619	0.316	-0.052
-384.990	-71.763	-0.234	-0.087
-383.975	-39.248	-0.403	-0.211
-382.960	-104.185	-0.179	0.041
-381.946	-8.239	0.185	0.124
-380.931	-19.680	-0.073	-0.045
-379.917	390.276	0.142	0.293
-378.902	-108.130	0.197	-0.042
-377.888	-42.379	0.161	-0.082
-376.873	-54.873	-0.172	-0.077
-375.858	61.481	0.045	-0.045
-374.844	287.067	-0.082	-0.148
-373.829	-50.753	0.356	-0.167
-372.815	-110.175	-0.301	0.063
-371.800	259.036	0.146	-0.251
-370.785	85.664	-0.180	-0.197
-369.771	-105.810	-0.160	-0.036
-368.756	800.000	0.048	-0.175
-367.742	260.890	0.075	-0.130
-366.727	-99.453	-0.118	0.029
-365.712	9.636	-0.146	-0.110
-364.698	222.534	0.169	0.271
-363.683	800.000	-0.082	0.286
-362.669	-50.426	0.284	-0.133
-361.654	-108.096	0.432	-0.093
-360.639	469.751	0.176	-0.395
-359.625	800.000	0.072	-0.217
-358.610	-0.874	-0.158	-0.111
-357.596	-200.000	0.008	0.319
-356.581	143.056	-0.080	-0.106
-355.566	800.000	-0.078	0.278
-354.552	-200.000	-0.045	0.242
-353.537	6.289	0.034	-0.025
-352.523	-105.214	0.099	0.023
-351.508	72.763	0.260	-0.270
-350.493	-58.811	-0.155	0.067
-349.479	-13.545	-0.333	-0.215
-348.464	-62.291	0.314	-0.130
-347.450	-11.266	-0.180	-0.118
-346.435	29.005	0.330	-0.279
-345.420	-116.046	0.156	0.029
-344.406	584.166	0.030	-0.074
-343.391	800.000	-0.022	0.069
-342.377	2.431	-0.150	0.108
-341.362	168.172	0.257	0.365
-340.348	256.738	0.088	-0.151
-339.333	-200.000	-0.026	-0.169
-338.318	170.313	-0.055	-0.079
-337.304	142.155	0.223	-0.295
-336.289	-200.000	-0.009	0.198
-335.275	-22.090	0.160	0.097
-334.260	402.354	-0.131	0.274
-333.245	11.531	-0.111	0.084
-332.231	-149.552	0.232	0.018
-331.216	-90.584	0.181	-0.052
-330.202	41.167	0.029	-0.026
-329.187	-176.583	-0.389	0.010
-328.172	236.282	0.040	0.066
-327.158	77.159	0.139	0.147
-326.143	170.649	-0.081	-0.115
-325.129	800.000	-0.086	0.336
-324.114	30.313	0.187	-0.159
-323.099	-37.518	0.182	0.096
-322.085	84.881	-0.134	0.146
-321.070	-23.292	0.178	0.107
-320.056	-36.097	0.274	-0.147
-319.041	38.033	-0.273	0.241
-318.026	411.493	-0.163	-0.343
-317.012	800.000	-0.025	-0.097
-315.997	-92.537	0.398	0.111
-314.983	378.132	0.165	-0.336
-313.968	-90.699	0.209	0.060
-312.953	172.419	-0.107	0.153
-311.939	-139.239	0.173	0.019
-310.924	607.121	0.050	0.123
-309.910	-200.000	0.055	0.439
-308.895	-200.000	-0.032	-0.214
-307.880	457.883	-0.113	0.250
-306.866	28.110	-0.053	0.045
-305.851	800.000	0.055	-0.184
-304.837	133.032	-0.172	-0.220
-303.822	-171.443	0.430	0.014
-302.807	800.000	-0.041	0.148
-301.793	102.980	-0.286	0.333
-300.778	225.749	-0.089	0.144
-299.764	-32.959	-0.314	0.173
-298.749	-96.854	-0.285	0.074
-297.735	-165.014	0.144	0.006
-296.720	-61.782	0.265	0.110
-295.705	-48.776	-0.267	-0.127
-294.691	-200.000	0.002	0.076
-293.676	104.455	-0.303	0.354
-292.662	195.598	0.091	-0.137
-291.647	-97.128	-0.256	0.067
-290.632	94.787	0.090	0.101
-289.618	286.696	-0.076	-0.136
-288.603	-200.000	-0.017	0.132
-287.589	-102.559	-0.235	0.056
-286.574	-200.000	-0.014	0.254
-285.559	-73.984	-0.150	-0.054
-284.545	-75.132	0.101	-0.036
-283.530	-200.000	-0.041	-0.283
-282.516	-159.838	-0.245	0.013
-281.501	-12.037	-0.221	-0.143
-280.486	17.278	0.265	-0.209
-279.472	204.083	-0.020	-0.031
-278.457	161.607	-0.128	0.178
-277.443	-106.692	-0.391	-0.086
-276.428	20.297	0.215	0.172
-275.413	77.715	0.068	0.072
-274.399	279.398	0.110	0.195
-273.384	31.742	-0.433	-0.370
-272.370	131.900	0.070	0.090
-271.355	-39.991	0.132	0.068
-270.340	83.295	0.070	-0.076
-269.326	137.676	0.066	0.086
-268.311	-200.000	0.019	0.143
-267.297	-85.537	0.413	0.127
-266.282	20.280	-0.033	0.026
-265.267	-58.566	-0.335	0.144
-264.253	252.311	0.061	-0.102
-263.238	-200.000	-0.008	0.216
-262.224	6.731	0.187	0.138
-261.209	800.000	-0.042	0.117
-260.195	87.583	-0.190	0.209
-259.180	29.955	-0.212	-0.179
-258.165	800.000	0.025	-0.094
-257.151	-149.743	0.316	-0.025
-256.136	-25.153	0.263	0.155
-255.122	-200.000	0.028	-0.148
-254.107	-136.025	-0.204	-0.024
-253.092	800.000	-0.024	0.103
-252.078	-15.918	0.149	0.094
-251.063	-16.746	-0.397	0.249
-250.049	16.219	0.030	-0.023
-249.034	82.515	0.125	0.134
-248.019	173.763	0.109	-0.156
-247.005	183.545	0.184	0.270
-245.990	-158.194	-0.079	0.005
-244.976	-200.000	-0.001	0.260
-243.961	-200.000	0.003	-0.027
-242.946	-84.368	0.103	-0.032
-241.932	-60.703	-0.226	0.095
-240.917	-200.000	-0.135	-0.000
-239.903	-109.621	0.316	0.066
-238.888	-119.165	-0.125	-0.022
-237.873	9.825	0.328	-0.246
-236.859	-82.888	-0.153	0.049
-235.844	-120.295	-0.433	0.073
-234.830	-116.470	0.148	0.027
-233.815	35.170	-0.303	0.263
-232.800	-200.000	0.033	0.241
-231.786	-200.000	-0.055	0.372
-230.771	-7.839	-0.206	-0.137
-229.757	-110.287	-0.496	-0.102
-228.742	-200.000	-0.018	0.193
-227.727	105.004	-0.091	-0.107
-226.713	-200.000	0.027	-0.130
-225.698	-120.243	0.127	0.022
-224.684	-123.340	0.324	0.051
-223.669	-200.000	0.053	0.481
-222.655	77.332	0.199	0.209
-221.640	-200.000	0.055	-0.445
-220.625	-76.261	0.348	0.121
-219.611	-35.795	-0.114	-0.061
-218.596	69.095	0.102	0.104
-217.582	-148.902	-0.237	0.019
-216.567	800.000	-0.098	0.276
-215.552	-200.000	-0.046	0.475
-214.538	57.417	0.200	0.193
-213.523	76.390	0.067	-0.071
-212.509	-69.373	0.183	0.069
-211.494	352.959	-0.054	-0.107
-210.479	9.450	0.162	-0.121
-209.465	187.366	0.080	-0.118
-208.450	-200.000	0.012	-0.139
-207.436	-129.217	0.100	-0.014
-206.421	-49.789	-0.288	0.135
-205.406	21.043	0.204	-0.164
-204.392	471.490	0.034	-0.076
-203.377	-142.644	0.133	-0.013
-202.363	332.777	-0.105	0.201
-201.348	-200.000	-0.052	-0.277
-200.333	800.000	-0.045	0.129
-199.319	22.706	0.078	-0.063
-198.304	-200.000	-0.079	-0.359
-197.290	609.407	0.037	0.092
-196.275	72.329	-0.080	0.082
-195.260	-200.000	-0.070	-0.389
-194.246	-118.584	0.166	-0.029
-193.231	-3.769	-0.214	0.147
-192.217	-200.000	0.009	0.138
-191.202	-183.366	0.120	-0.002
-190.187	-200.000	-0.026	-0.271
-189.173	-200.000	0.016	0.305
-188.158	448.698	-0.119	0.260
-187.144	800.000	-0.143	0.494
-186.129	-200.000	-0.009	0.039
-185.114	314.923	0.061	0.114
-184.100	125.380	0.289	-0.360
-183.085	-97.119	-0.395	-0.102
-182.071	-177.055	-0.066	-0.002
-181.056	317.068	-0.102	-0.191
-180.042	74.994	-0.292	-0.304
-179.027	-200.000	0.033	-0.291
-178.012	363.701	0.071	-0.142
-176.998	-44.539	-0.092	0.046
-175.983	98.730	0.115	0.132
-174.969	16.791	-0.080	-0.062
-173.954	9.996	0.195	-0.146
-172.939	-200.000	0.036	-0.463
-171.925	-200.000	-0.026	0.473
-170.910	565.993	-0.038	-0.092
-169.896	39.185	0.235	0.208
-168.881	61.496	-0.201	-0.198
-167.866	800.000	-0.098	-0.306
-166.852	-127.602	-0.210	0.030
-165.837	800.000	0.067	-0.287
-164.823	800.000	0.067	0.187
-163.808	800.000	-0.109	-0.356
-162.793	367.931	-0.016	0.032
-161.779	-55.238	-0.288	0.128
-160.764	752.204	0.153	-0.409
-159.750	43.948	0.395	0.358
-158.735	505.482	0.084	0.192
-157.720	-200.000	-0.023	-0.195
-156.706	114.159	0.230	0.277
-155.691	27.046	0.157	0.130
-154.677	451.964	0.143	0.312
-153.662	128.580	-0.147	0.185
-152.647	99.868	-0.121	-0.139
-151.633	-200.000	0.082	-0.392
-150.618	17.476	0.183	0.144
-149.604	224.079	0.097	0.154
-148.589	519.922	-0.140	0.325
-147.574	-94.132	0.346	0.094
-146.560	-68.175	-0.100	-0.038
-145.545	-200.000	-0.000	-0.080
-144.531	230.420	-0.087	-0.140
-143.516	-62.005	0.079	-0.033
-142.502	589.423	0.040	0.097
-141.487	138.181	0.159	0.206
-140.472	-36.137	0.110	-0.059
-139.458	75.336	-0.160	0.167
-138.443	-78.823	-0.232	0.078
-137.429	-117.182	-0.161	0.029
-136.414	144.842	-0.066	0.087
-135.399	-200.000	-0.002	-0.392
-134.385	800.000	-0.012	-0.052
-133.370	-60.973	-0.440	-0.183
-132.356	149.884	-0.087	-0.117
-131.341	169.827	0.200	0.281
-130.326	-29.054	0.279	-0.158
-129.312	61.332	0.142	-0.139
-128.297	134.749	-0.234	-0.300
-127.283	-125.851	-0.226	0.034
-126.268	383.546	0.070	-0.143
-125.253	-73.109	-0.391	-0.141
-124.239	-200.000	0.023	0.163
-123.224	30.778	0.492	-0.415
-122.210	-31.487	0.172	0.095
