DTS Sentinel unit serial number:	SN413079Multiplexer serial number:	ORYXHardware model number:	OX4-SRSoftware version number:	ORYX F/W v4.00 Oryx Data Collector v3.7.2.0data status	okinstallation	princeton_trtdifferential loss correction	single-endedforward channel	channel 3reverse channel	N/Adate	2019/09/11time	23:30:11forward acquisition time	60.00reverse acquisition time	0.00gamma	496.2192k internal	0.2318k external	0.2318temperature offset calibration	1.0051default loss term (dB/km)	0.3790temperature slope calibration	1.0000multiplexer offset coefficient	1.0000multiplexer slope coefficient	1.0000fibre end	0.00T internal ref (°C)	34.25T ext. ref 1 (°C)	1.87T ext. ref 2 (°C)	28.33length (m)	temperature (°C)	Stokes	anti-Stokes-747.200	411.680	-0.098	0.212
-746.185	-34.716	-0.262	0.145
-745.171	-30.602	0.232	0.133
-744.156	-57.959	0.162	0.072
-743.142	-200.000	-0.007	0.142
-742.127	-200.000	0.029	0.336
-741.112	424.792	-0.114	-0.247
-740.098	65.838	-0.271	0.278
-739.083	-33.278	-0.067	0.038
-738.069	56.701	0.117	0.116
-737.054	29.136	0.094	-0.080
-736.039	-134.295	-0.289	-0.036
-735.025	-110.028	-0.271	0.057
-734.010	-1.839	-0.333	-0.237
-732.996	489.953	0.143	-0.331
-731.981	-85.239	0.156	-0.049
-730.966	-2.684	-0.335	-0.237
-729.952	-88.307	0.135	-0.041
-728.937	-78.974	-0.096	-0.033
-727.923	-48.574	-0.231	0.112
-726.908	-78.155	-0.553	-0.192
-725.894	-45.040	-0.385	-0.194
-724.879	-200.000	-0.022	0.171
-723.864	121.359	-0.289	0.364
-722.850	800.000	-0.070	0.198
-721.835	-200.000	0.020	0.186
-720.821	-200.000	-0.016	0.118
-719.806	800.000	-0.039	-0.165
-718.791	-200.000	-0.002	0.235
-717.777	-104.339	0.160	-0.037
-716.762	412.611	0.078	-0.167
-715.748	46.656	0.206	0.193
-714.733	391.408	-0.109	0.229
-713.718	-55.055	-0.186	0.085
-712.704	-200.000	-0.012	0.110
-711.689	23.198	0.170	-0.141
-710.675	719.742	0.119	-0.320
-709.660	240.048	0.038	0.063
-708.645	-47.495	-0.411	0.202
-707.631	333.457	0.075	0.146
-706.616	800.000	0.031	0.122
-705.602	-200.000	0.042	-0.238
-704.587	-137.171	0.262	0.030
-703.572	-138.562	-0.336	-0.037
-702.558	-40.095	-0.230	0.121
-701.543	800.000	0.027	-0.107
-700.529	233.446	-0.150	-0.249
-699.514	1.783	-0.298	-0.217
-698.499	800.000	0.050	-0.177
-697.485	-200.000	0.008	0.231
-696.470	205.367	0.102	-0.160
-695.456	-117.079	0.065	0.012
-694.441	225.627	0.154	-0.251
-693.426	-189.615	-0.212	-0.002
-692.412	-67.596	-0.297	0.118
-691.397	-149.405	-0.036	0.003
-690.383	122.205	0.184	0.232
-689.368	203.459	-0.110	-0.172
-688.354	-200.000	0.029	0.167
-687.339	-13.892	-0.120	-0.078
-686.324	-128.737	0.054	-0.008
-685.310	800.000	-0.091	0.271
-684.295	185.472	0.111	-0.166
-683.281	-200.000	0.010	-0.228
-682.266	-200.000	-0.001	-0.384
-681.251	41.621	-0.081	0.074
-680.237	223.084	-0.087	0.141
-679.222	-171.782	-0.297	0.010
-678.208	-91.514	-0.534	-0.154
-677.193	-2.716	-0.248	0.175
-676.178	43.354	-0.227	0.209
-675.164	-151.373	0.377	0.028
-674.149	46.349	0.213	-0.200
-673.135	340.167	-0.136	-0.269
-672.120	-200.000	-0.002	0.269
-671.105	214.105	0.278	-0.444
-670.091	-80.383	-0.170	0.057
-669.076	72.282	-0.192	0.201
-668.062	104.152	-0.091	0.108
-667.047	-162.350	0.280	-0.014
-666.032	800.000	0.030	0.093
-665.018	87.574	0.039	0.044
-664.003	-126.172	0.292	-0.044
-662.989	-28.256	-0.261	0.152
-661.974	23.955	-0.093	0.077
-660.959	-200.000	0.016	-0.323
-659.945	-200.000	-0.017	-0.123
-658.930	102.829	0.084	-0.099
-657.916	-97.203	0.298	-0.079
-656.901	-58.833	-0.358	0.156
-655.886	-179.162	0.140	0.003
-654.872	-200.000	-0.052	0.442
-653.857	432.538	0.094	0.206
-652.843	-96.781	-0.217	-0.058
-651.828	122.374	0.143	-0.181
-650.814	-34.425	-0.155	-0.086
-649.799	800.000	-0.106	-0.371
-648.784	-153.822	0.115	0.008
-647.770	127.183	-0.208	-0.266
-646.755	-200.000	0.007	0.043
-645.741	176.679	-0.172	0.252
-644.726	-37.709	-0.088	0.047
-643.711	298.687	-0.062	-0.115
-642.697	-94.152	0.236	-0.065
-641.682	-100.767	-0.362	-0.090
-640.668	13.594	-0.149	0.117
-639.653	508.456	-0.021	0.050
-638.638	-200.000	-0.003	-0.232
-637.624	800.000	0.059	-0.211
-636.609	-33.092	0.345	0.193
-635.595	-42.681	-0.117	-0.060
-634.580	-200.000	0.025	-0.157
-633.565	-105.342	0.198	-0.045
-632.551	-173.565	0.276	0.008
-631.536	4.301	-0.279	-0.206
-630.522	-200.000	-0.046	0.230
-629.507	-200.000	0.069	-0.450
-628.492	143.135	0.168	0.225
-627.478	-200.000	0.050	0.240
-626.463	55.856	-0.137	-0.134
-625.449	-32.284	-0.224	-0.126
-624.434	-52.442	-0.209	-0.097
-623.419	-36.255	0.076	0.041
-622.405	-24.198	0.343	-0.206
-621.390	-65.646	0.187	0.076
-620.376	50.827	-0.172	-0.164
-619.361	313.353	0.200	-0.379
-618.346	522.673	-0.100	0.236
-617.332	-188.487	0.185	-0.002
-616.317	800.000	0.108	-0.342
-615.303	800.000	-0.058	-0.239
-614.288	367.126	0.199	-0.406
-613.273	302.068	-0.054	0.100
-612.259	800.000	0.097	-0.361
-611.244	-31.463	0.044	-0.025
-610.230	142.347	-0.146	0.195
-609.215	-18.228	-0.190	0.120
-608.201	536.213	0.073	-0.174
-607.186	-68.528	-0.180	-0.070
-606.171	-144.227	-0.077	-0.007
-605.157	800.000	-0.109	0.323
-604.142	124.052	0.037	0.047
-603.128	76.760	0.147	-0.157
-602.113	-79.592	0.386	0.131
-601.098	-149.801	0.343	-0.027
-600.084	210.389	-0.051	-0.081
-599.069	28.447	-0.150	-0.127
-598.055	-200.000	-0.017	-0.222
-597.040	234.460	0.116	0.193
-596.025	208.609	0.151	-0.237
-595.011	-81.688	-0.258	0.085
-593.996	-153.200	-0.087	0.006
-592.982	75.876	0.117	0.124
-591.967	-94.436	-0.257	0.070
-590.952	-110.190	-0.273	-0.057
-589.938	-53.937	-0.184	0.084
-588.923	-200.000	0.017	-0.078
-587.909	12.564	-0.121	0.094
-586.894	-200.000	0.005	-0.138
-585.879	636.625	0.134	0.342
-584.865	33.737	0.053	0.046
-583.850	86.494	0.094	0.104
-582.836	-36.808	0.057	0.031
-581.821	26.581	-0.143	0.120
-580.806	800.000	0.027	0.115
-579.792	-36.743	0.233	0.126
-578.777	-80.147	0.264	-0.089
-577.763	-77.730	0.256	0.089
-576.748	61.831	0.204	0.204
-575.733	-200.000	-0.060	0.287
-574.719	-121.682	0.193	-0.032
-573.704	119.223	0.116	-0.144
-572.690	-10.421	-0.268	0.179
-571.675	-70.413	-0.107	0.041
-570.661	434.583	-0.077	-0.167
-569.646	800.000	-0.068	0.216
-568.631	-200.000	-0.031	-0.224
-567.617	117.137	-0.232	0.286
-566.602	800.000	0.046	0.201
-565.588	-57.515	-0.032	0.014
-564.573	-200.000	-0.032	-0.269
-563.558	617.454	-0.046	0.117
-562.544	776.402	0.074	-0.204
-561.529	50.226	0.166	0.158
-560.515	765.374	0.066	0.180
-559.500	-200.000	-0.055	-0.276
-558.485	55.449	-0.170	-0.165
-557.471	-95.660	-0.193	0.052
-556.456	-1.131	0.129	-0.092
-555.442	-162.378	0.070	-0.004
-554.427	205.396	-0.090	-0.141
-553.412	-57.784	0.100	0.044
-552.398	-200.000	0.095	0.430
-551.383	-60.868	0.200	0.085
-550.369	334.118	-0.105	-0.204
-549.354	-200.000	-0.037	-0.328
-548.339	800.000	-0.162	0.476
-547.325	-41.253	0.100	-0.052
-546.310	679.802	-0.142	-0.372
-545.296	-200.000	-0.037	0.218
-544.281	-200.000	-0.071	0.357
-543.266	249.933	0.078	0.133
-542.252	-200.000	-0.018	-0.168
-541.237	-92.830	-0.035	-0.010
-540.223	407.353	0.061	0.130
-539.208	190.236	-0.159	0.240
-538.193	256.794	-0.195	-0.336
-537.179	156.464	0.120	-0.167
-536.164	-200.000	0.034	0.186
-535.150	-200.000	-0.016	-0.249
-534.135	70.438	0.449	-0.466
-533.121	6.677	-0.027	0.020
-532.106	-33.194	0.199	-0.110
-531.091	767.278	-0.162	-0.442
-530.077	800.000	-0.065	-0.224
-529.062	800.000	-0.048	-0.196
-528.048	-114.951	0.295	0.056
-527.033	-58.388	0.124	-0.054
-526.018	156.611	-0.110	0.153
-525.004	-200.000	0.040	0.181
-523.989	288.380	0.045	0.082
-522.975	800.000	0.104	0.306
-521.960	-200.000	0.007	-0.171
-520.945	-67.452	0.068	-0.027
-519.931	-104.799	-0.156	-0.036
-518.916	-108.189	0.166	0.036
-517.902	-200.000	0.051	-0.379
-516.887	-53.198	-0.162	0.075
-515.872	115.692	0.098	-0.120
-514.858	-200.000	0.014	-0.173
-513.843	-200.000	0.040	0.198
-512.829	55.760	-0.260	0.252
-511.814	-27.703	0.215	-0.125
-510.799	-106.981	0.232	-0.052
-509.785	-53.196	-0.211	-0.097
-508.770	34.396	-0.382	-0.335
-507.756	-22.929	0.133	-0.080
-506.741	-200.000	0.013	-0.137
-505.726	68.689	0.175	0.180
-504.712	-200.000	-0.029	0.329
-503.697	-21.563	0.183	-0.112
-502.683	-200.000	0.005	-0.158
-501.668	-113.442	0.466	-0.092
-500.653	800.000	-0.034	-0.118
-499.639	332.313	0.127	-0.246
-498.624	134.858	-0.189	0.247
-497.610	407.740	0.129	-0.273
-496.595	-200.000	0.024	0.162
-495.581	20.478	0.140	-0.114
-494.566	-85.756	0.131	-0.041
-493.551	-102.118	-0.040	-0.010
-492.537	-124.554	-0.090	-0.014
-491.522	-87.639	-0.082	0.025
-490.508	-199.532	0.276	-0.001
-489.493	-53.958	-0.279	0.127
-488.478	-41.815	-0.271	-0.139
-487.464	-24.235	0.020	0.012
-486.449	-11.385	0.225	0.148
-485.435	-171.611	0.236	-0.008
-484.420	-200.000	-0.050	-0.243
-483.405	241.446	0.189	-0.317
-482.391	-64.558	0.351	-0.143
-481.376	-200.000	0.011	-0.105
-480.362	-69.877	-0.230	0.088
-479.347	800.000	0.073	0.296
-478.332	668.043	-0.046	-0.118
-477.318	132.942	-0.062	0.081
-476.303	-8.041	-0.237	-0.160
-475.289	-0.907	-0.160	-0.114
-474.274	74.859	0.307	0.324
-473.259	402.302	-0.129	-0.272
-472.245	136.412	-0.165	0.216
-471.230	800.000	0.109	0.421
-470.216	32.396	0.059	0.051
-469.201	9.966	-0.028	0.022
-468.186	151.244	-0.183	-0.250
-467.172	-95.733	0.223	-0.060
-466.157	800.000	0.038	-0.144
-465.143	24.996	-0.126	-0.105
-464.128	-200.000	0.059	-0.306
-463.113	-134.952	-0.109	0.013
-462.099	-200.000	-0.051	0.250
-461.084	245.091	-0.166	0.280
-460.070	800.000	0.055	0.183
-459.055	-200.000	-0.011	0.134
-458.040	800.000	0.065	0.285
-457.026	592.389	0.011	-0.028
-456.011	25.085	-0.273	-0.227
-454.997	131.861	0.024	-0.030
-453.982	-14.927	-0.121	-0.078
-452.968	-64.711	-0.204	0.083
-451.953	-77.791	-0.278	-0.096
-450.938	-138.153	-0.281	-0.031
-449.924	321.177	-0.063	0.120
-448.909	-70.891	0.043	-0.016
-447.895	-51.183	0.056	0.026
-446.880	-200.000	-0.011	0.324
-445.865	-200.000	0.029	0.165
-444.851	-98.457	-0.364	-0.093
-443.836	-200.000	0.007	0.047
-442.822	-65.589	-0.226	0.091
-441.807	-92.051	-0.385	-0.109
-440.792	-200.000	0.051	0.271
-439.778	-152.032	-0.130	-0.009
-438.763	-118.335	-0.363	-0.064
-437.749	-25.638	0.143	-0.084
-436.734	-200.000	-0.014	-0.243
-435.719	134.609	0.155	-0.201
-434.705	800.000	-0.081	0.287
-433.690	-200.000	0.055	-0.259
-432.676	-74.683	0.164	0.059
-431.661	-51.604	-0.238	0.111
-430.646	-10.420	-0.167	0.111
-429.632	-176.358	0.412	0.011
-428.617	-200.000	0.017	0.084
-427.603	-141.369	-0.049	-0.005
-426.588	-200.000	0.050	-0.257
-425.573	-101.370	-0.198	-0.048
-424.559	-129.952	0.273	-0.037
-423.544	14.858	-0.255	0.200
-422.530	-200.000	0.021	0.374
-421.515	800.000	-0.092	0.356
-420.500	100.109	0.168	-0.194
-419.486	-8.282	0.263	-0.177
-418.471	-36.948	-0.075	-0.040
-417.457	303.519	0.077	0.143
-416.442	-95.858	0.346	-0.092
-415.428	-167.785	-0.303	-0.012
-414.413	20.832	-0.137	-0.111
-413.398	-200.000	0.010	0.337
-412.384	-6.924	-0.178	-0.121
-411.369	-37.906	0.337	0.179
-410.355	58.362	0.201	-0.197
-409.340	69.242	0.237	0.244
-408.325	180.279	0.052	-0.076
-407.311	-32.055	0.341	0.190
-406.296	46.850	-0.133	-0.124
-405.282	-200.000	-0.027	-0.281
-404.267	472.390	0.044	-0.100
-403.252	-200.000	-0.020	0.203
-402.238	-114.377	0.162	-0.031
-401.223	-131.700	-0.175	-0.023
-400.209	-161.801	-0.323	-0.016
-399.194	-133.851	0.165	0.021
-398.179	105.272	0.279	-0.329
-397.165	-173.022	-0.186	-0.006
-396.150	800.000	-0.017	0.047
-395.136	10.032	0.248	-0.188
-394.121	-63.409	0.363	0.149
-393.106	-17.397	-0.247	0.155
-392.092	71.474	0.200	0.207
-391.077	-72.190	-0.060	-0.022
-390.063	0.687	-0.167	0.119
-389.048	205.168	-0.061	0.094
-388.033	-200.000	0.019	0.152
-387.019	-200.000	0.007	0.179
-386.004	-2.205	-0.317	0.222
-384.990	-200.000	-0.019	0.166
-383.975	482.755	-0.140	-0.317
-382.960	-56.759	-0.322	-0.142
-381.946	-103.324	-0.327	0.077
-380.931	-200.000	0.053	0.235
-379.917	-200.000	0.007	-0.106
-378.902	47.950	-0.182	-0.170
-377.888	200.967	0.128	0.197
-376.873	-100.745	0.294	0.072
-375.858	-95.741	0.102	-0.027
-374.844	190.238	-0.298	0.447
-373.829	11.756	0.269	-0.206
-372.815	800.000	-0.147	-0.427
-371.800	372.553	-0.111	0.225
-370.785	174.745	-0.026	0.038
-369.771	-96.674	-0.217	0.057
-368.756	-131.931	0.245	-0.032
-367.742	800.000	0.050	-0.212
-366.727	37.371	-0.021	-0.018
-365.712	-43.063	-0.161	-0.081
-364.698	4.662	0.101	-0.074
-363.683	800.000	-0.083	-0.353
-362.669	-86.235	0.252	-0.078
-361.654	800.000	0.083	-0.333
-360.639	54.085	0.052	-0.050
-359.625	490.287	-0.072	-0.164
-358.610	-169.103	0.235	-0.009
-357.596	142.745	-0.130	-0.173
-356.581	800.000	-0.099	-0.284
-355.566	-133.216	-0.276	-0.035
-354.552	-168.213	0.206	-0.008
-353.537	4.719	-0.248	0.182
-352.523	-200.000	-0.012	-0.310
-351.508	-20.779	-0.157	-0.096
-350.493	29.513	-0.082	0.070
-349.479	93.737	-0.199	0.224
-348.464	800.000	0.062	0.190
-347.450	-200.000	-0.004	0.308
-346.435	-200.000	-0.003	-0.045
-345.420	-126.414	-0.278	0.041
-344.406	764.935	0.072	-0.194
-343.391	124.729	0.176	0.221
-342.377	216.287	0.120	0.190
-341.362	22.364	-0.211	0.172
-340.348	-36.514	-0.265	-0.142
-339.333	-200.000	-0.005	-0.109
-338.318	152.290	0.232	-0.316
-337.304	290.984	-0.133	0.240
-336.289	378.282	0.021	-0.043
-335.275	81.022	-0.263	-0.283
-334.260	-184.806	0.097	0.002
-333.245	-200.000	0.133	-0.593
-332.231	-24.655	-0.242	-0.144
-331.216	-172.827	-0.264	0.008
-330.202	800.000	-0.065	0.265
-329.187	800.000	0.107	0.300
-328.172	800.000	0.034	-0.114
-327.158	-200.000	-0.008	-0.221
-326.143	800.000	-0.092	0.289
-325.129	800.000	-0.054	-0.196
-324.114	708.633	0.028	-0.075
-323.099	-200.000	-0.003	0.138
-322.085	-163.978	-0.276	0.013
-321.070	-154.281	-0.144	0.010
-320.056	21.329	0.070	0.057
-319.041	251.578	-0.064	-0.108
-318.026	602.415	0.218	0.540
-317.012	-93.076	0.181	-0.050
-315.997	800.000	-0.032	-0.137
-314.983	800.000	-0.062	-0.195
-313.968	200.189	0.096	0.147
-312.953	133.237	0.069	-0.088
-311.939	-128.440	-0.436	0.062
-310.924	9.255	-0.208	-0.157
-309.910	800.000	-0.059	0.199
-308.895	-200.000	-0.025	0.333
-307.880	-129.347	0.223	0.031
-306.866	-53.756	0.108	-0.049
-305.851	559.960	-0.155	0.372
-304.837	-52.785	0.326	-0.149
-303.822	-189.485	-0.226	-0.003
-302.807	-200.000	-0.019	-0.248
-301.793	237.447	0.180	-0.297
-300.778	-74.753	-0.138	-0.049
-299.764	-200.000	-0.015	-0.296
-298.749	81.131	-0.227	-0.244
-297.735	-19.559	0.218	0.135
-296.720	-12.852	-0.155	0.100
-295.705	68.527	-0.070	0.072
-294.691	-200.000	-0.031	0.531
-293.676	-200.000	0.023	0.101
-292.662	-157.160	0.418	0.025
-291.647	454.839	-0.042	-0.093
-290.632	65.561	-0.070	0.070
-289.618	-156.614	0.180	-0.011
-288.603	2.830	0.203	0.147
-287.589	207.379	0.026	-0.040
-286.574	123.617	0.077	0.096
-285.559	256.269	0.066	-0.113
-284.545	36.114	0.103	-0.090
-283.530	9.361	-0.387	-0.291
-282.516	-110.459	0.234	-0.048
-281.501	8.805	0.248	-0.186
-280.486	-200.000	0.021	-0.189
-279.472	380.541	-0.149	-0.304
-278.457	-0.777	-0.039	0.027
-277.443	59.372	-0.161	0.158
-276.428	800.000	0.018	-0.070
-275.413	-200.000	0.063	0.335
-274.399	-200.000	0.015	0.224
-273.384	-167.987	-0.186	-0.007
-272.370	-84.763	0.253	0.079
-271.355	-26.285	0.153	0.089
-270.340	-64.839	-0.400	0.161
-269.326	109.769	-0.158	0.188
-268.311	-10.518	0.126	0.083
-267.297	138.394	0.196	0.255
-266.282	228.482	-0.101	0.163
-265.267	-200.000	-0.027	0.260
-264.253	501.011	0.147	0.336
-263.238	297.674	-0.150	0.274
-262.224	-90.150	0.470	-0.136
-261.209	-101.332	-0.332	0.081
-260.195	-35.433	0.227	0.123
-259.180	-200.000	0.020	-0.150
-258.165	160.561	0.121	-0.168
-257.151	113.565	0.076	-0.092
-256.136	-23.000	0.195	0.117
-255.122	17.984	0.097	-0.077
-254.107	697.274	0.024	0.062
-253.092	-31.544	0.173	-0.096
-252.078	-200.000	0.150	0.666
-251.063	-154.963	0.208	-0.014
-250.049	14.361	0.127	0.098
-249.034	96.896	-0.129	0.147
-248.019	1.838	-0.024	0.017
-247.005	-200.000	-0.021	0.124
-245.990	-3.155	-0.220	-0.152
-244.976	800.000	-0.066	-0.183
-243.961	-18.154	0.356	0.221
-242.946	-72.463	0.344	-0.126
-241.932	-200.000	0.279	0.001
-240.917	126.823	0.159	-0.200
-239.903	-134.806	-0.139	-0.017
-238.888	800.000	0.040	-0.146
-237.873	124.228	0.163	0.204
-236.859	707.823	-0.077	0.203
-235.844	-200.000	0.080	0.380
-234.830	800.000	0.088	0.251
-233.815	-200.000	0.008	-0.154
-232.800	261.938	0.024	-0.041
-231.786	-67.623	0.125	0.049
-230.771	268.109	-0.147	-0.255
-229.757	-53.439	0.069	0.031
-228.742	-89.075	-0.231	0.068
-227.727	109.251	0.125	-0.148
-226.713	-106.604	-0.428	-0.095
-225.698	800.000	-0.010	0.036
-224.684	409.091	0.106	-0.222
-223.669	171.902	0.311	-0.444
-222.655	-13.720	-0.220	-0.141
-221.640	213.183	-0.093	0.146
-220.625	-200.000	0.028	-0.125
-219.611	800.000	-0.036	-0.106
-218.596	268.960	0.137	-0.238
-217.582	97.371	0.125	0.142
-216.567	80.712	-0.352	0.376
-215.552	-66.245	-0.215	-0.085
-214.538	800.000	-0.052	-0.171
-213.523	-88.053	-0.137	0.041
-212.509	-200.000	-0.005	-0.029
-211.494	800.000	-0.063	-0.201
-210.479	294.047	-0.096	-0.173
-209.465	-200.000	0.006	0.041
-208.450	-4.264	-0.059	0.041
-207.436	133.048	0.176	0.226
-206.421	-3.998	0.071	0.049
-205.406	-173.764	-0.270	-0.008
-204.392	704.105	-0.073	0.190
-203.377	40.725	0.195	-0.175
-202.363	-54.351	0.176	-0.079
-201.348	73.357	-0.081	0.084
-200.333	-56.400	-0.090	0.040
-199.319	136.351	-0.121	0.157
-198.304	-70.131	0.266	0.100
-197.290	-37.886	0.093	0.049
-196.275	-116.991	0.439	-0.079
-195.260	-119.969	0.303	-0.052
-194.246	87.918	-0.185	-0.203
-193.231	-200.000	-0.011	0.323
-192.217	-200.000	-0.043	0.270
-191.202	-39.892	0.171	0.089
-190.187	-200.000	-0.008	0.073
-189.173	800.000	0.041	0.127
-188.158	-95.258	0.351	0.094
-187.144	800.000	0.011	0.042
-186.129	-103.238	0.180	0.042
-185.114	247.290	-0.151	0.252
-184.100	177.006	0.138	-0.199
-183.085	-179.709	0.369	0.008
-182.071	-42.919	-0.157	0.079
-181.056	48.102	-0.153	0.142
-180.042	-24.725	0.024	-0.014
-179.027	800.000	0.144	0.438
-178.012	-27.613	0.170	-0.098
-176.998	-64.402	-0.397	0.160
-175.983	-41.220	-0.220	-0.112
-174.969	114.739	-0.194	0.234
-173.954	-10.225	-0.194	0.127
-172.939	41.671	0.057	0.051
-171.925	-19.509	0.336	-0.206
-170.910	-95.945	-0.306	-0.081
-169.896	-104.096	-0.165	-0.038
-168.881	484.449	-0.058	-0.130
-167.866	323.775	-0.114	-0.216
-166.852	-145.923	0.180	-0.016
-165.837	800.000	-0.047	-0.197
-164.823	-200.000	-0.027	-0.229
-163.808	120.901	0.164	-0.201
-162.793	462.738	-0.167	0.369
-161.779	-21.862	-0.068	0.041
-160.764	-151.089	-0.211	-0.016
-159.750	60.247	0.276	0.270
-158.735	-162.355	-0.239	0.012
-157.720	-57.990	-0.154	-0.067
-156.706	800.000	-0.035	0.121
-155.691	-162.286	-0.199	0.010
-154.677	800.000	-0.102	0.346
-153.662	602.727	0.125	-0.308
-152.647	-99.165	0.191	-0.048
-151.633	-138.773	-0.237	-0.026
-150.618	-154.690	-0.223	-0.015
-149.604	158.389	0.187	0.257
-148.589	304.612	-0.211	-0.387
-147.574	242.798	-0.096	0.159
-146.560	-40.911	-0.062	0.031
-145.545	-98.239	0.252	-0.064
-144.531	-200.000	0.057	0.414
-143.516	-200.000	0.011	-0.215
-142.502	-200.000	-0.001	-0.336
-141.487	-159.282	0.116	0.006
-140.472	122.999	0.081	0.100
-139.458	86.520	-0.141	-0.154
-138.443	773.457	0.060	-0.162
-137.429	10.502	-0.072	-0.054
-136.414	16.187	0.401	0.313
-135.399	-109.049	0.108	-0.023
-134.385	62.294	0.102	-0.100
-133.370	151.318	0.203	-0.274
-132.356	33.167	0.272	0.233
-131.341	170.739	0.139	-0.197
-130.326	13.651	-0.317	-0.243
-129.312	120.795	-0.192	-0.236
-128.297	-200.000	0.015	0.104
-127.283	-32.434	0.101	-0.055
-126.268	2.482	-0.346	0.248
-125.253	183.458	-0.086	0.125
-124.239	-200.000	-0.009	-0.186
-123.224	-14.113	0.095	-0.061
-122.210	359.332	0.259	-0.511
