DTS Sentinel unit serial number:	SN413079Multiplexer serial number:	ORYXHardware model number:	OX4-SRSoftware version number:	ORYX F/W v4.00 Oryx Data Collector v3.7.2.0data status	okinstallation	princeton_trtdifferential loss correction	single-endedforward channel	channel 3reverse channel	N/Adate	2019/09/11time	10:46:10forward acquisition time	60.00reverse acquisition time	0.00gamma	496.2192k internal	0.2297k external	0.2297temperature offset calibration	0.9937default loss term (dB/km)	0.3790temperature slope calibration	1.0000multiplexer offset coefficient	1.0000multiplexer slope coefficient	1.0000fibre end	0.00T internal ref (°C)	36.81T ext. ref 1 (°C)	0.16T ext. ref 2 (°C)	33.57length (m)	temperature (°C)	Stokes	anti-Stokes-747.200	-75.042	0.026	0.009
-746.185	-200.000	0.022	0.254
-745.171	48.773	0.114	-0.109
-744.156	-108.203	-0.077	0.017
-743.142	-119.848	-0.093	0.016
-742.127	665.029	-0.025	0.065
-741.112	0.707	-0.121	-0.089
-740.098	432.164	-0.169	0.374
-739.083	-200.000	-0.002	0.013
-738.069	800.000	-0.033	0.111
-737.054	36.972	-0.126	-0.114
-736.039	-144.475	-0.421	0.040
-735.025	-200.000	0.019	0.255
-734.010	105.099	0.129	-0.155
-732.996	-152.827	-0.183	0.013
-731.981	70.273	0.043	-0.046
-730.966	295.487	-0.100	-0.187
-729.952	-52.041	0.076	0.036
-728.937	-35.521	0.230	-0.127
-727.923	129.359	0.108	-0.141
-726.908	91.421	-0.089	-0.102
-725.894	-200.000	0.028	-0.444
-724.879	-34.479	-0.073	0.041
-723.864	44.500	0.293	-0.275
-722.850	-44.943	0.074	0.038
-721.835	301.725	-0.147	-0.277
-720.821	152.883	-0.176	-0.246
-719.806	776.049	0.068	0.190
-718.791	-200.000	-0.022	0.143
-717.777	18.867	-0.178	-0.145
-716.762	-200.000	0.032	-0.437
-715.748	800.000	0.036	-0.111
-714.733	157.300	0.107	0.150
-713.718	48.657	0.249	-0.238
-712.704	-188.466	0.273	0.003
-711.689	-100.768	-0.275	-0.069
-710.675	-47.307	0.127	0.063
-709.660	-200.000	-0.002	0.017
-708.645	208.743	-0.121	-0.193
-707.631	-109.059	0.204	0.044
-706.616	-200.000	0.046	-0.312
-705.602	-93.792	-0.412	0.116
-704.587	-200.000	-0.001	0.174
-703.572	365.028	0.060	-0.122
-702.558	-2.948	-0.107	0.076
-701.543	-97.114	0.179	-0.048
-700.529	-44.863	-0.370	0.188
-699.514	29.242	-0.474	0.411
-698.499	-200.000	-0.042	-0.187
-697.485	800.000	-0.022	-0.068
-696.470	578.111	-0.215	-0.536
-695.456	62.347	0.058	0.059
-694.441	-59.126	-0.193	-0.085
-693.426	-52.377	-0.173	0.082
-692.412	-200.000	-0.038	-0.186
-691.397	-14.669	-0.265	-0.174
-690.383	54.319	-0.231	-0.227
-689.368	-22.800	-0.217	0.134
-688.354	800.000	0.056	0.162
-687.339	-81.369	-0.097	-0.033
-686.324	-183.816	0.236	-0.004
-685.310	199.429	-0.174	-0.273
-684.295	-88.861	0.172	-0.052
-683.281	639.527	-0.052	-0.134
-682.266	800.000	-0.057	-0.189
-681.251	172.303	-0.060	0.087
-680.237	565.816	0.034	0.084
-679.222	357.193	0.133	-0.269
-678.208	-10.437	-0.217	-0.147
-677.193	-34.231	-0.067	0.037
-676.178	-200.000	-0.004	-0.152
-675.164	-200.000	-0.014	-0.125
-674.149	78.078	-0.062	0.067
-673.135	461.982	0.097	0.221
-672.120	-98.737	-0.132	0.034
-671.105	418.044	-0.097	-0.211
-670.091	112.920	0.135	0.167
-669.076	9.767	0.091	0.071
-668.062	86.909	0.157	0.176
-667.047	66.815	-0.077	-0.080
-666.032	-43.298	-0.169	-0.087
-665.018	173.090	-0.081	-0.119
-664.003	253.761	0.083	-0.144
-662.989	211.884	-0.271	-0.434
-661.974	-45.105	-0.309	-0.156
-660.959	-133.811	-0.283	0.036
-659.945	-61.260	0.092	-0.040
-658.930	90.403	0.118	-0.135
-657.916	-37.630	0.180	0.098
-656.901	152.511	-0.194	0.270
-655.886	-200.000	0.037	0.197
-654.872	-147.615	-0.413	0.035
-653.857	335.783	-0.124	0.244
-652.843	-200.000	-0.013	-0.059
-651.828	-59.397	0.400	-0.175
-650.814	435.447	-0.116	0.257
-649.799	558.711	0.098	-0.241
-648.784	-77.994	-0.040	-0.014
-647.770	-85.349	-0.212	-0.067
-646.755	91.255	0.041	0.046
-645.741	318.912	-0.059	-0.113
-644.726	-32.111	-0.219	0.124
-643.711	-49.797	-0.163	0.079
-642.697	178.901	0.086	0.128
-641.682	-116.077	-0.149	-0.028
-640.668	-60.609	-0.197	-0.085
-639.653	-54.526	-0.050	0.023
-638.638	66.306	-0.142	0.147
-637.624	135.437	-0.147	0.195
-636.609	-200.000	-0.012	0.264
-635.595	94.465	0.127	0.146
-634.580	-200.000	0.010	-0.081
-633.565	-140.427	0.129	0.014
-632.551	-97.040	-0.245	-0.065
-631.536	481.979	-0.099	-0.230
-630.522	55.000	0.150	-0.148
-629.507	23.314	-0.203	0.170
-628.492	-200.000	0.004	-0.141
-627.478	-140.860	-0.205	-0.021
-626.463	113.443	0.110	-0.136
-625.449	246.419	-0.275	-0.472
-624.434	182.067	0.082	-0.123
-623.419	127.565	0.165	0.213
-622.405	-200.000	-0.007	-0.052
-621.390	45.476	-0.227	-0.213
-620.376	800.000	-0.018	0.072
-619.361	607.557	-0.031	0.080
-618.346	33.682	0.318	-0.281
-617.332	740.218	0.041	-0.113
-616.317	-102.729	-0.092	-0.022
-615.303	133.644	-0.230	-0.302
-614.288	21.889	-0.098	-0.081
-613.273	119.055	0.055	-0.070
-612.259	14.177	0.332	0.263
-611.244	-200.000	-0.018	-0.248
-610.230	-39.691	-0.262	0.139
-609.215	-96.349	-0.163	0.044
-608.201	-200.000	-0.025	0.165
-607.186	246.028	0.116	0.199
-606.171	21.121	-0.077	-0.063
-605.157	492.300	0.093	0.216
-604.142	224.503	-0.203	-0.334
-603.128	31.188	-0.083	-0.072
-602.113	20.278	0.076	0.062
-601.098	229.843	-0.073	0.122
-600.084	-83.475	-0.344	-0.112
-599.069	2.790	-0.151	-0.111
-598.055	89.395	-0.056	0.063
-597.040	-136.854	-0.302	-0.035
-596.025	275.307	0.127	-0.228
-595.011	462.978	0.080	-0.181
-593.996	-112.109	-0.246	-0.050
-592.982	800.000	-0.075	-0.258
-591.967	-83.218	0.184	0.060
-590.952	-87.889	-0.290	0.088
-589.938	26.436	-0.179	-0.152
-588.923	26.367	-0.263	-0.223
-587.909	-147.811	0.134	-0.011
-586.894	-16.455	-0.183	-0.118
-585.879	392.372	0.108	-0.228
-584.865	800.000	-0.011	0.038
-583.850	-200.000	-0.028	-0.163
-582.836	-90.955	-0.155	-0.045
-581.821	800.000	-0.038	0.109
-580.806	-80.308	0.247	-0.084
-579.792	-185.976	0.154	-0.002
-578.777	-91.896	0.234	0.067
-577.763	-63.279	0.088	-0.037
-576.748	-99.144	-0.113	-0.029
-575.733	194.611	-0.099	0.152
-574.719	-74.853	-0.254	0.092
-573.704	800.000	0.056	-0.191
-572.690	-87.527	-0.144	-0.044
-571.675	-200.000	-0.001	0.172
-570.661	341.062	0.129	-0.256
-569.646	-30.383	0.286	0.165
-568.631	126.938	-0.120	0.155
-567.617	19.280	0.062	0.050
-566.602	57.377	0.143	0.142
-565.588	177.935	0.168	-0.248
-564.573	494.781	0.059	0.138
-563.558	412.884	0.120	0.259
-562.544	-97.829	0.190	0.050
-561.529	800.000	0.074	-0.324
-560.515	-189.067	-0.506	-0.006
-559.500	-12.200	-0.152	-0.101
-558.485	-34.739	0.095	0.052
-557.471	-200.000	0.019	0.273
-556.456	-46.269	-0.079	0.040
-555.442	3.669	0.251	-0.186
-554.427	79.396	-0.131	0.142
-553.412	607.114	0.062	-0.156
-552.398	-62.243	0.158	-0.067
-551.383	-27.481	0.098	0.058
-550.369	-120.447	-0.514	0.089
-549.354	-200.000	-0.002	-0.141
-548.339	-76.347	-0.204	-0.073
-547.325	44.070	0.193	-0.180
-546.310	800.000	0.117	-0.349
-545.296	725.342	-0.009	0.024
-544.281	-200.000	0.008	-0.273
-543.266	-200.000	-0.011	0.350
-542.252	800.000	0.026	0.114
-541.237	-200.000	-0.017	0.179
-540.223	257.975	-0.113	0.197
-539.208	-90.196	0.178	0.053
-538.193	592.310	-0.032	0.080
-537.179	-48.163	-0.190	0.093
-536.164	-126.195	0.134	-0.020
-535.150	189.613	-0.029	0.043
-534.135	-200.000	0.026	-0.380
-533.121	-102.126	-0.375	0.091
-532.106	140.737	0.193	-0.258
-531.091	-9.083	0.107	0.073
-530.077	-200.000	0.088	-0.418
-529.062	-69.219	0.084	0.033
-528.048	-100.776	0.318	-0.079
-527.033	-76.614	-0.265	-0.094
-526.018	-200.000	0.004	-0.101
-525.004	-63.061	-0.258	0.108
-523.989	98.396	0.180	-0.210
-522.975	-109.790	0.225	0.048
-521.960	-57.729	-0.267	0.119
-520.945	2.466	0.263	-0.193
-519.931	-24.307	-0.135	0.082
-518.916	236.894	-0.057	0.095
-517.902	800.000	0.076	-0.325
-516.887	-1.122	0.025	0.018
-515.872	41.365	-0.076	-0.069
-514.858	319.986	-0.052	-0.100
-513.843	-200.000	0.039	-0.193
-512.829	800.000	-0.110	-0.407
-511.814	-17.122	-0.120	0.077
-510.799	-33.894	-0.068	0.038
-509.785	10.314	-0.298	-0.229
-508.770	-21.001	-0.073	0.045
-507.756	-90.185	0.112	-0.033
-506.741	163.263	0.057	-0.081
-505.726	-200.000	-0.007	-0.054
-504.712	-4.537	-0.177	0.124
-503.697	263.490	0.078	0.137
-502.683	-200.000	-0.009	-0.243
-501.668	-200.000	-0.024	-0.134
-500.653	-104.046	0.255	-0.060
-499.639	-187.670	-0.228	-0.003
-498.624	27.073	0.075	0.063
-497.610	-200.000	0.113	0.000
-496.595	-64.002	0.204	-0.084
-495.581	-200.000	-0.021	0.222
-494.566	-70.783	-0.085	-0.032
-493.551	-28.514	-0.167	0.098
-492.537	222.428	0.186	0.303
-491.522	110.066	0.183	0.222
-490.508	-2.655	-0.336	-0.238
-489.493	55.466	-0.154	-0.151
-488.478	99.288	0.158	-0.184
-487.464	-200.000	-0.023	0.307
-486.449	115.729	-0.146	0.181
-485.435	-200.000	0.038	0.229
-484.420	-200.000	-0.017	0.103
-483.405	-200.000	0.006	0.033
-482.391	146.098	0.266	-0.361
-481.376	800.000	0.068	0.243
-480.362	133.916	-0.134	0.176
-479.347	11.971	-0.219	-0.170
-478.332	392.394	0.093	-0.195
-477.318	-13.359	0.182	0.120
-476.303	-0.119	-0.198	0.142
-475.289	-6.889	0.127	0.087
-474.274	414.939	0.144	-0.309
-473.259	-200.000	0.029	-0.204
-472.245	-23.999	0.141	0.085
-471.230	395.498	-0.078	0.164
-470.216	14.283	0.264	0.208
-469.201	-101.349	-0.079	0.019
-468.186	255.877	0.071	-0.124
-467.172	168.413	0.151	-0.218
-466.157	657.019	-0.091	-0.235
-465.143	800.000	-0.069	-0.208
-464.128	-15.635	-0.371	0.239
-463.113	-200.000	-0.056	-0.290
-462.099	24.181	0.098	-0.081
-461.084	129.810	-0.101	0.130
-460.070	-200.000	-0.010	-0.072
-459.055	-47.401	-0.107	0.052
-458.040	-200.000	-0.044	0.317
-457.026	272.379	-0.035	-0.062
-456.011	23.486	-0.121	-0.100
-454.997	800.000	-0.067	0.200
-453.982	29.406	-0.114	-0.098
-452.968	-137.027	0.304	0.035
-451.953	800.000	0.069	-0.250
-450.938	-176.459	0.099	0.003
-449.924	-200.000	-0.032	-0.251
-448.909	-168.119	0.293	-0.011
-447.895	-16.691	0.123	0.079
-446.880	4.283	0.176	0.130
-445.865	59.909	0.157	-0.157
-444.851	-86.457	0.158	-0.049
-443.836	19.266	-0.250	0.202
-442.822	18.850	0.103	0.083
-441.807	-43.619	0.102	-0.052
-440.792	-108.138	-0.301	0.066
-439.778	-122.730	0.290	-0.047
-438.763	-43.370	-0.041	-0.021
-437.749	-42.387	-0.092	-0.047
-436.734	-192.169	-0.254	-0.002
-435.719	800.000	0.079	-0.278
-434.705	109.859	-0.094	-0.114
-433.690	-200.000	-0.056	0.327
-432.676	102.050	0.089	0.105
-431.661	-83.667	0.139	0.045
-430.646	691.474	-0.063	0.166
-429.632	-162.439	0.144	-0.007
-428.617	-177.499	0.303	-0.007
-427.603	-93.309	0.135	-0.038
-426.588	244.331	0.096	-0.163
-425.573	189.781	-0.185	-0.281
-424.559	-161.884	0.213	0.011
-423.544	191.258	-0.131	-0.199
-422.530	-112.132	0.446	0.090
-421.515	-83.827	0.062	-0.020
-420.500	393.144	0.072	0.152
-419.486	6.779	-0.122	-0.092
-418.471	-59.502	0.164	-0.071
-417.457	-200.000	-0.008	0.275
-416.442	-159.681	0.212	-0.012
-415.428	-31.476	0.166	0.094
-414.413	251.950	-0.034	-0.058
-413.398	-118.402	-0.522	-0.093
-412.384	70.530	-0.139	-0.145
-411.369	7.963	-0.080	0.061
-410.355	161.219	0.161	-0.228
-409.340	35.207	-0.217	0.192
-408.325	-96.259	-0.036	-0.010
-407.311	-34.339	0.248	-0.137
-406.296	13.772	0.272	-0.213
-405.282	-200.000	-0.002	-0.097
-404.267	-200.000	0.066	-0.322
-403.252	-66.227	-0.069	0.028
-402.238	379.908	0.104	0.215
-401.223	340.740	0.104	0.205
-400.209	800.000	0.025	0.102
-399.194	-135.399	0.220	0.026
-398.179	-4.464	-0.345	-0.241
-397.165	-200.000	0.096	-0.525
-396.150	6.201	0.153	0.115
-395.136	-41.269	-0.329	0.171
-394.121	-35.932	-0.103	-0.056
-393.106	49.380	0.134	0.127
-392.092	-200.000	-0.022	-0.169
-391.077	-81.436	-0.091	-0.030
-390.063	-200.000	-0.062	0.421
-389.048	126.726	-0.193	0.246
-388.033	576.764	0.067	-0.164
-387.019	-105.581	0.231	0.053
-386.004	-185.456	-0.101	-0.002
-384.990	-43.166	-0.549	-0.280
-383.975	148.925	-0.119	-0.162
-382.960	-200.000	-0.016	-0.135
-381.946	-16.747	0.207	-0.132
-380.931	800.000	-0.084	-0.255
-379.917	366.952	-0.058	-0.118
-378.902	188.253	-0.132	0.199
-377.888	584.058	-0.111	0.273
-376.873	-52.285	-0.061	-0.028
-375.858	133.935	-0.072	0.094
-374.844	6.730	-0.080	0.060
-373.829	74.010	0.057	0.061
-372.815	51.736	0.046	0.044
-371.800	61.696	0.124	-0.124
-370.785	-200.000	0.014	0.235
-369.771	76.048	0.079	0.085
-368.756	-10.239	-0.091	-0.061
-367.742	-156.329	-0.210	-0.013
-366.727	-154.331	0.220	0.015
-365.712	21.414	-0.197	-0.161
-364.698	-200.000	0.006	0.315
-363.683	-111.140	0.187	0.038
-362.669	-200.000	0.048	0.224
-361.654	800.000	-0.039	0.117
-360.639	800.000	0.066	0.233
-359.625	2.938	0.239	0.175
-358.610	-27.628	0.110	0.064
-357.596	28.234	-0.276	0.235
-356.581	800.000	-0.050	-0.149
-355.566	-156.946	-0.100	0.006
-354.552	-130.989	0.197	-0.026
-353.537	-132.489	0.263	-0.034
-352.523	344.034	0.062	-0.123
-351.508	160.555	0.131	-0.184
-350.493	217.533	-0.078	-0.125
-349.479	347.157	-0.123	-0.244
-348.464	800.000	0.068	0.265
-347.450	-200.000	-0.013	0.102
-346.435	-137.590	0.124	0.014
-345.420	270.243	-0.066	-0.117
-344.406	-72.863	-0.178	0.066
-343.391	-200.000	-0.001	-0.092
-342.377	-59.244	0.057	-0.025
-341.362	-33.434	0.174	0.097
-340.348	-159.202	-0.151	0.009
-339.333	56.625	0.269	-0.263
-338.318	173.696	-0.077	-0.111
-337.304	-200.000	-0.042	-0.291
-336.289	-200.000	0.016	-0.252
-335.275	-151.001	-0.263	0.020
-334.260	-14.432	-0.226	-0.146
-333.245	755.084	0.043	0.118
-332.231	177.265	-0.209	0.306
-331.216	-200.000	-0.029	0.171
-330.202	181.290	0.065	-0.096
-329.187	0.994	0.256	-0.185
-328.172	-134.609	0.255	0.031
-327.158	-114.691	0.081	0.015
-326.143	301.335	-0.251	0.467
-325.129	81.137	-0.284	0.308
-324.114	744.320	0.032	-0.085
-323.099	-200.000	0.014	-0.090
-322.085	-87.699	0.126	-0.038
-321.070	64.360	0.109	0.111
-320.056	20.650	-0.152	-0.124
-319.041	-26.572	0.293	0.172
-318.026	-200.000	0.041	0.241
-317.012	179.144	-0.149	-0.218
-315.997	332.999	-0.130	0.253
-314.983	-29.616	0.028	0.016
-313.968	-200.000	-0.010	-0.130
-312.953	33.849	0.097	-0.085
-311.939	-106.025	-0.306	-0.069
-310.924	67.489	0.239	0.245
-309.910	800.000	-0.111	-0.378
-308.895	800.000	0.052	0.167
-307.880	36.727	0.076	0.068
-306.866	800.000	-0.046	0.155
-305.851	-38.717	0.192	0.102
-304.837	10.670	0.307	0.235
-303.822	-12.383	0.349	-0.229
-302.807	-127.371	0.255	0.037
-301.793	123.805	0.193	-0.243
-300.778	187.267	0.131	-0.197
-299.764	-44.496	0.118	0.059
-298.749	-200.000	-0.041	0.293
-297.735	-114.771	0.208	0.040
-296.720	-79.002	0.085	-0.029
-295.705	-95.814	0.094	0.025
-294.691	-66.900	-0.125	-0.050
-293.676	-114.184	0.184	-0.036
-292.662	-125.793	-0.119	-0.018
-291.647	800.000	-0.036	0.156
-290.632	-200.000	-0.018	0.211
-289.618	123.015	0.126	0.158
-288.603	-87.654	-0.291	-0.088
-287.589	27.757	-0.228	0.193
-286.574	-200.000	-0.001	0.226
-285.559	643.384	0.016	0.040
-284.545	306.400	0.067	0.125
-283.530	800.000	-0.069	0.229
-282.516	-30.426	-0.036	-0.021
-281.501	129.086	-0.211	0.270
-280.486	66.453	-0.152	-0.155
-279.472	-124.360	0.072	-0.011
-278.457	95.711	0.102	0.117
-277.443	-113.681	0.187	0.037
-276.428	368.797	-0.055	-0.112
-275.413	-200.000	-0.028	0.136
-274.399	-167.407	0.131	0.005
-273.384	-102.962	-0.256	0.061
-272.370	-126.503	-0.312	-0.046
-271.355	-152.223	0.224	0.016
-270.340	459.253	0.204	0.455
-269.326	185.729	-0.182	-0.271
-268.311	-1.940	-0.355	0.251
-267.297	-79.873	0.079	-0.027
-266.282	13.338	0.113	-0.088
-265.267	800.000	0.067	-0.253
-264.253	-200.000	0.036	-0.346
-263.238	-28.119	-0.106	0.061
-262.224	-159.488	0.310	-0.017
-261.209	451.534	-0.030	0.067
-260.195	70.917	0.398	0.414
-259.180	-133.555	-0.173	0.022
-258.165	800.000	0.026	-0.072
-257.151	70.187	0.250	-0.259
-256.136	224.714	0.103	-0.167
-255.122	-146.474	-0.123	0.011
-254.107	-20.879	0.168	0.103
-253.092	313.448	-0.030	0.057
-252.078	749.328	0.019	-0.050
-251.063	131.298	0.083	-0.107
-250.049	-104.322	-0.304	-0.071
-249.034	-10.409	-0.145	-0.096
-248.019	61.713	0.184	0.183
-247.005	-15.007	0.128	0.082
-245.990	71.582	-0.220	-0.228
-244.976	-103.568	-0.127	-0.030
-243.961	-43.278	-0.179	0.091
-242.946	800.000	-0.079	-0.325
-241.932	119.191	0.176	0.218
-240.917	119.487	-0.198	0.246
-239.903	-121.367	-0.358	-0.060
-238.888	-2.782	0.126	-0.088
-237.873	800.000	0.128	0.401
-236.859	28.353	-0.068	0.057
-235.844	117.444	0.075	0.093
-234.830	72.073	0.186	0.194
-233.815	63.161	-0.186	-0.186
-232.800	39.789	-0.284	-0.255
-231.786	-50.076	0.204	-0.097
-230.771	59.249	0.200	-0.197
-229.757	-154.652	-0.299	-0.020
-228.742	-72.184	-0.169	-0.063
-227.727	79.063	0.213	-0.229
-226.713	800.000	0.088	-0.309
-225.698	-124.248	0.225	-0.035
-224.684	-200.000	-0.004	0.023
-223.669	-200.000	-0.097	-0.615
-222.655	-200.000	0.002	0.175
-221.640	414.476	-0.065	0.139
-220.625	-200.000	0.002	-0.147
-219.611	28.638	0.170	-0.144
-218.596	-157.348	0.181	-0.011
-217.582	-68.717	0.183	0.071
-216.567	98.417	-0.358	0.413
-215.552	-124.685	-0.056	0.009
-214.538	800.000	-0.037	0.127
-213.523	-117.917	-0.093	0.017
-212.509	-200.000	0.004	-0.033
-211.494	441.923	-0.194	0.425
-210.479	-75.283	0.319	0.114
-209.465	-72.300	-0.209	0.077
-208.450	-96.193	0.135	0.036
-207.436	-19.857	-0.171	-0.106
-206.421	354.817	-0.033	0.066
-205.406	-200.000	-0.040	0.198
-204.392	-200.000	-0.002	-0.229
-203.377	384.898	0.029	0.061
-202.363	-200.000	0.009	-0.203
-201.348	-68.503	-0.103	-0.040
-200.333	800.000	-0.075	0.272
-199.319	800.000	-0.152	0.632
-198.304	244.059	0.107	0.180
-197.290	-77.811	0.187	0.065
-196.275	99.183	0.273	0.315
-195.260	-72.094	0.249	0.092
-194.246	-200.000	0.017	0.198
-193.231	-120.207	0.296	-0.050
-192.217	-44.698	-0.365	-0.182
-191.202	231.724	0.010	0.017
-190.187	-200.000	-0.060	0.438
-189.173	-156.245	-0.318	-0.020
-188.158	-28.286	0.166	0.096
-187.144	85.459	-0.103	-0.114
-186.129	-7.212	-0.266	-0.181
-185.114	-140.529	0.132	0.014
-184.100	-200.000	-0.017	-0.202
-183.085	594.298	0.140	-0.345
-182.071	180.475	0.231	0.339
-181.056	-29.245	0.121	-0.069
-180.042	519.831	-0.106	-0.248
-179.027	9.944	0.103	0.078
-178.012	-200.000	0.015	0.181
-176.998	800.000	0.099	0.372
-175.983	646.684	0.159	0.406
-174.969	-59.962	-0.407	-0.174
-173.954	1.253	-0.070	0.050
-172.939	-200.000	-0.020	0.424
-171.925	732.317	0.024	-0.064
-170.910	-62.247	0.255	-0.106
-169.896	613.778	0.086	0.215
-168.881	-165.475	-0.093	0.004
-167.866	358.306	-0.066	-0.131
-166.852	112.569	-0.108	0.131
-165.837	800.000	0.081	0.225
-164.823	-108.920	0.159	0.034
-163.808	31.609	0.085	-0.073
-162.793	-82.925	0.160	0.052
-161.779	-104.443	0.069	-0.016
-160.764	176.804	0.107	-0.155
-159.750	-1.333	0.045	-0.032
-158.735	600.721	0.130	0.322
-157.720	-104.614	-0.106	-0.024
-156.706	223.037	0.125	0.201
-155.691	-200.000	0.022	-0.145
-154.677	-200.000	0.002	0.022
-153.662	137.079	0.034	-0.044
-152.647	65.144	0.133	0.134
-151.633	-183.186	-0.071	0.001
-150.618	144.373	-0.113	-0.151
-149.604	-151.055	0.149	-0.011
-148.589	-200.000	0.047	0.314
-147.574	160.669	0.081	-0.114
-146.560	97.799	-0.290	-0.332
-145.545	22.838	0.155	-0.126
-144.531	426.784	-0.165	-0.355
-143.516	-154.001	-0.163	0.011
-142.502	427.852	0.069	0.148
-141.487	2.619	-0.222	-0.161
-140.472	800.000	0.027	-0.114
-139.458	-146.644	-0.100	-0.009
-138.443	12.021	0.121	0.093
-137.429	-200.000	0.233	-0.001
-136.414	-119.544	-0.236	-0.041
-135.399	342.656	-0.089	-0.174
-134.385	-15.821	0.099	0.063
-133.370	-166.847	0.266	-0.011
-132.356	-198.281	-0.475	-0.003
-131.341	-200.000	-0.045	-0.335
-130.326	-188.599	-0.390	0.005
-129.312	-71.488	0.075	0.028
-128.297	-95.777	-0.278	0.074
-127.283	-200.000	-0.059	-0.404
-126.268	91.388	0.080	-0.090
-125.253	38.450	0.280	0.249
-124.239	-151.983	0.246	-0.018
-123.224	-4.086	0.283	-0.196
-122.210	-200.000	0.009	0.089
-121.195	-11.441	0.080	-0.053
