DTS Sentinel unit serial number:	SN413079Multiplexer serial number:	ORYXHardware model number:	OX4-SRSoftware version number:	ORYX F/W v4.00 Oryx Data Collector v3.7.2.0data status	okinstallation	princeton_trtdifferential loss correction	single-endedforward channel	channel 3reverse channel	N/Adate	2019/09/12time	00:58:11forward acquisition time	60.00reverse acquisition time	0.00gamma	496.2192k internal	0.2318k external	0.2318temperature offset calibration	1.0079default loss term (dB/km)	0.3790temperature slope calibration	1.0000multiplexer offset coefficient	1.0000multiplexer slope coefficient	1.0000fibre end	0.00T internal ref (°C)	33.19T ext. ref 1 (°C)	2.08T ext. ref 2 (°C)	27.51length (m)	temperature (°C)	Stokes	anti-Stokes-747.200	-70.845	0.453	0.173
-746.185	140.112	0.129	-0.172
-745.171	-19.233	-0.427	-0.268
-744.156	60.205	-0.041	-0.041
-743.142	690.129	0.143	-0.379
-742.127	-134.768	-0.206	0.025
-741.112	43.517	0.077	-0.072
-740.098	185.629	-0.050	0.075
-739.083	-36.391	-0.401	0.219
-738.069	351.322	0.068	-0.136
-737.054	31.657	-0.235	0.204
-736.039	-200.000	-0.026	-0.198
-735.025	-30.906	-0.249	0.142
-734.010	-200.000	0.001	0.050
-732.996	125.516	-0.106	-0.136
-731.981	114.564	-0.068	-0.084
-730.966	-7.900	-0.144	-0.098
-729.952	-200.000	-0.060	-0.275
-728.937	279.906	-0.153	-0.276
-727.923	-20.422	-0.270	0.168
-726.908	272.369	-0.258	-0.460
-725.894	-97.400	-0.184	0.048
-724.879	-30.533	-0.243	0.139
-723.864	326.084	0.028	0.055
-722.850	285.288	0.133	-0.243
-721.835	603.825	-0.084	-0.210
-720.821	108.832	-0.229	-0.277
-719.806	422.917	-0.077	0.168
-718.791	-75.124	0.193	-0.070
-717.777	800.000	0.082	-0.316
-716.762	137.057	0.153	0.202
-715.748	-35.060	-0.069	-0.038
-714.733	-200.000	-0.016	-0.146
-713.718	800.000	-0.082	0.258
-712.704	-100.080	-0.231	-0.058
-711.689	-107.808	-0.129	-0.029
-710.675	-0.352	-0.293	-0.211
-709.660	513.682	-0.090	-0.213
-708.645	601.214	-0.024	-0.061
-707.631	-200.000	0.022	0.131
-706.616	416.900	-0.060	-0.131
-705.602	271.969	-0.159	-0.283
-704.587	306.622	0.155	-0.292
-703.572	-200.000	-0.035	-0.422
-702.558	83.386	0.324	-0.356
-701.543	158.206	-0.176	-0.246
-700.529	800.000	-0.048	-0.200
-699.514	-200.000	0.012	0.118
-698.499	-94.296	0.044	0.012
-697.485	-71.760	-0.310	0.117
-696.470	-97.841	-0.186	0.048
-695.456	146.004	0.088	0.119
-694.441	112.759	-0.069	0.084
-693.426	85.707	-0.207	-0.230
-692.412	2.067	-0.348	0.254
-691.397	77.959	0.186	0.201
-690.383	-200.000	-0.003	-0.178
-689.368	103.769	0.035	-0.042
-688.354	-99.711	0.181	0.046
-687.339	85.855	-0.189	-0.210
-686.324	8.361	-0.240	0.182
-685.310	182.068	0.098	0.146
-684.295	-38.337	0.410	0.219
-683.281	3.878	-0.165	0.122
-682.266	800.000	0.107	-0.424
-681.251	-44.717	-0.141	-0.071
-680.237	800.000	0.089	0.259
-679.222	-33.627	-0.160	-0.089
-678.208	-64.303	-0.196	-0.080
-677.193	73.056	-0.100	-0.106
-676.178	-78.898	-0.219	-0.075
-675.164	11.996	0.155	0.120
-674.149	800.000	0.056	-0.165
-673.135	261.130	-0.219	-0.382
-672.120	-200.000	0.003	-0.071
-671.105	800.000	0.106	0.347
-670.091	-127.523	-0.152	-0.022
-669.076	800.000	0.058	0.181
-668.062	22.040	-0.082	0.068
-667.047	-23.965	-0.202	-0.122
-666.032	297.534	-0.132	-0.245
-665.018	-118.142	0.193	0.035
-664.003	-23.277	0.175	0.106
-662.989	106.613	-0.100	0.120
-661.974	-72.291	0.179	0.067
-660.959	-200.000	-0.030	0.137
-659.945	-200.000	-0.062	-0.338
-658.930	176.101	0.190	0.278
-657.916	-200.000	-0.027	-0.228
-656.901	136.357	0.087	-0.114
-655.886	5.114	-0.106	0.079
-654.872	-200.000	-0.007	0.130
-653.857	319.507	0.032	-0.062
-652.843	-193.904	0.287	-0.002
-651.828	-78.790	-0.248	-0.085
-650.814	117.191	-0.129	-0.160
-649.799	108.332	0.094	-0.113
-648.784	552.828	0.066	-0.159
-647.770	-107.087	0.315	-0.070
-646.755	-155.785	-0.143	-0.009
-645.741	599.844	-0.124	0.311
-644.726	-96.062	-0.220	-0.059
-643.711	-141.393	0.022	-0.002
-642.697	462.923	-0.054	0.121
-641.682	-67.379	-0.364	0.144
-640.668	-107.257	-0.196	-0.043
-639.653	166.511	-0.219	-0.313
-638.638	692.467	-0.045	-0.118
-637.624	-71.003	-0.276	0.105
-636.609	288.758	0.125	0.228
-635.595	272.503	-0.191	-0.341
-634.580	-116.935	0.308	-0.057
-633.565	800.000	-0.042	-0.128
-632.551	-91.212	-0.140	0.040
-631.536	25.956	-0.070	-0.059
-630.522	-200.000	0.002	0.140
-629.507	-54.929	0.243	-0.111
-628.492	365.311	-0.072	-0.145
-627.478	96.753	-0.112	0.130
-626.463	394.586	-0.032	-0.066
-625.449	-200.000	0.024	0.152
-624.434	526.480	-0.066	-0.158
-623.419	-131.767	0.053	0.007
-622.405	-28.685	-0.076	-0.044
-621.390	499.465	-0.071	-0.165
-620.376	-170.643	0.046	0.002
-619.361	-180.341	-0.091	0.002
-618.346	20.352	-0.143	-0.116
-617.332	74.225	-0.100	0.106
-616.317	-40.501	-0.213	-0.111
-615.303	-39.516	-0.327	0.173
-614.288	-200.000	-0.002	0.253
-613.273	-127.812	0.320	-0.046
-612.259	-123.988	0.397	-0.063
-611.244	94.095	0.238	-0.271
-610.230	318.404	0.041	-0.078
-609.215	-24.310	0.190	-0.114
-608.201	84.975	0.129	-0.143
-607.186	283.989	-0.173	-0.314
-606.171	800.000	0.076	0.234
-605.157	4.036	0.156	-0.115
-604.142	187.080	0.209	0.314
-603.128	329.877	0.156	0.302
-602.113	-33.808	0.280	0.155
-601.098	-62.037	-0.351	0.148
-600.084	800.000	0.086	0.297
-599.069	-200.000	-0.034	-0.340
-598.055	5.870	-0.277	-0.206
-597.040	-57.621	0.641	-0.283
-596.025	294.729	-0.069	-0.128
-595.011	-28.021	-0.039	-0.023
-593.996	-30.008	0.173	0.099
-592.982	-200.000	-0.058	-0.456
-591.967	85.363	-0.126	0.139
-590.952	-55.946	0.307	-0.138
-589.938	-73.282	-0.139	0.051
-588.923	-200.000	0.047	0.326
-587.909	53.938	0.124	-0.120
-586.894	86.322	0.090	0.100
-585.879	573.622	0.113	0.276
-584.865	-33.194	0.277	-0.155
-583.850	-49.449	-0.277	-0.133
-582.836	-85.895	-0.251	-0.078
-581.821	583.128	-0.037	-0.091
-580.806	-200.000	0.000	0.020
-579.792	22.916	-0.157	0.129
-578.777	-138.323	0.241	0.027
-577.763	-200.000	-0.009	-0.252
-576.748	238.622	-0.149	-0.249
-575.733	-200.000	0.046	0.242
-574.719	-14.676	-0.135	-0.087
-573.704	52.879	-0.051	0.049
-572.690	78.278	-0.136	-0.146
-571.675	-152.375	-0.337	-0.024
-570.661	800.000	0.093	-0.316
-569.646	-42.996	-0.264	-0.135
-568.631	195.374	0.109	-0.166
-567.617	555.172	0.075	-0.181
-566.602	244.342	-0.082	0.139
-565.588	-155.070	0.120	-0.008
-564.573	-85.119	-0.328	0.103
-563.558	-77.582	-0.475	0.165
-562.544	-17.590	-0.114	-0.072
-561.529	68.974	-0.131	0.135
-560.515	-55.294	0.140	-0.063
-559.500	48.471	-0.112	0.105
-558.485	-141.860	-0.189	0.019
-557.471	-132.258	0.046	0.006
-556.456	214.979	0.104	-0.165
-555.442	-97.888	-0.278	0.072
-554.427	-104.229	0.030	-0.007
-553.412	121.860	-0.133	-0.167
-552.398	405.516	-0.051	0.108
-551.383	-200.000	0.016	-0.442
-550.369	-70.421	-0.091	0.035
-549.354	213.830	-0.214	0.340
-548.339	-140.676	0.227	-0.024
-547.325	302.882	0.125	0.232
-546.310	-200.000	-0.095	-0.435
-545.296	783.986	0.023	0.063
-544.281	663.782	0.123	0.320
-543.266	86.034	0.264	-0.292
-542.252	-200.000	0.017	-0.287
-541.237	800.000	-0.063	-0.235
-540.223	-85.029	-0.126	-0.040
-539.208	18.908	0.216	0.174
-538.193	135.495	0.136	0.178
-537.179	22.656	0.143	-0.117
-536.164	-200.000	0.006	-0.053
-535.150	179.849	0.211	0.310
-534.135	154.053	0.238	-0.328
-533.121	528.349	-0.069	-0.163
-532.106	99.276	-0.161	0.187
-531.091	-8.265	-0.176	-0.119
-530.077	-43.644	-0.119	0.060
-529.062	-200.000	-0.027	-0.137
-528.048	519.549	0.071	-0.167
-527.033	147.780	0.005	-0.007
-526.018	115.060	-0.210	0.258
-525.004	405.059	0.078	-0.164
-523.989	342.392	0.078	0.153
-522.975	-121.272	-0.060	0.010
-521.960	800.000	0.084	0.296
-520.945	-200.000	-0.003	0.130
-519.931	-164.513	0.069	-0.003
-518.916	164.325	-0.088	-0.124
-517.902	-74.955	-0.262	-0.094
-516.887	-200.000	0.061	-0.274
-515.872	63.081	-0.193	-0.194
-514.858	86.493	-0.139	0.154
-513.843	-200.000	-0.003	0.216
-512.829	172.627	-0.232	-0.334
-511.814	4.468	-0.084	0.062
-510.799	-200.000	-0.037	0.335
-509.785	-200.000	-0.004	-0.038
-508.770	800.000	0.073	-0.268
-507.756	-200.000	-0.004	0.045
-506.741	800.000	0.047	-0.132
-505.726	278.051	0.039	-0.070
-504.712	800.000	0.037	-0.141
-503.697	474.665	0.114	0.259
-502.683	57.817	0.161	-0.158
-501.668	498.300	0.142	-0.327
-500.653	-16.429	0.144	-0.092
-499.639	-76.735	-0.314	-0.110
-498.624	32.742	0.029	0.025
-497.610	4.096	-0.252	-0.185
-496.595	10.105	-0.265	0.202
-495.581	-144.994	0.065	0.006
-494.566	-51.218	-0.111	0.052
-493.551	-200.000	-0.004	0.027
-492.537	119.639	-0.240	-0.298
-491.522	60.522	-0.199	0.198
-490.508	238.977	-0.046	-0.076
-489.493	89.881	-0.089	-0.099
-488.478	609.545	-0.092	0.230
-487.464	102.480	-0.206	0.241
-486.449	104.386	0.087	-0.103
-485.435	800.000	-0.102	0.309
-484.420	-200.000	0.005	0.126
-483.405	-200.000	0.031	-0.331
-482.391	218.471	-0.150	-0.239
-481.376	327.828	0.044	0.085
-480.362	683.315	0.117	-0.306
-479.347	20.583	-0.285	-0.231
-478.332	-15.945	-0.234	-0.149
-477.318	574.805	0.110	0.270
-476.303	329.168	0.156	-0.301
-475.289	-134.739	-0.225	0.027
-474.274	-183.104	-0.195	-0.003
-473.259	270.904	-0.038	0.066
-472.245	800.000	-0.056	0.199
-471.230	92.337	-0.081	0.091
-470.216	-200.000	0.005	-0.049
-469.201	156.378	0.159	0.220
-468.186	489.003	-0.121	0.277
-467.172	-124.066	0.184	0.029
-466.157	-36.967	-0.223	0.120
-465.143	1.312	0.237	-0.170
-464.128	96.088	-0.130	-0.149
-463.113	-3.171	0.158	-0.110
-462.099	252.413	-0.070	0.119
-461.084	-53.277	0.145	-0.066
-460.070	-200.000	-0.016	-0.406
-459.055	46.202	0.021	0.019
-458.040	-55.677	-0.198	0.089
-457.026	-200.000	-0.039	0.388
-456.011	-106.014	-0.312	-0.070
-454.997	-192.504	0.336	-0.003
-453.982	184.004	-0.026	0.039
-452.968	-83.247	-0.172	0.055
-451.953	124.653	-0.086	-0.109
-450.938	-83.752	0.211	0.067
-449.924	-200.000	0.015	0.112
-448.909	-102.799	-0.370	0.088
-447.895	-200.000	-0.008	0.375
-446.880	664.234	0.082	-0.211
-445.865	-200.000	-0.010	0.252
-444.851	-147.605	0.298	-0.025
-443.836	155.266	-0.108	0.148
-442.822	-68.570	0.125	-0.049
-441.807	-91.157	0.211	0.061
-440.792	57.917	0.261	-0.255
-439.778	-29.331	-0.088	0.051
-438.763	136.779	-0.071	0.093
-437.749	-163.882	-0.142	0.007
-436.734	223.960	-0.061	0.099
-435.719	352.866	0.046	0.092
-434.705	-38.140	0.228	0.121
-433.690	-36.894	-0.172	0.092
-432.676	5.771	0.105	-0.077
-431.661	800.000	0.078	-0.260
-430.646	-200.000	-0.016	-0.171
-429.632	-26.910	0.272	-0.159
-428.617	-47.391	-0.167	-0.081
-427.603	-158.709	-0.012	0.001
-426.588	-59.750	-0.316	-0.135
-425.573	-147.228	0.419	-0.036
-424.559	-19.748	0.147	0.091
-423.544	-152.729	0.225	0.016
-422.530	-76.862	0.044	-0.015
-421.515	-200.000	0.032	-0.239
-420.500	800.000	0.046	-0.141
-419.486	52.037	-0.202	0.192
-418.471	-200.000	0.033	0.301
-417.457	122.681	0.003	0.004
-416.442	100.803	-0.366	0.425
-415.428	-79.957	-0.085	-0.028
-414.413	32.316	-0.198	0.170
-413.398	401.226	0.130	0.274
-412.384	-62.543	0.398	-0.165
-411.369	82.886	-0.072	0.078
-410.355	800.000	0.032	0.142
-409.340	1.605	-0.137	0.099
-408.325	-35.230	0.139	-0.076
-407.311	-89.942	0.297	-0.087
-406.296	-173.552	-0.198	-0.006
-405.282	-81.533	-0.163	-0.054
-404.267	212.524	0.115	-0.182
-403.252	800.000	0.063	0.214
-402.238	-30.687	-0.339	0.192
-401.223	-40.366	0.506	0.262
-400.209	800.000	0.042	0.149
-399.194	-148.144	-0.404	-0.033
-398.179	-21.540	0.256	0.156
-397.165	-126.799	0.136	-0.020
-396.150	21.517	-0.125	-0.101
-395.136	800.000	0.064	-0.177
-394.121	-200.000	-0.306	0.000
-393.106	-130.581	0.259	-0.035
-392.092	-69.411	-0.292	0.112
-391.077	382.583	0.067	0.138
-390.063	317.629	0.092	0.174
-389.048	-197.950	0.366	0.002
-388.033	-14.437	-0.121	-0.078
-387.019	104.714	-0.159	-0.187
-386.004	-37.325	0.074	-0.039
-384.990	-42.969	-0.177	0.090
-383.975	64.723	0.412	0.415
-382.960	800.000	-0.093	0.358
-381.946	68.337	-0.252	-0.258
-380.931	-100.335	-0.171	0.042
-379.917	-200.000	-0.015	-0.124
-378.902	-62.868	0.040	0.017
-377.888	-95.878	0.297	-0.079
-376.873	-3.520	-0.105	0.073
-375.858	-83.139	0.453	0.145
-374.844	800.000	0.089	0.249
-373.829	-91.388	-0.357	-0.102
-372.815	800.000	0.060	0.213
-371.800	10.286	-0.255	0.193
-370.785	228.004	-0.075	-0.122
-369.771	211.921	-0.170	-0.267
-368.756	93.537	-0.163	0.184
-367.742	-135.322	-0.487	-0.058
-366.727	244.828	0.241	-0.403
-365.712	-30.694	0.348	0.197
-364.698	800.000	-0.020	-0.071
-363.683	-116.765	0.204	-0.037
-362.669	182.629	-0.068	0.100
-361.654	161.423	-0.047	0.065
-360.639	-129.018	0.153	-0.021
-359.625	-200.000	0.018	-0.090
-358.610	-130.915	-0.305	-0.041
-357.596	-162.833	-0.098	-0.005
-356.581	-109.256	0.184	-0.039
-355.566	-155.004	-0.126	0.008
-354.552	151.232	-0.132	0.179
-353.537	384.384	-0.175	0.358
-352.523	-45.386	0.244	0.121
-351.508	60.429	-0.157	0.155
-350.493	118.388	-0.222	-0.273
-349.479	800.000	-0.081	-0.236
-348.464	-60.477	-0.271	-0.115
-347.450	-36.744	0.117	0.063
-346.435	-67.504	0.160	0.062
-345.420	-200.000	-0.007	-0.211
-344.406	441.485	0.091	-0.198
-343.391	-200.000	-0.024	-0.192
-342.377	105.840	-0.062	-0.074
-341.362	150.818	-0.204	0.277
-340.348	800.000	0.105	-0.300
-339.333	800.000	0.089	-0.253
-338.318	54.873	-0.204	-0.196
-337.304	-72.808	-0.358	-0.131
-336.289	-146.289	-0.233	-0.020
-335.275	-200.000	-0.032	-0.191
-334.260	-108.122	-0.204	-0.044
-333.245	800.000	0.054	0.204
-332.231	587.472	-0.159	0.391
-331.216	-65.859	-0.163	-0.065
-330.202	-171.184	-0.131	0.004
-329.187	-95.773	-0.203	-0.054
-328.172	24.706	-0.191	0.158
-327.158	-151.378	-0.144	-0.011
-326.143	-123.571	0.250	-0.039
-325.129	-87.268	-0.036	-0.011
-324.114	298.024	0.061	0.112
-323.099	15.161	-0.277	0.216
-322.085	-38.482	0.147	0.077
-321.070	76.317	-0.196	0.207
-320.056	-188.287	0.102	0.001
-319.041	800.000	-0.141	-0.409
-318.026	-23.179	0.048	-0.029
-317.012	63.414	-0.264	-0.263
-315.997	-31.572	0.063	-0.035
-314.983	-145.470	0.383	0.034
-313.968	575.321	0.112	-0.273
-312.953	306.851	0.027	-0.051
-311.939	-132.266	0.292	0.038
-310.924	85.126	-0.099	0.108
-309.910	37.799	0.094	-0.083
-308.895	106.645	0.142	-0.168
-307.880	-49.249	0.212	0.101
-306.866	166.322	0.115	0.162
-305.851	488.532	0.122	0.278
-304.837	-200.000	-0.013	0.197
-303.822	-42.326	-0.333	0.169
-302.807	29.362	0.145	0.122
-301.793	121.721	0.043	0.053
-300.778	478.134	-0.112	0.252
-299.764	-200.000	-0.248	0.001
-298.749	-79.579	0.094	0.031
-297.735	-17.963	-0.188	-0.117
-296.720	561.888	0.053	0.127
-295.705	-110.369	0.312	0.064
-294.691	800.000	0.063	0.220
-293.676	-55.259	-0.188	-0.084
-292.662	194.457	0.049	-0.074
-291.647	-35.526	0.176	0.095
-290.632	161.091	-0.158	0.219
-289.618	-200.000	-0.016	0.127
-288.603	97.946	0.089	0.102
-287.589	55.258	-0.247	0.238
-286.574	33.117	-0.367	0.317
-285.559	-13.499	-0.148	0.095
-284.545	800.000	-0.025	-0.095
-283.530	-157.004	0.190	0.012
-282.516	800.000	-0.120	0.372
-281.501	353.001	0.137	0.271
-280.486	-0.572	-0.179	0.126
-279.472	171.974	-0.141	0.202
-278.457	-1.332	-0.112	-0.079
-277.443	61.868	-0.176	-0.174
-276.428	-143.994	0.154	0.014
-275.413	-200.000	-0.035	0.300
-274.399	-118.499	0.303	-0.053
-273.384	158.748	0.079	-0.109
-272.370	-200.000	-0.019	0.195
-271.355	316.510	0.083	0.156
-270.340	-200.000	-0.008	0.054
-269.326	-1.403	0.194	-0.136
-268.311	-179.965	-0.134	-0.003
-267.297	-10.747	-0.305	-0.200
-266.282	-120.687	0.284	0.048
-265.267	-5.851	0.222	-0.151
-264.253	97.015	0.090	0.103
-263.238	-128.087	0.391	-0.056
-262.224	316.661	0.005	-0.009
-261.209	-128.549	0.119	0.017
-260.195	-21.287	0.075	0.046
-259.180	177.825	-0.116	-0.168
-258.165	172.740	0.169	0.241
-257.151	-155.617	0.305	-0.019
-256.136	-45.177	-0.190	-0.094
-255.122	-107.665	-0.124	0.027
-254.107	-76.831	-0.115	0.040
-253.092	-200.000	-0.039	-0.431
-252.078	-200.000	0.015	-0.166
-251.063	51.480	0.425	-0.401
-250.049	33.501	0.131	-0.113
-249.034	-200.000	-0.001	-0.066
-248.019	44.877	0.151	-0.138
-247.005	-79.846	0.106	0.035
-245.990	-65.276	0.249	0.100
-244.976	-145.096	0.149	0.013
-243.961	129.104	-0.134	-0.169
-242.946	-93.091	0.007	0.002
-241.932	760.741	0.129	0.346
-240.917	188.149	-0.155	-0.231
-239.903	-200.000	0.014	-0.156
-238.888	679.565	-0.060	-0.156
-237.873	-150.102	0.210	-0.016
-236.859	-38.189	0.220	0.116
-235.844	-200.000	0.013	-0.135
-234.830	-102.728	0.234	-0.055
-233.815	-101.804	0.156	-0.038
-232.800	80.042	-0.130	-0.138
-231.786	-148.477	-0.131	0.011
-230.771	-80.042	0.351	0.117
-229.757	-98.266	-0.310	0.079
-228.742	-52.091	0.033	-0.015
-227.727	15.796	0.295	0.230
-226.713	-111.194	0.055	0.011
-225.698	-136.196	-0.142	-0.016
-224.684	272.229	-0.030	0.053
-223.669	-49.602	0.272	0.128
-222.655	800.000	-0.073	0.259
-221.640	-128.557	0.222	0.031
-220.625	-17.133	-0.159	-0.099
-219.611	-140.261	0.317	0.033
-218.596	189.920	-0.035	0.052
-217.582	-15.407	-0.214	0.136
-216.567	95.247	-0.077	0.087
-215.552	189.005	-0.032	-0.047
-214.538	95.044	0.055	0.062
-213.523	-200.000	0.042	0.278
-212.509	177.694	0.064	0.092
-211.494	-82.914	-0.326	-0.104
-210.479	354.548	0.073	-0.143
-209.465	-200.000	-0.004	-0.231
-208.450	77.778	-0.099	-0.104
-207.436	-83.485	0.273	0.087
-206.421	-200.000	-0.012	-0.058
-205.406	-157.874	0.187	-0.011
-204.392	434.490	0.052	-0.113
-203.377	-145.571	0.281	-0.025
-202.363	-200.000	-0.022	0.109
-201.348	102.365	0.109	-0.126
-200.333	270.414	0.260	-0.452
-199.319	-144.643	0.109	-0.010
-198.304	-200.000	0.008	0.104
-197.290	45.055	0.134	-0.122
-196.275	-18.013	-0.224	0.139
-195.260	-27.844	0.162	0.093
-194.246	90.692	-0.159	0.176
-193.231	671.197	0.054	-0.138
-192.217	-34.274	-0.140	0.076
-191.202	422.347	0.103	-0.220
-190.187	264.588	0.093	-0.160
-189.173	-102.945	-0.106	0.025
-188.158	-6.008	-0.196	-0.133
-187.144	297.904	0.208	-0.379
-186.129	-72.251	0.382	0.140
-185.114	504.402	-0.049	-0.113
-184.100	107.251	0.232	0.273
-183.085	-200.000	-0.017	-0.129
-182.071	121.840	0.092	-0.113
-181.056	432.928	-0.123	-0.265
-180.042	294.670	0.057	-0.103
-179.027	4.081	-0.091	0.066
-178.012	204.381	0.147	0.226
-176.998	-200.000	-0.050	0.302
-175.983	-129.527	0.080	0.011
-174.969	-200.000	0.005	-0.124
-173.954	-200.000	-0.007	0.162
-172.939	-200.000	-0.043	0.265
-171.925	-200.000	0.009	-0.384
-170.910	-141.182	0.242	0.024
-169.896	-200.000	-0.018	-0.123
-168.881	120.134	-0.087	-0.107
-167.866	-163.265	0.332	-0.016
-166.852	-154.056	0.229	0.015
-165.837	-200.000	0.016	0.155
-164.823	800.000	-0.056	-0.236
-163.808	-5.621	-0.144	0.097
-162.793	57.710	-0.086	-0.083
-161.779	800.000	0.052	-0.146
-160.764	118.896	-0.113	0.138
-159.750	188.841	-0.099	0.146
-158.735	220.268	0.106	-0.168
-157.720	95.540	0.178	0.201
-156.706	700.777	0.082	0.213
-155.691	-115.604	0.308	-0.057
-154.677	-200.000	0.003	0.173
-153.662	-14.395	-0.243	0.155
-152.647	-132.420	0.222	0.028
-151.633	11.660	0.243	0.184
-150.618	-157.501	0.105	-0.006
-149.604	-200.000	0.009	0.322
-148.589	-104.959	0.353	0.080
-147.574	800.000	-0.099	0.316
-146.560	-200.000	0.001	-0.083
-145.545	87.926	0.221	-0.242
-144.531	-94.545	-0.296	-0.080
-143.516	-200.000	-0.045	-0.221
-142.502	115.277	-0.139	0.168
-141.487	276.806	0.169	0.297
-140.472	-200.000	0.040	-0.181
-139.458	44.479	-0.108	-0.098
-138.443	-48.922	-0.288	0.136
-137.429	-200.000	-0.005	0.199
-136.414	570.669	0.055	0.133
-135.399	249.961	-0.099	0.166
-134.385	-128.762	0.281	-0.039
-133.370	-49.747	-0.155	-0.073
-132.356	800.000	-0.031	-0.122
-131.341	-75.581	0.116	0.041
-130.326	234.976	-0.179	0.293
-129.312	-35.295	0.177	0.095
-128.297	-136.326	0.264	-0.030
-127.283	-87.712	-0.091	-0.027
-126.268	301.722	0.080	-0.146
-125.253	-41.076	0.083	0.042
-124.239	344.526	0.145	0.281
-123.224	-145.204	0.203	-0.018
-122.210	-200.000	0.024	0.214
