DTS Sentinel unit serial number:	SN413079Multiplexer serial number:	ORYXHardware model number:	OX4-SRSoftware version number:	ORYX F/W v4.00 Oryx Data Collector v3.7.2.0data status	okinstallation	princeton_trtdifferential loss correction	single-endedforward channel	channel 3reverse channel	N/Adate	2019/09/11time	00:42:11forward acquisition time	60.00reverse acquisition time	0.00gamma	496.2192k internal	0.2331k external	0.2331temperature offset calibration	0.9918default loss term (dB/km)	0.3790temperature slope calibration	1.0000multiplexer offset coefficient	1.0000multiplexer slope coefficient	1.0000fibre end	0.00T internal ref (°C)	29.19T ext. ref 1 (°C)	-0.31T ext. ref 2 (°C)	22.86length (m)	temperature (°C)	Stokes	anti-Stokes-747.200	102.252	0.121	-0.142
-746.185	800.000	-0.039	-0.125
-745.171	152.705	0.207	0.284
-744.156	-68.468	-0.410	0.160
-743.142	-82.887	-0.208	-0.067
-742.127	8.214	0.038	-0.029
-741.112	263.521	0.156	0.272
-740.098	23.738	-0.185	-0.153
-739.083	-200.000	-0.003	0.489
-738.069	262.107	0.219	0.382
-737.054	-61.454	0.134	-0.057
-736.039	-94.836	-0.461	-0.126
-735.025	-23.704	0.072	0.043
-734.010	-200.000	0.013	-0.114
-732.996	533.555	-0.110	-0.262
-731.981	62.624	-0.077	0.078
-730.966	30.466	-0.107	-0.092
-729.952	-200.000	-0.023	-0.247
-728.937	-200.000	0.041	-0.212
-727.923	800.000	-0.051	0.219
-726.908	-200.000	-0.037	-0.216
-725.894	-25.320	-0.179	-0.107
-724.879	-191.826	-0.298	-0.003
-723.864	-74.387	-0.212	0.077
-722.850	-113.840	0.482	0.094
-721.835	-47.013	-0.087	-0.042
-720.821	-62.389	0.333	-0.139
-719.806	-200.000	-0.009	0.105
-718.791	-67.256	-0.156	-0.062
-717.777	74.915	-0.219	0.232
-716.762	-200.000	0.060	-0.275
-715.748	-39.966	-0.225	0.118
-714.733	-200.000	-0.035	0.297
-713.718	363.730	-0.224	0.453
-712.704	-79.353	-0.223	0.076
-711.689	137.184	0.204	0.267
-710.675	-167.101	-0.117	0.005
-709.660	40.860	-0.312	-0.283
-708.645	-106.915	0.155	-0.034
-707.631	-111.945	-0.087	-0.018
-706.616	-82.108	0.239	0.078
-705.602	90.629	0.162	-0.182
-704.587	-200.000	0.042	0.288
-703.572	-113.028	0.498	-0.099
-702.558	-67.487	-0.203	-0.080
-701.543	-108.096	-0.081	0.018
-700.529	94.604	-0.231	0.264
-699.514	-76.394	-0.137	-0.049
-698.499	-200.000	-0.008	0.145
-697.485	800.000	-0.067	0.198
-696.470	-58.793	0.129	-0.056
-695.456	-41.057	0.116	0.060
-694.441	800.000	-0.096	-0.364
-693.426	753.865	-0.029	0.080
-692.412	448.916	-0.073	-0.161
-691.397	-121.605	-0.075	-0.013
-690.383	-200.000	-0.035	-0.238
-689.368	-147.261	-0.355	0.030
-688.354	474.475	0.089	-0.203
-687.339	26.588	0.122	-0.102
-686.324	357.124	-0.062	0.125
-685.310	800.000	-0.079	-0.307
-684.295	61.654	0.149	0.149
-683.281	-200.000	-0.037	0.251
-682.266	2.962	-0.258	0.188
-681.251	-101.244	-0.091	-0.022
-680.237	-104.792	0.101	0.023
-679.222	-200.000	0.032	0.162
-678.208	-97.206	-0.235	0.062
-677.193	-95.988	0.297	0.079
-676.178	-200.000	0.027	0.133
-675.164	162.055	-0.184	-0.259
-674.149	218.219	0.046	0.074
-673.135	220.226	-0.140	-0.226
-672.120	-101.295	-0.137	0.034
-671.105	-125.415	-0.037	0.006
-670.091	-31.325	0.192	0.109
-669.076	66.297	0.272	0.277
-668.062	48.558	-0.254	-0.238
-667.047	-27.707	0.501	-0.292
-666.032	203.837	-0.092	0.142
-665.018	800.000	0.127	0.358
-664.003	571.608	-0.041	0.100
-662.989	23.374	0.180	-0.148
-661.974	800.000	-0.081	0.268
-660.959	-200.000	0.021	0.231
-659.945	800.000	0.124	0.358
-658.930	-72.852	-0.296	0.109
-657.916	135.046	-0.075	0.098
-656.901	-182.130	-0.193	0.004
-655.886	-81.650	-0.140	-0.046
-654.872	717.614	-0.074	0.197
-653.857	571.410	0.098	0.239
-652.843	-152.760	0.101	0.007
-651.828	-131.598	-0.266	-0.035
-650.814	468.963	-0.204	-0.460
-649.799	-200.000	-0.010	0.228
-648.784	800.000	-0.053	-0.186
-647.770	-107.550	0.158	0.035
-646.755	-38.092	-0.432	-0.230
-645.741	-42.714	-0.258	-0.132
-644.726	-120.282	0.129	0.022
-643.711	70.321	0.080	0.083
-642.697	-200.000	0.003	0.157
-641.682	-200.000	0.036	-0.193
-640.668	235.338	0.117	0.193
-639.653	-80.935	-0.121	0.040
-638.638	800.000	0.051	-0.167
-637.624	-200.000	-0.038	-0.247
-636.609	800.000	-0.024	-0.066
-635.595	48.029	0.150	-0.140
-634.580	800.000	0.048	-0.192
-633.565	164.191	-0.132	-0.187
-632.551	-158.626	0.364	0.021
-631.536	772.016	0.017	-0.048
-630.522	-200.000	-0.054	-0.240
-629.507	177.564	-0.116	0.170
-628.492	-92.948	-0.235	0.066
-627.478	-60.966	-0.096	0.041
-626.463	79.443	-0.263	-0.282
-625.449	-23.593	-0.027	-0.016
-624.434	151.773	0.182	0.248
-623.419	441.282	-0.138	0.302
-622.405	404.028	0.099	0.209
-621.390	-10.851	-0.158	-0.105
-620.376	71.464	-0.231	0.240
-619.361	800.000	-0.085	0.241
-618.346	-86.645	-0.270	-0.083
-617.332	-200.000	0.279	0.001
-616.317	115.387	-0.242	-0.296
-615.303	-200.000	0.056	0.372
-614.288	800.000	-0.018	-0.073
-613.273	210.889	-0.122	-0.192
-612.259	105.651	-0.091	-0.108
-611.244	800.000	0.082	0.252
-610.230	-19.800	0.183	0.113
-609.215	-100.435	-0.028	0.007
-608.201	-94.280	0.184	0.050
-607.186	-200.000	0.015	0.109
-606.171	223.233	0.171	0.276
-605.157	-38.151	-0.358	0.190
-604.142	83.550	-0.216	-0.236
-603.128	-122.091	0.090	0.015
-602.113	146.945	0.278	-0.374
-601.098	748.946	-0.124	-0.334
-600.084	-200.000	0.074	-0.477
-599.069	-48.159	0.121	0.059
-598.055	-122.113	-0.273	-0.045
-597.040	23.310	-0.048	-0.039
-596.025	304.746	0.071	0.132
-595.011	-92.418	0.304	0.085
-593.996	86.162	0.098	-0.108
-592.982	51.742	-0.262	-0.249
-591.967	800.000	0.022	0.064
-590.952	-10.326	0.190	0.126
-589.938	-33.919	0.238	0.131
-588.923	-82.808	-0.233	-0.075
-587.909	-200.000	0.035	0.307
-586.894	-30.102	0.197	-0.112
-585.879	-36.546	0.153	-0.082
-584.865	-44.894	-0.155	-0.077
-583.850	800.000	0.077	-0.259
-582.836	-15.203	-0.261	-0.167
-581.821	-113.900	-0.182	0.035
-580.806	-200.000	-0.009	-0.132
-579.792	800.000	0.050	0.211
-578.777	-200.000	-0.008	-0.348
-577.763	-52.198	-0.203	-0.094
-576.748	-58.741	-0.066	0.029
-575.733	420.860	-0.080	-0.172
-574.719	-131.956	-0.217	0.028
-573.704	5.295	-0.359	0.265
-572.690	223.399	-0.087	-0.140
-571.675	-2.778	0.198	-0.138
-570.661	800.000	-0.116	0.483
-569.646	-88.046	0.233	0.070
-568.631	-95.976	-0.208	-0.055
-567.617	-2.497	-0.268	0.188
-566.602	68.905	-0.067	0.069
-565.588	22.629	-0.139	-0.113
-564.573	75.733	-0.135	0.143
-563.558	276.382	-0.064	-0.113
-562.544	93.951	-0.076	0.086
-561.529	183.901	-0.051	-0.075
-560.515	-43.486	-0.116	0.059
-559.500	-200.000	0.004	-0.145
-558.485	174.216	0.092	-0.133
-557.471	-131.449	0.077	-0.010
-556.456	800.000	-0.100	0.353
-555.442	-200.000	-0.021	-0.448
-554.427	-108.340	0.252	-0.054
-553.412	-200.000	-0.009	0.359
-552.398	-116.861	-0.277	0.051
-551.383	-73.132	0.116	0.042
-550.369	-100.497	0.119	0.029
-549.354	-107.518	0.368	0.081
-548.339	-200.000	-0.016	-0.178
-547.325	-67.687	-0.260	0.102
-546.310	306.932	-0.171	-0.318
-545.296	-200.000	0.002	0.384
-544.281	267.562	0.052	0.091
-543.266	298.155	0.126	-0.232
-542.252	2.483	0.163	-0.118
-541.237	415.866	0.078	0.166
-540.223	9.893	-0.182	0.138
-539.208	-145.692	0.142	-0.013
-538.193	800.000	-0.074	0.283
-537.179	800.000	0.016	-0.046
-536.164	-200.000	-0.049	0.358
-535.150	131.296	0.178	-0.228
-534.135	-200.000	-0.035	0.291
-533.121	358.077	-0.114	0.227
-532.106	-200.000	0.002	0.021
-531.091	-200.000	0.005	0.113
-530.077	562.375	-0.100	-0.241
-529.062	51.724	-0.222	-0.211
-528.048	82.715	0.089	0.096
-527.033	800.000	0.123	-0.426
-526.018	464.467	-0.151	-0.336
-525.004	-98.810	-0.537	-0.136
-523.989	-12.834	0.124	-0.080
-522.975	-141.345	0.165	0.017
-521.960	-200.000	0.009	0.133
-520.945	795.486	0.071	-0.196
-519.931	467.059	-0.090	0.202
-518.916	-51.978	0.270	-0.125
-517.902	-15.754	-0.249	0.158
-516.887	-8.181	0.223	-0.150
-515.872	-145.547	-0.240	-0.021
-514.858	-200.000	0.005	0.059
-513.843	92.151	0.081	-0.090
-512.829	270.022	-0.242	0.424
-511.814	-200.000	-0.074	0.362
-510.799	-13.289	0.213	0.138
-509.785	-95.024	-0.088	-0.024
-508.770	-40.002	-0.060	0.031
-507.756	-200.000	-0.049	-0.237
-506.741	24.348	-0.067	-0.055
-505.726	256.105	0.071	-0.122
-504.712	-146.433	0.118	0.010
-503.697	-33.055	-0.135	-0.075
-502.683	-42.915	0.019	0.010
-501.668	800.000	0.078	0.246
-500.653	514.994	-0.094	-0.219
-499.639	12.976	-0.115	-0.089
-498.624	498.333	-0.129	-0.296
-497.610	-77.695	-0.126	-0.044
-496.595	-168.097	-0.353	0.014
-495.581	248.696	-0.198	-0.335
-494.566	-53.441	0.064	0.029
-493.551	-95.048	0.142	0.038
-492.537	-164.418	0.139	-0.006
-491.522	-190.480	-0.547	-0.006
-490.508	480.663	0.028	-0.063
-489.493	-200.000	-0.002	-0.202
-488.478	122.340	0.181	0.225
-487.464	800.000	0.058	-0.235
-486.449	349.788	0.113	0.222
-485.435	800.000	-0.086	-0.306
-484.420	471.410	0.088	-0.197
-483.405	13.168	-0.177	0.137
-482.391	800.000	0.076	0.302
-481.376	504.607	-0.094	-0.218
-480.362	-93.170	0.463	-0.128
-479.347	-200.000	0.073	-0.332
-478.332	-91.439	0.191	-0.054
-477.318	393.848	-0.045	-0.094
-476.303	83.573	0.123	-0.134
-475.289	-200.000	0.002	0.155
-474.274	92.282	0.282	0.316
-473.259	-62.775	0.155	0.064
-472.245	800.000	-0.115	0.402
-471.230	-87.642	-0.234	0.070
-470.216	109.653	-0.050	-0.059
-469.201	-88.827	-0.470	-0.139
-468.186	-46.649	-0.095	0.046
-467.172	-82.513	0.203	-0.066
-466.157	-142.187	0.172	0.017
-465.143	30.046	-0.064	0.054
-464.128	399.542	-0.104	-0.217
-463.113	-200.000	0.019	-0.177
-462.099	800.000	0.087	0.334
-461.084	-104.075	0.054	-0.012
-460.070	-70.593	0.148	-0.056
-459.055	-102.061	0.205	0.049
-458.040	97.628	0.335	-0.383
-457.026	-200.000	-0.050	-0.281
-456.011	28.186	0.104	-0.087
-454.997	-77.661	-0.220	-0.076
-453.982	800.000	0.083	-0.344
-452.968	-104.688	0.364	-0.083
-451.953	-54.506	-0.137	-0.062
-450.938	96.729	0.118	-0.134
-449.924	-39.122	-0.146	-0.076
-448.909	-78.732	0.498	0.169
-447.895	-92.102	0.242	0.068
-446.880	40.815	-0.097	-0.087
-445.865	39.193	0.172	-0.153
-444.851	800.000	0.093	-0.274
-443.836	264.295	0.044	0.077
-442.822	-47.233	0.279	-0.135
-441.807	-68.673	-0.254	-0.098
-440.792	-80.639	0.259	0.086
-439.778	-200.000	0.036	-0.158
-438.763	82.078	-0.270	-0.291
-437.749	800.000	-0.038	0.137
-436.734	-90.780	0.278	0.080
-435.719	-130.881	-0.251	-0.033
-434.705	119.891	0.138	-0.171
-433.690	57.509	0.237	0.231
-432.676	-200.000	0.015	0.160
-431.661	-16.269	0.177	0.112
-430.646	-200.000	0.053	-0.247
-429.632	231.053	0.020	0.032
-428.617	-91.739	-0.042	0.012
-427.603	-77.421	0.223	-0.077
-426.588	-52.528	0.176	0.081
-425.573	-102.636	0.235	-0.056
-424.559	-36.543	0.101	0.054
-423.544	-8.404	0.400	0.267
-422.530	26.025	-0.236	0.196
-421.515	-101.137	0.364	-0.089
-420.500	-24.933	-0.322	-0.190
-419.486	-70.551	-0.131	0.049
-418.471	147.656	0.082	-0.110
-417.457	147.668	0.109	-0.146
-416.442	260.610	0.189	0.325
-415.428	-70.819	0.056	-0.021
-414.413	-91.237	-0.095	-0.027
-413.398	259.246	0.107	0.184
-412.384	-35.769	0.182	-0.098
-411.369	800.000	-0.049	-0.189
-410.355	59.887	-0.178	0.175
-409.340	-132.402	0.160	-0.021
-408.325	469.510	0.102	0.227
-407.311	-6.596	-0.276	0.187
-406.296	54.820	-0.032	0.031
-405.282	800.000	-0.066	-0.236
-404.267	657.051	0.052	-0.132
-403.252	-86.992	0.146	-0.044
-402.238	-49.543	-0.046	0.022
-401.223	-70.581	-0.268	-0.101
-400.209	-54.597	0.155	-0.070
-399.194	93.951	-0.320	-0.361
-398.179	-192.861	0.035	0.000
-397.165	-106.448	-0.230	-0.051
-396.150	-200.000	-0.007	-0.482
-395.136	585.114	-0.027	0.067
-394.121	800.000	0.021	-0.059
-393.106	187.377	-0.004	0.005
-392.092	70.972	-0.199	0.204
-391.077	-200.000	0.000	0.117
-390.063	11.337	0.041	0.031
-389.048	-200.000	-0.026	-0.510
-388.033	250.348	0.048	-0.082
-387.019	-200.000	0.029	0.143
-386.004	1.514	0.086	0.062
-384.990	206.088	-0.129	0.199
-383.975	303.213	0.018	0.033
-382.960	-104.954	-0.466	0.106
-381.946	-86.293	0.289	-0.088
-380.931	128.665	-0.043	0.054
-379.917	-61.214	-0.308	-0.129
-378.902	397.280	0.072	0.149
-377.888	191.563	-0.195	0.291
-376.873	-108.546	-0.436	0.093
-375.858	176.714	-0.092	0.132
-374.844	800.000	-0.030	-0.086
-373.829	120.068	-0.064	0.079
-372.815	-44.999	0.158	-0.078
-371.800	215.165	0.021	0.033
-370.785	-75.010	0.091	0.032
-369.771	-126.782	0.130	-0.019
-368.756	9.587	-0.117	0.088
-367.742	-70.772	-0.100	0.037
-366.727	-73.706	-0.134	-0.048
-365.712	56.280	-0.183	-0.176
-364.698	-87.235	0.080	-0.024
-363.683	25.194	-0.254	-0.209
-362.669	-107.959	0.214	-0.046
-361.654	-49.817	0.153	-0.072
-360.639	11.960	0.168	0.128
-359.625	0.918	-0.461	0.327
-358.610	800.000	0.014	0.058
-357.596	274.952	-0.031	-0.055
-356.581	-152.769	-0.517	0.036
-355.566	-90.925	-0.096	-0.027
-354.552	-60.734	0.151	-0.064
-353.537	-166.898	0.325	0.013
-352.523	355.004	0.194	-0.383
-351.508	800.000	0.058	0.177
-350.493	213.666	-0.116	-0.181
-349.479	194.632	0.123	-0.185
-348.464	124.447	-0.031	-0.039
-347.450	-131.591	0.207	0.027
-346.435	-108.748	0.224	-0.048
-345.420	-112.179	0.223	-0.044
-344.406	31.964	0.175	0.150
-343.391	450.971	0.048	-0.106
-342.377	-144.055	-0.256	0.024
-341.362	104.066	-0.143	0.167
-340.348	77.427	-0.068	-0.072
-339.333	78.058	0.315	0.333
-338.318	800.000	0.099	0.361
-337.304	440.126	-0.031	0.068
-336.289	-158.869	-0.191	-0.011
-335.275	23.216	0.168	-0.137
-334.260	-116.322	-0.110	-0.020
-333.245	497.233	0.035	0.079
-332.231	-200.000	-0.012	-0.098
-331.216	-102.440	0.335	-0.079
-330.202	-200.000	0.000	-0.009
-329.187	-95.265	-0.169	0.045
-328.172	134.093	-0.152	0.194
-327.158	-34.111	-0.066	0.036
-326.143	-115.386	0.259	-0.048
-325.129	800.000	0.069	0.232
-324.114	800.000	0.095	0.261
-323.099	-126.312	-0.603	0.089
-322.085	-99.346	0.319	-0.080
-321.070	800.000	0.093	0.287
-320.056	463.673	0.104	0.229
-319.041	8.309	0.157	0.117
-318.026	-146.788	-0.287	0.025
-317.012	242.927	0.178	0.296
-315.997	47.271	0.181	-0.167
-314.983	144.177	0.061	-0.080
-313.968	800.000	0.083	-0.233
-312.953	-80.790	-0.196	-0.064
-311.939	33.778	0.163	0.140
-310.924	-174.518	0.120	-0.003
-309.910	-14.901	0.045	-0.029
-308.895	-145.455	0.158	-0.014
-307.880	11.033	0.215	-0.163
-306.866	580.491	-0.042	-0.101
-305.851	-200.000	-0.013	0.064
-304.837	98.858	-0.044	0.050
-303.822	-87.994	-0.424	0.126
-302.807	-200.000	-0.034	-0.204
-301.793	-200.000	-0.024	0.248
-300.778	-135.670	-0.377	-0.044
-299.764	-38.187	0.285	0.149
-298.749	106.230	0.236	0.277
-297.735	-109.763	0.099	-0.021
-296.720	-200.000	0.000	-0.021
-295.705	-62.835	0.167	0.068
-294.691	70.662	0.162	0.166
-293.676	26.564	-0.132	-0.110
-292.662	786.795	-0.061	-0.165
-291.647	800.000	0.066	-0.187
-290.632	-36.146	0.380	0.203
-289.618	146.969	0.064	-0.084
-288.603	800.000	0.043	-0.145
-287.589	-70.630	0.168	-0.063
-286.574	162.565	-0.024	-0.033
-285.559	-97.994	0.227	0.058
-284.545	248.463	-0.088	0.147
-283.530	-17.431	-0.165	0.103
-282.516	126.134	-0.166	-0.207
-281.501	-129.369	-0.141	-0.019
-280.486	-184.574	0.398	-0.006
-279.472	-200.000	0.034	-0.230
-278.457	-145.519	0.169	-0.015
-277.443	800.000	0.089	-0.262
-276.428	232.178	0.260	-0.422
-275.413	-84.351	-0.389	0.122
-274.399	-200.000	-0.034	0.159
-273.384	-200.000	0.023	-0.198
-272.370	-44.057	0.062	-0.031
-271.355	39.576	0.088	0.078
-270.340	-37.443	0.230	0.121
-269.326	-26.791	-0.303	0.175
-268.311	-4.003	0.168	-0.115
-267.297	-67.262	-0.036	-0.014
-266.282	-200.000	0.003	0.110
-265.267	-73.917	-0.284	-0.102
-264.253	-21.597	0.251	0.151
-263.238	-105.681	0.136	-0.030
-262.224	-160.735	0.431	0.023
-261.209	60.010	-0.105	0.102
-260.195	-200.000	-0.010	0.087
-259.180	-200.000	0.013	-0.109
-258.165	-60.885	-0.254	0.106
-257.151	104.859	0.163	0.189
-256.136	194.741	0.193	0.289
-255.122	371.371	-0.152	0.305
-254.107	682.515	-0.070	-0.181
-253.092	-61.823	-0.123	0.051
-252.078	-129.273	0.435	0.060
-251.063	-89.223	-0.447	-0.130
-250.049	13.384	-0.060	-0.046
-249.034	800.000	0.029	0.093
-248.019	-200.000	-0.002	-0.010
-247.005	309.170	-0.003	-0.005
-245.990	-100.611	0.409	0.100
-244.976	-130.412	-0.190	0.025
-243.961	-30.218	0.086	-0.048
-242.946	-71.562	-0.390	-0.144
-241.932	-159.317	0.740	-0.041
-240.917	-131.293	-0.461	-0.060
-239.903	-42.689	-0.316	-0.159
-238.888	57.543	0.198	-0.190
-237.873	-200.000	0.038	-0.177
-236.859	144.189	-0.251	0.331
-235.844	389.789	0.137	0.280
-234.830	57.384	0.084	0.081
-233.815	-200.000	-0.009	-0.099
-232.800	165.283	-0.243	-0.338
-231.786	-200.000	0.001	-0.075
-230.771	132.178	0.242	0.308
-229.757	800.000	0.053	0.160
-228.742	303.947	0.124	0.227
-227.727	-96.370	0.196	0.051
-226.713	185.242	-0.174	0.254
-225.698	-38.360	-0.251	-0.131
-224.684	-21.176	-0.308	-0.186
-223.669	-91.473	0.146	0.041
-222.655	-78.815	-0.293	-0.099
-221.640	22.118	-0.184	0.148
-220.625	126.372	0.120	-0.150
-219.611	62.852	-0.091	-0.090
-218.596	-59.267	0.118	0.050
-217.582	-200.000	0.021	0.197
-216.567	275.375	0.159	0.278
-215.552	195.448	-0.078	0.116
-214.538	42.700	-0.222	0.199
-213.523	-75.440	0.128	-0.045
-212.509	-21.560	-0.402	-0.242
-211.494	-51.127	-0.206	-0.095
-210.479	-200.000	0.003	0.089
-209.465	76.642	-0.105	0.110
-208.450	-34.852	-0.173	0.093
-207.436	-125.120	0.079	-0.012
-206.421	-94.647	0.192	0.051
-205.406	-10.241	0.083	0.054
-204.392	676.569	0.044	0.114
-203.377	-156.578	-0.262	0.016
-202.363	308.101	0.094	0.172
-201.348	-9.407	0.267	-0.176
-200.333	626.777	-0.075	0.187
-199.319	165.810	-0.093	-0.130
-198.304	800.000	0.024	-0.074
-197.290	-200.000	0.034	0.346
-196.275	-200.000	0.059	0.260
-195.260	19.637	0.126	0.100
-194.246	-200.000	-0.044	0.285
-193.231	-13.945	-0.159	-0.101
-192.217	-135.585	0.310	0.036
-191.202	168.634	-0.308	-0.433
-190.187	-33.685	-0.174	-0.094
-189.173	-119.099	-0.414	0.071
-188.158	-91.272	0.243	-0.068
-187.144	800.000	-0.035	0.113
-186.129	-77.290	0.251	-0.086
-185.114	-200.000	0.009	-0.052
-184.100	403.695	-0.048	0.099
-183.085	84.394	-0.055	-0.060
-182.071	-106.258	0.134	0.030
-181.056	-200.000	-0.016	-0.117
-180.042	-93.812	-0.146	0.040
-179.027	-74.054	0.219	0.078
-178.012	-93.578	-0.234	0.064
-176.998	284.967	-0.198	0.350
-175.983	-4.998	0.092	0.063
-174.969	78.410	0.140	0.147
-173.954	0.388	-0.133	0.093
-172.939	-200.000	-0.010	0.231
-171.925	-121.377	-0.059	-0.010
-170.910	-56.248	-0.144	-0.063
-169.896	181.509	-0.205	-0.296
-168.881	643.689	0.083	-0.208
-167.866	162.784	0.241	0.333
-166.852	-4.951	0.155	0.105
-165.837	57.515	-0.058	-0.056
-164.823	-129.621	0.471	-0.064
-163.808	79.481	0.161	-0.170
-162.793	800.000	0.062	0.193
-161.779	-200.000	0.019	0.140
-160.764	800.000	-0.128	-0.417
-159.750	27.532	0.163	0.135
-158.735	31.935	-0.101	-0.086
-157.720	409.279	0.009	0.018
-156.706	117.849	-0.085	-0.103
-155.691	-200.000	-0.027	0.306
-154.677	96.079	-0.176	0.198
-153.662	-200.000	-0.001	-0.040
-152.647	800.000	0.020	-0.081
-151.633	800.000	-0.062	-0.211
-150.618	21.612	-0.211	0.169
-149.604	23.031	0.207	-0.167
-148.589	56.807	-0.244	0.234
-147.574	-10.276	0.197	-0.128
-146.560	32.330	-0.060	0.051
-145.545	130.439	-0.172	0.217
-144.531	-83.358	-0.152	-0.048
-143.516	46.668	0.134	-0.122
-142.502	56.037	0.112	0.106
-141.487	-16.774	-0.180	0.112
-140.472	800.000	-0.073	-0.269
-139.458	-200.000	0.007	-0.232
-138.443	-200.000	0.017	0.125
-137.429	108.311	0.267	0.313
-136.414	160.443	0.188	-0.258
-135.399	-200.000	0.058	0.303
-134.385	398.883	-0.076	-0.157
-133.370	-107.820	0.262	-0.056
-132.356	85.619	0.061	-0.066
-131.341	-200.000	0.002	-0.156
-130.326	-54.795	0.292	-0.130
-129.312	-200.000	0.044	-0.238
-128.297	478.454	-0.183	-0.407
-127.283	201.795	-0.174	0.263
-126.268	-38.151	0.312	0.163
-125.253	462.935	0.099	-0.217
-124.239	800.000	-0.058	-0.203
-123.224	-101.117	-0.225	-0.054
-122.210	156.073	0.153	0.207
-121.195	-77.190	0.273	0.093
