DTS Sentinel unit serial number:	SN413079Multiplexer serial number:	ORYXHardware model number:	OX4-SRSoftware version number:	ORYX F/W v4.00 Oryx Data Collector v3.7.2.0data status	okinstallation	princeton_trtdifferential loss correction	single-endedforward channel	channel 3reverse channel	N/Adate	2019/09/11time	03:42:10forward acquisition time	60.00reverse acquisition time	0.00gamma	496.2192k internal	0.2330k external	0.2330temperature offset calibration	0.9910default loss term (dB/km)	0.3790temperature slope calibration	1.0000multiplexer offset coefficient	1.0000multiplexer slope coefficient	1.0000fibre end	0.00T internal ref (°C)	29.50T ext. ref 1 (°C)	-0.31T ext. ref 2 (°C)	24.01length (m)	temperature (°C)	Stokes	anti-Stokes-747.200	193.843	0.204	0.312
-746.185	718.767	-0.066	-0.177
-745.171	152.065	0.131	0.179
-744.156	-87.466	-0.395	-0.120
-743.142	158.921	0.091	-0.128
-742.127	294.477	-0.116	0.213
-741.112	646.879	0.060	-0.153
-740.098	-30.566	-0.387	0.221
-739.083	387.702	-0.096	0.200
-738.069	-85.653	0.020	-0.006
-737.054	-200.000	0.088	-0.472
-736.039	-60.011	-0.305	-0.131
-735.025	-103.827	-0.083	-0.020
-734.010	-53.351	-0.155	-0.072
-732.996	249.161	-0.059	0.101
-731.981	-138.779	-0.363	0.040
-730.966	122.747	-0.218	-0.274
-729.952	-122.820	-0.146	-0.024
-728.937	-172.402	-0.434	-0.014
-727.923	130.431	-0.174	-0.224
-726.908	-200.000	0.010	0.043
-725.894	800.000	-0.092	-0.291
-724.879	157.236	-0.238	-0.331
-723.864	-99.586	0.346	0.087
-722.850	800.000	0.032	-0.127
-721.835	99.141	-0.165	-0.192
-720.821	25.855	0.196	-0.164
-719.806	-131.459	-0.318	0.042
-718.791	-200.000	0.025	0.277
-717.777	-118.534	-0.090	0.016
-716.762	-200.000	0.011	-0.170
-715.748	272.302	-0.045	0.079
-714.733	87.596	0.101	-0.113
-713.718	615.272	0.091	-0.229
-712.704	-6.709	-0.117	-0.080
-711.689	-200.000	-0.031	0.148
-710.675	-141.040	0.263	-0.027
-709.660	54.032	0.141	0.137
-708.645	20.326	0.094	-0.076
-707.631	-53.063	0.163	-0.075
-706.616	-200.000	-0.017	0.290
-705.602	-167.740	0.298	0.012
-704.587	500.403	0.055	-0.127
-703.572	800.000	0.024	0.092
-702.558	-74.083	-0.140	0.051
-701.543	78.097	-0.188	-0.202
-700.529	62.796	-0.083	-0.083
-699.514	-200.000	0.019	0.199
-698.499	800.000	0.006	0.026
-697.485	800.000	0.082	-0.271
-696.470	49.932	-0.065	-0.062
-695.456	639.409	-0.064	-0.163
-694.441	-47.622	0.234	0.114
-693.426	-27.551	-0.217	-0.127
-692.412	354.569	-0.132	-0.264
-691.397	-122.281	0.257	0.042
-690.383	141.357	0.136	-0.180
-689.368	-140.322	-0.284	0.030
-688.354	421.258	-0.134	-0.289
-687.339	-200.000	0.005	-0.209
-686.324	137.432	0.058	0.076
-685.310	2.337	0.181	0.132
-684.295	58.292	-0.156	-0.154
-683.281	119.797	-0.096	-0.120
-682.266	-63.713	-0.321	-0.132
-681.251	339.716	0.147	0.287
-680.237	-123.421	0.274	0.044
-679.222	175.622	0.200	-0.291
-678.208	800.000	-0.056	0.164
-677.193	800.000	0.067	-0.210
-676.178	-87.589	0.100	0.030
-675.164	-200.000	0.012	-0.339
-674.149	-129.189	0.346	0.049
-673.135	-69.443	-0.166	-0.064
-672.120	-200.000	-0.016	-0.211
-671.105	-69.766	0.118	-0.045
-670.091	800.000	-0.047	-0.174
-669.076	83.845	-0.080	-0.088
-668.062	-160.098	0.181	-0.010
-667.047	42.406	-0.294	-0.269
-666.032	43.328	-0.130	-0.119
-665.018	800.000	-0.085	-0.359
-664.003	-59.808	0.228	-0.098
-662.989	-200.000	-0.005	-0.114
-661.974	418.574	0.100	-0.214
-660.959	93.733	-0.049	0.056
-659.945	-27.664	-0.233	0.136
-658.930	29.725	0.103	-0.088
-657.916	-26.985	0.214	0.125
-656.901	26.547	-0.152	-0.127
-655.886	-200.000	0.016	0.122
-654.872	32.722	0.058	0.050
-653.857	19.525	-0.132	-0.106
-652.843	-200.000	-0.077	0.424
-651.828	-102.247	-0.514	-0.124
-650.814	-94.493	-0.212	0.058
-649.799	746.158	-0.068	-0.184
-648.784	-34.542	0.197	-0.108
-647.770	600.668	0.165	0.410
-646.755	-15.797	0.362	0.231
-645.741	-76.189	-0.203	0.072
-644.726	20.246	0.188	-0.152
-643.711	-18.801	0.160	-0.100
-642.697	-24.786	-0.169	0.101
-641.682	-85.058	-0.185	0.058
-640.668	-200.000	0.016	-0.153
-639.653	-200.000	0.023	-0.250
-638.638	800.000	-0.092	-0.283
-637.624	-30.165	0.147	-0.084
-636.609	800.000	0.142	-0.408
-635.595	-200.000	-0.096	0.420
-634.580	462.520	-0.068	0.151
-633.565	800.000	0.109	-0.372
-632.551	126.098	0.067	-0.085
-631.536	-192.144	-0.159	0.002
-630.522	-129.748	0.466	0.064
-629.507	59.087	0.043	0.042
-628.492	-30.882	0.225	0.127
-627.478	-200.000	0.024	0.153
-626.463	38.121	0.162	-0.145
-625.449	-15.179	-0.199	-0.127
-624.434	250.268	0.088	-0.151
-623.419	-119.895	-0.357	-0.062
-622.405	459.046	-0.145	-0.323
-621.390	-163.206	0.207	0.010
-620.376	60.454	-0.133	-0.132
-619.361	83.266	0.146	-0.159
-618.346	-78.201	-0.109	0.038
-617.332	192.734	0.175	0.265
-616.317	-200.000	0.027	-0.500
-615.303	-188.683	0.244	0.003
-614.288	-118.300	0.164	0.029
-613.273	93.050	-0.033	-0.037
-612.259	-200.000	-0.078	0.414
-611.244	-55.234	-0.359	-0.162
-610.230	-77.934	-0.132	0.046
-609.215	705.106	0.106	-0.279
-608.201	800.000	-0.023	-0.091
-607.186	266.987	-0.165	-0.288
-606.171	221.538	-0.246	-0.396
-605.157	-200.000	-0.026	-0.237
-604.142	-200.000	-0.033	-0.334
-603.128	800.000	-0.118	-0.330
-602.113	582.260	0.059	-0.144
-601.098	0.786	0.128	-0.091
-600.084	-50.765	-0.319	0.150
-599.069	115.623	-0.034	-0.041
-598.055	-200.000	-0.015	0.102
-597.040	0.962	-0.074	-0.053
-596.025	293.786	0.091	-0.166
-595.011	13.348	0.156	0.121
-593.996	-200.000	-0.026	-0.141
-592.982	288.680	0.109	-0.197
-591.967	92.480	-0.135	0.153
-590.952	6.588	0.252	0.187
-589.938	218.717	0.143	-0.228
-588.923	210.685	-0.138	0.217
-587.909	800.000	0.048	-0.149
-586.894	780.142	-0.051	0.139
-585.879	413.565	-0.067	-0.143
-584.865	25.190	0.076	0.063
-583.850	796.557	0.043	0.119
-582.836	126.449	0.077	0.097
-581.821	507.293	-0.045	-0.105
-580.806	99.134	-0.012	0.014
-579.792	98.199	0.071	0.081
-578.777	54.956	-0.302	0.292
-577.763	387.833	-0.096	-0.198
-576.748	66.208	-0.144	-0.146
-575.733	-47.606	0.371	-0.180
-574.719	-152.643	-0.213	0.015
-573.704	89.102	-0.099	0.110
-572.690	80.253	-0.257	-0.277
-571.675	365.833	0.114	-0.229
-570.661	-44.685	-0.116	0.058
-569.646	-113.032	0.462	-0.091
-568.631	214.313	0.043	0.069
-567.617	-68.980	-0.062	0.024
-566.602	-184.132	-0.212	-0.004
-565.588	-35.458	0.078	-0.043
-564.573	679.547	0.098	0.256
-563.558	112.887	-0.161	0.195
-562.544	-86.276	0.272	0.084
-561.529	38.410	-0.309	0.275
-560.515	-200.000	-0.008	-0.048
-559.500	15.342	-0.135	0.106
-558.485	-54.989	-0.471	0.212
-557.471	-200.000	0.008	0.089
-556.456	-200.000	0.038	-0.213
-555.442	-10.230	0.314	0.208
-554.427	-60.471	0.162	0.069
-553.412	268.577	0.019	-0.034
-552.398	-8.122	-0.207	0.139
-551.383	800.000	0.115	0.319
-550.369	-200.000	0.033	0.251
-549.354	-46.254	0.042	0.020
-548.339	127.653	-0.024	-0.030
-547.325	-30.053	0.390	0.222
-546.310	399.081	0.158	-0.330
-545.296	-78.587	0.183	-0.062
-544.281	-157.987	0.168	-0.010
-543.266	-79.548	0.188	0.063
-542.252	800.000	0.026	-0.080
-541.237	142.234	-0.198	-0.262
-540.223	126.327	-0.101	-0.128
-539.208	-143.069	-0.128	-0.012
-538.193	-14.603	-0.192	0.123
-537.179	-77.822	-0.291	0.100
-536.164	-90.385	-0.357	-0.103
-535.150	-200.000	-0.023	0.283
-534.135	-72.835	0.184	-0.068
-533.121	-55.642	-0.276	0.123
-532.106	-200.000	0.070	-0.326
-531.091	800.000	-0.069	0.227
-530.077	41.896	-0.288	0.261
-529.062	-200.000	0.012	0.406
-528.048	-200.000	-0.000	-0.055
-527.033	-64.366	0.228	-0.093
-526.018	-200.000	-0.018	-0.229
-525.004	-2.740	-0.072	0.051
-523.989	80.543	0.156	0.167
-522.975	-108.457	-0.209	0.045
-521.960	-42.441	0.348	-0.177
-520.945	800.000	0.069	0.255
-519.931	-200.000	0.008	0.414
-518.916	125.521	0.096	0.121
-517.902	-200.000	-0.021	-0.312
-516.887	-200.000	-0.030	-0.193
-515.872	-32.414	-0.334	-0.186
-514.858	108.531	0.097	-0.116
-513.843	-200.000	-0.024	0.228
-512.829	-58.515	-0.368	-0.159
-511.814	-200.000	0.016	0.173
-510.799	37.710	0.157	-0.139
-509.785	279.831	-0.179	-0.319
-508.770	185.026	0.085	0.125
-507.756	80.010	0.232	0.248
-506.741	177.013	0.157	-0.228
-505.726	30.324	-0.191	0.162
-504.712	118.177	0.118	0.145
-503.697	799.836	0.077	0.212
-502.683	800.000	0.109	-0.321
-501.668	800.000	0.033	-0.105
-500.653	331.702	0.105	-0.202
-499.639	56.197	-0.054	0.052
-498.624	-79.471	-0.065	-0.022
-497.610	188.404	-0.219	-0.326
-496.595	-117.673	-0.149	0.027
-495.581	448.322	-0.092	0.202
-494.566	-169.043	-0.084	-0.003
-493.551	123.825	0.114	0.143
-492.537	-200.000	0.019	0.140
-491.522	800.000	0.093	0.281
-490.508	-108.943	-0.294	-0.062
-489.493	-26.103	0.200	-0.117
-488.478	-121.125	0.075	-0.012
-487.464	-129.270	-0.333	0.046
-486.449	155.909	-0.155	-0.213
-485.435	800.000	-0.124	-0.370
-484.420	-69.044	-0.297	-0.114
-483.405	2.309	-0.064	-0.046
-482.391	-200.000	0.038	-0.315
-481.376	-200.000	0.017	0.145
-480.362	-3.039	-0.077	-0.053
-479.347	800.000	-0.034	-0.121
-478.332	-116.267	-0.129	-0.024
-477.318	73.562	-0.043	0.045
-476.303	414.990	-0.067	0.142
-475.289	-112.067	-0.216	0.043
-474.274	-111.293	0.220	-0.045
-473.259	52.723	0.153	-0.146
-472.245	129.070	0.069	-0.088
-471.230	-200.000	-0.012	0.157
-470.216	-45.957	-0.164	-0.080
-469.201	455.593	0.155	0.341
-468.186	504.788	0.046	0.107
-467.172	308.193	-0.045	0.084
-466.157	636.082	-0.134	0.338
-465.143	800.000	-0.066	0.269
-464.128	260.209	-0.135	-0.233
-463.113	94.278	0.227	-0.256
-462.099	39.453	-0.088	-0.079
-461.084	-200.000	-0.013	-0.104
-460.070	-105.219	0.249	-0.057
-459.055	11.932	0.388	-0.297
-458.040	202.411	-0.120	-0.184
-457.026	-48.886	0.169	0.080
-456.011	163.670	0.053	-0.074
-454.997	288.990	-0.065	-0.117
-453.982	-123.454	0.324	-0.051
-452.968	21.078	-0.391	0.316
-451.953	682.849	0.041	0.106
-450.938	94.878	0.184	0.208
-449.924	-32.219	-0.279	-0.155
-448.909	-200.000	0.056	-0.307
-447.895	16.392	-0.145	-0.114
-446.880	-31.233	-0.334	0.187
-445.865	231.979	-0.182	-0.297
-444.851	-73.019	0.275	0.100
-443.836	-84.449	0.117	0.037
-442.822	209.573	-0.137	-0.214
-441.807	-21.668	0.156	-0.094
-440.792	800.000	0.093	-0.339
-439.778	-101.991	0.108	0.026
-438.763	-4.846	-0.170	0.116
-437.749	25.087	-0.323	0.267
-436.734	7.684	0.237	-0.176
-435.719	-16.109	-0.190	-0.120
-434.705	49.880	-0.017	-0.016
-433.690	83.127	-0.136	-0.147
-432.676	-55.639	-0.419	-0.187
-431.661	-145.242	0.209	-0.019
-430.646	-200.000	-0.001	0.286
-429.632	-200.000	-0.014	-0.132
-428.617	-16.941	0.037	-0.023
-427.603	6.269	-0.126	0.093
-426.588	-148.348	0.268	-0.022
-425.573	800.000	-0.076	0.254
-424.559	308.419	0.162	-0.300
-423.544	800.000	0.014	-0.043
-422.530	1.792	-0.141	-0.101
-421.515	-13.047	0.109	0.070
-420.500	64.342	0.124	0.125
-419.486	267.207	0.094	0.164
-418.471	-200.000	0.011	-0.112
-417.457	-48.765	0.190	0.091
-416.442	70.606	-0.098	0.100
-415.428	-84.351	0.199	0.062
-414.413	-161.940	-0.460	-0.023
-413.398	-147.578	0.142	0.012
-412.384	53.467	-0.082	-0.078
-411.369	27.981	-0.282	0.237
-410.355	-41.437	0.479	0.245
-409.340	-77.165	-0.375	0.130
-408.325	118.063	0.017	0.020
-407.311	88.716	0.156	-0.173
-406.296	-200.000	-0.001	-0.054
-405.282	-58.843	0.350	0.151
-404.267	643.888	-0.050	-0.127
-403.252	-122.225	0.262	-0.043
-402.238	-140.224	-0.224	0.023
-401.223	-132.987	-0.133	0.017
-400.209	-146.955	-0.180	-0.015
-399.194	37.722	-0.107	0.095
-398.179	-200.000	0.014	0.086
-397.165	437.540	-0.144	0.312
-396.150	-175.576	-0.087	-0.002
-395.136	0.654	-0.153	0.109
-394.121	-41.592	-0.084	0.043
-393.106	-91.204	-0.255	-0.073
-392.092	145.506	0.207	0.276
-391.077	-108.472	0.284	0.061
-390.063	-62.475	0.152	-0.063
-389.048	-200.000	-0.016	0.128
-388.033	89.068	0.013	-0.015
-387.019	-69.531	0.075	0.028
-386.004	-11.741	-0.151	0.098
-384.990	50.771	0.083	0.078
-383.975	-177.806	0.176	0.004
-382.960	251.082	0.217	-0.367
-381.946	800.000	0.023	-0.089
-380.931	800.000	-0.072	-0.291
-379.917	-19.021	-0.183	-0.113
-378.902	-89.379	0.057	-0.017
-377.888	-200.000	-0.027	-0.122
-376.873	114.178	-0.106	0.128
-375.858	800.000	0.065	-0.261
-374.844	800.000	-0.038	-0.104
-373.829	-5.424	0.097	-0.066
-372.815	800.000	0.079	0.298
-371.800	-20.204	0.085	0.052
-370.785	433.370	0.037	-0.081
-369.771	-100.285	-0.221	-0.055
-368.756	-200.000	-0.170	0.001
-367.742	-52.684	0.335	0.153
-366.727	-200.000	0.007	0.237
-365.712	800.000	0.048	-0.132
-364.698	-200.000	-0.024	-0.190
-363.683	-117.698	0.213	0.038
-362.669	-200.000	0.006	0.099
-361.654	137.182	0.119	0.155
-360.639	-200.000	-0.047	-0.271
-359.625	303.648	0.081	-0.148
-358.610	800.000	0.076	0.249
-357.596	655.336	-0.043	0.111
-356.581	-127.350	0.253	0.037
-355.566	-124.764	0.096	-0.015
-354.552	-200.000	0.021	0.100
-353.537	800.000	0.048	0.158
-352.523	16.576	0.249	0.195
-351.508	800.000	0.070	-0.248
-350.493	-72.703	0.081	-0.030
-349.479	0.377	0.208	0.147
-348.464	-63.351	0.016	-0.006
-347.450	-28.048	-0.082	0.047
-346.435	-128.379	0.083	0.012
-345.420	105.373	-0.114	0.134
-344.406	196.771	0.079	-0.119
-343.391	128.847	0.058	-0.073
-342.377	313.731	0.216	-0.402
-341.362	-10.042	0.189	0.124
-340.348	224.000	0.122	0.195
-339.333	-61.335	-0.082	-0.034
-338.318	249.106	-0.115	-0.193
-337.304	-38.518	0.169	0.089
-336.289	-179.871	-0.188	0.004
-335.275	-200.000	0.015	0.112
-334.260	800.000	0.018	0.057
-333.245	479.964	-0.021	0.047
-332.231	-63.884	-0.370	-0.150
-331.216	236.186	-0.157	0.257
-330.202	529.346	-0.192	0.450
-329.187	-36.583	-0.264	-0.141
-328.172	800.000	0.038	-0.166
-327.158	-98.302	0.181	0.046
-326.143	39.009	0.210	0.186
-325.129	800.000	-0.059	0.187
-324.114	-200.000	0.016	-0.093
-323.099	-18.704	-0.106	0.065
-322.085	-11.808	-0.148	-0.096
-321.070	139.870	-0.143	0.186
-320.056	111.997	-0.155	0.186
-319.041	-200.000	0.006	0.067
-318.026	-150.985	0.242	-0.018
-317.012	29.494	0.182	-0.154
-315.997	496.890	-0.128	0.291
-314.983	339.759	0.113	-0.218
-313.968	-200.000	0.027	0.253
-312.953	-113.073	0.271	0.053
-311.939	-78.286	0.081	-0.027
-310.924	-200.000	-0.004	-0.057
-309.910	89.905	-0.212	-0.234
-308.895	-200.000	0.025	-0.318
-307.880	-73.985	0.395	0.142
-306.866	67.876	0.264	-0.267
-305.851	-110.106	0.039	0.008
-304.837	-76.469	0.094	0.033
-303.822	-6.829	-0.262	-0.176
-302.807	800.000	0.049	-0.182
-301.793	-47.462	-0.255	-0.123
-300.778	-114.506	-0.245	0.047
-299.764	42.530	0.022	-0.019
-298.749	-54.403	-0.175	-0.078
-297.735	72.662	-0.113	0.116
-296.720	-200.000	0.092	0.592
-295.705	158.945	-0.131	-0.180
-294.691	81.936	0.046	-0.050
-293.676	-148.280	-0.164	0.013
-292.662	-200.000	-0.010	-0.253
-291.647	-8.391	-0.065	0.043
-290.632	583.821	-0.111	-0.271
-289.618	-200.000	-0.025	-0.199
-288.603	800.000	-0.009	-0.029
-287.589	-200.000	0.028	0.251
-286.574	-188.150	-0.133	0.002
-285.559	113.419	-0.231	0.277
-284.545	166.312	-0.133	0.187
-283.530	800.000	-0.044	-0.152
-282.516	-200.000	-0.019	0.089
-281.501	12.073	0.132	-0.100
-280.486	19.107	-0.065	-0.052
-279.472	-78.601	0.333	-0.113
-278.457	-200.000	0.041	-0.203
-277.443	-64.144	-0.117	-0.047
-276.428	-137.321	0.137	-0.015
-275.413	-200.000	-0.003	0.366
-274.399	9.874	0.257	-0.193
-273.384	-200.000	-0.053	0.348
-272.370	800.000	-0.048	0.193
-271.355	200.517	0.125	0.189
-270.340	731.455	0.017	0.046
-269.326	89.055	-0.047	0.051
-268.311	114.597	-0.115	0.139
-267.297	-200.000	-0.035	0.168
-266.282	200.596	-0.146	0.222
-265.267	800.000	0.078	0.230
-264.253	-25.517	-0.222	-0.130
-263.238	709.561	-0.011	-0.028
-262.224	-200.000	-0.032	0.264
-261.209	-200.000	-0.041	-0.319
-260.195	306.600	0.100	0.184
-259.180	610.961	0.059	0.145
-258.165	-38.887	0.219	0.114
-257.151	65.387	-0.104	0.104
-256.136	231.248	0.141	-0.228
-255.122	55.579	-0.233	-0.223
-254.107	-200.000	0.003	-0.145
-253.092	-60.584	-0.179	-0.075
-252.078	-80.482	-0.172	0.057
-251.063	-200.000	0.036	0.162
-250.049	-130.892	-0.218	-0.029
-249.034	223.845	0.079	-0.126
-248.019	674.147	0.140	0.360
-247.005	-155.310	-0.201	0.013
-245.990	800.000	-0.070	0.224
-244.976	-200.000	0.027	-0.195
-243.961	-63.646	0.089	0.036
-242.946	38.566	0.095	0.084
-241.932	31.361	-0.087	0.074
-240.917	-58.115	0.113	0.048
-239.903	800.000	-0.089	-0.246
-238.888	2.095	0.163	0.116
-237.873	145.073	-0.188	-0.249
-236.859	-157.219	-0.104	-0.006
-235.844	-57.356	0.469	0.203
-234.830	42.632	0.262	-0.235
-233.815	-136.462	-0.342	0.039
-232.800	33.730	-0.195	-0.167
-231.786	-163.436	0.213	0.010
-230.771	230.510	0.120	0.194
-229.757	-108.170	0.164	0.035
-228.742	-44.422	0.356	-0.176
-227.727	800.000	0.111	-0.429
-226.713	-126.460	0.276	-0.040
-225.698	-162.765	0.030	-0.001
-224.684	-200.000	-0.002	0.127
-223.669	790.504	0.066	-0.178
-222.655	82.345	-0.153	0.164
-221.640	62.832	-0.147	-0.145
-220.625	-48.640	-0.212	-0.100
-219.611	-74.330	-0.214	0.076
-218.596	226.580	0.076	0.121
-217.582	-153.732	0.082	0.006
-216.567	800.000	-0.111	0.467
-215.552	64.696	-0.152	0.151
-214.538	496.928	-0.063	0.143
-213.523	87.087	-0.177	-0.193
-212.509	-95.370	-0.288	-0.076
-211.494	-31.356	0.211	-0.117
-210.479	-200.000	0.007	0.218
-209.465	-200.000	0.008	-0.247
-208.450	101.913	-0.272	-0.313
-207.436	-87.999	-0.192	-0.057
-206.421	-91.840	0.214	0.060
-205.406	-139.453	-0.316	-0.033
-204.392	-68.011	-0.083	0.032
-203.377	800.000	0.040	-0.153
-202.363	-48.095	-0.257	0.122
-201.348	13.385	-0.077	-0.059
-200.333	30.268	-0.195	0.164
-199.319	193.192	0.233	-0.347
-198.304	10.909	0.103	-0.077
-197.290	439.953	-0.084	-0.180
-196.275	113.051	0.090	-0.108
-195.260	-64.550	0.372	0.149
-194.246	6.846	0.204	-0.150
-193.231	-58.099	-0.258	-0.111
-192.217	-12.160	0.037	0.024
-191.202	-102.446	0.377	-0.089
-190.187	214.736	0.068	-0.107
-189.173	-98.149	0.210	0.053
-188.158	157.588	-0.146	0.199
-187.144	7.097	-0.170	0.125
-186.129	405.645	-0.123	-0.255
-185.114	-21.289	-0.178	-0.107
-184.100	-200.000	0.047	-0.456
-183.085	-170.131	0.209	0.007
-182.071	-200.000	0.000	0.314
-181.056	-74.256	0.165	0.059
-180.042	109.271	0.122	0.144
-179.027	800.000	-0.062	0.184
-178.012	13.829	0.270	-0.207
-176.998	-200.000	0.032	0.207
-175.983	201.180	-0.170	0.258
-174.969	-145.504	-0.198	0.018
-173.954	800.000	0.010	-0.040
-172.939	30.906	0.312	0.263
-171.925	-200.000	0.067	0.318
-170.910	-200.000	-0.042	-0.212
-169.896	-200.000	-0.076	0.669
-168.881	404.282	-0.042	0.088
-167.866	-116.463	0.414	-0.075
-166.852	-200.000	-0.043	0.486
-165.837	289.657	-0.077	0.137
-164.823	169.930	0.060	-0.085
-163.808	166.634	-0.210	-0.293
-162.793	800.000	-0.043	0.145
-161.779	-177.753	-0.313	-0.007
-160.764	5.221	-0.138	-0.100
-159.750	-65.849	-0.066	0.026
-158.735	45.532	0.492	0.447
-157.720	39.134	0.125	0.110
-156.706	-200.000	-0.005	0.200
-155.691	-71.074	0.179	-0.066
-154.677	122.533	0.177	0.217
-153.662	-200.000	0.044	-0.210
-152.647	69.825	0.108	-0.110
-151.633	494.091	-0.155	-0.350
-150.618	77.603	-0.210	-0.220
-149.604	-123.996	0.096	0.015
-148.589	-200.000	0.013	0.447
-147.574	-200.000	0.029	-0.506
-146.560	-145.006	-0.391	-0.035
-145.545	-106.970	-0.169	-0.037
-144.531	260.685	0.113	0.193
-143.516	334.614	0.134	0.255
-142.502	114.049	0.237	0.284
-141.487	-5.151	0.376	-0.255
-140.472	19.979	0.092	-0.073
-139.458	749.587	-0.130	-0.346
-138.443	-2.352	0.040	-0.028
-137.429	-200.000	-0.024	0.119
-136.414	172.392	0.144	0.204
-135.399	-200.000	-0.002	0.412
-134.385	-200.000	-0.022	-0.381
-133.370	-3.337	-0.336	0.230
-132.356	184.883	0.116	-0.170
-131.341	-181.506	-0.163	-0.003
-130.326	-74.315	0.286	-0.102
-129.312	209.333	0.032	-0.050
-128.297	-200.000	0.007	-0.203
-127.283	249.295	-0.078	-0.130
-126.268	5.218	-0.163	0.118
-125.253	-200.000	0.022	0.121
-124.239	800.000	0.030	-0.112
-123.224	-125.255	-0.021	-0.003
-122.210	800.000	0.060	-0.245
-121.195	-200.000	0.061	0.397
