DTS Sentinel unit serial number:	SN413079Multiplexer serial number:	ORYXHardware model number:	OX4-SRSoftware version number:	ORYX F/W v4.00 Oryx Data Collector v3.7.2.0data status	okinstallation	princeton_trtdifferential loss correction	single-endedforward channel	channel 3reverse channel	N/Adate	2019/09/11time	08:18:11forward acquisition time	60.00reverse acquisition time	0.00gamma	496.2192k internal	0.2318k external	0.2318temperature offset calibration	0.9938default loss term (dB/km)	0.3790temperature slope calibration	1.0000multiplexer offset coefficient	1.0000multiplexer slope coefficient	1.0000fibre end	0.00T internal ref (°C)	32.67T ext. ref 1 (°C)	0.10T ext. ref 2 (°C)	29.73length (m)	temperature (°C)	Stokes	anti-Stokes-747.200	-8.276	0.362	0.247
-746.185	-1.420	-0.093	-0.067
-745.171	-4.268	0.244	-0.171
-744.156	800.000	0.059	0.245
-743.142	-44.971	-0.100	-0.051
-742.127	-3.535	0.141	0.100
-741.112	53.952	0.131	0.128
-740.098	52.176	-0.348	0.336
-739.083	116.035	0.032	-0.039
-738.069	223.040	-0.167	0.273
-737.054	-116.608	-0.429	-0.080
-736.039	-200.000	0.010	-0.170
-735.025	308.110	0.218	0.412
-734.010	317.316	-0.160	-0.306
-732.996	-98.161	-0.127	-0.033
-731.981	-200.000	0.049	0.220
-730.966	-60.590	-0.264	-0.113
-729.952	265.626	0.127	0.224
-728.937	125.559	0.110	-0.141
-727.923	-96.212	-0.141	0.038
-726.908	800.000	0.080	-0.271
-725.894	800.000	-0.027	0.092
-724.879	-111.011	0.211	-0.044
-723.864	74.404	-0.240	-0.255
-722.850	130.034	0.073	0.094
-721.835	-129.576	0.429	-0.060
-720.821	287.115	0.046	-0.085
-719.806	-43.029	-0.180	0.092
-718.791	-129.651	0.152	-0.021
-717.777	-31.152	-0.396	0.226
-716.762	-200.000	-0.031	0.302
-715.748	40.455	-0.211	-0.192
-714.733	-200.000	-0.002	-0.117
-713.718	-12.222	0.064	-0.043
-712.704	800.000	-0.060	-0.205
-711.689	-200.000	0.058	-0.311
-710.675	-126.878	-0.213	-0.032
-709.660	62.524	0.078	-0.078
-708.645	-97.648	0.070	-0.018
-707.631	55.591	-0.130	-0.127
-706.616	-26.093	-0.077	-0.046
-705.602	203.335	0.048	-0.075
-704.587	24.668	-0.200	-0.167
-703.572	76.290	0.073	0.078
-702.558	800.000	0.021	-0.068
-701.543	800.000	-0.011	-0.033
-700.529	-101.077	-0.372	-0.092
-699.514	-73.973	-0.083	-0.031
-698.499	556.723	0.164	-0.398
-697.485	-83.776	-0.127	0.041
-696.470	131.346	-0.096	-0.124
-695.456	-55.185	-0.118	-0.054
-694.441	-157.138	-0.219	0.013
-693.426	-50.552	0.075	-0.036
-692.412	800.000	0.108	0.348
-691.397	23.317	-0.061	0.051
-690.383	-48.055	0.560	-0.273
-689.368	107.189	-0.231	-0.278
-688.354	-200.000	-0.043	-0.217
-687.339	306.889	-0.136	-0.255
-686.324	800.000	-0.113	-0.401
-685.310	-160.853	0.404	0.022
-684.295	36.815	0.225	-0.200
-683.281	-176.154	-0.194	-0.005
-682.266	-23.085	-0.207	-0.126
-681.251	-85.038	0.251	-0.079
-680.237	59.568	0.138	0.137
-679.222	447.750	0.179	0.397
-678.208	243.690	-0.123	0.209
-677.193	-11.235	-0.111	-0.074
-676.178	-171.915	-0.135	0.004
-675.164	-166.261	-0.222	-0.009
-674.149	-200.000	-0.012	-0.168
-673.135	-95.335	-0.458	-0.124
-672.120	152.226	-0.147	-0.203
-671.105	-200.000	-0.025	0.127
-670.091	59.823	-0.282	0.281
-669.076	236.340	0.125	-0.209
-668.062	-120.057	0.209	-0.036
-667.047	272.415	-0.111	-0.198
-666.032	207.768	-0.181	0.285
-665.018	-79.899	0.155	0.053
-664.003	-200.000	-0.025	-0.497
-662.989	43.431	-0.154	0.142
-661.974	175.636	-0.234	-0.342
-660.959	9.682	0.041	-0.031
-659.945	-89.535	-0.218	-0.065
-658.930	800.000	-0.018	0.060
-657.916	-114.180	-0.125	0.024
-656.901	-1.016	0.085	-0.061
-655.886	123.706	0.200	0.253
-654.872	406.378	-0.126	0.268
-653.857	77.624	-0.077	-0.082
-652.843	0.773	-0.196	0.142
-651.828	92.445	-0.162	0.184
-650.814	-92.525	-0.052	0.015
-649.799	670.611	-0.119	-0.310
-648.784	122.026	-0.117	0.147
-647.770	102.035	0.142	0.167
-646.755	-172.565	-0.269	-0.009
-645.741	-164.165	0.332	-0.015
-644.726	244.223	-0.124	0.210
-643.711	-123.358	-0.192	-0.031
-642.697	-200.000	0.018	-0.133
-641.682	-93.389	-0.134	-0.038
-640.668	-90.196	0.276	0.081
-639.653	-200.000	-0.003	0.044
-638.638	-110.709	-0.158	-0.033
-637.624	800.000	-0.039	0.146
-636.609	800.000	0.016	0.048
-635.595	-200.000	-0.052	0.234
-634.580	-38.330	0.123	0.066
-633.565	24.207	0.066	0.055
-632.551	-66.116	-0.317	0.127
-631.536	-80.522	0.225	0.076
-630.522	123.633	0.221	-0.279
-629.507	800.000	-0.041	-0.177
-628.492	70.936	0.284	0.296
-627.478	286.768	0.018	0.033
-626.463	13.442	0.058	0.045
-625.449	-200.000	0.008	0.067
-624.434	439.466	0.211	-0.464
-623.419	11.187	0.243	-0.187
-622.405	-36.124	-0.144	-0.078
-621.390	46.994	-0.117	0.110
-620.376	44.377	-0.403	-0.373
-619.361	-4.925	-0.170	-0.118
-618.346	-62.214	0.315	-0.132
-617.332	-200.000	0.009	0.165
-616.317	137.943	-0.068	0.089
-615.303	-126.281	-0.244	-0.037
-614.288	800.000	0.061	-0.174
-613.273	-131.465	-0.115	-0.015
-612.259	-119.188	0.131	-0.023
-611.244	68.749	-0.199	0.206
-610.230	-146.506	-0.212	0.019
-609.215	188.765	-0.161	-0.243
-608.201	127.338	-0.283	-0.361
-607.186	800.000	-0.084	-0.262
-606.171	219.398	0.122	0.196
-605.157	-34.105	0.071	-0.039
-604.142	-103.631	-0.261	0.062
-603.128	215.029	-0.119	0.190
-602.113	384.627	-0.086	-0.179
-601.098	98.492	-0.056	0.065
-600.084	682.489	0.037	-0.098
-599.069	172.313	-0.235	-0.340
-598.055	161.458	0.061	0.086
-597.040	0.248	0.046	-0.033
-596.025	-200.000	0.035	-0.155
-595.011	23.494	-0.134	-0.111
-593.996	-200.000	-0.045	0.291
-592.982	356.400	0.167	0.334
-591.967	-31.436	0.099	-0.056
-590.952	101.942	0.216	-0.253
-589.938	-200.000	0.066	-0.371
-588.923	157.830	-0.038	-0.053
-587.909	290.794	0.051	-0.092
-586.894	178.195	-0.107	0.157
-585.879	800.000	-0.164	0.578
-584.865	50.324	-0.149	-0.142
-583.850	-200.000	0.477	0.002
-582.836	-95.300	-0.209	0.057
-581.821	33.553	-0.137	-0.120
-580.806	-96.567	0.127	0.034
-579.792	-109.841	-0.158	0.033
-578.777	-140.579	0.497	0.052
-577.763	-135.158	0.187	0.023
-576.748	-2.603	-0.089	-0.062
-575.733	-70.121	-0.092	0.035
-574.719	11.186	-0.235	0.180
-573.704	800.000	-0.066	-0.208
-572.690	-137.978	-0.194	0.022
-571.675	-65.997	-0.064	-0.026
-570.661	-200.000	-0.003	0.183
-569.646	209.324	-0.078	-0.122
-568.631	26.394	-0.071	-0.060
-567.617	208.088	0.113	0.178
-566.602	-200.000	-0.018	0.327
-565.588	-52.790	0.093	-0.043
-564.573	800.000	-0.037	0.116
-563.558	-79.770	0.283	-0.096
-562.544	-19.552	0.218	0.135
-561.529	128.451	-0.095	0.121
-560.515	-80.179	-0.135	0.046
-559.500	-200.000	0.012	0.191
-558.485	67.407	-0.252	-0.259
-557.471	297.047	0.152	-0.281
-556.456	-76.791	-0.058	-0.020
-555.442	-176.084	0.105	-0.003
-554.427	48.813	-0.134	-0.126
-553.412	104.798	0.207	0.245
-552.398	228.734	0.025	-0.041
-551.383	149.584	0.190	0.258
-550.369	424.226	0.006	-0.012
-549.354	49.911	-0.142	-0.135
-548.339	-27.597	-0.156	0.091
-547.325	340.637	-0.171	0.336
-546.310	-200.000	-0.012	-0.233
-545.296	-200.000	-0.055	-0.398
-544.281	-131.770	-0.111	-0.015
-543.266	-200.000	-0.053	0.310
-542.252	180.391	0.081	0.120
-541.237	222.372	0.131	0.211
-540.223	800.000	-0.084	0.275
-539.208	9.701	-0.226	-0.172
-538.193	168.592	-0.123	0.176
-537.179	-164.946	0.146	0.007
-536.164	-200.000	-0.041	0.205
-535.150	-71.738	-0.157	0.059
-534.135	800.000	0.074	-0.260
-533.121	212.411	-0.119	-0.189
-532.106	-87.788	0.149	0.045
-531.091	11.566	-0.137	0.106
-530.077	-158.872	0.078	-0.004
-529.062	156.209	-0.092	0.128
-528.048	800.000	-0.038	-0.117
-527.033	-179.387	-0.082	0.002
-526.018	262.586	-0.108	-0.187
-525.004	-200.000	0.005	-0.250
-523.989	53.162	0.065	0.063
-522.975	-38.656	-0.307	-0.163
-521.960	800.000	-0.082	0.304
-520.945	778.499	0.072	-0.198
-519.931	306.854	0.127	-0.238
-518.916	28.241	0.067	-0.057
-517.902	-200.000	0.006	-0.056
-516.887	800.000	0.067	-0.266
-515.872	-18.853	0.412	-0.257
-514.858	87.642	-0.084	0.093
-513.843	-200.000	-0.026	0.460
-512.829	-34.606	0.289	0.159
-511.814	-200.000	0.000	-0.112
-510.799	800.000	0.056	-0.171
-509.785	-58.165	-0.225	0.098
-508.770	-10.013	0.320	0.214
-507.756	315.577	-0.101	0.191
-506.741	138.366	-0.114	0.150
-505.726	-99.827	-0.193	0.048
-504.712	-117.717	-0.216	-0.039
-503.697	-166.726	0.210	0.009
-502.683	65.212	0.051	0.051
-501.668	-99.018	-0.263	-0.067
-500.653	-51.156	0.216	-0.102
-499.639	-11.404	-0.401	-0.265
-498.624	-19.590	-0.198	-0.123
-497.610	349.395	-0.108	0.213
-496.595	-173.299	-0.373	-0.011
-495.581	-74.443	0.117	0.042
-494.566	7.067	0.153	-0.114
-493.551	-200.000	0.050	-0.223
-492.537	-6.911	0.095	0.065
-491.522	-200.000	0.033	-0.621
-490.508	325.121	-0.007	-0.013
-489.493	-200.000	-0.004	0.142
-488.478	23.576	0.250	0.206
-487.464	-42.122	-0.165	0.085
-486.449	-86.637	0.093	0.029
-485.435	-85.126	0.318	0.100
-484.420	222.953	0.263	0.424
-483.405	800.000	0.051	-0.170
-482.391	268.671	-0.321	0.563
-481.376	-68.760	-0.147	-0.057
-480.362	-172.969	0.200	-0.006
-479.347	-109.077	-0.253	-0.054
-478.332	92.235	0.279	-0.315
-477.318	-200.000	-0.055	-0.397
-476.303	2.265	0.070	0.051
-475.289	-105.854	0.184	-0.042
-474.274	-31.070	-0.175	-0.099
-473.259	-81.158	-0.198	-0.066
-472.245	-200.000	0.054	0.353
-471.230	-200.000	0.043	0.217
-470.216	-69.498	0.126	-0.048
-469.201	84.950	0.239	0.262
-468.186	-43.427	0.112	0.057
-467.172	220.206	-0.046	-0.074
-466.157	-200.000	-0.011	0.217
-465.143	-52.695	0.310	0.143
-464.128	1.987	0.156	-0.113
-463.113	-200.000	0.080	0.601
-462.099	-115.636	-0.342	-0.064
-461.084	800.000	-0.064	0.220
-460.070	6.417	0.121	-0.090
-459.055	121.226	0.092	0.115
-458.040	238.687	-0.065	-0.108
-457.026	-200.000	-0.012	0.092
-456.011	-147.569	-0.322	0.027
-454.997	321.140	0.081	0.154
-453.982	-97.398	-0.439	-0.114
-452.968	82.661	-0.083	0.091
-451.953	8.022	-0.054	-0.040
-450.938	-200.000	0.008	-0.489
-449.924	-49.105	0.454	-0.217
-448.909	-98.971	0.448	0.114
-447.895	-106.413	0.316	0.071
-446.880	-57.596	-0.208	-0.091
-445.865	-200.000	-0.006	-0.060
-444.851	700.871	0.072	0.190
-443.836	576.262	-0.041	0.101
-442.822	800.000	-0.017	-0.061
-441.807	59.991	-0.208	-0.205
-440.792	-200.000	-0.060	0.370
-439.778	-107.261	0.123	0.027
-438.763	270.921	-0.061	-0.108
-437.749	17.977	0.263	-0.209
-436.734	120.001	0.040	-0.049
-435.719	-3.121	0.173	-0.121
-434.705	800.000	-0.084	-0.283
-433.690	-134.205	-0.076	0.009
-432.676	-200.000	0.004	0.041
-431.661	263.392	0.153	0.266
-430.646	75.974	0.251	-0.265
-429.632	92.270	0.018	-0.020
-428.617	-189.090	0.333	0.004
-427.603	57.793	0.153	-0.150
-426.588	252.954	-0.151	-0.258
-425.573	-100.861	-0.392	-0.096
-424.559	-34.256	-0.149	0.082
-423.544	-200.000	0.016	-0.107
-422.530	-200.000	0.031	-0.175
-421.515	404.520	-0.129	0.271
-420.500	228.241	-0.062	-0.102
-419.486	94.703	-0.335	0.381
-418.471	-134.827	-0.370	-0.045
-417.457	-37.513	-0.135	-0.072
-416.442	-86.873	0.186	-0.057
-415.428	123.225	-0.121	-0.151
-414.413	119.440	-0.051	-0.064
-413.398	-200.000	0.046	-0.360
-412.384	800.000	-0.066	0.249
-411.369	-70.931	-0.191	-0.072
-410.355	480.560	0.152	-0.345
-409.340	605.129	0.159	-0.395
-408.325	-174.069	-0.214	-0.006
-407.311	-110.983	-0.201	-0.041
-406.296	-85.988	-0.436	-0.135
-405.282	-200.000	0.069	-0.329
-404.267	-200.000	-0.028	-0.197
-403.252	-106.515	-0.437	0.097
-402.238	-165.586	0.034	0.001
-401.223	196.390	-0.116	-0.176
-400.209	380.627	0.142	-0.291
-399.194	654.405	0.048	0.123
-398.179	82.351	0.178	0.192
-397.165	48.884	0.274	0.257
-396.150	268.730	-0.222	0.389
-395.136	-43.138	0.216	-0.109
-394.121	-132.733	-0.353	-0.045
-393.106	10.603	-0.373	-0.284
-392.092	22.261	0.147	0.120
-391.077	121.637	0.060	-0.075
-390.063	284.451	0.172	-0.310
-389.048	22.351	-0.160	0.131
-388.033	30.116	0.288	-0.246
-387.019	239.452	-0.036	0.060
-386.004	251.969	0.171	-0.291
-384.990	292.672	0.182	-0.330
-383.975	800.000	-0.066	-0.255
-382.960	379.636	0.083	0.171
-381.946	-152.482	0.288	0.021
-380.931	-96.608	-0.121	0.032
-379.917	-200.000	0.035	-0.156
-378.902	-96.902	-0.525	0.138
-377.888	-200.000	0.005	0.227
-376.873	-16.900	-0.249	-0.157
-375.858	459.958	-0.113	0.251
-374.844	242.075	-0.344	0.574
-373.829	-62.064	-0.156	-0.065
-372.815	-115.468	0.443	0.083
-371.800	-12.797	0.148	0.096
-370.785	203.765	-0.068	0.105
-369.771	533.847	0.017	-0.041
-368.756	-49.319	-0.096	-0.045
-367.742	-200.000	-0.009	-0.092
-366.727	-159.583	0.404	-0.022
-365.712	-171.395	0.303	-0.010
-364.698	267.283	0.088	0.153
-363.683	239.495	0.061	-0.100
-362.669	-200.000	-0.046	0.475
-361.654	-19.917	0.166	-0.102
-360.639	4.949	0.388	-0.285
-359.625	-148.764	-0.154	0.012
-358.610	-110.216	-0.209	0.043
-357.596	-200.000	-0.013	-0.161
-356.581	98.228	-0.092	0.106
-355.566	-75.822	0.291	0.103
-354.552	-200.000	-0.014	-0.098
-353.537	-200.000	-0.057	-0.474
-352.523	-34.732	-0.432	-0.235
-351.508	-32.774	0.151	-0.084
-350.493	53.929	-0.102	0.098
-349.479	7.534	-0.131	0.098
-348.464	-24.734	0.444	-0.263
-347.450	800.000	-0.016	-0.055
-346.435	-135.094	-0.241	-0.029
-345.420	40.831	0.167	0.151
-344.406	115.629	-0.120	0.146
-343.391	800.000	0.086	0.299
-342.377	-21.743	0.233	-0.141
-341.362	-78.867	-0.303	-0.103
-340.348	334.269	-0.045	0.086
-339.333	-135.585	0.555	0.066
-338.318	-68.776	0.193	-0.074
-337.304	64.798	0.204	-0.205
-336.289	-200.000	-0.032	-0.172
-335.275	-105.379	0.366	0.083
-334.260	-200.000	0.000	0.074
-333.245	521.658	0.028	-0.066
-332.231	132.031	0.075	-0.096
-331.216	-141.215	-0.325	-0.033
-330.202	-27.073	0.065	-0.038
-329.187	-72.330	0.403	0.149
-328.172	-64.071	-0.158	0.064
-327.158	800.000	-0.032	-0.098
-326.143	78.777	-0.077	0.082
-325.129	-172.539	-0.170	-0.005
-324.114	101.822	-0.183	-0.213
-323.099	620.402	0.072	-0.180
-322.085	800.000	-0.005	0.018
-321.070	-200.000	0.014	-0.272
-320.056	105.441	-0.227	0.267
-319.041	90.378	0.101	0.113
-318.026	174.137	0.083	0.120
-317.012	-200.000	-0.025	-0.209
-315.997	-115.643	0.207	0.039
-314.983	-73.026	-0.179	0.065
-313.968	119.848	0.276	-0.340
-312.953	-200.000	-0.026	0.388
-311.939	-84.689	-0.373	-0.117
-310.924	-28.656	0.266	-0.152
-309.910	65.958	0.132	-0.133
-308.895	480.617	0.202	-0.456
-307.880	-26.169	0.024	0.014
-306.866	23.197	0.242	0.197
-305.851	-175.512	-0.273	-0.007
-304.837	-200.000	0.018	0.118
-303.822	61.372	0.312	0.308
-302.807	124.381	0.012	0.015
-301.793	-200.000	-0.009	-0.051
-300.778	199.339	0.100	-0.152
-299.764	-200.000	-0.006	-0.138
-298.749	95.299	0.094	0.107
-297.735	-200.000	0.054	-0.307
-296.720	-200.000	-0.041	-0.514
-295.705	130.169	0.109	-0.138
-294.691	-55.690	-0.147	-0.066
-293.676	-30.069	0.475	-0.269
-292.662	-16.970	-0.324	0.203
-291.647	57.467	0.077	-0.074
-290.632	197.321	0.238	0.362
-289.618	408.614	0.124	0.261
-288.603	-142.403	-0.259	-0.025
-287.589	-118.651	0.103	0.018
-286.574	-64.177	-0.116	-0.047
-285.559	-21.423	0.171	0.104
-284.545	372.784	0.096	-0.194
-283.530	398.356	-0.078	-0.162
-282.516	-50.966	0.187	-0.087
-281.501	75.356	0.110	-0.116
-280.486	321.182	0.047	-0.089
-279.472	-187.930	0.348	0.004
-278.457	236.590	-0.140	0.230
-277.443	800.000	0.123	0.498
-276.428	53.501	-0.089	0.085
-275.413	-128.269	-0.075	-0.011
-274.399	-47.985	0.207	0.100
-273.384	-200.000	0.034	0.179
-272.370	-123.489	-0.184	0.029
-271.355	-200.000	-0.034	0.187
-270.340	800.000	-0.036	0.149
-269.326	-200.000	-0.003	0.084
-268.311	57.778	-0.162	-0.157
-267.297	38.977	-0.246	0.218
-266.282	-68.771	0.190	0.073
-265.267	-200.000	-0.006	-0.050
-264.253	-161.168	-0.270	-0.014
-263.238	-133.003	-0.122	-0.015
-262.224	-161.280	-0.187	0.010
-261.209	-134.604	-0.231	0.028
-260.195	800.000	0.053	0.210
-259.180	-51.737	0.064	0.030
-258.165	11.182	0.239	-0.181
-257.151	-114.016	0.223	-0.043
-256.136	65.469	0.094	-0.095
-255.122	-200.000	0.022	-0.146
-254.107	-38.893	0.165	-0.086
-253.092	56.314	-0.225	-0.217
-252.078	-190.315	0.148	0.002
-251.063	-200.000	0.004	0.266
-250.049	100.440	-0.167	0.193
-249.034	286.114	0.080	0.144
-248.019	268.653	0.189	0.328
-247.005	174.966	0.220	-0.316
-245.990	-40.691	0.130	-0.067
-244.976	-200.000	0.026	0.416
-243.961	343.938	0.096	0.188
-242.946	-23.192	0.216	-0.129
-241.932	-9.651	-0.145	-0.096
-240.917	610.328	0.154	0.382
-239.903	94.065	-0.265	-0.298
-238.888	-142.580	0.209	0.020
-237.873	172.578	0.050	-0.072
-236.859	-19.995	-0.260	-0.159
-235.844	-0.669	0.255	-0.179
-234.830	-200.000	0.020	-0.100
-233.815	-20.620	-0.216	0.132
-232.800	489.296	-0.113	0.256
-231.786	-98.100	0.389	0.099
-230.771	-200.000	0.018	0.239
-229.757	23.509	-0.213	0.174
-228.742	800.000	-0.006	0.016
-227.727	-106.083	-0.296	-0.066
-226.713	292.866	0.083	0.150
-225.698	-200.000	0.005	0.200
-224.684	109.026	-0.314	0.372
-223.669	138.384	-0.099	-0.129
-222.655	161.501	0.071	-0.099
-221.640	35.312	0.209	-0.182
-220.625	-81.478	-0.278	0.091
-219.611	800.000	-0.063	0.243
-218.596	-200.000	0.016	0.073
-217.582	800.000	0.081	0.250
-216.567	-117.168	-0.234	-0.042
-215.552	-200.000	0.004	0.093
-214.538	213.129	-0.093	-0.146
-213.523	563.412	-0.041	-0.099
-212.509	800.000	0.029	0.110
-211.494	800.000	0.042	0.152
-210.479	-200.000	-0.040	-0.237
-209.465	-57.163	0.328	0.143
-208.450	-140.430	-0.232	-0.024
-207.436	59.634	0.219	0.214
-206.421	-44.288	-0.265	0.131
-205.406	5.334	-0.104	0.076
-204.392	-200.000	0.037	0.200
-203.377	33.636	0.185	-0.159
-202.363	800.000	0.053	-0.151
-201.348	-154.856	-0.127	-0.008
-200.333	-112.854	-0.137	-0.027
-199.319	-39.606	-0.198	0.103
-198.304	179.647	0.173	0.250
-197.290	165.242	-0.032	0.045
-196.275	-48.417	-0.097	-0.046
-195.260	-200.000	0.287	-0.001
-194.246	-176.429	0.250	0.006
-193.231	-200.000	-0.009	0.203
-192.217	-16.212	-0.122	0.077
-191.202	-136.785	-0.071	0.008
-190.187	-93.199	0.134	0.037
-189.173	-179.075	0.253	0.006
-188.158	800.000	0.094	-0.356
-187.144	-200.000	0.006	0.257
-186.129	-52.642	-0.263	-0.120
-185.114	-22.823	0.124	0.074
-184.100	-53.185	-0.323	-0.147
-183.085	-103.265	-0.332	0.078
-182.071	-75.391	0.046	0.016
-181.056	-116.876	-0.060	0.011
-180.042	800.000	0.096	0.323
-179.027	-4.896	-0.107	0.073
-178.012	800.000	-0.041	0.113
-176.998	-128.204	-0.173	0.024
-175.983	-138.073	-0.203	-0.022
-174.969	340.670	0.151	-0.292
-173.954	-65.567	0.236	-0.094
-172.939	-200.000	-0.013	0.219
-171.925	-4.701	0.096	0.066
-170.910	145.234	-0.256	0.338
-169.896	-200.000	-0.037	-0.207
-168.881	-81.451	-0.329	-0.107
-167.866	-160.200	-0.066	-0.004
-166.852	227.574	0.088	-0.141
-165.837	-58.297	0.228	0.098
-164.823	57.990	-0.138	0.134
-163.808	-200.000	0.017	-0.087
-162.793	-64.123	0.309	-0.125
-161.779	-200.000	-0.028	-0.132
-160.764	800.000	0.022	-0.086
-159.750	800.000	0.067	-0.266
-158.735	-16.088	-0.352	-0.222
-157.720	-44.372	0.303	-0.150
-156.706	-200.000	-0.014	0.203
-155.691	52.311	0.203	0.191
-154.677	-88.061	-0.202	-0.060
-153.662	-53.436	0.084	0.038
-152.647	800.000	-0.029	0.097
-151.633	654.832	-0.088	0.224
-150.618	48.368	-0.222	0.205
-149.604	96.643	-0.154	-0.174
-148.589	398.831	0.076	-0.158
-147.574	-14.219	0.121	0.077
-146.560	-192.392	-0.401	-0.004
-145.545	-200.000	-0.032	-0.187
-144.531	87.545	0.081	0.089
-143.516	-71.249	-0.299	0.111
-142.502	203.455	-0.157	0.240
-141.487	40.384	-0.036	-0.032
-140.472	296.791	0.192	0.349
-139.458	98.060	0.050	0.057
-138.443	357.909	-0.141	0.279
-137.429	351.522	0.014	0.027
-136.414	37.721	-0.226	-0.199
-135.399	-92.850	0.165	-0.045
-134.385	159.122	0.274	-0.376
-133.370	-104.480	-0.226	0.052
-132.356	-70.116	0.392	-0.147
-131.341	-37.185	-0.200	-0.106
-130.326	-200.000	0.009	-0.202
-129.312	800.000	-0.087	0.291
-128.297	535.696	-0.036	0.085
-127.283	-28.903	0.379	0.215
-126.268	-180.256	0.364	0.008
-125.253	800.000	0.055	-0.225
-124.239	-28.355	0.289	-0.165
-123.224	-115.098	-0.224	0.042
-122.210	-66.313	0.174	-0.069
