DTS Sentinel unit serial number:	SN413079Multiplexer serial number:	ORYXHardware model number:	OX4-SRSoftware version number:	ORYX F/W v4.00 Oryx Data Collector v3.7.2.0data status	okinstallation	princeton_trtdifferential loss correction	single-endedforward channel	channel 3reverse channel	N/Adate	2019/09/10time	17:02:11forward acquisition time	60.00reverse acquisition time	0.00gamma	496.2192k internal	0.2299k external	0.2299temperature offset calibration	0.9906default loss term (dB/km)	0.3790temperature slope calibration	1.0000multiplexer offset coefficient	1.0000multiplexer slope coefficient	1.0000fibre end	0.00T internal ref (°C)	37.62T ext. ref 1 (°C)	-0.36T ext. ref 2 (°C)	32.12length (m)	temperature (°C)	Stokes	anti-Stokes-747.200	106.503	0.197	0.239
-746.185	800.000	-0.087	0.298
-745.171	-200.000	0.023	0.288
-744.156	-8.728	-0.108	0.074
-743.142	268.307	0.080	-0.143
-742.127	-200.000	0.025	-0.206
-741.112	501.947	-0.063	0.148
-740.098	-200.000	-0.029	0.198
-739.083	60.761	0.192	-0.194
-738.069	-144.460	0.451	-0.043
-737.054	232.867	0.138	-0.232
-736.039	-146.117	0.133	0.012
-735.025	-30.111	0.279	-0.162
-734.010	208.655	-0.247	0.394
-732.996	221.998	0.049	-0.080
-731.981	-200.000	0.024	-0.196
-730.966	105.395	0.157	-0.189
-729.952	-168.811	-0.307	-0.012
-728.937	800.000	-0.103	0.299
-727.923	254.098	0.082	0.143
-726.908	-45.974	0.142	-0.071
-725.894	-123.725	-0.264	-0.043
-724.879	-110.613	0.138	-0.029
-723.864	-23.534	-0.137	0.084
-722.850	479.459	-0.006	0.014
-721.835	-120.832	0.094	-0.016
-720.821	374.396	0.164	-0.340
-719.806	289.831	-0.139	0.258
-718.791	-124.356	-0.192	0.031
-717.777	3.202	0.137	0.102
-716.762	18.701	0.166	-0.135
-715.748	58.265	-0.230	-0.230
-714.733	414.905	-0.124	0.270
-713.718	-117.533	-0.199	-0.037
-712.704	-153.205	0.124	-0.009
-711.689	-200.000	0.049	-0.219
-710.675	-40.949	-0.242	0.128
-709.660	99.541	-0.168	0.198
-708.645	220.904	-0.173	-0.283
-707.631	-2.639	-0.067	-0.048
-706.616	-200.000	-0.023	-0.343
-705.602	800.000	0.112	-0.374
-704.587	-119.677	0.276	-0.049
-703.572	-78.486	-0.079	0.028
-702.558	229.685	-0.194	-0.322
-701.543	0.658	-0.332	0.242
-700.529	421.488	0.096	-0.210
-699.514	52.533	0.060	0.059
-698.499	-112.021	-0.108	0.022
-697.485	35.684	0.247	-0.221
-696.470	-87.027	-0.191	-0.059
-695.456	108.433	0.028	0.034
-694.441	-200.000	0.039	-0.243
-693.426	-49.303	-0.364	-0.177
-692.412	265.587	0.093	-0.165
-691.397	227.392	-0.217	0.359
-690.383	513.264	-0.106	-0.251
-689.368	378.787	-0.150	0.313
-688.354	312.193	0.183	0.350
-687.339	-0.823	0.177	-0.127
-686.324	322.845	0.077	-0.149
-685.310	800.000	0.119	0.401
-684.295	339.330	-0.096	0.191
-683.281	-200.000	0.051	-0.226
-682.266	-200.000	0.001	-0.433
-681.251	-87.154	-0.391	-0.121
-680.237	800.000	0.085	0.248
-679.222	800.000	0.055	0.197
-678.208	-36.463	-0.102	-0.056
-677.193	-26.910	0.145	-0.086
-676.178	-200.000	-0.041	-0.257
-675.164	149.065	0.174	-0.240
-674.149	-148.952	-0.137	-0.011
-673.135	-36.626	-0.219	-0.120
-672.120	-200.000	0.008	-0.039
-671.105	-200.000	0.060	-0.299
-670.091	417.594	0.142	-0.308
-669.076	247.561	-0.057	0.099
-668.062	-200.000	-0.013	0.081
-667.047	53.239	0.095	0.092
-666.032	723.499	-0.044	0.118
-665.018	2.234	0.172	-0.127
-664.003	-101.218	-0.179	0.045
-662.989	62.690	0.086	-0.088
-661.974	25.340	-0.054	0.045
-660.959	41.117	-0.232	-0.214
-659.945	800.000	0.020	0.061
-658.930	-200.000	-0.005	0.092
-657.916	-200.000	-0.029	0.145
-656.901	206.380	-0.248	0.392
-655.886	-83.727	-0.335	0.109
-654.872	-152.921	0.381	0.027
-653.857	-158.774	-0.217	0.013
-652.843	-43.824	-0.283	0.145
-651.828	800.000	0.085	-0.283
-650.814	38.141	0.184	-0.166
-649.799	-104.617	-0.336	-0.079
-648.784	547.286	-0.058	-0.141
-647.770	7.017	0.064	-0.048
-646.755	-152.739	0.114	-0.008
-645.741	206.431	-0.248	-0.392
-644.726	58.523	-0.069	0.069
-643.711	-200.000	-0.053	0.266
-642.697	60.431	-0.096	-0.097
-641.682	-117.439	-0.240	0.044
-640.668	45.150	-0.014	0.013
-639.653	-48.023	-0.170	-0.084
-638.638	-66.223	0.048	-0.019
-637.624	-200.000	0.062	0.301
-636.609	159.897	-0.199	0.281
-635.595	180.946	0.009	0.014
-634.580	-200.000	-0.007	0.155
-633.565	325.597	0.121	-0.235
-632.551	-97.033	-0.305	-0.081
-631.536	-54.143	-0.140	-0.064
-630.522	-200.000	0.016	0.184
-629.507	148.121	-0.196	-0.268
-628.492	-61.396	-0.202	-0.087
-627.478	800.000	0.038	0.123
-626.463	362.806	-0.080	0.163
-625.449	-28.896	-0.384	0.224
-624.434	-170.143	0.109	0.004
-623.419	800.000	-0.051	0.221
-622.405	138.900	0.111	0.148
-621.390	-133.043	-0.265	-0.034
-620.376	126.155	-0.067	-0.086
-619.361	68.491	-0.196	-0.204
-618.346	21.140	-0.146	0.120
-617.332	-63.794	-0.157	0.065
-616.317	304.569	0.123	0.232
-615.303	289.246	0.128	0.236
-614.288	-6.268	0.133	0.092
-613.273	-18.608	0.063	-0.040
-612.259	-105.627	-0.177	-0.041
-611.244	242.268	0.099	0.167
-610.230	800.000	0.069	0.232
-609.215	-96.936	-0.260	0.069
-608.201	-48.793	-0.193	0.094
-607.186	220.206	0.059	0.095
-606.171	-200.000	-0.084	-0.414
-605.157	110.674	0.210	-0.256
-604.142	-189.099	0.286	0.003
-603.128	-27.503	0.099	-0.058
-602.113	-200.000	-0.039	-0.370
-601.098	-200.000	0.015	0.175
-600.084	-181.492	0.259	-0.005
-599.069	26.035	0.012	0.010
-598.055	36.709	0.199	-0.178
-597.040	369.602	0.033	-0.068
-596.025	-137.492	0.086	0.010
-595.011	-159.915	-0.187	0.010
-593.996	-200.000	-0.018	-0.346
-592.982	-200.000	-0.011	0.135
-591.967	800.000	-0.054	0.182
-590.952	-116.662	0.088	-0.016
-589.938	-95.189	0.207	0.057
-588.923	305.551	-0.062	0.118
-587.909	-153.362	-0.257	0.018
-586.894	800.000	0.202	-0.616
-585.879	37.584	-0.096	0.087
-584.865	800.000	0.070	-0.208
-583.850	133.907	-0.143	-0.188
-582.836	41.817	0.109	-0.100
-581.821	-200.000	-0.008	-0.273
-580.806	-30.280	0.245	-0.141
-579.792	-3.904	-0.194	-0.137
-578.777	-200.000	0.025	-0.123
-577.763	-70.482	-0.516	0.198
-576.748	-200.000	-0.042	0.397
-575.733	-81.111	0.298	0.100
-574.719	748.786	-0.026	-0.070
-573.704	-138.267	0.335	0.038
-572.690	800.000	0.095	0.298
-571.675	800.000	0.102	0.364
-570.661	800.000	-0.065	0.195
-569.646	-130.572	0.148	0.020
-568.631	-105.269	0.149	-0.034
-567.617	-2.655	-0.073	-0.052
-566.602	68.151	-0.124	-0.129
-565.588	125.691	-0.249	-0.319
-564.573	-95.718	-0.212	-0.058
-563.558	37.894	0.018	-0.016
-562.544	-123.793	-0.370	-0.059
-561.529	260.404	-0.137	0.239
-560.515	-200.000	0.015	-0.296
-559.500	-67.805	-0.175	0.069
-558.485	-1.327	0.068	-0.048
-557.471	-89.131	-0.161	-0.048
-556.456	-139.025	-0.199	0.022
-555.442	-200.000	0.000	-0.116
-554.427	145.751	-0.104	-0.142
-553.412	-200.000	0.016	-0.166
-552.398	-168.257	-0.126	0.005
-551.383	58.229	0.144	-0.143
-550.369	-75.340	0.239	0.086
-549.354	119.342	-0.085	-0.106
-548.339	800.000	-0.092	0.274
-547.325	800.000	-0.136	0.389
-546.310	362.125	0.057	-0.115
-545.296	-8.898	0.097	0.066
-544.281	120.302	0.100	0.126
-543.266	27.739	0.093	0.079
-542.252	-70.458	-0.464	0.178
-541.237	-70.048	-0.321	0.124
-540.223	121.957	0.055	-0.070
-539.208	-79.311	0.150	-0.051
-538.193	-200.000	0.046	-0.388
-537.179	-21.594	0.107	-0.066
-536.164	155.875	0.078	-0.109
-535.150	-151.299	0.272	-0.021
-534.135	-17.082	-0.073	-0.047
-533.121	-200.000	0.002	0.261
-532.106	-12.978	-0.322	-0.212
-531.091	101.012	-0.114	-0.134
-530.077	-46.616	0.268	-0.133
-529.062	44.586	0.289	0.269
-528.048	131.833	0.090	-0.118
-527.033	-38.083	0.249	0.134
-526.018	381.165	0.158	-0.329
-525.004	-114.556	-0.201	0.039
-523.989	-200.000	-0.022	0.139
-522.975	-200.000	-0.007	-0.177
-521.960	697.912	0.071	0.190
-520.945	-149.188	0.250	0.020
-519.931	131.424	0.208	-0.271
-518.916	142.895	0.194	0.261
-517.902	-200.000	-0.016	0.160
-516.887	202.709	-0.199	-0.310
-515.872	-81.881	-0.107	-0.035
-514.858	200.895	-0.172	0.267
-513.843	38.482	0.266	0.240
-512.829	97.100	-0.297	-0.345
-511.814	-10.100	-0.089	0.060
-510.799	3.516	-0.223	-0.165
-509.785	-39.490	0.126	0.067
-508.770	-109.504	0.174	0.037
-507.756	339.490	0.099	0.195
-506.741	-109.320	0.121	-0.026
-505.726	329.219	0.084	-0.163
-504.712	-200.000	0.009	0.190
-503.697	46.064	-0.164	0.154
-502.683	554.019	0.091	-0.222
-501.668	-30.411	0.218	0.125
-500.653	-200.000	0.024	0.192
-499.639	520.618	-0.045	-0.107
-498.624	501.684	0.120	0.280
-497.610	800.000	-0.008	0.029
-496.595	121.624	-0.236	-0.298
-495.581	-200.000	-0.001	0.264
-494.566	80.252	-0.114	-0.124
-493.551	-82.645	-0.276	0.090
-492.537	-200.000	0.035	-0.344
-491.522	-62.281	0.236	-0.099
-490.508	39.461	0.080	0.072
-489.493	123.052	-0.091	-0.116
-488.478	-200.000	0.024	-0.107
-487.464	36.792	0.188	0.168
-486.449	-89.358	0.448	0.133
-485.435	-99.679	-0.470	-0.119
-484.420	170.793	0.017	0.024
-483.405	800.000	-0.045	-0.163
-482.391	47.472	-0.168	0.158
-481.376	-200.000	0.032	0.183
-480.362	353.540	-0.166	-0.332
-479.347	54.409	0.184	0.179
-478.332	-85.683	-0.246	0.077
-477.318	153.616	0.090	0.125
-476.303	118.122	0.142	-0.177
-475.289	800.000	0.029	0.092
-474.274	-200.000	0.050	0.323
-473.259	-66.578	-0.132	-0.053
-472.245	-86.411	0.224	0.069
-471.230	-56.679	-0.131	0.059
-470.216	588.193	0.048	-0.119
-469.201	-110.868	-0.286	0.059
-468.186	-4.312	-0.119	0.083
-467.172	4.200	0.307	-0.227
-466.157	-24.234	0.148	0.089
-465.143	-56.754	0.407	-0.182
-464.128	-80.365	-0.280	0.095
-463.113	-138.699	0.422	-0.047
-462.099	303.813	0.111	-0.208
-461.084	-51.949	-0.151	-0.071
-460.070	237.039	-0.104	-0.173
-459.055	-159.230	-0.169	-0.010
-458.040	14.250	0.142	0.112
-457.026	-200.000	0.006	0.083
-456.011	-116.912	-0.212	0.039
-454.997	-200.000	-0.010	0.054
-453.982	189.873	-0.034	0.052
-452.968	-6.518	-0.254	0.175
-451.953	667.687	0.033	-0.086
-450.938	-200.000	-0.044	-0.220
-449.924	-8.181	0.184	-0.125
-448.909	800.000	0.046	-0.179
-447.895	365.567	0.157	-0.319
-446.880	-108.368	0.191	-0.041
-445.865	71.679	0.067	0.071
-444.851	800.000	0.029	-0.080
-443.836	-200.000	0.025	-0.201
-442.822	-133.821	-0.402	0.050
-441.807	-183.647	-0.278	0.005
-440.792	230.519	0.191	-0.314
-439.778	-26.900	0.276	-0.163
-438.763	-200.000	-0.010	0.056
-437.749	104.975	-0.172	-0.204
-436.734	-3.314	-0.128	-0.090
-435.719	800.000	0.070	-0.254
-434.705	240.140	-0.195	0.328
-433.690	-162.126	-0.104	0.005
-432.676	631.435	0.043	-0.110
-431.661	-33.079	-0.091	-0.051
-430.646	-19.967	-0.291	0.181
-429.632	-200.000	-0.020	0.132
-428.617	800.000	-0.056	0.203
-427.603	-200.000	-0.004	0.251
-426.588	800.000	0.055	-0.219
-425.573	16.872	0.147	0.117
-424.559	-121.221	0.226	0.038
-423.544	800.000	-0.125	0.370
-422.530	-124.660	0.244	0.038
-421.515	231.006	-0.122	-0.202
-420.500	-200.000	-0.060	-0.433
-419.486	-103.825	-0.145	-0.034
-418.471	552.039	0.113	0.274
-417.457	-91.673	0.087	0.025
-416.442	320.497	0.068	-0.131
-415.428	92.267	0.162	0.184
-414.413	556.409	0.069	0.167
-413.398	83.753	0.353	-0.388
-412.384	131.805	-0.235	-0.305
-411.369	322.286	0.028	-0.054
-410.355	-82.686	-0.181	0.059
-409.340	-200.000	-0.020	0.144
-408.325	154.313	0.091	0.126
-407.311	241.142	-0.086	0.145
-406.296	800.000	-0.199	0.582
-405.282	19.435	0.458	0.370
-404.267	-200.000	-0.237	0.000
-403.252	73.054	0.053	0.056
-402.238	-149.130	0.363	-0.029
-401.223	-10.621	0.328	-0.218
-400.209	-51.166	0.217	0.102
-399.194	-200.000	-0.026	-0.254
-398.179	490.424	0.102	0.235
-397.165	800.000	0.046	-0.154
-396.150	-35.824	-0.288	0.157
-395.136	-200.000	-0.042	-0.313
-394.121	98.360	-0.089	0.103
-393.106	340.292	0.102	-0.200
-392.092	162.059	-0.179	-0.252
-391.077	-57.392	0.552	-0.244
-390.063	800.000	0.173	-0.536
-389.048	-200.000	0.018	0.309
-388.033	800.000	-0.054	0.207
-387.019	91.313	0.133	-0.151
-386.004	-83.596	0.249	-0.080
-384.990	68.306	0.052	0.054
-383.975	459.830	0.149	-0.333
-382.960	565.527	0.065	-0.158
-381.946	800.000	0.052	-0.148
-380.931	111.674	-0.204	-0.248
-379.917	-200.000	0.042	0.287
-378.902	56.647	0.072	0.070
-377.888	-200.000	0.009	-0.166
-376.873	-200.000	0.021	-0.219
-375.858	-103.935	0.311	-0.073
-374.844	372.548	0.120	-0.245
-373.829	376.228	0.005	0.010
-372.815	-53.334	-0.065	-0.030
-371.800	785.749	-0.147	-0.404
-370.785	-18.232	0.066	-0.042
-369.771	129.304	0.338	-0.434
-368.756	73.576	-0.162	-0.170
-367.742	-93.723	-0.403	-0.112
-366.727	-200.000	0.031	-0.194
-365.712	-102.363	0.141	0.034
-364.698	-62.304	-0.317	0.133
-363.683	-200.000	0.011	0.335
-362.669	-200.000	0.032	0.189
-361.654	-60.559	0.278	0.119
-360.639	800.000	0.035	0.145
-359.625	-79.012	-0.179	-0.061
-358.610	800.000	-0.032	0.119
-357.596	183.865	-0.007	-0.010
-356.581	109.212	-0.097	-0.117
-355.566	-27.255	-0.192	0.112
-354.552	150.213	-0.101	-0.138
-353.537	-5.538	0.198	-0.137
-352.523	-64.293	-0.285	-0.116
-351.508	-200.000	0.031	-0.255
-350.493	-57.148	0.113	0.050
-349.479	-67.787	0.558	-0.219
-348.464	800.000	-0.066	0.184
-347.450	2.173	0.030	0.022
-346.435	-66.078	0.247	0.099
-345.420	5.923	0.430	0.320
-344.406	-172.462	-0.272	-0.009
-343.391	-200.000	-0.029	0.140
-342.377	-139.421	-0.286	-0.031
-341.362	417.751	0.118	0.254
-340.348	198.759	0.056	-0.086
-339.333	296.205	0.126	-0.232
-338.318	69.483	-0.260	-0.269
-337.304	258.376	-0.037	-0.063
-336.289	-1.795	-0.116	-0.082
-335.275	355.223	-0.048	-0.095
-334.260	616.247	0.087	0.220
-333.245	599.515	-0.042	-0.105
-332.231	15.359	0.370	0.292
-331.216	-130.828	0.340	-0.046
-330.202	-13.567	-0.100	0.065
-329.187	-200.000	0.044	0.216
-328.172	-124.224	0.023	0.004
-327.158	54.520	-0.229	0.221
-326.143	-200.000	-0.020	0.108
-325.129	-53.031	-0.340	-0.157
-324.114	498.419	0.017	0.040
-323.099	-14.733	0.193	0.125
-322.085	165.014	0.193	0.273
-321.070	607.114	-0.058	0.146
-320.056	418.702	0.110	0.235
-319.041	-200.000	-0.027	0.206
-318.026	-85.833	0.127	0.039
-317.012	-73.661	0.216	0.079
-315.997	-166.807	0.170	-0.007
-314.983	800.000	-0.062	-0.193
-313.968	-97.197	-0.175	-0.046
-312.953	-164.084	0.006	-0.000
-311.939	-116.444	0.346	0.064
-310.924	67.890	-0.199	0.204
-309.910	-85.457	-0.129	0.040
-308.895	-190.362	0.368	0.004
-307.880	-200.000	0.014	0.089
-306.866	-200.000	0.061	0.602
-305.851	441.592	0.136	-0.299
-304.837	462.155	-0.051	0.114
-303.822	-4.129	0.132	0.092
-302.807	229.249	-0.131	-0.214
-301.793	102.531	0.100	0.118
-300.778	-91.455	-0.203	-0.058
-299.764	180.987	0.241	0.355
-298.749	76.822	-0.156	0.167
-297.735	-31.009	0.111	0.063
-296.720	18.290	-0.092	-0.074
-295.705	-200.000	-0.017	0.128
-294.691	-0.955	-0.049	0.034
-293.676	49.098	-0.151	-0.142
-292.662	222.208	-0.135	-0.217
-291.647	-2.708	0.198	-0.139
-290.632	-167.385	0.187	-0.008
-289.618	-200.000	0.014	0.226
-288.603	53.574	-0.177	-0.170
-287.589	66.216	0.199	-0.203
-286.574	2.225	-0.150	-0.109
-285.559	-200.000	-0.011	0.234
-284.545	-99.709	-0.168	0.042
-283.530	262.928	0.112	0.194
-282.516	-3.991	-0.210	0.146
-281.501	669.956	-0.126	0.328
-280.486	82.682	0.027	-0.029
-279.472	72.508	-0.145	-0.152
-278.457	-100.666	0.078	-0.019
-277.443	-200.000	-0.010	0.057
-276.428	-200.000	-0.025	0.115
-275.413	126.170	-0.033	0.042
-274.399	191.876	0.073	-0.110
-273.384	184.609	-0.110	-0.163
-272.370	615.530	0.061	-0.153
-271.355	133.568	0.038	0.049
-270.340	209.963	-0.034	0.053
-269.326	-200.000	0.013	0.165
-268.311	589.764	0.043	-0.105
-267.297	-200.000	0.056	0.342
-266.282	-200.000	-0.004	0.038
-265.267	-5.484	-0.211	0.145
-264.253	260.240	0.034	-0.059
-263.238	-169.178	-0.102	0.004
-262.224	-57.459	0.324	-0.142
-261.209	-200.000	0.005	0.045
-260.195	189.905	0.144	0.216
-259.180	-30.392	-0.125	-0.071
-258.165	-111.668	0.317	-0.064
-257.151	800.000	-0.068	-0.241
-256.136	-21.050	0.256	0.157
-255.122	140.229	0.104	-0.138
-254.107	800.000	-0.038	0.133
-253.092	-161.518	0.244	-0.013
-252.078	-73.136	-0.138	-0.051
-251.063	-200.000	-0.013	-0.203
-250.049	-135.170	0.506	-0.061
-249.034	-54.596	0.294	-0.133
-248.019	57.306	-0.080	-0.079
-247.005	-90.936	-0.361	0.104
-245.990	-70.883	0.268	-0.101
-244.976	-103.662	0.166	0.039
-243.961	2.033	-0.279	-0.201
-242.946	-185.065	-0.128	-0.002
-241.932	-24.467	0.151	-0.090
-240.917	-200.000	0.032	0.283
-239.903	172.259	0.113	0.163
-238.888	-200.000	0.066	0.298
-237.873	-102.684	0.312	0.074
-236.859	800.000	0.011	0.037
-235.844	351.440	-0.178	0.352
-234.830	-27.589	-0.537	-0.312
-233.815	-43.440	-0.100	-0.051
-232.800	174.009	-0.064	-0.092
-231.786	-126.961	-0.465	-0.068
-230.771	-200.000	-0.043	-0.370
-229.757	73.513	0.009	-0.010
-228.742	800.000	-0.069	-0.217
-227.727	-95.137	0.126	-0.034
-226.713	602.529	-0.036	0.088
-225.698	800.000	-0.015	0.066
-224.684	-65.273	0.086	-0.034
-223.669	311.588	0.116	-0.218
-222.655	3.764	-0.097	-0.071
-221.640	325.497	-0.054	-0.103
-220.625	327.461	-0.068	0.130
-219.611	-65.524	-0.161	0.065
-218.596	-200.000	-0.012	0.130
-217.582	-111.529	0.189	-0.038
-216.567	98.222	-0.113	0.130
-215.552	16.775	-0.122	-0.097
-214.538	144.906	0.065	0.087
-213.523	115.663	-0.101	0.123
-212.509	557.912	0.055	0.134
-211.494	23.707	-0.241	0.199
-210.479	-200.000	-0.021	0.217
-209.465	-92.512	-0.269	0.076
-208.450	331.822	-0.160	0.309
-207.436	-101.681	0.302	0.073
-206.421	-151.514	0.067	0.005
-205.406	800.000	-0.059	0.226
-204.392	-11.515	-0.307	0.202
-203.377	-45.135	-0.406	-0.202
-202.363	658.596	0.197	-0.506
-201.348	-133.418	-0.212	-0.027
-200.333	800.000	-0.047	-0.185
-199.319	-73.197	0.267	-0.098
-198.304	-71.084	-0.133	0.050
-197.290	800.000	0.050	0.195
-196.275	-134.425	-0.149	-0.018
-195.260	323.803	-0.086	-0.165
-194.246	0.542	-0.136	-0.097
-193.231	-39.462	-0.130	-0.068
-192.217	-200.000	-0.000	-0.182
-191.202	104.465	0.240	-0.282
-190.187	-166.447	-0.318	-0.013
-189.173	-200.000	-0.021	0.237
-188.158	207.789	0.120	0.188
-187.144	85.643	-0.046	0.050
-186.129	-123.792	0.176	-0.028
-185.114	553.361	-0.038	-0.090
-184.100	-200.000	-0.039	-0.352
-183.085	34.677	-0.221	0.193
-182.071	-16.520	0.229	0.145
-181.056	-158.480	0.097	-0.006
-180.042	-114.014	0.263	-0.051
-179.027	232.741	-0.154	-0.253
-178.012	152.514	-0.105	-0.144
-176.998	-91.569	0.115	0.033
-175.983	566.390	-0.053	0.127
-174.969	41.501	0.204	0.184
-173.954	-44.245	-0.255	0.128
-172.939	-88.660	0.193	0.057
-171.925	330.624	0.127	0.244
-170.910	-200.000	0.002	0.280
-169.896	-60.152	-0.072	0.031
-168.881	135.081	0.129	-0.167
-167.866	31.082	-0.233	0.200
-166.852	-53.456	0.165	0.076
-165.837	-118.413	0.221	0.039
-164.823	94.779	0.167	0.189
-163.808	12.182	-0.229	-0.176
-162.793	-131.182	0.249	0.033
-161.779	-200.000	-0.029	-0.151
-160.764	525.494	-0.093	-0.217
-159.750	-42.796	-0.314	-0.159
-158.735	-159.856	-0.212	0.012
-157.720	-200.000	0.042	0.271
-156.706	9.954	-0.225	0.170
-155.691	267.001	-0.145	-0.253
-154.677	-200.000	-0.021	-0.124
-153.662	-171.019	0.326	-0.011
-152.647	513.874	-0.140	0.325
-151.633	-125.986	0.141	-0.021
-150.618	-200.000	-0.053	-0.238
-149.604	800.000	-0.071	-0.226
-148.589	-37.038	0.182	0.097
-147.574	-35.790	0.631	-0.341
-146.560	-22.842	-0.285	-0.172
-145.545	-105.838	0.268	0.060
-144.531	-43.892	-0.211	-0.106
-143.516	-200.000	0.061	-0.533
-142.502	-200.000	-0.015	0.310
-141.487	185.970	0.040	0.059
-140.472	-135.122	0.255	0.031
-139.458	678.626	0.040	0.104
-138.443	-179.468	0.314	0.007
-137.429	-88.467	-0.358	-0.107
-136.414	8.617	0.052	0.039
-135.399	132.923	0.210	0.270
-134.385	800.000	-0.022	0.068
-133.370	-200.000	0.073	-0.000
-132.356	-73.917	0.206	-0.075
-131.341	-51.153	0.152	0.071
-130.326	137.885	0.151	0.197
-129.312	666.478	-0.060	-0.153
-128.297	-137.337	-0.324	0.037
-127.283	-134.185	-0.338	-0.041
-126.268	800.000	-0.022	-0.086
-125.253	-57.568	0.106	0.046
-124.239	-65.445	-0.369	0.148
-123.224	-162.639	0.504	0.025
-122.210	-144.580	0.136	0.012
-121.195	-200.000	-0.029	-0.673
