DTS Sentinel unit serial number:	SN413079Multiplexer serial number:	ORYXHardware model number:	OX4-SRSoftware version number:	ORYX F/W v4.00 Oryx Data Collector v3.7.2.0data status	okinstallation	princeton_trtdifferential loss correction	single-endedforward channel	channel 3reverse channel	N/Adate	2019/09/10time	20:38:11forward acquisition time	60.00reverse acquisition time	0.00gamma	496.2192k internal	0.2327k external	0.2327temperature offset calibration	0.9914default loss term (dB/km)	0.3790temperature slope calibration	1.0000multiplexer offset coefficient	1.0000multiplexer slope coefficient	1.0000fibre end	0.00T internal ref (°C)	31.92T ext. ref 1 (°C)	-0.32T ext. ref 2 (°C)	25.25length (m)	temperature (°C)	Stokes	anti-Stokes-747.200	-200.000	-0.010	0.105
-746.185	241.104	-0.139	0.235
-745.171	800.000	0.085	0.257
-744.156	499.716	0.022	0.052
-743.142	-38.736	0.190	0.101
-742.127	-129.303	-0.072	0.010
-741.112	151.800	-0.192	-0.264
-740.098	-128.242	0.343	-0.049
-739.083	622.647	-0.009	-0.023
-738.069	314.315	0.100	0.191
-737.054	-70.913	-0.210	-0.080
-736.039	32.687	-0.055	-0.048
-735.025	-55.729	0.202	-0.091
-734.010	-44.979	-0.175	0.088
-732.996	68.889	0.216	-0.224
-731.981	122.845	-0.193	-0.243
-730.966	-50.142	-0.221	-0.106
-729.952	-52.952	0.169	-0.078
-728.937	160.983	-0.266	-0.375
-727.923	-35.765	-0.210	0.115
-726.908	-200.000	-0.006	0.110
-725.894	-29.887	-0.038	-0.022
-724.879	-200.000	0.042	-0.388
-723.864	-55.406	0.233	0.105
-722.850	147.528	-0.076	0.103
-721.835	-200.000	0.009	-0.160
-720.821	-15.287	0.221	-0.142
-719.806	253.563	0.033	-0.057
-718.791	183.429	0.032	-0.048
-717.777	-59.590	-0.233	-0.101
-716.762	-96.827	-0.207	0.055
-715.748	-194.079	0.218	-0.002
-714.733	-40.316	-0.155	-0.081
-713.718	57.525	0.113	0.111
-712.704	184.993	0.158	-0.236
-711.689	75.800	0.111	-0.118
-710.675	17.729	0.198	-0.158
-709.660	-53.337	-0.223	0.103
-708.645	-120.073	0.254	0.044
-707.631	-58.359	0.199	-0.087
-706.616	-111.005	-0.243	0.050
-705.602	-82.126	-0.109	0.036
-704.587	-46.721	-0.117	0.058
-703.572	-105.889	0.475	0.108
-702.558	-200.000	0.418	0.001
-701.543	-104.128	-0.324	-0.076
-700.529	-62.036	0.166	0.070
-699.514	-200.000	0.057	-0.294
-698.499	-100.185	-0.151	-0.038
-697.485	192.150	-0.159	-0.242
-696.470	-143.835	-0.252	0.024
-695.456	-17.307	-0.145	0.092
-694.441	-200.000	-0.015	0.266
-693.426	199.614	-0.180	0.278
-692.412	-200.000	0.062	-0.294
-691.397	262.194	-0.264	-0.460
-690.383	511.634	-0.064	-0.150
-689.368	18.416	0.293	-0.236
-688.354	-160.635	0.262	-0.014
-687.339	212.769	0.046	0.074
-686.324	-105.774	-0.248	-0.056
-685.310	-107.639	-0.058	0.013
-684.295	65.384	0.082	0.083
-683.281	-200.000	0.019	-0.138
-682.266	-200.000	0.039	-0.215
-681.251	-85.393	-0.115	0.036
-680.237	0.522	0.061	0.044
-679.222	-68.236	-0.191	0.075
-678.208	-25.273	0.219	-0.130
-677.193	-97.892	-0.049	-0.013
-676.178	323.630	-0.126	0.241
-675.164	110.484	-0.133	-0.161
-674.149	276.407	-0.055	0.099
-673.135	-52.305	0.166	-0.077
-672.120	-177.193	0.348	-0.009
-671.105	-14.402	-0.143	0.093
-670.091	189.635	0.097	-0.146
-669.076	49.478	0.040	-0.038
-668.062	-131.665	-0.234	-0.031
-667.047	212.550	-0.080	0.126
-666.032	-200.000	-0.017	0.233
-665.018	-57.382	0.190	-0.084
-664.003	-8.514	-0.332	0.224
-662.989	-200.000	0.005	-0.186
-661.974	-117.903	0.527	-0.095
-660.959	-75.743	-0.127	-0.045
-659.945	-136.658	-0.158	-0.018
-658.930	-150.041	0.356	0.028
-657.916	89.802	0.128	0.144
-656.901	-84.041	0.206	0.066
-655.886	67.972	0.126	0.130
-654.872	-14.827	0.130	-0.084
-653.857	12.123	-0.128	0.099
-652.843	-159.417	0.077	-0.004
-651.828	631.415	-0.056	-0.141
-650.814	-200.000	-0.027	0.337
-649.799	-14.598	-0.125	0.080
-648.784	46.383	-0.172	0.160
-647.770	231.544	-0.083	-0.137
-646.755	800.000	-0.108	-0.469
-645.741	188.707	-0.139	-0.209
-644.726	-200.000	0.059	0.452
-643.711	-41.779	-0.212	0.109
-642.697	292.342	-0.211	0.387
-641.682	276.651	-0.146	-0.260
-640.668	-84.988	-0.123	0.039
-639.653	-96.492	0.128	0.034
-638.638	800.000	0.031	-0.132
-637.624	-81.088	-0.164	0.055
-636.609	-29.584	-0.182	-0.104
-635.595	18.060	-0.080	-0.064
-634.580	554.479	-0.034	-0.081
-633.565	159.218	-0.057	-0.079
-632.551	37.730	0.111	0.099
-631.536	435.221	0.260	-0.568
-630.522	324.945	-0.190	-0.364
-629.507	282.145	-0.049	-0.088
-628.492	-52.527	0.178	0.082
-627.478	-113.368	-0.388	-0.076
-626.463	234.533	0.084	0.139
-625.449	306.471	-0.031	0.059
-624.434	66.593	0.074	-0.076
-623.419	-200.000	-0.034	0.183
-622.405	-111.572	0.273	0.056
-621.390	-20.455	0.186	0.115
-620.376	-16.459	0.046	0.029
-619.361	153.619	0.040	-0.055
-618.346	-200.000	-0.036	0.158
-617.332	-122.903	0.065	-0.010
-616.317	-200.000	-0.053	-0.304
-615.303	-115.348	0.153	-0.029
-614.288	189.703	-0.205	-0.309
-613.273	-48.357	-0.166	0.080
-612.259	-200.000	0.013	-0.126
-611.244	65.013	-0.114	-0.115
-610.230	-167.722	-0.376	0.015
-609.215	-200.000	0.010	0.110
-608.201	-200.000	-0.008	0.479
-607.186	-0.098	-0.142	0.101
-606.171	338.380	-0.118	-0.230
-605.157	-200.000	-0.007	-0.044
-604.142	-200.000	0.002	0.085
-603.128	-200.000	-0.006	0.055
-602.113	-26.559	0.338	0.198
-601.098	-96.901	-0.214	0.056
-600.084	271.971	0.027	0.047
-599.069	-200.000	0.056	-0.383
-598.055	800.000	-0.061	0.187
-597.040	-157.774	0.074	-0.004
-596.025	-50.300	0.169	0.080
-595.011	181.526	0.091	-0.134
-593.996	129.686	-0.126	-0.161
-592.982	-88.559	-0.364	0.109
-591.967	-200.000	-0.039	-0.395
-590.952	-77.907	-0.190	0.066
-589.938	-71.575	0.126	-0.047
-588.923	297.466	-0.161	-0.297
-587.909	-200.000	-0.008	0.140
-586.894	122.383	0.075	0.093
-585.879	-79.049	-0.247	-0.084
-584.865	-132.555	-0.225	0.029
-583.850	282.850	-0.177	0.319
-582.836	-200.000	0.021	-0.270
-581.821	-143.857	-0.050	0.005
-580.806	10.249	0.118	-0.090
-579.792	-95.403	-0.141	-0.038
-578.777	146.647	0.189	0.254
-577.763	653.369	-0.115	0.296
-576.748	-200.000	-0.012	0.216
-575.733	-200.000	-0.051	0.322
-574.719	241.582	-0.072	-0.121
-573.704	-5.007	0.216	-0.149
-572.690	-200.000	0.021	-0.104
-571.675	-40.224	-0.025	-0.013
-570.661	-152.900	-0.472	0.033
-569.646	-0.069	0.191	-0.136
-568.631	-200.000	0.010	-0.208
-567.617	-122.601	-0.191	0.031
-566.602	35.302	-0.216	-0.190
-565.588	208.180	0.082	0.129
-564.573	94.003	0.054	-0.061
-563.558	-106.873	-0.206	0.046
-562.544	-50.816	-0.232	-0.109
-561.529	-200.000	0.030	0.139
-560.515	-105.257	-0.389	0.089
-559.500	56.932	-0.178	0.173
-558.485	-33.376	0.252	-0.140
-557.471	25.033	-0.101	-0.084
-556.456	88.174	0.229	0.254
-555.442	208.559	-0.058	-0.090
-554.427	36.797	-0.130	-0.115
-553.412	148.350	0.215	-0.291
-552.398	-34.011	0.153	0.084
-551.383	-200.000	-0.042	-0.213
-550.369	800.000	0.097	-0.422
-549.354	45.429	-0.151	-0.140
-548.339	42.905	0.104	-0.095
-547.325	-61.336	-0.261	-0.110
-546.310	76.612	-0.201	0.213
-545.296	204.079	-0.052	-0.081
-544.281	119.116	0.319	0.395
-543.266	-115.697	0.252	-0.047
-542.252	-152.516	0.301	0.022
-541.237	-81.588	0.166	0.055
-540.223	-104.389	-0.231	0.054
-539.208	-72.141	-0.166	-0.062
-538.193	-200.000	0.064	-0.358
-537.179	-200.000	-0.062	-0.320
-536.164	87.765	-0.062	-0.069
-535.150	-200.000	-0.014	0.171
-534.135	84.189	-0.027	0.029
-533.121	800.000	-0.088	0.285
-532.106	132.682	-0.204	0.264
-531.091	-90.693	-0.044	-0.013
-530.077	64.501	0.149	0.150
-529.062	-56.411	0.174	-0.077
-528.048	674.444	-0.086	0.224
-527.033	-40.014	0.009	0.005
-526.018	-18.410	0.091	0.057
-525.004	262.871	0.225	-0.390
-523.989	800.000	0.045	0.180
-522.975	455.278	-0.104	0.230
-521.960	-72.957	-0.273	-0.100
-520.945	-142.282	-0.147	-0.015
-519.931	163.810	-0.141	-0.199
-518.916	-115.038	-0.243	-0.046
-517.902	-67.995	-0.445	-0.174
-516.887	231.518	0.078	0.128
-515.872	-200.000	0.045	0.314
-514.858	-66.460	0.298	0.118
-513.843	96.371	0.118	0.135
-512.829	454.508	-0.095	0.210
-511.814	-200.000	-0.005	0.084
-510.799	-22.026	0.216	-0.131
-509.785	-200.000	-0.069	-0.577
-508.770	-200.000	0.025	-0.429
-507.756	-149.784	-0.170	-0.013
-506.741	-200.000	0.022	-0.219
-505.726	26.230	0.262	-0.219
-504.712	-29.152	0.176	-0.101
-503.697	-200.000	0.026	-0.389
-502.683	-161.322	-0.190	-0.010
-501.668	259.968	0.079	0.136
-500.653	-74.524	0.150	0.054
-499.639	800.000	-0.028	-0.092
-498.624	117.694	0.058	0.071
-497.610	42.688	-0.104	0.094
-496.595	-128.825	0.096	0.013
-495.581	188.091	0.140	-0.209
-494.566	-161.533	0.177	-0.009
-493.551	-59.072	0.249	-0.107
-492.537	70.581	0.182	-0.188
-491.522	-170.905	0.147	-0.005
-490.508	134.221	-0.177	-0.229
-489.493	108.553	-0.154	-0.184
-488.478	-35.072	0.090	0.049
-487.464	-114.384	0.207	0.040
-486.449	-200.000	-0.018	0.123
-485.435	88.688	0.212	-0.236
-484.420	-32.152	0.147	0.082
-483.405	-25.481	0.230	0.135
-482.391	-15.713	-0.257	0.164
-481.376	800.000	-0.067	-0.215
-480.362	14.972	0.219	-0.171
-479.347	330.170	0.093	0.179
-478.332	-72.460	-0.194	-0.072
-477.318	-13.838	-0.094	-0.061
-476.303	-200.000	0.049	0.341
-475.289	-78.464	-0.185	-0.063
-474.274	-110.810	0.073	0.015
-473.259	-115.750	-0.382	0.071
-472.245	22.239	-0.007	-0.006
-471.230	303.254	-0.192	-0.355
-470.216	373.852	-0.042	0.085
-469.201	-47.955	0.107	-0.051
-468.186	-136.636	-0.105	0.012
-467.172	-200.000	0.048	0.310
-466.157	-127.563	-0.218	0.032
-465.143	173.586	-0.109	-0.157
-464.128	199.081	-0.063	-0.097
-463.113	-200.000	-0.021	0.269
-462.099	40.985	-0.169	0.152
-461.084	800.000	0.073	0.230
-460.070	800.000	-0.035	0.098
-459.055	304.778	-0.079	-0.147
-458.040	224.024	0.159	0.256
-457.026	-200.000	-0.018	-0.262
-456.011	-200.000	-0.018	0.156
-454.997	800.000	0.095	-0.292
-453.982	145.653	-0.135	0.180
-452.968	592.546	-0.151	-0.372
-451.953	800.000	-0.061	-0.174
-450.938	-31.920	0.264	0.148
-449.924	0.936	-0.304	-0.217
-448.909	32.246	0.183	0.157
-447.895	-68.404	0.332	-0.128
-446.880	800.000	0.138	0.489
-445.865	-83.058	-0.210	-0.068
-444.851	800.000	0.111	0.309
-443.836	800.000	-0.095	0.319
-442.822	179.911	0.058	-0.084
-441.807	-200.000	-0.032	-0.352
-440.792	-34.614	-0.440	-0.240
-439.778	131.805	0.084	0.108
-438.763	542.713	0.098	0.233
-437.749	157.206	-0.129	0.178
-436.734	59.287	-0.054	-0.053
-435.719	-21.624	0.174	-0.106
-434.705	-23.352	-0.134	0.080
-433.690	219.598	-0.277	0.442
-432.676	525.479	-0.027	-0.063
-431.661	800.000	0.031	0.106
-430.646	11.869	0.217	0.166
-429.632	-137.464	0.013	0.001
-428.617	475.879	0.031	-0.069
-427.603	-200.000	-0.016	-0.140
-426.588	-122.244	-0.298	-0.049
-425.573	476.249	-0.150	0.336
-424.559	137.648	0.096	0.125
-423.544	-180.121	0.238	0.005
-422.530	-65.526	0.378	0.151
-421.515	41.491	0.140	0.126
-420.500	93.514	0.266	0.299
-419.486	-154.695	-0.567	0.037
-418.471	-200.000	-0.062	-0.544
-417.457	566.010	0.154	0.372
-416.442	-200.000	0.021	-0.114
-415.428	46.717	0.208	-0.192
-414.413	-200.000	-0.056	0.367
-413.398	34.790	0.155	0.135
-412.384	260.893	0.025	0.044
-411.369	18.214	-0.008	0.006
-410.355	174.757	0.056	-0.080
-409.340	366.782	0.037	0.074
-408.325	-54.954	0.157	-0.071
-407.311	800.000	0.090	-0.294
-406.296	-200.000	-0.002	-0.119
-405.282	25.551	0.251	-0.207
-404.267	285.862	-0.181	0.325
-403.252	-62.945	0.246	-0.101
-402.238	800.000	-0.031	0.129
-401.223	800.000	0.040	-0.143
-400.209	-200.000	-0.012	-0.069
-399.194	-153.159	0.472	0.033
-398.179	439.922	-0.080	-0.174
-397.165	33.382	0.138	0.119
-396.150	-74.612	-0.133	0.047
-395.136	1.123	-0.194	-0.139
-394.121	182.513	0.127	-0.186
-393.106	35.684	-0.110	-0.097
-392.092	800.000	0.016	-0.066
-391.077	-200.000	-0.018	0.229
-390.063	-59.844	0.255	0.108
-389.048	683.904	-0.084	-0.217
-388.033	121.623	0.101	0.126
-387.019	-60.012	0.379	-0.161
-386.004	-106.506	0.244	-0.054
-384.990	800.000	-0.057	0.236
-383.975	9.859	-0.027	-0.020
-382.960	-129.073	0.166	0.023
-381.946	-99.561	0.099	-0.025
-380.931	800.000	0.086	-0.237
-379.917	-193.287	0.149	-0.001
-378.902	-52.383	0.436	-0.201
-377.888	627.490	0.059	0.148
-376.873	-13.019	-0.279	-0.180
-375.858	-33.571	0.194	-0.107
-374.844	124.443	-0.058	-0.073
-373.829	-20.427	-0.316	-0.193
-372.815	-168.519	-0.234	0.009
-371.800	24.655	0.088	-0.073
-370.785	127.858	0.153	0.193
-369.771	-143.305	-0.190	0.018
-368.756	-86.586	0.354	0.108
-367.742	43.883	0.287	0.262
-366.727	-71.282	0.227	-0.085
-365.712	5.714	0.258	-0.189
-364.698	366.645	0.035	0.070
-363.683	639.500	0.036	0.091
-362.669	-145.411	0.078	0.007
-361.654	-89.984	-0.138	-0.040
-360.639	-132.228	-0.525	0.068
-359.625	-11.847	0.171	0.112
-358.610	176.506	-0.033	-0.047
-357.596	-57.419	-0.133	0.058
-356.581	51.348	-0.112	-0.105
-355.566	21.929	-0.339	0.275
-354.552	-48.894	-0.151	-0.072
-353.537	-82.941	0.330	0.106
-352.523	34.510	-0.310	0.269
-351.508	800.000	-0.103	0.300
-350.493	-200.000	-0.033	-0.469
-349.479	132.038	0.087	-0.111
-348.464	-105.196	-0.095	0.022
-347.450	-16.387	0.207	-0.131
-346.435	372.990	-0.151	0.304
-345.420	-132.240	0.482	0.062
-344.406	800.000	-0.063	-0.208
-343.391	271.857	0.134	0.234
-342.377	800.000	0.068	-0.221
-341.362	162.473	0.223	-0.310
-340.348	-200.000	0.015	-0.100
-339.333	21.016	-0.280	0.225
-338.318	121.989	0.165	0.205
-337.304	-200.000	-0.108	0.470
-336.289	-24.081	0.288	-0.171
-335.275	-176.232	-0.027	-0.001
-334.260	-19.412	0.242	-0.149
-333.245	-147.653	-0.132	0.011
-332.231	-200.000	-0.009	-0.181
-331.216	-145.123	-0.202	-0.018
-330.202	-200.000	0.044	0.205
-329.187	212.439	-0.087	-0.136
-328.172	12.992	0.122	-0.093
-327.158	-200.000	-0.038	0.347
-326.143	79.908	-0.231	0.246
-325.129	180.353	0.053	0.077
-324.114	-200.000	-0.040	0.265
-323.099	-55.634	0.245	-0.109
-322.085	800.000	0.127	0.384
-321.070	-41.647	-0.147	0.075
-320.056	371.049	-0.141	-0.284
-319.041	-200.000	0.018	0.093
-318.026	-119.919	-0.406	-0.069
-317.012	800.000	-0.081	-0.314
-315.997	-80.237	-0.177	-0.059
-314.983	-61.969	0.244	-0.101
-313.968	34.646	0.138	0.119
-312.953	-108.326	0.385	0.082
-311.939	316.794	0.156	0.292
-310.924	18.506	0.259	0.205
-309.910	-39.789	0.408	-0.212
-308.895	-95.495	0.301	-0.080
-307.880	-76.233	0.161	-0.056
-306.866	-200.000	-0.013	-0.307
-305.851	358.901	-0.078	-0.154
-304.837	-133.075	0.148	-0.019
-303.822	-200.000	-0.016	0.220
-302.807	138.432	-0.118	-0.153
-301.793	-71.225	0.267	-0.099
-300.778	-108.908	-0.174	-0.037
-299.764	238.777	0.154	-0.254
-298.749	448.275	-0.076	0.167
-297.735	-100.472	0.383	0.094
-296.720	800.000	-0.065	0.197
-295.705	177.556	-0.158	-0.228
-294.691	409.098	-0.028	0.058
-293.676	-48.358	0.083	0.040
-292.662	-80.788	-0.282	-0.093
-291.647	62.540	0.259	-0.257
-290.632	151.244	0.186	0.251
-289.618	226.605	-0.029	0.047
-288.603	-147.385	-0.212	-0.018
-287.589	529.246	-0.121	0.282
-286.574	208.693	0.117	0.181
-285.559	159.716	-0.138	0.190
-284.545	-48.380	-0.318	-0.152
-283.530	51.945	-0.096	-0.091
-282.516	-12.718	-0.124	-0.080
-281.501	-57.915	-0.229	-0.099
-280.486	391.348	-0.085	0.174
-279.472	-68.934	0.599	0.229
-278.457	-200.000	0.031	0.211
-277.443	-65.327	0.298	-0.119
-276.428	-133.286	0.232	-0.029
-275.413	-200.000	-0.026	-0.174
-274.399	-153.105	0.453	0.031
-273.384	564.144	-0.055	-0.133
-272.370	800.000	-0.116	-0.322
-271.355	-200.000	-0.009	-0.175
-270.340	-114.526	0.359	-0.068
-269.326	800.000	0.021	-0.074
-268.311	-60.182	0.046	0.020
-267.297	213.832	0.155	-0.243
-266.282	-200.000	0.045	0.256
-265.267	-200.000	-0.025	-0.174
-264.253	242.038	0.114	-0.189
-263.238	-200.000	0.009	0.100
-262.224	800.000	-0.058	0.162
-261.209	33.400	0.228	-0.196
-260.195	-86.340	-0.145	0.044
-259.180	800.000	0.060	-0.191
-258.165	141.311	-0.048	0.063
-257.151	800.000	-0.065	-0.195
-256.136	-125.570	-0.084	0.013
-255.122	800.000	-0.014	0.047
-254.107	35.947	-0.218	0.190
-253.092	208.245	-0.206	0.319
-252.078	249.548	0.061	-0.102
-251.063	93.033	0.099	0.111
-250.049	153.331	-0.035	0.047
-249.034	153.227	-0.071	0.096
-248.019	66.473	-0.117	-0.118
-247.005	-200.000	0.027	0.265
-245.990	-200.000	0.024	-0.238
-244.976	145.291	-0.198	-0.261
-243.961	40.869	-0.161	0.144
-242.946	-200.000	-0.042	0.198
-241.932	24.843	-0.195	0.160
-240.917	-200.000	-0.021	-0.276
-239.903	-104.089	0.213	0.049
-238.888	-71.767	0.359	-0.132
-237.873	148.421	-0.108	0.145
-236.859	-129.696	-0.317	-0.043
-235.844	756.043	0.154	0.413
-234.830	136.598	0.140	-0.180
-233.815	98.274	0.151	-0.172
-232.800	103.346	-0.220	0.255
-231.786	-32.780	-0.069	-0.038
-230.771	49.911	-0.133	-0.124
-229.757	-200.000	0.014	0.181
-228.742	800.000	0.048	-0.202
-227.727	19.300	-0.104	-0.083
-226.713	-20.391	-0.100	-0.061
-225.698	-42.421	-0.277	0.140
-224.684	-200.000	0.298	-0.001
-223.669	26.944	-0.349	-0.289
-222.655	-191.422	0.181	-0.002
-221.640	32.141	0.163	0.139
-220.625	800.000	-0.051	0.164
-219.611	282.311	-0.240	0.425
-218.596	211.077	-0.218	0.339
-217.582	2.417	-0.110	-0.078
-216.567	135.540	0.154	0.198
-215.552	-39.102	-0.156	-0.081
-214.538	-144.802	0.011	0.001
-213.523	-31.750	0.037	-0.021
-212.509	-34.813	0.318	0.172
-211.494	-200.000	0.058	-0.290
-210.479	31.716	0.209	0.178
-209.465	-151.490	0.145	-0.011
-208.450	800.000	0.010	-0.030
-207.436	110.122	-0.051	0.060
-206.421	-55.766	-0.178	-0.078
-205.406	103.632	0.065	-0.075
-204.392	17.945	-0.101	0.079
-203.377	127.606	0.025	-0.032
-202.363	214.189	-0.139	0.217
-201.348	-200.000	0.021	0.237
-200.333	800.000	-0.056	-0.169
-199.319	283.999	0.016	0.029
-198.304	298.879	0.092	-0.167
-197.290	-141.457	0.144	-0.014
-196.275	281.026	-0.127	-0.224
-195.260	-200.000	-0.026	0.128
-194.246	-149.133	-0.390	-0.031
-193.231	-200.000	-0.020	0.126
-192.217	148.274	0.005	0.007
-191.202	-41.624	0.232	-0.117
-190.187	-106.101	-0.488	-0.108
-189.173	25.186	-0.036	-0.029
-188.158	-28.144	-0.413	0.236
-187.144	26.334	-0.164	-0.135
-186.129	55.530	-0.069	-0.066
-185.114	-15.270	0.018	-0.011
-184.100	155.471	-0.140	-0.190
-183.085	157.052	0.108	0.148
-182.071	272.977	0.025	-0.044
-181.056	800.000	-0.068	-0.198
-180.042	-200.000	0.026	0.292
-179.027	-200.000	0.039	0.314
-178.012	-171.556	0.416	0.014
-176.998	-200.000	-0.062	-0.308
-175.983	372.595	-0.075	-0.150
-174.969	-127.373	-0.207	-0.030
-173.954	-51.664	0.060	0.027
-172.939	-40.138	0.206	0.106
-171.925	292.425	-0.039	0.070
-170.910	-90.336	0.014	-0.004
-169.896	-193.381	-0.083	0.001
-168.881	110.545	-0.344	-0.408
-167.866	-200.000	0.016	-0.090
-166.852	98.831	0.194	-0.221
-165.837	-59.029	-0.218	0.093
-164.823	29.074	0.255	0.213
-163.808	-98.152	-0.320	0.081
-162.793	-79.798	-0.041	-0.014
-161.779	5.249	0.204	-0.148
-160.764	-108.957	-0.142	-0.030
-159.750	35.982	0.162	0.141
-158.735	800.000	0.092	0.322
-157.720	-200.000	0.021	0.181
-156.706	221.064	0.157	0.249
-155.691	-120.627	-0.022	-0.004
-154.677	-141.828	0.133	0.013
-153.662	75.145	0.303	0.314
-152.647	311.367	0.119	-0.219
-151.633	214.074	-0.117	0.182
-150.618	657.497	-0.044	-0.113
-149.604	164.314	0.265	0.368
-148.589	-57.575	0.155	-0.067
-147.574	-200.000	0.015	-0.288
-146.560	-163.274	0.419	0.020
-145.545	-200.000	0.030	-0.166
-144.531	-200.000	-0.011	-0.216
-143.516	116.111	-0.187	0.225
-142.502	-43.896	0.064	0.032
-141.487	267.909	0.165	-0.284
-140.472	-144.787	0.146	0.013
-139.458	168.141	-0.185	-0.260
-138.443	-200.000	0.000	-0.318
-137.429	218.882	0.078	-0.123
-136.414	53.306	0.081	-0.076
-135.399	-45.780	-0.091	0.044
-134.385	36.926	0.344	0.300
-133.370	-2.578	0.150	0.103
-132.356	-80.745	0.436	-0.143
-131.341	-46.513	0.342	0.165
-130.326	363.507	0.080	0.159
-129.312	276.043	-0.026	0.045
-128.297	-200.000	-0.041	0.492
-127.283	-33.649	0.154	0.084
-126.268	-200.000	-0.039	0.244
-125.253	263.345	0.021	-0.035
-124.239	-157.012	0.394	-0.024
-123.224	48.827	-0.221	-0.204
-122.210	230.527	-0.065	0.104
