DTS Sentinel unit serial number:	SN413079Multiplexer serial number:	ORYXHardware model number:	OX4-SRSoftware version number:	ORYX F/W v4.00 Oryx Data Collector v3.7.2.0data status	okinstallation	princeton_trtdifferential loss correction	single-endedforward channel	channel 3reverse channel	N/Adate	2019/09/11time	00:34:11forward acquisition time	60.00reverse acquisition time	0.00gamma	496.2192k internal	0.2332k external	0.2332temperature offset calibration	0.9914default loss term (dB/km)	0.3790temperature slope calibration	1.0000multiplexer offset coefficient	1.0000multiplexer slope coefficient	1.0000fibre end	0.00T internal ref (°C)	29.25T ext. ref 1 (°C)	-0.30T ext. ref 2 (°C)	22.98length (m)	temperature (°C)	Stokes	anti-Stokes-747.200	-200.000	0.014	0.190
-746.185	800.000	0.072	0.213
-745.171	-133.294	0.431	0.055
-744.156	185.119	0.111	-0.166
-743.142	-91.349	-0.306	-0.088
-742.127	-115.718	-0.307	0.058
-741.112	399.552	0.136	0.287
-740.098	284.788	-0.127	0.230
-739.083	-14.621	-0.090	-0.058
-738.069	-200.000	0.046	0.228
-737.054	-154.047	0.289	-0.020
-736.039	243.708	0.060	-0.102
-735.025	137.705	0.259	0.341
-734.010	-46.440	-0.333	0.165
-732.996	4.213	-0.210	-0.154
-731.981	-38.370	-0.221	-0.118
-730.966	505.478	-0.042	-0.098
-729.952	-48.572	0.113	-0.055
-728.937	800.000	0.029	-0.080
-727.923	-85.395	0.361	-0.113
-726.908	800.000	-0.067	-0.268
-725.894	-165.285	-0.467	-0.021
-724.879	-42.444	0.164	0.084
-723.864	247.314	0.124	-0.211
-722.850	223.492	-0.128	0.207
-721.835	-200.000	-0.064	0.292
-720.821	225.191	-0.225	-0.366
-719.806	-64.850	-0.128	-0.052
-718.791	-200.000	0.019	0.181
-717.777	-27.153	0.066	-0.039
-716.762	111.049	-0.047	-0.057
-715.748	-200.000	-0.041	-0.195
-714.733	-17.635	-0.248	0.157
-713.718	-64.729	0.305	0.124
-712.704	-86.457	-0.148	0.046
-711.689	800.000	-0.076	-0.312
-710.675	71.119	0.281	-0.293
-709.660	-65.055	0.084	0.034
-708.645	-169.421	0.369	0.014
-707.631	-94.070	-0.309	0.085
-706.616	536.757	0.102	0.242
-705.602	197.092	-0.110	-0.168
-704.587	-68.931	-0.283	0.110
-703.572	432.052	-0.082	0.178
-702.558	77.414	0.121	-0.130
-701.543	-60.915	-0.176	-0.075
-700.529	-140.066	0.137	0.014
-699.514	-118.240	0.286	0.051
-698.499	-1.400	0.443	0.314
-697.485	-113.877	0.235	-0.046
-696.470	-200.000	-0.023	-0.172
-695.456	-200.000	0.007	0.095
-694.441	86.588	0.090	-0.099
-693.426	-200.000	-0.011	0.134
-692.412	800.000	0.025	0.097
-691.397	169.110	0.055	0.079
-690.383	-200.000	0.037	-0.301
-689.368	421.343	0.069	-0.148
-688.354	403.412	-0.024	-0.050
-687.339	416.826	-0.110	0.236
-686.324	-89.407	0.194	-0.057
-685.310	-162.533	-0.226	0.011
-684.295	-191.950	-0.009	0.000
-683.281	-200.000	0.067	0.355
-682.266	89.941	-0.118	0.133
-681.251	-36.019	0.387	-0.210
-680.237	-77.273	0.149	0.052
-679.222	-78.664	-0.216	-0.074
-678.208	-73.179	-0.318	0.117
-677.193	53.352	-0.050	-0.048
-676.178	-169.402	0.035	0.001
-675.164	-200.000	-0.025	-0.131
-674.149	-200.000	-0.004	-0.307
-673.135	39.326	0.109	-0.097
-672.120	-200.000	-0.067	-0.345
-671.105	-200.000	-0.053	0.446
-670.091	-49.935	-0.176	-0.084
-669.076	10.021	0.256	-0.195
-668.062	167.348	-0.193	-0.275
-667.047	-102.286	0.340	0.082
-666.032	510.036	-0.111	-0.260
-665.018	198.488	0.118	0.181
-664.003	83.998	0.222	0.243
-662.989	27.767	0.084	-0.071
-661.974	407.465	-0.107	0.226
-660.959	7.408	-0.172	-0.129
-659.945	7.669	-0.293	-0.220
-658.930	-74.672	-0.083	0.030
-657.916	99.267	0.192	0.223
-656.901	-124.230	-0.336	-0.053
-655.886	800.000	-0.059	0.252
-654.872	-122.978	-0.228	0.037
-653.857	248.564	0.052	-0.088
-652.843	207.893	0.104	0.162
-651.828	208.483	0.123	0.193
-650.814	-95.367	0.173	0.047
-649.799	-25.583	-0.216	-0.128
-648.784	-200.000	-0.018	-0.149
-647.770	-39.665	0.327	-0.171
-646.755	-114.819	-0.307	0.059
-645.741	-9.978	-0.072	-0.048
-644.726	-38.646	-0.280	0.148
-643.711	-200.000	-0.024	0.242
-642.697	-20.864	0.021	0.013
-641.682	71.160	0.199	0.207
-640.668	-200.000	0.086	0.000
-639.653	-78.482	-0.062	-0.021
-638.638	-176.428	0.019	-0.000
-637.624	-22.879	-0.209	-0.126
-636.609	-131.494	0.134	-0.018
-635.595	-200.000	0.001	0.059
-634.580	-200.000	-0.008	0.048
-633.565	-200.000	-0.047	-0.253
-632.551	121.784	0.068	0.085
-631.536	-200.000	0.015	-0.084
-630.522	631.725	0.083	0.211
-629.507	-93.736	0.213	-0.059
-628.492	337.752	-0.099	0.193
-627.478	250.256	-0.104	0.177
-626.463	-41.950	0.208	0.107
-625.449	-64.857	0.301	0.122
-624.434	359.247	0.059	-0.118
-623.419	-100.499	0.227	-0.056
-622.405	24.058	0.073	-0.060
-621.390	-200.000	0.022	-0.286
-620.376	86.531	0.167	-0.185
-619.361	196.843	0.104	-0.159
-618.346	-126.189	-0.087	-0.013
-617.332	-20.837	-0.208	-0.128
-616.317	-149.526	0.259	-0.021
-615.303	-200.000	-0.027	0.341
-614.288	359.142	-0.115	-0.231
-613.273	522.564	0.024	-0.056
-612.259	-96.753	0.231	-0.061
-611.244	20.055	-0.256	0.207
-610.230	-149.058	-0.091	-0.007
-609.215	248.520	-0.201	0.341
-608.201	800.000	-0.022	0.065
-607.186	-189.386	-0.134	0.002
-606.171	-35.224	-0.392	-0.213
-605.157	168.586	-0.115	-0.165
-604.142	229.226	0.118	-0.193
-603.128	-200.000	-0.008	-0.146
-602.113	-27.197	-0.191	-0.111
-601.098	13.385	-0.232	0.180
-600.084	-89.767	-0.132	-0.039
-599.069	800.000	0.143	-0.494
-598.055	26.902	-0.222	0.186
-597.040	119.982	-0.107	-0.133
-596.025	-24.152	-0.117	-0.070
-595.011	-77.196	-0.074	-0.026
-593.996	14.898	0.121	0.095
-592.982	164.347	-0.088	0.124
-591.967	-106.368	-0.177	-0.040
-590.952	27.879	-0.274	-0.231
-589.938	800.000	0.071	-0.255
-588.923	-112.741	0.167	-0.033
-587.909	-57.732	0.389	0.170
-586.894	441.285	0.083	0.182
-585.879	-200.000	-0.029	-0.174
-584.865	338.310	0.085	-0.166
-583.850	-76.411	-0.268	0.094
-582.836	800.000	-0.066	-0.271
-581.821	800.000	0.076	-0.262
-580.806	278.670	-0.172	-0.307
-579.792	-79.779	-0.213	0.072
-578.777	15.392	0.259	0.203
-577.763	-51.479	-0.437	-0.204
-576.748	-67.491	0.136	0.053
-575.733	-102.287	0.078	0.019
-574.719	188.776	-0.204	-0.305
-573.704	533.063	-0.053	0.125
-572.690	800.000	0.014	-0.053
-571.675	15.043	-0.068	-0.053
-570.661	-123.305	0.176	-0.028
-569.646	-90.143	-0.391	-0.114
-568.631	4.712	0.242	0.178
-567.617	648.842	-0.080	-0.204
-566.602	-54.357	-0.441	-0.200
-565.588	395.981	0.117	0.243
-564.573	-115.592	-0.127	0.024
-563.558	303.132	0.071	-0.131
-562.544	-120.480	0.173	-0.029
-561.529	216.658	0.182	0.289
-560.515	402.485	-0.123	0.259
-559.500	-200.000	0.014	-0.222
-558.485	-62.541	-0.097	0.040
-557.471	125.111	0.170	0.214
-556.456	-200.000	-0.011	-0.176
-555.442	-44.729	-0.187	0.093
-554.427	-200.000	-0.027	0.181
-553.412	38.784	-0.131	-0.117
-552.398	-5.358	0.081	-0.056
-551.383	800.000	-0.057	-0.204
-550.369	775.296	0.049	-0.133
-549.354	48.310	-0.214	0.200
-548.339	143.083	0.027	-0.035
-547.325	0.597	-0.082	-0.058
-546.310	-104.471	0.311	-0.072
-545.296	-113.713	0.389	-0.076
-544.281	789.445	0.043	-0.119
-543.266	-144.828	0.174	-0.016
-542.252	-200.000	-0.009	0.109
-541.237	-162.421	-0.083	0.004
-540.223	116.361	0.082	-0.100
-539.208	115.849	-0.223	-0.273
-538.193	183.091	0.014	-0.021
-537.179	145.669	-0.099	-0.133
-536.164	228.116	0.070	0.114
-535.150	-29.701	-0.193	0.110
-534.135	-35.606	0.239	-0.130
-533.121	-200.000	-0.029	0.427
-532.106	-161.812	0.463	-0.023
-531.091	-31.573	0.130	-0.073
-530.077	102.261	-0.107	-0.125
-529.062	-30.629	-0.425	0.240
-528.048	-42.452	-0.106	0.054
-527.033	-134.710	-0.316	0.038
-526.018	-200.000	0.005	-0.030
-525.004	0.182	-0.130	0.092
-523.989	103.285	0.120	-0.140
-522.975	-200.000	-0.005	-0.327
-521.960	-4.220	-0.177	-0.123
-520.945	-21.398	-0.066	0.040
-519.931	800.000	-0.027	0.102
-518.916	-200.000	-0.036	-0.473
-517.902	-132.671	0.281	-0.036
-516.887	-4.025	-0.095	0.066
-515.872	465.129	-0.208	0.464
-514.858	75.404	-0.179	-0.188
-513.843	112.684	-0.074	-0.089
-512.829	-18.401	0.099	0.061
-511.814	-91.043	-0.227	-0.065
-510.799	88.750	-0.095	0.105
-509.785	50.421	-0.094	-0.088
-508.770	-48.666	0.356	-0.171
-507.756	-140.547	-0.525	-0.054
-506.741	-200.000	0.022	0.101
-505.726	775.254	0.013	-0.035
-504.712	-14.611	0.165	0.106
-503.697	110.235	-0.115	-0.138
-502.683	82.996	0.079	-0.085
-501.668	-21.107	-0.188	-0.115
-500.653	-31.733	-0.142	-0.080
-499.639	4.565	-0.155	-0.113
-498.624	-152.345	0.187	0.013
-497.610	533.208	0.068	-0.161
-496.595	59.150	0.073	-0.071
-495.581	61.514	0.215	-0.213
-494.566	800.000	-0.032	-0.134
-493.551	376.453	0.049	0.100
-492.537	800.000	0.030	0.128
-491.522	-200.000	-0.021	0.251
-490.508	-64.378	0.283	-0.115
-489.493	800.000	-0.059	0.226
-488.478	-95.008	0.116	-0.031
-487.464	-200.000	0.049	0.348
-486.449	4.005	0.167	0.122
-485.435	-24.471	-0.300	-0.178
-484.420	136.450	-0.176	-0.229
-483.405	-200.000	-0.430	-0.002
-482.391	-62.427	0.086	0.036
-481.376	-200.000	-0.004	0.437
-480.362	294.980	-0.070	0.127
-479.347	-110.018	0.249	0.052
-478.332	-146.930	0.370	0.032
-477.318	4.291	0.111	0.081
-476.303	49.290	0.220	-0.206
-475.289	-20.953	-0.171	-0.104
-474.274	-200.000	-0.140	-0.000
-473.259	234.904	0.031	0.052
-472.245	-106.652	0.140	0.031
-471.230	-11.464	0.235	-0.154
-470.216	244.366	0.153	-0.256
-469.201	-162.359	0.170	0.008
-468.186	-60.634	-0.160	0.068
-467.172	-200.000	0.099	-0.455
-466.157	1.250	0.216	-0.154
-465.143	179.563	0.081	0.117
-464.128	-89.068	0.289	0.085
-463.113	-163.263	0.188	-0.009
-462.099	130.371	-0.058	-0.074
-461.084	403.226	-0.020	-0.043
-460.070	591.741	-0.115	-0.282
-459.055	800.000	-0.047	0.207
-458.040	-96.467	0.144	0.038
-457.026	-165.129	0.287	-0.013
-456.011	231.550	-0.148	-0.241
-454.997	640.091	0.047	0.119
-453.982	144.700	-0.050	-0.066
-452.968	-200.000	0.002	-0.177
-451.953	-47.910	0.033	0.016
-450.938	487.026	0.187	-0.424
-449.924	800.000	0.036	0.116
-448.909	-123.272	-0.265	0.042
-447.895	14.130	-0.147	-0.114
-446.880	-12.979	-0.207	-0.134
-445.865	386.367	-0.088	-0.182
-444.851	511.305	-0.229	0.529
-443.836	4.356	-0.066	-0.048
-442.822	274.252	0.127	-0.223
-441.807	132.570	0.117	0.150
-440.792	332.833	0.069	0.133
-439.778	-99.521	0.148	0.037
-438.763	800.000	-0.026	-0.083
-437.749	136.427	-0.090	0.116
-436.734	75.032	-0.128	0.134
-435.719	409.586	0.090	-0.189
-434.705	-72.868	-0.087	0.032
-433.690	-52.129	0.106	-0.049
-432.676	189.642	-0.024	0.035
-431.661	-32.311	0.292	0.162
-430.646	-200.000	0.004	0.158
-429.632	-163.234	-0.133	0.006
-428.617	251.504	-0.043	0.072
-427.603	-92.533	0.257	-0.072
-426.588	-42.121	-0.063	-0.032
-425.573	29.965	0.114	-0.096
-424.559	209.393	0.172	-0.268
-423.544	-100.400	-0.330	0.081
-422.530	184.040	0.133	-0.196
-421.515	800.000	-0.103	-0.322
-420.500	151.883	-0.112	0.152
-419.486	-146.013	0.217	-0.019
-418.471	-82.765	-0.302	0.097
-417.457	130.121	-0.131	0.167
-416.442	-35.741	-0.291	-0.157
-415.428	-84.239	-0.194	0.061
-414.413	-101.477	0.309	-0.075
-413.398	53.068	-0.080	0.076
-412.384	-161.148	-0.296	-0.015
-411.369	100.908	-0.191	0.221
-410.355	81.253	-0.018	0.019
-409.340	13.904	0.102	0.079
-408.325	800.000	-0.042	-0.151
-407.311	-142.979	-0.054	-0.005
-406.296	217.538	-0.220	-0.348
-405.282	-200.000	-0.065	0.287
-404.267	121.255	0.121	0.149
-403.252	-49.524	0.187	-0.088
-402.238	405.841	0.113	-0.236
-401.223	17.718	0.210	0.166
-400.209	93.521	-0.127	0.142
-399.194	-69.081	0.156	0.060
-398.179	531.289	0.105	0.247
-397.165	-42.161	0.343	0.174
-396.150	-35.751	0.197	-0.106
-395.136	-128.398	0.194	0.027
-394.121	344.751	0.134	0.260
-393.106	100.133	-0.173	0.199
-392.092	57.157	-0.080	-0.078
-391.077	291.250	0.064	0.116
-390.063	-46.682	0.151	-0.074
-389.048	-200.000	-0.011	-0.109
-388.033	-200.000	-0.023	0.217
-387.019	-94.905	-0.245	0.066
-386.004	800.000	-0.012	0.048
-384.990	100.820	0.251	-0.290
-383.975	370.565	-0.066	-0.134
-382.960	42.526	0.169	0.153
-381.946	-6.092	0.236	-0.160
-380.931	-200.000	-0.073	-0.477
-379.917	-200.000	-0.072	0.326
-378.902	-92.063	-0.396	-0.111
-377.888	64.796	0.064	0.064
-376.873	-22.341	-0.059	-0.035
-375.858	800.000	0.099	-0.310
-374.844	-67.227	-0.216	-0.084
-373.829	187.906	0.143	0.212
-372.815	353.701	-0.029	-0.058
-371.800	-6.502	0.084	0.057
-370.785	28.822	-0.209	-0.176
-369.771	12.661	-0.195	-0.149
-368.756	-84.932	0.173	-0.054
-367.742	-83.748	0.232	-0.073
-366.727	-8.875	-0.424	-0.282
-365.712	-61.128	-0.295	0.123
-364.698	369.209	0.069	-0.138
-363.683	800.000	0.125	0.496
-362.669	-120.049	-0.074	-0.013
-361.654	800.000	0.169	-0.618
-360.639	310.349	-0.038	-0.071
-359.625	-25.640	-0.130	-0.076
-358.610	-68.477	0.406	-0.156
-357.596	65.999	-0.158	-0.158
-356.581	-200.000	0.003	-0.258
-355.566	163.278	0.172	0.239
-354.552	17.593	0.180	0.142
-353.537	-200.000	-0.024	0.359
-352.523	-64.087	0.020	0.008
-351.508	515.751	-0.101	0.233
-350.493	-200.000	-0.024	0.172
-349.479	-10.028	0.184	-0.121
-348.464	-89.720	0.117	-0.034
-347.450	-2.867	-0.164	-0.114
-346.435	800.000	-0.058	0.218
-345.420	-131.698	-0.138	0.018
-344.406	2.024	-0.069	0.049
-343.391	-126.573	-0.513	0.075
-342.377	13.900	-0.449	0.346
-341.362	266.153	0.245	0.423
-340.348	51.200	-0.253	-0.238
-339.333	800.000	0.088	-0.381
-338.318	-70.950	0.236	0.088
-337.304	101.108	0.100	-0.116
-336.289	-37.097	0.174	0.092
-335.275	-200.000	-0.028	-0.409
-334.260	-70.570	0.198	-0.074
-333.245	800.000	-0.021	0.059
-332.231	475.284	-0.098	0.219
-331.216	74.372	-0.103	0.107
-330.202	-200.000	-0.008	0.091
-329.187	-200.000	0.025	0.212
-328.172	-200.000	-0.030	0.147
-327.158	800.000	0.009	-0.038
-326.143	17.610	0.286	0.225
-325.129	-28.480	0.227	-0.130
-324.114	-87.480	-0.293	0.088
-323.099	-117.719	-0.465	0.083
-322.085	-172.653	-0.256	0.008
-321.070	375.923	-0.080	0.162
-320.056	-15.392	-0.073	0.046
-319.041	127.329	0.147	-0.184
-318.026	-112.829	0.311	-0.061
-317.012	-16.312	-0.162	0.102
-315.997	-59.450	0.424	-0.180
-314.983	-200.000	-0.064	0.461
-313.968	-170.024	0.297	0.010
-312.953	25.961	0.080	-0.066
-311.939	-200.000	-0.010	0.275
-310.924	-61.117	0.089	-0.037
-309.910	174.521	0.091	-0.131
-308.895	85.723	0.153	-0.166
-307.880	-40.934	0.256	0.131
-306.866	229.445	0.154	0.249
-305.851	71.509	0.318	0.327
-304.837	0.805	-0.116	-0.082
-303.822	-147.687	-0.093	-0.008
-302.807	-33.756	-0.082	-0.045
-301.793	-104.001	-0.217	-0.050
-300.778	-107.840	0.141	0.030
-299.764	-8.054	-0.147	0.098
-298.749	-200.000	0.007	0.408
-297.735	-94.717	0.174	0.047
-296.720	-200.000	0.016	-0.091
-295.705	-193.321	0.125	-0.001
-294.691	-200.000	-0.034	0.282
-293.676	800.000	-0.141	-0.443
-292.662	248.380	-0.059	0.098
-291.647	-200.000	0.002	-0.116
-290.632	120.125	-0.129	-0.158
-289.618	800.000	-0.021	-0.067
-288.603	-45.990	-0.358	-0.174
-287.589	155.496	-0.155	-0.211
-286.574	162.005	-0.099	0.138
-285.559	-200.000	-0.003	-0.249
-284.545	43.849	-0.278	-0.252
-283.530	-200.000	-0.017	0.139
-282.516	-134.256	0.202	-0.025
-281.501	285.551	0.133	0.236
-280.486	-38.075	0.123	-0.065
-279.472	-200.000	0.030	0.208
-278.457	484.619	-0.152	-0.343
-277.443	-200.000	0.072	0.532
-276.428	-56.444	0.337	0.148
-275.413	-112.638	0.250	-0.049
-274.399	-200.000	0.003	-0.091
-273.384	800.000	-0.037	0.138
-272.370	-87.178	-0.216	-0.065
-271.355	-34.141	-0.075	0.041
-270.340	-13.825	0.307	-0.196
-269.326	-7.092	0.131	-0.088
-268.311	1.554	-0.330	0.235
-267.297	57.722	0.225	0.218
-266.282	-200.000	0.005	-0.144
-265.267	-15.420	-0.098	-0.062
-264.253	-200.000	-0.006	-0.085
-263.238	10.480	-0.103	0.077
-262.224	-200.000	-0.014	0.277
-261.209	-85.161	-0.142	-0.044
-260.195	394.593	0.122	0.250
-259.180	-200.000	-0.057	0.473
-258.165	10.847	0.227	0.171
-257.151	121.276	0.178	-0.218
-256.136	682.733	0.050	-0.128
-255.122	392.904	0.028	0.058
-254.107	13.188	0.025	-0.019
-253.092	136.163	-0.132	0.170
-252.078	800.000	-0.180	-0.495
-251.063	-107.071	-0.194	-0.042
-250.049	-83.686	0.185	-0.058
-249.034	-40.424	0.087	-0.045
-248.019	72.624	-0.095	0.098
-247.005	-200.000	0.049	0.319
-245.990	103.379	0.301	0.348
-244.976	296.079	0.161	0.290
-243.961	-110.961	0.179	0.036
-242.946	-34.185	0.295	0.160
-241.932	800.000	-0.078	-0.315
-240.917	169.176	0.204	-0.287
-239.903	800.000	0.088	0.258
-238.888	-165.615	-0.456	0.020
-237.873	-49.696	-0.049	0.023
-236.859	-98.193	0.380	-0.096
-235.844	800.000	-0.016	-0.055
-234.830	17.891	-0.149	-0.117
-233.815	800.000	0.063	-0.245
-232.800	6.441	-0.127	0.093
-231.786	667.447	0.037	-0.093
-230.771	-3.394	-0.265	0.182
-229.757	-0.447	0.164	0.115
-228.742	800.000	0.105	-0.448
-227.727	-151.846	0.157	0.011
-226.713	-113.556	-0.176	-0.034
-225.698	12.902	0.138	-0.105
-224.684	800.000	-0.023	0.087
-223.669	24.106	-0.102	0.083
-222.655	-200.000	-0.026	-0.226
-221.640	-111.773	-0.413	0.082
-220.625	-107.288	0.123	0.027
-219.611	-159.602	0.260	0.014
-218.596	-104.744	-0.242	0.055
-217.582	-167.659	0.460	-0.018
-216.567	742.115	-0.058	0.154
-215.552	-132.002	0.108	0.014
-214.538	-123.949	0.250	-0.039
-213.523	-11.537	-0.104	-0.067
-212.509	60.708	0.179	0.174
-211.494	-115.845	0.162	0.030
-210.479	136.517	-0.125	0.160
-209.465	55.428	-0.192	0.183
-208.450	800.000	0.066	0.203
-207.436	169.520	0.267	0.376
-206.421	367.805	0.064	-0.127
-205.406	20.832	0.046	0.037
-204.392	-200.000	0.037	0.240
-203.377	-47.658	0.257	-0.123
-202.363	-88.370	0.258	-0.076
-201.348	366.800	0.022	0.044
-200.333	800.000	0.045	0.186
-199.319	-54.541	0.232	-0.104
-198.304	25.023	0.100	-0.082
-197.290	-78.735	0.069	-0.023
-196.275	800.000	0.014	0.061
-195.260	-23.948	-0.183	-0.108
-194.246	32.947	0.309	0.263
-193.231	90.209	-0.112	-0.124
-192.217	149.768	-0.080	0.107
-191.202	-134.465	0.260	0.031
-190.187	-98.979	0.249	-0.062
-189.173	9.358	-0.332	0.248
-188.158	-200.000	0.002	-0.235
-187.144	-200.000	-0.023	0.269
-186.129	415.273	-0.116	-0.244
-185.114	5.840	-0.085	0.062
-184.100	52.418	-0.075	0.070
-183.085	258.244	0.206	-0.350
-182.071	682.693	-0.129	-0.332
-181.056	-88.826	-0.163	-0.048
-180.042	-87.373	-0.403	-0.120
-179.027	-139.788	-0.281	0.029
-178.012	-9.471	-0.162	-0.106
-176.998	-75.404	0.233	0.082
-175.983	-146.754	0.102	-0.009
-174.969	-22.286	0.147	0.088
-173.954	800.000	-0.070	-0.219
-172.939	-128.120	-0.098	0.014
-171.925	800.000	0.038	0.131
-170.910	-109.633	-0.245	0.051
-169.896	56.031	-0.031	0.030
-168.881	-96.075	-0.099	0.026
-167.866	-200.000	0.018	0.131
-166.852	38.231	-0.384	0.337
-165.837	490.672	-0.176	0.396
-164.823	-12.173	0.257	0.166
-163.808	-102.159	0.153	0.036
-162.793	-67.009	0.109	-0.042
-161.779	570.109	-0.037	-0.088
-160.764	-24.659	-0.101	0.059
-159.750	-200.000	-0.214	0.000
-158.735	466.067	-0.088	0.194
-157.720	12.926	0.224	0.170
-156.706	-200.000	-0.023	0.187
-155.691	315.802	-0.065	-0.120
-154.677	-120.770	0.210	-0.035
-153.662	61.878	-0.029	-0.028
-152.647	-63.173	0.062	-0.025
-151.633	-124.633	-0.559	0.085
-150.618	-47.628	0.096	-0.046
-149.604	38.103	0.264	0.231
-148.589	-79.718	-0.066	0.022
-147.574	-200.000	-0.023	0.203
-146.560	-117.859	-0.063	-0.011
-145.545	-118.359	-0.344	-0.060
-144.531	-200.000	0.050	0.279
-143.516	-102.292	-0.328	0.077
-142.502	-200.000	0.046	-0.200
-141.487	-200.000	-0.033	-0.204
-140.472	86.217	-0.196	-0.212
-139.458	-85.081	0.185	-0.057
-138.443	388.731	-0.174	0.353
-137.429	-13.105	0.161	-0.103
-136.414	800.000	-0.063	0.267
-135.399	-53.707	-0.079	0.036
-134.385	-145.449	0.103	0.009
-133.370	-200.000	0.004	-0.035
-132.356	33.286	-0.090	0.076
-131.341	179.047	-0.201	0.289
-130.326	-200.000	-0.017	0.211
-129.312	326.023	0.122	0.230
-128.297	-79.347	0.318	-0.106
-127.283	-101.328	-0.192	0.046
-126.268	-26.583	-0.192	-0.111
-125.253	-200.000	-0.015	-0.084
-124.239	87.724	0.186	-0.202
-123.224	-106.375	0.338	-0.074
-122.210	-141.900	-0.336	0.033
-121.195	272.048	-0.187	0.323
