DTS Sentinel unit serial number:	SN413079Multiplexer serial number:	ORYXHardware model number:	OX4-SRSoftware version number:	ORYX F/W v4.00 Oryx Data Collector v3.7.2.0data status	okinstallation	princeton_trtdifferential loss correction	single-endedforward channel	channel 3reverse channel	N/Adate	2019/09/11time	19:06:11forward acquisition time	60.00reverse acquisition time	0.00gamma	496.2192k internal	0.2292k external	0.2292temperature offset calibration	1.0013default loss term (dB/km)	0.3790temperature slope calibration	1.0000multiplexer offset coefficient	1.0000multiplexer slope coefficient	1.0000fibre end	0.00T internal ref (°C)	41.92T ext. ref 1 (°C)	1.27T ext. ref 2 (°C)	34.19length (m)	temperature (°C)	Stokes	anti-Stokes-747.200	29.848	-0.236	-0.205
-746.185	7.845	-0.213	-0.164
-745.171	-123.341	-0.063	-0.010
-744.156	800.000	-0.086	0.343
-743.142	75.790	-0.112	0.121
-742.127	800.000	0.110	0.348
-741.112	800.000	-0.053	-0.231
-740.098	-200.000	0.034	0.181
-739.083	-182.937	-0.207	-0.004
-738.069	-200.000	0.032	0.245
-737.054	-29.001	-0.283	0.166
-736.039	-157.204	0.053	0.003
-735.025	3.142	0.079	0.059
-734.010	11.092	0.262	-0.205
-732.996	-155.525	0.120	-0.008
-731.981	201.349	-0.114	0.180
-730.966	-72.042	0.283	-0.108
-729.952	206.715	0.124	0.197
-728.937	76.673	-0.087	-0.094
-727.923	31.588	0.092	-0.081
-726.908	800.000	-0.083	-0.297
-725.894	0.563	0.187	0.137
-724.879	72.636	-0.218	0.233
-723.864	-200.000	-0.000	0.118
-722.850	72.767	-0.096	-0.103
-721.835	-97.947	-0.304	0.080
-720.821	-200.000	0.001	-0.030
-719.806	800.000	0.086	0.296
-718.791	107.772	0.114	-0.139
-717.777	-31.197	0.226	0.131
-716.762	-200.000	0.008	-0.231
-715.748	800.000	0.049	0.150
-714.733	800.000	0.014	0.043
-713.718	162.144	0.220	0.315
-712.704	600.234	0.040	0.103
-711.689	47.480	0.190	-0.181
-710.675	-200.000	0.015	-0.138
-709.660	-116.849	-0.243	-0.046
-708.645	196.069	0.189	0.294
-707.631	-19.066	0.502	0.319
-706.616	16.506	0.215	0.174
-705.602	800.000	-0.036	-0.123
-704.587	417.538	-0.029	0.062
-703.572	-105.546	0.413	-0.096
-702.558	-200.000	-0.028	0.233
-701.543	-126.321	0.093	0.014
-700.529	169.437	0.106	-0.155
-699.514	531.087	-0.037	0.090
-698.499	-200.000	0.050	0.356
-697.485	-29.762	-0.182	0.106
-696.470	707.410	0.046	0.123
-695.456	-200.000	0.013	0.261
-694.441	-99.694	-0.194	0.050
-693.426	-200.000	0.021	0.438
-692.412	800.000	-0.012	-0.045
-691.397	-101.481	-0.336	0.084
-690.383	136.406	0.136	-0.182
-689.368	-200.000	-0.037	-0.422
-688.354	-200.000	-0.002	-0.111
-687.339	-200.000	0.003	-0.144
-686.324	688.423	0.077	0.205
-685.310	-93.630	-0.311	-0.088
-684.295	-200.000	0.000	-0.054
-683.281	-9.977	-0.322	0.219
-682.266	-200.000	-0.066	0.323
-681.251	-200.000	0.084	0.672
-680.237	-117.530	0.185	-0.034
-679.222	68.428	0.162	-0.169
-678.208	800.000	0.143	0.464
-677.193	-57.031	0.077	0.035
-676.178	-164.355	0.179	-0.008
-675.164	-36.584	0.104	-0.057
-674.149	-160.518	-0.268	-0.015
-673.135	-66.565	0.187	0.076
-672.120	-44.610	-0.202	0.103
-671.105	-96.588	0.279	0.075
-670.091	-82.473	-0.328	-0.109
-669.076	800.000	-0.028	0.107
-668.062	-200.000	-0.053	-0.245
-667.047	127.421	-0.159	0.206
-666.032	-188.791	0.114	-0.001
-665.018	215.256	0.144	-0.233
-664.003	382.737	-0.102	0.213
-662.989	-93.816	-0.203	0.057
-661.974	-14.158	0.159	0.105
-660.959	98.716	-0.207	0.244
-659.945	150.532	0.148	0.206
-658.930	341.647	0.116	-0.232
-657.916	-36.385	-0.062	-0.034
-656.901	-188.158	-0.192	-0.003
-655.886	236.890	0.031	0.052
-654.872	-105.332	-0.049	0.011
-653.857	109.515	0.173	0.211
-652.843	-200.000	0.031	0.311
-651.828	769.803	-0.097	-0.268
-650.814	-24.700	0.280	0.170
-649.799	800.000	-0.011	-0.046
-648.784	-121.692	0.452	0.076
-647.770	181.589	-0.178	-0.268
-646.755	-75.691	0.149	-0.054
-645.741	-98.317	0.410	0.107
-644.726	-119.215	0.097	-0.017
-643.711	-200.000	-0.024	-0.458
-642.697	234.719	-0.115	0.193
-641.682	-200.000	0.035	-0.183
-640.668	356.338	-0.040	0.081
-639.653	-200.000	0.028	0.170
-638.638	-19.730	-0.176	0.111
-637.624	-14.894	-0.173	-0.113
-636.609	-89.628	0.291	0.087
-635.595	800.000	0.059	-0.184
-634.580	-135.748	-0.263	-0.032
-633.565	-57.330	0.191	0.085
-632.551	126.713	-0.324	-0.418
-631.536	255.891	-0.225	0.393
-630.522	270.217	0.273	0.489
-629.507	-159.826	0.367	0.021
-628.492	-11.710	0.160	0.107
-627.478	-200.000	0.024	0.160
-626.463	135.004	-0.138	-0.183
-625.449	-200.000	0.036	0.299
-624.434	-52.622	0.234	-0.110
-623.419	67.489	0.248	-0.258
-622.405	133.128	-0.190	0.250
-621.390	186.208	-0.125	0.189
-620.376	634.099	-0.072	-0.187
-619.361	-200.000	0.006	0.078
-618.346	-116.292	-0.159	-0.030
-617.332	278.423	0.025	-0.046
-616.317	-200.000	-0.045	0.281
-615.303	284.562	-0.244	0.448
-614.288	45.791	-0.099	0.093
-613.273	159.003	0.069	-0.097
-612.259	-200.000	-0.020	0.193
-611.244	13.522	0.200	0.158
-610.230	-172.821	0.071	0.002
-609.215	417.528	0.075	-0.163
-608.201	-82.451	-0.048	0.016
-607.186	-200.000	-0.035	0.169
-606.171	800.000	-0.129	0.432
-605.157	9.675	0.259	0.200
-604.142	188.532	-0.114	-0.174
-603.128	14.501	-0.208	0.165
-602.113	-138.495	-0.122	0.014
-601.098	32.220	-0.227	0.199
-600.084	-23.113	0.222	-0.136
-599.069	17.050	-0.302	-0.243
-598.055	-148.870	0.314	0.026
-597.040	800.000	-0.070	0.224
-596.025	283.677	0.071	-0.131
-595.011	-105.591	0.076	-0.017
-593.996	-200.000	0.038	0.179
-592.982	-137.606	-0.143	0.016
-591.967	-191.802	-0.176	-0.002
-590.952	-97.736	0.187	-0.049
-589.938	20.423	-0.250	-0.205
-588.923	-200.000	-0.014	0.248
-587.909	44.975	-0.216	0.202
-586.894	34.033	0.065	0.058
-585.879	430.501	-0.135	-0.297
-584.865	-105.223	0.311	0.072
-583.850	800.000	-0.067	0.238
-582.836	361.713	0.069	0.141
-581.821	739.200	0.150	0.410
-580.806	95.391	0.044	-0.051
-579.792	-36.545	-0.161	-0.088
-578.777	-200.000	0.030	0.425
-577.763	-59.679	-0.207	0.090
-576.748	-200.000	0.005	-0.131
-575.733	-41.698	-0.125	0.065
-574.719	83.839	-0.213	-0.237
-573.704	-200.000	0.021	-0.164
-572.690	-3.292	0.282	0.200
-571.675	74.842	0.404	0.432
-570.661	298.499	0.052	0.097
-569.646	366.550	-0.053	-0.108
-568.631	-200.000	-0.007	0.197
-567.617	-164.628	0.290	-0.013
-566.602	-23.250	-0.303	-0.186
-565.588	123.157	-0.164	0.209
-564.573	230.571	-0.119	0.197
-563.558	332.162	-0.136	-0.267
-562.544	24.275	0.103	0.086
-561.529	268.673	-0.074	0.132
-560.515	33.062	0.091	0.080
-559.500	234.890	0.116	0.195
-558.485	291.257	0.052	0.097
-557.471	800.000	-0.034	0.119
-556.456	45.418	-0.151	0.141
-555.442	205.119	0.207	0.327
-554.427	-51.702	0.108	0.051
-553.412	-200.000	-0.024	-0.137
-552.398	103.716	-0.177	-0.212
-551.383	110.347	-0.028	-0.034
-550.369	230.344	0.090	-0.149
-549.354	-90.628	0.135	0.040
-548.339	-200.000	0.057	-0.454
-547.325	-96.384	0.086	-0.023
-546.310	2.064	0.223	-0.163
-545.296	265.390	0.194	0.343
-544.281	-119.849	0.110	0.019
-543.266	-200.000	0.005	0.049
-542.252	20.378	-0.069	0.056
-541.237	-126.953	-0.279	0.042
-540.223	50.745	0.108	-0.103
-539.208	174.946	-0.028	0.042
-538.193	113.594	0.060	-0.074
-537.179	-79.382	0.322	0.111
-536.164	-73.572	-0.237	0.088
-535.150	207.231	0.077	-0.121
-534.135	514.140	0.011	-0.025
-533.121	150.249	0.124	0.171
-532.106	-200.000	0.001	-0.033
-531.091	-162.207	-0.231	0.012
-530.077	169.717	-0.213	0.309
-529.062	-200.000	-0.064	-0.435
-528.048	167.943	0.125	-0.180
-527.033	60.148	-0.094	0.094
-526.018	-85.852	0.154	-0.048
-525.004	69.317	-0.178	-0.186
-523.989	-200.000	-0.046	-0.270
-522.975	183.730	-0.047	0.070
-521.960	233.042	-0.073	0.121
-520.945	40.697	0.232	0.212
-519.931	-112.419	-0.095	-0.019
-518.916	319.501	0.055	0.106
-517.902	-200.000	-0.034	-0.158
-516.887	-99.691	0.357	-0.091
-515.872	800.000	0.048	0.183
-514.858	-71.967	-0.145	0.055
-513.843	304.311	0.203	0.383
-512.829	-20.749	-0.342	0.213
-511.814	-200.000	0.068	-0.325
-510.799	-200.000	0.053	-0.321
-509.785	-200.000	-0.078	-0.490
-508.770	-200.000	-0.002	-0.262
-507.756	-146.662	-0.321	-0.028
-506.741	95.995	-0.111	-0.129
-505.726	-81.532	-0.018	-0.006
-504.712	380.072	-0.141	-0.294
-503.697	-200.000	0.038	-0.404
-502.683	800.000	0.075	-0.257
-501.668	58.467	-0.149	-0.148
-500.653	-134.477	0.063	0.008
-499.639	-48.993	0.166	-0.081
-498.624	-29.630	0.161	0.093
-497.610	800.000	-0.076	0.334
-496.595	33.834	0.069	0.061
-495.581	-200.000	0.003	0.095
-494.566	-160.649	-0.179	0.010
-493.551	13.308	-0.182	0.143
-492.537	-7.685	0.089	0.061
-491.522	2.236	-0.109	0.080
-490.508	800.000	-0.070	0.205
-489.493	-169.095	0.065	0.002
-488.478	90.318	0.109	-0.124
-487.464	-99.291	-0.196	-0.050
-486.449	-200.000	0.024	-0.113
-485.435	320.338	-0.048	0.093
-484.420	75.705	0.096	-0.103
-483.405	-117.021	0.130	-0.024
-482.391	-121.317	0.328	0.055
-481.376	-130.299	0.067	-0.009
-480.362	110.197	0.139	-0.169
-479.347	274.287	0.081	0.146
-478.332	731.896	-0.077	0.208
-477.318	-33.006	-0.277	0.156
-476.303	-131.656	0.080	-0.011
-475.289	190.000	-0.088	0.134
-474.274	584.109	-0.099	0.246
-473.259	182.837	-0.152	-0.227
-472.245	22.271	0.092	-0.076
-471.230	800.000	0.073	-0.251
-470.216	-161.517	-0.294	0.015
-469.201	-74.412	0.141	-0.051
-468.186	62.919	-0.109	-0.111
-467.172	-200.000	0.009	-0.055
-466.157	76.049	-0.106	0.114
-465.143	-120.553	0.139	0.024
-464.128	419.083	-0.081	-0.176
-463.113	1.734	-0.230	0.168
-462.099	-150.597	-0.428	0.033
-461.084	-97.764	0.212	0.056
-460.070	62.719	-0.060	-0.061
-459.055	-200.000	0.003	0.149
-458.040	-102.398	0.163	-0.039
-457.026	414.648	-0.083	0.179
-456.011	-93.204	-0.196	0.055
-454.997	-116.472	-0.156	0.029
-453.982	155.360	0.120	-0.168
-452.968	243.718	-0.038	-0.064
-451.953	800.000	0.055	-0.186
-450.938	-7.525	0.303	0.207
-449.924	-200.000	0.049	0.259
-448.909	-134.845	-0.338	-0.041
-447.895	24.346	-0.201	0.168
-446.880	-77.043	-0.351	0.124
-445.865	121.182	0.154	0.194
-444.851	-75.992	0.245	-0.088
-443.836	-17.603	-0.115	0.073
-442.822	-200.000	-0.031	-0.146
-441.807	-66.739	-0.100	-0.040
-440.792	-24.714	0.103	0.062
-439.778	-79.294	-0.160	0.055
-438.763	-131.717	0.157	0.021
-437.749	800.000	0.010	-0.030
-436.734	-78.404	-0.077	0.027
-435.719	800.000	0.063	0.204
-434.705	51.735	-0.180	0.174
-433.690	435.677	0.094	-0.208
-432.676	107.881	-0.186	-0.224
-431.661	-12.721	0.346	-0.228
-430.646	310.263	-0.070	0.133
-429.632	312.881	0.132	-0.251
-428.617	-200.000	0.037	-0.213
-427.603	-67.653	0.319	-0.126
-426.588	682.924	0.079	-0.209
-425.573	-164.663	-0.179	0.008
-424.559	800.000	0.037	-0.146
-423.544	800.000	0.042	-0.182
-422.530	-122.330	0.178	-0.029
-421.515	-170.467	0.432	-0.015
-420.500	67.395	0.080	0.083
-419.486	-87.655	0.152	0.046
-418.471	-200.000	0.013	-0.227
-417.457	-121.719	-0.039	0.007
-416.442	-200.000	-0.016	-0.156
-415.428	-166.165	0.229	0.010
-414.413	-11.188	-0.243	0.162
-413.398	-160.932	-0.284	-0.015
-412.384	-200.000	0.006	0.488
-411.369	-200.000	0.027	0.242
-410.355	43.903	0.173	-0.160
-409.340	-79.498	-0.219	-0.075
-408.325	-162.963	-0.198	0.010
-407.311	409.489	-0.113	-0.241
-406.296	-200.000	0.025	0.353
-405.282	-53.241	-0.231	0.107
-404.267	-39.110	-0.298	0.158
-403.252	800.000	0.026	-0.087
-402.238	501.467	0.110	-0.256
-401.223	360.528	-0.081	0.165
-400.209	-134.471	-0.147	-0.018
-399.194	552.155	0.084	-0.203
-398.179	469.428	-0.115	-0.261
-397.165	4.237	0.231	0.171
-396.150	230.153	0.123	-0.204
-395.136	46.005	0.231	0.216
-394.121	83.774	-0.054	0.059
-393.106	-200.000	-0.006	0.028
-392.092	124.714	0.088	0.111
-391.077	6.421	0.166	-0.124
-390.063	447.977	0.074	-0.164
-389.048	-28.996	0.323	0.187
-388.033	-200.000	0.006	0.151
-387.019	-64.341	-0.292	0.120
-386.004	-131.465	0.137	0.018
-384.990	141.752	0.098	-0.131
-383.975	800.000	0.035	-0.101
-382.960	579.456	0.014	0.034
-381.946	-194.699	-0.254	-0.002
-380.931	-26.626	0.139	-0.082
-379.917	-109.501	-0.068	-0.014
-378.902	-71.125	-0.086	-0.033
-377.888	-200.000	-0.013	-0.076
-376.873	-70.783	0.260	0.099
-375.858	121.148	-0.197	0.248
-374.844	-200.000	-0.008	0.034
-373.829	189.333	-0.113	0.171
-372.815	-8.089	0.146	0.099
-371.800	-157.907	-0.364	-0.022
-370.785	-200.000	0.022	0.159
-369.771	800.000	-0.030	-0.128
-368.756	336.295	0.040	-0.078
-367.742	488.562	-0.094	0.216
-366.727	-200.000	-0.026	0.123
-365.712	87.760	-0.081	0.090
-364.698	-200.000	-0.006	-0.269
-363.683	-1.363	-0.210	0.150
-362.669	800.000	-0.068	0.285
-361.654	31.984	0.145	-0.126
-360.639	-148.805	0.262	0.021
-359.625	-10.096	-0.327	-0.219
-358.610	169.671	-0.069	-0.099
-357.596	739.449	0.089	0.242
-356.581	-43.098	0.115	0.059
-355.566	800.000	0.142	0.513
-354.552	-97.701	-0.195	-0.051
-353.537	-200.000	-0.136	0.616
-352.523	18.660	0.353	0.285
-351.508	-34.057	0.342	0.189
-350.493	-200.000	0.004	-0.205
-349.479	-29.324	-0.175	0.101
-348.464	-46.602	-0.215	-0.106
-347.450	-145.283	0.338	0.031
-346.435	-200.000	0.036	-0.169
-345.420	19.018	0.167	-0.135
-344.406	190.438	0.208	-0.315
-343.391	-200.000	-0.009	0.074
-342.377	397.097	-0.212	0.446
-341.362	-29.408	0.084	-0.048
-340.348	58.565	-0.188	0.186
-339.333	479.113	0.025	0.057
-338.318	-200.000	-0.042	-0.272
-337.304	448.086	0.150	-0.332
-336.289	-87.667	0.187	0.057
-335.275	84.233	0.284	0.313
-334.260	-41.213	-0.294	-0.153
-333.245	-173.973	-0.228	-0.007
-332.231	-200.000	-0.022	-0.203
-331.216	245.660	0.053	0.090
-330.202	-35.612	0.106	0.058
-329.187	137.156	-0.072	0.094
-328.172	-193.278	0.337	0.003
-327.158	800.000	0.096	-0.293
-326.143	618.062	-0.042	-0.107
-325.129	-131.682	-0.075	0.010
-324.114	76.775	0.108	0.116
-323.099	-120.590	-0.235	-0.040
-322.085	84.303	-0.058	0.063
-321.070	800.000	-0.088	-0.313
-320.056	-101.225	-0.345	-0.085
-319.041	800.000	0.053	-0.229
-318.026	-148.003	-0.253	-0.021
-317.012	-112.085	-0.159	0.032
-315.997	64.468	0.226	0.230
-314.983	13.490	0.248	0.194
-313.968	-200.000	-0.011	-0.245
-312.953	-200.000	0.017	0.111
-311.939	800.000	0.073	-0.276
-310.924	220.811	-0.105	-0.170
-309.910	-172.033	-0.219	0.007
-308.895	43.975	-0.012	-0.011
-307.880	37.096	0.300	0.267
-306.866	-128.549	0.165	0.023
-305.851	223.617	-0.037	-0.059
-304.837	-153.725	0.162	-0.011
-303.822	373.175	-0.013	-0.027
-302.807	-92.308	-0.029	0.008
-301.793	800.000	-0.079	0.277
-300.778	-200.000	-0.052	0.375
-299.764	320.472	0.074	-0.141
-298.749	-200.000	0.011	0.088
-297.735	24.700	-0.189	-0.158
-296.720	800.000	0.072	0.269
-295.705	-109.429	0.096	-0.020
-294.691	111.418	0.146	0.177
-293.676	-2.477	-0.351	-0.248
-292.662	-200.000	0.028	-0.311
-291.647	-191.349	0.364	0.004
-290.632	189.315	0.179	-0.270
-289.618	-200.000	-0.025	0.208
-288.603	-69.355	-0.084	-0.032
-287.589	173.681	0.050	-0.072
-286.574	247.840	0.040	-0.067
-285.559	-73.718	0.393	-0.144
-284.545	264.279	-0.190	-0.333
-283.530	-173.236	-0.270	-0.008
-282.516	-200.000	-0.007	-0.292
-281.501	-200.000	0.013	0.122
-280.486	79.381	0.065	0.070
-279.472	-48.490	-0.218	0.105
-278.457	-200.000	0.025	0.271
-277.443	-88.228	-0.102	0.031
-276.428	-161.585	0.185	0.010
-275.413	774.889	0.088	0.241
-274.399	-200.000	-0.021	0.232
-273.384	800.000	-0.052	-0.159
-272.370	113.372	0.088	-0.107
-271.355	51.973	-0.103	-0.099
-270.340	212.642	-0.082	0.130
-269.326	-200.000	-0.030	0.241
-268.311	800.000	0.096	0.316
-267.297	268.979	-0.103	0.181
-266.282	800.000	0.033	-0.123
-265.267	-200.000	-0.050	0.451
-264.253	-200.000	0.034	-0.250
-263.238	800.000	-0.034	-0.114
-262.224	35.605	-0.135	-0.119
-261.209	-139.557	-0.064	0.007
-260.195	-34.550	0.437	0.240
-259.180	20.401	-0.172	0.139
-258.165	-6.097	0.011	0.008
-257.151	665.886	0.068	0.177
-256.136	-15.714	-0.205	-0.131
-255.122	-138.842	0.144	-0.016
-254.107	-159.178	0.214	-0.012
-253.092	2.852	-0.354	-0.258
-252.078	-128.465	0.016	0.002
-251.063	-72.316	0.244	0.091
-250.049	-171.869	0.224	-0.007
-249.034	30.599	-0.335	0.288
-248.019	51.438	-0.128	-0.122
-247.005	-76.506	-0.256	0.090
-245.990	-72.160	0.317	-0.118
-244.976	4.816	-0.274	0.202
-243.961	-21.860	0.132	0.081
-242.946	416.933	0.010	0.022
-241.932	675.990	-0.021	-0.054
-240.917	636.892	0.136	0.347
-239.903	140.882	0.248	-0.330
-238.888	800.000	-0.043	-0.120
-237.873	239.581	-0.034	-0.057
-236.859	73.395	-0.260	-0.273
-235.844	-200.000	-0.005	-0.127
-234.830	-81.559	-0.164	0.054
-233.815	225.396	-0.109	0.177
-232.800	-90.330	-0.161	-0.047
-231.786	-19.911	0.532	0.329
-230.771	-200.000	0.060	-0.278
-229.757	800.000	-0.055	0.185
-228.742	-106.707	-0.157	-0.035
-227.727	177.333	-0.134	-0.196
-226.713	66.147	-0.187	-0.190
-225.698	-86.894	-0.084	-0.026
-224.684	800.000	0.069	-0.192
-223.669	247.387	0.123	-0.209
-222.655	-106.396	-0.323	-0.073
-221.640	105.012	0.135	-0.160
-220.625	-200.000	-0.018	-0.113
-219.611	360.111	0.119	-0.238
-218.596	18.873	0.214	-0.172
-217.582	-69.843	-0.242	-0.093
-216.567	124.294	0.135	-0.171
-215.552	800.000	0.053	0.181
-214.538	54.359	-0.099	-0.096
-213.523	15.595	-0.166	0.131
-212.509	17.680	0.243	-0.194
-211.494	-42.462	-0.422	-0.216
-210.479	516.305	0.189	0.443
-209.465	-160.513	0.010	0.001
-208.450	59.500	0.116	-0.115
-207.436	800.000	-0.150	-0.419
-206.421	81.022	0.174	0.188
-205.406	800.000	0.070	-0.269
-204.392	-200.000	0.001	0.243
-203.377	-6.097	0.121	-0.083
-202.363	-44.748	0.074	0.037
-201.348	-32.340	-0.359	-0.201
-200.333	-80.220	0.374	-0.126
-199.319	-53.493	0.457	-0.210
-198.304	-143.585	0.115	-0.011
-197.290	800.000	0.046	0.140
-196.275	139.274	0.211	-0.278
-195.260	115.577	-0.216	-0.265
-194.246	-125.275	0.043	-0.007
-193.231	-156.685	0.164	-0.010
-192.217	800.000	-0.078	-0.315
-191.202	-112.686	0.224	-0.045
-190.187	-200.000	-0.069	0.405
-189.173	-110.352	0.181	-0.038
-188.158	103.702	0.045	-0.053
-187.144	-135.767	-0.119	0.014
-186.129	112.514	-0.155	-0.188
-185.114	800.000	-0.047	-0.195
-184.100	800.000	0.021	-0.075
-183.085	224.370	-0.173	0.280
-182.071	-63.358	-0.300	-0.124
-181.056	180.835	-0.081	0.119
-180.042	800.000	-0.185	-0.734
-179.027	-200.000	-0.014	-0.327
-178.012	-9.984	0.132	-0.088
-176.998	-18.044	0.138	-0.087
-175.983	-173.269	-0.369	-0.011
-174.969	-200.000	0.004	-0.275
-173.954	800.000	0.073	0.244
-172.939	52.847	-0.042	0.040
-171.925	-6.583	0.332	-0.227
-170.910	-36.085	0.125	-0.068
-169.896	-46.332	0.371	-0.183
-168.881	794.577	-0.147	0.405
-167.866	-41.270	-0.081	0.042
-166.852	-200.000	0.003	0.041
-165.837	18.619	0.180	-0.144
-164.823	337.525	-0.021	0.041
-163.808	153.351	-0.099	0.135
-162.793	48.495	-0.166	0.156
-161.779	57.542	0.095	-0.093
-160.764	-93.716	-0.326	0.090
-159.750	102.601	-0.076	0.089
-158.735	7.730	0.114	0.085
-157.720	531.367	-0.115	-0.273
-156.706	800.000	-0.033	-0.092
-155.691	800.000	-0.086	-0.353
-154.677	-200.000	-0.004	-0.236
-153.662	-99.864	-0.237	-0.059
-152.647	16.053	-0.313	-0.247
-151.633	414.218	0.062	0.132
-150.618	334.740	0.088	0.171
-149.604	252.966	0.211	0.360
-148.589	195.913	-0.216	0.328
-147.574	-200.000	0.038	-0.293
-146.560	-200.000	-0.021	0.186
-145.545	707.123	-0.127	0.336
-144.531	-125.868	-0.106	0.016
-143.516	280.280	-0.050	-0.090
-142.502	126.687	0.187	-0.237
-141.487	800.000	-0.104	-0.356
-140.472	448.593	-0.126	-0.278
-139.458	323.162	-0.143	-0.273
-138.443	-175.513	-0.264	0.007
-137.429	-200.000	-0.027	0.198
-136.414	242.886	0.093	-0.156
-135.399	113.929	-0.338	-0.411
-134.385	-200.000	0.236	0.001
-133.370	-200.000	-0.027	0.163
-132.356	-200.000	-0.039	-0.307
-131.341	-200.000	-0.008	-0.041
-130.326	800.000	0.009	0.027
-129.312	2.263	0.086	-0.062
-128.297	-200.000	0.034	-0.269
-127.283	-111.029	0.372	0.076
-126.268	273.434	0.065	-0.115
-125.253	-88.089	-0.231	-0.069
-124.239	-34.548	0.291	-0.159
-123.224	-182.816	0.131	-0.002
-122.210	278.411	-0.202	0.360
-121.195	-82.268	-0.058	0.019
