DTS Sentinel unit serial number:	SN413079Multiplexer serial number:	ORYXHardware model number:	OX4-SRSoftware version number:	ORYX F/W v4.00 Oryx Data Collector v3.7.2.0data status	okinstallation	princeton_trtdifferential loss correction	single-endedforward channel	channel 3reverse channel	N/Adate	2019/09/12time	05:18:11forward acquisition time	60.00reverse acquisition time	0.00gamma	496.2192k internal	0.2322k external	0.2322temperature offset calibration	1.0032default loss term (dB/km)	0.3790temperature slope calibration	1.0000multiplexer offset coefficient	1.0000multiplexer slope coefficient	1.0000fibre end	0.00T internal ref (°C)	31.87T ext. ref 1 (°C)	1.63T ext. ref 2 (°C)	27.35length (m)	temperature (°C)	Stokes	anti-Stokes-747.200	-66.692	0.267	-0.107
-746.185	74.558	0.069	-0.073
-745.171	-188.410	0.255	0.003
-744.156	-151.326	0.271	0.020
-743.142	51.397	-0.201	0.192
-742.127	25.909	0.249	0.209
-741.112	-20.544	0.332	-0.206
-740.098	-115.610	-0.351	-0.067
-739.083	-65.207	0.479	-0.195
-738.069	-8.349	0.263	0.179
-737.054	608.739	-0.071	0.180
-736.039	-200.000	0.068	-0.442
-735.025	-89.257	-0.294	-0.088
-734.010	-139.707	-0.389	0.042
-732.996	-73.600	-0.172	-0.063
-731.981	29.128	-0.197	0.169
-730.966	291.671	-0.055	0.101
-729.952	-118.678	-0.283	-0.050
-728.937	112.868	0.086	-0.105
-727.923	356.664	-0.062	0.125
-726.908	-200.000	-0.002	0.144
-725.894	-59.562	-0.097	-0.042
-724.879	99.533	-0.241	-0.282
-723.864	45.477	-0.189	-0.177
-722.850	349.455	0.009	0.019
-721.835	-200.000	-0.009	0.043
-720.821	-90.614	-0.092	-0.027
-719.806	-91.417	-0.119	-0.034
-718.791	800.000	-0.045	0.196
-717.777	-66.207	0.045	-0.018
-716.762	5.361	-0.311	-0.231
-715.748	-30.930	0.240	-0.137
-714.733	-200.000	0.016	0.102
-713.718	217.194	0.294	0.472
-712.704	800.000	0.050	0.178
-711.689	114.862	0.033	-0.041
-710.675	-93.754	0.251	0.070
-709.660	-200.000	0.000	0.228
-708.645	800.000	-0.029	0.125
-707.631	-133.426	-0.222	-0.028
-706.616	800.000	0.062	-0.271
-705.602	102.823	-0.086	0.102
-704.587	-200.000	-0.075	-0.415
-703.572	-101.717	-0.083	0.020
-702.558	301.273	0.110	0.205
-701.543	666.814	0.050	-0.129
-700.529	-8.854	-0.166	-0.112
-699.514	43.452	-0.087	0.081
-698.499	-121.470	-0.226	-0.038
-697.485	251.618	-0.123	-0.212
-696.470	-200.000	0.044	-0.271
-695.456	347.844	0.014	-0.027
-694.441	416.428	-0.111	-0.238
-693.426	-200.000	-0.037	-0.195
-692.412	-200.000	0.004	-0.058
-691.397	-113.805	0.099	0.019
-690.383	-200.000	-0.006	-0.075
-689.368	800.000	-0.030	0.088
-688.354	215.980	0.085	0.136
-687.339	-105.370	-0.261	-0.060
-686.324	-44.863	0.169	-0.085
-685.310	219.589	0.211	-0.340
-684.295	67.907	0.012	-0.013
-683.281	-3.914	0.135	-0.094
-682.266	772.844	-0.066	0.180
-681.251	-200.000	-0.008	-0.094
-680.237	-74.366	0.315	-0.115
-679.222	-200.000	-0.034	0.286
-678.208	-35.167	0.108	0.059
-677.193	-200.000	-0.077	-0.345
-676.178	-112.213	0.281	0.057
-675.164	800.000	0.170	-0.490
-674.149	-154.503	-0.123	0.008
-673.135	800.000	-0.014	0.057
-672.120	-200.000	-0.061	0.276
-671.105	-51.203	-0.209	0.099
-670.091	-85.279	-0.401	0.126
-669.076	30.885	0.081	-0.070
-668.062	-200.000	0.004	-0.095
-667.047	-33.072	0.193	-0.108
-666.032	386.150	-0.120	-0.250
-665.018	-38.955	0.273	-0.145
-664.003	-39.537	-0.218	0.115
-662.989	-28.372	-0.250	-0.145
-661.974	59.487	0.154	-0.153
-660.959	800.000	-0.067	0.207
-659.945	645.631	0.090	0.231
-658.930	-62.669	0.204	0.085
-657.916	-175.510	-0.190	-0.005
-656.901	-93.707	0.344	0.095
-655.886	-102.566	-0.224	-0.054
-654.872	800.000	0.125	-0.417
-653.857	-105.842	-0.107	-0.024
-652.843	-200.000	0.047	-0.256
-651.828	-200.000	0.057	0.377
-650.814	-47.482	-0.151	-0.074
-649.799	-154.197	0.164	-0.011
-648.784	-194.752	-0.133	-0.001
-647.770	370.604	-0.188	-0.383
-646.755	800.000	-0.058	-0.230
-645.741	20.090	0.119	-0.097
-644.726	153.782	-0.185	0.255
-643.711	-107.097	-0.456	-0.101
-642.697	-0.713	0.276	0.197
-641.682	130.632	0.280	-0.362
-640.668	593.539	-0.095	-0.237
-639.653	-37.110	0.212	-0.114
-638.638	725.851	-0.059	0.159
-637.624	800.000	-0.102	0.285
-636.609	-26.244	0.272	0.161
-635.595	-107.362	0.350	-0.077
-634.580	-68.165	0.107	-0.042
-633.565	-88.367	0.178	0.054
-632.551	219.839	0.194	-0.313
-631.536	-138.125	0.074	0.008
-630.522	-36.665	-0.221	-0.120
-629.507	-200.000	-0.019	0.313
-628.492	165.304	-0.065	0.092
-627.478	-129.513	-0.172	-0.024
-626.463	-138.883	-0.138	-0.015
-625.449	-194.444	-0.316	-0.003
-624.434	-112.390	0.209	-0.042
-623.419	-200.000	-0.018	0.197
-622.405	37.028	0.137	-0.122
-621.390	-98.833	0.253	-0.065
-620.376	300.314	0.126	0.233
-619.361	230.716	-0.149	0.245
-618.346	-29.177	0.283	0.163
-617.332	172.204	0.130	0.188
-616.317	-200.000	0.004	-0.060
-615.303	21.054	-0.218	0.178
-614.288	732.742	-0.099	-0.267
-613.273	191.325	-0.191	0.289
-612.259	20.317	0.180	-0.146
-611.244	57.338	0.133	0.131
-610.230	-200.000	-0.002	-0.106
-609.215	-200.000	-0.005	-0.165
-608.201	800.000	-0.039	0.134
-607.186	-26.842	0.281	-0.165
-606.171	800.000	-0.099	-0.350
-605.157	572.869	0.056	0.138
-604.142	100.205	-0.133	0.156
-603.128	800.000	0.063	0.195
-602.113	23.542	0.203	0.168
-601.098	-142.694	-0.278	0.027
-600.084	800.000	0.103	-0.296
-599.069	154.080	-0.118	0.163
-598.055	102.049	-0.025	0.029
-597.040	34.159	-0.115	-0.101
-596.025	800.000	0.038	-0.163
-595.011	228.182	0.059	-0.096
-593.996	-61.235	-0.057	0.024
-592.982	20.995	-0.282	0.230
-591.967	-200.000	-0.001	-0.211
-590.952	15.523	-0.172	0.136
-589.938	-24.655	-0.245	-0.147
-588.923	-160.743	0.198	-0.011
-587.909	180.357	0.060	0.088
-586.894	790.980	0.024	0.065
-585.879	49.744	0.094	0.089
-584.865	124.105	-0.084	0.105
-583.850	95.007	0.067	-0.077
-582.836	84.337	-0.175	-0.192
-581.821	800.000	0.054	0.177
-580.806	800.000	-0.013	-0.039
-579.792	-33.350	-0.155	-0.086
-578.777	-9.984	-0.282	0.188
-577.763	-162.584	-0.156	0.008
-576.748	2.395	-0.195	0.142
-575.733	172.273	-0.206	-0.297
-574.719	-79.844	-0.220	0.074
-573.704	53.896	-0.255	0.246
-572.690	645.352	0.143	0.365
-571.675	-200.000	0.007	-0.330
-570.661	-14.112	-0.127	0.082
-569.646	-32.240	0.320	0.180
-568.631	34.512	-0.117	0.103
-567.617	-115.978	0.197	-0.037
-566.602	-64.609	-0.180	0.073
-565.588	-200.000	-0.013	-0.083
-564.573	-65.292	-0.161	0.065
-563.558	760.642	-0.206	0.561
-562.544	216.708	-0.097	0.155
-561.529	246.175	0.033	0.056
-560.515	234.905	-0.062	0.103
-559.500	-200.000	-0.023	0.144
-558.485	-200.000	0.017	0.183
-557.471	0.747	0.313	0.225
-556.456	84.202	0.124	0.136
-555.442	-200.000	0.020	-0.237
-554.427	33.715	-0.063	-0.055
-553.412	365.590	0.184	-0.373
-552.398	-200.000	0.114	-0.542
-551.383	682.452	-0.116	-0.303
-550.369	-48.711	0.137	0.066
-549.354	-67.226	0.320	-0.126
-548.339	-200.000	0.049	-0.305
-547.325	-200.000	-0.036	0.159
-546.310	800.000	0.071	0.292
-545.296	-200.000	0.032	-0.274
-544.281	800.000	-0.108	0.345
-543.266	42.234	0.196	0.179
-542.252	-187.381	-0.317	0.004
-541.237	7.486	-0.383	0.287
-540.223	-59.637	0.522	-0.224
-539.208	-33.003	0.250	0.139
-538.193	800.000	-0.076	-0.307
-537.179	800.000	0.078	0.219
-536.164	131.181	-0.160	-0.207
-535.150	456.416	-0.039	-0.086
-534.135	392.012	0.081	-0.168
-533.121	209.569	0.094	-0.148
-532.106	425.177	-0.046	-0.098
-531.091	-200.000	-0.008	-0.161
-530.077	429.280	-0.066	0.143
-529.062	14.077	-0.076	0.059
-528.048	-132.551	-0.130	0.017
-527.033	-6.081	0.230	-0.157
-526.018	170.606	-0.143	-0.205
-525.004	328.012	-0.051	-0.099
-523.989	-61.940	0.113	-0.047
-522.975	11.842	-0.091	-0.070
-521.960	-82.627	-0.179	0.058
-520.945	-142.602	0.177	0.017
-519.931	-94.678	0.212	0.058
-518.916	437.723	-0.116	0.253
-517.902	-60.703	-0.343	0.145
-516.887	-74.165	-0.364	-0.132
-515.872	-90.459	0.126	0.037
-514.858	-114.480	-0.137	-0.026
-513.843	25.099	-0.144	-0.120
-512.829	180.381	0.027	-0.039
-511.814	-200.000	-0.046	-0.290
-510.799	800.000	0.033	-0.117
-509.785	-200.000	0.010	0.068
-508.770	-53.316	0.371	0.171
-507.756	-6.055	-0.335	-0.229
-506.741	68.857	0.116	-0.120
-505.726	800.000	-0.067	0.187
-504.712	693.846	0.174	-0.457
-503.697	800.000	-0.017	-0.068
-502.683	-130.891	0.172	-0.023
-501.668	-85.566	-0.303	-0.094
-500.653	708.195	0.097	-0.257
-499.639	-106.121	-0.043	0.010
-498.624	355.197	-0.075	-0.149
-497.610	419.677	-0.201	0.431
-496.595	-63.729	0.242	0.099
-495.581	-136.035	0.017	0.002
-494.566	-10.989	-0.112	0.074
-493.551	-102.062	-0.187	-0.045
-492.537	149.832	-0.138	0.187
-491.522	800.000	-0.044	0.170
-490.508	16.981	-0.425	-0.337
-489.493	-180.833	0.086	0.002
-488.478	-17.318	0.444	-0.280
-487.464	-18.656	0.180	0.113
-486.449	-35.967	-0.163	-0.088
-485.435	-200.000	0.000	-0.117
-484.420	427.538	-0.058	-0.126
-483.405	632.192	0.103	-0.261
-482.391	-200.000	-0.011	-0.215
-481.376	-200.000	0.009	-0.156
-480.362	-162.694	0.067	-0.003
-479.347	-27.299	0.170	0.099
-478.332	-45.214	-0.208	0.103
-477.318	-200.000	-0.050	-0.304
-476.303	49.215	0.139	0.130
-475.289	800.000	0.021	0.074
-474.274	44.106	-0.262	-0.240
-473.259	11.218	0.305	-0.233
-472.245	222.548	0.114	0.183
-471.230	513.404	0.056	-0.132
-470.216	36.796	-0.081	0.072
-469.201	256.668	-0.164	-0.282
-468.186	347.418	-0.023	0.045
-467.172	192.385	-0.195	-0.295
-466.157	-70.369	-0.128	0.048
-465.143	-200.000	0.006	-0.053
-464.128	-200.000	0.055	-0.306
-463.113	-152.705	0.039	0.003
-462.099	-200.000	-0.001	-0.254
-461.084	-59.509	0.269	-0.116
-460.070	800.000	-0.073	-0.261
-459.055	-41.565	-0.075	-0.039
-458.040	754.216	0.046	0.124
-457.026	629.303	0.137	0.347
-456.011	-168.204	0.161	0.006
-454.997	-79.258	-0.400	-0.136
-453.982	-17.314	-0.120	0.076
-452.968	176.819	0.182	0.264
-451.953	-200.000	0.050	0.258
-450.938	-99.041	0.442	0.112
-449.924	-162.155	0.151	-0.008
-448.909	-52.225	0.317	0.147
-447.895	-90.030	-0.240	-0.070
-446.880	-200.000	0.039	-0.317
-445.865	85.885	0.230	-0.253
-444.851	-160.277	0.179	-0.010
-443.836	-138.681	-0.293	-0.032
-442.822	-42.967	-0.439	-0.222
-441.807	289.760	-0.109	-0.198
-440.792	259.535	0.178	-0.306
-439.778	-123.293	-0.074	-0.012
-438.763	49.329	0.072	0.068
-437.749	23.499	0.299	0.245
-436.734	800.000	-0.007	0.028
-435.719	-14.914	0.041	-0.026
-434.705	-96.175	-0.203	0.054
-433.690	-200.000	0.038	-0.297
-432.676	403.792	0.187	0.392
-431.661	-200.000	-0.021	0.211
-430.646	200.559	-0.052	-0.080
-429.632	161.168	-0.216	0.302
-428.617	-61.138	0.170	-0.072
-427.603	-200.000	0.003	0.490
-426.588	-101.406	0.377	0.092
-425.573	7.149	0.109	-0.081
-424.559	-52.099	-0.127	-0.059
-423.544	32.363	-0.171	0.148
-422.530	39.897	0.301	-0.270
-421.515	-46.513	-0.220	0.108
-420.500	-12.549	0.206	-0.134
-419.486	314.698	0.102	0.193
-418.471	-129.212	-0.199	-0.028
-417.457	146.303	0.041	-0.054
-416.442	368.862	-0.083	0.168
-415.428	-146.526	-0.241	-0.021
-414.413	64.502	0.072	-0.072
-413.398	214.886	-0.092	-0.145
-412.384	462.730	-0.088	0.195
-411.369	1.591	-0.139	-0.100
-410.355	106.580	-0.136	0.161
-409.340	-60.394	-0.054	0.023
-408.325	259.409	0.143	0.246
-407.311	428.622	0.051	-0.109
-406.296	111.090	0.160	0.192
-405.282	-69.006	-0.330	0.127
-404.267	800.000	0.024	-0.067
-403.252	28.585	-0.284	-0.240
-402.238	-94.367	-0.057	0.015
-401.223	-65.124	-0.137	0.055
-400.209	800.000	-0.061	-0.229
-399.194	-34.425	-0.264	-0.144
-398.179	800.000	0.103	0.402
-397.165	-107.158	0.322	0.071
-396.150	-200.000	-0.055	-0.275
-395.136	380.438	-0.139	-0.284
-394.121	800.000	0.021	0.059
-393.106	191.573	0.147	0.221
-392.092	-200.000	-0.037	0.176
-391.077	376.108	-0.134	0.272
-390.063	371.838	0.068	0.138
-389.048	214.990	-0.179	0.283
-388.033	-142.368	0.205	0.020
-387.019	-87.003	-0.159	-0.048
-386.004	-128.990	0.110	-0.015
-384.990	-75.456	0.355	-0.126
-383.975	-116.430	-0.032	0.006
-382.960	-111.730	0.188	0.038
-381.946	-200.000	0.041	0.190
-380.931	-86.354	-0.198	0.061
-379.917	26.157	0.312	0.259
-378.902	-111.667	-0.450	0.091
-377.888	800.000	0.024	-0.082
-376.873	-68.588	0.171	0.066
-375.858	211.801	-0.256	0.401
-374.844	4.461	0.286	0.209
-373.829	-63.613	0.266	-0.109
-372.815	800.000	0.045	0.131
-371.800	130.461	0.243	-0.309
-370.785	84.048	-0.240	0.261
-369.771	352.950	0.074	0.146
-368.756	-105.369	-0.170	0.039
-367.742	-163.045	0.450	-0.022
-366.727	800.000	-0.092	-0.357
-365.712	-7.235	-0.064	0.043
-364.698	-137.583	0.353	-0.040
-363.683	-200.000	0.002	-0.238
-362.669	3.167	-0.194	0.140
-361.654	-28.939	-0.327	-0.187
-360.639	616.021	0.123	-0.307
-359.625	-118.010	-0.249	-0.044
-358.610	-141.254	-0.206	0.021
-357.596	800.000	0.054	0.166
-356.581	800.000	-0.057	0.218
-355.566	445.533	0.106	0.233
-354.552	-200.000	-0.019	0.329
-353.537	-61.903	-0.236	0.098
-352.523	134.377	-0.082	-0.106
-351.508	152.816	-0.059	0.080
-350.493	655.229	-0.106	0.272
-349.479	-165.060	-0.074	-0.003
-348.464	-170.376	0.280	0.010
-347.450	-200.000	-0.056	0.447
-346.435	-114.391	-0.211	0.040
-345.420	184.133	-0.056	-0.083
-344.406	-131.988	0.145	0.019
-343.391	120.162	-0.156	-0.193
-342.377	-200.000	-0.065	0.356
-341.362	-200.000	0.004	-0.179
-340.348	450.241	-0.040	0.087
-339.333	-101.589	0.168	-0.041
-338.318	-95.662	0.217	-0.058
-337.304	163.646	0.176	0.246
-336.289	-79.960	0.164	-0.055
-335.275	280.422	-0.068	-0.121
-334.260	-154.649	0.394	0.026
-333.245	800.000	0.048	0.203
-332.231	-200.000	0.035	0.251
-331.216	-200.000	0.005	-0.281
-330.202	202.066	0.199	0.306
-329.187	-70.308	-0.109	0.041
-328.172	-200.000	-0.023	0.152
-327.158	2.790	-0.233	-0.168
-326.143	-200.000	0.006	-0.204
-325.129	-60.074	-0.360	0.153
-324.114	-178.892	0.330	-0.007
-323.099	-200.000	-0.021	-0.359
-322.085	106.576	0.156	-0.184
-321.070	-200.000	0.075	-0.344
-320.056	7.295	-0.295	-0.219
-319.041	-80.480	0.263	-0.087
-318.026	-172.856	-0.254	0.008
-317.012	-200.000	-0.023	0.116
-315.997	-72.831	-0.111	0.041
-314.983	-55.235	-0.198	0.088
-313.968	120.435	-0.147	0.181
-312.953	-171.877	0.086	0.003
-311.939	-136.618	-0.166	0.019
-310.924	144.006	0.327	-0.434
-309.910	43.528	0.060	-0.054
-308.895	-54.354	0.061	0.028
-307.880	-52.688	-0.239	0.109
-306.866	103.303	0.177	0.207
-305.851	-47.790	-0.078	-0.038
-304.837	-106.676	-0.348	0.077
-303.822	243.675	-0.051	0.085
-302.807	-63.078	0.204	0.084
-301.793	-49.529	0.045	0.021
-300.778	85.217	-0.320	0.349
-299.764	-17.301	-0.159	0.099
-298.749	358.613	-0.078	-0.155
-297.735	-15.573	0.281	-0.178
-296.720	-124.709	-0.199	0.031
-295.705	149.799	-0.111	0.150
-294.691	-77.551	0.269	-0.093
-293.676	244.863	-0.079	-0.132
-292.662	17.459	0.130	-0.103
-291.647	-200.000	-0.047	-0.367
-290.632	-200.000	-0.010	-0.110
-289.618	800.000	0.112	-0.311
-288.603	-158.173	-0.029	-0.002
-287.589	-100.280	-0.174	-0.043
-286.574	11.562	0.126	-0.096
-285.559	646.269	0.073	-0.186
-284.545	0.741	0.163	-0.116
-283.530	-39.862	0.203	-0.105
-282.516	2.197	0.231	0.166
-281.501	800.000	-0.085	0.332
-280.486	-151.928	0.105	-0.008
-279.472	170.999	0.013	-0.018
-278.457	-200.000	0.005	-0.492
-277.443	69.751	-0.021	-0.021
-276.428	-157.807	0.089	-0.005
-275.413	-200.000	0.036	-0.325
-274.399	-0.709	0.168	-0.118
-273.384	-74.129	0.256	-0.092
-272.370	-200.000	-0.012	-0.113
-271.355	399.395	-0.038	0.079
-270.340	-49.751	-0.243	0.115
-269.326	197.278	0.164	-0.248
-268.311	-200.000	-0.005	0.113
-267.297	-27.218	0.294	-0.170
-266.282	-95.469	-0.214	-0.057
-265.267	54.814	-0.121	0.115
-264.253	38.555	0.113	-0.100
-263.238	123.988	-0.156	-0.194
-262.224	-88.023	-0.142	-0.042
-261.209	186.245	0.076	0.112
-260.195	-177.344	0.205	0.005
-259.180	-123.482	-0.193	0.030
-258.165	-0.404	0.267	-0.188
-257.151	-200.000	0.005	0.051
-256.136	800.000	-0.099	-0.353
-255.122	189.090	-0.075	-0.111
-254.107	126.076	0.147	-0.185
-253.092	-200.000	0.029	0.163
-252.078	-33.934	0.102	0.056
-251.063	-200.000	-0.037	0.259
-250.049	52.012	-0.338	0.319
-249.034	90.355	-0.067	-0.074
-248.019	287.201	0.106	-0.190
-247.005	-106.663	0.272	-0.060
-245.990	162.713	0.181	-0.252
-244.976	39.817	-0.255	0.226
-243.961	-31.012	0.350	0.196
-242.946	-200.000	-0.002	0.071
-241.932	800.000	0.110	0.474
-240.917	-135.181	-0.197	0.023
-239.903	97.825	-0.090	-0.103
-238.888	-14.548	0.127	-0.081
-237.873	1.823	-0.152	-0.108
-236.859	800.000	-0.054	0.155
-235.844	-6.847	0.370	0.249
-234.830	421.600	0.107	0.227
-233.815	800.000	0.068	-0.247
-232.800	158.100	0.030	0.041
-231.786	-110.853	0.263	-0.054
-230.771	103.658	0.129	0.150
-229.757	-178.051	-0.190	-0.004
-228.742	-44.473	0.378	0.187
-227.727	18.437	-0.208	-0.165
-226.713	-49.399	-0.243	-0.115
-225.698	255.492	-0.149	0.253
-224.684	800.000	0.016	0.053
-223.669	800.000	-0.055	0.155
-222.655	-77.101	0.211	0.073
-221.640	-117.334	-0.065	-0.012
-220.625	254.620	0.176	0.297
-219.611	111.105	-0.206	-0.246
-218.596	-69.027	-0.132	-0.050
-217.582	-77.515	0.059	-0.020
-216.567	-200.000	-0.026	-0.119
-215.552	-3.484	-0.267	-0.184
-214.538	-133.160	0.442	-0.055
-213.523	236.644	-0.125	0.204
-212.509	-27.960	-0.236	0.136
-211.494	-100.441	0.424	0.104
-210.479	-9.474	0.176	0.116
-209.465	-63.198	0.056	0.023
-208.450	-3.510	0.303	-0.209
-207.436	-10.192	-0.496	0.326
-206.421	-200.000	-0.010	0.270
-205.406	246.640	0.128	0.214
-204.392	116.976	0.061	-0.074
-203.377	-90.717	-0.068	-0.019
-202.363	185.482	-0.144	0.211
-201.348	-200.000	0.096	-0.464
-200.333	-200.000	-0.011	0.178
-199.319	-10.197	-0.406	-0.266
-198.304	-70.920	0.061	0.023
-197.290	51.658	0.238	-0.224
-196.275	-84.426	0.102	-0.032
-195.260	-88.954	0.131	-0.038
-194.246	-200.000	0.030	-0.161
-193.231	-200.000	-0.019	0.316
-192.217	-86.170	0.474	0.145
-191.202	34.451	-0.154	0.133
-190.187	-81.820	-0.087	-0.028
-189.173	-197.184	-0.302	0.002
-188.158	126.190	0.259	-0.324
-187.144	479.617	0.210	0.470
-186.129	-56.100	-0.185	0.082
-185.114	-170.409	-0.116	-0.004
-184.100	354.354	0.105	0.206
-183.085	-67.720	0.279	-0.108
-182.071	699.643	-0.051	-0.132
-181.056	-200.000	0.002	-0.069
-180.042	91.691	-0.185	0.206
-179.027	775.315	-0.090	-0.242
-178.012	183.279	0.025	0.037
-176.998	165.833	0.157	0.219
-175.983	-157.326	-0.308	-0.018
-174.969	61.672	-0.014	0.014
-173.954	-29.565	0.214	-0.121
-172.939	178.516	-0.294	-0.425
-171.925	305.090	0.098	0.181
-170.910	-200.000	0.039	0.196
-169.896	253.209	0.084	-0.142
-168.881	-31.727	0.135	-0.075
-167.866	88.939	-0.193	-0.212
-166.852	-51.133	-0.080	-0.037
-165.837	303.615	0.039	0.071
-164.823	308.209	0.186	-0.342
-163.808	-119.540	-0.285	-0.049
-162.793	-63.728	0.043	0.017
-161.779	71.535	0.114	0.117
-160.764	-5.678	-0.288	0.195
-159.750	-78.219	-0.253	0.086
-158.735	236.732	0.107	-0.175
-157.720	288.382	-0.044	-0.078
-156.706	443.303	0.141	0.305
-155.691	-101.911	-0.244	0.058
-154.677	261.134	0.054	-0.092
-153.662	-200.000	-0.028	-0.131
-152.647	-200.000	-0.062	0.320
-151.633	-88.498	-0.337	0.099
-150.618	800.000	0.129	0.445
-149.604	-200.000	0.036	0.219
-148.589	-29.383	-0.119	0.067
-147.574	344.592	0.055	-0.106
-146.560	215.628	0.206	-0.323
-145.545	45.292	0.329	-0.300
-144.531	-200.000	0.048	-0.305
-143.516	71.460	0.096	-0.098
-142.502	-119.751	-0.232	0.040
-141.487	106.279	0.053	0.062
-140.472	-200.000	0.076	0.435
-139.458	208.035	-0.127	-0.196
-138.443	-134.305	-0.153	0.019
-137.429	131.346	0.118	-0.149
-136.414	266.259	-0.081	-0.140
-135.399	-35.134	-0.263	-0.142
-134.385	-200.000	0.017	-0.085
-133.370	-200.000	0.009	0.159
-132.356	14.245	0.113	-0.087
-131.341	-200.000	-0.049	-0.445
-130.326	428.002	0.083	-0.177
-129.312	287.539	-0.055	0.099
-128.297	-102.228	-0.146	0.035
-127.283	642.960	-0.049	0.123
-126.268	19.392	0.163	0.129
-125.253	-149.692	0.286	0.022
-124.239	-182.813	0.340	0.006
-123.224	800.000	0.020	0.069
-122.210	519.750	0.097	0.223
