DTS Sentinel unit serial number:	SN413079Multiplexer serial number:	ORYXHardware model number:	OX4-SRSoftware version number:	ORYX F/W v4.00 Oryx Data Collector v3.7.2.0data status	okinstallation	princeton_trtdifferential loss correction	single-endedforward channel	channel 3reverse channel	N/Adate	2019/09/10time	21:14:10forward acquisition time	60.00reverse acquisition time	0.00gamma	496.2192k internal	0.2328k external	0.2328temperature offset calibration	0.9921default loss term (dB/km)	0.3790temperature slope calibration	1.0000multiplexer offset coefficient	1.0000multiplexer slope coefficient	1.0000fibre end	0.00T internal ref (°C)	31.37T ext. ref 1 (°C)	-0.31T ext. ref 2 (°C)	24.50length (m)	temperature (°C)	Stokes	anti-Stokes-747.200	-200.000	-0.072	-0.390
-746.185	-5.678	0.050	0.035
-745.171	-121.461	0.382	-0.064
-744.156	64.038	-0.140	0.142
-743.142	-125.528	0.170	0.026
-742.127	-200.000	0.009	0.137
-741.112	-99.814	-0.270	-0.068
-740.098	176.825	-0.198	0.290
-739.083	-80.166	0.005	0.002
-738.069	-46.480	-0.184	0.091
-737.054	149.900	0.121	0.165
-736.039	147.395	-0.126	-0.172
-735.025	-12.175	0.368	-0.243
-734.010	-54.147	0.062	-0.029
-732.996	-200.000	-0.002	-0.042
-731.981	-37.547	-0.386	0.207
-730.966	800.000	-0.095	-0.291
-729.952	-200.000	0.022	-0.278
-728.937	-89.718	-0.087	0.026
-727.923	800.000	0.032	0.131
-726.908	190.126	-0.150	0.227
-725.894	800.000	0.061	0.247
-724.879	150.076	-0.131	-0.179
-723.864	162.048	-0.165	0.233
-722.850	90.172	0.266	-0.300
-721.835	-72.323	-0.289	-0.108
-720.821	-104.130	-0.365	0.085
-719.806	327.034	0.096	-0.185
-718.791	-200.000	-0.015	-0.069
-717.777	-84.813	0.219	-0.069
-716.762	-123.941	-0.269	-0.043
-715.748	-200.000	0.012	-0.131
-714.733	175.539	-0.226	-0.329
-713.718	-91.221	-0.133	-0.038
-712.704	19.952	-0.111	-0.090
-711.689	-48.577	-0.239	0.116
-710.675	164.026	-0.169	0.240
-709.660	-200.000	0.034	-0.377
-708.645	-78.055	-0.279	-0.097
-707.631	88.583	-0.065	-0.073
-706.616	800.000	0.070	0.232
-705.602	-147.935	-0.284	-0.024
-704.587	800.000	-0.064	0.210
-703.572	-133.014	0.308	0.039
-702.558	-65.899	0.245	-0.098
-701.543	626.625	0.114	0.289
-700.529	-200.000	0.008	-0.267
-699.514	800.000	-0.080	-0.296
-698.499	31.512	-0.142	0.123
-697.485	38.298	0.071	-0.064
-696.470	-90.329	-0.132	-0.039
-695.456	258.161	-0.102	0.176
-694.441	-109.114	0.268	-0.057
-693.426	-200.000	0.018	0.114
-692.412	237.051	0.043	-0.071
-691.397	108.820	0.118	-0.141
-690.383	338.993	-0.245	-0.479
-689.368	327.799	0.121	-0.233
-688.354	66.577	0.260	0.266
-687.339	119.880	0.174	-0.217
-686.324	-131.527	-0.343	-0.045
-685.310	-192.480	-0.181	0.002
-684.295	-200.000	-0.042	0.196
-683.281	-200.000	0.021	-0.321
-682.266	-76.299	-0.369	-0.131
-681.251	-30.712	-0.138	-0.079
-680.237	-200.000	-0.009	-0.103
-679.222	20.797	0.068	0.055
-678.208	800.000	0.088	0.352
-677.193	-200.000	0.000	0.242
-676.178	164.269	0.107	0.152
-675.164	-86.736	0.231	-0.071
-674.149	88.086	-0.151	-0.169
-673.135	-91.498	-0.088	0.025
-672.120	-200.000	-0.013	-0.070
-671.105	-200.000	0.010	-0.091
-670.091	38.334	0.222	-0.199
-669.076	189.318	-0.069	-0.105
-668.062	339.050	0.088	-0.172
-667.047	118.326	-0.079	-0.098
-666.032	-187.784	-0.280	0.004
-665.018	-106.405	0.161	0.036
-664.003	213.054	-0.099	0.157
-662.989	4.628	0.115	0.085
-661.974	-46.207	0.032	0.016
-660.959	-124.533	0.225	0.035
-659.945	800.000	0.048	-0.159
-658.930	-46.993	0.278	0.136
-657.916	-149.951	-0.248	-0.019
-656.901	519.478	0.101	0.238
-655.886	29.953	-0.239	0.205
-654.872	50.201	-0.041	0.038
-653.857	-49.367	0.465	-0.223
-652.843	231.361	0.118	-0.194
-651.828	645.912	-0.115	0.295
-650.814	800.000	-0.107	0.407
-649.799	-58.477	-0.092	-0.040
-648.784	-200.000	0.044	-0.217
-647.770	85.085	0.126	-0.139
-646.755	-76.326	-0.095	0.034
-645.741	-183.967	-0.177	-0.003
-644.726	-40.812	0.103	0.054
-643.711	-200.000	-0.048	0.329
-642.697	-114.709	0.294	0.056
-641.682	-137.938	-0.276	0.031
-640.668	-95.883	-0.171	0.046
-639.653	384.493	0.048	-0.098
-638.638	-93.142	0.135	-0.038
-637.624	-106.119	0.131	0.029
-636.609	296.372	0.062	-0.115
-635.595	-193.376	-0.426	-0.004
-634.580	111.120	0.129	-0.156
-633.565	-7.266	-0.121	0.082
-632.551	-47.421	0.231	-0.112
-631.536	-55.946	-0.367	-0.164
-630.522	-80.501	0.296	-0.099
-629.507	174.661	0.081	0.117
-628.492	-200.000	-0.008	0.168
-627.478	11.760	-0.062	-0.048
-626.463	800.000	0.055	0.173
-625.449	28.087	0.261	0.221
-624.434	-27.635	0.264	0.154
-623.419	-86.211	-0.242	-0.075
-622.405	-168.271	-0.197	0.008
-621.390	115.875	0.105	-0.129
-620.376	341.675	-0.093	-0.182
-619.361	454.110	-0.116	0.257
-618.346	35.383	0.186	-0.164
-617.332	-50.834	-0.084	0.039
-616.317	737.797	0.052	0.140
-615.303	-83.939	0.314	-0.100
-614.288	-102.445	0.128	-0.031
-613.273	226.483	0.107	-0.174
-612.259	-200.000	0.023	-0.191
-611.244	88.924	0.088	-0.099
-610.230	-200.000	-0.024	-0.281
-609.215	-158.908	0.072	0.004
-608.201	213.501	0.179	0.283
-607.186	-200.000	-0.015	-0.069
-606.171	-77.606	-0.060	0.021
-605.157	30.386	-0.194	0.166
-604.142	12.205	-0.273	0.211
-603.128	3.378	-0.019	0.014
-602.113	-112.757	-0.070	0.014
-601.098	35.093	-0.156	-0.137
-600.084	800.000	-0.022	0.075
-599.069	120.849	0.137	-0.171
-598.055	-55.261	-0.157	-0.071
-597.040	-57.769	-0.385	0.169
-596.025	48.445	0.361	0.339
-595.011	800.000	0.071	-0.249
-593.996	-152.065	-0.123	0.009
-592.982	-200.000	0.035	0.186
-591.967	98.662	-0.234	-0.271
-590.952	512.639	0.121	-0.284
-589.938	14.998	0.168	-0.132
-588.923	-200.000	0.039	-0.265
-587.909	800.000	0.064	0.246
-586.894	-166.221	-0.078	-0.003
-585.879	6.633	-0.063	0.047
-584.865	122.757	-0.054	-0.067
-583.850	16.013	0.324	0.255
-582.836	-41.185	0.112	-0.058
-581.821	29.863	0.098	0.084
-580.806	-11.683	-0.227	-0.149
-579.792	-147.296	-0.233	0.020
-578.777	525.877	0.050	0.117
-577.763	-200.000	0.015	-0.091
-576.748	-107.445	0.192	0.042
-575.733	800.000	-0.026	0.074
-574.719	-109.133	-0.205	0.044
-573.704	-200.000	-0.035	-0.630
-572.690	-74.421	-0.193	-0.070
-571.675	702.958	0.028	0.073
-570.661	-81.848	-0.383	0.126
-569.646	-117.009	-0.232	0.042
-568.631	55.508	0.150	0.145
-567.617	11.942	-0.254	0.195
-566.602	800.000	-0.073	-0.254
-565.588	70.007	-0.209	-0.215
-564.573	198.837	0.119	-0.182
-563.558	-65.763	-0.140	0.056
-562.544	329.579	0.081	-0.156
-561.529	-200.000	-0.002	-0.153
-560.515	-200.000	-0.037	-0.321
-559.500	-167.240	-0.354	-0.014
-558.485	124.353	0.137	-0.172
-557.471	-200.000	-0.062	0.324
-556.456	184.927	0.361	-0.536
-555.442	-200.000	0.100	-0.675
-554.427	-200.000	0.056	-0.273
-553.412	-89.763	-0.189	-0.055
-552.398	-34.203	-0.268	-0.147
-551.383	-131.291	0.053	-0.007
-550.369	-59.820	0.149	0.064
-549.354	-200.000	-0.013	0.107
-548.339	-114.928	0.290	0.055
-547.325	-85.550	-0.349	-0.109
-546.310	317.615	0.044	-0.083
-545.296	-141.889	0.039	-0.004
-544.281	-50.047	-0.172	-0.081
-543.266	550.593	-0.057	0.137
-542.252	314.101	-0.150	0.283
-541.237	12.074	0.143	-0.110
-540.223	-86.227	-0.110	-0.034
-539.208	-80.148	-0.246	0.082
-538.193	129.032	-0.073	-0.094
-537.179	800.000	-0.072	-0.224
-536.164	276.649	-0.244	0.433
-535.150	-145.125	-0.198	0.018
-534.135	-200.000	0.005	-0.247
-533.121	-41.840	0.257	0.132
-532.106	63.280	-0.231	0.232
-531.091	-116.447	-0.436	-0.080
-530.077	21.430	0.099	0.081
-529.062	800.000	0.024	0.099
-528.048	-6.740	0.252	0.171
-527.033	265.553	-0.088	-0.153
-526.018	-111.692	-0.375	0.076
-525.004	-28.458	0.118	0.068
-523.989	-155.336	-0.279	-0.018
-522.975	210.849	-0.087	-0.136
-521.960	800.000	-0.063	0.236
-520.945	-25.757	0.228	-0.134
-519.931	-150.738	0.209	-0.016
-518.916	-88.452	0.288	0.086
-517.902	82.283	0.098	-0.106
-516.887	727.405	0.033	-0.087
-515.872	-56.389	0.150	-0.066
-514.858	-167.667	0.051	-0.002
-513.843	-78.269	-0.065	0.022
-512.829	12.242	0.151	-0.116
-511.814	-109.962	-0.206	0.043
-510.799	-44.501	-0.238	0.119
-509.785	-127.752	0.159	0.023
-508.770	-103.392	-0.388	-0.091
-507.756	-12.018	-0.025	-0.016
-506.741	161.769	0.121	0.169
-505.726	-22.857	-0.110	-0.066
-504.712	292.723	-0.114	-0.208
-503.697	75.660	0.189	0.200
-502.683	-41.856	0.203	0.104
-501.668	-11.932	-0.135	-0.088
-500.653	255.250	-0.191	0.326
-499.639	-132.364	0.541	0.070
-498.624	174.654	0.060	0.087
-497.610	55.760	-0.162	-0.157
-496.595	175.169	0.057	0.082
-495.581	-200.000	0.001	0.036
-494.566	800.000	0.044	-0.181
-493.551	-200.000	-0.053	-0.238
-492.537	-200.000	-0.033	-0.149
-491.522	-200.000	0.023	-0.204
-490.508	-55.545	-0.314	-0.141
-489.493	-200.000	0.013	0.124
-488.478	-200.000	0.063	0.288
-487.464	-172.527	-0.170	-0.005
-486.449	-200.000	-0.052	0.267
-485.435	-200.000	-0.011	-0.059
-484.420	25.618	-0.115	-0.095
-483.405	-200.000	0.055	-0.240
-482.391	-124.909	0.222	-0.034
-481.376	-200.000	-0.022	-0.233
-480.362	-105.437	0.058	-0.013
-479.347	-142.183	-0.342	0.034
-478.332	-96.946	-0.260	-0.068
-477.318	-64.174	-0.383	-0.156
-476.303	-133.557	-0.074	-0.009
-475.289	228.999	-0.141	0.230
-474.274	3.483	-0.247	0.180
-473.259	-75.242	0.083	-0.030
-472.245	-149.912	0.119	-0.009
-471.230	115.365	0.054	-0.065
-470.216	182.537	0.156	0.229
-469.201	38.348	-0.264	-0.234
-468.186	-28.402	0.337	0.194
-467.172	247.503	-0.207	-0.348
-466.157	-92.877	-0.098	-0.027
-465.143	-161.777	0.322	-0.016
-464.128	-200.000	-0.103	-0.486
-463.113	-51.981	0.211	0.098
-462.099	-141.556	-0.446	-0.045
-461.084	-89.394	-0.347	-0.102
-460.070	74.649	-0.061	0.064
-459.055	-119.956	0.401	0.069
-458.040	138.659	-0.108	-0.141
-457.026	60.531	-0.136	0.134
-456.011	54.312	0.146	0.140
-454.997	-200.000	-0.026	-0.168
-453.982	78.631	0.227	0.242
-452.968	-183.253	0.383	-0.007
-451.953	104.228	-0.053	0.063
-450.938	103.999	-0.023	0.027
-449.924	-200.000	-0.021	-0.183
-448.909	248.570	0.209	-0.352
-447.895	78.111	-0.026	-0.028
-446.880	33.736	-0.178	-0.155
-445.865	456.955	0.128	0.284
-444.851	-40.637	-0.440	0.227
-443.836	800.000	0.036	-0.107
-442.822	-9.065	-0.111	-0.074
-441.807	61.279	-0.072	-0.071
-440.792	29.784	-0.045	-0.038
-439.778	-40.973	0.503	0.259
-438.763	-200.000	0.024	0.234
-437.749	-200.000	0.004	0.024
-436.734	208.299	-0.191	-0.298
-435.719	48.955	-0.041	-0.038
-434.705	-146.488	0.321	0.028
-433.690	-90.245	-0.127	0.037
-432.676	-200.000	0.037	0.212
-431.661	-125.028	0.321	-0.049
-430.646	20.772	-0.208	0.168
-429.632	-200.000	-0.023	0.119
-428.617	-104.001	0.447	-0.104
-427.603	17.386	0.180	-0.143
-426.588	602.967	0.077	-0.190
-425.573	-200.000	-0.018	0.163
-424.559	101.695	0.129	0.150
-423.544	69.483	-0.138	0.141
-422.530	-69.730	-0.204	0.078
-421.515	308.494	-0.114	0.213
-420.500	9.696	-0.177	0.133
-419.486	-24.324	0.171	-0.102
-418.471	83.820	-0.286	-0.310
-417.457	18.541	0.093	-0.074
-416.442	-113.758	-0.116	-0.022
-415.428	-61.753	-0.099	-0.041
-414.413	-105.710	-0.148	-0.033
-413.398	-94.342	0.166	0.045
-412.384	58.491	-0.212	0.207
-411.369	-121.558	0.350	-0.058
-410.355	-110.605	0.285	0.059
-409.340	-15.859	0.069	0.044
-408.325	-66.766	0.243	0.096
-407.311	-4.119	-0.098	-0.068
-406.296	-126.630	-0.310	0.046
-405.282	-200.000	0.002	-0.324
-404.267	800.000	-0.074	-0.286
-403.252	-200.000	-0.029	-0.347
-402.238	-60.914	0.141	-0.059
-401.223	229.205	0.096	0.156
-400.209	-200.000	0.024	0.291
-399.194	352.059	0.125	-0.246
-398.179	273.042	0.014	0.024
-397.165	273.990	-0.154	0.271
-396.150	-102.877	0.156	0.037
-395.136	-112.490	-0.134	-0.027
-394.121	-66.055	0.014	-0.006
-393.106	-200.000	-0.031	-0.143
-392.092	350.500	0.075	0.148
-391.077	-51.371	0.199	0.093
-390.063	610.327	-0.134	-0.333
-389.048	227.750	-0.200	-0.323
-388.033	-200.000	0.031	-0.135
-387.019	-10.301	0.083	0.055
-386.004	26.516	0.107	0.089
-384.990	-45.305	-0.247	-0.122
-383.975	46.625	0.212	-0.196
-382.960	-200.000	0.028	0.267
-381.946	-123.406	0.069	-0.011
-380.931	147.025	0.091	0.122
-379.917	-117.590	0.088	-0.016
-378.902	-9.851	0.058	0.038
-377.888	335.397	0.157	-0.302
-376.873	389.587	-0.120	-0.247
-375.858	-200.000	-0.026	-0.116
-374.844	33.750	0.111	-0.096
-373.829	157.990	-0.038	0.052
-372.815	-80.111	0.345	0.115
-371.800	68.722	0.120	0.123
-370.785	99.904	0.171	0.197
-369.771	-120.788	-0.089	0.015
-368.756	-77.950	0.386	-0.132
-367.742	-101.133	0.326	-0.079
-366.727	800.000	-0.098	0.294
-365.712	-71.309	-0.148	0.055
-364.698	-89.843	0.171	0.050
-363.683	58.009	-0.053	0.052
-362.669	-38.613	0.111	-0.058
-361.654	800.000	-0.041	-0.148
-360.639	512.820	-0.084	-0.194
-359.625	-200.000	-0.009	-0.087
-358.610	168.120	0.098	0.139
-357.596	-73.936	0.037	0.013
-356.581	-153.525	-0.163	-0.011
-355.566	303.460	-0.069	-0.127
-354.552	-5.017	-0.368	-0.252
-353.537	800.000	0.116	-0.359
-352.523	85.457	0.180	0.196
-351.508	-200.000	-0.064	-0.307
-350.493	-18.087	-0.230	0.143
-349.479	-200.000	0.000	-0.039
-348.464	106.027	0.033	0.039
-347.450	-110.689	0.442	-0.091
-346.435	12.596	-0.284	0.217
-345.420	-142.540	0.104	-0.010
-344.406	191.201	0.069	0.103
-343.391	-99.147	0.274	-0.069
-342.377	800.000	0.072	-0.252
-341.362	57.229	-0.171	0.166
-340.348	-182.183	0.100	-0.002
-339.333	-125.137	-0.051	-0.008
-338.318	-63.593	0.273	0.111
-337.304	349.649	0.121	0.238
-336.289	-46.345	-0.309	-0.151
-335.275	-138.137	-0.269	0.030
-334.260	-200.000	0.004	-0.059
-333.245	348.746	-0.146	0.286
-332.231	-154.283	-0.316	0.021
-331.216	17.382	-0.284	0.224
-330.202	446.159	-0.107	-0.233
-329.187	-124.411	0.268	-0.041
-328.172	287.645	-0.026	0.046
-327.158	20.704	0.200	-0.160
-326.143	-119.423	0.471	0.081
-325.129	-4.455	0.168	0.115
-324.114	135.624	0.152	0.196
-323.099	800.000	0.002	0.005
-322.085	96.639	0.145	-0.165
-321.070	-149.761	-0.089	0.007
-320.056	122.080	-0.153	-0.189
-319.041	-89.347	-0.280	0.082
-318.026	-18.628	0.162	0.100
-317.012	346.461	0.040	0.077
-315.997	-200.000	0.013	0.260
-314.983	25.459	0.154	-0.127
-313.968	340.391	-0.055	0.107
-312.953	-69.135	-0.089	-0.034
-311.939	368.585	-0.095	-0.189
-310.924	-200.000	-0.007	-0.077
-309.910	43.633	0.143	0.129
-308.895	-200.000	-0.064	0.291
-307.880	-100.452	0.271	-0.067
-306.866	-17.851	0.111	0.069
-305.851	-132.058	-0.286	-0.037
-304.837	-34.593	-0.097	-0.053
-303.822	60.747	0.288	0.282
-302.807	-123.335	-0.251	0.040
-301.793	12.224	0.328	-0.250
-300.778	275.775	0.066	0.117
-299.764	-165.281	0.039	-0.002
-298.749	459.976	0.096	0.213
-297.735	-34.657	0.079	-0.043
-296.720	-92.975	0.149	0.041
-295.705	492.657	0.117	-0.265
-294.691	103.160	0.144	-0.167
-293.676	184.800	-0.057	-0.084
-292.662	-108.105	-0.234	-0.050
-291.647	58.617	-0.288	-0.280
-290.632	1.030	0.170	0.121
-289.618	-74.594	0.120	0.043
-288.603	-91.119	0.092	-0.026
-287.589	-200.000	0.023	0.127
-286.574	231.015	-0.050	-0.080
-285.559	800.000	-0.046	-0.132
-284.545	97.200	0.187	-0.212
-283.530	-200.000	0.029	0.152
-282.516	-41.109	-0.232	-0.119
-281.501	-72.514	0.145	0.053
-280.486	-80.294	-0.188	0.062
-279.472	11.420	-0.563	0.427
-278.457	721.457	-0.098	0.258
-277.443	-113.440	0.161	-0.031
-276.428	-200.000	-0.058	-0.329
-275.413	169.694	0.191	0.271
-274.399	225.595	0.139	0.223
-273.384	-131.414	-0.264	0.034
-272.370	-30.131	0.369	0.208
-271.355	-156.217	-0.104	-0.006
-270.340	-200.000	0.026	0.183
-269.326	800.000	0.090	0.261
-268.311	-67.764	-0.141	-0.054
-267.297	-134.874	-0.118	-0.014
-266.282	171.796	0.078	0.111
-265.267	-62.189	0.243	0.100
-264.253	-73.083	-0.164	0.059
-263.238	-51.728	0.107	0.049
-262.224	267.213	0.093	-0.161
-261.209	-34.396	-0.364	-0.198
-260.195	-53.785	-0.157	0.071
-259.180	-22.607	0.237	0.142
-258.165	171.550	-0.176	-0.250
-257.151	95.313	0.085	-0.096
-256.136	-166.662	-0.184	0.008
-255.122	-88.978	0.305	-0.089
-254.107	126.747	0.086	-0.107
-253.092	-30.928	0.303	-0.169
-252.078	-98.590	-0.226	0.057
-251.063	-154.139	0.420	-0.028
-250.049	-200.000	0.046	0.267
-249.034	-200.000	-0.003	-0.137
-248.019	-58.647	0.264	0.113
-247.005	-200.000	-0.185	0.001
-245.990	-200.000	-0.007	0.108
-244.976	-86.932	-0.318	-0.096
-243.961	-9.643	0.172	-0.114
-242.946	-83.565	0.217	-0.069
-241.932	-142.229	0.133	0.013
-240.917	800.000	-0.046	-0.154
-239.903	-200.000	0.295	0.001
-238.888	-200.000	-0.048	0.295
-237.873	-126.962	-0.062	0.009
-236.859	259.511	-0.052	-0.089
-235.844	62.811	-0.051	0.050
-234.830	-51.242	-0.124	-0.057
-233.815	772.306	-0.090	-0.244
-232.800	24.976	0.122	0.100
-231.786	86.163	-0.071	0.077
-230.771	800.000	-0.119	-0.446
-229.757	800.000	-0.096	0.337
-228.742	-200.000	0.016	-0.100
-227.727	800.000	-0.052	0.148
-226.713	800.000	-0.049	-0.202
-225.698	-122.417	-0.088	0.014
-224.684	157.587	0.090	-0.123
-223.669	800.000	0.058	0.193
-222.655	82.019	0.153	0.163
-221.640	-5.516	0.074	0.050
-220.625	-200.000	0.020	0.112
-219.611	-200.000	-0.031	0.173
-218.596	3.171	0.230	0.165
-217.582	-200.000	-0.031	-0.198
-216.567	47.763	-0.197	-0.181
-215.552	89.218	0.087	0.096
-214.538	53.915	-0.326	-0.310
-213.523	7.451	-0.272	0.201
-212.509	-18.501	-0.053	0.032
-211.494	-200.000	0.032	-0.252
-210.479	-129.322	-0.138	0.019
-209.465	-58.446	0.193	0.083
-208.450	-32.860	-0.406	0.222
-207.436	-56.005	-0.181	-0.080
-206.421	-51.510	-0.200	0.092
-205.406	106.193	0.172	0.201
-204.392	-117.374	-0.262	-0.047
-203.377	-136.394	0.390	0.045
-202.363	21.845	-0.052	0.042
-201.348	115.110	0.064	0.078
-200.333	53.536	0.083	0.079
-199.319	236.589	-0.145	0.236
-198.304	87.590	-0.198	-0.216
-197.290	-128.863	0.037	-0.005
-196.275	-200.000	0.083	0.431
-195.260	-91.126	-0.253	0.071
-194.246	-49.735	0.120	0.056
-193.231	-92.092	-0.382	0.107
-192.217	-66.002	0.001	-0.000
-191.202	-10.721	0.438	0.286
-190.187	38.147	0.054	0.048
-189.173	-117.911	0.064	0.011
-188.158	-200.000	-0.021	-0.344
-187.144	-122.463	-0.143	-0.023
-186.129	71.487	-0.180	0.184
-185.114	104.867	0.284	-0.330
-184.100	-145.445	-0.315	0.028
-183.085	175.914	0.099	0.142
-182.071	-84.218	-0.095	0.030
-181.056	516.817	0.228	0.525
-180.042	-75.375	-0.052	-0.018
-179.027	800.000	-0.071	0.266
-178.012	-61.777	0.263	0.109
-176.998	800.000	0.072	-0.234
-175.983	800.000	0.035	-0.135
-174.969	800.000	0.060	0.234
-173.954	-148.463	0.339	0.027
-172.939	226.224	0.217	0.346
-171.925	94.699	-0.037	-0.041
-170.910	-115.559	0.091	-0.017
-169.896	-25.465	-0.143	-0.083
-168.881	178.002	0.120	-0.172
-167.866	154.611	0.209	0.283
-166.852	248.599	-0.187	0.311
-165.837	126.780	-0.212	-0.265
-164.823	91.800	-0.027	0.030
-163.808	31.333	-0.096	-0.081
-162.793	-1.323	-0.118	-0.082
-161.779	239.525	0.157	0.257
-160.764	800.000	-0.030	0.093
-159.750	800.000	0.016	0.066
-158.735	108.583	-0.198	-0.233
-157.720	-78.616	-0.133	-0.045
-156.706	-187.865	0.403	0.005
-155.691	1.702	0.109	0.077
-154.677	-97.070	0.234	-0.060
-153.662	82.621	-0.117	0.125
-152.647	190.917	0.398	0.590
-151.633	-44.386	-0.338	0.166
-150.618	248.626	-0.102	0.170
-149.604	-54.656	0.128	-0.057
-148.589	217.454	0.085	-0.133
-147.574	156.455	-0.066	0.089
-146.560	-69.208	-0.055	-0.021
-145.545	152.672	0.197	0.265
-144.531	-200.000	0.020	0.388
-143.516	800.000	-0.022	-0.087
-142.502	-76.378	0.274	0.095
-141.487	-134.333	0.279	-0.034
-140.472	800.000	-0.019	0.071
-139.458	-76.354	-0.087	-0.030
-138.443	526.277	0.009	-0.020
-137.429	-28.339	0.066	0.037
-136.414	9.830	0.200	0.150
-135.399	-200.000	0.010	0.174
-134.385	77.516	-0.232	0.243
-133.370	1.608	-0.139	0.098
-132.356	800.000	0.064	-0.239
-131.341	451.485	0.047	0.101
-130.326	73.881	-0.117	0.121
-129.312	180.026	0.075	0.108
-128.297	-200.000	-0.009	0.210
-127.283	398.499	-0.049	-0.100
-126.268	90.298	0.059	-0.065
-125.253	-200.000	-0.004	0.264
-124.239	98.831	-0.084	-0.095
-123.224	59.245	0.235	-0.228
-122.210	-197.513	-0.125	-0.001
-121.195	-106.371	0.398	0.087
