DTS Sentinel unit serial number:	SN413079Multiplexer serial number:	ORYXHardware model number:	OX4-SRSoftware version number:	ORYX F/W v4.00 Oryx Data Collector v3.7.2.0data status	okinstallation	princeton_trtdifferential loss correction	single-endedforward channel	channel 3reverse channel	N/Adate	2019/09/11time	09:58:11forward acquisition time	60.00reverse acquisition time	0.00gamma	496.2192k internal	0.2301k external	0.2301temperature offset calibration	0.9939default loss term (dB/km)	0.3790temperature slope calibration	1.0000multiplexer offset coefficient	1.0000multiplexer slope coefficient	1.0000fibre end	0.00T internal ref (°C)	35.31T ext. ref 1 (°C)	0.14T ext. ref 2 (°C)	32.62length (m)	temperature (°C)	Stokes	anti-Stokes-747.200	-13.857	0.281	-0.185
-746.185	518.550	-0.221	0.528
-745.171	163.956	-0.096	0.138
-744.156	-121.732	-0.229	0.039
-743.142	-121.429	0.296	-0.050
-742.127	-35.300	0.445	0.247
-741.112	-200.000	-0.151	0.001
-740.098	95.647	0.172	-0.201
-739.083	-149.833	-0.289	-0.023
-738.069	-200.000	-0.028	0.233
-737.054	311.092	-0.132	0.253
-736.039	-29.064	-0.358	0.209
-735.025	-54.451	0.342	0.158
-734.010	800.000	0.034	-0.112
-732.996	-44.687	-0.263	-0.134
-731.981	-21.738	-0.118	0.073
-730.966	15.951	0.083	0.066
-729.952	-64.261	-0.264	-0.109
-728.937	151.648	-0.132	-0.183
-727.923	-62.137	-0.356	0.151
-726.908	-2.769	0.148	0.105
-725.894	46.413	0.100	-0.095
-724.879	55.689	-0.121	-0.119
-723.864	-200.000	0.014	-0.446
-722.850	-99.688	-0.333	-0.085
-721.835	-200.000	-0.032	0.172
-720.821	-76.025	0.193	-0.070
-719.806	-101.870	-0.266	-0.065
-718.791	800.000	-0.043	-0.128
-717.777	-200.000	-0.030	0.285
-716.762	31.095	0.077	-0.067
-715.748	-200.000	0.021	0.118
-714.733	-151.135	0.112	-0.009
-713.718	800.000	0.030	-0.126
-712.704	135.274	-0.128	0.169
-711.689	-15.924	-0.140	-0.091
-710.675	164.376	0.063	-0.091
-709.660	-84.626	-0.039	0.012
-708.645	800.000	0.059	0.218
-707.631	417.208	-0.147	-0.320
-706.616	-35.388	0.201	0.111
-705.602	-90.996	0.093	-0.027
-704.587	-200.000	0.053	-0.263
-703.572	8.192	-0.068	0.052
-702.558	-110.492	-0.281	0.059
-701.543	800.000	0.033	-0.140
-700.529	610.006	-0.134	-0.341
-699.514	544.360	0.037	-0.089
-698.499	479.649	-0.091	-0.209
-697.485	249.832	0.109	-0.188
-696.470	690.693	-0.021	0.055
-695.456	-184.757	0.178	-0.003
-694.441	769.144	0.149	0.413
-693.426	800.000	-0.020	-0.058
-692.412	494.641	0.078	0.182
-691.397	-157.053	0.214	-0.013
-690.383	341.623	-0.181	-0.360
-689.368	-42.370	-0.113	-0.059
-688.354	800.000	-0.090	-0.359
-687.339	324.623	0.051	0.099
-686.324	800.000	0.104	0.374
-685.310	-200.000	0.013	-0.104
-684.295	685.114	-0.047	0.125
-683.281	361.708	-0.114	-0.233
-682.266	126.883	0.100	-0.128
-681.251	158.377	0.222	0.313
-680.237	239.266	0.113	0.191
-679.222	-31.000	-0.111	-0.064
-678.208	-18.673	-0.038	-0.024
-677.193	-144.730	0.367	-0.034
-676.178	-200.000	0.008	0.116
-675.164	25.602	0.132	-0.111
-674.149	-96.384	-0.031	-0.008
-673.135	-1.081	0.115	0.083
-672.120	-109.419	-0.131	-0.028
-671.105	172.341	-0.116	-0.170
-670.091	800.000	-0.047	-0.134
-669.076	-200.000	0.017	-0.273
-668.062	33.430	-0.208	-0.184
-667.047	236.945	0.202	-0.340
-666.032	430.417	-0.114	-0.250
-665.018	-95.333	-0.123	0.034
-664.003	475.596	0.130	-0.299
-662.989	-161.914	0.394	-0.020
-661.974	47.280	-0.256	-0.242
-660.959	-24.368	-0.193	0.117
-659.945	-86.455	0.209	0.065
-658.930	-21.772	0.158	-0.098
-657.916	76.483	-0.166	0.178
-656.901	-130.760	-0.527	0.072
-655.886	248.560	0.211	-0.363
-654.872	23.201	0.339	-0.283
-653.857	13.885	0.283	0.224
-652.843	44.668	0.095	-0.089
-651.828	-88.234	-0.153	0.047
-650.814	800.000	0.028	-0.085
-649.799	-21.989	-0.100	-0.062
-648.784	-200.000	-0.030	-0.208
-647.770	-41.201	-0.214	0.112
-646.755	-200.000	0.071	-0.333
-645.741	-141.001	0.143	0.015
-644.726	274.843	-0.023	-0.041
-643.711	-71.215	0.124	-0.047
-642.697	262.585	0.046	0.082
-641.682	-111.161	0.099	0.021
-640.668	-200.000	-0.003	-0.251
-639.653	-200.000	-0.008	0.124
-638.638	-73.276	0.179	0.067
-637.624	55.825	-0.190	0.187
-636.609	800.000	0.048	0.153
-635.595	-121.455	-0.159	0.027
-634.580	-99.043	0.310	0.080
-633.565	-200.000	-0.027	-0.165
-632.551	-37.812	-0.189	0.102
-631.536	6.227	0.038	0.029
-630.522	674.272	0.082	-0.215
-629.507	89.055	0.167	-0.188
-628.492	-153.379	0.064	-0.005
-627.478	174.895	0.284	-0.417
-626.463	-101.153	0.441	-0.110
-625.449	28.499	-0.339	-0.291
-624.434	333.951	-0.067	0.132
-623.419	34.365	0.180	-0.159
-622.405	-65.893	0.017	0.007
-621.390	-88.159	-0.206	-0.063
-620.376	5.902	0.147	0.111
-619.361	93.673	0.184	0.212
-618.346	800.000	-0.038	0.115
-617.332	800.000	-0.121	0.370
-616.317	128.788	-0.241	0.312
-615.303	58.540	0.185	0.184
-614.288	59.645	-0.102	0.102
-613.273	-34.241	-0.279	-0.156
-612.259	-200.000	-0.012	-0.295
-611.244	-73.427	-0.212	-0.078
-610.230	-9.107	-0.364	0.247
-609.215	87.103	-0.131	-0.146
-608.201	68.660	-0.196	-0.204
-607.186	-200.000	-0.051	0.271
-606.171	-140.746	0.363	-0.038
-605.157	-85.211	-0.092	0.029
-604.142	-1.888	0.350	-0.249
-603.128	-141.921	-0.238	0.024
-602.113	800.000	-0.039	-0.165
-601.098	-200.000	0.014	0.224
-600.084	-44.132	0.193	0.098
-599.069	-125.910	-0.273	-0.042
-598.055	-140.558	0.548	-0.058
-597.040	-165.804	0.110	0.005
-596.025	560.352	0.074	0.180
-595.011	136.708	-0.139	-0.184
-593.996	4.599	-0.289	-0.215
-592.982	-200.000	0.046	-0.285
-591.967	-84.129	-0.087	0.028
-590.952	-200.000	0.007	-0.252
-589.938	-93.703	-0.199	0.056
-588.923	800.000	0.048	0.156
-587.909	413.139	0.069	-0.148
-586.894	-4.852	-0.211	-0.148
-585.879	800.000	-0.043	-0.131
-584.865	-200.000	0.024	-0.225
-583.850	-83.951	0.050	-0.016
-582.836	-169.315	-0.387	0.014
-581.821	194.483	0.165	-0.254
-580.806	1.603	-0.075	0.055
-579.792	80.361	0.191	0.208
-578.777	-53.762	-0.232	-0.107
-577.763	124.311	-0.084	-0.107
-576.748	-111.884	0.283	0.058
-575.733	-28.661	-0.153	-0.089
-574.719	10.313	0.127	-0.098
-573.704	56.919	-0.184	-0.182
-572.690	-200.000	0.018	0.217
-571.675	800.000	0.091	-0.279
-570.661	159.741	0.154	-0.217
-569.646	-133.162	0.146	0.019
-568.631	226.625	-0.063	-0.104
-567.617	72.166	-0.190	-0.200
-566.602	125.858	0.085	-0.109
-565.588	800.000	0.140	0.463
-564.573	-106.206	0.167	0.038
-563.558	79.349	-0.140	-0.152
-562.544	-200.000	0.031	-0.257
-561.529	-200.000	0.003	0.040
-560.515	800.000	-0.092	-0.282
-559.500	-91.454	0.073	-0.021
-558.485	296.717	-0.019	0.035
-557.471	667.552	-0.035	0.091
-556.456	310.871	0.208	0.395
-555.442	124.951	-0.263	0.335
-554.427	-46.936	0.162	-0.080
-553.412	256.912	0.022	0.039
-552.398	-200.000	-0.346	-0.002
-551.383	68.777	-0.182	0.189
-550.369	431.631	0.056	0.123
-549.354	170.705	-0.082	-0.119
-548.339	-200.000	0.007	-0.137
-547.325	231.864	-0.060	0.100
-546.310	-143.684	0.056	0.005
-545.296	-200.000	-0.045	0.220
-544.281	322.389	-0.243	0.467
-543.266	-37.406	-0.201	0.109
-542.252	82.830	0.236	0.260
-541.237	-146.157	-0.222	-0.020
-540.223	34.434	0.308	0.272
-539.208	3.255	0.094	-0.069
-538.193	-200.000	-0.056	-0.277
-537.179	-200.000	-0.064	-0.435
-536.164	73.476	0.008	-0.008
-535.150	-51.608	0.398	-0.188
-534.135	-25.011	-0.086	0.052
-533.121	-200.000	0.030	0.159
-532.106	-100.938	0.411	-0.102
-531.091	-200.000	-0.071	-0.340
-530.077	-137.245	0.040	0.005
-529.062	171.632	-0.082	0.118
-528.048	-149.562	0.154	0.012
-527.033	-63.705	0.110	0.046
-526.018	-107.026	-0.187	-0.042
-525.004	-34.051	-0.091	0.051
-523.989	-107.916	-0.128	-0.028
-522.975	-111.512	0.127	-0.026
-521.960	23.911	-0.064	0.053
-520.945	-46.586	-0.134	0.067
-519.931	-152.329	-0.164	-0.012
-518.916	51.237	0.172	-0.165
-517.902	23.545	-0.232	-0.193
-516.887	-2.022	0.190	-0.135
-515.872	-100.520	-0.107	-0.027
-514.858	207.094	0.253	0.399
-513.843	21.627	0.024	-0.020
-512.829	354.137	0.100	-0.201
-511.814	800.000	0.032	-0.108
-510.799	-16.357	0.354	-0.227
-509.785	-157.595	0.095	-0.006
-508.770	-46.460	0.068	-0.034
-507.756	-122.792	-0.198	-0.032
-506.741	-62.288	0.231	-0.097
-505.726	53.067	0.131	0.127
-504.712	-200.000	-0.006	-0.126
-503.697	124.656	-0.255	-0.324
-502.683	388.646	-0.218	-0.457
-501.668	30.504	-0.104	-0.090
-500.653	-200.000	-0.010	0.270
-499.639	-112.926	-0.167	-0.033
-498.624	5.487	-0.198	0.148
-497.610	800.000	0.033	-0.125
-496.595	-107.247	0.152	-0.034
-495.581	372.772	0.157	0.322
-494.566	169.667	0.043	-0.063
-493.551	162.263	-0.039	0.055
-492.537	-57.626	-0.075	0.033
-491.522	14.792	0.202	0.160
-490.508	-90.343	-0.265	-0.078
-489.493	-130.034	0.096	0.013
-488.478	204.081	-0.215	-0.336
-487.464	-0.422	0.088	-0.063
-486.449	-156.725	-0.103	0.006
-485.435	2.110	0.171	0.125
-484.420	-40.356	0.410	-0.215
-483.405	-12.669	0.129	0.085
-482.391	-179.091	-0.082	0.002
-481.376	-34.259	-0.395	0.219
-480.362	-200.000	0.009	0.214
-479.347	-200.000	0.045	0.277
-478.332	-23.693	-0.128	-0.077
-477.318	118.866	0.115	0.143
-476.303	-28.219	-0.205	0.119
-475.289	-200.000	-0.022	-0.267
-474.274	-49.822	-0.025	-0.012
-473.259	-91.378	0.123	-0.036
-472.245	84.267	0.180	-0.199
-471.230	-34.285	0.092	0.051
-470.216	-73.795	-0.217	0.079
-469.201	-200.000	-0.031	-0.167
-468.186	27.858	-0.230	-0.195
-467.172	-61.397	-0.237	-0.100
-466.157	-84.410	-0.218	-0.070
-465.143	800.000	-0.057	0.197
-464.128	68.459	-0.227	-0.234
-463.113	613.168	0.016	-0.040
-462.099	-48.455	0.011	0.005
-461.084	-64.653	-0.266	0.109
-460.070	-200.000	-0.031	-0.139
-459.055	69.315	0.259	-0.269
-458.040	584.987	0.138	0.342
-457.026	800.000	0.037	-0.155
-456.011	-42.432	0.285	-0.146
-454.997	-200.000	-0.021	0.093
-453.982	4.274	0.118	0.087
-452.968	18.971	-0.164	-0.133
-451.953	-200.000	0.003	-0.229
-450.938	-79.937	0.038	0.013
-449.924	-116.011	-0.141	-0.026
-448.909	-200.000	0.006	0.306
-447.895	-35.025	0.255	-0.140
-446.880	714.689	-0.113	-0.301
-445.865	-87.775	-0.175	0.053
-444.851	-54.046	-0.248	0.114
-443.836	-136.360	-0.219	0.026
-442.822	47.334	0.099	-0.093
-441.807	167.781	-0.282	-0.403
-440.792	3.124	0.129	0.095
-439.778	-132.464	-0.057	-0.007
-438.763	-128.715	0.150	0.021
-437.749	116.303	0.023	-0.028
-436.734	-99.729	0.129	-0.032
-435.719	59.664	0.176	0.175
-434.705	246.677	0.141	0.240
-433.690	-10.787	0.144	0.096
-432.676	-200.000	0.042	0.248
-431.661	-200.000	0.001	-0.090
-430.646	235.471	-0.213	-0.354
-429.632	169.149	-0.096	0.137
-428.617	-34.379	0.179	-0.099
-427.603	382.662	0.185	-0.383
-426.588	800.000	0.033	-0.129
-425.573	-200.000	0.027	0.385
-424.559	-200.000	-0.048	0.329
-423.544	-121.154	-0.231	0.039
-422.530	800.000	0.010	0.030
-421.515	-100.353	0.134	0.033
-420.500	-122.716	-0.197	0.032
-419.486	800.000	0.057	-0.240
-418.471	-200.000	-0.046	0.435
-417.457	170.134	-0.055	-0.080
-416.442	30.568	0.097	0.084
-415.428	5.229	0.143	-0.106
-414.413	800.000	-0.076	0.307
-413.398	800.000	-0.011	-0.037
-412.384	45.167	0.134	0.124
-411.369	800.000	-0.038	-0.141
-410.355	-200.000	-0.058	-0.261
-409.340	-47.259	-0.269	-0.132
-408.325	-125.144	0.209	-0.032
-407.311	-84.968	-0.232	-0.073
-406.296	70.825	-0.197	-0.205
-405.282	333.996	0.029	-0.056
-404.267	-121.096	-0.066	-0.011
-403.252	1.531	0.129	0.093
-402.238	6.262	-0.200	-0.149
-401.223	-200.000	0.000	0.089
-400.209	92.286	0.227	0.257
-399.194	-36.216	-0.166	0.090
-398.179	94.504	0.225	0.257
-397.165	94.259	0.047	0.053
-396.150	-94.237	-0.169	-0.047
-395.136	-200.000	-0.026	-0.146
-394.121	780.602	-0.038	-0.105
-393.106	-200.000	-0.160	0.001
-392.092	-39.751	-0.428	-0.225
-391.077	-114.287	-0.209	-0.040
-390.063	58.372	0.053	-0.052
-389.048	-13.303	-0.352	-0.230
-388.033	-200.000	-0.048	0.339
-387.019	-171.912	0.151	0.005
-386.004	-9.824	0.226	0.151
-384.990	29.197	-0.388	0.331
-383.975	-52.321	0.341	-0.159
-382.960	256.821	0.059	0.102
-381.946	-55.466	-0.200	-0.090
-380.931	2.271	-0.032	-0.023
-379.917	-55.188	-0.182	0.082
-378.902	394.668	0.106	0.222
-377.888	-40.481	-0.028	-0.014
-376.873	-63.741	-0.221	-0.091
-375.858	487.916	-0.118	-0.271
-374.844	-200.000	-0.054	-0.278
-373.829	287.753	-0.079	-0.143
-372.815	191.690	-0.116	0.176
-371.800	242.146	0.125	0.211
-370.785	-200.000	-0.013	0.150
-369.771	18.001	0.108	0.087
-368.756	183.168	0.077	0.115
-367.742	-200.000	-0.036	0.301
-366.727	557.183	-0.052	0.126
-365.712	199.960	0.031	-0.048
-364.698	-46.746	0.179	0.088
-363.683	-200.000	-0.003	0.183
-362.669	-70.260	0.281	0.107
-361.654	-200.000	-0.014	0.295
-360.639	292.808	-0.124	-0.228
-359.625	-83.811	-0.402	0.129
-358.610	250.171	0.067	-0.115
-357.596	-200.000	0.008	-0.133
-356.581	-200.000	0.002	-0.170
-355.566	-200.000	-0.049	0.251
-354.552	800.000	0.103	0.307
-353.537	-89.916	0.239	-0.070
-352.523	800.000	0.069	-0.200
-351.508	723.365	-0.095	0.253
-350.493	-113.390	0.144	0.028
-349.479	-32.062	-0.103	0.058
-348.464	139.163	-0.116	0.153
-347.450	-93.174	-0.087	0.024
-346.435	800.000	-0.090	0.338
-345.420	326.874	-0.030	0.057
-344.406	291.460	0.028	-0.050
-343.391	-32.222	-0.220	0.123
-342.377	623.004	0.049	0.123
-341.362	159.028	-0.189	0.264
-340.348	180.004	-0.062	0.091
-339.333	-89.708	0.389	-0.114
-338.318	800.000	-0.012	-0.042
-337.304	69.592	0.246	0.254
-336.289	-37.216	0.253	0.136
-335.275	-6.354	-0.216	-0.148
-334.260	-63.751	-0.166	-0.068
-333.245	-37.736	0.418	-0.223
-332.231	-98.451	-0.164	0.042
-331.216	149.981	-0.104	-0.141
-330.202	-101.383	-0.284	-0.069
-329.187	-137.478	0.234	-0.027
-328.172	15.602	-0.171	-0.135
-327.158	138.769	-0.038	-0.049
-326.143	179.674	0.172	0.252
-325.129	129.927	0.109	-0.139
-324.114	800.000	0.091	-0.295
-323.099	-140.174	-0.060	0.006
-322.085	-160.752	0.247	0.013
-321.070	-110.955	-0.193	0.040
-320.056	-100.882	-0.104	-0.026
-319.041	-107.947	0.112	0.024
-318.026	436.037	0.077	0.168
-317.012	-52.436	-0.399	-0.185
-315.997	264.348	0.154	0.269
-314.983	-69.320	-0.015	0.006
-313.968	800.000	0.025	0.107
-312.953	-200.000	0.009	-0.208
-311.939	698.827	-0.051	-0.135
-310.924	800.000	0.188	0.547
-309.910	-152.221	-0.132	-0.010
-308.895	-143.547	0.379	0.036
-307.880	100.219	0.233	0.271
-306.866	122.519	-0.069	-0.086
-305.851	-24.919	-0.059	-0.035
-304.837	-200.000	0.080	0.401
-303.822	-200.000	-0.027	-0.144
-302.807	-97.076	0.077	-0.020
-301.793	-25.126	0.198	0.117
-300.778	-200.000	-0.037	0.193
-299.764	-140.609	-0.223	0.023
-298.749	800.000	-0.036	0.139
-297.735	-200.000	0.098	0.472
-296.720	-113.763	-0.417	-0.081
-295.705	-200.000	0.017	0.085
-294.691	326.444	-0.092	0.176
-293.676	-115.265	0.166	-0.031
-292.662	-163.128	0.191	0.009
-291.647	292.643	-0.088	-0.161
-290.632	513.853	-0.037	-0.086
-289.618	422.426	0.093	-0.199
-288.603	-65.532	0.288	0.116
-287.589	-126.312	-0.093	0.014
-286.574	800.000	-0.054	0.197
-285.559	-200.000	0.023	0.170
-284.545	266.351	0.084	-0.146
-283.530	73.536	-0.169	0.178
-282.516	-19.620	0.250	-0.155
-281.501	-69.463	0.043	0.017
-280.486	-96.409	-0.163	-0.043
-279.472	39.763	0.299	-0.269
-278.457	-14.484	0.252	-0.162
-277.443	28.162	-0.028	0.024
-276.428	-200.000	0.082	-0.503
-275.413	-200.000	-0.046	-0.337
-274.399	199.966	-0.050	-0.077
-273.384	270.600	0.127	-0.224
-272.370	-123.867	0.392	-0.062
-271.355	107.305	-0.057	0.067
-270.340	-200.000	0.017	-0.111
-269.326	-120.071	-0.225	0.039
-268.311	673.351	0.107	-0.278
-267.297	694.528	-0.017	0.044
-266.282	-200.000	-0.001	-0.152
-265.267	-39.434	-0.329	0.172
-264.253	-168.816	0.231	-0.009
-263.238	124.074	0.102	0.128
-262.224	21.626	0.240	-0.196
-261.209	177.083	0.067	-0.097
-260.195	-71.260	-0.144	-0.054
-259.180	-125.032	-0.453	-0.070
-258.165	-200.000	0.010	-0.049
-257.151	-100.138	0.239	-0.059
-256.136	-140.582	0.094	-0.010
-255.122	-59.472	0.097	-0.042
-254.107	-200.000	-0.025	0.162
-253.092	-200.000	0.030	-0.144
-252.078	-109.464	0.035	0.007
-251.063	-42.759	-0.262	0.133
-250.049	-200.000	0.019	-0.248
-249.034	-89.015	-0.134	-0.040
-248.019	67.469	0.090	0.092
-247.005	-131.146	0.543	-0.072
-245.990	320.900	-0.068	-0.129
-244.976	800.000	-0.034	-0.111
-243.961	99.676	0.096	-0.111
-242.946	-7.934	0.286	-0.193
-241.932	77.630	0.081	-0.086
-240.917	-200.000	0.007	0.421
-239.903	120.413	0.095	-0.118
-238.888	79.027	0.124	-0.132
-237.873	3.643	-0.085	0.062
-236.859	-200.000	-0.016	0.099
-235.844	-25.196	-0.208	0.123
-234.830	-200.000	0.016	0.198
-233.815	800.000	-0.142	-0.450
-232.800	222.536	0.084	0.136
-231.786	308.104	0.019	-0.036
-230.771	-18.504	0.163	0.102
-229.757	-36.365	-0.103	0.055
-228.742	800.000	0.023	-0.080
-227.727	46.046	-0.202	-0.187
-226.713	226.267	-0.143	0.232
-225.698	159.178	0.026	0.036
-224.684	-108.866	-0.202	0.043
-223.669	-200.000	-0.033	0.236
-222.655	800.000	-0.060	0.230
-221.640	-200.000	0.027	0.223
-220.625	-200.000	-0.056	0.357
-219.611	211.281	0.195	-0.307
-218.596	-200.000	0.047	0.331
-217.582	-17.359	0.200	0.125
-216.567	107.973	-0.063	0.076
-215.552	-34.057	0.357	0.196
-214.538	240.190	0.108	0.179
-213.523	123.743	-0.110	-0.138
-212.509	-196.010	0.094	0.001
-211.494	209.707	0.164	-0.256
-210.479	800.000	-0.004	0.016
-209.465	-200.000	-0.004	-0.088
-208.450	60.176	0.110	0.108
-207.436	37.937	-0.221	0.197
-206.421	800.000	-0.060	-0.257
-205.406	-24.998	-0.102	-0.061
-204.392	-96.206	-0.120	0.032
-203.377	179.938	0.049	0.072
-202.363	-200.000	-0.021	-0.370
-201.348	-83.383	-0.497	-0.159
-200.333	8.381	-0.337	0.253
-199.319	269.022	0.051	0.090
-198.304	239.027	0.099	0.164
-197.290	800.000	0.047	0.153
-196.275	-9.276	0.149	0.100
-195.260	800.000	0.073	0.226
-194.246	-26.641	0.259	0.151
-193.231	-200.000	0.001	0.166
-192.217	27.867	-0.093	-0.078
-191.202	-104.807	-0.246	-0.056
-190.187	-118.910	-0.136	0.024
-189.173	-93.307	-0.148	0.041
-188.158	123.924	-0.126	-0.158
-187.144	221.199	0.047	0.075
-186.129	324.037	0.010	-0.019
-185.114	-129.188	0.488	0.068
-184.100	426.054	-0.125	0.268
-183.085	-71.728	0.230	0.086
-182.071	-118.342	0.058	0.010
-181.056	116.602	0.061	0.075
-180.042	-200.000	-0.059	0.000
-179.027	575.129	-0.142	-0.346
-178.012	26.073	0.500	0.416
-176.998	242.235	-0.105	0.175
-175.983	-129.601	-0.377	0.052
-174.969	3.975	0.148	0.108
-173.954	-83.660	-0.139	0.044
-172.939	800.000	0.089	-0.248
-171.925	-78.371	-0.227	0.078
-170.910	226.017	0.141	0.228
-169.896	71.938	-0.082	-0.085
-168.881	153.135	-0.161	0.219
-167.866	-3.164	-0.101	0.071
-166.852	31.929	-0.076	-0.065
-165.837	-45.399	-0.054	0.027
-164.823	34.809	0.213	-0.185
-163.808	-107.735	0.175	-0.038
-162.793	800.000	0.055	-0.169
-161.779	-150.196	0.357	-0.028
-160.764	-182.166	0.204	-0.004
-159.750	-200.000	0.029	-0.307
-158.735	232.726	0.067	-0.109
-157.720	211.500	-0.080	0.126
-156.706	-38.178	-0.218	-0.115
-155.691	-76.065	0.391	-0.138
-154.677	-107.145	-0.168	-0.037
-153.662	-61.242	0.170	0.071
-152.647	-127.392	-0.248	0.036
-151.633	800.000	-0.025	-0.077
-150.618	-114.655	0.309	0.059
-149.604	800.000	-0.044	0.149
-148.589	-200.000	0.016	0.323
-147.574	800.000	-0.077	0.217
-146.560	-200.000	0.012	-0.100
-145.545	-200.000	0.003	-0.353
-144.531	800.000	0.054	0.170
-143.516	420.514	0.069	0.148
-142.502	-155.359	-0.110	-0.007
-141.487	-200.000	-0.005	0.221
-140.472	-17.761	-0.147	-0.092
-139.458	-200.000	-0.023	0.166
-138.443	-5.462	-0.275	0.188
-137.429	-126.159	0.344	0.051
-136.414	-200.000	-0.008	-0.062
-135.399	-35.471	0.095	-0.051
-134.385	273.587	-0.022	-0.038
-133.370	-74.132	0.096	0.034
-132.356	579.772	0.109	-0.266
-131.341	-107.925	-0.179	0.039
-130.326	-62.927	0.166	0.068
-129.312	-133.632	0.144	0.018
-128.297	-131.147	-0.272	-0.036
-127.283	800.000	-0.074	-0.304
-126.268	800.000	0.041	-0.155
-125.253	16.294	-0.212	-0.167
-124.239	167.428	-0.161	0.228
-123.224	-200.000	-0.067	-0.469
-122.210	-139.540	0.244	0.026
-121.195	157.401	0.180	-0.248
