DTS Sentinel unit serial number:	SN413079Multiplexer serial number:	ORYXHardware model number:	OX4-SRSoftware version number:	ORYX F/W v4.00 Oryx Data Collector v3.7.2.0data status	okinstallation	princeton_trtdifferential loss correction	single-endedforward channel	channel 3reverse channel	N/Adate	2019/09/11time	06:10:11forward acquisition time	60.00reverse acquisition time	0.00gamma	496.2192k internal	0.2330k external	0.2330temperature offset calibration	0.9905default loss term (dB/km)	0.3790temperature slope calibration	1.0000multiplexer offset coefficient	1.0000multiplexer slope coefficient	1.0000fibre end	0.00T internal ref (°C)	29.50T ext. ref 1 (°C)	-0.20T ext. ref 2 (°C)	23.83length (m)	temperature (°C)	Stokes	anti-Stokes-747.200	119.200	0.141	0.176
-746.185	61.969	-0.100	0.100
-745.171	-70.720	-0.174	-0.066
-744.156	-122.357	0.089	0.015
-743.142	-200.000	0.022	0.291
-742.127	-91.095	-0.328	0.095
-741.112	57.948	-0.211	0.208
-740.098	-200.000	0.047	0.291
-739.083	-145.545	0.538	-0.049
-738.069	-200.000	0.007	0.058
-737.054	-78.446	-0.270	0.093
-736.039	93.351	-0.075	-0.085
-735.025	-200.000	0.088	0.463
-734.010	41.711	-0.297	-0.271
-732.996	735.200	-0.065	-0.175
-731.981	800.000	0.030	0.119
-730.966	149.646	0.113	0.154
-729.952	-83.010	-0.312	-0.101
-728.937	-200.000	-0.010	0.147
-727.923	-200.000	-0.060	-0.301
-726.908	-6.425	-0.319	0.219
-725.894	127.651	-0.245	-0.314
-724.879	-29.003	0.142	0.082
-723.864	-116.531	-0.096	0.018
-722.850	157.595	0.110	0.153
-721.835	-23.404	0.071	-0.043
-720.821	-148.850	-0.403	0.033
-719.806	800.000	0.052	0.169
-718.791	-200.000	-0.029	0.169
-717.777	-124.301	-0.216	-0.034
-716.762	-200.000	-0.044	-0.258
-715.748	100.683	0.192	0.224
-714.733	57.589	-0.182	-0.179
-713.718	32.257	0.045	-0.039
-712.704	769.216	-0.177	-0.483
-711.689	-200.000	0.002	0.055
-710.675	298.034	0.115	0.212
-709.660	-61.701	-0.325	0.137
-708.645	-116.074	-0.363	0.068
-707.631	-16.271	0.195	0.124
-706.616	-200.000	0.007	0.132
-705.602	-26.356	0.284	0.168
-704.587	-116.479	-0.123	0.023
-703.572	800.000	-0.031	0.093
-702.558	-200.000	0.025	-0.299
-701.543	20.007	-0.314	-0.255
-700.529	165.228	-0.117	-0.166
-699.514	-200.000	0.004	0.037
-698.499	131.945	0.191	0.247
-697.485	-126.642	-0.249	0.037
-696.470	-164.056	-0.100	-0.005
-695.456	36.904	-0.146	-0.129
-694.441	775.525	0.113	0.309
-693.426	-200.000	-0.006	-0.084
-692.412	102.941	0.128	-0.151
-691.397	209.478	0.076	-0.120
-690.383	-94.917	0.308	0.084
-689.368	-88.080	0.310	-0.094
-688.354	-96.757	0.147	0.039
-687.339	-200.000	0.014	-0.100
-686.324	-140.897	0.305	-0.032
-685.310	177.060	-0.114	-0.167
-684.295	-167.903	-0.123	0.005
-683.281	289.986	-0.110	-0.201
-682.266	-8.641	-0.153	0.103
-681.251	137.733	0.103	-0.136
-680.237	-200.000	0.010	0.184
-679.222	-188.541	-0.290	0.004
-678.208	17.833	-0.174	-0.139
-677.193	-200.000	-0.003	-0.061
-676.178	-50.774	0.111	0.052
-675.164	225.169	0.016	0.027
-674.149	-200.000	0.042	0.410
-673.135	-200.000	-0.035	0.164
-672.120	800.000	-0.106	-0.299
-671.105	800.000	0.079	-0.242
-670.091	-200.000	0.020	0.163
-669.076	-200.000	-0.097	-0.579
-668.062	-200.000	0.022	-0.146
-667.047	417.902	-0.090	-0.193
-666.032	-200.000	0.009	0.086
-665.018	-200.000	-0.022	0.235
-664.003	-77.589	0.208	0.072
-662.989	-200.000	-0.023	0.171
-661.974	-20.991	-0.038	-0.023
-660.959	232.698	-0.213	0.352
-659.945	-164.913	-0.184	0.008
-658.930	398.016	0.030	-0.062
-657.916	415.276	-0.121	-0.259
-656.901	-34.147	-0.372	-0.205
-655.886	-160.123	0.323	0.018
-654.872	-43.078	-0.271	-0.138
-653.857	-200.000	-0.021	-0.290
-652.843	281.055	0.139	0.250
-651.828	-157.265	0.077	0.005
-650.814	-37.287	-0.288	-0.155
-649.799	-200.000	-0.007	-0.119
-648.784	173.779	-0.187	0.271
-647.770	-200.000	-0.032	0.390
-646.755	-39.881	-0.034	0.018
-645.741	-31.522	0.053	0.030
-644.726	82.799	-0.106	0.116
-643.711	-162.365	-0.187	0.009
-642.697	-200.000	-0.005	0.305
-641.682	-43.761	0.158	0.080
-640.668	-200.000	0.005	0.077
-639.653	166.475	-0.070	0.100
-638.638	263.230	-0.106	0.185
-637.624	82.925	0.143	-0.156
-636.609	76.143	0.060	-0.064
-635.595	477.507	-0.137	0.312
-634.580	98.284	0.116	0.133
-633.565	181.875	-0.200	0.295
-632.551	-101.817	-0.238	0.058
-631.536	-112.697	-0.075	-0.015
-630.522	3.705	-0.332	0.243
-629.507	122.787	0.035	0.043
-628.492	755.002	-0.094	-0.256
-627.478	-20.304	0.059	0.036
-626.463	32.466	-0.129	0.112
-625.449	-79.890	0.359	-0.121
-624.434	-110.519	0.136	-0.028
-623.419	521.416	0.067	0.157
-622.405	-80.587	0.157	0.052
-621.390	419.436	0.021	-0.044
-620.376	-11.489	-0.179	0.118
-619.361	81.990	0.090	-0.098
-618.346	252.365	0.166	0.283
-617.332	194.290	-0.071	-0.107
-616.317	51.275	0.182	-0.173
-615.303	113.019	0.089	0.109
-614.288	280.183	-0.203	-0.364
-613.273	-159.706	-0.264	-0.015
-612.259	498.404	0.200	0.462
-611.244	121.474	0.129	0.161
-610.230	15.404	0.273	-0.215
-609.215	61.486	-0.151	-0.150
-608.201	-74.561	-0.161	-0.058
-607.186	88.917	-0.231	-0.258
-606.171	-2.456	0.204	0.143
-605.157	-67.996	-0.238	0.093
-604.142	-30.516	0.257	-0.146
-603.128	-200.000	0.088	-0.407
-602.113	-200.000	-0.031	0.246
-601.098	23.586	0.060	-0.049
-600.084	-79.376	0.009	-0.003
-599.069	63.026	-0.245	-0.246
-598.055	526.337	-0.101	-0.237
-597.040	-154.417	0.111	-0.007
-596.025	-131.473	-0.173	-0.023
-595.011	-101.583	0.279	-0.068
-593.996	-183.675	-0.315	0.005
-592.982	800.000	-0.071	-0.212
-591.967	53.190	-0.081	0.078
-590.952	-200.000	-0.004	0.019
-589.938	-180.473	0.260	0.005
-588.923	8.276	0.170	-0.127
-587.909	259.905	-0.090	0.156
-586.894	13.108	0.305	-0.236
-585.879	-87.308	-0.427	-0.130
-584.865	128.638	-0.056	-0.071
-583.850	-200.000	-0.006	-0.475
-582.836	-98.395	0.138	0.035
-581.821	-177.318	0.140	0.003
-580.806	110.512	-0.096	0.116
-579.792	-200.000	-0.000	-0.067
-578.777	-172.078	0.159	0.005
-577.763	-184.258	-0.354	0.006
-576.748	218.674	-0.107	0.171
-575.733	-200.000	-0.006	0.276
-574.719	-98.017	-0.324	0.083
-573.704	-200.000	-0.014	-0.215
-572.690	-155.157	0.267	-0.017
-571.675	800.000	0.121	-0.347
-570.661	-200.000	-0.000	0.122
-569.646	-106.508	-0.209	0.047
-568.631	-200.000	0.014	-0.379
-567.617	800.000	-0.049	-0.206
-566.602	464.284	0.030	-0.067
-565.588	488.365	-0.166	-0.378
-564.573	-28.591	-0.150	0.086
-563.558	-29.645	0.304	-0.173
-562.544	-124.003	0.201	0.032
-561.529	-200.000	-0.013	0.161
-560.515	-79.904	-0.279	0.094
-559.500	147.517	-0.095	-0.129
-558.485	800.000	0.068	-0.263
-557.471	-200.000	-0.012	-0.194
-556.456	736.518	0.059	0.159
-555.442	777.156	-0.092	0.252
-554.427	-129.612	-0.227	0.031
-553.412	3.361	0.321	-0.234
-552.398	236.967	-0.137	-0.227
-551.383	-157.056	0.291	-0.018
-550.369	24.238	0.325	0.268
-549.354	-25.376	-0.106	-0.063
-548.339	-62.695	-0.106	0.044
-547.325	800.000	0.041	-0.116
-546.310	-200.000	-0.057	0.283
-545.296	800.000	-0.075	0.229
-544.281	122.733	0.062	-0.078
-543.266	606.302	-0.142	0.354
-542.252	800.000	-0.029	-0.081
-541.237	-29.105	0.158	-0.091
-540.223	-200.000	0.023	0.285
-539.208	800.000	0.017	0.066
-538.193	-136.034	-0.188	-0.022
-537.179	-65.674	-0.503	-0.201
-536.164	-12.368	-0.199	0.130
-535.150	-200.000	0.008	0.186
-534.135	-111.343	0.354	0.072
-533.121	170.334	-0.069	-0.098
-532.106	-148.207	-0.089	-0.007
-531.091	260.679	0.015	0.026
-530.077	800.000	0.088	0.244
-529.062	32.217	0.136	0.117
-528.048	94.403	-0.142	0.161
-527.033	-200.000	-0.048	0.250
-526.018	-200.000	-0.022	0.186
-525.004	-65.426	-0.117	0.047
-523.989	192.218	-0.252	0.380
-522.975	159.270	-0.102	-0.142
-521.960	7.306	-0.262	-0.196
-520.945	25.115	-0.106	-0.088
-519.931	84.255	0.329	0.359
-518.916	800.000	0.066	0.190
-517.902	-172.529	-0.190	-0.006
-516.887	-1.161	0.292	-0.206
-515.872	-97.424	-0.020	0.005
-514.858	-22.816	-0.266	-0.160
-513.843	-160.754	0.245	-0.013
-512.829	523.733	-0.054	0.126
-511.814	800.000	-0.081	0.285
-510.799	-200.000	-0.011	0.216
-509.785	800.000	-0.066	-0.281
-508.770	-55.677	-0.269	-0.120
-507.756	800.000	-0.033	0.112
-506.741	482.280	0.083	0.189
-505.726	-3.360	-0.240	0.167
-504.712	-200.000	0.049	0.262
-503.697	53.428	0.288	0.276
-502.683	-89.477	-0.234	-0.069
-501.668	-184.023	0.273	0.005
-500.653	129.219	0.133	0.170
-499.639	-200.000	0.046	0.283
-498.624	12.896	0.081	-0.063
-497.610	8.807	-0.275	0.207
-496.595	-81.300	-0.223	-0.073
-495.581	800.000	0.088	-0.257
-494.566	-61.512	-0.208	0.087
-493.551	-145.674	-0.286	0.025
-492.537	119.346	0.144	-0.178
-491.522	-68.727	-0.085	0.033
-490.508	68.968	-0.152	-0.156
-489.493	-200.000	0.019	0.094
-488.478	-200.000	-0.005	0.378
-487.464	167.598	-0.179	0.253
-486.449	-14.531	-0.278	0.178
-485.435	-200.000	-0.003	-0.160
-484.420	148.000	0.125	-0.167
-483.405	-38.178	0.118	-0.062
-482.391	129.075	0.084	0.107
-481.376	306.061	-0.158	0.294
-480.362	33.388	0.074	0.064
-479.347	-18.505	0.234	0.145
-478.332	89.998	-0.225	0.250
-477.318	709.308	-0.046	-0.122
-476.303	-66.717	-0.109	0.043
-475.289	-39.239	-0.087	-0.046
-474.274	44.182	-0.354	-0.323
-473.259	-163.888	-0.047	0.002
-472.245	-140.061	-0.178	-0.019
-471.230	-128.806	0.219	0.031
-470.216	-200.000	0.000	-0.271
-469.201	12.988	-0.065	0.050
-468.186	221.722	-0.145	0.232
-467.172	-61.664	-0.235	0.098
-466.157	-147.680	-0.375	0.031
-465.143	-140.355	-0.290	-0.030
-464.128	-200.000	0.041	-0.263
-463.113	800.000	-0.073	-0.238
-462.099	-150.872	-0.110	-0.008
-461.084	-200.000	-0.004	-0.452
-460.070	631.397	-0.008	-0.020
-459.055	217.167	-0.018	-0.028
-458.040	-113.905	-0.407	-0.079
-457.026	-60.337	-0.237	-0.100
-456.011	-113.543	0.004	-0.001
-454.997	463.188	-0.014	-0.032
-453.982	-124.222	0.098	0.015
-452.968	137.981	0.079	-0.104
-451.953	-134.467	0.387	-0.047
-450.938	-105.663	0.241	-0.054
-449.924	-200.000	0.002	0.303
-448.909	-2.962	0.126	0.088
-447.895	-67.226	0.092	-0.036
-446.880	-13.930	-0.466	-0.299
-445.865	661.379	-0.063	-0.162
-444.851	-151.097	-0.102	-0.008
-443.836	-200.000	-0.017	0.185
-442.822	190.214	-0.130	-0.194
-441.807	182.512	0.123	-0.181
-440.792	16.515	0.203	0.160
-439.778	-118.083	0.058	-0.010
-438.763	-55.434	-0.070	0.031
-437.749	195.637	0.099	-0.150
-436.734	-200.000	0.019	-0.297
-435.719	-200.000	0.507	0.001
-434.705	-166.483	-0.402	0.017
-433.690	800.000	-0.106	0.326
-432.676	-163.397	0.109	0.005
-431.661	-4.385	0.073	-0.050
-430.646	-50.856	0.059	-0.028
-429.632	-41.371	0.136	-0.070
-428.617	89.824	-0.198	-0.220
-427.603	800.000	-0.084	0.312
-426.588	17.763	0.170	-0.135
-425.573	-118.055	0.117	0.021
-424.559	-113.392	-0.103	0.020
-423.544	157.426	-0.094	0.130
-422.530	-61.238	0.138	0.058
-421.515	277.265	0.085	0.150
-420.500	800.000	-0.040	-0.114
-419.486	-113.042	0.124	0.024
-418.471	-200.000	0.017	-0.079
-417.457	706.753	0.065	-0.170
-416.442	-50.679	-0.181	-0.085
-415.428	-200.000	-0.014	0.243
-414.413	149.106	0.096	-0.129
-413.398	52.407	0.150	-0.143
-412.384	-200.000	0.013	0.057
-411.369	16.409	0.221	-0.173
-410.355	-100.264	-0.334	0.082
-409.340	-85.218	-0.202	0.063
-408.325	-26.152	0.196	0.115
-407.311	-118.452	-0.512	0.090
-406.296	-15.784	0.379	-0.240
-405.282	-4.469	0.276	0.190
-404.267	-200.000	-0.009	0.394
-403.252	435.616	0.157	-0.340
-402.238	-133.648	-0.232	-0.029
-401.223	-2.943	0.240	0.167
-400.209	148.145	-0.140	-0.187
-399.194	457.161	-0.108	0.238
-398.179	800.000	-0.056	0.201
-397.165	-12.290	0.068	0.044
-396.150	510.864	0.112	0.259
-395.136	-193.250	-0.125	0.001
-394.121	75.777	0.126	0.133
-393.106	14.834	0.093	-0.072
-392.092	459.074	-0.158	-0.349
-391.077	-200.000	-0.010	0.071
-390.063	-5.657	0.131	0.089
-389.048	190.596	0.081	-0.121
-388.033	18.024	0.198	-0.157
-387.019	-96.807	0.200	0.052
-386.004	-62.539	0.366	-0.151
-384.990	53.627	0.183	-0.174
-383.975	219.751	0.079	0.125
-382.960	800.000	-0.029	0.091
-381.946	800.000	-0.040	0.174
-380.931	-200.000	-0.009	-0.091
-379.917	-151.243	0.529	0.039
-378.902	-84.328	-0.187	0.059
-377.888	-99.815	0.229	-0.057
-376.873	-126.175	-0.124	-0.018
-375.858	800.000	0.062	0.244
-374.844	-200.000	-0.029	-0.314
-373.829	-200.000	-0.011	-0.104
-372.815	-103.431	0.230	0.054
-371.800	62.705	-0.208	-0.206
-370.785	174.744	0.110	-0.158
-369.771	285.050	-0.114	0.204
-368.756	33.352	-0.190	0.164
-367.742	-112.703	0.325	0.064
-366.727	-44.582	-0.153	-0.076
-365.712	-41.665	0.204	-0.104
-364.698	72.285	-0.079	-0.081
-363.683	-162.019	0.115	0.006
-362.669	-87.391	0.418	0.126
-361.654	239.816	-0.013	-0.022
-360.639	179.458	0.142	0.206
-359.625	-148.842	-0.149	0.012
-358.610	-44.346	0.265	-0.132
-357.596	-96.659	0.132	-0.035
-356.581	-62.355	-0.246	-0.102
-355.566	-127.635	-0.059	-0.009
-354.552	-23.605	-0.047	0.028
-353.537	-176.093	-0.212	-0.006
-352.523	-200.000	-0.025	0.309
-351.508	-29.503	-0.284	0.161
-350.493	-39.001	-0.248	0.129
-349.479	-136.358	-0.355	-0.041
-348.464	556.043	-0.058	0.138
-347.450	-70.887	0.217	-0.081
-346.435	-20.505	-0.034	0.021
-345.420	-157.666	-0.189	-0.011
-344.406	121.881	-0.192	-0.237
-343.391	-45.701	0.114	0.056
-342.377	-200.000	0.007	0.093
-341.362	800.000	0.071	-0.260
-340.348	-121.211	-0.099	0.016
-339.333	-200.000	-0.034	0.424
-338.318	83.124	-0.088	-0.095
-337.304	41.476	-0.203	-0.182
-336.289	-12.117	0.371	0.241
-335.275	-23.206	0.203	-0.121
-334.260	115.037	-0.105	0.127
-333.245	123.365	0.187	0.233
-332.231	185.910	0.289	-0.426
-331.216	-167.325	-0.277	-0.011
-330.202	800.000	-0.074	0.266
-329.187	31.955	0.075	-0.064
-328.172	-78.024	-0.119	-0.040
-327.158	333.448	0.129	0.246
-326.143	2.584	-0.048	-0.034
-325.129	-200.000	0.033	0.182
-324.114	58.034	-0.051	-0.050
-323.099	89.017	0.134	-0.148
-322.085	-158.768	0.154	-0.009
-321.070	66.050	0.087	-0.088
-320.056	-78.918	-0.207	-0.070
-319.041	19.672	-0.226	0.180
-318.026	-200.000	-0.283	0.001
-317.012	-143.785	-0.223	0.021
-315.997	-200.000	0.003	-0.168
-314.983	-199.290	-0.179	-0.001
-313.968	-200.000	0.044	-0.445
-312.953	-102.250	0.193	-0.046
-311.939	-20.062	0.279	0.171
-310.924	285.115	0.137	-0.245
-309.910	19.190	0.150	-0.119
-308.895	125.464	0.041	0.051
-307.880	611.906	-0.147	-0.364
-306.866	800.000	-0.073	-0.231
-305.851	800.000	0.050	0.197
-304.837	696.257	0.032	0.083
-303.822	-95.994	0.046	-0.012
-302.807	-109.539	0.151	-0.032
-301.793	-200.000	0.045	-0.219
-300.778	55.936	-0.122	-0.117
-299.764	339.775	0.026	-0.050
-298.749	-32.199	0.174	0.096
-297.735	-50.914	-0.214	0.099
-296.720	-200.000	-0.058	-0.270
-295.705	-115.870	0.168	-0.031
-294.691	147.898	0.320	0.426
-293.676	352.053	0.175	0.344
-292.662	-81.533	0.365	-0.119
-291.647	217.827	0.226	-0.356
-290.632	24.791	-0.125	0.102
-289.618	-200.000	0.010	0.062
-288.603	-58.880	0.293	-0.125
-287.589	480.815	-0.174	0.390
-286.574	328.039	0.119	-0.226
-285.559	-107.266	0.544	-0.118
-284.545	-133.694	-0.330	0.041
-283.530	-22.550	0.079	0.047
-282.516	800.000	-0.111	0.385
-281.501	354.344	0.139	-0.273
-280.486	5.658	-0.157	-0.115
-279.472	-52.825	-0.218	-0.099
-278.457	-22.505	0.392	-0.234
-277.443	66.835	-0.078	0.079
-276.428	84.907	-0.145	0.157
-275.413	-50.165	-0.167	0.078
-274.399	-200.000	0.016	0.143
-273.384	226.177	-0.165	-0.265
-272.370	17.699	0.208	0.163
-271.355	3.286	0.171	0.123
-270.340	-169.385	-0.154	0.006
-269.326	-200.000	0.072	-0.360
-268.311	267.607	-0.023	-0.039
-267.297	89.387	0.190	-0.209
-266.282	96.321	0.115	0.130
-265.267	-200.000	0.019	0.110
-264.253	-115.202	0.284	-0.053
-263.238	-200.000	-0.029	-0.164
-262.224	800.000	0.073	-0.219
-261.209	23.528	0.217	0.176
-260.195	-46.890	-0.065	0.032
-259.180	-100.508	0.207	0.051
-258.165	119.983	-0.143	-0.175
-257.151	-44.930	0.133	0.065
-256.136	-103.714	0.293	0.068
-255.122	800.000	-0.075	-0.321
-254.107	20.250	-0.097	0.077
-253.092	800.000	-0.019	-0.063
-252.078	-200.000	0.020	-0.166
-251.063	-12.774	0.136	-0.088
-250.049	-123.064	-0.283	-0.045
-249.034	168.355	0.097	0.137
-248.019	-200.000	0.014	0.269
-247.005	178.129	0.172	-0.248
-245.990	-161.677	0.083	-0.004
-244.976	-33.589	0.144	-0.078
-243.961	9.230	-0.294	-0.219
-242.946	-200.000	-0.036	-0.430
-241.932	-9.071	-0.113	0.074
-240.917	394.419	0.091	-0.187
-239.903	272.970	-0.144	0.251
-238.888	-61.207	0.335	0.139
-237.873	-67.947	-0.250	0.096
-236.859	-102.258	-0.025	0.006
-235.844	60.817	-0.195	-0.191
-234.830	57.668	0.188	0.182
-233.815	141.566	-0.210	-0.275
-232.800	102.034	0.113	-0.130
-231.786	132.688	0.073	-0.093
-230.771	37.581	-0.103	-0.090
-229.757	800.000	-0.123	-0.486
-228.742	-55.756	0.175	-0.077
-227.727	-200.000	-0.012	0.147
-226.713	448.262	0.038	0.083
-225.698	705.480	-0.085	-0.220
-224.684	800.000	-0.083	-0.330
-223.669	-200.000	0.152	-0.000
-222.655	-200.000	-0.007	0.158
-221.640	100.430	-0.084	0.096
-220.625	-53.042	0.176	0.080
-219.611	-85.051	-0.184	-0.057
-218.596	-141.930	-0.229	-0.023
-217.582	-200.000	-0.011	0.064
-216.567	-108.541	0.384	-0.081
-215.552	46.837	0.242	-0.222
-214.538	425.903	-0.097	0.206
-213.523	-49.726	-0.225	-0.106
-212.509	143.092	0.020	-0.027
-211.494	-40.304	-0.216	-0.111
-210.479	-18.524	-0.131	0.081
-209.465	800.000	0.092	0.258
-208.450	253.813	-0.169	0.284
-207.436	-89.810	0.274	0.079
-206.421	291.767	-0.055	0.099
-205.406	39.820	0.050	0.044
-204.392	201.053	-0.078	0.119
-203.377	-34.015	0.037	-0.020
-202.363	17.608	-0.117	0.092
-201.348	136.176	-0.100	-0.128
-200.333	435.236	0.043	-0.093
-199.319	-57.996	0.205	-0.088
-198.304	-98.472	-0.168	0.042
-197.290	-85.776	0.087	-0.026
-196.275	-51.600	-0.251	0.116
-195.260	-200.000	-0.014	-0.112
-194.246	-200.000	-0.016	0.073
-193.231	435.239	0.069	-0.148
-192.217	-176.928	0.458	-0.011
-191.202	-103.729	-0.264	0.061
-190.187	-37.152	0.109	0.057
-189.173	-200.000	-0.033	-0.341
-188.158	-120.504	-0.126	-0.021
-187.144	-83.830	0.271	-0.085
-186.129	-200.000	0.085	0.465
-185.114	-174.761	0.146	-0.004
-184.100	-13.180	0.087	-0.055
-183.085	800.000	0.016	-0.063
-182.071	104.326	-0.145	0.168
-181.056	386.270	0.158	-0.321
-180.042	286.974	0.178	0.317
-179.027	-83.207	-0.148	0.047
-178.012	245.716	-0.081	-0.134
-176.998	56.714	-0.140	-0.134
-175.983	-116.097	-0.282	0.052
-174.969	-137.716	0.261	0.029
-173.954	63.048	0.067	-0.066
-172.939	443.478	0.126	0.272
-171.925	-157.269	0.163	0.010
-170.910	676.229	0.048	0.124
-169.896	234.821	-0.096	-0.156
-168.881	6.229	0.269	0.196
-167.866	375.410	0.105	-0.211
-166.852	-66.090	0.287	-0.113
-165.837	-10.205	-0.100	0.065
-164.823	11.777	-0.046	-0.035
-163.808	-99.366	-0.167	0.041
-162.793	165.555	-0.067	0.093
-161.779	197.249	0.143	0.214
-160.764	800.000	-0.035	0.109
-159.750	43.638	-0.103	-0.093
-158.735	800.000	0.110	-0.327
-157.720	323.412	0.177	-0.332
-156.706	230.863	0.061	0.098
-155.691	800.000	0.015	0.065
-154.677	264.204	-0.285	0.487
-153.662	49.304	0.078	-0.072
-152.647	-104.530	0.079	-0.018
-151.633	-129.685	-0.245	-0.033
-150.618	19.414	0.288	0.227
-149.604	56.623	-0.068	0.065
-148.589	344.431	-0.095	0.184
-147.574	-95.136	-0.466	0.124
-146.560	503.654	-0.071	-0.162
-145.545	-69.153	0.198	-0.075
-144.531	323.578	-0.052	-0.098
-143.516	118.322	0.106	0.128
-142.502	-179.298	-0.132	-0.003
-141.487	435.269	-0.061	0.131
-140.472	-53.422	0.253	0.114
-139.458	-55.377	-0.161	-0.071
-138.443	-15.483	-0.163	0.102
-137.429	-200.000	-0.035	-0.246
-136.414	147.092	0.171	0.226
-135.399	-117.097	0.248	-0.044
-134.385	-181.254	-0.120	0.002
-133.370	-68.537	0.378	-0.144
-132.356	-62.355	0.194	0.079
-131.341	-200.000	-0.061	0.320
-130.326	201.993	-0.063	0.095
-129.312	97.644	-0.151	0.170
-128.297	34.318	0.105	0.090
-127.283	-200.000	-0.013	0.103
-126.268	330.471	-0.093	-0.176
-125.253	249.657	-0.074	-0.123
-124.239	255.038	-0.285	0.479
-123.224	800.000	-0.055	0.175
-122.210	16.636	0.184	0.143
