DTS Sentinel unit serial number:	SN413079Multiplexer serial number:	ORYXHardware model number:	OX4-SRSoftware version number:	ORYX F/W v4.00 Oryx Data Collector v3.7.2.0data status	okinstallation	princeton_trtdifferential loss correction	single-endedforward channel	channel 3reverse channel	N/Adate	2019/09/11time	11:02:11forward acquisition time	60.00reverse acquisition time	0.00gamma	496.2192k internal	0.2296k external	0.2296temperature offset calibration	0.9944default loss term (dB/km)	0.3790temperature slope calibration	1.0000multiplexer offset coefficient	1.0000multiplexer slope coefficient	1.0000fibre end	0.00T internal ref (°C)	37.25T ext. ref 1 (°C)	0.17T ext. ref 2 (°C)	34.70length (m)	temperature (°C)	Stokes	anti-Stokes-747.200	-47.086	-0.165	0.082
-746.185	99.468	-0.103	0.121
-745.171	-200.000	-0.021	0.097
-744.156	-54.599	-0.401	0.185
-743.142	-200.000	0.002	-0.073
-742.127	-200.000	-0.097	0.561
-741.112	800.000	-0.075	-0.236
-740.098	-102.092	0.375	0.092
-739.083	-155.293	0.197	-0.013
-738.069	-66.651	-0.111	-0.045
-737.054	230.952	0.156	0.260
-736.039	9.400	-0.198	-0.153
-735.025	261.338	0.060	0.106
-734.010	-86.631	-0.315	0.099
-732.996	-99.172	-0.275	-0.071
-731.981	800.000	0.132	-0.464
-730.966	-11.810	-0.321	0.215
-729.952	-173.307	-0.251	-0.008
-728.937	375.296	0.103	0.215
-727.923	-156.693	-0.144	0.009
-726.908	-139.420	-0.225	-0.025
-725.894	-97.458	0.063	-0.017
-724.879	-36.343	-0.094	0.052
-723.864	-33.194	0.035	-0.020
-722.850	58.067	0.358	0.358
-721.835	160.019	-0.091	-0.129
-720.821	426.127	-0.137	-0.301
-719.806	-97.526	0.222	0.059
-718.791	-66.684	-0.242	-0.098
-717.777	-94.751	0.174	-0.048
-716.762	-44.676	-0.270	-0.138
-715.748	-13.019	-0.161	-0.107
-714.733	199.560	-0.138	-0.217
-713.718	148.246	-0.079	0.108
-712.704	800.000	-0.106	-0.381
-711.689	-107.577	-0.245	0.055
-710.675	800.000	-0.071	0.264
-709.660	800.000	-0.042	0.171
-708.645	-118.617	0.055	-0.010
-707.631	800.000	0.051	-0.185
-706.616	16.409	-0.185	0.149
-705.602	266.985	0.135	-0.241
-704.587	35.963	-0.094	-0.084
-703.572	-158.291	0.134	-0.008
-702.558	800.000	0.052	-0.183
-701.543	800.000	-0.074	0.261
-700.529	-72.385	-0.090	0.034
-699.514	363.272	-0.054	0.110
-698.499	-127.481	0.220	0.033
-697.485	-200.000	-0.061	0.351
-696.470	-200.000	-0.039	-0.198
-695.456	589.664	0.176	-0.443
-694.441	-19.028	0.255	-0.162
-693.426	-127.407	-0.060	-0.009
-692.412	-200.000	-0.000	-0.101
-691.397	89.637	-0.116	0.132
-690.383	-200.000	-0.036	-0.253
-689.368	229.680	0.068	-0.114
-688.354	-159.619	-0.016	-0.001
-687.339	192.864	-0.282	0.435
-686.324	-47.421	-0.205	-0.102
-685.310	73.465	-0.161	0.172
-684.295	26.786	-0.113	0.096
-683.281	-140.552	0.201	0.021
-682.266	800.000	0.079	-0.255
-681.251	82.281	-0.075	-0.083
-680.237	-108.372	0.091	0.020
-679.222	-6.333	-0.134	-0.093
-678.208	-55.779	0.362	-0.165
-677.193	126.608	-0.181	0.233
-676.178	-104.510	0.330	-0.078
-675.164	-90.705	-0.116	0.034
-674.149	-175.025	-0.168	-0.005
-673.135	800.000	-0.084	0.260
-672.120	-200.000	0.004	-0.424
-671.105	247.897	-0.148	-0.254
-670.091	-200.000	-0.022	0.121
-669.076	66.745	-0.161	0.167
-668.062	-200.000	0.058	-0.265
-667.047	139.618	0.207	-0.278
-666.032	-200.000	0.002	-0.322
-665.018	-18.082	0.033	0.021
-664.003	13.951	0.142	-0.112
-662.989	-27.872	0.126	0.075
-661.974	-27.028	-0.118	-0.070
-660.959	-200.000	0.018	-0.228
-659.945	800.000	-0.101	0.317
-658.930	70.954	0.133	-0.141
-657.916	6.046	0.090	-0.068
-656.901	33.297	0.214	0.189
-655.886	86.271	-0.158	0.178
-654.872	413.991	0.179	-0.388
-653.857	199.330	-0.094	-0.147
-652.843	243.216	-0.140	-0.239
-651.828	166.891	-0.121	0.175
-650.814	282.542	0.134	0.244
-649.799	16.071	-0.075	0.060
-648.784	-24.324	-0.227	0.138
-647.770	-36.493	0.290	-0.159
-646.755	46.785	0.017	0.017
-645.741	-94.929	0.039	-0.011
-644.726	-127.667	-0.562	0.083
-643.711	445.123	0.097	-0.216
-642.697	141.628	0.255	-0.344
-641.682	506.473	-0.167	0.394
-640.668	-26.562	0.192	-0.115
-639.653	68.814	-0.190	-0.198
-638.638	-91.444	-0.132	-0.038
-637.624	-78.659	-0.171	-0.059
-636.609	800.000	0.053	0.173
-635.595	51.095	0.079	0.076
-634.580	800.000	-0.022	0.062
-633.565	800.000	0.065	-0.264
-632.551	-53.968	0.153	-0.071
-631.536	-99.428	-0.065	-0.017
-630.522	46.736	0.093	0.088
-629.507	-30.366	0.128	-0.074
-628.492	-113.363	-0.150	-0.030
-627.478	-100.772	0.468	-0.117
-626.463	93.028	-0.277	0.318
-625.449	-200.000	0.005	0.123
-624.434	23.542	0.166	-0.139
-623.419	69.143	-0.222	-0.232
-622.405	-38.189	0.193	0.104
-621.390	-55.587	0.153	0.070
-620.376	-87.349	0.041	0.013
-619.361	-200.000	0.001	0.006
-618.346	674.509	-0.077	0.203
-617.332	800.000	-0.081	0.234
-616.317	-190.241	-0.284	0.003
-615.303	800.000	0.072	0.234
-614.288	800.000	-0.057	-0.217
-613.273	-45.031	0.146	-0.074
-612.259	182.525	0.189	0.284
-611.244	63.191	-0.144	0.147
-610.230	28.205	0.350	-0.301
-609.215	120.057	0.280	0.354
-608.201	24.196	0.095	0.079
-607.186	-200.000	-0.004	0.151
-606.171	-56.382	0.134	0.061
-605.157	151.674	-0.045	0.063
-604.142	-200.000	0.019	-0.215
-603.128	345.327	-0.096	0.192
-602.113	-200.000	-0.034	0.246
-601.098	-200.000	0.013	0.196
-600.084	-200.000	0.002	0.233
-599.069	-92.587	0.151	-0.043
-598.055	800.000	-0.075	-0.231
-597.040	352.954	-0.143	-0.287
-596.025	800.000	0.063	0.279
-595.011	-167.678	-0.257	0.010
-593.996	44.091	-0.184	-0.171
-592.982	-200.000	-0.010	-0.066
-591.967	-36.470	0.150	0.082
-590.952	100.303	-0.292	0.345
-589.938	136.295	0.142	-0.188
-588.923	800.000	0.056	0.233
-587.909	800.000	-0.049	0.212
-586.894	-47.345	-0.457	0.226
-585.879	-200.000	-0.009	0.213
-584.865	-73.782	-0.128	0.047
-583.850	-200.000	0.098	0.487
-582.836	800.000	0.056	-0.199
-581.821	-83.687	-0.144	-0.047
-580.806	-200.000	0.012	-0.189
-579.792	800.000	-0.097	-0.327
-578.777	74.579	0.213	0.227
-577.763	28.650	0.290	-0.250
-576.748	-21.847	-0.260	-0.160
-575.733	556.169	-0.109	0.266
-574.719	-173.093	0.295	-0.009
-573.704	309.420	-0.084	0.160
-572.690	90.780	0.139	0.159
-571.675	-200.000	-0.024	-0.306
-570.661	-200.000	0.034	-0.302
-569.646	216.084	-0.175	0.283
-568.631	-30.282	-0.456	-0.263
-567.617	-130.505	-0.128	-0.018
-566.602	172.979	-0.219	-0.320
-565.588	-200.000	0.010	-0.176
-564.573	-154.388	-0.177	-0.012
-563.558	29.882	-0.163	0.141
-562.544	800.000	-0.080	0.226
-561.529	90.068	0.132	0.150
-560.515	-36.895	-0.225	0.122
-559.500	-131.402	-0.071	-0.010
-558.485	-86.817	0.134	-0.041
-557.471	-96.031	-0.098	0.026
-556.456	-97.151	0.074	-0.020
-555.442	-67.696	-0.325	0.129
-554.427	-30.438	0.307	-0.177
-553.412	-30.837	-0.054	-0.031
-552.398	134.498	0.133	-0.175
-551.383	-172.428	-0.154	-0.005
-550.369	-36.553	0.414	0.226
-549.354	-120.544	-0.242	0.042
-548.339	-124.303	-0.173	0.027
-547.325	-164.297	0.129	0.006
-546.310	-106.313	-0.579	0.131
-545.296	-120.372	0.251	-0.043
-544.281	-200.000	0.084	0.542
-543.266	-154.851	-0.251	-0.017
-542.252	-200.000	-0.022	-0.156
-541.237	723.315	0.080	0.215
-540.223	118.678	0.152	0.190
-539.208	-30.806	-0.094	-0.054
-538.193	-134.779	-0.562	-0.069
-537.179	800.000	0.031	-0.129
-536.164	137.065	0.161	-0.213
-535.150	107.747	0.049	-0.059
-534.135	-200.000	-0.006	-0.150
-533.121	-154.099	-0.107	0.007
-532.106	25.102	0.119	0.100
-531.091	-145.172	-0.440	-0.040
-530.077	-84.574	0.122	0.039
-529.062	137.622	-0.169	0.224
-528.048	-110.904	0.363	-0.076
-527.033	79.681	0.072	-0.078
-526.018	-74.811	0.276	-0.100
-525.004	-200.000	0.008	0.090
-523.989	338.979	-0.153	-0.302
-522.975	98.560	0.217	-0.253
-521.960	-200.000	-0.011	0.241
-520.945	299.293	-0.046	-0.086
-519.931	-200.000	-0.024	-0.328
-518.916	-30.220	0.356	0.205
-517.902	-200.000	0.029	0.154
-516.887	494.844	0.048	-0.112
-515.872	-200.000	-0.003	-0.080
-514.858	-30.702	0.117	0.067
-513.843	-200.000	0.003	0.056
-512.829	-90.733	0.130	-0.038
-511.814	-28.005	-0.147	0.086
-510.799	403.147	0.029	0.063
-509.785	-5.767	-0.413	0.287
-508.770	800.000	0.081	-0.236
-507.756	-55.183	0.139	0.063
-506.741	-138.989	0.384	0.042
-505.726	800.000	-0.090	0.255
-504.712	-102.261	0.327	0.079
-503.697	-94.964	0.213	-0.058
-502.683	-39.322	0.107	0.057
-501.668	-8.749	-0.304	-0.207
-500.653	156.665	0.244	-0.340
-499.639	-200.000	-0.031	-0.274
-498.624	84.298	0.246	0.272
-497.610	800.000	0.042	0.174
-496.595	-90.556	-0.091	0.027
-495.581	431.545	-0.115	-0.253
-494.566	800.000	0.170	0.524
-493.551	-200.000	0.217	0.001
-492.537	131.769	-0.054	0.071
-491.522	-163.570	-0.276	-0.013
-490.508	-48.053	0.093	-0.046
-489.493	54.772	-0.105	0.102
-488.478	-200.000	0.031	0.180
-487.464	166.641	-0.256	0.367
-486.449	-200.000	-0.012	-0.088
-485.435	31.788	-0.182	-0.159
-484.420	-15.540	0.053	0.034
-483.405	136.560	0.088	-0.116
-482.391	3.335	-0.181	0.133
-481.376	-200.000	0.003	-0.326
-480.362	-36.537	-0.182	-0.099
-479.347	-87.280	-0.169	0.052
-478.332	800.000	0.052	-0.198
-477.318	-200.000	-0.009	0.120
-476.303	146.644	0.114	0.155
-475.289	800.000	-0.091	-0.262
-474.274	602.547	-0.010	0.026
-473.259	415.982	0.054	0.117
-472.245	361.169	0.117	0.237
-471.230	-200.000	-0.033	0.176
-470.216	-200.000	-0.050	-0.362
-469.201	-200.000	0.039	0.199
-468.186	-200.000	-0.001	0.090
-467.172	-200.000	0.026	0.227
-466.157	800.000	0.044	0.160
-465.143	-1.595	0.139	-0.099
-464.128	-70.834	-0.392	-0.149
-463.113	140.559	-0.042	0.056
-462.099	-200.000	0.033	-0.199
-461.084	-200.000	0.063	-0.383
-460.070	203.626	-0.049	-0.077
-459.055	-200.000	0.009	-0.163
-458.040	-126.898	0.086	0.013
-457.026	258.981	0.169	-0.295
-456.011	89.242	0.023	0.026
-454.997	-153.483	-0.142	-0.010
-453.982	20.292	0.316	-0.258
-452.968	12.701	0.067	0.052
-451.953	-200.000	0.013	-0.143
-450.938	800.000	0.078	-0.284
-449.924	-7.738	0.187	-0.128
-448.909	6.717	0.137	0.103
-447.895	21.585	0.052	-0.043
-446.880	434.848	0.120	-0.263
-445.865	360.864	-0.152	-0.308
-444.851	-7.367	-0.091	0.063
-443.836	308.857	-0.084	0.158
-442.822	23.947	-0.306	-0.255
-441.807	-47.369	0.249	-0.122
-440.792	23.360	-0.197	0.164
-439.778	-77.993	0.335	-0.117
-438.763	-200.000	-0.038	-0.533
-437.749	298.087	-0.010	-0.019
-436.734	90.770	-0.114	0.129
-435.719	-52.352	0.226	0.106
-434.705	27.113	0.029	-0.025
-433.690	-200.000	-0.000	-0.197
-432.676	-173.741	0.326	-0.010
-431.661	-13.864	-0.178	-0.116
-430.646	320.230	-0.073	-0.140
-429.632	473.587	-0.067	-0.152
-428.617	28.718	-0.067	-0.057
-427.603	800.000	0.057	0.221
-426.588	-112.043	-0.320	-0.065
-425.573	-191.262	0.222	0.002
-424.559	-113.472	-0.064	-0.013
-423.544	-30.973	0.155	-0.088
-422.530	-107.900	0.129	0.028
-421.515	800.000	-0.021	0.090
-420.500	52.517	-0.254	-0.245
-419.486	-200.000	-0.006	0.096
-418.471	-200.000	0.008	0.150
-417.457	-44.006	-0.165	0.084
-416.442	-200.000	-0.079	-0.401
-415.428	134.860	0.029	-0.038
-414.413	99.755	0.064	0.075
-413.398	118.451	-0.071	-0.088
-412.384	-81.770	-0.059	-0.020
-411.369	395.160	0.103	0.216
-410.355	-105.340	-0.044	-0.010
-409.340	-200.000	0.017	0.123
-408.325	-113.723	-0.122	-0.024
-407.311	420.105	0.019	0.042
-406.296	27.884	0.199	0.170
-405.282	520.099	0.056	-0.133
-404.267	130.377	-0.043	0.055
-403.252	84.435	-0.045	0.050
-402.238	-88.875	0.042	0.012
-401.223	800.000	-0.065	-0.208
-400.209	-200.000	-0.002	-0.373
-399.194	36.418	0.224	0.200
-398.179	-82.212	0.195	-0.064
-397.165	-34.614	0.143	0.079
-396.150	586.260	-0.138	-0.343
-395.136	389.248	-0.012	0.025
-394.121	-178.010	-0.055	0.001
-393.106	-102.683	0.257	-0.062
-392.092	-117.805	0.166	0.030
-391.077	-7.549	0.327	0.223
-390.063	-102.804	0.135	-0.032
-389.048	-200.000	0.016	0.090
-388.033	237.702	-0.073	0.123
-387.019	114.854	-0.207	-0.255
-386.004	170.123	0.109	-0.157
-384.990	2.744	-0.150	-0.110
-383.975	-132.584	0.269	0.035
-382.960	-158.786	0.125	0.007
-381.946	-142.225	-0.174	0.017
-380.931	146.737	-0.102	-0.138
-379.917	-197.249	0.374	-0.002
-378.902	-108.156	0.302	0.066
-377.888	800.000	-0.072	-0.273
-376.873	112.254	0.140	0.170
-375.858	-200.000	0.029	-0.190
-374.844	-10.626	0.058	-0.038
-373.829	-200.000	-0.028	-0.125
-372.815	-200.000	-0.003	-0.027
-371.800	134.206	0.225	-0.293
-370.785	-200.000	-0.015	-0.434
-369.771	116.629	-0.101	0.125
-368.756	66.387	-0.154	0.158
-367.742	-200.000	0.041	0.303
-366.727	-51.191	0.123	0.058
-365.712	163.456	-0.202	0.286
-364.698	29.276	-0.161	0.137
-363.683	-52.689	-0.243	0.113
-362.669	666.652	-0.129	-0.335
-361.654	-159.238	0.249	0.014
-360.639	-200.000	0.031	0.207
-359.625	718.038	-0.026	0.070
-358.610	-200.000	-0.012	-0.303
-357.596	84.814	0.129	0.142
-356.581	-200.000	-0.061	-0.320
-355.566	-42.264	-0.393	0.202
-354.552	-63.363	0.315	0.130
-353.537	-158.523	0.391	-0.023
-352.523	800.000	-0.015	0.050
-351.508	428.112	-0.009	0.020
-350.493	495.230	0.041	-0.096
-349.479	104.307	0.179	0.212
-348.464	178.827	-0.072	-0.106
-347.450	43.096	0.144	0.132
-346.435	-200.000	0.026	0.176
-345.420	36.001	0.161	0.143
-344.406	7.744	-0.130	0.098
-343.391	-51.393	0.398	0.187
-342.377	43.734	-0.245	-0.225
-341.362	98.023	0.129	-0.149
-340.348	97.790	-0.074	0.086
-339.333	14.309	0.209	-0.164
-338.318	-200.000	-0.030	0.263
-337.304	-200.000	-0.018	-0.219
-336.289	-106.545	-0.246	-0.055
-335.275	321.557	0.046	-0.087
-334.260	-36.439	0.201	0.109
-333.245	-200.000	0.012	0.080
-332.231	151.805	0.037	0.051
-331.216	463.489	0.077	-0.172
-330.202	449.229	-0.148	-0.328
-329.187	-200.000	0.012	-0.227
-328.172	672.659	-0.139	-0.361
-327.158	-200.000	0.037	-0.238
-326.143	-200.000	-0.052	-0.433
-325.129	-23.286	0.157	-0.095
-324.114	800.000	0.071	0.235
-323.099	800.000	0.049	0.181
-322.085	800.000	0.116	-0.366
-321.070	-19.000	-0.160	0.100
-320.056	-94.435	0.071	-0.020
-319.041	-112.750	0.429	-0.086
-318.026	-200.000	0.010	0.101
-317.012	-151.787	0.239	0.018
-315.997	403.468	-0.092	0.194
-314.983	271.804	-0.078	0.138
-313.968	-200.000	0.043	0.264
-312.953	800.000	0.022	-0.076
-311.939	-95.572	-0.088	0.024
-310.924	-200.000	0.019	0.220
-309.910	722.780	0.153	0.409
-308.895	-8.511	-0.067	0.045
-307.880	-87.140	0.024	0.007
-306.866	94.583	0.093	-0.106
-305.851	94.587	0.184	-0.210
-304.837	267.827	-0.035	-0.061
-303.822	172.758	0.084	0.121
-302.807	-125.990	0.133	0.020
-301.793	242.011	0.080	0.135
-300.778	-104.027	-0.532	-0.125
-299.764	-150.084	-0.178	0.014
-298.749	800.000	-0.011	-0.032
-297.735	585.449	-0.088	0.218
-296.720	-84.395	-0.185	-0.059
-295.705	240.229	0.092	0.155
-294.691	75.934	0.131	-0.139
-293.676	-86.340	0.268	0.083
-292.662	-13.432	-0.234	-0.153
-291.647	-23.060	0.316	-0.191
-290.632	135.170	-0.137	0.179
-289.618	-153.482	-0.270	0.019
-288.603	36.769	-0.108	-0.096
-287.589	85.261	-0.298	-0.328
-286.574	-183.888	-0.261	0.004
-285.559	-87.080	0.029	0.009
-284.545	279.188	-0.050	0.089
-283.530	209.912	-0.175	0.275
-282.516	-200.000	0.092	0.587
-281.501	-200.000	-0.024	-0.165
-280.486	275.161	-0.165	0.294
-279.472	566.632	-0.137	0.333
-278.457	-145.478	0.094	-0.008
-277.443	-150.107	0.193	0.015
-276.428	128.362	-0.179	0.229
-275.413	-60.417	0.204	0.087
-274.399	-200.000	0.014	0.218
-273.384	-12.351	0.070	0.046
-272.370	260.249	0.216	-0.375
-271.355	-200.000	-0.076	-0.401
-270.340	764.727	0.069	-0.187
-269.326	697.523	-0.140	-0.369
-268.311	168.825	0.152	-0.217
-267.297	-167.282	-0.144	0.006
-266.282	-104.655	-0.040	0.009
-265.267	-129.443	0.209	-0.029
-264.253	-121.620	0.360	0.060
-263.238	221.064	0.141	-0.227
-262.224	12.310	0.268	0.207
-261.209	103.943	0.251	0.296
-260.195	-181.675	0.122	0.002
-259.180	-11.028	-0.288	-0.191
-258.165	375.008	0.096	0.196
-257.151	333.883	-0.180	-0.349
-256.136	-143.824	0.185	0.017
-255.122	-33.500	-0.300	0.166
-254.107	-34.703	0.102	0.056
-253.092	-36.860	-0.174	0.093
-252.078	716.795	-0.107	-0.284
-251.063	595.136	0.049	-0.122
-250.049	24.263	-0.122	0.101
-249.034	27.525	0.137	0.115
-248.019	313.996	-0.060	0.114
-247.005	-200.000	-0.025	-0.117
-245.990	-38.361	0.365	0.193
-244.976	-200.000	-0.009	0.221
-243.961	135.449	0.123	0.161
-242.946	263.901	-0.228	-0.397
-241.932	-200.000	0.003	-0.094
-240.917	-183.558	-0.201	0.003
-239.903	133.769	-0.150	0.195
-238.888	15.260	0.071	0.056
-237.873	-6.008	-0.167	-0.114
-236.859	-1.819	0.137	0.097
-235.844	-33.813	-0.312	0.172
-234.830	35.562	-0.177	0.156
-233.815	-200.000	-0.051	0.467
-232.800	111.856	0.213	0.258
-231.786	-200.000	-0.283	0.001
-230.771	-200.000	-0.064	-0.418
-229.757	-102.270	-0.252	0.060
-228.742	424.857	0.086	0.184
-227.727	156.678	0.196	-0.272
-226.713	-11.034	0.225	0.148
-225.698	12.822	-0.256	-0.198
-224.684	107.671	-0.164	0.195
-223.669	509.818	0.059	0.137
-222.655	-12.971	-0.218	-0.142
-221.640	85.422	-0.189	-0.207
-220.625	111.348	-0.085	0.103
-219.611	-143.609	-0.447	-0.043
-218.596	7.349	0.102	0.076
-217.582	-47.820	0.263	-0.127
-216.567	800.000	-0.070	-0.194
-215.552	232.650	-0.034	0.056
-214.538	-200.000	-0.003	-0.167
-213.523	800.000	0.122	-0.453
-212.509	-16.939	0.275	-0.174
-211.494	40.595	-0.203	-0.183
-210.479	-200.000	0.016	-0.181
-209.465	800.000	0.061	0.186
-208.450	-200.000	-0.008	0.311
-207.436	-64.962	0.145	0.059
-206.421	145.837	-0.042	-0.056
-205.406	-15.889	-0.091	0.058
-204.392	363.357	-0.057	0.114
-203.377	-38.638	0.236	0.125
-202.363	51.026	-0.161	0.153
-201.348	-43.428	-0.283	0.143
-200.333	-15.500	-0.128	-0.082
-199.319	280.369	-0.121	-0.216
-198.304	126.445	0.092	-0.116
-197.290	-26.478	-0.162	0.095
-196.275	-200.000	-0.023	-0.101
-195.260	-67.037	-0.069	-0.027
-194.246	-200.000	0.065	-0.346
-193.231	33.463	0.082	-0.071
-192.217	800.000	-0.017	0.073
-191.202	-200.000	0.012	-0.104
-190.187	-85.357	0.229	-0.072
-189.173	173.561	0.163	0.235
-188.158	138.640	-0.187	0.245
-187.144	-200.000	-0.012	-0.406
-186.129	-129.726	0.082	-0.011
-185.114	70.856	0.232	0.240
-184.100	-20.388	0.080	0.049
-183.085	152.782	-0.123	0.168
-182.071	28.894	-0.136	0.115
-181.056	-21.701	0.248	-0.151
-180.042	-137.794	-0.138	-0.016
-179.027	800.000	-0.030	0.115
-178.012	210.726	0.202	0.317
-176.998	215.368	-0.207	0.328
-175.983	99.204	-0.224	0.259
-174.969	-200.000	-0.014	0.297
-173.954	303.387	-0.054	-0.100
-172.939	5.773	0.284	0.210
-171.925	800.000	0.033	0.096
-170.910	-53.014	0.119	0.055
-169.896	-147.506	-0.268	0.023
-168.881	260.499	0.024	-0.041
-167.866	-177.246	-0.230	0.006
-166.852	-47.880	0.320	-0.155
-165.837	51.217	-0.114	0.108
-164.823	151.700	0.271	0.369
-163.808	52.452	-0.088	-0.084
-162.793	-34.407	-0.162	0.089
-161.779	-200.000	0.055	-0.287
-160.764	-152.303	-0.232	0.017
-159.750	-200.000	0.013	-0.097
-158.735	53.731	0.053	0.051
-157.720	-140.101	-0.174	-0.018
-156.706	-62.658	-0.230	-0.095
-155.691	-140.684	-0.278	-0.029
-154.677	77.516	-0.118	0.126
-153.662	6.572	-0.172	-0.128
-152.647	38.519	0.340	-0.303
-151.633	-50.940	-0.183	0.086
-150.618	-15.295	0.214	0.136
-149.604	-84.718	-0.127	0.040
-148.589	800.000	0.046	-0.176
-147.574	-14.542	-0.245	-0.157
-146.560	145.455	-0.055	-0.073
-145.545	800.000	0.083	-0.347
-144.531	17.416	0.142	-0.113
-143.516	-163.960	0.267	-0.012
-142.502	-200.000	-0.004	0.284
-141.487	-9.355	-0.179	0.119
-140.472	669.336	0.025	0.064
-139.458	-91.171	-0.237	0.068
-138.443	738.732	-0.099	0.265
-137.429	-200.000	-0.017	-0.158
-136.414	144.021	0.148	0.197
-135.399	-29.456	-0.076	0.044
-134.385	-25.518	-0.097	0.057
-133.370	800.000	-0.129	0.451
-132.356	324.387	-0.148	-0.282
-131.341	-51.719	0.067	-0.031
-130.326	-85.214	-0.249	0.078
-129.312	-21.130	0.337	0.206
-128.297	-200.000	0.040	-0.183
-127.283	682.946	0.023	-0.061
-126.268	104.902	-0.159	-0.188
-125.253	168.833	-0.151	-0.215
-124.239	-26.704	0.140	-0.082
-123.224	800.000	0.042	0.119
-122.210	-200.000	-0.001	0.288
-121.195	-131.690	0.414	-0.054
