DTS Sentinel unit serial number:	SN413079Multiplexer serial number:	ORYXHardware model number:	OX4-SRSoftware version number:	ORYX F/W v4.00 Oryx Data Collector v3.7.2.0data status	okinstallation	princeton_trtdifferential loss correction	single-endedforward channel	channel 3reverse channel	N/Adate	2019/09/11time	01:18:10forward acquisition time	60.00reverse acquisition time	0.00gamma	496.2192k internal	0.2332k external	0.2332temperature offset calibration	0.9912default loss term (dB/km)	0.3790temperature slope calibration	1.0000multiplexer offset coefficient	1.0000multiplexer slope coefficient	1.0000fibre end	0.00T internal ref (°C)	29.12T ext. ref 1 (°C)	-0.32T ext. ref 2 (°C)	23.14length (m)	temperature (°C)	Stokes	anti-Stokes-747.200	718.207	-0.027	0.071
-746.185	-67.434	-0.186	0.074
-745.171	569.976	0.067	0.164
-744.156	9.749	0.084	0.064
-743.142	370.556	0.123	0.251
-742.127	177.923	-0.140	0.205
-741.112	-200.000	0.001	-0.093
-740.098	-89.983	-0.143	-0.042
-739.083	-80.287	-0.169	-0.057
-738.069	152.935	-0.181	0.248
-737.054	800.000	-0.066	-0.283
-736.039	-16.599	-0.244	-0.156
-735.025	-136.800	0.206	0.024
-734.010	-118.744	0.268	0.048
-732.996	-87.292	-0.305	-0.093
-731.981	-32.638	-0.199	-0.111
-730.966	-64.798	-0.283	0.115
-729.952	-154.017	0.124	-0.009
-728.937	-200.000	0.024	-0.140
-727.923	-71.547	0.338	0.127
-726.908	-165.158	-0.249	-0.011
-725.894	-85.510	0.324	-0.101
-724.879	392.780	-0.152	-0.318
-723.864	800.000	0.076	-0.219
-722.850	-200.000	0.034	-0.274
-721.835	-75.558	-0.202	-0.072
-720.821	-84.108	-0.298	0.095
-719.806	329.764	0.152	-0.295
-718.791	-5.581	-0.242	0.167
-717.777	125.614	0.174	0.220
-716.762	-99.717	-0.082	0.021
-715.748	56.969	-0.135	0.133
-714.733	-94.659	-0.088	-0.024
-713.718	-200.000	-0.018	0.144
-712.704	-200.000	-0.017	-0.434
-711.689	394.836	0.204	0.428
-710.675	-24.025	0.172	-0.103
-709.660	-72.624	0.275	-0.102
-708.645	-36.429	0.112	-0.060
-707.631	-112.268	-0.464	-0.093
-706.616	-181.267	0.253	-0.005
-705.602	-46.468	0.144	0.071
-704.587	-200.000	-0.010	-0.332
-703.572	800.000	-0.015	0.063
-702.558	192.574	0.079	-0.119
-701.543	-3.137	0.376	0.263
-700.529	168.400	-0.139	-0.198
-699.514	800.000	0.078	0.311
-698.499	-157.245	0.110	0.007
-697.485	627.530	-0.197	-0.500
-696.470	-68.774	-0.254	-0.098
-695.456	-200.000	0.014	0.243
-694.441	43.171	0.278	0.255
-693.426	58.126	-0.135	0.132
-692.412	-152.507	-0.158	-0.011
-691.397	56.222	-0.076	0.074
-690.383	800.000	0.086	-0.344
-689.368	-200.000	-0.062	-0.478
-688.354	771.687	-0.045	-0.124
-687.339	-65.824	0.423	0.170
-686.324	125.108	0.077	-0.098
-685.310	-38.688	-0.230	-0.122
-684.295	-200.000	0.059	0.414
-683.281	137.634	-0.055	0.073
-682.266	-200.000	-0.018	0.109
-681.251	-200.000	0.004	-0.089
-680.237	-200.000	-0.032	0.205
-679.222	-127.782	-0.420	0.061
-678.208	800.000	0.003	-0.012
-677.193	502.452	0.139	-0.322
-676.178	-167.221	0.222	-0.009
-675.164	-124.319	0.226	0.035
-674.149	534.570	0.065	0.154
-673.135	235.947	-0.236	0.391
-672.120	800.000	0.119	-0.465
-671.105	-81.161	0.272	0.090
-670.091	-200.000	0.007	-0.216
-669.076	582.913	0.096	-0.237
-668.062	409.660	0.092	0.196
-667.047	82.303	-0.276	0.301
-666.032	-8.933	-0.161	-0.108
-665.018	-34.868	-0.296	-0.162
-664.003	137.578	-0.100	-0.132
-662.989	-51.102	-0.226	-0.106
-661.974	277.650	0.060	-0.107
-660.959	148.258	0.131	-0.177
-659.945	60.570	0.147	0.146
-658.930	479.302	-0.044	0.100
-657.916	0.884	-0.114	0.082
-656.901	242.604	0.136	-0.228
-655.886	252.676	0.079	-0.135
-654.872	-162.002	0.222	0.011
-653.857	-171.091	-0.322	-0.011
-652.843	-49.570	0.206	-0.098
-651.828	-192.040	-0.339	0.003
-650.814	466.729	-0.131	-0.293
-649.799	800.000	0.038	0.108
-648.784	-200.000	0.027	0.270
-647.770	172.922	-0.097	0.140
-646.755	800.000	0.051	-0.164
-645.741	123.137	0.080	-0.101
-644.726	18.911	0.091	-0.073
-643.711	272.738	-0.092	0.162
-642.697	175.952	0.051	-0.074
-641.682	-75.900	-0.459	-0.163
-640.668	-27.870	0.324	-0.188
-639.653	800.000	0.030	-0.119
-638.638	188.544	0.156	0.234
-637.624	-90.597	0.272	0.079
-636.609	526.527	0.125	0.296
-635.595	-129.092	-0.142	0.020
-634.580	215.393	0.139	-0.221
-633.565	-73.912	-0.264	-0.096
-632.551	-149.104	0.063	-0.005
-631.536	-92.010	0.201	-0.057
-630.522	162.465	0.123	-0.173
-629.507	165.184	0.185	-0.262
-628.492	800.000	0.028	0.080
-627.478	-155.942	0.002	-0.000
-626.463	-21.214	-0.224	0.137
-625.449	737.654	0.019	0.052
-624.434	122.752	-0.176	-0.220
-623.419	-114.845	-0.506	0.097
-622.405	-200.000	-0.037	0.246
-621.390	800.000	-0.073	-0.242
-620.376	-181.901	-0.221	-0.004
-619.361	396.947	0.091	0.191
-618.346	160.088	0.009	0.013
-617.332	-200.000	0.012	-0.180
-616.317	37.430	0.051	-0.045
-615.303	54.282	-0.066	0.063
-614.288	-154.002	-0.304	0.021
-613.273	-176.429	0.171	-0.004
-612.259	9.447	-0.163	0.123
-611.244	585.044	-0.069	-0.171
-610.230	119.008	-0.088	0.109
-609.215	800.000	-0.112	0.339
-608.201	-149.141	-0.287	-0.023
-607.186	-61.596	-0.074	0.031
-606.171	94.353	-0.037	-0.042
-605.157	-81.735	-0.333	0.109
-604.142	-28.803	0.172	-0.099
-603.128	61.461	0.168	0.167
-602.113	-78.774	0.032	0.011
-601.098	-37.204	-0.345	-0.184
-600.084	269.926	-0.047	0.082
-599.069	-130.238	-0.130	0.018
-598.055	193.336	-0.150	0.227
-597.040	800.000	0.066	-0.217
-596.025	-51.786	0.168	0.078
-595.011	263.696	-0.141	0.245
-593.996	-200.000	-0.013	-0.316
-592.982	800.000	0.054	0.152
-591.967	800.000	-0.048	-0.171
-590.952	36.089	-0.122	-0.108
-589.938	-34.268	0.159	-0.087
-588.923	-200.000	-0.068	-0.322
-587.909	-5.304	-0.073	0.050
-586.894	-3.561	0.291	-0.202
-585.879	800.000	0.104	-0.294
-584.865	800.000	0.071	-0.210
-583.850	-66.899	-0.263	0.104
-582.836	800.000	0.082	0.341
-581.821	800.000	0.097	0.360
-580.806	800.000	0.073	0.244
-579.792	-200.000	0.040	-0.231
-578.777	402.591	0.043	0.091
-577.763	59.060	-0.161	-0.159
-576.748	-112.139	0.283	-0.057
-575.733	65.324	-0.149	-0.151
-574.719	-200.000	0.019	-0.258
-573.704	249.786	-0.135	-0.228
-572.690	-27.972	-0.208	0.121
-571.675	147.187	0.127	-0.171
-570.661	86.005	-0.145	-0.160
-569.646	695.864	0.113	0.297
-568.631	299.201	-0.115	-0.212
-567.617	-56.319	-0.430	-0.191
-566.602	-200.000	-0.085	-0.414
-565.588	-52.942	-0.049	-0.023
-564.573	14.349	-0.395	-0.307
-563.558	-200.000	0.008	0.088
-562.544	260.235	-0.187	0.322
-561.529	-146.689	0.155	0.013
-560.515	-54.471	0.416	-0.188
-559.500	79.058	0.094	0.100
-558.485	800.000	-0.025	0.094
-557.471	800.000	-0.035	-0.148
-556.456	-200.000	0.042	0.349
-555.442	373.426	0.077	0.157
-554.427	-83.961	-0.021	-0.007
-553.412	-110.898	-0.304	-0.062
-552.398	-178.006	0.288	0.007
-551.383	-75.276	-0.248	0.088
-550.369	800.000	-0.061	0.229
-549.354	-104.882	-0.289	-0.066
-548.339	-178.070	0.193	-0.005
-547.325	182.875	0.135	-0.199
-546.310	-133.962	-0.065	-0.008
-545.296	165.804	0.094	-0.133
-544.281	-22.232	-0.374	0.227
-543.266	113.143	-0.123	0.149
-542.252	-113.967	0.197	0.038
-541.237	-15.708	-0.174	-0.111
-540.223	800.000	0.020	0.061
-539.208	201.490	-0.083	-0.127
-538.193	-148.112	-0.451	0.037
-537.179	82.638	-0.050	0.054
-536.164	-172.407	0.496	0.016
-535.150	396.066	0.031	0.064
-534.135	-161.664	0.261	-0.013
-533.121	131.625	0.197	0.253
-532.106	-200.000	-0.014	0.266
-531.091	-200.000	0.008	-0.084
-530.077	-200.000	0.014	-0.295
-529.062	-200.000	0.008	-0.070
-528.048	276.645	-0.125	-0.222
-527.033	-15.440	-0.160	0.102
-526.018	213.535	0.118	-0.187
-525.004	14.150	0.182	0.141
-523.989	98.316	-0.136	0.156
-522.975	-193.043	-0.123	-0.001
-521.960	173.183	-0.079	0.114
-520.945	-131.308	-0.386	-0.051
-519.931	596.035	0.162	0.399
-518.916	-200.000	0.023	0.398
-517.902	800.000	0.034	-0.145
-516.887	-14.818	-0.233	-0.149
-515.872	53.734	-0.221	-0.212
-514.858	223.979	-0.094	0.151
-513.843	194.311	0.121	-0.183
-512.829	375.920	-0.147	-0.299
-511.814	12.539	-0.152	-0.117
-510.799	457.675	-0.058	0.130
-509.785	201.388	0.085	-0.131
-508.770	-36.171	-0.371	0.200
-507.756	526.956	0.029	-0.069
-506.741	-37.906	-0.177	-0.094
-505.726	-49.433	-0.109	-0.052
-504.712	387.645	0.054	-0.111
-503.697	800.000	0.065	-0.204
-502.683	-28.933	0.364	0.208
-501.668	-200.000	-0.017	-0.088
-500.653	127.460	-0.113	-0.143
-499.639	-128.722	0.194	-0.027
-498.624	-200.000	0.001	0.169
-497.610	4.914	-0.131	0.096
-496.595	286.473	0.143	0.258
-495.581	138.025	0.140	0.183
-494.566	-56.740	-0.287	0.126
-493.551	-200.000	0.035	-0.185
-492.537	800.000	0.032	0.141
-491.522	147.275	-0.217	0.291
-490.508	-83.275	0.528	0.169
-489.493	426.233	0.083	-0.179
-488.478	-12.524	-0.221	-0.144
-487.464	-87.891	0.162	-0.048
-486.449	335.128	-0.041	-0.079
-485.435	197.873	0.260	-0.396
-484.420	-23.600	-0.350	-0.209
-483.405	-43.549	-0.112	0.057
-482.391	-96.156	-0.392	0.104
-481.376	-31.367	-0.250	-0.140
-480.362	-82.970	0.168	-0.054
-479.347	7.056	-0.095	-0.071
-478.332	32.798	-0.296	-0.255
-477.318	-197.321	-0.257	-0.002
-476.303	184.666	-0.035	-0.051
-475.289	-82.651	-0.225	-0.073
-474.274	-53.932	0.153	-0.069
-473.259	800.000	-0.008	0.024
-472.245	-45.414	0.294	0.145
-471.230	-87.015	0.343	0.104
-470.216	-91.405	-0.269	-0.076
-469.201	-200.000	-0.030	0.137
-468.186	130.515	0.037	0.047
-467.172	33.697	0.154	-0.133
-466.157	-200.000	-0.007	0.327
-465.143	-81.126	-0.261	-0.086
-464.128	-200.000	-0.002	0.171
-463.113	-200.000	-0.028	-0.150
-462.099	602.458	0.076	0.189
-461.084	-92.256	-0.470	0.132
-460.070	800.000	-0.038	-0.119
-459.055	-200.000	-0.008	0.075
-458.040	800.000	0.065	0.211
-457.026	106.810	0.157	0.185
-456.011	-200.000	0.009	-0.195
-454.997	-57.525	-0.350	0.153
-453.982	246.284	0.175	0.293
-452.968	170.305	0.043	-0.061
-451.953	-200.000	-0.017	-0.094
-450.938	45.515	0.089	-0.082
-449.924	150.821	-0.113	-0.153
-448.909	-31.471	0.159	-0.089
-447.895	-200.000	0.039	0.377
-446.880	-163.889	0.086	-0.004
-445.865	-86.273	0.072	0.022
-444.851	800.000	-0.083	-0.328
-443.836	-36.683	0.090	0.048
-442.822	-81.667	0.180	0.059
-441.807	800.000	0.030	-0.129
-440.792	416.380	-0.042	-0.089
-439.778	-68.328	-0.116	0.045
-438.763	-65.754	0.060	0.024
-437.749	352.952	0.014	0.028
-436.734	-5.756	-0.266	0.181
-435.719	-172.124	-0.183	0.006
-434.705	-130.985	0.227	0.030
-433.690	-148.581	0.205	-0.017
-432.676	-35.187	0.089	0.048
-431.661	406.883	0.039	-0.082
-430.646	10.763	-0.060	-0.046
-429.632	33.759	-0.033	0.028
-428.617	22.869	-0.148	0.121
-427.603	-200.000	0.051	0.370
-426.588	-112.680	0.233	-0.046
-425.573	-119.678	0.238	0.041
-424.559	-71.003	-0.048	0.018
-423.544	521.314	0.130	0.304
-422.530	785.139	0.089	-0.242
-421.515	-200.000	-0.004	-0.216
-420.500	-76.441	-0.081	0.028
-419.486	-97.895	-0.149	-0.038
-418.471	136.050	-0.076	0.098
-417.457	-43.255	-0.120	-0.060
-416.442	-200.000	0.013	0.087
-415.428	49.531	0.117	-0.109
-414.413	-99.753	-0.178	-0.044
-413.398	-155.731	-0.271	-0.017
-412.384	520.200	0.083	0.194
-411.369	-200.000	0.043	-0.249
-410.355	-131.540	-0.189	-0.025
-409.340	87.365	0.132	0.145
-408.325	767.872	0.111	0.299
-407.311	201.107	-0.064	0.098
-406.296	-120.902	-0.399	0.067
-405.282	-45.245	0.208	0.103
-404.267	32.887	-0.139	-0.119
-403.252	458.716	0.044	0.096
-402.238	-114.916	0.192	0.036
-401.223	-104.927	-0.143	-0.033
-400.209	-164.883	0.206	-0.009
-399.194	-46.182	0.269	0.131
-398.179	-1.490	-0.192	0.135
-397.165	-200.000	-0.034	0.363
-396.150	-76.934	0.216	-0.075
-395.136	69.200	-0.173	-0.176
-394.121	301.298	-0.070	-0.128
-393.106	800.000	-0.062	0.242
-392.092	-129.929	-0.286	-0.039
-391.077	358.302	-0.171	-0.340
-390.063	203.031	0.235	-0.361
-389.048	-164.250	0.128	-0.006
-388.033	38.071	-0.187	0.165
-387.019	-163.947	-0.264	-0.012
-386.004	-14.366	-0.104	0.066
-384.990	800.000	0.010	-0.038
-383.975	379.878	0.154	-0.313
-382.960	57.494	0.203	-0.197
-381.946	-25.999	0.265	0.154
-380.931	666.795	-0.086	0.220
-379.917	-200.000	0.016	0.155
-378.902	159.217	0.243	-0.335
-377.888	115.274	-0.108	0.131
-376.873	75.591	0.171	-0.179
-375.858	-146.230	0.110	-0.010
-374.844	-31.607	-0.285	0.159
-373.829	192.793	0.139	0.208
-372.815	-174.181	-0.022	-0.001
-371.800	19.293	0.265	-0.211
-370.785	-163.287	-0.143	0.007
-369.771	-37.503	-0.113	0.060
-368.756	-193.719	-0.117	0.001
-367.742	714.492	-0.063	0.165
-366.727	21.016	-0.062	-0.050
-365.712	161.392	-0.034	-0.047
-364.698	188.682	0.120	-0.178
-363.683	-141.570	-0.202	0.020
-362.669	82.895	-0.218	0.235
-361.654	509.500	-0.064	0.148
-360.639	-75.651	0.181	-0.064
-359.625	570.051	-0.134	-0.324
-358.610	-116.168	0.451	0.083
-357.596	800.000	-0.072	-0.265
-356.581	-53.210	0.038	-0.017
-355.566	158.509	0.399	0.548
-354.552	-87.298	0.060	-0.018
-353.537	171.929	0.202	0.288
-352.523	-48.967	-0.377	0.179
-351.508	-113.678	0.129	0.025
-350.493	-26.805	0.118	-0.068
-349.479	98.867	-0.081	-0.093
-348.464	308.644	0.105	-0.194
-347.450	-44.094	-0.357	-0.177
-346.435	-134.213	-0.220	0.027
-345.420	-138.424	-0.026	0.003
-344.406	-200.000	0.067	0.317
-343.391	172.921	-0.127	0.181
-342.377	64.926	-0.094	-0.094
-341.362	506.154	-0.085	0.194
-340.348	93.389	0.281	0.315
-339.333	-200.000	-0.044	0.226
-338.318	-107.627	0.183	0.040
-337.304	-157.844	-0.245	-0.014
-336.289	-86.718	0.405	0.123
-335.275	133.263	0.141	0.181
-334.260	130.956	0.196	-0.249
-333.245	800.000	0.057	-0.207
-332.231	-98.897	0.120	0.030
-331.216	-140.412	0.212	-0.022
-330.202	140.605	0.113	-0.148
-329.187	-88.242	-0.117	-0.035
-328.172	-82.970	0.051	-0.016
-327.158	-157.530	0.225	-0.013
-326.143	-126.598	0.313	-0.046
-325.129	800.000	-0.069	-0.210
-324.114	72.620	-0.129	0.133
-323.099	800.000	-0.053	-0.145
-322.085	-44.777	-0.125	-0.062
-321.070	-101.196	0.242	0.059
-320.056	-66.503	0.398	0.156
-319.041	521.679	-0.106	0.245
-318.026	800.000	0.017	0.059
-317.012	392.194	0.062	0.128
-315.997	265.654	0.161	-0.277
-314.983	15.192	-0.315	-0.244
-313.968	-200.000	-0.035	-0.268
-312.953	279.016	0.094	-0.166
-311.939	-60.894	-0.068	0.029
-310.924	52.819	0.153	-0.145
-309.910	-54.056	0.151	-0.068
-308.895	-200.000	-0.024	-0.131
-307.880	-129.941	0.244	0.033
-306.866	-172.217	-0.407	0.013
-305.851	97.115	-0.122	-0.139
-304.837	-200.000	0.030	0.209
-303.822	-101.511	-0.117	-0.028
-302.807	187.260	0.089	-0.132
-301.793	800.000	-0.039	-0.153
-300.778	800.000	0.156	0.444
-299.764	-89.650	0.132	-0.038
-298.749	78.641	-0.347	-0.367
-297.735	-53.462	0.177	-0.080
-296.720	800.000	0.050	-0.161
-295.705	693.255	-0.052	-0.135
-294.691	-200.000	-0.035	0.195
-293.676	-144.134	0.128	0.012
-292.662	642.084	0.110	0.278
-291.647	-200.000	0.029	0.182
-290.632	-200.000	0.067	0.446
-289.618	218.152	-0.113	0.179
-288.603	-38.665	-0.123	0.064
-287.589	22.153	0.049	-0.040
-286.574	111.130	0.139	0.165
-285.559	800.000	0.037	0.103
-284.545	-151.537	0.501	0.037
-283.530	-6.950	0.020	-0.013
-282.516	443.152	0.126	-0.272
-281.501	-56.581	0.191	-0.084
-280.486	-52.587	-0.134	-0.061
-279.472	800.000	-0.115	-0.384
-278.457	345.658	0.105	-0.204
-277.443	800.000	-0.026	-0.081
-276.428	-52.361	-0.025	-0.012
-275.413	-25.058	0.246	0.144
-274.399	-200.000	-0.029	-0.350
-273.384	-90.235	-0.025	0.007
-272.370	-66.541	0.180	-0.071
-271.355	-67.572	0.064	-0.025
-270.340	800.000	0.057	-0.229
-269.326	-41.169	-0.269	0.137
-268.311	800.000	0.037	-0.146
-267.297	-125.040	0.197	0.030
-266.282	483.065	0.094	0.212
-265.267	87.574	-0.033	-0.037
-264.253	-159.714	0.310	-0.017
-263.238	-111.890	-0.124	-0.025
-262.224	485.111	-0.118	-0.265
-261.209	800.000	-0.070	-0.297
-260.195	-70.591	0.311	0.116
-259.180	-89.978	0.217	-0.062
-258.165	800.000	0.067	-0.255
-257.151	98.830	-0.250	-0.285
-256.136	-200.000	0.015	0.264
-255.122	148.242	-0.141	-0.188
-254.107	174.996	0.056	0.081
-253.092	-86.578	-0.055	-0.017
-252.078	501.978	0.124	-0.283
-251.063	-200.000	0.053	0.238
-250.049	-200.000	0.002	0.037
-249.034	-176.329	0.158	-0.004
-248.019	800.000	-0.048	0.177
-247.005	272.365	-0.189	-0.328
-245.990	-20.811	0.318	-0.193
-244.976	-88.119	-0.361	-0.107
-243.961	15.519	0.154	0.119
-242.946	-16.205	-0.091	0.057
-241.932	800.000	0.123	0.392
-240.917	-124.157	0.280	-0.043
-239.903	800.000	0.061	0.176
-238.888	87.317	0.117	-0.127
-237.873	172.019	0.036	0.051
-236.859	-200.000	0.019	-0.212
-235.844	11.117	-0.058	0.044
-234.830	-124.096	0.324	-0.050
-233.815	421.424	-0.146	-0.309
-232.800	181.247	0.122	0.177
-231.786	-200.000	0.001	0.414
-230.771	-5.911	-0.149	-0.101
-229.757	-200.000	0.046	-0.311
-228.742	4.344	-0.246	-0.178
-227.727	376.613	-0.232	-0.468
-226.713	-85.176	0.145	-0.045
-225.698	-66.969	0.315	-0.123
-224.684	275.084	0.055	0.096
-223.669	-200.000	0.016	-0.132
-222.655	29.985	0.058	0.048
-221.640	-37.177	-0.444	0.234
-220.625	-200.000	0.001	-0.092
-219.611	145.026	0.083	-0.110
-218.596	10.673	0.313	-0.235
-217.582	-88.944	0.220	-0.064
-216.567	-200.000	-0.004	0.028
-215.552	800.000	-0.111	0.365
-214.538	800.000	0.074	0.209
-213.523	191.243	-0.122	0.181
-212.509	800.000	0.040	-0.144
-211.494	-12.991	0.227	-0.146
-210.479	-97.470	0.330	-0.084
-209.465	15.333	0.086	0.066
-208.450	-200.000	-0.003	-0.147
-207.436	-118.398	-0.177	0.031
-206.421	-115.348	-0.105	-0.019
-205.406	104.802	-0.269	-0.312
-204.392	163.887	0.170	-0.235
-203.377	42.246	-0.167	-0.150
-202.363	-75.648	-0.244	0.085
-201.348	-75.347	0.137	0.048
-200.333	-48.034	0.181	0.086
-199.319	38.405	0.343	0.301
-198.304	-200.000	-0.019	0.096
-197.290	48.893	0.174	-0.161
-196.275	800.000	-0.055	-0.229
-195.260	-65.483	0.281	-0.111
-194.246	-81.916	-0.126	0.040
-193.231	-81.907	-0.273	0.088
-192.217	-200.000	0.048	0.483
-191.202	122.480	0.222	0.273
-190.187	8.762	-0.194	-0.144
-189.173	-200.000	0.010	0.057
-188.158	-200.000	-0.014	-0.119
-187.144	-57.303	0.140	0.061
-186.129	800.000	0.047	-0.140
-185.114	-16.049	0.080	0.050
-184.100	112.580	-0.167	-0.199
-183.085	-63.668	-0.210	-0.085
-182.071	-103.875	-0.136	0.031
-181.056	-62.642	-0.146	-0.060
-180.042	-200.000	-0.051	0.229
-179.027	800.000	-0.107	0.339
-178.012	800.000	-0.119	-0.381
-176.998	352.243	0.147	0.286
-175.983	183.792	-0.021	-0.030
-174.969	402.506	0.038	0.079
-173.954	-21.517	-0.127	0.076
-172.939	800.000	0.066	0.186
-171.925	-200.000	-0.009	0.138
-170.910	-149.111	0.045	0.004
-169.896	-200.000	-0.040	0.320
-168.881	758.189	-0.145	-0.386
-167.866	-63.548	-0.093	0.038
-166.852	455.670	-0.073	0.160
-165.837	12.147	-0.241	0.183
-164.823	116.293	-0.129	-0.156
-163.808	-200.000	-0.022	0.215
-162.793	-51.012	0.181	-0.084
-161.779	-60.694	0.115	-0.048
-160.764	-135.635	0.109	0.013
-159.750	389.685	0.110	0.225
-158.735	526.258	-0.125	0.289
-157.720	354.094	0.094	0.184
-156.706	235.091	-0.220	0.357
-155.691	800.000	0.015	0.049
-154.677	-46.602	0.230	-0.111
-153.662	-120.416	0.324	0.054
-152.647	312.652	-0.096	-0.178
-151.633	59.930	0.148	0.144
-150.618	53.259	0.195	0.184
-149.604	-130.595	-0.146	0.019
-148.589	-158.302	0.132	-0.008
-147.574	393.078	-0.161	-0.329
-146.560	800.000	0.146	-0.462
-145.545	-30.699	-0.088	-0.049
-144.531	-124.880	0.336	0.051
-143.516	531.759	-0.058	-0.136
-142.502	162.541	0.196	-0.271
-141.487	-200.000	0.041	-0.178
-140.472	-126.691	-0.130	0.019
-139.458	-200.000	0.057	-0.301
-138.443	-200.000	-0.020	0.107
-137.429	-74.184	-0.641	0.228
-136.414	-200.000	0.001	0.084
-135.399	-47.976	-0.281	0.134
-134.385	61.920	-0.269	0.263
-133.370	76.319	0.095	0.099
-132.356	-200.000	0.022	0.109
-131.341	13.556	0.109	-0.083
-130.326	728.880	0.075	0.197
-129.312	-200.000	-0.006	0.190
-128.297	-26.003	0.322	-0.186
-127.283	-200.000	0.010	0.127
-126.268	-19.292	0.135	0.082
-125.253	181.661	-0.258	0.373
-124.239	129.011	0.051	-0.063
-123.224	-174.127	-0.286	-0.008
-122.210	248.084	0.051	0.085
