DTS Sentinel unit serial number:	SN413079Multiplexer serial number:	ORYXHardware model number:	OX4-SRSoftware version number:	ORYX F/W v4.00 Oryx Data Collector v3.7.2.0data status	okinstallation	princeton_trtdifferential loss correction	single-endedforward channel	channel 3reverse channel	N/Adate	2019/09/11time	04:54:10forward acquisition time	60.00reverse acquisition time	0.00gamma	496.2192k internal	0.2331k external	0.2331temperature offset calibration	0.9909default loss term (dB/km)	0.3790temperature slope calibration	1.0000multiplexer offset coefficient	1.0000multiplexer slope coefficient	1.0000fibre end	0.00T internal ref (°C)	29.50T ext. ref 1 (°C)	-0.26T ext. ref 2 (°C)	23.24length (m)	temperature (°C)	Stokes	anti-Stokes-747.200	209.848	-0.105	-0.166
-746.185	20.078	0.190	-0.154
-745.171	104.804	-0.281	0.333
-744.156	-83.754	-0.319	0.102
-743.142	-3.725	0.179	0.125
-742.127	-16.425	0.143	0.092
-741.112	-200.000	-0.006	-0.094
-740.098	-116.796	-0.191	0.035
-739.083	-90.157	0.191	-0.056
-738.069	98.990	-0.079	0.092
-737.054	2.978	0.134	0.098
-736.039	3.644	-0.189	-0.138
-735.025	-109.192	0.398	0.085
-734.010	-99.198	-0.494	-0.126
-732.996	98.041	-0.210	0.243
-731.981	23.319	0.144	-0.119
-730.966	227.437	0.084	-0.138
-729.952	-55.198	0.180	0.081
-728.937	800.000	0.032	0.098
-727.923	-55.591	0.308	0.139
-726.908	-34.045	-0.061	0.034
-725.894	-5.315	0.262	0.181
-724.879	179.886	-0.107	-0.158
-723.864	-200.000	-0.031	-0.267
-722.850	-24.708	0.231	-0.138
-721.835	-42.896	-0.198	-0.101
-720.821	-120.702	0.045	-0.008
-719.806	-93.887	0.224	0.062
-718.791	25.370	-0.145	0.122
-717.777	130.549	-0.203	-0.261
-716.762	36.895	-0.247	-0.219
-715.748	-10.053	-0.176	-0.118
-714.733	-35.597	-0.229	-0.125
-713.718	-200.000	0.045	0.245
-712.704	517.955	-0.039	-0.093
-711.689	695.995	-0.062	-0.164
-710.675	-82.696	-0.127	0.041
-709.660	-100.691	-0.189	0.047
-708.645	48.189	0.123	0.115
-707.631	130.554	0.109	-0.141
-706.616	141.219	0.087	-0.115
-705.602	426.807	-0.130	-0.282
-704.587	-63.324	-0.035	0.015
-703.572	248.972	-0.155	-0.264
-702.558	-24.228	-0.219	0.131
-701.543	800.000	-0.079	-0.253
-700.529	32.791	-0.237	-0.206
-699.514	18.556	0.250	0.201
-698.499	-19.315	-0.408	-0.254
-697.485	-101.320	-0.113	0.028
-696.470	1.371	-0.152	0.110
-695.456	-200.000	0.029	-0.152
-694.441	-14.558	0.103	-0.066
-693.426	50.698	-0.058	-0.055
-692.412	193.529	0.026	0.039
-691.397	122.157	-0.157	-0.197
-690.383	800.000	0.102	-0.380
-689.368	-200.000	-0.020	-0.216
-688.354	216.628	0.122	0.195
-687.339	-140.073	-0.260	0.027
-686.324	-200.000	0.008	-0.173
-685.310	138.004	-0.082	-0.108
-684.295	88.078	0.131	0.146
-683.281	546.278	0.064	0.154
-682.266	-90.580	-0.544	-0.158
-681.251	-200.000	-0.001	0.241
-680.237	177.175	0.136	-0.199
-679.222	-40.848	-0.075	0.039
-678.208	-81.627	0.340	0.112
-677.193	525.844	0.073	-0.173
-676.178	605.212	0.130	0.325
-675.164	-200.000	-0.020	-0.157
-674.149	30.180	0.187	0.160
-673.135	-200.000	0.020	-0.128
-672.120	22.154	-0.321	-0.263
-671.105	398.307	0.098	-0.206
-670.091	-67.736	-0.223	0.087
-669.076	-76.809	0.132	0.046
-668.062	-197.856	-0.251	-0.002
-667.047	241.724	0.201	0.337
-666.032	52.628	-0.253	-0.242
-665.018	800.000	0.018	-0.061
-664.003	-200.000	0.005	0.512
-662.989	177.773	-0.180	-0.263
-661.974	-200.000	-0.039	-0.450
-660.959	-76.631	0.127	0.045
-659.945	-12.035	-0.310	0.204
-658.930	-200.000	0.026	0.121
-657.916	-29.286	0.086	-0.049
-656.901	800.000	-0.054	-0.167
-655.886	109.265	-0.138	0.166
-654.872	-191.971	-0.148	-0.001
-653.857	696.107	-0.043	-0.113
-652.843	-36.574	-0.461	-0.249
-651.828	446.678	-0.082	0.182
-650.814	-26.009	0.122	0.072
-649.799	-143.054	-0.076	0.007
-648.784	379.511	0.044	0.090
-647.770	800.000	-0.053	0.153
-646.755	169.843	0.167	-0.239
-645.741	52.363	-0.272	-0.260
-644.726	618.174	-0.055	0.140
-643.711	-151.639	-0.458	0.034
-642.697	800.000	-0.052	-0.159
-641.682	0.004	0.113	-0.080
-640.668	-200.000	0.031	0.213
-639.653	289.813	0.129	-0.235
-638.638	-200.000	-0.004	-0.191
-637.624	108.955	-0.226	0.270
-636.609	279.291	-0.212	0.380
-635.595	593.008	0.109	0.270
-634.580	-83.954	0.119	-0.038
-633.565	-63.629	0.092	-0.038
-632.551	-90.491	-0.156	0.045
-631.536	-200.000	-0.025	-0.297
-630.522	-90.853	-0.095	-0.027
-629.507	94.254	-0.174	-0.198
-628.492	747.960	0.102	0.274
-627.478	-164.504	-0.232	-0.011
-626.463	-128.111	-0.151	-0.022
-625.449	1.061	-0.267	0.192
-624.434	190.545	0.161	-0.242
-623.419	-200.000	-0.081	-0.000
-622.405	-136.245	-0.348	0.041
-621.390	-200.000	-0.025	-0.228
-620.376	-79.906	0.238	-0.080
-619.361	521.159	-0.069	0.162
-618.346	201.177	-0.135	0.208
-617.332	-118.092	-0.192	-0.034
-616.317	-10.112	-0.167	-0.111
-615.303	308.914	-0.093	-0.175
-614.288	55.972	-0.105	-0.102
-613.273	-64.267	0.310	0.126
-612.259	-22.736	-0.067	-0.040
-611.244	262.100	0.166	-0.288
-610.230	-15.322	0.148	-0.095
-609.215	-169.852	-0.317	0.011
-608.201	7.638	0.176	0.132
-607.186	414.541	-0.087	-0.186
-606.171	20.551	0.293	-0.238
-605.157	-132.811	-0.130	0.017
-604.142	-124.493	0.305	-0.048
-603.128	-122.553	-0.451	-0.073
-602.113	-153.727	0.198	-0.014
-601.098	606.483	0.055	-0.137
-600.084	487.242	0.092	-0.211
-599.069	-200.000	0.013	-0.253
-598.055	-200.000	0.023	0.183
-597.040	-137.116	-0.107	0.012
-596.025	423.380	-0.057	-0.123
-595.011	800.000	0.048	-0.157
-593.996	-110.856	-0.164	-0.034
-592.982	-80.751	0.114	0.038
-591.967	800.000	-0.033	0.133
-590.952	373.021	-0.234	-0.475
-589.938	800.000	-0.057	-0.159
-588.923	798.710	-0.054	-0.150
-587.909	-75.129	0.041	-0.014
-586.894	-200.000	-0.028	0.126
-585.879	-200.000	0.045	0.306
-584.865	-179.441	0.174	0.004
-583.850	249.732	-0.256	0.434
-582.836	-200.000	0.019	-0.138
-581.821	-106.853	-0.245	-0.054
-580.806	-157.886	-0.254	-0.015
-579.792	-152.593	-0.261	-0.019
-578.777	160.323	0.021	-0.029
-577.763	-13.535	-0.177	0.115
-576.748	-200.000	-0.013	0.312
-575.733	33.560	0.025	-0.022
-574.719	-17.861	-0.065	-0.041
-573.704	-200.000	0.008	0.065
-572.690	-200.000	-0.025	0.565
-571.675	-151.081	-0.234	-0.018
-570.661	-104.699	0.098	0.023
-569.646	79.933	0.278	-0.299
-568.631	-200.000	0.038	-0.508
-567.617	203.056	0.063	0.097
-566.602	127.881	-0.087	-0.111
-565.588	800.000	0.063	-0.196
-564.573	-55.626	-0.260	-0.116
-563.558	93.780	0.112	0.127
-562.544	161.219	-0.077	-0.108
-561.529	-158.361	0.082	0.005
-560.515	-123.627	-0.209	0.033
-559.500	441.851	-0.177	-0.388
-558.485	205.727	0.162	-0.251
-557.471	-10.978	-0.103	-0.068
-556.456	-200.000	0.066	0.323
-555.442	33.222	0.298	0.258
-554.427	223.157	-0.058	-0.093
-553.412	134.454	-0.169	-0.219
-552.398	139.093	0.039	0.051
-551.383	299.395	-0.145	-0.266
-550.369	-11.829	0.166	-0.109
-549.354	800.000	0.069	-0.286
-548.339	32.548	0.167	-0.144
-547.325	800.000	0.037	0.146
-546.310	617.694	0.105	0.264
-545.296	-70.781	0.419	-0.158
-544.281	-87.228	0.275	-0.083
-543.266	800.000	-0.172	0.720
-542.252	-200.000	-0.067	0.312
-541.237	184.129	-0.177	0.262
-540.223	-200.000	0.023	-0.320
-539.208	171.823	-0.074	0.105
-538.193	-158.403	0.125	0.007
-537.179	800.000	0.018	0.070
-536.164	-104.335	0.270	-0.062
-535.150	-117.008	0.130	-0.024
-534.135	381.783	-0.168	0.345
-533.121	365.471	-0.087	0.176
-532.106	-101.209	0.290	-0.071
-531.091	110.832	0.066	-0.079
-530.077	-15.195	-0.148	0.094
-529.062	-145.294	0.582	0.053
-528.048	41.919	0.024	0.022
-527.033	199.100	0.053	-0.082
-526.018	17.497	-0.154	-0.122
-525.004	359.125	-0.088	-0.175
-523.989	32.693	0.276	-0.239
-522.975	-99.749	-0.108	-0.027
-521.960	-140.072	-0.317	-0.033
-520.945	-200.000	-0.009	0.053
-519.931	-200.000	0.014	-0.341
-518.916	-87.764	0.193	0.058
-517.902	-200.000	-0.015	0.255
-516.887	-200.000	0.050	0.243
-515.872	166.939	-0.242	0.343
-514.858	-54.295	0.202	0.091
-513.843	-200.000	-0.028	-0.178
-512.829	-200.000	-0.035	0.213
-511.814	463.556	0.088	0.196
-510.799	-154.226	-0.253	-0.017
-509.785	523.112	-0.090	-0.210
-508.770	488.590	-0.133	0.302
-507.756	90.594	-0.419	-0.468
-506.741	800.000	-0.042	-0.169
-505.726	28.628	0.141	0.119
-504.712	-54.530	-0.169	0.076
-503.697	-52.829	0.105	0.048
-502.683	800.000	-0.113	-0.404
-501.668	42.954	0.183	-0.166
-500.653	188.583	0.121	-0.181
-499.639	-72.564	0.108	0.040
-498.624	-200.000	0.005	0.196
-497.610	-200.000	0.001	0.308
-496.595	-72.332	0.264	0.097
-495.581	-200.000	0.060	-0.307
-494.566	7.325	-0.330	-0.246
-493.551	123.581	0.076	-0.096
-492.537	-162.652	-0.178	-0.009
-491.522	-131.927	0.351	0.046
-490.508	800.000	-0.103	0.396
-489.493	187.642	0.109	-0.162
-488.478	800.000	0.051	-0.161
-487.464	-56.298	0.011	-0.005
-486.449	296.269	-0.167	0.305
-485.435	-84.580	-0.208	0.065
-484.420	-200.000	-0.024	0.215
-483.405	-200.000	0.005	0.208
-482.391	227.145	-0.040	-0.064
-481.376	800.000	0.062	0.201
-480.362	316.012	-0.069	-0.130
-479.347	32.720	-0.308	0.265
-478.332	-158.244	-0.267	-0.016
-477.318	-114.876	-0.189	0.036
-476.303	800.000	-0.030	0.085
-475.289	800.000	0.090	-0.264
-474.274	268.221	-0.067	0.117
-473.259	-22.642	0.433	-0.261
-472.245	-200.000	0.037	0.366
-471.230	542.736	-0.150	0.356
-470.216	-66.616	-0.504	0.199
-469.201	-200.000	-0.045	0.207
-468.186	186.225	0.115	-0.171
-467.172	70.813	0.201	-0.207
-466.157	800.000	-0.099	0.311
-465.143	235.223	-0.031	-0.050
-464.128	105.953	0.186	0.220
-463.113	-200.000	-0.039	-0.254
-462.099	-192.396	0.100	0.001
-461.084	-113.438	-0.066	0.013
-460.070	-23.145	0.123	-0.074
-459.055	41.217	-0.222	0.200
-458.040	-8.923	0.197	0.131
-457.026	-49.115	-0.180	0.086
-456.011	107.368	-0.094	0.111
-454.997	-200.000	0.001	0.236
-453.982	-200.000	0.039	0.357
-452.968	-200.000	0.051	-0.420
-451.953	185.465	-0.057	-0.085
-450.938	259.245	0.116	-0.199
-449.924	-200.000	-0.030	0.177
-448.909	594.110	0.042	-0.104
-447.895	-24.687	-0.296	-0.175
-446.880	-87.951	0.445	-0.133
-445.865	409.507	-0.057	-0.119
-444.851	-32.806	-0.303	0.168
-443.836	797.840	-0.078	-0.215
-442.822	-36.296	0.338	-0.182
-441.807	-130.402	0.239	0.032
-440.792	-200.000	0.005	0.164
-439.778	83.448	0.183	-0.199
-438.763	371.625	-0.042	0.085
-437.749	-51.885	-0.525	0.243
-436.734	57.265	0.257	-0.250
-435.719	117.318	0.142	0.174
-434.705	149.046	0.135	0.182
-433.690	360.532	-0.119	-0.236
-432.676	166.500	-0.164	0.231
-431.661	218.094	0.041	0.065
-430.646	800.000	0.039	-0.156
-429.632	45.979	-0.086	-0.079
-428.617	90.850	0.229	0.255
-427.603	-137.286	0.207	-0.023
-426.588	163.834	-0.148	0.207
-425.573	800.000	-0.066	0.220
-424.559	108.414	0.295	0.350
-423.544	40.943	-0.241	-0.216
-422.530	118.253	-0.192	0.236
-421.515	-107.822	-0.068	-0.015
-420.500	14.585	0.159	0.123
-419.486	267.432	-0.031	-0.054
-418.471	-151.783	0.296	0.022
-417.457	389.207	0.023	0.047
-416.442	-200.000	-0.023	-0.113
-415.428	207.122	0.044	0.068
-414.413	-200.000	0.038	-0.317
-413.398	138.979	0.097	-0.126
-412.384	-15.001	0.113	0.072
-411.369	116.305	-0.260	-0.316
-410.355	800.000	0.153	-0.513
-409.340	-200.000	0.073	-0.390
-408.325	108.103	0.150	-0.177
-407.311	-200.000	0.049	0.322
-406.296	-78.253	-0.218	0.074
-405.282	-154.338	-0.243	-0.016
-404.267	-200.000	-0.010	0.047
-403.252	-25.760	0.092	0.054
-402.238	348.644	0.053	0.105
-401.223	-200.000	0.061	-0.346
-400.209	-200.000	-0.055	-0.288
-399.194	506.880	0.064	-0.147
-398.179	-84.619	-0.202	-0.063
-397.165	143.179	-0.221	0.292
-396.150	42.973	-0.224	0.203
-395.136	-200.000	-0.002	0.154
-394.121	-200.000	0.032	0.440
-393.106	123.665	0.091	0.114
-392.092	-74.517	0.284	-0.102
-391.077	-87.208	0.195	0.059
-390.063	-89.222	-0.135	-0.039
-389.048	-64.173	0.188	-0.076
-388.033	102.953	-0.299	-0.347
-387.019	270.631	0.149	-0.260
-386.004	-96.583	0.353	-0.092
-384.990	-106.006	-0.123	-0.027
-383.975	-98.465	0.139	-0.035
-382.960	-200.000	0.155	-0.001
-381.946	800.000	-0.071	0.243
-380.931	456.412	0.131	-0.288
-379.917	-6.500	0.208	-0.140
-378.902	-31.808	-0.236	-0.131
-377.888	-200.000	0.007	-0.187
-376.873	-200.000	-0.013	-0.120
-375.858	-200.000	0.031	0.288
-374.844	44.870	0.141	0.129
-373.829	190.096	-0.193	-0.287
-372.815	182.204	0.136	-0.199
-371.800	-200.000	-0.020	0.238
-370.785	-44.951	-0.302	0.149
-369.771	-200.000	0.005	0.216
-368.756	338.688	0.012	-0.023
-367.742	213.489	-0.094	0.147
-366.727	72.311	-0.399	-0.413
-365.712	-78.959	0.253	-0.085
-364.698	15.756	-0.071	0.056
-363.683	-53.027	0.264	-0.121
-362.669	-32.036	0.272	0.151
-361.654	280.812	-0.109	0.194
-360.639	-200.000	-0.019	-0.123
-359.625	275.193	0.065	0.115
-358.610	97.072	0.067	0.076
-357.596	-76.624	0.226	0.079
-356.581	174.203	0.085	-0.122
-355.566	-200.000	-0.028	-0.249
-354.552	-200.000	0.042	0.271
-353.537	-101.162	-0.129	-0.031
-352.523	9.855	-0.128	0.096
-351.508	374.950	0.118	-0.239
-350.493	-200.000	0.065	-0.446
-349.479	800.000	-0.009	0.038
-348.464	-48.241	-0.080	-0.038
-347.450	-200.000	-0.003	0.091
-346.435	336.003	-0.037	0.072
-345.420	-84.119	0.286	0.090
-344.406	292.368	0.066	0.118
-343.391	-71.434	-0.144	-0.054
-342.377	800.000	-0.100	-0.344
-341.362	-50.274	0.051	-0.024
-340.348	-73.281	0.186	-0.067
-339.333	8.857	0.047	0.035
-338.318	17.556	-0.119	-0.094
-337.304	800.000	-0.011	-0.047
-336.289	-112.086	0.285	-0.057
-335.275	46.573	0.131	0.121
-334.260	6.051	-0.049	0.036
-333.245	-134.910	0.332	-0.040
-332.231	99.936	-0.238	-0.273
-331.216	373.234	0.008	-0.016
-330.202	127.905	-0.048	0.060
-329.187	141.231	-0.072	0.095
-328.172	4.086	-0.339	-0.246
-327.158	-29.504	0.189	-0.107
-326.143	-123.277	0.274	-0.043
-325.129	-200.000	0.034	-0.157
-324.114	115.071	-0.050	0.061
-323.099	71.578	0.065	0.067
-322.085	288.610	0.039	-0.070
-321.070	-84.196	-0.253	0.079
-320.056	-200.000	0.013	0.356
-319.041	-24.885	0.113	0.067
-318.026	-200.000	-0.009	-0.192
-317.012	-133.427	-0.264	0.033
-315.997	-81.891	0.635	-0.206
-314.983	-147.932	0.204	-0.017
-313.968	42.138	0.280	-0.252
-312.953	800.000	-0.065	-0.196
-311.939	-167.310	-0.391	0.016
-310.924	-164.684	-0.339	-0.015
-309.910	-103.118	-0.343	0.080
-308.895	-0.012	-0.104	-0.073
-307.880	-200.000	0.028	0.148
-306.866	-200.000	-0.023	-0.132
-305.851	621.943	0.071	-0.178
-304.837	-110.007	-0.199	-0.041
-303.822	101.928	-0.058	0.067
-302.807	129.687	0.064	-0.081
-301.793	89.409	-0.173	-0.190
-300.778	-143.786	0.260	-0.024
-299.764	391.721	0.096	-0.197
-298.749	-21.393	0.134	0.081
-297.735	800.000	0.105	0.358
-296.720	78.131	0.243	0.256
-295.705	21.816	0.244	0.196
-294.691	-200.000	0.033	0.177
-293.676	40.057	0.136	0.121
-292.662	-129.183	-0.254	0.035
-291.647	-18.470	-0.238	-0.147
-290.632	-157.720	-0.176	0.010
-289.618	-110.470	0.297	-0.061
-288.603	-182.991	0.077	-0.001
-287.589	-44.218	0.225	0.112
-286.574	63.508	-0.207	0.205
-285.559	799.630	0.021	-0.057
-284.545	800.000	-0.082	0.251
-283.530	-68.263	-0.140	-0.054
-282.516	800.000	0.071	-0.293
-281.501	-200.000	0.002	-0.215
-280.486	33.167	0.099	0.085
-279.472	-0.181	0.272	-0.191
-278.457	777.584	0.151	0.407
-277.443	-200.000	-0.010	-0.126
-276.428	-70.508	-0.021	0.008
-275.413	126.267	0.123	0.154
-274.399	-110.994	-0.230	-0.047
-273.384	-114.119	-0.162	-0.031
-272.370	-93.650	-0.200	0.055
-271.355	-92.899	-0.267	-0.074
-270.340	-200.000	0.019	0.108
-269.326	800.000	0.146	0.403
-268.311	-69.315	0.179	-0.068
-267.297	22.897	0.186	0.150
-266.282	-72.369	0.441	0.161
-265.267	53.751	0.337	0.320
-264.253	-69.165	0.209	-0.079
-263.238	800.000	-0.090	-0.259
-262.224	-87.504	0.255	0.076
-261.209	121.221	0.067	-0.083
-260.195	333.535	0.097	0.185
-259.180	-139.268	0.157	-0.017
-258.165	-52.219	0.269	-0.123
-257.151	84.557	-0.145	-0.156
-256.136	322.747	-0.159	0.299
-255.122	-25.109	0.062	0.036
-254.107	81.908	-0.265	0.283
-253.092	-200.000	0.023	-0.132
-252.078	148.722	0.171	-0.228
-251.063	172.627	-0.273	-0.388
-250.049	800.000	-0.022	0.063
-249.034	89.636	0.250	-0.276
-248.019	289.763	0.007	-0.013
-247.005	800.000	0.027	-0.093
-245.990	-1.721	-0.085	-0.059
-244.976	424.665	-0.185	0.392
-243.961	-155.453	0.247	-0.016
-242.946	-194.351	-0.155	0.001
-241.932	-166.751	-0.181	0.007
-240.917	-128.033	0.339	0.048
-239.903	-200.000	-0.064	0.279
-238.888	-64.872	0.214	-0.085
-237.873	24.285	-0.147	0.120
-236.859	396.220	0.099	0.203
-235.844	-200.000	-0.017	-0.261
-234.830	351.460	-0.102	-0.199
-233.815	3.948	-0.090	0.065
-232.800	63.064	0.218	-0.215
-231.786	193.433	0.138	0.207
-230.771	-45.355	0.223	-0.109
-229.757	-123.430	0.168	0.026
-228.742	67.526	0.187	0.189
-227.727	-200.000	0.006	-0.095
-226.713	-59.856	0.366	0.154
-225.698	-15.703	0.169	-0.106
-224.684	-24.465	0.167	-0.098
-223.669	-162.868	0.124	-0.006
-222.655	-200.000	-0.003	-0.220
-221.640	-111.375	-0.140	-0.028
-220.625	734.355	-0.128	0.339
-219.611	793.341	0.107	0.289
-218.596	-49.258	-0.246	0.116
-217.582	-41.026	-0.155	0.079
-216.567	30.956	-0.225	0.190
-215.552	38.223	-0.053	0.047
-214.538	-107.884	0.207	0.044
-213.523	29.333	-0.226	-0.189
-212.509	-200.000	-0.022	-0.161
-211.494	-105.945	-0.059	0.013
-210.479	-200.000	0.015	0.123
-209.465	-114.745	0.278	0.052
-208.450	247.024	-0.188	-0.313
-207.436	-63.593	0.186	-0.075
-206.421	168.674	-0.243	0.342
-205.406	52.286	-0.026	-0.025
-204.392	227.149	-0.085	0.136
-203.377	-49.434	-0.291	-0.137
-202.363	22.457	0.086	0.069
-201.348	486.037	0.066	-0.149
-200.333	800.000	-0.063	-0.259
-199.319	238.799	0.064	-0.105
-198.304	-50.578	0.087	-0.040
-197.290	134.445	0.125	-0.160
-196.275	129.388	-0.051	-0.064
-195.260	-93.289	0.102	0.028
-194.246	800.000	0.103	0.405
-193.231	43.491	-0.209	0.188
-192.217	53.697	0.206	-0.195
-191.202	-200.000	0.057	-0.438
-190.187	-200.000	-0.068	0.407
-189.173	27.450	0.029	-0.024
-188.158	167.672	-0.126	0.177
-187.144	-99.472	0.122	0.030
-186.129	340.840	-0.076	0.146
-185.114	146.745	0.160	0.211
-184.100	163.059	-0.074	-0.102
-183.085	-200.000	-0.015	0.189
-182.071	-166.578	-0.395	0.016
-181.056	-0.903	0.060	-0.042
-180.042	-9.351	-0.238	-0.156
-179.027	-200.000	-0.039	-0.240
-178.012	-200.000	0.049	0.212
-176.998	58.882	-0.196	-0.190
-175.983	398.200	-0.071	0.146
-174.969	-200.000	-0.002	0.122
-173.954	-200.000	0.032	-0.231
-172.939	800.000	0.015	0.060
-171.925	583.225	-0.111	0.268
-170.910	-11.002	-0.180	0.117
-169.896	-120.729	0.249	-0.041
-168.881	-45.137	-0.326	0.160
-167.866	54.651	0.164	-0.156
-166.852	-6.870	-0.153	0.102
-165.837	-122.402	0.152	-0.024
-164.823	-200.000	-0.038	0.338
-163.808	-200.000	0.021	0.117
-162.793	-88.511	-0.312	0.092
-161.779	-145.788	-0.031	0.003
-160.764	-112.578	-0.150	0.029
-159.750	276.812	-0.166	-0.291
-158.735	-13.154	-0.148	0.095
-157.720	800.000	-0.082	-0.246
-156.706	-200.000	-0.025	0.213
-155.691	-70.012	-0.048	-0.018
-154.677	32.289	0.083	0.070
-153.662	26.248	0.236	-0.194
-152.647	608.230	-0.098	-0.240
-151.633	-200.000	-0.021	0.443
-150.618	15.426	-0.154	-0.119
-149.604	-59.086	0.144	0.061
-148.589	-6.513	0.172	0.115
-147.574	-93.293	0.098	0.027
-146.560	-74.077	-0.289	-0.103
-145.545	800.000	0.055	0.182
-144.531	175.590	-0.159	-0.226
-143.516	-200.000	0.016	-0.072
-142.502	790.472	-0.072	0.195
-141.487	86.880	0.148	0.160
-140.472	-200.000	0.041	-0.229
-139.458	23.737	-0.386	-0.312
-138.443	-200.000	-0.008	-0.352
-137.429	-200.000	-0.032	0.425
-136.414	286.719	-0.336	0.597
-135.399	238.033	0.019	0.031
-134.385	-52.847	-0.065	-0.029
-133.370	38.755	-0.362	-0.317
-132.356	-157.173	0.164	-0.010
-131.341	699.022	0.083	0.215
-130.326	800.000	-0.070	-0.204
-129.312	-132.609	-0.220	-0.028
-128.297	-114.263	-0.376	-0.071
-127.283	-200.000	-0.007	-0.635
-126.268	-200.000	-0.059	-0.279
-125.253	800.000	0.112	-0.465
-124.239	25.244	-0.288	0.235
-123.224	-200.000	-0.016	0.317
-122.210	68.838	-0.076	-0.077
