DTS Sentinel unit serial number:	SN413079Multiplexer serial number:	ORYXHardware model number:	OX4-SRSoftware version number:	ORYX F/W v4.00 Oryx Data Collector v3.7.2.0data status	okinstallation	princeton_trtdifferential loss correction	single-endedforward channel	channel 3reverse channel	N/Adate	2019/09/11time	20:02:11forward acquisition time	60.00reverse acquisition time	0.00gamma	496.2192k internal	0.2301k external	0.2301temperature offset calibration	1.0024default loss term (dB/km)	0.3790temperature slope calibration	1.0000multiplexer offset coefficient	1.0000multiplexer slope coefficient	1.0000fibre end	0.00T internal ref (°C)	38.73T ext. ref 1 (°C)	1.39T ext. ref 2 (°C)	31.99length (m)	temperature (°C)	Stokes	anti-Stokes-747.200	-117.904	-0.121	-0.022
-746.185	242.336	-0.030	-0.051
-745.171	-144.746	-0.306	-0.029
-744.156	-200.000	0.069	0.456
-743.142	184.407	0.173	0.261
-742.127	-31.801	-0.048	-0.028
-741.112	-200.000	0.001	0.252
-740.098	-9.539	0.186	0.126
-739.083	229.600	0.077	0.128
-738.069	-200.000	-0.008	0.114
-737.054	-200.000	-0.038	-0.287
-736.039	-59.172	-0.384	0.169
-735.025	-200.000	0.010	-0.067
-734.010	-26.924	-0.393	-0.234
-732.996	55.529	-0.127	-0.125
-731.981	800.000	0.066	-0.206
-730.966	-152.114	-0.256	0.019
-729.952	-200.000	0.015	0.241
-728.937	-88.245	0.035	0.011
-727.923	340.764	0.241	-0.480
-726.908	-25.476	-0.234	-0.141
-725.894	-200.000	-0.001	-0.123
-724.879	231.720	-0.194	-0.324
-723.864	55.366	-0.342	-0.337
-722.850	-18.687	-0.115	-0.073
-721.835	-64.052	-0.102	0.042
-720.821	-34.473	-0.173	-0.097
-719.806	-105.781	0.212	-0.049
-718.791	270.080	0.125	-0.224
-717.777	203.568	-0.185	-0.291
-716.762	25.342	0.145	-0.123
-715.748	442.162	-0.154	-0.343
-714.733	-108.729	-0.217	0.047
-713.718	85.391	-0.126	-0.140
-712.704	-149.810	0.168	-0.013
-711.689	17.125	-0.072	-0.058
-710.675	-110.144	0.222	-0.047
-709.660	-84.532	0.217	0.070
-708.645	15.932	-0.142	-0.114
-707.631	800.000	-0.033	0.095
-706.616	170.846	0.123	-0.179
-705.602	33.975	0.280	0.248
-704.587	-49.838	-0.180	0.087
-703.572	389.107	0.082	-0.173
-702.558	17.403	0.331	-0.268
-701.543	340.924	-0.052	0.103
-700.529	-57.638	0.173	0.077
-699.514	-48.696	-0.202	0.099
-698.499	99.950	-0.055	-0.065
-697.485	-111.542	-0.191	0.040
-696.470	654.886	-0.159	0.416
-695.456	49.701	0.177	0.170
-694.441	-79.600	-0.345	-0.118
-693.426	-200.000	-0.042	0.194
-692.412	-15.159	-0.215	0.140
-691.397	52.635	0.098	-0.096
-690.383	-62.193	0.236	0.100
-689.368	800.000	-0.068	0.237
-688.354	-200.000	0.014	0.197
-687.339	-127.778	-0.216	0.032
-686.324	-143.573	-0.410	-0.040
-685.310	-200.000	-0.028	-0.294
-684.295	-46.756	-0.252	-0.125
-683.281	800.000	-0.077	0.255
-682.266	-158.117	0.442	0.026
-681.251	49.274	-0.262	-0.250
-680.237	731.770	-0.081	0.219
-679.222	482.309	0.005	0.012
-678.208	-136.218	0.265	-0.031
-677.193	3.562	-0.163	0.121
-676.178	17.510	0.265	0.214
-675.164	-200.000	-0.041	-0.283
-674.149	-18.687	-0.264	-0.168
-673.135	-104.989	-0.538	-0.125
-672.120	-140.016	0.126	0.013
-671.105	-118.386	-0.247	-0.045
-670.091	800.000	0.064	-0.258
-669.076	-19.572	-0.106	0.067
-668.062	-200.000	0.013	0.111
-667.047	236.346	-0.054	-0.092
-666.032	-12.258	0.165	-0.110
-665.018	63.584	-0.066	-0.067
-664.003	-102.908	-0.298	-0.072
-662.989	176.232	-0.042	-0.063
-661.974	-55.419	-0.204	0.093
-660.959	-1.313	0.153	0.110
-659.945	-26.651	0.245	0.146
-658.930	221.741	-0.130	-0.212
-657.916	-157.205	-0.283	0.017
-656.901	796.314	0.021	-0.058
-655.886	-200.000	-0.001	-0.109
-654.872	800.000	0.145	-0.494
-653.857	161.129	0.133	-0.190
-652.843	-78.734	0.068	0.023
-651.828	-175.743	-0.200	0.005
-650.814	137.646	0.224	0.298
-649.799	-200.000	-0.022	0.190
-648.784	324.857	-0.179	-0.347
-647.770	7.296	-0.140	-0.106
-646.755	126.776	-0.106	0.136
-645.741	-4.639	0.105	0.074
-644.726	-42.029	-0.163	0.085
-643.711	800.000	-0.118	-0.404
-642.697	-101.262	0.220	0.055
-641.682	-17.371	0.306	0.196
-640.668	158.037	-0.112	0.157
-639.653	-70.602	-0.137	-0.053
-638.638	-71.464	-0.359	0.137
-637.624	24.961	-0.036	-0.030
-636.609	-175.240	0.314	0.009
-635.595	-200.000	0.002	0.037
-634.580	194.579	-0.213	-0.328
-633.565	188.013	0.152	-0.231
-632.551	178.780	-0.189	0.281
-631.536	-61.608	0.143	0.061
-630.522	328.315	-0.147	0.286
-629.507	-200.000	0.009	0.048
-628.492	-87.883	-0.236	0.072
-627.478	-31.690	0.293	-0.167
-626.463	-91.095	0.266	0.077
-625.449	16.821	-0.136	-0.109
-624.434	647.353	0.127	0.330
-623.419	800.000	0.047	0.151
-622.405	-200.000	0.031	0.202
-621.390	-200.000	-0.013	-0.352
-620.376	800.000	-0.068	-0.197
-619.361	-200.000	0.136	-0.611
-618.346	169.679	-0.036	-0.053
-617.332	-115.786	0.263	0.050
-616.317	77.441	0.176	-0.190
-615.303	-200.000	-0.012	0.246
-614.288	9.964	0.186	0.143
-613.273	23.618	0.181	0.151
-612.259	-129.104	0.219	0.031
-611.244	-200.000	-0.009	-0.130
-610.230	800.000	0.045	0.191
-609.215	-82.956	0.196	-0.064
-608.201	729.436	0.050	-0.136
-607.186	-200.000	-0.001	-0.317
-606.171	-200.000	0.003	-0.238
-605.157	-16.022	-0.270	0.174
-604.142	-200.000	0.001	0.131
-603.128	-200.000	-0.057	0.501
-602.113	800.000	-0.030	-0.089
-601.098	-4.816	0.249	-0.174
-600.084	48.576	0.188	0.178
-599.069	800.000	-0.066	-0.190
-598.055	-85.749	0.179	-0.056
-597.040	265.308	-0.116	0.206
-596.025	-15.313	-0.096	0.062
-595.011	800.000	-0.075	0.321
-593.996	312.347	-0.057	0.108
-592.982	-175.172	-0.123	-0.003
-591.967	87.345	0.072	-0.080
-590.952	-102.769	-0.319	-0.077
-589.938	64.441	-0.035	-0.036
-588.923	-185.711	-0.095	0.001
-587.909	-155.013	-0.208	0.014
-586.894	-70.524	0.337	-0.129
-585.879	-200.000	0.015	-0.196
-584.865	-102.571	0.105	-0.025
-583.850	-131.068	-0.096	-0.013
-582.836	791.835	-0.031	0.085
-581.821	-200.000	-0.045	0.423
-580.806	55.990	-0.116	-0.114
-579.792	-51.229	0.179	-0.085
-578.777	19.148	0.173	0.141
-577.763	478.817	-0.103	0.237
-576.748	106.693	0.213	0.256
-575.733	-88.998	-0.388	0.116
-574.719	-55.727	-0.315	-0.143
-573.704	-173.008	-0.158	0.005
-572.690	-156.661	0.111	0.007
-571.675	35.057	-0.298	-0.264
-570.661	-158.464	-0.308	0.018
-569.646	-84.446	0.202	0.065
-568.631	-118.028	0.087	0.016
-567.617	433.375	0.214	0.470
-566.602	-86.788	0.117	0.036
-565.588	-42.218	0.048	-0.025
-564.573	74.602	-0.144	0.154
-563.558	-150.262	0.172	-0.013
-562.544	539.495	0.081	-0.195
-561.529	-200.000	-0.002	0.315
-560.515	-200.000	-0.037	0.215
-559.500	-200.000	0.024	0.309
-558.485	112.868	-0.203	-0.249
-557.471	330.854	-0.177	0.345
-556.456	13.575	-0.247	0.194
-555.442	-105.796	0.311	-0.071
-554.427	-72.172	0.177	0.066
-553.412	119.512	-0.041	-0.051
-552.398	26.574	-0.164	-0.139
-551.383	-200.000	0.007	-0.345
-550.369	-200.000	0.010	-0.156
-549.354	-200.000	0.011	-0.076
-548.339	-154.547	0.270	0.018
-547.325	800.000	0.044	0.129
-546.310	-85.825	0.359	-0.113
-545.296	-200.000	0.007	-0.180
-544.281	-60.815	-0.228	-0.098
-543.266	39.392	-0.114	-0.103
-542.252	59.510	-0.157	0.157
-541.237	588.185	0.086	0.214
-540.223	534.041	0.118	0.282
-539.208	-129.911	0.199	-0.028
-538.193	319.313	0.070	-0.134
-537.179	-72.861	0.137	-0.051
-536.164	-43.365	-0.288	0.147
-535.150	4.978	0.294	0.219
-534.135	53.651	0.201	0.195
-533.121	732.668	0.072	0.194
-532.106	541.278	-0.108	-0.260
-531.091	-114.741	-0.168	0.033
-530.077	800.000	-0.073	-0.264
-529.062	328.609	0.068	0.132
-528.048	-200.000	-0.024	-0.114
-527.033	-160.251	-0.022	0.001
-526.018	56.348	-0.253	0.249
-525.004	800.000	0.060	-0.177
-523.989	-120.444	-0.149	-0.026
-522.975	800.000	-0.037	-0.131
-521.960	53.065	0.014	-0.014
-520.945	61.579	0.128	0.129
-519.931	-1.889	-0.119	-0.085
-518.916	-200.000	-0.012	-0.372
-517.902	622.445	0.107	-0.273
-516.887	-153.088	-0.075	-0.005
-515.872	-121.288	0.415	-0.070
-514.858	-200.000	-0.014	0.123
-513.843	-2.193	0.124	-0.088
-512.829	245.834	-0.145	-0.246
-511.814	-62.275	-0.071	-0.030
-510.799	9.079	-0.131	-0.100
-509.785	-110.055	-0.433	-0.091
-508.770	111.938	-0.169	-0.206
-507.756	-92.731	-0.180	0.051
-506.741	82.274	0.230	-0.252
-505.726	452.718	0.068	-0.152
-504.712	-51.300	-0.205	-0.097
-503.697	171.432	-0.022	-0.032
-502.683	-116.194	0.309	-0.058
-501.668	-35.157	0.308	0.169
-500.653	405.356	0.085	0.182
-499.639	-49.859	0.463	0.222
-498.624	-200.000	0.018	0.102
-497.610	183.264	0.116	-0.173
-496.595	-200.000	-0.017	0.237
-495.581	580.247	0.070	0.172
-494.566	-200.000	-0.026	-0.145
-493.551	-120.755	0.254	-0.043
-492.537	-66.525	0.051	-0.021
-491.522	214.234	-0.052	-0.083
-490.508	-88.204	-0.204	-0.062
-489.493	-68.849	0.151	-0.059
-488.478	141.085	0.103	0.137
-487.464	56.013	0.201	0.197
-486.449	99.963	-0.192	0.224
-485.435	-157.488	-0.074	-0.004
-484.420	244.902	0.135	-0.229
-483.405	57.894	-0.168	0.166
-482.391	186.830	-0.152	0.229
-481.376	-120.951	0.032	0.005
-480.362	800.000	-0.050	0.198
-479.347	-29.451	-0.092	0.053
-478.332	800.000	-0.098	-0.301
-477.318	-97.808	0.261	-0.068
-476.303	18.213	0.258	0.208
-475.289	156.910	0.093	0.130
-474.274	470.416	-0.136	0.309
-473.259	107.177	0.161	0.193
-472.245	608.106	0.065	-0.163
-471.230	-178.595	-0.343	0.008
-470.216	684.047	0.016	-0.042
-469.201	329.119	-0.141	-0.273
-468.186	-107.834	-0.255	0.056
-467.172	-167.176	-0.017	0.001
-466.157	-200.000	0.017	-0.314
-465.143	-200.000	0.006	-0.086
-464.128	-99.089	0.293	0.075
-463.113	271.316	-0.050	-0.088
-462.099	800.000	0.113	-0.459
-461.084	-111.931	-0.126	-0.026
-460.070	800.000	0.022	-0.063
-459.055	56.318	0.222	-0.217
-458.040	527.045	-0.089	0.213
-457.026	138.311	-0.062	-0.083
-456.011	800.000	-0.037	-0.153
-454.997	-200.000	0.006	-0.090
-453.982	82.162	0.120	-0.132
-452.968	800.000	0.023	-0.076
-451.953	17.382	0.121	0.096
-450.938	287.527	0.106	0.194
-449.924	-107.914	0.146	-0.032
-448.909	80.627	0.061	0.066
-447.895	-53.423	-0.132	-0.061
-446.880	-103.919	0.092	-0.022
-445.865	112.050	0.156	-0.190
-444.851	-22.603	-0.317	0.193
-443.836	-200.000	-0.010	0.246
-442.822	85.856	-0.103	0.114
-441.807	-131.041	-0.274	0.037
-440.792	-81.125	0.176	-0.059
-439.778	-200.000	-0.021	0.484
-438.763	213.427	-0.153	-0.243
-437.749	-74.717	-0.084	-0.030
-436.734	94.813	0.191	-0.219
-435.719	171.690	-0.221	-0.320
-434.705	40.584	0.116	-0.105
-433.690	-92.003	-0.235	0.067
-432.676	96.642	0.031	-0.036
-431.661	-77.959	-0.259	0.090
-430.646	-141.032	0.195	0.020
-429.632	-154.249	0.315	0.021
-428.617	-29.151	-0.172	0.100
-427.603	491.432	0.024	0.056
-426.588	210.532	-0.219	0.347
-425.573	-65.494	-0.245	0.099
-424.559	-12.812	0.326	0.214
-423.544	-12.448	-0.111	-0.073
-422.530	3.745	0.087	-0.064
-421.515	140.391	-0.150	-0.199
-420.500	-97.827	-0.389	-0.101
-419.486	800.000	0.145	0.404
-418.471	-130.662	-0.089	-0.012
-417.457	314.188	0.080	-0.152
-416.442	-69.711	0.174	-0.067
-415.428	-200.000	0.030	-0.137
-414.413	-11.080	0.124	0.082
-413.398	79.825	0.324	-0.350
-412.384	61.273	-0.262	0.262
-411.369	-84.152	-0.173	0.055
-410.355	-152.006	-0.324	-0.024
-409.340	-133.493	0.170	0.021
-408.325	23.147	0.146	-0.121
-407.311	-200.000	0.018	0.136
-406.296	410.319	-0.089	-0.190
-405.282	-84.254	0.083	0.027
-404.267	-200.000	-0.001	0.148
-403.252	-44.962	0.160	-0.080
-402.238	50.665	0.168	-0.160
-401.223	-3.068	0.151	0.106
-400.209	35.362	0.139	-0.123
-399.194	-17.315	0.198	0.125
-398.179	-52.440	0.137	0.064
-397.165	10.842	-0.101	-0.078
-396.150	-62.848	0.246	-0.103
-395.136	-50.053	-0.270	-0.129
-394.121	-117.420	0.202	0.037
-393.106	45.013	-0.200	0.186
-392.092	-58.327	-0.117	-0.051
-391.077	355.291	0.155	0.311
-390.063	118.488	0.059	0.074
-389.048	-13.139	0.176	0.115
-388.033	-98.151	-0.153	0.040
-387.019	-75.746	-0.055	0.020
-386.004	370.310	0.093	-0.189
-384.990	-200.000	-0.014	-0.185
-383.975	61.911	-0.095	0.096
-382.960	80.318	-0.020	-0.022
-381.946	37.580	-0.062	-0.056
-380.931	-200.000	-0.006	0.401
-379.917	800.000	-0.047	0.157
-378.902	-68.605	-0.162	0.063
-377.888	246.826	0.135	0.229
-376.873	14.799	-0.054	0.043
-375.858	-200.000	0.033	0.519
-374.844	-200.000	-0.022	-0.126
-373.829	500.839	-0.036	-0.083
-372.815	-70.113	-0.260	0.099
-371.800	-98.141	-0.139	-0.036
-370.785	-53.220	0.206	0.095
-369.771	-73.772	-0.161	0.059
-368.756	73.103	-0.159	-0.168
-367.742	-17.370	0.224	-0.142
-366.727	800.000	-0.062	-0.222
-365.712	5.844	-0.156	0.116
-364.698	-200.000	0.004	0.161
-363.683	-197.770	-0.128	-0.001
-362.669	579.728	0.159	-0.391
-361.654	785.334	-0.086	0.238
-360.639	-105.852	-0.042	-0.010
-359.625	160.161	-0.078	0.109
-358.610	800.000	-0.025	0.078
-357.596	-44.334	0.026	-0.013
-356.581	319.529	0.113	0.215
-355.566	-141.163	-0.159	0.016
-354.552	21.854	-0.017	0.014
-353.537	-105.277	0.260	0.059
-352.523	-102.502	0.156	0.038
-351.508	-94.760	-0.157	0.043
-350.493	-133.630	-0.599	-0.075
-349.479	-23.287	0.128	0.077
-348.464	-135.026	-0.270	0.033
-347.450	-102.486	-0.290	-0.070
-346.435	-200.000	-0.016	0.102
-345.420	217.125	-0.156	-0.250
-344.406	690.835	-0.142	0.373
-343.391	-1.267	-0.055	0.039
-342.377	-55.863	-0.229	-0.103
-341.362	-49.797	-0.244	0.116
-340.348	-80.419	0.236	-0.079
-339.333	201.442	0.099	0.154
-338.318	-132.936	0.155	0.020
-337.304	-200.000	-0.041	-0.276
-336.289	-200.000	0.014	-0.262
-335.275	13.678	-0.182	0.142
-334.260	-72.865	0.194	-0.071
-333.245	800.000	0.161	-0.462
-332.231	-200.000	0.006	-0.098
-331.216	66.546	0.117	-0.119
-330.202	-158.097	0.269	-0.016
-329.187	-200.000	0.019	0.140
-328.172	-106.002	0.121	-0.027
-327.158	-93.212	0.479	0.134
-326.143	53.820	0.100	-0.096
-325.129	-200.000	-0.030	-0.329
-324.114	-83.127	-0.196	0.063
-323.099	290.827	-0.125	-0.228
-322.085	-200.000	0.008	0.104
-321.070	-107.093	0.260	-0.057
-320.056	268.215	0.193	-0.339
-319.041	-125.651	-0.145	-0.022
-318.026	-97.401	-0.274	-0.072
-317.012	-116.634	-0.233	0.043
-315.997	112.685	-0.050	0.061
-314.983	135.942	0.112	0.146
-313.968	284.760	0.096	0.174
-312.953	75.322	-0.192	-0.203
-311.939	-200.000	-0.012	-0.278
-310.924	800.000	0.082	0.290
-309.910	-19.414	0.369	-0.229
-308.895	196.085	-0.200	-0.305
-307.880	-143.448	-0.175	-0.017
-306.866	800.000	-0.070	0.287
-305.851	-72.101	-0.341	0.127
-304.837	-146.341	0.219	-0.019
-303.822	111.520	0.195	-0.236
-302.807	533.251	0.215	0.509
-301.793	-200.000	-0.038	-0.263
-300.778	174.659	-0.071	0.103
-299.764	800.000	-0.034	0.099
-298.749	-34.771	-0.316	-0.173
-297.735	-59.051	-0.297	-0.128
-296.720	-200.000	0.048	0.239
-295.705	800.000	-0.025	-0.071
-294.691	267.290	-0.240	0.420
-293.676	-200.000	-0.013	0.105
-292.662	145.820	0.121	0.163
-291.647	-64.317	0.203	-0.083
-290.632	208.878	0.111	-0.174
-289.618	514.228	-0.077	0.181
-288.603	179.283	-0.108	0.159
-287.589	190.274	0.065	-0.098
-286.574	-200.000	0.008	0.251
-285.559	-70.450	0.126	0.048
-284.545	93.905	0.269	0.305
-283.530	-137.722	0.253	-0.028
-282.516	-161.120	-0.353	-0.018
-281.501	131.360	0.083	-0.106
-280.486	-140.346	0.242	0.025
-279.472	45.209	0.124	0.114
-278.457	-146.446	-0.337	-0.029
-277.443	-123.333	0.155	-0.025
-276.428	-125.254	0.330	-0.050
-275.413	-200.000	0.025	0.165
-274.399	234.401	-0.164	-0.271
-273.384	-200.000	0.010	0.175
-272.370	-61.940	0.222	0.093
-271.355	-87.756	-0.207	0.062
-270.340	-132.153	-0.328	-0.043
-269.326	169.255	0.207	0.296
-268.311	-200.000	0.037	0.279
-267.297	-66.285	-0.231	0.092
-266.282	-156.745	0.174	-0.011
-265.267	-98.032	-0.253	-0.065
-264.253	8.023	-0.217	0.163
-263.238	-38.954	-0.195	0.103
-262.224	-52.307	0.317	-0.147
-261.209	277.854	-0.035	0.063
-260.195	-89.961	-0.334	-0.098
-259.180	491.285	-0.098	-0.224
-258.165	-22.303	-0.140	0.085
-257.151	-200.000	0.051	0.268
-256.136	-123.655	0.125	-0.020
-255.122	357.272	0.142	-0.283
-254.107	-200.000	-0.038	-0.234
-253.092	-44.842	0.269	0.134
-252.078	-58.446	0.196	0.085
-251.063	-89.477	0.046	0.014
-250.049	-91.695	0.081	0.023
-249.034	320.473	-0.023	-0.044
-248.019	118.079	-0.148	-0.183
-247.005	800.000	-0.078	0.320
-245.990	-62.034	0.304	0.127
-244.976	-200.000	-0.026	0.309
-243.961	800.000	-0.028	-0.121
-242.946	11.233	-0.141	0.108
-241.932	196.122	-0.133	-0.202
-240.917	-31.492	0.144	-0.081
-239.903	230.105	0.188	-0.307
-238.888	55.407	0.293	-0.284
-237.873	-38.279	0.091	-0.048
-236.859	-200.000	-0.007	-0.065
-235.844	-60.006	0.278	-0.119
-234.830	-200.000	0.024	-0.281
-233.815	-53.698	-0.206	0.094
-232.800	145.682	0.139	0.186
-231.786	-85.387	-0.132	-0.041
-230.771	-180.665	0.524	0.011
-229.757	175.165	0.141	-0.204
-228.742	-138.602	0.065	0.007
-227.727	543.804	0.065	0.155
-226.713	731.611	0.167	0.445
-225.698	42.511	0.193	-0.175
-224.684	297.517	0.099	-0.181
-223.669	-99.182	-0.163	-0.041
-222.655	29.170	-0.027	0.023
-221.640	-79.571	-0.236	0.079
-220.625	148.663	-0.069	0.092
-219.611	-98.826	0.189	-0.048
-218.596	-200.000	0.026	-0.153
-217.582	-171.238	0.325	0.011
-216.567	-200.000	0.008	-0.395
-215.552	-65.145	-0.099	-0.040
-214.538	178.487	0.121	-0.176
-213.523	-200.000	-0.057	-0.393
-212.509	-45.158	-0.272	0.135
-211.494	800.000	0.083	-0.276
-210.479	-59.528	0.095	0.041
-209.465	-200.000	0.045	-0.254
-208.450	-200.000	0.035	-0.238
-207.436	-94.841	-0.325	-0.088
-206.421	602.188	-0.105	-0.262
-205.406	-200.000	0.018	0.393
-204.392	-28.268	-0.167	0.096
-203.377	56.615	-0.126	-0.122
-202.363	131.278	-0.101	-0.130
-201.348	800.000	-0.013	0.036
-200.333	349.187	-0.036	0.071
-199.319	104.914	-0.174	0.205
-198.304	-70.360	0.194	0.073
-197.290	189.319	0.231	0.345
-196.275	84.810	0.243	-0.265
-195.260	-98.140	0.253	0.065
-194.246	424.697	0.029	0.062
-193.231	114.596	-0.177	0.215
-192.217	-14.020	-0.360	-0.232
-191.202	241.813	-0.145	-0.242
-190.187	800.000	-0.040	0.116
-189.173	-200.000	-0.070	-0.341
-188.158	650.095	-0.025	-0.063
-187.144	351.004	-0.193	-0.381
-186.129	161.698	-0.092	-0.129
-185.114	-200.000	-0.011	-0.072
-184.100	-200.000	-0.014	-0.284
-183.085	54.502	-0.219	-0.211
-182.071	800.000	0.074	-0.225
-181.056	-72.172	0.366	-0.135
-180.042	2.494	-0.091	0.066
-179.027	800.000	-0.032	-0.099
-178.012	24.669	-0.216	0.178
-176.998	613.681	-0.062	0.154
-175.983	170.775	0.125	-0.179
-174.969	-200.000	-0.031	0.201
-173.954	800.000	-0.049	0.167
-172.939	273.334	-0.196	0.346
-171.925	164.497	0.186	-0.262
-170.910	44.520	-0.056	0.052
-169.896	-43.980	-0.448	-0.224
-168.881	-200.000	-0.000	0.092
-167.866	536.206	0.111	-0.262
-166.852	565.569	-0.104	0.252
-165.837	800.000	0.065	0.232
-164.823	800.000	0.028	0.100
-163.808	-200.000	0.008	-0.160
-162.793	-118.421	-0.222	0.039
-161.779	67.732	-0.208	-0.212
-160.764	136.006	-0.069	-0.090
-159.750	-91.863	-0.022	-0.006
-158.735	7.142	-0.158	0.118
-157.720	-175.607	-0.062	0.002
-156.706	-3.092	0.255	0.178
-155.691	800.000	-0.062	0.228
-154.677	26.830	0.109	0.091
-153.662	517.722	0.017	-0.039
-152.647	-78.181	-0.057	0.020
-151.633	0.847	0.038	-0.027
-150.618	-120.988	-0.408	0.068
-149.604	-7.428	-0.151	-0.102
-148.589	-39.337	0.209	0.109
-147.574	-41.032	0.183	0.094
-146.560	9.387	-0.194	0.147
-145.545	-28.539	0.253	0.145
-144.531	229.993	-0.044	0.072
-143.516	800.000	-0.094	-0.270
-142.502	800.000	-0.105	0.314
-141.487	135.331	0.197	0.255
-140.472	-113.357	0.078	0.015
-139.458	-125.471	-0.121	-0.018
-138.443	-65.553	-0.424	-0.170
-137.429	-200.000	-0.012	0.270
-136.414	494.107	0.084	-0.192
-135.399	-200.000	0.001	-0.199
-134.385	99.946	-0.116	0.134
-133.370	286.105	-0.112	0.200
-132.356	800.000	-0.055	-0.177
-131.341	444.282	-0.067	0.146
-130.326	61.296	0.202	0.200
-129.312	-0.865	-0.318	0.224
-128.297	-23.455	-0.165	-0.099
-127.283	506.569	-0.106	-0.245
-126.268	23.748	0.074	-0.061
-125.253	-112.261	0.078	0.015
-124.239	-76.020	0.120	0.042
-123.224	-61.685	0.149	0.062
-122.210	-200.000	0.017	0.141
