DTS Sentinel unit serial number:	SN413079Multiplexer serial number:	ORYXHardware model number:	OX4-SRSoftware version number:	ORYX F/W v4.00 Oryx Data Collector v3.7.2.0data status	okinstallation	princeton_trtdifferential loss correction	single-endedforward channel	channel 3reverse channel	N/Adate	2019/09/11time	01:42:10forward acquisition time	60.00reverse acquisition time	0.00gamma	496.2192k internal	0.2332k external	0.2332temperature offset calibration	0.9914default loss term (dB/km)	0.3790temperature slope calibration	1.0000multiplexer offset coefficient	1.0000multiplexer slope coefficient	1.0000fibre end	0.00T internal ref (°C)	29.16T ext. ref 1 (°C)	-0.30T ext. ref 2 (°C)	23.40length (m)	temperature (°C)	Stokes	anti-Stokes-747.200	-3.182	0.105	-0.074
-746.185	800.000	0.120	-0.339
-745.171	-103.515	-0.157	-0.037
-744.156	800.000	-0.068	0.263
-743.142	-71.275	-0.143	-0.054
-742.127	-73.218	-0.637	-0.235
-741.112	-200.000	0.002	0.008
-740.098	-200.000	0.029	0.191
-739.083	800.000	-0.047	-0.166
-738.069	41.979	-0.270	-0.246
-737.054	501.272	-0.067	0.156
-736.039	-47.305	-0.217	-0.106
-735.025	-173.807	0.527	0.016
-734.010	67.888	0.097	0.100
-732.996	274.897	-0.054	0.097
-731.981	-151.277	-0.412	-0.031
-730.966	-102.855	-0.477	0.114
-729.952	-37.375	0.241	-0.129
-728.937	268.514	-0.201	-0.355
-727.923	628.205	0.151	-0.383
-726.908	373.952	-0.070	0.144
-725.894	119.455	-0.417	-0.519
-724.879	-51.344	0.292	-0.137
-723.864	91.907	0.061	0.069
-722.850	-200.000	0.012	0.160
-721.835	-19.102	-0.426	0.266
-720.821	465.334	-0.083	0.187
-719.806	96.712	-0.083	0.096
-718.791	316.078	0.036	-0.068
-717.777	20.346	0.072	0.058
-716.762	83.649	-0.062	0.068
-715.748	16.161	0.128	-0.101
-714.733	-64.838	-0.102	-0.042
-713.718	-124.598	0.086	-0.013
-712.704	-124.019	-0.299	-0.047
-711.689	-112.585	-0.325	0.065
-710.675	48.965	-0.060	0.057
-709.660	92.088	0.215	0.243
-708.645	-39.912	0.142	0.075
-707.631	-163.243	0.270	-0.013
-706.616	20.108	-0.109	0.088
-705.602	-194.811	0.239	-0.002
-704.587	-116.492	-0.127	-0.024
-703.572	160.857	0.167	-0.234
-702.558	-111.714	0.060	-0.012
-701.543	40.663	-0.210	0.190
-700.529	-200.000	-0.016	0.146
-699.514	-200.000	-0.017	-0.227
-698.499	189.415	-0.112	-0.168
-697.485	646.345	0.068	-0.174
-696.470	-83.851	0.103	-0.033
-695.456	317.520	0.069	-0.131
-694.441	110.648	-0.051	-0.061
-693.426	123.849	0.138	-0.174
-692.412	111.605	0.088	-0.107
-691.397	-146.702	-0.323	0.028
-690.383	-120.083	-0.092	0.016
-689.368	-166.277	-0.078	0.003
-688.354	-33.268	-0.117	-0.065
-687.339	-200.000	-0.023	-0.129
-686.324	128.909	-0.203	-0.260
-685.310	800.000	-0.040	-0.149
-684.295	-200.000	0.010	-0.161
-683.281	306.962	0.212	0.396
-682.266	-33.685	0.233	-0.129
-681.251	1.587	0.042	0.031
-680.237	-200.000	-0.002	-0.193
-679.222	-91.565	0.253	-0.072
-678.208	128.469	0.075	-0.096
-677.193	6.888	0.115	-0.086
-676.178	-57.830	-0.298	-0.131
-675.164	99.899	-0.144	0.168
-674.149	236.202	0.126	-0.209
-673.135	-200.000	-0.023	0.166
-672.120	-15.876	0.194	-0.124
-671.105	-200.000	-0.045	-0.212
-670.091	800.000	0.115	-0.341
-669.076	-127.144	-0.307	0.045
-668.062	-82.041	0.086	-0.028
-667.047	-62.366	0.168	-0.070
-666.032	402.398	0.163	0.343
-665.018	122.923	-0.207	0.259
-664.003	-109.240	0.157	-0.033
-662.989	800.000	-0.045	-0.127
-661.974	-104.630	0.338	-0.078
-660.959	800.000	-0.078	0.250
-659.945	800.000	0.011	-0.031
-658.930	12.341	0.260	-0.201
-657.916	326.085	-0.079	0.152
-656.901	-7.693	-0.181	-0.123
-655.886	-84.833	0.260	0.082
-654.872	-200.000	0.008	-0.298
-653.857	-200.000	0.012	-0.154
-652.843	451.865	0.101	-0.223
-651.828	239.544	-0.045	0.075
-650.814	-31.322	-0.315	-0.178
-649.799	225.142	-0.048	0.078
-648.784	-23.008	-0.136	-0.082
-647.770	800.000	-0.075	-0.301
-646.755	-82.249	-0.150	0.049
-645.741	0.320	-0.219	-0.157
-644.726	-31.925	0.170	-0.095
-643.711	283.706	-0.137	-0.247
-642.697	800.000	0.057	-0.205
-641.682	-100.115	-0.148	-0.037
-640.668	-200.000	-0.021	-0.114
-639.653	-200.000	-0.042	0.279
-638.638	58.130	-0.363	-0.356
-637.624	-200.000	-0.005	-0.277
-636.609	-80.146	-0.244	-0.082
-635.595	3.322	0.276	0.201
-634.580	-11.925	-0.198	0.130
-633.565	-103.458	-0.338	0.080
-632.551	-200.000	0.031	-0.263
-631.536	118.853	0.293	-0.363
-630.522	-44.052	-0.107	0.054
-629.507	-49.168	-0.094	-0.045
-628.492	-200.000	-0.029	0.129
-627.478	16.511	0.215	0.170
-626.463	-200.000	0.001	-0.075
-625.449	-200.000	0.060	0.269
-624.434	38.651	-0.128	-0.114
-623.419	800.000	0.078	-0.233
-622.405	-46.369	0.070	-0.034
-621.390	-200.000	-0.011	-0.210
-620.376	117.946	0.126	0.156
-619.361	-136.937	-0.147	-0.017
-618.346	800.000	-0.120	-0.392
-617.332	578.046	-0.025	0.061
-616.317	-84.952	-0.217	-0.068
-615.303	277.839	-0.012	-0.021
-614.288	70.256	-0.106	-0.109
-613.273	31.407	0.213	-0.183
-612.259	-200.000	0.007	-0.044
-611.244	687.554	0.026	-0.067
-610.230	800.000	-0.047	-0.184
-609.215	-200.000	0.006	-0.129
-608.201	112.103	0.183	-0.222
-607.186	108.669	0.074	0.088
-606.171	20.829	0.207	-0.168
-605.157	90.373	0.136	-0.153
-604.142	75.018	0.147	-0.155
-603.128	-81.547	0.171	0.056
-602.113	238.421	0.087	0.145
-601.098	-200.000	-0.009	0.116
-600.084	800.000	-0.035	-0.118
-599.069	399.229	0.078	-0.163
-598.055	800.000	0.031	-0.131
-597.040	-1.541	0.325	0.229
-596.025	-200.000	0.071	0.417
-595.011	259.899	-0.133	0.231
-593.996	-103.730	0.092	0.022
-592.982	-200.000	0.018	-0.088
-591.967	800.000	0.099	-0.338
-590.952	263.695	-0.020	0.036
-589.938	461.434	0.091	-0.203
-588.923	158.709	-0.069	0.096
-587.909	322.923	0.107	0.204
-586.894	-200.000	0.021	0.202
-585.879	800.000	0.060	0.234
-584.865	-200.000	-0.110	-0.488
-583.850	-32.110	-0.202	-0.113
-582.836	190.155	-0.197	0.295
-581.821	138.883	0.152	-0.199
-580.806	38.809	-0.218	0.195
-579.792	800.000	0.065	0.205
-578.777	-200.000	-0.003	0.201
-577.763	126.237	-0.082	-0.104
-576.748	365.172	0.080	0.160
-575.733	800.000	0.052	-0.177
-574.719	-8.125	0.184	-0.124
-573.704	-60.165	-0.385	-0.164
-572.690	-100.992	0.178	-0.044
-571.675	92.358	0.105	0.118
-570.661	-200.000	-0.032	-0.145
-569.646	-151.539	-0.249	0.018
-568.631	202.880	0.052	0.081
-567.617	-173.732	0.396	0.012
-566.602	-8.638	0.086	-0.058
-565.588	-66.514	0.231	-0.091
-564.573	-154.474	-0.206	0.014
-563.558	-26.632	-0.131	-0.077
-562.544	-13.877	-0.118	0.076
-561.529	58.863	-0.139	0.136
-560.515	-200.000	-0.003	-0.218
-559.500	338.114	0.118	0.230
-558.485	-21.515	0.304	0.185
-557.471	-114.839	-0.057	-0.011
-556.456	-15.709	-0.235	0.150
-555.442	39.085	-0.080	0.072
-554.427	800.000	-0.073	-0.305
-553.412	371.886	0.055	-0.111
-552.398	320.215	-0.014	-0.027
-551.383	800.000	-0.064	-0.277
-550.369	800.000	0.031	0.092
-549.354	-143.779	0.194	0.018
-548.339	274.497	0.132	0.234
-547.325	35.129	-0.303	0.265
-546.310	765.068	-0.045	-0.123
-545.296	-4.986	-0.372	-0.256
-544.281	-23.961	0.147	0.087
-543.266	-144.836	-0.077	0.007
-542.252	-200.000	-0.007	-0.150
-541.237	-200.000	0.073	-0.357
-540.223	165.109	0.210	-0.296
-539.208	-87.124	0.150	-0.045
-538.193	109.669	-0.218	-0.261
-537.179	370.953	-0.037	-0.075
-536.164	235.459	0.024	0.040
-535.150	-48.943	-0.259	0.124
-534.135	-190.246	0.122	-0.001
-533.121	251.791	0.130	-0.222
-532.106	-65.406	-0.147	0.059
-531.091	-60.213	-0.063	0.027
-530.077	-79.399	0.220	0.074
-529.062	800.000	-0.030	-0.118
-528.048	-63.417	0.176	-0.072
-527.033	-200.000	-0.022	0.161
-526.018	-121.934	-0.181	-0.030
-525.004	-95.494	-0.305	-0.082
-523.989	458.661	0.159	0.354
-522.975	352.387	-0.194	-0.384
-521.960	-100.822	-0.187	-0.046
-520.945	800.000	-0.063	0.221
-519.931	-57.029	0.135	0.059
-518.916	800.000	-0.068	0.205
-517.902	-95.174	-0.237	0.064
-516.887	305.617	-0.286	0.531
-515.872	-90.064	-0.134	-0.039
-514.858	54.180	0.162	0.155
-513.843	-52.985	-0.262	-0.120
-512.829	-200.000	-0.019	-0.397
-511.814	-200.000	0.009	-0.049
-510.799	-200.000	-0.008	-0.173
-509.785	5.081	0.210	-0.154
-508.770	112.008	0.234	0.282
-507.756	-144.028	-0.157	-0.015
-506.741	-200.000	-0.035	0.257
-505.726	2.800	0.252	0.183
-504.712	-200.000	0.023	-0.319
-503.697	-200.000	-0.031	-0.281
-502.683	-200.000	-0.032	-0.189
-501.668	800.000	0.140	-0.524
-500.653	800.000	-0.074	-0.254
-499.639	43.081	-0.256	-0.233
-498.624	800.000	-0.040	0.144
-497.610	-83.318	-0.332	0.106
-496.595	-126.289	0.104	-0.016
-495.581	-25.354	0.181	-0.107
-494.566	313.563	0.050	-0.094
-493.551	-200.000	-0.018	-0.186
-492.537	140.834	0.135	0.177
-491.522	43.149	-0.126	-0.114
-490.508	-101.480	0.384	0.093
-489.493	-79.231	0.090	-0.030
-488.478	148.738	0.158	0.213
-487.464	-147.506	-0.175	0.015
-486.449	26.527	0.026	-0.022
-485.435	-77.259	0.124	-0.043
-484.420	14.913	0.099	0.077
-483.405	-80.762	-0.182	-0.060
-482.391	800.000	0.080	-0.243
-481.376	247.891	0.208	-0.350
-480.362	207.416	0.064	0.100
-479.347	47.420	-0.136	0.126
-478.332	-123.221	0.190	-0.030
-477.318	91.960	-0.063	0.070
-476.303	52.617	0.337	0.321
-475.289	42.582	0.178	-0.162
-474.274	41.040	0.036	0.032
-473.259	-97.480	0.054	0.014
-472.245	-41.547	0.221	-0.113
-471.230	-200.000	-0.149	-0.000
-470.216	-200.000	0.043	0.257
-469.201	359.271	-0.090	0.179
-468.186	111.702	-0.125	0.150
-467.172	634.489	0.046	-0.116
-466.157	-86.898	0.337	0.102
-465.143	-200.000	-0.023	0.176
-464.128	800.000	-0.025	0.075
-463.113	-56.847	0.163	0.071
-462.099	210.262	-0.136	-0.213
-461.084	362.066	-0.039	-0.078
-460.070	-71.844	0.078	-0.029
-459.055	737.785	0.076	0.203
-458.040	5.933	0.071	0.052
-457.026	-200.000	0.032	0.311
-456.011	-200.000	-0.035	-0.455
-454.997	-93.926	-0.251	-0.069
-453.982	-200.000	-0.215	0.001
-452.968	-51.063	0.233	-0.109
-451.953	14.099	0.197	-0.153
-450.938	209.273	0.137	-0.213
-449.924	-7.737	-0.483	0.325
-448.909	-200.000	-0.046	0.258
-447.895	-39.541	-0.365	-0.190
-446.880	-192.643	0.324	-0.003
-445.865	-82.051	-0.130	-0.042
-444.851	387.425	-0.090	0.186
-443.836	800.000	-0.055	0.191
-442.822	800.000	-0.080	0.235
-441.807	-70.486	-0.127	0.048
-440.792	-141.951	-0.108	-0.011
-439.778	-85.402	0.621	-0.193
-438.763	-200.000	-0.010	0.164
-437.749	-185.106	-0.386	0.006
-436.734	80.471	0.101	0.108
-435.719	-175.245	0.187	-0.005
-434.705	270.612	-0.084	-0.147
-433.690	-116.702	-0.203	0.037
-432.676	-53.085	0.235	-0.107
-431.661	156.632	0.224	0.308
-430.646	-91.727	-0.516	-0.146
-429.632	-164.456	0.224	0.010
-428.617	44.092	0.040	-0.036
-427.603	-200.000	0.029	0.146
-426.588	-200.000	-0.003	0.246
-425.573	800.000	0.129	0.365
-424.559	165.968	0.088	0.124
-423.544	-200.000	0.006	0.282
-422.530	800.000	0.118	0.405
-421.515	-192.873	-0.139	0.001
-420.500	44.440	0.195	-0.178
-419.486	-26.981	-0.205	-0.119
-418.471	-154.305	0.313	-0.021
-417.457	81.916	0.187	0.201
-416.442	530.272	0.113	-0.266
-415.428	78.469	-0.136	0.144
-414.413	-50.630	-0.132	-0.062
-413.398	-162.061	-0.482	-0.024
-412.384	-30.602	-0.334	0.188
-411.369	-200.000	-0.014	0.120
-410.355	-128.780	-0.266	-0.037
-409.340	-35.298	-0.029	0.015
-408.325	-107.937	0.137	-0.030
-407.311	-200.000	-0.012	0.234
-406.296	800.000	0.107	0.346
-405.282	-23.400	0.138	0.083
-404.267	477.461	0.122	0.275
-403.252	-56.317	-0.096	-0.042
-402.238	-99.854	-0.238	0.059
-401.223	13.974	-0.151	0.117
-400.209	-200.000	-0.004	0.072
-399.194	-200.000	-0.013	0.157
-398.179	706.374	0.073	0.192
-397.165	800.000	-0.116	0.398
-396.150	800.000	-0.034	0.115
-395.136	494.912	-0.032	0.072
-394.121	-50.791	0.136	-0.064
-393.106	-61.242	-0.251	0.105
-392.092	-77.418	-0.088	-0.030
-391.077	35.345	-0.087	-0.075
-390.063	-200.000	0.012	0.430
-389.048	-64.916	0.087	-0.035
-388.033	-41.786	0.270	-0.137
-387.019	-6.372	-0.361	0.245
-386.004	44.442	0.316	-0.288
-384.990	202.078	-0.131	-0.201
-383.975	80.345	0.076	0.082
-382.960	-64.427	-0.234	-0.094
-381.946	-200.000	-0.009	-0.138
-380.931	331.057	0.101	-0.192
-379.917	-200.000	0.012	-0.094
-378.902	-106.976	-0.177	-0.039
-377.888	-200.000	0.003	-0.104
-376.873	-24.561	-0.145	-0.086
-375.858	-40.041	0.256	-0.133
-374.844	139.514	0.163	0.213
-373.829	248.566	-0.129	-0.217
-372.815	-71.698	-0.214	0.079
-371.800	45.260	0.224	0.204
-370.785	402.053	-0.069	-0.144
-369.771	-74.249	-0.283	0.101
-368.756	357.467	0.127	0.251
-367.742	-178.719	0.346	0.008
-366.727	5.496	0.273	-0.200
-365.712	-36.953	-0.266	0.141
-364.698	-64.846	0.281	0.113
-363.683	85.475	0.139	-0.151
-362.669	-190.056	-0.222	-0.002
-361.654	-50.243	-0.190	-0.089
-360.639	-60.026	0.348	0.147
-359.625	51.191	0.271	0.255
-358.610	-148.350	0.321	-0.026
-357.596	420.955	-0.064	-0.137
-356.581	-200.000	0.027	0.305
-355.566	-104.238	-0.156	-0.036
-354.552	-93.783	-0.114	-0.031
-353.537	800.000	-0.050	-0.139
-352.523	3.325	-0.181	-0.130
-351.508	-61.595	-0.222	0.092
-350.493	800.000	0.010	-0.032
-349.479	-154.805	-0.323	0.021
-348.464	-200.000	0.021	-0.159
-347.450	149.152	-0.097	0.130
-346.435	520.975	0.133	-0.310
-345.420	-66.531	-0.098	-0.039
-344.406	-140.828	-0.309	0.032
-343.391	111.500	-0.098	-0.117
-342.377	6.411	-0.250	-0.184
-341.362	-6.070	0.073	-0.049
-340.348	-122.852	0.102	0.016
-339.333	-200.000	-0.032	0.183
-338.318	277.319	0.079	0.139
-337.304	125.238	-0.251	0.313
-336.289	118.900	0.226	-0.277
-335.275	312.982	0.088	0.164
-334.260	31.127	-0.138	-0.117
-333.245	129.285	-0.162	-0.205
-332.231	-68.998	-0.255	-0.097
-331.216	392.346	-0.097	-0.200
-330.202	-87.759	-0.297	0.089
-329.187	459.528	0.027	-0.059
-328.172	-83.415	0.292	-0.093
-327.158	-200.000	-0.017	-0.178
-326.143	-79.593	0.386	0.129
-325.129	83.119	-0.073	0.079
-324.114	-200.000	-0.041	0.188
-323.099	-135.929	-0.144	0.017
-322.085	-0.747	0.125	0.088
-321.070	9.017	-0.074	-0.056
-320.056	-200.000	0.030	0.182
-319.041	-48.277	-0.241	-0.115
-318.026	-65.115	0.259	0.103
-317.012	646.384	-0.038	-0.096
-315.997	-200.000	0.027	-0.198
-314.983	69.590	-0.310	-0.316
-313.968	-143.112	-0.283	0.027
-312.953	5.221	-0.321	-0.234
-311.939	263.135	-0.082	-0.140
-310.924	-69.964	0.304	-0.114
-309.910	-200.000	-0.029	-0.290
-308.895	-113.318	-0.174	0.034
-307.880	-13.751	0.187	0.119
-306.866	-200.000	-0.008	-0.075
-305.851	75.869	-0.049	0.051
-304.837	-164.656	0.159	-0.007
-303.822	-80.408	-0.102	-0.034
-302.807	-139.533	-0.125	0.013
-301.793	-88.954	0.154	0.045
-300.778	386.753	-0.146	0.298
-299.764	593.238	0.141	-0.344
-298.749	800.000	-0.026	0.084
-297.735	-200.000	0.018	0.213
-296.720	800.000	-0.089	0.375
-295.705	34.606	-0.245	-0.211
-294.691	105.098	0.231	-0.269
-293.676	132.904	-0.255	-0.325
-292.662	-150.863	-0.115	-0.009
-291.647	-81.868	0.096	-0.031
-290.632	528.697	-0.122	-0.285
-289.618	613.369	0.097	-0.240
-288.603	-200.000	-0.053	0.425
-287.589	-112.396	0.176	-0.035
-286.574	-39.711	0.212	-0.109
-285.559	-66.808	0.115	0.045
-284.545	-37.322	0.270	0.142
-283.530	-200.000	-0.033	0.212
-282.516	-96.802	-0.180	0.047
-281.501	28.052	-0.194	-0.162
-280.486	-200.000	-0.016	-0.081
-279.472	218.181	-0.058	-0.092
-278.457	-58.107	0.192	0.083
-277.443	14.823	-0.280	0.217
-276.428	800.000	-0.028	0.078
-275.413	-200.000	-0.005	-0.051
-274.399	-200.000	0.002	0.317
-273.384	338.729	0.101	-0.193
-272.370	319.558	-0.127	0.238
-271.355	800.000	-0.048	0.152
-270.340	-163.918	0.151	-0.007
-269.326	111.260	0.218	0.260
-268.311	-72.699	-0.084	-0.031
-267.297	144.789	-0.022	0.029
-266.282	-101.467	-0.115	-0.028
-265.267	-17.718	0.212	-0.131
-264.253	94.873	-0.059	-0.066
-263.238	-127.858	-0.229	-0.033
-262.224	-200.000	0.036	0.208
-261.209	-56.366	0.170	0.075
-260.195	417.646	-0.049	-0.103
-259.180	800.000	-0.040	0.127
-258.165	-200.000	-0.010	0.209
-257.151	-115.397	0.244	-0.045
-256.136	-200.000	-0.010	-0.169
-255.122	109.289	0.288	-0.340
-254.107	-200.000	-0.027	-0.142
-253.092	-200.000	-0.006	-0.233
-252.078	-105.978	0.307	-0.068
-251.063	297.810	0.121	-0.220
-250.049	57.318	0.186	-0.179
-249.034	111.803	0.039	0.046
-248.019	137.743	0.127	0.164
-247.005	-25.102	0.359	-0.210
-245.990	372.330	0.139	-0.279
-244.976	-22.760	0.259	-0.154
-243.961	800.000	0.029	0.088
-242.946	-44.612	-0.426	0.210
-241.932	-92.386	0.151	0.042
-240.917	19.156	0.147	0.116
-239.903	708.527	0.084	0.220
-238.888	-11.586	0.507	0.329
-237.873	-50.996	0.154	-0.071
-236.859	-81.242	0.173	-0.056
-235.844	-88.510	-0.263	-0.077
-234.830	-90.981	-0.162	-0.046
-233.815	74.689	0.091	-0.094
-232.800	-6.532	0.130	0.088
-231.786	56.488	-0.272	0.260
-230.771	302.188	-0.088	-0.161
-229.757	-118.131	0.107	-0.019
-228.742	-31.033	-0.138	-0.077
-227.727	-12.311	0.128	0.083
-226.713	-68.931	0.100	0.038
-225.698	-122.241	-0.296	0.048
-224.684	-97.290	-0.168	-0.043
-223.669	-31.128	0.101	-0.056
-222.655	220.422	0.100	0.158
-221.640	-57.912	0.376	0.162
-220.625	-117.394	-0.125	-0.022
-219.611	118.141	-0.117	0.142
-218.596	58.821	-0.251	0.243
-217.582	-83.119	0.352	0.112
-216.567	318.653	0.069	0.129
-215.552	215.557	-0.154	0.241
-214.538	-200.000	-0.052	-0.234
-213.523	35.361	0.128	-0.111
-212.509	209.317	-0.224	-0.346
-211.494	38.823	0.341	-0.300
-210.479	80.553	0.122	0.130
-209.465	9.785	-0.298	0.222
-208.450	-31.795	0.150	-0.083
-207.436	-200.000	-0.029	-0.216
-206.421	-31.964	-0.120	0.066
-205.406	800.000	0.054	0.167
-204.392	23.320	-0.314	-0.254
-203.377	-200.000	0.027	-0.221
-202.363	44.176	0.128	0.116
-201.348	-164.255	0.154	0.007
-200.333	-20.914	-0.409	0.247
-199.319	-54.562	-0.234	-0.104
-198.304	-200.000	0.082	0.370
-197.290	-114.022	-0.172	0.033
-196.275	49.064	0.093	-0.086
-195.260	-144.605	-0.323	-0.029
-194.246	391.639	-0.072	-0.147
-193.231	-77.476	-0.286	-0.098
-192.217	105.614	-0.079	0.092
-191.202	-152.981	-0.299	0.021
-190.187	149.371	-0.146	0.194
-189.173	205.394	0.224	0.343
-188.158	-157.830	0.235	0.014
-187.144	-80.827	0.265	-0.086
-186.129	-123.017	0.251	-0.040
-185.114	97.611	-0.199	0.225
-184.100	-200.000	-0.039	0.191
-183.085	-78.594	0.182	0.061
-182.071	-21.173	0.221	-0.133
-181.056	26.954	-0.182	-0.150
-180.042	188.627	0.181	0.266
-179.027	305.304	-0.097	0.177
-178.012	-200.000	0.022	0.168
-176.998	112.489	0.154	-0.183
-175.983	-200.000	0.006	0.128
-174.969	-69.556	-0.105	-0.039
-173.954	-200.000	-0.046	0.318
-172.939	-200.000	0.009	-0.093
-171.925	-137.222	0.067	-0.008
-170.910	37.031	0.186	-0.162
-169.896	-6.582	-0.319	0.213
-168.881	-200.000	0.056	-0.335
-167.866	-200.000	-0.008	-0.439
-166.852	-89.871	0.352	0.101
-165.837	-200.000	-0.030	-0.139
-164.823	6.468	0.054	0.039
-163.808	341.069	0.154	0.297
-162.793	-54.567	0.243	-0.108
-161.779	-22.795	0.389	0.231
-160.764	86.152	-0.258	-0.279
-159.750	-200.000	0.044	0.309
-158.735	164.039	0.112	0.155
-157.720	-81.232	-0.072	-0.023
-156.706	75.407	0.240	0.249
-155.691	-200.000	-0.006	-0.029
-154.677	-200.000	-0.007	0.251
-153.662	-107.507	0.055	0.012
-152.647	-114.763	-0.122	0.023
-151.633	-92.096	0.047	-0.013
-150.618	-77.375	-0.169	-0.058
-149.604	-84.117	-0.366	0.114
-148.589	-20.957	0.131	-0.079
-147.574	-69.256	-0.326	0.123
-146.560	-11.805	0.274	0.176
-145.545	-3.233	-0.259	-0.177
-144.531	-172.860	-0.286	-0.009
-143.516	-200.000	-0.046	-0.329
-142.502	350.507	0.131	-0.254
-141.487	-67.128	-0.090	-0.035
-140.472	-142.148	0.271	-0.026
-139.458	-200.000	0.037	0.204
-138.443	-200.000	0.039	-0.429
-137.429	430.048	0.031	0.065
-136.414	-122.606	-0.295	-0.047
-135.399	-151.007	0.041	0.003
-134.385	155.761	0.115	-0.156
-133.370	800.000	-0.116	-0.458
-132.356	-200.000	-0.006	0.257
-131.341	-26.294	0.119	-0.069
-130.326	139.428	0.082	-0.105
-129.312	-160.742	0.406	-0.021
-128.297	-200.000	-0.010	0.207
-127.283	710.718	0.053	0.137
-126.268	114.371	-0.138	0.165
-125.253	251.228	0.218	-0.364
-124.239	-0.703	0.080	0.056
-123.224	800.000	-0.071	0.193
-122.210	-147.491	0.413	0.034
