DTS Sentinel unit serial number:	SN413079Multiplexer serial number:	ORYXHardware model number:	OX4-SRSoftware version number:	ORYX F/W v4.00 Oryx Data Collector v3.7.2.0data status	okinstallation	princeton_trtdifferential loss correction	single-endedforward channel	channel 3reverse channel	N/Adate	2019/09/12time	03:06:11forward acquisition time	60.00reverse acquisition time	0.00gamma	496.2192k internal	0.2321k external	0.2321temperature offset calibration	1.0070default loss term (dB/km)	0.3790temperature slope calibration	1.0000multiplexer offset coefficient	1.0000multiplexer slope coefficient	1.0000fibre end	0.00T internal ref (°C)	32.28T ext. ref 1 (°C)	2.12T ext. ref 2 (°C)	27.37length (m)	temperature (°C)	Stokes	anti-Stokes-747.200	-155.927	-0.250	-0.016
-746.185	-91.979	-0.348	0.100
-745.171	-75.713	0.212	-0.076
-744.156	-50.170	-0.160	0.076
-743.142	-85.686	0.237	0.074
-742.127	-200.000	0.080	0.443
-741.112	-42.669	-0.226	-0.116
-740.098	800.000	0.078	0.253
-739.083	75.416	0.120	0.128
-738.069	-43.590	0.034	-0.017
-737.054	-24.957	0.147	-0.088
-736.039	273.451	0.072	0.128
-735.025	252.595	0.134	0.231
-734.010	-118.500	-0.207	0.037
-732.996	417.796	-0.055	0.118
-731.981	800.000	-0.111	0.311
-730.966	-15.875	-0.113	-0.073
-729.952	638.121	-0.088	-0.225
-728.937	-145.063	0.081	-0.007
-727.923	-200.000	0.026	-0.294
-726.908	391.978	0.044	-0.093
-725.894	-66.381	-0.207	-0.083
-724.879	47.277	0.205	0.193
-723.864	-200.000	-0.013	0.166
-722.850	-200.000	-0.021	0.148
-721.835	-200.000	-0.007	0.110
-720.821	-65.357	-0.212	0.086
-719.806	66.651	0.058	0.060
-718.791	800.000	-0.053	-0.180
-717.777	462.874	0.142	-0.320
-716.762	331.095	0.137	0.267
-715.748	-145.939	-0.243	-0.022
-714.733	93.395	0.035	-0.040
-713.718	-40.352	0.228	0.120
-712.704	329.273	-0.106	-0.205
-711.689	-150.058	-0.099	-0.008
-710.675	117.805	0.122	-0.151
-709.660	54.668	-0.118	0.115
-708.645	-91.610	-0.265	0.076
-707.631	18.074	-0.174	-0.140
-706.616	-126.477	0.543	-0.082
-705.602	381.212	-0.017	-0.036
-704.587	-99.951	-0.128	0.032
-703.572	-28.304	-0.218	-0.127
-702.558	-169.738	0.400	-0.015
-701.543	-152.183	0.194	0.014
-700.529	111.632	0.258	-0.314
-699.514	-104.089	-0.134	-0.031
-698.499	75.962	0.163	0.174
-697.485	14.038	-0.306	0.241
-696.470	163.975	-0.047	-0.066
-695.456	-76.466	0.072	0.026
-694.441	18.006	-0.112	0.090
-693.426	-5.328	0.109	0.075
-692.412	-200.000	0.004	0.126
-691.397	-37.553	0.140	-0.075
-690.383	81.097	0.136	-0.148
-689.368	-94.104	-0.283	0.078
-688.354	-200.000	0.009	-0.387
-687.339	-2.757	0.156	-0.110
-686.324	-107.523	-0.205	-0.045
-685.310	212.609	-0.193	-0.308
-684.295	-200.000	-0.034	-0.342
-683.281	-93.593	-0.304	0.085
-682.266	516.836	0.103	-0.243
-681.251	-31.868	-0.222	-0.126
-680.237	-200.000	-0.053	-0.296
-679.222	112.932	-0.120	-0.147
-678.208	-16.307	0.313	-0.201
-677.193	22.342	-0.281	0.231
-676.178	21.742	-0.360	-0.295
-675.164	356.064	0.156	0.314
-674.149	800.000	0.098	0.325
-673.135	0.553	0.261	0.188
-672.120	800.000	-0.037	-0.155
-671.105	-1.734	-0.084	0.060
-670.091	-33.753	-0.290	0.161
-669.076	800.000	0.044	0.160
-668.062	-16.096	-0.215	0.138
-667.047	-141.359	0.314	0.032
-666.032	-200.000	-0.002	0.014
-665.018	672.768	0.109	-0.284
-664.003	-77.510	-0.125	-0.044
-662.989	-21.137	0.042	-0.026
-661.974	-157.642	0.331	-0.020
-660.959	-200.000	0.006	0.036
-659.945	-58.747	-0.104	0.046
-658.930	247.603	0.165	0.280
-657.916	-67.779	0.075	-0.030
-656.901	-89.360	0.134	-0.040
-655.886	-80.635	-0.174	-0.058
-654.872	800.000	-0.020	-0.068
-653.857	-89.693	-0.157	0.046
-652.843	-109.694	0.207	0.044
-651.828	-200.000	0.037	-0.284
-650.814	154.874	-0.201	-0.278
-649.799	-200.000	-0.018	0.259
-648.784	-42.584	0.257	0.132
-647.770	-200.000	0.026	0.116
-646.755	398.830	-0.079	-0.166
-645.741	-113.804	-0.158	0.031
-644.726	-200.000	0.067	0.349
-643.711	47.967	0.210	0.198
-642.697	678.693	-0.016	-0.042
-641.682	-200.000	0.074	-0.402
-640.668	752.301	0.087	-0.236
-639.653	14.112	0.162	-0.127
-638.638	247.143	-0.103	-0.176
-637.624	59.668	-0.136	0.135
-636.609	153.603	0.236	0.325
-635.595	-97.834	-0.212	-0.055
-634.580	-178.558	-0.270	-0.006
-633.565	-125.389	-0.433	-0.066
-632.551	-63.191	-0.155	0.064
-631.536	409.289	-0.050	0.107
-630.522	-0.784	-0.243	-0.174
-629.507	-35.500	0.044	-0.024
-628.492	208.714	-0.220	0.346
-627.478	-200.000	-0.041	0.261
-626.463	-200.000	-0.005	0.028
-625.449	187.779	0.175	0.263
-624.434	-200.000	0.005	-0.157
-623.419	-7.873	-0.261	0.177
-622.405	-132.048	-0.111	-0.015
-621.390	-113.384	0.116	0.023
-620.376	-200.000	-0.016	0.213
-619.361	-200.000	-0.268	0.000
-618.346	615.195	0.075	0.190
-617.332	-99.103	-0.214	0.055
-616.317	-36.767	0.236	-0.128
-615.303	97.652	-0.052	0.060
-614.288	800.000	-0.020	0.069
-613.273	80.473	-0.217	0.235
-612.259	133.074	-0.102	0.133
-611.244	-18.186	-0.169	0.106
-610.230	74.782	-0.187	-0.198
-609.215	800.000	-0.084	-0.241
-608.201	800.000	0.062	0.220
-607.186	153.955	0.253	0.348
-606.171	427.406	-0.110	0.239
-605.157	447.682	-0.146	-0.322
-604.142	-200.000	0.030	-0.221
-603.128	318.945	-0.048	0.091
-602.113	404.384	0.103	-0.217
-601.098	1.582	-0.368	-0.266
-600.084	-200.000	-0.025	0.235
-599.069	-200.000	0.000	0.041
-598.055	-200.000	-0.069	-0.521
-597.040	800.000	-0.093	-0.357
-596.025	-114.016	-0.404	0.079
-595.011	800.000	0.120	-0.344
-593.996	326.323	-0.099	-0.190
-592.982	126.247	0.079	0.101
-591.967	-200.000	0.024	0.189
-590.952	523.999	-0.003	0.008
-589.938	-103.446	0.307	0.073
-588.923	-13.811	-0.160	0.104
-587.909	-118.477	-0.126	0.022
-586.894	85.061	0.239	-0.263
-585.879	-37.225	0.296	0.159
-584.865	-48.089	-0.134	-0.065
-583.850	377.322	-0.176	0.361
-582.836	-117.437	0.188	-0.034
-581.821	-200.000	-0.006	-0.206
-580.806	187.093	0.100	-0.149
-579.792	371.235	-0.115	0.235
-578.777	800.000	0.055	0.238
-577.763	231.598	0.238	-0.391
-576.748	800.000	0.065	0.223
-575.733	-71.756	-0.077	-0.029
-574.719	29.557	-0.262	0.223
-573.704	127.126	-0.216	-0.275
-572.690	-49.911	-0.109	0.052
-571.675	46.439	-0.178	-0.166
-570.661	157.468	-0.081	0.112
-569.646	-78.511	-0.230	-0.079
-568.631	-10.426	0.161	0.107
-567.617	-81.064	0.219	-0.073
-566.602	-200.000	0.029	-0.238
-565.588	800.000	-0.076	-0.262
-564.573	27.237	-0.107	0.090
-563.558	368.729	-0.017	-0.035
-562.544	-200.000	0.015	-0.133
-561.529	-67.974	0.044	0.017
-560.515	437.888	-0.063	-0.138
-559.500	-66.944	-0.203	0.080
-558.485	-77.218	-0.210	-0.073
-557.471	-200.000	0.029	-0.229
-556.456	-173.234	0.231	0.007
-555.442	-200.000	0.025	-0.191
-554.427	-155.011	0.051	0.003
-553.412	-31.497	0.142	0.080
-552.398	25.884	0.234	-0.196
-551.383	97.507	-0.279	0.322
-550.369	405.804	0.035	0.073
-549.354	-200.000	0.045	-0.362
-548.339	800.000	-0.082	-0.274
-547.325	-200.000	0.010	0.094
-546.310	-165.791	-0.283	-0.012
-545.296	110.464	-0.139	0.168
-544.281	-11.254	-0.274	0.181
-543.266	-50.934	-0.396	0.186
-542.252	800.000	0.078	0.291
-541.237	283.386	0.183	0.329
-540.223	165.652	-0.108	-0.153
-539.208	800.000	-0.040	-0.156
-538.193	433.063	-0.080	0.173
-537.179	-159.568	-0.287	0.016
-536.164	800.000	-0.012	0.050
-535.150	-123.717	0.110	-0.017
-534.135	-138.135	-0.278	0.031
-533.121	-66.443	0.191	0.076
-532.106	121.618	0.104	0.130
-531.091	26.696	0.097	-0.081
-530.077	0.622	0.211	0.151
-529.062	349.590	-0.109	0.216
-528.048	424.746	0.073	-0.156
-527.033	800.000	0.053	-0.165
-526.018	-74.009	0.127	-0.046
-525.004	124.174	-0.141	-0.178
-523.989	539.153	0.064	-0.153
-522.975	-156.085	0.420	-0.027
-521.960	-200.000	0.010	-0.099
-520.945	800.000	0.082	-0.352
-519.931	-43.894	-0.024	0.012
-518.916	87.946	0.149	-0.165
-517.902	-123.707	0.105	-0.017
-516.887	-63.197	-0.429	0.177
-515.872	-3.605	-0.134	-0.093
-514.858	-98.360	-0.061	0.016
-513.843	145.526	0.177	-0.237
-512.829	129.739	0.166	-0.212
-511.814	-62.767	0.095	0.040
-510.799	-143.365	0.062	-0.006
-509.785	-74.190	-0.308	-0.112
-508.770	-14.728	0.144	-0.092
-507.756	102.521	-0.079	0.093
-506.741	-200.000	0.052	-0.324
-505.726	-200.000	0.011	-0.056
-504.712	-86.465	0.051	0.016
-503.697	65.660	-0.226	0.229
-502.683	58.710	0.174	0.171
-501.668	-200.000	0.023	-0.104
-500.653	-82.807	-0.049	0.016
-499.639	-200.000	0.015	-0.146
-498.624	-59.627	0.325	-0.140
-497.610	-200.000	0.020	0.289
-496.595	25.897	0.259	0.216
-495.581	-144.674	-0.073	-0.007
-494.566	-119.935	0.175	-0.030
-493.551	566.493	0.028	0.067
-492.537	3.413	-0.104	-0.076
-491.522	-29.636	-0.198	-0.113
-490.508	208.343	-0.193	-0.302
-489.493	374.510	0.098	0.200
-488.478	-175.341	-0.231	0.006
-487.464	13.774	0.068	-0.053
-486.449	-26.261	0.196	-0.115
-485.435	40.954	0.212	-0.192
-484.420	-200.000	-0.027	0.120
-483.405	-200.000	0.022	-0.166
-482.391	-78.477	-0.140	0.048
-481.376	58.008	0.146	0.143
-480.362	603.541	0.012	-0.029
-479.347	85.499	0.073	-0.080
-478.332	298.551	0.013	0.025
-477.318	46.584	-0.203	-0.188
-476.303	-123.913	0.267	-0.042
-475.289	-200.000	-0.003	0.328
-474.274	-40.831	-0.254	0.132
-473.259	-200.000	-0.032	-0.286
-472.245	-77.833	-0.157	0.054
-471.230	-91.774	0.349	-0.099
-470.216	71.088	-0.089	0.092
-469.201	-15.822	-0.108	0.069
-468.186	-11.928	0.293	0.192
-467.172	152.327	0.105	-0.143
-466.157	220.586	0.060	0.097
-465.143	-40.715	-0.302	-0.156
-464.128	-124.419	0.277	0.043
-463.113	-200.000	0.009	-0.247
-462.099	-200.000	-0.059	0.450
-461.084	-128.055	-0.045	0.006
-460.070	-8.988	0.075	0.050
-459.055	-200.000	-0.027	-0.235
-458.040	-157.275	-0.043	0.003
-457.026	99.305	0.240	0.278
-456.011	16.641	0.063	-0.050
-454.997	-4.209	-0.429	-0.297
-453.982	-11.130	0.104	-0.069
-452.968	-33.804	0.193	0.106
-451.953	-200.000	0.041	-0.322
-450.938	-112.531	0.107	-0.021
-449.924	50.743	0.398	-0.376
-448.909	160.460	0.123	0.172
-447.895	800.000	-0.089	-0.321
-446.880	-135.534	-0.062	0.007
-445.865	-24.837	-0.287	-0.171
-444.851	-200.000	0.012	-0.176
-443.836	169.604	0.102	-0.146
-442.822	1.630	0.224	0.161
-441.807	-24.288	-0.175	-0.105
-440.792	33.065	0.092	-0.080
-439.778	-73.174	-0.270	-0.099
-438.763	-165.330	-0.035	-0.002
-437.749	-73.061	0.403	-0.148
-436.734	1.074	-0.331	-0.237
-435.719	45.385	0.038	0.035
-434.705	800.000	0.015	-0.046
-433.690	190.948	-0.145	0.218
-432.676	-200.000	-0.059	0.301
-431.661	-200.000	-0.036	0.242
-430.646	-44.690	0.019	0.009
-429.632	57.866	-0.204	-0.199
-428.617	-200.000	-0.025	0.171
-427.603	187.470	-0.115	0.171
-426.588	-158.161	0.081	0.005
-425.573	42.203	0.082	-0.075
-424.559	-200.000	-0.014	0.316
-423.544	-31.929	-0.300	0.168
-422.530	-120.297	-0.229	-0.039
-421.515	285.625	-0.082	-0.147
-420.500	800.000	0.100	-0.287
-419.486	-12.676	-0.129	0.084
-418.471	679.555	0.101	0.262
-417.457	-72.239	-0.143	-0.053
-416.442	458.698	0.109	-0.243
-415.428	-147.992	0.246	-0.020
-414.413	527.793	0.080	0.187
-413.398	-53.451	0.272	0.124
-412.384	210.895	-0.098	-0.154
-411.369	-52.828	0.303	0.139
-410.355	251.254	0.135	0.228
-409.340	163.051	-0.190	0.267
-408.325	-41.751	0.234	-0.120
-407.311	-200.000	-0.053	-0.283
-406.296	41.660	0.059	-0.054
-405.282	800.000	0.081	0.326
-404.267	-200.000	-0.040	-0.258
-403.252	358.951	-0.099	-0.196
-402.238	-53.402	0.353	0.161
-401.223	2.845	-0.032	-0.023
-400.209	-200.000	0.003	-0.059
-399.194	-15.295	0.076	-0.048
-398.179	-200.000	-0.016	-0.078
-397.165	-75.124	-0.132	-0.047
-396.150	93.397	0.104	0.117
-395.136	487.015	-0.033	0.075
-394.121	312.642	-0.084	-0.157
-393.106	-24.643	0.314	0.186
-392.092	-173.711	0.276	-0.008
-391.077	48.965	-0.061	0.057
-390.063	-130.543	0.608	0.082
-389.048	-197.468	0.256	0.002
-388.033	800.000	0.071	-0.294
-387.019	-196.401	0.334	-0.002
-386.004	175.780	-0.119	-0.172
-384.990	-200.000	-0.036	0.177
-383.975	-88.097	0.191	-0.057
-382.960	41.044	-0.173	-0.156
-381.946	135.148	0.065	0.084
-380.931	-24.162	-0.164	-0.098
-379.917	-200.000	-0.025	-0.161
-378.902	-25.837	-0.360	-0.211
-377.888	-54.111	-0.493	0.223
-376.873	-200.000	0.015	-0.178
-375.858	74.445	0.154	0.161
-374.844	141.554	-0.293	0.387
-373.829	-78.711	0.044	-0.015
-372.815	213.720	0.093	-0.147
-371.800	3.775	0.127	-0.092
-370.785	-44.805	-0.123	-0.061
-369.771	-85.923	0.175	0.054
-368.756	800.000	-0.123	0.339
-367.742	-158.018	-0.363	-0.021
-366.727	-200.000	0.075	-0.407
-365.712	148.307	0.166	0.224
-364.698	-83.574	0.212	0.068
-363.683	-102.180	-0.213	0.051
-362.669	-23.182	0.324	0.194
-361.654	100.216	-0.115	-0.133
-360.639	-200.000	0.003	0.124
-359.625	-82.655	0.213	-0.069
-358.610	84.571	0.192	-0.210
-357.596	-127.212	0.152	0.022
-356.581	683.366	-0.112	-0.292
-355.566	366.541	0.075	0.151
-354.552	-43.939	-0.227	-0.114
-353.537	352.661	0.090	0.177
-352.523	376.754	0.067	0.136
-351.508	800.000	-0.047	0.157
-350.493	4.279	-0.102	-0.075
-349.479	-92.061	-0.486	0.137
-348.464	-67.165	0.152	-0.059
-347.450	-200.000	-0.034	-0.221
-346.435	-46.413	-0.207	0.101
-345.420	196.410	-0.135	-0.205
-344.406	143.765	0.211	0.280
-343.391	-12.956	-0.112	-0.072
-342.377	-1.758	-0.129	0.091
-341.362	-142.121	0.338	0.033
-340.348	-200.000	-0.066	-0.348
-339.333	-89.208	0.138	0.040
-338.318	265.426	-0.055	0.095
-337.304	-200.000	0.009	0.078
-336.289	679.794	-0.091	-0.234
-335.275	-200.000	-0.005	-0.354
-334.260	-7.190	0.120	0.081
-333.245	141.441	0.076	-0.100
-332.231	87.161	-0.033	-0.037
-331.216	99.340	0.180	-0.206
-330.202	204.663	-0.115	0.177
-329.187	-200.000	0.037	0.214
-328.172	742.412	-0.021	0.057
-327.158	-131.572	0.211	-0.028
-326.143	45.728	0.150	-0.138
-325.129	-72.598	-0.169	0.062
-324.114	800.000	0.092	0.275
-323.099	673.367	0.063	0.163
-322.085	-200.000	0.050	-0.303
-321.070	800.000	0.070	-0.256
-320.056	147.798	-0.226	0.303
-319.041	-200.000	-0.045	0.441
-318.026	-200.000	0.014	-0.085
-317.012	800.000	-0.041	-0.127
-315.997	-200.000	-0.030	0.189
-314.983	232.730	0.125	-0.204
-313.968	24.702	0.369	-0.303
-312.953	606.208	0.031	0.076
-311.939	-65.322	-0.161	-0.064
-310.924	502.401	0.033	-0.077
-309.910	-200.000	0.043	-0.192
-308.895	169.000	0.070	0.099
-307.880	22.611	-0.139	-0.113
-306.866	-29.049	-0.157	0.089
-305.851	188.788	0.072	0.108
-304.837	-80.337	-0.364	0.121
-303.822	180.205	0.127	0.185
-302.807	94.005	0.103	0.116
-301.793	95.695	0.139	-0.158
-300.778	-194.063	-0.222	-0.002
-299.764	-40.589	-0.124	-0.064
-298.749	44.535	0.040	-0.037
-297.735	-200.000	0.025	-0.344
-296.720	-173.297	0.239	0.007
-295.705	-135.686	-0.220	0.026
-294.691	800.000	0.018	0.061
-293.676	435.819	-0.066	-0.142
-292.662	781.288	0.044	-0.119
-291.647	-200.000	0.028	0.289
-290.632	-200.000	0.023	0.214
-289.618	800.000	0.072	0.231
-288.603	800.000	0.078	0.295
-287.589	800.000	-0.099	-0.335
-286.574	12.695	-0.178	0.136
-285.559	-200.000	0.076	0.414
-284.545	800.000	0.036	-0.112
-283.530	-71.704	0.408	-0.151
-282.516	-200.000	0.032	-0.268
-281.501	123.988	0.058	-0.072
-280.486	800.000	-0.100	0.294
-279.472	241.281	-0.083	0.138
-278.457	158.471	-0.136	-0.187
-277.443	-47.895	0.146	0.070
-276.428	-200.000	0.012	0.099
-275.413	-200.000	0.008	0.147
-274.399	-200.000	0.009	-0.212
-273.384	-27.050	-0.238	0.138
-272.370	800.000	0.042	0.138
-271.355	-122.453	-0.127	0.021
-270.340	-200.000	-0.002	0.097
-269.326	-200.000	-0.010	0.594
-268.311	-200.000	-0.050	0.385
-267.297	800.000	-0.055	0.157
-266.282	44.415	0.111	-0.101
-265.267	-83.649	0.309	0.098
-264.253	-200.000	-0.004	0.035
-263.238	425.077	-0.058	0.124
-262.224	800.000	-0.097	0.329
-261.209	205.082	-0.218	0.336
-260.195	244.104	-0.029	-0.048
-259.180	-200.000	-0.002	0.059
-258.165	-200.000	-0.073	0.320
-257.151	344.984	0.234	-0.456
-256.136	-16.738	0.064	-0.040
-255.122	800.000	0.031	-0.103
-254.107	-109.264	0.166	0.035
-253.092	-138.183	-0.135	0.015
-252.078	800.000	0.019	0.081
-251.063	82.973	0.128	0.138
-250.049	800.000	0.017	-0.054
-249.034	79.688	-0.065	-0.070
-248.019	-200.000	-0.016	-0.186
-247.005	386.844	-0.090	0.184
-245.990	-26.331	-0.202	0.117
-244.976	249.585	0.170	-0.286
-243.961	160.430	0.074	0.102
-242.946	70.539	0.287	-0.294
-241.932	-65.674	-0.306	0.121
-240.917	-146.896	-0.284	-0.024
-239.903	43.167	-0.095	0.086
-238.888	462.931	0.094	-0.207
-237.873	-200.000	0.016	0.122
-236.859	129.045	0.150	0.190
-235.844	-43.329	-0.095	-0.048
-234.830	311.604	0.277	0.516
-233.815	800.000	-0.027	-0.089
-232.800	182.702	-0.010	-0.015
-231.786	-8.726	-0.107	-0.071
-230.771	-200.000	-0.007	-0.144
-229.757	134.540	0.174	-0.223
-228.742	-200.000	-0.026	0.382
-227.727	-87.767	0.068	-0.020
-226.713	320.701	-0.198	-0.372
-225.698	-97.321	-0.146	-0.038
-224.684	31.341	-0.082	0.069
-223.669	800.000	0.070	0.206
-222.655	-200.000	0.006	0.089
-221.640	-100.026	-0.303	-0.075
-220.625	-196.579	-0.207	-0.001
-219.611	197.229	-0.096	0.146
-218.596	112.382	0.049	0.059
-217.582	-106.589	0.079	0.017
-216.567	800.000	-0.040	-0.169
-215.552	220.686	0.061	-0.096
-214.538	108.363	0.183	0.216
-213.523	-200.000	-0.004	-0.090
-212.509	-170.107	-0.193	0.007
-211.494	320.696	0.107	-0.202
-210.479	487.603	-0.101	0.229
-209.465	-65.497	0.338	-0.134
-208.450	800.000	0.038	0.161
-207.436	-200.000	0.272	-0.001
-206.421	-55.214	-0.278	-0.124
-205.406	-124.494	0.272	0.042
-204.392	-65.202	0.234	0.093
-203.377	43.255	-0.097	-0.087
-202.363	211.063	0.027	-0.042
-201.348	107.845	-0.112	-0.132
-200.333	6.675	-0.270	0.199
-199.319	-39.793	-0.141	-0.073
-198.304	800.000	0.007	0.027
-197.290	-200.000	-0.010	-0.165
-196.275	-85.244	-0.255	-0.079
-195.260	-62.009	0.379	0.157
-194.246	-138.103	0.317	0.035
-193.231	47.152	-0.118	-0.108
-192.217	-124.502	0.274	0.042
-191.202	-200.000	-0.025	-0.176
-190.187	-36.226	0.153	-0.082
-189.173	-200.000	-0.017	0.314
-188.158	-5.366	0.259	0.176
-187.144	83.555	-0.135	-0.146
-186.129	800.000	0.092	-0.298
-185.114	-102.542	-0.191	0.045
-184.100	-200.000	0.008	-0.294
-183.085	44.804	0.150	0.136
-182.071	-46.724	0.016	-0.008
-181.056	175.119	-0.090	0.128
-180.042	325.471	0.110	-0.208
-179.027	800.000	-0.042	-0.155
-178.012	10.857	-0.286	0.216
-176.998	-106.855	-0.058	-0.013
-175.983	-200.000	0.009	0.242
-174.969	-115.783	0.210	0.039
-173.954	-56.565	0.209	-0.092
-172.939	202.723	0.109	-0.167
-171.925	-5.417	0.249	0.169
-170.910	-16.486	-0.147	-0.092
-169.896	88.004	-0.077	0.084
-168.881	671.669	0.119	-0.304
-167.866	-61.212	-0.183	-0.076
-166.852	203.890	0.143	0.219
-165.837	-200.000	0.008	0.099
-164.823	-69.275	0.171	-0.065
-163.808	-128.291	-0.282	0.040
-162.793	-82.497	0.039	-0.013
-161.779	-200.000	-0.020	-0.375
-160.764	-67.532	-0.312	0.121
-159.750	-200.000	-0.042	0.231
-158.735	62.212	0.181	-0.178
-157.720	38.096	-0.072	-0.063
-156.706	-200.000	-0.019	-0.119
-155.691	44.233	0.435	-0.394
-154.677	-200.000	-0.054	0.324
-153.662	-70.627	-0.181	0.067
-152.647	800.000	0.035	-0.099
-151.633	-15.346	-0.114	0.072
-150.618	-121.756	-0.163	0.027
-149.604	59.344	0.225	0.219
-148.589	531.799	-0.163	-0.380
-147.574	800.000	0.120	0.328
-146.560	-200.000	0.029	0.128
-145.545	-185.280	-0.299	0.005
-144.531	-86.881	-0.143	-0.043
-143.516	-63.886	-0.081	-0.033
-142.502	-161.701	0.126	0.006
-141.487	-61.522	-0.119	-0.049
-140.472	-66.937	-0.322	0.125
-139.458	-30.948	-0.294	0.164
-138.443	54.604	0.135	0.129
-137.429	329.275	0.123	-0.233
-136.414	800.000	0.058	-0.197
-135.399	-104.534	-0.172	0.039
-134.385	734.726	-0.100	0.264
-133.370	-200.000	-0.033	0.144
-132.356	-72.477	-0.230	0.084
-131.341	-145.556	0.479	0.042
-130.326	-15.172	-0.115	0.072
-129.312	800.000	-0.064	-0.249
-128.297	-105.417	0.205	0.046
-127.283	175.927	0.119	0.171
-126.268	-200.000	0.008	-0.056
-125.253	-200.000	0.000	0.278
-124.239	-200.000	-0.062	0.282
-123.224	-157.754	0.294	-0.017
-122.210	136.736	-0.244	-0.315
-121.195	174.067	0.189	0.270
