DTS Sentinel unit serial number:	SN413079Multiplexer serial number:	ORYXHardware model number:	OX4-SRSoftware version number:	ORYX F/W v4.00 Oryx Data Collector v3.7.2.0data status	okinstallation	princeton_trtdifferential loss correction	single-endedforward channel	channel 3reverse channel	N/Adate	2019/09/11time	23:18:11forward acquisition time	60.00reverse acquisition time	0.00gamma	496.2192k internal	0.2317k external	0.2317temperature offset calibration	1.0051default loss term (dB/km)	0.3790temperature slope calibration	1.0000multiplexer offset coefficient	1.0000multiplexer slope coefficient	1.0000fibre end	0.00T internal ref (°C)	34.37T ext. ref 1 (°C)	1.87T ext. ref 2 (°C)	28.88length (m)	temperature (°C)	Stokes	anti-Stokes-747.200	-135.122	0.165	-0.020
-746.185	405.337	-0.109	0.232
-745.171	50.537	0.122	-0.117
-744.156	-200.000	0.032	0.626
-743.142	-200.000	0.050	0.232
-742.127	-94.795	-0.453	0.124
-741.112	-155.490	-0.141	0.009
-740.098	800.000	0.038	0.148
-739.083	800.000	0.009	-0.034
-738.069	-51.650	0.198	-0.094
-737.054	380.088	-0.142	0.294
-736.039	-165.230	-0.444	-0.020
-735.025	-7.531	-0.182	0.125
-734.010	-82.856	0.223	-0.073
-732.996	23.053	-0.247	-0.205
-731.981	34.092	-0.190	-0.168
-730.966	-200.000	-0.000	0.020
-729.952	14.965	0.017	-0.014
-728.937	-92.504	-0.211	0.060
-727.923	497.211	-0.061	0.142
-726.908	89.776	0.068	0.077
-725.894	800.000	0.106	0.441
-724.879	84.407	-0.241	0.267
-723.864	102.347	-0.125	-0.148
-722.850	-142.370	-0.424	-0.042
-721.835	140.906	0.137	-0.183
-720.821	-200.000	0.021	0.340
-719.806	-200.000	-0.064	-0.343
-718.791	304.856	-0.053	-0.099
-717.777	-67.640	-0.275	-0.109
-716.762	45.867	-0.054	0.051
-715.748	178.445	0.148	-0.218
-714.733	-64.570	0.187	-0.077
-713.718	-115.005	-0.128	0.025
-712.704	-156.367	0.171	-0.011
-711.689	-200.000	-0.108	-0.528
-710.675	-56.161	0.255	-0.115
-709.660	619.203	0.055	0.140
-708.645	150.067	0.267	-0.367
-707.631	-62.402	0.600	0.252
-706.616	120.775	-0.176	-0.221
-705.602	211.522	0.207	-0.330
-704.587	-93.996	-0.231	-0.064
-703.572	-35.497	0.176	-0.097
-702.558	-151.333	-0.116	-0.009
-701.543	-3.077	-0.100	0.070
-700.529	800.000	0.032	-0.108
-699.514	-200.000	0.013	-0.161
-698.499	-200.000	0.010	-0.240
-697.485	328.910	-0.099	-0.192
-696.470	437.983	0.226	0.498
-695.456	-200.000	0.002	-0.156
-694.441	43.554	-0.101	-0.093
-693.426	-200.000	0.042	-0.511
-692.412	-200.000	0.046	0.314
-691.397	-29.111	0.078	0.045
-690.383	-127.348	-0.259	-0.038
-689.368	-8.530	-0.179	-0.122
-688.354	-62.426	-0.365	0.153
-687.339	399.759	-0.199	-0.421
-686.324	-45.237	-0.228	0.115
-685.310	151.111	-0.195	0.267
-684.295	2.436	-0.059	-0.043
-683.281	631.082	0.046	-0.118
-682.266	63.840	-0.062	-0.063
-681.251	40.016	-0.220	-0.200
-680.237	-120.527	0.105	0.018
-679.222	-200.000	0.035	0.309
-678.208	57.236	0.201	-0.198
-677.193	308.074	0.180	-0.339
-676.178	-116.299	0.162	-0.030
-675.164	-36.313	0.242	-0.132
-674.149	7.033	0.204	0.153
-673.135	-200.000	0.046	0.307
-672.120	289.790	0.164	0.300
-671.105	-19.589	0.282	0.176
-670.091	-99.548	0.264	0.067
-669.076	18.119	0.189	0.152
-668.062	-73.400	-0.342	-0.126
-667.047	31.047	-0.227	0.197
-666.032	-82.759	0.243	-0.079
-665.018	-61.779	-0.467	-0.197
-664.003	-58.248	-0.212	-0.093
-662.989	-106.048	0.329	0.075
-661.974	-46.141	-0.192	-0.095
-660.959	-154.561	-0.430	0.029
-659.945	800.000	0.065	-0.210
-658.930	173.030	-0.169	0.246
-657.916	-75.823	-0.236	-0.084
-656.901	-164.717	0.168	-0.008
-655.886	800.000	-0.067	-0.247
-654.872	-25.737	0.105	0.062
-653.857	-200.000	0.058	-0.396
-652.843	-3.734	0.286	-0.201
-651.828	47.533	0.091	0.086
-650.814	-25.332	0.177	0.106
-649.799	-67.178	0.071	-0.028
-648.784	268.033	-0.111	0.197
-647.770	34.633	-0.330	-0.291
-646.755	-34.838	-0.098	0.054
-645.741	-184.058	0.212	0.004
-644.726	4.524	-0.169	-0.125
-643.711	44.544	0.186	-0.172
-642.697	-30.919	0.154	0.088
-641.682	53.344	0.083	-0.080
-640.668	187.634	0.060	-0.091
-639.653	-200.000	0.027	-0.164
-638.638	-200.000	-0.048	-0.362
-637.624	-200.000	0.040	-0.407
-636.609	-200.000	0.073	0.456
-635.595	-77.436	0.431	0.151
-634.580	63.044	0.102	-0.103
-633.565	-200.000	-0.030	-0.139
-632.551	72.379	-0.220	0.231
-631.536	-200.000	-0.005	-0.217
-630.522	380.292	-0.089	0.184
-629.507	-139.841	-0.251	0.027
-628.492	-200.000	-0.027	0.373
-627.478	73.649	-0.078	0.082
-626.463	800.000	-0.086	0.256
-625.449	578.669	0.078	0.191
-624.434	-200.000	-0.003	0.025
-623.419	113.146	0.146	-0.179
-622.405	137.281	0.199	0.262
-621.390	94.446	0.170	0.194
-620.376	417.406	-0.056	-0.121
-619.361	-46.596	-0.170	-0.084
-618.346	135.538	-0.178	-0.233
-617.332	48.856	-0.092	-0.087
-616.317	-6.774	0.087	0.060
-615.303	63.737	-0.226	-0.229
-614.288	101.843	0.070	0.082
-613.273	-58.999	0.341	0.148
-612.259	356.165	-0.087	-0.175
-611.244	571.286	0.104	-0.255
-610.230	-49.142	-0.233	0.112
-609.215	287.663	-0.083	-0.152
-608.201	800.000	-0.025	-0.102
-607.186	96.162	-0.077	-0.088
-606.171	-67.354	-0.248	-0.098
-605.157	258.488	-0.228	0.396
-604.142	-102.457	-0.167	-0.040
-603.128	-200.000	0.012	-0.109
-602.113	156.022	0.248	-0.345
-601.098	-112.268	-0.278	0.056
-600.084	-118.899	0.370	-0.066
-599.069	6.773	-0.162	0.122
-598.055	35.699	0.139	0.123
-597.040	-163.534	-0.252	0.012
-596.025	-151.272	-0.234	-0.018
-595.011	-38.286	0.166	0.089
-593.996	-3.550	0.202	-0.142
-592.982	-200.000	-0.004	0.087
-591.967	462.162	0.075	0.170
-590.952	43.856	0.204	-0.188
-589.938	-200.000	-0.021	0.423
-588.923	51.735	0.088	0.085
-587.909	68.100	-0.075	0.077
-586.894	-200.000	-0.002	0.116
-585.879	800.000	-0.087	-0.290
-584.865	800.000	0.077	-0.291
-583.850	-81.938	-0.068	-0.022
-582.836	78.242	-0.155	-0.166
-581.821	-152.369	0.278	-0.020
-580.806	-104.679	-0.222	-0.051
-579.792	-7.778	-0.381	-0.259
-578.777	-132.362	0.121	-0.016
-577.763	38.773	0.050	-0.045
-576.748	-200.000	-0.042	0.203
-575.733	-200.000	-0.009	-0.069
-574.719	-118.389	-0.194	0.035
-573.704	-98.579	-0.156	-0.040
-572.690	29.205	0.173	-0.148
-571.675	76.583	-0.127	-0.135
-570.661	155.906	-0.107	0.149
-569.646	-200.000	0.031	-0.181
-568.631	93.345	-0.217	-0.246
-567.617	564.301	0.152	-0.371
-566.602	-33.951	0.149	0.083
-565.588	800.000	0.020	0.063
-564.573	-170.093	-0.174	-0.006
-563.558	-82.686	0.026	0.008
-562.544	-200.000	0.017	-0.084
-561.529	601.887	0.027	0.069
-560.515	-190.363	0.028	0.000
-559.500	-93.507	0.034	-0.009
-558.485	55.785	0.182	0.178
-557.471	-200.000	0.075	-0.333
-556.456	-200.000	0.056	-0.358
-555.442	-14.259	-0.069	0.044
-554.427	22.244	0.283	-0.232
-553.412	-49.829	0.300	-0.143
-552.398	-55.974	-0.201	0.090
-551.383	16.658	0.042	-0.033
-550.369	205.797	-0.174	0.271
-549.354	448.980	-0.099	0.219
-548.339	55.680	-0.184	-0.179
-547.325	139.746	-0.015	-0.019
-546.310	58.022	0.144	-0.142
-545.296	-69.905	-0.242	-0.093
-544.281	-94.404	-0.317	0.087
-543.266	800.000	-0.102	0.337
-542.252	112.507	0.030	-0.036
-541.237	578.000	-0.195	-0.480
-540.223	-144.117	-0.185	0.017
-539.208	-200.000	0.095	-0.000
-538.193	-200.000	-0.042	-0.243
-537.179	74.945	0.270	-0.286
-536.164	800.000	0.129	0.415
-535.150	100.443	0.123	0.143
-534.135	-132.548	0.502	-0.065
-533.121	-135.035	-0.068	-0.008
-532.106	-29.857	-0.179	-0.102
-531.091	-45.400	0.388	0.193
-530.077	-200.000	-0.046	0.514
-529.062	-20.423	-0.083	-0.052
-528.048	800.000	0.080	-0.288
-527.033	-200.000	-0.005	0.108
-526.018	800.000	0.054	0.182
-525.004	324.720	0.169	-0.325
-523.989	-141.292	0.424	-0.043
-522.975	800.000	0.031	-0.137
-521.960	96.301	0.124	0.142
-520.945	102.400	0.105	0.123
-519.931	-200.000	0.012	0.057
-518.916	-6.229	-0.125	-0.086
-517.902	-176.087	-0.078	-0.002
-516.887	-10.212	-0.124	0.083
-515.872	-117.574	0.217	0.039
-514.858	-200.000	-0.069	-0.616
-513.843	-200.000	-0.015	-0.234
-512.829	-128.170	0.104	-0.015
-511.814	-19.513	0.145	-0.090
-510.799	-70.038	-0.402	-0.154
-509.785	-117.458	-0.183	-0.033
-508.770	9.399	0.329	-0.249
-507.756	58.354	0.096	0.094
-506.741	-79.777	-0.122	0.041
-505.726	79.009	-0.163	-0.175
-504.712	-15.325	0.241	0.155
-503.697	252.833	0.101	-0.172
-502.683	110.414	-0.145	0.175
-501.668	800.000	0.057	-0.209
-500.653	98.839	-0.321	-0.372
-499.639	800.000	-0.091	-0.265
-498.624	189.110	-0.158	0.237
-497.610	-105.487	-0.179	0.041
-496.595	534.208	0.073	-0.174
-495.581	-200.000	-0.026	0.155
-494.566	331.202	-0.152	0.294
-493.551	-37.674	0.208	0.111
-492.537	-200.000	-0.050	-0.301
-491.522	800.000	-0.078	-0.246
-490.508	-200.000	-0.019	0.186
-489.493	75.883	0.068	-0.072
-488.478	-157.333	-0.148	0.009
-487.464	-78.049	0.070	0.024
-486.449	24.633	-0.176	-0.146
-485.435	-3.944	0.206	0.143
-484.420	-75.043	0.190	-0.068
-483.405	800.000	0.074	0.291
-482.391	303.609	-0.175	0.325
-481.376	56.641	0.178	-0.173
-480.362	71.868	-0.183	0.191
-479.347	81.242	-0.225	0.244
-478.332	-8.405	0.097	-0.065
-477.318	-134.788	-0.067	-0.008
-476.303	-200.000	-0.196	0.001
-475.289	81.974	-0.313	0.339
-474.274	19.156	0.071	-0.057
-473.259	626.516	-0.114	0.287
-472.245	-17.808	0.135	0.085
-471.230	311.932	-0.251	0.471
-470.216	31.603	-0.154	-0.132
-469.201	587.112	0.183	0.451
-468.186	-10.381	-0.273	-0.181
-467.172	-178.055	-0.224	-0.005
-466.157	-49.369	0.082	0.039
-465.143	-20.221	-0.177	0.109
-464.128	57.080	0.195	0.191
-463.113	-200.000	0.015	-0.194
-462.099	800.000	0.032	-0.091
-461.084	-5.752	-0.104	-0.071
-460.070	800.000	0.081	0.337
-459.055	53.492	-0.284	-0.273
-458.040	800.000	0.030	-0.090
-457.026	-13.152	0.079	0.051
-456.011	500.285	-0.103	0.237
-454.997	800.000	-0.025	-0.095
-453.982	-200.000	0.018	0.107
-452.968	-136.848	-0.173	-0.020
-451.953	557.164	0.028	0.067
-450.938	24.739	-0.242	0.201
-449.924	-109.108	0.124	-0.027
-448.909	-38.304	-0.165	-0.088
-447.895	15.927	-0.235	-0.185
-446.880	0.203	-0.206	-0.147
-445.865	-33.296	0.341	0.189
-444.851	-27.692	-0.220	-0.128
-443.836	111.497	-0.260	0.313
-442.822	73.303	0.204	-0.213
-441.807	-72.626	-0.129	0.048
-440.792	144.158	-0.056	0.075
-439.778	800.000	-0.054	0.224
-438.763	38.898	-0.212	0.189
-437.749	-94.295	0.359	-0.098
-436.734	-200.000	-0.020	-0.183
-435.719	-200.000	0.045	-0.222
-434.705	380.188	-0.165	-0.338
-433.690	-82.048	0.276	0.090
-432.676	-74.693	0.227	0.082
-431.661	138.267	-0.163	0.214
-430.646	6.132	0.147	-0.109
-429.632	35.180	0.134	-0.117
-428.617	746.237	-0.052	-0.140
-427.603	657.115	0.126	-0.324
-426.588	23.631	-0.077	-0.063
-425.573	29.551	-0.097	0.083
-424.559	-89.335	-0.067	-0.020
-423.544	-199.290	-0.300	-0.002
-422.530	46.845	-0.114	0.106
-421.515	-111.338	0.405	-0.083
-420.500	-200.000	0.006	-0.368
-419.486	51.768	-0.290	-0.276
-418.471	473.839	-0.036	0.080
-417.457	411.161	0.015	0.032
-416.442	800.000	0.051	0.170
-415.428	246.431	-0.160	0.269
-414.413	-12.558	0.338	0.221
-413.398	800.000	-0.120	0.399
-412.384	31.377	0.220	0.189
-411.369	-200.000	-0.021	0.153
-410.355	52.441	-0.124	0.118
-409.340	113.071	0.203	-0.246
-408.325	-171.163	0.237	-0.008
-407.311	-200.000	0.040	-0.300
-406.296	63.363	-0.161	-0.162
-405.282	-200.000	0.013	-0.348
-404.267	-89.185	0.154	0.045
-403.252	-84.518	0.182	0.057
-402.238	4.751	0.161	-0.118
-401.223	-200.000	-0.013	-0.244
-400.209	249.513	-0.039	0.066
-399.194	-149.469	0.305	-0.024
-398.179	800.000	-0.091	0.302
-397.165	800.000	0.028	-0.109
-396.150	-200.000	0.034	-0.254
-395.136	-111.729	-0.322	-0.065
-394.121	-43.843	-0.253	-0.127
-393.106	359.823	0.028	-0.057
-392.092	475.765	0.057	0.128
-391.077	-200.000	-0.039	0.200
-390.063	150.686	-0.075	0.102
-389.048	-19.350	0.129	-0.080
-388.033	47.550	0.197	0.183
-387.019	-150.127	-0.363	-0.028
-386.004	95.734	-0.066	0.076
-384.990	338.661	0.084	0.164
-383.975	-40.046	-0.499	-0.260
-382.960	800.000	0.093	-0.262
-381.946	-5.694	0.100	0.068
-380.931	-200.000	0.019	0.457
-379.917	800.000	0.089	-0.377
-378.902	800.000	0.079	0.241
-377.888	-121.743	0.164	0.027
-376.873	-113.329	-0.329	-0.064
-375.858	-52.828	0.097	0.045
-374.844	617.634	0.059	-0.148
-373.829	-86.420	-0.207	-0.064
-372.815	-57.869	0.248	0.108
-371.800	33.420	-0.106	0.092
-370.785	129.498	-0.131	0.167
-369.771	170.440	0.109	0.156
-368.756	130.149	0.186	-0.237
-367.742	-200.000	-0.002	0.113
-366.727	-39.816	-0.190	0.099
-365.712	500.656	0.064	-0.148
-364.698	-69.195	0.271	0.104
-363.683	-106.575	-0.222	0.049
-362.669	268.566	-0.076	-0.133
-361.654	189.574	-0.154	-0.230
-360.639	81.467	-0.173	-0.187
-359.625	-149.988	0.210	-0.016
-358.610	-7.716	0.116	-0.078
-357.596	-1.341	0.004	-0.003
-356.581	800.000	0.070	-0.200
-355.566	800.000	0.059	-0.175
-354.552	-200.000	0.073	0.730
-353.537	800.000	0.095	0.352
-352.523	334.151	-0.128	-0.247
-351.508	-200.000	-0.001	0.025
-350.493	32.441	-0.140	-0.121
-349.479	-19.540	-0.166	0.102
-348.464	800.000	0.029	-0.102
-347.450	-200.000	-0.003	-0.094
-346.435	-87.739	0.239	-0.072
-345.420	-114.081	-0.177	-0.034
-344.406	131.784	-0.123	-0.157
-343.391	6.515	0.305	-0.226
-342.377	-155.100	-0.095	-0.006
-341.362	800.000	-0.061	0.226
-340.348	248.703	-0.116	0.195
-339.333	-200.000	-0.011	-0.149
-338.318	85.703	-0.145	0.159
-337.304	-200.000	-0.004	0.048
-336.289	109.877	0.062	-0.074
-335.275	227.501	0.062	-0.100
-334.260	800.000	0.015	-0.042
-333.245	-88.993	0.286	0.084
-332.231	173.235	0.120	0.172
-331.216	82.255	-0.119	0.128
-330.202	-110.148	-0.110	0.023
-329.187	223.922	0.068	-0.109
-328.172	-71.792	-0.087	-0.032
-327.158	-200.000	0.053	-0.265
-326.143	564.114	-0.143	0.345
-325.129	-33.449	0.093	0.051
-324.114	-135.513	-0.142	0.017
-323.099	-200.000	-0.059	-0.261
-322.085	-200.000	0.054	0.306
-321.070	29.543	0.121	0.102
-320.056	-70.924	-0.082	-0.031
-319.041	261.043	-0.131	-0.226
-318.026	576.254	-0.141	-0.343
-317.012	343.168	-0.051	0.100
-315.997	-71.388	-0.153	0.057
-314.983	-200.000	0.056	-0.318
-313.968	-124.315	-0.127	0.020
-312.953	125.312	0.154	0.193
-311.939	-111.444	-0.250	0.051
-310.924	-120.122	0.080	-0.014
-309.910	619.360	-0.145	-0.362
-308.895	-200.000	0.017	0.094
-307.880	-28.580	0.206	0.118
-306.866	-123.874	0.197	0.031
-305.851	156.585	0.061	-0.084
-304.837	-200.000	-0.018	0.125
-303.822	-200.000	0.022	0.095
-302.807	-59.920	-0.056	0.024
-301.793	14.428	0.233	-0.181
-300.778	39.538	-0.271	-0.242
-299.764	800.000	-0.050	-0.140
-298.749	-80.635	0.121	0.040
-297.735	800.000	-0.083	0.269
-296.720	24.914	0.193	0.159
-295.705	-59.042	-0.070	-0.030
-294.691	-200.000	-0.014	-0.132
-293.676	800.000	0.086	0.329
-292.662	-200.000	-0.003	0.117
-291.647	62.034	0.133	-0.132
-290.632	-52.059	0.251	-0.116
-289.618	-129.799	-0.220	-0.030
-288.603	-117.942	-0.142	0.025
-287.589	-130.247	0.154	-0.021
-286.574	-64.735	0.204	0.082
-285.559	-200.000	0.020	0.170
-284.545	-200.000	-0.025	0.294
-283.530	-112.265	0.232	0.046
-282.516	-149.527	-0.106	0.008
-281.501	800.000	-0.031	0.110
-280.486	118.441	-0.080	0.098
-279.472	227.530	0.171	0.277
-278.457	58.422	-0.184	0.180
-277.443	109.416	-0.111	-0.132
-276.428	800.000	-0.064	0.213
-275.413	-200.000	-0.028	-0.243
-274.399	800.000	-0.090	-0.301
-273.384	122.226	-0.223	0.277
-272.370	-51.516	0.125	0.058
-271.355	345.120	-0.048	0.095
-270.340	118.948	0.086	-0.106
-269.326	-81.203	0.147	-0.048
-268.311	-200.000	-0.038	0.191
-267.297	89.794	0.221	0.245
-266.282	-165.444	-0.164	-0.007
-265.267	519.707	-0.053	-0.123
-264.253	-200.000	0.044	-0.282
-263.238	-200.000	0.034	0.333
-262.224	61.797	0.178	0.176
-261.209	40.594	-0.048	0.043
-260.195	-126.172	0.317	-0.047
-259.180	-11.064	0.501	0.329
-258.165	800.000	0.107	0.322
-257.151	78.356	0.273	0.290
-256.136	-30.470	0.189	0.107
-255.122	6.363	-0.202	-0.149
-254.107	619.254	-0.147	0.367
-253.092	-128.288	-0.236	0.033
-252.078	116.774	-0.063	-0.076
-251.063	384.113	0.031	-0.064
-250.049	-28.940	0.138	0.078
-249.034	-200.000	0.045	-0.474
-248.019	14.972	-0.148	-0.115
-247.005	-200.000	-0.047	-0.208
-245.990	98.866	-0.097	0.111
-244.976	-59.322	0.171	0.073
-243.961	187.580	-0.184	-0.273
-242.946	17.547	0.234	0.185
-241.932	-95.741	-0.198	-0.053
-240.917	294.363	-0.056	0.101
-239.903	121.360	-0.199	0.246
-238.888	81.044	-0.224	0.240
-237.873	591.927	-0.036	0.088
-236.859	551.909	0.065	0.156
-235.844	623.091	-0.090	0.225
-234.830	800.000	-0.033	0.122
-233.815	-100.528	0.189	0.046
-232.800	-9.764	-0.120	-0.080
-231.786	-75.848	-0.127	-0.045
-230.771	185.987	0.160	0.236
-229.757	-172.864	-0.346	0.011
-228.742	111.734	0.147	-0.176
-227.727	-200.000	0.367	0.000
-226.713	-62.188	-0.070	-0.029
-225.698	-152.370	0.216	-0.015
-224.684	-56.523	0.198	-0.087
-223.669	112.269	-0.095	-0.114
-222.655	119.455	0.203	0.250
-221.640	-87.548	0.129	-0.039
-220.625	60.251	0.180	0.177
-219.611	-1.557	-0.151	-0.105
-218.596	51.131	-0.197	-0.185
-217.582	-200.000	0.036	-0.238
-216.567	800.000	0.073	-0.242
-215.552	36.685	-0.075	-0.066
-214.538	17.318	-0.052	-0.041
-213.523	800.000	0.082	0.299
-212.509	-18.365	0.026	-0.016
-211.494	-200.000	-0.018	0.152
-210.479	-200.000	0.007	-0.218
-209.465	-167.930	0.141	0.005
-208.450	-7.031	-0.136	-0.092
-207.436	251.584	0.048	-0.082
-206.421	137.154	-0.210	-0.272
-205.406	245.935	-0.181	-0.303
-204.392	-140.895	0.271	0.028
-203.377	2.223	0.344	0.246
-202.363	-82.269	0.313	-0.101
-201.348	125.347	0.168	0.210
-200.333	4.657	0.110	-0.080
-199.319	-87.118	0.408	0.123
-198.304	800.000	0.045	0.162
-197.290	100.706	0.026	-0.030
-196.275	300.552	-0.104	-0.190
-195.260	265.307	-0.105	0.182
-194.246	437.344	-0.064	-0.138
-193.231	28.548	0.376	0.316
-192.217	210.136	0.093	-0.145
-191.202	-41.995	-0.076	0.038
-190.187	-130.517	0.059	0.008
-189.173	123.114	0.175	0.217
-188.158	337.068	0.093	0.178
-187.144	74.744	-0.213	-0.222
-186.129	-17.990	0.080	0.050
-185.114	-20.200	0.063	-0.039
-184.100	-200.000	-0.014	-0.283
-183.085	-186.010	0.212	-0.003
-182.071	-20.004	-0.157	-0.096
-181.056	-32.811	0.307	-0.169
-180.042	69.099	0.067	0.069
-179.027	-88.447	-0.138	0.041
-178.012	800.000	-0.075	0.257
-176.998	92.016	0.137	-0.153
-175.983	304.643	-0.060	-0.110
-174.969	800.000	0.090	-0.390
-173.954	43.566	0.204	0.185
-172.939	383.612	0.059	0.120
-171.925	-186.573	-0.024	0.000
-170.910	-4.035	-0.330	-0.227
-169.896	-200.000	-0.019	-0.109
-168.881	-200.000	-0.021	0.186
-167.866	-55.154	0.472	0.210
-166.852	639.475	0.048	0.120
-165.837	-55.571	0.153	-0.068
-164.823	121.831	-0.226	-0.279
-163.808	300.329	-0.096	-0.176
-162.793	800.000	-0.044	-0.138
-161.779	34.343	-0.179	-0.154
-160.764	-68.312	-0.232	0.089
-159.750	800.000	-0.124	0.403
-158.735	-200.000	0.099	0.568
-157.720	-118.548	0.038	0.007
-156.706	153.919	-0.135	0.184
-155.691	633.303	-0.061	0.153
-154.677	125.729	0.063	-0.078
-153.662	-14.906	-0.133	0.084
-152.647	-78.509	-0.066	-0.022
-151.633	800.000	-0.082	-0.265
-150.618	-155.208	0.428	0.028
-149.604	102.551	0.148	0.172
-148.589	45.795	0.215	-0.197
-147.574	-47.242	-0.084	0.040
-146.560	-76.804	-0.246	-0.085
-145.545	-31.091	-0.189	0.105
-144.531	25.017	0.106	-0.087
-143.516	-200.000	0.008	-0.155
-142.502	-58.955	-0.307	-0.131
-141.487	800.000	0.053	-0.184
-140.472	-115.476	0.241	0.045
-139.458	-154.977	0.081	-0.005
-138.443	-200.000	0.003	-0.101
-137.429	-18.354	-0.245	0.151
-136.414	61.070	0.045	-0.044
-135.399	-18.914	-0.272	0.168
-134.385	588.116	0.075	-0.182
-133.370	-55.262	0.255	-0.113
-132.356	-166.985	0.278	-0.011
-131.341	-50.681	-0.083	-0.039
-130.326	12.862	0.407	-0.311
-129.312	800.000	-0.018	0.060
-128.297	168.189	-0.336	0.473
-127.283	-200.000	-0.015	-0.065
-126.268	-111.686	0.221	0.044
-125.253	78.766	-0.180	-0.191
-124.239	454.503	-0.114	-0.250
-123.224	-200.000	0.027	-0.314
-122.210	408.581	-0.096	-0.200
-121.195	-109.503	0.375	-0.078
-120.180	-50.920	0.335	0.155
