DTS Sentinel unit serial number:	SN413079Multiplexer serial number:	ORYXHardware model number:	OX4-SRSoftware version number:	ORYX F/W v4.00 Oryx Data Collector v3.7.2.0data status	okinstallation	princeton_trtdifferential loss correction	single-endedforward channel	channel 3reverse channel	N/Adate	2019/09/11time	23:02:11forward acquisition time	60.00reverse acquisition time	0.00gamma	496.2192k internal	0.2316k external	0.2316temperature offset calibration	1.0051default loss term (dB/km)	0.3790temperature slope calibration	1.0000multiplexer offset coefficient	1.0000multiplexer slope coefficient	1.0000fibre end	0.00T internal ref (°C)	34.56T ext. ref 1 (°C)	1.84T ext. ref 2 (°C)	29.14length (m)	temperature (°C)	Stokes	anti-Stokes-747.200	17.805	0.179	0.144
-746.185	-200.000	-0.083	0.618
-745.171	46.034	0.167	-0.156
-744.156	142.633	-0.091	0.122
-743.142	800.000	-0.030	0.131
-742.127	-200.000	0.005	0.351
-741.112	335.810	-0.118	0.232
-740.098	403.174	0.052	0.111
-739.083	55.389	-0.201	0.197
-738.069	38.768	-0.143	0.129
-737.054	-200.000	-0.000	-0.054
-736.039	800.000	-0.109	-0.314
-735.025	-200.000	-0.009	-0.046
-734.010	-49.216	-0.141	0.068
-732.996	-68.312	-0.254	0.100
-731.981	63.341	0.356	0.362
-730.966	-59.564	0.121	0.053
-729.952	800.000	-0.043	0.165
-728.937	-200.000	-0.053	-0.236
-727.923	-64.802	0.289	0.118
-726.908	-137.808	-0.453	0.051
-725.894	800.000	0.086	-0.315
-724.879	800.000	-0.081	-0.249
-723.864	116.759	0.083	0.103
-722.850	24.072	0.097	-0.081
-721.835	800.000	0.031	-0.098
-720.821	-25.787	0.122	0.073
-719.806	527.268	-0.135	-0.321
-718.791	14.530	-0.169	-0.133
-717.777	-155.819	0.198	-0.013
-716.762	-174.307	-0.191	0.006
-715.748	-17.199	0.278	0.177
-714.733	-8.450	-0.023	-0.016
-713.718	800.000	0.042	-0.143
-712.704	192.530	-0.295	-0.450
-711.689	-200.000	-0.051	0.275
-710.675	-131.831	0.142	-0.019
-709.660	63.396	0.165	-0.167
-708.645	-200.000	0.018	0.163
-707.631	-19.700	-0.331	0.207
-706.616	159.976	-0.180	0.253
-705.602	800.000	0.077	0.303
-704.587	453.552	-0.135	-0.302
-703.572	280.551	0.069	-0.124
-702.558	800.000	0.031	0.089
-701.543	121.052	0.260	0.327
-700.529	-71.092	0.108	0.041
-699.514	-200.000	0.024	0.163
-698.499	-79.639	-0.059	0.020
-697.485	800.000	0.024	-0.090
-696.470	-21.354	0.263	0.163
-695.456	-160.732	0.243	0.013
-694.441	800.000	-0.066	-0.210
-693.426	134.493	0.061	-0.080
-692.412	-98.150	0.111	-0.029
-691.397	31.106	-0.176	0.152
-690.383	479.392	-0.092	-0.210
-689.368	-200.000	0.013	-0.530
-688.354	429.322	-0.062	-0.136
-687.339	-171.915	-0.053	0.002
-686.324	8.002	0.073	0.056
-685.310	-104.514	0.203	-0.047
-684.295	-133.706	-0.195	0.025
-683.281	-33.262	-0.423	-0.237
-682.266	-94.549	-0.132	-0.036
-681.251	164.514	-0.189	-0.269
-680.237	-186.351	-0.278	-0.004
-679.222	-44.172	0.177	0.090
-678.208	154.078	0.139	0.192
-677.193	166.684	0.045	0.065
-676.178	-92.947	-0.078	0.022
-675.164	-107.187	0.165	-0.037
-674.149	27.635	-0.200	-0.170
-673.135	466.403	0.149	-0.338
-672.120	79.081	-0.148	0.160
-671.105	559.669	0.084	-0.205
-670.091	26.150	0.105	0.088
-669.076	-155.208	-0.092	0.006
-668.062	-86.953	0.465	0.143
-667.047	-52.892	0.039	0.018
-666.032	-9.846	0.193	-0.130
-665.018	-13.107	-0.213	0.140
-664.003	178.254	-0.154	0.227
-662.989	-112.244	-0.437	-0.089
-661.974	347.969	-0.051	-0.101
-660.959	800.000	0.021	-0.066
-659.945	-141.074	0.165	0.017
-658.930	159.997	0.046	0.065
-657.916	-43.272	-0.283	0.145
-656.901	-85.513	-0.364	-0.114
-655.886	-146.074	-0.113	0.010
-654.872	-55.303	-0.133	0.060
-653.857	800.000	0.027	0.094
-652.843	52.672	0.092	0.089
-651.828	-134.922	-0.325	0.040
-650.814	582.191	0.157	-0.388
-649.799	80.223	0.140	-0.152
-648.784	26.057	-0.496	-0.418
-647.770	336.730	-0.090	-0.177
-646.755	132.552	-0.104	-0.135
-645.741	-200.000	-0.029	-0.202
-644.726	-39.863	-0.314	-0.165
-643.711	37.526	-0.161	-0.144
-642.697	784.633	-0.048	-0.132
-641.682	-112.477	-0.172	-0.035
-640.668	-174.772	-0.121	-0.003
-639.653	32.083	-0.040	0.035
-638.638	-76.555	0.446	0.158
-637.624	-148.458	-0.324	-0.027
-636.609	15.243	0.157	0.124
-635.595	2.609	0.196	-0.143
-634.580	158.004	0.103	0.144
-633.565	-136.320	-0.309	-0.036
-632.551	93.204	0.155	-0.177
-631.536	131.176	0.146	0.190
-630.522	366.892	-0.057	0.115
-629.507	-200.000	0.000	0.113
-628.492	510.095	0.120	-0.281
-627.478	178.512	0.020	0.029
-626.463	-174.596	0.406	0.012
-625.449	346.668	0.113	-0.224
-624.434	-128.606	-0.174	0.025
-623.419	-40.478	0.120	0.063
-622.405	-200.000	-0.010	-0.210
-621.390	225.292	0.152	-0.248
-620.376	-111.857	0.065	-0.013
-619.361	-200.000	0.085	0.405
-618.346	-169.035	0.295	0.011
-617.332	-11.223	0.338	0.225
-616.317	222.816	-0.065	0.106
-615.303	-31.782	0.277	-0.156
-614.288	24.414	-0.039	0.032
-613.273	-167.107	-0.306	0.013
-612.259	-200.000	0.060	0.302
-611.244	-107.384	0.225	-0.050
-610.230	747.458	-0.102	-0.276
-609.215	-139.359	-0.255	-0.028
-608.201	-200.000	-0.071	0.317
-607.186	800.000	0.067	-0.237
-606.171	-73.528	-0.340	-0.125
-605.157	-200.000	0.055	0.304
-604.142	-89.960	0.403	-0.119
-603.128	-29.639	0.171	0.098
-602.113	124.546	-0.035	0.044
-601.098	78.509	-0.327	-0.352
-600.084	800.000	-0.031	0.117
-599.069	-157.468	0.241	-0.015
-598.055	-34.122	-0.143	-0.079
-597.040	40.756	-0.078	0.071
-596.025	-143.389	-0.275	0.027
-595.011	152.856	0.013	-0.017
-593.996	-76.804	-0.104	0.037
-592.982	800.000	0.048	0.159
-591.967	14.218	0.122	0.096
-590.952	800.000	0.016	0.063
-589.938	-189.228	0.109	0.001
-588.923	32.720	-0.173	-0.151
-587.909	-200.000	0.011	-0.196
-586.894	195.135	0.232	0.355
-585.879	800.000	0.046	0.136
-584.865	-80.018	-0.299	0.101
-583.850	-120.823	-0.410	-0.070
-582.836	62.342	-0.132	-0.133
-581.821	-119.543	-0.114	0.020
-580.806	-95.848	-0.274	0.074
-579.792	-145.017	0.207	0.019
-578.777	-107.133	0.134	-0.030
-577.763	528.719	-0.071	0.169
-576.748	-200.000	-0.048	-0.319
-575.733	800.000	0.123	-0.512
-574.719	800.000	-0.049	-0.213
-573.704	-100.183	-0.213	-0.053
-572.690	-71.641	0.026	0.010
-571.675	-97.190	-0.119	0.031
-570.661	-31.292	-0.080	-0.045
-569.646	-88.934	0.199	-0.059
-568.631	75.647	-0.202	-0.215
-567.617	290.490	-0.102	0.187
-566.602	-144.147	-0.515	0.048
-565.588	-30.971	-0.232	-0.132
-564.573	800.000	-0.052	0.220
-563.558	-44.934	0.107	-0.053
-562.544	-24.199	0.050	-0.030
-561.529	-25.511	-0.171	0.102
-560.515	800.000	-0.127	0.405
-559.500	-200.000	0.013	-0.226
-558.485	-46.497	-0.277	-0.137
-557.471	-27.062	-0.099	0.058
-556.456	-92.021	0.088	0.025
-555.442	58.457	-0.138	0.136
-554.427	-200.000	0.013	-0.213
-553.412	47.962	0.321	0.302
-552.398	-111.979	0.112	-0.023
-551.383	62.033	0.204	-0.205
-550.369	800.000	0.058	-0.186
-549.354	-14.811	0.135	0.087
-548.339	-140.121	0.209	0.022
-547.325	402.672	-0.084	0.178
-546.310	-151.961	-0.142	-0.010
-545.296	156.464	0.238	0.330
-544.281	-200.000	-0.027	-0.324
-543.266	800.000	0.028	-0.084
-542.252	-129.514	0.162	0.022
-541.237	800.000	-0.010	0.034
-540.223	-84.775	0.169	0.053
-539.208	1.310	-0.213	-0.154
-538.193	746.089	-0.174	-0.470
-537.179	-30.993	-0.129	-0.073
-536.164	236.805	-0.076	-0.127
-535.150	37.469	0.083	0.074
-534.135	221.923	-0.045	-0.073
-533.121	45.117	-0.031	0.028
-532.106	130.338	0.070	0.090
-531.091	361.251	0.023	0.046
-530.077	-78.854	0.142	0.049
-529.062	97.474	-0.101	0.116
-528.048	198.376	-0.039	-0.060
-527.033	180.326	-0.199	-0.293
-526.018	-200.000	0.035	-0.332
-525.004	-145.170	-0.132	-0.012
-523.989	-15.313	-0.151	0.097
-522.975	-55.729	0.137	0.062
-521.960	-91.041	0.220	-0.063
-520.945	129.970	0.346	0.444
-519.931	-80.419	0.077	0.026
-518.916	-200.000	-0.001	0.115
-517.902	-200.000	-0.006	-0.130
-516.887	44.935	0.136	0.125
-515.872	-122.384	0.372	0.061
-514.858	406.687	0.075	0.160
-513.843	-121.830	-0.098	-0.016
-512.829	577.978	-0.142	-0.349
-511.814	406.095	0.087	0.184
-510.799	489.969	-0.090	-0.206
-509.785	75.957	-0.173	0.184
-508.770	-112.904	-0.203	0.040
-507.756	-200.000	0.043	0.280
-506.741	-200.000	0.016	-0.186
-505.726	-200.000	0.033	0.281
-504.712	-200.000	0.004	0.230
-503.697	104.143	-0.083	-0.099
-502.683	-200.000	-0.039	-0.282
-501.668	-69.442	-0.184	0.071
-500.653	137.209	0.095	-0.125
-499.639	81.857	0.263	0.286
-498.624	-148.727	-0.171	-0.014
-497.610	433.143	-0.074	0.162
-496.595	30.757	0.230	0.198
-495.581	486.991	-0.115	0.264
-494.566	-200.000	0.026	0.233
-493.551	141.612	0.104	0.138
-492.537	800.000	0.109	0.325
-491.522	49.720	0.015	0.014
-490.508	228.398	0.086	-0.141
-489.493	-38.679	-0.117	0.062
-488.478	-95.369	-0.096	-0.026
-487.464	408.646	-0.137	0.291
-486.449	550.577	0.079	0.189
-485.435	-58.795	-0.305	0.132
-484.420	-126.564	-0.271	0.040
-483.405	486.707	0.015	0.035
-482.391	-113.354	0.351	0.069
-481.376	-200.000	0.364	-0.002
-480.362	-90.817	0.193	-0.056
-479.347	800.000	-0.039	0.138
-478.332	-91.156	0.056	-0.016
-477.318	-38.344	0.369	0.196
-476.303	800.000	-0.029	0.083
-475.289	140.643	-0.064	0.085
-474.274	-200.000	-0.001	0.102
-473.259	-145.519	-0.293	0.026
-472.245	-200.000	-0.020	-0.112
-471.230	183.931	-0.135	-0.200
-470.216	-165.364	-0.098	-0.004
-469.201	-200.000	0.044	-0.342
-468.186	-6.894	-0.214	-0.146
-467.172	245.382	0.043	0.072
-466.157	90.054	0.075	0.084
-465.143	-116.344	0.067	-0.012
-464.128	-145.534	0.170	-0.015
-463.113	-102.032	0.141	-0.034
-462.099	-200.000	-0.084	-0.510
-461.084	800.000	-0.179	0.500
-460.070	-124.519	0.106	-0.016
-459.055	125.610	0.133	0.168
-458.040	538.076	-0.049	-0.118
-457.026	-159.647	-0.074	0.004
-456.011	-200.000	0.000	0.214
-454.997	358.743	0.147	0.294
-453.982	584.699	-0.073	-0.180
-452.968	800.000	-0.079	0.239
-451.953	-47.306	-0.231	0.113
-450.938	426.985	0.100	0.217
-449.924	149.296	0.122	-0.166
-448.909	800.000	-0.014	0.045
-447.895	800.000	0.032	-0.112
-446.880	-116.978	0.112	0.021
-445.865	-27.204	0.217	-0.127
-444.851	-158.301	-0.064	-0.004
-443.836	-16.842	-0.281	0.178
-442.822	800.000	-0.042	0.141
-441.807	755.076	0.092	-0.249
-440.792	800.000	0.054	0.158
-439.778	28.930	-0.172	0.146
-438.763	-98.253	0.170	-0.044
-437.749	-45.644	-0.136	-0.067
-436.734	149.589	0.046	0.063
-435.719	93.005	0.080	-0.090
-434.705	-31.040	0.172	-0.097
-433.690	19.989	-0.079	-0.064
-432.676	800.000	-0.076	0.245
-431.661	-59.563	0.197	-0.085
-430.646	-86.915	0.218	-0.066
-429.632	800.000	0.024	0.100
-428.617	437.709	0.039	0.086
-427.603	-40.834	-0.349	-0.181
-426.588	205.330	0.074	0.115
-425.573	-67.000	-0.164	-0.065
-424.559	121.931	0.052	0.065
-423.544	-200.000	-0.016	-0.094
-422.530	29.328	-0.192	0.163
-421.515	22.100	0.238	0.195
-420.500	-200.000	-0.033	-0.182
-419.486	112.080	0.159	-0.192
-418.471	113.393	-0.139	-0.169
-417.457	800.000	-0.041	0.142
-416.442	-200.000	-0.000	-0.140
-415.428	800.000	-0.111	0.398
-414.413	-200.000	-0.050	-0.314
-413.398	-142.912	0.215	0.021
-412.384	441.870	0.171	0.375
-411.369	-187.131	0.295	-0.004
-410.355	749.408	0.039	0.104
-409.340	-75.461	0.367	0.131
-408.325	-200.000	-0.031	0.152
-407.311	-30.193	-0.067	0.038
-406.296	234.045	0.147	-0.242
-405.282	-200.000	-0.080	0.481
-404.267	382.195	-0.138	-0.284
-403.252	-82.063	0.264	-0.086
-402.238	-23.957	-0.430	0.257
-401.223	606.887	-0.153	-0.381
-400.209	-66.448	-0.293	-0.116
-399.194	10.633	0.207	0.158
-398.179	80.980	0.070	-0.076
-397.165	4.678	-0.049	0.036
-396.150	-44.010	0.386	-0.194
-395.136	-200.000	0.034	-0.225
-394.121	800.000	0.036	-0.141
-393.106	800.000	-0.048	0.157
-392.092	72.592	-0.129	0.135
-391.077	-157.925	0.208	0.012
-390.063	-200.000	0.024	0.387
-389.048	-127.863	0.353	0.051
-388.033	-19.664	-0.136	-0.084
-387.019	100.820	-0.245	0.285
-386.004	-200.000	0.003	-0.130
-384.990	397.936	-0.130	0.272
-383.975	48.882	-0.302	-0.283
-382.960	-11.549	-0.227	0.149
-381.946	-18.543	-0.182	-0.113
-380.931	330.229	0.039	-0.076
-379.917	-61.809	0.134	-0.056
-378.902	-200.000	0.014	0.305
-377.888	-151.032	0.277	-0.021
-376.873	800.000	-0.109	-0.357
-375.858	538.034	0.153	0.363
-374.844	-200.000	-0.010	0.057
-373.829	-159.997	-0.208	-0.011
-372.815	-200.000	0.039	-0.295
-371.800	800.000	0.042	-0.177
-370.785	-183.350	0.313	0.005
-369.771	-130.478	0.257	-0.035
-368.756	-52.603	0.282	0.130
-367.742	-154.288	-0.027	-0.002
-366.727	-0.072	-0.197	0.140
-365.712	418.267	0.026	0.055
-364.698	62.141	-0.166	-0.166
-363.683	80.941	0.163	0.175
-362.669	-93.773	0.141	0.039
-361.654	-7.565	0.168	-0.113
-360.639	490.357	-0.059	0.136
-359.625	-26.570	-0.151	-0.088
-358.610	47.766	-0.191	0.178
-357.596	604.403	0.034	-0.084
-356.581	-200.000	-0.101	-0.459
-355.566	-200.000	-0.043	-0.274
-354.552	544.327	-0.162	0.387
-353.537	-37.556	0.156	-0.083
-352.523	35.544	0.303	0.265
-351.508	-102.864	0.192	0.045
-350.493	-111.208	-0.093	0.019
-349.479	632.251	0.116	-0.292
-348.464	-200.000	0.010	0.094
-347.450	800.000	-0.098	0.316
-346.435	-107.378	-0.202	0.044
-345.420	688.408	-0.137	-0.358
-344.406	176.466	0.113	-0.164
-343.391	-109.678	-0.097	0.020
-342.377	309.681	0.105	-0.196
-341.362	330.776	0.323	0.621
-340.348	-148.713	0.077	0.006
-339.333	615.458	0.080	-0.199
-338.318	-8.205	0.195	0.131
-337.304	233.242	-0.144	-0.236
-336.289	737.327	-0.076	-0.204
-335.275	800.000	0.030	-0.109
-334.260	-45.730	-0.440	0.217
-333.245	-75.886	-0.281	-0.099
-332.231	-16.025	0.255	0.162
-331.216	-15.928	-0.032	-0.020
-330.202	-38.966	-0.168	-0.088
-329.187	-200.000	0.002	-0.116
-328.172	86.714	-0.229	-0.252
-327.158	-125.444	-0.271	0.041
-326.143	-81.756	-0.116	-0.038
-325.129	-7.459	-0.134	0.090
-324.114	-109.081	-0.166	-0.035
-323.099	-129.019	-0.110	0.015
-322.085	-200.000	-0.050	0.255
-321.070	-200.000	0.004	-0.108
-320.056	-200.000	0.007	-0.091
-319.041	-200.000	-0.043	0.475
-318.026	154.516	-0.014	0.019
-317.012	-38.479	-0.198	-0.104
-315.997	800.000	-0.097	-0.280
-314.983	86.342	-0.186	-0.204
-313.968	-100.163	0.236	0.058
-312.953	14.315	0.471	-0.366
-311.939	107.504	-0.222	-0.263
-310.924	70.461	0.065	-0.067
-309.910	-200.000	0.027	-0.164
-308.895	-37.747	-0.184	-0.097
-307.880	-80.621	0.343	0.114
-306.866	-72.441	-0.126	-0.046
-305.851	54.663	-0.061	0.059
-304.837	800.000	0.046	0.156
-303.822	-200.000	0.025	0.144
-302.807	43.754	-0.312	-0.285
-301.793	-190.783	-0.270	-0.003
-300.778	112.723	0.378	-0.456
-299.764	203.861	-0.149	0.229
-298.749	149.181	-0.074	-0.099
-297.735	-200.000	-0.040	-0.381
-296.720	129.983	-0.102	-0.129
-295.705	182.099	0.168	0.247
-294.691	583.260	-0.033	-0.081
-293.676	800.000	0.073	-0.276
-292.662	116.025	-0.138	0.169
-291.647	-200.000	-0.009	-0.117
-290.632	-86.097	-0.174	0.053
-289.618	-200.000	-0.006	0.117
-288.603	-200.000	0.010	-0.188
-287.589	518.980	0.154	0.360
-286.574	800.000	-0.024	0.074
-285.559	525.855	-0.034	-0.080
-284.545	140.971	-0.172	-0.227
-283.530	321.756	-0.143	-0.271
-282.516	108.822	0.237	0.282
-281.501	-200.000	0.033	0.159
-280.486	132.164	0.256	-0.328
-279.472	370.629	-0.022	0.045
-278.457	-200.000	0.007	0.084
-277.443	-200.000	0.001	-0.230
-276.428	-200.000	0.032	0.173
-275.413	70.138	-0.160	-0.164
-274.399	201.607	-0.115	-0.176
-273.384	-200.000	-0.058	-0.310
-272.370	-138.910	0.129	-0.014
-271.355	332.869	0.269	-0.517
-270.340	-200.000	0.043	0.214
-269.326	-83.233	-0.135	0.043
-268.311	155.380	0.181	-0.247
-267.297	-147.125	0.234	-0.020
-266.282	-39.508	0.164	-0.086
-265.267	22.434	0.109	-0.089
-264.253	-200.000	0.002	-0.278
-263.238	-108.168	0.129	-0.028
-262.224	65.500	0.201	0.202
-261.209	-59.486	-0.095	-0.041
-260.195	-153.796	-0.465	0.032
-259.180	302.359	-0.049	0.091
-258.165	21.569	0.271	-0.219
-257.151	90.746	-0.203	-0.227
-256.136	500.656	-0.030	0.070
-255.122	516.270	-0.112	-0.260
-254.107	-135.674	0.435	0.051
-253.092	-200.000	-0.021	0.162
-252.078	90.153	0.068	-0.076
-251.063	72.165	0.192	0.199
-250.049	-200.000	-0.027	0.363
-249.034	-56.430	0.114	-0.050
-248.019	-64.256	-0.186	0.075
-247.005	-143.838	-0.211	0.020
-245.990	-195.805	-0.485	-0.003
-244.976	-158.084	-0.242	-0.014
-243.961	536.163	0.097	0.228
-242.946	-53.073	0.144	-0.066
-241.932	233.252	0.104	-0.169
-240.917	-105.273	0.369	-0.084
-239.903	-5.358	-0.140	-0.096
-238.888	-98.099	0.220	0.056
-237.873	-200.000	-0.021	0.304
-236.859	516.556	-0.157	0.364
-235.844	353.577	0.109	-0.216
-234.830	-11.855	-0.080	-0.052
-233.815	-200.000	0.037	-0.413
-232.800	-119.333	-0.031	0.005
-231.786	-106.886	0.124	-0.027
-230.771	179.664	0.084	0.122
-229.757	-21.493	-0.043	-0.026
-228.742	67.958	-0.177	0.180
-227.727	112.184	-0.144	0.173
-226.713	-200.000	0.060	-0.564
-225.698	554.749	0.168	0.400
-224.684	-145.948	0.194	-0.017
-223.669	-114.441	0.099	-0.019
-222.655	-72.106	0.262	0.097
-221.640	800.000	-0.078	-0.267
-220.625	494.580	-0.140	0.318
-219.611	-81.691	0.194	0.063
-218.596	-46.726	0.265	0.129
-217.582	-200.000	0.038	0.263
-216.567	-200.000	0.000	0.282
-215.552	-57.045	-0.370	0.162
-214.538	255.683	-0.102	0.174
-213.523	-52.842	-0.359	-0.164
-212.509	407.730	0.102	0.214
-211.494	-73.137	0.156	0.057
-210.479	-136.795	-0.180	0.021
-209.465	130.718	0.124	0.158
-208.450	-11.713	-0.230	0.150
-207.436	800.000	-0.020	-0.084
-206.421	-123.198	0.192	-0.030
-205.406	800.000	0.111	0.312
-204.392	-185.760	0.237	0.004
-203.377	118.881	0.074	-0.091
-202.363	303.229	0.102	0.187
-201.348	-200.000	0.005	-0.228
-200.333	800.000	-0.116	0.328
-199.319	88.209	0.183	-0.201
-198.304	-48.034	0.152	0.073
-197.290	160.695	-0.344	-0.476
-196.275	-159.410	-0.279	-0.015
-195.260	-71.026	0.122	0.045
-194.246	165.614	0.158	-0.222
-193.231	-174.546	-0.365	0.010
-192.217	-5.826	-0.099	-0.067
-191.202	-52.623	-0.266	0.122
-190.187	-200.000	-0.022	0.165
-189.173	-104.555	0.191	-0.044
-188.158	800.000	-0.034	-0.111
-187.144	-200.000	0.012	0.098
-186.129	-144.579	-0.351	0.032
-185.114	295.631	-0.062	0.112
-184.100	81.048	-0.027	0.029
-183.085	800.000	-0.016	-0.045
-182.071	-77.581	-0.406	-0.139
-181.056	-128.172	-0.154	-0.022
-180.042	-12.725	0.236	-0.152
-179.027	-200.000	0.056	0.309
-178.012	208.814	0.095	-0.147
-176.998	34.720	0.174	-0.151
-175.983	185.243	0.096	0.141
-174.969	41.634	0.193	0.173
-173.954	-139.452	0.144	0.015
-172.939	119.972	0.072	-0.089
-171.925	-89.325	-0.255	-0.074
-170.910	-200.000	-0.035	0.205
-169.896	-120.592	-0.244	0.041
-168.881	319.142	0.018	0.033
-167.866	-60.440	0.068	-0.029
-166.852	-35.805	0.190	-0.102
-165.837	-24.010	0.188	-0.111
-164.823	-200.000	0.014	-0.095
-163.808	-74.503	-0.288	0.103
-162.793	-157.597	0.129	0.008
-161.779	40.244	0.084	0.075
-160.764	-200.000	0.002	0.095
-159.750	-172.528	0.212	0.007
-158.735	-111.129	0.096	-0.019
-157.720	239.383	-0.047	-0.077
-156.706	309.163	0.229	0.424
-155.691	800.000	0.042	-0.137
-154.677	18.659	-0.312	0.247
-153.662	103.593	-0.233	-0.271
-152.647	60.519	0.270	-0.265
-151.633	-110.090	0.366	0.076
-150.618	-69.475	-0.186	0.071
-149.604	17.262	0.021	-0.017
-148.589	-200.000	0.041	0.241
-147.574	-200.000	0.035	-0.352
-146.560	800.000	0.072	-0.221
-145.545	-200.000	-0.015	0.205
-144.531	800.000	0.049	0.196
-143.516	-130.583	0.270	-0.036
-142.502	800.000	-0.115	-0.339
-141.487	305.468	0.084	0.154
-140.472	800.000	-0.181	0.584
-139.458	800.000	0.066	0.194
-138.443	94.530	0.175	0.197
-137.429	-21.085	0.191	0.115
-136.414	-9.515	-0.144	0.095
-135.399	-200.000	0.009	0.409
-134.385	800.000	-0.043	0.122
-133.370	-200.000	0.010	0.187
-132.356	13.208	-0.107	0.082
-131.341	411.360	0.231	0.484
-130.326	25.957	0.358	0.296
-129.312	136.444	0.124	-0.160
-128.297	-158.458	0.112	-0.006
-127.283	-19.165	-0.070	-0.043
-126.268	800.000	0.042	-0.117
-125.253	-0.288	-0.113	0.079
-124.239	200.815	-0.272	0.413
-123.224	-8.983	0.101	0.067
-122.210	-173.270	0.198	-0.006
-121.195	-200.000	0.014	0.077
