DTS Sentinel unit serial number:	SN413079Multiplexer serial number:	ORYXHardware model number:	OX4-SRSoftware version number:	ORYX F/W v4.00 Oryx Data Collector v3.7.2.0data status	okinstallation	princeton_trtdifferential loss correction	single-endedforward channel	channel 3reverse channel	N/Adate	2019/09/10time	21:58:11forward acquisition time	60.00reverse acquisition time	0.00gamma	496.2192k internal	0.2330k external	0.2330temperature offset calibration	0.9917default loss term (dB/km)	0.3790temperature slope calibration	1.0000multiplexer offset coefficient	1.0000multiplexer slope coefficient	1.0000fibre end	0.00T internal ref (°C)	30.75T ext. ref 1 (°C)	-0.31T ext. ref 2 (°C)	24.03length (m)	temperature (°C)	Stokes	anti-Stokes-747.200	-183.537	0.493	0.009
-746.185	-45.649	-0.360	0.179
-745.171	11.426	0.147	0.114
-744.156	112.423	-0.281	0.343
-743.142	-148.757	-0.171	-0.014
-742.127	-200.000	0.028	0.256
-741.112	-47.944	-0.027	0.013
-740.098	260.495	0.173	0.301
-739.083	325.744	-0.008	-0.016
-738.069	356.984	0.169	0.340
-737.054	800.000	0.096	0.276
-736.039	-200.000	-0.048	-0.430
-735.025	-200.000	-0.060	-0.272
-734.010	13.684	0.398	0.311
-732.996	23.808	-0.043	-0.035
-731.981	-29.553	-0.161	0.093
-730.966	-148.260	-0.155	0.013
-729.952	14.176	-0.108	0.085
-728.937	-37.477	0.250	0.134
-727.923	174.210	-0.026	-0.038
-726.908	-143.995	-0.211	0.020
-725.894	438.681	-0.142	-0.311
-724.879	790.067	0.049	-0.134
-723.864	46.351	-0.239	-0.223
-722.850	-142.734	-0.304	-0.030
-721.835	800.000	-0.056	0.160
-720.821	-84.378	-0.246	-0.078
-719.806	31.427	-0.145	0.125
-718.791	-122.736	-0.333	-0.054
-717.777	75.848	-0.119	-0.127
-716.762	-200.000	-0.022	-0.137
-715.748	-13.145	-0.085	0.056
-714.733	800.000	0.020	-0.085
-713.718	308.796	-0.115	-0.216
-712.704	-61.209	0.205	0.087
-711.689	237.995	0.223	0.373
-710.675	-200.000	0.006	0.122
-709.660	-113.872	-0.161	-0.031
-708.645	122.663	0.116	0.146
-707.631	-200.000	-0.003	-0.318
-706.616	-56.724	-0.286	-0.127
-705.602	-36.104	0.204	-0.111
-704.587	800.000	0.045	-0.126
-703.572	-1.329	-0.259	-0.184
-702.558	-19.159	-0.326	-0.204
-701.543	-18.604	-0.067	0.042
-700.529	193.051	-0.141	-0.214
-699.514	-41.128	0.040	0.021
-698.499	196.114	0.067	-0.103
-697.485	676.668	0.093	-0.243
-696.470	-157.414	0.346	-0.021
-695.456	-155.106	0.227	-0.015
-694.441	-71.250	-0.177	0.067
-693.426	320.100	0.121	-0.231
-692.412	-70.375	-0.107	-0.041
-691.397	-10.725	-0.320	0.213
-690.383	-200.000	0.072	-0.410
-689.368	285.766	-0.135	0.244
-688.354	428.542	-0.009	-0.020
-687.339	800.000	0.124	-0.385
-686.324	-200.000	-0.163	-0.001
-685.310	-82.891	-0.091	0.029
-684.295	-200.000	-0.016	0.129
-683.281	-117.873	0.155	0.028
-682.266	-200.000	0.005	-0.168
-681.251	-200.000	-0.049	-0.363
-680.237	800.000	0.009	0.028
-679.222	12.561	0.182	0.141
-678.208	345.502	0.065	0.129
-677.193	-200.000	-0.016	0.120
-676.178	-200.000	-0.010	-0.128
-675.164	-7.952	-0.196	-0.133
-674.149	-24.806	-0.119	-0.071
-673.135	90.716	0.132	0.148
-672.120	192.609	-0.106	0.160
-671.105	-200.000	0.017	-0.408
-670.091	-14.310	-0.214	-0.139
-669.076	-82.353	0.227	-0.074
-668.062	287.687	-0.181	-0.328
-667.047	-200.000	0.031	0.217
-666.032	343.370	-0.019	-0.037
-665.018	-151.776	-0.279	-0.021
-664.003	172.419	0.161	-0.232
-662.989	-15.781	-0.350	-0.224
-661.974	169.889	-0.055	0.079
-660.959	135.466	0.112	-0.146
-659.945	-65.838	0.203	0.082
-658.930	73.135	-0.205	-0.215
-657.916	35.183	0.103	-0.090
-656.901	-3.884	0.289	0.201
-655.886	800.000	-0.111	0.384
-654.872	-65.061	0.195	-0.079
-653.857	-182.089	-0.143	-0.003
-652.843	-76.254	0.120	0.042
-651.828	-18.284	0.199	0.125
-650.814	-200.000	-0.041	-0.264
-649.799	-40.512	-0.179	0.093
-648.784	-200.000	0.028	-0.161
-647.770	-200.000	0.011	0.082
-646.755	-72.405	-0.340	-0.126
-645.741	158.836	-0.089	0.124
-644.726	-25.765	-0.190	-0.112
-643.711	-200.000	0.038	0.286
-642.697	36.180	-0.215	0.190
-641.682	-200.000	0.029	-0.265
-640.668	-29.628	-0.069	0.039
-639.653	148.712	0.098	-0.133
-638.638	510.586	0.085	-0.199
-637.624	37.865	-0.122	0.109
-636.609	-200.000	-0.019	-0.158
-635.595	156.215	-0.091	-0.126
-634.580	-98.539	0.391	-0.100
-633.565	128.473	-0.283	-0.361
-632.551	-135.601	-0.347	-0.041
-631.536	-31.411	0.278	-0.157
-630.522	106.976	0.099	-0.117
-629.507	-117.195	-0.034	0.006
-628.492	166.155	-0.103	-0.146
-627.478	431.605	-0.141	0.306
-626.463	-149.933	0.060	-0.005
-625.449	-41.993	-0.142	0.073
-624.434	-150.833	0.102	0.008
-623.419	-14.227	-0.043	0.028
-622.405	-102.426	0.188	-0.045
-621.390	-200.000	0.028	0.154
-620.376	800.000	0.057	0.226
-619.361	-200.000	-0.062	0.273
-618.346	-70.073	0.169	0.065
-617.332	-200.000	-0.000	-0.051
-616.317	-200.000	-0.044	0.224
-615.303	-55.765	0.140	-0.063
-614.288	-84.599	0.254	0.080
-613.273	-103.367	0.151	0.036
-612.259	-200.000	0.048	-0.239
-611.244	5.912	0.349	-0.259
-610.230	-69.012	-0.283	-0.109
-609.215	640.416	-0.044	-0.112
-608.201	344.135	0.113	-0.223
-607.186	2.614	-0.197	0.143
-606.171	-200.000	0.047	-0.322
-605.157	-153.612	-0.251	0.017
-604.142	800.000	0.010	-0.034
-603.128	800.000	-0.012	0.040
-602.113	279.656	0.195	-0.350
-601.098	95.382	-0.032	0.037
-600.084	-66.799	0.272	0.108
-599.069	-98.378	-0.409	0.105
-598.055	-200.000	-0.011	0.098
-597.040	-41.939	0.514	0.264
-596.025	-200.000	0.039	-0.393
-595.011	-200.000	-0.049	-0.259
-593.996	-54.283	-0.134	0.061
-592.982	-70.608	-0.290	-0.110
-591.967	-200.000	-0.049	0.300
-590.952	776.309	-0.049	0.135
-589.938	-54.796	0.118	-0.053
-588.923	-8.323	0.251	-0.169
-587.909	86.943	0.370	-0.409
-586.894	-25.519	-0.304	-0.180
-585.879	-24.323	0.317	0.189
-584.865	-72.012	-0.388	0.144
-583.850	-36.402	-0.077	0.041
-582.836	-200.000	-0.018	0.214
-581.821	100.812	-0.169	-0.197
-580.806	-87.927	-0.412	0.124
-579.792	800.000	-0.071	-0.221
-578.777	165.218	-0.213	-0.301
-577.763	-200.000	-0.003	0.203
-576.748	800.000	-0.113	0.342
-575.733	-132.540	-0.214	0.027
-574.719	9.433	0.311	-0.236
-573.704	-12.407	0.145	-0.095
-572.690	397.530	-0.050	-0.105
-571.675	-200.000	0.010	-0.176
-570.661	-4.506	0.306	0.211
-569.646	-78.246	-0.245	-0.084
-568.631	51.554	-0.202	0.192
-567.617	-200.000	-0.004	-0.258
-566.602	800.000	-0.085	-0.277
-565.588	800.000	0.117	-0.350
-564.573	-200.000	-0.047	-0.207
-563.558	36.825	-0.201	0.178
-562.544	57.749	0.212	-0.207
-561.529	499.169	-0.029	-0.066
-560.515	3.667	-0.189	0.138
-559.500	381.648	0.117	-0.240
-558.485	-200.000	0.001	0.174
-557.471	-200.000	-0.035	0.177
-556.456	158.745	0.220	0.305
-555.442	104.514	0.061	-0.072
-554.427	392.023	-0.060	0.125
-553.412	-111.351	0.161	-0.033
-552.398	800.000	-0.079	-0.252
-551.383	-159.838	0.316	-0.017
-550.369	800.000	0.019	-0.064
-549.354	-59.913	0.085	0.037
-548.339	32.962	-0.036	0.031
-547.325	-40.572	-0.222	0.115
-546.310	236.189	0.199	-0.328
-545.296	0.946	-0.082	-0.058
-544.281	-3.246	-0.355	-0.248
-543.266	-200.000	0.023	-0.248
-542.252	109.875	0.335	-0.401
-541.237	-126.052	-0.154	-0.023
-540.223	-94.817	0.087	-0.024
-539.208	-111.380	-0.118	0.024
-538.193	-200.000	0.058	-0.300
-537.179	95.160	0.157	0.179
-536.164	28.080	-0.019	-0.016
-535.150	-114.056	-0.274	-0.053
-534.135	219.685	-0.147	0.235
-533.121	-190.374	-0.311	-0.003
-532.106	-17.635	0.394	-0.247
-531.091	-200.000	-0.009	-0.206
-530.077	236.538	-0.264	-0.436
-529.062	-167.305	0.251	0.010
-528.048	-45.834	0.305	-0.150
-527.033	800.000	0.088	-0.242
-526.018	-67.743	-0.236	-0.092
-525.004	800.000	-0.063	0.179
-523.989	-200.000	0.022	0.219
-522.975	-200.000	-0.025	0.262
-521.960	1.713	-0.185	0.133
-520.945	800.000	0.019	-0.070
-519.931	55.118	0.163	0.158
-518.916	-77.738	0.085	0.029
-517.902	17.757	-0.109	-0.086
-516.887	-27.405	0.204	0.118
-515.872	-129.433	0.279	0.039
-514.858	800.000	-0.081	0.247
-513.843	-200.000	0.001	-0.135
-512.829	-127.402	0.319	-0.046
-511.814	167.166	0.180	0.256
-510.799	-126.844	-0.219	-0.032
-509.785	800.000	0.046	0.160
-508.770	115.608	0.194	-0.237
-507.756	-84.400	-0.341	-0.108
-506.741	-118.957	-0.214	0.037
-505.726	596.681	0.151	0.373
-504.712	-200.000	-0.050	0.239
-503.697	-77.990	-0.026	-0.009
-502.683	-67.711	0.198	-0.077
-501.668	800.000	-0.071	0.273
-500.653	-112.219	-0.246	-0.049
-499.639	120.972	-0.283	-0.351
-498.624	262.890	0.094	0.164
-497.610	-137.427	-0.278	0.031
-496.595	587.695	0.016	-0.039
-495.581	84.337	-0.144	-0.157
-494.566	-200.000	0.015	0.073
-493.551	-70.393	0.094	-0.035
-492.537	115.892	-0.198	0.242
-491.522	800.000	0.055	0.231
-490.508	-17.850	-0.245	0.154
-489.493	-67.677	0.122	-0.048
-488.478	800.000	0.122	0.379
-487.464	295.470	-0.115	-0.209
-486.449	-1.589	-0.171	0.120
-485.435	-54.837	0.094	0.042
-484.420	-36.305	0.256	0.137
-483.405	-46.291	0.181	0.089
-482.391	90.838	0.149	-0.167
-481.376	-200.000	-0.032	-0.172
-480.362	-75.202	0.343	0.122
-479.347	-200.000	0.018	0.268
-478.332	-95.122	-0.111	-0.030
-477.318	800.000	-0.060	-0.220
-476.303	-88.496	0.236	0.070
-475.289	-112.506	0.178	-0.035
-474.274	-200.000	-0.030	0.140
-473.259	-52.511	-0.289	0.133
-472.245	109.982	0.112	-0.134
-471.230	-200.000	0.016	0.238
-470.216	59.009	-0.353	0.346
-469.201	800.000	0.035	0.113
-468.186	800.000	0.104	0.366
-467.172	229.334	0.214	0.347
-466.157	701.362	0.164	-0.429
-465.143	-37.160	0.345	-0.184
-464.128	-200.000	0.353	-0.001
-463.113	-13.137	0.102	-0.066
-462.099	639.410	0.101	-0.255
-461.084	180.766	-0.139	-0.203
-460.070	119.745	0.078	-0.097
-459.055	402.965	-0.078	-0.164
-458.040	242.617	-0.086	0.144
-457.026	-12.419	-0.100	-0.065
-456.011	-32.076	0.211	0.118
-454.997	-133.833	0.066	-0.008
-453.982	-33.083	-0.180	0.099
-452.968	-79.030	-0.090	-0.031
-451.953	529.251	-0.006	-0.014
-450.938	-115.556	0.286	0.054
-449.924	93.474	-0.119	-0.134
-448.909	100.605	-0.347	0.401
-447.895	185.418	0.025	-0.037
-446.880	-71.489	-0.210	-0.078
-445.865	27.657	-0.132	0.111
-444.851	78.899	0.084	0.090
-443.836	800.000	-0.139	0.438
-442.822	425.756	0.084	0.180
-441.807	356.887	-0.109	-0.216
-440.792	800.000	-0.018	0.052
-439.778	-112.904	0.166	0.033
-438.763	283.617	0.063	-0.112
-437.749	-93.480	0.327	-0.090
-436.734	-94.355	0.154	0.042
-435.719	-21.250	-0.208	0.126
-434.705	-200.000	-0.028	-0.282
-433.690	-200.000	-0.011	0.204
-432.676	-115.606	0.135	0.025
-431.661	-50.230	-0.050	0.023
-430.646	27.222	-0.169	0.141
-429.632	-79.385	0.433	-0.146
-428.617	-200.000	-0.019	0.189
-427.603	522.243	0.104	0.242
-426.588	302.199	0.049	0.090
-425.573	-200.000	-0.011	-0.200
-424.559	-104.177	0.031	0.007
-423.544	75.335	0.200	0.210
-422.530	120.105	-0.213	-0.263
-421.515	-174.506	-0.296	-0.008
-420.500	3.394	-0.223	-0.161
-419.486	116.143	0.119	0.145
-418.471	-50.400	0.392	-0.184
-417.457	-97.168	0.109	0.028
-416.442	142.764	-0.381	-0.503
-415.428	39.926	-0.165	-0.147
-414.413	-99.773	-0.070	0.017
-413.398	-200.000	-0.378	-0.001
-412.384	51.462	-0.147	-0.138
-411.369	703.923	0.116	-0.305
-410.355	86.832	0.299	-0.329
-409.340	17.132	-0.097	0.077
-408.325	45.008	-0.130	0.119
-407.311	-200.000	-0.056	-0.355
-406.296	469.841	0.027	-0.059
-405.282	-60.621	-0.203	-0.085
-404.267	26.162	0.157	-0.130
-403.252	30.731	-0.222	-0.189
-402.238	-87.077	-0.165	0.050
-401.223	78.655	-0.141	0.150
-400.209	-148.125	-0.257	0.021
-399.194	134.345	-0.196	-0.252
-398.179	-200.000	-0.001	-0.047
-397.165	81.012	0.158	0.170
-396.150	437.147	0.092	0.200
-395.136	-39.284	0.310	-0.161
-394.121	-150.667	0.043	0.003
-393.106	-200.000	0.007	0.093
-392.092	-31.845	0.213	0.119
-391.077	-200.000	0.023	0.127
-390.063	800.000	0.069	-0.220
-389.048	-122.739	-0.435	0.070
-388.033	-199.157	0.312	-0.002
-387.019	231.514	-0.288	-0.468
-386.004	35.517	0.045	-0.039
-384.990	-125.161	-0.225	0.034
-383.975	715.924	0.047	-0.123
-382.960	-131.378	0.125	-0.016
-381.946	43.132	0.220	-0.199
-380.931	-53.703	-0.093	-0.042
-379.917	800.000	-0.035	0.139
-378.902	-200.000	0.001	0.363
-377.888	-79.245	0.148	0.050
-376.873	43.621	-0.024	0.022
-375.858	-80.429	0.105	0.035
-374.844	65.401	0.346	-0.347
-373.829	167.875	0.073	-0.103
-372.815	174.661	-0.131	-0.188
-371.800	31.542	0.119	-0.101
-370.785	800.000	0.033	-0.129
-369.771	-165.600	0.027	0.001
-368.756	46.336	0.054	0.049
-367.742	78.387	-0.243	-0.258
-366.727	-33.540	-0.123	-0.067
-365.712	800.000	-0.076	-0.225
-364.698	5.458	0.219	0.161
-363.683	-80.412	-0.128	-0.042
-362.669	-26.274	0.323	0.188
-361.654	626.504	-0.087	0.218
-360.639	27.663	0.249	0.208
-359.625	90.224	-0.084	-0.093
-358.610	108.052	0.129	0.153
-357.596	-200.000	0.019	-0.188
-356.581	13.680	-0.137	0.106
-355.566	-140.453	0.368	-0.038
-354.552	379.523	-0.047	-0.095
-353.537	98.217	-0.149	-0.170
-352.523	-186.550	0.125	-0.002
-351.508	800.000	-0.020	0.062
-350.493	-50.256	0.164	0.077
-349.479	-182.583	-0.149	-0.003
-348.464	-89.597	0.152	0.044
-347.450	93.983	-0.227	0.255
-346.435	800.000	0.050	0.193
-345.420	198.670	0.268	0.407
-344.406	-69.858	-0.194	-0.074
-343.391	63.678	-0.112	0.112
-342.377	-79.913	0.323	-0.107
-341.362	-30.319	-0.248	-0.140
-340.348	-37.122	0.137	-0.073
-339.333	800.000	0.122	0.368
-338.318	-72.537	-0.314	0.115
-337.304	285.339	0.116	0.208
-336.289	-200.000	-0.020	-0.092
-335.275	-200.000	-0.025	-0.188
-334.260	-200.000	-0.008	-0.188
-333.245	-200.000	-0.025	0.212
-332.231	43.852	-0.040	-0.036
-331.216	-162.214	-0.137	0.007
-330.202	103.457	-0.081	0.095
-329.187	33.666	-0.240	0.207
-328.172	-138.996	-0.318	0.034
-327.158	28.015	-0.189	-0.158
-326.143	417.910	0.110	-0.233
-325.129	193.945	0.016	-0.024
-324.114	800.000	-0.033	0.092
-323.099	-153.794	0.337	-0.023
-322.085	-44.905	0.180	0.089
-321.070	-8.458	0.101	-0.068
-320.056	-136.816	0.186	0.021
-319.041	-65.523	0.170	-0.068
-318.026	54.770	0.193	0.184
-317.012	435.897	0.050	0.108
-315.997	800.000	0.044	-0.152
-314.983	637.594	-0.038	-0.097
-313.968	90.592	0.181	-0.201
-312.953	-200.000	-0.040	0.516
-311.939	142.499	-0.186	-0.245
-310.924	-200.000	-0.023	-0.157
-309.910	800.000	-0.092	-0.338
-308.895	-200.000	-0.005	0.046
-307.880	-98.604	-0.133	0.034
-306.866	-134.853	0.198	-0.024
-305.851	-200.000	-0.004	-0.159
-304.837	-200.000	-0.013	-0.167
-303.822	632.081	-0.111	-0.279
-302.807	-144.863	0.052	0.005
-301.793	800.000	-0.099	0.316
-300.778	87.723	-0.114	-0.125
-299.764	24.610	-0.131	-0.107
-298.749	17.416	0.180	0.142
-297.735	-200.000	0.016	-0.072
-296.720	-119.135	-0.147	-0.025
-295.705	-95.594	0.213	0.057
-294.691	-51.750	-0.320	0.148
-293.676	-90.588	-0.317	0.091
-292.662	622.520	0.054	-0.134
-291.647	376.830	-0.102	-0.207
-290.632	-9.065	0.225	-0.149
-289.618	-76.789	-0.090	0.031
-288.603	-92.823	0.174	-0.048
-287.589	800.000	0.057	0.175
-286.574	-200.000	0.056	-0.343
-285.559	-42.726	-0.155	0.078
-284.545	53.042	-0.111	-0.105
-283.530	47.440	-0.034	-0.032
-282.516	-34.206	0.211	-0.115
-281.501	16.599	-0.164	0.128
-280.486	800.000	0.121	0.336
-279.472	270.855	-0.190	0.331
-278.457	92.145	0.218	-0.243
-277.443	-51.065	-0.356	0.165
-276.428	223.551	0.164	0.262
-275.413	-165.535	0.093	0.004
-274.399	800.000	-0.083	-0.277
-273.384	800.000	0.078	-0.306
-272.370	-39.281	-0.052	0.027
-271.355	52.768	-0.100	-0.094
-270.340	800.000	-0.043	0.128
-269.326	105.157	-0.309	0.361
-268.311	123.112	0.129	0.160
-267.297	347.398	0.065	-0.126
-266.282	-200.000	0.007	-0.079
-265.267	-37.506	0.194	0.102
-264.253	176.306	0.212	-0.304
-263.238	85.114	-0.273	0.296
-262.224	-144.058	0.128	0.012
-261.209	-19.868	0.047	0.029
-260.195	448.018	0.075	0.164
-259.180	80.818	0.324	0.345
-258.165	-53.612	-0.314	0.142
-257.151	394.326	-0.135	-0.277
-256.136	-112.122	0.146	-0.029
-255.122	800.000	-0.060	0.206
-254.107	-13.009	0.205	0.132
-253.092	-148.520	0.147	-0.012
-252.078	-146.096	-0.249	-0.022
-251.063	43.155	0.059	0.053
-250.049	-132.890	-0.099	-0.012
-249.034	235.729	0.116	0.189
-248.019	800.000	-0.069	0.211
-247.005	-200.000	-0.004	-0.185
-245.990	58.622	-0.196	-0.190
-244.976	-188.905	-0.200	0.002
-243.961	-200.000	-0.022	0.169
-242.946	5.017	-0.136	0.099
-241.932	-1.743	0.050	-0.035
-240.917	-118.260	-0.102	-0.018
-239.903	324.105	-0.043	-0.081
-238.888	-127.716	-0.087	-0.012
-237.873	-14.998	-0.134	0.085
-236.859	134.017	0.163	-0.209
-235.844	267.059	0.070	-0.120
-234.830	800.000	0.015	-0.043
-233.815	89.872	0.083	-0.092
-232.800	-200.000	-0.009	0.301
-231.786	35.147	0.077	0.066
-230.771	-127.091	0.277	-0.040
-229.757	-110.632	0.297	0.061
-228.742	-61.908	-0.473	0.195
-227.727	-123.405	0.255	-0.040
-226.713	-148.368	0.214	0.017
-225.698	-54.985	-0.228	-0.101
-224.684	114.190	-0.188	-0.225
-223.669	158.567	-0.156	-0.214
-222.655	-200.000	0.010	-0.125
-221.640	800.000	-0.090	0.351
-220.625	-200.000	0.023	0.208
-219.611	779.551	0.064	-0.172
-218.596	-28.978	0.166	0.094
-217.582	-200.000	0.040	0.249
-216.567	-68.018	-0.150	0.058
-215.552	-120.978	0.300	0.050
-214.538	800.000	-0.209	0.688
-213.523	-162.440	0.195	-0.010
-212.509	30.367	-0.191	0.161
-211.494	-200.000	-0.040	0.405
-210.479	8.525	0.202	-0.150
-209.465	686.869	0.064	0.166
-208.450	-181.237	0.120	-0.002
-207.436	-200.000	-0.010	0.270
-206.421	-39.780	-0.077	-0.039
-205.406	626.785	0.063	0.157
-204.392	-94.248	-0.073	-0.020
-203.377	107.415	-0.071	0.083
-202.363	221.182	-0.224	-0.355
-201.348	177.330	-0.179	-0.257
-200.333	-153.597	0.229	-0.016
-199.319	496.776	0.101	-0.229
-198.304	-200.000	0.004	0.150
-197.290	-150.125	-0.254	-0.019
-196.275	49.548	-0.150	-0.140
-195.260	256.203	-0.015	0.025
-194.246	-148.512	-0.330	0.027
-193.231	542.118	-0.024	0.057
-192.217	-30.303	-0.400	0.224
-191.202	86.167	-0.114	0.124
-190.187	282.987	0.088	0.156
-189.173	475.362	-0.160	0.357
-188.158	800.000	-0.030	0.095
-187.144	-79.291	0.258	0.086
-186.129	800.000	-0.056	-0.181
-185.114	-200.000	-0.065	-0.301
-184.100	-200.000	-0.028	0.355
-183.085	-200.000	0.042	-0.301
-182.071	-131.541	0.185	-0.024
-181.056	250.691	-0.067	-0.112
-180.042	7.727	0.327	0.241
-179.027	-24.242	-0.055	0.032
-178.012	-128.669	-0.268	0.037
-176.998	-200.000	0.012	-0.185
-175.983	-129.002	0.202	-0.028
-174.969	319.640	-0.089	-0.167
-173.954	-152.383	0.080	0.006
-172.939	-200.000	-0.008	0.399
-171.925	-64.030	0.044	-0.018
-170.910	-190.016	0.051	0.001
-169.896	-200.000	-0.002	-0.270
-168.881	277.389	0.078	-0.136
-167.866	52.886	0.208	0.196
-166.852	61.537	0.302	0.295
-165.837	-67.047	-0.118	-0.046
-164.823	468.265	0.121	-0.266
-163.808	251.246	-0.084	-0.140
-162.793	-66.185	0.055	-0.022
-161.779	32.917	-0.038	-0.033
-160.764	34.240	-0.201	0.173
-159.750	-9.099	0.027	-0.018
-158.735	74.243	-0.135	0.140
-157.720	-155.838	0.111	0.007
-156.706	59.932	0.254	0.247
-155.691	60.389	0.335	0.327
-154.677	-78.553	-0.300	0.101
-153.662	-22.783	0.140	-0.083
-152.647	800.000	0.086	0.267
-151.633	444.465	0.136	-0.293
-150.618	800.000	-0.100	0.306
-149.604	215.685	0.248	0.387
-148.589	-12.613	-0.191	0.122
-147.574	-200.000	0.031	0.271
-146.560	-200.000	0.007	-0.148
-145.545	-29.587	-0.069	0.039
-144.531	-183.537	-0.217	0.004
-143.516	309.206	-0.135	0.249
-142.502	800.000	0.067	0.284
-141.487	800.000	-0.076	0.242
-140.472	-122.064	0.078	-0.013
-139.458	-53.720	0.190	-0.085
-138.443	-131.345	-0.374	0.049
-137.429	403.800	0.029	-0.060
-136.414	422.087	-0.101	0.214
-135.399	-200.000	-0.050	-0.243
-134.385	133.986	-0.035	0.045
-133.370	-200.000	0.012	-0.524
-132.356	-98.762	-0.115	0.029
-131.341	36.611	0.113	-0.098
-130.326	-80.075	-0.195	-0.064
-129.312	-200.000	-0.019	-0.170
-128.297	-200.000	0.033	-0.158
-127.283	-12.187	-0.254	-0.163
-126.268	91.557	-0.147	0.162
-125.253	66.878	-0.036	0.037
-124.239	34.827	0.096	0.083
-123.224	37.973	0.182	-0.159
-122.210	-102.508	0.098	0.023
