DTS Sentinel unit serial number:	SN413079Multiplexer serial number:	ORYXHardware model number:	OX4-SRSoftware version number:	ORYX F/W v4.00 Oryx Data Collector v3.7.2.0data status	okinstallation	princeton_trtdifferential loss correction	single-endedforward channel	channel 3reverse channel	N/Adate	2019/09/12time	02:18:11forward acquisition time	60.00reverse acquisition time	0.00gamma	496.2192k internal	0.2321k external	0.2321temperature offset calibration	1.0060default loss term (dB/km)	0.3790temperature slope calibration	1.0000multiplexer offset coefficient	1.0000multiplexer slope coefficient	1.0000fibre end	0.00T internal ref (°C)	32.62T ext. ref 1 (°C)	2.05T ext. ref 2 (°C)	26.04length (m)	temperature (°C)	Stokes	anti-Stokes-747.200	64.486	-0.221	-0.225
-746.185	88.527	0.084	0.095
-745.171	-127.149	-0.111	-0.016
-744.156	-77.792	-0.371	-0.129
-743.142	-4.233	0.107	0.075
-742.127	-14.472	-0.353	0.229
-741.112	-17.176	0.331	0.211
-740.098	-200.000	0.023	0.176
-739.083	222.279	0.196	0.318
-738.069	800.000	-0.068	0.216
-737.054	248.024	0.114	0.194
-736.039	40.797	-0.057	0.052
-735.025	-132.146	0.127	0.017
-734.010	-87.085	-0.035	0.011
-732.996	260.673	-0.038	-0.066
-731.981	-8.561	-0.210	-0.142
-730.966	-99.003	-0.359	-0.092
-729.952	-99.667	-0.202	0.051
-728.937	800.000	0.050	-0.151
-727.923	-40.767	0.204	0.107
-726.908	-119.489	0.252	0.044
-725.894	-76.804	0.154	0.054
-724.879	800.000	0.085	0.282
-723.864	10.700	-0.181	-0.139
-722.850	248.071	0.052	-0.089
-721.835	-73.839	-0.116	0.042
-720.821	-72.605	0.423	0.158
-719.806	-200.000	-0.007	-0.092
-718.791	105.704	0.106	-0.127
-717.777	-200.000	-0.030	-0.150
-716.762	-65.950	-0.156	-0.063
-715.748	-163.530	-0.108	0.005
-714.733	582.312	-0.017	-0.043
-713.718	178.117	-0.090	-0.133
-712.704	287.720	-0.130	0.237
-711.689	-23.371	0.176	-0.107
-710.675	800.000	-0.049	-0.189
-709.660	-4.121	0.101	-0.070
-708.645	-110.622	-0.310	0.065
-707.631	125.221	0.227	-0.289
-706.616	204.216	-0.172	0.268
-705.602	23.844	-0.100	-0.083
-704.587	509.145	0.080	-0.187
-703.572	-25.149	-0.259	-0.155
-702.558	99.807	-0.221	0.258
-701.543	4.886	0.214	-0.159
-700.529	-85.809	0.192	0.060
-699.514	499.066	0.105	0.245
-698.499	46.263	-0.076	-0.071
-697.485	-9.732	-0.161	-0.108
-696.470	145.678	-0.226	-0.306
-695.456	-152.348	-0.296	0.022
-694.441	-82.955	0.297	-0.097
-693.426	126.571	-0.224	-0.286
-692.412	-200.000	-0.030	-0.137
-691.397	346.909	-0.069	-0.138
-690.383	-200.000	0.018	-0.097
-689.368	66.032	-0.205	-0.210
-688.354	-200.000	0.044	-0.197
-687.339	220.312	-0.187	-0.303
-686.324	80.102	-0.133	-0.145
-685.310	-181.668	-0.136	0.003
-684.295	306.862	0.104	0.196
-683.281	-200.000	-0.095	0.481
-682.266	-124.683	-0.303	0.047
-681.251	-6.565	-0.210	-0.144
-680.237	-161.140	0.285	0.015
-679.222	-7.922	0.257	-0.175
-678.208	332.438	-0.070	0.137
-677.193	30.380	0.195	0.168
-676.178	800.000	-0.018	0.055
-675.164	88.547	0.201	-0.226
-674.149	-54.082	-0.218	0.100
-673.135	197.598	-0.158	-0.243
-672.120	-200.000	-0.008	-0.106
-671.105	-199.527	0.089	-0.000
-670.091	118.582	-0.138	0.172
-669.076	-59.018	0.244	0.106
-668.062	-96.735	-0.128	-0.034
-667.047	-109.847	0.303	0.064
-666.032	-39.828	-0.244	0.129
-665.018	34.558	-0.122	0.107
-664.003	800.000	0.103	0.334
-662.989	38.094	-0.261	0.234
-661.974	358.643	0.060	0.122
-660.959	-114.320	0.254	-0.049
-659.945	-200.000	-0.073	-0.424
-658.930	-157.895	0.269	-0.016
-657.916	527.604	0.116	-0.275
-656.901	-105.467	0.208	-0.048
-655.886	210.821	-0.126	-0.199
-654.872	400.719	-0.106	-0.225
-653.857	-200.000	0.050	0.286
-652.843	128.797	-0.086	0.110
-651.828	-5.457	0.330	-0.228
-650.814	-130.149	-0.184	-0.025
-649.799	-188.957	-0.171	0.002
-648.784	379.604	-0.054	0.111
-647.770	-200.000	-0.015	-0.206
-646.755	-154.174	-0.046	-0.003
-645.741	800.000	-0.142	-0.513
-644.726	548.527	-0.070	-0.170
-643.711	-16.700	0.182	0.116
-642.697	378.819	0.073	0.150
-641.682	518.206	-0.063	0.149
-640.668	-68.962	-0.112	-0.044
-639.653	74.935	-0.157	0.167
-638.638	-159.603	-0.075	-0.004
-637.624	262.592	-0.076	0.132
-636.609	-16.300	0.129	-0.083
-635.595	471.206	0.047	-0.106
-634.580	141.401	0.017	0.023
-633.565	-38.651	0.187	-0.099
-632.551	-18.059	-0.171	0.108
-631.536	-32.954	-0.255	0.143
-630.522	-58.275	0.287	-0.126
-629.507	59.785	-0.112	0.111
-628.492	-200.000	-0.044	-0.244
-627.478	70.891	0.039	-0.041
-626.463	800.000	0.046	0.171
-625.449	-79.306	-0.184	0.063
-624.434	800.000	0.074	0.302
-623.419	-61.650	-0.171	-0.072
-622.405	-24.197	0.234	-0.141
-621.390	-147.915	-0.301	-0.025
-620.376	246.031	-0.098	0.167
-619.361	272.493	-0.257	0.456
-618.346	57.542	-0.232	-0.228
-617.332	274.689	-0.103	-0.184
-616.317	800.000	-0.090	-0.334
-615.303	-200.000	0.042	0.327
-614.288	-29.574	0.314	0.181
-613.273	73.417	0.167	0.176
-612.259	800.000	-0.078	0.232
-611.244	-149.319	-0.161	-0.013
-610.230	-200.000	-0.015	-0.099
-609.215	254.432	0.053	-0.092
-608.201	64.996	-0.095	0.096
-607.186	-65.655	0.090	-0.036
-606.171	64.275	-0.060	0.060
-605.157	86.081	-0.063	-0.069
-604.142	800.000	-0.057	0.170
-603.128	-200.000	0.031	-0.186
-602.113	-58.807	-0.325	-0.141
-601.098	84.309	-0.166	-0.183
-600.084	192.267	0.137	-0.208
-599.069	800.000	0.089	-0.363
-598.055	312.118	-0.048	0.091
-597.040	-103.599	0.150	-0.035
-596.025	151.888	-0.225	-0.309
-595.011	47.762	0.318	-0.298
-593.996	800.000	0.012	0.042
-592.982	53.392	-0.106	0.102
-591.967	-44.826	-0.057	0.029
-590.952	800.000	-0.106	-0.372
-589.938	-200.000	-0.008	-0.158
-588.923	-200.000	0.013	-0.169
-587.909	-200.000	0.015	-0.243
-586.894	20.554	-0.117	-0.095
-585.879	-93.587	0.139	-0.039
-584.865	-200.000	0.054	0.249
-583.850	800.000	0.086	-0.252
-582.836	-200.000	-0.017	-0.342
-581.821	161.657	0.127	0.178
-580.806	47.950	-0.118	-0.111
-579.792	30.471	0.177	-0.152
-578.777	-114.146	-0.346	0.067
-577.763	60.347	-0.121	0.120
-576.748	-32.083	0.110	-0.062
-575.733	-200.000	0.014	0.170
-574.719	800.000	-0.072	0.235
-573.704	-66.280	-0.186	-0.074
-572.690	-126.515	-0.369	-0.055
-571.675	800.000	-0.070	-0.299
-570.661	-200.000	-0.102	-0.592
-569.646	230.080	0.053	0.086
-568.631	58.095	0.124	0.122
-567.617	-128.405	-0.158	-0.023
-566.602	-171.701	0.422	0.014
-565.588	-42.514	-0.469	0.240
-564.573	-81.507	0.217	0.072
-563.558	-200.000	0.010	0.073
-562.544	-194.290	-0.073	0.001
-561.529	-96.746	0.047	0.012
-560.515	-200.000	-0.065	-0.298
-559.500	-200.000	0.059	-0.402
-558.485	503.260	0.074	-0.171
-557.471	-48.468	-0.259	0.125
-556.456	-124.813	0.161	0.025
-555.442	-41.426	-0.127	-0.066
-554.427	235.310	0.071	-0.118
-553.412	-143.995	0.161	-0.015
-552.398	-200.000	0.035	-0.216
-551.383	667.757	-0.085	-0.222
-550.369	-90.602	-0.087	0.025
-549.354	358.206	-0.007	-0.014
-548.339	-200.000	0.012	-0.078
-547.325	245.005	0.068	0.115
-546.310	-11.567	-0.135	-0.089
-545.296	-200.000	0.036	0.283
-544.281	344.106	-0.090	0.178
-543.266	-200.000	-0.050	0.286
-542.252	-200.000	0.036	-0.192
-541.237	33.434	-0.163	-0.142
-540.223	-200.000	-0.015	-0.157
-539.208	366.789	-0.031	0.063
-538.193	210.477	0.014	-0.022
-537.179	-200.000	-0.013	-0.259
-536.164	163.176	-0.079	-0.111
-535.150	178.838	-0.224	-0.329
-534.135	-101.513	-0.315	0.077
-533.121	-119.894	-0.092	0.016
-532.106	-200.000	-0.010	0.171
-531.091	-79.558	0.064	0.022
-530.077	-200.000	-0.043	-0.204
-529.062	-200.000	0.001	-0.023
-528.048	800.000	0.018	-0.050
-527.033	101.923	-0.083	-0.097
-526.018	-200.000	-0.058	0.375
-525.004	429.209	-0.094	-0.203
-523.989	-120.134	-0.273	0.047
-522.975	-124.131	-0.105	-0.016
-521.960	-78.664	-0.187	-0.064
-520.945	55.323	0.169	0.164
-519.931	800.000	0.032	0.088
-518.916	-171.923	-0.219	-0.007
-517.902	-200.000	-0.039	-0.551
-516.887	292.913	0.088	0.160
-515.872	-10.898	-0.310	-0.205
-514.858	-81.949	-0.251	0.082
-513.843	198.377	0.277	0.424
-512.829	74.850	-0.221	-0.233
-511.814	800.000	0.018	0.079
-510.799	-34.144	0.115	0.063
-509.785	-200.000	-0.036	0.181
-508.770	194.705	0.095	0.144
-507.756	-26.727	-0.028	-0.016
-506.741	-63.483	0.264	0.108
-505.726	-105.537	0.204	0.046
-504.712	103.594	-0.032	0.038
-503.697	-59.298	0.072	0.031
-502.683	93.709	0.250	-0.283
-501.668	-45.815	-0.246	-0.121
-500.653	-124.089	0.286	0.045
-499.639	108.836	-0.110	-0.132
-498.624	123.710	-0.115	-0.145
-497.610	-49.625	0.292	0.139
-496.595	-119.174	0.478	-0.084
-495.581	565.398	0.137	0.332
-494.566	734.715	-0.053	0.141
-493.551	-41.772	-0.212	0.109
-492.537	25.909	-0.217	-0.181
-491.522	-156.678	0.141	0.009
-490.508	-108.588	0.162	-0.035
-489.493	-200.000	-0.044	-0.216
-488.478	-200.000	0.034	-0.167
-487.464	-25.537	0.316	-0.187
-486.449	-39.030	-0.051	-0.027
-485.435	132.148	-0.119	0.154
-484.420	-200.000	0.022	0.242
-483.405	-200.000	0.041	0.200
-482.391	124.989	-0.238	0.300
-481.376	-16.838	-0.113	0.072
-480.362	-200.000	0.159	-0.001
-479.347	-200.000	0.077	0.387
-478.332	-157.770	0.203	-0.012
-477.318	-67.618	0.036	0.014
-476.303	619.345	0.059	0.149
-475.289	215.398	0.115	-0.183
-474.274	20.987	-0.117	0.095
-473.259	800.000	-0.021	-0.060
-472.245	18.477	0.467	0.373
-471.230	85.375	0.176	0.193
-470.216	-1.387	0.297	0.210
-469.201	-13.575	-0.142	0.092
-468.186	279.210	-0.029	-0.051
-467.172	800.000	-0.029	0.107
-466.157	176.730	0.029	0.043
-465.143	-71.689	0.133	-0.050
-464.128	800.000	-0.017	0.073
-463.113	36.669	-0.148	-0.131
-462.099	-185.373	0.231	0.004
-461.084	66.728	0.156	-0.159
-460.070	-52.248	0.124	0.057
-459.055	-132.991	0.176	-0.022
-458.040	-26.890	0.154	0.090
-457.026	-171.269	-0.438	-0.015
-456.011	800.000	-0.008	-0.031
-454.997	434.607	0.024	-0.053
-453.982	-200.000	-0.028	-0.138
-452.968	237.040	0.109	0.180
-451.953	-200.000	-0.028	-0.288
-450.938	484.067	0.039	0.089
-449.924	-56.729	0.337	-0.149
-448.909	-33.238	0.161	0.089
-447.895	-116.512	-0.352	0.065
-446.880	800.000	0.053	-0.149
-445.865	-200.000	-0.026	-0.314
-444.851	-162.658	0.212	-0.010
-443.836	-200.000	0.013	0.147
-442.822	-200.000	-0.002	-0.353
-441.807	637.956	-0.081	-0.206
-440.792	-200.000	0.028	0.127
-439.778	-47.377	-0.115	-0.056
-438.763	137.901	0.193	-0.253
-437.749	-200.000	-0.025	0.231
-436.734	-200.000	0.014	-0.233
-435.719	-200.000	-0.014	-0.082
-434.705	-141.144	0.316	0.032
-433.690	-200.000	-0.031	0.215
-432.676	558.468	-0.212	0.510
-431.661	79.977	-0.249	0.267
-430.646	-200.000	-0.023	0.160
-429.632	18.725	0.020	0.016
-428.617	-71.570	-0.405	-0.151
-427.603	-113.144	-0.080	0.016
-426.588	-200.000	-0.032	0.158
-425.573	269.156	0.134	0.235
-424.559	-200.000	-0.030	0.176
-423.544	-200.000	-0.010	0.064
-422.530	800.000	0.055	-0.230
-421.515	-66.908	0.261	0.103
-420.500	89.972	-0.170	0.190
-419.486	53.507	-0.244	0.233
-418.471	-200.000	-0.010	0.075
-417.457	-72.137	-0.276	0.102
-416.442	-147.384	0.140	0.012
-415.428	7.120	-0.154	-0.115
-414.413	-135.025	-0.125	0.015
-413.398	538.588	-0.055	-0.131
-412.384	-38.043	0.130	-0.069
-411.369	-44.129	0.168	0.084
-410.355	-109.203	-0.247	0.052
-409.340	-200.000	-0.006	0.362
-408.325	-105.375	0.509	-0.115
-407.311	768.004	-0.068	0.184
-406.296	330.342	-0.081	-0.155
-405.282	164.143	0.089	0.126
-404.267	-55.481	-0.193	0.086
-403.252	110.201	-0.194	-0.232
-402.238	189.834	0.013	-0.020
-401.223	552.244	-0.008	-0.020
-400.209	172.867	-0.084	0.121
-399.194	41.021	-0.164	-0.148
-398.179	-6.533	-0.019	0.013
-397.165	800.000	0.077	-0.221
-396.150	62.129	-0.165	0.164
-395.136	-60.167	0.097	0.041
-394.121	-88.073	-0.133	0.040
-393.106	-129.743	-0.243	-0.033
-392.092	-200.000	-0.016	0.112
-391.077	-124.292	0.126	-0.020
-390.063	116.403	0.063	0.077
-389.048	656.093	0.092	0.234
-388.033	124.324	-0.279	-0.350
-387.019	243.923	0.127	0.212
-386.004	800.000	0.142	0.426
-384.990	-122.680	0.296	0.048
-383.975	37.751	-0.138	-0.122
-382.960	800.000	0.027	-0.113
-381.946	-132.296	0.086	0.011
-380.931	-158.125	-0.129	0.008
-379.917	-200.000	0.037	-0.293
-378.902	800.000	0.087	0.241
-377.888	-50.235	-0.086	0.040
-376.873	-155.739	-0.118	0.008
-375.858	-107.869	0.333	-0.072
-374.844	-200.000	-0.013	0.276
-373.829	-63.317	-0.332	0.136
-372.815	-123.651	-0.306	-0.048
-371.800	-108.984	-0.243	0.052
-370.785	-200.000	-0.003	-0.081
-369.771	-200.000	-0.033	-0.269
-368.756	197.096	-0.082	-0.125
-367.742	-200.000	0.047	0.225
-366.727	-80.069	-0.125	0.042
-365.712	-31.165	0.241	0.135
-364.698	83.554	0.154	0.167
-363.683	84.370	-0.065	-0.071
-362.669	155.579	-0.176	-0.242
-361.654	6.655	-0.104	-0.077
-360.639	-131.418	-0.292	-0.038
-359.625	-108.944	0.086	-0.018
-358.610	69.428	-0.190	0.195
-357.596	-0.712	-0.116	-0.082
-356.581	-118.985	-0.106	-0.019
-355.566	-200.000	-0.070	0.464
-354.552	5.086	0.126	0.092
-353.537	-24.811	0.250	0.148
-352.523	97.712	-0.058	-0.066
-351.508	-151.109	-0.278	0.021
-350.493	-200.000	0.049	0.230
-349.479	742.342	0.103	-0.276
-348.464	-188.107	0.138	0.002
-347.450	536.811	0.099	-0.235
-346.435	209.430	0.158	0.247
-345.420	138.691	-0.193	0.253
-344.406	-200.000	-0.022	0.290
-343.391	20.891	0.030	-0.024
-342.377	-200.000	0.002	-0.193
-341.362	-100.363	0.134	-0.033
-340.348	-200.000	0.018	0.131
-339.333	-160.109	-0.060	-0.003
-338.318	-44.642	-0.054	0.027
-337.304	-156.176	0.185	-0.012
-336.289	-91.082	-0.248	0.071
-335.275	-29.558	0.310	0.176
-334.260	-78.921	0.050	-0.017
-333.245	361.851	0.169	0.338
-332.231	-98.950	-0.433	0.109
-331.216	-200.000	-0.010	-0.114
-330.202	394.345	0.020	0.042
-329.187	40.479	0.108	0.097
-328.172	-200.000	-0.019	0.090
-327.158	267.749	-0.264	0.460
-326.143	-125.650	-0.067	-0.010
-325.129	-32.730	-0.151	0.083
-324.114	296.408	0.019	0.034
-323.099	-200.000	0.030	0.273
-322.085	-116.377	0.349	0.064
-321.070	-200.000	0.005	0.057
-320.056	-12.760	0.080	0.052
-319.041	272.819	0.125	-0.220
-318.026	-200.000	-0.005	0.130
-317.012	166.889	-0.137	0.194
-315.997	78.043	0.222	-0.236
-314.983	800.000	0.029	-0.120
-313.968	800.000	-0.027	-0.079
-312.953	62.337	-0.135	0.134
-311.939	659.637	-0.034	0.088
-310.924	-200.000	-0.035	0.257
-309.910	-60.309	0.026	0.011
-308.895	-123.337	-0.312	0.049
-307.880	236.355	-0.073	-0.121
-306.866	-200.000	-0.023	-0.283
-305.851	382.268	0.043	-0.088
-304.837	-114.598	-0.115	0.022
-303.822	-200.000	0.012	-0.079
-302.807	-122.785	0.411	0.066
-301.793	348.665	0.191	-0.375
-300.778	-34.560	0.225	-0.122
-299.764	-21.739	-0.016	-0.010
-298.749	-186.642	0.275	-0.004
-297.735	800.000	-0.047	-0.177
-296.720	-200.000	0.017	0.240
-295.705	800.000	0.053	0.217
-294.691	-200.000	0.056	-0.404
-293.676	-5.261	-0.212	-0.145
-292.662	-200.000	0.026	-0.136
-291.647	361.438	-0.109	-0.217
-290.632	-200.000	0.033	0.189
-289.618	90.710	-0.111	0.123
-288.603	-200.000	-0.050	-0.321
-287.589	-141.067	-0.201	0.020
-286.574	287.341	-0.102	0.183
-285.559	-81.639	0.085	-0.028
-284.545	693.025	-0.096	0.249
-283.530	-200.000	0.011	-0.097
-282.516	20.214	0.503	0.403
-281.501	-200.000	0.071	-0.342
-280.486	209.853	0.169	-0.263
-279.472	293.700	0.072	-0.130
-278.457	64.115	-0.432	-0.432
-277.443	128.797	0.098	-0.124
-276.428	90.924	0.120	-0.133
-275.413	-132.165	0.311	-0.040
-274.399	-169.656	-0.214	0.008
-273.384	162.579	-0.063	0.087
-272.370	-162.691	0.076	-0.004
-271.355	800.000	-0.050	0.148
-270.340	800.000	-0.043	0.124
-269.326	-99.425	0.139	0.035
-268.311	3.741	0.237	-0.172
-267.297	50.934	0.045	0.042
-266.282	-102.718	-0.334	0.079
-265.267	39.853	0.019	0.017
-264.253	-200.000	0.004	-0.074
-263.238	-49.068	-0.238	0.113
-262.224	44.311	-0.071	-0.065
-261.209	231.847	-0.219	-0.356
-260.195	490.375	-0.047	0.107
-259.180	-83.049	-0.184	-0.059
-258.165	-200.000	0.007	0.091
-257.151	62.330	-0.265	-0.262
-256.136	-200.000	-0.050	-0.238
-255.122	-200.000	-0.025	-0.200
-254.107	126.455	-0.084	0.106
-253.092	505.025	0.050	-0.115
-252.078	-28.876	-0.169	-0.096
-251.063	-155.166	0.282	-0.018
-250.049	-200.000	0.014	0.311
-249.034	106.912	0.097	0.114
-248.019	-184.852	0.321	-0.005
-247.005	-84.633	-0.367	-0.115
-245.990	-52.443	0.109	0.050
-244.976	800.000	0.037	0.129
-243.961	282.883	0.033	-0.058
-242.946	785.735	0.121	0.329
-241.932	-158.358	-0.049	-0.003
-240.917	-119.411	0.226	0.039
-239.903	-50.180	0.191	0.090
-238.888	265.277	0.125	-0.216
-237.873	265.996	-0.052	-0.090
-236.859	-99.884	0.248	-0.061
-235.844	-24.860	0.133	0.078
-234.830	34.425	0.039	0.033
-233.815	-65.399	-0.424	0.169
-232.800	5.435	-0.086	0.063
-231.786	-200.000	0.028	0.288
-230.771	264.647	0.088	0.151
-229.757	-69.167	0.328	0.125
-228.742	-19.393	0.261	0.160
-227.727	-200.000	0.004	0.038
-226.713	-29.084	0.113	-0.064
-225.698	-144.422	0.270	0.025
-224.684	-200.000	0.001	0.090
-223.669	-135.352	0.470	0.056
-222.655	-121.870	0.126	-0.021
-221.640	-82.866	-0.263	-0.084
-220.625	800.000	-0.075	-0.235
-219.611	73.918	-0.103	0.107
-218.596	-50.651	-0.132	-0.062
-217.582	-200.000	-0.053	0.301
-216.567	-131.696	0.209	-0.027
-215.552	-58.584	0.152	-0.065
-214.538	-43.388	-0.138	0.069
-213.523	-103.594	0.135	-0.031
-212.509	-79.713	0.078	-0.026
-211.494	-3.909	0.104	0.071
-210.479	205.659	0.103	0.159
-209.465	99.149	0.156	-0.178
-208.450	61.615	0.206	-0.203
-207.436	531.404	-0.113	-0.265
-206.421	800.000	0.030	-0.101
-205.406	-40.461	-0.174	0.089
-204.392	-150.848	0.198	-0.015
-203.377	-0.919	0.390	0.273
-202.363	-42.004	0.086	0.044
-201.348	-200.000	0.001	-0.393
-200.333	82.610	-0.109	0.117
-199.319	73.324	-0.075	0.078
-198.304	32.213	-0.273	-0.233
-197.290	-200.000	-0.010	0.178
-196.275	353.262	0.076	-0.149
-195.260	101.686	0.356	-0.411
-194.246	-169.712	-0.261	0.009
-193.231	-51.729	0.137	-0.063
-192.217	11.535	-0.179	0.136
-191.202	-84.633	-0.393	-0.123
-190.187	-200.000	-0.013	-0.167
-189.173	-137.912	-0.165	0.018
-188.158	27.932	-0.070	0.058
-187.144	451.170	0.047	0.102
-186.129	-200.000	-0.001	-0.208
-185.114	143.186	-0.156	0.205
-184.100	6.532	0.257	-0.189
-183.085	-200.000	0.007	-0.194
-182.071	-200.000	-0.009	0.110
-181.056	392.795	0.227	-0.467
-180.042	-144.313	0.127	0.012
-179.027	-27.298	0.206	-0.119
-178.012	3.713	0.193	0.139
-176.998	-175.097	0.178	-0.005
-175.983	-117.807	0.265	-0.047
-174.969	-141.857	0.173	-0.017
-173.954	137.752	-0.082	0.106
-172.939	284.296	0.096	0.170
-171.925	-45.391	0.316	-0.155
-170.910	150.390	0.262	0.351
-169.896	387.832	0.202	0.413
-168.881	-59.844	0.085	0.036
-167.866	-68.438	-0.046	0.018
-166.852	-122.416	-0.444	0.072
-165.837	-200.000	0.010	0.141
-164.823	39.451	-0.352	-0.311
-163.808	19.556	-0.069	0.055
-162.793	509.950	-0.065	-0.150
-161.779	-123.396	0.263	-0.041
-160.764	-200.000	0.065	-0.344
-159.750	-200.000	-0.069	-0.384
-158.735	-63.605	0.045	0.018
-157.720	-47.059	-0.212	0.102
-156.706	-82.615	0.212	0.068
-155.691	115.439	-0.057	0.069
-154.677	800.000	0.047	0.165
-153.662	-46.707	-0.156	0.075
-152.647	-200.000	0.021	0.281
-151.633	800.000	0.037	-0.139
-150.618	800.000	-0.040	-0.109
-149.604	45.601	-0.064	0.059
-148.589	48.039	0.137	0.126
-147.574	-20.961	-0.326	-0.197
-146.560	-200.000	0.011	-0.137
-145.545	-0.183	0.334	-0.234
-144.531	-88.072	0.326	0.096
-143.516	-108.585	0.379	-0.080
-142.502	800.000	-0.096	0.264
-141.487	-94.105	-0.154	-0.042
-140.472	-200.000	0.003	0.164
-139.458	284.340	0.019	-0.034
-138.443	84.975	-0.085	-0.092
-137.429	-9.076	-0.333	0.220
-136.414	766.293	0.042	0.111
-135.399	153.948	0.210	-0.284
-134.385	-200.000	-0.031	-0.161
-133.370	-200.000	0.051	0.390
-132.356	241.645	0.115	0.189
-131.341	-200.000	0.014	-0.079
-130.326	-168.267	0.424	-0.016
-129.312	136.877	-0.253	-0.326
-128.297	-153.527	0.278	-0.019
-127.283	-24.554	0.292	-0.172
-126.268	-122.200	-0.130	0.021
-125.253	-108.902	-0.431	-0.091
-124.239	-165.274	0.164	-0.007
-123.224	182.698	0.059	0.085
-122.210	-109.746	-0.172	-0.036
