DTS Sentinel unit serial number:	SN413079Multiplexer serial number:	ORYXHardware model number:	OX4-SRSoftware version number:	ORYX F/W v4.00 Oryx Data Collector v3.7.2.0data status	okinstallation	princeton_trtdifferential loss correction	single-endedforward channel	channel 3reverse channel	N/Adate	2019/09/12time	02:38:11forward acquisition time	60.00reverse acquisition time	0.00gamma	496.2192k internal	0.2321k external	0.2321temperature offset calibration	1.0065default loss term (dB/km)	0.3790temperature slope calibration	1.0000multiplexer offset coefficient	1.0000multiplexer slope coefficient	1.0000fibre end	0.00T internal ref (°C)	32.44T ext. ref 1 (°C)	2.08T ext. ref 2 (°C)	27.14length (m)	temperature (°C)	Stokes	anti-Stokes-747.200	234.502	0.070	0.117
-746.185	-170.422	-0.299	0.011
-745.171	-181.892	0.157	-0.003
-744.156	641.408	0.120	0.309
-743.142	19.969	-0.069	-0.056
-742.127	-23.685	0.389	0.236
-741.112	-141.640	0.528	-0.054
-740.098	441.498	-0.159	0.352
-739.083	436.485	0.073	0.161
-738.069	-120.546	0.174	0.030
-737.054	533.485	0.042	-0.100
-736.039	-62.976	-0.385	0.161
-735.025	66.247	0.168	-0.172
-734.010	-80.572	-0.465	-0.156
-732.996	131.929	0.081	0.106
-731.981	800.000	-0.122	0.368
-730.966	-96.831	-0.174	-0.046
-729.952	237.362	-0.167	0.280
-728.937	71.024	-0.349	0.365
-727.923	111.217	0.109	-0.132
-726.908	-52.773	0.223	-0.104
-725.894	-200.000	-0.040	0.308
-724.879	-167.827	0.129	0.005
-723.864	-200.000	0.010	-0.149
-722.850	35.554	0.163	-0.145
-721.835	-135.471	0.188	-0.023
-720.821	-102.898	0.211	-0.051
-719.806	-80.216	-0.073	-0.025
-718.791	129.101	0.077	0.100
-717.777	-69.834	-0.209	0.080
-716.762	-70.817	0.409	-0.156
-715.748	800.000	0.066	0.207
-714.733	-100.045	-0.081	0.020
-713.718	-74.045	0.228	0.084
-712.704	97.396	0.136	-0.158
-711.689	-141.525	-0.067	-0.007
-710.675	155.073	-0.090	0.125
-709.660	456.559	-0.139	0.310
-708.645	20.543	-0.200	0.163
-707.631	-200.000	0.018	0.227
-706.616	-200.000	0.003	0.219
-705.602	-200.000	-0.007	-0.227
-704.587	-120.446	0.165	-0.028
-703.572	-33.513	0.083	0.046
-702.558	-200.000	-0.028	0.207
-701.543	-200.000	-0.001	-0.391
-700.529	404.139	0.159	-0.337
-699.514	-97.835	-0.286	0.074
-698.499	4.739	0.176	0.130
-697.485	66.830	-0.076	0.079
-696.470	361.144	0.092	-0.186
-695.456	86.805	-0.051	-0.057
-694.441	-118.623	0.143	-0.025
-693.426	5.642	-0.175	0.131
-692.412	690.973	-0.125	0.331
-691.397	-9.104	-0.385	0.260
-690.383	-3.084	0.246	0.173
-689.368	-80.476	0.251	0.084
-688.354	-102.149	0.276	0.067
-687.339	276.801	-0.118	-0.211
-686.324	232.146	-0.122	-0.202
-685.310	28.835	0.128	-0.109
-684.295	-29.651	0.203	-0.117
-683.281	-128.498	0.340	-0.049
-682.266	-101.376	-0.444	0.109
-681.251	-133.242	0.025	-0.003
-680.237	176.182	0.254	-0.371
-679.222	-122.247	-0.255	-0.042
-678.208	-131.473	0.048	-0.006
-677.193	-125.390	-0.162	-0.025
-676.178	377.307	-0.081	-0.167
-675.164	-200.000	-0.012	-0.272
-674.149	581.515	0.140	-0.345
-673.135	14.444	-0.066	0.052
-672.120	124.035	0.089	-0.112
-671.105	-200.000	0.035	0.215
-670.091	800.000	-0.044	0.142
-669.076	45.924	0.131	-0.122
-668.062	800.000	-0.144	0.494
-667.047	-158.204	-0.180	0.011
-666.032	-110.943	-0.070	-0.015
-665.018	53.287	0.044	0.043
-664.003	60.945	0.152	0.152
-662.989	-145.717	-0.202	0.018
-661.974	-48.664	-0.052	-0.025
-660.959	584.567	0.040	-0.099
-659.945	-104.639	0.391	0.091
-658.930	33.644	-0.131	0.115
-657.916	30.752	0.143	-0.123
-656.901	-121.318	0.294	0.049
-655.886	800.000	0.105	0.382
-654.872	-66.909	-0.316	0.126
-653.857	-43.995	-0.125	0.063
-652.843	160.928	-0.186	-0.261
-651.828	-200.000	-0.008	-0.197
-650.814	603.055	0.081	0.203
-649.799	16.485	-0.310	-0.246
-648.784	800.000	-0.079	-0.236
-647.770	651.192	0.100	0.257
-646.755	800.000	-0.038	-0.111
-645.741	-143.686	-0.117	0.011
-644.726	-105.084	-0.161	-0.037
-643.711	-49.206	-0.179	0.086
-642.697	-200.000	-0.021	-0.110
-641.682	137.291	-0.131	-0.172
-640.668	-90.696	-0.291	0.085
-639.653	-96.067	0.144	-0.039
-638.638	27.593	-0.237	-0.201
-637.624	375.881	-0.070	0.143
-636.609	109.942	0.185	-0.224
-635.595	-35.293	0.193	0.105
-634.580	-98.664	0.355	-0.091
-633.565	-61.266	-0.214	0.091
-632.551	534.175	-0.156	-0.373
-631.536	-200.000	0.023	-0.243
-630.522	800.000	0.047	-0.159
-629.507	-106.012	-0.287	-0.065
-628.492	-58.101	0.091	-0.040
-627.478	16.027	0.131	0.104
-626.463	44.587	-0.137	-0.127
-625.449	-118.028	-0.211	-0.038
-624.434	506.248	-0.142	-0.330
-623.419	184.248	0.178	-0.265
-622.405	800.000	-0.034	-0.130
-621.390	178.534	-0.141	-0.207
-620.376	-99.583	0.569	-0.144
-619.361	262.323	0.151	0.264
-618.346	431.021	-0.183	-0.399
-617.332	96.557	0.249	-0.287
-616.317	68.268	0.191	0.197
-615.303	-177.713	-0.112	-0.003
-614.288	-170.930	0.448	-0.015
-613.273	-107.230	-0.437	-0.097
-612.259	57.074	-0.137	0.134
-611.244	-67.349	0.160	0.063
-610.230	-123.936	-0.053	0.008
-609.215	346.563	-0.090	-0.177
-608.201	-46.732	-0.291	0.143
-607.186	113.003	-0.072	0.087
-606.171	-146.264	0.236	0.021
-605.157	73.920	0.149	-0.157
-604.142	-200.000	-0.007	-0.537
-603.128	319.059	0.223	-0.425
-602.113	-176.076	0.155	-0.004
-601.098	577.752	0.097	-0.239
-600.084	-7.747	-0.163	0.110
-599.069	-20.052	0.198	-0.123
-598.055	-7.108	0.106	0.073
-597.040	-10.147	-0.244	0.163
-596.025	63.687	-0.202	-0.204
-595.011	-200.000	0.006	-0.310
-593.996	-132.340	0.061	0.008
-592.982	-200.000	-0.042	-0.189
-591.967	-137.252	-0.364	0.042
-590.952	317.174	-0.090	-0.172
-589.938	204.838	0.251	-0.392
-588.923	3.411	-0.130	-0.095
-587.909	-176.350	0.293	-0.008
-586.894	-84.550	-0.179	-0.057
-585.879	-200.000	-0.020	0.147
-584.865	-146.462	0.129	-0.011
-583.850	-167.215	0.140	0.006
-582.836	800.000	0.005	-0.017
-581.821	396.601	-0.014	-0.028
-580.806	386.831	-0.196	-0.407
-579.792	70.116	-0.111	-0.115
-578.777	800.000	0.049	-0.173
-577.763	-200.000	0.065	-0.402
-576.748	-46.850	-0.281	-0.138
-575.733	-27.150	-0.256	-0.150
-574.719	-95.438	0.249	0.067
-573.704	4.931	-0.123	-0.091
-572.690	-200.000	0.001	0.078
-571.675	-200.000	0.043	-0.214
-570.661	-116.175	-0.187	-0.035
-569.646	-200.000	0.013	0.088
-568.631	38.029	0.276	0.246
-567.617	-20.261	0.272	0.168
-566.602	-122.878	-0.480	-0.078
-565.588	127.060	0.047	-0.060
-564.573	64.750	-0.330	0.334
-563.558	-36.109	0.021	0.011
-562.544	-60.211	-0.348	0.149
-561.529	-200.000	0.046	0.243
-560.515	161.469	0.044	-0.062
-559.500	-32.870	0.102	-0.057
-558.485	469.063	-0.044	0.100
-557.471	58.455	0.202	0.199
-556.456	486.630	-0.079	-0.181
-555.442	-73.156	-0.035	0.013
-554.427	-200.000	-0.013	0.230
-553.412	33.543	-0.105	0.092
-552.398	800.000	0.029	0.096
-551.383	-200.000	0.011	0.170
-550.369	-6.566	0.132	-0.090
-549.354	323.777	0.063	0.121
-548.339	92.465	0.038	0.043
-547.325	-128.281	-0.271	0.039
-546.310	-81.247	0.240	0.079
-545.296	-200.000	0.003	0.326
-544.281	2.949	0.044	0.032
-543.266	-200.000	0.010	0.115
-542.252	-196.945	-0.190	-0.001
-541.237	-104.002	-0.315	0.074
-540.223	-200.000	-0.058	-0.267
-539.208	-200.000	-0.010	-0.126
-538.193	-72.019	0.241	0.090
-537.179	-200.000	-0.031	0.231
-536.164	478.219	-0.063	-0.142
-535.150	0.666	-0.125	0.090
-534.135	-56.819	0.176	-0.078
-533.121	-200.000	0.015	0.261
-532.106	374.371	-0.148	0.303
-531.091	575.946	-0.076	0.186
-530.077	173.685	0.039	0.056
-529.062	-33.090	0.173	-0.096
-528.048	800.000	0.051	0.177
-527.033	30.220	-0.147	-0.126
-526.018	800.000	0.079	-0.237
-525.004	106.008	0.242	-0.288
-523.989	678.370	-0.083	-0.217
-522.975	-200.000	-0.025	-0.205
-521.960	-111.635	0.142	-0.029
-520.945	627.378	0.170	-0.429
-519.931	-57.724	0.291	0.127
-518.916	-7.151	-0.235	0.159
-517.902	-132.759	-0.232	0.030
-516.887	12.150	-0.189	-0.146
-515.872	-86.554	0.098	-0.030
-514.858	-97.513	-0.165	-0.043
-513.843	-185.822	0.272	-0.004
-512.829	-66.287	-0.173	0.069
-511.814	-200.000	0.018	0.189
-510.799	69.006	-0.092	0.094
-509.785	84.613	0.122	-0.134
-508.770	800.000	0.031	0.092
-507.756	7.944	0.103	0.078
-506.741	58.281	0.233	-0.229
-505.726	131.473	-0.107	0.138
-504.712	800.000	0.134	-0.435
-503.697	81.595	0.097	0.106
-502.683	-6.201	0.256	0.175
-501.668	343.945	-0.120	0.236
-500.653	798.250	0.065	0.178
-499.639	575.318	0.105	-0.257
-498.624	-128.263	-0.332	-0.047
-497.610	-24.451	-0.282	-0.168
-496.595	-65.801	0.234	-0.094
-495.581	-55.496	0.064	-0.029
-494.566	-200.000	0.059	-0.327
-493.551	120.406	0.121	-0.151
-492.537	-43.272	-0.259	0.131
-491.522	2.024	-0.055	-0.040
-490.508	37.785	-0.358	0.318
-489.493	-115.207	-0.266	0.050
-488.478	-82.401	-0.134	-0.044
-487.464	-159.732	0.238	0.013
-486.449	1.877	-0.307	0.222
-485.435	-22.788	0.242	-0.146
-484.420	-200.000	0.051	-0.314
-483.405	800.000	0.085	0.254
-482.391	343.674	-0.211	-0.414
-481.376	-100.429	0.324	-0.080
-480.362	97.807	0.225	-0.259
-479.347	800.000	0.036	0.124
-478.332	800.000	-0.071	-0.212
-477.318	18.773	0.035	0.028
-476.303	210.860	0.183	-0.288
-475.289	669.815	0.061	0.157
-474.274	800.000	-0.065	-0.216
-473.259	26.809	-0.232	0.194
-472.245	-136.801	0.003	-0.000
-471.230	281.016	-0.048	-0.086
-470.216	-60.835	-0.339	-0.143
-469.201	99.761	-0.208	0.241
-468.186	800.000	0.093	0.364
-467.172	-115.011	-0.068	-0.013
-466.157	131.942	0.116	0.150
-465.143	49.583	-0.074	0.070
-464.128	94.574	-0.147	0.167
-463.113	19.365	0.277	0.223
-462.099	34.165	0.107	-0.093
-461.084	-92.199	0.282	0.080
-460.070	-105.829	-0.308	0.069
-459.055	-130.745	-0.160	0.021
-458.040	451.606	0.118	0.262
-457.026	106.709	-0.103	-0.123
-456.011	-200.000	-0.011	-0.052
-454.997	-19.186	-0.084	-0.052
-453.982	-200.000	-0.036	0.199
-452.968	-159.469	0.236	0.013
-451.953	30.854	-0.236	-0.202
-450.938	800.000	-0.090	-0.374
-449.924	47.641	-0.225	0.210
-448.909	-200.000	-0.016	-0.104
-447.895	567.076	-0.057	0.138
-446.880	-108.913	0.376	-0.080
-445.865	100.378	0.137	-0.159
-444.851	-19.011	-0.182	0.113
-443.836	282.677	0.174	-0.311
-442.822	28.783	-0.260	-0.220
-441.807	800.000	0.075	0.315
-440.792	216.891	-0.186	-0.296
-439.778	72.109	0.102	-0.106
-438.763	-200.000	0.012	-0.099
-437.749	102.204	0.156	0.182
-436.734	143.035	0.205	0.272
-435.719	-81.629	0.168	-0.055
-434.705	783.493	0.132	-0.360
-433.690	381.914	-0.098	0.200
-432.676	-73.472	0.310	-0.113
-431.661	-149.109	0.198	-0.016
-430.646	9.044	0.083	-0.062
-429.632	-200.000	0.003	0.258
-428.617	68.589	-0.183	-0.188
-427.603	472.034	-0.088	-0.198
-426.588	596.886	0.084	0.207
-425.573	-162.491	-0.100	0.005
-424.559	122.792	-0.127	0.158
-423.544	325.293	-0.063	-0.121
-422.530	-200.000	-0.001	0.063
-421.515	-127.304	-0.215	-0.031
-420.500	-200.000	0.065	-0.309
-419.486	-164.084	-0.429	-0.020
-418.471	-200.000	0.012	0.105
-417.457	-108.554	0.129	0.028
-416.442	-1.810	-0.103	0.072
-415.428	800.000	0.102	0.287
-414.413	18.098	0.048	0.038
-413.398	-49.058	-0.354	0.169
-412.384	-200.000	-0.014	-0.102
-411.369	-101.387	-0.240	0.058
-410.355	-25.792	-0.254	0.149
-409.340	15.264	-0.119	0.093
-408.325	4.463	0.196	-0.143
-407.311	-26.132	0.108	0.064
-406.296	-200.000	0.018	0.308
-405.282	-101.953	-0.428	0.103
-404.267	296.890	0.133	-0.243
-403.252	-75.377	-0.254	0.090
-402.238	-200.000	-0.035	-0.170
-401.223	-160.350	-0.364	-0.020
-400.209	-55.235	0.281	-0.126
-399.194	-200.000	0.025	0.127
-398.179	-59.708	0.183	-0.078
-397.165	327.052	-0.226	0.431
-396.150	78.821	0.008	0.008
-395.136	185.807	0.126	0.186
-394.121	-200.000	-0.013	-0.128
-393.106	-200.000	0.016	0.101
-392.092	-200.000	0.082	0.000
-391.077	-76.983	0.204	-0.071
-390.063	486.035	-0.141	0.321
-389.048	800.000	0.076	-0.209
-388.033	-55.267	-0.301	0.135
-387.019	-67.146	-0.066	-0.026
-386.004	-43.092	0.330	-0.167
-384.990	-150.937	0.177	-0.013
-383.975	102.805	-0.239	-0.279
-382.960	-43.850	0.203	0.102
-381.946	800.000	0.090	0.264
-380.931	-39.973	0.289	0.150
-379.917	25.419	0.078	0.065
-378.902	-15.910	-0.149	0.095
-377.888	-84.281	0.042	0.013
-376.873	117.872	0.038	0.047
-375.858	-200.000	-0.030	-0.265
-374.844	716.324	0.060	-0.159
-373.829	-200.000	0.012	-0.281
-372.815	2.113	0.152	0.110
-371.800	800.000	0.028	-0.089
-370.785	154.042	-0.204	0.279
-369.771	48.944	0.233	0.218
-368.756	-48.757	0.156	-0.074
-367.742	-174.927	-0.072	0.002
-366.727	272.911	0.114	0.200
-365.712	-45.205	-0.234	0.116
-364.698	800.000	-0.067	0.267
-363.683	-161.343	0.278	0.014
-362.669	-200.000	0.006	0.071
-361.654	23.326	-0.226	-0.185
-360.639	-40.851	-0.113	0.058
-359.625	684.154	0.047	0.122
-358.610	-119.872	-0.200	0.034
-357.596	-20.583	-0.086	-0.052
-356.581	-43.343	0.174	-0.088
-355.566	-22.526	-0.111	-0.067
-354.552	-106.400	0.413	-0.092
-353.537	-34.364	-0.115	0.063
-352.523	-32.862	-0.118	-0.065
-351.508	-142.290	-0.158	0.016
-350.493	-200.000	-0.022	0.267
-349.479	-200.000	-0.012	-0.105
-348.464	549.379	-0.174	0.416
-347.450	220.995	-0.098	-0.157
-346.435	-68.771	0.217	0.084
-345.420	15.032	0.203	-0.158
-344.406	-150.869	-0.167	-0.013
-343.391	-86.530	0.260	-0.079
-342.377	-200.000	0.014	-0.223
-341.362	73.939	0.132	0.137
-340.348	-200.000	0.050	0.250
-339.333	53.244	-0.171	0.163
-338.318	-82.002	0.222	-0.072
-337.304	-35.850	0.309	0.166
-336.289	228.118	-0.103	0.166
-335.275	233.426	0.064	0.105
-334.260	-128.064	-0.216	0.031
-333.245	125.714	0.052	-0.065
-332.231	69.588	-0.323	0.330
-331.216	-200.000	-0.009	0.235
-330.202	-138.623	-0.251	-0.027
-329.187	-92.650	0.257	-0.072
-328.172	-50.229	0.165	0.078
-327.158	111.240	-0.083	0.099
-326.143	-200.000	-0.023	-0.293
-325.129	-133.776	0.112	-0.014
-324.114	6.458	-0.130	-0.096
-323.099	-112.731	-0.483	-0.095
-322.085	800.000	0.102	-0.280
-321.070	-155.595	0.192	0.012
-320.056	-125.910	0.515	-0.077
-319.041	-108.446	-0.053	0.011
-318.026	109.581	-0.177	0.211
-317.012	-64.101	0.148	-0.060
-315.997	-144.689	-0.505	-0.046
-314.983	164.339	0.114	-0.159
-313.968	176.659	0.046	0.066
-312.953	800.000	0.109	0.334
-311.939	115.678	-0.091	-0.110
-310.924	-71.120	-0.179	-0.067
-309.910	-200.000	0.007	0.434
-308.895	-68.227	0.172	0.066
-307.880	661.721	-0.085	-0.219
-306.866	-200.000	-0.000	0.017
-305.851	-200.000	0.037	0.188
-304.837	-39.908	-0.193	0.100
-303.822	209.791	-0.212	0.331
-302.807	-200.000	0.008	-0.045
-301.793	469.165	0.151	0.338
-300.778	24.548	0.210	-0.173
-299.764	-13.272	-0.286	-0.184
-298.749	-200.000	-0.471	-0.001
-297.735	159.623	0.162	-0.224
-296.720	65.588	0.115	-0.116
-295.705	-153.429	-0.326	-0.023
-294.691	130.035	0.275	0.350
-293.676	800.000	-0.032	0.127
-292.662	-98.797	0.048	-0.012
-291.647	0.689	0.105	-0.075
-290.632	60.646	-0.114	-0.112
-289.618	-97.614	-0.052	-0.013
-288.603	800.000	-0.105	0.351
-287.589	800.000	0.098	0.316
-286.574	108.663	0.099	-0.118
-285.559	-31.082	0.340	0.190
-284.545	-40.395	0.247	-0.127
-283.530	205.763	-0.130	0.200
-282.516	-23.793	0.167	0.099
-281.501	-162.336	-0.250	0.012
-280.486	-121.846	0.131	-0.021
-279.472	-124.155	0.196	0.030
-278.457	-200.000	0.032	-0.204
-277.443	33.973	0.113	-0.098
-276.428	-77.147	-0.144	-0.050
-275.413	-115.864	0.089	-0.017
-274.399	67.110	-0.059	-0.059
-273.384	-193.645	-0.258	-0.002
-272.370	19.133	0.045	0.036
-271.355	85.521	0.140	0.153
-270.340	-200.000	0.002	-0.126
-269.326	-52.296	-0.233	-0.107
-268.311	365.022	-0.172	0.344
-267.297	-83.040	-0.181	0.058
-266.282	800.000	0.072	0.272
-265.267	171.387	0.183	-0.260
-264.253	-60.338	-0.383	0.162
-263.238	147.512	-0.207	0.277
-262.224	-200.000	0.002	0.111
-261.209	-25.168	0.034	0.020
-260.195	8.430	0.113	0.085
-259.180	-200.000	-0.021	0.098
-258.165	116.792	-0.121	0.148
-257.151	-139.701	0.518	0.055
-256.136	265.364	-0.127	-0.220
-255.122	69.017	0.183	-0.186
-254.107	620.318	-0.075	0.187
-253.092	22.736	0.251	-0.204
-252.078	608.685	-0.106	-0.263
-251.063	162.656	0.138	0.191
-250.049	42.563	0.237	-0.214
-249.034	65.516	-0.127	0.127
-248.019	-5.317	-0.076	0.052
-247.005	-186.947	0.187	0.003
-245.990	782.837	0.082	-0.224
-244.976	378.155	0.045	0.090
-243.961	-200.000	-0.051	0.374
-242.946	-155.138	0.407	-0.026
-241.932	10.969	-0.103	-0.078
-240.917	-200.000	-0.034	0.165
-239.903	-40.273	0.180	-0.093
-238.888	187.302	-0.085	0.126
-237.873	16.978	-0.151	-0.118
-236.859	-27.512	0.286	-0.164
-235.844	-155.139	0.329	0.021
-234.830	6.877	-0.037	0.027
-233.815	241.775	-0.226	-0.374
-232.800	-200.000	0.030	0.154
-231.786	-99.969	0.249	0.062
-230.771	25.033	0.097	0.080
-229.757	-37.230	0.378	0.200
-228.742	-118.443	0.249	-0.044
-227.727	-200.000	-0.012	0.139
-226.713	633.028	0.050	-0.126
-225.698	800.000	-0.087	0.275
-224.684	-200.000	-0.062	0.270
-223.669	-125.330	0.197	0.030
-222.655	28.214	0.102	-0.085
-221.640	3.383	0.084	-0.061
-220.625	800.000	-0.095	0.269
-219.611	-171.277	-0.150	0.005
-218.596	-12.926	-0.102	0.066
-217.582	52.091	0.062	-0.058
-216.567	-66.045	0.130	-0.051
-215.552	-97.292	0.227	-0.058
-214.538	-130.968	0.268	-0.035
-213.523	156.160	0.089	0.122
-212.509	-173.448	0.167	-0.005
-211.494	0.331	-0.071	-0.050
-210.479	53.888	0.071	0.067
-209.465	120.493	-0.075	-0.093
-208.450	-147.700	0.254	0.021
-207.436	139.716	0.123	0.161
-206.421	800.000	0.022	-0.070
-205.406	800.000	-0.022	-0.096
-204.392	-78.829	0.343	-0.116
-203.377	-94.610	-0.263	0.071
-202.363	800.000	0.123	-0.476
-201.348	-74.129	-0.360	-0.129
-200.333	-51.223	0.093	-0.043
-199.319	-91.295	-0.277	0.079
-198.304	67.877	-0.101	0.102
-197.290	47.011	-0.101	0.093
-196.275	-98.310	0.183	-0.047
-195.260	294.011	-0.126	0.228
-194.246	800.000	0.029	0.121
-193.231	-200.000	0.006	0.160
-192.217	-32.623	-0.273	-0.150
-191.202	-103.089	0.182	-0.043
-190.187	-109.274	0.206	0.043
-189.173	-12.181	0.233	-0.151
-188.158	673.941	-0.154	-0.395
-187.144	121.019	-0.205	0.253
-186.129	-200.000	-0.003	-0.431
-185.114	-37.251	0.498	0.263
-184.100	265.044	0.174	0.300
-183.085	25.210	-0.082	0.068
-182.071	-12.018	-0.023	-0.015
-181.056	-1.760	-0.224	-0.156
-180.042	-69.782	0.036	-0.014
-179.027	-92.615	-0.202	0.056
-178.012	44.887	0.214	0.195
-176.998	213.623	0.188	0.294
-175.983	205.080	0.175	0.268
-174.969	166.602	0.121	0.169
-173.954	-85.928	-0.078	0.024
-172.939	-111.610	0.175	-0.035
-171.925	-45.976	0.258	0.126
-170.910	41.968	-0.061	0.054
-169.896	83.185	-0.101	-0.108
-168.881	78.694	-0.316	0.334
-167.866	19.630	-0.148	0.118
-166.852	-4.764	-0.218	0.148
-165.837	800.000	0.118	-0.414
-164.823	19.175	-0.110	-0.087
-163.808	467.777	0.013	0.029
-162.793	231.055	-0.153	0.248
-161.779	800.000	-0.030	-0.099
-160.764	-9.358	0.227	-0.150
-159.750	12.045	-0.071	-0.054
-158.735	800.000	-0.036	0.121
-157.720	-7.829	-0.121	-0.081
-156.706	237.097	0.193	0.316
-155.691	337.657	-0.054	-0.104
-154.677	-81.895	-0.304	-0.098
-153.662	-56.668	-0.292	-0.128
-152.647	-100.906	-0.194	0.047
-151.633	800.000	0.127	-0.432
-150.618	394.407	0.081	-0.166
-149.604	128.585	-0.089	0.112
-148.589	-98.105	0.214	-0.054
-147.574	29.130	0.071	0.059
-146.560	-200.000	-0.020	0.282
-145.545	55.165	0.071	-0.068
-144.531	-102.128	0.269	-0.064
-143.516	138.104	-0.137	-0.177
-142.502	-200.000	-0.055	0.320
-141.487	158.116	0.061	0.084
-140.472	-112.753	0.473	0.093
-139.458	-65.972	0.095	-0.038
-138.443	800.000	0.054	0.175
-137.429	-34.027	0.187	0.101
-136.414	-34.689	-0.330	-0.178
-135.399	201.919	-0.063	-0.096
-134.385	-200.000	-0.010	-0.184
-133.370	-200.000	-0.055	-0.460
-132.356	-200.000	-0.048	-0.216
-131.341	46.352	-0.069	-0.063
-130.326	-200.000	-0.062	-0.333
-129.312	109.814	0.181	0.214
-128.297	157.681	-0.299	0.409
-127.283	-200.000	-0.013	0.179
-126.268	-200.000	-0.035	0.204
-125.253	-182.459	0.071	-0.001
-124.239	800.000	-0.016	-0.048
-123.224	-200.000	0.010	-0.171
-122.210	34.895	-0.144	-0.124
-121.195	-48.383	-0.101	-0.048
-120.180	-65.357	0.346	-0.137
