DTS Sentinel unit serial number:	SN413079Multiplexer serial number:	ORYXHardware model number:	OX4-SRSoftware version number:	ORYX F/W v4.00 Oryx Data Collector v3.7.2.0data status	okinstallation	princeton_trtdifferential loss correction	single-endedforward channel	channel 3reverse channel	N/Adate	2019/09/12time	02:02:10forward acquisition time	60.00reverse acquisition time	0.00gamma	496.2192k internal	0.2320k external	0.2320temperature offset calibration	1.0065default loss term (dB/km)	0.3790temperature slope calibration	1.0000multiplexer offset coefficient	1.0000multiplexer slope coefficient	1.0000fibre end	0.00T internal ref (°C)	32.75T ext. ref 1 (°C)	2.08T ext. ref 2 (°C)	27.09length (m)	temperature (°C)	Stokes	anti-Stokes-747.200	96.774	0.230	-0.267
-746.185	76.840	-0.094	-0.101
-745.171	8.300	0.126	-0.096
-744.156	557.545	-0.012	-0.030
-743.142	-62.607	0.263	-0.110
-742.127	139.105	-0.145	-0.192
-741.112	-2.205	0.163	0.115
-740.098	-200.000	-0.029	0.219
-739.083	57.083	-0.089	0.087
-738.069	-65.841	-0.310	-0.125
-737.054	-56.769	0.088	-0.040
-736.039	15.040	-0.078	0.062
-735.025	-200.000	0.029	0.140
-734.010	-200.000	0.007	0.107
-732.996	-97.781	-0.239	-0.063
-731.981	-95.071	-0.216	-0.059
-730.966	738.014	0.097	0.264
-729.952	-32.921	-0.215	-0.121
-728.937	-19.562	0.167	-0.105
-727.923	-131.133	-0.387	-0.052
-726.908	-185.900	-0.094	0.001
-725.894	-62.468	0.220	-0.092
-724.879	-55.707	0.194	-0.088
-723.864	-44.455	0.306	-0.155
-722.850	-148.742	-0.288	0.024
-721.835	-14.620	-0.346	-0.225
-720.821	-0.325	-0.198	-0.142
-719.806	397.815	-0.080	0.168
-718.791	-60.257	0.043	0.018
-717.777	-200.000	0.067	0.357
-716.762	-79.430	-0.051	0.017
-715.748	-31.704	0.311	0.176
-714.733	-200.000	0.006	0.178
-713.718	-38.601	0.078	0.042
-712.704	-200.000	0.007	-0.074
-711.689	-87.487	-0.152	0.046
-710.675	-184.468	-0.239	0.004
-709.660	-90.857	-0.177	-0.052
-708.645	-5.791	-0.311	-0.215
-707.631	-32.394	-0.166	0.094
-706.616	800.000	-0.107	0.416
-705.602	116.241	-0.076	-0.093
-704.587	94.275	-0.160	-0.183
-703.572	-200.000	0.026	-0.302
-702.558	16.968	-0.176	-0.141
-701.543	-45.649	-0.022	0.011
-700.529	-131.379	0.347	0.046
-699.514	-200.000	-0.014	-0.159
-698.499	-119.717	0.052	0.009
-697.485	550.598	0.020	0.047
-696.470	800.000	-0.050	-0.188
-695.456	-185.455	-0.193	0.003
-694.441	-14.896	0.427	0.276
-693.426	800.000	0.035	-0.138
-692.412	-132.144	0.299	-0.039
-691.397	-49.313	-0.444	-0.214
-690.383	152.827	0.041	-0.057
-689.368	38.286	0.121	-0.109
-688.354	-146.569	0.351	0.031
-687.339	-170.654	0.149	0.005
-686.324	-161.605	0.191	-0.010
-685.310	-116.780	0.208	-0.039
-684.295	-200.000	0.013	0.157
-683.281	800.000	-0.045	0.130
-682.266	-200.000	-0.030	-0.326
-681.251	-200.000	0.044	-0.252
-680.237	-64.671	-0.316	0.129
-679.222	495.542	-0.058	0.135
-678.208	-85.837	0.179	0.056
-677.193	-151.641	-0.265	-0.020
-676.178	104.053	0.058	-0.069
-675.164	-62.856	-0.178	-0.074
-674.149	196.534	0.108	0.166
-673.135	84.349	-0.228	0.251
-672.120	253.689	-0.153	-0.264
-671.105	359.113	0.071	-0.143
-670.091	-200.000	0.008	0.063
-669.076	-23.179	-0.191	-0.116
-668.062	12.607	-0.082	-0.064
-667.047	800.000	0.111	0.361
-666.032	69.590	0.206	0.214
-665.018	-103.437	0.206	0.049
-664.003	-25.922	-0.098	-0.058
-662.989	-101.661	0.157	-0.038
-661.974	240.672	0.125	0.211
-660.959	-200.000	0.007	-0.169
-659.945	-67.906	0.137	-0.054
-658.930	-200.000	-0.060	-0.321
-657.916	187.645	0.187	-0.282
-656.901	-111.164	-0.259	-0.054
-655.886	126.125	0.174	0.222
-654.872	-29.814	-0.181	-0.104
-653.857	800.000	0.041	-0.143
-652.843	57.862	0.327	-0.322
-651.828	87.417	0.189	0.211
-650.814	-72.735	-0.322	-0.120
-649.799	-54.618	-0.240	-0.109
-648.784	-90.711	-0.165	0.048
-647.770	800.000	0.072	0.254
-646.755	-28.298	-0.256	-0.149
-645.741	-122.211	0.096	-0.016
-644.726	-114.850	-0.138	0.027
-643.711	-200.000	0.014	0.123
-642.697	795.977	0.098	-0.271
-641.682	218.958	-0.177	-0.286
-640.668	-200.000	-0.032	0.289
-639.653	-200.000	0.015	-0.236
-638.638	800.000	0.040	0.115
-637.624	76.250	0.202	-0.216
-636.609	-148.620	-0.307	-0.025
-635.595	86.976	-0.286	-0.318
-634.580	16.575	-0.191	-0.152
-633.565	-200.000	-0.016	0.143
-632.551	138.420	-0.138	0.182
-631.536	-70.822	-0.150	-0.057
-630.522	73.090	0.145	0.153
-629.507	-176.080	-0.053	0.001
-628.492	800.000	0.079	-0.312
-627.478	227.953	-0.078	0.127
-626.463	800.000	0.057	0.218
-625.449	137.138	0.155	-0.204
-624.434	193.046	0.066	0.100
-623.419	-13.332	-0.326	0.213
-622.405	205.046	-0.130	0.203
-621.390	-94.619	0.141	-0.038
-620.376	367.167	-0.148	0.302
-619.361	-26.167	0.159	-0.094
-618.346	97.963	0.178	-0.206
-617.332	-22.845	0.178	-0.108
-616.317	15.000	-0.410	0.323
-615.303	279.158	-0.026	-0.047
-614.288	-100.832	0.436	-0.108
-613.273	-76.355	0.156	0.055
-612.259	-15.639	-0.275	-0.176
-611.244	267.280	-0.042	-0.074
-610.230	-200.000	0.037	-0.334
-609.215	-49.949	0.224	-0.107
-608.201	-179.439	-0.255	-0.006
-607.186	131.680	0.113	0.146
-606.171	-35.774	0.243	-0.133
-605.157	356.459	-0.101	-0.203
-604.142	88.870	0.151	-0.169
-603.128	-200.000	-0.066	0.374
-602.113	800.000	0.037	0.108
-601.098	29.050	0.151	-0.129
-600.084	-53.753	-0.300	-0.138
-599.069	-150.868	0.079	0.006
-598.055	-15.583	-0.379	-0.243
-597.040	-63.895	0.112	0.046
-596.025	34.568	0.181	0.159
-595.011	73.079	-0.136	-0.143
-593.996	-174.772	0.282	0.008
-592.982	218.880	-0.163	-0.263
-591.967	800.000	0.050	0.162
-590.952	690.023	-0.084	-0.220
-589.938	-84.195	0.144	0.046
-588.923	-200.000	0.026	-0.180
-587.909	-53.535	0.213	0.098
-586.894	236.695	-0.114	-0.189
-585.879	107.052	-0.086	-0.103
-584.865	433.122	-0.186	-0.405
-583.850	-72.802	-0.164	-0.061
-582.836	-98.239	-0.097	0.025
-581.821	-172.709	0.109	0.003
-580.806	-136.128	0.153	0.018
-579.792	142.414	-0.184	-0.245
-578.777	767.588	0.156	-0.426
-577.763	-200.000	0.000	-0.354
-576.748	-17.861	-0.158	0.099
-575.733	350.457	0.093	-0.184
-574.719	24.684	0.278	0.231
-573.704	-200.000	-0.039	0.263
-572.690	173.068	-0.076	0.110
-571.675	-200.000	0.016	0.136
-570.661	-137.181	0.270	0.031
-569.646	-93.852	-0.389	-0.108
-568.631	-85.965	-0.262	0.081
-567.617	-30.213	-0.221	0.126
-566.602	-200.000	0.015	-0.196
-565.588	-200.000	-0.040	-0.380
-564.573	-104.328	-0.159	0.037
-563.558	-200.000	0.043	-0.218
-562.544	-200.000	-0.030	-0.142
-561.529	800.000	-0.070	-0.197
-560.515	59.232	-0.213	-0.211
-559.500	-21.032	-0.172	0.106
-558.485	-31.594	-0.118	0.067
-557.471	-121.312	0.344	0.058
-556.456	-200.000	0.042	-0.258
-555.442	-149.731	-0.265	-0.021
-554.427	175.787	-0.057	0.084
-553.412	567.317	-0.085	0.206
-552.398	49.692	0.121	0.115
-551.383	-200.000	0.009	0.121
-550.369	531.695	-0.063	0.150
-549.354	164.423	-0.061	0.087
-548.339	800.000	0.026	0.086
-547.325	-117.145	-0.091	0.017
-546.310	322.219	-0.059	0.112
-545.296	800.000	0.074	0.278
-544.281	-29.327	-0.252	-0.145
-543.266	224.214	-0.062	-0.101
-542.252	-200.000	0.010	-0.064
-541.237	800.000	-0.055	-0.161
-540.223	75.253	-0.157	0.167
-539.208	484.388	-0.074	-0.168
-538.193	800.000	0.052	-0.163
-537.179	80.656	0.227	-0.246
-536.164	282.399	-0.156	0.281
-535.150	-105.790	0.377	-0.085
-534.135	-200.000	0.013	0.289
-533.121	-200.000	-0.013	0.512
-532.106	-133.485	0.154	0.019
-531.091	117.228	0.121	-0.149
-530.077	715.477	0.078	-0.208
-529.062	-57.895	0.375	-0.164
-528.048	-60.140	0.360	0.154
-527.033	305.791	-0.122	0.227
-526.018	-2.694	0.072	-0.050
-525.004	-131.426	-0.117	-0.016
-523.989	-33.097	0.154	-0.085
-522.975	68.345	-0.113	-0.116
-521.960	800.000	-0.016	0.053
-520.945	-86.486	0.125	0.038
-519.931	-71.773	-0.111	0.041
-518.916	374.175	0.144	-0.295
-517.902	-115.721	-0.038	0.007
-516.887	308.310	-0.187	-0.351
-515.872	-200.000	-0.017	0.204
-514.858	-200.000	-0.013	0.097
-513.843	-125.659	-0.135	-0.021
-512.829	800.000	-0.069	-0.198
-511.814	-53.106	0.292	0.135
-510.799	70.849	0.080	-0.083
-509.785	-172.441	0.077	0.002
-508.770	800.000	0.066	0.214
-507.756	223.541	0.090	0.146
-506.741	158.149	-0.251	-0.349
-505.726	252.619	0.084	-0.143
-504.712	-39.283	0.198	0.104
-503.697	163.732	-0.119	0.168
-502.683	-86.005	-0.145	-0.045
-501.668	157.935	-0.119	0.165
-500.653	85.131	0.224	0.247
-499.639	378.712	0.236	0.484
-498.624	412.930	-0.181	0.385
-497.610	-117.755	-0.243	0.044
-496.595	-120.879	-0.243	-0.041
-495.581	-35.410	0.273	-0.149
-494.566	63.120	0.154	0.155
-493.551	-127.209	-0.451	0.066
-492.537	37.324	0.039	0.035
-491.522	-23.465	0.100	-0.060
-490.508	-110.091	-0.418	-0.087
-489.493	36.112	-0.117	0.103
-488.478	-200.000	0.006	0.054
-487.464	800.000	-0.067	0.235
-486.449	-63.210	0.078	-0.032
-485.435	337.042	0.158	-0.307
-484.420	-42.736	0.183	0.093
-483.405	-200.000	-0.001	0.258
-482.391	510.513	-0.074	0.173
-481.376	-93.811	-0.085	-0.024
-480.362	319.116	-0.012	0.023
-479.347	-154.878	0.246	0.016
-478.332	-45.315	-0.097	-0.048
-477.318	161.396	-0.194	-0.271
-476.303	486.916	0.125	-0.285
-475.289	-1.414	-0.191	0.135
-474.274	31.906	-0.084	0.072
-473.259	-63.005	-0.128	0.053
-472.245	239.809	0.197	0.328
-471.230	39.089	-0.194	-0.173
-470.216	400.876	0.135	-0.283
-469.201	-200.000	0.062	-0.405
-468.186	-200.000	0.031	-0.183
-467.172	-200.000	0.024	0.252
-466.157	169.917	0.289	0.413
-465.143	-200.000	-0.010	0.162
-464.128	800.000	0.027	0.117
-463.113	-157.388	-0.186	0.011
-462.099	-152.468	0.359	-0.026
-461.084	-200.000	0.026	-0.240
-460.070	-76.997	-0.262	-0.091
-459.055	136.293	-0.169	0.221
-458.040	139.170	-0.065	-0.086
-457.026	26.937	-0.117	-0.098
-456.011	-74.916	-0.145	-0.052
-454.997	605.657	0.058	0.143
-453.982	-95.223	-0.254	-0.068
-452.968	315.535	-0.097	-0.182
-451.953	-200.000	0.001	-0.028
-450.938	3.793	-0.130	-0.095
-449.924	800.000	0.137	-0.393
-448.909	-200.000	0.017	-0.191
-447.895	-41.230	-0.081	0.042
-446.880	208.878	-0.022	-0.034
-445.865	194.759	-0.068	-0.104
-444.851	147.458	-0.038	-0.050
-443.836	248.779	0.163	0.275
-442.822	-37.112	-0.176	-0.094
-441.807	-23.175	0.295	0.178
-440.792	798.003	-0.046	0.127
-439.778	9.255	-0.044	0.033
-438.763	-51.227	-0.218	-0.102
-437.749	676.447	0.020	0.053
-436.734	-113.109	-0.086	0.017
-435.719	-22.583	-0.142	-0.086
-434.705	800.000	0.045	0.166
-433.690	-0.202	0.248	0.176
-432.676	659.729	-0.095	0.243
-431.661	29.154	-0.206	-0.175
-430.646	-200.000	0.152	0.000
-429.632	-90.644	0.228	-0.066
-428.617	-28.566	-0.124	-0.071
-427.603	-17.916	-0.235	0.147
-426.588	800.000	0.050	-0.186
-425.573	-200.000	0.015	-0.223
-424.559	-182.047	-0.271	0.005
-423.544	-80.109	-0.212	0.071
-422.530	259.746	0.235	0.406
-421.515	45.798	-0.159	-0.147
-420.500	-17.749	0.117	0.074
-419.486	153.943	-0.217	-0.296
-418.471	232.968	0.166	-0.272
-417.457	-200.000	0.081	-0.390
-416.442	-68.467	0.258	0.100
-415.428	-191.909	-0.335	-0.003
-414.413	-18.292	-0.326	-0.204
-413.398	-46.010	-0.322	0.159
-412.384	-200.000	-0.025	-0.125
-411.369	-91.029	-0.421	0.121
-410.355	-200.000	0.023	-0.214
-409.340	68.181	0.245	0.251
-408.325	17.652	-0.207	0.164
-407.311	21.136	0.066	0.054
-406.296	-167.433	-0.087	-0.003
-405.282	469.965	-0.168	-0.378
-404.267	17.325	0.089	0.070
-403.252	13.396	0.105	-0.082
-402.238	-67.879	-0.167	-0.065
-401.223	170.817	-0.155	-0.221
-400.209	-200.000	-0.020	-0.187
-399.194	-54.860	0.149	-0.067
-398.179	313.000	-0.188	-0.352
-397.165	-137.100	0.176	-0.020
-396.150	1.116	-0.201	0.144
-395.136	-200.000	-0.062	-0.436
-394.121	-200.000	0.020	-0.118
-393.106	-200.000	0.011	-0.105
-392.092	673.332	0.030	-0.077
-391.077	22.252	0.096	0.078
-390.063	-132.676	-0.434	0.055
-389.048	52.515	-0.243	-0.231
-388.033	-120.357	0.164	-0.028
-387.019	319.765	-0.175	0.331
-386.004	184.889	-0.073	0.108
-384.990	-125.938	0.052	-0.008
-383.975	-66.413	0.170	-0.067
-382.960	-200.000	0.018	-0.091
-381.946	101.079	0.231	-0.268
-380.931	91.496	-0.201	-0.225
-379.917	-43.855	-0.044	-0.022
-378.902	800.000	0.032	0.088
-377.888	-29.905	-0.312	-0.177
-376.873	388.625	0.043	-0.089
-375.858	800.000	-0.053	-0.182
-374.844	90.380	0.133	0.148
-373.829	-200.000	0.026	-0.201
-372.815	112.121	0.129	0.156
-371.800	-200.000	0.047	0.209
-370.785	-83.533	-0.120	0.038
-369.771	-13.984	-0.067	0.043
-368.756	120.825	-0.139	0.173
-367.742	-79.260	0.140	0.047
-366.727	-200.000	-0.017	-0.128
-365.712	576.488	-0.122	0.297
-364.698	-200.000	0.002	-0.183
-363.683	-127.551	0.198	-0.029
-362.669	259.767	-0.154	-0.264
-361.654	141.091	0.242	0.318
-360.639	42.737	-0.194	0.176
-359.625	135.220	-0.150	-0.194
-358.610	64.858	-0.158	0.159
-357.596	8.312	-0.158	-0.118
-356.581	14.146	0.162	0.126
-355.566	-200.000	-0.069	-0.337
-354.552	-40.726	-0.276	-0.143
-353.537	-69.663	0.274	-0.104
-352.523	-200.000	0.024	0.170
-351.508	-120.801	-0.150	-0.025
-350.493	-106.245	-0.192	0.043
-349.479	109.049	-0.123	0.147
-348.464	137.111	0.081	0.105
-347.450	800.000	-0.049	-0.187
-346.435	42.297	-0.050	0.045
-345.420	171.542	-0.237	0.338
-344.406	507.278	0.045	-0.103
-343.391	118.742	-0.138	-0.170
-342.377	-60.831	0.187	-0.079
-341.362	332.540	0.070	-0.134
-340.348	-57.671	0.218	-0.095
-339.333	-151.165	-0.188	-0.014
-338.318	-118.620	0.072	0.013
-337.304	4.891	-0.086	0.063
-336.289	222.964	-0.076	-0.122
-335.275	-23.173	0.106	0.063
-334.260	-4.397	0.225	0.155
-333.245	-54.438	0.132	-0.059
-332.231	-112.085	-0.221	-0.044
-331.216	116.249	-0.090	0.109
-330.202	138.072	-0.117	0.153
-329.187	679.962	-0.114	0.297
-328.172	-18.765	-0.244	-0.151
-327.158	-52.892	0.159	-0.073
-326.143	274.064	0.162	-0.286
-325.129	-200.000	-0.003	0.064
-324.114	800.000	0.093	-0.282
-323.099	-77.808	0.295	0.101
-322.085	38.043	0.046	0.041
-321.070	-82.793	0.182	-0.059
-320.056	31.088	-0.269	0.230
-319.041	-104.437	-0.332	-0.076
-318.026	-4.402	-0.141	0.097
-317.012	204.743	-0.174	0.268
-315.997	-123.822	-0.157	0.025
-314.983	-200.000	-0.004	-0.049
-313.968	146.939	0.093	0.124
-312.953	-110.121	0.247	-0.051
-311.939	-200.000	0.069	0.321
-310.924	103.805	0.095	0.111
-309.910	221.890	0.076	-0.121
-308.895	-138.531	0.428	-0.047
-307.880	291.975	0.192	-0.347
-306.866	-39.338	0.158	-0.082
-305.851	21.995	0.167	0.135
-304.837	-106.907	0.313	-0.069
-303.822	205.002	-0.028	0.044
-302.807	-137.780	0.275	-0.031
-301.793	-27.743	-0.024	-0.014
-300.778	68.803	0.150	0.153
-299.764	33.146	-0.116	0.100
-298.749	800.000	0.066	0.207
-297.735	-92.137	0.378	0.106
-296.720	615.540	0.125	-0.313
-295.705	-54.023	-0.010	-0.004
-294.691	-200.000	0.016	0.124
-293.676	-66.820	0.136	0.054
-292.662	-3.058	0.175	-0.122
-291.647	-200.000	-0.101	0.000
-290.632	281.002	0.131	0.232
-289.618	-62.273	0.331	-0.137
-288.603	800.000	-0.099	-0.284
-287.589	-195.315	0.341	0.003
-286.574	-200.000	0.023	0.155
-285.559	470.731	0.049	0.109
-284.545	164.773	-0.185	0.259
-283.530	-149.075	-0.279	0.022
-282.516	-124.934	-0.254	0.039
-281.501	800.000	0.005	-0.017
-280.486	250.934	0.084	0.142
-279.472	159.466	-0.137	-0.189
-278.457	-71.034	-0.073	0.027
-277.443	800.000	0.078	0.247
-276.428	800.000	-0.053	0.189
-275.413	-200.000	-0.059	-0.387
-274.399	-139.295	-0.181	-0.019
-273.384	31.289	0.159	0.136
-272.370	-99.756	0.137	0.034
-271.355	800.000	0.024	0.078
-270.340	-20.070	-0.181	-0.111
-269.326	76.269	-0.115	0.121
-268.311	-80.066	0.167	-0.056
-267.297	-200.000	-0.016	0.176
-266.282	-43.469	0.229	-0.115
-265.267	-200.000	-0.032	-0.157
-264.253	21.686	0.139	0.113
-263.238	-90.010	-0.058	-0.017
-262.224	-99.227	0.459	0.115
-261.209	-127.654	-0.293	0.042
-260.195	-114.527	-0.236	-0.045
-259.180	-72.293	0.433	0.159
-258.165	457.021	-0.043	0.096
-257.151	-200.000	-0.022	-0.152
-256.136	160.184	0.209	0.289
-255.122	-172.174	0.172	0.005
-254.107	19.638	-0.237	-0.189
-253.092	73.858	-0.376	0.391
-252.078	139.197	-0.197	0.257
-251.063	540.356	0.072	0.169
-250.049	-37.560	0.203	-0.107
-249.034	-136.699	-0.036	-0.004
-248.019	-200.000	-0.004	0.078
-247.005	46.351	-0.093	-0.085
-245.990	-107.555	-0.187	0.041
-244.976	33.541	-0.280	-0.241
-243.961	374.093	0.196	0.396
-242.946	-67.836	-0.067	0.026
-241.932	247.756	-0.138	-0.231
-240.917	17.247	-0.292	0.230
-239.903	90.390	0.079	-0.088
-238.888	-113.278	0.232	0.045
-237.873	-10.719	0.097	-0.064
-236.859	-136.072	0.261	-0.030
-235.844	-141.503	-0.144	-0.014
-234.830	800.000	0.097	-0.266
-233.815	-81.705	0.240	-0.078
-232.800	25.438	-0.251	-0.207
-231.786	-200.000	0.000	-0.279
-230.771	-200.000	-0.025	0.124
-229.757	800.000	-0.139	-0.578
-228.742	-200.000	0.005	-0.085
-227.727	-72.007	0.095	0.035
-226.713	343.922	-0.108	-0.210
-225.698	-44.057	0.195	0.097
-224.684	193.145	0.084	-0.125
-223.669	-200.000	0.017	0.126
-222.655	-76.650	-0.245	0.085
-221.640	800.000	0.069	-0.221
-220.625	363.134	0.022	0.044
-219.611	-132.634	0.255	-0.032
-218.596	-165.599	0.227	-0.010
-217.582	139.197	-0.168	0.219
-216.567	-152.341	0.417	-0.030
-215.552	800.000	-0.070	0.192
-214.538	-200.000	0.040	0.501
-213.523	-93.533	0.328	0.090
-212.509	424.083	0.183	0.390
-211.494	-200.000	-0.019	0.431
-210.479	-12.037	0.242	-0.157
-209.465	-22.493	0.146	0.087
-208.450	-186.435	0.250	-0.004
-207.436	-81.141	-0.119	0.039
-206.421	2.335	-0.270	0.193
-205.406	800.000	0.111	0.305
-204.392	575.810	0.258	0.625
-203.377	-200.000	0.061	0.351
-202.363	31.783	-0.258	0.220
-201.348	23.105	-0.336	-0.273
-200.333	-104.011	-0.409	-0.094
-199.319	800.000	0.083	-0.267
-198.304	83.060	0.160	-0.173
-197.290	31.706	-0.214	0.183
-196.275	-200.000	0.025	0.179
-195.260	21.739	-0.116	-0.093
-194.246	-200.000	0.014	-0.120
-193.231	-76.096	-0.301	-0.105
-192.217	-82.921	-0.192	-0.061
-191.202	271.128	-0.096	0.167
-190.187	800.000	-0.095	0.276
-189.173	800.000	-0.035	0.147
-188.158	-93.012	0.125	0.035
-187.144	800.000	-0.151	-0.442
-186.129	72.586	0.284	0.293
-185.114	-60.181	0.422	0.178
-184.100	-200.000	-0.070	-0.384
-183.085	-115.109	0.172	-0.032
-182.071	432.643	0.110	-0.237
-181.056	174.850	0.088	0.126
-180.042	-81.973	0.207	-0.067
-179.027	-200.000	-0.053	0.416
-178.012	6.492	0.515	0.378
-176.998	-200.000	0.035	-0.228
-175.983	800.000	0.045	0.180
-174.969	93.869	0.156	0.175
-173.954	-10.381	0.176	0.116
-172.939	-148.314	0.276	0.022
-171.925	-24.060	0.079	0.047
-170.910	202.037	0.116	0.177
-169.896	800.000	0.113	-0.325
-168.881	-200.000	-0.003	-0.186
-167.866	668.696	0.023	-0.059
-166.852	657.401	0.041	0.104
-165.837	3.179	0.162	0.116
-164.823	-103.504	-0.108	0.025
-163.808	-73.178	-0.192	0.069
-162.793	38.804	0.104	0.092
-161.779	-200.000	-0.049	0.217
-160.764	174.153	0.255	-0.364
-159.750	377.548	0.055	-0.111
-158.735	-57.582	0.091	0.040
-157.720	-200.000	0.005	0.202
-156.706	189.660	0.083	-0.123
-155.691	-118.448	0.861	-0.151
-154.677	208.704	-0.118	0.182
-153.662	-46.377	0.004	-0.002
-152.647	310.287	-0.086	0.159
-151.633	152.393	0.114	0.154
-150.618	428.116	-0.093	-0.198
-149.604	-134.424	-0.196	0.024
-148.589	-200.000	0.017	-0.324
-147.574	-76.133	0.142	-0.049
-146.560	-200.000	0.002	-0.083
-145.545	-25.848	-0.207	-0.120
-144.531	181.549	0.175	0.254
-143.516	-176.337	-0.104	-0.003
-142.502	-200.000	0.056	-0.280
-141.487	-78.148	0.267	0.091
-140.472	-67.519	-0.244	-0.095
-139.458	22.838	0.057	-0.046
-138.443	-200.000	-0.000	0.182
-137.429	14.076	0.352	-0.271
-136.414	-54.013	0.103	0.046
-135.399	800.000	0.055	-0.177
-134.385	-7.130	0.175	-0.117
-133.370	-53.911	-0.122	0.055
-132.356	-16.536	0.319	0.200
-131.341	16.429	-0.325	0.253
-130.326	-41.895	-0.124	-0.063
-129.312	94.230	-0.283	0.317
-128.297	200.401	0.194	0.294
-127.283	800.000	0.058	0.224
-126.268	-7.315	0.241	0.161
-125.253	563.248	0.031	0.073
-124.239	-158.732	0.382	0.022
-123.224	-200.000	-0.000	-0.005
-122.210	33.662	-0.178	-0.153
-121.195	-200.000	0.047	0.273
