DTS Sentinel unit serial number:	SN413079Multiplexer serial number:	ORYXHardware model number:	OX4-SRSoftware version number:	ORYX F/W v4.00 Oryx Data Collector v3.7.2.0data status	okinstallation	princeton_trtdifferential loss correction	single-endedforward channel	channel 3reverse channel	N/Adate	2019/09/11time	10:14:11forward acquisition time	60.00reverse acquisition time	0.00gamma	496.2192k internal	0.2299k external	0.2299temperature offset calibration	0.9938default loss term (dB/km)	0.3790temperature slope calibration	1.0000multiplexer offset coefficient	1.0000multiplexer slope coefficient	1.0000fibre end	0.00T internal ref (°C)	35.86T ext. ref 1 (°C)	0.14T ext. ref 2 (°C)	33.88length (m)	temperature (°C)	Stokes	anti-Stokes-747.200	439.912	-0.098	-0.220
-746.185	-134.154	0.057	-0.007
-745.171	-48.781	0.406	-0.199
-744.156	550.169	0.037	-0.091
-743.142	-112.502	-0.121	0.025
-742.127	305.229	0.109	0.207
-741.112	279.445	-0.165	0.300
-740.098	109.036	-0.409	0.499
-739.083	25.431	0.228	-0.194
-738.069	800.000	-0.105	0.336
-737.054	201.258	-0.150	-0.236
-736.039	753.710	-0.123	-0.339
-735.025	-136.090	0.430	-0.051
-734.010	-15.939	-0.274	0.178
-732.996	-70.940	0.066	-0.025
-731.981	13.327	0.162	-0.128
-730.966	114.626	0.082	0.102
-729.952	-106.830	-0.238	0.054
-728.937	146.249	-0.011	-0.016
-727.923	238.646	0.108	0.183
-726.908	634.048	-0.154	-0.399
-725.894	84.636	-0.060	-0.066
-724.879	-164.435	-0.319	-0.015
-723.864	253.239	0.089	0.155
-722.850	-200.000	-0.018	0.134
-721.835	-150.473	-0.188	0.015
-720.821	-41.431	-0.308	0.162
-719.806	282.798	-0.245	-0.449
-718.791	0.208	0.097	-0.070
-717.777	-21.862	0.232	0.144
-716.762	-200.000	-0.018	-0.146
-715.748	-200.000	0.000	0.055
-714.733	800.000	0.084	0.303
-713.718	-54.990	0.196	-0.090
-712.704	71.544	-0.284	0.301
-711.689	197.441	-0.268	-0.416
-710.675	800.000	-0.055	-0.242
-709.660	-89.509	0.074	-0.022
-708.645	-11.509	0.136	-0.091
-707.631	-41.413	0.342	-0.179
-706.616	-200.000	-0.034	-0.181
-705.602	0.165	0.052	0.038
-704.587	147.477	-0.093	-0.128
-703.572	53.260	0.098	0.095
-702.558	466.842	-0.052	-0.119
-701.543	177.775	-0.189	0.281
-700.529	-133.550	-0.098	0.012
-699.514	-11.294	-0.150	-0.101
-698.499	-142.257	-0.113	-0.011
-697.485	125.345	0.090	0.115
-696.470	12.977	0.200	-0.158
-695.456	-5.674	0.101	0.070
-694.441	-110.628	-0.221	-0.047
-693.426	-200.000	0.005	0.125
-692.412	-200.000	0.015	-0.073
-691.397	90.239	-0.051	-0.058
-690.383	40.276	0.215	0.197
-689.368	-29.601	0.110	-0.064
-688.354	800.000	0.090	-0.396
-687.339	-75.380	-0.133	0.048
-686.324	676.377	-0.052	0.136
-685.310	-98.419	0.074	0.019
-684.295	800.000	0.105	0.374
-683.281	141.615	-0.265	-0.358
-682.266	-200.000	0.009	-0.265
-681.251	-52.560	0.242	-0.114
-680.237	748.154	-0.042	-0.115
-679.222	-17.075	0.264	-0.170
-678.208	223.415	-0.030	0.049
-677.193	31.530	-0.065	0.057
-676.178	155.434	0.095	-0.133
-675.164	-44.948	0.060	0.031
-674.149	178.171	-0.236	0.350
-673.135	-41.680	0.100	-0.052
-672.120	-9.492	0.123	-0.084
-671.105	-79.189	-0.407	-0.141
-670.091	-29.620	-0.294	-0.171
-669.076	150.854	0.084	-0.116
-668.062	22.895	0.114	0.095
-667.047	-102.258	0.179	-0.044
-666.032	-57.791	-0.321	-0.143
-665.018	-85.743	-0.312	-0.099
-664.003	2.686	0.218	0.161
-662.989	113.765	0.144	0.178
-661.974	13.022	0.185	-0.145
-660.959	392.031	-0.003	-0.007
-659.945	-174.367	-0.410	-0.012
-658.930	250.580	0.126	-0.217
-657.916	800.000	0.065	0.195
-656.901	-200.000	-0.028	-0.221
-655.886	-79.173	-0.198	0.068
-654.872	80.056	-0.286	0.313
-653.857	67.585	-0.212	0.220
-652.843	-200.000	-0.006	-0.318
-651.828	800.000	-0.015	0.047
-650.814	295.688	-0.019	-0.035
-649.799	-18.891	0.179	-0.113
-648.784	-125.170	-0.161	-0.025
-647.770	-51.073	0.212	-0.101
-646.755	77.297	0.114	0.123
-645.741	800.000	0.043	-0.186
-644.726	800.000	-0.079	0.225
-643.711	-106.711	0.255	0.058
-642.697	-2.789	-0.249	0.177
-641.682	490.996	0.064	0.149
-640.668	800.000	0.056	-0.235
-639.653	-200.000	-0.054	-0.375
-638.638	800.000	-0.076	-0.267
-637.624	800.000	0.100	-0.339
-636.609	28.841	0.254	-0.219
-635.595	800.000	-0.074	-0.276
-634.580	-151.361	-0.340	0.026
-633.565	-40.573	0.305	-0.161
-632.551	291.771	-0.145	0.268
-631.536	-200.000	-0.016	0.092
-630.522	-97.204	0.202	0.054
-629.507	139.501	-0.084	0.112
-628.492	-97.313	-0.126	0.033
-627.478	15.587	0.077	-0.062
-626.463	176.315	-0.172	0.254
-625.449	201.445	0.082	0.128
-624.434	297.383	0.063	0.118
-623.419	-133.179	-0.262	0.034
-622.405	-104.413	0.082	0.019
-621.390	-131.976	0.096	0.013
-620.376	79.707	0.129	-0.141
-619.361	-55.758	-0.119	0.054
-618.346	75.484	-0.049	-0.052
-617.332	-128.832	-0.323	-0.046
-616.317	-1.276	-0.087	-0.063
-615.303	-200.000	-0.008	-0.082
-614.288	167.219	-0.185	-0.267
-613.273	800.000	0.055	0.227
-612.259	84.103	0.041	0.046
-611.244	7.847	-0.282	-0.215
-610.230	800.000	-0.061	0.194
-609.215	-200.000	0.001	0.056
-608.201	-200.000	0.055	0.259
-607.186	-44.393	0.215	-0.109
-606.171	495.184	-0.056	-0.131
-605.157	-70.011	-0.551	0.213
-604.142	-200.000	0.076	0.353
-603.128	400.486	-0.102	0.217
-602.113	-128.633	0.103	-0.015
-601.098	-16.629	-0.070	-0.045
-600.084	402.211	-0.139	-0.297
-599.069	800.000	0.046	-0.205
-598.055	-200.000	-0.094	-0.472
-597.040	-95.598	-0.067	0.018
-596.025	-70.778	-0.155	-0.059
-595.011	-142.578	-0.158	-0.016
-593.996	-84.941	0.168	0.054
-592.982	-52.867	-0.140	-0.065
-591.967	71.517	0.081	0.086
-590.952	2.604	-0.157	-0.115
-589.938	-67.786	-0.031	-0.012
-588.923	-79.995	0.214	-0.073
-587.909	10.765	-0.192	0.148
-586.894	493.546	0.062	-0.144
-585.879	-200.000	-0.019	0.290
-584.865	89.933	-0.222	0.252
-583.850	-200.000	-0.038	-0.171
-582.836	14.195	-0.417	0.330
-581.821	154.584	-0.036	0.051
-580.806	118.086	-0.096	-0.120
-579.792	212.448	-0.093	0.149
-578.777	-200.000	0.048	0.384
-577.763	-70.924	-0.370	-0.141
-576.748	86.458	0.333	-0.372
-575.733	-197.545	0.254	-0.002
-574.719	174.985	0.073	0.108
-573.704	-53.101	-0.036	0.017
-572.690	-28.620	-0.157	-0.092
-571.675	-200.000	-0.011	-0.076
-570.661	89.090	0.021	-0.023
-569.646	-13.271	0.056	-0.037
-568.631	216.682	0.119	-0.192
-567.617	6.334	-0.049	0.037
-566.602	-200.000	-0.003	-0.243
-565.588	-48.559	0.320	-0.156
-564.573	-100.230	0.353	0.089
-563.558	-200.000	-0.067	-0.481
-562.544	-23.000	-0.119	-0.073
-561.529	2.806	0.100	0.073
-560.515	-200.000	-0.021	-0.245
-559.500	-200.000	-0.019	-0.205
-558.485	-200.000	0.023	0.308
-557.471	-129.668	-0.183	-0.026
-556.456	311.262	0.073	-0.138
-555.442	219.710	-0.079	-0.129
-554.427	-137.869	0.259	0.029
-553.412	216.406	0.136	-0.220
-552.398	2.629	-0.217	-0.159
-551.383	786.513	-0.057	-0.157
-550.369	52.228	0.265	-0.256
-549.354	800.000	-0.069	0.283
-548.339	-133.465	-0.154	0.020
-547.325	-19.417	-0.225	0.141
-546.310	-200.000	-0.044	0.451
-545.296	-200.000	-0.012	-0.087
-544.281	123.214	-0.023	-0.029
-543.266	-97.085	-0.197	0.052
-542.252	-200.000	-0.002	0.040
-541.237	100.095	-0.104	0.122
-540.223	-200.000	0.011	-0.075
-539.208	-71.752	-0.257	-0.097
-538.193	-10.386	-0.160	0.107
-537.179	-119.755	0.196	0.034
-536.164	-200.000	-0.013	0.097
-535.150	346.842	-0.138	-0.275
-534.135	-200.000	-0.008	-0.074
-533.121	800.000	-0.032	-0.123
-532.106	-200.000	-0.029	-0.229
-531.091	1.877	0.111	-0.081
-530.077	470.124	0.065	0.147
-529.062	-111.676	0.225	0.046
-528.048	800.000	-0.062	-0.217
-527.033	306.766	0.131	-0.247
-526.018	800.000	0.067	0.213
-525.004	126.322	-0.233	0.298
-523.989	-60.984	-0.154	0.066
-522.975	478.699	0.062	-0.141
-521.960	551.202	-0.048	-0.117
-520.945	114.629	-0.189	-0.233
-519.931	8.918	-0.180	-0.138
-518.916	174.344	0.139	-0.203
-517.902	90.282	-0.114	-0.129
-516.887	-133.425	-0.216	-0.027
-515.872	90.490	-0.179	-0.202
-514.858	-200.000	-0.227	0.001
-513.843	-56.083	0.245	-0.110
-512.829	-200.000	0.022	0.144
-511.814	800.000	-0.033	0.104
-510.799	394.333	0.132	-0.278
-509.785	-24.185	0.118	0.072
-508.770	-1.289	-0.121	-0.086
-507.756	-200.000	0.048	0.282
-506.741	392.204	-0.105	-0.220
-505.726	-200.000	0.013	-0.130
-504.712	505.340	-0.119	0.280
-503.697	-8.191	0.117	0.080
-502.683	-146.232	-0.318	0.028
-501.668	264.123	-0.097	-0.170
-500.653	-95.621	-0.163	-0.044
-499.639	-111.670	0.164	0.034
-498.624	-200.000	-0.011	-0.156
-497.610	-101.692	0.205	-0.050
-496.595	53.269	0.165	-0.160
-495.581	800.000	0.072	0.211
-494.566	422.682	0.154	-0.335
-493.551	800.000	-0.026	-0.098
-492.537	-200.000	0.032	0.454
-491.522	-174.689	0.280	-0.008
-490.508	185.016	0.154	0.232
-489.493	18.325	0.045	-0.036
-488.478	18.854	-0.229	0.185
-487.464	-151.660	0.165	0.012
-486.449	277.991	0.232	0.417
-485.435	-153.652	-0.153	0.011
-484.420	213.493	0.200	-0.320
-483.405	-58.785	0.117	0.051
-482.391	628.251	-0.132	-0.338
-481.376	-161.080	-0.331	-0.018
-480.362	-100.560	0.187	0.047
-479.347	377.187	0.036	-0.075
-478.332	201.666	-0.127	-0.198
-477.318	800.000	0.130	0.378
-476.303	286.376	-0.152	0.278
-475.289	298.817	0.098	-0.182
-474.274	800.000	0.064	-0.271
-473.259	4.818	-0.125	-0.093
-472.245	-200.000	-0.024	0.181
-471.230	-200.000	0.214	0.001
-470.216	245.393	-0.084	-0.143
-469.201	-97.131	0.081	0.022
-468.186	-189.313	-0.066	0.001
-467.172	800.000	-0.043	0.135
-466.157	270.864	0.037	0.066
-465.143	-167.369	-0.256	-0.010
-464.128	-77.101	-0.236	0.083
-463.113	-42.457	-0.188	0.097
-462.099	562.570	-0.064	-0.156
-461.084	-200.000	0.002	-0.060
-460.070	-89.346	-0.266	-0.079
-459.055	-185.904	-0.387	-0.006
-458.040	-44.835	-0.508	0.255
-457.026	-200.000	0.469	-0.001
-456.011	-94.006	-0.267	0.074
-454.997	32.066	-0.104	0.090
-453.982	-154.002	-0.508	0.035
-452.968	-154.084	-0.262	-0.018
-451.953	-17.819	0.126	-0.080
-450.938	2.597	0.120	-0.088
-449.924	-23.786	-0.162	0.098
-448.909	-148.328	0.302	0.025
-447.895	-200.000	-0.075	-0.372
-446.880	-200.000	-0.032	0.183
-445.865	800.000	-0.037	0.155
-444.851	-136.964	-0.334	-0.039
-443.836	-57.190	0.145	-0.065
-442.822	-47.826	-0.349	0.170
-441.807	-6.845	0.214	0.147
-440.792	276.070	-0.112	0.201
-439.778	-95.296	0.278	0.075
-438.763	-16.084	-0.160	0.103
-437.749	362.678	0.045	0.091
-436.734	-186.706	-0.125	0.002
-435.719	-200.000	-0.039	0.268
-434.705	35.675	0.155	0.137
-433.690	800.000	0.102	-0.302
-432.676	146.691	-0.116	-0.157
-431.661	800.000	-0.019	-0.078
-430.646	-88.516	-0.035	0.010
-429.632	90.497	-0.239	-0.269
-428.617	69.326	0.103	0.107
-427.603	271.041	0.146	-0.259
-426.588	-200.000	0.014	-0.134
-425.573	-49.359	0.312	0.150
-424.559	45.400	-0.201	0.187
-423.544	13.554	0.044	-0.034
-422.530	-73.940	0.233	0.085
-421.515	-84.180	-0.191	0.061
-420.500	-116.617	0.216	-0.040
-419.486	109.745	-0.143	0.173
-418.471	-186.178	0.080	0.001
-417.457	-76.987	0.011	-0.004
-416.442	800.000	-0.042	0.141
-415.428	-119.351	-0.088	0.015
-414.413	-113.624	-0.210	0.041
-413.398	11.289	-0.201	-0.155
-412.384	-200.000	-0.039	-0.242
-411.369	53.175	-0.178	-0.172
-410.355	-200.000	-0.039	-0.622
-409.340	282.313	0.122	0.221
-408.325	598.135	-0.086	-0.215
-407.311	-144.127	0.096	0.009
-406.296	54.990	-0.330	0.321
-405.282	800.000	-0.018	-0.058
-404.267	-200.000	-0.013	0.090
-403.252	282.322	-0.036	-0.065
-402.238	-44.089	0.167	0.085
-401.223	296.792	-0.063	0.116
-400.209	11.456	-0.197	0.152
-399.194	-200.000	-0.002	0.207
-398.179	-127.098	-0.148	0.022
-397.165	800.000	0.116	-0.481
-396.150	-73.752	0.060	0.022
-395.136	80.681	0.181	-0.196
-394.121	-93.822	0.208	0.058
-393.106	800.000	-0.027	-0.118
-392.092	626.512	0.078	-0.199
-391.077	800.000	-0.043	0.135
-390.063	640.284	-0.051	0.130
-389.048	800.000	-0.105	0.353
-388.033	-141.589	0.174	-0.018
-387.019	-168.322	-0.185	0.007
-386.004	-88.757	-0.372	-0.111
-384.990	-111.370	0.508	-0.104
-383.975	-200.000	-0.008	-0.238
-382.960	426.269	0.087	-0.189
-381.946	107.736	0.098	-0.117
-380.931	-18.352	0.200	0.126
-379.917	342.805	-0.119	-0.235
-378.902	800.000	0.044	0.154
-377.888	55.484	0.137	-0.133
-376.873	-200.000	0.081	-0.363
-375.858	121.778	0.201	-0.252
-374.844	190.108	0.175	-0.264
-373.829	-126.569	-0.453	0.068
-372.815	-89.543	-0.293	-0.087
-371.800	-85.104	-0.293	-0.092
-370.785	-200.000	0.039	-0.210
-369.771	-200.000	0.006	-0.114
-368.756	-161.292	0.251	0.013
-367.742	348.032	0.078	-0.155
-366.727	-132.349	-0.432	0.056
-365.712	10.889	0.274	0.210
-364.698	-107.968	0.469	0.102
-363.683	-181.291	0.306	0.006
-362.669	91.372	-0.148	-0.167
-361.654	-21.366	0.199	-0.122
-360.639	2.205	0.205	0.149
-359.625	263.654	-0.085	0.149
-358.610	50.189	-0.055	0.052
-357.596	-200.000	0.054	0.243
-356.581	656.297	0.010	-0.025
-355.566	-78.665	0.246	-0.084
-354.552	800.000	0.063	-0.264
-353.537	-200.000	0.046	0.414
-352.523	-165.901	-0.192	-0.008
-351.508	519.133	-0.072	-0.170
-350.493	207.975	-0.083	-0.131
-349.479	643.849	0.042	0.108
-348.464	-118.249	0.294	0.053
-347.450	-114.560	0.312	-0.060
-346.435	-200.000	0.020	0.094
-345.420	-200.000	0.011	0.123
-344.406	218.528	0.045	0.071
-343.391	-122.468	-0.212	-0.035
-342.377	800.000	0.058	0.191
-341.362	-200.000	-0.048	-0.225
-340.348	800.000	0.093	0.275
-339.333	800.000	0.023	0.099
-338.318	-17.941	-0.061	-0.039
-337.304	-174.566	0.419	-0.012
-336.289	219.782	0.090	0.145
-335.275	-200.000	0.016	0.080
-334.260	228.931	-0.086	-0.140
-333.245	-168.376	-0.327	0.013
-332.231	-200.000	-0.024	-0.198
-331.216	800.000	0.106	0.370
-330.202	-200.000	-0.024	0.117
-329.187	-166.486	-0.170	-0.007
-328.172	341.833	0.035	0.068
-327.158	-69.105	0.168	-0.065
-326.143	-33.589	0.296	0.164
-325.129	-200.000	-0.023	0.446
-324.114	-200.000	-0.003	0.265
-323.099	-32.957	0.117	0.065
-322.085	-128.412	-0.230	-0.033
-321.070	137.449	-0.216	-0.283
-320.056	-67.672	0.134	-0.052
-319.041	-97.125	-0.198	0.052
-318.026	-200.000	0.000	-0.113
-317.012	80.769	-0.123	-0.134
-315.997	93.675	-0.243	-0.276
-314.983	101.816	0.118	0.138
-313.968	-200.000	-0.054	-0.250
-312.953	800.000	-0.050	0.202
-311.939	-122.905	0.271	0.044
-310.924	-200.000	0.016	0.324
-309.910	800.000	0.039	0.118
-308.895	235.975	0.112	-0.186
-307.880	-46.495	0.120	-0.059
-306.866	-55.160	0.248	-0.112
-305.851	64.144	-0.247	-0.249
-304.837	800.000	0.070	-0.250
-303.822	-125.164	0.107	0.017
-302.807	-138.086	0.168	-0.019
-301.793	461.816	0.005	-0.011
-300.778	-145.541	-0.206	0.019
-299.764	-145.532	0.443	-0.040
-298.749	284.084	-0.145	-0.262
-297.735	-200.000	-0.055	0.339
-296.720	-152.056	-0.527	-0.038
-295.705	-144.253	-0.124	0.012
-294.691	-87.757	0.136	0.041
-293.676	147.700	-0.107	0.145
-292.662	344.241	0.046	-0.091
-291.647	-109.769	0.137	0.029
-290.632	-119.291	0.094	-0.016
-289.618	-22.438	0.088	0.053
-288.603	-45.874	0.164	0.081
-287.589	489.163	0.141	0.322
-286.574	405.422	-0.025	-0.054
-285.559	41.430	0.169	0.153
-284.545	-24.447	0.138	0.082
-283.530	-200.000	0.076	0.476
-282.516	-79.876	-0.306	-0.103
-281.501	-140.620	0.233	0.024
-280.486	-164.247	0.080	0.004
-279.472	800.000	0.068	-0.210
-278.457	103.777	-0.345	0.406
-277.443	240.654	-0.142	0.237
-276.428	99.051	0.094	0.109
-275.413	109.233	0.199	0.239
-274.399	-31.487	0.191	-0.108
-273.384	-71.253	-0.013	-0.005
-272.370	380.311	0.056	0.115
-271.355	-85.458	-0.347	0.108
-270.340	-78.509	0.204	0.070
-269.326	-83.834	0.441	0.141
-268.311	-200.000	-0.002	0.020
-267.297	-159.861	0.140	-0.008
-266.282	183.072	-0.082	-0.121
-265.267	-200.000	-0.012	-0.192
-264.253	-137.476	-0.092	-0.010
-263.238	-72.733	-0.047	-0.017
-262.224	-12.239	-0.122	0.080
-261.209	-127.583	0.353	0.051
-260.195	3.821	-0.435	0.318
-259.180	800.000	-0.170	0.477
-258.165	-120.414	0.150	-0.026
-257.151	141.943	-0.069	0.092
-256.136	172.954	0.172	-0.248
-255.122	-200.000	0.001	-0.173
-254.107	527.555	-0.069	0.163
-253.092	-102.377	0.155	0.037
-252.078	298.489	0.072	0.133
-251.063	-105.002	-0.257	-0.059
-250.049	-200.000	-0.069	-0.375
-249.034	94.016	-0.049	0.055
-248.019	244.850	0.185	0.311
-247.005	-200.000	-0.055	0.241
-245.990	800.000	0.179	0.528
-244.976	253.529	0.039	-0.066
-243.961	-200.000	0.013	0.330
-242.946	260.457	0.265	0.459
-241.932	-189.529	-0.218	-0.003
-240.917	-2.589	-0.178	0.125
-239.903	148.091	0.128	0.173
-238.888	-21.386	0.106	0.065
-237.873	-43.337	-0.114	0.058
-236.859	800.000	-0.037	0.119
-235.844	295.266	0.270	0.494
-234.830	-200.000	0.040	0.203
-233.815	-88.385	-0.309	0.092
-232.800	-77.528	-0.367	-0.127
-231.786	-142.090	0.394	0.039
-230.771	-139.011	0.371	0.040
-229.757	-155.381	0.181	-0.012
-228.742	61.312	0.285	0.283
-227.727	58.798	0.209	0.206
-226.713	-27.582	-0.054	-0.031
-225.698	8.728	0.046	-0.035
-224.684	-200.000	0.005	-0.052
-223.669	337.774	0.146	0.285
-222.655	81.039	0.131	-0.141
-221.640	212.122	-0.186	0.293
-220.625	23.948	0.187	0.155
-219.611	-133.666	0.304	-0.038
-218.596	-129.813	0.234	0.032
-217.582	-72.527	-0.319	-0.118
-216.567	-121.231	0.163	0.027
-215.552	232.691	-0.023	-0.038
-214.538	-200.000	0.007	-0.182
-213.523	189.041	0.108	-0.161
-212.509	-46.267	-0.154	-0.076
-211.494	-7.135	-0.133	-0.090
-210.479	800.000	-0.163	-0.532
-209.465	-200.000	0.026	-0.166
-208.450	313.068	-0.149	-0.280
-207.436	258.645	-0.071	-0.122
-206.421	-103.201	-0.333	-0.079
-205.406	800.000	0.062	-0.213
-204.392	-93.311	0.204	-0.056
-203.377	800.000	-0.079	-0.251
-202.363	-200.000	0.021	-0.322
-201.348	-39.332	0.131	-0.069
-200.333	-45.219	0.187	0.093
-199.319	734.515	0.070	0.188
-198.304	-20.152	0.177	-0.109
-197.290	-200.000	0.011	0.163
-196.275	0.719	0.079	-0.057
-195.260	33.360	-0.232	-0.201
-194.246	-151.696	-0.138	0.010
-193.231	480.882	-0.045	-0.102
-192.217	-200.000	-0.003	0.120
-191.202	-106.672	0.148	-0.033
-190.187	276.052	-0.160	0.283
-189.173	670.057	-0.121	-0.313
-188.158	-76.628	0.081	0.029
-187.144	-41.533	-0.270	0.139
-186.129	-200.000	-0.023	0.132
-185.114	-185.824	-0.120	-0.002
-184.100	-53.915	0.188	0.086
-183.085	-57.873	0.160	0.070
-182.071	-173.023	0.093	0.003
-181.056	5.389	-0.058	-0.043
-180.042	203.681	0.128	0.198
-179.027	-200.000	0.022	-0.208
-178.012	-70.002	-0.226	0.086
-176.998	-116.080	-0.352	0.065
-175.983	113.847	-0.057	0.069
-174.969	-20.884	0.361	-0.221
-173.954	-27.915	-0.286	-0.166
-172.939	-112.454	-0.212	-0.042
-171.925	-200.000	0.034	0.186
-170.910	92.133	0.390	0.438
-169.896	68.780	0.210	0.215
-168.881	496.510	0.088	-0.203
-167.866	209.383	-0.168	-0.263
-166.852	182.771	0.231	-0.340
-165.837	-113.661	0.327	-0.064
-164.823	138.736	0.228	0.299
-163.808	56.150	-0.018	0.017
-162.793	591.810	-0.162	-0.400
-161.779	788.337	0.053	0.145
-160.764	63.125	-0.136	-0.136
-159.750	-143.439	-0.356	-0.034
-158.735	228.083	0.048	-0.077
-157.720	-129.800	0.388	-0.053
-156.706	-63.087	-0.102	0.042
-155.691	-36.174	0.342	0.184
-154.677	-61.717	0.263	0.110
-153.662	345.210	-0.105	-0.205
-152.647	-92.075	0.130	0.037
-151.633	-43.189	0.097	-0.049
-150.618	196.517	0.100	-0.151
-149.604	273.734	0.103	0.182
-148.589	-60.659	0.200	-0.085
-147.574	111.540	0.090	0.108
-146.560	40.509	0.188	0.169
-145.545	-122.720	-0.427	0.069
-144.531	-200.000	-0.071	0.402
-143.516	-27.069	0.357	0.207
-142.502	800.000	-0.070	0.287
-141.487	52.795	-0.234	-0.223
-140.472	86.829	-0.234	0.257
-139.458	291.851	0.138	-0.250
-138.443	800.000	-0.066	0.231
-137.429	800.000	0.043	0.175
-136.414	79.543	0.027	0.029
-135.399	-44.986	0.198	0.098
-134.385	-100.248	0.138	-0.034
-133.370	800.000	0.025	0.092
-132.356	-118.556	-0.082	-0.014
-131.341	800.000	0.103	0.411
-130.326	-16.902	-0.122	-0.077
-129.312	143.274	0.234	-0.311
-128.297	1.361	-0.081	-0.058
-127.283	582.383	-0.014	0.034
-126.268	-159.251	0.201	0.011
-125.253	-159.064	-0.072	0.004
-124.239	222.561	-0.060	0.096
-123.224	578.199	0.139	0.339
-122.210	29.541	0.248	0.210
