DTS Sentinel unit serial number:	SN413079Multiplexer serial number:	ORYXHardware model number:	OX4-SRSoftware version number:	ORYX F/W v4.00 Oryx Data Collector v3.7.2.0data status	okinstallation	princeton_trtdifferential loss correction	single-endedforward channel	channel 3reverse channel	N/Adate	2019/09/12time	04:02:10forward acquisition time	60.00reverse acquisition time	0.00gamma	496.2192k internal	0.2322k external	0.2322temperature offset calibration	1.0064default loss term (dB/km)	0.3790temperature slope calibration	1.0000multiplexer offset coefficient	1.0000multiplexer slope coefficient	1.0000fibre end	0.00T internal ref (°C)	32.06T ext. ref 1 (°C)	2.20T ext. ref 2 (°C)	25.96length (m)	temperature (°C)	Stokes	anti-Stokes-747.200	800.000	0.181	0.584
-746.185	-200.000	-0.029	-0.156
-745.171	800.000	0.099	0.289
-744.156	-22.486	0.434	0.265
-743.142	101.306	-0.064	0.075
-742.127	532.638	-0.118	0.282
-741.112	167.432	0.079	0.113
-740.098	26.679	-0.298	0.252
-739.083	170.104	-0.097	0.140
-738.069	800.000	-0.068	0.210
-737.054	800.000	-0.078	-0.287
-736.039	-72.611	0.207	0.077
-735.025	-199.917	0.471	0.002
-734.010	-10.454	-0.199	0.133
-732.996	198.625	0.106	-0.164
-731.981	-148.105	-0.181	0.015
-730.966	-104.629	-0.390	0.091
-729.952	-20.450	0.353	-0.219
-728.937	800.000	0.040	-0.141
-727.923	-116.413	0.032	-0.006
-726.908	173.218	0.116	-0.169
-725.894	143.348	0.114	0.154
-724.879	-76.302	-0.123	0.044
-723.864	370.770	0.159	0.325
-722.850	-13.976	0.155	0.101
-721.835	-115.537	0.227	-0.043
-720.821	512.624	-0.113	0.267
-719.806	-200.000	-0.044	-0.202
-718.791	800.000	-0.201	-0.636
-717.777	-96.327	0.431	-0.115
-716.762	-84.751	0.183	0.058
-715.748	177.287	-0.279	-0.410
-714.733	71.058	-0.153	-0.160
-713.718	-166.412	0.155	0.007
-712.704	800.000	-0.025	0.072
-711.689	-74.906	0.225	0.081
-710.675	61.165	0.242	0.243
-709.660	-200.000	-0.121	-0.000
-708.645	5.919	0.151	0.113
-707.631	-58.343	-0.120	-0.053
-706.616	-200.000	-0.012	-0.079
-705.602	258.239	-0.138	-0.240
-704.587	-27.180	-0.167	0.098
-703.572	255.530	0.087	0.150
-702.558	800.000	0.067	0.211
-701.543	800.000	0.017	0.068
-700.529	27.833	-0.261	0.222
-699.514	-9.146	0.165	-0.112
-698.499	391.249	-0.019	0.040
-697.485	204.432	0.150	0.235
-696.470	-155.831	-0.062	0.004
-695.456	-170.279	0.104	-0.004
-694.441	-154.123	-0.282	-0.019
-693.426	191.223	-0.267	-0.406
-692.412	-98.762	0.224	0.058
-691.397	169.896	0.137	-0.198
-690.383	10.414	0.161	-0.124
-689.368	-72.976	-0.067	0.025
-688.354	162.626	-0.059	0.084
-687.339	-119.379	0.213	0.037
-686.324	26.580	-0.130	0.110
-685.310	-99.333	0.265	-0.067
-684.295	-134.626	0.165	0.020
-683.281	-137.163	0.097	0.011
-682.266	-91.887	0.232	-0.066
-681.251	-119.577	-0.108	-0.019
-680.237	635.110	-0.214	-0.547
-679.222	-200.000	-0.010	0.266
-678.208	39.623	-0.179	0.162
-677.193	-145.277	0.036	0.003
-676.178	800.000	-0.088	-0.320
-675.164	-46.491	-0.085	-0.042
-674.149	210.381	-0.228	-0.361
-673.135	19.947	0.370	-0.300
-672.120	-44.800	-0.256	0.129
-671.105	359.361	0.012	0.025
-670.091	93.260	0.126	0.144
-669.076	-70.762	-0.117	-0.044
-668.062	317.192	0.163	-0.311
-667.047	-29.993	0.341	0.196
-666.032	-33.581	-0.113	-0.063
-665.018	-0.457	-0.145	-0.104
-664.003	-87.819	0.340	0.103
-662.989	-165.198	0.086	-0.004
-661.974	-200.000	0.006	-0.079
-660.959	783.707	0.088	0.243
-659.945	-3.477	-0.257	-0.180
-658.930	234.188	-0.110	0.183
-657.916	-200.000	0.030	-0.328
-656.901	800.000	-0.088	-0.360
-655.886	-169.781	0.396	-0.014
-654.872	-84.465	-0.302	-0.096
-653.857	322.965	0.139	0.267
-652.843	111.014	0.070	0.085
-651.828	19.898	0.228	-0.185
-650.814	432.301	-0.070	-0.152
-649.799	10.031	0.263	-0.201
-648.784	-41.829	0.195	-0.101
-647.770	800.000	0.088	0.366
-646.755	466.658	0.065	0.146
-645.741	-15.563	0.086	-0.055
-644.726	800.000	0.011	-0.036
-643.711	194.214	-0.055	-0.084
-642.697	-76.443	-0.203	0.072
-641.682	-200.000	0.000	-0.075
-640.668	351.870	-0.026	-0.052
-639.653	509.115	0.052	-0.122
-638.638	-168.633	0.179	0.007
-637.624	-200.000	0.008	0.227
-636.609	-135.744	0.358	0.043
-635.595	-12.643	0.124	-0.081
-634.580	-36.648	-0.091	0.049
-633.565	-200.000	-0.067	-0.494
-632.551	-200.000	-0.271	-0.001
-631.536	325.845	0.034	0.065
-630.522	101.453	0.162	-0.190
-629.507	-118.707	0.309	-0.055
-628.492	223.118	0.158	0.256
-627.478	61.942	-0.167	0.167
-626.463	381.230	0.078	-0.161
-625.449	7.773	0.047	-0.035
-624.434	291.595	-0.055	-0.101
-623.419	468.187	0.140	0.316
-622.405	-200.000	0.006	0.164
-621.390	-130.723	-0.111	0.015
-620.376	-8.959	0.458	-0.308
-619.361	-66.887	0.224	0.089
-618.346	-58.695	-0.024	0.010
-617.332	-200.000	0.025	-0.244
-616.317	4.128	-0.139	0.102
-615.303	-200.000	-0.014	0.073
-614.288	800.000	0.071	-0.202
-613.273	169.725	-0.084	-0.121
-612.259	-200.000	-0.049	-0.239
-611.244	400.651	0.098	0.207
-610.230	-7.227	-0.041	0.028
-609.215	-134.004	-0.453	0.056
-608.201	-29.956	0.118	0.068
-607.186	-5.946	0.423	0.291
-606.171	356.221	-0.080	-0.159
-605.157	-169.355	-0.293	0.011
-604.142	-55.706	-0.183	0.082
-603.128	5.995	0.018	-0.014
-602.113	800.000	-0.067	0.210
-601.098	-93.464	0.140	0.039
-600.084	-75.541	0.056	0.020
-599.069	253.351	0.064	-0.110
-598.055	383.443	-0.132	-0.272
-597.040	174.658	0.151	-0.219
-596.025	1.259	0.097	-0.070
-595.011	-200.000	-0.015	0.110
-593.996	93.424	0.183	0.209
-592.982	800.000	0.051	-0.152
-591.967	104.885	0.092	-0.109
-590.952	-85.885	-0.069	0.022
-589.938	64.742	0.178	-0.181
-588.923	-113.020	-0.273	0.054
-587.909	-200.000	0.001	0.258
-586.894	80.453	0.196	0.212
-585.879	-55.035	-0.245	0.111
-584.865	235.437	0.106	-0.176
-583.850	-200.000	-0.018	0.200
-582.836	-200.000	-0.029	0.154
-581.821	-58.321	0.037	-0.016
-580.806	800.000	0.035	-0.097
-579.792	-95.057	-0.195	0.053
-578.777	178.543	-0.159	-0.233
-577.763	-141.085	-0.180	-0.019
-576.748	-168.577	0.186	0.007
-575.733	25.155	0.044	0.037
-574.719	-200.000	0.012	-0.118
-573.704	396.241	-0.065	-0.136
-572.690	-200.000	-0.028	0.261
-571.675	-59.955	-0.196	-0.084
-570.661	-6.944	0.035	-0.024
-569.646	-130.593	-0.417	-0.056
-568.631	-200.000	-0.003	-0.124
-567.617	-18.572	0.186	0.116
-566.602	227.470	0.101	0.165
-565.588	-200.000	-0.029	0.183
-564.573	-148.263	0.231	0.019
-563.558	394.199	-0.092	-0.192
-562.544	800.000	0.085	-0.277
-561.529	47.032	0.022	0.020
-560.515	-63.741	0.038	0.016
-559.500	800.000	0.017	0.051
-558.485	554.552	-0.118	-0.285
-557.471	25.032	0.148	0.123
-556.456	59.558	0.102	-0.101
-555.442	-57.125	-0.076	0.034
-554.427	383.977	0.125	-0.258
-553.412	578.588	-0.144	0.354
-552.398	-87.984	-0.060	-0.018
-551.383	-57.982	0.366	0.160
-550.369	414.564	0.095	0.203
-549.354	41.188	0.340	0.308
-548.339	800.000	-0.046	-0.141
-547.325	68.295	0.169	-0.174
-546.310	-184.350	0.271	0.004
-545.296	83.175	0.145	0.158
-544.281	141.336	-0.096	-0.128
-543.266	79.949	-0.117	-0.126
-542.252	-200.000	0.014	0.120
-541.237	-143.029	-0.250	0.024
-540.223	-36.174	0.187	0.101
-539.208	34.055	0.017	0.015
-538.193	-32.697	0.068	0.038
-537.179	800.000	-0.060	0.242
-536.164	-193.827	-0.142	0.001
-535.150	-64.301	0.493	-0.201
-534.135	800.000	-0.047	-0.173
-533.121	405.485	-0.117	0.246
-532.106	800.000	-0.013	-0.056
-531.091	-23.856	-0.242	0.145
-530.077	-83.607	-0.100	-0.032
-529.062	23.516	-0.249	-0.205
-528.048	156.824	0.100	-0.139
-527.033	-115.832	0.127	0.024
-526.018	-122.329	-0.150	0.024
-525.004	-7.335	0.093	-0.063
-523.989	-41.649	-0.089	-0.046
-522.975	800.000	-0.098	0.427
-521.960	218.175	-0.145	0.232
-520.945	-200.000	0.019	0.362
-519.931	238.744	0.134	0.224
-518.916	-200.000	-0.025	0.240
-517.902	-200.000	-0.029	0.256
-516.887	-200.000	0.009	0.423
-515.872	-14.779	-0.185	0.119
-514.858	167.254	0.098	-0.139
-513.843	9.316	0.053	0.040
-512.829	0.400	0.081	-0.058
-511.814	-113.265	0.373	-0.074
-510.799	0.948	-0.094	-0.067
-509.785	-73.151	-0.586	-0.215
-508.770	91.833	0.143	-0.161
-507.756	800.000	-0.090	-0.342
-506.741	-6.700	0.237	-0.161
-505.726	145.299	0.129	0.172
-504.712	146.599	0.172	-0.232
-503.697	-200.000	-0.053	0.289
-502.683	-111.676	-0.258	0.052
-501.668	45.513	0.030	-0.028
-500.653	-200.000	0.004	-0.024
-499.639	32.563	0.283	-0.245
-498.624	-78.892	0.392	-0.134
-497.610	-83.466	0.180	-0.058
-496.595	-200.000	0.060	0.308
-495.581	-126.489	-0.180	-0.027
-494.566	-200.000	-0.026	-0.125
-493.551	-200.000	0.012	-0.329
-492.537	6.548	-0.352	-0.262
-491.522	-101.253	0.262	0.064
-490.508	-31.276	-0.380	0.214
-489.493	-200.000	-0.017	-0.120
-488.478	-86.285	-0.128	-0.039
-487.464	-39.202	-0.245	-0.129
-486.449	146.671	0.201	0.271
-485.435	-200.000	0.025	0.128
-484.420	282.527	0.043	-0.078
-483.405	800.000	-0.040	0.149
-482.391	-51.554	0.022	0.010
-481.376	103.857	-0.087	0.102
-480.362	104.156	-0.133	-0.156
-479.347	-146.195	-0.167	-0.015
-478.332	243.340	-0.171	0.287
-477.318	145.079	0.078	-0.105
-476.303	-38.087	-0.246	-0.131
-475.289	-27.145	0.338	-0.197
-474.274	800.000	0.013	-0.048
-473.259	800.000	-0.042	-0.165
-472.245	-200.000	0.020	0.156
-471.230	47.876	0.164	0.153
-470.216	-200.000	0.062	-0.321
-469.201	-200.000	0.026	0.124
-468.186	21.443	-0.232	0.188
-467.172	-99.498	0.042	0.011
-466.157	-56.331	-0.167	0.074
-465.143	-62.280	-0.120	-0.050
-464.128	255.266	-0.184	-0.316
-463.113	212.818	0.223	-0.352
-462.099	-122.753	0.140	-0.023
-461.084	-22.580	0.305	-0.184
-460.070	71.922	-0.038	0.040
-459.055	-29.493	-0.312	-0.178
-458.040	-200.000	-0.036	-0.321
-457.026	-55.598	-0.482	-0.216
-456.011	-93.859	0.328	0.090
-454.997	75.616	0.281	0.297
-453.982	-200.000	-0.001	-0.158
-452.968	-84.880	0.377	-0.118
-451.953	-161.229	-0.228	-0.012
-450.938	491.909	0.127	0.291
-449.924	21.564	0.061	0.049
-448.909	32.249	0.087	-0.075
-447.895	55.913	0.138	-0.133
-446.880	-195.150	-0.079	0.001
-445.865	-59.525	0.108	-0.046
-444.851	83.096	-0.085	-0.092
-443.836	-55.396	0.277	-0.124
-442.822	-200.000	0.017	0.085
-441.807	127.885	0.269	-0.341
-440.792	-200.000	0.000	-0.139
-439.778	800.000	0.053	0.197
-438.763	241.981	0.019	-0.032
-437.749	-200.000	0.069	-0.305
-436.734	-51.120	0.071	0.033
-435.719	4.985	-0.059	-0.044
-434.705	-200.000	0.005	0.475
-433.690	-138.386	0.498	-0.055
-432.676	-24.895	0.357	0.211
-431.661	432.064	-0.047	0.102
-430.646	-45.632	0.042	0.021
-429.632	-200.000	-0.004	0.345
-428.617	254.467	0.184	-0.314
-427.603	-53.634	-0.355	0.162
-426.588	-100.564	-0.424	-0.105
-425.573	800.000	0.050	-0.214
-424.559	-116.007	0.223	-0.041
-423.544	51.815	-0.176	0.167
-422.530	-109.689	0.232	-0.049
-421.515	485.061	0.224	-0.509
-420.500	-200.000	-0.041	-0.192
-419.486	-36.734	-0.372	-0.199
-418.471	-200.000	-0.031	0.293
-417.457	-72.562	-0.291	-0.107
-416.442	-181.325	-0.098	0.002
-415.428	36.684	0.006	-0.006
-414.413	-200.000	0.022	0.116
-413.398	-126.441	-0.330	0.049
-412.384	73.621	0.094	0.099
-411.369	-46.912	-0.196	-0.096
-410.355	255.572	-0.216	0.370
-409.340	-45.016	-0.157	0.078
-408.325	87.568	0.160	0.177
-407.311	24.551	-0.245	-0.202
-406.296	-7.260	-0.150	-0.102
-405.282	-128.025	0.269	0.038
-404.267	-152.570	-0.487	0.035
-403.252	-200.000	-0.043	-0.190
-402.238	-200.000	0.015	-0.512
-401.223	-106.674	-0.327	-0.072
-400.209	230.996	-0.068	0.110
-399.194	800.000	0.019	0.055
-398.179	-114.885	0.091	-0.017
-397.165	-50.804	0.318	0.149
-396.150	-55.822	0.087	0.039
-395.136	137.287	-0.106	0.138
-394.121	800.000	-0.075	0.243
-393.106	-200.000	0.042	0.351
-392.092	-47.004	0.203	-0.099
-391.077	-149.504	0.216	0.017
-390.063	-200.000	-0.034	-0.175
-389.048	-142.076	-0.166	-0.016
-388.033	-139.342	-0.238	0.026
-387.019	-7.254	-0.285	0.193
-386.004	144.858	0.116	-0.155
-384.990	-4.160	-0.253	0.175
-383.975	-156.989	-0.324	-0.020
-382.960	-118.256	0.061	-0.011
-381.946	-26.538	0.241	0.141
-380.931	458.360	0.141	-0.313
-379.917	-37.364	-0.191	-0.102
-378.902	-90.351	-0.177	0.051
-377.888	143.524	-0.078	-0.103
-376.873	-146.508	0.208	-0.018
-375.858	74.156	0.210	0.219
-374.844	150.462	0.157	0.212
-373.829	-138.133	-0.188	0.021
-372.815	800.000	0.067	-0.272
-371.800	-25.674	-0.046	-0.027
-370.785	2.719	-0.103	-0.074
-369.771	-200.000	-0.030	0.162
-368.756	284.087	0.047	0.085
-367.742	-137.827	-0.186	-0.021
-366.727	-200.000	-0.014	0.140
-365.712	96.585	0.186	0.212
-364.698	71.776	-0.243	0.252
-363.683	377.113	-0.112	0.227
-362.669	-126.413	0.460	0.068
-361.654	-45.354	-0.196	0.097
-360.639	-200.000	-0.040	-0.327
-359.625	365.648	0.079	0.159
-358.610	13.535	0.112	0.086
-357.596	27.482	-0.236	-0.198
-356.581	159.272	0.199	0.276
-355.566	-76.135	0.092	0.032
-354.552	188.797	0.209	-0.311
-353.537	58.042	-0.177	0.172
-352.523	-166.409	0.132	0.006
-351.508	465.330	0.087	-0.194
-350.493	-19.838	0.265	-0.163
-349.479	108.082	-0.138	-0.164
-348.464	-200.000	0.022	-0.161
-347.450	85.745	-0.083	-0.091
-346.435	-101.705	0.187	-0.045
-345.420	-200.000	-0.001	0.092
-344.406	-200.000	-0.004	0.087
-343.391	-1.770	0.247	0.173
-342.377	-200.000	-0.230	0.000
-341.362	162.503	0.178	0.249
-340.348	-57.390	0.026	0.011
-339.333	800.000	-0.051	-0.200
-338.318	-200.000	-0.015	0.295
-337.304	229.229	-0.106	0.171
-336.289	499.964	-0.076	-0.174
-335.275	-76.496	-0.180	-0.063
-334.260	-3.812	-0.162	-0.112
-333.245	155.872	0.035	0.047
-332.231	331.310	0.216	-0.414
-331.216	71.368	-0.203	-0.210
-330.202	-200.000	0.028	-0.120
-329.187	311.383	0.175	-0.327
-328.172	5.277	-0.198	0.145
-327.158	33.502	0.254	0.219
-326.143	672.035	-0.045	-0.117
-325.129	-67.637	-0.137	-0.053
-324.114	129.015	0.139	-0.177
-323.099	-113.440	-0.038	-0.007
-322.085	0.579	-0.105	-0.075
-321.070	203.179	0.237	-0.364
-320.056	-7.149	-0.103	-0.069
-319.041	-200.000	-0.001	0.238
-318.026	10.706	-0.313	-0.237
-317.012	-33.716	-0.126	-0.069
-315.997	21.680	-0.149	0.120
-314.983	-200.000	-0.040	0.229
-313.968	318.171	0.091	0.170
-312.953	-182.468	0.194	-0.004
-311.939	93.422	-0.130	0.146
-310.924	800.000	0.029	0.127
-309.910	-88.360	-0.383	0.114
-308.895	65.800	-0.124	0.124
-307.880	-43.032	0.194	-0.098
-306.866	-200.000	-0.024	0.124
-305.851	-27.904	-0.086	0.049
-304.837	-96.093	0.155	-0.041
-303.822	92.926	0.247	-0.277
-302.807	575.409	0.114	0.276
-301.793	202.120	-0.109	-0.167
-300.778	-92.442	-0.316	-0.088
-299.764	-200.000	-0.060	-0.269
-298.749	5.727	-0.047	0.035
-297.735	-99.935	-0.283	-0.070
-296.720	-17.461	-0.033	-0.021
-295.705	417.484	-0.053	-0.112
-294.691	-148.430	-0.235	-0.019
-293.676	327.282	-0.017	0.032
-292.662	-200.000	0.022	0.097
-291.647	-95.640	-0.124	-0.033
-290.632	74.230	-0.104	0.108
-289.618	-200.000	0.015	-0.099
-288.603	24.733	-0.050	0.041
-287.589	-64.672	-0.264	-0.106
-286.574	-98.944	-0.266	0.067
-285.559	-200.000	-0.016	-0.155
-284.545	15.912	0.175	0.137
-283.530	120.495	-0.052	0.065
-282.516	397.246	0.038	-0.078
-281.501	-115.055	0.171	-0.032
-280.486	300.630	-0.118	-0.217
-279.472	157.452	-0.077	-0.106
-278.457	101.120	-0.206	-0.238
-277.443	242.054	0.140	-0.233
-276.428	264.994	0.048	0.083
-275.413	-200.000	-0.168	-0.000
-274.399	-88.245	0.174	0.052
-273.384	-136.792	0.194	0.022
-272.370	8.017	-0.210	-0.156
-271.355	-99.247	-0.323	0.081
-270.340	-115.263	-0.345	-0.065
-269.326	-200.000	0.033	0.200
-268.311	-136.786	0.277	0.032
-267.297	-200.000	-0.002	0.302
-266.282	-42.849	-0.265	-0.133
-265.267	-28.536	0.171	0.097
-264.253	305.440	0.182	0.336
-263.238	-169.165	0.392	0.014
-262.224	-85.716	0.080	-0.025
-261.209	800.000	-0.039	0.119
-260.195	800.000	-0.038	-0.150
-259.180	-200.000	-0.006	0.195
-258.165	-48.207	0.033	-0.016
-257.151	117.192	0.060	0.073
-256.136	-14.412	-0.210	-0.134
-255.122	-200.000	0.038	0.214
-254.107	449.044	0.053	-0.116
-253.092	-200.000	0.027	-0.153
-252.078	-129.012	-0.211	-0.029
-251.063	124.981	-0.152	0.190
-250.049	-200.000	-0.010	0.234
-249.034	-69.065	0.169	0.065
-248.019	160.284	-0.039	0.054
-247.005	238.054	0.184	0.302
-245.990	-131.998	0.013	0.002
-244.976	22.016	0.293	0.237
-243.961	155.364	-0.193	0.263
-242.946	-113.859	0.119	-0.023
-241.932	-23.911	0.140	-0.083
-240.917	800.000	0.063	0.230
-239.903	274.448	0.028	-0.049
-238.888	154.531	-0.217	0.295
-237.873	-91.178	0.333	0.094
-236.859	-113.697	-0.008	-0.001
-235.844	-88.332	0.035	0.010
-234.830	71.509	0.105	0.108
-233.815	-179.531	-0.309	0.007
-232.800	-87.793	-0.510	0.152
-231.786	-200.000	0.063	0.323
-230.771	800.000	-0.052	-0.178
-229.757	241.408	-0.087	0.143
-228.742	444.294	0.128	-0.278
-227.727	800.000	-0.090	-0.278
-226.713	7.002	0.113	0.083
-225.698	-73.044	-0.113	0.041
-224.684	251.627	0.136	-0.229
-223.669	-110.470	-0.245	-0.050
-222.655	-69.010	-0.237	0.090
-221.640	800.000	-0.045	-0.185
-220.625	722.759	0.068	0.180
-219.611	-200.000	-0.022	-0.125
-218.596	28.288	-0.105	0.088
-217.582	-200.000	0.021	-0.423
-216.567	49.871	-0.331	-0.309
-215.552	-111.750	0.090	-0.018
-214.538	-200.000	0.042	0.185
-213.523	-113.013	0.432	0.085
-212.509	-200.000	-0.020	0.179
-211.494	-56.071	0.055	0.024
-210.479	-200.000	0.052	-0.313
-209.465	111.124	-0.205	0.244
-208.450	-11.179	0.234	0.153
-207.436	88.282	-0.066	0.072
-206.421	318.073	0.054	-0.101
-205.406	-119.557	0.284	0.049
-204.392	800.000	-0.040	0.163
-203.377	65.322	0.142	0.142
-202.363	-200.000	0.021	-0.124
-201.348	-170.387	-0.304	-0.011
-200.333	404.306	-0.091	0.189
-199.319	-200.000	-0.015	-0.145
-198.304	213.317	0.293	-0.457
-197.290	-200.000	0.034	-0.217
-196.275	800.000	0.028	0.081
-195.260	-119.379	0.324	0.056
-194.246	-107.813	-0.164	-0.035
-193.231	78.904	0.149	-0.157
-192.217	586.379	-0.148	0.359
-191.202	-200.000	0.026	-0.243
-190.187	-200.000	-0.024	0.325
-189.173	-200.000	0.013	-0.245
-188.158	-200.000	-0.017	-0.425
-187.144	-200.000	-0.031	0.225
-186.129	-57.367	0.134	0.058
-185.114	-51.514	0.187	-0.086
-184.100	94.285	0.166	-0.186
-183.085	239.808	-0.067	0.111
-182.071	445.624	0.138	0.299
-181.056	124.096	0.306	-0.380
-180.042	38.229	-0.205	0.180
-179.027	167.375	-0.228	0.319
-178.012	-32.566	-0.233	0.128
-176.998	-200.000	0.036	0.186
-175.983	-200.000	-0.044	-0.241
-174.969	-100.129	-0.190	-0.047
-173.954	627.636	0.087	-0.217
-172.939	69.838	0.106	0.108
-171.925	740.020	-0.020	0.054
-170.910	272.499	-0.053	-0.092
-169.896	-175.982	-0.316	-0.008
-168.881	39.417	-0.378	-0.334
-167.866	-200.000	-0.029	-0.218
-166.852	78.207	0.266	0.281
-165.837	167.987	0.123	0.173
-164.823	-133.084	-0.103	-0.013
-163.808	-114.173	0.158	-0.030
-162.793	-116.107	-0.346	-0.063
-161.779	-130.144	0.217	0.029
-160.764	-182.331	0.105	-0.002
-159.750	-97.176	0.254	-0.066
-158.735	-200.000	0.008	0.182
-157.720	87.016	-0.083	-0.090
-156.706	14.256	-0.247	0.190
-155.691	-200.000	0.042	-0.292
-154.677	-106.653	0.120	0.026
-153.662	-99.442	0.270	0.067
-152.647	327.374	-0.172	0.326
-151.633	-200.000	0.010	-0.106
-150.618	81.383	-0.068	-0.072
-149.604	693.445	0.080	0.207
-148.589	800.000	-0.038	-0.158
-147.574	-127.522	-0.363	0.052
-146.560	-63.437	-0.078	0.032
-145.545	125.856	-0.176	-0.219
-144.531	-145.322	-0.264	-0.024
-143.516	57.969	0.119	-0.115
-142.502	290.338	0.175	0.314
-141.487	4.883	0.158	-0.115
-140.472	-200.000	-0.003	0.452
-139.458	328.298	0.113	-0.214
-138.443	-104.762	0.209	-0.047
-137.429	-6.177	-0.126	0.085
-136.414	4.576	0.369	0.267
-135.399	18.880	0.393	0.311
-134.385	35.426	0.070	-0.061
-133.370	-168.044	-0.234	-0.009
-132.356	-200.000	-0.008	-0.112
-131.341	515.616	0.064	-0.148
-130.326	-122.271	0.462	0.074
-129.312	800.000	0.020	-0.087
-128.297	50.542	-0.134	-0.125
-127.283	4.994	0.197	0.143
-126.268	147.158	0.089	-0.118
-125.253	63.911	0.168	0.167
-124.239	46.264	-0.139	-0.127
-123.224	162.672	0.123	0.170
-122.210	283.254	-0.099	0.175
-121.195	-134.716	-0.029	0.003
-120.180	-200.000	-0.041	-0.313
