DTS Sentinel unit serial number:	SN413079Multiplexer serial number:	ORYXHardware model number:	OX4-SRSoftware version number:	ORYX F/W v4.00 Oryx Data Collector v3.7.2.0data status	okinstallation	princeton_trtdifferential loss correction	single-endedforward channel	channel 3reverse channel	N/Adate	2019/09/11time	09:10:10forward acquisition time	60.00reverse acquisition time	0.00gamma	496.2192k internal	0.2308k external	0.2308temperature offset calibration	0.9942default loss term (dB/km)	0.3790temperature slope calibration	1.0000multiplexer offset coefficient	1.0000multiplexer slope coefficient	1.0000fibre end	0.00T internal ref (°C)	34.27T ext. ref 1 (°C)	0.12T ext. ref 2 (°C)	30.00length (m)	temperature (°C)	Stokes	anti-Stokes-747.200	87.520	0.055	-0.062
-746.185	-75.516	-0.501	0.181
-745.171	-156.212	-0.054	0.003
-744.156	109.252	-0.197	0.240
-743.142	800.000	0.046	0.193
-742.127	800.000	-0.095	0.272
-741.112	185.581	0.211	-0.319
-740.098	189.779	-0.228	0.348
-739.083	800.000	-0.083	-0.354
-738.069	550.915	-0.134	-0.326
-737.054	-156.551	0.178	-0.011
-736.039	-178.163	0.133	-0.003
-735.025	76.282	-0.131	-0.141
-734.010	-90.571	-0.103	-0.030
-732.996	479.939	-0.063	-0.144
-731.981	76.079	-0.080	-0.087
-730.966	-27.888	-0.221	-0.130
-729.952	-2.849	0.039	0.028
-728.937	135.731	0.237	-0.313
-727.923	-76.683	-0.130	-0.046
-726.908	-97.904	-0.104	-0.027
-725.894	-129.731	-0.131	-0.018
-724.879	98.583	-0.205	-0.241
-723.864	53.213	-0.177	0.172
-722.850	71.347	0.301	0.317
-721.835	-154.968	-0.840	-0.056
-720.821	-81.991	-0.384	0.127
-719.806	-1.005	0.089	0.064
-718.791	-3.169	0.135	0.096
-717.777	-82.696	-0.172	0.057
-716.762	112.227	-0.222	0.273
-715.748	26.742	0.246	0.209
-714.733	-22.495	0.056	0.035
-713.718	90.229	0.163	0.185
-712.704	-62.862	-0.184	0.077
-711.689	401.796	0.141	-0.300
-710.675	-133.198	-0.205	-0.026
-709.660	65.693	0.105	0.108
-708.645	-200.000	-0.009	-0.118
-707.631	585.375	-0.087	0.218
-706.616	-200.000	-0.037	-0.195
-705.602	238.152	0.172	0.290
-704.587	490.190	-0.031	0.073
-703.572	-100.755	-0.250	-0.063
-702.558	-200.000	-0.031	0.212
-701.543	-106.887	0.322	0.072
-700.529	-163.076	0.259	-0.013
-699.514	697.499	0.104	-0.278
-698.499	-200.000	0.001	-0.039
-697.485	800.000	0.032	-0.124
-696.470	-63.199	-0.110	-0.046
-695.456	-200.000	0.013	-0.148
-694.441	800.000	-0.067	-0.217
-693.426	-200.000	-0.000	0.019
-692.412	224.255	-0.221	-0.363
-691.397	42.106	-0.168	0.154
-690.383	517.862	-0.080	-0.191
-689.368	-125.707	-0.222	-0.034
-688.354	-175.760	-0.031	-0.001
-687.339	217.020	0.176	-0.284
-686.324	31.088	0.223	-0.194
-685.310	800.000	0.131	-0.381
-684.295	13.416	0.238	-0.187
-683.281	556.403	-0.050	0.123
-682.266	546.505	0.099	-0.240
-681.251	-56.501	-0.402	-0.181
-680.237	230.663	0.234	0.388
-679.222	9.061	0.176	0.135
-678.208	66.809	-0.233	-0.240
-677.193	-200.000	-0.039	-0.224
-676.178	171.556	0.153	0.222
-675.164	58.374	-0.295	-0.293
-674.149	-35.609	0.157	-0.086
-673.135	-55.606	0.275	0.125
-672.120	225.847	0.006	-0.010
-671.105	577.865	0.080	-0.197
-670.091	-200.000	-0.056	-0.286
-669.076	-200.000	-0.244	0.000
-668.062	-169.204	0.033	0.001
-667.047	-152.884	0.367	-0.026
-666.032	68.087	-0.172	0.178
-665.018	641.059	-0.094	-0.241
-664.003	7.603	-0.350	0.266
-662.989	-50.515	-0.282	-0.135
-661.974	129.065	0.066	-0.086
-660.959	-181.087	-0.231	0.005
-659.945	237.064	0.079	-0.132
-658.930	-200.000	0.045	-0.411
-657.916	28.275	0.320	-0.274
-656.901	800.000	-0.030	0.114
-655.886	-145.120	-0.164	-0.015
-654.872	-90.397	0.073	0.022
-653.857	-200.000	0.017	-0.076
-652.843	432.996	-0.094	-0.206
-651.828	-200.000	-0.022	-0.116
-650.814	51.782	-0.222	-0.213
-649.799	-200.000	0.013	-0.243
-648.784	-40.182	0.306	-0.161
-647.770	192.739	-0.178	0.273
-646.755	220.282	0.078	-0.127
-645.741	-70.298	-0.072	-0.028
-644.726	-15.524	-0.537	-0.347
-643.711	48.316	-0.252	0.239
-642.697	-146.608	0.107	-0.009
-641.682	-162.779	-0.145	0.007
-640.668	-20.606	0.043	0.027
-639.653	-32.358	-0.269	0.152
-638.638	79.980	-0.138	0.150
-637.624	-190.341	0.156	-0.002
-636.609	-200.000	0.003	-0.414
-635.595	549.157	-0.122	-0.295
-634.580	800.000	0.046	0.135
-633.565	-200.000	-0.183	-0.000
-632.551	6.361	0.030	-0.022
-631.536	-118.943	0.229	-0.041
-630.522	260.865	0.117	0.205
-629.507	-166.192	-0.476	-0.020
-628.492	-200.000	-0.051	0.322
-627.478	607.695	0.063	-0.158
-626.463	-200.000	0.000	-0.107
-625.449	39.276	0.148	-0.134
-624.434	-27.412	0.246	0.145
-623.419	296.597	-0.083	-0.154
-622.405	433.498	0.157	-0.345
-621.390	-158.351	-0.084	0.005
-620.376	-149.574	0.220	-0.018
-619.361	54.435	-0.238	0.232
-618.346	-46.849	-0.303	-0.150
-617.332	150.581	0.294	-0.405
-616.317	-13.904	0.133	0.087
-615.303	800.000	-0.053	0.224
-614.288	233.850	-0.148	-0.247
-613.273	90.087	0.146	0.165
-612.259	21.898	-0.153	-0.126
-611.244	800.000	-0.051	-0.165
-610.230	-146.062	-0.011	-0.001
-609.215	266.227	0.031	-0.055
-608.201	-200.000	-0.229	0.001
-607.186	-29.202	-0.202	0.117
-606.171	-21.579	0.103	-0.064
-605.157	305.040	-0.067	0.126
-604.142	74.948	0.241	-0.256
-603.128	-46.282	-0.178	-0.088
-602.113	38.620	0.201	0.181
-601.098	800.000	-0.054	0.156
-600.084	-67.194	-0.090	0.036
-599.069	73.481	-0.179	-0.190
-598.055	16.546	-0.210	0.168
-597.040	-4.338	-0.121	0.085
-596.025	-101.432	0.120	-0.029
-595.011	-12.019	-0.148	-0.098
-593.996	800.000	-0.064	-0.188
-592.982	-143.653	0.169	-0.016
-591.967	412.613	-0.134	0.287
-590.952	-163.943	-0.399	-0.019
-589.938	107.192	-0.251	-0.301
-588.923	-77.855	0.227	0.079
-587.909	-200.000	0.007	0.106
-586.894	-97.616	-0.191	0.050
-585.879	-136.771	-0.219	0.025
-584.865	-145.577	0.096	-0.009
-583.850	-189.548	0.171	0.002
-582.836	-14.946	-0.100	0.065
-581.821	-92.486	0.246	-0.070
-580.806	-46.648	-0.256	0.127
-579.792	-177.006	0.248	-0.006
-578.777	197.542	0.168	0.259
-577.763	9.335	-0.229	-0.175
-576.748	2.141	0.236	-0.172
-575.733	-98.144	-0.383	-0.099
-574.719	-45.449	0.070	-0.035
-573.704	800.000	-0.043	-0.174
-572.690	-200.000	0.047	0.411
-571.675	-29.200	-0.013	-0.008
-570.661	61.607	0.090	-0.090
-569.646	800.000	-0.063	0.191
-568.631	158.102	-0.364	0.509
-567.617	509.480	-0.009	-0.022
-566.602	800.000	0.077	-0.228
-565.588	14.480	0.249	0.197
-564.573	-200.000	-0.025	-0.283
-563.558	268.911	0.147	0.261
-562.544	425.698	-0.086	0.187
-561.529	800.000	-0.089	0.260
-560.515	168.614	-0.084	-0.121
-559.500	151.990	0.097	0.134
-558.485	800.000	0.019	0.068
-557.471	-58.854	0.144	-0.063
-556.456	-71.614	0.268	-0.101
-555.442	-55.958	0.082	-0.037
-554.427	-39.365	-0.116	-0.062
-553.412	62.349	0.186	-0.187
-552.398	-200.000	0.005	0.026
-551.383	800.000	0.069	-0.218
-550.369	48.920	-0.125	0.119
-549.354	-200.000	0.002	0.220
-548.339	-110.892	-0.249	-0.052
-547.325	-200.000	0.002	-0.320
-546.310	-100.735	0.402	0.100
-545.296	19.790	-0.255	-0.207
-544.281	11.420	-0.209	0.162
-543.266	719.660	-0.090	-0.240
-542.252	-51.715	0.187	-0.088
-541.237	-51.863	-0.108	0.051
-540.223	-87.336	-0.373	0.114
-539.208	418.526	-0.017	0.037
-538.193	104.729	0.125	0.148
-537.179	34.581	0.169	0.149
-536.164	146.816	-0.150	-0.203
-535.150	5.045	-0.073	-0.054
-534.135	30.114	0.112	0.096
-533.121	-86.177	0.246	0.076
-532.106	800.000	0.044	0.130
-531.091	800.000	0.064	-0.241
-530.077	800.000	-0.059	-0.201
-529.062	800.000	-0.038	0.147
-528.048	-88.296	0.299	-0.090
-527.033	161.164	0.249	0.351
-526.018	800.000	0.041	0.128
-525.004	-169.956	0.200	0.007
-523.989	-45.814	0.103	0.052
-522.975	-141.059	-0.166	0.017
-521.960	-136.015	0.366	-0.043
-520.945	800.000	0.144	0.419
-519.931	-58.897	-0.147	0.064
-518.916	-68.842	-0.402	0.156
-517.902	-139.772	-0.235	-0.025
-516.887	18.296	-0.193	-0.156
-515.872	303.444	0.064	0.119
-514.858	-140.295	0.051	-0.005
-513.843	-101.702	-0.186	-0.045
-512.829	147.060	-0.065	0.088
-511.814	27.071	0.293	0.247
-510.799	216.837	-0.149	0.238
-509.785	-200.000	-0.015	0.207
-508.770	-131.853	0.163	0.021
-507.756	-14.281	-0.189	-0.123
-506.741	-128.036	0.339	-0.049
-505.726	-51.209	-0.317	-0.150
-504.712	800.000	-0.089	-0.376
-503.697	235.996	0.028	-0.046
-502.683	204.326	0.169	0.263
-501.668	94.580	-0.209	-0.239
-500.653	-200.000	0.066	-0.342
-499.639	462.133	0.079	-0.178
-498.624	-200.000	-0.003	-0.061
-497.610	800.000	-0.083	-0.306
-496.595	-137.209	0.222	0.025
-495.581	404.860	-0.073	0.155
-494.566	-79.671	-0.334	0.113
-493.551	-200.000	-0.036	-0.204
-492.537	95.988	-0.173	0.199
-491.522	800.000	-0.073	-0.242
-490.508	-200.000	0.000	-0.191
-489.493	112.588	0.158	-0.193
-488.478	-200.000	-0.012	0.109
-487.464	584.963	-0.135	-0.334
-486.449	449.683	0.179	-0.397
-485.435	-44.347	0.210	-0.106
-484.420	341.836	0.092	0.180
-483.405	-3.837	-0.284	0.198
-482.391	-107.623	0.360	0.079
-481.376	-93.539	0.046	-0.013
-480.362	290.804	0.146	-0.266
-479.347	-46.085	0.247	-0.122
-478.332	-158.595	0.462	0.027
-477.318	-53.450	-0.339	-0.156
-476.303	42.515	-0.149	-0.136
-475.289	459.166	0.204	0.457
-474.274	-200.000	-0.066	0.562
-473.259	-200.000	0.028	0.560
-472.245	56.162	0.126	0.123
-471.230	87.765	0.115	0.128
-470.216	275.111	0.160	0.285
-469.201	181.245	0.066	-0.097
-468.186	7.077	-0.077	0.057
-467.172	344.540	-0.132	-0.260
-466.157	348.060	0.083	0.165
-465.143	-200.000	0.044	0.222
-464.128	-169.991	-0.246	-0.009
-463.113	-73.968	0.223	-0.082
-462.099	372.351	0.112	-0.229
-461.084	-200.000	0.008	-0.349
-460.070	800.000	-0.076	0.214
-459.055	560.282	-0.106	-0.257
-458.040	208.461	0.140	-0.221
-457.026	747.460	-0.080	0.215
-456.011	800.000	-0.040	-0.163
-454.997	-200.000	0.070	-0.384
-453.982	-124.342	-0.098	0.015
-452.968	23.010	0.130	0.107
-451.953	-29.200	-0.181	0.104
-450.938	800.000	0.062	-0.188
-449.924	-72.082	0.299	0.112
-448.909	-200.000	0.008	-0.174
-447.895	800.000	-0.028	0.109
-446.880	-121.947	0.036	-0.006
-445.865	92.002	-0.123	0.139
-444.851	-54.909	0.150	0.068
-443.836	180.802	-0.170	-0.250
-442.822	-200.000	0.002	-0.113
-441.807	800.000	0.074	-0.207
-440.792	-77.501	0.214	0.074
-439.778	-14.622	-0.096	-0.062
-438.763	138.502	0.146	0.193
-437.749	-5.520	-0.112	-0.077
-436.734	-200.000	0.056	0.336
-435.719	49.412	-0.378	-0.357
-434.705	112.398	0.304	-0.369
-433.690	-185.930	-0.085	0.001
-432.676	-151.677	-0.011	-0.001
-431.661	-154.748	0.104	-0.007
-430.646	7.330	0.086	0.064
-429.632	29.997	0.147	-0.126
-428.617	29.461	-0.201	0.172
-427.603	265.859	0.105	0.185
-426.588	-139.012	-0.261	0.028
-425.573	-81.910	-0.235	0.077
-424.559	118.899	0.191	-0.237
-423.544	-52.026	0.175	0.081
-422.530	-200.000	-0.012	0.208
-421.515	-70.932	0.139	-0.053
-420.500	202.486	-0.140	0.216
-419.486	31.758	0.182	0.157
-418.471	800.000	-0.036	-0.131
-417.457	-200.000	-0.008	-0.077
-416.442	642.993	0.114	0.292
-415.428	800.000	-0.092	0.273
-414.413	201.381	0.098	-0.152
-413.398	608.012	-0.071	0.177
-412.384	-186.805	-0.070	-0.001
-411.369	185.063	0.149	0.222
-410.355	209.315	0.148	-0.232
-409.340	-158.156	-0.042	-0.002
-408.325	-200.000	0.006	-0.050
-407.311	11.553	-0.102	0.078
-406.296	-151.152	-0.129	-0.010
-405.282	126.038	-0.177	0.225
-404.267	30.405	0.239	-0.205
-403.252	-29.686	0.330	-0.189
-402.238	-200.000	0.013	-0.173
-401.223	-136.501	-0.191	0.022
-400.209	198.029	0.102	0.156
-399.194	-30.241	0.100	-0.057
-398.179	13.247	-0.286	-0.222
-397.165	-4.171	-0.048	0.033
-396.150	-13.261	0.154	0.100
-395.136	493.603	0.165	-0.379
-394.121	-100.072	0.051	-0.013
-393.106	-123.730	0.453	-0.072
-392.092	113.380	-0.211	-0.257
-391.077	151.484	-0.023	0.031
-390.063	-200.000	-0.026	0.170
-389.048	-200.000	-0.021	0.201
-388.033	-77.450	-0.247	0.086
-387.019	800.000	0.078	-0.238
-386.004	54.536	0.024	0.023
-384.990	-125.706	-0.310	0.047
-383.975	271.683	0.059	-0.104
-382.960	22.728	0.141	0.116
-381.946	800.000	0.090	-0.337
-380.931	-64.532	-0.149	-0.061
-379.917	-200.000	0.012	0.072
-378.902	-45.694	0.205	-0.102
-377.888	54.313	0.182	-0.175
-376.873	-144.717	-0.147	-0.014
-375.858	-200.000	-0.305	-0.001
-374.844	-122.751	-0.063	-0.010
-373.829	30.743	0.277	0.237
-372.815	138.086	0.220	0.289
-371.800	54.312	-0.200	0.193
-370.785	282.869	0.098	0.176
-369.771	320.301	-0.270	-0.513
-368.756	-106.802	-0.393	-0.087
-367.742	800.000	0.105	-0.300
-366.727	800.000	-0.079	-0.258
-365.712	-46.337	-0.148	0.073
-364.698	43.625	0.338	0.309
-363.683	800.000	0.079	0.285
-362.669	231.386	-0.203	0.334
-361.654	-200.000	0.002	0.083
-360.639	52.565	-0.130	0.124
-359.625	-14.464	0.201	0.129
-358.610	-136.482	0.026	-0.003
-357.596	-200.000	-0.055	0.289
-356.581	38.796	-0.164	-0.147
-355.566	-38.447	0.140	0.074
-354.552	27.486	0.227	-0.191
-353.537	-37.574	-0.196	-0.104
-352.523	-200.000	-0.060	-0.264
-351.508	-61.239	0.260	0.110
-350.493	113.728	-0.142	-0.173
-349.479	-200.000	-0.085	-0.000
-348.464	374.728	0.103	-0.209
-347.450	172.261	-0.030	-0.043
-346.435	-44.231	0.187	0.094
-345.420	-168.017	0.241	-0.009
-344.406	336.433	0.120	-0.232
-343.391	-62.870	-0.357	-0.148
-342.377	-200.000	-0.024	-0.126
-341.362	-108.686	0.361	-0.078
-340.348	-29.241	0.109	0.063
-339.333	-136.322	-0.118	-0.014
-338.318	424.273	0.115	-0.247
-337.304	104.768	0.209	-0.247
-336.289	-200.000	0.071	-0.519
-335.275	294.608	0.109	-0.200
-334.260	-159.560	0.060	0.003
-333.245	100.380	0.115	0.133
-332.231	123.009	0.098	0.123
-331.216	800.000	0.058	-0.166
-330.202	293.811	0.181	0.331
-329.187	-196.059	-0.352	-0.002
-328.172	-82.726	-0.168	-0.054
-327.158	-106.857	-0.221	0.049
-326.143	-35.223	-0.046	0.025
-325.129	9.341	0.203	-0.154
-324.114	-22.609	-0.080	-0.048
-323.099	-51.204	-0.387	-0.181
-322.085	-67.417	-0.468	0.184
-321.070	-200.000	0.007	0.206
-320.056	396.727	-0.045	-0.095
-319.041	271.566	-0.064	0.112
-318.026	713.752	0.054	0.143
-317.012	-200.000	-0.017	-0.287
-315.997	-133.337	-0.108	0.014
-314.983	-24.819	-0.300	-0.178
-313.968	-200.000	-0.013	0.076
-312.953	184.924	-0.183	-0.271
-311.939	-111.783	-0.417	0.084
-310.924	-43.368	0.077	-0.039
-309.910	-149.120	0.299	0.024
-308.895	278.645	0.071	-0.126
-307.880	662.621	0.075	0.193
-306.866	80.221	-0.167	-0.179
-305.851	577.077	0.033	0.080
-304.837	-58.369	-0.082	-0.036
-303.822	-91.458	-0.212	-0.060
-302.807	37.676	-0.058	0.051
-301.793	-101.358	-0.337	0.082
-300.778	17.303	-0.104	-0.083
-299.764	30.985	0.082	-0.071
-298.749	236.472	0.099	-0.163
-297.735	251.592	-0.210	0.356
-296.720	21.202	-0.448	-0.364
-295.705	174.065	-0.031	-0.045
-294.691	265.144	0.289	0.503
-293.676	-57.842	-0.141	-0.062
-292.662	-25.752	-0.153	-0.090
-291.647	-107.859	0.336	-0.073
-290.632	-200.000	-0.026	0.237
-289.618	557.278	-0.114	-0.274
-288.603	-74.560	-0.077	-0.028
-287.589	158.147	0.242	-0.335
-286.574	-55.272	-0.203	0.091
-285.559	800.000	0.052	0.205
-284.545	163.156	0.210	0.295
-283.530	-200.000	-0.005	-0.119
-282.516	203.579	-0.054	-0.083
-281.501	4.673	-0.210	-0.154
-280.486	153.775	-0.131	-0.179
-279.472	-78.039	0.133	0.046
-278.457	63.576	-0.163	0.163
-277.443	800.000	-0.103	-0.336
-276.428	26.280	-0.095	0.080
-275.413	13.276	0.246	0.190
-274.399	-103.471	0.267	0.063
-273.384	11.939	-0.247	-0.190
-272.370	-200.000	-0.060	0.296
-271.355	-158.809	-0.246	0.014
-270.340	-200.000	0.013	0.348
-269.326	-149.230	-0.003	-0.000
-268.311	56.924	0.173	0.168
-267.297	-128.288	0.198	-0.028
-266.282	-77.915	0.205	-0.071
-265.267	-200.000	-0.018	-0.223
-264.253	-134.996	0.403	-0.049
-263.238	-134.650	-0.200	0.024
-262.224	18.941	0.345	-0.276
-261.209	50.212	0.207	0.195
-260.195	-62.595	0.269	0.111
-259.180	-103.224	-0.012	-0.003
-258.165	-200.000	0.030	-0.266
-257.151	-126.121	-0.367	0.055
-256.136	-82.964	0.197	0.063
-255.122	-80.259	0.036	-0.012
-254.107	203.968	0.187	-0.289
-253.092	253.352	-0.092	-0.157
-252.078	513.336	0.125	-0.290
-251.063	-22.371	0.123	-0.074
-250.049	-14.547	0.157	-0.100
-249.034	-2.461	-0.133	0.093
-248.019	-200.000	-0.027	-0.138
-247.005	104.528	-0.246	-0.289
-245.990	800.000	0.084	0.346
-244.976	-51.440	0.203	0.094
-243.961	-200.000	0.253	-0.001
-242.946	800.000	-0.072	0.239
-241.932	-200.000	-0.051	-0.271
-240.917	-30.382	-0.230	0.130
-239.903	-109.550	0.288	-0.061
-238.888	292.466	0.042	0.076
-237.873	-200.000	0.032	-0.275
-236.859	-95.886	0.153	-0.041
-235.844	-89.182	0.239	0.070
-234.830	-200.000	-0.640	-0.001
-233.815	516.615	0.113	0.263
-232.800	-74.159	-0.150	0.054
-231.786	20.479	0.157	0.127
-230.771	-16.021	0.239	0.151
-229.757	169.059	-0.130	0.185
-228.742	-81.815	0.253	-0.083
-227.727	-200.000	-0.018	-0.372
-226.713	337.235	-0.231	0.448
-225.698	-200.000	-0.023	-0.215
-224.684	26.852	0.109	-0.091
-223.669	40.588	0.459	0.412
-222.655	-50.803	-0.274	0.129
-221.640	71.183	-0.201	-0.207
-220.625	548.868	0.116	-0.276
-219.611	800.000	0.041	0.147
-218.596	-129.544	0.124	-0.017
-217.582	800.000	-0.168	0.463
-216.567	-147.514	0.347	0.029
-215.552	-98.708	-0.132	-0.034
-214.538	55.283	0.143	0.138
-213.523	45.269	-0.070	0.065
-212.509	-200.000	0.010	0.364
-211.494	32.518	-0.239	0.205
-210.479	70.933	-0.184	0.190
-209.465	-148.305	0.093	0.008
-208.450	800.000	0.075	-0.313
-207.436	230.491	0.156	-0.254
-206.421	-13.708	0.213	0.137
-205.406	-200.000	-0.035	-0.154
-204.392	2.459	-0.118	0.085
-203.377	-105.190	-0.058	0.013
-202.363	-200.000	0.010	0.100
-201.348	800.000	-0.097	0.321
-200.333	131.785	-0.137	-0.176
-199.319	-115.448	0.334	0.063
-198.304	231.621	0.243	0.397
-197.290	-200.000	-0.049	0.279
-196.275	57.918	-0.240	-0.233
-195.260	-114.137	-0.091	0.018
-194.246	-136.623	0.409	-0.047
-193.231	-138.990	-0.237	0.026
-192.217	248.703	0.135	0.227
-191.202	77.791	0.172	0.182
-190.187	-70.837	0.247	0.092
-189.173	-74.532	-0.104	0.037
-188.158	451.376	-0.045	0.099
-187.144	-44.550	0.175	-0.087
-186.129	-200.000	0.013	-0.071
-185.114	704.640	0.047	-0.124
-184.100	-86.543	-0.343	0.105
-183.085	151.948	-0.212	0.287
-182.071	642.605	-0.070	0.177
-181.056	800.000	-0.040	0.127
-180.042	507.156	-0.055	0.126
-179.027	-185.046	0.270	0.004
-178.012	800.000	-0.077	-0.276
-176.998	344.011	0.051	0.099
-175.983	148.915	0.231	0.310
-174.969	149.452	-0.108	0.145
-173.954	800.000	-0.099	0.273
-172.939	-200.000	0.006	0.144
-171.925	-71.602	-0.108	-0.040
-170.910	583.079	0.104	-0.254
-169.896	134.674	-0.130	-0.168
-168.881	-200.000	-0.074	0.383
-167.866	-200.000	0.031	-0.238
-166.852	-112.670	0.229	-0.045
-165.837	-4.697	-0.148	-0.101
-164.823	-42.506	-0.166	0.084
-163.808	800.000	-0.105	-0.299
-162.793	-200.000	0.054	0.457
-161.779	-68.652	0.185	0.071
-160.764	31.282	0.113	0.097
-159.750	-48.615	0.282	-0.135
-158.735	6.598	0.085	0.063
-157.720	-41.204	-0.394	0.202
-156.706	-200.000	0.013	-0.398
-155.691	20.348	-0.225	-0.180
-154.677	-62.403	-0.210	0.087
-153.662	33.917	0.143	-0.124
-152.647	-200.000	0.018	0.246
-151.633	-34.645	0.068	-0.037
-150.618	-73.568	0.110	0.040
-149.604	800.000	-0.081	-0.229
-148.589	235.409	0.089	0.146
-147.574	274.343	-0.178	0.313
-146.560	-6.279	0.136	0.092
-145.545	-45.762	-0.398	0.195
-144.531	-84.245	0.216	0.068
-143.516	25.002	-0.045	0.037
-142.502	230.035	0.109	0.177
-141.487	-66.114	-0.312	0.123
-140.472	-200.000	0.027	-0.381
-139.458	-18.750	-0.140	-0.086
-138.443	800.000	-0.056	-0.220
-137.429	800.000	-0.014	-0.060
-136.414	800.000	0.013	0.042
-135.399	297.310	-0.058	-0.106
-134.385	110.261	-0.132	-0.158
-133.370	37.790	-0.017	-0.015
-132.356	-122.684	0.144	0.023
-131.341	-102.678	0.176	-0.042
-130.326	800.000	-0.035	0.111
-129.312	800.000	0.048	0.199
-128.297	-200.000	-0.025	0.208
-127.283	800.000	0.072	-0.236
-126.268	23.533	-0.198	-0.162
-125.253	-58.922	-0.026	-0.011
-124.239	800.000	0.055	0.154
-123.224	-57.833	0.312	-0.135
-122.210	-66.360	-0.389	-0.154
-121.195	36.941	-0.310	0.272
