DTS Sentinel unit serial number:	SN413079Multiplexer serial number:	ORYXHardware model number:	OX4-SRSoftware version number:	ORYX F/W v4.00 Oryx Data Collector v3.7.2.0data status	okinstallation	princeton_trtdifferential loss correction	single-endedforward channel	channel 3reverse channel	N/Adate	2019/09/10time	19:30:11forward acquisition time	60.00reverse acquisition time	0.00gamma	496.2192k internal	0.2319k external	0.2319temperature offset calibration	0.9915default loss term (dB/km)	0.3790temperature slope calibration	1.0000multiplexer offset coefficient	1.0000multiplexer slope coefficient	1.0000fibre end	0.00T internal ref (°C)	33.48T ext. ref 1 (°C)	-0.38T ext. ref 2 (°C)	26.08length (m)	temperature (°C)	Stokes	anti-Stokes-747.200	800.000	-0.052	0.221
-746.185	246.717	-0.170	0.290
-745.171	-138.745	0.115	0.013
-744.156	-18.080	0.151	0.096
-743.142	-82.388	0.408	-0.134
-742.127	648.271	-0.175	0.453
-741.112	135.212	-0.029	0.038
-740.098	276.330	-0.260	0.466
-739.083	-49.453	-0.243	-0.117
-738.069	-29.416	-0.185	-0.107
-737.054	800.000	-0.129	0.369
-736.039	-78.576	-0.159	0.055
-735.025	-63.142	0.428	0.179
-734.010	78.413	-0.106	0.114
-732.996	178.202	-0.108	0.160
-731.981	-113.439	-0.167	0.033
-730.966	586.021	0.117	0.291
-729.952	-94.464	-0.054	0.015
-728.937	-110.323	-0.151	-0.032
-727.923	800.000	0.092	0.276
-726.908	-179.840	0.524	-0.011
-725.894	20.190	-0.093	-0.076
-724.879	-114.607	-0.333	0.064
-723.864	-11.759	0.111	0.074
-722.850	84.658	0.168	0.186
-721.835	133.771	-0.188	-0.246
-720.821	62.986	-0.087	-0.088
-719.806	39.838	-0.167	-0.151
-718.791	-102.878	0.205	0.049
-717.777	-124.906	-0.076	-0.012
-716.762	800.000	-0.109	-0.347
-715.748	-83.308	0.025	-0.008
-714.733	553.923	0.118	-0.287
-713.718	260.343	0.128	-0.224
-712.704	800.000	-0.054	0.207
-711.689	-181.032	0.192	0.004
-710.675	-82.821	0.103	-0.034
-709.660	573.026	-0.016	-0.041
-708.645	233.863	-0.191	0.318
-707.631	-70.003	0.343	-0.132
-706.616	409.937	0.176	-0.377
-705.602	56.147	0.301	-0.296
-704.587	129.967	0.072	-0.093
-703.572	88.841	0.081	0.091
-702.558	-200.000	0.005	0.076
-701.543	-134.653	0.178	0.022
-700.529	0.160	0.230	0.165
-699.514	-91.014	0.070	0.020
-698.499	-200.000	-0.012	-0.126
-697.485	-129.764	0.171	-0.024
-696.470	-160.568	0.217	-0.012
-695.456	63.146	-0.097	-0.098
-694.441	-180.758	0.538	-0.011
-693.426	186.250	-0.071	-0.107
-692.412	-173.102	-0.046	-0.001
-691.397	738.529	-0.033	0.090
-690.383	-92.683	-0.274	-0.078
-689.368	-125.839	-0.289	-0.044
-688.354	-103.682	0.282	-0.067
-687.339	-16.752	0.227	-0.145
-686.324	-97.199	-0.037	0.010
-685.310	-146.826	0.270	0.023
-684.295	-33.052	-0.133	0.074
-683.281	-160.317	-0.377	0.021
-682.266	204.360	-0.035	0.055
-681.251	-138.676	-0.289	0.032
-680.237	-32.676	0.312	0.175
-679.222	-59.294	-0.457	0.199
-678.208	10.778	-0.095	-0.074
-677.193	-183.967	0.124	0.002
-676.178	-200.000	0.018	-0.196
-675.164	111.653	0.080	-0.097
-674.149	-43.239	-0.264	0.135
-673.135	-11.945	0.096	-0.063
-672.120	800.000	0.007	0.029
-671.105	-108.172	0.160	-0.035
-670.091	-42.053	-0.187	0.096
-669.076	147.773	0.066	-0.090
-668.062	-111.646	0.179	-0.037
-667.047	61.195	-0.129	-0.130
-666.032	800.000	-0.024	-0.106
-665.018	68.353	-0.180	-0.186
-664.003	800.000	-0.103	0.319
-662.989	-94.446	-0.119	-0.033
-661.974	-22.203	-0.133	-0.082
-660.959	114.980	0.202	-0.248
-659.945	-34.372	-0.245	-0.135
-658.930	-117.330	-0.231	-0.042
-657.916	381.838	-0.072	-0.149
-656.901	800.000	-0.041	0.158
-655.886	56.736	0.102	-0.100
-654.872	-200.000	-0.009	0.152
-653.857	84.608	-0.129	0.142
-652.843	504.007	-0.092	0.214
-651.828	-180.236	-0.093	0.002
-650.814	-13.106	0.113	-0.074
-649.799	-148.469	-0.180	0.015
-648.784	-111.295	-0.338	-0.070
-647.770	179.336	-0.085	-0.125
-646.755	-139.789	-0.343	0.037
-645.741	760.714	-0.090	-0.246
-644.726	-81.852	0.017	0.006
-643.711	642.416	0.144	0.370
-642.697	163.608	0.109	-0.154
-641.682	-0.255	0.063	0.045
-640.668	-65.476	-0.197	-0.080
-639.653	-200.000	0.011	-0.160
-638.638	-200.000	0.004	0.147
-637.624	159.801	0.107	0.150
-636.609	52.906	0.118	-0.114
-635.595	-200.000	0.002	-0.078
-634.580	98.423	-0.268	-0.311
-633.565	800.000	0.072	-0.268
-632.551	492.559	0.058	0.134
-631.536	-27.355	0.069	0.041
-630.522	38.970	0.132	0.118
-629.507	800.000	-0.030	0.122
-628.492	53.968	0.073	0.070
-627.478	130.649	0.152	0.196
-626.463	-200.000	-0.050	0.285
-625.449	-3.401	-0.466	0.326
-624.434	-127.090	-0.197	-0.029
-623.419	296.337	0.014	-0.027
-622.405	503.306	-0.128	-0.298
-621.390	383.746	0.104	-0.216
-620.376	-60.862	0.049	-0.021
-619.361	-61.703	-0.197	0.083
-618.346	-115.956	0.264	-0.050
-617.332	369.394	0.109	0.222
-616.317	-68.074	-0.275	0.108
-615.303	-200.000	0.019	0.128
-614.288	800.000	0.093	0.328
-613.273	-11.770	0.243	0.161
-612.259	-133.433	-0.146	0.018
-611.244	-200.000	0.005	0.042
-610.230	-191.351	0.127	-0.001
-609.215	186.996	-0.127	0.190
-608.201	-58.286	-0.238	-0.104
-607.186	31.180	0.161	-0.139
-606.171	23.754	-0.078	-0.065
-605.157	366.544	-0.085	0.173
-604.142	-200.000	-0.003	-0.231
-603.128	48.841	0.194	0.183
-602.113	-130.451	-0.141	-0.019
-601.098	-29.224	-0.240	0.138
-600.084	-200.000	-0.040	-0.279
-599.069	15.481	0.140	0.110
-598.055	0.182	0.098	0.071
-597.040	-136.420	0.318	0.037
-596.025	-52.043	-0.241	-0.113
-595.011	800.000	-0.134	0.402
-593.996	224.447	0.086	0.140
-592.982	181.512	-0.089	-0.132
-591.967	-200.000	-0.081	-0.409
-590.952	433.856	0.082	-0.180
-589.938	364.608	0.076	-0.154
-588.923	-62.134	-0.102	0.043
-587.909	-186.102	-0.169	-0.002
-586.894	-54.203	-0.217	-0.099
-585.879	-24.031	-0.016	0.009
-584.865	-71.601	0.019	0.007
-583.850	589.496	-0.110	0.273
-582.836	590.370	0.054	0.135
-581.821	-136.121	-0.324	0.038
-580.806	-1.546	-0.106	0.075
-579.792	800.000	-0.080	0.314
-578.777	32.086	0.073	-0.063
-577.763	713.350	0.087	-0.231
-576.748	-139.939	-0.514	-0.055
-575.733	-102.661	0.373	0.089
-574.719	-52.285	-0.181	0.084
-573.704	-200.000	0.003	0.118
-572.690	-174.416	-0.147	-0.004
-571.675	-91.431	0.186	0.053
-570.661	-21.083	-0.193	0.119
-569.646	391.671	0.094	-0.196
-568.631	4.559	-0.130	-0.096
-567.617	127.701	-0.098	0.125
-566.602	-200.000	-0.070	-0.358
-565.588	-100.270	-0.247	0.062
-564.573	-49.392	-0.190	-0.091
-563.558	-120.851	-0.176	-0.030
-562.544	800.000	-0.010	-0.036
-561.529	210.505	0.208	0.329
-560.515	-37.858	-0.296	0.158
-559.500	92.400	0.180	-0.204
-558.485	-43.646	0.324	-0.164
-557.471	800.000	0.115	-0.352
-556.456	140.353	0.051	-0.068
-555.442	800.000	0.080	0.288
-554.427	132.372	-0.121	-0.157
-553.412	-151.719	-0.345	-0.025
-552.398	-126.490	-0.240	0.036
-551.383	350.003	-0.328	0.650
-550.369	-111.714	-0.428	-0.087
-549.354	800.000	0.047	-0.182
-548.339	269.105	-0.038	-0.068
-547.325	190.129	-0.073	-0.110
-546.310	5.703	-0.063	-0.047
-545.296	-145.873	0.337	-0.030
-544.281	-196.131	-0.176	0.001
-543.266	-168.038	0.118	0.005
-542.252	-79.005	0.429	-0.147
-541.237	19.175	-0.085	0.068
-540.223	-50.591	-0.239	0.113
-539.208	165.078	0.133	-0.189
-538.193	66.098	-0.032	-0.033
-537.179	-183.875	0.479	-0.008
-536.164	-67.617	-0.444	0.175
-535.150	-200.000	-0.051	-0.417
-534.135	-4.455	0.343	0.238
-533.121	-1.113	0.146	0.103
-532.106	800.000	-0.075	0.217
-531.091	-127.091	0.374	-0.055
-530.077	-171.859	-0.311	-0.010
-529.062	-200.000	0.059	0.303
-528.048	-41.490	-0.266	-0.137
-527.033	276.916	0.146	-0.260
-526.018	626.543	-0.124	0.315
-525.004	-26.701	-0.420	0.246
-523.989	97.555	-0.105	0.121
-522.975	800.000	-0.035	-0.127
-521.960	-200.000	0.003	-0.036
-520.945	-96.135	-0.088	-0.024
-519.931	477.942	-0.102	-0.232
-518.916	125.878	-0.210	-0.267
-517.902	-105.582	-0.092	-0.021
-516.887	329.674	0.114	0.219
-515.872	-19.174	0.024	0.015
-514.858	231.684	-0.058	-0.095
-513.843	108.502	0.066	-0.079
-512.829	113.247	0.077	0.094
-511.814	-200.000	-0.067	-0.348
-510.799	-54.576	-0.100	0.046
-509.785	-200.000	-0.012	0.221
-508.770	-115.880	0.513	-0.096
-507.756	106.914	0.180	0.214
-506.741	257.209	0.156	-0.269
-505.726	242.033	-0.150	0.251
-504.712	13.111	0.194	0.151
-503.697	229.594	0.044	0.072
-502.683	-154.073	0.453	-0.031
-501.668	3.014	-0.150	0.109
-500.653	-200.000	0.013	0.067
-499.639	-113.419	0.302	0.059
-498.624	800.000	-0.045	0.186
-497.610	38.019	-0.172	-0.153
-496.595	43.259	0.086	0.079
-495.581	535.958	-0.045	-0.108
-494.566	56.756	-0.057	-0.055
-493.551	-87.806	-0.173	-0.052
-492.537	-93.743	0.027	0.007
-491.522	378.101	0.127	0.260
-490.508	800.000	0.081	0.293
-489.493	0.171	-0.169	0.121
-488.478	-38.751	0.221	0.117
-487.464	39.329	0.138	0.124
-486.449	-63.237	-0.160	0.066
-485.435	-84.675	-0.074	0.023
-484.420	-149.702	-0.223	0.018
-483.405	-95.851	0.180	-0.048
-482.391	-118.095	-0.098	0.018
-481.376	280.161	-0.105	0.188
-480.362	800.000	-0.129	0.482
-479.347	-200.000	-0.017	0.214
-478.332	22.053	-0.309	0.253
-477.318	257.706	0.131	0.226
-476.303	326.381	0.109	-0.209
-475.289	-39.654	-0.298	-0.156
-474.274	520.758	0.096	0.226
-473.259	-122.116	0.091	-0.015
-472.245	-198.398	-0.304	-0.002
-471.230	-137.342	0.363	-0.041
-470.216	229.328	0.050	0.082
-469.201	800.000	-0.017	-0.067
-468.186	-200.000	-0.036	-0.163
-467.172	-200.000	-0.101	-0.526
-466.157	800.000	-0.059	-0.239
-465.143	35.305	0.104	0.091
-464.128	185.038	0.190	-0.283
-463.113	-16.031	-0.208	-0.132
-462.099	-200.000	-0.015	-0.167
-461.084	178.760	0.164	-0.240
-460.070	-198.641	-0.417	-0.002
-459.055	-31.030	-0.085	0.048
-458.040	-72.752	-0.105	0.039
-457.026	-30.602	0.154	0.087
-456.011	130.660	-0.184	0.236
-454.997	182.295	0.050	0.074
-453.982	-117.106	0.053	0.010
-452.968	204.038	0.137	0.212
-451.953	448.684	-0.033	0.074
-450.938	176.308	0.155	-0.225
-449.924	39.830	-0.091	0.082
-448.909	391.398	0.099	-0.205
-447.895	800.000	0.068	0.261
-446.880	-200.000	-0.038	0.218
-445.865	-200.000	-0.024	0.168
-444.851	191.214	-0.087	0.130
-443.836	-90.679	0.348	-0.100
-442.822	268.961	0.087	-0.153
-441.807	-200.000	-0.012	-0.296
-440.792	-187.120	0.123	0.002
-439.778	-156.175	-0.453	0.029
-438.763	440.790	0.072	0.156
-437.749	-53.106	-0.118	0.054
-436.734	-173.873	0.233	0.007
-435.719	800.000	-0.057	0.164
-434.705	175.913	-0.099	0.144
-433.690	210.331	0.124	0.195
-432.676	-64.369	0.094	0.038
-431.661	60.657	0.238	0.236
-430.646	-200.000	0.059	-0.292
-429.632	38.168	-0.156	-0.139
-428.617	800.000	0.083	-0.358
-427.603	316.023	-0.131	0.248
-426.588	33.923	-0.124	0.107
-425.573	-24.794	0.199	-0.118
-424.559	-47.582	0.145	-0.070
-423.544	101.231	-0.346	0.402
-422.530	-39.594	0.230	0.120
-421.515	-147.790	0.030	-0.002
-420.500	167.602	-0.099	-0.140
-419.486	500.848	0.087	-0.201
-418.471	-30.036	-0.135	-0.077
-417.457	-127.554	0.113	0.016
-416.442	-90.873	-0.127	-0.037
-415.428	-10.369	-0.074	0.049
-414.413	-200.000	-0.016	-0.094
-413.398	-47.922	-0.145	-0.070
-412.384	-147.623	-0.345	0.029
-411.369	800.000	-0.042	-0.175
-410.355	-49.498	0.419	0.199
-409.340	742.372	-0.047	0.125
-408.325	800.000	0.050	-0.141
-407.311	-89.938	0.087	-0.025
-406.296	-68.569	-0.087	0.034
-405.282	-55.654	0.226	0.101
-404.267	169.568	-0.035	0.050
-403.252	-193.043	0.353	0.003
-402.238	702.699	-0.064	0.170
-401.223	-35.183	0.180	0.098
-400.209	-108.489	0.115	0.025
-399.194	-94.540	0.329	-0.089
-398.179	800.000	0.034	-0.139
-397.165	-75.156	0.179	-0.064
-396.150	-158.713	-0.115	0.007
-395.136	-200.000	-0.305	0.001
-394.121	-49.403	-0.136	0.065
-393.106	-67.916	0.168	0.065
-392.092	20.930	0.188	-0.152
-391.077	-200.000	0.010	-0.179
-390.063	-169.848	0.330	-0.012
-389.048	93.880	0.265	0.300
-388.033	29.576	-0.187	0.158
-387.019	-200.000	0.011	-0.058
-386.004	8.609	-0.152	-0.114
-384.990	28.056	-0.127	0.107
-383.975	24.105	0.132	-0.109
-382.960	-200.000	0.021	0.328
-381.946	-44.751	0.064	-0.032
-380.931	95.887	0.127	0.145
-379.917	-22.217	-0.077	0.047
-378.902	-110.053	-0.320	0.067
-377.888	-200.000	-0.009	-0.364
-376.873	101.896	-0.151	-0.176
-375.858	800.000	-0.120	-0.472
-374.844	-126.702	0.176	-0.026
-373.829	-200.000	0.023	0.171
-372.815	-200.000	0.026	0.122
-371.800	800.000	-0.172	0.569
-370.785	540.512	0.058	-0.138
-369.771	-25.718	-0.159	-0.094
-368.756	-118.352	-0.175	-0.031
-367.742	-132.377	-0.341	0.044
-366.727	-149.052	-0.233	-0.019
-365.712	-61.132	0.117	-0.049
-364.698	800.000	0.054	0.229
-363.683	-78.709	-0.293	-0.100
-362.669	-4.324	0.151	-0.104
-361.654	-200.000	0.033	-0.220
-360.639	306.039	0.129	0.240
-359.625	800.000	-0.048	0.206
-358.610	87.663	0.089	0.099
-357.596	246.747	-0.047	0.079
-356.581	279.527	-0.033	-0.059
-355.566	126.783	0.303	0.383
-354.552	-200.000	0.052	0.321
-353.537	-138.926	-0.172	0.019
-352.523	-33.841	-0.151	0.083
-351.508	-200.000	-0.063	-0.334
-350.493	-24.678	-0.227	-0.134
-349.479	-57.066	-0.131	0.057
-348.464	-105.035	0.159	0.036
-347.450	106.536	0.117	-0.138
-346.435	467.275	0.094	0.210
-345.420	-200.000	0.018	0.157
-344.406	-94.017	-0.177	-0.048
-343.391	115.248	-0.140	-0.170
-342.377	-200.000	-0.002	-0.214
-341.362	-200.000	-0.014	0.245
-340.348	-124.071	-0.134	-0.021
-339.333	800.000	-0.047	-0.171
-338.318	-131.621	-0.120	0.016
-337.304	90.006	0.210	-0.234
-336.289	-130.872	-0.227	0.030
-335.275	800.000	0.092	0.395
-334.260	-126.214	-0.380	-0.057
-333.245	450.971	-0.235	-0.517
-332.231	313.801	-0.112	0.210
-331.216	-41.139	0.161	-0.083
-330.202	-200.000	-0.031	-0.227
-329.187	800.000	-0.049	-0.158
-328.172	-16.748	-0.317	-0.199
-327.158	-55.327	-0.049	-0.022
-326.143	237.927	-0.102	0.169
-325.129	800.000	-0.106	0.374
-324.114	716.370	-0.029	-0.076
-323.099	79.091	-0.119	0.126
-322.085	99.880	-0.115	0.132
-321.070	369.450	-0.083	0.168
-320.056	77.733	0.168	-0.178
-319.041	-107.942	0.345	0.075
-318.026	212.032	0.093	-0.146
-317.012	-157.312	0.189	-0.011
-315.997	800.000	0.075	0.233
-314.983	-1.551	-0.167	0.117
-313.968	495.232	0.053	-0.120
-312.953	35.741	-0.222	-0.194
-311.939	-83.266	-0.383	0.122
-310.924	-80.393	0.135	-0.045
-309.910	-200.000	0.014	-0.375
-308.895	800.000	0.068	-0.232
-307.880	-200.000	-0.004	-0.247
-306.866	-200.000	0.033	-0.344
-305.851	800.000	0.066	-0.183
-304.837	800.000	0.049	0.153
-303.822	-116.518	-0.238	-0.044
-302.807	463.088	0.056	0.125
-301.793	88.981	-0.086	-0.095
-300.778	-200.000	0.013	-0.207
-299.764	-67.746	0.258	0.100
-298.749	-97.426	-0.097	0.025
-297.735	800.000	0.043	0.146
-296.720	61.224	0.103	-0.102
-295.705	-84.232	-0.217	0.068
-294.691	-200.000	0.033	-0.189
-293.676	-85.730	0.054	0.017
-292.662	800.000	0.032	-0.127
-291.647	800.000	0.169	-0.540
-290.632	800.000	-0.118	-0.346
-289.618	71.145	-0.164	-0.169
-288.603	705.774	0.039	0.103
-287.589	-200.000	0.026	-0.198
-286.574	800.000	-0.096	0.312
-285.559	-200.000	-0.025	-0.175
-284.545	23.080	-0.214	0.175
-283.530	10.511	-0.299	-0.226
-282.516	151.412	0.119	0.160
-281.501	66.280	0.246	-0.248
-280.486	0.613	-0.321	-0.228
-279.472	-120.827	-0.167	-0.028
-278.457	58.577	0.076	-0.074
-277.443	-102.679	0.027	-0.006
-276.428	137.395	0.069	0.090
-275.413	360.300	0.049	-0.098
-274.399	-200.000	-0.037	0.233
-273.384	-47.589	0.089	0.043
-272.370	-200.000	-0.028	0.268
-271.355	24.580	-0.143	-0.117
-270.340	800.000	0.064	-0.191
-269.326	-90.901	0.145	-0.042
-268.311	-86.068	0.364	0.112
-267.297	-12.416	0.143	0.093
-266.282	-63.464	0.299	0.122
-265.267	24.443	-0.041	0.034
-264.253	-1.752	-0.062	0.044
-263.238	186.793	-0.088	-0.130
-262.224	32.980	0.262	-0.226
-261.209	-162.624	0.285	-0.014
-260.195	288.604	0.042	-0.075
-259.180	800.000	-0.074	-0.221
-258.165	-147.154	0.327	-0.028
-257.151	-60.714	0.035	-0.015
-256.136	800.000	0.070	0.279
-255.122	56.133	-0.163	0.157
-254.107	-200.000	0.048	-0.226
-253.092	98.770	0.153	0.175
-252.078	-38.453	0.274	-0.144
-251.063	-200.000	-0.070	-0.369
-250.049	649.822	-0.148	-0.375
-249.034	-32.802	-0.228	-0.126
-248.019	-105.288	0.508	-0.115
-247.005	120.862	-0.214	0.264
-245.990	-200.000	-0.050	-0.266
-244.976	-135.905	0.275	-0.032
-243.961	-113.800	0.355	0.069
-242.946	246.700	0.046	-0.077
-241.932	347.962	0.034	0.067
-240.917	94.883	0.336	-0.379
-239.903	8.811	0.130	0.097
-238.888	-165.731	0.191	0.008
-237.873	15.580	-0.217	0.169
-236.859	105.387	0.205	-0.240
-235.844	-103.002	-0.206	0.049
-234.830	31.181	0.141	0.120
-233.815	-1.967	-0.311	0.217
-232.800	78.934	0.327	0.347
-231.786	-8.576	-0.153	-0.102
-230.771	800.000	0.065	0.210
-229.757	-143.849	0.367	-0.034
-228.742	-200.000	-0.010	-0.075
-227.727	-127.226	-0.540	-0.078
-226.713	-76.901	0.148	-0.051
-225.698	-121.629	0.117	-0.019
-224.684	133.102	0.246	-0.315
-223.669	800.000	0.076	-0.259
-222.655	15.717	-0.039	-0.030
-221.640	201.116	-0.118	-0.180
-220.625	-160.231	-0.341	0.018
-219.611	-29.502	-0.185	0.105
-218.596	375.818	0.084	-0.170
-217.582	-200.000	0.006	0.152
-216.567	588.632	-0.090	0.221
-215.552	-58.534	0.499	0.215
-214.538	-200.000	0.030	-0.279
-213.523	103.038	-0.195	-0.226
-212.509	-120.796	-0.056	0.009
-211.494	800.000	0.028	-0.108
-210.479	-200.000	-0.030	-0.265
-209.465	-72.403	0.219	0.080
-208.450	716.621	-0.123	0.322
-207.436	124.669	0.124	0.154
-206.421	397.087	0.200	0.414
-205.406	-150.168	0.119	-0.009
-204.392	-174.177	-0.454	0.013
-203.377	-200.000	-0.029	0.246
-202.363	97.286	0.243	0.277
-201.348	-66.820	-0.179	-0.070
-200.333	120.607	0.143	-0.177
-199.319	800.000	0.033	-0.100
-198.304	-39.386	0.198	-0.103
-197.290	51.074	0.304	0.286
-196.275	-200.000	0.020	-0.101
-195.260	-152.855	-0.398	0.028
-194.246	-119.664	0.109	0.019
-193.231	-80.916	-0.134	-0.044
-192.217	-200.000	0.008	0.136
-191.202	253.459	0.038	-0.064
-190.187	717.778	-0.221	-0.582
-189.173	-53.729	0.125	0.056
-188.158	59.830	-0.114	-0.111
-187.144	97.356	-0.095	-0.108
-186.129	249.622	0.030	-0.050
-185.114	-200.000	0.006	-0.196
-184.100	12.148	-0.145	-0.110
-183.085	-95.855	-0.055	0.014
-182.071	-28.958	0.196	0.111
-181.056	-130.270	0.135	0.018
-180.042	286.648	0.124	-0.221
-179.027	20.791	0.203	0.163
-178.012	114.723	0.081	-0.097
-176.998	96.808	0.342	-0.388
-175.983	-24.128	0.180	0.106
-174.969	227.488	-0.031	0.050
-173.954	-143.242	0.397	0.038
-172.939	-50.551	0.278	0.130
-171.925	100.118	-0.251	0.288
-170.910	469.930	0.061	-0.135
-169.896	181.424	-0.064	0.093
-168.881	30.742	-0.241	0.204
-167.866	-90.885	0.139	0.039
-166.852	650.175	0.034	-0.086
-165.837	800.000	-0.086	0.242
-164.823	-68.151	0.238	-0.091
-163.808	-106.379	0.184	-0.041
-162.793	226.076	-0.082	-0.131
-161.779	-0.790	0.161	0.113
-160.764	-83.578	0.168	-0.053
-159.750	-200.000	-0.039	0.212
-158.735	-57.081	0.453	0.197
-157.720	212.484	-0.102	0.160
-156.706	2.844	-0.230	-0.165
-155.691	-154.795	-0.152	0.010
-154.677	-90.819	0.246	0.070
-153.662	-51.201	0.348	-0.161
-152.647	-8.718	0.152	-0.101
-151.633	800.000	-0.067	0.227
-150.618	325.757	0.030	-0.057
-149.604	-98.920	-0.261	-0.065
-148.589	-23.161	0.092	-0.055
-147.574	15.794	-0.127	0.099
-146.560	386.071	0.112	-0.228
-145.545	-107.199	-0.283	0.062
-144.531	-93.295	0.054	-0.015
-143.516	18.594	0.209	-0.165
-142.502	56.633	-0.051	0.049
-141.487	-6.782	0.287	0.193
-140.472	800.000	-0.057	-0.219
-139.458	-42.731	0.142	-0.071
-138.443	218.196	-0.186	0.294
-137.429	-200.000	-0.034	0.213
-136.414	166.004	-0.071	0.099
-135.399	-86.610	-0.203	-0.062
-134.385	-132.325	-0.315	0.040
-133.370	-200.000	0.054	-0.398
-132.356	158.645	0.075	-0.103
-131.341	-77.678	-0.114	0.039
-130.326	-109.241	-0.404	0.085
-129.312	-145.756	0.184	0.016
-128.297	-65.091	-0.248	0.099
-127.283	242.952	-0.073	0.121
-126.268	800.000	0.029	0.081
-125.253	-200.000	0.000	0.035
-124.239	-124.273	-0.426	0.066
-123.224	347.846	0.064	0.125
-122.210	-180.303	0.141	-0.003
-121.195	800.000	0.093	-0.310
