DTS Sentinel unit serial number:	SN413079Multiplexer serial number:	ORYXHardware model number:	OX4-SRSoftware version number:	ORYX F/W v4.00 Oryx Data Collector v3.7.2.0data status	okinstallation	princeton_trtdifferential loss correction	single-endedforward channel	channel 3reverse channel	N/Adate	2019/09/11time	00:50:11forward acquisition time	60.00reverse acquisition time	0.00gamma	496.2192k internal	0.2332k external	0.2332temperature offset calibration	0.9919default loss term (dB/km)	0.3790temperature slope calibration	1.0000multiplexer offset coefficient	1.0000multiplexer slope coefficient	1.0000fibre end	0.00T internal ref (°C)	29.16T ext. ref 1 (°C)	-0.31T ext. ref 2 (°C)	22.84length (m)	temperature (°C)	Stokes	anti-Stokes-747.200	-45.954	0.201	-0.100
-746.185	119.234	-0.151	0.188
-745.171	-200.000	-0.005	-0.188
-744.156	-37.170	0.060	0.032
-743.142	-41.566	0.304	0.157
-742.127	-70.297	-0.167	0.064
-741.112	-82.622	-0.337	-0.110
-740.098	488.851	0.064	0.147
-739.083	633.758	-0.096	0.245
-738.069	-125.512	-0.156	-0.024
-737.054	-197.459	-0.351	-0.002
-736.039	-60.061	-0.536	0.230
-735.025	345.082	0.135	0.266
-734.010	255.045	-0.138	0.238
-732.996	-86.906	0.159	-0.049
-731.981	288.290	-0.138	-0.250
-730.966	5.209	-0.270	-0.200
-729.952	660.669	0.018	0.046
-728.937	-4.931	0.194	-0.135
-727.923	-200.000	0.052	-0.304
-726.908	-68.608	-0.146	-0.057
-725.894	-200.000	0.071	0.333
-724.879	-115.286	-0.180	-0.034
-723.864	-112.343	-0.238	0.048
-722.850	-189.069	-0.396	0.005
-721.835	800.000	-0.048	-0.203
-720.821	39.261	-0.189	-0.170
-719.806	238.130	0.156	0.260
-718.791	159.976	-0.108	0.151
-717.777	461.778	-0.197	-0.441
-716.762	-137.210	-0.311	0.036
-715.748	614.190	0.093	-0.234
-714.733	274.152	0.088	-0.156
-713.718	-112.509	0.172	0.035
-712.704	-16.882	-0.617	0.392
-711.689	546.266	-0.051	-0.123
-710.675	58.898	-0.194	-0.192
-709.660	800.000	-0.019	-0.070
-708.645	-156.717	0.169	-0.011
-707.631	113.902	-0.120	0.146
-706.616	-123.796	0.230	0.037
-705.602	-200.000	0.048	0.305
-704.587	-22.219	-0.145	-0.088
-703.572	-200.000	-0.015	-0.283
-702.558	-131.442	-0.182	0.024
-701.543	659.415	0.143	-0.371
-700.529	150.935	-0.059	-0.081
-699.514	-200.000	0.036	-0.355
-698.499	-200.000	-0.006	-0.113
-697.485	94.010	-0.253	-0.288
-696.470	-166.327	-0.308	-0.013
-695.456	-13.104	0.163	-0.106
-694.441	-13.955	-0.093	-0.060
-693.426	10.064	-0.402	0.307
-692.412	132.702	-0.105	0.136
-691.397	130.715	0.198	-0.255
-690.383	-152.157	-0.263	0.019
-689.368	-57.421	-0.079	-0.035
-688.354	800.000	-0.060	0.177
-687.339	-36.025	0.278	0.151
-686.324	-200.000	-0.024	-0.132
-685.310	-200.000	-0.497	0.000
-684.295	198.752	0.152	-0.233
-683.281	12.419	0.135	-0.104
-682.266	-65.570	-0.295	-0.119
-681.251	100.681	-0.070	0.082
-680.237	800.000	-0.061	-0.238
-679.222	-171.490	-0.284	-0.009
-678.208	325.302	0.075	-0.144
-677.193	800.000	0.097	0.273
-676.178	-200.000	0.057	-0.315
-675.164	19.191	-0.173	-0.139
-674.149	-200.000	-0.028	-0.132
-673.135	645.820	0.028	0.072
-672.120	-52.197	0.083	-0.039
-671.105	-71.137	0.187	0.070
-670.091	353.707	-0.192	-0.383
-669.076	800.000	-0.056	-0.227
-668.062	-60.766	0.264	0.112
-667.047	800.000	-0.068	0.237
-666.032	-120.091	-0.127	0.022
-665.018	-42.598	-0.200	-0.102
-664.003	-113.611	0.166	0.032
-662.989	-200.000	0.018	-0.099
-661.974	438.248	-0.041	0.090
-660.959	-49.095	-0.202	0.097
-659.945	-100.562	-0.034	0.008
-658.930	-50.768	-0.050	-0.023
-657.916	-136.404	0.274	0.032
-656.901	-57.316	-0.091	0.040
-655.886	70.129	0.057	-0.059
-654.872	800.000	-0.070	0.212
-653.857	232.197	0.109	0.180
-652.843	753.959	-0.030	-0.083
-651.828	800.000	0.009	-0.025
-650.814	-200.000	0.001	0.023
-649.799	342.378	0.161	0.315
-648.784	53.428	0.087	-0.083
-647.770	-200.000	0.014	-0.114
-646.755	-78.227	-0.268	0.092
-645.741	-168.474	0.178	0.007
-644.726	-177.352	-0.221	-0.005
-643.711	-45.633	0.220	0.109
-642.697	282.290	0.020	0.037
-641.682	-132.448	0.288	0.037
-640.668	-16.519	0.038	-0.024
-639.653	60.930	-0.114	0.114
-638.638	-160.123	-0.226	-0.012
-637.624	22.509	-0.108	-0.089
-636.609	682.118	-0.010	-0.027
-635.595	-76.986	0.204	-0.071
-634.580	93.600	0.115	-0.130
-633.565	800.000	-0.031	-0.089
-632.551	4.662	-0.217	0.160
-631.536	105.111	-0.100	0.118
-630.522	565.165	-0.055	-0.133
-629.507	9.378	0.236	-0.179
-628.492	524.476	-0.088	0.206
-627.478	51.143	-0.508	-0.483
-626.463	5.263	0.328	0.242
-625.449	-109.232	0.206	-0.044
-624.434	179.661	-0.142	-0.209
-623.419	783.012	0.046	0.127
-622.405	-98.958	0.475	0.121
-621.390	-67.220	0.313	0.124
-620.376	800.000	0.059	-0.183
-619.361	78.219	-0.220	-0.236
-618.346	95.172	-0.090	-0.103
-617.332	800.000	-0.033	-0.145
-616.317	800.000	-0.046	0.187
-615.303	-112.687	-0.332	0.066
-614.288	465.317	-0.209	-0.469
-613.273	126.146	0.216	0.274
-612.259	-74.033	0.130	0.047
-611.244	-136.886	-0.256	-0.029
-610.230	232.731	-0.163	-0.268
-609.215	-200.000	0.009	-0.372
-608.201	57.559	0.181	-0.177
-607.186	800.000	-0.114	-0.379
-606.171	-50.404	-0.300	-0.142
-605.157	106.580	-0.200	0.238
-604.142	-137.676	0.280	-0.032
-603.128	364.963	0.122	-0.245
-602.113	172.752	-0.081	-0.117
-601.098	800.000	0.038	-0.142
-600.084	79.396	-0.117	0.126
-599.069	128.560	-0.220	-0.280
-598.055	24.227	0.095	-0.078
-597.040	-45.900	0.210	-0.104
-596.025	-110.401	-0.306	0.063
-595.011	78.475	-0.067	-0.072
-593.996	-200.000	0.072	-0.465
-592.982	800.000	0.068	-0.229
-591.967	297.565	0.020	-0.037
-590.952	-30.846	0.184	-0.104
-589.938	800.000	0.060	0.193
-588.923	15.387	0.199	-0.156
-587.909	127.792	0.094	-0.120
-586.894	-70.726	0.044	0.016
-585.879	800.000	-0.101	0.422
-584.865	33.678	-0.272	0.237
-583.850	99.983	-0.023	0.027
-582.836	79.764	-0.077	-0.082
-581.821	800.000	-0.034	-0.117
-580.806	-200.000	-0.045	0.254
-579.792	21.990	0.249	-0.203
-578.777	-88.417	-0.111	0.033
-577.763	345.919	0.080	0.158
-576.748	-129.169	0.181	0.025
-575.733	57.722	0.005	-0.005
-574.719	800.000	0.093	-0.258
-573.704	25.489	-0.055	0.046
-572.690	-200.000	-0.030	0.145
-571.675	-114.228	-0.333	0.064
-570.661	-200.000	0.017	-0.126
-569.646	89.539	-0.084	-0.094
-568.631	-60.893	-0.292	0.123
-567.617	238.733	0.103	-0.172
-566.602	695.026	-0.042	0.110
-565.588	800.000	-0.020	-0.064
-564.573	-12.894	0.175	0.114
-563.558	-200.000	0.004	0.134
-562.544	174.812	0.132	-0.192
-561.529	800.000	0.069	-0.197
-560.515	-41.057	0.394	-0.203
-559.500	-139.238	-0.174	0.019
-558.485	27.139	0.243	0.203
-557.471	-130.255	0.188	0.026
-556.456	-200.000	-0.020	0.203
-555.442	-132.742	0.353	0.045
-554.427	5.325	-0.084	-0.062
-553.412	196.031	0.037	0.056
-552.398	-66.029	0.043	0.017
-551.383	147.351	-0.096	0.129
-550.369	-80.938	-0.280	-0.093
-549.354	-200.000	0.025	-0.188
-548.339	-39.510	-0.291	0.152
-547.325	-138.374	-0.105	-0.012
-546.310	-25.407	0.288	-0.170
-545.296	-60.822	0.152	0.064
-544.281	23.390	0.339	0.279
-543.266	603.356	0.086	0.214
-542.252	17.817	-0.151	0.120
-541.237	800.000	-0.004	-0.014
-540.223	-156.823	0.280	0.017
-539.208	800.000	-0.047	-0.178
-538.193	-200.000	-0.015	0.152
-537.179	-200.000	-0.061	-0.307
-536.164	702.027	-0.090	-0.236
-535.150	-61.634	-0.087	-0.037
-534.135	521.453	-0.095	0.221
-533.121	-20.374	-0.248	0.152
-532.106	-113.703	0.393	0.077
-531.091	60.113	-0.018	-0.018
-530.077	131.240	-0.009	-0.011
-529.062	-123.676	-0.163	-0.026
-528.048	540.712	-0.045	0.108
-527.033	26.053	0.050	-0.042
-526.018	162.275	0.062	0.087
-525.004	655.059	0.163	0.418
-523.989	-115.691	-0.131	-0.025
-522.975	-177.102	-0.197	0.005
-521.960	-193.380	-0.173	0.002
-520.945	423.450	0.056	0.120
-519.931	266.918	0.060	0.105
-518.916	227.965	0.179	0.290
-517.902	785.015	-0.028	0.077
-516.887	67.552	-0.046	0.047
-515.872	153.896	-0.041	0.056
-514.858	800.000	-0.045	0.182
-513.843	-100.342	0.236	0.058
-512.829	-200.000	-0.024	0.133
-511.814	800.000	-0.014	-0.043
-510.799	271.205	0.163	-0.287
-509.785	-26.653	0.183	0.107
-508.770	-28.698	0.150	-0.086
-507.756	258.243	-0.069	0.119
-506.741	451.460	0.076	0.168
-505.726	-200.000	0.006	-0.037
-504.712	-200.000	0.025	-0.174
-503.697	46.811	0.230	-0.213
-502.683	-130.213	0.116	0.016
-501.668	-78.069	0.121	0.042
-500.653	56.170	-0.072	-0.070
-499.639	-47.389	-0.274	-0.133
-498.624	-17.584	-0.163	0.102
-497.610	70.485	0.092	0.094
-496.595	800.000	0.083	0.358
-495.581	1.706	-0.119	0.085
-494.566	-110.047	-0.332	-0.069
-493.551	-200.000	0.026	-0.291
-492.537	393.277	0.189	-0.393
-491.522	-77.264	0.190	-0.066
-490.508	113.848	-0.165	-0.199
-489.493	800.000	-0.077	0.312
-488.478	6.380	0.233	0.172
-487.464	-134.888	-0.295	0.036
-486.449	800.000	-0.073	0.209
-485.435	49.522	0.284	0.266
-484.420	153.898	0.119	-0.162
-483.405	-116.837	0.151	-0.028
-482.391	149.617	-0.159	-0.214
-481.376	105.535	0.204	-0.240
-480.362	179.787	0.138	0.201
-479.347	-195.062	-0.407	-0.003
-478.332	-115.393	0.157	-0.029
-477.318	-77.813	0.056	0.019
-476.303	800.000	0.111	0.351
-475.289	-158.826	0.266	-0.015
-474.274	465.705	0.102	-0.228
-473.259	35.720	0.246	-0.215
-472.245	-133.061	-0.491	-0.062
-471.230	71.692	-0.165	0.171
-470.216	-200.000	0.080	0.368
-469.201	-31.125	0.275	-0.154
-468.186	-29.282	-0.097	-0.056
-467.172	-200.000	0.015	-0.333
-466.157	7.717	-0.281	0.209
-465.143	23.610	0.087	-0.072
-464.128	-132.683	-0.393	-0.050
-463.113	174.085	0.182	0.262
-462.099	-104.901	0.044	0.010
-461.084	-25.029	-0.276	-0.163
-460.070	458.529	-0.103	-0.228
-459.055	-47.283	-0.122	0.059
-458.040	169.259	-0.049	0.070
-457.026	584.225	-0.067	-0.163
-456.011	510.422	0.148	-0.343
-454.997	8.418	0.074	0.056
-453.982	298.376	0.011	0.020
-452.968	-41.669	0.304	0.155
-451.953	800.000	0.070	0.279
-450.938	-200.000	0.021	-0.184
-449.924	800.000	0.024	-0.097
-448.909	10.151	-0.137	0.104
-447.895	93.635	0.215	-0.242
-446.880	-107.318	0.241	0.053
-445.865	64.474	0.153	-0.154
-444.851	-200.000	0.031	-0.150
-443.836	629.005	0.043	-0.107
-442.822	7.359	0.097	0.072
-441.807	-140.527	0.152	0.016
-440.792	374.480	0.107	-0.217
-439.778	3.351	0.143	0.103
-438.763	-98.682	-0.310	0.079
-437.749	-200.000	0.013	0.155
-436.734	-83.843	0.053	-0.017
-435.719	800.000	0.052	-0.178
-434.705	-88.491	0.253	-0.075
-433.690	-162.758	-0.366	0.018
-432.676	-99.507	-0.169	0.042
-431.661	539.047	0.078	-0.185
-430.646	-106.051	0.313	0.070
-429.632	-200.000	-0.057	0.413
-428.617	-200.000	-0.013	0.171
-427.603	32.002	-0.069	-0.059
-426.588	-169.461	-0.364	0.013
-425.573	-200.000	0.031	-0.387
-424.559	-115.554	-0.475	0.089
-423.544	-159.020	-0.019	0.001
-422.530	-110.527	0.118	0.024
-421.515	-200.000	0.037	0.174
-420.500	14.181	0.149	-0.116
-419.486	-29.476	-0.137	0.078
-418.471	211.692	0.104	0.163
-417.457	145.353	0.316	0.420
-416.442	-158.859	0.095	0.005
-415.428	282.645	-0.125	0.223
-414.413	-200.000	-0.062	0.323
-413.398	104.927	0.168	-0.197
-412.384	-160.559	-0.100	-0.005
-411.369	215.627	0.077	0.121
-410.355	322.500	0.034	-0.065
-409.340	128.608	0.038	-0.048
-408.325	-61.435	0.304	0.127
-407.311	-12.279	0.165	-0.107
-406.296	800.000	-0.054	0.220
-405.282	-51.891	-0.313	-0.145
-404.267	-35.708	-0.269	0.145
-403.252	-80.374	0.174	-0.058
-402.238	-168.300	-0.322	0.012
-401.223	-80.301	0.072	-0.024
-400.209	47.434	-0.176	-0.163
-399.194	-64.084	0.142	0.057
-398.179	-89.027	0.145	-0.043
-397.165	181.158	0.133	0.194
-396.150	-200.000	-0.028	-0.298
-395.136	195.314	0.082	0.124
-394.121	-74.258	-0.305	-0.109
-393.106	89.407	0.064	0.070
-392.092	-129.895	0.326	0.044
-391.077	800.000	-0.069	0.258
-390.063	69.328	-0.222	0.227
-389.048	258.619	-0.184	-0.315
-388.033	-82.833	-0.062	-0.020
-387.019	17.264	0.123	0.097
-386.004	-200.000	0.029	0.204
-384.990	-2.677	-0.273	0.189
-383.975	-43.003	-0.240	0.121
-382.960	-133.511	0.067	0.008
-381.946	-40.096	-0.265	0.137
-380.931	624.146	-0.078	-0.195
-379.917	238.457	0.124	0.205
-378.902	-200.000	-0.005	-0.143
-377.888	-109.834	-0.301	-0.063
-376.873	-21.819	-0.047	0.028
-375.858	-200.000	-0.036	0.307
-374.844	152.421	0.129	-0.175
-373.829	48.385	-0.215	0.199
-372.815	-200.000	-0.014	-0.171
-371.800	51.885	-0.161	-0.152
-370.785	-101.725	0.124	-0.030
-369.771	173.998	-0.047	0.067
-368.756	-148.989	-0.211	-0.017
-367.742	-166.156	0.283	0.012
-366.727	166.413	0.110	0.155
-365.712	236.949	-0.195	-0.320
-364.698	-139.204	-0.207	0.022
-363.683	-200.000	-0.019	-0.112
-362.669	29.020	0.101	-0.085
-361.654	-200.000	-0.019	0.142
-360.639	-200.000	-0.032	0.369
-359.625	-167.137	-0.228	-0.009
-358.610	800.000	-0.095	0.273
-357.596	-181.454	0.328	-0.006
-356.581	156.527	0.290	-0.397
-355.566	40.986	0.156	-0.139
-354.552	-125.785	0.196	0.029
-353.537	-200.000	0.008	0.164
-352.523	-200.000	0.015	-0.377
-351.508	61.419	-0.075	0.074
-350.493	-70.263	0.119	0.045
-349.479	-158.100	0.091	-0.005
-348.464	83.560	0.079	0.085
-347.450	675.410	0.082	0.211
-346.435	40.459	0.141	-0.126
-345.420	-110.121	0.620	0.128
-344.406	800.000	-0.096	0.273
-343.391	117.641	0.085	-0.103
-342.377	800.000	-0.122	-0.367
-341.362	-200.000	0.018	0.459
-340.348	-49.381	-0.083	-0.039
-339.333	367.368	-0.056	0.112
-338.318	-102.366	-0.748	-0.178
-337.304	-84.288	-0.235	-0.074
-336.289	-118.345	0.258	0.045
-335.275	-65.409	-0.268	-0.107
-334.260	238.202	0.237	0.389
-333.245	-85.440	0.203	0.063
-332.231	709.973	0.225	0.591
-331.216	-179.556	-0.159	0.003
-330.202	-153.788	-0.204	0.014
-329.187	5.920	-0.217	0.159
-328.172	-200.000	0.020	-0.121
-327.158	47.407	0.229	-0.211
-326.143	-141.777	-0.075	0.007
-325.129	-1.795	0.130	0.090
-324.114	-121.212	0.162	-0.027
-323.099	216.504	-0.032	-0.050
-322.085	-200.000	0.014	-0.154
-321.070	-14.746	-0.185	-0.118
-320.056	124.819	0.093	-0.116
-319.041	-81.994	-0.259	-0.084
-318.026	-200.000	-0.055	0.367
-317.012	-157.414	0.361	-0.021
-315.997	-27.183	-0.323	0.186
-314.983	-53.875	-0.426	0.192
-313.968	-67.680	-0.221	-0.086
-312.953	-7.967	-0.171	0.114
-311.939	-140.334	0.249	-0.026
-310.924	91.273	0.102	-0.114
-309.910	-75.207	-0.168	0.059
-308.895	57.557	-0.133	-0.128
-307.880	123.436	-0.042	-0.052
-306.866	617.005	0.079	-0.197
-305.851	-46.330	0.022	0.011
-304.837	-129.647	-0.241	0.033
-303.822	28.142	-0.199	0.166
-302.807	10.459	0.036	-0.027
-301.793	-83.795	-0.175	-0.055
-300.778	-200.000	0.010	0.236
-299.764	99.521	0.039	-0.045
-298.749	78.255	-0.131	-0.139
-297.735	31.240	0.197	-0.167
-296.720	-136.141	0.144	0.017
-295.705	597.696	-0.107	-0.263
-294.691	627.450	-0.057	-0.142
-293.676	14.178	0.143	0.110
-292.662	-200.000	0.007	0.116
-291.647	-172.417	0.138	0.004
-290.632	141.731	-0.075	-0.099
-289.618	-29.525	0.311	0.176
-288.603	68.645	-0.143	0.145
-287.589	-68.412	0.189	0.073
-286.574	-137.867	-0.237	-0.026
-285.559	800.000	0.099	0.360
-284.545	-200.000	-0.033	0.251
-283.530	-200.000	0.066	-0.292
-282.516	287.098	0.099	0.178
-281.501	-184.806	-0.140	-0.002
-280.486	175.710	0.197	-0.283
-279.472	171.098	-0.124	0.176
-278.457	-24.094	0.285	0.168
-277.443	-165.566	0.189	-0.008
-276.428	-200.000	0.048	-0.344
-275.413	-166.668	0.159	-0.006
-274.399	352.600	0.178	0.348
-273.384	-115.656	-0.386	0.072
-272.370	800.000	0.034	-0.123
-271.355	9.820	-0.227	0.170
-270.340	-27.439	0.126	0.072
-269.326	800.000	-0.008	0.031
-268.311	-77.890	-0.275	0.094
-267.297	-63.120	0.107	-0.043
-266.282	-200.000	-0.014	-0.084
-265.267	652.062	-0.034	-0.087
-264.253	800.000	-0.040	0.134
-263.238	-75.472	0.138	-0.049
-262.224	-200.000	0.006	-0.124
-261.209	-200.000	0.026	0.417
-260.195	-200.000	-0.003	0.562
-259.180	-124.854	0.229	0.035
-258.165	22.626	-0.163	0.131
-257.151	800.000	0.047	-0.176
-256.136	24.999	-0.329	0.269
-255.122	-200.000	-0.016	0.264
-254.107	-55.109	-0.258	0.115
-253.092	-119.610	-0.135	-0.023
-252.078	423.969	-0.041	-0.086
-251.063	15.990	-0.230	-0.179
-250.049	-156.466	0.265	-0.016
-249.034	636.550	0.044	0.111
-248.019	800.000	-0.074	-0.262
-247.005	14.782	-0.233	0.180
-245.990	800.000	0.054	0.221
-244.976	-200.000	-0.006	-0.124
-243.961	-200.000	-0.040	0.219
-242.946	315.945	-0.048	0.090
-241.932	248.288	-0.146	-0.244
-240.917	-72.559	0.292	0.106
-239.903	-200.000	-0.030	0.279
-238.888	15.263	-0.186	-0.144
-237.873	800.000	0.100	-0.359
-236.859	23.411	-0.219	-0.177
-235.844	-200.000	-0.052	-0.235
-234.830	294.509	0.134	-0.242
-233.815	-19.786	-0.089	0.054
-232.800	220.920	0.094	-0.149
-231.786	-67.592	0.198	-0.076
-230.771	34.210	0.096	-0.083
-229.757	-200.000	0.021	-0.312
-228.742	-75.492	0.165	-0.058
-227.727	800.000	-0.024	-0.101
-226.713	0.381	0.169	-0.119
-225.698	-10.025	0.045	-0.029
-224.684	733.719	-0.026	-0.068
-223.669	-200.000	-0.021	-0.133
-222.655	54.575	-0.337	-0.320
-221.640	800.000	-0.104	0.335
-220.625	-119.921	0.360	-0.061
-219.611	-157.841	-0.102	0.006
-218.596	11.949	-0.076	-0.058
-217.582	-200.000	-0.072	0.335
-216.567	-22.590	0.072	0.043
-215.552	-157.722	-0.447	-0.026
-214.538	-200.000	-0.021	-0.344
-213.523	-200.000	0.014	-0.150
-212.509	38.968	-0.118	-0.104
-211.494	-4.130	0.117	-0.080
-210.479	-153.560	0.227	0.015
-209.465	288.167	-0.119	0.213
-208.450	318.924	0.111	-0.207
-207.436	496.055	0.093	0.210
-206.421	-169.094	-0.177	-0.006
-205.406	-148.570	-0.155	-0.012
-204.392	800.000	0.042	0.141
-203.377	90.439	-0.185	-0.204
-202.363	281.923	-0.178	0.314
-201.348	95.307	0.144	-0.162
-200.333	-99.641	-0.294	-0.073
-199.319	-108.054	0.101	0.022
-198.304	273.055	0.131	0.228
-197.290	122.270	0.207	-0.255
-196.275	-118.312	-0.152	0.027
-195.260	298.133	-0.085	-0.153
-194.246	-71.218	-0.227	-0.084
-193.231	102.025	0.103	-0.118
-192.217	-200.000	-0.025	0.350
-191.202	-200.000	0.052	0.326
-190.187	-99.811	0.225	0.055
-189.173	800.000	0.089	-0.306
-188.158	-69.960	-0.180	0.067
-187.144	-42.087	0.026	-0.013
-186.129	-54.836	0.266	-0.118
-185.114	99.075	0.293	-0.333
-184.100	-200.000	-0.007	-0.258
-183.085	60.189	-0.133	-0.129
-182.071	-145.152	0.360	-0.032
-181.056	42.977	-0.182	-0.163
-180.042	-200.000	-0.015	0.132
-179.027	-198.627	-0.210	-0.001
-178.012	90.575	0.156	0.172
-176.998	-200.000	0.038	-0.201
-175.983	-200.000	0.009	0.072
-174.969	-40.711	0.097	0.049
-173.954	-57.389	-0.227	-0.098
-172.939	52.289	-0.163	-0.153
-171.925	277.172	0.124	-0.217
-170.910	1.288	0.248	-0.175
-169.896	-93.618	0.078	-0.021
-168.881	-11.012	0.260	-0.169
-167.866	-18.279	-0.107	-0.066
-166.852	187.116	-0.187	0.275
-165.837	628.405	-0.120	0.298
-164.823	94.936	0.175	0.196
-163.808	93.285	-0.085	0.095
-162.793	436.707	0.097	-0.208
-161.779	133.135	-0.142	-0.181
-160.764	800.000	-0.003	-0.010
-159.750	82.927	-0.167	-0.179
-158.735	43.723	0.021	0.019
-157.720	212.830	0.209	0.324
-156.706	-200.000	-0.003	0.104
-155.691	-200.000	-0.022	-0.113
-154.677	800.000	-0.065	-0.208
-153.662	-200.000	0.005	0.021
-152.647	149.933	0.027	-0.036
-151.633	706.611	0.037	0.096
-150.618	247.260	-0.095	0.157
-149.604	313.747	-0.075	-0.139
-148.589	638.613	-0.102	0.254
-147.574	-112.020	0.250	0.050
-146.560	-200.000	0.010	-0.191
-145.545	317.257	0.047	-0.088
-144.531	800.000	0.075	-0.233
-143.516	141.119	-0.064	0.083
-142.502	-25.750	0.299	0.174
-141.487	-131.668	-0.390	0.050
-140.472	-200.000	0.017	-0.148
-139.458	-26.097	-0.076	-0.044
-138.443	-153.774	0.132	0.009
-137.429	-200.000	0.022	-0.314
-136.414	-116.395	-0.151	-0.027
-135.399	-53.189	0.192	-0.087
-134.385	-99.751	0.048	-0.012
-133.370	418.912	0.034	0.071
-132.356	142.552	-0.143	0.187
-131.341	-200.000	0.044	-0.307
-130.326	60.454	0.093	0.090
-129.312	-62.564	0.391	0.160
-128.297	73.348	0.057	0.059
-127.283	-200.000	0.002	0.069
-126.268	-180.636	-0.043	-0.001
-125.253	800.000	-0.045	0.144
-124.239	187.981	-0.075	-0.110
-123.224	800.000	-0.012	-0.035
-122.210	200.807	0.030	0.045
-121.195	96.324	-0.059	-0.067
