DTS Sentinel unit serial number:	SN413079Multiplexer serial number:	ORYXHardware model number:	OX4-SRSoftware version number:	ORYX F/W v4.00 Oryx Data Collector v3.7.2.0data status	okinstallation	princeton_trtdifferential loss correction	single-endedforward channel	channel 3reverse channel	N/Adate	2019/09/11time	16:34:11forward acquisition time	60.00reverse acquisition time	0.00gamma	496.2192k internal	0.2286k external	0.2286temperature offset calibration	0.9993default loss term (dB/km)	0.3790temperature slope calibration	1.0000multiplexer offset coefficient	1.0000multiplexer slope coefficient	1.0000fibre end	0.00T internal ref (°C)	43.73T ext. ref 1 (°C)	1.07T ext. ref 2 (°C)	39.48length (m)	temperature (°C)	Stokes	anti-Stokes-747.200	405.904	-0.154	0.333
-746.185	-200.000	0.026	0.532
-745.171	-93.372	-0.378	0.108
-744.156	-74.217	0.094	-0.035
-743.142	-57.858	-0.157	-0.071
-742.127	308.535	-0.199	0.382
-741.112	-200.000	-0.007	0.240
-740.098	-200.000	-0.051	0.233
-739.083	-53.546	0.120	0.057
-738.069	109.849	0.071	0.088
-737.054	179.166	-0.089	0.134
-736.039	-5.251	0.200	0.141
-735.025	-145.346	0.140	-0.013
-734.010	10.948	-0.341	-0.267
-732.996	-38.414	-0.202	0.110
-731.981	324.533	-0.165	0.323
-730.966	-28.427	0.042	-0.025
-729.952	-80.537	-0.135	-0.046
-728.937	153.691	-0.239	-0.335
-727.923	800.000	0.112	-0.491
-726.908	123.960	0.252	0.324
-725.894	-200.000	-0.036	-0.184
-724.879	-63.855	-0.209	0.088
-723.864	800.000	-0.064	0.235
-722.850	-138.228	-0.289	0.033
-721.835	-200.000	-0.002	0.138
-720.821	-200.000	-0.010	0.183
-719.806	800.000	0.092	-0.324
-718.791	-15.981	-0.191	0.124
-717.777	-151.473	0.149	-0.011
-716.762	14.513	0.180	-0.144
-715.748	792.514	-0.100	0.282
-714.733	-109.666	0.225	0.049
-713.718	800.000	-0.003	0.012
-712.704	-125.720	-0.172	-0.027
-711.689	-121.995	-0.183	0.031
-710.675	800.000	-0.126	0.399
-709.660	-200.000	-0.010	0.311
-708.645	82.041	0.196	0.217
-707.631	800.000	-0.128	0.524
-706.616	-112.193	0.068	0.014
-705.602	347.959	0.126	0.254
-704.587	-64.405	0.168	0.070
-703.572	-36.378	0.287	-0.158
-702.558	492.706	0.103	-0.242
-701.543	-113.834	0.283	-0.056
-700.529	426.547	-0.053	0.117
-699.514	-118.554	0.200	-0.036
-698.499	-95.733	-0.169	0.046
-697.485	-33.103	-0.177	0.101
-696.470	49.610	-0.216	-0.209
-695.456	-146.830	0.275	0.024
-694.441	-106.338	0.313	-0.072
-693.426	652.004	0.182	0.479
-692.412	-80.280	-0.133	-0.046
-691.397	163.588	-0.160	-0.230
-690.383	-87.630	-0.235	-0.073
-689.368	55.165	0.145	-0.143
-688.354	800.000	0.083	0.264
-687.339	-14.584	0.056	-0.037
-686.324	65.366	0.033	-0.034
-685.310	-7.210	-0.313	-0.217
-684.295	-94.825	-0.112	-0.031
-683.281	-196.360	-0.265	-0.002
-682.266	-13.933	-0.181	0.120
-681.251	-117.402	-0.371	-0.069
-680.237	-86.586	-0.358	-0.112
-679.222	76.669	-0.095	-0.103
-678.208	149.613	0.179	-0.248
-677.193	695.221	0.104	-0.278
-676.178	-200.000	0.058	0.310
-675.164	58.134	0.221	0.221
-674.149	66.043	0.166	-0.173
-673.135	137.108	0.107	0.143
-672.120	-40.855	0.286	0.152
-671.105	146.348	0.359	0.494
-670.091	-9.267	0.140	-0.096
-669.076	309.508	-0.069	0.132
-668.062	-200.000	0.021	0.342
-667.047	86.444	-0.217	0.245
-666.032	153.069	-0.201	-0.281
-665.018	114.719	-0.042	0.052
-664.003	44.044	0.115	0.108
-662.989	-150.113	0.443	-0.035
-661.974	-200.000	-0.036	-0.198
-660.959	-200.000	-0.003	0.114
-659.945	-79.064	0.545	-0.190
-658.930	47.278	0.193	0.184
-657.916	-200.000	-0.090	-0.454
-656.901	302.510	0.074	-0.140
-655.886	-200.000	-0.025	0.170
-654.872	-70.194	-0.064	0.025
-653.857	-47.792	-0.239	0.119
-652.843	-19.477	0.110	0.069
-651.828	65.539	0.266	-0.275
-650.814	-90.336	0.127	-0.038
-649.799	26.008	-0.164	0.140
-648.784	188.642	0.152	-0.232
-647.770	211.188	0.037	-0.059
-646.755	268.250	0.135	0.242
-645.741	-200.000	0.021	0.103
-644.726	-200.000	-0.027	-0.256
-643.711	-200.000	-0.016	0.311
-642.697	800.000	0.080	0.355
-641.682	-200.000	-0.004	0.129
-640.668	739.588	-0.158	-0.434
-639.653	20.367	0.183	0.151
-638.638	-81.423	-0.186	-0.062
-637.624	-200.000	-0.017	-0.187
-636.609	-200.000	-0.029	0.225
-635.595	82.160	0.033	0.036
-634.580	-119.373	-0.163	-0.029
-633.565	-80.458	-0.045	0.015
-632.551	211.283	0.136	0.218
-631.536	154.456	-0.156	-0.219
-630.522	-200.000	0.036	-0.307
-629.507	800.000	0.100	-0.373
-628.492	-144.473	-0.220	0.021
-627.478	-200.000	-0.000	-0.076
-626.463	-31.354	0.217	-0.125
-625.449	41.092	0.050	-0.046
-624.434	122.924	0.042	0.054
-623.419	45.494	0.135	-0.127
-622.405	-47.767	-0.185	0.091
-621.390	152.336	0.183	0.255
-620.376	800.000	0.034	-0.104
-619.361	-200.000	0.017	-0.140
-618.346	55.525	0.170	0.168
-617.332	-162.664	-0.289	-0.014
-616.317	800.000	-0.073	-0.213
-615.303	-133.134	-0.446	-0.058
-614.288	-144.719	-0.144	0.014
-613.273	-102.335	-0.210	0.051
-612.259	60.195	-0.079	-0.079
-611.244	-183.429	0.248	-0.004
-610.230	-200.000	0.015	0.189
-609.215	-8.915	-0.294	-0.201
-608.201	20.043	0.289	0.238
-607.186	287.033	-0.088	0.162
-606.171	-141.562	-0.351	-0.036
-605.157	-103.130	0.311	-0.075
-604.142	82.924	-0.101	-0.112
-603.128	-100.904	0.324	-0.081
-602.113	-16.225	0.156	0.101
-601.098	800.000	0.034	-0.102
-600.084	99.918	-0.170	-0.201
-599.069	5.530	-0.186	0.140
-598.055	12.679	-0.294	0.232
-597.040	-200.000	0.045	-0.202
-596.025	124.675	-0.159	0.204
-595.011	87.555	-0.030	-0.034
-593.996	152.768	-0.080	-0.112
-592.982	-200.000	-0.066	0.331
-591.967	690.709	-0.054	0.146
-590.952	-106.318	0.110	-0.025
-589.938	365.873	0.044	-0.090
-588.923	-172.540	0.361	0.012
-587.909	-34.088	-0.068	0.038
-586.894	7.727	-0.221	0.169
-585.879	88.681	0.046	-0.053
-584.865	-180.533	0.251	-0.005
-583.850	67.466	0.080	-0.083
-582.836	-116.575	0.112	0.021
-581.821	75.347	-0.200	0.215
-580.806	-200.000	-0.058	0.447
-579.792	162.601	-0.130	-0.185
-578.777	800.000	0.039	-0.142
-577.763	157.399	0.117	0.165
-576.748	67.394	0.098	0.102
-575.733	301.324	-0.118	0.223
-574.719	2.739	0.137	-0.101
-573.704	-200.000	-0.032	0.203
-572.690	-200.000	-0.021	-0.440
-571.675	120.261	-0.142	-0.179
-570.661	800.000	0.113	0.328
-569.646	800.000	-0.078	-0.232
-568.631	-6.107	0.232	-0.162
-567.617	71.608	-0.195	0.206
-566.602	-133.324	-0.173	-0.022
-565.588	-200.000	-0.014	0.203
-564.573	-121.214	-0.143	-0.024
-563.558	-6.622	0.068	0.047
-562.544	490.993	0.215	0.502
-561.529	800.000	0.143	0.421
-560.515	-171.924	0.145	0.005
-559.500	290.690	0.071	-0.132
-558.485	-200.000	-0.014	-0.101
-557.471	706.854	-0.092	-0.248
-556.456	-94.241	-0.027	0.008
-555.442	-15.359	0.237	-0.154
-554.427	-200.000	0.018	0.102
-553.412	84.213	-0.135	-0.150
-552.398	639.320	0.043	-0.112
-551.383	-81.375	0.369	0.124
-550.369	153.021	-0.274	-0.382
-549.354	-200.000	0.025	0.246
-548.339	-19.370	-0.275	-0.173
-547.325	174.939	0.191	0.282
-546.310	-200.000	-0.033	0.179
-545.296	2.767	-0.252	0.186
-544.281	-200.000	-0.012	-0.219
-543.266	-175.847	0.248	-0.007
-542.252	61.682	0.019	0.019
-541.237	-200.000	0.001	-0.169
-540.223	202.654	-0.072	-0.114
-539.208	-200.000	0.080	-0.381
-538.193	103.009	0.113	-0.135
-537.179	21.572	-0.111	-0.092
-536.164	-200.000	0.071	-0.000
-535.150	515.310	0.054	-0.130
-534.135	-200.000	0.016	0.347
-533.121	59.159	0.169	-0.169
-532.106	-200.000	-0.002	-0.302
-531.091	-152.834	-0.451	0.033
-530.077	19.028	-0.239	-0.195
-529.062	-50.264	0.061	-0.029
-528.048	-200.000	-0.020	-0.338
-527.033	-67.771	0.037	0.015
-526.018	-56.177	-0.189	0.086
-525.004	-200.000	0.005	0.179
-523.989	-61.558	0.250	0.107
-522.975	-111.783	-0.076	0.016
-521.960	800.000	-0.021	-0.076
-520.945	659.917	-0.105	0.276
-519.931	-23.095	0.098	0.060
-518.916	35.160	0.186	-0.165
-517.902	-200.000	0.059	-0.321
-516.887	-49.527	-0.136	-0.066
-515.872	109.091	0.243	0.296
-514.858	-74.996	0.256	0.093
-513.843	-2.862	-0.092	0.065
-512.829	401.428	-0.024	0.050
-511.814	-114.652	-0.279	0.054
-510.799	-200.000	-0.087	-0.643
-509.785	93.289	0.154	-0.177
-508.770	-80.886	0.352	-0.119
-507.756	-24.358	-0.173	-0.105
-506.741	-118.651	0.225	-0.040
-505.726	120.014	-0.211	0.267
-504.712	-200.000	-0.052	-0.274
-503.697	-55.716	-0.092	-0.042
-502.683	-154.123	0.111	-0.008
-501.668	486.762	-0.102	-0.236
-500.653	800.000	-0.041	-0.135
-499.639	-87.771	0.058	0.018
-498.624	-3.398	-0.186	0.131
-497.610	800.000	0.065	-0.217
-496.595	-193.742	0.043	0.000
-495.581	800.000	-0.123	0.451
-494.566	28.566	-0.214	0.184
-493.551	800.000	0.036	0.110
-492.537	-195.846	-0.051	0.000
-491.522	-126.845	0.097	-0.014
-490.508	-200.000	-0.013	-0.377
-489.493	800.000	-0.006	-0.019
-488.478	490.910	0.140	0.325
-487.464	500.017	0.094	-0.220
-486.449	800.000	-0.031	0.088
-485.435	-200.000	0.022	0.113
-484.420	491.759	0.152	0.353
-483.405	510.836	-0.018	-0.041
-482.391	800.000	-0.116	-0.461
-481.376	-200.000	-0.019	0.155
-480.362	0.143	0.200	0.145
-479.347	-156.608	0.145	-0.009
-478.332	-151.872	0.103	-0.008
-477.318	-138.367	0.353	-0.040
-476.303	-100.891	0.140	-0.035
-475.289	254.690	0.113	-0.196
-474.274	-68.951	0.147	0.058
-473.259	-189.942	-0.151	-0.002
-472.245	-4.155	0.145	-0.102
-471.230	-124.401	0.243	0.038
-470.216	-200.000	-0.082	-0.383
-469.201	41.079	0.179	-0.164
-468.186	245.466	0.120	0.206
-467.172	-72.530	-0.246	0.092
-466.157	273.207	-0.089	-0.159
-465.143	-200.000	-0.060	-0.353
-464.128	-19.830	-0.223	0.140
-463.113	-0.523	0.276	0.199
-462.099	-46.572	0.143	0.071
-461.084	123.889	-0.102	-0.130
-460.070	286.073	0.038	-0.070
-459.055	360.634	0.041	0.084
-458.040	-99.313	-0.120	0.031
-457.026	-83.296	-0.230	-0.075
-456.011	-18.817	0.236	0.149
-454.997	188.163	-0.097	-0.147
-453.982	-200.000	-0.054	-0.338
-452.968	-77.211	0.152	-0.054
-451.953	149.438	-0.107	-0.147
-450.938	800.000	-0.142	-0.452
-449.924	112.415	0.178	0.219
-448.909	676.138	-0.104	0.275
-447.895	73.006	0.171	-0.181
-446.880	800.000	0.071	-0.269
-445.865	124.878	-0.117	-0.150
-444.851	101.926	0.040	0.047
-443.836	433.871	0.191	0.421
-442.822	800.000	-0.009	0.031
-441.807	779.253	0.070	-0.194
-440.792	42.237	0.078	0.072
-439.778	800.000	-0.048	0.152
-438.763	-107.343	-0.161	0.036
-437.749	69.691	0.155	-0.162
-436.734	-200.000	0.020	-0.297
-435.719	-98.948	-0.205	-0.053
-434.705	-188.093	0.486	-0.006
-433.690	20.202	0.143	0.117
-432.676	-45.635	-0.139	-0.069
-431.661	176.749	-0.104	0.154
-430.646	81.129	0.052	-0.057
-429.632	370.640	-0.072	0.148
-428.617	-136.185	-0.394	0.047
-427.603	-200.000	0.045	0.241
-426.588	-144.826	-0.213	-0.020
-425.573	89.627	-0.201	0.227
-424.559	94.423	-0.082	-0.094
-423.544	-39.366	0.186	0.099
-422.530	72.615	0.389	0.411
-421.515	-19.693	-0.197	0.124
-420.500	-26.585	-0.259	0.154
-419.486	-125.403	0.265	-0.041
-418.471	-200.000	-0.009	-0.056
-417.457	128.352	0.050	-0.064
-416.442	-42.258	-0.089	-0.046
-415.428	800.000	-0.058	-0.203
-414.413	-25.625	0.053	-0.032
-413.398	111.254	-0.134	0.164
-412.384	140.393	0.061	0.082
-411.369	-200.000	-0.004	0.200
-410.355	-140.401	0.271	0.029
-409.340	7.857	-0.225	-0.170
-408.325	-137.096	0.390	0.045
-407.311	-49.636	-0.407	0.196
-406.296	-24.360	0.100	0.060
-405.282	800.000	0.033	-0.102
-404.267	-75.984	-0.101	0.036
-403.252	11.818	-0.329	-0.256
-402.238	-200.000	-0.007	0.059
-401.223	-108.181	-0.199	-0.044
-400.209	-200.000	-0.016	0.247
-399.194	-200.000	0.010	-0.303
-398.179	800.000	-0.082	0.258
-397.165	-32.287	0.310	0.175
-396.150	-123.953	-0.548	0.087
-395.136	-4.472	0.089	0.062
-394.121	800.000	-0.127	-0.545
-393.106	63.363	-0.148	-0.151
-392.092	-64.205	0.113	-0.047
-391.077	-149.740	-0.432	0.034
-390.063	644.535	-0.123	-0.318
-389.048	800.000	-0.010	0.031
-388.033	331.363	-0.140	-0.273
-387.019	382.495	-0.083	0.172
-386.004	-37.624	-0.129	0.070
-384.990	259.155	0.078	-0.136
-383.975	21.902	0.151	-0.125
-382.960	-200.000	0.013	0.087
-381.946	-79.343	-0.085	0.029
-380.931	-13.186	0.331	-0.218
-379.917	-200.000	-0.043	0.310
-378.902	-34.136	-0.153	0.085
-377.888	-69.807	0.089	0.034
-376.873	-60.124	0.021	-0.009
-375.858	-133.622	0.341	-0.043
-374.844	-200.000	-0.023	0.173
-373.829	-200.000	0.017	0.183
-372.815	-98.856	-0.369	-0.095
-371.800	27.920	0.177	0.151
-370.785	-200.000	-0.014	0.134
-369.771	-200.000	-0.060	0.297
-368.756	-95.869	0.297	-0.080
-367.742	-68.086	0.105	-0.041
-366.727	28.206	-0.150	-0.128
-365.712	202.723	-0.122	-0.191
-364.698	-200.000	-0.010	0.267
-363.683	-147.365	-0.141	-0.012
-362.669	-200.000	-0.010	-0.085
-361.654	800.000	-0.140	0.527
-360.639	-165.891	0.227	-0.010
-359.625	-8.284	-0.128	-0.087
-358.610	-81.592	0.082	-0.027
-357.596	96.157	-0.025	-0.029
-356.581	800.000	0.103	-0.303
-355.566	103.748	0.242	0.288
-354.552	-200.000	0.008	0.062
-353.537	800.000	0.100	0.332
-352.523	30.571	0.087	-0.076
-351.508	800.000	-0.038	0.166
-350.493	800.000	-0.042	-0.120
-349.479	-200.000	0.042	0.370
-348.464	-200.000	0.008	0.192
-347.450	800.000	-0.126	0.438
-346.435	-54.230	-0.244	-0.112
-345.420	-121.323	-0.300	-0.051
-344.406	726.983	-0.107	-0.289
-343.391	-36.250	-0.152	0.083
-342.377	-200.000	0.010	-0.548
-341.362	-35.922	0.252	0.138
-340.348	740.298	-0.162	0.440
-339.333	-200.000	-0.016	0.292
-338.318	122.874	-0.104	-0.132
-337.304	-200.000	0.004	-0.147
-336.289	-73.745	-0.319	-0.117
-335.275	595.701	0.020	-0.050
-334.260	36.514	-0.138	-0.123
-333.245	-102.739	0.398	0.096
-332.231	64.745	0.174	-0.177
-331.216	-138.094	-0.180	-0.020
-330.202	-124.624	-0.159	-0.025
-329.187	-200.000	0.014	-0.151
-328.172	163.663	0.023	-0.033
-327.158	70.158	-0.264	-0.275
-326.143	202.759	0.094	0.147
-325.129	-114.259	0.381	0.074
-324.114	800.000	0.133	0.451
-323.099	-114.119	-0.313	-0.061
-322.085	188.759	0.067	-0.100
-321.070	-20.175	0.137	-0.085
-320.056	-141.481	-0.197	-0.020
-319.041	-200.000	-0.006	-0.062
-318.026	222.515	-0.163	0.265
-317.012	50.424	-0.051	-0.048
-315.997	-1.321	0.025	-0.018
-314.983	46.506	-0.307	0.287
-313.968	30.681	0.149	-0.128
-312.953	-200.000	0.024	0.157
-311.939	186.303	0.084	0.126
-310.924	800.000	0.079	-0.268
-309.910	242.333	-0.083	0.141
-308.895	800.000	-0.090	0.273
-307.880	525.000	-0.111	0.262
-306.866	86.029	-0.123	-0.136
-305.851	-200.000	0.015	0.222
-304.837	-88.309	-0.149	-0.045
-303.822	-200.000	-0.006	-0.109
-302.807	-135.165	-0.403	0.049
-301.793	-59.405	-0.257	-0.112
-300.778	-200.000	-0.004	-0.057
-299.764	-132.427	-0.084	-0.011
-298.749	364.841	-0.109	-0.221
-297.735	128.568	-0.220	-0.282
-296.720	-14.056	0.173	0.112
-295.705	-113.565	-0.250	0.049
-294.691	-108.645	-0.082	0.018
-293.676	-145.993	0.388	-0.035
-292.662	800.000	0.049	-0.158
-291.647	-200.000	0.015	-0.149
-290.632	-24.675	-0.140	0.084
-289.618	-175.086	0.108	0.003
-288.603	-37.235	-0.101	-0.054
-287.589	-200.000	0.035	-0.356
-286.574	445.959	-0.016	0.036
-285.559	39.256	0.118	0.107
-284.545	-49.864	0.225	-0.108
-283.530	-98.652	0.102	0.026
-282.516	115.498	0.099	0.122
-281.501	319.417	-0.076	-0.145
-280.486	20.397	0.283	0.230
-279.472	-52.181	-0.169	-0.079
-278.457	-178.970	0.089	-0.002
-277.443	-135.077	0.268	0.033
-276.428	800.000	-0.036	-0.131
-275.413	-68.360	0.135	0.053
-274.399	-69.435	-0.119	0.046
-273.384	162.479	-0.101	-0.143
-272.370	-20.761	0.198	-0.123
-271.355	-70.721	-0.357	0.136
-270.340	142.039	-0.279	0.372
-269.326	29.815	0.116	0.099
-268.311	800.000	-0.059	0.219
-267.297	-109.681	0.012	-0.003
-266.282	67.316	0.150	0.154
-265.267	-144.855	0.060	0.006
-264.253	43.662	-0.200	0.184
-263.238	566.098	-0.028	0.068
-262.224	473.800	-0.057	-0.129
-261.209	112.879	-0.284	-0.346
-260.195	-173.435	-0.226	0.007
-259.180	-59.815	0.284	-0.122
-258.165	-55.857	-0.510	0.229
-257.151	-20.843	-0.105	-0.065
-256.136	241.189	-0.061	0.102
-255.122	800.000	-0.133	0.431
-254.107	493.859	0.023	-0.052
-253.092	-85.326	0.234	-0.074
-252.078	241.331	-0.067	0.112
-251.063	-78.237	-0.318	0.110
-250.049	-55.773	0.313	0.141
-249.034	156.592	0.088	-0.122
-248.019	-3.249	0.139	0.098
-247.005	800.000	0.024	-0.102
-245.990	-125.796	0.448	-0.068
-244.976	-145.295	0.299	-0.027
-243.961	-200.000	-0.007	-0.249
-242.946	-100.059	-0.121	-0.030
-241.932	-51.846	0.426	-0.200
-240.917	-200.000	-0.009	-0.139
-239.903	328.015	0.143	-0.277
-238.888	800.000	0.041	0.151
-237.873	-67.293	0.080	0.031
-236.859	322.853	0.055	0.105
-235.844	8.679	-0.188	0.143
-234.830	-112.637	-0.121	-0.024
-233.815	-18.971	0.020	-0.012
-232.800	117.436	0.031	-0.038
-231.786	427.804	0.146	0.316
-230.771	266.703	-0.150	-0.263
-229.757	800.000	0.010	-0.031
-228.742	28.077	-0.065	0.055
-227.727	-200.000	0.003	0.135
-226.713	-48.739	0.222	-0.107
-225.698	-200.000	-0.049	-0.267
-224.684	-132.449	-0.113	0.015
-223.669	82.299	0.404	-0.440
-222.655	-54.702	0.323	0.147
-221.640	568.920	-0.037	0.090
-220.625	148.484	-0.206	-0.279
-219.611	-50.462	-0.289	0.137
-218.596	800.000	0.055	0.229
-217.582	156.722	0.066	-0.092
-216.567	32.662	-0.151	0.131
-215.552	49.239	0.189	-0.178
-214.538	128.931	-0.127	-0.163
-213.523	39.728	-0.105	0.095
-212.509	43.115	0.409	0.375
-211.494	-102.695	-0.192	0.046
-210.479	-16.683	0.222	0.141
-209.465	159.329	0.135	0.189
-208.450	-32.536	0.045	-0.025
-207.436	105.722	-0.267	-0.318
-206.421	153.783	0.254	-0.350
-205.406	-200.000	-0.023	0.154
-204.392	228.753	0.112	0.183
-203.377	792.772	-0.057	-0.158
-202.363	104.827	0.168	-0.199
-201.348	-19.749	-0.193	-0.120
-200.333	-200.000	-0.030	0.181
-199.319	-45.227	-0.146	-0.073
-198.304	-41.333	0.099	0.051
-197.290	341.436	0.008	0.016
-196.275	-200.000	-0.055	0.292
-195.260	-27.810	-0.088	-0.051
-194.246	-154.910	0.129	0.009
-193.231	-108.813	-0.056	-0.012
-192.217	-62.529	-0.044	0.018
-191.202	-200.000	0.023	-0.202
-190.187	203.859	-0.134	-0.208
-189.173	-95.647	0.196	0.053
-188.158	-56.881	-0.133	0.059
-187.144	113.662	-0.044	-0.054
-186.129	-200.000	0.026	0.547
-185.114	-26.472	0.244	-0.143
-184.100	-156.798	0.349	-0.022
-183.085	-96.772	-0.301	0.080
-182.071	20.499	-0.154	-0.125
-181.056	282.727	0.107	0.194
-180.042	5.001	0.179	-0.132
-179.027	10.651	0.126	-0.097
-178.012	152.972	-0.216	-0.296
-176.998	-200.000	0.013	-0.092
-175.983	-138.391	0.148	0.016
-174.969	-200.000	0.001	0.125
-173.954	-34.924	-0.362	-0.198
-172.939	-121.735	0.190	-0.032
-171.925	-200.000	0.075	0.447
-170.910	-65.304	-0.195	-0.079
-169.896	257.996	-0.083	-0.144
-168.881	200.127	0.248	-0.382
-167.866	-2.766	0.214	-0.150
-166.852	-81.979	0.162	-0.053
-165.837	-200.000	0.001	0.312
-164.823	-99.614	0.176	0.044
-163.808	-4.381	0.248	0.172
-162.793	-106.072	0.065	0.015
-161.779	120.279	-0.152	-0.189
-160.764	11.960	0.112	-0.086
-159.750	-200.000	0.015	0.158
-158.735	-76.947	-0.249	0.087
-157.720	45.478	0.226	0.209
-156.706	-83.347	0.173	-0.056
-155.691	-78.286	0.176	0.061
-154.677	-107.750	-0.160	-0.035
-153.662	209.243	0.161	0.253
-152.647	-77.837	-0.193	-0.067
-151.633	28.141	0.198	-0.167
-150.618	-200.000	-0.002	-0.134
-149.604	-200.000	0.017	0.079
-148.589	-79.729	0.321	0.108
-147.574	-7.577	-0.212	0.144
-146.560	-119.095	0.119	0.021
-145.545	-103.913	0.094	0.022
-144.531	12.603	0.284	-0.220
-143.516	-200.000	0.004	0.398
-142.502	632.649	0.073	-0.187
-141.487	-73.623	-0.144	0.053
-140.472	-23.508	0.161	0.097
-139.458	-200.000	-0.013	-0.271
-138.443	42.848	0.227	-0.208
-137.429	129.662	-0.092	0.118
-136.414	-106.247	-0.128	-0.029
-135.399	234.305	-0.144	0.238
-134.385	-7.995	0.092	0.062
-133.370	-200.000	0.015	-0.240
-132.356	239.153	-0.140	-0.234
-131.341	-49.381	-0.314	0.150
-130.326	136.437	0.301	0.393
-129.312	35.651	-0.109	0.096
-128.297	41.912	-0.112	0.102
-127.283	-200.000	-0.009	-0.126
-126.268	-200.000	-0.002	-0.252
-125.253	-17.942	-0.177	0.111
-124.239	800.000	-0.060	0.219
-123.224	-84.554	-0.239	0.075
-122.210	-146.183	0.171	0.015
