DTS Sentinel unit serial number:	SN413079Multiplexer serial number:	ORYXHardware model number:	OX4-SRSoftware version number:	ORYX F/W v4.00 Oryx Data Collector v3.7.2.0data status	okinstallation	princeton_trtdifferential loss correction	single-endedforward channel	channel 3reverse channel	N/Adate	2019/09/11time	05:42:10forward acquisition time	60.00reverse acquisition time	0.00gamma	496.2192k internal	0.2330k external	0.2330temperature offset calibration	0.9912default loss term (dB/km)	0.3790temperature slope calibration	1.0000multiplexer offset coefficient	1.0000multiplexer slope coefficient	1.0000fibre end	0.00T internal ref (°C)	29.39T ext. ref 1 (°C)	-0.20T ext. ref 2 (°C)	23.41length (m)	temperature (°C)	Stokes	anti-Stokes-747.200	57.716	0.126	-0.124
-746.185	-35.089	-0.256	-0.141
-745.171	-200.000	0.069	0.398
-744.156	162.272	0.131	-0.185
-743.142	-200.000	-0.174	0.001
-742.127	124.192	0.187	0.236
-741.112	99.861	-0.229	0.267
-740.098	-200.000	-0.057	0.309
-739.083	616.720	0.060	0.151
-738.069	575.874	-0.050	0.122
-737.054	283.816	0.120	-0.217
-736.039	84.092	0.196	0.215
-735.025	-96.065	-0.057	-0.015
-734.010	73.371	-0.051	0.054
-732.996	800.000	0.092	-0.324
-731.981	-75.768	-0.669	0.239
-730.966	-200.000	-0.003	0.058
-729.952	-200.000	0.013	-0.143
-728.937	-200.000	0.001	-0.082
-727.923	-200.000	-0.021	0.203
-726.908	717.138	0.112	-0.300
-725.894	-200.000	-0.048	-0.231
-724.879	-31.782	0.057	0.032
-723.864	4.231	-0.140	-0.103
-722.850	128.891	-0.154	-0.198
-721.835	103.677	-0.188	-0.222
-720.821	-154.564	-0.446	0.030
-719.806	-25.904	-0.207	-0.122
-718.791	-18.789	-0.186	-0.116
-717.777	-90.370	0.203	-0.059
-716.762	-63.334	-0.344	-0.143
-715.748	156.009	-0.149	-0.206
-714.733	800.000	0.105	0.370
-713.718	299.911	-0.122	-0.226
-712.704	-170.829	0.235	0.008
-711.689	-165.243	0.092	-0.004
-710.675	-200.000	0.008	0.068
-709.660	41.386	0.137	0.125
-708.645	151.936	-0.199	-0.273
-707.631	-8.313	-0.234	0.158
-706.616	-99.947	0.212	0.053
-705.602	47.784	0.197	0.185
-704.587	173.892	-0.046	0.066
-703.572	6.934	-0.300	0.225
-702.558	-81.513	-0.191	0.063
-701.543	-146.600	0.320	0.028
-700.529	-73.517	0.304	-0.112
-699.514	-17.493	-0.165	0.104
-698.499	-53.446	0.271	0.125
-697.485	-200.000	0.155	-0.000
-696.470	294.358	-0.248	-0.456
-695.456	800.000	-0.053	-0.217
-694.441	800.000	-0.065	0.242
-693.426	341.559	0.019	-0.037
-692.412	800.000	0.055	-0.173
-691.397	-90.819	-0.164	0.047
-690.383	275.293	0.073	-0.129
-689.368	-200.000	-0.054	0.287
-688.354	68.919	-0.172	0.177
-687.339	-8.853	-0.371	-0.250
-686.324	-173.825	0.248	0.007
-685.310	-40.679	-0.245	-0.128
-684.295	-51.967	0.114	-0.053
-683.281	-25.100	-0.334	-0.199
-682.266	-176.442	-0.178	-0.005
-681.251	-86.894	-0.330	-0.101
-680.237	29.483	-0.163	-0.139
-679.222	-37.455	0.190	-0.102
-678.208	-187.323	-0.013	-0.000
-677.193	268.357	0.026	0.045
-676.178	-200.000	-0.008	-0.418
-675.164	500.724	-0.071	0.164
-674.149	329.978	-0.081	0.156
-673.135	195.873	0.072	0.110
-672.120	-102.948	0.080	-0.019
-671.105	-63.364	0.020	-0.008
-670.091	800.000	-0.035	-0.146
-669.076	94.451	-0.015	0.017
-668.062	103.193	0.133	-0.156
-667.047	9.247	0.202	0.153
-666.032	229.040	0.134	0.220
-665.018	68.593	-0.093	0.095
-664.003	-99.817	-0.074	0.019
-662.989	-61.044	0.409	0.173
-661.974	-200.000	-0.021	0.174
-660.959	-75.492	-0.183	0.065
-659.945	-200.000	-0.004	-0.123
-658.930	-101.711	0.207	-0.050
-657.916	-200.000	-0.026	0.316
-656.901	109.769	-0.032	0.038
-655.886	-115.409	-0.203	0.038
-654.872	700.059	-0.058	0.154
-653.857	800.000	-0.037	0.142
-652.843	-18.292	0.062	0.039
-651.828	-1.698	-0.162	0.115
-650.814	92.669	0.115	-0.130
-649.799	-122.593	0.176	0.029
-648.784	800.000	-0.054	0.237
-647.770	222.051	-0.158	0.254
-646.755	800.000	-0.058	-0.212
-645.741	-29.111	0.132	-0.076
-644.726	-88.696	0.358	0.107
-643.711	59.646	0.207	-0.205
-642.697	620.715	-0.150	-0.377
-641.682	800.000	-0.082	-0.231
-640.668	109.290	-0.195	-0.234
-639.653	-115.262	0.147	0.028
-638.638	113.641	0.183	-0.223
-637.624	800.000	-0.105	-0.422
-636.609	1.954	0.083	-0.060
-635.595	-26.834	0.301	0.176
-634.580	59.514	-0.080	-0.079
-633.565	-121.308	0.249	-0.042
-632.551	245.765	0.174	-0.294
-631.536	-127.395	-0.115	0.017
-630.522	328.133	-0.014	-0.027
-629.507	-200.000	-0.058	-0.390
-628.492	-81.222	0.087	-0.029
-627.478	323.364	0.151	-0.288
-626.463	1.408	0.246	-0.178
-625.449	-107.818	0.218	0.048
-624.434	-78.719	-0.135	-0.046
-623.419	-166.112	-0.072	0.003
-622.405	-68.953	0.145	-0.056
-621.390	-116.050	-0.295	0.055
-620.376	-141.001	0.312	0.032
-619.361	-42.805	-0.239	-0.122
-618.346	102.250	0.234	0.274
-617.332	47.015	0.121	0.112
-616.317	-174.148	-0.078	0.002
-615.303	-130.805	-0.284	0.038
-614.288	-112.843	-0.262	0.052
-613.273	239.446	-0.242	-0.403
-612.259	13.489	-0.217	0.168
-611.244	-188.650	0.075	-0.001
-610.230	82.856	-0.039	0.043
-609.215	-144.180	0.276	-0.026
-608.201	117.202	-0.112	-0.138
-607.186	7.895	0.390	-0.292
-606.171	30.144	-0.197	0.169
-605.157	-200.000	-0.029	0.145
-604.142	186.622	-0.199	0.296
-603.128	-113.477	-0.334	-0.065
-602.113	-37.197	0.262	0.140
-601.098	-95.371	-0.336	0.090
-600.084	119.795	-0.040	-0.050
-599.069	-168.651	-0.323	0.012
-598.055	800.000	-0.090	0.260
-597.040	-60.556	0.256	-0.109
-596.025	-94.882	-0.168	-0.045
-595.011	40.887	0.085	0.077
-593.996	800.000	0.030	-0.112
-592.982	-142.037	-0.215	-0.021
-591.967	-70.294	-0.221	0.084
-590.952	-67.569	-0.157	-0.062
-589.938	800.000	-0.032	-0.103
-588.923	-9.078	-0.193	0.129
-587.909	-73.509	0.166	-0.061
-586.894	-200.000	0.038	0.000
-585.879	-79.057	-0.044	-0.015
-584.865	-71.797	-0.028	0.010
-583.850	101.355	0.183	0.214
-582.836	191.413	0.113	0.171
-581.821	212.612	0.255	-0.402
-580.806	-89.053	-0.077	-0.023
-579.792	800.000	0.095	-0.278
-578.777	-46.284	-0.157	0.077
-577.763	-126.816	-0.146	0.022
-576.748	213.624	0.163	-0.258
-575.733	-5.368	-0.130	0.089
-574.719	183.214	-0.144	-0.212
-573.704	430.390	-0.037	-0.080
-572.690	-31.413	-0.143	0.080
-571.675	259.374	-0.116	0.200
-570.661	170.405	0.266	-0.381
-569.646	-200.000	-0.004	-0.177
-568.631	-200.000	0.007	-0.140
-567.617	-30.907	-0.127	0.072
-566.602	-58.591	-0.304	-0.132
-565.588	69.626	0.110	0.113
-564.573	-75.464	0.254	0.090
-563.558	800.000	0.051	0.169
-562.544	289.946	0.065	0.117
-561.529	-158.246	0.070	0.004
-560.515	-104.671	-0.060	-0.014
-559.500	-200.000	-0.010	0.105
-558.485	-63.456	-0.143	-0.059
-557.471	800.000	-0.062	-0.244
-556.456	22.810	0.065	-0.053
-555.442	-109.612	0.142	-0.030
-554.427	112.716	0.144	0.174
-553.412	-97.990	-0.124	0.032
-552.398	-72.683	0.050	-0.018
-551.383	-200.000	0.061	-0.377
-550.369	432.522	-0.013	-0.028
-549.354	34.296	0.299	-0.260
-548.339	-117.679	0.615	-0.111
-547.325	-200.000	0.032	-0.183
-546.310	-17.254	0.234	0.147
-545.296	19.730	-0.175	0.141
-544.281	-200.000	-0.006	-0.105
-543.266	53.267	-0.157	0.151
-542.252	800.000	0.038	-0.142
-541.237	124.653	-0.252	-0.317
-540.223	-200.000	0.013	0.205
-539.208	-132.075	-0.038	0.005
-538.193	286.474	0.107	0.192
-537.179	-56.803	0.125	0.055
-536.164	-63.676	-0.144	0.059
-535.150	-87.159	0.173	0.053
-534.135	-190.668	0.073	-0.001
-533.121	-114.089	-0.102	0.020
-532.106	175.427	-0.155	-0.224
-531.091	-89.921	0.302	-0.088
-530.077	-81.734	-0.447	0.146
-529.062	701.081	0.088	0.231
-528.048	-200.000	0.024	-0.194
-527.033	395.968	-0.020	0.043
-526.018	-48.055	-0.331	0.160
-525.004	-9.239	0.253	0.169
-523.989	-130.892	-0.251	-0.034
-522.975	566.642	-0.067	0.161
-521.960	-82.329	0.157	-0.051
-520.945	-105.254	-0.365	-0.083
-519.931	205.781	-0.037	-0.058
-518.916	39.414	0.244	-0.218
-517.902	-200.000	0.000	-0.027
-516.887	-128.725	-0.291	-0.041
-515.872	-100.034	0.441	-0.110
-514.858	58.128	0.063	-0.061
-513.843	178.708	0.087	0.126
-512.829	-5.787	-0.042	-0.029
-511.814	-156.642	-0.224	-0.014
-510.799	-200.000	-0.016	-0.158
-509.785	-54.548	0.035	-0.016
-508.770	-141.401	-0.155	0.016
-507.756	-9.732	0.159	0.106
-506.741	55.774	0.200	0.194
-505.726	166.980	-0.086	-0.121
-504.712	-200.000	-0.015	0.118
-503.697	45.679	0.224	0.207
-502.683	390.717	0.073	0.151
-501.668	147.663	0.037	-0.049
-500.653	-200.000	0.008	-0.076
-499.639	-53.040	-0.267	0.122
-498.624	-200.000	0.072	-0.318
-497.610	98.159	0.111	-0.128
-496.595	-81.422	0.249	0.082
-495.581	60.828	0.172	-0.170
-494.566	-141.087	-0.123	-0.013
-493.551	-71.256	-0.118	0.044
-492.537	-73.963	-0.160	0.058
-491.522	800.000	0.098	0.355
-490.508	800.000	0.047	-0.129
-489.493	-33.464	-0.270	-0.149
-488.478	187.072	0.189	-0.281
-487.464	-43.544	-0.257	-0.129
-486.449	-68.570	-0.189	0.073
-485.435	-165.739	0.042	-0.002
-484.420	82.220	-0.267	0.288
-483.405	449.272	0.139	0.305
-482.391	-200.000	0.001	-0.035
-481.376	-120.600	-0.099	-0.017
-480.362	-100.322	0.036	0.009
-479.347	276.237	-0.083	0.148
-478.332	-101.213	0.189	0.046
-477.318	-8.160	-0.480	-0.322
-476.303	-57.317	-0.327	0.143
-475.289	40.981	0.102	-0.092
-474.274	-184.716	-0.161	0.003
-473.259	481.576	-0.054	0.122
-472.245	406.261	0.077	0.162
-471.230	28.543	-0.079	0.067
-470.216	-179.091	0.208	0.005
-469.201	-64.091	-0.233	0.095
-468.186	254.707	0.128	0.219
-467.172	21.262	-0.262	0.212
-466.157	50.166	0.241	0.226
-465.143	90.335	-0.189	-0.210
-464.128	-27.080	-0.171	-0.099
-463.113	-133.079	-0.285	0.036
-462.099	68.964	-0.301	-0.308
-461.084	11.523	0.159	0.121
-460.070	-166.149	0.040	0.002
-459.055	-200.000	0.019	0.287
-458.040	9.687	0.182	0.138
-457.026	-8.045	-0.113	-0.076
-456.011	-19.112	0.265	-0.164
-454.997	-28.758	0.132	0.076
-453.982	419.029	-0.097	0.206
-452.968	-200.000	-0.047	-0.314
-451.953	30.399	-0.214	-0.182
-450.938	-151.557	0.211	0.016
-449.924	53.181	-0.211	0.201
-448.909	800.000	0.095	-0.284
-447.895	-200.000	-0.004	0.067
-446.880	61.073	0.123	-0.122
-445.865	87.323	-0.217	0.239
-444.851	-200.000	-0.015	-0.261
-443.836	-83.469	-0.216	-0.069
-442.822	351.564	-0.012	-0.023
-441.807	50.172	0.166	0.156
-440.792	3.090	0.081	-0.059
-439.778	-200.000	0.031	-0.365
-438.763	-134.817	0.257	-0.031
-437.749	448.341	-0.192	-0.421
-436.734	-8.571	-0.074	-0.049
-435.719	201.402	0.138	0.212
-434.705	800.000	0.032	0.115
-433.690	-183.156	0.096	0.002
-432.676	800.000	-0.024	-0.070
-431.661	467.398	0.111	-0.247
-430.646	-200.000	0.040	0.190
-429.632	-99.496	-0.133	-0.033
-428.617	220.823	-0.153	-0.244
-427.603	-164.007	-0.181	0.008
-426.588	800.000	-0.068	-0.206
-425.573	-200.000	-0.017	0.118
-424.559	242.095	0.133	0.222
-423.544	74.619	0.144	-0.151
-422.530	-200.000	-0.004	-0.091
-421.515	188.134	-0.129	0.192
-420.500	-1.616	-0.330	-0.231
-419.486	-75.134	-0.201	-0.072
-418.471	800.000	-0.066	-0.209
-417.457	761.488	-0.152	-0.409
-416.442	-43.578	0.210	0.105
-415.428	-125.640	0.180	-0.027
-414.413	205.484	0.108	-0.167
-413.398	322.154	-0.066	-0.125
-412.384	-7.439	-0.223	0.150
-411.369	45.143	0.246	0.226
-410.355	800.000	0.129	0.456
-409.340	228.823	-0.051	0.082
-408.325	111.788	0.111	0.133
-407.311	20.205	0.216	0.174
-406.296	127.082	-0.225	0.284
-405.282	32.477	-0.117	0.100
-404.267	-147.267	-0.470	0.040
-403.252	-200.000	0.002	0.116
-402.238	-153.215	-0.167	-0.012
-401.223	-120.371	0.179	-0.030
-400.209	20.236	-0.258	0.207
-399.194	-200.000	0.032	0.291
-398.179	-200.000	-0.015	0.475
-397.165	-89.179	-0.274	0.080
-396.150	800.000	0.030	0.091
-395.136	19.691	-0.162	-0.130
-394.121	-27.998	-0.249	-0.143
-393.106	-91.806	-0.230	-0.065
-392.092	-200.000	0.013	-0.190
-391.077	-200.000	-0.014	-0.142
-390.063	-182.774	0.109	-0.002
-389.048	-54.804	0.128	0.057
-388.033	554.676	0.066	-0.157
-387.019	-145.199	0.416	0.037
-386.004	71.163	0.043	0.044
-384.990	-200.000	0.023	0.117
-383.975	-24.494	0.390	0.231
-382.960	490.028	0.065	0.148
-381.946	88.686	-0.097	0.107
-380.931	77.382	0.214	-0.226
-379.917	-200.000	0.034	0.156
-378.902	-133.912	-0.453	-0.056
-377.888	800.000	-0.010	-0.045
-376.873	89.395	0.405	-0.448
-375.858	800.000	-0.026	0.089
-374.844	800.000	-0.140	0.401
-373.829	3.513	-0.212	-0.153
-372.815	800.000	-0.039	0.133
-371.800	-38.843	-0.102	-0.053
-370.785	253.354	0.100	-0.170
-369.771	-200.000	-0.006	0.064
-368.756	175.444	-0.054	0.078
-367.742	-110.579	-0.228	-0.047
-366.727	-4.028	0.270	0.186
-365.712	-136.738	-0.036	0.004
-364.698	45.400	-0.125	0.115
-363.683	7.365	0.223	0.165
-362.669	-93.976	-0.370	-0.101
-361.654	800.000	0.103	-0.350
-360.639	33.048	-0.035	-0.030
-359.625	800.000	-0.038	0.122
-358.610	-200.000	0.005	0.253
-357.596	127.302	-0.144	-0.181
-356.581	-139.887	-0.111	0.012
-355.566	425.668	0.117	0.250
-354.552	-200.000	-0.004	-0.202
-353.537	144.282	-0.054	0.071
-352.523	346.258	0.136	0.264
-351.508	40.442	-0.151	-0.135
-350.493	-31.527	0.172	0.096
-349.479	-107.447	-0.257	0.056
-348.464	-143.401	0.237	-0.022
-347.450	230.842	0.072	0.117
-346.435	-141.699	0.057	0.006
-345.420	-52.602	0.184	-0.084
-344.406	228.752	-0.044	-0.072
-343.391	-49.477	-0.315	-0.149
-342.377	-67.604	-0.071	-0.028
-341.362	-135.182	0.276	-0.033
-340.348	-82.886	-0.106	0.034
-339.333	800.000	0.180	-0.519
-338.318	268.062	-0.091	-0.158
-337.304	-110.255	-0.116	0.024
-336.289	800.000	0.116	0.437
-335.275	-115.451	0.228	0.043
-334.260	278.923	0.071	0.126
-333.245	-120.530	-0.166	-0.028
-332.231	-51.693	-0.138	0.064
-331.216	-173.189	0.043	0.001
-330.202	500.183	-0.063	-0.144
-329.187	-98.916	0.135	-0.034
-328.172	-2.361	-0.091	0.063
-327.158	800.000	0.103	0.396
-326.143	163.621	-0.194	-0.271
-325.129	-200.000	0.022	0.300
-324.114	-200.000	0.031	0.351
-323.099	-28.102	0.273	0.157
-322.085	-9.367	-0.267	0.177
-321.070	-58.379	0.131	-0.056
-320.056	-200.000	-0.033	-0.186
-319.041	34.853	-0.186	0.161
-318.026	-103.894	-0.175	-0.040
-317.012	276.084	0.131	-0.230
-315.997	187.264	-0.111	0.163
-314.983	44.130	0.176	0.160
-313.968	-200.000	0.026	-0.347
-312.953	18.192	-0.014	-0.011
-311.939	-200.000	-0.004	0.150
-310.924	141.303	0.245	-0.322
-309.910	-57.619	-0.168	-0.073
-308.895	-85.306	0.515	-0.159
-307.880	-200.000	-0.085	0.376
-306.866	-200.000	0.008	0.153
-305.851	-33.080	0.307	-0.168
-304.837	-200.000	0.030	0.211
-303.822	-33.964	0.058	0.031
-302.807	-200.000	-0.101	0.459
-301.793	-83.823	0.366	-0.115
-300.778	255.358	0.144	0.245
-299.764	-43.955	-0.064	0.032
-298.749	-200.000	0.037	-0.238
-297.735	-96.314	0.085	-0.022
-296.720	-40.329	-0.209	0.107
-295.705	451.839	0.210	-0.458
-294.691	473.910	-0.049	-0.108
-293.676	-136.164	-0.171	-0.020
-292.662	-8.425	0.307	0.204
-291.647	-200.000	0.024	0.155
-290.632	800.000	-0.018	0.050
-289.618	105.837	-0.257	0.300
-288.603	-200.000	0.002	-0.056
-287.589	255.248	0.139	0.236
-286.574	65.266	0.113	-0.113
-285.559	-114.136	-0.347	-0.066
-284.545	800.000	0.167	-0.568
-283.530	-200.000	0.007	0.051
-282.516	-50.772	0.238	-0.111
-281.501	-128.932	-0.254	-0.035
-280.486	255.147	0.116	0.197
-279.472	427.930	-0.044	-0.094
-278.457	-103.903	-0.201	0.046
-277.443	204.686	0.092	0.141
-276.428	-183.053	0.331	-0.006
-275.413	-11.454	-0.136	-0.088
-274.399	-193.594	-0.206	0.002
-273.384	64.007	0.310	-0.308
-272.370	-200.000	0.009	-0.148
-271.355	25.826	0.151	0.124
-270.340	800.000	0.074	-0.281
-269.326	-86.059	0.238	-0.073
-268.311	200.241	-0.121	0.183
-267.297	-18.927	0.251	-0.154
-266.282	21.936	-0.152	-0.123
-265.267	-200.000	0.005	0.215
-264.253	-34.551	0.237	0.128
-263.238	739.970	-0.009	-0.023
-262.224	646.807	0.105	0.265
-261.209	-30.596	-0.361	-0.202
-260.195	168.932	-0.225	-0.318
-259.180	159.842	-0.086	0.119
-258.165	-108.537	-0.172	0.037
-257.151	-55.020	0.164	-0.073
-256.136	-126.756	0.193	0.028
-255.122	20.934	0.230	0.185
-254.107	-200.000	-0.010	-0.073
-253.092	-10.159	0.234	-0.154
-252.078	-7.215	0.153	-0.102
-251.063	-65.240	0.257	-0.102
-250.049	-83.027	0.462	-0.147
-249.034	121.185	-0.142	0.174
-248.019	-140.567	-0.124	0.013
-247.005	-45.061	-0.298	0.147
-245.990	-200.000	0.009	0.121
-244.976	-71.680	-0.159	-0.059
-243.961	230.059	0.113	-0.183
-242.946	-200.000	-0.101	-0.467
-241.932	-112.621	-0.069	0.014
-240.917	-200.000	-0.026	0.148
-239.903	-200.000	-0.015	0.178
-238.888	98.576	-0.213	0.242
-237.873	63.901	-0.143	-0.142
-236.859	-200.000	-0.022	0.208
-235.844	-93.072	0.232	0.064
-234.830	-200.000	-0.004	0.062
-233.815	-19.878	0.224	0.136
-232.800	41.294	0.133	-0.119
-231.786	269.926	0.124	0.215
-230.771	96.419	-0.419	-0.473
-229.757	-10.858	0.181	-0.118
-228.742	-139.835	0.090	0.009
-227.727	-200.000	0.078	0.397
-226.713	800.000	-0.055	-0.156
-225.698	55.720	0.045	0.043
-224.684	236.877	-0.100	0.164
-223.669	56.589	0.090	0.087
-222.655	-200.000	-0.000	0.356
-221.640	800.000	-0.103	0.441
-220.625	19.643	0.082	0.065
-219.611	245.983	0.113	-0.188
-218.596	800.000	0.071	0.216
-217.582	800.000	-0.036	0.151
-216.567	-26.686	-0.292	-0.168
-215.552	-51.218	-0.254	0.117
-214.538	154.205	0.170	-0.229
-213.523	36.963	0.160	-0.140
-212.509	-105.461	-0.141	-0.032
-211.494	157.346	0.148	-0.202
-210.479	-200.000	0.024	-0.352
-209.465	389.040	-0.191	0.391
-208.450	-119.434	0.195	-0.033
-207.436	-200.000	-0.015	-0.095
-206.421	151.292	-0.140	-0.188
-205.406	-159.633	0.101	-0.006
-204.392	173.839	-0.199	-0.283
-203.377	97.951	-0.157	-0.179
-202.363	-200.000	0.049	0.311
-201.348	-176.385	0.311	0.008
-200.333	-200.000	-0.005	-0.050
-199.319	493.200	-0.045	0.101
-198.304	-60.261	0.108	-0.045
-197.290	7.260	-0.100	-0.074
-196.275	-60.098	-0.171	-0.072
-195.260	549.777	-0.059	0.139
-194.246	225.881	0.017	-0.027
-193.231	-200.000	-0.053	0.380
-192.217	-80.282	-0.077	-0.025
-191.202	50.832	-0.272	-0.254
-190.187	-111.331	0.246	-0.049
-189.173	-78.200	-0.407	0.138
-188.158	-200.000	0.023	-0.152
-187.144	-200.000	0.013	0.226
-186.129	800.000	-0.033	-0.103
-185.114	-22.880	-0.110	-0.065
-184.100	88.383	0.126	-0.137
-183.085	34.898	-0.176	0.152
-182.071	28.904	-0.217	0.181
-181.056	232.800	0.097	0.157
-180.042	339.766	0.055	-0.106
-179.027	-151.384	-0.110	-0.008
-178.012	-197.233	0.062	-0.000
-176.998	-101.869	0.109	0.026
-175.983	-174.473	0.156	-0.004
-174.969	89.228	0.165	-0.181
-173.954	-89.736	-0.286	-0.082
-172.939	800.000	-0.044	0.170
-171.925	-33.121	0.216	0.118
-170.910	-200.000	-0.002	0.087
-169.896	158.522	0.080	0.110
-168.881	-27.942	-0.403	-0.230
-167.866	-58.069	0.197	0.084
-166.852	-137.626	0.242	0.027
-165.837	4.495	0.128	-0.093
-164.823	-63.068	-0.132	0.054
-163.808	-133.787	0.245	0.030
-162.793	508.035	0.069	0.159
-161.779	-20.790	0.353	0.213
-160.764	-67.530	-0.198	-0.076
-159.750	-12.253	0.114	0.073
-158.735	455.281	0.073	-0.160
-157.720	-42.965	0.263	0.131
-156.706	-10.784	0.280	-0.182
-155.691	800.000	-0.117	0.439
-154.677	-139.890	-0.152	0.016
-153.662	800.000	-0.082	0.253
-152.647	-16.831	-0.067	-0.042
-151.633	-90.250	0.040	0.011
-150.618	800.000	0.160	0.444
-149.604	593.946	-0.044	-0.107
-148.589	94.953	0.299	0.334
-147.574	435.001	-0.031	0.065
-146.560	577.191	-0.086	0.206
-145.545	771.346	0.115	0.309
-144.531	1.807	0.177	-0.125
-143.516	382.443	-0.163	0.329
-142.502	-103.130	-0.156	0.036
-141.487	-27.099	0.149	-0.085
-140.472	800.000	0.141	0.438
-139.458	-79.782	-0.191	-0.063
-138.443	-74.671	0.249	0.088
-137.429	56.448	0.083	0.080
-136.414	273.453	0.102	0.177
-135.399	-92.186	-0.154	0.043
-134.385	-200.000	0.017	0.199
-133.370	-52.508	0.339	0.154
-132.356	173.565	-0.171	-0.243
-131.341	-28.649	0.212	-0.120
-130.326	71.838	0.061	-0.062
-129.312	106.230	0.090	0.105
-128.297	-74.749	-0.179	0.063
-127.283	232.205	-0.124	-0.200
-126.268	-200.000	0.019	-0.300
-125.253	-39.349	0.065	0.033
-124.239	-68.238	-0.101	-0.039
-123.224	-200.000	-0.003	0.440
-122.210	800.000	-0.087	0.336
-121.195	118.810	0.072	-0.087
