DTS Sentinel unit serial number:	SN413079Multiplexer serial number:	ORYXHardware model number:	OX4-SRSoftware version number:	ORYX F/W v4.00 Oryx Data Collector v3.7.2.0data status	okinstallation	princeton_trtdifferential loss correction	single-endedforward channel	channel 3reverse channel	N/Adate	2019/09/11time	06:58:11forward acquisition time	60.00reverse acquisition time	0.00gamma	496.2192k internal	0.2328k external	0.2328temperature offset calibration	0.9906default loss term (dB/km)	0.3790temperature slope calibration	1.0000multiplexer offset coefficient	1.0000multiplexer slope coefficient	1.0000fibre end	0.00T internal ref (°C)	30.06T ext. ref 1 (°C)	-0.14T ext. ref 2 (°C)	25.54length (m)	temperature (°C)	Stokes	anti-Stokes-747.200	-77.052	-0.204	0.072
-746.185	625.886	0.021	-0.052
-745.171	-65.382	-0.368	-0.149
-744.156	398.590	0.005	-0.010
-743.142	98.243	0.178	0.207
-742.127	-101.357	-0.406	0.100
-741.112	1.084	0.079	-0.057
-740.098	-200.000	0.042	-0.191
-739.083	251.160	-0.066	0.112
-738.069	-48.125	0.222	0.108
-737.054	-200.000	0.046	-0.221
-736.039	-185.086	-0.254	0.004
-735.025	-200.000	0.023	0.154
-734.010	163.746	-0.070	0.099
-732.996	-87.195	-0.214	0.065
-731.981	-200.000	-0.006	0.480
-730.966	237.541	-0.090	-0.150
-729.952	-200.000	0.014	-0.162
-728.937	28.821	0.064	-0.055
-727.923	-57.619	0.375	0.165
-726.908	-99.672	-0.310	-0.078
-725.894	101.176	0.045	0.053
-724.879	-9.535	0.072	-0.049
-723.864	-200.000	-0.007	0.133
-722.850	3.198	-0.130	0.095
-721.835	122.639	0.166	0.209
-720.821	486.982	0.049	-0.113
-719.806	-200.000	-0.027	-0.210
-718.791	-162.841	0.290	-0.014
-717.777	-51.191	-0.236	-0.111
-716.762	-177.465	-0.097	0.002
-715.748	45.207	0.257	-0.239
-714.733	46.607	-0.147	-0.137
-713.718	-200.000	-0.024	-0.155
-712.704	-89.961	-0.188	0.055
-711.689	209.596	0.101	-0.159
-710.675	-115.894	-0.190	-0.036
-709.660	-200.000	0.017	0.262
-708.645	-200.000	0.001	0.143
-707.631	483.223	-0.009	0.021
-706.616	800.000	-0.090	0.322
-705.602	752.097	0.105	-0.284
-704.587	592.045	-0.115	0.286
-703.572	-65.639	0.047	-0.019
-702.558	10.404	-0.198	0.151
-701.543	-164.560	-0.409	-0.019
-700.529	-43.049	-0.285	-0.145
-699.514	-41.283	-0.055	0.028
-698.499	-109.387	-0.185	0.039
-697.485	-31.101	-0.110	0.062
-696.470	-200.000	-0.001	0.205
-695.456	-118.040	0.149	-0.027
-694.441	91.155	-0.146	-0.165
-693.426	-110.959	0.237	0.049
-692.412	108.009	-0.323	-0.387
-691.397	-101.637	0.225	-0.055
-690.383	178.024	0.167	0.245
-689.368	-49.984	-0.232	0.110
-688.354	-200.000	0.009	0.099
-687.339	272.434	-0.176	-0.313
-686.324	25.584	0.160	-0.134
-685.310	39.050	-0.181	0.163
-684.295	-112.510	0.154	-0.031
-683.281	221.913	-0.179	-0.290
-682.266	-200.000	0.015	-0.289
-681.251	69.289	0.100	0.104
-680.237	-102.348	0.306	-0.074
-679.222	-197.623	0.311	0.002
-678.208	-14.289	-0.101	-0.066
-677.193	800.000	0.024	0.071
-676.178	-65.037	-0.091	-0.037
-675.164	-200.000	0.011	-0.064
-674.149	-53.513	-0.185	-0.085
-673.135	430.596	-0.179	0.389
-672.120	-200.000	-0.025	0.156
-671.105	-167.228	0.128	0.005
-670.091	21.937	0.161	0.132
-669.076	96.679	-0.103	-0.119
-668.062	-162.961	-0.119	0.006
-667.047	125.664	-0.082	-0.104
-666.032	31.488	0.082	0.070
-665.018	-69.602	0.208	-0.080
-664.003	-63.256	-0.109	-0.045
-662.989	179.703	0.079	-0.116
-661.974	57.312	-0.021	0.020
-660.959	13.720	-0.171	-0.133
-659.945	-132.438	-0.171	0.022
-658.930	-65.153	-0.194	-0.079
-657.916	-143.110	-0.529	-0.051
-656.901	84.215	0.076	-0.084
-655.886	18.231	-0.202	-0.162
-654.872	53.788	-0.235	-0.227
-653.857	-53.447	-0.058	0.027
-652.843	-200.000	-0.024	-0.235
-651.828	4.476	0.159	-0.117
-650.814	140.408	0.366	-0.485
-649.799	616.594	-0.090	-0.226
-648.784	-30.163	0.241	-0.138
-647.770	800.000	-0.093	-0.271
-646.755	64.795	0.115	-0.117
-645.741	800.000	0.061	-0.232
-644.726	581.918	-0.150	0.370
-643.711	511.444	-0.077	0.180
-642.697	-79.438	0.251	0.085
-641.682	54.922	0.165	-0.160
-640.668	243.749	-0.149	-0.252
-639.653	-40.766	0.272	-0.141
-638.638	-81.676	0.288	0.095
-637.624	593.145	0.070	-0.174
-636.609	-169.382	-0.261	0.010
-635.595	-200.000	0.014	0.300
-634.580	-150.121	-0.051	0.004
-633.565	46.626	0.076	-0.071
-632.551	417.218	-0.089	0.191
-631.536	654.713	-0.074	-0.189
-630.522	458.979	-0.103	0.230
-629.507	73.854	0.248	0.261
-628.492	-200.000	-0.008	-0.286
-627.478	-3.561	-0.061	-0.042
-626.463	1.003	0.260	-0.187
-625.449	-200.000	-0.047	0.233
-624.434	79.655	0.120	-0.129
-623.419	-187.477	-0.089	0.001
-622.405	-1.312	0.054	0.038
-621.390	-113.738	-0.152	-0.030
-620.376	61.020	-0.329	-0.327
-619.361	217.515	0.125	-0.200
-618.346	-200.000	-0.001	-0.190
-617.332	21.003	0.062	0.050
-616.317	-200.000	-0.009	-0.169
-615.303	800.000	-0.019	0.071
-614.288	-2.116	-0.090	0.064
-613.273	-104.939	-0.174	-0.040
-612.259	141.733	0.113	-0.149
-611.244	-200.000	-0.028	0.133
-610.230	606.319	-0.093	-0.233
-609.215	-113.394	-0.163	-0.032
-608.201	279.630	-0.031	-0.055
-607.186	-200.000	0.022	-0.152
-606.171	497.535	0.112	0.259
-605.157	519.032	0.035	0.082
-604.142	508.441	0.025	0.058
-603.128	385.083	-0.175	-0.361
-602.113	99.407	0.101	-0.117
-601.098	-55.029	0.400	0.180
-600.084	274.579	0.197	0.350
-599.069	-59.404	0.083	-0.036
-598.055	115.355	0.144	0.176
-597.040	-121.177	-0.188	-0.032
-596.025	350.466	0.091	-0.181
-595.011	-137.302	0.246	-0.028
-593.996	-82.244	0.131	-0.043
-592.982	-43.529	0.190	-0.096
-591.967	372.182	-0.213	0.433
-590.952	-200.000	-0.039	0.275
-589.938	13.192	0.069	0.054
-588.923	163.251	-0.177	-0.250
-587.909	255.050	0.134	0.229
-586.894	-66.276	0.286	-0.114
-585.879	78.046	-0.145	-0.155
-584.865	22.396	-0.143	0.117
-583.850	-200.000	0.044	0.205
-582.836	36.515	-0.082	-0.072
-581.821	-200.000	-0.052	0.239
-580.806	-119.777	0.246	0.042
-579.792	-200.000	-0.018	0.221
-578.777	-34.634	-0.095	0.052
-577.763	-186.985	-0.075	0.001
-576.748	12.903	-0.194	-0.150
-575.733	-84.959	-0.285	-0.089
-574.719	-6.393	-0.252	-0.172
-573.704	307.459	0.216	-0.402
-572.690	-47.933	0.163	-0.079
-571.675	-77.574	-0.247	0.086
-570.661	-120.453	-0.206	0.035
-569.646	-116.534	-0.196	0.036
-568.631	6.096	-0.358	0.265
-567.617	800.000	-0.048	-0.141
-566.602	-118.384	0.201	0.036
-565.588	-148.580	0.120	0.010
-564.573	-200.000	-0.002	0.028
-563.558	-164.474	-0.267	-0.012
-562.544	141.586	0.196	-0.260
-561.529	-95.249	-0.428	0.115
-560.515	800.000	0.039	-0.143
-559.500	-200.000	-0.003	-0.120
-558.485	67.914	-0.032	-0.033
-557.471	-81.351	-0.255	0.084
-556.456	-55.970	0.211	-0.094
-555.442	10.681	-0.121	-0.093
-554.427	78.128	0.081	0.087
-553.412	-200.000	-0.073	-0.329
-552.398	58.172	0.294	-0.288
-551.383	312.591	-0.072	-0.136
-550.369	-50.986	-0.626	-0.294
-549.354	-17.579	-0.215	-0.135
-548.339	-200.000	-0.067	0.500
-547.325	62.665	-0.182	0.182
-546.310	-88.416	0.288	-0.086
-545.296	-200.000	-0.033	-0.249
-544.281	-44.959	0.366	0.182
-543.266	-61.162	-0.124	-0.052
-542.252	-26.174	0.073	-0.043
-541.237	183.064	-0.199	0.294
-540.223	-135.345	-0.237	0.028
-539.208	84.789	0.120	-0.132
-538.193	309.711	-0.080	-0.151
-537.179	274.946	0.110	-0.195
-536.164	298.673	-0.114	0.209
-535.150	594.698	-0.110	0.273
-534.135	1.175	0.062	-0.044
-533.121	800.000	-0.062	0.261
-532.106	10.758	-0.336	0.256
-531.091	378.482	0.189	-0.388
-530.077	-89.520	-0.380	0.112
-529.062	-37.885	-0.194	-0.103
-528.048	157.152	-0.281	-0.388
-527.033	99.981	-0.220	-0.255
-526.018	63.484	0.042	-0.042
-525.004	253.658	-0.134	-0.229
-523.989	-9.001	-0.183	0.123
-522.975	-88.646	0.200	-0.059
-521.960	-42.424	-0.111	0.057
-520.945	151.887	0.118	-0.161
-519.931	-115.269	-0.188	-0.035
-518.916	-200.000	-0.005	0.038
-517.902	476.053	-0.059	0.132
-516.887	-167.083	-0.069	0.003
-515.872	-106.713	0.108	0.024
-514.858	6.735	-0.317	0.235
-513.843	440.726	0.045	0.098
-512.829	-200.000	0.007	0.160
-511.814	-7.565	-0.264	-0.178
-510.799	-13.378	0.237	-0.154
-509.785	-200.000	-0.055	-0.336
-508.770	295.806	0.078	0.142
-507.756	143.886	0.034	0.045
-506.741	-64.397	0.231	-0.094
-505.726	4.478	-0.229	0.168
-504.712	-8.209	-0.246	-0.165
-503.697	70.050	-0.206	-0.212
-502.683	131.798	-0.039	-0.050
-501.668	-37.707	-0.081	0.043
-500.653	-105.832	-0.394	-0.089
-499.639	800.000	0.118	-0.408
-498.624	-119.354	-0.297	0.052
-497.610	-200.000	0.058	0.325
-496.595	463.815	-0.133	-0.297
-495.581	-113.420	0.280	-0.055
-494.566	1.654	0.142	0.102
-493.551	-100.594	-0.321	-0.079
-492.537	151.922	-0.146	-0.198
-491.522	-200.000	0.062	0.391
-490.508	-200.000	0.008	0.132
-489.493	249.507	0.143	-0.242
-488.478	-0.118	-0.199	-0.141
-487.464	577.569	0.050	-0.123
-486.449	550.950	0.080	0.191
-485.435	34.880	-0.245	0.214
-484.420	-141.430	-0.088	-0.009
-483.405	-44.946	0.126	-0.063
-482.391	-200.000	-0.033	-0.225
-481.376	55.354	-0.189	0.183
-480.362	536.938	-0.057	0.135
-479.347	-128.193	0.393	0.056
-478.332	-37.529	0.172	0.091
-477.318	7.199	-0.202	-0.150
-476.303	-161.175	0.356	0.019
-475.289	31.134	0.084	-0.072
-474.274	800.000	-0.123	0.361
-473.259	28.606	-0.285	0.240
-472.245	111.626	0.103	0.124
-471.230	83.422	-0.134	0.146
-470.216	-101.525	-0.222	-0.054
-469.201	84.980	0.033	-0.036
-468.186	-65.744	0.142	-0.057
-467.172	150.286	-0.020	0.027
-466.157	-200.000	-0.043	0.191
-465.143	-200.000	-0.026	-0.204
-464.128	103.684	-0.276	0.323
-463.113	800.000	0.073	0.267
-462.099	-121.681	0.053	-0.009
-461.084	800.000	0.068	0.248
-460.070	218.276	0.058	0.093
-459.055	87.596	-0.186	-0.206
-458.040	800.000	0.031	0.110
-457.026	80.622	-0.017	0.018
-456.011	40.608	0.211	0.189
-454.997	37.331	-0.222	-0.196
-453.982	176.358	-0.078	-0.114
-452.968	-68.272	-0.373	0.145
-451.953	1.262	-0.237	-0.170
-450.938	-86.814	0.058	0.018
-449.924	-111.127	-0.230	-0.047
-448.909	-96.441	-0.072	-0.019
-447.895	-200.000	0.036	-0.259
-446.880	-200.000	-0.004	0.397
-445.865	800.000	0.033	0.117
-444.851	61.193	-0.247	0.245
-443.836	-200.000	-0.001	0.203
-442.822	126.527	-0.130	0.164
-441.807	-200.000	0.014	-0.070
-440.792	748.427	0.158	0.425
-439.778	728.567	0.062	0.165
-438.763	-168.022	0.232	-0.009
-437.749	-91.202	-0.235	-0.067
-436.734	-159.890	0.090	0.005
-435.719	800.000	0.084	-0.262
-434.705	558.648	0.040	-0.097
-433.690	-200.000	0.012	0.157
-432.676	-86.545	-0.288	-0.088
-431.661	-91.150	-0.058	0.017
-430.646	-103.002	0.052	-0.012
-429.632	18.971	-0.124	0.099
-428.617	-159.531	-0.046	0.003
-427.603	234.069	-0.071	-0.116
-426.588	-181.541	-0.376	0.007
-425.573	94.860	0.219	0.248
-424.559	58.260	0.063	-0.061
-423.544	572.236	0.085	-0.205
-422.530	-95.155	-0.249	0.067
-421.515	-18.253	0.234	-0.146
-420.500	9.074	-0.282	-0.212
-419.486	-108.836	0.460	-0.098
-418.471	190.874	0.111	0.165
-417.457	221.588	0.151	0.241
-416.442	76.677	0.042	-0.044
-415.428	-17.312	-0.102	-0.064
-414.413	800.000	0.078	0.244
-413.398	-92.541	0.158	-0.044
-412.384	-34.027	0.155	-0.085
-411.369	132.973	0.037	-0.047
-410.355	-70.446	0.131	0.049
-409.340	-200.000	-0.060	0.326
-408.325	-13.511	0.175	0.113
-407.311	71.215	0.194	0.200
-406.296	226.215	0.070	-0.112
-405.282	-105.920	0.254	0.057
-404.267	-200.000	0.081	-0.370
-403.252	-114.298	-0.497	0.095
-402.238	9.587	0.365	0.275
-401.223	419.780	0.084	-0.180
-400.209	-31.974	-0.105	-0.058
-399.194	100.717	0.164	0.190
-398.179	-123.987	0.270	-0.042
-397.165	26.800	-0.367	0.306
-396.150	-63.968	0.128	-0.052
-395.136	191.128	0.261	-0.391
-394.121	-145.665	0.426	0.038
-393.106	-98.747	-0.247	-0.063
-392.092	-119.595	-0.349	-0.060
-391.077	-103.039	0.244	-0.057
-390.063	-200.000	-0.039	0.358
-389.048	-200.000	-0.037	-0.479
-388.033	-200.000	0.037	-0.169
-387.019	-200.000	-0.001	-0.172
-386.004	553.422	-0.046	-0.110
-384.990	-133.091	0.434	-0.055
-383.975	33.205	-0.277	0.238
-382.960	-59.826	0.094	0.040
-381.946	-107.778	0.066	0.014
-380.931	800.000	0.091	0.315
-379.917	-77.698	0.169	-0.058
-378.902	53.352	0.146	0.139
-377.888	-127.311	0.459	0.066
-376.873	-25.554	-0.374	-0.219
-375.858	-117.685	-0.236	-0.042
-374.844	-200.000	-0.053	0.270
-373.829	194.180	-0.135	-0.204
-372.815	250.708	0.098	0.165
-371.800	-108.839	-0.181	-0.039
-370.785	-26.062	0.419	0.245
-369.771	614.310	0.132	0.328
-368.756	-24.983	0.190	-0.112
-367.742	-88.760	-0.225	-0.066
-366.727	64.180	-0.051	0.051
-365.712	156.068	0.037	0.050
-364.698	-104.963	-0.018	-0.004
-363.683	145.196	0.137	-0.182
-362.669	-103.146	0.152	0.036
-361.654	-46.800	-0.206	0.100
-360.639	-35.644	-0.208	-0.112
-359.625	351.284	0.107	0.210
-358.610	-110.107	0.275	0.057
-357.596	233.974	0.102	0.167
-356.581	800.000	0.044	-0.145
-355.566	68.453	0.277	-0.282
-354.552	-149.393	0.265	0.021
-353.537	800.000	0.040	0.163
-352.523	-13.932	-0.172	0.110
-351.508	-47.684	0.303	0.146
-350.493	-136.390	-0.197	-0.023
-349.479	-200.000	-0.013	0.096
-348.464	112.112	-0.192	-0.230
-347.450	-68.350	-0.090	-0.035
-346.435	-9.590	0.124	0.082
-345.420	93.038	-0.040	-0.045
-344.406	800.000	-0.078	-0.316
-343.391	-94.265	0.369	-0.100
-342.377	-104.520	-0.217	-0.050
-341.362	63.721	0.135	-0.134
-340.348	662.546	0.067	-0.171
-339.333	155.684	0.218	-0.298
-338.318	61.379	0.116	0.114
-337.304	-124.602	-0.154	-0.024
-336.289	113.116	0.112	-0.135
-335.275	800.000	-0.111	0.316
-334.260	290.511	-0.135	0.243
-333.245	4.834	-0.151	0.110
-332.231	-200.000	0.005	-0.089
-331.216	-107.058	-0.293	0.064
-330.202	102.708	-0.075	-0.087
-329.187	-200.000	-0.002	-0.143
-328.172	35.473	0.240	0.209
-327.158	43.653	-0.249	-0.226
-326.143	432.408	0.116	-0.249
-325.129	-154.643	0.256	0.017
-324.114	-104.518	-0.218	-0.050
-323.099	422.223	-0.168	0.357
-322.085	-200.000	-0.016	-0.121
-321.070	-200.000	-0.037	-0.425
-320.056	-200.000	0.011	-0.292
-319.041	-199.193	0.198	0.001
-318.026	800.000	0.060	-0.211
-317.012	-102.025	-0.257	-0.061
-315.997	-80.688	0.265	0.087
-314.983	-200.000	-0.006	-0.130
-313.968	92.629	0.205	0.229
-312.953	67.126	0.102	0.103
-311.939	275.000	0.106	0.186
-310.924	-63.470	-0.192	-0.078
-309.910	295.475	-0.102	0.186
-308.895	221.546	0.185	0.294
-307.880	155.749	-0.089	0.122
-306.866	-174.318	0.104	0.003
-305.851	26.926	-0.132	-0.110
-304.837	-52.642	-0.111	0.051
-303.822	-200.000	0.013	0.097
-302.807	8.691	0.038	-0.028
-301.793	54.459	0.058	0.055
-300.778	-118.193	-0.376	-0.066
-299.764	-70.942	0.155	0.058
-298.749	384.637	-0.081	-0.165
-297.735	-25.260	0.264	0.155
-296.720	-33.075	0.340	-0.187
-295.705	-200.000	-0.019	-0.205
-294.691	-68.452	-0.233	-0.090
-293.676	-4.297	0.175	-0.120
-292.662	-87.561	-0.116	-0.035
-291.647	199.466	0.018	0.027
-290.632	-200.000	0.002	0.049
-289.618	-102.262	0.078	-0.019
-288.603	-51.710	0.227	0.105
-287.589	50.192	0.152	0.142
-286.574	73.075	0.132	0.137
-285.559	278.441	-0.076	-0.135
-284.545	-96.027	-0.378	-0.099
-283.530	800.000	-0.026	-0.072
-282.516	-19.172	-0.184	0.113
-281.501	150.410	0.117	-0.157
-280.486	-77.804	0.377	-0.129
-279.472	800.000	0.086	-0.273
-278.457	-3.599	0.156	-0.107
-277.443	-200.000	-0.050	-0.590
-276.428	-200.000	-0.009	-0.116
-275.413	225.432	0.217	-0.348
-274.399	288.464	-0.131	0.234
-273.384	-200.000	-0.055	-0.331
-272.370	-63.848	-0.265	0.107
-271.355	331.343	-0.036	-0.068
-270.340	-70.939	0.350	0.131
-269.326	204.623	0.109	0.168
-268.311	-52.094	0.268	-0.123
-267.297	10.764	0.233	0.176
-266.282	-59.206	-0.149	0.064
-265.267	800.000	0.031	0.116
-264.253	62.312	-0.255	-0.252
-263.238	-45.757	0.329	-0.161
-262.224	149.931	0.074	0.099
-261.209	12.396	-0.129	-0.098
-260.195	-40.629	0.283	0.145
-259.180	-31.724	-0.249	-0.138
-258.165	-174.021	-0.179	0.005
-257.151	338.990	0.150	0.289
-256.136	-128.673	-0.413	0.058
-255.122	389.347	0.078	-0.159
-254.107	9.973	0.102	-0.077
-253.092	3.074	-0.118	0.085
-252.078	211.339	-0.118	-0.184
-251.063	321.280	0.056	0.106
-250.049	-200.000	-0.025	-0.228
-249.034	-61.214	0.245	-0.102
-248.019	-181.390	0.436	0.008
-247.005	77.390	-0.011	-0.012
-245.990	-187.245	0.200	0.003
-244.976	-163.061	-0.326	0.016
-243.961	47.397	-0.228	-0.210
-242.946	800.000	0.094	-0.267
-241.932	168.439	0.159	-0.224
-240.917	-192.601	-0.291	0.003
-239.903	299.908	0.097	0.177
-238.888	-110.489	-0.234	0.048
-237.873	-136.741	0.233	0.027
-236.859	306.622	0.173	0.319
-235.844	2.540	0.172	0.123
-234.830	-200.000	0.059	0.492
-233.815	-200.000	-0.037	0.209
-232.800	-102.168	-0.118	0.028
-231.786	800.000	0.040	-0.126
-230.771	352.578	0.280	-0.547
-229.757	-164.700	-0.323	0.014
-228.742	-200.000	-0.060	0.416
-227.727	411.319	0.013	-0.028
-226.713	-121.253	0.340	0.056
-225.698	-38.065	0.202	0.106
-224.684	-160.012	0.118	-0.006
-223.669	-139.800	-0.092	-0.010
-222.655	35.789	-0.117	0.102
-221.640	800.000	-0.033	0.094
-220.625	-200.000	0.005	-0.126
-219.611	303.945	0.096	-0.176
-218.596	-200.000	-0.025	0.168
-217.582	-132.221	-0.156	-0.020
-216.567	-51.603	-0.365	0.168
-215.552	661.240	-0.054	-0.138
-214.538	-200.000	-0.110	0.000
-213.523	-92.252	0.269	-0.075
-212.509	-60.885	0.102	-0.043
-211.494	-188.331	0.275	0.003
-210.479	800.000	-0.030	-0.106
-209.465	172.246	0.037	-0.053
-208.450	-160.132	0.219	-0.012
-207.436	-35.248	-0.071	0.038
-206.421	143.548	-0.199	0.262
-205.406	800.000	0.152	-0.491
-204.392	32.679	-0.076	0.065
-203.377	511.892	0.061	0.140
-202.363	253.504	0.040	-0.068
-201.348	-114.673	0.145	0.027
-200.333	-182.523	0.278	0.005
-199.319	183.527	0.087	-0.126
-198.304	124.672	0.126	0.157
-197.290	-98.501	-0.432	-0.109
-196.275	-15.552	-0.257	-0.162
-195.260	4.746	0.297	0.215
-194.246	800.000	0.045	0.126
-193.231	213.359	-0.071	0.110
-192.217	800.000	-0.003	-0.008
-191.202	416.600	0.152	-0.321
-190.187	1.747	0.229	0.162
-189.173	-47.481	0.376	0.180
-188.158	43.505	-0.211	0.190
-187.144	-98.334	0.161	0.041
-186.129	-16.168	-0.380	0.238
-185.114	252.053	0.150	-0.251
-184.100	92.408	0.073	0.081
-183.085	-200.000	0.019	0.441
-182.071	800.000	-0.037	0.114
-181.056	27.536	-0.220	0.182
-180.042	-114.760	-0.013	-0.002
-179.027	97.807	-0.233	0.265
-178.012	-200.000	-0.053	-0.266
-176.998	122.833	0.114	0.140
-175.983	85.030	0.199	0.215
-174.969	-88.458	-0.386	0.114
-173.954	-200.000	-0.008	0.320
-172.939	350.011	0.066	0.128
-171.925	-200.000	0.038	0.358
-170.910	-200.000	-0.061	0.272
-169.896	125.862	0.191	-0.238
-168.881	498.970	0.081	-0.185
-167.866	1.935	-0.247	-0.175
-166.852	-82.915	-0.251	-0.080
-165.837	800.000	-0.010	-0.036
-164.823	-19.660	0.139	0.085
-163.808	-123.227	-0.366	0.058
-162.793	-145.515	0.406	-0.036
-161.779	-70.674	-0.137	0.051
-160.764	54.718	0.170	-0.162
-159.750	-200.000	-0.008	0.056
-158.735	-117.869	-0.118	0.021
-157.720	5.450	-0.258	-0.188
-156.706	198.713	0.083	0.125
-155.691	-65.973	0.254	0.100
-154.677	800.000	-0.077	0.283
-153.662	-44.892	0.295	0.145
-152.647	223.946	0.162	-0.257
-151.633	-112.476	-0.212	-0.042
-150.618	173.911	-0.050	0.071
-149.604	800.000	0.043	0.117
-148.589	123.540	0.069	-0.086
-147.574	-80.150	-0.102	0.034
-146.560	-200.000	0.003	0.222
-145.545	-200.000	0.016	0.094
-144.531	-162.717	-0.332	0.016
-143.516	-96.120	-0.226	-0.059
-142.502	-126.189	0.364	0.054
-141.487	-200.000	0.001	0.128
-140.472	-59.755	0.602	-0.254
-139.458	-89.441	0.294	-0.085
-138.443	-38.778	0.392	-0.203
-137.429	6.220	0.245	0.179
-136.414	-68.724	-0.214	-0.082
-135.399	-48.778	0.245	-0.116
-134.385	-200.000	0.009	-0.390
-133.370	800.000	-0.074	0.209
-132.356	-200.000	-0.008	0.098
-131.341	-200.000	-0.006	-0.135
-130.326	132.665	0.028	-0.036
-129.312	94.905	0.277	0.310
-128.297	-77.522	-0.212	0.072
-127.283	85.273	0.170	0.183
-126.268	-119.101	0.172	0.030
-125.253	52.941	-0.172	0.161
-124.239	548.373	-0.134	-0.315
-123.224	-93.020	0.267	0.073
-122.210	-200.000	-0.312	-0.000
-121.195	-115.042	0.175	0.033
-120.180	800.000	0.033	0.131
