DTS Sentinel unit serial number:	SN413079Multiplexer serial number:	ORYXHardware model number:	OX4-SRSoftware version number:	ORYX F/W v4.00 Oryx Data Collector v3.7.2.0data status	okinstallation	princeton_trtdifferential loss correction	single-endedforward channel	channel 3reverse channel	N/Adate	2019/09/11time	19:38:11forward acquisition time	60.00reverse acquisition time	0.00gamma	496.2192k internal	0.2297k external	0.2297temperature offset calibration	1.0025default loss term (dB/km)	0.3790temperature slope calibration	1.0000multiplexer offset coefficient	1.0000multiplexer slope coefficient	1.0000fibre end	0.00T internal ref (°C)	39.94T ext. ref 1 (°C)	1.37T ext. ref 2 (°C)	32.36length (m)	temperature (°C)	Stokes	anti-Stokes-747.200	-47.200	-0.191	-0.095
-746.185	-52.184	0.255	-0.121
-745.171	568.230	0.082	0.204
-744.156	-126.476	0.307	-0.047
-743.142	800.000	0.117	0.383
-742.127	800.000	0.081	0.280
-741.112	-18.378	0.069	-0.044
-740.098	185.503	0.106	0.161
-739.083	-200.000	0.008	0.304
-738.069	55.801	-0.121	-0.119
-737.054	800.000	-0.063	-0.208
-736.039	289.840	0.049	-0.090
-735.025	800.000	-0.095	0.383
-734.010	-106.390	-0.196	0.045
-732.996	301.641	0.040	0.075
-731.981	272.765	-0.083	-0.149
-730.966	-16.298	-0.340	-0.220
-729.952	227.535	0.112	0.185
-728.937	800.000	0.044	0.194
-727.923	-10.185	0.062	0.042
-726.908	-150.526	-0.268	-0.021
-725.894	-142.729	0.157	0.016
-724.879	-170.425	-0.352	0.013
-723.864	33.475	-0.133	0.118
-722.850	332.578	0.054	0.106
-721.835	7.625	0.219	-0.167
-720.821	233.278	0.072	0.121
-719.806	567.711	-0.217	-0.538
-718.791	508.004	-0.129	-0.305
-717.777	800.000	0.057	-0.230
-716.762	293.276	-0.082	-0.152
-715.748	200.520	-0.117	-0.184
-714.733	257.251	0.139	-0.244
-713.718	-132.152	-0.205	0.027
-712.704	417.157	0.080	0.175
-711.689	287.906	0.079	0.147
-710.675	-8.095	0.124	0.085
-709.660	24.242	0.287	0.242
-708.645	-33.520	0.183	0.103
-707.631	42.016	-0.161	0.149
-706.616	59.615	-0.127	-0.128
-705.602	-200.000	-0.037	-0.269
-704.587	-93.603	0.174	-0.049
-703.572	652.809	0.047	-0.124
-702.558	-94.743	0.350	-0.097
-701.543	-66.161	0.137	0.056
-700.529	5.713	-0.180	-0.136
-699.514	-167.100	-0.053	-0.002
-698.499	-61.093	0.320	-0.138
-697.485	69.840	-0.217	-0.228
-696.470	145.989	-0.090	-0.123
-695.456	800.000	0.042	0.179
-694.441	-187.051	-0.025	-0.000
-693.426	-66.446	-0.308	-0.125
-692.412	-200.000	0.037	-0.256
-691.397	-200.000	0.005	0.203
-690.383	528.732	-0.063	0.151
-689.368	-111.111	-0.310	-0.065
-688.354	800.000	0.023	0.085
-687.339	-200.000	-0.031	0.212
-686.324	-159.033	0.133	0.008
-685.310	119.939	0.095	0.120
-684.295	-39.987	0.136	0.072
-683.281	-200.000	-0.025	0.282
-682.266	-48.906	0.300	0.147
-681.251	653.110	0.045	0.119
-680.237	-109.265	0.202	0.044
-679.222	39.538	0.049	0.045
-678.208	-26.763	-0.205	0.122
-677.193	105.872	-0.168	-0.203
-676.178	-65.262	-0.231	0.095
-675.164	27.559	0.102	0.088
-674.149	-3.992	-0.239	-0.169
-673.135	-200.000	-0.030	-0.215
-672.120	118.330	0.336	-0.423
-671.105	-89.407	0.146	-0.044
-670.091	122.757	0.086	0.109
-669.076	-144.338	0.126	0.012
-668.062	538.555	0.131	-0.317
-667.047	-167.739	0.073	-0.003
-666.032	687.747	-0.083	0.220
-665.018	466.462	-0.124	-0.283
-664.003	800.000	0.040	-0.155
-662.989	-78.572	-0.154	-0.054
-661.974	-200.000	0.027	-0.317
-660.959	60.769	0.134	0.135
-659.945	-200.000	0.007	-0.161
-658.930	-101.265	0.163	0.041
-657.916	112.859	-0.320	0.395
-656.901	21.147	-0.140	0.116
-655.886	187.200	0.185	-0.281
-654.872	512.225	-0.183	-0.433
-653.857	-4.535	-0.241	-0.170
-652.843	-50.773	0.316	0.151
-651.828	-142.207	-0.155	-0.016
-650.814	-50.465	-0.250	0.120
-649.799	-132.348	-0.422	0.055
-648.784	-200.000	0.019	-0.233
-647.770	-200.000	0.030	0.159
-646.755	800.000	-0.055	0.196
-645.741	116.843	0.116	0.145
-644.726	-72.490	-0.079	-0.030
-643.711	800.000	0.098	-0.361
-642.697	290.839	0.137	0.254
-641.682	174.447	0.014	0.021
-640.668	95.921	-0.210	-0.244
-639.653	800.000	-0.090	-0.257
-638.638	-104.462	-0.609	-0.143
-637.624	-89.940	0.123	-0.037
-636.609	223.331	-0.033	0.054
-635.595	31.093	-0.123	-0.107
-634.580	-156.734	0.290	-0.018
-633.565	-140.929	0.083	-0.009
-632.551	-15.321	-0.148	0.097
-631.536	94.961	0.082	-0.095
-630.522	491.101	-0.167	-0.389
-629.507	-46.816	-0.300	-0.149
-628.492	565.771	0.115	0.283
-627.478	-62.443	0.257	-0.109
-626.463	416.528	0.053	-0.116
-625.449	-128.736	-0.087	-0.013
-624.434	-200.000	0.019	-0.189
-623.419	-21.886	0.156	-0.096
-622.405	26.943	0.074	0.063
-621.390	84.872	0.068	0.076
-620.376	-200.000	-0.008	0.358
-619.361	-121.865	0.145	0.024
-618.346	55.887	0.018	0.017
-617.332	-99.443	0.050	0.013
-616.317	4.599	0.228	0.170
-615.303	-37.147	0.177	0.096
-614.288	-200.000	-0.007	0.466
-613.273	272.676	-0.087	-0.155
-612.259	746.140	0.103	-0.283
-611.244	800.000	-0.038	0.158
-610.230	-121.425	-0.186	0.031
-609.215	-22.890	-0.214	-0.131
-608.201	-164.854	-0.064	-0.003
-607.186	-200.000	-0.016	0.153
-606.171	181.466	0.271	0.404
-605.157	800.000	-0.120	-0.347
-604.142	-200.000	-0.035	-0.170
-603.128	3.511	0.186	-0.138
-602.113	28.416	-0.265	-0.227
-601.098	-43.318	0.538	-0.276
-600.084	-12.464	-0.235	0.156
-599.069	-69.129	-0.263	-0.103
-598.055	-200.000	-0.036	-0.175
-597.040	-152.522	0.189	0.014
-596.025	694.635	-0.039	0.104
-595.011	-47.207	0.070	-0.035
-593.996	800.000	-0.054	0.159
-592.982	-21.245	0.225	-0.140
-591.967	-200.000	-0.029	0.335
-590.952	141.956	0.143	0.193
-589.938	800.000	-0.101	-0.393
-588.923	-95.316	0.043	0.012
-587.909	-85.237	0.396	0.125
-586.894	-127.928	0.234	-0.034
-585.879	348.067	0.079	0.158
-584.865	-136.442	-0.090	0.011
-583.850	-200.000	0.043	-0.229
-582.836	-69.482	0.016	0.006
-581.821	-146.699	0.258	-0.023
-580.806	-27.062	0.098	0.058
-579.792	800.000	-0.091	0.306
-578.777	-60.814	0.414	-0.178
-577.763	-61.137	0.284	0.122
-576.748	643.918	-0.134	0.346
-575.733	466.254	0.136	0.309
-574.719	-95.047	0.120	-0.033
-573.704	66.947	-0.157	0.162
-572.690	-52.059	-0.162	0.076
-571.675	-89.317	0.228	0.068
-570.661	-112.072	0.104	0.021
-569.646	2.773	0.350	-0.258
-568.631	25.562	-0.074	0.062
-567.617	-75.759	0.164	0.059
-566.602	-99.988	-0.473	-0.120
-565.588	-155.571	-0.294	0.019
-564.573	-200.000	0.018	-0.137
-563.558	23.231	-0.109	0.091
-562.544	-115.148	-0.176	0.034
-561.529	38.749	-0.183	0.166
-560.515	800.000	0.041	0.154
-559.500	-136.432	0.259	-0.031
-558.485	259.999	-0.093	-0.164
-557.471	-29.810	-0.236	-0.137
-556.456	-94.407	0.069	-0.019
-555.442	800.000	0.100	0.306
-554.427	-61.820	-0.295	0.125
-553.412	800.000	-0.010	-0.040
-552.398	117.680	-0.105	-0.131
-551.383	-150.329	-0.159	-0.012
-550.369	141.238	0.172	-0.230
-549.354	-72.951	-0.136	-0.051
-548.339	143.367	-0.148	0.200
-547.325	-118.317	-0.212	-0.038
-546.310	-53.370	-0.264	-0.122
-545.296	2.898	-0.152	0.111
-544.281	-150.721	-0.411	0.032
-543.266	-197.716	-0.187	-0.001
-542.252	-97.131	0.175	0.046
-541.237	-164.009	-0.283	-0.013
-540.223	-109.697	0.310	-0.066
-539.208	351.756	-0.071	0.142
-538.193	-200.000	0.009	0.093
-537.179	-11.596	-0.298	0.199
-536.164	-157.945	-0.031	0.002
-535.150	800.000	-0.110	-0.330
-534.135	38.667	0.174	0.158
-533.121	-69.722	-0.256	-0.099
-532.106	-200.000	0.062	-0.284
-531.091	-200.000	-0.037	-0.297
-530.077	713.084	-0.075	0.202
-529.062	800.000	0.099	0.301
-528.048	-84.502	0.235	0.075
-527.033	-72.253	-0.188	-0.070
-526.018	-200.000	0.007	0.272
-525.004	73.236	0.147	0.155
-523.989	734.820	0.042	-0.114
-522.975	89.159	-0.171	0.193
-521.960	353.412	-0.093	0.188
-520.945	5.256	0.179	0.134
-519.931	-200.000	0.004	-0.378
-518.916	108.797	-0.165	-0.199
-517.902	49.322	0.359	0.341
-516.887	-200.000	-0.030	-0.278
-515.872	800.000	-0.032	0.103
-514.858	-162.132	0.205	0.010
-513.843	460.058	-0.113	-0.255
-512.829	218.677	0.080	0.130
-511.814	227.988	0.067	0.111
-510.799	38.693	0.259	-0.234
-509.785	-37.537	-0.104	-0.056
-508.770	8.250	0.197	-0.150
-507.756	-23.478	-0.128	-0.078
-506.741	-3.204	0.276	0.195
-505.726	242.995	-0.042	-0.071
-504.712	260.909	-0.215	0.377
-503.697	280.154	-0.029	0.052
-502.683	424.643	0.051	0.112
-501.668	169.579	0.058	-0.084
-500.653	-29.661	0.038	0.022
-499.639	-92.565	-0.208	-0.059
-498.624	-126.040	0.125	-0.019
-497.610	-71.971	0.116	0.044
-496.595	800.000	0.065	0.263
-495.581	-23.208	-0.068	-0.041
-494.566	-82.704	0.142	0.046
-493.551	-46.547	-0.161	-0.080
-492.537	622.845	0.047	-0.121
-491.522	-200.000	0.064	0.536
-490.508	441.112	-0.081	0.180
-489.493	-200.000	-0.003	-0.118
-488.478	-33.374	-0.376	-0.210
-487.464	239.707	-0.101	-0.169
-486.449	-69.214	0.197	0.077
-485.435	10.003	-0.337	-0.259
-484.420	800.000	0.089	-0.252
-483.405	117.817	0.070	-0.087
-482.391	800.000	0.033	-0.116
-481.376	800.000	0.052	0.208
-480.362	43.663	-0.215	0.199
-479.347	-67.584	0.024	0.009
-478.332	800.000	-0.079	-0.324
-477.318	-115.832	-0.354	-0.067
-476.303	226.552	-0.174	-0.285
-475.289	483.711	0.017	-0.040
-474.274	315.403	0.043	-0.081
-473.259	-26.735	0.162	-0.096
-472.245	726.217	0.073	0.196
-471.230	237.350	-0.090	0.151
-470.216	-200.000	-0.027	0.175
-469.201	-116.834	0.273	-0.051
-468.186	800.000	0.077	-0.306
-467.172	-23.122	-0.139	0.085
-466.157	-124.363	-0.543	-0.086
-465.143	249.217	-0.063	0.109
-464.128	173.828	-0.169	0.247
-463.113	800.000	0.107	0.311
-462.099	-136.127	0.368	-0.044
-461.084	176.679	0.052	-0.077
-460.070	-103.261	0.048	-0.011
-459.055	-131.985	0.068	-0.009
-458.040	565.227	0.083	-0.204
-457.026	74.619	-0.093	-0.099
-456.011	-32.090	0.081	-0.046
-454.997	-200.000	0.001	0.164
-453.982	-200.000	0.047	0.266
-452.968	-21.997	0.237	0.146
-451.953	-55.096	-0.141	0.064
-450.938	466.633	0.096	-0.217
-449.924	800.000	-0.107	-0.355
-448.909	524.314	-0.128	-0.303
-447.895	-3.870	0.221	-0.155
-446.880	-14.874	-0.199	-0.129
-445.865	-119.368	-0.158	-0.028
-444.851	800.000	-0.095	0.306
-443.836	800.000	0.068	0.230
-442.822	-17.163	0.271	-0.172
-441.807	-200.000	-0.018	-0.141
-440.792	-47.937	-0.189	-0.092
-439.778	-200.000	0.066	-0.339
-438.763	107.870	0.135	-0.162
-437.749	-200.000	0.074	-0.406
-436.734	290.536	-0.054	-0.099
-435.719	-200.000	0.002	0.256
-434.705	-90.424	-0.190	0.055
-433.690	630.442	0.066	0.168
-432.676	800.000	0.115	-0.447
-431.661	-79.898	0.210	-0.071
-430.646	127.859	-0.162	-0.208
-429.632	-200.000	0.012	0.134
-428.617	800.000	0.060	0.260
-427.603	60.689	-0.137	-0.137
-426.588	21.161	-0.184	-0.151
-425.573	800.000	-0.066	0.229
-424.559	800.000	0.009	0.026
-423.544	12.041	-0.245	0.190
-422.530	271.824	-0.187	0.333
-421.515	-38.739	0.261	0.139
-420.500	109.761	0.179	-0.217
-419.486	-93.133	0.227	-0.064
-418.471	128.310	-0.019	-0.025
-417.457	-36.239	0.183	-0.100
-416.442	290.954	-0.124	0.227
-415.428	-74.897	-0.270	-0.098
-414.413	9.084	0.207	-0.158
-413.398	56.516	-0.162	-0.159
-412.384	225.285	-0.204	0.333
-411.369	-181.399	-0.174	0.003
-410.355	8.547	0.105	-0.079
-409.340	64.042	0.110	0.112
-408.325	98.922	-0.132	-0.154
-407.311	27.832	-0.250	-0.213
-406.296	800.000	-0.050	0.218
-405.282	-200.000	-0.060	0.360
-404.267	-132.305	-0.336	0.044
-403.252	-105.814	0.053	0.012
-402.238	-47.586	-0.146	0.071
-401.223	48.806	-0.183	-0.173
-400.209	-200.000	0.010	0.050
-399.194	-109.393	0.265	0.056
-398.179	-83.810	-0.428	0.138
-397.165	23.625	0.351	-0.291
-396.150	-62.867	-0.203	0.085
-395.136	22.048	0.026	-0.021
-394.121	-128.779	-0.112	-0.016
-393.106	-90.756	0.028	-0.008
-392.092	-49.651	0.082	-0.039
-391.077	22.239	-0.087	-0.072
-390.063	800.000	-0.030	-0.128
-389.048	-127.182	-0.148	-0.022
-388.033	422.411	0.023	0.050
-387.019	107.605	-0.242	-0.290
-386.004	223.585	0.100	-0.162
-384.990	15.280	-0.288	0.227
-383.975	-32.093	-0.139	-0.078
-382.960	525.062	0.072	-0.171
-381.946	57.310	0.207	0.204
-380.931	-85.291	0.197	-0.062
-379.917	-37.657	-0.223	-0.120
-378.902	-50.870	-0.323	-0.153
-377.888	76.159	0.185	-0.197
-376.873	26.903	-0.318	-0.268
-375.858	-24.962	-0.125	-0.075
-374.844	-200.000	0.003	0.204
-373.829	-200.000	0.003	0.154
-372.815	93.080	0.295	0.335
-371.800	-150.083	0.097	-0.008
-370.785	-134.138	0.442	-0.055
-369.771	76.213	-0.127	-0.135
-368.756	95.334	0.103	-0.118
-367.742	97.207	0.167	-0.192
-366.727	0.922	-0.184	-0.133
-365.712	-84.215	0.236	0.075
-364.698	153.242	0.227	0.312
-363.683	275.889	-0.102	0.182
-362.669	-50.574	-0.184	0.087
-361.654	-18.559	0.253	-0.159
-360.639	-200.000	0.013	-0.067
-359.625	-200.000	0.029	-0.296
-358.610	800.000	0.026	-0.076
-357.596	-61.480	-0.174	-0.073
-356.581	-200.000	0.000	0.041
-355.566	-96.640	-0.220	-0.058
-354.552	-69.389	-0.239	0.092
-353.537	38.633	0.155	0.139
-352.523	-200.000	0.017	0.102
-351.508	-62.187	0.159	0.067
-350.493	-24.647	-0.225	-0.134
-349.479	800.000	-0.071	-0.262
-348.464	-64.264	0.325	-0.133
-347.450	800.000	-0.037	-0.164
-346.435	22.860	0.319	-0.263
-345.420	800.000	0.027	0.113
-344.406	32.132	-0.107	0.093
-343.391	-200.000	0.034	0.280
-342.377	-156.270	0.071	0.004
-341.362	35.222	0.026	0.023
-340.348	-200.000	0.026	0.212
-339.333	-200.000	-0.021	-0.258
-338.318	298.244	-0.121	-0.223
-337.304	-188.675	0.211	0.003
-336.289	145.572	-0.114	-0.153
-335.275	798.411	-0.018	0.050
-334.260	612.500	0.136	-0.342
-333.245	800.000	-0.032	-0.125
-332.231	71.114	-0.166	-0.173
-331.216	548.099	0.117	0.282
-330.202	224.252	0.269	0.436
-329.187	-22.400	0.209	-0.127
-328.172	69.293	-0.190	0.197
-327.158	-61.587	0.122	-0.052
-326.143	-103.770	-0.200	-0.047
-325.129	72.084	0.158	-0.165
-324.114	-26.034	0.253	-0.149
-323.099	113.848	0.150	0.183
-322.085	-200.000	0.077	-0.359
-321.070	192.221	-0.054	0.082
-320.056	163.887	-0.238	0.337
-319.041	-200.000	0.003	0.083
-318.026	-39.137	-0.150	-0.079
-317.012	162.461	-0.086	-0.122
-315.997	800.000	0.093	0.357
-314.983	-200.000	0.002	-0.177
-313.968	-77.567	0.026	0.009
-312.953	-118.210	0.327	0.058
-311.939	103.623	0.098	-0.115
-310.924	-58.732	0.282	-0.123
-309.910	-2.358	0.107	0.075
-308.895	-200.000	0.012	0.214
-307.880	66.336	-0.229	-0.233
-306.866	-48.448	0.296	0.143
-305.851	800.000	-0.105	0.326
-304.837	-74.305	-0.092	0.033
-303.822	19.545	0.152	-0.123
-302.807	315.279	-0.111	0.209
-301.793	7.992	0.404	-0.304
-300.778	-21.805	0.128	0.078
-299.764	301.995	0.148	0.274
-298.749	159.889	-0.278	0.389
-297.735	-115.184	-0.383	0.073
-296.720	186.371	0.172	-0.256
-295.705	-115.921	0.325	-0.061
-294.691	25.468	0.242	-0.202
-293.676	-26.005	0.145	-0.086
-292.662	-102.002	-0.163	-0.040
-291.647	-61.285	-0.373	0.158
-290.632	-193.515	-0.075	-0.001
-289.618	-149.788	0.108	0.008
-288.603	-200.000	-0.008	0.267
-287.589	-200.000	0.019	0.196
-286.574	-128.189	0.218	-0.031
-285.559	-103.177	-0.200	0.048
-284.545	-117.266	0.482	0.088
-283.530	800.000	0.073	-0.222
-282.516	-12.250	-0.283	0.186
-281.501	248.462	0.058	0.099
-280.486	591.385	-0.119	0.294
-279.472	33.633	-0.183	0.159
-278.457	162.200	0.094	-0.132
-277.443	23.496	0.085	0.070
-276.428	-88.070	0.208	-0.063
-275.413	-200.000	-0.044	0.254
-274.399	-140.716	-0.090	0.009
-273.384	800.000	0.087	-0.254
-272.370	-85.200	-0.227	-0.071
-271.355	-200.000	0.053	-0.409
-270.340	-32.677	0.146	0.081
-269.326	-200.000	0.001	-0.122
-268.311	43.335	-0.204	-0.187
-267.297	171.105	0.169	0.243
-266.282	392.948	0.130	0.271
-265.267	114.900	0.075	-0.092
-264.253	800.000	0.055	-0.212
-263.238	-121.189	0.141	-0.024
-262.224	-200.000	0.016	0.193
-261.209	-168.908	0.206	0.008
-260.195	800.000	-0.080	0.247
-259.180	-200.000	0.027	-0.131
-258.165	-45.199	0.047	0.023
-257.151	-179.327	-0.256	0.006
-256.136	-11.732	0.264	-0.174
-255.122	-200.000	-0.019	-0.183
-254.107	-91.327	-0.248	-0.071
-253.092	-75.312	0.276	-0.099
-252.078	-200.000	0.037	-0.232
-251.063	210.622	-0.035	0.056
-250.049	54.274	0.113	-0.109
-249.034	81.923	-0.199	0.216
-248.019	-38.924	0.126	0.066
-247.005	49.599	0.100	-0.094
-245.990	-162.043	0.322	-0.016
-244.976	-7.183	0.180	0.122
-243.961	-15.752	-0.197	0.126
-242.946	80.706	0.096	0.103
-241.932	-200.000	-0.052	-0.513
-240.917	87.243	-0.110	-0.122
-239.903	-200.000	-0.058	0.313
-238.888	-21.742	-0.145	-0.089
-237.873	56.851	0.168	0.164
-236.859	108.614	0.358	-0.428
-235.844	-129.090	-0.193	-0.027
-234.830	-130.526	-0.230	-0.031
-233.815	-16.646	0.315	0.200
-232.800	-46.138	0.214	0.106
-231.786	66.662	-0.032	-0.033
-230.771	-153.546	0.196	0.014
-229.757	-80.684	0.180	-0.060
-228.742	-144.849	-0.249	-0.023
-227.727	-200.000	0.008	0.242
-226.713	800.000	-0.052	-0.207
-225.698	9.165	-0.135	0.102
-224.684	-5.144	-0.151	-0.104
-223.669	72.313	0.213	0.222
-222.655	-75.220	-0.254	-0.091
-221.640	572.018	-0.053	-0.130
-220.625	-100.446	-0.116	-0.029
-219.611	167.084	0.057	0.081
-218.596	-98.275	-0.082	0.021
-217.582	-38.361	-0.193	0.102
-216.567	290.000	0.134	0.244
-215.552	124.158	-0.258	-0.324
-214.538	-139.851	0.178	0.019
-213.523	-10.605	0.218	-0.145
-212.509	-14.351	-0.279	0.179
-211.494	-200.000	0.057	0.323
-210.479	-59.453	0.365	0.157
-209.465	-200.000	0.020	0.214
-208.450	-200.000	-0.002	-0.116
-207.436	-200.000	-0.030	0.352
-206.421	26.270	-0.195	-0.163
-205.406	-8.502	0.290	0.195
-204.392	-200.000	0.009	-0.043
-203.377	412.954	-0.042	-0.089
-202.363	-143.557	0.112	-0.011
-201.348	-132.414	-0.396	-0.051
-200.333	63.566	0.055	0.055
-199.319	-132.151	-0.183	0.024
-198.304	80.146	-0.013	-0.014
-197.290	38.604	-0.184	-0.164
-196.275	-110.350	0.113	-0.024
-195.260	-200.000	-0.002	0.202
-194.246	117.075	0.216	-0.265
-193.231	-44.877	-0.203	0.101
-192.217	-57.242	0.362	-0.159
-191.202	-82.160	-0.220	-0.072
-190.187	-13.645	-0.354	0.229
-189.173	21.146	-0.100	-0.081
-188.158	242.411	0.224	-0.374
-187.144	800.000	-0.110	-0.359
-186.129	-88.373	-0.126	-0.038
-185.114	-127.729	0.186	0.027
-184.100	800.000	0.025	0.083
-183.085	-24.506	-0.130	0.078
-182.071	-200.000	-0.002	0.138
-181.056	-45.761	0.252	0.124
-180.042	-1.485	0.118	-0.083
-179.027	-131.099	0.329	-0.044
-178.012	-200.000	0.002	0.092
-176.998	36.882	-0.190	0.168
-175.983	800.000	-0.079	0.316
-174.969	372.034	0.013	0.026
-173.954	-109.273	-0.085	-0.018
-172.939	31.728	-0.049	-0.042
-171.925	-132.218	0.217	-0.028
-170.910	-30.214	-0.354	0.201
-169.896	-25.522	0.204	0.120
-168.881	-8.086	0.109	-0.074
-167.866	243.793	-0.099	0.166
-166.852	-49.015	-0.114	-0.054
-165.837	29.076	-0.044	-0.037
-164.823	51.419	0.055	-0.052
-163.808	38.091	-0.203	-0.181
-162.793	-200.000	0.005	0.071
-161.779	-147.945	0.066	0.006
-160.764	79.184	-0.141	-0.151
-159.750	-57.935	0.316	0.138
-158.735	-83.796	-0.303	0.096
-157.720	-200.000	0.036	0.371
-156.706	-15.343	0.296	-0.189
-155.691	-147.265	-0.160	-0.014
-154.677	-101.043	-0.424	0.104
-153.662	-89.073	0.123	0.036
-152.647	496.447	0.114	0.262
-151.633	-192.237	-0.340	-0.003
-150.618	-32.523	0.095	0.053
-149.604	-68.032	0.062	-0.024
-148.589	-200.000	0.016	-0.108
-147.574	-200.000	-0.033	-0.149
-146.560	59.488	0.251	0.247
-145.545	800.000	0.037	0.152
-144.531	134.862	-0.037	0.048
-143.516	80.236	0.226	-0.243
-142.502	-67.903	0.348	-0.136
-141.487	-200.000	0.032	0.164
-140.472	-127.644	0.182	-0.026
-139.458	-134.652	0.030	-0.004
-138.443	-27.762	0.245	-0.142
-137.429	-111.786	0.233	0.047
-136.414	175.072	0.118	0.170
-135.399	92.052	0.176	-0.198
-134.385	-200.000	-0.018	0.177
-133.370	800.000	-0.085	0.266
-132.356	-200.000	0.029	0.270
-131.341	318.241	0.103	0.194
-130.326	-200.000	-0.051	-0.276
-129.312	-200.000	-0.039	-0.204
-128.297	-72.552	0.032	0.012
-127.283	-200.000	-0.022	0.237
-126.268	107.409	0.110	-0.131
-125.253	16.750	0.137	0.108
-124.239	23.715	0.150	0.123
-123.224	800.000	-0.114	0.388
-122.210	-83.849	0.209	0.066
-121.195	-166.783	0.165	-0.007
-120.180	-200.000	-0.000	-0.131
