DTS Sentinel unit serial number:	SN413079Multiplexer serial number:	ORYXHardware model number:	OX4-SRSoftware version number:	ORYX F/W v4.00 Oryx Data Collector v3.7.2.0data status	okinstallation	princeton_trtdifferential loss correction	single-endedforward channel	channel 3reverse channel	N/Adate	2019/09/11time	22:54:10forward acquisition time	60.00reverse acquisition time	0.00gamma	496.2192k internal	0.2316k external	0.2316temperature offset calibration	1.0046default loss term (dB/km)	0.3790temperature slope calibration	1.0000multiplexer offset coefficient	1.0000multiplexer slope coefficient	1.0000fibre end	0.00T internal ref (°C)	34.69T ext. ref 1 (°C)	1.84T ext. ref 2 (°C)	29.42length (m)	temperature (°C)	Stokes	anti-Stokes-747.200	71.799	0.092	-0.097
-746.185	-45.821	0.169	0.085
-745.171	-192.205	-0.329	-0.003
-744.156	-200.000	0.046	0.373
-743.142	-1.681	0.244	0.174
-742.127	-106.733	-0.409	0.092
-741.112	800.000	-0.037	0.122
-740.098	-200.000	-0.002	0.214
-739.083	-44.203	0.236	0.120
-738.069	-200.000	-0.074	0.392
-737.054	-136.335	-0.349	-0.041
-736.039	18.437	0.310	0.251
-735.025	109.053	0.338	0.410
-734.010	-26.133	-0.359	-0.214
-732.996	-167.431	-0.378	0.015
-731.981	-125.554	0.087	0.013
-730.966	41.015	-0.139	0.127
-729.952	-162.908	-0.152	0.007
-728.937	-200.000	-0.022	-0.110
-727.923	800.000	-0.106	-0.355
-726.908	-200.000	-0.063	-0.447
-725.894	-49.680	0.020	0.010
-724.879	-200.000	0.040	0.258
-723.864	-120.672	-0.234	-0.040
-722.850	-135.053	0.284	-0.035
-721.835	53.036	-0.065	0.063
-720.821	34.817	-0.238	-0.211
-719.806	-141.617	-0.316	0.032
-718.791	-87.134	0.027	0.008
-717.777	-10.886	-0.246	-0.165
-716.762	800.000	-0.055	0.162
-715.748	18.158	0.083	-0.067
-714.733	261.094	0.071	-0.125
-713.718	-176.853	-0.362	-0.009
-712.704	-61.754	-0.081	-0.034
-711.689	-76.974	0.290	0.102
-710.675	-135.237	0.174	0.021
-709.660	431.374	-0.112	0.246
-708.645	56.886	0.288	0.284
-707.631	200.430	0.056	0.087
-706.616	686.214	0.147	0.389
-705.602	-166.810	-0.180	-0.008
-704.587	-116.378	-0.455	-0.085
-703.572	10.800	0.233	-0.180
-702.558	-24.734	0.140	-0.084
-701.543	91.716	-0.075	-0.085
-700.529	-200.000	0.021	-0.239
-699.514	-61.204	0.243	0.103
-698.499	800.000	0.007	0.019
-697.485	437.943	-0.070	-0.155
-696.470	620.994	0.068	0.173
-695.456	-200.000	0.021	0.228
-694.441	-178.043	-0.189	0.005
-693.426	69.901	0.175	-0.183
-692.412	54.720	0.222	-0.216
-691.397	-200.000	-0.008	0.136
-690.383	643.888	-0.101	0.261
-689.368	144.242	-0.133	0.180
-688.354	-22.922	0.261	0.159
-687.339	389.563	-0.011	0.023
-686.324	-156.160	-0.197	-0.013
-685.310	162.447	0.146	-0.207
-684.295	-54.346	-0.184	-0.084
-683.281	216.794	0.193	-0.311
-682.266	-0.904	-0.232	-0.166
-681.251	-164.609	-0.183	0.008
-680.237	-148.299	0.268	0.022
-679.222	-104.722	-0.354	-0.082
-678.208	-31.307	0.124	-0.071
-677.193	-115.198	0.201	0.038
-676.178	146.159	0.057	0.077
-675.164	-83.972	-0.094	0.030
-674.149	713.331	0.062	-0.167
-673.135	-200.000	0.006	-0.270
-672.120	-194.711	0.364	-0.003
-671.105	-115.715	0.194	0.037
-670.091	-200.000	0.058	-0.297
-669.076	77.580	-0.125	-0.134
-668.062	-200.000	-0.009	-0.134
-667.047	372.236	0.086	0.175
-666.032	-71.444	0.322	0.122
-665.018	-96.703	-0.050	0.013
-664.003	-65.247	0.375	0.153
-662.989	-95.745	-0.150	0.041
-661.974	-200.000	-0.004	-0.243
-660.959	-16.901	-0.106	0.067
-659.945	116.043	-0.081	0.100
-658.930	-65.058	-0.120	-0.049
-657.916	-105.564	-0.708	0.162
-656.901	3.532	-0.062	-0.045
-655.886	-6.718	0.288	-0.198
-654.872	-57.476	0.015	-0.007
-653.857	-200.000	0.055	0.258
-652.843	142.376	-0.104	-0.140
-651.828	-200.000	0.103	-0.606
-650.814	197.082	0.218	-0.336
-649.799	591.944	0.078	-0.193
-648.784	-97.498	-0.142	-0.037
-647.770	-14.327	0.121	-0.079
-646.755	98.454	0.198	-0.230
-645.741	-162.627	0.133	0.007
-644.726	7.063	-0.222	0.167
-643.711	104.670	-0.170	0.202
-642.697	89.901	-0.046	-0.052
-641.682	-132.933	-0.275	0.035
-640.668	-155.122	-0.174	-0.012
-639.653	6.477	-0.372	-0.279
-638.638	-200.000	-0.030	-0.148
-637.624	-23.848	-0.221	0.133
-636.609	55.644	0.185	-0.181
-635.595	66.737	-0.089	0.091
-634.580	69.415	-0.214	0.222
-633.565	-200.000	-0.002	0.114
-632.551	17.224	0.162	-0.130
-631.536	334.066	0.196	0.382
-630.522	800.000	0.059	0.175
-629.507	-92.133	0.251	-0.071
-628.492	-200.000	-0.036	0.163
-627.478	-5.986	-0.209	0.144
-626.463	267.294	0.159	0.280
-625.449	-21.005	-0.312	-0.193
-624.434	12.128	-0.125	-0.097
-623.419	-24.445	-0.056	-0.034
-622.405	800.000	-0.040	-0.152
-621.390	148.160	-0.077	0.105
-620.376	19.186	0.216	-0.175
-619.361	-97.469	-0.237	0.062
-618.346	-200.000	0.017	-0.156
-617.332	175.350	-0.205	-0.299
-616.317	-25.708	-0.204	0.121
-615.303	-67.721	-0.213	0.084
-614.288	39.733	-0.057	-0.051
-613.273	79.276	-0.144	-0.155
-612.259	800.000	0.086	0.242
-611.244	137.080	-0.145	0.191
-610.230	306.326	0.155	0.291
-609.215	800.000	0.085	0.297
-608.201	29.869	-0.220	-0.189
-607.186	800.000	-0.141	-0.403
-606.171	-165.483	0.295	-0.013
-605.157	560.811	0.058	-0.142
-604.142	-98.970	-0.263	-0.067
-603.128	-200.000	0.004	0.052
-602.113	-148.786	-0.186	-0.015
-601.098	-23.247	0.098	-0.060
-600.084	-200.000	-0.007	-0.138
-599.069	-182.881	-0.069	-0.001
-598.055	687.505	0.160	-0.421
-597.040	13.604	0.129	0.101
-596.025	192.193	-0.129	-0.196
-595.011	-34.687	0.179	-0.098
-593.996	142.450	-0.078	-0.104
-592.982	-72.072	-0.635	-0.238
-591.967	-110.744	-0.165	-0.034
-590.952	75.333	-0.114	0.121
-589.938	-5.070	-0.076	-0.052
-588.923	800.000	-0.048	0.146
-587.909	330.088	-0.096	0.185
-586.894	800.000	0.012	-0.052
-585.879	-28.773	0.085	-0.049
-584.865	68.933	-0.160	-0.165
-583.850	-95.332	0.293	-0.079
-582.836	-121.002	0.110	0.019
-581.821	-46.386	-0.113	0.056
-580.806	-31.086	-0.229	0.130
-579.792	-112.006	0.284	0.058
-578.777	192.498	-0.134	-0.204
-577.763	-134.811	-0.412	0.050
-576.748	-200.000	0.044	-0.201
-575.733	90.013	0.058	-0.065
-574.719	-101.381	-0.187	0.046
-573.704	-124.213	-0.105	0.017
-572.690	-137.363	-0.172	0.020
-571.675	101.991	0.225	-0.264
-570.661	-200.000	-0.040	-0.182
-569.646	800.000	0.054	0.206
-568.631	182.281	-0.120	0.178
-567.617	-88.886	0.049	0.015
-566.602	-98.258	0.504	-0.130
-565.588	408.811	-0.148	-0.316
-564.573	-54.338	0.375	-0.171
-563.558	3.876	-0.082	-0.060
-562.544	-41.258	0.264	-0.137
-561.529	-126.136	0.242	-0.036
-560.515	-200.000	0.009	0.336
-559.500	164.582	-0.189	0.268
-558.485	127.242	-0.144	-0.184
-557.471	-140.369	0.242	0.025
-556.456	100.227	-0.209	-0.244
-555.442	-112.187	0.186	0.038
-554.427	215.588	0.033	-0.052
-553.412	-67.589	-0.057	0.022
-552.398	-78.599	-0.118	0.041
-551.383	211.204	-0.020	-0.031
-550.369	800.000	0.046	0.191
-549.354	-141.280	0.443	-0.045
-548.339	-31.120	-0.131	0.074
-547.325	41.374	0.148	-0.134
-546.310	-82.409	0.238	-0.078
-545.296	84.540	0.071	-0.078
-544.281	-200.000	-0.014	-0.182
-543.266	-72.328	0.356	-0.133
-542.252	800.000	-0.011	-0.042
-541.237	-193.189	-0.291	0.003
-540.223	332.859	-0.137	0.266
-539.208	-56.260	0.208	-0.093
-538.193	-71.146	-0.077	0.029
-537.179	-200.000	-0.042	0.237
-536.164	-200.000	0.032	-0.303
-535.150	753.997	0.081	0.219
-534.135	-84.824	0.172	-0.054
-533.121	-146.940	-0.374	-0.032
-532.106	606.411	-0.142	0.355
-531.091	-174.788	0.071	-0.002
-530.077	-173.932	-0.058	0.002
-529.062	-86.689	-0.283	0.087
-528.048	-24.678	-0.238	-0.142
-527.033	-152.231	-0.136	-0.010
-526.018	119.806	0.229	0.286
-525.004	-170.378	-0.407	-0.014
-523.989	-200.000	-0.002	-0.111
-522.975	-86.570	0.129	-0.040
-521.960	9.396	0.271	0.206
-520.945	-200.000	-0.051	0.230
-519.931	69.556	0.190	-0.197
-518.916	153.329	0.153	-0.210
-517.902	285.278	0.028	0.051
-516.887	-200.000	0.022	0.180
-515.872	211.676	0.199	-0.315
-514.858	1.191	-0.267	0.193
-513.843	256.967	0.142	0.245
-512.829	-200.000	-0.002	0.352
-511.814	-126.372	-0.480	0.072
-510.799	800.000	0.164	-0.520
-509.785	-200.000	-0.005	0.120
-508.770	-96.411	0.081	0.022
-507.756	200.110	-0.040	-0.061
-506.741	116.544	-0.116	-0.143
-505.726	-26.651	-0.318	-0.187
-504.712	-101.923	0.138	0.034
-503.697	-15.665	-0.234	-0.150
-502.683	153.208	0.094	0.129
-501.668	-97.721	0.191	0.050
-500.653	266.840	0.158	0.276
-499.639	180.702	-0.158	-0.233
-498.624	-200.000	-0.006	-0.105
-497.610	374.214	0.061	0.126
-496.595	-158.360	0.164	0.010
-495.581	170.653	0.113	0.163
-494.566	-41.561	-0.328	-0.169
-493.551	-156.756	0.145	0.009
-492.537	800.000	0.075	-0.329
-491.522	800.000	0.043	-0.164
-490.508	-200.000	0.018	-0.457
-489.493	719.214	-0.065	-0.174
-488.478	-65.963	0.095	-0.038
-487.464	-185.187	-0.233	0.004
-486.449	32.814	0.125	0.109
-485.435	800.000	0.066	0.197
-484.420	800.000	-0.069	-0.257
-483.405	-200.000	-0.011	0.125
-482.391	55.914	-0.101	0.099
-481.376	-177.173	0.371	0.009
-480.362	-102.369	-0.156	0.038
-479.347	-200.000	0.005	0.223
-478.332	16.623	-0.128	-0.101
-477.318	800.000	-0.081	-0.278
-476.303	-119.123	-0.255	0.045
-475.289	31.348	-0.231	-0.198
-474.274	-136.232	0.277	-0.032
-473.259	111.372	0.149	-0.181
-472.245	624.595	-0.096	0.243
-471.230	458.256	0.096	-0.215
-470.216	-88.853	0.257	0.076
-469.201	-200.000	0.026	0.294
-468.186	69.344	-0.154	-0.158
-467.172	-53.377	0.130	0.060
-466.157	199.367	0.150	-0.231
-465.143	-90.031	-0.145	0.042
-464.128	800.000	0.188	-0.619
-463.113	800.000	-0.075	0.291
-462.099	-144.231	0.117	-0.011
-461.084	158.277	-0.099	-0.137
-460.070	-200.000	-0.035	0.205
-459.055	-111.561	-0.091	0.019
-458.040	93.618	-0.150	0.170
-457.026	800.000	-0.049	-0.155
-456.011	-200.000	0.011	0.264
-454.997	15.282	-0.145	-0.114
-453.982	-200.000	0.011	-0.411
-452.968	800.000	-0.030	0.089
-451.953	-200.000	-0.052	0.310
-450.938	-94.592	0.278	0.076
-449.924	185.542	-0.200	0.298
-448.909	74.204	0.078	0.082
-447.895	115.369	0.114	0.139
-446.880	-163.390	0.120	0.006
-445.865	-10.600	-0.137	-0.091
-444.851	-143.547	-0.119	0.011
-443.836	13.820	-0.241	0.188
-442.822	-200.000	-0.002	-0.262
-441.807	-51.088	-0.163	-0.077
-440.792	363.871	0.134	0.269
-439.778	-103.712	0.334	0.078
-438.763	51.453	0.154	0.147
-437.749	-140.807	0.120	-0.012
-436.734	52.056	0.115	0.110
-435.719	-200.000	0.030	-0.152
-434.705	12.335	0.202	-0.156
-433.690	800.000	0.056	0.211
-432.676	274.000	-0.123	-0.218
-431.661	9.393	-0.112	-0.084
-430.646	-61.747	0.192	0.080
-429.632	144.937	-0.079	0.106
-428.617	-153.100	-0.221	0.016
-427.603	-107.226	-0.159	-0.035
-426.588	209.935	-0.074	-0.116
-425.573	-94.076	0.142	0.039
-424.559	-53.692	0.228	0.104
-423.544	-118.470	-0.194	0.034
-422.530	-200.000	-0.041	-0.254
-421.515	73.674	0.101	-0.106
-420.500	800.000	-0.068	0.240
-419.486	137.535	-0.144	-0.188
-418.471	354.110	-0.133	0.264
-417.457	164.163	0.048	-0.068
-416.442	136.413	-0.110	0.144
-415.428	269.562	-0.112	-0.196
-414.413	800.000	0.053	-0.205
-413.398	-130.161	0.178	0.024
-412.384	-6.882	-0.251	-0.171
-411.369	81.003	-0.036	-0.039
-410.355	34.494	0.127	-0.111
-409.340	-123.161	-0.210	0.034
-408.325	742.627	0.103	0.276
-407.311	-38.366	0.038	0.020
-406.296	-141.742	0.372	-0.037
-405.282	52.078	-0.202	-0.192
-404.267	-99.661	0.250	-0.063
-403.252	-125.413	-0.096	-0.015
-402.238	-20.812	0.101	0.062
-401.223	-172.901	-0.246	0.008
-400.209	-101.450	0.108	0.026
-399.194	87.280	-0.154	-0.170
-398.179	-101.305	-0.391	0.095
-397.165	-200.000	0.000	0.107
-396.150	-200.000	-0.003	-0.067
-395.136	800.000	-0.041	0.132
-394.121	-200.000	-0.016	0.072
-393.106	800.000	0.033	-0.119
-392.092	-108.923	-0.305	0.065
-391.077	-24.760	-0.109	-0.065
-390.063	200.784	0.125	0.192
-389.048	-77.039	0.198	0.069
-388.033	166.736	0.080	0.114
-387.019	-124.095	0.121	0.019
-386.004	335.536	-0.091	0.177
-384.990	48.370	0.195	-0.183
-383.975	-124.396	0.288	0.045
-382.960	-151.857	0.062	-0.005
-381.946	-200.000	-0.005	0.073
-380.931	22.657	-0.132	0.108
-379.917	82.501	0.125	-0.135
-378.902	-37.471	-0.128	0.068
-377.888	-116.163	0.155	0.029
-376.873	56.804	0.121	0.118
-375.858	230.950	-0.275	-0.449
-374.844	124.358	0.192	0.241
-373.829	83.692	-0.053	-0.058
-372.815	-101.144	0.149	-0.036
-371.800	-109.945	0.278	-0.058
-370.785	-17.933	-0.126	0.079
-369.771	70.195	0.177	0.183
-368.756	-16.541	0.253	0.160
-367.742	-104.702	0.279	0.064
-366.727	573.504	0.086	-0.209
-365.712	108.041	-0.230	-0.274
-364.698	-51.204	0.291	0.136
-363.683	173.746	-0.238	-0.343
-362.669	-139.658	0.171	0.018
-361.654	-44.218	-0.179	-0.090
-360.639	322.718	0.277	-0.528
-359.625	800.000	0.045	0.174
-358.610	-46.132	0.208	0.102
-357.596	355.798	-0.095	0.188
-356.581	800.000	-0.069	0.198
-355.566	-109.254	0.315	-0.067
-354.552	-193.900	-0.487	0.004
-353.537	-200.000	0.038	-0.172
-352.523	800.000	0.120	-0.450
-351.508	54.922	-0.045	0.043
-350.493	-200.000	-0.034	0.249
-349.479	800.000	0.031	0.117
-348.464	-83.216	-0.157	-0.050
-347.450	800.000	0.067	-0.202
-346.435	-51.007	-0.171	0.080
-345.420	73.218	0.062	-0.065
-344.406	13.765	-0.417	0.323
-343.391	-90.620	-0.277	0.080
-342.377	32.641	-0.145	-0.125
-341.362	-22.242	0.264	-0.160
-340.348	-200.000	-0.001	0.015
-339.333	179.828	0.185	0.270
-338.318	241.630	0.157	0.261
-337.304	-87.402	-0.277	0.084
-336.289	-153.568	0.066	-0.005
-335.275	-165.607	0.385	-0.017
-334.260	196.068	0.123	-0.187
-333.245	-121.458	0.136	-0.023
-332.231	-43.104	-0.278	0.140
-331.216	526.300	-0.045	0.106
-330.202	9.035	0.287	0.216
-329.187	715.673	-0.073	-0.194
-328.172	-78.608	-0.326	0.111
-327.158	-75.668	0.221	0.078
-326.143	-200.000	-0.018	-0.253
-325.129	800.000	0.016	0.055
-324.114	-111.765	0.357	-0.072
-323.099	-52.044	0.233	-0.108
-322.085	-28.720	-0.434	-0.249
-321.070	-52.127	0.291	-0.135
-320.056	-133.395	0.156	-0.020
-319.041	-32.508	-0.250	-0.139
-318.026	-154.662	0.247	-0.016
-317.012	-75.785	0.119	0.042
-315.997	96.019	0.022	-0.025
-314.983	24.661	-0.066	0.055
-313.968	-98.210	-0.141	0.036
-312.953	800.000	0.010	-0.029
-311.939	-99.977	0.323	0.080
-310.924	800.000	0.049	0.138
-309.910	107.229	-0.126	0.149
-308.895	-171.079	-0.288	0.010
-307.880	120.866	0.021	0.027
-306.866	800.000	-0.063	-0.179
-305.851	46.032	0.130	-0.119
-304.837	-172.007	-0.154	0.005
-303.822	60.596	0.080	-0.079
-302.807	-200.000	0.015	0.252
-301.793	-147.607	0.086	0.007
-300.778	-65.846	0.287	-0.114
-299.764	362.772	0.055	0.109
-298.749	-74.702	0.143	-0.051
-297.735	93.289	0.142	-0.160
-296.720	90.859	0.122	-0.136
-295.705	-42.493	0.050	0.025
-294.691	800.000	-0.066	0.248
-293.676	-200.000	0.005	0.135
-292.662	99.488	0.072	-0.083
-291.647	-82.905	0.266	-0.086
-290.632	-60.148	0.170	-0.072
-289.618	800.000	0.030	0.104
-288.603	-73.648	0.227	0.082
-287.589	-87.508	0.196	-0.059
-286.574	64.259	-0.069	-0.069
-285.559	6.302	-0.430	0.318
-284.545	570.815	0.028	-0.067
-283.530	200.586	0.119	0.181
-282.516	800.000	-0.036	0.106
-281.501	327.618	-0.105	-0.200
-280.486	87.447	0.120	-0.133
-279.472	-64.958	0.075	-0.030
-278.457	-60.211	0.260	0.110
-277.443	-117.691	-0.158	0.028
-276.428	-200.000	-0.002	-0.162
-275.413	800.000	-0.103	0.346
-274.399	24.124	0.212	-0.174
-273.384	-200.000	0.006	0.040
-272.370	-59.574	0.272	0.116
-271.355	-31.228	-0.041	0.023
-270.340	66.374	-0.184	0.186
-269.326	189.225	0.203	0.302
-268.311	-200.000	0.007	-0.045
-267.297	285.081	-0.136	0.243
-266.282	-21.953	0.337	-0.204
-265.267	-109.091	-0.400	-0.085
-264.253	-200.000	0.054	-0.366
-263.238	396.470	0.217	0.451
-262.224	-96.678	-0.358	0.094
-261.209	-121.717	-0.250	-0.041
-260.195	56.553	0.098	0.095
-259.180	283.100	0.088	-0.158
-258.165	-135.829	0.059	0.007
-257.151	800.000	0.098	0.300
-256.136	5.244	-0.093	0.068
-255.122	-147.413	0.078	0.007
-254.107	216.665	-0.198	-0.313
-253.092	263.433	0.084	-0.145
-252.078	-2.800	-0.013	0.009
-251.063	-27.598	0.132	0.076
-250.049	-116.130	0.038	0.007
-249.034	339.559	0.069	0.134
-248.019	-102.242	0.179	0.043
-247.005	-200.000	0.040	0.211
-245.990	4.555	0.251	-0.183
-244.976	249.001	-0.109	-0.183
-243.961	278.713	-0.146	0.259
-242.946	-168.464	-0.201	-0.008
-241.932	-78.642	0.267	0.091
-240.917	-17.886	0.430	0.268
-239.903	-107.816	-0.069	0.015
-238.888	442.173	-0.041	0.089
-237.873	576.582	-0.155	0.377
-236.859	-62.605	0.378	0.156
-235.844	800.000	0.119	0.364
-234.830	-134.303	0.399	0.049
-233.815	-95.070	-0.273	-0.073
-232.800	-13.729	0.058	0.037
-231.786	-157.599	-0.121	0.007
-230.771	409.204	-0.115	-0.241
-229.757	-9.964	0.297	-0.196
-228.742	-107.643	-0.115	0.025
-227.727	-128.384	-0.417	-0.059
-226.713	800.000	0.061	-0.179
-225.698	-150.479	-0.246	0.019
-224.684	229.022	-0.054	0.087
-223.669	86.923	-0.186	-0.204
-222.655	616.519	0.083	-0.206
-221.640	800.000	-0.056	-0.159
-220.625	122.126	0.139	-0.173
-219.611	121.627	0.146	0.181
-218.596	-52.250	0.140	-0.065
-217.582	800.000	-0.090	-0.384
-216.567	-35.859	0.058	-0.031
-215.552	-200.000	-0.022	0.139
-214.538	450.158	0.084	-0.183
-213.523	63.006	-0.093	0.092
-212.509	800.000	-0.013	-0.036
-211.494	246.252	-0.032	0.053
-210.479	-128.368	-0.053	0.007
-209.465	319.347	0.067	0.125
-208.450	-149.770	-0.191	0.015
-207.436	-200.000	0.008	-0.057
-206.421	42.562	0.057	0.052
-205.406	-66.778	0.342	0.134
-204.392	-102.168	0.210	-0.050
-203.377	490.894	0.022	-0.051
-202.363	-43.505	0.122	-0.061
-201.348	-200.000	-0.051	0.281
-200.333	-200.000	0.025	-0.112
-199.319	-27.110	-0.126	-0.073
-198.304	-55.612	-0.135	0.060
-197.290	528.610	-0.143	-0.335
-196.275	-200.000	-0.012	-0.166
-195.260	464.207	0.079	0.174
-194.246	123.542	0.132	0.164
-193.231	800.000	-0.040	0.151
-192.217	-200.000	0.031	-0.147
-191.202	471.985	0.029	-0.064
-190.187	26.874	-0.129	-0.107
-189.173	-51.469	0.138	-0.064
-188.158	82.559	0.135	-0.146
-187.144	389.477	0.142	0.292
-186.129	145.428	-0.101	0.134
-185.114	800.000	-0.046	0.173
-184.100	129.062	0.142	-0.179
-183.085	387.949	0.212	0.435
-182.071	151.233	0.124	0.168
-181.056	62.353	0.210	-0.208
-180.042	-82.901	-0.067	-0.022
-179.027	-145.788	-0.159	-0.014
-178.012	109.819	-0.084	0.099
-176.998	15.928	0.268	-0.209
-175.983	101.481	-0.178	0.205
-174.969	-200.000	-0.024	-0.150
-173.954	208.443	0.088	-0.137
-172.939	17.917	-0.179	-0.141
-171.925	612.710	0.154	0.383
-170.910	-100.788	-0.283	0.069
-169.896	-154.577	-0.400	0.026
-168.881	-200.000	-0.023	0.391
-167.866	-114.843	0.387	-0.073
-166.852	-200.000	-0.010	0.076
-165.837	-74.333	-0.375	0.134
-164.823	414.672	-0.045	-0.095
-163.808	-200.000	0.036	0.164
-162.793	206.870	0.149	0.229
-161.779	-68.852	-0.345	0.132
-160.764	-200.000	0.021	-0.102
-159.750	-120.669	-0.245	0.041
-158.735	321.189	-0.058	0.108
-157.720	-111.883	-0.555	-0.111
-156.706	-200.000	0.010	0.081
-155.691	-193.179	-0.315	-0.003
-154.677	-4.080	-0.215	0.148
-153.662	99.220	-0.226	-0.258
-152.647	-151.662	-0.255	0.019
-151.633	-75.127	0.309	-0.109
-150.618	518.838	0.036	0.084
-149.604	-200.000	0.011	-0.122
-148.589	-112.264	0.118	-0.023
-147.574	-200.000	-0.058	-0.255
-146.560	-48.952	-0.219	0.104
-145.545	-10.181	0.126	0.083
-144.531	800.000	-0.012	0.036
-143.516	325.514	0.130	0.247
-142.502	800.000	0.071	-0.304
-141.487	-200.000	-0.061	0.383
-140.472	-195.997	0.286	-0.002
-139.458	242.191	-0.094	-0.156
-138.443	-200.000	-0.042	-0.248
-137.429	-143.866	0.536	0.050
-136.414	281.823	0.111	0.197
-135.399	-147.180	0.157	0.013
-134.385	-149.186	-0.145	0.011
-133.370	-31.710	-0.293	0.163
-132.356	21.092	0.138	0.111
-131.341	740.620	-0.126	0.334
-130.326	-200.000	0.051	-0.236
-129.312	-93.208	-0.159	-0.044
-128.297	36.865	-0.079	0.069
-127.283	-83.337	0.415	0.132
-126.268	197.314	-0.115	-0.174
-125.253	17.652	-0.175	0.138
-124.239	-14.287	0.086	-0.055
-123.224	29.195	-0.378	-0.317
-122.210	-111.019	0.200	0.041
-121.195	-12.468	-0.141	0.091
