DTS Sentinel unit serial number:	SN413079Multiplexer serial number:	ORYXHardware model number:	OX4-SRSoftware version number:	ORYX F/W v4.00 Oryx Data Collector v3.7.2.0data status	okinstallation	princeton_trtdifferential loss correction	single-endedforward channel	channel 3reverse channel	N/Adate	2019/09/11time	10:58:11forward acquisition time	60.00reverse acquisition time	0.00gamma	496.2192k internal	0.2296k external	0.2296temperature offset calibration	0.9940default loss term (dB/km)	0.3790temperature slope calibration	1.0000multiplexer offset coefficient	1.0000multiplexer slope coefficient	1.0000fibre end	0.00T internal ref (°C)	37.16T ext. ref 1 (°C)	0.17T ext. ref 2 (°C)	34.60length (m)	temperature (°C)	Stokes	anti-Stokes-747.200	456.136	-0.206	0.467
-746.185	25.231	-0.159	0.135
-745.171	-100.590	0.541	-0.137
-744.156	-98.372	-0.149	0.039
-743.142	-200.000	-0.022	-0.138
-742.127	-107.648	-0.466	-0.104
-741.112	118.019	0.048	-0.061
-740.098	321.211	0.098	0.190
-739.083	-159.904	-0.200	0.011
-738.069	129.696	0.081	0.106
-737.054	-173.073	-0.475	0.015
-736.039	51.956	0.164	-0.159
-735.025	-54.908	-0.259	0.119
-734.010	-116.480	-0.538	-0.101
-732.996	-83.905	0.219	0.071
-731.981	88.406	-0.162	-0.184
-730.966	-200.000	-0.028	-0.141
-729.952	-148.221	-0.392	-0.033
-728.937	-200.000	-0.010	0.130
-727.923	104.100	0.076	0.091
-726.908	125.555	0.078	-0.101
-725.894	189.280	-0.071	0.108
-724.879	34.999	0.174	0.156
-723.864	178.699	0.276	0.411
-722.850	-200.000	0.011	-0.075
-721.835	110.352	-0.211	0.259
-720.821	-200.000	-0.010	-0.228
-719.806	-147.806	-0.171	-0.015
-718.791	-131.296	-0.076	0.010
-717.777	288.364	0.053	-0.098
-716.762	-200.000	0.008	-0.116
-715.748	-200.000	0.036	0.288
-714.733	38.892	-0.123	0.112
-713.718	-200.000	-0.041	-0.414
-712.704	30.015	-0.304	-0.265
-711.689	-28.081	0.135	0.080
-710.675	-188.070	0.141	0.002
-709.660	-125.718	-0.133	0.021
-708.645	71.876	-0.076	0.080
-707.631	110.984	-0.046	-0.056
-706.616	-200.000	-0.005	-0.093
-705.602	-200.000	0.015	-0.249
-704.587	262.443	0.108	0.191
-703.572	796.483	0.046	0.128
-702.558	-200.000	-0.002	0.158
-701.543	85.545	0.314	0.352
-700.529	16.597	0.186	0.150
-699.514	-200.000	0.010	-0.111
-698.499	120.759	0.178	0.225
-697.485	-200.000	-0.031	-0.243
-696.470	88.799	-0.139	0.158
-695.456	168.338	0.201	-0.292
-694.441	800.000	-0.028	0.086
-693.426	-65.347	0.265	-0.109
-692.412	800.000	0.008	-0.027
-691.397	-109.595	0.100	0.022
-690.383	-200.000	0.047	0.402
-689.368	23.828	-0.118	-0.099
-688.354	94.686	0.087	0.101
-687.339	800.000	-0.036	0.157
-686.324	164.095	-0.117	-0.168
-685.310	-157.368	0.051	-0.003
-684.295	-200.000	-0.033	-0.372
-683.281	-68.618	0.099	-0.039
-682.266	-81.521	0.206	-0.069
-681.251	-52.112	0.237	-0.112
-680.237	-24.649	0.128	0.078
-679.222	-25.113	0.127	-0.077
-678.208	266.417	0.134	0.238
-677.193	-36.263	-0.128	0.071
-676.178	523.239	0.115	-0.276
-675.164	90.491	-0.103	0.118
-674.149	144.525	0.139	0.189
-673.135	-162.100	0.144	0.007
-672.120	-92.456	-0.356	-0.102
-671.105	800.000	-0.051	-0.169
-670.091	-99.590	-0.387	0.099
-669.076	34.687	0.461	-0.411
-668.062	78.194	0.042	0.046
-667.047	800.000	-0.049	-0.164
-666.032	192.223	-0.117	0.180
-665.018	-110.707	0.082	0.017
-664.003	30.307	0.201	0.175
-662.989	-200.000	0.032	0.342
-661.974	-123.929	-0.280	-0.045
-660.959	-200.000	-0.008	0.121
-659.945	-200.000	-0.024	-0.188
-658.930	-200.000	-0.002	0.227
-657.916	-200.000	0.008	-0.226
-656.901	800.000	-0.080	-0.254
-655.886	59.668	0.222	-0.223
-654.872	138.905	-0.058	0.077
-653.857	-72.509	0.072	0.027
-652.843	95.485	0.258	-0.300
-651.828	234.651	-0.092	0.155
-650.814	235.950	0.121	-0.204
-649.799	-102.560	0.318	-0.077
-648.784	-139.314	0.091	-0.010
-647.770	-38.520	0.227	-0.122
-646.755	800.000	0.063	0.206
-645.741	800.000	-0.058	0.191
-644.726	-64.794	-0.217	0.090
-643.711	85.873	-0.178	-0.199
-642.697	28.123	0.116	-0.100
-641.682	44.315	0.368	-0.344
-640.668	-200.000	0.027	0.357
-639.653	19.328	-0.059	-0.048
-638.638	27.924	-0.300	0.257
-637.624	145.374	0.107	-0.146
-636.609	-109.985	-0.409	0.087
-635.595	10.531	-0.028	-0.022
-634.580	-23.331	-0.273	-0.167
-633.565	800.000	-0.096	-0.340
-632.551	-200.000	0.036	0.546
-631.536	184.070	0.142	-0.214
-630.522	124.011	-0.079	-0.101
-629.507	-167.532	-0.119	-0.005
-628.492	-130.992	-0.162	0.022
-627.478	-200.000	-0.002	0.177
-626.463	-109.303	-0.276	-0.060
-625.449	-13.066	0.294	0.195
-624.434	137.171	0.203	0.270
-623.419	-35.747	0.065	-0.036
-622.405	-200.000	0.020	0.243
-621.390	188.418	0.274	-0.416
-620.376	-47.543	-0.026	0.013
-619.361	-135.743	-0.220	-0.027
-618.346	65.781	-0.274	0.282
-617.332	-112.567	0.188	-0.038
-616.317	6.847	-0.125	0.095
-615.303	-86.404	0.256	-0.080
-614.288	-83.845	0.140	-0.045
-613.273	-55.222	0.391	-0.179
-612.259	-105.572	-0.209	0.048
-611.244	-97.429	-0.156	-0.041
-610.230	800.000	0.122	-0.391
-609.215	121.435	0.014	0.018
-608.201	35.632	0.233	-0.208
-607.186	4.917	0.112	0.084
-606.171	18.659	0.226	0.184
-605.157	187.430	-0.147	0.223
-604.142	-50.023	0.048	0.023
-603.128	-24.460	-0.137	-0.083
-602.113	-67.545	0.129	-0.051
-601.098	-22.552	0.293	0.180
-600.084	-68.882	-0.373	0.146
-599.069	-94.414	-0.274	-0.076
-598.055	302.902	0.142	0.267
-597.040	-102.028	-0.181	0.044
-596.025	-200.000	0.055	0.331
-595.011	110.840	-0.122	0.149
-593.996	800.000	0.032	-0.104
-592.982	800.000	-0.054	-0.176
-591.967	-29.306	0.028	0.016
-590.952	-191.409	-0.196	-0.002
-589.938	-200.000	0.007	0.282
-588.923	589.926	0.045	-0.114
-587.909	439.901	0.120	-0.266
-586.894	-133.715	0.324	-0.041
-585.879	-148.641	-0.240	0.020
-584.865	-69.736	-0.502	0.195
-583.850	62.730	-0.154	0.157
-582.836	178.752	-0.123	-0.182
-581.821	7.646	-0.299	-0.227
-580.806	751.964	-0.084	-0.231
-579.792	124.625	-0.135	0.172
-578.777	-111.392	-0.249	-0.051
-577.763	629.950	0.175	-0.450
-576.748	134.850	-0.083	-0.110
-575.733	410.052	0.042	0.091
-574.719	-200.000	-0.014	-0.074
-573.704	-157.785	-0.249	-0.015
-572.690	-36.833	0.253	-0.138
-571.675	176.747	0.226	0.334
-570.661	-200.000	0.009	-0.108
-569.646	800.000	-0.098	-0.317
-568.631	-6.907	0.387	-0.267
-567.617	-110.924	0.111	0.023
-566.602	15.802	-0.165	-0.132
-565.588	34.703	-0.059	0.052
-564.573	52.409	-0.224	0.217
-563.558	171.867	-0.048	0.071
-562.544	-50.734	-0.050	-0.024
-561.529	-200.000	0.012	-0.426
-560.515	-200.000	-0.011	-0.285
-559.500	373.591	0.089	0.184
-558.485	-31.330	0.248	0.142
-557.471	-50.154	0.123	-0.059
-556.456	352.678	-0.079	-0.158
-555.442	8.380	-0.059	0.045
-554.427	79.013	0.290	-0.315
-553.412	139.552	0.113	-0.151
-552.398	20.739	-0.184	-0.151
-551.383	-200.000	0.050	0.250
-550.369	0.011	-0.134	-0.097
-549.354	-91.508	0.354	0.102
-548.339	699.638	-0.048	0.127
-547.325	-55.735	-0.273	-0.124
-546.310	800.000	0.042	-0.147
-545.296	308.235	-0.144	0.272
-544.281	800.000	0.054	0.184
-543.266	-112.062	0.238	0.049
-542.252	137.776	0.031	0.041
-541.237	-24.996	-0.150	0.090
-540.223	90.950	-0.170	0.193
-539.208	59.686	-0.130	0.130
-538.193	-98.994	-0.317	0.082
-537.179	-200.000	-0.008	0.036
-536.164	-123.687	-0.079	0.013
-535.150	-200.000	-0.025	0.210
-534.135	-200.000	0.002	0.171
-533.121	-66.551	0.051	-0.020
-532.106	-19.492	0.099	-0.062
-531.091	135.742	0.083	-0.109
-530.077	228.337	-0.019	0.031
-529.062	-128.480	0.071	0.010
-528.048	486.638	-0.064	-0.147
-527.033	113.767	0.135	-0.167
-526.018	-131.016	0.268	0.036
-525.004	-64.688	-0.239	-0.098
-523.989	273.221	-0.059	-0.105
-522.975	-200.000	0.017	0.099
-521.960	333.293	-0.125	-0.244
-520.945	-200.000	0.014	-0.117
-519.931	19.318	-0.142	-0.116
-518.916	31.068	-0.060	-0.052
-517.902	-184.103	-0.287	-0.005
-516.887	-111.657	0.314	0.065
-515.872	675.062	-0.138	-0.362
-514.858	-200.000	0.012	-0.215
-513.843	-146.080	0.102	-0.009
-512.829	-60.237	0.222	-0.096
-511.814	-200.000	0.017	-0.361
-510.799	-148.511	-0.045	-0.004
-509.785	800.000	-0.044	-0.165
-508.770	-96.375	0.176	-0.047
-507.756	-61.012	-0.286	-0.122
-506.741	122.185	0.142	0.179
-505.726	-196.230	-0.455	0.003
-504.712	349.993	0.085	0.170
-503.697	800.000	0.032	-0.105
-502.683	187.574	0.137	-0.207
-501.668	-200.000	-0.015	-0.243
-500.653	-200.000	-0.087	-0.385
-499.639	278.588	-0.129	0.233
-498.624	46.607	-0.281	-0.264
-497.610	722.175	0.059	-0.160
-496.595	-72.507	-0.169	-0.063
-495.581	110.778	0.072	0.087
-494.566	9.633	0.126	-0.097
-493.551	-200.000	0.008	0.146
-492.537	800.000	-0.069	0.244
-491.522	-134.192	-0.278	0.035
-490.508	151.382	0.146	0.201
-489.493	115.843	0.072	0.089
-488.478	-112.631	-0.176	-0.036
-487.464	-29.830	-0.065	0.037
-486.449	425.661	-0.070	0.153
-485.435	24.899	-0.142	0.119
-484.420	-112.357	0.019	0.004
-483.405	31.740	-0.116	0.101
-482.391	-200.000	-0.061	-0.601
-481.376	-83.633	-0.091	-0.029
-480.362	-86.522	-0.347	0.108
-479.347	-31.751	0.046	-0.026
-478.332	196.006	-0.129	-0.199
-477.318	321.096	-0.145	-0.279
-476.303	-200.000	0.020	-0.486
-475.289	590.517	-0.030	-0.075
-474.274	77.659	-0.043	0.046
-473.259	800.000	-0.062	0.192
-472.245	-114.629	-0.174	-0.034
-471.230	242.995	-0.145	0.245
-470.216	65.869	0.283	0.290
-469.201	45.767	0.159	0.149
-468.186	-20.738	-0.134	-0.083
-467.172	-131.642	0.135	0.018
-466.157	-200.000	0.023	-0.164
-465.143	800.000	0.047	0.173
-464.128	244.120	0.093	0.159
-463.113	240.907	-0.043	-0.072
-462.099	-72.405	0.399	-0.149
-461.084	-88.849	-0.026	0.008
-460.070	52.286	0.215	0.207
-459.055	-200.000	-0.041	0.425
-458.040	-200.000	-0.338	-0.001
-457.026	22.960	-0.334	-0.277
-456.011	-200.000	-0.016	-0.261
-454.997	245.117	-0.138	-0.235
-453.982	101.910	-0.179	-0.211
-452.968	-200.000	0.013	0.155
-451.953	420.207	0.254	0.550
-450.938	-200.000	-0.012	0.065
-449.924	95.575	-0.201	0.232
-448.909	-44.057	-0.119	-0.061
-447.895	203.256	0.087	0.136
-446.880	800.000	-0.119	0.437
-445.865	450.461	0.024	-0.054
-444.851	529.323	0.104	0.249
-443.836	82.455	-0.052	-0.057
-442.822	52.115	0.032	-0.031
-441.807	-200.000	0.028	0.201
-440.792	79.286	0.135	0.146
-439.778	800.000	0.013	0.037
-438.763	-200.000	0.060	-0.342
-437.749	-20.420	0.256	0.159
-436.734	-86.859	-0.286	-0.088
-435.719	-129.684	0.434	0.060
-434.705	-25.897	0.128	0.076
-433.690	19.739	-0.150	0.122
-432.676	800.000	-0.007	-0.027
-431.661	-126.009	-0.354	-0.054
-430.646	389.048	-0.157	0.329
-429.632	-46.379	0.085	0.042
-428.617	-127.436	-0.156	0.023
-427.603	49.768	0.114	0.109
-426.588	41.223	0.506	-0.462
-425.573	676.445	-0.024	-0.064
-424.559	631.553	0.167	-0.428
-423.544	516.380	-0.035	0.082
-422.530	11.973	-0.122	-0.094
-421.515	-144.155	0.332	0.031
-420.500	53.773	-0.090	-0.087
-419.486	4.357	-0.162	0.120
-418.471	215.486	0.095	0.153
-417.457	197.449	0.115	0.176
-416.442	512.455	0.156	0.368
-415.428	289.412	0.116	-0.213
-414.413	-165.902	0.146	0.006
-413.398	-85.546	0.256	0.080
-412.384	-75.145	-0.422	0.152
-411.369	-136.284	-0.244	-0.029
-410.355	728.966	-0.081	-0.217
-409.340	-68.787	0.268	-0.104
-408.325	800.000	-0.127	-0.475
-407.311	-60.730	-0.130	0.056
-406.296	188.616	-0.261	0.393
-405.282	-44.574	-0.090	0.045
-404.267	177.881	0.258	-0.379
-403.252	800.000	0.055	-0.217
-402.238	-200.000	0.058	0.491
-401.223	-95.676	-0.257	-0.069
-400.209	-102.248	0.250	-0.061
-399.194	-45.569	-0.272	-0.136
-398.179	-34.139	0.311	0.172
-397.165	-119.858	-0.091	0.016
-396.150	62.469	0.148	-0.149
-395.136	-158.542	0.233	-0.014
-394.121	-200.000	-0.004	0.020
-393.106	13.100	0.159	0.124
-392.092	-200.000	-0.039	0.296
-391.077	-169.351	0.285	-0.011
-390.063	800.000	-0.044	-0.165
-389.048	-95.381	0.251	0.068
-388.033	532.686	0.088	0.211
-387.019	-87.849	0.021	0.007
-386.004	186.538	-0.043	0.065
-384.990	176.930	0.164	0.240
-383.975	50.257	0.130	-0.123
-382.960	-200.000	-0.025	-0.159
-381.946	800.000	0.002	-0.010
-380.931	-200.000	-0.013	-0.154
-379.917	-145.035	0.116	0.011
-378.902	-200.000	0.016	0.178
-377.888	-65.426	0.124	-0.050
-376.873	-127.221	-0.140	-0.021
-375.858	55.405	-0.110	0.107
-374.844	73.895	-0.222	0.235
-373.829	123.336	-0.138	-0.174
-372.815	29.231	-0.220	-0.188
-371.800	238.819	-0.054	0.090
-370.785	589.067	-0.088	0.218
-369.771	-149.732	0.232	-0.018
-368.756	10.560	0.100	-0.077
-367.742	-155.306	-0.228	-0.015
-366.727	-171.777	0.080	0.003
-365.712	16.533	-0.085	0.067
-364.698	-118.679	-0.262	-0.047
-363.683	-58.612	-0.101	-0.044
-362.669	-200.000	0.047	0.249
-361.654	-200.000	-0.000	0.186
-360.639	161.306	0.217	0.305
-359.625	-107.474	0.212	0.047
-358.610	-179.837	0.420	-0.009
-357.596	66.408	-0.113	-0.115
-356.581	-31.107	-0.163	0.093
-355.566	252.563	0.236	0.404
-354.552	-200.000	-0.027	-0.343
-353.537	120.001	0.197	0.246
-352.523	205.255	0.140	-0.219
-351.508	17.885	-0.288	-0.231
-350.493	-200.000	0.010	-0.237
-349.479	-81.906	0.087	0.029
-348.464	-200.000	0.062	0.297
-347.450	78.480	-0.082	0.088
-346.435	-114.680	0.140	0.027
-345.420	-91.934	0.196	-0.056
-344.406	395.734	0.132	0.278
-343.391	800.000	-0.012	-0.050
-342.377	50.680	0.106	-0.101
-341.362	87.962	-0.112	0.125
-340.348	40.289	0.136	-0.123
-339.333	-120.833	-0.168	0.028
-338.318	-139.256	0.253	0.027
-337.304	-200.000	-0.084	0.654
-336.289	61.462	-0.217	0.217
-335.275	-126.217	-0.310	0.047
-334.260	800.000	0.104	-0.383
-333.245	-200.000	-0.007	0.342
-332.231	-89.381	-0.501	-0.148
-331.216	-90.606	-0.101	0.029
-330.202	-200.000	-0.017	-0.114
-329.187	-200.000	0.027	0.300
-328.172	-71.559	0.096	-0.036
-327.158	800.000	-0.053	0.196
-326.143	213.022	-0.166	-0.263
-325.129	-82.403	-0.279	-0.091
-324.114	-200.000	-0.057	-0.458
-323.099	-200.000	-0.005	0.070
-322.085	-12.174	-0.111	0.073
-321.070	-32.303	-0.068	0.038
-320.056	-133.615	0.448	0.056
-319.041	-91.252	0.227	0.065
-318.026	-135.816	0.166	0.020
-317.012	777.860	-0.013	0.036
-315.997	-77.451	0.093	0.032
-314.983	625.603	-0.036	-0.090
-313.968	-109.799	0.138	0.029
-312.953	-200.000	0.020	-0.090
-311.939	-40.567	-0.404	-0.210
-310.924	449.831	0.024	-0.054
-309.910	-159.066	0.049	0.003
-308.895	63.807	0.314	0.317
-307.880	-61.194	0.165	0.070
-306.866	83.484	-0.226	-0.248
-305.851	-46.308	-0.014	0.007
-304.837	800.000	-0.059	0.217
-303.822	186.458	0.093	0.140
-302.807	800.000	0.073	-0.291
-301.793	36.757	0.069	0.061
-300.778	-58.807	0.153	0.066
-299.764	-30.285	-0.229	-0.131
-298.749	800.000	0.103	0.291
-297.735	230.099	-0.049	0.081
-296.720	20.647	-0.135	0.109
-295.705	-105.997	0.194	0.044
-294.691	154.402	0.188	-0.260
-293.676	158.093	0.096	0.134
-292.662	-35.934	-0.129	-0.070
-291.647	87.161	0.105	0.116
-290.632	-46.106	0.171	0.084
-289.618	594.127	0.119	0.295
-288.603	794.996	-0.035	-0.096
-287.589	-159.767	-0.167	-0.009
-286.574	-167.579	0.447	0.018
-285.559	-200.000	0.026	0.232
-284.545	-7.753	-0.436	-0.295
-283.530	-72.409	-0.139	-0.051
-282.516	-13.415	-0.103	-0.067
-281.501	228.824	0.055	0.091
-280.486	402.655	-0.070	-0.148
-279.472	127.086	0.159	-0.202
-278.457	-200.000	0.049	0.261
-277.443	722.471	-0.101	-0.270
-276.428	-58.568	0.334	0.145
-275.413	43.595	-0.105	-0.097
-274.399	-177.842	0.108	0.003
-273.384	376.464	0.078	0.161
-272.370	-200.000	-0.008	0.077
-271.355	-99.043	0.094	-0.024
-270.340	-25.832	-0.093	-0.055
-269.326	47.055	0.169	-0.157
-268.311	-131.455	0.050	0.007
-267.297	285.690	-0.215	-0.388
-266.282	-200.000	-0.009	-0.193
-265.267	-44.765	0.035	-0.018
-264.253	-163.352	-0.315	0.015
-263.238	-50.650	-0.275	-0.130
-262.224	357.602	0.038	-0.075
-261.209	145.316	-0.229	-0.308
-260.195	37.190	0.227	-0.201
-259.180	174.689	0.059	0.086
-258.165	-200.000	-0.024	-0.130
-257.151	-56.419	0.111	-0.049
-256.136	3.150	0.034	-0.024
-255.122	21.189	-0.132	-0.107
-254.107	191.882	0.148	0.223
-253.092	-121.055	-0.391	-0.066
-252.078	-45.775	0.216	0.107
-251.063	-143.132	0.465	0.045
-250.049	-151.611	0.316	0.023
-249.034	-200.000	0.003	-0.069
-248.019	-50.822	-0.024	-0.011
-247.005	-11.997	-0.241	-0.158
-245.990	-86.599	0.159	-0.049
-244.976	131.933	0.087	0.113
-243.961	-200.000	0.039	-0.205
-242.946	33.535	-0.333	-0.290
-241.932	-33.344	0.033	0.018
-240.917	-2.039	0.181	-0.127
-239.903	-175.319	-0.440	0.012
-238.888	299.276	0.098	0.181
-237.873	464.093	0.159	0.356
-236.859	-26.964	0.158	-0.092
-235.844	41.852	0.185	-0.168
-234.830	58.064	0.153	0.150
-233.815	84.181	0.095	0.104
-232.800	229.609	-0.051	0.084
-231.786	-83.371	0.050	0.016
-230.771	-200.000	-0.057	-0.373
-229.757	-5.831	0.081	0.055
-228.742	800.000	-0.042	-0.146
-227.727	-178.273	-0.022	0.001
-226.713	-200.000	0.026	0.177
-225.698	800.000	0.114	0.457
-224.684	-200.000	-0.027	-0.162
-223.669	-132.631	-0.282	0.036
-222.655	-106.861	0.603	-0.134
-221.640	800.000	0.063	0.183
-220.625	69.711	-0.277	0.286
-219.611	-190.565	-0.502	0.005
-218.596	36.385	0.136	-0.120
-217.582	-200.000	-0.020	0.277
-216.567	110.334	0.122	0.147
-215.552	3.938	-0.052	-0.038
-214.538	113.684	-0.151	0.183
-213.523	17.122	0.156	-0.124
-212.509	-102.654	-0.214	-0.051
-211.494	-114.388	0.375	-0.072
-210.479	-200.000	-0.014	0.172
-209.465	93.550	-0.111	-0.126
-208.450	-157.873	-0.226	-0.013
-207.436	-200.000	-0.012	-0.117
-206.421	285.603	-0.028	0.051
-205.406	54.890	0.097	0.093
-204.392	613.132	-0.141	-0.352
-203.377	469.657	0.060	-0.135
-202.363	-66.369	0.207	0.082
-201.348	329.129	0.036	-0.070
-200.333	46.349	-0.156	-0.145
-199.319	-200.000	0.009	0.092
-198.304	463.232	0.059	0.132
-197.290	-32.747	-0.347	0.193
-196.275	-40.015	-0.261	-0.136
-195.260	-114.918	0.183	-0.035
-194.246	54.086	0.113	-0.109
-193.231	-200.000	-0.005	0.228
-192.217	214.984	-0.146	0.231
-191.202	486.810	-0.069	-0.157
-190.187	-24.242	-0.282	-0.168
-189.173	-200.000	-0.064	0.309
-188.158	98.607	-0.052	-0.060
-187.144	-200.000	0.042	-0.188
-186.129	-151.255	0.342	-0.026
-185.114	-162.153	0.268	-0.013
-184.100	194.778	-0.187	-0.284
-183.085	-89.447	0.340	0.100
-182.071	-174.141	-0.174	-0.005
-181.056	211.550	0.039	0.062
-180.042	800.000	-0.074	-0.311
-179.027	-200.000	0.072	-0.461
-178.012	-95.801	-0.233	0.062
-176.998	216.502	0.212	0.336
-175.983	-200.000	-0.023	-0.416
-174.969	414.640	0.139	-0.296
-173.954	-200.000	0.032	0.272
-172.939	-129.415	-0.092	0.013
-171.925	-147.311	-0.215	0.018
-170.910	-70.796	0.169	0.064
-169.896	800.000	-0.048	0.160
-168.881	178.392	-0.122	-0.178
-167.866	-134.403	0.171	-0.021
-166.852	387.128	0.106	0.219
-165.837	29.029	0.028	-0.024
-164.823	-161.956	-0.181	-0.009
-163.808	800.000	0.010	0.032
-162.793	-56.364	0.101	-0.045
-161.779	128.613	0.098	0.124
-160.764	-200.000	-0.002	-0.221
-159.750	158.501	0.191	-0.264
-158.735	-200.000	-0.056	0.420
-157.720	-200.000	0.017	0.086
-156.706	250.548	-0.087	0.147
-155.691	-200.000	0.037	0.237
-154.677	79.429	0.188	0.201
-153.662	-98.251	0.175	0.045
-152.647	-78.302	-0.255	-0.087
-151.633	-200.000	0.005	0.203
-150.618	713.415	-0.037	0.098
-149.604	-37.118	0.188	0.101
-148.589	783.909	-0.059	0.162
-147.574	-200.000	0.012	0.130
-146.560	-74.290	-0.033	0.012
-145.545	94.651	0.193	0.219
-144.531	151.212	0.119	-0.162
-143.516	-200.000	-0.034	0.434
-142.502	-8.347	-0.019	0.013
-141.487	-200.000	0.011	0.151
-140.472	-200.000	0.019	0.171
-139.458	-111.596	0.207	0.042
-138.443	-200.000	-0.021	0.361
-137.429	-33.486	0.386	-0.213
-136.414	-86.077	-0.333	0.103
-135.399	-46.604	0.435	-0.213
-134.385	-129.253	0.316	0.044
-133.370	-99.099	0.108	-0.027
-132.356	107.503	0.051	-0.061
-131.341	771.288	-0.098	0.267
-130.326	7.806	-0.365	0.273
-129.312	281.988	0.201	-0.359
-128.297	-18.706	-0.079	-0.049
-127.283	-200.000	-0.003	0.070
-126.268	749.684	-0.071	0.192
-125.253	-70.957	-0.167	-0.063
-124.239	-200.000	0.015	-0.146
-123.224	-101.875	0.231	-0.056
-122.210	800.000	0.156	0.488
-121.195	-135.671	-0.176	-0.021
