DTS Sentinel unit serial number:	SN413079Multiplexer serial number:	ORYXHardware model number:	OX4-SRSoftware version number:	ORYX F/W v4.00 Oryx Data Collector v3.7.2.0data status	okinstallation	princeton_trtdifferential loss correction	single-endedforward channel	channel 3reverse channel	N/Adate	2019/09/11time	14:50:10forward acquisition time	60.00reverse acquisition time	0.00gamma	496.2192k internal	0.2290k external	0.2290temperature offset calibration	0.9982default loss term (dB/km)	0.3790temperature slope calibration	1.0000multiplexer offset coefficient	1.0000multiplexer slope coefficient	1.0000fibre end	0.00T internal ref (°C)	42.56T ext. ref 1 (°C)	0.92T ext. ref 2 (°C)	38.41length (m)	temperature (°C)	Stokes	anti-Stokes-747.200	61.930	0.214	0.219
-746.185	-200.000	-0.106	0.481
-745.171	-130.446	-0.332	-0.046
-744.156	-42.983	0.253	0.132
-743.142	-104.870	-0.246	-0.058
-742.127	262.804	0.155	0.275
-741.112	-191.780	0.379	0.004
-740.098	800.000	0.034	-0.114
-739.083	-22.872	-0.247	0.153
-738.069	-89.467	0.072	0.022
-737.054	-182.326	0.602	-0.011
-736.039	31.674	0.219	-0.193
-735.025	225.646	0.152	0.253
-734.010	-8.811	-0.154	0.106
-732.996	-128.433	-0.352	-0.051
-731.981	144.391	0.071	-0.098
-730.966	-70.791	0.443	0.171
-729.952	-152.262	-0.233	0.017
-728.937	87.693	-0.117	-0.133
-727.923	84.866	-0.090	0.101
-726.908	-4.955	-0.241	-0.170
-725.894	-35.413	0.011	0.006
-724.879	-38.053	-0.094	0.051
-723.864	7.161	-0.143	-0.109
-722.850	501.238	0.059	-0.139
-721.835	-47.651	0.363	0.180
-720.821	-94.363	0.451	-0.126
-719.806	-63.623	0.161	0.068
-718.791	-174.090	0.420	0.013
-717.777	134.695	-0.270	0.358
-716.762	800.000	-0.066	0.190
-715.748	-200.000	-0.028	-0.363
-714.733	244.766	0.060	-0.103
-713.718	-63.099	0.108	-0.045
-712.704	447.211	0.157	0.353
-711.689	-30.240	-0.503	-0.292
-710.675	-128.612	0.111	0.016
-709.660	-161.082	-0.248	0.013
-708.645	106.426	-0.049	0.059
-707.631	341.794	-0.095	0.190
-706.616	60.947	-0.212	0.215
-705.602	254.870	0.143	-0.251
-704.587	182.212	-0.031	-0.047
-703.572	-200.000	-0.068	-0.497
-702.558	318.294	-0.061	0.118
-701.543	689.285	0.031	-0.084
-700.529	-26.811	-0.160	-0.096
-699.514	323.394	-0.063	-0.123
-698.499	-74.541	-0.146	-0.054
-697.485	-101.862	0.101	0.025
-696.470	-120.849	-0.272	-0.047
-695.456	-10.694	0.165	0.112
-694.441	64.683	0.065	-0.067
-693.426	443.743	0.080	-0.179
-692.412	-52.816	-0.274	-0.129
-691.397	-146.299	-0.292	-0.026
-690.383	-127.336	-0.047	0.007
-689.368	-126.695	-0.275	-0.042
-688.354	33.992	-0.062	0.055
-687.339	260.376	0.089	0.157
-686.324	-59.996	0.199	-0.087
-685.310	-96.149	0.238	-0.065
-684.295	-200.000	0.017	-0.278
-683.281	-40.083	-0.063	-0.033
-682.266	-200.000	0.082	-0.425
-681.251	-8.868	0.224	0.153
-680.237	231.156	-0.101	-0.169
-679.222	-48.613	0.114	0.056
-678.208	-200.000	-0.038	-0.250
-677.193	21.272	0.076	-0.063
-676.178	-62.476	-0.304	-0.129
-675.164	-105.216	-0.181	-0.042
-674.149	-200.000	0.010	-0.134
-673.135	-58.227	0.150	-0.067
-672.120	531.232	0.087	0.211
-671.105	-122.961	-0.110	0.018
-670.091	180.502	0.140	-0.210
-669.076	-39.744	-0.111	0.059
-668.062	427.452	-0.144	-0.318
-667.047	-200.000	-0.010	-0.137
-666.032	4.386	-0.119	0.089
-665.018	-134.827	0.129	0.016
-664.003	186.167	0.106	-0.160
-662.989	300.226	-0.093	0.174
-661.974	-128.180	0.323	0.047
-660.959	-96.033	0.394	0.107
-659.945	800.000	-0.066	-0.191
-658.930	114.738	-0.053	-0.066
-657.916	254.047	-0.111	-0.194
-656.901	-94.976	0.279	0.077
-655.886	105.725	-0.240	-0.290
-654.872	-45.925	0.206	-0.104
-653.857	800.000	0.083	0.330
-652.843	-65.708	0.051	0.021
-651.828	115.871	-0.085	0.106
-650.814	103.888	0.224	0.268
-649.799	-111.970	0.140	0.029
-648.784	-102.925	0.507	0.123
-647.770	269.109	-0.090	-0.161
-646.755	19.688	0.159	0.130
-645.741	589.817	-0.075	0.189
-644.726	114.721	-0.129	0.160
-643.711	46.880	0.073	-0.069
-642.697	333.575	-0.034	-0.067
-641.682	58.750	0.295	-0.296
-640.668	261.693	-0.204	0.361
-639.653	-72.027	0.137	0.052
-638.638	49.907	0.247	0.237
-637.624	38.696	-0.176	0.161
-636.609	-200.000	-0.003	0.087
-635.595	-63.653	-0.105	-0.044
-634.580	-84.242	0.058	0.019
-633.565	0.842	-0.228	-0.166
-632.551	-157.421	0.112	-0.007
-631.536	-20.400	0.214	-0.134
-630.522	105.293	-0.031	-0.038
-629.507	4.985	0.212	-0.159
-628.492	-78.638	0.269	-0.094
-627.478	800.000	0.062	-0.215
-626.463	298.837	-0.067	0.126
-625.449	-115.014	-0.098	0.019
-624.434	-61.139	0.066	0.029
-623.419	-120.830	0.090	-0.015
-622.405	800.000	0.016	-0.066
-621.390	-149.397	-0.275	-0.022
-620.376	800.000	0.080	-0.235
-619.361	8.919	0.341	-0.263
-618.346	800.000	0.059	0.215
-617.332	-53.996	0.326	-0.151
-616.317	344.999	-0.239	-0.479
-615.303	-62.500	-0.303	-0.128
-614.288	373.001	0.310	0.642
-613.273	20.835	-0.216	0.178
-612.259	800.000	-0.123	-0.502
-611.244	6.605	0.181	-0.137
-610.230	-76.738	-0.091	0.032
-609.215	800.000	-0.033	0.095
-608.201	-10.964	0.101	0.068
-607.186	6.464	0.148	0.112
-606.171	420.680	-0.091	-0.199
-605.157	-122.254	-0.216	-0.036
-604.142	-200.000	0.055	0.283
-603.128	455.462	-0.172	0.389
-602.113	96.662	0.085	-0.099
-601.098	85.792	0.214	-0.240
-600.084	11.774	0.182	0.143
-599.069	-40.585	-0.115	-0.061
-598.055	-151.912	-0.329	-0.025
-597.040	-200.000	-0.037	-0.189
-596.025	128.508	-0.250	-0.325
-595.011	800.000	-0.024	0.088
-593.996	800.000	0.091	0.359
-592.982	399.000	0.072	0.154
-591.967	41.365	-0.079	-0.072
-590.952	-200.000	-0.028	0.185
-589.938	-17.220	0.087	0.056
-588.923	-22.715	0.174	-0.107
-587.909	58.925	0.105	-0.105
-586.894	-82.037	-0.013	0.004
-585.879	-54.403	-0.024	-0.011
-584.865	-26.177	0.106	0.064
-583.850	-200.000	0.009	-0.051
-582.836	42.710	-0.162	0.150
-581.821	629.686	0.130	0.334
-580.806	-88.887	0.090	0.027
-579.792	59.900	-0.065	0.065
-578.777	-200.000	0.049	-0.271
-577.763	-64.343	-0.320	0.133
-576.748	800.000	0.057	0.168
-575.733	35.727	0.049	-0.044
-574.719	321.958	0.169	0.328
-573.704	-163.275	-0.096	-0.005
-572.690	403.825	0.089	0.192
-571.675	91.483	-0.260	0.297
-570.661	30.857	-0.128	0.111
-569.646	452.529	-0.093	0.208
-568.631	-64.789	0.246	0.101
-567.617	201.611	-0.254	0.399
-566.602	-17.631	-0.090	-0.058
-565.588	114.101	-0.218	-0.270
-564.573	-200.000	0.002	0.185
-563.558	-57.751	0.028	-0.013
-562.544	-139.541	0.324	-0.035
-561.529	-79.763	-0.034	0.012
-560.515	144.360	-0.105	-0.143
-559.500	33.022	-0.067	-0.059
-558.485	800.000	-0.105	0.310
-557.471	-200.000	0.017	0.098
-556.456	-34.252	0.288	-0.161
-555.442	-46.352	0.169	-0.085
-554.427	-48.955	0.385	0.187
-553.412	585.963	-0.096	-0.239
-552.398	679.108	0.113	-0.299
-551.383	-200.000	-0.046	-0.257
-550.369	-200.000	0.023	-0.177
-549.354	214.562	0.189	-0.305
-548.339	800.000	0.064	-0.238
-547.325	-96.068	-0.206	-0.056
-546.310	-80.435	-0.212	-0.072
-545.296	189.006	-0.122	-0.185
-544.281	-60.992	-0.079	-0.034
-543.266	81.828	-0.136	-0.150
-542.252	-82.919	-0.194	0.064
-541.237	-23.911	-0.261	-0.159
-540.223	124.259	0.052	0.066
-539.208	153.802	-0.270	-0.376
-538.193	6.361	0.080	-0.061
-537.179	-200.000	0.006	0.034
-536.164	-175.514	0.304	0.008
-535.150	143.593	0.325	0.440
-534.135	19.343	0.248	-0.202
-533.121	-45.987	-0.214	0.107
-532.106	10.278	-0.168	0.129
-531.091	414.849	0.100	-0.215
-530.077	-53.870	-0.154	0.072
-529.062	-107.769	-0.059	0.013
-528.048	-89.238	0.345	0.103
-527.033	-200.000	-0.011	0.074
-526.018	-140.121	0.118	-0.013
-525.004	-200.000	0.039	-0.281
-523.989	481.512	-0.084	0.193
-522.975	65.903	0.229	0.236
-521.960	16.747	-0.099	-0.079
-520.945	-200.000	-0.036	-0.200
-519.931	-29.006	-0.036	0.021
-518.916	-50.836	0.189	-0.090
-517.902	-61.336	-0.462	0.197
-516.887	-65.051	0.167	0.068
-515.872	-51.930	0.098	-0.046
-514.858	-200.000	-0.004	0.044
-513.843	-69.311	0.191	0.074
-512.829	27.478	0.161	0.138
-511.814	27.652	-0.147	0.126
-510.799	-105.733	0.457	0.105
-509.785	473.250	0.063	-0.145
-508.770	-41.552	-0.196	0.102
-507.756	-144.312	-0.215	-0.020
-506.741	-31.729	-0.083	-0.047
-505.726	-144.616	-0.232	0.022
-504.712	800.000	0.036	0.131
-503.697	571.739	-0.021	-0.051
-502.683	-10.498	0.065	0.044
-501.668	577.892	-0.080	-0.199
-500.653	13.691	-0.110	-0.087
-499.639	-51.738	-0.405	0.191
-498.624	-125.504	-0.201	0.031
-497.610	-200.000	-0.013	0.215
-496.595	220.963	0.088	-0.143
-495.581	-139.044	-0.296	-0.032
-494.566	800.000	-0.023	0.084
-493.551	-200.000	0.073	-0.471
-492.537	37.176	0.120	-0.107
-491.522	-18.439	-0.266	-0.169
-490.508	-200.000	-0.013	0.065
-489.493	-114.725	-0.345	0.067
-488.478	-124.454	0.136	-0.021
-487.464	800.000	0.030	-0.096
-486.449	-127.011	0.234	-0.035
-485.435	401.030	-0.168	-0.357
-484.420	5.946	-0.090	-0.067
-483.405	10.376	0.133	-0.102
-482.391	250.996	-0.121	0.209
-481.376	86.931	0.133	0.149
-480.362	-165.014	0.146	0.007
-479.347	-200.000	0.001	0.046
-478.332	59.588	0.148	-0.148
-477.318	-7.870	0.108	0.074
-476.303	-21.022	0.258	-0.160
-475.289	-32.375	-0.105	-0.059
-474.274	-200.000	0.020	0.110
-473.259	-0.324	0.127	0.092
-472.245	-146.767	0.268	-0.023
-471.230	463.070	-0.120	-0.270
-470.216	209.161	0.118	-0.187
-469.201	-200.000	-0.041	0.431
-468.186	800.000	0.021	0.069
-467.172	49.165	0.080	0.076
-466.157	109.176	0.123	-0.149
-465.143	199.725	0.219	0.340
-464.128	-79.908	-0.140	0.048
-463.113	43.017	0.224	0.207
-462.099	205.581	0.359	0.566
-461.084	128.030	-0.082	0.106
-460.070	-200.000	-0.025	-0.117
-459.055	460.708	-0.162	0.366
-458.040	-36.294	0.087	0.048
-457.026	32.388	-0.157	0.137
-456.011	-200.000	-0.075	0.416
-454.997	-23.413	-0.090	-0.055
-453.982	8.358	-0.240	-0.183
-452.968	-131.454	-0.067	-0.009
-451.953	-147.298	-0.120	0.010
-450.938	-6.782	0.199	-0.137
-449.924	-122.541	0.069	-0.011
-448.909	119.931	0.077	0.097
-447.895	362.924	-0.070	-0.143
-446.880	305.104	-0.044	0.082
-445.865	-23.382	-0.377	0.229
-444.851	-92.599	-0.072	0.021
-443.836	92.864	-0.143	0.163
-442.822	101.881	-0.111	0.131
-441.807	-154.822	0.238	0.016
-440.792	637.329	-0.060	-0.154
-439.778	-200.000	0.039	-0.371
-438.763	121.460	0.131	-0.165
-437.749	82.945	-0.125	0.138
-436.734	-65.523	-0.036	0.015
-435.719	-102.622	-0.068	-0.017
-434.705	138.403	-0.080	0.106
-433.690	97.839	0.183	0.212
-432.676	-200.000	-0.076	0.347
-431.661	-182.602	-0.164	-0.003
-430.646	800.000	0.049	0.151
-429.632	32.845	-0.068	0.059
-428.617	-161.654	-0.432	0.022
-427.603	93.836	0.148	0.170
-426.588	-200.000	0.025	0.238
-425.573	-91.239	0.097	0.028
-424.559	-71.352	0.189	0.072
-423.544	-7.533	0.068	0.046
-422.530	10.991	0.051	0.039
-421.515	-73.048	-0.217	-0.080
-420.500	800.000	-0.104	-0.327
-419.486	-79.759	0.102	0.035
-418.471	-200.000	0.049	0.238
-417.457	-106.429	0.168	0.038
-416.442	43.309	-0.075	0.069
-415.428	-135.413	-0.300	0.036
-414.413	45.635	0.192	-0.179
-413.398	-55.575	-0.037	-0.017
-412.384	-165.324	0.074	-0.003
-411.369	102.003	-0.033	0.039
-410.355	-73.120	-0.231	0.086
-409.340	-123.252	0.171	0.028
-408.325	-167.935	0.106	-0.004
-407.311	-120.221	-0.204	-0.035
-406.296	-200.000	-0.013	0.272
-405.282	150.438	0.128	0.176
-404.267	3.405	-0.174	-0.128
-403.252	800.000	0.024	0.080
-402.238	296.264	-0.100	0.185
-401.223	-69.921	-0.105	0.040
-400.209	-200.000	-0.015	-0.092
-399.194	94.540	-0.176	0.202
-398.179	800.000	-0.057	0.193
-397.165	-63.192	-0.383	0.160
-396.150	-30.400	0.119	-0.068
-395.136	-200.000	0.005	-0.040
-394.121	-52.087	0.182	-0.086
-393.106	-79.914	-0.258	0.088
-392.092	410.917	0.129	-0.275
-391.077	-132.534	-0.206	0.027
-390.063	-200.000	0.034	-0.262
-389.048	-51.684	0.254	-0.120
-388.033	800.000	-0.090	0.269
-387.019	-124.047	-0.192	-0.030
-386.004	-114.615	0.044	0.009
-384.990	-64.208	0.054	0.022
-383.975	99.628	0.121	0.142
-382.960	800.000	0.039	-0.131
-381.946	74.783	-0.088	0.093
-380.931	-200.000	0.005	-0.359
-379.917	-200.000	0.003	-0.045
-378.902	-127.136	-0.200	0.030
-377.888	148.637	0.128	0.174
-376.873	341.654	-0.012	0.023
-375.858	-4.514	-0.129	-0.090
-374.844	70.431	0.138	-0.144
-373.829	-56.893	0.079	-0.035
-372.815	-35.409	0.113	0.062
-371.800	181.097	0.041	-0.061
-370.785	-200.000	-0.005	0.150
-369.771	-127.297	-0.367	0.054
-368.756	800.000	0.063	-0.240
-367.742	142.042	-0.121	-0.162
-366.727	17.898	-0.159	-0.127
-365.712	28.250	-0.325	-0.277
-364.698	387.881	-0.159	0.332
-363.683	-200.000	-0.005	-0.100
-362.669	-172.540	0.007	0.000
-361.654	800.000	0.157	0.441
-360.639	800.000	0.039	-0.126
-359.625	-200.000	0.049	-0.236
-358.610	-200.000	-0.002	0.078
-357.596	129.088	-0.135	-0.174
-356.581	-103.485	0.098	0.023
-355.566	129.400	0.168	-0.217
-354.552	439.773	0.051	-0.112
-353.537	436.397	0.140	0.308
-352.523	30.551	0.104	-0.090
-351.508	62.163	0.160	-0.161
-350.493	16.076	-0.083	0.066
-349.479	-68.113	-0.033	-0.013
-348.464	-200.000	0.049	0.334
-347.450	-81.421	0.343	0.114
-346.435	-21.899	-0.138	-0.085
-345.420	-102.085	-0.239	0.058
-344.406	61.509	0.229	-0.230
-343.391	-4.949	-0.014	-0.010
-342.377	-200.000	0.051	-0.260
-341.362	52.974	-0.169	-0.163
-340.348	800.000	-0.040	-0.162
-339.333	-107.076	0.075	0.017
-338.318	-200.000	-0.296	-0.001
-337.304	219.167	0.129	-0.207
-336.289	800.000	-0.070	0.248
-335.275	382.082	0.140	-0.290
-334.260	193.804	-0.212	-0.324
-333.245	344.885	-0.092	0.183
-332.231	200.299	-0.130	0.202
-331.216	392.985	-0.044	0.092
-330.202	-149.698	0.176	-0.014
-329.187	-20.017	0.097	0.060
-328.172	43.903	-0.019	-0.018
-327.158	691.518	-0.107	-0.284
-326.143	34.169	0.147	0.129
-325.129	-22.971	-0.094	-0.057
-324.114	-103.120	0.246	0.059
-323.099	-22.510	0.236	0.144
-322.085	-130.827	-0.209	0.028
-321.070	-95.780	-0.269	-0.072
-320.056	206.139	-0.117	-0.184
-319.041	800.000	-0.050	-0.204
-318.026	-6.864	0.177	-0.121
-317.012	106.107	0.184	0.219
-315.997	-30.621	-0.183	0.104
-314.983	68.450	-0.126	-0.130
-313.968	-74.568	0.140	0.051
-312.953	188.554	0.067	0.101
-311.939	49.492	0.038	-0.036
-310.924	-200.000	0.011	0.276
-309.910	126.603	-0.062	-0.079
-308.895	113.704	0.142	0.174
-307.880	-60.456	0.259	-0.111
-306.866	-193.116	0.062	0.001
-305.851	-145.165	-0.228	0.021
-304.837	137.280	-0.127	-0.167
-303.822	167.717	-0.176	0.252
-302.807	-39.065	0.300	-0.159
-301.793	270.744	0.217	-0.385
-300.778	-105.723	0.165	-0.038
-299.764	46.710	-0.341	0.319
-298.749	-51.751	0.251	-0.118
-297.735	800.000	0.085	-0.327
-296.720	-140.855	-0.183	-0.019
-295.705	800.000	0.068	0.219
-294.691	800.000	0.053	-0.185
-293.676	-50.665	-0.112	0.053
-292.662	-200.000	-0.002	-0.079
-291.647	73.902	0.146	-0.154
-290.632	325.752	-0.143	-0.275
-289.618	50.854	0.099	0.094
-288.603	-180.971	-0.068	-0.001
-287.589	-200.000	-0.031	0.141
-286.574	388.006	-0.196	0.408
-285.559	800.000	-0.023	0.097
-284.545	-5.287	-0.053	-0.037
-283.530	161.548	-0.225	-0.317
-282.516	800.000	0.136	0.552
-281.501	-121.683	0.211	0.035
-280.486	-200.000	0.014	-0.166
-279.472	-200.000	-0.023	0.285
-278.457	-113.575	0.377	0.074
-277.443	101.089	-0.269	-0.315
-276.428	-65.835	0.172	0.069
-275.413	-120.252	0.144	-0.025
-274.399	-54.203	-0.091	0.042
-273.384	72.520	0.176	-0.184
-272.370	-99.483	0.239	-0.060
-271.355	-122.779	0.335	0.054
-270.340	5.657	-0.251	0.186
-269.326	79.795	-0.119	0.129
-268.311	-68.365	-0.081	-0.031
-267.297	215.577	0.138	0.221
-266.282	-34.679	-0.143	-0.078
-265.267	-81.885	0.286	0.094
-264.253	430.972	0.031	0.067
-263.238	248.561	-0.211	0.360
-262.224	-200.000	-0.057	0.308
-261.209	-88.022	-0.141	-0.043
-260.195	93.160	0.207	0.235
-259.180	-42.671	-0.193	0.099
-258.165	-26.873	-0.031	-0.018
-257.151	-169.490	-0.123	-0.005
-256.136	-121.478	0.121	0.020
-255.122	-200.000	0.000	0.020
-254.107	-133.383	-0.083	-0.011
-253.092	244.198	-0.080	0.134
-252.078	60.035	-0.224	0.223
-251.063	-62.293	-0.123	-0.051
-250.049	456.008	-0.061	-0.136
-249.034	436.693	-0.162	-0.355
-248.019	-80.677	-0.305	-0.102
-247.005	-149.635	0.377	-0.030
-245.990	-102.896	-0.257	0.061
-244.976	-76.218	-0.268	0.095
-243.961	-57.901	0.257	0.113
-242.946	-64.571	-0.337	-0.137
-241.932	1.132	-0.242	0.174
-240.917	-2.680	-0.119	-0.084
-239.903	-200.000	-0.052	-0.257
-238.888	-200.000	0.040	-0.324
-237.873	364.582	0.055	0.111
-236.859	448.026	0.024	0.053
-235.844	31.404	0.253	-0.218
-234.830	203.553	-0.122	-0.189
-233.815	-130.128	0.091	0.012
-232.800	-200.000	0.001	0.115
-231.786	428.793	0.051	0.111
-230.771	-133.524	-0.474	0.060
-229.757	270.627	-0.052	-0.091
-228.742	-200.000	0.042	0.193
-227.727	800.000	0.033	0.141
-226.713	722.732	0.094	-0.251
-225.698	-68.651	0.248	-0.096
-224.684	124.879	-0.121	-0.153
-223.669	94.801	-0.101	0.115
-222.655	800.000	0.055	0.172
-221.640	-58.474	-0.063	0.028
-220.625	-81.841	-0.101	0.033
-219.611	405.839	-0.082	0.173
-218.596	-103.497	0.290	-0.069
-217.582	132.829	0.106	-0.138
-216.567	-27.495	0.069	-0.040
-215.552	-59.231	0.121	0.052
-214.538	-188.396	0.076	-0.001
-213.523	620.669	-0.035	0.089
-212.509	-41.616	0.240	0.124
-211.494	0.373	-0.090	0.064
-210.479	800.000	0.038	-0.143
-209.465	-128.502	0.139	-0.020
-208.450	-200.000	0.020	0.170
-207.436	133.394	-0.119	-0.155
-206.421	-200.000	0.096	-0.490
-205.406	22.099	0.266	-0.218
-204.392	63.820	0.319	-0.321
-203.377	-200.000	0.030	-0.346
-202.363	-40.989	-0.156	-0.081
-201.348	-200.000	0.083	-0.460
-200.333	-200.000	-0.049	0.404
-199.319	122.913	-0.169	0.212
-198.304	98.374	0.199	0.230
-197.290	-27.548	-0.052	0.030
-196.275	-163.948	-0.113	0.005
-195.260	-50.878	0.219	-0.103
-194.246	-40.024	0.213	0.111
-193.231	-22.714	-0.168	-0.102
-192.217	103.764	-0.067	0.079
-191.202	-66.679	0.091	-0.036
-190.187	89.079	0.150	0.168
-189.173	-200.000	0.008	0.069
-188.158	-82.146	-0.096	0.031
-187.144	-4.179	-0.391	-0.271
-186.129	800.000	0.036	-0.107
-185.114	-123.999	0.093	-0.015
-184.100	-51.141	-0.305	-0.143
-183.085	800.000	-0.047	-0.164
-182.071	100.121	-0.096	-0.112
-181.056	11.782	-0.304	-0.234
-180.042	-200.000	0.278	-0.001
-179.027	248.828	-0.153	0.259
-178.012	-85.580	0.033	-0.010
-176.998	-43.435	-0.144	-0.073
-175.983	800.000	-0.062	0.201
-174.969	800.000	0.150	0.439
-173.954	146.306	0.200	0.269
-172.939	13.483	-0.061	-0.047
-171.925	-99.324	0.401	-0.101
-170.910	-100.470	0.404	-0.100
-169.896	-85.200	-0.319	0.100
-168.881	192.389	0.097	0.147
-167.866	800.000	0.068	-0.286
-166.852	261.196	-0.126	-0.218
-165.837	-140.930	0.128	0.013
-164.823	256.643	-0.194	-0.333
-163.808	-200.000	-0.077	-0.365
-162.793	800.000	-0.026	0.095
-161.779	-200.000	-0.024	-0.443
-160.764	104.093	0.150	-0.177
-159.750	-200.000	-0.020	-0.234
-158.735	-87.716	0.271	0.082
-157.720	-30.960	0.166	0.094
-156.706	189.913	-0.176	-0.264
-155.691	511.485	-0.062	-0.145
-154.677	35.405	-0.139	-0.122
-153.662	-74.918	0.334	-0.120
-152.647	-200.000	0.041	0.222
-151.633	42.078	-0.102	0.092
-150.618	229.130	-0.091	-0.149
-149.604	47.778	0.052	-0.049
-148.589	-142.778	-0.147	0.014
-147.574	-110.804	-0.211	-0.044
-146.560	26.264	0.352	-0.295
-145.545	269.761	0.064	0.112
-144.531	57.734	0.285	-0.279
-143.516	151.641	-0.128	0.175
-142.502	298.665	-0.112	0.206
-141.487	-7.414	0.156	-0.106
-140.472	-200.000	0.038	-0.320
-139.458	686.232	0.138	0.362
-138.443	-200.000	0.022	-0.384
-137.429	210.763	-0.068	0.107
-136.414	800.000	0.027	-0.075
-135.399	800.000	0.013	0.045
-134.385	137.133	0.291	0.380
-133.370	161.043	-0.155	-0.216
-132.356	-200.000	-0.013	0.132
-131.341	-200.000	0.030	0.144
-130.326	363.082	0.122	-0.246
-129.312	251.160	-0.058	-0.099
-128.297	-200.000	0.041	-0.271
-127.283	-200.000	-0.004	0.480
-126.268	416.676	-0.031	0.066
-125.253	167.058	0.033	-0.047
-124.239	8.769	-0.057	-0.043
-123.224	-19.032	-0.285	0.177
-122.210	31.124	0.177	0.151
-121.195	73.233	0.178	-0.186
-120.180	-200.000	-0.033	0.287
