DTS Sentinel unit serial number:	SN413079Multiplexer serial number:	ORYXHardware model number:	OX4-SRSoftware version number:	ORYX F/W v4.00 Oryx Data Collector v3.7.2.0data status	okinstallation	princeton_trtdifferential loss correction	single-endedforward channel	channel 3reverse channel	N/Adate	2019/09/11time	15:54:11forward acquisition time	60.00reverse acquisition time	0.00gamma	496.2192k internal	0.2289k external	0.2289temperature offset calibration	0.9988default loss term (dB/km)	0.3790temperature slope calibration	1.0000multiplexer offset coefficient	1.0000multiplexer slope coefficient	1.0000fibre end	0.00T internal ref (°C)	42.94T ext. ref 1 (°C)	1.01T ext. ref 2 (°C)	38.82length (m)	temperature (°C)	Stokes	anti-Stokes-747.200	368.323	0.067	0.138
-746.185	-200.000	0.007	0.316
-745.171	-200.000	-0.022	-0.159
-744.156	143.432	-0.220	0.300
-743.142	800.000	0.036	0.161
-742.127	131.028	-0.021	0.028
-741.112	-140.484	0.251	-0.027
-740.098	-200.000	-0.006	0.038
-739.083	800.000	0.090	0.268
-738.069	800.000	0.031	0.094
-737.054	-200.000	0.031	0.457
-736.039	-3.853	-0.298	0.212
-735.025	-38.187	-0.309	0.168
-734.010	-38.604	-0.090	-0.049
-732.996	41.692	-0.224	0.208
-731.981	65.404	-0.152	-0.158
-730.966	-200.000	0.009	0.218
-729.952	42.206	0.053	-0.050
-728.937	312.423	-0.016	-0.031
-727.923	-101.420	-0.219	-0.055
-726.908	-112.856	-0.130	0.026
-725.894	-178.273	-0.387	0.009
-724.879	-200.000	-0.053	-0.300
-723.864	312.350	-0.152	-0.292
-722.850	-40.405	-0.115	0.061
-721.835	74.667	-0.139	-0.150
-720.821	9.348	0.211	-0.163
-719.806	-41.242	-0.346	-0.183
-718.791	-92.293	-0.114	-0.033
-717.777	-200.000	-0.025	0.120
-716.762	-23.813	-0.331	-0.203
-715.748	800.000	0.015	-0.068
-714.733	132.103	0.155	0.204
-713.718	-200.000	0.056	-0.311
-712.704	-200.000	-0.014	0.245
-711.689	-23.689	-0.229	-0.140
-710.675	-158.861	0.169	0.010
-709.660	-200.000	0.027	-0.135
-708.645	-200.000	0.042	-0.314
-707.631	-167.852	-0.165	0.007
-706.616	17.423	0.224	-0.182
-705.602	-139.095	-0.234	0.026
-704.587	-200.000	-0.010	0.226
-703.572	-67.784	-0.431	-0.172
-702.558	-200.000	0.011	0.551
-701.543	474.674	0.089	0.206
-700.529	99.352	0.052	-0.062
-699.514	800.000	0.105	-0.360
-698.499	800.000	0.046	-0.173
-697.485	-69.729	-0.140	0.055
-696.470	276.447	0.011	-0.020
-695.456	-98.554	-0.204	0.053
-694.441	-112.459	-0.187	0.038
-693.426	103.581	0.082	0.098
-692.412	10.204	0.025	0.019
-691.397	-54.327	-0.465	-0.216
-690.383	-156.024	-0.299	0.019
-689.368	453.844	0.060	-0.135
-688.354	-31.725	0.122	-0.070
-687.339	-200.000	0.009	-0.324
-686.324	17.615	0.086	0.070
-685.310	-29.176	-0.070	-0.041
-684.295	-37.006	0.099	0.054
-683.281	-61.046	0.318	0.137
-682.266	-200.000	-0.075	-0.359
-681.251	-72.080	-0.094	-0.036
-680.237	236.399	-0.031	-0.052
-679.222	-77.598	-0.324	0.115
-678.208	-37.519	-0.213	0.116
-677.193	-19.357	0.044	0.028
-676.178	-4.397	-0.103	-0.073
-675.164	96.611	-0.050	-0.059
-674.149	23.084	-0.207	0.174
-673.135	31.493	0.330	0.290
-672.120	-200.000	-0.008	-0.110
-671.105	445.223	-0.036	0.081
-670.091	800.000	0.049	0.185
-669.076	164.124	0.170	-0.244
-668.062	-149.827	0.136	-0.011
-667.047	-117.446	-0.268	-0.050
-666.032	488.698	-0.091	0.213
-665.018	275.656	-0.230	-0.416
-664.003	294.390	-0.227	0.423
-662.989	133.823	-0.270	0.357
-661.974	-130.719	-0.171	-0.024
-660.959	5.672	-0.166	-0.125
-659.945	-200.000	-0.061	-0.375
-658.930	690.799	0.038	-0.102
-657.916	-25.232	-0.140	-0.085
-656.901	468.195	0.018	-0.042
-655.886	-69.046	-0.163	0.064
-654.872	800.000	-0.097	0.373
-653.857	-105.973	0.300	-0.069
-652.843	159.025	0.075	-0.106
-651.828	-106.034	-0.221	-0.051
-650.814	-103.112	0.230	-0.056
-649.799	-200.000	0.006	0.086
-648.784	-135.534	-0.255	-0.031
-647.770	-69.959	-0.189	-0.074
-646.755	-27.330	-0.070	0.041
-645.741	-139.725	0.218	-0.024
-644.726	-45.428	-0.165	0.084
-643.711	-200.000	-0.033	-0.406
-642.697	-200.000	-0.023	0.173
-641.682	-113.387	0.154	-0.031
-640.668	19.404	-0.264	-0.217
-639.653	77.320	0.063	0.069
-638.638	-200.000	0.021	-0.126
-637.624	-200.000	0.011	-0.113
-636.609	-9.520	0.218	0.149
-635.595	123.470	0.164	0.210
-634.580	458.439	-0.043	-0.098
-633.565	145.966	-0.138	0.189
-632.551	685.612	0.068	-0.182
-631.536	249.287	-0.125	0.216
-630.522	-200.000	0.038	0.198
-629.507	-200.000	-0.000	0.204
-628.492	54.531	-0.142	0.140
-627.478	800.000	0.096	-0.337
-626.463	110.883	-0.261	-0.321
-625.449	-200.000	0.001	0.054
-624.434	-200.000	0.015	-0.191
-623.419	-147.242	0.155	0.013
-622.405	-26.690	-0.117	0.070
-621.390	-29.316	0.135	0.079
-620.376	-66.077	-0.248	-0.101
-619.361	-200.000	-0.008	0.073
-618.346	-106.067	0.298	-0.068
-617.332	-144.108	0.288	-0.028
-616.317	-62.779	0.049	-0.020
-615.303	800.000	-0.114	-0.404
-614.288	25.897	-0.274	-0.233
-613.273	800.000	0.095	-0.376
-612.259	-200.000	0.014	-0.088
-611.244	-41.692	0.283	-0.148
-610.230	83.531	0.162	0.180
-609.215	800.000	-0.088	0.267
-608.201	-170.730	0.155	0.005
-607.186	-105.322	0.336	0.078
-606.171	98.544	-0.286	-0.336
-605.157	69.863	0.189	-0.199
-604.142	121.887	0.108	-0.137
-603.128	-56.881	0.171	-0.077
-602.113	133.413	-0.270	0.355
-601.098	206.811	0.147	-0.234
-600.084	138.825	-0.325	0.435
-599.069	-115.856	-0.303	0.058
-598.055	54.802	0.264	0.260
-597.040	-119.877	-0.345	0.061
-596.025	-48.824	0.164	-0.080
-595.011	90.325	0.110	0.125
-593.996	289.879	-0.178	-0.330
-592.982	800.000	-0.016	-0.065
-591.967	-90.641	-0.405	-0.119
-590.952	-200.000	0.013	0.230
-589.938	-180.089	0.304	-0.007
-588.923	141.698	-0.183	0.248
-587.909	-104.229	0.450	-0.106
-586.894	-74.963	0.062	0.022
-585.879	193.957	0.088	0.135
-584.865	-38.595	-0.078	0.042
-583.850	-79.948	0.323	-0.111
-582.836	-44.333	-0.282	0.144
-581.821	612.509	-0.109	-0.278
-580.806	-67.342	0.112	0.045
-579.792	-158.102	0.275	0.016
-578.777	-200.000	-0.012	0.174
-577.763	-22.011	-0.195	-0.121
-576.748	211.961	0.194	-0.312
-575.733	642.120	0.143	-0.371
-574.719	94.060	-0.250	0.289
-573.704	-200.000	-0.000	0.085
-572.690	-58.914	0.091	-0.040
-571.675	-200.000	-0.030	0.456
-570.661	-53.366	-0.100	0.046
-569.646	281.094	0.032	-0.058
-568.631	-32.550	-0.252	0.143
-567.617	433.634	-0.063	-0.139
-566.602	-7.136	-0.042	0.029
-565.588	-196.527	-0.481	-0.003
-564.573	-119.725	0.237	-0.042
-563.558	-56.390	0.254	-0.115
-562.544	800.000	-0.027	0.104
-561.529	-31.781	0.262	-0.150
-560.515	90.658	0.153	-0.175
-559.500	-107.365	0.206	0.046
-558.485	-161.621	0.118	0.006
-557.471	-99.312	0.521	0.134
-556.456	-35.518	-0.197	0.109
-555.442	-172.238	0.217	0.007
-554.427	310.936	0.119	0.228
-553.412	50.766	0.360	-0.347
-552.398	-200.000	-0.027	-0.205
-551.383	-127.977	-0.246	0.036
-550.369	-59.483	0.198	0.086
-549.354	-120.471	-0.161	-0.028
-548.339	15.124	-0.181	0.144
-547.325	-103.517	0.205	-0.049
-546.310	74.746	0.176	-0.188
-545.296	-200.000	0.022	-0.259
-544.281	800.000	0.028	0.088
-543.266	1.200	-0.251	0.183
-542.252	0.194	-0.183	-0.132
-541.237	185.717	-0.166	-0.250
-540.223	-102.000	-0.079	0.019
-539.208	-1.097	-0.179	0.129
-538.193	-200.000	0.037	-0.173
-537.179	-95.686	0.272	-0.074
-536.164	-25.392	0.220	-0.132
-535.150	-128.834	0.164	-0.023
-534.135	-200.000	0.041	0.207
-533.121	-8.604	-0.365	-0.249
-532.106	-25.140	0.137	-0.083
-531.091	221.959	0.153	-0.250
-530.077	-42.928	-0.320	0.165
-529.062	-174.512	-0.068	-0.002
-528.048	-89.721	-0.280	0.083
-527.033	-200.000	0.028	0.390
-526.018	-141.347	0.190	0.020
-525.004	-200.000	-0.026	-0.174
-523.989	800.000	0.051	-0.172
-522.975	-200.000	0.036	0.290
-521.960	176.444	0.177	0.261
-520.945	-131.869	0.082	0.011
-519.931	297.890	-0.062	0.115
-518.916	398.649	0.168	-0.357
-517.902	61.228	-0.217	-0.219
-516.887	74.729	-0.119	-0.128
-515.872	45.352	-0.232	-0.218
-514.858	-21.156	-0.144	-0.090
-513.843	-48.917	-0.022	-0.011
-512.829	-104.581	0.312	-0.073
-511.814	139.325	0.169	0.226
-510.799	-34.559	0.199	0.110
-509.785	-200.000	0.001	-0.170
-508.770	632.851	0.059	0.151
-507.756	163.326	-0.143	-0.204
-506.741	-200.000	0.043	-0.316
-505.726	-200.000	0.003	0.158
-504.712	-200.000	-0.031	0.355
-503.697	-79.155	-0.239	-0.082
-502.683	-71.204	-0.105	0.040
-501.668	-120.647	-0.105	0.018
-500.653	-156.728	-0.314	0.020
-499.639	-200.000	0.031	-0.151
-498.624	58.946	0.132	0.131
-497.610	-87.630	0.366	-0.112
-496.595	-131.381	-0.132	0.018
-495.581	263.004	-0.132	0.233
-494.566	-19.449	-0.104	-0.066
-493.551	-200.000	-0.041	-0.273
-492.537	698.052	-0.087	-0.231
-491.522	-109.029	-0.236	0.051
-490.508	236.558	-0.242	0.406
-489.493	-75.162	-0.279	0.101
-488.478	-93.346	-0.151	0.043
-487.464	-171.156	-0.301	-0.010
-486.449	-200.000	-0.021	0.092
-485.435	47.310	-0.120	-0.113
-484.420	-3.045	0.301	-0.213
-483.405	-115.087	0.320	0.062
-482.391	43.096	0.121	0.112
-481.376	-56.951	-0.233	0.104
-480.362	-0.267	-0.185	-0.133
-479.347	-187.860	-0.118	0.002
-478.332	-143.097	0.218	0.021
-477.318	15.372	0.157	-0.125
-476.303	-117.490	-0.337	0.062
-475.289	-125.918	0.488	0.075
-474.274	800.000	0.070	0.272
-473.259	499.229	-0.169	0.394
-472.245	-130.824	-0.231	-0.031
-471.230	-30.440	0.077	-0.044
-470.216	87.972	0.233	0.262
-469.201	309.966	-0.145	-0.275
-468.186	312.567	0.155	-0.296
-467.172	-101.850	0.038	-0.009
-466.157	-70.473	0.233	0.090
-465.143	-106.642	0.340	-0.077
-464.128	-14.131	-0.087	0.057
-463.113	147.348	-0.067	0.091
-462.099	-125.278	-0.325	0.050
-461.084	-151.037	0.355	-0.027
-460.070	190.313	0.161	0.245
-459.055	-124.630	-0.157	0.025
-458.040	116.556	0.220	-0.274
-457.026	-57.656	-0.217	0.096
-456.011	155.939	-0.076	-0.106
-454.997	218.228	0.036	0.058
-453.982	-90.990	0.142	0.041
-452.968	67.550	0.053	0.055
-451.953	88.426	-0.125	0.141
-450.938	-200.000	0.044	-0.219
-449.924	-54.608	-0.054	-0.025
-448.909	250.870	-0.078	-0.135
-447.895	9.398	0.208	-0.159
-446.880	-41.879	0.138	-0.072
-445.865	207.119	-0.197	-0.311
-444.851	-106.738	-0.257	-0.058
-443.836	-200.000	0.048	-0.340
-442.822	57.070	-0.198	-0.195
-441.807	-4.248	-0.211	0.148
-440.792	-88.392	-0.148	-0.045
-439.778	-130.782	0.062	0.008
-438.763	133.827	-0.056	0.074
-437.749	-200.000	0.060	0.319
-436.734	35.310	0.074	-0.065
-435.719	22.454	-0.253	0.210
-434.705	483.855	0.131	0.301
-433.690	800.000	-0.039	0.136
-432.676	-54.176	-0.192	0.088
-431.661	29.536	-0.142	-0.123
-430.646	-63.663	0.067	-0.028
-429.632	800.000	0.067	-0.205
-428.617	800.000	-0.050	0.197
-427.603	-62.560	0.183	-0.077
-426.588	-53.880	-0.177	0.082
-425.573	107.110	0.091	-0.109
-424.559	-53.191	-0.214	-0.099
-423.544	-200.000	0.004	-0.235
-422.530	46.766	0.192	-0.181
-421.515	252.434	-0.021	0.036
-420.500	134.791	0.167	0.219
-419.486	41.267	-0.151	-0.138
-418.471	7.821	0.283	0.215
-417.457	800.000	-0.060	0.190
-416.442	-136.132	-0.333	-0.040
-415.428	-200.000	-0.032	0.215
-414.413	800.000	0.068	0.241
-413.398	-200.000	0.014	0.125
-412.384	-97.849	-0.279	0.073
-411.369	0.344	-0.139	0.101
-410.355	-123.923	0.092	-0.015
-409.340	-103.851	-0.196	0.046
-408.325	-56.313	0.220	0.099
-407.311	42.479	-0.076	0.070
-406.296	-9.465	0.127	0.085
-405.282	-69.213	-0.112	0.043
-404.267	51.700	0.025	-0.024
-403.252	-1.046	-0.241	0.173
-402.238	-20.594	0.107	-0.067
-401.223	349.220	-0.006	-0.013
-400.209	130.854	-0.110	-0.143
-399.194	-109.387	0.011	-0.002
-398.179	800.000	-0.032	-0.135
-397.165	-128.780	-0.102	-0.015
-396.150	-200.000	-0.007	-0.266
-395.136	-110.776	-0.051	-0.011
-394.121	-97.930	0.167	-0.044
-393.106	-143.605	-0.169	-0.016
-392.092	-184.307	-0.120	0.002
-391.077	-42.519	0.114	-0.059
-390.063	800.000	-0.088	0.355
-389.048	-138.409	-0.092	-0.010
-388.033	474.404	-0.055	-0.126
-387.019	-24.265	-0.351	0.212
-386.004	132.293	0.031	-0.041
-384.990	800.000	-0.080	0.303
-383.975	331.909	-0.096	0.188
-382.960	-52.946	-0.175	0.081
-381.946	-107.138	0.143	-0.032
-380.931	-78.877	-0.351	0.121
-379.917	-200.000	-0.014	-0.427
-378.902	-32.575	-0.093	-0.052
-377.888	-109.178	-0.342	-0.073
-376.873	64.910	-0.059	0.061
-375.858	34.379	0.216	-0.191
-374.844	-200.000	-0.005	-0.176
-373.829	800.000	0.012	0.041
-372.815	-65.869	0.125	-0.050
-371.800	36.924	-0.192	0.172
-370.785	376.669	0.086	0.177
-369.771	-70.159	0.311	0.119
-368.756	74.736	-0.027	-0.029
-367.742	103.662	0.079	-0.093
-366.727	524.326	0.049	0.116
-365.712	-200.000	0.029	0.342
-364.698	-134.899	0.381	0.047
-363.683	80.452	-0.213	0.231
-362.669	-137.471	-0.557	0.064
-361.654	-97.524	-0.274	0.072
-360.639	-28.253	-0.123	0.072
-359.625	16.822	-0.244	-0.195
-358.610	-154.362	-0.317	-0.022
-357.596	-112.837	-0.089	-0.018
-356.581	-2.240	-0.109	0.077
-355.566	-112.799	-0.122	0.025
-354.552	-200.000	0.015	0.080
-353.537	59.733	0.288	0.287
-352.523	27.335	0.131	0.111
-351.508	16.770	0.225	-0.180
-350.493	800.000	0.027	0.080
-349.479	-97.799	0.505	0.132
-348.464	-200.000	0.022	-0.170
-347.450	65.532	-0.052	-0.053
-346.435	330.056	0.101	-0.196
-345.420	-88.484	-0.132	0.040
-344.406	-14.367	0.131	-0.085
-343.391	-178.901	0.055	0.001
-342.377	-171.348	-0.370	-0.012
-341.362	181.963	-0.052	-0.077
-340.348	14.918	-0.063	0.049
-339.333	-200.000	0.011	-0.186
-338.318	800.000	-0.080	-0.257
-337.304	138.592	0.047	-0.063
-336.289	62.969	0.354	0.357
-335.275	-42.114	0.042	0.021
-334.260	800.000	0.039	0.155
-333.245	800.000	0.071	-0.257
-332.231	800.000	-0.087	0.374
-331.216	-29.833	0.388	0.223
-330.202	-7.860	0.163	-0.111
-329.187	-8.150	-0.440	0.299
-328.172	126.227	0.053	-0.068
-327.158	326.114	-0.086	0.166
-326.143	-44.510	-0.118	-0.059
-325.129	-200.000	0.044	0.277
-324.114	-147.784	0.248	-0.021
-323.099	-186.048	-0.085	0.001
-322.085	800.000	0.034	-0.106
-321.070	161.283	-0.033	0.046
-320.056	285.943	0.112	0.203
-319.041	77.776	-0.105	-0.113
-318.026	196.205	-0.106	-0.163
-317.012	-200.000	-0.052	0.335
-315.997	-119.361	0.084	0.015
-314.983	-96.619	-0.304	-0.081
-313.968	159.403	0.157	0.220
-312.953	355.228	0.076	0.153
-311.939	36.598	0.228	0.203
-310.924	-200.000	-0.011	-0.435
-309.910	118.525	0.074	0.093
-308.895	78.854	-0.278	-0.299
-307.880	74.234	0.103	0.109
-306.866	-78.017	0.152	0.053
-305.851	-119.477	-0.096	0.017
-304.837	107.612	0.100	0.120
-303.822	-111.182	-0.132	-0.027
-302.807	14.619	0.199	0.157
-301.793	-200.000	-0.438	-0.002
-300.778	746.405	-0.048	0.130
-299.764	14.409	0.140	0.110
-298.749	-114.187	0.036	0.007
-297.735	-139.769	0.314	-0.034
-296.720	800.000	-0.050	-0.142
-295.705	-172.166	-0.292	0.009
-294.691	-147.601	0.032	0.003
-293.676	265.586	0.090	0.158
-292.662	-122.440	-0.227	-0.037
-291.647	-60.340	-0.156	-0.067
-290.632	-144.844	0.092	0.009
-289.618	-153.130	0.049	-0.003
-288.603	231.670	-0.120	-0.197
-287.589	-200.000	0.012	-0.339
-286.574	-69.012	-0.246	-0.096
-285.559	-123.230	0.061	0.010
-284.545	-200.000	-0.035	0.165
-283.530	6.191	-0.181	-0.135
-282.516	-158.290	0.107	-0.006
-281.501	52.603	-0.165	0.159
-280.486	727.244	0.119	-0.319
-279.472	160.625	-0.250	0.351
-278.457	800.000	-0.073	0.217
-277.443	395.083	-0.129	-0.271
-276.428	76.226	-0.110	-0.117
-275.413	65.087	-0.076	-0.077
-274.399	446.441	-0.057	-0.126
-273.384	-71.063	-0.190	0.072
-272.370	228.638	0.092	0.151
-271.355	479.572	0.118	-0.269
-270.340	510.829	0.112	-0.263
-269.326	-107.549	0.033	0.007
-268.311	-200.000	-0.068	0.311
-267.297	-32.115	-0.205	-0.115
-266.282	-200.000	0.041	-0.299
-265.267	26.946	0.132	-0.111
-264.253	-200.000	0.027	-0.175
-263.238	70.201	0.086	0.089
-262.224	800.000	0.121	0.460
-261.209	260.201	0.078	0.136
-260.195	-82.954	-0.179	0.058
-259.180	-21.363	0.116	0.071
-258.165	-171.570	0.078	-0.003
-257.151	312.463	0.138	0.260
-256.136	-96.169	0.285	0.076
-255.122	-200.000	-0.001	0.213
-254.107	-78.777	0.028	-0.010
-253.092	65.377	0.077	-0.079
-252.078	83.986	0.225	0.247
-251.063	-200.000	-0.033	-0.191
-250.049	-125.768	-0.071	0.011
-249.034	3.202	0.055	-0.040
-248.019	484.909	-0.236	-0.540
-247.005	685.313	-0.098	-0.258
-245.990	562.686	-0.015	0.037
-244.976	-18.988	0.305	-0.191
-243.961	282.672	0.078	0.141
-242.946	131.643	0.129	0.167
-241.932	-48.594	0.384	0.185
-240.917	800.000	0.031	0.112
-239.903	-200.000	-0.016	-0.203
-238.888	-200.000	-0.017	-0.134
-237.873	-77.899	0.267	0.093
-236.859	20.532	0.192	-0.156
-235.844	-52.901	-0.212	0.098
-234.830	175.221	-0.123	-0.179
-233.815	-200.000	0.022	-0.392
-232.800	140.894	0.190	0.252
-231.786	-64.260	-0.034	-0.014
-230.771	-168.784	0.175	0.007
-229.757	93.680	-0.160	-0.182
-228.742	-200.000	0.027	-0.283
-227.727	800.000	-0.065	0.275
-226.713	244.259	0.156	-0.264
-225.698	-109.073	0.127	0.027
-224.684	13.733	0.210	-0.164
-223.669	108.189	-0.161	-0.193
-222.655	-200.000	-0.006	0.222
-221.640	-200.000	-0.050	0.255
-220.625	96.144	-0.138	0.159
-219.611	117.899	0.009	0.011
-218.596	-200.000	0.017	0.232
-217.582	-200.000	0.044	0.270
-216.567	31.396	-0.036	0.031
-215.552	10.715	-0.140	-0.107
-214.538	87.804	-0.067	0.075
-213.523	337.257	-0.089	0.174
-212.509	-54.156	0.352	-0.161
-211.494	397.615	0.103	-0.215
-210.479	-40.242	0.166	-0.087
-209.465	183.132	0.151	-0.224
-208.450	-9.131	0.257	0.173
-207.436	122.394	-0.168	-0.210
-206.421	205.427	0.042	-0.066
-205.406	800.000	-0.046	-0.144
-204.392	-200.000	-0.032	-0.296
-203.377	325.902	-0.109	0.209
-202.363	0.907	0.069	0.050
-201.348	800.000	-0.088	-0.316
-200.333	-28.217	-0.148	-0.086
-199.319	-200.000	-0.017	-0.146
-198.304	-18.241	0.186	0.117
-197.290	-200.000	-0.068	-0.461
-196.275	800.000	0.075	0.270
-195.260	-200.000	-0.001	0.005
-194.246	411.680	0.076	0.161
-193.231	103.593	0.127	0.150
-192.217	-200.000	-0.019	0.110
-191.202	-88.504	0.152	0.046
-190.187	-200.000	0.029	-0.266
-189.173	165.356	0.069	0.098
-188.158	374.357	-0.118	0.240
-187.144	131.432	0.122	0.157
-186.129	173.423	0.171	0.247
-185.114	-162.831	-0.268	-0.013
-184.100	184.293	-0.288	-0.428
-183.085	-114.771	-0.057	-0.011
-182.071	-116.597	0.284	0.052
-181.056	-77.478	0.141	-0.049
-180.042	299.165	0.103	-0.191
-179.027	-12.175	-0.231	0.152
-178.012	-43.974	-0.129	-0.065
-176.998	32.579	0.275	-0.238
-175.983	-153.403	0.102	0.007
-174.969	-65.192	-0.191	-0.077
-173.954	436.582	-0.071	-0.156
-172.939	-14.163	-0.165	-0.106
-171.925	146.764	-0.158	-0.213
-170.910	-200.000	-0.000	0.247
-169.896	-157.766	-0.288	0.017
-168.881	-107.254	0.116	0.026
-167.866	-60.379	0.167	-0.071
-166.852	79.565	0.068	-0.073
-165.837	800.000	0.050	0.157
-164.823	-146.855	0.418	-0.036
-163.808	-200.000	0.016	0.099
-162.793	-200.000	0.017	-0.114
-161.779	-187.410	0.162	0.002
-160.764	-200.000	-0.004	0.282
-159.750	-200.000	0.014	0.283
-158.735	760.141	-0.056	0.153
-157.720	-30.929	0.278	0.158
-156.706	-137.991	0.200	-0.022
-155.691	6.632	0.251	-0.187
-154.677	-100.365	-0.110	-0.027
-153.662	-125.396	-0.260	0.040
-152.647	-2.464	0.115	-0.081
-151.633	194.285	0.140	0.212
-150.618	-83.593	0.264	-0.085
-149.604	3.201	0.232	-0.169
-148.589	-95.934	-0.078	-0.021
-147.574	21.481	-0.324	-0.264
-146.560	800.000	-0.034	0.132
-145.545	800.000	0.060	-0.180
-144.531	-172.856	0.255	0.008
-143.516	-66.617	0.185	-0.073
-142.502	-45.373	0.065	-0.032
-141.487	94.410	0.111	-0.127
-140.472	121.851	-0.087	-0.108
-139.458	-170.570	-0.317	-0.011
-138.443	427.771	0.062	-0.135
-137.429	88.390	0.081	-0.090
-136.414	543.771	0.206	-0.491
-135.399	492.292	0.125	0.288
-134.385	425.100	0.152	-0.328
-133.370	20.706	0.123	-0.099
-132.356	59.390	0.185	-0.183
-131.341	-169.410	0.211	-0.008
-130.326	-82.848	0.183	0.059
-129.312	-95.860	0.337	-0.090
-128.297	-98.273	-0.137	0.035
-127.283	736.066	-0.086	-0.230
-126.268	48.143	-0.063	0.059
-125.253	94.013	-0.243	-0.276
-124.239	13.841	0.149	-0.116
-123.224	17.579	-0.227	0.181
-122.210	-73.827	0.339	0.123
-121.195	-112.739	-0.259	0.052
