DTS Sentinel unit serial number:	SN413079Multiplexer serial number:	ORYXHardware model number:	OX4-SRSoftware version number:	ORYX F/W v4.00 Oryx Data Collector v3.7.2.0data status	okinstallation	princeton_trtdifferential loss correction	single-endedforward channel	channel 3reverse channel	N/Adate	2019/09/11time	22:58:10forward acquisition time	60.00reverse acquisition time	0.00gamma	496.2192k internal	0.2316k external	0.2316temperature offset calibration	1.0045default loss term (dB/km)	0.3790temperature slope calibration	1.0000multiplexer offset coefficient	1.0000multiplexer slope coefficient	1.0000fibre end	0.00T internal ref (°C)	34.62T ext. ref 1 (°C)	1.79T ext. ref 2 (°C)	29.27length (m)	temperature (°C)	Stokes	anti-Stokes-747.200	-110.410	0.203	0.043
-746.185	-84.866	-0.044	0.014
-745.171	-71.005	0.137	-0.052
-744.156	-200.000	0.027	0.227
-743.142	-27.093	0.052	-0.031
-742.127	20.474	-0.192	0.157
-741.112	-68.542	0.105	0.041
-740.098	-86.151	-0.212	0.066
-739.083	163.326	-0.139	0.198
-738.069	231.750	0.134	-0.222
-737.054	348.821	0.031	0.062
-736.039	-124.268	0.142	0.022
-735.025	3.895	0.185	-0.137
-734.010	-200.000	0.089	-0.419
-732.996	800.000	-0.033	-0.138
-731.981	102.858	-0.153	-0.182
-730.966	-200.000	0.022	-0.160
-729.952	-78.106	0.122	0.043
-728.937	85.237	0.056	-0.062
-727.923	-86.727	0.094	0.029
-726.908	800.000	-0.021	0.059
-725.894	800.000	-0.025	-0.070
-724.879	-130.625	0.060	-0.008
-723.864	16.239	-0.149	-0.119
-722.850	654.680	-0.025	0.065
-721.835	56.841	0.063	0.063
-720.821	-144.979	-0.208	0.019
-719.806	-163.538	0.345	0.017
-718.791	725.223	-0.119	0.322
-717.777	103.108	0.009	-0.011
-716.762	-200.000	-0.043	-0.202
-715.748	-200.000	0.029	-0.266
-714.733	565.901	-0.026	-0.064
-713.718	-200.000	0.032	0.320
-712.704	110.797	-0.294	-0.359
-711.689	-200.000	0.032	-0.367
-710.675	367.854	0.032	-0.066
-709.660	-33.955	0.272	0.152
-708.645	-98.430	-0.443	-0.115
-707.631	84.403	0.304	0.336
-706.616	-152.048	-0.291	-0.021
-705.602	344.051	0.137	-0.271
-704.587	-200.000	-0.015	0.287
-703.572	15.556	0.160	-0.127
-702.558	-200.000	-0.036	-0.358
-701.543	-113.594	0.216	-0.043
-700.529	-16.138	0.032	0.020
-699.514	-64.741	-0.336	-0.138
-698.499	88.443	-0.144	-0.162
-697.485	237.425	0.098	0.164
-696.470	-87.025	0.074	0.023
-695.456	-200.000	0.038	0.338
-694.441	-31.410	-0.188	-0.107
-693.426	-31.323	-0.332	0.189
-692.412	511.045	0.120	0.282
-691.397	-21.763	0.051	-0.032
-690.383	0.120	-0.265	-0.191
-689.368	-45.893	-0.192	-0.096
-688.354	800.000	-0.057	0.222
-687.339	-200.000	0.028	-0.219
-686.324	42.497	-0.074	-0.068
-685.310	-35.831	-0.344	-0.188
-684.295	-60.980	0.105	-0.045
-683.281	84.210	0.264	0.291
-682.266	-83.276	-0.057	-0.019
-681.251	-62.080	-0.199	-0.084
-680.237	800.000	-0.123	0.385
-679.222	-141.137	-0.268	-0.028
-678.208	-140.664	-0.161	-0.017
-677.193	302.701	-0.102	0.190
-676.178	-200.000	0.044	0.286
-675.164	298.118	-0.054	0.100
-674.149	-200.000	0.001	-0.205
-673.135	704.188	-0.119	-0.316
-672.120	-44.662	-0.221	0.112
-671.105	32.153	0.147	-0.128
-670.091	-200.000	-0.062	-0.502
-669.076	683.646	0.151	-0.397
-668.062	-62.322	-0.155	-0.065
-667.047	45.501	0.097	0.090
-666.032	159.103	-0.056	0.079
-665.018	112.909	-0.165	0.201
-664.003	-200.000	-0.004	0.062
-662.989	-200.000	-0.022	-0.264
-661.974	125.338	-0.117	-0.149
-660.959	-23.976	0.342	-0.207
-659.945	-200.000	-0.002	0.128
-658.930	800.000	0.018	-0.075
-657.916	-86.908	-0.126	-0.039
-656.901	-33.632	-0.138	-0.077
-655.886	146.206	-0.047	0.063
-654.872	-200.000	-0.009	-0.353
-653.857	378.254	0.097	-0.200
-652.843	800.000	-0.075	0.279
-651.828	759.257	-0.022	0.061
-650.814	-200.000	0.022	0.126
-649.799	10.658	0.165	0.127
-648.784	45.608	-0.058	0.055
-647.770	-61.422	0.216	-0.092
-646.755	217.417	0.076	0.122
-645.741	51.581	-0.030	-0.028
-644.726	-159.327	-0.327	0.018
-643.711	-34.553	-0.290	0.160
-642.697	18.147	0.599	0.482
-641.682	-43.396	0.255	-0.130
-640.668	26.193	0.058	-0.049
-639.653	800.000	0.054	-0.220
-638.638	-33.952	0.028	0.015
-637.624	117.913	-0.176	-0.219
-636.609	432.840	0.100	-0.220
-635.595	-62.251	0.380	0.160
-634.580	17.178	-0.259	0.208
-633.565	-110.049	0.353	-0.074
-632.551	469.193	-0.105	0.237
-631.536	58.037	0.047	0.047
-630.522	-200.000	0.053	0.413
-629.507	-88.071	-0.211	0.064
-628.492	660.883	0.074	0.191
-627.478	-200.000	0.014	-0.096
-626.463	-200.000	-0.062	-0.308
-625.449	-93.628	-0.192	0.053
-624.434	509.134	-0.156	-0.366
-623.419	-30.081	-0.101	0.058
-622.405	-96.907	0.063	-0.017
-621.390	-130.933	0.271	-0.037
-620.376	-98.452	-0.131	0.034
-619.361	-105.875	-0.221	-0.050
-618.346	296.168	-0.133	0.246
-617.332	-200.000	0.029	-0.187
-616.317	-97.183	-0.218	-0.057
-615.303	-64.241	0.205	0.084
-614.288	-200.000	-0.001	0.058
-613.273	57.030	-0.120	-0.118
-612.259	-200.000	-0.016	-0.327
-611.244	-10.414	0.161	-0.107
-610.230	-200.000	0.006	-0.302
-609.215	57.935	-0.088	0.087
-608.201	-95.739	0.262	-0.071
-607.186	-200.000	0.022	-0.107
-606.171	-200.000	0.005	0.089
-605.157	112.518	0.052	0.064
-604.142	129.738	0.051	-0.066
-603.128	154.078	-0.205	0.283
-602.113	-19.501	-0.195	0.122
-601.098	214.488	0.181	0.289
-600.084	-200.000	-0.032	-0.189
-599.069	-130.284	0.033	-0.005
-598.055	-71.233	-0.250	-0.094
-597.040	-37.777	0.184	0.099
-596.025	-60.885	0.055	0.023
-595.011	-104.314	0.235	0.055
-593.996	-21.567	0.267	-0.164
-592.982	-200.000	0.033	0.362
-591.967	-200.000	0.022	0.430
-590.952	-200.000	-0.029	0.155
-589.938	-44.359	0.113	0.057
-588.923	30.475	0.200	0.172
-587.909	-119.309	0.161	-0.028
-586.894	40.468	0.240	-0.218
-585.879	-176.196	-0.131	-0.003
-584.865	-97.763	-0.238	0.062
-583.850	540.624	-0.100	0.240
-582.836	800.000	0.023	-0.069
-581.821	209.306	0.166	0.261
-580.806	-171.302	-0.270	-0.009
-579.792	204.488	0.105	-0.163
-578.777	-167.685	0.117	0.005
-577.763	-36.130	0.119	0.064
-576.748	-21.406	0.267	-0.164
-575.733	-64.592	-0.157	0.064
-574.719	-25.610	0.063	0.037
-573.704	718.277	-0.048	-0.129
-572.690	252.534	0.106	-0.182
-571.675	-2.218	0.183	0.129
-570.661	49.503	-0.194	0.184
-569.646	-32.486	0.330	-0.185
-568.631	-65.861	0.133	0.054
-567.617	-117.756	0.233	-0.042
-566.602	138.816	-0.055	-0.073
-565.588	74.979	-0.097	-0.103
-564.573	-110.170	-0.284	-0.060
-563.558	246.767	-0.080	-0.136
-562.544	-189.355	-0.145	0.002
-561.529	-31.520	-0.159	0.090
-560.515	-78.466	0.354	0.122
-559.500	-172.831	0.172	-0.005
-558.485	800.000	0.009	-0.030
-557.471	-200.000	-0.093	0.502
-556.456	800.000	0.099	-0.294
-555.442	800.000	-0.071	0.209
-554.427	-58.956	0.218	0.095
-553.412	-200.000	-0.076	0.442
-552.398	131.126	-0.073	0.095
-551.383	114.141	-0.129	-0.158
-550.369	115.133	0.071	0.087
-549.354	-200.000	0.007	-0.132
-548.339	-58.928	-0.421	-0.183
-547.325	-137.707	0.319	0.036
-546.310	-8.976	-0.252	0.170
-545.296	523.861	0.145	0.344
-544.281	672.936	-0.063	0.163
-543.266	-49.288	0.268	0.129
-542.252	-56.631	-0.324	0.144
-541.237	235.835	0.077	-0.128
-540.223	318.873	-0.063	-0.120
-539.208	-79.460	0.371	-0.126
-538.193	367.997	0.099	-0.201
-537.179	15.957	-0.079	0.062
-536.164	-200.000	0.047	-0.216
-535.150	16.635	0.166	-0.132
-534.135	80.904	0.050	0.054
-533.121	494.441	0.035	0.080
-532.106	-28.866	-0.143	0.083
-531.091	-127.900	-0.306	0.044
-530.077	-120.657	-0.209	-0.036
-529.062	-200.000	-0.012	-0.070
-528.048	-47.058	0.363	-0.178
-527.033	-141.053	0.261	0.027
-526.018	-116.990	0.165	0.030
-525.004	-200.000	-0.027	-0.228
-523.989	-34.175	0.097	-0.053
-522.975	-39.821	-0.190	-0.100
-521.960	-18.359	0.297	0.186
-520.945	-200.000	0.005	-0.073
-519.931	10.397	0.167	0.128
-518.916	-32.171	-0.260	0.146
-517.902	-200.000	0.020	0.143
-516.887	-147.905	0.044	0.004
-515.872	382.968	-0.217	0.448
-514.858	-103.839	-0.148	-0.035
-513.843	359.932	-0.154	-0.309
-512.829	129.826	-0.041	0.053
-511.814	352.805	-0.077	-0.153
-510.799	800.000	-0.017	-0.061
-509.785	-75.520	0.293	0.105
-508.770	283.750	0.072	-0.130
-507.756	81.319	0.033	-0.036
-506.741	-200.000	-0.052	-0.240
-505.726	-200.000	-0.008	0.135
-504.712	-200.000	0.005	0.135
-503.697	4.997	-0.218	-0.161
-502.683	800.000	-0.031	0.098
-501.668	167.960	0.082	0.117
-500.653	96.531	0.207	0.238
-499.639	-164.103	0.203	0.009
-498.624	-144.388	-0.319	-0.030
-497.610	800.000	-0.024	0.080
-496.595	800.000	-0.071	0.235
-495.581	-61.831	0.053	0.022
-494.566	-200.000	0.018	0.128
-493.551	44.953	0.241	0.223
-492.537	800.000	0.024	0.090
-491.522	-104.871	0.372	0.086
-490.508	-67.647	0.208	-0.082
-489.493	26.569	-0.092	0.077
-488.478	-113.006	0.211	0.042
-487.464	-200.000	-0.013	0.225
-486.449	-200.000	-0.042	-0.274
-485.435	-55.268	0.025	-0.011
-484.420	-111.576	-0.150	0.031
-483.405	432.504	0.077	-0.167
-482.391	-168.808	0.132	0.005
-481.376	165.146	-0.125	-0.177
-480.362	17.169	-0.117	-0.093
-479.347	69.495	0.129	0.133
-478.332	-90.794	-0.162	-0.047
-477.318	-200.000	-0.040	-0.361
-476.303	-30.952	0.198	0.112
-475.289	168.152	-0.156	-0.223
-474.274	-98.542	-0.105	0.027
-473.259	-49.847	0.149	0.071
-472.245	-200.000	-0.036	-0.370
-471.230	-53.892	-0.118	-0.054
-470.216	198.464	0.026	-0.039
-469.201	56.349	-0.098	-0.095
-468.186	-200.000	0.054	0.444
-467.172	92.457	0.124	-0.140
-466.157	800.000	-0.039	-0.123
-465.143	17.869	-0.130	0.104
-464.128	-124.042	-0.273	0.043
-463.113	-200.000	-0.028	0.237
-462.099	-54.691	-0.343	0.156
-461.084	182.030	0.041	0.060
-460.070	-53.003	-0.141	-0.065
-459.055	-200.000	0.000	-0.201
-458.040	-200.000	-0.221	-0.001
-457.026	83.491	0.144	0.157
-456.011	-98.619	-0.199	0.051
-454.997	-58.878	-0.322	-0.140
-453.982	64.561	-0.046	-0.046
-452.968	148.971	0.231	-0.313
-451.953	-93.221	-0.076	-0.021
-450.938	-82.584	0.200	-0.065
-449.924	800.000	-0.119	0.416
-448.909	-123.620	-0.420	0.067
-447.895	800.000	-0.081	-0.293
-446.880	-2.211	0.181	-0.127
-445.865	-200.000	0.016	-0.141
-444.851	418.501	-0.027	-0.057
-443.836	-21.505	0.232	-0.142
-442.822	-200.000	0.048	0.214
-441.807	-68.270	-0.345	0.134
-440.792	48.923	0.042	0.039
-439.778	123.326	-0.129	-0.162
-438.763	800.000	-0.108	0.302
-437.749	375.786	-0.096	0.196
-436.734	181.059	-0.224	0.329
-435.719	-200.000	0.006	0.067
-434.705	800.000	-0.088	-0.264
-433.690	-200.000	0.059	-0.271
-432.676	507.116	0.114	-0.264
-431.661	27.513	0.203	-0.171
-430.646	800.000	0.007	0.021
-429.632	76.649	-0.109	-0.115
-428.617	-3.329	0.097	-0.068
-427.603	800.000	0.107	-0.430
-426.588	659.500	-0.048	0.122
-425.573	-37.169	0.173	0.093
-424.559	800.000	-0.025	0.102
-423.544	-26.478	-0.236	-0.139
-422.530	-113.735	-0.270	0.053
-421.515	-56.016	0.433	0.193
-420.500	-200.000	0.060	0.306
-419.486	66.528	0.032	-0.032
-418.471	21.718	0.114	0.093
-417.457	-34.842	0.212	0.116
-416.442	-200.000	-0.004	0.289
-415.428	-84.125	0.254	0.080
-414.413	78.792	0.299	0.320
-413.398	-200.000	-0.022	0.401
-412.384	-73.757	-0.500	0.182
-411.369	-63.828	-0.119	0.049
-410.355	-88.091	-0.221	-0.066
-409.340	-19.980	-0.344	-0.212
-408.325	46.040	0.355	-0.328
-407.311	-18.341	0.219	0.137
-406.296	524.564	-0.093	0.219
-405.282	582.775	-0.128	0.313
-404.267	-180.784	-0.331	-0.007
-403.252	800.000	0.050	-0.179
-402.238	-66.114	0.123	-0.049
-401.223	-101.859	0.127	-0.031
-400.209	47.841	-0.283	0.264
-399.194	-15.762	-0.246	0.157
-398.179	-85.125	-0.310	0.097
-397.165	1.888	0.187	-0.135
-396.150	211.036	-0.156	-0.245
-395.136	11.440	0.095	-0.072
-394.121	-91.821	-0.116	-0.033
-393.106	-190.477	0.173	0.002
-392.092	-136.036	-0.340	-0.040
-391.077	-200.000	-0.011	0.138
-390.063	-11.218	0.188	0.124
-389.048	800.000	0.063	-0.190
-388.033	28.625	-0.107	0.090
-387.019	-46.865	0.395	0.193
-386.004	77.066	0.172	-0.182
-384.990	145.462	0.081	0.109
-383.975	-200.000	0.014	-0.268
-382.960	-200.000	-0.044	-0.266
-381.946	153.134	-0.060	0.082
-380.931	101.733	0.266	-0.310
-379.917	-200.000	-0.007	-0.208
-378.902	409.122	0.053	-0.112
-377.888	-98.735	-0.247	-0.063
-376.873	105.079	-0.088	-0.104
-375.858	60.513	-0.095	-0.094
-374.844	0.385	0.202	-0.144
-373.829	34.433	0.193	-0.168
-372.815	121.652	0.107	0.133
-371.800	-200.000	0.019	-0.190
-370.785	-200.000	0.015	-0.272
-369.771	186.575	0.067	0.100
-368.756	-106.753	-0.215	-0.048
-367.742	-168.660	0.362	-0.014
-366.727	-82.679	0.076	-0.025
-365.712	185.463	-0.054	-0.080
-364.698	121.899	-0.125	-0.156
-363.683	83.133	-0.055	0.060
-362.669	-194.445	-0.247	-0.002
-361.654	-6.138	0.206	-0.141
-360.639	222.780	0.083	0.134
-359.625	5.660	-0.142	0.105
-358.610	68.969	-0.284	0.291
-357.596	10.278	-0.131	0.099
-356.581	-200.000	-0.033	-0.178
-355.566	-188.588	0.293	-0.004
-354.552	-146.864	-0.373	-0.032
-353.537	22.180	0.102	0.083
-352.523	499.956	-0.137	-0.316
-351.508	474.923	-0.094	-0.213
-350.493	800.000	0.064	-0.207
-349.479	-29.634	0.091	-0.052
-348.464	-139.604	0.413	-0.044
-347.450	173.445	-0.226	0.325
-346.435	800.000	-0.088	-0.293
-345.420	-52.783	0.268	0.123
-344.406	25.911	0.201	0.167
-343.391	275.394	-0.047	0.082
-342.377	119.244	-0.172	0.212
-341.362	-79.950	-0.115	-0.038
-340.348	47.817	0.006	0.006
-339.333	-72.993	-0.271	0.099
-338.318	-80.910	-0.376	-0.124
-337.304	-200.000	0.041	-0.237
-336.289	-200.000	0.004	0.066
-335.275	-82.897	0.129	-0.042
-334.260	514.251	0.122	0.284
-333.245	304.630	0.156	0.289
-332.231	71.470	0.224	0.232
-331.216	105.816	0.062	-0.073
-330.202	-200.000	-0.003	-0.016
-329.187	79.379	0.045	0.049
-328.172	800.000	0.031	0.119
-327.158	800.000	-0.016	-0.058
-326.143	16.965	-0.223	-0.176
-325.129	181.543	0.100	-0.146
-324.114	-73.449	-0.155	-0.056
-323.099	519.199	0.116	-0.271
-322.085	-40.317	0.051	0.027
-321.070	36.866	-0.195	-0.171
-320.056	59.053	-0.105	-0.103
-319.041	-148.890	0.474	-0.038
-318.026	-14.869	-0.178	0.114
-317.012	-127.816	0.122	0.018
-315.997	573.364	0.079	-0.192
-314.983	34.645	0.058	0.051
-313.968	-200.000	0.062	0.418
-312.953	722.795	0.089	-0.235
-311.939	-192.449	0.180	-0.002
-310.924	39.686	-0.256	0.229
-309.910	-186.150	0.088	0.001
-308.895	800.000	-0.014	-0.044
-307.880	-200.000	-0.040	0.205
-306.866	58.754	-0.401	-0.392
-305.851	800.000	0.148	-0.433
-304.837	-21.132	-0.258	-0.157
-303.822	-200.000	0.011	0.150
-302.807	32.628	-0.242	0.209
-301.793	79.246	0.276	0.294
-300.778	-200.000	0.025	-0.302
-299.764	-200.000	-0.009	0.077
-298.749	800.000	-0.053	-0.204
-297.735	5.005	-0.255	-0.187
-296.720	-108.997	-0.065	-0.014
-295.705	30.563	0.093	0.079
-294.691	-137.055	-0.119	-0.014
-293.676	139.555	-0.088	0.115
-292.662	800.000	-0.017	0.051
-291.647	-101.274	0.045	-0.011
-290.632	4.389	-0.220	-0.161
-289.618	589.050	0.027	0.065
-288.603	-134.549	-0.192	-0.023
-287.589	-200.000	-0.040	-0.177
-286.574	-103.255	-0.085	0.020
-285.559	-66.086	0.078	0.031
-284.545	-37.542	-0.454	0.241
-283.530	-166.038	-0.279	0.012
-282.516	-70.984	0.257	-0.096
-281.501	44.619	-0.058	0.053
-280.486	-117.421	0.063	-0.011
-279.472	289.500	-0.125	0.226
-278.457	-103.310	0.045	-0.011
-277.443	-81.992	-0.224	-0.073
-276.428	-38.957	0.058	0.030
-275.413	240.299	0.141	-0.233
-274.399	800.000	0.021	-0.071
-273.384	-38.513	0.382	-0.201
-272.370	-112.330	-0.372	-0.074
-271.355	317.194	-0.218	0.410
-270.340	51.889	0.217	0.205
-269.326	-26.731	-0.069	0.040
-268.311	-200.000	-0.002	0.067
-267.297	-200.000	-0.018	0.159
-266.282	34.564	0.263	-0.228
-265.267	9.486	-0.337	-0.254
-264.253	10.606	-0.012	0.009
-263.238	205.572	-0.144	-0.223
-262.224	52.968	-0.207	-0.197
-261.209	601.536	-0.055	0.136
-260.195	382.188	0.047	0.097
-259.180	800.000	-0.096	-0.266
-258.165	18.053	-0.331	-0.262
-257.151	-119.631	0.371	0.064
-256.136	-46.091	0.133	-0.065
-255.122	700.100	0.066	0.173
-254.107	800.000	-0.055	-0.152
-253.092	20.455	-0.279	-0.224
-252.078	-61.220	0.465	-0.195
-251.063	-28.530	0.225	-0.129
-250.049	620.240	0.161	-0.403
-249.034	640.423	-0.015	-0.039
-248.019	-200.000	0.082	0.378
-247.005	250.606	-0.160	-0.271
-245.990	-200.000	-0.005	-0.145
-244.976	186.306	-0.069	-0.103
-243.961	22.793	0.404	0.329
-242.946	-200.000	0.045	-0.394
-241.932	12.348	0.182	0.139
-240.917	-200.000	-0.002	0.505
-239.903	-200.000	0.025	0.308
-238.888	800.000	-0.091	-0.276
-237.873	-149.370	0.239	0.019
-236.859	2.365	-0.330	0.237
-235.844	-118.791	-0.052	-0.009
-234.830	-11.519	-0.383	0.250
-233.815	-16.231	-0.038	0.024
-232.800	800.000	0.010	-0.038
-231.786	-111.398	0.065	0.013
-230.771	-200.000	0.052	0.294
-229.757	-200.000	0.070	0.409
-228.742	-175.786	0.130	-0.003
-227.727	347.290	0.081	-0.158
-226.713	278.469	0.127	-0.225
-225.698	-200.000	-0.025	0.490
-224.684	4.503	-0.117	0.085
-223.669	-200.000	0.005	-0.125
-222.655	304.474	-0.018	0.033
-221.640	-68.519	-0.327	0.126
-220.625	800.000	-0.095	-0.266
-219.611	-113.845	-0.401	-0.077
-218.596	-105.769	0.486	0.109
-217.582	-29.528	0.159	-0.090
-216.567	86.508	-0.266	-0.291
-215.552	-41.548	-0.226	-0.115
-214.538	-187.051	0.536	-0.007
-213.523	-200.000	0.008	-0.111
-212.509	-99.924	-0.046	0.011
-211.494	800.000	-0.017	0.063
-210.479	-19.169	-0.198	0.122
-209.465	-200.000	-0.003	0.146
-208.450	-66.262	-0.119	0.047
-207.436	28.439	0.313	0.263
-206.421	-200.000	-0.017	-0.110
-205.406	-116.810	0.043	-0.008
-204.392	-100.360	0.102	0.025
-203.377	-200.000	0.002	0.058
-202.363	800.000	-0.032	-0.087
-201.348	-149.783	0.117	-0.009
-200.333	-124.982	0.416	-0.064
-199.319	53.662	-0.198	0.188
-198.304	-111.443	-0.303	-0.061
-197.290	-9.900	-0.055	-0.037
-196.275	-200.000	0.028	-0.145
-195.260	-200.000	0.067	-0.356
-194.246	260.986	0.110	-0.189
-193.231	-93.222	-0.336	-0.092
-192.217	140.018	0.099	0.130
-191.202	800.000	0.048	-0.173
-190.187	-113.988	0.335	0.064
-189.173	800.000	-0.092	-0.291
-188.158	-200.000	-0.034	-0.178
-187.144	-153.057	-0.284	0.020
-186.129	229.760	-0.104	-0.168
-185.114	-90.686	-0.360	0.103
-184.100	800.000	0.050	-0.199
-183.085	-19.063	-0.046	0.029
-182.071	72.460	-0.393	-0.406
-181.056	-200.000	0.001	-0.155
-180.042	-128.680	-0.381	-0.053
-179.027	-74.131	0.278	0.100
-178.012	-200.000	-0.029	0.171
-176.998	-148.555	-0.164	-0.013
-175.983	698.179	0.067	-0.176
-174.969	-200.000	-0.010	0.147
-173.954	137.182	-0.096	0.124
-172.939	-200.000	0.005	0.139
-171.925	-200.000	0.048	0.362
-170.910	-6.186	-0.372	0.252
-169.896	800.000	-0.098	0.337
-168.881	116.756	0.017	0.021
-167.866	137.264	0.066	-0.086
-166.852	-166.906	0.199	-0.008
-165.837	-154.392	0.039	0.003
-164.823	-162.284	0.344	-0.017
-163.808	-43.514	0.270	-0.135
-162.793	135.617	0.149	-0.193
-161.779	91.246	-0.129	0.144
-160.764	227.452	0.156	-0.251
-159.750	-159.769	0.247	0.013
-158.735	36.284	-0.328	0.286
-157.720	-200.000	0.000	0.260
-156.706	20.033	-0.077	-0.062
-155.691	-28.361	0.157	-0.090
-154.677	800.000	0.080	0.283
-153.662	-200.000	0.004	-0.032
-152.647	408.642	0.224	-0.470
-151.633	-135.462	0.393	0.046
-150.618	-43.118	0.253	-0.127
-149.604	-200.000	-0.009	-0.299
-148.589	-200.000	0.007	0.080
-147.574	164.351	0.186	0.260
-146.560	-39.617	-0.158	-0.082
-145.545	72.025	0.147	-0.152
-144.531	-160.891	-0.251	-0.013
-143.516	48.797	-0.070	-0.065
-142.502	233.849	0.077	-0.125
-141.487	-200.000	0.037	0.171
-140.472	-97.916	0.195	-0.050
-139.458	-148.560	0.395	-0.032
-138.443	800.000	0.028	-0.102
-137.429	-103.852	0.082	-0.019
-136.414	800.000	0.042	0.183
-135.399	-154.743	-0.188	-0.012
-134.385	800.000	0.043	0.167
-133.370	800.000	-0.102	0.358
-132.356	-200.000	0.023	-0.231
-131.341	212.060	-0.030	0.046
-130.326	115.119	-0.269	0.325
-129.312	-128.980	0.175	-0.024
-128.297	-200.000	0.050	-0.238
-127.283	-50.193	0.279	0.130
-126.268	-105.206	-0.126	-0.029
-125.253	-56.365	0.286	0.126
-124.239	244.340	-0.018	0.030
-123.224	-12.430	-0.137	0.089
-122.210	204.774	-0.212	-0.326
