DTS Sentinel unit serial number:	SN413079Multiplexer serial number:	ORYXHardware model number:	OX4-SRSoftware version number:	ORYX F/W v4.00 Oryx Data Collector v3.7.2.0data status	okinstallation	princeton_trtdifferential loss correction	single-endedforward channel	channel 3reverse channel	N/Adate	2019/09/11time	15:14:10forward acquisition time	60.00reverse acquisition time	0.00gamma	496.2192k internal	0.2289k external	0.2289temperature offset calibration	0.9985default loss term (dB/km)	0.3790temperature slope calibration	1.0000multiplexer offset coefficient	1.0000multiplexer slope coefficient	1.0000fibre end	0.00T internal ref (°C)	42.98T ext. ref 1 (°C)	0.98T ext. ref 2 (°C)	36.54length (m)	temperature (°C)	Stokes	anti-Stokes-747.200	-0.383	0.323	0.235
-746.185	-200.000	-0.014	0.357
-745.171	29.018	-0.065	0.056
-744.156	800.000	-0.039	0.140
-743.142	164.108	-0.059	-0.084
-742.127	-30.122	-0.067	0.039
-741.112	800.000	0.032	0.115
-740.098	800.000	-0.093	0.342
-739.083	619.993	0.029	0.075
-738.069	800.000	0.052	-0.155
-737.054	-200.000	0.040	-0.339
-736.039	-200.000	0.016	0.104
-735.025	-37.384	0.483	0.264
-734.010	-200.000	0.002	-0.057
-732.996	10.408	-0.168	-0.131
-731.981	678.694	-0.116	-0.310
-730.966	623.267	-0.067	-0.173
-729.952	-164.062	0.271	-0.013
-728.937	-21.466	-0.152	0.095
-727.923	-125.102	0.358	0.056
-726.908	-200.000	-0.031	-0.171
-725.894	-7.321	-0.334	-0.231
-724.879	337.535	-0.062	-0.124
-723.864	73.195	-0.218	0.234
-722.850	-19.437	0.085	0.054
-721.835	573.872	-0.074	0.185
-720.821	119.046	-0.261	-0.330
-719.806	-200.000	-0.120	-0.598
-718.791	1.098	-0.306	-0.225
-717.777	-23.610	0.178	-0.109
-716.762	-73.989	-0.128	0.048
-715.748	372.134	0.041	-0.086
-714.733	608.266	-0.051	0.129
-713.718	-75.597	-0.169	-0.062
-712.704	-200.000	-0.022	0.162
-711.689	-126.007	0.233	0.036
-710.675	92.253	-0.142	0.164
-709.660	-83.124	-0.410	0.135
-708.645	-42.353	-0.463	-0.242
-707.631	-48.685	-0.257	-0.126
-706.616	-68.611	0.451	-0.179
-705.602	150.707	0.217	-0.301
-704.587	-200.000	0.000	-0.374
-703.572	-142.515	0.124	0.012
-702.558	-200.000	-0.015	0.257
-701.543	2.263	0.362	-0.267
-700.529	142.905	0.110	-0.149
-699.514	-130.275	-0.323	-0.045
-698.499	-95.982	-0.399	-0.109
-697.485	67.620	0.077	0.080
-696.470	-200.000	0.044	0.245
-695.456	-127.621	-0.233	-0.035
-694.441	-200.000	0.021	-0.261
-693.426	-31.771	-0.156	-0.089
-692.412	-163.890	-0.162	-0.008
-691.397	18.347	0.144	0.117
-690.383	-181.036	-0.274	0.006
-689.368	-200.000	0.035	-0.211
-688.354	-38.053	0.072	0.039
-687.339	-200.000	-0.005	0.062
-686.324	800.000	0.092	-0.268
-685.310	-159.031	-0.341	0.020
-684.295	70.800	-0.200	0.212
-683.281	661.548	-0.071	0.188
-682.266	-20.489	0.305	-0.191
-681.251	65.145	-0.214	-0.221
-680.237	133.417	0.063	-0.083
-679.222	-200.000	-0.003	0.023
-678.208	-83.158	-0.298	-0.098
-677.193	-50.065	-0.379	-0.183
-676.178	-182.670	0.152	-0.003
-675.164	-165.165	0.193	-0.009
-674.149	-99.048	0.167	-0.043
-673.135	800.000	0.092	0.329
-672.120	-148.819	-0.064	0.005
-671.105	-200.000	-0.094	-0.533
-670.091	292.094	0.190	-0.353
-669.076	312.413	0.206	-0.394
-668.062	8.498	-0.151	0.116
-667.047	800.000	-0.014	-0.055
-666.032	25.672	0.119	-0.101
-665.018	596.118	-0.065	-0.163
-664.003	48.356	0.173	0.166
-662.989	93.052	0.186	0.215
-661.974	82.233	0.087	-0.096
-660.959	-200.000	0.000	-0.292
-659.945	-132.385	0.118	0.016
-658.930	-103.974	0.098	0.023
-657.916	404.179	-0.110	0.236
-656.901	-68.487	-0.063	0.025
-655.886	-124.505	-0.333	0.053
-654.872	-200.000	0.204	0.000
-653.857	136.459	0.182	-0.242
-652.843	401.203	-0.075	-0.161
-651.828	135.907	-0.128	-0.170
-650.814	-200.000	-0.021	-0.383
-649.799	-200.000	0.002	0.492
-648.784	421.750	-0.048	0.104
-647.770	0.114	0.326	0.237
-646.755	-57.717	0.148	-0.066
-645.741	77.559	0.084	-0.091
-644.726	-127.551	-0.219	-0.032
-643.711	-200.000	-0.025	0.380
-642.697	-13.160	0.077	0.051
-641.682	3.466	0.050	0.037
-640.668	607.537	-0.030	-0.077
-639.653	105.278	-0.057	0.069
-638.638	-136.782	-0.283	-0.033
-637.624	-200.000	0.025	-0.315
-636.609	62.516	-0.082	-0.084
-635.595	-106.398	-0.226	-0.051
-634.580	-56.237	0.198	-0.090
-633.565	154.163	0.091	-0.127
-632.551	-153.604	0.091	0.006
-631.536	-1.475	-0.107	-0.077
-630.522	201.880	0.120	0.188
-629.507	228.043	-0.136	0.226
-628.492	-0.889	-0.155	0.112
-627.478	-200.000	-0.034	0.161
-626.463	-200.000	-0.004	0.154
-625.449	374.798	0.057	-0.119
-624.434	-200.000	-0.017	-0.289
-623.419	41.793	0.243	-0.225
-622.405	-21.535	0.139	0.087
-621.390	-69.711	0.191	-0.074
-620.376	-62.127	-0.166	0.071
-619.361	-200.000	-0.028	-0.243
-618.346	-57.494	0.163	0.073
-617.332	305.985	-0.169	0.321
-616.317	-200.000	0.010	0.223
-615.303	562.555	0.025	-0.061
-614.288	800.000	0.023	0.103
-613.273	155.400	-0.122	-0.171
-612.259	-200.000	-0.038	-0.171
-611.244	401.367	-0.019	0.041
-610.230	-200.000	0.102	-0.556
-609.215	436.357	-0.190	0.421
-608.201	406.110	-0.154	0.331
-607.186	-200.000	-0.026	-0.163
-606.171	-54.465	0.177	-0.082
-605.157	114.124	-0.113	-0.140
-604.142	-200.000	0.107	-0.533
-603.128	-200.000	0.053	0.299
-602.113	65.916	-0.240	0.248
-601.098	-66.917	-0.064	0.026
-600.084	785.870	-0.107	0.298
-599.069	-104.844	0.290	-0.068
-598.055	-67.058	-0.138	0.055
-597.040	191.234	-0.164	-0.252
-596.025	-161.035	-0.203	0.011
-595.011	-90.374	-0.137	-0.040
-593.996	114.421	-0.121	0.151
-592.982	-200.000	-0.155	-0.001
-591.967	146.261	-0.076	0.104
-590.952	309.440	-0.145	-0.277
-589.938	-20.382	0.114	0.072
-588.923	236.728	-0.064	-0.107
-587.909	800.000	-0.060	-0.200
-586.894	220.841	0.160	-0.262
-585.879	84.736	-0.180	0.201
-584.865	800.000	-0.127	-0.420
-583.850	107.322	0.188	-0.228
-582.836	448.407	-0.023	-0.052
-581.821	75.043	-0.210	0.225
-580.806	-124.047	0.213	-0.034
-579.792	-36.505	0.228	-0.125
-578.777	-41.782	-0.294	0.153
-577.763	-200.000	0.003	0.074
-576.748	-200.000	-0.001	-0.009
-575.733	235.232	-0.227	-0.381
-574.719	81.221	-0.144	-0.159
-573.704	195.088	0.153	0.237
-572.690	-16.860	0.126	0.081
-571.675	-200.000	0.014	0.103
-570.661	-28.125	-0.514	0.302
-569.646	127.758	0.028	-0.036
-568.631	268.790	0.153	-0.273
-567.617	-148.125	0.324	0.027
-566.602	-60.449	-0.444	-0.192
-565.588	-200.000	-0.017	0.167
-564.573	233.073	-0.136	-0.228
-563.558	-126.294	-0.055	-0.008
-562.544	-200.000	-0.009	-0.072
-561.529	108.004	-0.088	0.107
-560.515	-200.000	-0.005	0.250
-559.500	238.314	0.105	-0.177
-558.485	-60.778	0.226	-0.097
-557.471	-125.437	-0.305	0.047
-556.456	-85.178	-0.187	-0.060
-555.442	800.000	0.052	-0.181
-554.427	298.966	-0.121	0.226
-553.412	-1.774	-0.189	0.135
-552.398	48.158	0.212	-0.202
-551.383	784.525	-0.089	-0.247
-550.369	-200.000	-0.001	0.064
-549.354	402.312	-0.037	-0.080
-548.339	-200.000	-0.001	0.218
-547.325	-74.002	-0.104	0.038
-546.310	-10.956	0.080	0.054
-545.296	-12.752	0.263	-0.174
-544.281	-49.970	0.126	0.061
-543.266	241.073	-0.044	-0.075
-542.252	-109.511	-0.108	-0.023
-541.237	-94.625	-0.356	-0.098
-540.223	-200.000	0.014	0.349
-539.208	800.000	0.095	-0.315
-538.193	-78.971	-0.381	0.132
-537.179	199.700	0.125	-0.196
-536.164	39.055	-0.072	0.065
-535.150	-136.636	0.300	-0.035
-534.135	800.000	-0.048	-0.163
-533.121	166.525	-0.121	-0.175
-532.106	-115.211	-0.130	0.025
-531.091	592.074	-0.136	0.342
-530.077	-123.749	-0.106	-0.017
-529.062	72.025	-0.162	-0.171
-528.048	-162.901	-0.138	0.007
-527.033	-18.434	0.258	-0.164
-526.018	-200.000	0.010	-0.155
-525.004	-40.281	0.164	0.087
-523.989	51.229	0.154	0.148
-522.975	800.000	-0.030	0.109
-521.960	800.000	-0.050	0.217
-520.945	-200.000	0.006	0.325
-519.931	186.197	0.065	0.098
-518.916	-103.318	0.270	-0.065
-517.902	-61.713	-0.208	0.088
-516.887	-136.066	-0.235	-0.028
-515.872	435.966	-0.051	-0.112
-514.858	-30.005	-0.177	0.102
-513.843	-146.319	-0.138	0.012
-512.829	-200.000	0.062	0.366
-511.814	-162.193	0.277	-0.014
-510.799	-101.276	0.288	-0.071
-509.785	-200.000	-0.029	0.135
-508.770	800.000	0.051	0.219
-507.756	800.000	-0.048	0.211
-506.741	500.220	0.097	-0.226
-505.726	-149.507	0.308	0.025
-504.712	-71.585	-0.191	-0.072
-503.697	31.662	0.103	-0.090
-502.683	30.322	-0.178	0.154
-501.668	-200.000	0.042	-0.297
-500.653	162.558	-0.159	-0.227
-499.639	-186.593	-0.586	0.008
-498.624	302.732	-0.100	-0.189
-497.610	105.397	-0.138	0.165
-496.595	224.344	0.081	0.132
-495.581	-24.572	-0.158	-0.095
-494.566	143.462	-0.131	-0.177
-493.551	-7.075	0.150	-0.104
-492.537	41.303	-0.156	0.143
-491.522	-96.494	0.189	0.051
-490.508	-29.839	0.039	-0.023
-489.493	800.000	-0.080	-0.309
-488.478	220.569	-0.099	-0.162
-487.464	176.965	-0.157	-0.232
-486.449	-19.853	0.187	0.117
-485.435	-114.735	-0.437	-0.085
-484.420	-200.000	0.030	0.210
-483.405	104.052	0.123	0.147
-482.391	49.706	0.244	-0.234
-481.376	-127.887	0.248	0.036
-480.362	-139.031	-0.047	-0.005
-479.347	-190.645	0.192	-0.002
-478.332	-200.000	-0.024	0.124
-477.318	61.186	0.022	-0.022
-476.303	141.539	-0.189	0.254
-475.289	-200.000	-0.027	-0.391
-474.274	-133.550	-0.257	0.033
-473.259	-59.562	0.219	-0.095
-472.245	35.332	-0.138	0.122
-471.230	-165.753	-0.075	-0.003
-470.216	800.000	0.074	-0.234
-469.201	-200.000	-0.035	0.000
-468.186	55.077	0.015	-0.015
-467.172	582.880	0.018	-0.045
-466.157	566.356	-0.142	0.349
-465.143	-106.892	0.346	-0.078
-464.128	-200.000	-0.017	-0.174
-463.113	-200.000	0.024	-0.299
-462.099	-53.734	0.162	0.075
-461.084	783.558	-0.058	-0.162
-460.070	-104.950	-0.191	-0.044
-459.055	40.575	-0.100	-0.092
-458.040	-200.000	-0.005	-0.313
-457.026	-200.000	0.024	0.147
-456.011	-200.000	0.029	-0.239
-454.997	418.291	-0.080	-0.172
-453.982	-200.000	-0.031	0.281
-452.968	117.431	0.195	0.243
-451.953	800.000	0.036	0.160
-450.938	280.635	0.136	0.246
-449.924	-85.615	-0.194	-0.061
-448.909	-117.728	0.473	-0.086
-447.895	-32.555	0.308	-0.174
-446.880	-116.220	0.259	-0.049
-445.865	-83.724	0.149	-0.048
-444.851	464.550	0.106	0.239
-443.836	-200.000	-0.016	0.108
-442.822	-103.885	-0.004	0.001
-441.807	-128.599	-0.195	0.028
-440.792	-35.628	-0.057	0.031
-439.778	235.002	0.199	0.333
-438.763	-200.000	-0.016	0.132
-437.749	55.031	-0.096	-0.094
-436.734	-58.248	0.252	0.111
-435.719	-55.290	-0.161	-0.073
-434.705	-23.155	0.129	-0.079
-433.690	800.000	0.058	-0.190
-432.676	32.288	-0.311	0.272
-431.661	-200.000	0.014	-0.216
-430.646	-198.710	0.265	-0.001
-429.632	-200.000	0.034	0.187
-428.617	-125.523	0.367	-0.056
-427.603	261.095	-0.049	0.087
-426.588	64.203	0.064	-0.065
-425.573	-123.625	-0.242	0.039
-424.559	-200.000	0.023	-0.159
-423.544	-200.000	-0.025	-0.185
-422.530	16.211	0.282	0.225
-421.515	162.340	-0.103	-0.145
-420.500	10.930	0.172	-0.133
-419.486	-200.000	0.036	-0.199
-418.471	800.000	-0.034	0.114
-417.457	-9.132	-0.290	0.196
-416.442	21.978	0.145	-0.119
-415.428	554.305	-0.183	-0.446
-414.413	-123.098	0.181	0.029
-413.398	-14.771	0.277	0.180
-412.384	-200.000	0.018	0.241
-411.369	-59.866	-0.142	-0.062
-410.355	-68.190	0.326	0.128
-409.340	-5.343	0.033	-0.023
-408.325	108.892	0.112	0.135
-407.311	-100.408	0.166	0.042
-406.296	250.737	0.201	-0.346
-405.282	6.849	-0.172	-0.130
-404.267	130.235	0.176	-0.228
-403.252	44.511	0.065	-0.060
-402.238	72.223	-0.126	-0.133
-401.223	800.000	-0.056	0.234
-400.209	800.000	0.102	-0.299
-399.194	748.233	0.028	0.078
-398.179	52.332	0.112	-0.108
-397.165	800.000	0.063	0.206
-396.150	-112.652	-0.312	0.063
-395.136	-69.523	-0.176	-0.068
-394.121	800.000	-0.031	-0.091
-393.106	-200.000	0.031	-0.229
-392.092	-200.000	0.047	0.385
-391.077	-200.000	0.014	-0.149
-390.063	85.217	-0.041	0.045
-389.048	-200.000	0.030	-0.315
-388.033	-166.261	-0.048	0.002
-387.019	61.470	0.056	-0.056
-386.004	800.000	-0.034	-0.107
-384.990	726.056	0.099	-0.267
-383.975	-53.453	-0.281	-0.130
-382.960	800.000	0.030	0.100
-381.946	-83.712	0.102	0.033
-380.931	-84.895	-0.066	0.021
-379.917	-140.759	0.389	-0.041
-378.902	297.105	0.045	0.084
-377.888	-48.448	-0.379	-0.184
-376.873	-167.335	0.044	0.002
-375.858	-142.948	-0.127	0.012
-374.844	-57.958	-0.047	-0.021
-373.829	-45.473	-0.174	-0.087
-372.815	-115.546	0.183	0.035
-371.800	267.972	0.087	-0.154
-370.785	211.431	0.238	-0.378
-369.771	-17.366	-0.128	-0.081
-368.756	304.068	0.137	0.257
-367.742	-112.168	0.327	-0.066
-366.727	-159.118	-0.045	0.003
-365.712	-46.687	-0.247	0.122
-364.698	-4.658	-0.194	-0.135
-363.683	-56.677	0.289	0.129
-362.669	66.319	0.220	-0.225
-361.654	-107.487	-0.036	-0.008
-360.639	-83.367	0.157	-0.051
-359.625	-136.948	-0.317	0.037
-358.610	513.195	-0.128	0.301
-357.596	-186.456	-0.071	0.001
-356.581	-75.444	-0.383	-0.138
-355.566	-1.854	0.273	-0.194
-354.552	-14.168	0.346	0.225
-353.537	-21.987	-0.274	0.168
-352.523	-200.000	-0.024	0.329
-351.508	46.370	-0.271	-0.254
-350.493	314.900	0.132	0.251
-349.479	2.990	0.128	0.094
-348.464	-200.000	-0.016	-0.098
-347.450	800.000	-0.039	0.119
-346.435	-200.000	-0.009	-0.155
-345.420	174.948	-0.092	-0.134
-344.406	45.237	-0.255	-0.237
-343.391	-24.977	0.231	0.139
-342.377	146.314	0.123	-0.166
-341.362	92.561	-0.041	0.046
-340.348	32.752	0.079	0.069
-339.333	-200.000	0.075	-0.338
-338.318	-43.964	-0.143	-0.073
-337.304	-99.130	-0.040	0.010
-336.289	-183.107	0.449	0.008
-335.275	-200.000	0.025	0.000
-334.260	-109.742	-0.233	0.049
-333.245	800.000	-0.095	-0.306
-332.231	143.076	0.085	-0.115
-331.216	89.006	0.081	0.091
-330.202	-6.767	0.089	0.061
-329.187	-200.000	-0.143	0.687
-328.172	31.762	-0.107	0.093
-327.158	50.085	-0.156	0.149
-326.143	-101.966	-0.314	0.076
-325.129	-99.104	-0.308	-0.079
-324.114	-19.079	-0.270	-0.169
-323.099	26.008	0.168	-0.142
-322.085	478.666	-0.064	0.146
-321.070	93.582	-0.187	-0.213
-320.056	54.594	-0.106	-0.103
-319.041	-6.846	-0.513	0.351
-318.026	-184.212	0.247	-0.004
-317.012	174.896	0.221	-0.323
-315.997	-126.644	-0.112	0.017
-314.983	25.479	0.321	0.269
-313.968	-76.019	-0.040	-0.014
-312.953	-19.449	0.158	0.099
-311.939	-76.696	0.159	-0.056
-310.924	-200.000	0.008	0.191
-309.910	222.044	0.029	-0.048
-308.895	-32.841	0.125	-0.070
-307.880	298.930	0.075	-0.140
-306.866	59.693	-0.143	-0.143
-305.851	27.363	0.112	0.095
-304.837	80.973	-0.150	-0.163
-303.822	-46.054	-0.232	-0.115
-302.807	113.062	-0.096	0.118
-301.793	-46.635	0.192	0.095
-300.778	-160.162	-0.418	-0.023
-299.764	425.963	-0.072	0.157
-298.749	-5.558	-0.319	0.220
-297.735	111.470	0.255	0.310
-296.720	3.594	-0.210	-0.154
-295.705	-80.734	-0.126	0.042
-294.691	53.615	0.216	0.209
-293.676	-29.253	-0.048	0.027
-292.662	219.362	0.158	0.255
-291.647	354.660	0.107	-0.213
-290.632	35.098	-0.098	0.086
-289.618	-200.000	-0.016	0.315
-288.603	800.000	-0.065	0.286
-287.589	-10.051	0.098	0.066
-286.574	428.728	-0.102	0.221
-285.559	-22.752	-0.494	-0.300
-284.545	-200.000	-0.016	-0.121
-283.530	-30.296	-0.207	0.119
-282.516	-72.066	-0.251	0.094
-281.501	197.122	0.079	0.121
-280.486	164.340	-0.079	-0.112
-279.472	-154.627	0.135	-0.009
-278.457	-200.000	-0.044	-0.265
-277.443	-176.987	-0.257	-0.006
-276.428	-5.449	0.363	0.251
-275.413	-153.600	-0.183	-0.013
-274.399	45.066	-0.393	-0.364
-273.384	33.798	0.148	0.130
-272.370	-177.291	0.149	-0.004
-271.355	255.873	-0.092	0.159
-270.340	-28.495	-0.150	-0.087
-269.326	122.154	0.204	-0.256
-268.311	154.597	0.179	0.247
-267.297	-200.000	0.006	0.222
-266.282	151.732	0.047	0.065
-265.267	124.506	-0.162	0.204
-264.253	-13.879	-0.193	0.125
-263.238	386.262	0.052	-0.109
-262.224	386.426	0.099	-0.205
-261.209	800.000	0.015	-0.045
-260.195	100.500	0.147	0.171
-259.180	-138.657	-0.372	0.041
-258.165	-200.000	0.031	0.210
-257.151	-38.933	0.285	0.151
-256.136	800.000	-0.110	-0.380
-255.122	338.464	0.021	-0.041
-254.107	-120.272	-0.422	-0.072
-253.092	800.000	0.041	0.141
-252.078	114.564	0.121	0.148
-251.063	180.035	0.219	0.323
-250.049	800.000	0.008	-0.032
-249.034	-48.578	0.188	-0.091
-248.019	192.213	0.249	-0.377
-247.005	100.968	0.081	-0.094
-245.990	187.968	-0.057	0.085
-244.976	-150.347	0.389	0.030
-243.961	447.508	0.031	-0.068
-242.946	800.000	-0.057	0.193
-241.932	-200.000	-0.017	-0.235
-240.917	242.866	-0.159	0.267
-239.903	392.543	-0.171	0.358
-238.888	-121.904	0.253	-0.042
-237.873	331.266	0.198	0.383
-236.859	236.623	0.232	0.387
-235.844	289.853	0.012	-0.021
-234.830	56.997	0.242	-0.237
-233.815	78.188	0.296	0.317
-232.800	800.000	0.086	0.330
-231.786	800.000	-0.055	-0.193
-230.771	-55.621	0.066	0.030
-229.757	256.638	0.107	0.184
-228.742	-151.191	0.313	-0.024
-227.727	-7.011	0.164	0.112
-226.713	800.000	0.058	-0.190
-225.698	321.017	-0.047	-0.089
-224.684	800.000	-0.069	-0.251
-223.669	72.467	0.174	0.182
-222.655	-182.505	0.183	-0.003
-221.640	-200.000	-0.023	0.103
-220.625	29.879	0.071	0.060
-219.611	800.000	-0.038	0.147
-218.596	29.005	-0.138	0.118
-217.582	157.177	0.135	-0.187
-216.567	-121.057	-0.212	0.036
-215.552	-85.270	0.422	0.132
-214.538	-200.000	0.013	0.096
-213.523	80.965	-0.171	-0.186
-212.509	-95.985	-0.085	-0.023
-211.494	626.527	-0.076	0.192
-210.479	81.833	-0.124	-0.135
-209.465	-200.000	0.048	0.342
-208.450	117.159	-0.104	0.129
-207.436	117.302	-0.186	0.230
-206.421	-144.612	0.163	-0.015
-205.406	-61.855	0.079	-0.033
-204.392	83.595	-0.191	-0.208
-203.377	800.000	0.027	-0.088
-202.363	-65.716	-0.089	0.036
-201.348	-6.499	-0.251	-0.172
-200.333	200.567	0.091	-0.141
-199.319	-28.254	0.165	-0.096
-198.304	-200.000	0.019	-0.138
-197.290	-200.000	-0.006	-0.271
-196.275	-54.042	-0.327	-0.149
-195.260	800.000	-0.081	-0.229
-194.246	68.287	0.152	0.157
-193.231	-200.000	0.031	0.171
-192.217	-75.007	0.386	0.139
-191.202	800.000	0.008	0.029
-190.187	-24.721	-0.146	-0.087
-189.173	-77.840	-0.041	0.014
-188.158	-38.126	0.249	0.132
-187.144	48.015	0.221	-0.207
-186.129	-14.682	-0.093	-0.060
-185.114	115.088	0.156	0.190
-184.100	461.808	0.087	-0.195
-183.085	117.638	-0.143	0.176
-182.071	28.429	0.268	0.227
-181.056	800.000	-0.048	-0.140
-180.042	362.393	-0.178	0.357
-179.027	-200.000	0.002	-0.185
-178.012	-61.056	0.446	-0.189
-176.998	-200.000	0.027	0.120
-175.983	51.178	-0.271	0.258
-174.969	800.000	-0.087	0.372
-173.954	210.427	-0.175	-0.275
-172.939	156.660	0.128	-0.177
-171.925	-200.000	0.018	-0.235
-170.910	377.168	-0.044	0.090
-169.896	142.412	0.147	0.195
-168.881	-45.613	0.147	0.073
-167.866	-175.566	-0.141	-0.004
-166.852	-94.128	-0.059	-0.016
-165.837	23.431	-0.397	-0.327
-164.823	-89.203	0.117	0.035
-163.808	-68.402	0.424	-0.165
-162.793	545.049	0.144	0.344
-161.779	-200.000	0.007	0.209
-160.764	-200.000	0.036	-0.365
-159.750	-200.000	0.009	-0.081
-158.735	800.000	0.037	-0.156
-157.720	-117.077	-0.082	0.015
-156.706	-113.353	0.181	-0.036
-155.691	-68.379	0.150	0.058
-154.677	800.000	-0.121	-0.347
-153.662	-200.000	0.038	-0.193
-152.647	133.422	0.065	-0.084
-151.633	199.439	0.146	0.224
-150.618	-54.641	0.443	0.201
-149.604	450.075	-0.038	0.085
-148.589	43.368	-0.104	0.095
-147.574	161.974	-0.103	-0.144
-146.560	-29.232	-0.054	0.031
-145.545	-200.000	0.021	0.167
-144.531	-37.157	0.223	-0.119
-143.516	321.632	-0.063	0.120
-142.502	345.768	-0.040	-0.078
-141.487	-92.402	0.172	-0.049
-140.472	116.494	-0.170	-0.208
-139.458	-167.792	-0.247	-0.010
-138.443	-36.931	0.031	-0.016
-137.429	-66.844	-0.157	-0.062
-136.414	-200.000	-0.024	0.127
-135.399	-4.670	0.111	0.076
-134.385	-90.548	-0.370	-0.107
-133.370	-77.532	0.217	0.075
-132.356	131.615	-0.145	-0.187
-131.341	-76.172	0.054	-0.019
-130.326	79.737	-0.169	0.182
-129.312	3.363	0.185	0.135
-128.297	-200.000	0.027	-0.218
-127.283	-100.067	-0.273	0.068
-126.268	-93.833	0.081	-0.022
-125.253	45.079	0.189	-0.174
-124.239	21.285	-0.164	0.133
-123.224	-200.000	0.002	0.309
-122.210	167.146	0.123	0.175
