DTS Sentinel unit serial number:	SN413079Multiplexer serial number:	ORYXHardware model number:	OX4-SRSoftware version number:	ORYX F/W v4.00 Oryx Data Collector v3.7.2.0data status	okinstallation	princeton_trtdifferential loss correction	single-endedforward channel	channel 3reverse channel	N/Adate	2019/09/10time	18:46:11forward acquisition time	60.00reverse acquisition time	0.00gamma	496.2192k internal	0.2310k external	0.2310temperature offset calibration	0.9908default loss term (dB/km)	0.3790temperature slope calibration	1.0000multiplexer offset coefficient	1.0000multiplexer slope coefficient	1.0000fibre end	0.00T internal ref (°C)	35.14T ext. ref 1 (°C)	-0.43T ext. ref 2 (°C)	27.32length (m)	temperature (°C)	Stokes	anti-Stokes-747.200	800.000	0.024	0.098
-746.185	-200.000	0.001	0.246
-745.171	-81.410	-0.174	0.058
-744.156	-200.000	0.035	0.527
-743.142	-200.000	-0.208	0.000
-742.127	-200.000	-0.057	-0.265
-741.112	800.000	-0.029	0.089
-740.098	-151.340	-0.236	-0.018
-739.083	123.454	0.138	-0.175
-738.069	-200.000	0.046	0.290
-737.054	71.387	0.146	0.154
-736.039	228.685	-0.074	0.122
-735.025	-200.000	-0.022	0.119
-734.010	-75.851	-0.423	-0.152
-732.996	260.539	-0.182	-0.319
-731.981	387.820	-0.106	-0.222
-730.966	-145.762	-0.216	0.020
-729.952	269.336	0.026	0.046
-728.937	12.061	-0.268	-0.209
-727.923	800.000	-0.092	0.317
-726.908	-114.734	-0.198	-0.038
-725.894	-33.725	-0.076	-0.042
-724.879	-200.000	0.047	-0.281
-723.864	743.180	-0.157	-0.427
-722.850	319.664	0.101	-0.194
-721.835	-25.206	0.088	-0.053
-720.821	144.103	0.165	-0.223
-719.806	4.281	0.199	-0.148
-718.791	800.000	-0.034	-0.101
-717.777	174.592	0.211	-0.310
-716.762	-200.000	-0.001	-0.163
-715.748	-53.422	-0.114	0.053
-714.733	1.938	-0.128	-0.094
-713.718	-5.506	-0.073	0.051
-712.704	17.028	0.117	0.094
-711.689	-45.536	0.062	0.031
-710.675	-200.000	-0.019	-0.093
-709.660	87.963	-0.270	-0.304
-708.645	800.000	0.040	0.128
-707.631	-71.381	-0.091	0.035
-706.616	52.766	-0.092	-0.089
-705.602	-6.294	-0.418	-0.290
-704.587	-200.000	-0.148	-0.000
-703.572	23.689	-0.121	-0.101
-702.558	238.908	0.150	0.254
-701.543	3.500	0.196	-0.145
-700.529	498.158	0.129	-0.302
-699.514	-44.461	0.157	-0.080
-698.499	800.000	0.020	-0.073
-697.485	-194.345	0.242	0.002
-696.470	-21.165	-0.189	-0.117
-695.456	-200.000	0.058	-0.290
-694.441	-82.449	0.228	0.075
-693.426	-45.833	0.182	-0.091
-692.412	-170.330	0.148	0.005
-691.397	401.288	-0.108	-0.230
-690.383	-200.000	0.012	-0.087
-689.368	-196.816	-0.253	0.002
-688.354	197.489	0.172	0.265
-687.339	-82.020	-0.046	0.015
-686.324	800.000	0.008	-0.025
-685.310	257.151	-0.143	0.249
-684.295	-130.046	-0.061	0.008
-683.281	-66.748	0.418	-0.168
-682.266	-200.000	-0.006	-0.039
-681.251	-172.653	-0.188	0.006
-680.237	-198.289	-0.267	0.002
-679.222	-3.404	0.264	0.186
-678.208	-136.882	-0.307	0.036
-677.193	-11.782	-0.183	-0.122
-676.178	70.446	0.270	0.283
-675.164	-9.738	0.337	0.227
-674.149	-98.409	-0.298	-0.077
-673.135	469.353	0.201	0.458
-672.120	-200.000	-0.044	0.252
-671.105	-28.646	-0.260	0.152
-670.091	-200.000	-0.008	-0.228
-669.076	-92.546	0.422	0.120
-668.062	114.306	0.126	-0.155
-667.047	48.629	-0.183	-0.174
-666.032	-24.282	-0.278	0.168
-665.018	680.915	-0.084	0.223
-664.003	73.049	0.061	0.065
-662.989	1.890	-0.202	-0.147
-661.974	-200.000	0.119	-0.000
-660.959	673.059	0.137	0.360
-659.945	800.000	0.057	0.164
-658.930	-106.380	-0.386	-0.087
-657.916	-124.589	-0.257	0.040
-656.901	102.742	-0.145	0.171
-655.886	60.471	-0.072	-0.072
-654.872	8.088	-0.110	0.084
-653.857	800.000	0.095	0.307
-652.843	43.245	-0.053	0.049
-651.828	41.902	-0.110	-0.101
-650.814	35.505	0.185	0.165
-649.799	-26.191	0.171	-0.102
-648.784	-200.000	0.037	-0.270
-647.770	337.179	0.043	-0.085
-646.755	225.225	0.100	-0.164
-645.741	415.524	-0.091	-0.195
-644.726	800.000	0.013	0.045
-643.711	-93.581	-0.291	0.081
-642.697	0.668	0.144	0.104
-641.682	185.354	0.234	-0.352
-640.668	-200.000	0.025	-0.192
-639.653	-27.053	0.071	-0.042
-638.638	23.591	0.240	0.200
-637.624	-152.746	-0.257	0.018
-636.609	-164.018	0.084	-0.004
-635.595	103.076	0.042	0.049
-634.580	-112.534	0.347	-0.070
-633.565	282.740	-0.059	0.106
-632.551	388.093	0.106	-0.223
-631.536	631.844	0.044	-0.112
-630.522	-200.000	0.017	-0.387
-629.507	-48.598	-0.158	-0.077
-628.492	-200.000	-0.000	-0.039
-627.478	-114.681	0.079	-0.015
-626.463	-149.520	0.390	-0.031
-625.449	-140.144	0.059	-0.006
-624.434	13.859	0.178	0.140
-623.419	-169.546	0.340	0.013
-622.405	230.145	0.033	0.055
-621.390	94.868	-0.252	-0.290
-620.376	212.532	-0.152	-0.242
-619.361	17.286	0.167	0.134
-618.346	-200.000	0.038	0.325
-617.332	359.123	-0.130	-0.262
-616.317	160.083	-0.041	0.058
-615.303	800.000	-0.089	0.308
-614.288	76.961	-0.229	0.246
-613.273	-200.000	0.029	-0.275
-612.259	653.229	0.198	0.513
-611.244	186.347	-0.102	0.153
-610.230	-96.524	-0.118	-0.032
-609.215	231.083	0.309	-0.511
-608.201	766.888	-0.070	-0.194
-607.186	-140.768	0.259	-0.027
-606.171	479.007	-0.135	0.309
-605.157	-82.456	-0.215	-0.071
-604.142	-200.000	0.024	0.116
-603.128	178.101	-0.091	0.133
-602.113	447.416	0.049	-0.110
-601.098	405.787	-0.054	-0.115
-600.084	-200.000	0.012	-0.195
-599.069	351.978	-0.131	-0.262
-598.055	-136.259	-0.242	0.029
-597.040	-19.927	0.183	-0.114
-596.025	800.000	0.031	-0.102
-595.011	-200.000	0.069	0.324
-593.996	32.799	-0.015	-0.013
-592.982	-105.993	0.142	-0.032
-591.967	-103.907	0.537	0.127
-590.952	800.000	-0.066	-0.245
-589.938	353.330	-0.046	-0.093
-588.923	-136.255	-0.363	-0.043
-587.909	141.184	-0.002	0.002
-586.894	33.739	-0.079	-0.069
-585.879	536.871	0.107	0.257
-584.865	72.531	-0.155	-0.163
-583.850	-200.000	0.025	-0.152
-582.836	-62.085	-0.185	0.078
-581.821	41.088	-0.293	-0.267
-580.806	82.664	-0.231	0.253
-579.792	-154.777	0.090	-0.006
-578.777	-106.129	-0.199	-0.045
-577.763	-7.700	-0.209	-0.142
-576.748	800.000	-0.034	-0.111
-575.733	800.000	-0.142	0.404
-574.719	-190.188	0.178	-0.002
-573.704	113.776	-0.062	-0.076
-572.690	-10.376	-0.240	0.161
-571.675	-80.950	0.199	-0.067
-570.661	-200.000	-0.000	-0.151
-569.646	800.000	-0.076	-0.288
-568.631	800.000	0.065	-0.221
-567.617	-104.135	-0.120	-0.028
-566.602	-200.000	-0.065	-0.406
-565.588	470.151	0.140	0.317
-564.573	-12.514	-0.201	-0.132
-563.558	133.558	0.283	-0.370
-562.544	-200.000	-0.011	-0.056
-561.529	205.098	-0.183	0.287
-560.515	17.913	-0.204	-0.164
-559.500	43.883	0.165	-0.153
-558.485	-106.487	-0.339	-0.076
-557.471	31.126	-0.277	-0.240
-556.456	-200.000	-0.007	-0.284
-555.442	13.073	-0.343	-0.268
-554.427	-200.000	0.048	0.227
-553.412	396.391	0.059	-0.125
-552.398	106.678	-0.224	0.268
-551.383	178.804	-0.089	0.131
-550.369	688.242	0.087	-0.228
-549.354	-101.934	-0.106	0.026
-548.339	300.467	-0.093	0.173
-547.325	-91.845	-0.139	0.040
-546.310	-200.000	-0.002	-0.267
-545.296	-200.000	0.033	0.213
-544.281	-41.680	0.196	0.102
-543.266	-131.814	0.124	-0.016
-542.252	128.368	0.220	0.282
-541.237	800.000	0.022	0.069
-540.223	-93.914	0.231	0.064
-539.208	-61.128	-0.277	-0.118
-538.193	800.000	-0.017	-0.058
-537.179	800.000	0.045	-0.158
-536.164	238.458	0.109	-0.183
-535.150	151.209	0.159	0.219
-534.135	67.624	0.245	0.252
-533.121	-41.743	-0.080	0.042
-532.106	127.510	0.069	-0.089
-531.091	207.082	0.126	-0.198
-530.077	-103.224	0.257	0.061
-529.062	785.801	-0.066	-0.183
-528.048	-117.709	-0.332	0.060
-527.033	-172.383	-0.100	-0.003
-526.018	-86.725	0.281	-0.087
-525.004	800.000	0.036	0.106
-523.989	602.273	-0.047	-0.117
-522.975	215.487	-0.098	0.157
-521.960	800.000	0.039	-0.167
-520.945	-31.886	0.311	0.175
-519.931	-114.712	0.110	0.021
-518.916	-200.000	-0.023	-0.144
-517.902	170.315	-0.139	-0.201
-516.887	-108.253	0.199	0.043
-515.872	-200.000	0.048	0.243
-514.858	-72.981	-0.214	-0.079
-513.843	-4.950	-0.139	0.096
-512.829	-93.413	0.134	-0.037
-511.814	8.301	0.066	0.050
-510.799	-200.000	0.028	-0.146
-509.785	-46.381	0.156	-0.077
-508.770	-200.000	0.051	0.286
-507.756	442.176	0.110	0.241
-506.741	-138.167	-0.166	-0.018
-505.726	45.897	0.221	0.206
-504.712	-85.501	0.191	0.060
-503.697	-200.000	0.008	0.112
-502.683	373.281	0.035	0.072
-501.668	410.002	-0.083	0.177
-500.653	800.000	-0.062	-0.186
-499.639	64.974	-0.186	-0.189
-498.624	247.449	-0.113	-0.192
-497.610	-200.000	0.019	-0.172
-496.595	-43.999	0.248	-0.126
-495.581	786.725	0.073	-0.202
-494.566	17.672	0.054	-0.043
-493.551	174.966	-0.114	0.165
-492.537	-146.594	-0.133	0.012
-491.522	-60.510	0.136	-0.058
-490.508	332.736	0.047	0.091
-489.493	-197.564	-0.202	-0.001
-488.478	490.499	-0.071	-0.164
-487.464	-200.000	-0.021	0.271
-486.449	-150.954	-0.073	0.006
-485.435	-88.645	0.047	-0.014
-484.420	-149.002	-0.127	0.010
-483.405	189.091	0.129	-0.195
-482.391	-174.656	0.149	-0.004
-481.376	-66.100	0.048	0.019
-480.362	-39.479	-0.195	0.103
-479.347	-200.000	-0.052	-0.250
-478.332	-12.671	0.200	0.131
-477.318	365.860	0.099	0.201
-476.303	-183.978	-0.208	-0.004
-475.289	-111.429	0.200	0.041
-474.274	-80.747	-0.214	0.072
-473.259	662.383	0.121	0.313
-472.245	800.000	-0.045	-0.175
-471.230	-123.854	-0.281	-0.045
-470.216	187.666	-0.147	0.221
-469.201	51.588	-0.189	-0.180
-468.186	349.599	-0.066	-0.131
-467.172	379.084	-0.020	0.042
-466.157	-95.254	-0.116	0.031
-465.143	209.868	0.030	-0.048
-464.128	41.968	-0.424	0.386
-463.113	-79.617	-0.091	0.031
-462.099	-200.000	0.021	-0.095
-461.084	238.117	-0.136	-0.227
-460.070	71.012	-0.099	-0.103
-459.055	131.370	-0.063	-0.081
-458.040	338.594	-0.016	-0.032
-457.026	-51.327	-0.284	0.133
-456.011	212.139	-0.107	-0.169
-454.997	24.276	0.338	0.280
-453.982	-55.033	0.217	-0.098
-452.968	-88.507	-0.277	0.083
-451.953	-169.077	0.148	0.006
-450.938	-45.764	-0.108	-0.053
-449.924	-141.994	0.239	0.024
-448.909	8.711	0.199	-0.151
-447.895	-200.000	0.006	-0.253
-446.880	-129.030	0.128	-0.018
-445.865	800.000	0.034	-0.123
-444.851	-145.085	-0.261	0.024
-443.836	-200.000	0.031	0.307
-442.822	-42.066	0.153	-0.079
-441.807	-200.000	-0.006	0.106
-440.792	79.977	-0.295	-0.319
-439.778	253.495	0.108	0.185
-438.763	42.671	0.234	-0.214
-437.749	-148.491	0.135	-0.011
-436.734	-61.452	-0.213	0.090
-435.719	419.747	0.136	-0.292
-434.705	-200.000	-0.006	0.150
-433.690	-200.000	0.156	0.001
-432.676	-200.000	-0.005	0.315
-431.661	800.000	-0.059	0.229
-430.646	-200.000	0.001	0.011
-429.632	-200.000	0.011	0.252
-428.617	-38.376	-0.212	0.113
-427.603	160.904	0.114	-0.160
-426.588	-200.000	0.012	0.358
-425.573	-101.838	-0.135	-0.033
-424.559	-200.000	-0.014	-0.390
-423.544	-200.000	0.023	0.348
-422.530	-200.000	0.001	-0.162
-421.515	210.512	0.042	0.066
-420.500	800.000	-0.080	0.297
-419.486	-200.000	-0.023	-0.195
-418.471	206.637	-0.136	0.213
-417.457	301.775	0.096	-0.178
-416.442	-61.414	0.120	-0.051
-415.428	488.492	0.104	0.239
-414.413	800.000	0.051	0.184
-413.398	147.141	-0.113	0.153
-412.384	13.260	0.094	-0.073
-411.369	-26.022	-0.200	-0.118
-410.355	800.000	0.023	0.075
-409.340	-136.251	-0.127	0.015
-408.325	-144.289	-0.455	0.042
-407.311	-84.868	0.227	-0.071
-406.296	-200.000	-0.000	0.275
-405.282	309.758	-0.124	0.233
-404.267	235.222	-0.203	0.336
-403.252	-118.772	-0.236	-0.042
-402.238	-200.000	-0.024	0.279
-401.223	-6.805	-0.125	-0.085
-400.209	-200.000	-0.013	0.254
-399.194	-58.346	0.180	-0.078
-398.179	170.535	-0.069	-0.098
-397.165	-91.375	-0.068	0.019
-396.150	-186.090	0.248	0.004
-395.136	-81.751	-0.566	-0.186
-394.121	-200.000	0.008	-0.245
-393.106	-200.000	-0.044	-0.398
-392.092	-200.000	0.035	-0.187
-391.077	800.000	-0.070	-0.236
-390.063	-123.990	0.207	-0.033
-389.048	-200.000	-0.026	-0.202
-388.033	19.889	-0.151	0.122
-387.019	800.000	0.037	-0.141
-386.004	-44.405	-0.302	0.151
-384.990	80.117	0.107	-0.116
-383.975	77.291	-0.089	0.095
-382.960	-155.340	-0.243	0.016
-381.946	-35.295	0.292	-0.159
-380.931	-66.247	-0.101	-0.040
-379.917	160.228	-0.104	-0.146
-378.902	617.984	0.075	0.188
-377.888	-17.984	0.248	-0.156
-376.873	-59.264	0.087	0.038
-375.858	286.226	0.100	-0.181
-374.844	-7.327	-0.232	0.158
-373.829	151.780	-0.189	-0.258
-372.815	7.958	0.070	0.052
-371.800	-23.151	0.203	0.122
-370.785	-159.295	0.517	-0.029
-369.771	636.340	0.048	0.123
-368.756	97.465	-0.190	-0.218
-367.742	-57.509	0.364	-0.160
-366.727	244.641	0.028	0.046
-365.712	4.479	-0.168	-0.124
-364.698	37.671	-0.154	-0.137
-363.683	-200.000	-0.029	0.401
-362.669	71.882	0.371	-0.386
-361.654	-62.802	-0.140	0.058
-360.639	-5.561	0.180	0.124
-359.625	-200.000	-0.021	0.219
-358.610	-135.103	-0.326	-0.039
-357.596	13.553	0.364	-0.283
-356.581	-106.739	-0.237	-0.053
-355.566	-200.000	-0.005	-0.035
-354.552	20.726	0.275	-0.223
-353.537	-31.430	-0.287	-0.162
-352.523	-200.000	0.000	-0.230
-351.508	800.000	0.042	-0.131
-350.493	-105.459	0.263	0.060
-349.479	320.092	0.108	-0.205
-348.464	-26.083	0.539	-0.317
-347.450	77.950	0.320	0.341
-346.435	-39.035	0.140	-0.074
-345.420	800.000	-0.026	-0.075
-344.406	-129.550	-0.238	-0.033
-343.391	263.584	0.038	0.066
-342.377	-57.125	0.372	-0.164
-341.362	-94.229	-0.127	0.035
-340.348	-200.000	-0.097	0.454
-339.333	324.522	0.096	-0.184
-338.318	36.698	-0.106	0.094
-337.304	117.433	-0.167	-0.205
-336.289	-69.377	-0.255	0.098
-335.275	131.924	0.036	-0.046
-334.260	800.000	0.041	-0.143
-333.245	185.144	0.100	0.148
-332.231	800.000	-0.024	-0.091
-331.216	221.177	0.143	-0.229
-330.202	-124.103	-0.082	-0.013
-329.187	-46.863	-0.204	0.100
-328.172	-126.314	0.301	-0.045
-327.158	-118.657	-0.131	-0.023
-326.143	409.474	0.089	-0.189
-325.129	-161.310	-0.104	-0.005
-324.114	-103.146	-0.220	0.052
-323.099	-110.357	0.202	-0.042
-322.085	64.355	0.164	-0.165
-321.070	86.221	0.235	0.258
-320.056	800.000	-0.020	0.056
-319.041	83.397	-0.178	0.194
-318.026	75.541	-0.095	0.100
-317.012	665.277	0.029	0.075
-315.997	-200.000	-0.002	0.068
-314.983	-51.473	-0.312	-0.146
-313.968	-200.000	-0.028	0.174
-312.953	225.408	0.174	-0.282
-311.939	137.119	-0.060	0.079
-310.924	176.952	0.093	-0.135
-309.910	-200.000	0.004	0.122
-308.895	-200.000	0.000	0.049
-307.880	-150.533	-0.226	-0.017
-306.866	-200.000	0.019	0.242
-305.851	-112.255	-0.234	-0.047
-304.837	54.367	-0.242	0.232
-303.822	-94.245	0.128	-0.035
-302.807	-86.193	0.160	0.049
-301.793	-200.000	-0.049	0.318
-300.778	128.921	-0.115	-0.147
-299.764	361.849	-0.154	-0.307
-298.749	-200.000	-0.017	-0.098
-297.735	-131.899	0.119	0.015
-296.720	226.843	-0.094	0.153
-295.705	-200.000	-0.057	0.428
-294.691	800.000	0.086	0.277
-293.676	224.018	-0.109	-0.176
-292.662	-46.500	-0.332	0.162
-291.647	153.373	0.058	0.079
-290.632	-200.000	0.047	0.246
-289.618	62.230	0.208	-0.207
-288.603	95.214	0.361	-0.411
-287.589	234.496	-0.055	0.090
-286.574	-200.000	-0.035	-0.343
-285.559	-200.000	-0.061	-0.275
-284.545	198.523	-0.240	-0.366
-283.530	-144.286	0.226	-0.021
-282.516	-60.019	-0.126	0.053
-281.501	-146.359	-0.211	0.018
-280.486	66.320	-0.204	0.207
-279.472	-200.000	0.014	0.075
-278.457	-148.077	0.238	-0.020
-277.443	567.542	-0.092	0.224
-276.428	800.000	-0.061	0.258
-275.413	149.361	-0.139	0.187
-274.399	800.000	0.084	-0.350
-273.384	306.516	0.072	-0.134
-272.370	-42.410	0.236	0.120
-271.355	-87.869	0.187	-0.056
-270.340	-200.000	-0.033	-0.166
-269.326	-200.000	0.026	0.135
-268.311	-200.000	0.006	-0.169
-267.297	13.962	-0.082	-0.063
-266.282	137.751	0.162	-0.212
-265.267	-200.000	-0.001	0.240
-264.253	-115.408	-0.139	0.026
-263.238	210.899	-0.158	-0.248
-262.224	-49.333	-0.215	-0.102
-261.209	-35.086	-0.282	0.153
-260.195	-105.744	-0.139	0.031
-259.180	-78.522	0.262	-0.089
-258.165	-200.000	-0.062	0.377
-257.151	399.038	-0.111	-0.232
-256.136	-173.462	-0.161	0.005
-255.122	55.921	0.170	0.164
-254.107	-179.391	-0.219	-0.005
-253.092	187.045	-0.090	0.134
-252.078	-168.011	0.287	-0.011
-251.063	-40.170	-0.096	0.050
-250.049	12.874	-0.150	0.115
-249.034	-113.566	-0.462	-0.090
-248.019	-100.477	0.026	0.006
-247.005	-23.746	0.352	0.210
-245.990	-124.436	0.181	0.028
-244.976	-200.000	0.023	-0.152
-243.961	8.264	-0.132	0.099
-242.946	99.125	0.176	0.202
-241.932	-102.535	0.336	-0.080
-240.917	-1.442	-0.264	0.185
-239.903	-148.934	0.226	0.018
-238.888	282.003	0.186	-0.332
-237.873	-96.635	0.204	-0.054
-236.859	204.905	-0.069	0.106
-235.844	579.761	0.099	-0.241
-234.830	800.000	-0.083	0.252
-233.815	-4.140	0.226	-0.156
-232.800	504.685	0.172	0.397
-231.786	-78.985	0.275	-0.093
-230.771	800.000	-0.078	-0.248
-229.757	-200.000	0.014	0.126
-228.742	-128.385	0.216	0.031
-227.727	34.307	-0.120	0.104
-226.713	79.507	-0.136	0.145
-225.698	-174.583	-0.207	0.006
-224.684	-200.000	0.052	-0.268
-223.669	800.000	0.065	0.268
-222.655	-93.291	0.137	0.038
-221.640	84.060	-0.297	-0.323
-220.625	124.336	-0.250	0.313
-219.611	-102.631	0.075	0.018
-218.596	800.000	-0.112	-0.323
-217.582	-88.797	0.187	-0.055
-216.567	-45.836	-0.210	0.103
-215.552	254.487	0.084	-0.143
-214.538	800.000	0.114	0.455
-213.523	-200.000	0.019	0.125
-212.509	236.653	0.069	-0.114
-211.494	-200.000	-0.004	0.494
-210.479	-154.669	-0.364	0.024
-209.465	-200.000	-0.000	0.285
-208.450	-20.422	-0.195	-0.119
-207.436	183.307	-0.243	0.357
-206.421	80.702	0.067	0.072
-205.406	11.098	-0.098	-0.074
-204.392	271.376	-0.189	0.331
-203.377	782.792	0.097	0.265
-202.363	52.793	-0.224	-0.213
-201.348	-200.000	-0.047	-0.215
-200.333	67.812	0.098	-0.099
-199.319	10.446	0.166	0.125
-198.304	429.944	-0.147	0.317
-197.290	25.202	0.198	0.164
-196.275	141.769	-0.194	0.256
-195.260	-147.124	-0.289	0.025
-194.246	-32.527	-0.140	0.077
-193.231	-110.440	0.329	0.068
-192.217	-159.219	-0.176	0.010
-191.202	-200.000	-0.001	0.400
-190.187	-160.076	0.174	0.009
-189.173	-81.951	-0.175	0.057
-188.158	800.000	0.065	-0.235
-187.144	-53.183	0.327	-0.149
-186.129	87.750	0.182	-0.200
-185.114	371.892	0.045	0.091
-184.100	105.297	0.161	-0.189
-183.085	143.426	0.132	0.175
-182.071	244.379	0.185	0.310
-181.056	800.000	0.013	0.052
-180.042	800.000	0.035	0.114
-179.027	-119.850	0.307	-0.053
-178.012	-37.125	0.085	-0.045
-176.998	-64.558	0.135	-0.054
-175.983	73.074	-0.129	-0.134
-174.969	-13.795	0.261	-0.167
-173.954	293.114	0.098	0.177
-172.939	69.838	-0.117	-0.120
-171.925	-200.000	-0.031	-0.204
-170.910	-200.000	-0.071	0.368
-169.896	-132.213	0.157	0.020
-168.881	-53.464	-0.159	-0.072
-167.866	-100.185	-0.206	0.051
-166.852	205.537	-0.191	-0.294
-165.837	-200.000	0.025	0.333
-164.823	37.618	-0.142	0.125
-163.808	95.264	-0.025	-0.029
-162.793	-129.209	-0.069	-0.010
-161.779	800.000	0.032	0.112
-160.764	-1.912	-0.067	-0.047
-159.750	-101.473	0.387	0.093
-158.735	-17.232	0.037	-0.023
-157.720	-86.666	0.171	0.052
-156.706	-63.439	0.196	0.080
-155.691	-200.000	-0.023	0.192
-154.677	-200.000	-0.007	0.254
-153.662	-121.751	0.301	-0.049
-152.647	27.974	0.209	0.175
-151.633	-37.562	0.134	-0.071
-150.618	90.681	0.131	-0.146
-149.604	-94.223	0.154	-0.042
-148.589	-125.837	0.019	0.003
-147.574	106.055	-0.261	0.306
-146.560	136.203	0.114	0.148
-145.545	198.626	0.154	0.234
-144.531	-200.000	0.010	-0.217
-143.516	-164.740	-0.301	-0.013
-142.502	33.360	0.186	0.160
-141.487	800.000	0.138	0.540
-140.472	800.000	-0.060	-0.205
-139.458	88.949	-0.070	0.077
-138.443	458.968	0.159	0.350
-137.429	-140.028	0.279	0.029
-136.414	-21.904	0.289	-0.174
-135.399	283.644	-0.068	0.122
-134.385	-162.854	-0.149	-0.007
-133.370	800.000	0.006	-0.020
-132.356	-122.203	0.205	0.033
-131.341	800.000	-0.080	0.290
-130.326	-119.881	0.323	-0.055
-129.312	-82.724	0.224	-0.072
-128.297	-188.194	0.170	-0.002
-127.283	-134.634	0.105	-0.013
-126.268	612.248	0.031	-0.077
-125.253	-17.301	-0.424	-0.265
-124.239	-192.575	-0.348	0.003
-123.224	800.000	-0.067	-0.199
-122.210	-200.000	-0.014	-0.258
