DTS Sentinel unit serial number:	SN413079Multiplexer serial number:	ORYXHardware model number:	OX4-SRSoftware version number:	ORYX F/W v4.00 Oryx Data Collector v3.7.2.0data status	okinstallation	princeton_trtdifferential loss correction	single-endedforward channel	channel 3reverse channel	N/Adate	2019/09/11time	17:54:11forward acquisition time	60.00reverse acquisition time	0.00gamma	496.2192k internal	0.2286k external	0.2286temperature offset calibration	0.9993default loss term (dB/km)	0.3790temperature slope calibration	1.0000multiplexer offset coefficient	1.0000multiplexer slope coefficient	1.0000fibre end	0.00T internal ref (°C)	44.00T ext. ref 1 (°C)	1.13T ext. ref 2 (°C)	38.95length (m)	temperature (°C)	Stokes	anti-Stokes-747.200	-2.120	0.080	0.058
-746.185	144.068	0.216	0.296
-745.171	219.435	-0.061	-0.101
-744.156	-62.397	-0.464	-0.198
-743.142	-17.294	-0.025	-0.016
-742.127	400.401	0.121	0.261
-741.112	139.727	0.122	0.164
-740.098	800.000	-0.112	0.427
-739.083	800.000	-0.057	0.183
-738.069	-200.000	-0.007	-0.216
-737.054	432.443	0.109	0.242
-736.039	76.250	-0.280	0.304
-735.025	14.147	0.262	0.210
-734.010	35.152	0.198	-0.178
-732.996	36.714	-0.156	-0.141
-731.981	-12.434	0.066	0.044
-730.966	-142.838	0.146	-0.015
-729.952	-158.894	-0.048	0.003
-728.937	-2.667	0.164	-0.118
-727.923	269.947	-0.056	0.102
-726.908	-200.000	0.001	0.338
-725.894	-200.000	-0.010	0.127
-724.879	800.000	-0.071	-0.203
-723.864	-137.756	-0.044	-0.005
-722.850	-89.029	0.284	-0.086
-721.835	-40.491	0.234	-0.124
-720.821	117.419	-0.113	0.143
-719.806	-84.658	-0.105	0.034
-718.791	268.123	0.157	-0.282
-717.777	-69.811	0.232	0.091
-716.762	-200.000	-0.017	0.197
-715.748	41.585	0.186	0.172
-714.733	-200.000	-0.016	0.168
-713.718	77.770	-0.179	0.195
-712.704	126.906	0.142	-0.184
-711.689	800.000	0.024	0.070
-710.675	-74.866	0.191	-0.070
-709.660	-200.000	-0.002	-0.197
-708.645	10.217	0.108	-0.084
-707.631	800.000	0.069	-0.282
-706.616	800.000	-0.119	-0.360
-705.602	-89.684	0.090	-0.027
-704.587	122.523	-0.047	-0.061
-703.572	-2.659	-0.305	0.219
-702.558	-200.000	0.006	-0.091
-701.543	12.538	0.255	0.202
-700.529	-144.069	0.161	-0.015
-699.514	89.998	0.194	0.222
-698.499	800.000	-0.121	-0.343
-697.485	-200.000	0.054	-0.340
-696.470	-200.000	-0.028	-0.160
-695.456	-200.000	-0.012	0.162
-694.441	-141.544	-0.486	-0.050
-693.426	603.137	-0.087	-0.221
-692.412	229.403	-0.112	0.187
-691.397	37.769	-0.136	-0.124
-690.383	240.829	-0.122	-0.208
-689.368	107.922	-0.206	-0.251
-688.354	771.290	-0.024	-0.066
-687.339	-174.751	0.195	0.006
-686.324	-200.000	0.107	0.482
-685.310	516.409	-0.083	-0.198
-684.295	-200.000	0.009	-0.058
-683.281	800.000	0.039	0.148
-682.266	-200.000	-0.012	-0.177
-681.251	296.524	-0.063	0.118
-680.237	-127.194	-0.147	-0.022
-679.222	-200.000	-0.021	-0.166
-678.208	-131.978	0.131	0.018
-677.193	220.683	-0.179	-0.294
-676.178	-200.000	-0.081	-0.367
-675.164	-127.934	0.251	0.037
-674.149	-200.000	0.046	-0.228
-673.135	415.216	0.195	-0.425
-672.120	120.386	0.137	-0.174
-671.105	384.242	-0.265	-0.559
-670.091	-5.438	-0.184	-0.129
-669.076	-194.763	0.166	-0.001
-668.062	-100.847	0.299	-0.075
-667.047	49.456	-0.372	-0.358
-666.032	-10.777	0.046	0.031
-665.018	-122.401	0.243	0.041
-664.003	-200.000	0.052	-0.247
-662.989	-200.000	-0.012	-0.177
-661.974	-155.384	0.069	-0.005
-660.959	-65.003	-0.134	-0.055
-659.945	-36.948	-0.232	-0.127
-658.930	-200.000	-0.161	-0.000
-657.916	-11.588	-0.251	-0.169
-656.901	387.963	0.109	-0.232
-655.886	53.815	0.197	-0.194
-654.872	32.013	-0.060	-0.053
-653.857	-37.431	-0.389	-0.212
-652.843	-123.906	0.039	0.006
-651.828	22.839	0.030	0.025
-650.814	-200.000	0.005	0.195
-649.799	59.818	0.119	0.120
-648.784	154.642	0.028	0.040
-647.770	-117.425	0.116	0.022
-646.755	-133.132	0.186	0.024
-645.741	60.987	0.282	0.286
-644.726	-140.273	0.101	-0.011
-643.711	800.000	0.102	0.304
-642.697	211.977	-0.277	-0.446
-641.682	800.000	-0.038	0.151
-640.668	50.064	-0.126	0.122
-639.653	753.125	0.094	-0.260
-638.638	-200.000	-0.004	-0.258
-637.624	88.510	0.109	0.124
-636.609	800.000	0.037	0.115
-635.595	45.745	-0.162	0.153
-634.580	42.653	-0.092	-0.085
-633.565	144.608	-0.114	-0.156
-632.551	44.167	0.266	0.250
-631.536	-47.389	0.287	0.143
-630.522	-200.000	0.094	0.422
-629.507	45.126	-0.133	-0.125
-628.492	-145.326	0.087	-0.008
-627.478	800.000	0.092	0.266
-626.463	-48.781	-0.115	-0.057
-625.449	-97.562	0.092	0.024
-624.434	-200.000	-0.020	0.113
-623.419	47.984	-0.090	-0.085
-622.405	99.630	-0.061	0.072
-621.390	800.000	0.046	-0.175
-620.376	-181.532	0.268	-0.005
-619.361	-47.945	-0.094	0.047
-618.346	-57.945	0.371	0.165
-617.332	17.673	-0.252	-0.204
-616.317	27.265	-0.146	-0.125
-615.303	235.517	-0.130	-0.220
-614.288	23.996	-0.352	-0.296
-613.273	-200.000	-0.053	0.257
-612.259	57.914	0.164	0.164
-611.244	-86.926	0.110	-0.034
-610.230	-107.468	0.205	0.046
-609.215	-200.000	-0.073	-0.383
-608.201	28.040	-0.123	-0.106
-607.186	-61.139	-0.205	-0.088
-606.171	295.437	-0.113	-0.212
-605.157	800.000	-0.056	-0.196
-604.142	800.000	0.070	0.302
-603.128	-200.000	0.021	0.112
-602.113	146.297	0.097	-0.132
-601.098	25.126	0.224	-0.189
-600.084	-48.327	-0.028	0.014
-599.069	220.589	-0.147	-0.240
-598.055	-2.472	0.460	-0.329
-597.040	77.303	0.313	-0.340
-596.025	235.528	-0.038	0.065
-595.011	800.000	-0.051	-0.178
-593.996	-10.467	-0.223	0.151
-592.982	61.583	-0.192	-0.195
-591.967	-61.410	0.303	0.130
-590.952	-63.767	-0.485	0.203
-589.938	-93.008	-0.495	-0.141
-588.923	391.913	-0.126	-0.266
-587.909	-181.945	0.222	-0.004
-586.894	190.175	0.051	0.078
-585.879	2.497	0.185	0.137
-584.865	800.000	-0.069	0.268
-583.850	293.083	0.191	0.355
-582.836	478.293	-0.119	-0.274
-581.821	-19.705	0.056	0.035
-580.806	-133.357	0.321	0.041
-579.792	88.585	-0.102	-0.116
-578.777	800.000	-0.043	-0.176
-577.763	-200.000	0.039	-0.248
-576.748	800.000	-0.088	0.279
-575.733	26.045	0.228	-0.194
-574.719	-137.589	0.395	-0.045
-573.704	14.300	-0.056	-0.044
-572.690	-130.298	-0.152	0.021
-571.675	-200.000	0.032	-0.224
-570.661	-113.203	0.188	-0.038
-569.646	-200.000	-0.037	-0.190
-568.631	-53.513	-0.221	0.103
-567.617	-120.289	0.137	0.024
-566.602	-145.953	0.182	-0.016
-565.588	-94.332	-0.281	0.078
-564.573	105.708	0.249	-0.300
-563.558	130.501	0.121	0.158
-562.544	-48.830	0.240	-0.117
-561.529	140.090	-0.085	0.114
-560.515	-51.207	0.253	0.121
-559.500	-35.636	-0.477	0.263
-558.485	56.791	-0.084	-0.084
-557.471	57.853	-0.145	0.145
-556.456	-79.093	0.332	0.115
-555.442	-77.617	-0.446	-0.158
-554.427	-200.000	0.008	0.089
-553.412	-200.000	-0.051	-0.257
-552.398	800.000	0.074	-0.328
-551.383	365.655	-0.158	0.325
-550.369	288.063	-0.109	0.201
-549.354	75.889	0.157	-0.169
-548.339	279.762	-0.230	-0.418
-547.325	-200.000	-0.066	-0.335
-546.310	76.493	-0.238	-0.257
-545.296	-140.584	-0.096	0.010
-544.281	160.529	-0.096	0.136
-543.266	17.733	0.161	-0.130
-542.252	-87.751	0.317	-0.097
-541.237	99.949	0.145	0.171
-540.223	-123.348	-0.251	-0.041
-539.208	31.477	0.066	-0.058
-538.193	28.149	-0.050	-0.043
-537.179	-23.589	0.178	-0.109
-536.164	-54.104	-0.099	-0.046
-535.150	-2.896	-0.131	-0.093
-534.135	167.032	-0.153	0.221
-533.121	-200.000	0.025	0.205
-532.106	141.360	0.239	-0.322
-531.091	210.125	0.208	0.333
-530.077	21.010	-0.279	-0.230
-529.062	800.000	-0.105	0.341
-528.048	78.546	0.147	0.159
-527.033	122.011	0.043	-0.055
-526.018	8.963	-0.130	0.100
-525.004	446.947	-0.047	0.104
-523.989	695.701	-0.133	0.356
-522.975	-200.000	0.043	0.297
-521.960	98.219	0.216	-0.254
-520.945	-59.603	0.140	0.061
-519.931	-8.234	0.215	0.147
-518.916	-62.492	-0.266	-0.112
-517.902	-200.000	0.010	0.088
-516.887	-143.117	0.050	0.005
-515.872	749.992	-0.051	0.141
-514.858	-200.000	0.008	-0.055
-513.843	800.000	-0.034	-0.117
-512.829	800.000	0.127	0.412
-511.814	800.000	-0.098	0.307
-510.799	-144.542	-0.222	-0.021
-509.785	398.561	0.134	0.285
-508.770	-19.133	0.282	-0.178
-507.756	-0.372	-0.084	-0.061
-506.741	91.489	-0.068	-0.077
-505.726	-136.933	0.169	-0.020
-504.712	445.882	-0.161	-0.359
-503.697	-61.260	0.107	-0.046
-502.683	-150.678	-0.297	-0.023
-501.668	800.000	-0.071	0.252
-500.653	-79.937	-0.089	-0.031
-499.639	81.679	-0.112	-0.123
-498.624	-76.017	0.466	0.168
-497.610	-118.602	0.114	0.020
-496.595	431.562	-0.045	-0.098
-495.581	-200.000	-0.018	0.242
-494.566	18.893	-0.079	0.064
-493.551	208.228	0.144	-0.229
-492.537	99.387	0.158	-0.186
-491.522	491.591	-0.042	0.098
-490.508	-96.560	-0.284	0.076
-489.493	800.000	0.088	-0.261
-488.478	-59.169	-0.301	0.132
-487.464	-200.000	0.000	-0.122
-486.449	30.701	-0.135	0.118
-485.435	-66.098	0.132	-0.053
-484.420	405.078	-0.085	0.181
-483.405	223.999	-0.106	0.175
-482.391	-144.739	0.168	0.016
-481.376	-57.595	0.238	0.106
-480.362	-31.491	-0.269	-0.154
-479.347	800.000	0.012	-0.045
-478.332	-1.277	-0.043	-0.031
-477.318	-68.366	-0.267	0.105
-476.303	-200.000	-0.047	-0.322
-475.289	-200.000	0.066	0.341
-474.274	4.069	0.082	-0.061
-473.259	236.304	0.077	-0.130
-472.245	97.162	0.249	0.290
-471.230	-55.522	0.363	-0.165
-470.216	-200.000	0.024	-0.287
-469.201	431.837	0.036	-0.080
-468.186	-94.045	0.101	-0.028
-467.172	70.161	-0.266	0.279
-466.157	-200.000	0.001	-0.198
-465.143	379.311	-0.096	0.199
-464.128	606.493	0.071	0.180
-463.113	-200.000	-0.054	0.393
-462.099	-112.509	-0.245	0.050
-461.084	-200.000	0.059	-0.280
-460.070	-48.762	-0.076	-0.037
-459.055	-200.000	0.026	-0.303
-458.040	180.232	0.156	-0.232
-457.026	-14.373	0.064	-0.042
-456.011	-117.075	-0.073	0.014
-454.997	190.867	-0.116	0.177
-453.982	-131.321	-0.386	0.052
-452.968	231.123	0.045	0.074
-451.953	-200.000	-0.077	-0.409
-450.938	-22.659	-0.202	0.124
-449.924	133.731	0.148	0.194
-448.909	-16.444	0.200	-0.129
-447.895	191.466	0.063	-0.096
-446.880	90.638	-0.123	0.139
-445.865	-132.025	-0.158	0.021
-444.851	-54.567	0.289	-0.133
-443.836	127.764	-0.174	-0.225
-442.822	-189.032	-0.195	0.002
-441.807	275.699	-0.165	-0.297
-440.792	-151.937	-0.208	-0.015
-439.778	98.627	0.112	0.131
-438.763	-51.729	-0.330	0.156
-437.749	-148.811	-0.179	0.015
-436.734	-108.686	0.113	-0.025
-435.719	-165.279	0.392	0.018
-434.705	75.093	0.114	-0.121
-433.690	-34.932	0.158	0.087
-432.676	-46.030	-0.123	0.062
-431.661	-25.895	0.191	0.114
-430.646	28.843	0.148	0.127
-429.632	-1.797	-0.295	0.210
-428.617	235.376	-0.065	-0.109
-427.603	-200.000	0.007	-0.545
-426.588	-83.232	-0.119	0.039
-425.573	-200.000	0.012	-0.143
-424.559	527.255	0.064	0.152
-423.544	21.512	0.218	0.179
-422.530	-147.890	0.465	-0.039
-421.515	-68.374	-0.170	0.067
-420.500	-79.075	0.047	0.016
-419.486	-112.938	0.317	-0.063
-418.471	121.699	0.065	-0.082
-417.457	-46.062	-0.301	0.150
-416.442	-48.871	0.070	0.034
-415.428	57.452	0.225	-0.223
-414.413	-108.653	0.112	-0.024
-413.398	-200.000	0.009	0.120
-412.384	800.000	-0.024	0.087
-411.369	800.000	0.048	-0.188
-410.355	-15.507	0.075	-0.048
-409.340	135.462	-0.148	0.196
-408.325	-91.990	0.138	0.039
-407.311	122.350	-0.179	0.226
-406.296	393.940	0.127	0.267
-405.282	13.800	-0.127	-0.100
-404.267	-57.649	0.020	0.009
-403.252	13.804	-0.112	0.088
-402.238	-200.000	-0.030	0.283
-401.223	23.037	-0.181	0.151
-400.209	-200.000	0.040	0.181
-399.194	0.163	-0.113	-0.082
-398.179	-200.000	0.008	-0.049
-397.165	-94.014	-0.011	0.003
-396.150	-41.139	0.127	0.066
-395.136	198.191	-0.041	-0.064
-394.121	553.597	-0.094	0.230
-393.106	218.901	-0.106	-0.172
-392.092	-146.277	0.110	0.010
-391.077	-200.000	-0.031	0.212
-390.063	-158.716	-0.302	-0.018
-389.048	-62.774	0.218	0.092
-388.033	182.576	-0.244	-0.365
-387.019	-52.213	-0.142	0.067
-386.004	-22.590	-0.210	-0.129
-384.990	45.354	0.194	0.181
-383.975	-200.000	-0.004	0.146
-382.960	-200.000	-0.030	0.150
-381.946	-10.712	0.040	0.027
-380.931	-116.302	0.332	-0.062
-379.917	189.704	-0.049	-0.075
-378.902	17.615	0.326	0.262
-377.888	143.095	0.170	-0.228
-376.873	6.132	-0.167	-0.125
-375.858	-100.605	0.313	-0.078
-374.844	-20.433	0.044	0.027
-373.829	234.890	-0.060	0.100
-372.815	-22.336	-0.349	0.214
-371.800	210.722	-0.120	0.191
-370.785	202.865	-0.110	-0.172
-369.771	-117.943	-0.257	-0.047
-368.756	800.000	0.143	-0.450
-367.742	-55.616	0.090	0.041
-366.727	800.000	0.051	-0.192
-365.712	-200.000	0.005	-0.078
-364.698	-157.518	-0.240	0.015
-363.683	800.000	-0.040	0.160
-362.669	-35.147	-0.177	-0.097
-361.654	31.997	0.032	0.028
-360.639	152.407	-0.092	0.128
-359.625	800.000	-0.032	0.116
-358.610	-75.554	-0.172	0.062
-357.596	-200.000	-0.011	0.201
-356.581	6.796	-0.082	-0.062
-355.566	219.473	0.074	-0.119
-354.552	-79.092	0.306	-0.105
-353.537	99.270	-0.096	0.113
-352.523	-22.272	0.109	0.067
-351.508	800.000	-0.030	0.101
-350.493	210.829	-0.112	0.179
-349.479	800.000	-0.009	0.025
-348.464	-200.000	-0.002	-0.013
-347.450	221.269	0.217	0.352
-346.435	-123.620	0.175	-0.028
-345.420	800.000	-0.034	0.102
-344.406	102.163	-0.039	-0.046
-343.391	-126.933	-0.185	0.027
-342.377	-118.104	0.094	-0.017
-341.362	57.214	-0.273	0.269
-340.348	-163.123	-0.152	-0.007
-339.333	-200.000	-0.007	0.270
-338.318	23.486	0.131	-0.108
-337.304	281.047	0.143	-0.259
-336.289	-69.698	-0.486	0.188
-335.275	-200.000	-0.039	-0.179
-334.260	-163.320	-0.267	0.013
-333.245	-200.000	0.037	0.178
-332.231	-200.000	0.014	0.099
-331.216	-106.942	-0.430	-0.096
-330.202	800.000	-0.024	0.075
-329.187	118.752	-0.137	0.170
-328.172	333.381	0.052	0.101
-327.158	-115.687	0.193	0.036
-326.143	-200.000	0.005	0.097
-325.129	-200.000	0.001	0.100
-324.114	-124.610	-0.259	0.041
-323.099	314.607	-0.017	0.031
-322.085	-46.605	0.111	0.055
-321.070	-182.183	0.267	0.005
-320.056	17.709	0.120	-0.097
-319.041	-142.043	-0.554	-0.056
-318.026	-200.000	0.076	-0.402
-317.012	-38.818	-0.184	0.098
-315.997	329.040	0.110	-0.213
-314.983	-126.761	-0.304	-0.045
-313.968	-96.778	0.258	0.069
-312.953	214.962	0.089	-0.142
-311.939	290.700	0.135	0.248
-310.924	44.505	0.292	0.270
-309.910	6.474	-0.174	0.131
-308.895	-200.000	0.005	0.087
-307.880	-132.918	0.279	-0.036
-306.866	93.259	0.113	-0.129
-305.851	-200.000	0.032	0.305
-304.837	217.606	0.131	0.210
-303.822	-200.000	-0.031	0.181
-302.807	598.655	-0.083	0.207
-301.793	146.816	0.070	0.094
-300.778	-70.117	0.270	-0.104
-299.764	-130.073	0.201	0.028
-298.749	293.254	-0.135	0.249
-297.735	-126.907	0.169	-0.025
-296.720	-118.741	-0.224	-0.040
-295.705	-126.403	0.264	0.040
-294.691	32.772	-0.252	0.220
-293.676	800.000	-0.110	0.367
-292.662	-44.776	0.012	-0.006
-291.647	800.000	0.023	-0.073
-290.632	-200.000	-0.050	-0.353
-289.618	116.398	-0.121	0.149
-288.603	215.000	0.086	-0.137
-287.589	66.326	0.353	-0.362
-286.574	-11.342	-0.231	-0.153
-285.559	-200.000	0.014	0.110
-284.545	105.893	0.265	0.316
-283.530	800.000	0.059	-0.226
-282.516	-200.000	-0.007	0.094
-281.501	40.810	0.096	-0.087
-280.486	21.740	-0.099	0.081
-279.472	800.000	-0.051	0.180
-278.457	114.361	-0.134	0.165
-277.443	245.074	-0.080	-0.135
-276.428	-39.972	-0.337	-0.177
-275.413	-51.343	0.204	0.096
-274.399	-55.998	0.389	-0.175
-273.384	-89.655	0.288	0.085
-272.370	-200.000	0.014	-0.094
-271.355	-25.774	-0.205	-0.122
-270.340	800.000	0.065	0.236
-269.326	28.916	0.067	-0.057
-268.311	543.619	0.173	0.415
-267.297	329.993	-0.121	0.235
-266.282	-37.616	0.225	-0.121
-265.267	-89.911	-0.342	0.101
-264.253	-104.021	-0.205	-0.048
-263.238	242.674	0.191	-0.323
-262.224	13.841	-0.311	-0.243
-261.209	-84.302	-0.190	0.061
-260.195	373.809	-0.091	0.186
-259.180	-200.000	-0.004	-0.134
-258.165	176.848	0.051	-0.075
-257.151	97.178	0.180	-0.208
-256.136	-189.528	-0.203	-0.002
-255.122	-14.892	0.144	0.093
-254.107	-200.000	0.023	-0.176
-253.092	-56.067	-0.242	-0.109
-252.078	79.438	-0.249	0.268
-251.063	-44.072	0.054	-0.027
-250.049	-40.829	-0.062	0.032
-249.034	-110.412	0.097	0.020
-248.019	-200.000	0.032	-0.549
-247.005	-200.000	0.022	-0.494
-245.990	277.005	-0.099	-0.176
-244.976	-80.765	-0.388	0.130
-243.961	247.428	-0.102	0.174
-242.946	23.207	0.089	0.073
-241.932	92.193	-0.051	-0.057
-240.917	800.000	-0.068	-0.225
-239.903	76.327	0.146	0.155
-238.888	73.443	-0.178	0.188
-237.873	-200.000	0.033	0.259
-236.859	126.969	0.037	-0.047
-235.844	-146.925	-0.148	0.013
-234.830	-148.319	-0.297	-0.025
-233.815	12.668	-0.119	0.093
-232.800	-200.000	0.081	-0.512
-231.786	-40.955	-0.080	0.041
-230.771	-200.000	0.009	0.180
-229.757	800.000	-0.050	-0.145
-228.742	642.418	-0.116	-0.297
-227.727	418.773	0.075	-0.161
-226.713	-137.605	0.248	0.028
-225.698	-191.661	-0.134	0.001
-224.684	-156.475	-0.038	0.002
-223.669	-24.758	0.193	-0.115
-222.655	-58.082	0.307	-0.135
-221.640	619.509	0.087	-0.221
-220.625	175.803	-0.205	0.299
-219.611	342.318	-0.108	-0.212
-218.596	-8.352	0.078	-0.053
-217.582	800.000	-0.059	-0.222
-216.567	800.000	0.061	-0.188
-215.552	-120.649	-0.384	0.065
-214.538	-200.000	-0.038	-0.198
-213.523	-157.305	0.066	0.004
-212.509	140.463	0.267	0.354
-211.494	-84.850	0.356	-0.112
-210.479	-200.000	0.016	0.183
-209.465	7.514	0.135	-0.101
-208.450	-114.350	-0.303	-0.059
-207.436	-148.142	-0.293	-0.024
-206.421	-134.519	0.114	0.014
-205.406	-200.000	0.024	-0.232
-204.392	-200.000	-0.061	-0.295
-203.377	221.893	0.279	0.450
-202.363	194.700	-0.075	-0.115
-201.348	-39.864	-0.303	-0.159
-200.333	-74.521	0.216	0.078
-199.319	-200.000	0.076	-0.351
-198.304	136.798	-0.215	0.283
-197.290	-137.355	-0.056	0.006
-196.275	-200.000	-0.011	0.320
-195.260	-90.796	0.060	-0.018
-194.246	-200.000	0.025	-0.410
-193.231	523.973	-0.047	-0.111
-192.217	-142.407	0.086	0.008
-191.202	12.423	0.125	-0.097
-190.187	104.598	0.089	-0.106
-189.173	61.329	-0.037	0.037
-188.158	97.901	0.031	-0.035
-187.144	85.461	0.074	-0.082
-186.129	-3.473	0.248	0.173
-185.114	-147.076	0.521	-0.045
-184.100	-53.451	0.169	-0.078
-183.085	-200.000	-0.009	0.179
-182.071	279.667	0.086	0.155
-181.056	-62.933	-0.277	0.115
-180.042	-121.883	0.031	0.005
-179.027	322.865	0.177	-0.339
-178.012	-39.808	0.143	0.075
-176.998	1.591	0.169	-0.122
-175.983	309.955	0.039	-0.072
-174.969	800.000	0.061	-0.200
-173.954	-6.794	-0.441	0.301
-172.939	-124.905	-0.300	0.046
-171.925	-200.000	0.004	0.020
-170.910	145.582	0.123	0.165
-169.896	-166.666	-0.246	0.010
-168.881	-29.740	-0.062	-0.035
-167.866	-200.000	0.002	-0.064
-166.852	-200.000	0.005	0.040
-165.837	156.110	-0.084	0.117
-164.823	58.596	0.330	0.325
-163.808	-200.000	0.002	-0.116
-162.793	-120.411	0.334	-0.057
-161.779	800.000	-0.040	0.124
-160.764	241.220	-0.027	-0.045
-159.750	-63.801	0.155	-0.064
-158.735	800.000	-0.092	-0.403
-157.720	490.610	0.193	0.444
-156.706	101.674	-0.107	0.125
-155.691	611.022	-0.111	-0.278
-154.677	-200.000	0.024	-0.437
-153.662	-48.048	-0.050	-0.024
-152.647	-0.308	0.177	-0.126
-151.633	15.643	0.185	0.146
-150.618	605.933	0.104	-0.259
-149.604	-107.005	0.066	0.015
-148.589	14.012	-0.235	-0.184
-147.574	-200.000	0.055	0.269
-146.560	-200.000	0.052	0.231
-145.545	-200.000	-0.017	0.097
-144.531	-200.000	-0.000	-0.187
-143.516	274.736	-0.041	0.073
-142.502	386.464	-0.049	0.101
-141.487	717.621	0.066	-0.177
-140.472	194.752	-0.110	0.167
-139.458	48.842	-0.254	0.239
-138.443	-200.000	-0.053	-0.251
-137.429	10.186	-0.219	0.167
-136.414	-103.346	-0.063	0.015
-135.399	-200.000	-0.001	0.410
-134.385	548.283	-0.090	0.216
-133.370	143.443	0.245	0.327
-132.356	-165.124	0.244	-0.011
-131.341	753.009	-0.150	-0.407
-130.326	231.981	0.134	0.220
-129.312	-108.659	0.217	0.047
-128.297	344.765	0.048	0.095
-127.283	-89.580	0.257	-0.075
-126.268	392.681	0.109	-0.227
-125.253	-200.000	-0.032	0.255
-124.239	169.680	-0.216	-0.309
-123.224	-105.066	0.137	0.031
-122.210	-37.289	0.056	0.030
-121.195	-139.925	-0.118	-0.012
