DTS Sentinel unit serial number:	SN413079Multiplexer serial number:	ORYXHardware model number:	OX4-SRSoftware version number:	ORYX F/W v4.00 Oryx Data Collector v3.7.2.0data status	okinstallation	princeton_trtdifferential loss correction	single-endedforward channel	channel 3reverse channel	N/Adate	2019/09/11time	11:06:11forward acquisition time	60.00reverse acquisition time	0.00gamma	496.2192k internal	0.2296k external	0.2296temperature offset calibration	0.9938default loss term (dB/km)	0.3790temperature slope calibration	1.0000multiplexer offset coefficient	1.0000multiplexer slope coefficient	1.0000fibre end	0.00T internal ref (°C)	37.39T ext. ref 1 (°C)	0.19T ext. ref 2 (°C)	34.67length (m)	temperature (°C)	Stokes	anti-Stokes-747.200	800.000	0.077	0.239
-746.185	-77.763	0.104	-0.037
-745.171	721.935	-0.070	0.190
-744.156	800.000	-0.100	0.326
-743.142	-168.432	-0.154	0.006
-742.127	46.963	-0.257	0.244
-741.112	-200.000	-0.007	-0.144
-740.098	-4.215	-0.162	-0.114
-739.083	-200.000	0.015	-0.390
-738.069	-56.464	-0.323	-0.146
-737.054	800.000	0.065	-0.187
-736.039	-103.407	-0.638	-0.154
-735.025	-108.474	-0.073	-0.016
-734.010	12.887	-0.208	0.165
-732.996	-93.021	-0.487	-0.139
-731.981	-200.000	-0.014	0.536
-730.966	800.000	-0.078	0.227
-729.952	800.000	-0.090	0.380
-728.937	137.982	0.181	-0.243
-727.923	-2.752	-0.082	0.058
-726.908	0.662	0.076	-0.056
-725.894	56.464	0.097	-0.096
-724.879	-24.493	-0.092	0.056
-723.864	-50.355	0.413	-0.199
-722.850	386.341	-0.128	-0.269
-721.835	753.199	-0.021	0.059
-720.821	-200.000	0.014	0.145
-719.806	24.439	0.203	0.171
-718.791	-145.676	0.102	0.009
-717.777	20.516	-0.222	0.184
-716.762	-19.448	0.227	-0.144
-715.748	-139.727	0.009	0.001
-714.733	60.797	-0.225	-0.227
-713.718	147.493	-0.190	0.262
-712.704	-26.366	-0.125	-0.075
-711.689	-124.222	-0.023	0.004
-710.675	-121.977	0.246	-0.041
-709.660	-200.000	-0.004	-0.068
-708.645	685.703	-0.051	-0.137
-707.631	132.626	-0.160	-0.210
-706.616	-160.320	-0.287	-0.016
-705.602	-78.790	0.311	0.108
-704.587	-65.251	-0.187	-0.077
-703.572	-59.896	-0.328	0.143
-702.558	-127.452	-0.418	0.062
-701.543	62.593	0.033	-0.034
-700.529	-31.637	-0.368	-0.211
-699.514	93.050	0.081	0.094
-698.499	-67.523	-0.176	-0.071
-697.485	-156.810	-0.095	0.006
-696.470	-200.000	-0.003	-0.017
-695.456	25.152	-0.337	0.285
-694.441	87.022	-0.064	-0.072
-693.426	629.278	-0.054	0.140
-692.412	-133.847	0.305	-0.039
-691.397	-46.527	-0.222	0.111
-690.383	150.859	0.139	-0.193
-689.368	511.167	-0.062	-0.147
-688.354	-160.524	0.168	0.009
-687.339	342.416	-0.094	0.188
-686.324	15.691	0.136	0.109
-685.310	-200.000	-0.031	0.196
-684.295	800.000	-0.035	0.118
-683.281	-200.000	-0.144	-0.000
-682.266	-200.000	-0.005	-0.106
-681.251	344.276	-0.013	0.026
-680.237	-103.453	-0.051	0.012
-679.222	120.136	0.102	-0.129
-678.208	-155.452	-0.319	-0.021
-677.193	-63.287	-0.211	-0.089
-676.178	28.147	-0.089	0.076
-675.164	-100.648	-0.157	-0.040
-674.149	-200.000	0.017	-0.348
-673.135	-140.351	-0.249	0.026
-672.120	-32.598	-0.137	0.078
-671.105	-200.000	0.006	-0.225
-670.091	-200.000	0.004	-0.210
-669.076	-181.413	-0.125	-0.002
-668.062	276.976	0.058	-0.106
-667.047	-6.270	0.124	0.086
-666.032	-113.675	-0.252	0.050
-665.018	-36.218	-0.167	0.092
-664.003	-34.806	0.276	0.154
-662.989	800.000	0.043	-0.179
-661.974	-9.548	-0.251	0.170
-660.959	-77.947	-0.190	-0.067
-659.945	-50.727	-0.141	0.067
-658.930	772.569	-0.067	0.186
-657.916	-22.714	-0.311	-0.191
-656.901	-71.963	0.427	-0.162
-655.886	87.789	-0.141	0.160
-654.872	-122.377	0.184	-0.031
-653.857	84.960	0.187	-0.209
-652.843	800.000	-0.045	-0.133
-651.828	-200.000	0.292	0.001
-650.814	-27.900	0.240	-0.142
-649.799	-200.000	0.037	-0.224
-648.784	-143.223	0.170	0.017
-647.770	-79.507	0.185	0.064
-646.755	800.000	0.046	0.152
-645.741	129.795	0.191	0.249
-644.726	-111.804	0.243	-0.050
-643.711	-200.000	-0.022	-0.272
-642.697	141.760	0.136	0.183
-641.682	-153.862	-0.101	0.007
-640.668	-91.843	0.134	0.039
-639.653	67.691	-0.165	-0.171
-638.638	797.823	0.042	0.118
-637.624	-156.376	0.260	0.017
-636.609	-164.171	-0.364	0.017
-635.595	-33.293	-0.342	-0.193
-634.580	-61.874	-0.094	-0.040
-633.565	265.625	0.194	0.344
-632.551	-140.612	0.127	0.013
-631.536	-86.688	-0.180	-0.056
-630.522	188.712	0.041	-0.063
-629.507	-186.606	-0.140	0.002
-628.492	104.075	0.072	-0.086
-627.478	-145.475	0.108	0.010
-626.463	-87.645	0.130	-0.040
-625.449	-121.212	-0.190	0.032
-624.434	713.680	-0.029	0.077
-623.419	86.995	-0.208	0.234
-622.405	-200.000	0.014	-0.098
-621.390	40.854	-0.271	0.249
-620.376	800.000	0.074	-0.274
-619.361	-32.239	-0.241	-0.137
-618.346	-28.233	0.161	0.095
-617.332	32.422	-0.251	0.220
-616.317	771.893	0.167	-0.462
-615.303	344.945	0.166	-0.331
-614.288	-92.693	0.127	0.036
-613.273	88.949	-0.086	-0.097
-612.259	788.236	-0.082	-0.230
-611.244	11.667	-0.086	0.067
-610.230	-76.221	0.354	-0.127
-609.215	-200.000	-0.082	0.444
-608.201	-51.041	-0.097	0.046
-607.186	-200.000	0.014	-0.243
-606.171	20.488	0.178	0.146
-605.157	52.288	-0.356	0.345
-604.142	98.880	-0.102	-0.120
-603.128	215.111	-0.177	0.286
-602.113	-126.972	-0.216	-0.032
-601.098	-38.775	-0.251	-0.135
-600.084	-129.167	0.145	0.021
-599.069	123.985	-0.092	-0.117
-598.055	-10.149	-0.239	-0.161
-597.040	410.169	0.136	0.293
-596.025	184.486	-0.178	-0.268
-595.011	344.164	0.085	-0.170
-593.996	800.000	0.011	0.046
-592.982	-200.000	0.000	0.064
-591.967	-124.467	0.229	0.036
-590.952	19.490	-0.227	0.185
-589.938	-200.000	0.002	-0.215
-588.923	147.234	-0.237	0.324
-587.909	0.551	0.053	0.039
-586.894	800.000	-0.082	0.236
-585.879	184.926	0.111	0.167
-584.865	800.000	-0.055	0.228
-583.850	2.977	-0.168	-0.124
-582.836	27.532	0.074	-0.063
-581.821	-200.000	-0.018	0.122
-580.806	-129.730	0.132	-0.018
-579.792	-78.227	0.616	0.215
-578.777	-156.058	-0.084	0.005
-577.763	277.666	-0.275	0.498
-576.748	-200.000	-0.038	0.425
-575.733	370.144	-0.088	-0.180
-574.719	23.743	-0.130	-0.109
-573.704	-64.883	0.285	0.117
-572.690	-8.837	-0.048	0.033
-571.675	93.850	-0.040	0.046
-570.661	36.936	-0.284	0.255
-569.646	-49.263	-0.200	-0.097
-568.631	174.016	-0.053	0.078
-567.617	-200.000	-0.059	-0.327
-566.602	-200.000	-0.039	0.209
-565.588	-89.625	0.281	0.084
-564.573	-200.000	-0.048	0.338
-563.558	-94.987	-0.320	0.088
-562.544	-147.029	-0.269	0.023
-561.529	-70.220	0.069	0.026
-560.515	-200.000	-0.069	-0.368
-559.500	-200.000	-0.043	-0.364
-558.485	-138.065	-0.215	-0.024
-557.471	177.542	0.151	0.224
-556.456	800.000	0.077	-0.312
-555.442	-164.355	0.133	-0.006
-554.427	-200.000	0.037	0.274
-553.412	-56.046	-0.218	0.099
-552.398	110.742	0.084	-0.102
-551.383	-54.190	0.169	0.078
-550.369	-200.000	0.009	-0.335
-549.354	-200.000	-0.035	-0.257
-548.339	9.500	-0.166	0.127
-547.325	-104.684	-0.327	-0.076
-546.310	-128.702	0.317	-0.045
-545.296	427.762	-0.076	0.167
-544.281	-200.000	-0.069	-0.358
-543.266	800.000	-0.075	0.308
-542.252	275.921	0.026	-0.047
-541.237	-35.509	-0.147	0.081
-540.223	-200.000	-0.017	0.194
-539.208	156.309	-0.082	0.114
-538.193	-138.761	0.103	-0.011
-537.179	800.000	0.062	0.195
-536.164	4.155	-0.093	0.069
-535.150	-46.474	-0.182	0.091
-534.135	-200.000	0.003	0.159
-533.121	-72.646	0.215	-0.080
-532.106	800.000	0.039	0.110
-531.091	-199.039	0.114	0.001
-530.077	-81.125	-0.148	-0.050
-529.062	-200.000	-0.014	0.066
-528.048	323.890	0.128	0.248
-527.033	-200.000	0.008	0.279
-526.018	-141.264	0.280	0.029
-525.004	-115.730	0.173	-0.033
-523.989	800.000	0.022	-0.075
-522.975	144.124	-0.225	-0.304
-521.960	-32.621	-0.131	0.074
-520.945	70.416	-0.133	-0.139
-519.931	-200.000	0.002	0.120
-518.916	69.588	-0.129	0.134
-517.902	-41.132	-0.159	0.083
-516.887	-49.177	0.140	-0.068
-515.872	385.779	-0.042	-0.087
-514.858	-60.632	0.130	0.056
-513.843	770.504	-0.061	0.169
-512.829	49.951	-0.260	0.248
-511.814	119.445	0.142	0.178
-510.799	-85.440	-0.125	0.039
-509.785	-150.646	-0.162	-0.013
-508.770	800.000	0.094	-0.342
-507.756	-85.574	0.116	0.036
-506.741	-0.382	-0.357	-0.257
-505.726	800.000	0.005	0.016
-504.712	23.731	-0.224	-0.187
-503.697	359.662	0.094	-0.190
-502.683	101.405	-0.101	0.119
-501.668	800.000	-0.010	-0.032
-500.653	800.000	0.027	-0.108
-499.639	-39.870	0.196	0.103
-498.624	800.000	-0.089	-0.322
-497.610	76.094	0.029	0.031
-496.595	29.830	0.061	0.053
-495.581	800.000	0.021	-0.066
-494.566	-100.385	-0.239	-0.060
-493.551	112.191	-0.194	0.237
-492.537	178.821	-0.068	-0.101
-491.522	-200.000	-0.008	-0.060
-490.508	-0.665	-0.120	0.086
-489.493	-200.000	0.057	0.000
-488.478	-56.956	0.292	0.130
-487.464	-73.893	-0.339	0.125
-486.449	-200.000	0.061	0.349
-485.435	-29.962	0.131	-0.075
-484.420	218.833	-0.104	-0.167
-483.405	-70.216	-0.140	-0.054
-482.391	327.135	0.072	0.139
-481.376	727.613	-0.120	-0.325
-480.362	-29.904	-0.106	0.061
-479.347	105.171	0.123	-0.147
-478.332	382.221	-0.052	-0.108
-477.318	-200.000	0.001	-0.069
-476.303	120.190	0.047	-0.059
-475.289	122.119	-0.068	-0.086
-474.274	-60.346	-0.154	-0.066
-473.259	-200.000	-0.006	0.109
-472.245	-31.440	-0.213	0.121
-471.230	800.000	-0.054	0.182
-470.216	-105.097	-0.077	0.018
-469.201	-60.547	0.262	-0.113
-468.186	-85.753	-0.181	-0.057
-467.172	92.143	-0.142	0.161
-466.157	250.034	-0.146	-0.250
-465.143	-200.000	-0.002	0.111
-464.128	-119.359	-0.176	-0.031
-463.113	-200.000	-0.012	0.091
-462.099	333.051	0.162	-0.316
-461.084	-40.455	0.283	0.149
-460.070	-40.084	0.498	0.262
-459.055	-200.000	0.001	-0.239
-458.040	136.467	-0.063	0.083
-457.026	100.561	-0.010	-0.011
-456.011	-145.032	-0.186	0.017
-454.997	49.324	-0.205	-0.195
-453.982	27.918	-0.131	0.111
-452.968	-65.876	0.345	-0.139
-451.953	-94.807	0.275	0.075
-450.938	136.363	-0.115	-0.151
-449.924	-88.684	0.152	-0.046
-448.909	-200.000	-0.012	0.147
-447.895	-4.184	-0.204	0.143
-446.880	-200.000	-0.021	0.197
-445.865	-200.000	0.005	0.113
-444.851	-105.178	0.251	0.058
-443.836	-82.313	-0.125	0.041
-442.822	-94.139	-0.116	-0.032
-441.807	253.094	0.107	0.185
-440.792	-144.551	0.112	0.010
-439.778	-83.542	-0.433	0.140
-438.763	9.444	-0.028	0.021
-437.749	-13.032	-0.132	0.086
-436.734	-53.634	-0.054	0.025
-435.719	136.840	0.094	0.125
-434.705	-2.912	0.155	0.109
-433.690	-119.343	-0.096	0.017
-432.676	-33.302	0.244	-0.136
-431.661	800.000	0.064	0.221
-430.646	32.539	-0.228	-0.199
-429.632	-65.870	-0.167	-0.067
-428.617	-86.592	-0.148	-0.046
-427.603	-167.495	-0.260	-0.011
-426.588	16.952	-0.178	-0.142
-425.573	800.000	0.055	0.206
-424.559	800.000	0.051	-0.141
-423.544	-200.000	0.013	0.166
-422.530	364.418	-0.192	-0.389
-421.515	-113.248	-0.481	-0.095
-420.500	-173.696	0.234	-0.007
-419.486	102.233	0.090	-0.106
-418.471	-99.841	0.140	-0.035
-417.457	-128.942	-0.018	0.003
-416.442	-135.753	-0.121	-0.014
-415.428	-200.000	-0.005	-0.145
-414.413	69.265	-0.242	0.251
-413.398	171.219	0.093	-0.135
-412.384	89.184	0.240	-0.269
-411.369	-110.565	0.547	0.114
-410.355	-55.417	-0.169	-0.077
-409.340	252.466	-0.207	-0.356
-408.325	-200.000	0.029	0.158
-407.311	-36.356	-0.093	0.051
-406.296	-86.942	-0.034	0.010
-405.282	611.678	0.100	0.253
-404.267	-200.000	0.009	0.048
-403.252	414.528	-0.020	0.043
-402.238	217.857	0.171	0.274
-401.223	-176.729	-0.189	-0.005
-400.209	-200.000	0.038	-0.261
-399.194	-84.172	0.268	0.086
-398.179	-70.842	0.285	0.108
-397.165	630.856	-0.048	0.123
-396.150	-120.277	-0.213	-0.037
-395.136	-193.987	0.315	-0.003
-394.121	-200.000	-0.017	0.097
-393.106	144.844	-0.112	-0.150
-392.092	-1.834	-0.216	0.153
-391.077	31.704	0.263	-0.228
-390.063	392.336	-0.149	-0.311
-389.048	364.216	0.068	0.138
-388.033	-200.000	0.061	-0.473
-387.019	-200.000	-0.021	0.116
-386.004	20.225	0.105	-0.085
-384.990	-200.000	-0.018	-0.521
-383.975	-162.765	0.194	-0.010
-382.960	-127.223	0.116	-0.017
-381.946	800.000	0.095	-0.271
-380.931	-10.683	0.119	-0.079
-379.917	589.265	0.176	-0.437
-378.902	30.824	-0.044	-0.038
-377.888	118.891	0.246	0.306
-376.873	421.880	0.087	0.188
-375.858	-121.879	-0.297	0.049
-374.844	506.228	-0.030	-0.070
-373.829	371.353	-0.059	0.120
-372.815	-200.000	-0.033	-0.197
-371.800	239.688	-0.136	0.228
-370.785	800.000	-0.027	0.090
-369.771	296.207	-0.134	-0.247
-368.756	213.232	0.121	-0.193
-367.742	19.649	0.076	0.062
-366.727	-52.562	0.064	0.030
-365.712	528.164	0.028	0.067
-364.698	-76.635	-0.224	-0.079
-363.683	385.570	-0.095	-0.197
-362.669	496.657	-0.069	-0.160
-361.654	68.155	0.293	-0.302
-360.639	-200.000	-0.032	0.163
-359.625	800.000	0.028	0.090
-358.610	70.143	-0.089	0.093
-357.596	15.281	0.242	-0.191
-356.581	49.964	0.022	-0.021
-355.566	800.000	0.066	0.276
-354.552	493.381	0.105	-0.242
-353.537	297.924	-0.082	-0.151
-352.523	-200.000	0.002	0.112
-351.508	-200.000	0.007	-0.121
-350.493	-200.000	0.006	-0.172
-349.479	-200.000	0.008	-0.207
-348.464	800.000	0.060	0.233
-347.450	-200.000	0.012	-0.324
-346.435	-200.000	-0.036	-0.319
-345.420	-200.000	-0.028	0.181
-344.406	800.000	-0.036	0.136
-343.391	451.511	0.151	-0.336
-342.377	-200.000	0.005	-0.396
-341.362	115.533	0.255	-0.314
-340.348	289.442	0.013	0.024
-339.333	-63.220	-0.237	0.098
-338.318	-127.220	-0.168	0.025
-337.304	84.613	0.113	0.124
-336.289	307.479	0.071	0.132
-335.275	156.887	0.143	-0.198
-334.260	-33.814	-0.109	0.061
-333.245	800.000	-0.084	-0.364
-332.231	225.579	-0.055	-0.090
-331.216	273.788	0.101	0.180
-330.202	275.641	0.048	0.085
-329.187	52.989	0.228	0.220
-328.172	800.000	-0.097	-0.305
-327.158	1.233	-0.144	-0.104
-326.143	800.000	-0.117	-0.463
-325.129	-127.542	0.428	-0.062
-324.114	-200.000	-0.017	0.100
-323.099	-200.000	0.022	0.462
-322.085	-200.000	-0.049	0.292
-321.070	134.056	-0.106	-0.138
-320.056	65.105	-0.120	0.122
-319.041	-51.957	-0.111	0.052
-318.026	-30.692	0.250	0.142
-317.012	255.767	-0.155	-0.268
-315.997	-200.000	-0.022	-0.123
-314.983	-137.667	0.080	0.009
-313.968	-57.915	0.323	-0.142
-312.953	-200.000	-0.020	-0.150
-311.939	297.402	0.150	-0.277
-310.924	-114.195	0.253	-0.049
-309.910	-56.737	0.206	0.091
-308.895	-125.814	-0.117	0.018
-307.880	265.227	-0.142	-0.248
-306.866	316.754	0.218	0.415
-305.851	-108.155	0.233	-0.051
-304.837	-12.451	-0.161	0.106
-303.822	-164.361	0.225	-0.010
-302.807	-200.000	0.015	0.150
-301.793	82.363	-0.135	0.147
-300.778	576.278	0.159	0.389
-299.764	58.991	-0.138	0.137
-298.749	-46.359	-0.227	0.112
-297.735	413.741	0.054	-0.116
-296.720	800.000	0.046	0.152
-295.705	-132.293	0.380	0.049
-294.691	-64.846	-0.047	-0.019
-293.676	108.539	-0.151	0.181
-292.662	800.000	-0.047	-0.146
-291.647	-82.733	0.085	0.028
-290.632	-200.000	0.031	0.174
-289.618	800.000	-0.018	0.066
-288.603	14.425	-0.090	0.071
-287.589	-171.420	-0.227	0.008
-286.574	-200.000	-0.023	0.110
-285.559	-94.677	0.296	0.081
-284.545	284.966	0.197	-0.356
-283.530	429.167	0.025	-0.053
-282.516	96.274	0.227	-0.260
-281.501	384.942	-0.137	-0.284
-280.486	-116.697	0.070	0.013
-279.472	52.349	-0.252	0.241
-278.457	-83.657	0.205	0.066
-277.443	-74.317	-0.173	0.063
-276.428	-108.717	0.252	-0.054
-275.413	-71.186	-0.052	0.020
-274.399	-35.865	-0.060	0.033
-273.384	289.774	-0.078	-0.142
-272.370	-122.127	0.159	-0.026
-271.355	-55.836	0.007	-0.003
-270.340	403.040	0.097	-0.204
-269.326	59.453	0.146	0.144
-268.311	-76.196	0.396	0.140
-267.297	95.491	-0.080	0.092
-266.282	-80.849	-0.256	0.085
-265.267	-200.000	0.021	0.155
-264.253	-121.037	0.281	-0.047
-263.238	583.209	-0.127	0.313
-262.224	46.946	0.216	-0.201
-261.209	110.948	-0.216	-0.260
-260.195	34.466	-0.171	-0.150
-259.180	-152.049	0.384	-0.028
-258.165	2.370	0.096	-0.070
-257.151	522.764	-0.187	0.441
-256.136	81.105	0.208	0.225
-255.122	-164.413	-0.124	0.006
-254.107	86.768	0.059	0.066
-253.092	-106.591	0.256	-0.057
-252.078	-40.577	-0.240	0.125
-251.063	-200.000	-0.012	-0.114
-250.049	74.040	-0.136	-0.143
-249.034	-72.354	-0.198	-0.073
-248.019	-99.422	0.258	-0.065
-247.005	273.451	0.130	0.231
-245.990	800.000	-0.090	0.266
-244.976	211.635	0.086	0.136
-243.961	-128.952	0.028	0.004
-242.946	-40.138	0.142	-0.074
-241.932	-200.000	-0.023	0.129
-240.917	-73.778	-0.178	-0.065
-239.903	-87.853	-0.323	-0.097
-238.888	31.633	0.075	0.065
-237.873	337.682	0.024	-0.046
-236.859	-184.678	0.094	0.002
-235.844	50.789	-0.092	-0.087
-234.830	800.000	0.065	-0.284
-233.815	3.250	0.179	-0.131
-232.800	24.722	0.293	-0.243
-231.786	800.000	-0.099	0.335
-230.771	-148.609	-0.395	0.032
-229.757	-138.360	0.393	0.043
-228.742	-45.138	0.170	-0.084
-227.727	-106.395	0.075	0.017
-226.713	-132.295	0.138	0.018
-225.698	-16.742	0.175	0.111
-224.684	-116.155	0.450	0.084
-223.669	9.158	0.174	0.132
-222.655	520.617	-0.136	0.320
-221.640	547.488	0.070	0.169
-220.625	800.000	-0.057	0.185
-219.611	50.697	-0.067	-0.064
-218.596	-53.739	0.169	-0.077
-217.582	56.405	-0.290	0.283
-216.567	-45.421	-0.064	0.032
-215.552	800.000	0.096	-0.297
-214.538	-34.548	0.223	-0.122
-213.523	800.000	0.080	-0.222
-212.509	-124.608	0.048	0.007
-211.494	-70.478	-0.176	-0.067
-210.479	190.254	-0.171	-0.257
-209.465	-159.847	0.188	-0.010
-208.450	404.432	0.137	0.288
-207.436	413.372	0.219	0.465
-206.421	-81.134	0.157	-0.052
-205.406	-200.000	-0.005	-0.508
-204.392	27.440	-0.142	-0.119
-203.377	-85.309	0.201	-0.063
-202.363	138.544	-0.268	-0.352
-201.348	-151.086	-0.143	-0.011
-200.333	-161.147	0.139	-0.007
-199.319	201.512	0.064	-0.099
-198.304	276.039	-0.102	-0.181
-197.290	95.977	-0.148	0.169
-196.275	-33.005	-0.369	0.205
-195.260	800.000	-0.044	-0.184
-194.246	800.000	-0.042	-0.160
-193.231	-94.200	0.135	0.037
-192.217	-200.000	0.005	-0.113
-191.202	-133.540	0.154	-0.019
-190.187	28.172	-0.120	-0.101
-189.173	-131.409	0.133	0.018
-188.158	462.489	-0.089	0.199
-187.144	-65.871	-0.476	0.191
-186.129	-35.636	0.097	0.052
-185.114	655.611	0.062	0.160
-184.100	27.211	0.362	-0.304
-183.085	-200.000	0.056	-0.364
-182.071	-29.863	0.188	0.107
-181.056	-75.383	0.043	0.015
-180.042	-200.000	-0.031	0.197
-179.027	-200.000	0.013	0.142
-178.012	197.199	0.055	-0.084
-176.998	-200.000	-0.055	-0.410
-175.983	-200.000	0.039	-0.253
-174.969	-200.000	-0.006	-0.109
-173.954	-200.000	0.024	0.312
-172.939	800.000	-0.046	0.164
-171.925	443.018	-0.034	0.075
-170.910	-47.183	-0.202	-0.099
-169.896	-200.000	-0.003	-0.118
-168.881	-200.000	0.064	-0.301
-167.866	-200.000	-0.016	-0.101
-166.852	-140.392	-0.275	-0.029
-165.837	-148.179	-0.047	0.004
-164.823	-200.000	0.013	0.201
-163.808	-200.000	0.013	0.197
-162.793	-200.000	0.017	0.345
-161.779	91.695	0.037	0.042
-160.764	142.511	-0.013	0.018
-159.750	249.661	-0.206	0.348
-158.735	-89.411	-0.212	-0.062
-157.720	128.986	0.306	0.390
-156.706	-79.696	-0.299	0.101
-155.691	800.000	0.078	-0.284
-154.677	546.692	0.098	-0.233
-153.662	-200.000	0.036	0.248
-152.647	-30.832	0.251	-0.142
-151.633	-48.948	-0.429	0.205
-150.618	750.780	-0.093	0.251
-149.604	-45.279	0.136	0.068
-148.589	800.000	-0.132	-0.492
-147.574	800.000	-0.056	-0.225
-146.560	119.898	-0.233	0.288
-145.545	396.127	0.069	-0.144
-144.531	-97.980	0.065	-0.017
-143.516	82.749	-0.203	0.220
-142.502	-59.820	-0.512	-0.219
-141.487	800.000	0.014	0.046
-140.472	800.000	-0.102	0.306
-139.458	338.379	-0.085	0.166
-138.443	-42.407	0.174	0.088
-137.429	33.502	-0.182	0.158
-136.414	800.000	0.037	-0.127
-135.399	-19.057	0.334	-0.207
-134.385	-200.000	0.000	0.045
-133.370	-67.498	-0.287	0.113
-132.356	800.000	-0.121	0.379
-131.341	23.815	0.025	-0.020
-130.326	-82.481	0.206	-0.067
-129.312	28.436	0.275	-0.232
-128.297	-200.000	0.020	0.217
-127.283	6.271	0.253	0.187
-126.268	-200.000	-0.032	-0.221
-125.253	411.488	0.180	-0.381
-124.239	-200.000	-0.003	0.123
-123.224	-191.582	-0.137	0.001
-122.210	-126.961	0.323	0.047
-121.195	-62.185	0.229	0.095
