DTS Sentinel unit serial number:	SN413079Multiplexer serial number:	ORYXHardware model number:	OX4-SRSoftware version number:	ORYX F/W v4.00 Oryx Data Collector v3.7.2.0data status	okinstallation	princeton_trtdifferential loss correction	single-endedforward channel	channel 3reverse channel	N/Adate	2019/09/11time	20:54:10forward acquisition time	60.00reverse acquisition time	0.00gamma	496.2192k internal	0.2307k external	0.2307temperature offset calibration	1.0025default loss term (dB/km)	0.3790temperature slope calibration	1.0000multiplexer offset coefficient	1.0000multiplexer slope coefficient	1.0000fibre end	0.00T internal ref (°C)	36.87T ext. ref 1 (°C)	1.55T ext. ref 2 (°C)	30.68length (m)	temperature (°C)	Stokes	anti-Stokes-747.200	800.000	-0.060	-0.213
-746.185	-200.000	0.023	0.669
-745.171	-200.000	0.013	-0.283
-744.156	-36.935	0.186	0.101
-743.142	800.000	-0.085	-0.312
-742.127	-200.000	0.040	0.448
-741.112	-29.928	-0.200	0.116
-740.098	-200.000	0.027	0.128
-739.083	-92.206	-0.210	0.060
-738.069	-120.078	0.258	-0.045
-737.054	-56.748	0.220	-0.099
-736.039	-200.000	-0.000	0.190
-735.025	75.883	0.053	0.057
-734.010	410.222	0.041	-0.089
-732.996	-38.177	0.244	-0.131
-731.981	53.908	0.122	-0.119
-730.966	63.377	0.140	-0.143
-729.952	-77.296	0.223	-0.079
-728.937	240.691	0.096	-0.162
-727.923	-200.000	-0.071	-0.331
-726.908	-200.000	0.021	0.168
-725.894	-200.000	-0.065	-0.342
-724.879	-134.831	-0.203	-0.025
-723.864	142.197	0.070	0.094
-722.850	-155.149	0.161	0.011
-721.835	-35.467	-0.215	0.119
-720.821	-65.950	-0.189	-0.077
-719.806	34.266	-0.186	0.164
-718.791	-135.328	-0.186	0.023
-717.777	-200.000	0.074	-0.546
-716.762	800.000	-0.074	-0.227
-715.748	93.627	-0.197	-0.227
-714.733	-143.897	0.187	-0.018
-713.718	-200.000	-0.241	0.001
-712.704	-200.000	-0.020	0.181
-711.689	-200.000	-0.041	-0.222
-710.675	800.000	0.039	-0.173
-709.660	800.000	0.029	-0.120
-708.645	-124.111	-0.067	0.011
-707.631	4.260	0.277	0.206
-706.616	-200.000	0.059	-0.392
-705.602	-70.702	0.104	0.040
-704.587	4.433	0.291	-0.217
-703.572	80.019	-0.309	0.337
-702.558	-69.512	-0.197	-0.077
-701.543	-200.000	-0.036	0.160
-700.529	263.399	-0.085	0.150
-699.514	153.587	0.104	0.144
-698.499	-30.065	0.146	-0.084
-697.485	-60.538	0.409	0.176
-696.470	78.662	0.232	-0.252
-695.456	64.974	-0.202	-0.207
-694.441	62.409	-0.271	-0.275
-693.426	800.000	-0.016	-0.049
-692.412	-59.621	0.192	-0.084
-691.397	-43.443	0.145	-0.074
-690.383	68.320	0.130	0.135
-689.368	35.359	0.200	-0.178
-688.354	85.022	-0.166	0.185
-687.339	601.237	0.120	-0.302
-686.324	326.683	0.237	0.460
-685.310	135.502	0.144	0.190
-684.295	127.602	0.265	0.341
-683.281	800.000	-0.057	0.170
-682.266	-138.874	-0.185	-0.020
-681.251	41.369	0.061	0.056
-680.237	-95.855	0.195	0.053
-679.222	109.810	-0.121	-0.148
-678.208	53.904	0.162	-0.158
-677.193	-159.163	0.132	-0.008
-676.178	-126.003	-0.292	0.045
-675.164	800.000	0.034	-0.095
-674.149	371.341	-0.031	-0.065
-673.135	8.484	0.218	0.166
-672.120	43.989	0.273	0.254
-671.105	-76.567	0.334	-0.119
-670.091	140.587	-0.091	-0.122
-669.076	120.899	0.072	-0.091
-668.062	-36.159	0.033	-0.018
-667.047	-26.848	-0.294	0.174
-666.032	800.000	0.040	-0.142
-665.018	-200.000	0.041	0.221
-664.003	84.020	0.160	0.177
-662.989	-27.127	0.150	-0.089
-661.974	-120.453	0.395	-0.068
-660.959	-85.651	0.151	0.047
-659.945	467.678	-0.038	0.086
-658.930	-89.541	0.114	0.034
-657.916	-123.385	0.137	-0.022
-656.901	38.314	0.242	-0.219
-655.886	800.000	0.061	-0.208
-654.872	-95.516	0.405	-0.110
-653.857	199.611	-0.170	-0.263
-652.843	196.628	-0.109	0.169
-651.828	-35.631	0.145	0.080
-650.814	48.138	-0.253	0.240
-649.799	-41.157	0.094	0.049
-648.784	-140.256	0.198	-0.021
-647.770	-200.000	0.035	0.193
-646.755	-133.994	-0.182	-0.023
-645.741	-200.000	0.051	-0.419
-644.726	-200.000	-0.030	-0.243
-643.711	362.173	-0.084	-0.171
-642.697	595.203	-0.058	0.145
-641.682	238.021	-0.070	0.118
-640.668	486.951	-0.131	-0.302
-639.653	-40.519	0.347	-0.182
-638.638	26.862	-0.155	-0.132
-637.624	-158.076	0.367	0.022
-636.609	457.574	0.082	-0.184
-635.595	-30.051	-0.395	0.227
-634.580	-12.478	-0.039	0.026
-633.565	-200.000	0.027	-0.134
-632.551	-90.177	-0.266	-0.078
-631.536	205.077	0.150	0.236
-630.522	91.459	0.109	0.124
-629.507	632.007	-0.166	-0.426
-628.492	-200.000	-0.087	0.483
-627.478	-26.786	-0.108	-0.064
-626.463	-5.375	0.239	-0.166
-625.449	-101.462	0.203	0.050
-624.434	800.000	-0.050	0.216
-623.419	-83.984	0.214	0.069
-622.405	-134.445	-0.244	-0.030
-621.390	242.008	-0.110	-0.187
-620.376	-85.140	-0.202	-0.064
-619.361	800.000	-0.103	0.299
-618.346	-16.384	-0.253	-0.163
-617.332	-200.000	0.031	0.159
-616.317	-34.060	0.186	0.104
-615.303	-106.124	-0.150	0.034
-614.288	60.506	0.241	-0.241
-613.273	-200.000	-0.050	-0.340
-612.259	-50.519	-0.125	0.060
-611.244	161.488	0.074	0.104
-610.230	-193.587	-0.140	0.001
-609.215	-200.000	-0.051	0.301
-608.201	-65.443	0.414	0.168
-607.186	511.394	-0.034	-0.079
-606.171	86.179	-0.051	0.057
-605.157	379.045	-0.135	-0.280
-604.142	204.851	-0.185	0.291
-603.128	-15.717	0.088	-0.056
-602.113	29.095	0.135	-0.116
-601.098	0.802	0.042	0.030
-600.084	-136.412	-0.534	0.063
-599.069	-200.000	-0.031	-0.219
-598.055	-109.781	-0.215	-0.046
-597.040	800.000	-0.034	0.123
-596.025	-109.625	-0.045	0.010
-595.011	-34.150	-0.064	0.036
-593.996	151.497	0.037	0.051
-592.982	-35.443	-0.178	-0.098
-591.967	346.807	0.057	-0.114
-590.952	109.662	0.135	-0.163
-589.938	15.159	-0.070	-0.055
-588.923	115.634	-0.084	-0.104
-587.909	-72.615	-0.202	-0.075
-586.894	492.067	-0.026	0.060
-585.879	-200.000	-0.002	-0.140
-584.865	15.065	0.172	0.136
-583.850	-58.145	-0.154	0.068
-582.836	-200.000	0.014	-0.133
-581.821	-39.183	-0.378	0.201
-580.806	31.242	-0.162	-0.141
-579.792	-7.238	-0.175	-0.120
-578.777	29.607	0.105	0.090
-577.763	-60.225	0.282	-0.121
-576.748	800.000	0.015	-0.043
-575.733	-44.050	-0.208	-0.106
-574.719	40.860	-0.154	0.140
-573.704	-200.000	0.017	0.138
-572.690	-158.820	0.110	-0.006
-571.675	-91.582	0.170	0.049
-570.661	-200.000	-0.080	-0.365
-569.646	491.222	-0.097	-0.224
-568.631	-73.619	-0.110	-0.040
-567.617	-112.697	0.153	-0.031
-566.602	800.000	-0.041	-0.170
-565.588	-162.390	-0.417	-0.021
-564.573	-60.360	-0.329	-0.141
-563.558	6.987	-0.110	-0.083
-562.544	-145.171	0.234	0.021
-561.529	184.491	-0.146	0.219
-560.515	-112.164	0.150	-0.031
-559.500	-118.962	0.124	-0.022
-558.485	110.597	0.331	-0.402
-557.471	80.489	0.058	0.063
-556.456	31.732	0.127	0.110
-555.442	800.000	0.055	-0.172
-554.427	57.441	0.222	0.219
-553.412	-102.894	0.186	0.045
-552.398	462.096	-0.073	0.165
-551.383	195.883	0.157	0.242
-550.369	-200.000	-0.001	-0.121
-549.354	38.298	0.176	-0.158
-548.339	456.917	0.075	0.167
-547.325	-109.615	0.162	-0.034
-546.310	314.521	0.157	-0.298
-545.296	183.432	0.078	-0.116
-544.281	-105.273	-0.088	-0.020
-543.266	-106.796	0.417	-0.093
-542.252	-119.742	-0.101	0.018
-541.237	33.254	-0.137	-0.120
-540.223	732.071	0.091	0.246
-539.208	65.795	0.212	-0.217
-538.193	202.269	0.097	-0.151
-537.179	-14.092	0.263	0.171
-536.164	-17.567	0.054	0.034
-535.150	620.350	-0.105	-0.267
-534.135	-23.329	0.205	0.124
-533.121	800.000	0.042	0.139
-532.106	43.175	-0.180	-0.165
-531.091	140.037	-0.155	0.206
-530.077	-200.000	-0.059	-0.274
-529.062	-99.469	0.410	-0.104
-528.048	800.000	0.033	-0.109
-527.033	-90.528	0.152	-0.044
-526.018	-14.928	0.411	0.266
-525.004	-5.355	0.120	-0.083
-523.989	-200.000	-0.006	0.369
-522.975	-83.413	-0.252	0.081
-521.960	115.315	0.286	-0.352
-520.945	800.000	0.075	-0.257
-519.931	800.000	-0.053	-0.229
-518.916	-183.608	-0.139	0.002
-517.902	-200.000	-0.003	-0.057
-516.887	-200.000	0.015	-0.192
-515.872	800.000	-0.042	-0.135
-514.858	-61.867	-0.280	-0.118
-513.843	302.651	-0.031	0.058
-512.829	639.142	-0.070	0.181
-511.814	171.300	-0.282	-0.408
-510.799	-4.433	0.148	0.103
-509.785	6.228	0.220	0.165
-508.770	-42.968	0.234	0.119
-507.756	-22.740	0.162	0.099
-506.741	85.597	-0.191	-0.212
-505.726	-147.238	-0.211	0.018
-504.712	231.056	-0.137	-0.226
-503.697	-200.000	-0.055	-0.266
-502.683	-200.000	0.021	0.146
-501.668	462.945	0.039	0.088
-500.653	-11.623	-0.234	0.155
-499.639	800.000	0.047	0.191
-498.624	-62.436	-0.132	-0.055
-497.610	-152.856	-0.041	-0.003
-496.595	175.700	0.191	-0.278
-495.581	-200.000	-0.027	-0.247
-494.566	800.000	0.042	0.152
-493.551	107.445	0.142	0.170
-492.537	21.788	0.191	0.157
-491.522	-200.000	0.023	-0.231
-490.508	-53.926	-0.276	0.126
-489.493	800.000	-0.050	-0.194
-488.478	800.000	0.018	-0.076
-487.464	353.835	-0.050	0.099
-486.449	41.616	0.319	-0.291
-485.435	24.114	-0.144	-0.120
-484.420	517.041	-0.122	-0.287
-483.405	-24.210	-0.119	0.072
-482.391	284.932	0.114	0.207
-481.376	-5.581	0.235	-0.163
-480.362	-103.600	-0.162	0.038
-479.347	96.682	-0.090	0.104
-478.332	-138.461	-0.249	-0.028
-477.318	-200.000	0.042	-0.376
-476.303	-174.344	-0.435	0.013
-475.289	-35.460	-0.247	-0.135
-474.274	14.756	-0.338	0.265
-473.259	-200.000	-0.045	0.225
-472.245	410.794	0.122	-0.260
-471.230	127.054	-0.085	-0.108
-470.216	-61.526	0.124	-0.052
-469.201	-114.277	0.405	0.079
-468.186	40.878	-0.124	-0.112
-467.172	98.542	-0.034	-0.039
-466.157	114.530	-0.129	0.158
-465.143	87.503	0.098	0.109
-464.128	30.408	0.147	0.127
-463.113	800.000	0.017	0.051
-462.099	-200.000	-0.025	0.236
-461.084	368.900	0.176	-0.357
-460.070	-200.000	0.004	0.094
-459.055	-18.387	0.121	-0.076
-458.040	-2.162	0.308	-0.218
-457.026	-200.000	0.016	0.085
-456.011	20.158	-0.165	-0.134
-454.997	-200.000	-0.014	0.210
-453.982	-92.110	-0.178	-0.051
-452.968	-15.790	-0.086	-0.055
-451.953	-46.206	0.202	0.100
-450.938	800.000	-0.037	-0.127
-449.924	-200.000	0.036	0.163
-448.909	-200.000	0.040	0.242
-447.895	-65.570	-0.323	0.130
-446.880	-200.000	0.005	0.205
-445.865	-109.406	-0.462	-0.098
-444.851	180.886	0.060	-0.089
-443.836	-27.091	0.280	0.164
-442.822	-200.000	-0.026	0.222
-441.807	-33.601	-0.221	0.123
-440.792	-72.874	0.187	0.069
-439.778	-200.000	-0.039	0.199
-438.763	800.000	-0.117	-0.332
-437.749	5.042	-0.155	-0.115
-436.734	-90.433	-0.255	0.074
-435.719	85.576	0.120	-0.132
-434.705	-3.995	0.398	0.277
-433.690	368.410	-0.107	0.218
-432.676	396.113	0.053	-0.111
-431.661	-200.000	0.004	0.052
-430.646	629.452	0.122	-0.310
-429.632	-2.931	0.321	0.225
-428.617	126.690	-0.236	0.300
-427.603	276.515	-0.074	-0.131
-426.588	-111.209	0.150	0.031
-425.573	-79.148	0.207	0.070
-424.559	159.232	-0.035	-0.049
-423.544	22.068	0.086	-0.071
-422.530	800.000	-0.049	0.184
-421.515	205.726	0.074	0.115
-420.500	240.964	0.168	0.281
-419.486	561.904	0.046	0.112
-418.471	541.276	-0.105	0.252
-417.457	-101.962	0.354	0.086
-416.442	-87.633	0.037	-0.011
-415.428	130.456	0.134	0.172
-414.413	391.120	0.165	0.343
-413.398	-59.194	-0.207	0.090
-412.384	-39.615	0.143	0.075
-411.369	800.000	-0.084	0.271
-410.355	253.059	-0.040	-0.068
-409.340	100.007	-0.335	0.389
-408.325	-198.878	-0.155	-0.001
-407.311	298.450	-0.109	0.201
-406.296	-33.537	-0.084	-0.046
-405.282	-129.108	-0.137	0.019
-404.267	-127.490	0.250	0.036
-403.252	286.986	0.016	-0.029
-402.238	-61.622	0.280	-0.118
-401.223	-153.628	-0.139	-0.010
-400.209	570.515	-0.052	0.126
-399.194	-87.676	-0.392	-0.119
-398.179	-200.000	-0.001	-0.098
-397.165	-107.867	-0.125	-0.027
-396.150	800.000	0.027	0.101
-395.136	-84.739	0.247	-0.078
-394.121	159.347	0.144	0.201
-393.106	-101.648	-0.122	-0.030
-392.092	-141.167	-0.228	0.023
-391.077	800.000	-0.104	-0.342
-390.063	-200.000	0.006	-0.154
-389.048	132.910	0.039	0.050
-388.033	492.129	0.096	0.220
-387.019	-100.721	-0.204	-0.050
-386.004	51.125	0.041	0.039
-384.990	-200.000	0.002	-0.038
-383.975	-17.882	0.125	0.078
-382.960	-115.745	0.218	-0.041
-381.946	-56.504	0.384	-0.171
-380.931	-200.000	-0.019	0.303
-379.917	146.358	0.118	-0.159
-378.902	-88.355	0.232	0.069
-377.888	-200.000	0.066	0.379
-376.873	-200.000	0.036	-0.216
-375.858	531.680	0.133	0.316
-374.844	-1.218	0.204	0.144
-373.829	287.089	0.249	0.450
-372.815	800.000	-0.015	0.054
-371.800	-200.000	-0.010	0.097
-370.785	197.321	0.100	0.153
-369.771	-200.000	-0.013	0.174
-368.756	-63.117	0.238	-0.099
-367.742	-200.000	-0.026	0.119
-366.727	419.655	-0.077	0.165
-365.712	77.224	-0.195	-0.208
-364.698	-10.629	-0.287	-0.190
-363.683	254.000	-0.168	0.288
-362.669	800.000	-0.038	0.135
-361.654	6.254	0.193	-0.143
-360.639	58.029	0.102	-0.100
-359.625	-200.000	0.037	-0.163
-358.610	-70.928	0.128	0.048
-357.596	-81.453	-0.238	0.078
-356.581	-200.000	-0.006	-0.107
-355.566	-29.001	-0.113	0.065
-354.552	178.359	-0.089	0.130
-353.537	-200.000	0.031	-0.160
-352.523	-200.000	-0.012	0.326
-351.508	7.903	-0.139	-0.105
-350.493	-200.000	0.024	-0.194
-349.479	-157.504	-0.361	0.022
-348.464	-132.481	0.151	0.019
-347.450	240.498	0.110	-0.183
-346.435	407.171	0.113	-0.239
-345.420	800.000	-0.087	0.261
-344.406	195.856	0.156	0.237
-343.391	800.000	0.070	0.215
-342.377	-5.918	-0.176	0.120
-341.362	-122.964	-0.327	-0.053
-340.348	-200.000	-0.011	-0.232
-339.333	53.908	-0.111	-0.106
-338.318	-200.000	0.021	-0.171
-337.304	4.901	0.104	0.076
-336.289	699.745	0.139	0.367
-335.275	-70.530	0.076	-0.029
-334.260	625.475	0.125	0.316
-333.245	-200.000	0.023	0.108
-332.231	-200.000	-0.009	-0.258
-331.216	-70.366	-0.182	-0.069
-330.202	37.252	0.244	-0.216
-329.187	-200.000	-0.003	-0.114
-328.172	-0.739	0.104	0.074
-327.158	-14.606	0.200	0.129
-326.143	-127.777	-0.165	0.024
-325.129	353.286	0.118	0.234
-324.114	-115.645	0.234	-0.044
-323.099	349.574	-0.062	0.123
-322.085	-200.000	-0.091	-0.483
-321.070	-47.667	-0.410	0.199
-320.056	-72.481	-0.329	-0.122
-319.041	736.347	-0.063	0.170
-318.026	52.748	-0.135	-0.129
-317.012	160.418	0.131	0.183
-315.997	130.614	-0.060	-0.077
-314.983	-90.288	-0.144	0.042
-313.968	334.713	-0.062	0.121
-312.953	-19.441	0.105	0.065
-311.939	-95.628	0.043	-0.011
-310.924	-3.457	-0.255	-0.177
-309.910	800.000	-0.055	-0.158
-308.895	800.000	0.110	0.341
-307.880	800.000	-0.087	-0.319
-306.866	30.469	-0.064	-0.054
-305.851	112.157	-0.255	-0.308
-304.837	41.971	0.147	0.133
-303.822	382.012	-0.023	0.047
-302.807	170.962	0.074	0.106
-301.793	-150.899	-0.040	0.003
-300.778	663.331	0.131	-0.339
-299.764	-143.863	-0.072	-0.007
-298.749	98.517	-0.054	0.062
-297.735	317.463	0.157	-0.298
-296.720	-200.000	0.052	-0.321
-295.705	-44.154	-0.037	-0.018
-294.691	-65.670	-0.156	-0.063
-293.676	186.591	-0.120	-0.178
-292.662	33.083	0.159	-0.138
-291.647	-23.087	0.305	-0.183
-290.632	43.026	0.087	0.080
-289.618	119.966	0.076	0.094
-288.603	-103.155	0.118	0.028
-287.589	-169.908	0.364	-0.013
-286.574	7.224	0.302	-0.225
-285.559	373.165	0.078	0.159
-284.545	-147.358	-0.373	-0.032
-283.530	-200.000	0.026	-0.454
-282.516	708.473	0.003	0.008
-281.501	763.440	-0.042	0.115
-280.486	-146.320	0.216	0.019
-279.472	13.070	-0.121	-0.094
-278.457	152.610	0.088	-0.121
-277.443	37.778	0.185	-0.164
-276.428	-89.076	-0.160	0.047
-275.413	-200.000	0.055	0.249
-274.399	-56.680	-0.041	-0.018
-273.384	-178.421	-0.206	0.005
-272.370	-109.048	-0.197	-0.042
-271.355	660.237	0.046	0.118
-270.340	49.073	0.129	0.121
-269.326	-200.000	-0.035	0.192
-268.311	-8.228	-0.301	-0.202
-267.297	-200.000	-0.040	0.283
-266.282	-130.328	-0.389	0.053
-265.267	-34.716	-0.115	-0.063
-264.253	-92.241	0.119	0.034
-263.238	34.187	0.206	0.179
-262.224	157.502	-0.216	0.298
-261.209	397.445	0.141	-0.295
-260.195	800.000	-0.004	-0.014
-259.180	2.752	0.262	-0.190
-258.165	800.000	-0.054	0.175
-257.151	-5.373	-0.237	0.163
-256.136	44.430	-0.192	-0.176
-255.122	-76.421	0.100	-0.035
-254.107	-200.000	0.001	0.115
-253.092	38.596	0.208	0.185
-252.078	-200.000	0.012	0.249
-251.063	-97.479	-0.226	-0.059
-250.049	800.000	0.012	-0.035
-249.034	-26.806	0.163	-0.095
-248.019	263.995	-0.171	-0.297
-247.005	800.000	-0.030	-0.087
-245.990	-117.971	-0.264	-0.047
-244.976	-146.959	-0.303	0.026
-243.961	13.805	0.241	-0.187
-242.946	11.322	-0.146	0.111
-241.932	800.000	-0.075	-0.236
-240.917	713.155	0.158	-0.418
-239.903	-159.769	-0.392	0.022
-238.888	413.425	0.177	0.374
-237.873	-100.991	0.285	-0.070
-236.859	497.015	0.078	0.179
-235.844	-200.000	0.042	-0.584
-234.830	418.002	-0.111	0.236
-233.815	-110.027	-0.314	-0.065
-232.800	-118.001	0.061	-0.011
-231.786	264.066	-0.158	-0.273
-230.771	-200.000	-0.006	-0.102
-229.757	78.970	-0.355	0.379
-228.742	-131.949	-0.490	-0.064
-227.727	397.625	0.055	0.114
-226.713	-10.571	0.025	0.016
-225.698	1.588	-0.139	0.100
-224.684	-105.727	0.160	-0.036
-223.669	-85.827	0.339	0.105
-222.655	-30.739	0.353	-0.199
-221.640	-11.386	0.255	0.167
-220.625	-40.499	0.096	0.050
-219.611	-97.895	0.162	-0.042
-218.596	-200.000	0.023	0.175
-217.582	665.621	0.006	0.016
-216.567	-29.086	-0.036	-0.021
-215.552	262.945	0.077	0.133
-214.538	34.856	0.023	-0.020
-213.523	-56.805	0.274	-0.121
-212.509	800.000	0.116	0.413
-211.494	-39.624	-0.053	-0.028
-210.479	569.360	-0.141	-0.341
-209.465	93.510	-0.154	-0.174
-208.450	-132.098	-0.315	-0.041
-207.436	-166.470	0.366	-0.015
-206.421	-57.542	0.084	0.037
-205.406	800.000	-0.087	0.257
-204.392	533.845	-0.094	-0.221
-203.377	-200.000	0.041	0.199
-202.363	-200.000	-0.092	0.576
-201.348	306.899	-0.089	0.164
-200.333	-161.649	-0.225	0.011
-199.319	329.774	0.165	-0.316
-198.304	20.261	0.192	0.154
-197.290	-5.874	0.298	0.203
-196.275	-71.110	0.218	0.082
-195.260	348.883	0.080	-0.157
-194.246	124.719	0.090	0.113
-193.231	-200.000	-0.040	-0.478
-192.217	800.000	-0.016	0.069
-191.202	-66.386	-0.453	0.179
-190.187	-200.000	-0.017	-0.371
-189.173	-139.467	-0.051	-0.005
-188.158	323.871	0.097	-0.184
-187.144	800.000	-0.041	0.150
-186.129	21.367	0.257	-0.208
-185.114	-200.000	-0.004	-0.176
-184.100	-50.932	0.211	-0.099
-183.085	373.848	-0.152	0.307
-182.071	800.000	-0.011	0.036
-181.056	-200.000	0.001	0.033
-180.042	-88.349	0.220	-0.065
-179.027	239.567	-0.150	0.248
-178.012	-200.000	-0.041	0.462
-176.998	-48.628	-0.322	-0.154
-175.983	-37.394	0.221	0.117
-174.969	-14.499	-0.397	-0.254
-173.954	800.000	-0.050	-0.150
-172.939	-122.500	-0.132	-0.021
-171.925	-97.119	0.363	-0.094
-170.910	-171.492	0.122	0.004
-169.896	-200.000	-0.004	0.085
-168.881	-88.282	0.047	-0.014
-167.866	-44.778	-0.210	0.104
-166.852	-61.796	-0.223	0.093
-165.837	143.095	0.232	0.307
-164.823	-152.544	-0.119	0.008
-163.808	-111.480	-0.079	-0.016
-162.793	-140.868	-0.200	0.020
-161.779	59.824	0.077	0.076
-160.764	-37.645	-0.239	0.127
-159.750	9.698	-0.137	-0.103
-158.735	116.756	-0.178	0.217
-157.720	58.378	-0.042	-0.041
-156.706	-141.488	0.535	-0.054
-155.691	800.000	0.041	0.136
-154.677	47.594	0.230	-0.214
-153.662	-112.561	0.326	0.065
-152.647	385.176	-0.062	-0.126
-151.633	-61.208	0.152	-0.064
-150.618	29.289	-0.095	-0.080
-149.604	255.809	-0.114	0.194
-148.589	-115.288	0.171	0.032
-147.574	-142.863	0.065	0.006
-146.560	-200.000	0.003	-0.361
-145.545	-29.222	-0.175	-0.099
-144.531	298.898	0.213	-0.390
-143.516	-200.000	0.049	-0.388
-142.502	-49.253	0.165	0.078
-141.487	-132.413	0.052	-0.007
-140.472	800.000	-0.032	-0.090
-139.458	800.000	-0.023	-0.091
-138.443	-55.946	-0.270	0.120
-137.429	-200.000	0.004	-0.173
-136.414	273.899	-0.052	0.091
-135.399	-123.944	0.264	0.041
-134.385	800.000	0.033	0.096
-133.370	48.028	-0.091	-0.084
-132.356	731.075	-0.064	0.170
-131.341	199.412	-0.175	-0.266
-130.326	204.332	-0.057	-0.088
-129.312	97.467	-0.079	0.090
-128.297	186.026	-0.075	-0.111
-127.283	173.022	-0.346	-0.495
-126.268	-17.396	0.477	-0.298
-125.253	-114.674	-0.044	-0.008
-124.239	70.205	0.048	-0.049
-123.224	285.041	-0.124	-0.221
-122.210	12.843	-0.158	0.121
-121.195	-59.332	-0.184	-0.079
