DTS Sentinel unit serial number:	SN413079Multiplexer serial number:	ORYXHardware model number:	OX4-SRSoftware version number:	ORYX F/W v4.00 Oryx Data Collector v3.7.2.0data status	okinstallation	princeton_trtdifferential loss correction	single-endedforward channel	channel 3reverse channel	N/Adate	2019/09/11time	15:50:11forward acquisition time	60.00reverse acquisition time	0.00gamma	496.2192k internal	0.2289k external	0.2289temperature offset calibration	0.9985default loss term (dB/km)	0.3790temperature slope calibration	1.0000multiplexer offset coefficient	1.0000multiplexer slope coefficient	1.0000fibre end	0.00T internal ref (°C)	42.91T ext. ref 1 (°C)	1.00T ext. ref 2 (°C)	38.19length (m)	temperature (°C)	Stokes	anti-Stokes-747.200	800.000	-0.088	-0.311
-746.185	241.829	0.232	0.398
-745.171	662.562	0.050	-0.132
-744.156	-95.539	0.188	0.052
-743.142	-1.241	-0.076	0.055
-742.127	192.160	0.314	0.486
-741.112	188.803	-0.198	-0.304
-740.098	-154.243	0.268	0.019
-739.083	5.524	-0.179	0.135
-738.069	-54.842	-0.088	-0.041
-737.054	-5.070	0.146	-0.103
-736.039	-68.777	-0.034	0.014
-735.025	668.910	-0.101	0.267
-734.010	800.000	-0.066	0.227
-732.996	-32.501	0.118	-0.067
-731.981	416.557	0.129	-0.283
-730.966	-136.811	0.265	-0.031
-729.952	-200.000	-0.001	-0.106
-728.937	98.522	0.047	-0.055
-727.923	250.347	-0.036	0.063
-726.908	218.326	0.066	-0.107
-725.894	114.714	-0.101	0.127
-724.879	17.301	-0.212	0.173
-723.864	-99.351	-0.278	0.072
-722.850	-200.000	-0.003	-0.279
-721.835	174.989	-0.084	-0.124
-720.821	-200.000	0.002	0.102
-719.806	-200.000	-0.016	-0.116
-718.791	175.165	0.076	-0.113
-717.777	-61.860	0.200	0.086
-716.762	-82.612	-0.132	0.044
-715.748	141.658	-0.053	-0.072
-714.733	-152.084	0.216	-0.016
-713.718	-145.771	-0.166	-0.015
-712.704	-85.619	-0.279	-0.089
-711.689	-192.354	-0.294	-0.003
-710.675	-51.976	-0.188	0.090
-709.660	-117.444	0.075	0.014
-708.645	800.000	-0.101	-0.359
-707.631	800.000	0.048	-0.171
-706.616	-200.000	-0.067	0.328
-705.602	800.000	-0.050	-0.184
-704.587	-114.448	-0.336	-0.066
-703.572	800.000	0.070	-0.216
-702.558	0.080	-0.152	0.111
-701.543	-200.000	0.014	0.112
-700.529	474.153	0.034	-0.078
-699.514	-54.089	0.134	-0.062
-698.499	48.293	-0.199	-0.190
-697.485	587.341	0.046	0.116
-696.470	-200.000	-0.015	-0.175
-695.456	-169.926	0.308	-0.011
-694.441	-65.526	-0.212	-0.087
-693.426	-200.000	-0.007	-0.283
-692.412	-43.858	0.070	0.036
-691.397	-16.309	-0.220	0.143
-690.383	223.499	-0.089	-0.147
-689.368	541.936	0.157	0.383
-688.354	209.861	-0.025	-0.040
-687.339	310.187	-0.078	0.148
-686.324	40.660	-0.086	0.079
-685.310	-111.410	0.062	0.013
-684.295	800.000	0.032	0.125
-683.281	339.294	0.091	-0.180
-682.266	-73.498	0.265	0.099
-681.251	-23.352	-0.207	-0.127
-680.237	134.932	0.139	-0.185
-679.222	86.050	0.117	-0.132
-678.208	47.788	-0.101	0.097
-677.193	-67.269	-0.116	0.047
-676.178	-159.132	0.227	0.013
-675.164	-200.000	-0.026	-0.149
-674.149	-200.000	-0.003	0.027
-673.135	-200.000	-0.022	-0.309
-672.120	800.000	0.019	-0.072
-671.105	-200.000	0.004	-0.124
-670.091	95.463	0.064	-0.075
-669.076	-200.000	-0.058	-0.285
-668.062	-92.224	0.305	0.088
-667.047	34.078	0.131	0.117
-666.032	481.762	-0.077	-0.178
-665.018	542.336	-0.041	-0.101
-664.003	800.000	0.071	-0.237
-662.989	-200.000	-0.022	0.396
-661.974	260.967	-0.096	0.169
-660.959	-36.879	-0.214	-0.117
-659.945	-58.399	0.197	0.087
-658.930	-70.099	-0.203	-0.079
-657.916	123.048	-0.120	-0.154
-656.901	306.433	0.072	0.136
-655.886	41.075	0.171	-0.158
-654.872	150.234	-0.154	-0.214
-653.857	65.052	0.152	-0.157
-652.843	-146.643	-0.259	0.023
-651.828	-1.988	0.042	-0.030
-650.814	125.520	0.087	0.112
-649.799	-145.475	0.195	-0.018
-648.784	-62.349	-0.116	0.049
-647.770	128.360	-0.088	-0.114
-646.755	-86.584	-0.142	0.044
-645.741	-200.000	-0.007	-0.395
-644.726	729.100	-0.094	0.257
-643.711	800.000	0.064	0.285
-642.697	189.433	0.071	-0.108
-641.682	134.120	0.127	0.169
-640.668	547.741	0.052	0.127
-639.653	-39.635	0.010	0.006
-638.638	-20.823	-0.098	0.061
-637.624	-76.414	0.290	-0.104
-636.609	-109.389	-0.475	-0.103
-635.595	101.828	0.177	-0.211
-634.580	82.130	0.159	-0.176
-633.565	33.164	-0.219	0.194
-632.551	60.212	-0.261	0.264
-631.536	-200.000	-0.016	0.195
-630.522	-169.664	0.137	-0.005
-629.507	-57.579	0.086	-0.038
-628.492	-200.000	0.020	0.248
-627.478	102.376	-0.171	0.204
-626.463	-48.732	-0.136	-0.066
-625.449	-127.582	-0.424	-0.063
-624.434	687.392	-0.050	0.133
-623.419	459.364	0.134	-0.303
-622.405	-109.960	-0.374	-0.080
-621.390	-66.205	-0.113	0.046
-620.376	224.881	0.088	0.145
-619.361	-80.702	0.294	0.100
-618.346	-53.085	0.401	-0.188
-617.332	-200.000	0.002	-0.443
-616.317	-200.000	0.003	-0.497
-615.303	800.000	0.062	0.176
-614.288	-65.098	0.244	0.100
-613.273	-70.446	0.198	0.077
-612.259	240.160	0.145	-0.246
-611.244	-200.000	-0.044	0.272
-610.230	-74.055	-0.287	0.106
-609.215	-101.628	-0.247	0.061
-608.201	110.593	0.091	-0.112
-607.186	-200.000	0.003	-0.119
-606.171	-51.736	0.151	0.072
-605.157	800.000	0.044	0.189
-604.142	102.981	-0.217	0.259
-603.128	-200.000	-0.036	-0.163
-602.113	800.000	0.174	-0.657
-601.098	42.249	0.033	0.031
-600.084	-77.648	0.083	0.029
-599.069	-200.000	-0.005	-0.474
-598.055	90.913	-0.202	-0.231
-597.040	340.565	-0.107	-0.213
-596.025	-167.290	-0.367	0.015
-595.011	87.451	-0.159	0.179
-593.996	472.769	-0.106	-0.242
-592.982	-148.053	-0.385	0.033
-591.967	118.113	0.183	-0.229
-590.952	-200.000	0.026	-0.213
-589.938	-125.969	0.239	0.037
-588.923	-114.053	0.149	0.029
-587.909	88.235	0.175	0.198
-586.894	-200.000	0.008	0.155
-585.879	146.078	0.183	-0.250
-584.865	107.887	0.269	-0.327
-583.850	-104.941	0.093	0.022
-582.836	800.000	-0.090	0.266
-581.821	360.580	-0.064	0.130
-580.806	-200.000	0.047	0.226
-579.792	800.000	-0.056	0.175
-578.777	800.000	-0.047	0.183
-577.763	-50.515	-0.123	-0.059
-576.748	22.356	-0.352	0.293
-575.733	-200.000	0.034	0.173
-574.719	-25.521	0.069	-0.042
-573.704	-100.578	-0.354	-0.089
-572.690	-200.000	-0.000	0.073
-571.675	-20.701	0.318	0.199
-570.661	-200.000	-0.029	-0.137
-569.646	-200.000	-0.007	0.260
-568.631	-93.125	0.034	0.010
-567.617	-153.176	0.090	-0.006
-566.602	-106.312	-0.272	0.062
-565.588	-28.068	-0.374	0.220
-564.573	-104.931	-0.149	-0.035
-563.558	49.991	-0.389	0.374
-562.544	-119.664	0.078	-0.014
-561.529	437.523	-0.032	-0.071
-560.515	800.000	0.005	0.017
-559.500	53.716	-0.212	0.207
-558.485	-120.312	0.109	0.019
-557.471	80.235	0.044	-0.048
-556.456	105.065	-0.106	-0.127
-555.442	-6.676	0.057	-0.039
-554.427	439.219	0.045	-0.100
-553.412	14.698	0.205	-0.163
-552.398	262.805	0.042	-0.075
-551.383	-18.564	0.127	0.080
-550.369	-140.793	0.158	-0.017
-549.354	384.123	0.162	-0.339
-548.339	-200.000	-0.018	-0.178
-547.325	-200.000	0.036	-0.206
-546.310	230.740	-0.128	-0.213
-545.296	-200.000	0.036	0.241
-544.281	293.259	-0.165	-0.306
-543.266	312.342	0.065	-0.123
-542.252	79.713	0.133	0.145
-541.237	-128.139	-0.212	-0.031
-540.223	6.884	-0.050	-0.038
-539.208	92.024	-0.036	0.041
-538.193	-17.959	-0.285	-0.181
-537.179	-200.000	0.023	0.105
-536.164	167.312	-0.096	0.139
-535.150	49.028	-0.094	-0.090
-534.135	-80.602	-0.455	-0.154
-533.121	251.735	-0.117	0.203
-532.106	192.749	-0.099	0.152
-531.091	202.672	0.132	0.208
-530.077	-200.000	0.011	-0.077
-529.062	-114.716	0.069	-0.013
-528.048	346.883	-0.132	0.264
-527.033	43.488	0.036	0.033
-526.018	754.221	0.043	0.117
-525.004	-91.663	0.367	-0.106
-523.989	-200.000	-0.071	-0.318
-522.975	-109.866	0.610	-0.130
-521.960	-200.000	-0.027	0.147
-520.945	98.334	-0.146	0.171
-519.931	691.500	0.017	-0.044
-518.916	41.921	-0.053	-0.048
-517.902	32.052	0.193	-0.169
-516.887	248.442	0.102	-0.175
-515.872	-200.000	0.009	0.281
-514.858	-200.000	0.020	-0.138
-513.843	-136.960	-0.052	0.006
-512.829	-200.000	-0.038	0.450
-511.814	633.179	-0.114	0.293
-510.799	800.000	0.091	0.376
-509.785	-101.943	0.163	-0.040
-508.770	-16.140	-0.258	-0.166
-507.756	-63.617	-0.225	0.094
-506.741	-166.496	0.343	-0.015
-505.726	-68.743	-0.331	0.130
-504.712	-137.074	0.068	-0.008
-503.697	279.937	0.160	-0.291
-502.683	-129.824	-0.182	0.025
-501.668	800.000	-0.082	-0.234
-500.653	800.000	-0.134	-0.411
-499.639	10.500	-0.299	-0.231
-498.624	50.164	-0.259	-0.249
-497.610	-138.932	0.107	-0.012
-496.595	-106.340	-0.195	-0.044
-495.581	47.521	0.060	0.057
-494.566	56.743	0.269	-0.265
-493.551	-200.000	-0.018	-0.102
-492.537	19.874	-0.037	0.031
-491.522	8.852	0.094	0.072
-490.508	-103.779	-0.158	0.037
-489.493	-45.204	-0.185	0.093
-488.478	-74.807	0.359	-0.131
-487.464	-158.901	-0.196	-0.011
-486.449	800.000	0.148	0.463
-485.435	-123.854	0.223	0.036
-484.420	-101.962	-0.315	-0.077
-483.405	-58.059	0.178	0.079
-482.391	31.490	0.394	0.343
-481.376	-162.818	0.202	-0.010
-480.362	-200.000	0.021	-0.225
-479.347	800.000	0.086	-0.304
-478.332	420.156	-0.080	0.173
-477.318	-60.548	0.043	-0.018
-476.303	-56.327	0.140	-0.063
-475.289	-104.275	0.373	0.088
-474.274	800.000	-0.063	-0.266
-473.259	312.499	-0.059	-0.112
-472.245	800.000	-0.070	0.232
-471.230	800.000	0.032	0.115
-470.216	-8.233	-0.214	0.146
-469.201	-190.831	0.076	0.001
-468.186	-200.000	-0.019	-0.171
-467.172	-3.861	-0.060	0.042
-466.157	123.672	-0.016	0.020
-465.143	-191.664	0.095	0.001
-464.128	-144.762	0.189	0.018
-463.113	21.042	-0.185	0.152
-462.099	-16.095	-0.606	-0.391
-461.084	96.207	-0.048	-0.056
-460.070	216.777	-0.260	0.420
-459.055	800.000	-0.013	0.059
-458.040	-200.000	0.048	0.268
-457.026	-148.434	0.406	-0.034
-456.011	287.071	0.108	-0.199
-454.997	-150.620	0.170	-0.013
-453.982	361.089	0.188	-0.382
-452.968	-89.185	-0.178	0.053
-451.953	-76.922	0.244	-0.087
-450.938	-133.688	-0.344	-0.043
-449.924	-33.705	-0.164	-0.092
-448.909	-79.300	-0.219	0.075
-447.895	25.067	-0.231	-0.194
-446.880	474.167	0.070	0.160
-445.865	18.621	-0.041	0.034
-444.851	142.924	0.168	-0.226
-443.836	13.256	-0.181	-0.142
-442.822	-41.474	0.280	0.146
-441.807	-104.143	0.182	0.043
-440.792	-155.648	0.101	0.007
-439.778	-66.656	-0.101	0.040
-438.763	-60.775	0.138	0.059
-437.749	-153.848	0.169	-0.012
-436.734	-44.283	0.187	-0.095
-435.719	345.683	-0.085	-0.168
-434.705	800.000	-0.040	-0.149
-433.690	-200.000	-0.002	0.048
-432.676	149.376	0.030	0.041
-431.661	-14.594	-0.285	-0.186
-430.646	-29.292	-0.286	0.166
-429.632	-200.000	0.050	-0.322
-428.617	121.871	-0.093	-0.117
-427.603	-81.259	-0.251	0.084
-426.588	-134.896	-0.211	-0.026
-425.573	26.689	0.155	0.132
-424.559	-200.000	0.019	-0.258
-423.544	-151.949	0.343	0.025
-422.530	-200.000	0.002	-0.427
-421.515	181.890	0.181	-0.269
-420.500	-200.000	0.023	-0.394
-419.486	-119.573	0.046	-0.008
-418.471	-85.216	0.048	-0.015
-417.457	7.014	-0.101	0.076
-416.442	-200.000	-0.051	-0.243
-415.428	800.000	-0.115	0.391
-414.413	-146.915	0.364	0.032
-413.398	41.896	0.196	0.180
-412.384	81.296	0.136	-0.149
-411.369	-200.000	-0.008	0.094
-410.355	373.874	0.107	0.221
-409.340	414.187	0.080	-0.172
-408.325	-200.000	0.006	-0.168
-407.311	428.384	0.189	-0.413
-406.296	-146.372	0.194	-0.017
-405.282	800.000	-0.019	0.073
-404.267	-72.074	-0.311	-0.117
-403.252	114.551	-0.125	-0.154
-402.238	-92.715	-0.142	-0.040
-401.223	140.479	0.134	0.178
-400.209	41.003	0.098	0.090
-399.194	-137.265	-0.263	-0.030
-398.179	-200.000	-0.018	0.140
-397.165	-38.923	-0.289	0.154
-396.150	800.000	-0.102	-0.358
-395.136	31.805	-0.160	0.139
-394.121	250.254	0.039	-0.066
-393.106	-90.008	-0.023	-0.007
-392.092	13.723	-0.207	0.163
-391.077	800.000	-0.079	0.280
-390.063	-45.134	0.117	-0.059
-389.048	-143.659	0.343	0.033
-388.033	330.553	0.104	-0.203
-387.019	-77.077	0.180	0.064
-386.004	-200.000	0.042	0.222
-384.990	792.804	0.052	-0.143
-383.975	-77.266	0.343	0.121
-382.960	-7.820	-0.292	0.199
-381.946	-36.445	-0.372	0.202
-380.931	586.694	-0.136	0.339
-379.917	-85.601	0.263	0.083
-378.902	-146.073	-0.113	-0.010
-377.888	420.621	-0.164	-0.354
-376.873	-58.092	-0.170	-0.075
-375.858	800.000	0.044	-0.142
-374.844	-200.000	-0.012	0.311
-373.829	60.337	-0.070	-0.070
-372.815	-45.221	0.232	-0.117
-371.800	344.073	-0.024	-0.047
-370.785	245.244	0.089	0.151
-369.771	398.428	0.109	-0.230
-368.756	-66.618	0.065	-0.026
-367.742	172.472	0.210	0.305
-366.727	567.115	0.042	0.104
-365.712	113.023	0.015	-0.019
-364.698	-34.917	-0.296	-0.163
-363.683	-200.000	0.011	-0.162
-362.669	704.364	0.083	0.221
-361.654	251.669	-0.093	-0.160
-360.639	-110.569	0.127	-0.027
-359.625	-164.025	0.394	0.018
-358.610	-200.000	0.061	-0.319
-357.596	29.818	0.086	-0.074
-356.581	172.301	0.157	-0.228
-355.566	-200.000	-0.033	0.253
-354.552	-18.123	0.199	-0.126
-353.537	800.000	0.043	0.163
-352.523	-183.683	0.265	0.005
-351.508	533.018	0.051	0.123
-350.493	38.371	-0.213	-0.191
-349.479	-30.415	0.122	0.070
-348.464	-200.000	-0.010	-0.218
-347.450	17.464	0.072	-0.058
-346.435	262.800	-0.059	0.103
-345.420	800.000	-0.064	-0.283
-344.406	-108.071	-0.267	0.059
-343.391	800.000	-0.052	0.188
-342.377	-73.109	0.123	-0.046
-341.362	-85.212	0.046	0.014
-340.348	-124.475	-0.262	0.041
-339.333	800.000	-0.023	0.074
-338.318	-200.000	0.009	0.051
-337.304	-72.419	0.444	0.165
-336.289	-22.379	-0.151	0.092
-335.275	-200.000	0.034	-0.366
-334.260	-66.923	-0.231	0.092
-333.245	383.241	0.046	-0.095
-332.231	37.364	0.035	0.031
-331.216	-200.000	-0.068	0.356
-330.202	-51.026	0.179	-0.084
-329.187	39.748	-0.202	0.183
-328.172	-24.733	0.355	-0.213
-327.158	603.051	-0.030	-0.076
-326.143	-161.765	0.070	-0.004
-325.129	283.298	0.075	-0.136
-324.114	-200.000	-0.001	0.091
-323.099	63.670	0.308	-0.312
-322.085	219.522	0.118	-0.191
-321.070	800.000	0.036	0.132
-320.056	56.968	-0.177	0.173
-319.041	191.762	0.038	-0.057
-318.026	-108.494	-0.169	0.037
-317.012	10.142	0.095	0.073
-315.997	-4.588	-0.347	-0.242
-314.983	-81.829	0.188	-0.062
-313.968	204.863	0.002	-0.003
-312.953	-27.895	-0.047	-0.027
-311.939	-200.000	-0.005	-0.313
-310.924	-200.000	0.012	0.134
-309.910	-123.481	-0.314	0.050
-308.895	-162.018	0.355	-0.018
-307.880	530.195	0.082	-0.196
-306.866	-200.000	-0.006	0.266
-305.851	-73.832	0.253	0.093
-304.837	416.311	0.116	0.248
-303.822	5.487	0.112	0.083
-302.807	737.792	-0.050	-0.135
-301.793	-17.363	0.063	-0.040
-300.778	-54.202	0.205	0.094
-299.764	-88.760	-0.180	-0.054
-298.749	-167.193	-0.169	-0.007
-297.735	171.635	0.097	0.141
-296.720	-36.375	-0.162	0.088
-295.705	463.795	-0.173	0.389
-294.691	-58.791	-0.197	0.086
-293.676	800.000	0.032	-0.131
-292.662	-51.864	0.275	-0.129
-291.647	-177.817	0.220	0.005
-290.632	-53.986	-0.195	-0.090
-289.618	125.631	0.085	0.108
-288.603	89.459	-0.238	0.267
-287.589	375.361	0.115	-0.235
-286.574	-80.452	-0.430	0.144
-285.559	-41.538	-0.142	0.073
-284.545	-200.000	-0.015	-0.544
-283.530	-196.763	-0.515	-0.003
-282.516	-156.000	-0.338	-0.022
-281.501	456.998	0.138	0.309
-280.486	800.000	-0.059	0.168
-279.472	-131.707	-0.076	0.010
-278.457	74.024	-0.111	0.117
-277.443	107.814	0.251	-0.301
-276.428	-200.000	0.019	0.243
-275.413	271.249	-0.073	-0.130
-274.399	178.179	0.143	0.210
-273.384	136.274	-0.095	0.125
-272.370	-104.767	-0.149	-0.034
-271.355	-35.201	-0.226	0.124
-270.340	446.289	0.175	0.386
-269.326	738.396	-0.055	0.148
-268.311	-122.552	0.286	0.047
-267.297	17.705	-0.063	-0.050
-266.282	489.785	-0.065	0.149
-265.267	-58.691	-0.127	0.055
-264.253	42.675	0.087	0.080
-263.238	-200.000	-0.016	0.167
-262.224	587.481	-0.027	0.068
-261.209	-64.012	-0.106	-0.044
-260.195	-100.840	-0.209	0.052
-259.180	800.000	0.109	0.385
-258.165	361.198	-0.307	-0.619
-257.151	180.197	-0.088	0.129
-256.136	-200.000	0.049	-0.333
-255.122	-18.877	-0.219	-0.137
-254.107	-15.876	0.205	0.131
-253.092	-200.000	-0.035	-0.185
-252.078	-43.970	0.109	0.055
-251.063	800.000	-0.055	-0.238
-250.049	474.897	0.088	0.200
-249.034	-200.000	0.040	0.274
-248.019	766.293	-0.041	-0.112
-247.005	-42.772	-0.191	-0.098
-245.990	-200.000	-0.050	0.248
-244.976	356.018	0.157	0.314
-243.961	800.000	0.079	0.243
-242.946	59.638	0.085	0.084
-241.932	619.925	0.104	-0.262
-240.917	-102.889	-0.358	-0.085
-239.903	-200.000	-0.040	0.253
-238.888	-40.175	0.206	-0.108
-237.873	-24.922	-0.248	0.148
-236.859	-120.907	0.305	-0.052
-235.844	109.947	-0.175	-0.210
-234.830	-13.599	-0.254	-0.165
-233.815	0.011	-0.212	-0.152
-232.800	-200.000	-0.009	-0.090
-231.786	-200.000	-0.005	-0.031
-230.771	800.000	0.075	-0.223
-229.757	420.283	-0.143	-0.307
-228.742	800.000	-0.073	0.228
-227.727	183.218	0.243	0.360
-226.713	112.175	-0.204	0.247
-225.698	800.000	-0.032	0.101
-224.684	-43.731	-0.311	0.157
-223.669	115.002	-0.127	0.155
-222.655	-168.973	0.228	0.009
-221.640	-7.865	0.149	-0.101
-220.625	213.920	0.142	-0.226
-219.611	39.263	-0.100	-0.090
-218.596	-81.706	0.106	-0.035
-217.582	-88.231	0.073	-0.022
-216.567	-184.871	0.438	-0.007
-215.552	-99.563	-0.152	0.038
-214.538	1.364	-0.009	0.006
-213.523	141.360	-0.147	0.195
-212.509	-59.332	-0.280	0.121
-211.494	100.605	-0.170	-0.198
-210.479	260.426	-0.147	-0.255
-209.465	34.805	0.203	-0.178
-208.450	-200.000	0.019	0.249
-207.436	-66.071	0.179	0.072
-206.421	-33.662	-0.081	0.045
-205.406	800.000	0.112	0.390
-204.392	-200.000	0.003	-0.186
-203.377	181.826	-0.117	-0.173
-202.363	-68.728	-0.041	0.016
-201.348	58.502	-0.156	-0.153
-200.333	-81.391	0.236	-0.078
-199.319	3.409	0.408	0.298
-198.304	-167.223	0.149	0.006
-197.290	-57.065	-0.073	0.032
-196.275	800.000	-0.057	0.170
-195.260	191.758	-0.173	0.262
-194.246	-20.025	0.115	0.071
-193.231	99.980	0.097	-0.113
-192.217	-200.000	0.017	-0.098
-191.202	800.000	0.056	0.237
-190.187	-185.798	-0.206	0.003
-189.173	800.000	-0.070	-0.213
-188.158	-85.341	0.310	-0.097
-187.144	-166.839	0.059	-0.002
-186.129	473.854	0.055	-0.124
-185.114	153.175	0.160	-0.219
-184.100	352.489	-0.096	0.191
-183.085	240.372	0.221	0.370
-182.071	-55.239	0.406	0.183
-181.056	683.562	-0.075	-0.196
-180.042	-200.000	0.046	-0.270
-179.027	53.708	0.097	0.093
-178.012	-97.884	0.312	0.081
-176.998	-112.552	-0.046	-0.009
-175.983	105.934	-0.087	0.103
-174.969	-23.306	-0.106	-0.064
-173.954	-200.000	0.016	0.152
-172.939	-200.000	-0.013	0.308
-171.925	-88.895	0.041	0.012
-170.910	-47.165	0.111	-0.054
-169.896	-47.097	-0.181	0.088
-168.881	210.064	-0.118	-0.185
-167.866	-135.001	0.395	-0.048
-166.852	800.000	-0.074	0.252
-165.837	180.011	-0.157	-0.230
-164.823	654.470	-0.112	0.288
-163.808	454.814	0.149	-0.331
-162.793	800.000	-0.010	0.045
-161.779	78.835	0.180	0.192
-160.764	63.071	-0.317	-0.318
-159.750	-200.000	0.014	0.219
-158.735	-200.000	-0.022	0.111
-157.720	800.000	-0.044	0.165
-156.706	-150.883	-0.097	0.007
-155.691	13.813	0.267	-0.208
-154.677	-171.030	0.559	0.019
-153.662	800.000	-0.026	0.080
-152.647	1.630	-0.160	0.115
-151.633	-93.902	0.484	-0.133
-150.618	-51.036	-0.139	-0.065
-149.604	90.316	-0.320	-0.358
-148.589	-200.000	0.012	0.314
-147.574	-160.211	0.248	0.013
-146.560	9.951	-0.223	-0.170
-145.545	76.171	0.147	-0.156
-144.531	-200.000	0.016	-0.244
-143.516	215.795	-0.170	0.270
-142.502	508.081	-0.097	0.226
-141.487	-200.000	0.006	0.387
-140.472	800.000	0.073	0.213
-139.458	-83.163	-0.128	-0.041
-138.443	494.492	-0.137	-0.315
-137.429	800.000	-0.121	0.407
-136.414	800.000	-0.013	-0.052
-135.399	358.270	-0.089	0.178
-134.385	81.434	0.070	-0.075
-133.370	-163.524	-0.166	-0.008
-132.356	15.896	0.240	-0.189
-131.341	-25.343	0.190	0.112
-130.326	-120.983	-0.053	0.009
-129.312	-193.047	0.068	-0.001
-128.297	-156.388	0.167	0.010
-127.283	-73.971	-0.271	-0.098
-126.268	-47.895	0.315	-0.152
-125.253	50.809	-0.169	0.160
-124.239	-200.000	0.001	0.114
-123.224	-116.456	-0.202	0.037
-122.210	-29.370	0.248	0.142
-121.195	-180.392	0.127	0.003
