DTS Sentinel unit serial number:	SN413079Multiplexer serial number:	ORYXHardware model number:	OX4-SRSoftware version number:	ORYX F/W v4.00 Oryx Data Collector v3.7.2.0data status	okinstallation	princeton_trtdifferential loss correction	single-endedforward channel	channel 3reverse channel	N/Adate	2019/09/11time	21:26:11forward acquisition time	60.00reverse acquisition time	0.00gamma	496.2192k internal	0.2309k external	0.2309temperature offset calibration	1.0034default loss term (dB/km)	0.3790temperature slope calibration	1.0000multiplexer offset coefficient	1.0000multiplexer slope coefficient	1.0000fibre end	0.00T internal ref (°C)	36.11T ext. ref 1 (°C)	1.59T ext. ref 2 (°C)	29.92length (m)	temperature (°C)	Stokes	anti-Stokes-747.200	623.800	-0.028	0.071
-746.185	52.308	-0.117	0.113
-745.171	-87.507	0.201	0.062
-744.156	800.000	-0.047	0.163
-743.142	-145.603	-0.320	-0.029
-742.127	-18.041	-0.194	0.123
-741.112	79.592	0.049	-0.053
-740.098	92.366	-0.211	0.242
-739.083	665.207	0.095	-0.250
-738.069	45.866	0.225	0.212
-737.054	-105.062	-0.083	-0.019
-736.039	632.347	-0.030	0.076
-735.025	800.000	-0.085	0.264
-734.010	-82.205	0.136	0.045
-732.996	-126.515	-0.235	0.035
-731.981	4.538	-0.123	0.092
-730.966	-163.022	0.178	0.009
-729.952	-200.000	0.050	0.222
-728.937	342.357	-0.145	-0.289
-727.923	321.109	-0.058	0.112
-726.908	-200.000	0.024	-0.166
-725.894	-112.329	0.104	-0.021
-724.879	165.808	-0.199	0.285
-723.864	-200.000	-0.010	0.267
-722.850	-13.937	0.347	0.228
-721.835	-200.000	-0.024	-0.239
-720.821	-158.017	0.266	-0.016
-719.806	28.174	-0.190	-0.163
-718.791	-200.000	-0.048	-0.611
-717.777	-136.868	-0.094	-0.011
-716.762	-159.771	-0.144	-0.008
-715.748	388.996	-0.103	-0.215
-714.733	-68.713	0.260	0.102
-713.718	-64.638	-0.330	-0.136
-712.704	800.000	0.022	0.078
-711.689	-117.239	-0.268	0.049
-710.675	-163.460	0.190	0.009
-709.660	-17.107	0.158	-0.101
-708.645	-177.762	0.400	-0.010
-707.631	20.013	-0.172	-0.140
-706.616	294.562	0.163	-0.302
-705.602	152.764	-0.290	-0.403
-704.587	-88.115	-0.397	-0.121
-703.572	191.639	-0.171	-0.261
-702.558	-160.762	-0.395	-0.021
-701.543	-31.711	0.112	0.064
-700.529	800.000	-0.035	0.114
-699.514	786.408	-0.013	0.035
-698.499	50.639	-0.146	-0.140
-697.485	800.000	-0.149	-0.441
-696.470	-96.695	0.079	-0.021
-695.456	-8.549	-0.308	-0.210
-694.441	-51.165	-0.088	-0.042
-693.426	-4.164	-0.149	0.105
-692.412	-61.902	0.194	-0.082
-691.397	-82.186	-0.117	0.039
-690.383	-125.122	0.197	-0.031
-689.368	618.559	0.076	-0.193
-688.354	-200.000	0.001	-0.083
-687.339	-200.000	-0.022	0.113
-686.324	-124.829	-0.278	-0.043
-685.310	-23.179	-0.374	-0.228
-684.295	-200.000	-0.013	0.127
-683.281	800.000	0.045	0.136
-682.266	800.000	0.075	-0.214
-681.251	-200.000	0.026	0.299
-680.237	800.000	-0.072	-0.245
-679.222	195.879	0.059	-0.091
-678.208	255.942	0.110	-0.191
-677.193	-23.022	0.137	-0.083
-676.178	800.000	0.088	-0.250
-675.164	-200.000	-0.005	0.079
-674.149	-31.005	0.211	-0.121
-673.135	-200.000	0.004	-0.087
-672.120	-103.476	-0.311	0.074
-671.105	412.708	0.039	-0.085
-670.091	46.062	-0.247	0.232
-669.076	-90.596	0.178	0.052
-668.062	-10.919	-0.143	0.096
-667.047	-4.121	0.307	-0.215
-666.032	-200.000	-0.023	0.242
-665.018	-78.066	-0.073	-0.026
-664.003	-200.000	0.019	0.096
-662.989	-200.000	-0.011	-0.072
-661.974	-84.259	0.224	-0.072
-660.959	-200.000	-0.043	-0.319
-659.945	46.569	0.104	-0.098
-658.930	800.000	-0.040	-0.167
-657.916	45.039	0.062	0.058
-656.901	191.878	-0.106	-0.162
-655.886	62.441	-0.206	-0.208
-654.872	34.311	-0.075	0.067
-653.857	800.000	-0.012	-0.036
-652.843	800.000	0.035	0.151
-651.828	99.659	-0.004	0.004
-650.814	32.950	0.321	-0.281
-649.799	-29.387	0.380	0.220
-648.784	342.259	0.085	-0.169
-647.770	-57.208	-0.250	-0.111
-646.755	800.000	0.084	0.280
-645.741	-200.000	0.040	0.224
-644.726	77.087	-0.228	0.245
-643.711	-98.467	-0.134	0.035
-642.697	800.000	0.042	0.163
-641.682	111.271	-0.007	0.008
-640.668	333.398	0.124	-0.242
-639.653	-56.531	-0.268	-0.120
-638.638	800.000	-0.070	-0.241
-637.624	89.972	-0.104	-0.118
-636.609	800.000	-0.058	-0.246
-635.595	800.000	0.078	0.297
-634.580	-90.259	0.070	0.021
-633.565	75.100	-0.250	-0.267
-632.551	-86.573	-0.198	0.061
-631.536	353.922	0.057	0.115
-630.522	-200.000	-0.070	-0.541
-629.507	15.317	-0.027	0.021
-628.492	-126.323	-0.105	0.016
-627.478	-200.000	0.005	-0.023
-626.463	-54.155	-0.230	-0.106
-625.449	442.945	0.081	-0.181
-624.434	-200.000	-0.016	-0.093
-623.419	-60.381	-0.245	0.105
-622.405	-200.000	0.056	-0.431
-621.390	187.745	-0.191	-0.288
-620.376	82.339	0.233	-0.256
-619.361	66.793	0.173	-0.178
-618.346	36.863	-0.175	-0.157
-617.332	-49.611	-0.278	0.134
-616.317	-108.309	-0.289	0.063
-615.303	-200.000	0.022	-0.128
-614.288	-13.775	-0.264	0.172
-613.273	800.000	0.018	0.067
-612.259	217.001	-0.092	0.148
-611.244	-105.859	0.258	-0.059
-610.230	-83.464	-0.098	-0.032
-609.215	-200.000	0.013	-0.094
-608.201	-84.334	0.095	-0.030
-607.186	775.492	-0.082	0.227
-606.171	-200.000	0.001	0.347
-605.157	-152.164	0.166	-0.012
-604.142	800.000	0.032	-0.123
-603.128	-200.000	0.064	0.326
-602.113	-200.000	0.022	0.441
-601.098	800.000	-0.061	-0.270
-600.084	-23.952	-0.239	0.145
-599.069	-77.348	-0.161	-0.056
-598.055	-200.000	-0.047	-0.231
-597.040	-197.056	0.158	0.001
-596.025	800.000	0.081	-0.351
-595.011	-100.994	0.085	-0.021
-593.996	183.107	0.112	-0.168
-592.982	67.255	0.098	-0.101
-591.967	-200.000	0.001	0.142
-590.952	-172.260	0.133	0.004
-589.938	-34.804	0.131	0.072
-588.923	609.128	-0.137	-0.346
-587.909	310.272	-0.191	-0.361
-586.894	8.039	-0.087	0.066
-585.879	-200.000	-0.066	-0.354
-584.865	800.000	0.051	-0.192
-583.850	36.433	0.295	-0.262
-582.836	80.229	0.070	-0.076
-581.821	-66.523	0.323	0.130
-580.806	-3.803	-0.342	-0.240
-579.792	243.288	0.099	0.168
-578.777	800.000	-0.058	0.195
-577.763	-60.949	-0.310	-0.132
-576.748	-200.000	0.037	-0.424
-575.733	3.636	0.174	-0.128
-574.719	-200.000	0.000	0.055
-573.704	800.000	0.064	0.207
-572.690	80.387	0.089	-0.097
-571.675	-200.000	0.033	-0.155
-570.661	551.054	-0.079	0.191
-569.646	-200.000	-0.002	0.064
-568.631	-200.000	-0.004	0.316
-567.617	-76.763	-0.086	-0.030
-566.602	151.609	-0.217	0.299
-565.588	800.000	0.007	0.030
-564.573	-103.537	0.371	0.088
-563.558	240.430	0.070	-0.117
-562.544	-200.000	0.032	0.224
-561.529	659.063	-0.111	0.287
-560.515	-200.000	-0.072	0.332
-559.500	252.802	0.040	-0.069
-558.485	-157.897	-0.142	0.008
-557.471	-158.541	-0.083	0.005
-556.456	178.253	-0.071	-0.104
-555.442	-200.000	-0.033	0.499
-554.427	248.806	0.206	0.352
-553.412	-121.008	0.406	-0.069
-552.398	-200.000	-0.008	-0.209
-551.383	-164.482	-0.334	-0.015
-550.369	-44.737	-0.170	0.086
-549.354	285.992	0.111	-0.201
-548.339	-65.067	-0.047	-0.019
-547.325	-200.000	0.012	0.381
-546.310	452.381	-0.102	0.228
-545.296	-60.915	0.116	0.049
-544.281	187.204	0.056	-0.085
-543.266	-46.481	0.351	-0.174
-542.252	135.575	-0.076	-0.100
-541.237	185.433	0.048	0.072
-540.223	224.365	0.084	-0.136
-539.208	157.616	0.121	-0.169
-538.193	183.390	0.116	0.173
-537.179	-200.000	0.023	0.135
-536.164	-68.731	-0.207	-0.081
-535.150	-200.000	-0.029	-0.149
-534.135	89.353	-0.167	-0.187
-533.121	-78.761	0.096	0.033
-532.106	-35.962	0.266	-0.145
-531.091	-38.989	-0.190	-0.101
-530.077	21.323	-0.241	-0.197
-529.062	88.525	0.252	0.282
-528.048	144.705	-0.224	-0.302
-527.033	-92.442	-0.540	0.153
-526.018	146.324	-0.121	0.164
-525.004	-163.193	0.146	0.007
-523.989	355.232	-0.074	-0.149
-522.975	-27.540	0.136	-0.080
-521.960	-200.000	0.001	0.142
-520.945	82.640	0.121	-0.132
-519.931	-200.000	-0.053	-0.266
-518.916	800.000	-0.029	0.101
-517.902	146.485	0.197	0.267
-516.887	-200.000	-0.036	0.187
-515.872	34.923	0.181	0.160
-514.858	-99.437	-0.305	0.077
-513.843	-200.000	-0.013	-0.154
-512.829	-14.996	-0.155	0.100
-511.814	-53.522	0.230	0.106
-510.799	-200.000	-0.018	0.249
-509.785	-58.684	0.304	0.132
-508.770	-122.940	-0.694	-0.112
-507.756	12.265	-0.122	0.094
-506.741	-149.931	-0.201	-0.016
-505.726	-116.901	-0.362	-0.067
-504.712	-48.780	-0.333	0.161
-503.697	-200.000	0.006	0.145
-502.683	181.850	0.174	0.258
-501.668	-15.662	0.067	0.043
-500.653	-200.000	0.012	0.146
-499.639	176.156	-0.118	-0.172
-498.624	-200.000	-0.002	-0.134
-497.610	63.092	0.146	0.147
-496.595	135.271	0.124	0.162
-495.581	8.802	0.090	-0.068
-494.566	800.000	0.021	0.084
-493.551	-140.042	0.153	-0.016
-492.537	-43.915	-0.205	0.104
-491.522	-12.559	-0.090	0.059
-490.508	435.039	-0.015	-0.033
-489.493	9.927	0.092	0.071
-488.478	-146.173	-0.269	0.024
-487.464	-200.000	0.001	0.010
-486.449	145.492	-0.245	0.330
-485.435	-130.334	-0.240	0.033
-484.420	127.985	0.065	0.083
-483.405	360.933	-0.089	-0.180
-482.391	800.000	0.044	-0.132
-481.376	-200.000	-0.019	0.101
-480.362	103.016	-0.058	-0.068
-479.347	-86.461	-0.219	0.068
-478.332	153.688	-0.106	0.146
-477.318	213.449	0.136	0.216
-476.303	-135.820	0.079	-0.009
-475.289	-200.000	0.029	0.171
-474.274	-26.269	0.133	0.078
-473.259	-200.000	-0.033	0.356
-472.245	47.042	-0.134	-0.125
-471.230	549.301	-0.120	0.289
-470.216	616.972	-0.048	0.120
-469.201	-112.115	-0.142	0.029
-468.186	-200.000	-0.039	-0.269
-467.172	-200.000	-0.017	0.207
-466.157	-123.925	0.048	-0.008
-465.143	-45.526	0.175	0.087
-464.128	-34.969	0.343	-0.188
-463.113	-47.708	-0.104	0.051
-462.099	-191.341	0.330	0.003
-461.084	-200.000	0.018	-0.142
-460.070	-28.572	-0.195	-0.113
-459.055	85.826	0.049	0.054
-458.040	117.979	0.113	0.140
-457.026	-73.447	-0.284	-0.104
-456.011	5.979	0.040	-0.030
-454.997	-60.361	-0.304	-0.130
-453.982	-200.000	0.011	0.416
-452.968	-130.626	0.135	-0.018
-451.953	-76.561	-0.143	-0.050
-450.938	-18.930	0.108	-0.067
-449.924	513.763	-0.110	0.258
-448.909	800.000	0.047	0.135
-447.895	-104.566	0.156	-0.036
-446.880	-143.364	0.154	0.015
-445.865	-200.000	-0.011	0.070
-444.851	-173.614	-0.123	0.004
-443.836	147.548	0.107	-0.145
-442.822	355.159	-0.061	-0.122
-441.807	-69.715	-0.433	-0.166
-440.792	264.853	-0.200	-0.349
-439.778	56.875	0.135	0.132
-438.763	-56.940	-0.155	0.069
-437.749	278.763	-0.110	0.198
-436.734	-200.000	-0.006	-0.156
-435.719	-39.260	0.152	0.080
-434.705	-200.000	-0.005	0.050
-433.690	-20.957	-0.051	-0.031
-432.676	-200.000	0.001	-0.166
-431.661	454.551	0.141	0.313
-430.646	-19.657	0.197	0.122
-429.632	-108.261	0.188	-0.041
-428.617	677.770	0.061	0.160
-427.603	340.712	0.137	0.269
-426.588	-28.485	0.234	0.135
-425.573	-81.773	0.351	-0.116
-424.559	80.706	0.067	-0.072
-423.544	590.750	0.059	-0.146
-422.530	800.000	-0.029	-0.085
-421.515	22.945	-0.071	0.059
-420.500	-102.238	0.130	0.031
-419.486	-163.541	-0.071	0.003
-418.471	-200.000	0.041	0.213
-417.457	26.178	0.120	0.100
-416.442	800.000	-0.037	0.148
-415.428	-127.214	-0.270	-0.040
-414.413	39.595	0.140	-0.126
-413.398	-40.662	-0.218	-0.114
-412.384	175.729	0.205	-0.298
-411.369	800.000	-0.059	-0.183
-410.355	517.124	-0.110	-0.259
-409.340	800.000	0.102	-0.375
-408.325	62.711	0.161	-0.162
-407.311	-41.369	-0.237	0.122
-406.296	-200.000	0.010	-0.099
-405.282	-200.000	-0.015	-0.097
-404.267	109.977	0.082	0.099
-403.252	12.490	0.020	-0.015
-402.238	115.427	0.138	-0.170
-401.223	240.375	0.027	-0.045
-400.209	-157.274	0.186	-0.011
-399.194	-72.245	-0.077	0.028
-398.179	-89.738	-0.297	-0.087
-397.165	-42.628	0.033	0.017
-396.150	35.658	-0.074	0.065
-395.136	-51.179	0.098	0.046
-394.121	373.282	0.068	0.139
-393.106	-75.354	0.380	-0.136
-392.092	-131.428	-0.108	-0.014
-391.077	-200.000	-0.020	-0.213
-390.063	198.247	0.189	0.290
-389.048	-65.324	0.363	-0.146
-388.033	-151.599	-0.196	0.015
-387.019	-61.396	-0.063	-0.026
-386.004	800.000	0.040	-0.159
-384.990	800.000	0.060	0.181
-383.975	-200.000	0.027	0.136
-382.960	15.848	-0.426	-0.336
-381.946	-85.198	-0.116	-0.036
-380.931	-54.845	0.286	0.129
-379.917	-200.000	-0.003	-0.156
-378.902	307.709	-0.080	0.149
-377.888	-47.152	0.262	0.128
-376.873	-52.810	-0.277	0.128
-375.858	-200.000	0.018	0.169
-374.844	-200.000	-0.057	0.261
-373.829	-200.000	-0.045	-0.294
-372.815	47.056	-0.319	-0.298
-371.800	121.888	-0.072	0.089
-370.785	284.956	-0.056	-0.102
-369.771	306.495	-0.219	-0.407
-368.756	134.396	-0.186	-0.241
-367.742	-200.000	-0.062	0.362
-366.727	-27.236	0.165	-0.096
-365.712	-200.000	-0.006	0.035
-364.698	137.369	-0.081	0.106
-363.683	387.812	0.137	-0.283
-362.669	523.139	0.037	-0.087
-361.654	-200.000	0.025	0.239
-360.639	115.986	-0.311	0.381
-359.625	-90.742	0.309	-0.089
-358.610	-200.000	0.013	0.105
-357.596	-158.286	0.321	-0.019
-356.581	488.821	0.099	0.226
-355.566	147.867	-0.171	0.231
-354.552	-200.000	0.004	0.350
-353.537	-200.000	-0.013	0.061
-352.523	107.708	0.123	0.147
-351.508	-120.056	0.193	0.033
-350.493	-43.528	0.235	-0.119
-349.479	130.376	0.175	0.224
-348.464	-65.129	0.274	-0.111
-347.450	-129.482	0.276	-0.038
-346.435	471.929	0.078	-0.175
-345.420	764.207	-0.029	0.080
-344.406	-116.520	-0.170	0.031
-343.391	-40.753	-0.165	0.086
-342.377	-72.406	-0.229	-0.085
-341.362	800.000	-0.075	0.225
-340.348	-19.461	0.183	-0.113
-339.333	316.910	-0.121	0.229
-338.318	6.368	0.056	-0.041
-337.304	277.561	0.125	-0.222
-336.289	-171.388	-0.096	0.003
-335.275	21.602	-0.111	-0.090
-334.260	-197.221	0.240	-0.002
-333.245	-96.761	-0.124	0.033
-332.231	-106.712	0.085	0.019
-331.216	42.700	0.154	-0.140
-330.202	-200.000	0.011	-0.256
-329.187	-17.116	0.232	-0.146
-328.172	26.813	0.162	0.135
-327.158	-113.919	0.205	-0.040
-326.143	200.234	0.163	-0.250
-325.129	-74.579	0.174	-0.062
-324.114	-100.063	0.258	-0.064
-323.099	-160.431	0.354	0.019
-322.085	195.446	0.068	-0.103
-321.070	245.754	-0.021	-0.036
-320.056	-200.000	0.020	-0.260
-319.041	298.242	0.161	-0.296
-318.026	800.000	0.070	-0.297
-317.012	97.108	0.041	0.047
-315.997	-185.029	-0.182	-0.003
-314.983	-78.392	0.229	0.079
-313.968	-200.000	0.014	0.149
-312.953	-200.000	0.018	-0.134
-311.939	465.645	0.125	0.280
-310.924	-121.225	-0.505	0.084
-309.910	77.893	0.081	-0.087
-308.895	92.941	-0.135	-0.152
-307.880	-82.926	-0.339	-0.109
-306.866	78.046	0.108	0.116
-305.851	-26.694	-0.214	-0.125
-304.837	-34.032	0.226	-0.124
-303.822	415.887	0.142	-0.302
-302.807	-123.400	-0.175	0.028
-301.793	-200.000	-0.037	0.386
-300.778	10.169	-0.183	0.139
-299.764	-100.059	-0.186	-0.046
-298.749	-20.143	0.125	-0.077
-297.735	-57.494	-0.262	-0.115
-296.720	-200.000	-0.031	-0.270
-295.705	-46.393	-0.410	0.201
-294.691	-151.129	-0.176	-0.013
-293.676	-20.192	0.196	0.120
-292.662	-70.299	-0.242	-0.092
-291.647	-200.000	0.073	0.000
-290.632	-55.217	-0.085	0.038
-289.618	-200.000	-0.018	0.124
-288.603	-148.573	0.105	0.009
-287.589	72.345	-0.017	0.018
-286.574	374.803	-0.085	-0.172
-285.559	-64.738	0.209	0.084
-284.545	-89.899	-0.147	-0.043
-283.530	800.000	0.086	0.311
-282.516	364.074	0.080	-0.160
-281.501	216.953	0.084	0.133
-280.486	-33.074	-0.087	0.048
-279.472	-84.708	0.153	0.048
-278.457	-184.013	-0.045	-0.001
-277.443	350.709	0.088	0.173
-276.428	253.928	-0.099	-0.168
-275.413	-200.000	-0.009	-0.063
-274.399	80.820	-0.065	0.070
-273.384	126.334	0.246	0.310
-272.370	-156.920	0.296	0.018
-271.355	602.094	-0.086	-0.214
-270.340	279.258	-0.112	0.199
-269.326	197.369	0.288	-0.438
-268.311	583.179	0.120	-0.295
-267.297	-177.182	-0.360	-0.009
-266.282	-200.000	0.013	0.195
-265.267	183.903	0.025	0.036
-264.253	800.000	-0.047	0.145
-263.238	-5.517	0.081	0.055
-262.224	-200.000	0.001	0.113
-261.209	82.494	-0.062	-0.067
-260.195	34.691	0.079	-0.069
-259.180	-18.508	0.130	0.081
-258.165	156.537	-0.064	0.087
-257.151	-129.058	-0.133	-0.019
-256.136	-200.000	-0.056	-0.287
-255.122	152.338	-0.106	0.144
-254.107	130.800	0.132	0.169
-253.092	-42.408	-0.030	0.015
-252.078	563.136	0.033	-0.080
-251.063	187.641	-0.173	-0.258
-250.049	800.000	0.127	-0.353
-249.034	366.367	-0.024	0.048
-248.019	504.880	-0.132	-0.305
-247.005	-101.640	0.081	-0.019
-245.990	142.698	0.180	0.239
-244.976	-34.517	-0.105	0.057
-243.961	-149.564	-0.285	-0.022
-242.946	800.000	-0.036	-0.155
-241.932	-200.000	0.045	-0.265
-240.917	-151.045	0.090	-0.007
-239.903	322.170	-0.072	-0.136
-238.888	-57.795	-0.068	0.029
-237.873	-133.493	0.290	-0.036
-236.859	419.640	0.098	0.208
-235.844	-35.591	0.165	0.089
-234.830	151.530	-0.084	0.113
-233.815	-140.535	-0.060	-0.006
-232.800	500.840	-0.008	0.018
-231.786	357.035	0.146	0.290
-230.771	196.937	0.097	0.148
-229.757	800.000	0.033	-0.103
-228.742	800.000	0.069	-0.241
-227.727	310.572	-0.101	0.188
-226.713	67.181	0.217	0.220
-225.698	1.046	0.219	-0.156
-224.684	-115.691	0.077	-0.014
-223.669	10.115	0.317	0.240
-222.655	-69.176	0.146	0.056
-221.640	-200.000	-0.012	-0.301
-220.625	-1.537	-0.360	0.253
-219.611	75.338	-0.188	0.197
-218.596	215.646	0.212	0.335
-217.582	-125.646	0.271	-0.041
-216.567	-156.649	0.088	0.005
-215.552	800.000	-0.049	-0.199
-214.538	85.202	0.043	-0.047
-213.523	-200.000	0.047	0.365
-212.509	-43.729	-0.375	-0.188
-211.494	-193.445	0.139	-0.001
-210.479	10.858	0.228	0.173
-209.465	-33.886	-0.475	-0.260
-208.450	-181.537	-0.258	0.005
-207.436	-21.256	-0.183	-0.111
-206.421	267.367	-0.174	-0.302
-205.406	-182.195	0.406	0.008
-204.392	-3.359	0.166	-0.115
-203.377	-200.000	-0.000	0.174
-202.363	-111.982	0.210	-0.042
-201.348	58.993	0.151	-0.148
-200.333	-21.372	0.144	-0.088
-199.319	14.930	-0.259	0.202
-198.304	-90.117	0.264	0.076
-197.290	-75.074	-0.420	-0.149
-196.275	-118.656	0.184	-0.032
-195.260	-200.000	0.011	-0.065
-194.246	-44.586	0.462	0.229
-193.231	153.781	0.174	0.237
-192.217	163.133	0.145	-0.203
-191.202	800.000	-0.014	0.041
-190.187	156.416	0.147	-0.202
-189.173	-200.000	0.029	0.311
-188.158	487.582	-0.070	0.160
-187.144	-115.841	0.246	0.046
-186.129	-47.210	-0.287	0.139
-185.114	-136.330	-0.073	-0.008
-184.100	-200.000	0.009	0.410
-183.085	-144.967	-0.105	0.009
-182.071	-200.000	-0.016	-0.151
-181.056	59.003	-0.221	-0.216
-180.042	144.748	0.126	-0.168
-179.027	311.797	-0.198	0.369
-178.012	-27.920	-0.149	-0.086
-176.998	-200.000	-0.037	0.185
-175.983	-151.143	-0.223	-0.017
-174.969	-105.586	-0.261	0.059
-173.954	-180.051	0.157	-0.003
-172.939	-10.776	0.079	0.052
-171.925	554.641	0.093	-0.222
-170.910	-200.000	-0.039	0.367
-169.896	82.488	0.077	-0.083
-168.881	800.000	-0.057	-0.205
-167.866	-41.489	0.072	-0.037
-166.852	9.450	-0.142	0.107
-165.837	-56.888	-0.014	0.006
-164.823	-200.000	-0.016	-0.265
-163.808	9.671	0.117	-0.088
-162.793	-42.014	0.387	-0.197
-161.779	-200.000	-0.008	0.117
-160.764	-200.000	0.021	0.258
-159.750	400.507	-0.076	-0.157
-158.735	-34.939	-0.121	0.066
-157.720	35.948	-0.348	-0.304
-156.706	771.010	-0.070	-0.190
-155.691	-111.963	0.223	-0.045
-154.677	447.391	-0.052	-0.114
-153.662	328.550	-0.119	-0.227
-152.647	800.000	0.046	-0.167
-151.633	303.639	-0.155	0.285
-150.618	781.016	0.055	-0.149
-149.604	-102.026	0.306	0.073
-148.589	-200.000	-0.031	-0.135
-147.574	-121.242	-0.171	0.028
-146.560	-200.000	0.035	-0.153
-145.545	170.944	0.031	0.044
-144.531	53.824	-0.183	-0.174
-143.516	800.000	0.053	-0.196
-142.502	-159.447	0.282	-0.016
-141.487	-200.000	-0.007	-0.082
-140.472	-46.784	0.088	-0.043
-139.458	-200.000	0.029	-0.141
-138.443	-200.000	-0.063	-0.305
-137.429	-121.693	-0.211	-0.035
-136.414	-200.000	0.006	0.118
-135.399	370.370	0.130	0.262
-134.385	-96.079	-0.203	-0.053
-133.370	-93.182	0.049	0.013
-132.356	-200.000	-0.014	0.095
-131.341	-171.218	-0.232	-0.008
-130.326	-200.000	-0.009	-0.098
-129.312	27.659	-0.164	0.137
-128.297	-200.000	-0.004	0.342
-127.283	-64.077	-0.132	-0.053
-126.268	106.754	-0.300	-0.353
-125.253	46.790	-0.259	-0.239
-124.239	-200.000	0.034	-0.180
-123.224	-84.595	0.507	0.159
