DTS Sentinel unit serial number:	SN413079Multiplexer serial number:	ORYXHardware model number:	OX4-SRSoftware version number:	ORYX F/W v4.00 Oryx Data Collector v3.7.2.0data status	okinstallation	princeton_trtdifferential loss correction	single-endedforward channel	channel 3reverse channel	N/Adate	2019/09/10time	19:38:10forward acquisition time	60.00reverse acquisition time	0.00gamma	496.2192k internal	0.2320k external	0.2320temperature offset calibration	0.9911default loss term (dB/km)	0.3790temperature slope calibration	1.0000multiplexer offset coefficient	1.0000multiplexer slope coefficient	1.0000fibre end	0.00T internal ref (°C)	33.23T ext. ref 1 (°C)	-0.36T ext. ref 2 (°C)	26.02length (m)	temperature (°C)	Stokes	anti-Stokes-747.200	-200.000	-0.003	-0.029
-746.185	-200.000	0.117	0.000
-745.171	-16.223	-0.261	-0.168
-744.156	-5.418	-0.080	-0.056
-743.142	124.764	0.140	-0.178
-742.127	800.000	0.045	0.194
-741.112	16.396	-0.212	0.169
-740.098	-7.130	-0.336	0.230
-739.083	38.538	-0.096	-0.086
-738.069	14.790	-0.066	-0.052
-737.054	-200.000	0.026	-0.180
-736.039	-200.000	-0.026	-0.303
-735.025	-139.478	-0.340	-0.037
-734.010	-35.720	0.237	-0.130
-732.996	-113.621	-0.249	0.049
-731.981	69.472	0.019	-0.019
-730.966	800.000	-0.037	0.139
-729.952	-49.743	0.107	0.051
-728.937	62.743	-0.132	-0.134
-727.923	-63.427	0.308	-0.128
-726.908	610.567	0.023	0.058
-725.894	-125.006	-0.643	0.100
-724.879	-182.149	0.361	0.007
-723.864	800.000	-0.152	-0.427
-722.850	-159.993	-0.121	0.007
-721.835	-42.753	-0.050	-0.026
-720.821	-53.121	0.252	-0.117
-719.806	800.000	-0.038	-0.109
-718.791	473.482	-0.170	-0.386
-717.777	-200.000	-0.007	-0.274
-716.762	-109.792	-0.328	-0.070
-715.748	-116.525	0.155	0.029
-714.733	313.674	0.190	-0.362
-713.718	-27.386	-0.217	-0.128
-712.704	-41.039	0.368	-0.192
-711.689	-18.922	0.321	0.202
-710.675	100.176	0.087	0.102
-709.660	-200.000	0.060	0.474
-708.645	-200.000	-0.032	0.178
-707.631	167.639	0.140	-0.202
-706.616	-8.614	0.071	-0.048
-705.602	125.615	0.127	-0.163
-704.587	-23.315	-0.214	0.130
-703.572	-200.000	0.067	-0.345
-702.558	-20.194	0.235	-0.146
-701.543	231.507	0.153	0.252
-700.529	-115.453	0.224	-0.043
-699.514	52.207	-0.317	-0.305
-698.499	388.370	0.041	0.086
-697.485	697.455	-0.041	0.108
-696.470	-200.000	-0.007	0.175
-695.456	800.000	0.026	-0.102
-694.441	-146.790	-0.238	-0.021
-693.426	105.669	0.119	-0.142
-692.412	22.913	-0.080	-0.066
-691.397	800.000	0.071	-0.291
-690.383	-23.519	-0.201	0.122
-689.368	125.936	0.046	0.059
-688.354	-94.382	-0.391	-0.108
-687.339	-200.000	-0.062	0.335
-686.324	79.689	-0.083	-0.090
-685.310	-92.129	0.293	-0.084
-684.295	-200.000	0.033	0.315
-683.281	-106.783	0.194	-0.043
-682.266	-200.000	-0.024	0.244
-681.251	-147.411	0.340	-0.029
-680.237	-143.553	-0.315	0.030
-679.222	-150.404	-0.200	-0.016
-678.208	-50.038	0.167	0.080
-677.193	-200.000	0.009	0.146
-676.178	-141.319	0.168	-0.017
-675.164	123.573	-0.066	-0.084
-674.149	208.736	-0.094	0.148
-673.135	-69.783	0.300	0.115
-672.120	800.000	-0.024	0.084
-671.105	37.032	0.164	0.147
-670.091	295.621	0.084	0.155
-669.076	-31.987	0.252	0.142
-668.062	531.571	0.041	-0.099
-667.047	-143.337	-0.181	0.018
-666.032	53.741	0.151	0.146
-665.018	0.094	-0.167	-0.120
-664.003	-200.000	0.002	-0.285
-662.989	-81.053	-0.049	0.016
-661.974	531.600	-0.094	0.224
-660.959	122.900	0.113	0.142
-659.945	-129.624	-0.289	-0.040
-658.930	-23.862	-0.189	0.114
-657.916	-115.326	0.238	-0.045
-656.901	-196.550	-0.048	0.000
-655.886	192.555	-0.083	-0.126
-654.872	-69.288	-0.220	-0.085
-653.857	-88.638	0.222	0.067
-652.843	-56.683	0.359	-0.160
-651.828	800.000	0.086	0.262
-650.814	626.153	-0.032	-0.081
-649.799	99.351	-0.141	0.164
-648.784	-24.609	-0.108	0.065
-647.770	-89.382	0.175	-0.052
-646.755	800.000	-0.063	0.271
-645.741	160.620	-0.052	0.073
-644.726	800.000	0.021	0.066
-643.711	246.281	0.173	0.294
-642.697	-200.000	0.028	-0.258
-641.682	-200.000	-0.019	-0.156
-640.668	41.206	-0.266	0.242
-639.653	-200.000	-0.018	0.404
-638.638	33.508	-0.057	0.050
-637.624	21.120	0.144	-0.118
-636.609	-200.000	0.011	-0.292
-635.595	415.620	0.016	0.034
-634.580	-36.862	0.160	-0.087
-633.565	-87.176	-0.112	-0.034
-632.551	-76.892	-0.107	-0.037
-631.536	6.796	-0.035	-0.026
-630.522	-99.567	0.372	-0.094
-629.507	-200.000	0.005	0.167
-628.492	-23.288	-0.111	0.067
-627.478	452.095	-0.075	0.166
-626.463	-163.523	-0.419	-0.020
-625.449	800.000	0.014	-0.058
-624.434	-200.000	0.080	-0.544
-623.419	-180.680	-0.172	-0.004
-622.405	88.998	-0.055	0.062
-621.390	386.119	0.087	-0.181
-620.376	-21.430	0.303	0.186
-619.361	-60.594	-0.319	0.136
-618.346	-66.516	0.261	-0.104
-617.332	-88.763	-0.169	-0.051
-616.317	301.241	-0.168	-0.313
-615.303	-61.637	0.278	-0.117
-614.288	75.470	-0.064	-0.067
-613.273	191.759	0.133	-0.201
-612.259	68.717	0.046	-0.048
-611.244	383.230	-0.078	0.161
-610.230	184.175	0.066	-0.098
-609.215	-181.534	0.205	0.004
-608.201	-54.533	0.245	0.112
-607.186	33.919	0.039	0.034
-606.171	47.628	-0.175	0.165
-605.157	800.000	0.034	-0.122
-604.142	-90.169	0.198	0.058
-603.128	748.019	0.076	-0.206
-602.113	296.241	0.076	0.140
-601.098	19.972	-0.067	-0.054
-600.084	-97.085	-0.062	-0.016
-599.069	38.571	-0.102	0.092
-598.055	354.168	-0.154	-0.308
-597.040	-141.485	-0.196	0.020
-596.025	-32.679	-0.274	-0.153
-595.011	-76.505	0.453	-0.160
-593.996	-200.000	-0.004	0.400
-592.982	-36.127	0.273	0.148
-591.967	-51.662	-0.224	-0.105
-590.952	-84.239	0.027	-0.009
-589.938	-115.392	-0.254	-0.048
-588.923	59.724	-0.293	0.290
-587.909	-109.412	0.165	0.035
-586.894	9.067	0.243	-0.185
-585.879	800.000	0.096	-0.287
-584.865	-200.000	-0.046	0.204
-583.850	800.000	0.110	0.330
-582.836	-82.978	0.324	0.105
-581.821	-200.000	-0.022	-0.455
-580.806	-167.073	-0.141	-0.006
-579.792	114.802	0.161	-0.198
-578.777	800.000	0.099	0.281
-577.763	-79.172	0.167	-0.057
-576.748	195.363	-0.212	0.324
-575.733	62.538	0.123	-0.123
-574.719	-109.449	-0.157	0.033
-573.704	-192.357	0.232	-0.002
-572.690	324.029	-0.087	0.167
-571.675	208.753	0.059	0.093
-570.661	110.387	0.086	0.103
-569.646	-55.881	-0.114	-0.051
-568.631	-40.713	-0.201	-0.105
-567.617	-63.636	0.172	0.071
-566.602	-108.209	0.267	0.058
-565.588	800.000	-0.101	0.303
-564.573	-139.249	0.180	0.019
-563.558	54.921	-0.124	-0.120
-562.544	86.899	-0.347	-0.385
-561.529	-93.354	-0.160	-0.045
-560.515	-200.000	-0.077	0.401
-559.500	-200.000	-0.005	0.444
-558.485	-200.000	0.041	0.182
-557.471	-85.813	-0.084	0.026
-556.456	494.679	-0.041	0.095
-555.442	-160.430	0.300	-0.016
-554.427	10.275	-0.183	-0.140
-553.412	-52.940	0.316	-0.146
-552.398	192.934	0.161	-0.243
-551.383	63.168	-0.041	-0.041
-550.369	596.705	-0.025	-0.062
-549.354	-47.169	0.028	-0.014
-548.339	-126.837	0.154	-0.023
-547.325	111.904	-0.146	-0.177
-546.310	-153.028	-0.111	-0.008
-545.296	405.896	-0.157	0.332
-544.281	0.918	-0.180	-0.130
-543.266	563.907	0.024	-0.059
-542.252	25.501	-0.087	0.073
-541.237	-200.000	-0.037	0.328
-540.223	800.000	-0.042	0.169
-539.208	-1.078	0.134	-0.095
-538.193	-22.341	-0.228	0.139
-537.179	-142.374	0.165	-0.016
-536.164	146.877	0.139	0.187
-535.150	-27.678	0.257	0.150
-534.135	-53.946	-0.145	-0.066
-533.121	100.641	0.089	0.104
-532.106	42.103	-0.196	-0.179
-531.091	-8.565	-0.260	0.175
-530.077	-200.000	0.004	-0.067
-529.062	-103.635	0.320	-0.075
-528.048	32.326	0.177	-0.154
-527.033	-152.135	-0.184	0.013
-526.018	-200.000	-0.006	0.107
-525.004	580.766	0.112	0.275
-523.989	80.959	-0.148	0.160
-522.975	-200.000	0.008	-0.192
-521.960	-12.410	0.231	0.151
-520.945	-200.000	-0.050	0.247
-519.931	-63.512	-0.173	-0.071
-518.916	800.000	0.118	-0.439
-517.902	-200.000	0.026	-0.274
-516.887	-19.514	-0.281	-0.175
-515.872	-97.457	0.328	-0.085
-514.858	36.685	-0.096	0.085
-513.843	-95.633	-0.134	-0.036
-512.829	-75.183	0.176	0.063
-511.814	3.670	-0.090	-0.066
-510.799	-200.000	-0.002	-0.055
-509.785	-200.000	-0.002	-0.015
-508.770	97.705	-0.103	-0.119
-507.756	-200.000	-0.020	-0.120
-506.741	-139.072	-0.202	-0.022
-505.726	-27.438	0.181	0.105
-504.712	-145.607	-0.158	-0.014
-503.697	-200.000	0.052	0.323
-502.683	-86.886	0.090	-0.028
-501.668	452.074	-0.051	0.113
-500.653	-165.932	-0.077	0.003
-499.639	-42.581	0.085	0.043
-498.624	-200.000	0.033	-0.321
-497.610	375.971	0.123	0.252
-496.595	800.000	0.061	-0.172
-495.581	199.756	0.134	0.207
-494.566	53.101	-0.292	-0.280
-493.551	-48.763	0.306	-0.147
-492.537	-148.311	-0.365	-0.030
-491.522	116.865	0.150	-0.184
-490.508	561.084	0.018	-0.045
-489.493	-31.096	-0.269	-0.152
-488.478	132.842	0.159	-0.205
-487.464	-13.377	-0.261	-0.169
-486.449	-77.456	-0.222	0.077
-485.435	-110.347	-0.169	0.035
-484.420	800.000	0.009	0.032
-483.405	-200.000	0.026	-0.235
-482.391	-4.649	0.022	-0.016
-481.376	-200.000	0.027	0.148
-480.362	135.748	-0.130	-0.169
-479.347	231.222	-0.060	0.099
-478.332	-61.680	-0.208	0.087
-477.318	-200.000	0.020	0.105
-476.303	-200.000	0.008	-0.087
-475.289	-19.416	0.083	0.051
-474.274	49.767	0.174	-0.164
-473.259	-200.000	-0.063	-0.454
-472.245	-93.286	-0.163	0.045
-471.230	-159.132	0.363	0.020
-470.216	-100.067	-0.213	-0.053
-469.201	711.043	-0.062	0.165
-468.186	63.353	0.242	-0.243
-467.172	800.000	-0.081	-0.229
-466.157	240.235	0.092	-0.153
-465.143	-12.472	-0.305	0.199
-464.128	175.725	-0.031	0.045
-463.113	-102.687	0.213	-0.051
-462.099	-12.280	0.230	-0.150
-461.084	-72.934	0.293	-0.108
-460.070	273.067	0.024	0.043
-459.055	-9.454	-0.260	0.174
-458.040	-170.933	-0.056	-0.002
-457.026	-99.858	-0.149	-0.037
-456.011	-45.181	-0.045	0.023
-454.997	-200.000	0.021	-0.198
-453.982	-182.287	-0.201	0.004
-452.968	-152.392	-0.457	-0.033
-451.953	20.499	-0.191	-0.154
-450.938	237.758	0.017	-0.028
-449.924	800.000	0.075	-0.288
-448.909	-146.529	-0.213	-0.019
-447.895	-200.000	0.043	0.588
-446.880	8.294	0.114	-0.085
-445.865	130.921	0.014	0.018
-444.851	-69.531	-0.156	-0.060
-443.836	118.341	-0.382	-0.471
-442.822	2.510	0.257	0.186
-441.807	131.749	-0.036	0.046
-440.792	-17.962	-0.199	0.125
-439.778	-146.659	0.077	0.007
-438.763	-156.918	0.268	-0.016
-437.749	-60.103	-0.342	0.146
-436.734	800.000	-0.070	-0.225
-435.719	15.510	0.127	0.100
-434.705	-55.810	0.083	0.037
-433.690	-184.001	-0.113	-0.002
-432.676	231.791	0.144	-0.236
-431.661	299.850	-0.026	0.047
-430.646	150.810	-0.084	-0.113
-429.632	-9.648	0.202	-0.135
-428.617	-103.123	0.172	0.041
-427.603	-200.000	-0.018	0.151
-426.588	150.558	0.159	0.215
-425.573	-200.000	-0.055	0.461
-424.559	465.163	-0.072	0.160
-423.544	-200.000	0.053	0.260
-422.530	166.074	-0.153	0.216
-421.515	47.271	0.051	-0.047
-420.500	800.000	0.095	-0.333
-419.486	800.000	0.043	-0.149
-418.471	800.000	0.071	0.297
-417.457	-32.630	-0.460	-0.256
-416.442	-138.671	0.079	-0.009
-415.428	89.428	0.371	0.412
-414.413	-135.385	0.417	0.050
-413.398	-84.914	0.119	-0.037
-412.384	800.000	-0.058	-0.205
-411.369	-200.000	-0.017	-0.149
-410.355	18.206	-0.120	0.096
-409.340	-152.210	0.243	0.018
-408.325	-127.374	0.028	-0.004
-407.311	-200.000	0.028	0.240
-406.296	-200.000	0.055	0.326
-405.282	319.393	-0.124	-0.234
-404.267	66.326	-0.049	-0.050
-403.252	-200.000	0.051	0.232
-402.238	-101.747	-0.277	0.067
-401.223	795.488	-0.048	-0.133
-400.209	-73.545	0.207	0.075
-399.194	-111.279	-0.060	-0.012
-398.179	-37.411	0.047	0.025
-397.165	-200.000	0.020	-0.119
-396.150	-200.000	-0.010	0.272
-395.136	78.141	-0.184	0.196
-394.121	153.174	0.149	0.204
-393.106	461.601	-0.145	-0.322
-392.092	-107.056	-0.055	0.012
-391.077	-200.000	-0.062	-0.435
-390.063	-200.000	0.002	-0.165
-389.048	-38.013	-0.284	-0.150
-388.033	-200.000	-0.011	-0.160
-387.019	604.519	-0.037	-0.092
-386.004	-62.200	-0.283	0.118
-384.990	-118.354	0.186	0.033
-383.975	800.000	0.091	0.252
-382.960	22.938	0.227	-0.186
-381.946	609.774	0.096	-0.238
-380.931	6.279	0.295	-0.218
-379.917	-200.000	-0.053	-0.270
-378.902	-70.311	-0.258	0.097
-377.888	800.000	0.081	-0.296
-376.873	388.327	0.125	0.257
-375.858	27.045	0.058	-0.048
-374.844	589.180	-0.078	-0.191
-373.829	800.000	-0.033	0.116
-372.815	-105.230	-0.093	0.021
-371.800	-200.000	-0.044	0.201
-370.785	-119.444	0.267	0.046
-369.771	-171.832	0.245	-0.008
-368.756	197.263	-0.103	0.157
-367.742	-96.624	0.270	-0.071
-366.727	-102.163	-0.416	0.100
-365.712	37.147	0.176	0.155
-364.698	-200.000	-0.006	0.094
-363.683	-200.000	-0.007	-0.034
-362.669	5.368	0.126	0.093
-361.654	-200.000	-0.266	0.000
-360.639	-40.958	0.161	0.083
-359.625	-123.035	0.134	0.022
-358.610	800.000	0.067	-0.192
-357.596	92.755	-0.328	-0.369
-356.581	18.385	0.246	-0.196
-355.566	31.099	-0.164	0.140
-354.552	-69.797	0.431	0.164
-353.537	38.526	-0.217	0.193
-352.523	-22.512	0.453	0.273
-351.508	-200.000	0.012	-0.058
-350.493	527.799	0.116	0.272
-349.479	22.810	-0.106	0.086
-348.464	679.922	0.137	-0.355
-347.450	800.000	0.076	0.233
-346.435	53.847	0.204	-0.195
-345.420	-182.034	-0.409	-0.008
-344.406	-84.882	0.456	0.143
-343.391	-200.000	0.026	-0.372
-342.377	108.533	-0.074	-0.088
-341.362	-10.005	0.079	0.052
-340.348	65.928	0.160	-0.162
-339.333	501.905	0.147	-0.338
-338.318	409.348	0.067	0.142
-337.304	15.678	-0.129	0.101
-336.289	-33.491	-0.280	-0.154
-335.275	83.604	-0.097	0.106
-334.260	-200.000	-0.000	0.084
-333.245	800.000	0.035	-0.116
-332.231	-143.123	-0.170	0.016
-331.216	-133.147	-0.070	-0.009
-330.202	-125.367	0.147	-0.022
-329.187	-68.185	-0.170	0.066
-328.172	-156.785	0.129	0.008
-327.158	-4.317	0.188	-0.130
-326.143	211.450	-0.214	0.336
-325.129	-156.665	0.265	-0.016
-324.114	-150.139	0.278	-0.021
-323.099	18.227	-0.184	0.146
-322.085	-200.000	0.088	0.000
-321.070	1.807	0.131	0.094
-320.056	141.829	0.114	0.151
-319.041	80.368	-0.226	0.242
-318.026	-94.814	-0.052	0.014
-317.012	742.048	-0.066	0.175
-315.997	-141.982	-0.003	-0.000
-314.983	-155.545	-0.246	0.016
-313.968	204.314	-0.151	0.233
-312.953	-200.000	0.026	0.253
-311.939	-90.799	-0.134	0.038
-310.924	300.285	0.160	0.293
-309.910	28.575	0.107	0.090
-308.895	-200.000	0.069	0.395
-307.880	-200.000	0.004	-0.040
-306.866	-93.373	0.133	-0.037
-305.851	33.057	0.076	-0.065
-304.837	630.306	-0.090	0.226
-303.822	35.197	-0.074	-0.065
-302.807	109.359	0.184	-0.219
-301.793	-88.973	0.165	-0.049
-300.778	40.444	-0.129	-0.115
-299.764	800.000	-0.078	0.284
-298.749	-200.000	-0.015	0.384
-297.735	418.256	-0.032	0.068
-296.720	46.938	-0.215	-0.199
-295.705	622.700	-0.146	0.364
-294.691	-69.306	-0.292	0.111
-293.676	-81.348	0.061	0.020
-292.662	99.155	-0.059	0.068
-291.647	129.819	0.085	0.108
-290.632	-107.872	-0.232	-0.050
-289.618	210.376	-0.078	0.121
-288.603	146.888	0.240	-0.321
-287.589	41.163	-0.145	0.130
-286.574	-127.055	-0.372	-0.054
-285.559	-61.806	0.359	0.149
-284.545	800.000	0.017	-0.048
-283.530	31.359	-0.380	-0.324
-282.516	364.732	-0.100	-0.200
-281.501	-97.442	-0.125	-0.032
-280.486	453.641	-0.104	-0.229
-279.472	172.390	0.208	0.297
-278.457	-200.000	-0.007	0.239
-277.443	-60.647	0.210	0.088
-276.428	-70.595	-0.200	0.075
-275.413	-49.706	0.078	0.037
-274.399	-127.652	0.193	0.028
-273.384	800.000	-0.059	-0.255
-272.370	279.786	-0.012	-0.021
-271.355	376.379	-0.112	0.226
-270.340	268.456	0.111	-0.193
-269.326	-9.193	0.049	-0.033
-268.311	10.842	-0.236	-0.179
-267.297	5.401	-0.072	0.052
-266.282	11.288	0.070	0.053
-265.267	67.429	0.120	0.122
-264.253	-71.722	-0.077	0.028
-263.238	-200.000	-0.021	0.233
-262.224	25.362	-0.166	-0.137
-261.209	347.672	-0.026	-0.050
-260.195	25.299	0.192	-0.159
-259.180	4.895	-0.220	0.160
-258.165	800.000	-0.039	-0.141
-257.151	-175.486	0.191	-0.005
-256.136	-200.000	0.006	-0.068
-255.122	12.946	-0.097	0.074
-254.107	77.738	0.317	-0.335
-253.092	-129.957	-0.270	0.037
-252.078	-158.123	-0.165	-0.010
-251.063	-107.253	0.185	-0.040
-250.049	47.944	0.197	0.183
-249.034	-53.399	-0.095	-0.043
-248.019	-200.000	-0.003	0.037
-247.005	742.974	0.058	-0.156
-245.990	-200.000	-0.005	-0.183
-244.976	-66.857	0.363	-0.142
-243.961	-200.000	-0.028	0.135
-242.946	800.000	0.052	0.167
-241.932	-81.142	0.118	0.039
-240.917	800.000	0.051	0.153
-239.903	-200.000	-0.026	0.297
-238.888	-95.959	-0.162	0.043
-237.873	-45.632	0.332	0.163
-236.859	-59.989	0.181	-0.077
-235.844	-200.000	0.044	0.203
-234.830	2.880	-0.169	-0.122
-233.815	-30.777	-0.210	-0.118
-232.800	-97.910	-0.199	0.051
-231.786	-80.650	0.116	0.038
-230.771	119.089	0.332	-0.407
-229.757	284.492	-0.057	-0.101
-228.742	-200.000	0.003	0.323
-227.727	46.016	-0.128	-0.117
-226.713	248.097	-0.102	-0.172
-225.698	96.279	-0.043	-0.049
-224.684	4.787	0.062	0.045
-223.669	-48.817	-0.161	-0.077
-222.655	202.579	-0.144	0.220
-221.640	-200.000	-0.013	-0.201
-220.625	-95.194	-0.215	-0.058
-219.611	-200.000	-0.001	-0.051
-218.596	696.059	0.066	-0.172
-217.582	-170.144	-0.236	-0.008
-216.567	96.394	0.054	0.061
-215.552	19.939	0.493	-0.394
-214.538	800.000	-0.097	-0.286
-213.523	-200.000	-0.054	-0.363
-212.509	-16.203	0.217	0.136
-211.494	-24.026	0.242	-0.143
-210.479	-135.368	0.396	-0.047
-209.465	116.101	0.161	0.195
-208.450	78.785	-0.229	-0.242
-207.436	240.353	0.145	-0.239
-206.421	59.366	0.088	0.086
-205.406	-35.259	-0.247	-0.133
-204.392	114.950	-0.088	0.106
-203.377	-200.000	0.036	-0.325
-202.363	115.809	-0.096	0.116
-201.348	139.532	-0.105	0.137
-200.333	479.353	0.158	0.355
-199.319	69.785	-0.434	0.443
-198.304	-166.905	-0.521	-0.021
-197.290	-200.000	0.050	-0.402
-196.275	-169.448	0.201	0.007
-195.260	43.208	-0.079	-0.071
-194.246	-109.778	-0.345	-0.072
-193.231	52.121	0.161	-0.152
-192.217	-65.604	-0.073	-0.029
-191.202	34.715	0.220	0.191
-190.187	-108.810	-0.136	0.029
-189.173	-25.531	0.245	-0.143
-188.158	-92.700	-0.134	-0.037
-187.144	-73.779	0.237	-0.085
-186.129	-34.287	0.196	0.107
-185.114	-45.834	0.262	0.128
-184.100	-200.000	-0.014	0.146
-183.085	-51.743	-0.134	-0.062
-182.071	-200.000	-0.016	0.183
-181.056	-200.000	-0.048	0.230
-180.042	314.744	-0.083	0.155
-179.027	-17.855	0.075	0.046
-178.012	-200.000	-0.043	-0.291
-176.998	322.308	-0.070	-0.131
-175.983	-90.167	0.176	-0.051
-174.969	130.977	-0.058	-0.073
-173.954	800.000	-0.031	0.104
-172.939	109.901	0.165	-0.196
-171.925	-28.839	-0.285	0.162
-170.910	99.649	0.104	0.119
-169.896	41.086	-0.150	0.134
-168.881	327.808	0.054	0.102
-167.866	-111.134	-0.019	0.004
-166.852	-92.088	0.156	0.043
-165.837	-81.144	-0.043	0.014
-164.823	116.789	-0.119	-0.145
-163.808	202.510	-0.168	-0.256
-162.793	-28.738	-0.270	-0.154
-161.779	500.491	0.130	-0.297
-160.764	14.558	-0.179	0.139
-159.750	-69.296	-0.158	-0.060
-158.735	-127.404	0.094	-0.013
-157.720	-200.000	0.002	-0.148
-156.706	800.000	0.051	-0.158
-155.691	25.159	0.321	0.263
-154.677	-80.671	0.055	-0.018
-153.662	2.216	-0.033	0.024
-152.647	-118.716	0.285	-0.050
-151.633	41.109	-0.073	0.065
-150.618	-200.000	0.022	-0.203
-149.604	-200.000	0.037	0.172
-148.589	800.000	-0.123	-0.338
-147.574	73.386	0.169	0.174
-146.560	449.982	-0.022	-0.047
-145.545	79.772	-0.079	-0.084
-144.531	-37.195	-0.239	-0.126
-143.516	638.325	-0.110	-0.277
-142.502	74.248	0.048	-0.050
-141.487	-73.495	0.071	0.026
-140.472	-19.705	0.218	-0.133
-139.458	-99.142	0.129	-0.032
-138.443	222.932	0.037	0.058
-137.429	291.841	-0.126	0.227
-136.414	-200.000	0.016	-0.521
-135.399	52.546	-0.159	0.150
-134.385	800.000	0.051	0.164
-133.370	278.324	0.050	-0.087
-132.356	-175.693	-0.252	0.007
-131.341	208.392	-0.091	0.141
-130.326	193.050	-0.058	-0.087
-129.312	800.000	-0.043	-0.167
-128.297	-52.518	0.148	0.068
-127.283	-107.046	0.408	-0.089
-126.268	-200.000	-0.029	-0.210
-125.253	-200.000	0.016	-0.135
-124.239	26.158	-0.169	0.139
-123.224	101.700	-0.161	-0.185
-122.210	-35.172	0.245	0.132
-121.195	-95.022	0.195	0.052
