DTS Sentinel unit serial number:	SN413079Multiplexer serial number:	ORYXHardware model number:	OX4-SRSoftware version number:	ORYX F/W v4.00 Oryx Data Collector v3.7.2.0data status	okinstallation	princeton_trtdifferential loss correction	single-endedforward channel	channel 3reverse channel	N/Adate	2019/09/11time	01:30:11forward acquisition time	60.00reverse acquisition time	0.00gamma	496.2192k internal	0.2332k external	0.2332temperature offset calibration	0.9913default loss term (dB/km)	0.3790temperature slope calibration	1.0000multiplexer offset coefficient	1.0000multiplexer slope coefficient	1.0000fibre end	0.00T internal ref (°C)	29.12T ext. ref 1 (°C)	-0.30T ext. ref 2 (°C)	23.36length (m)	temperature (°C)	Stokes	anti-Stokes-747.200	-125.377	-0.058	0.009
-746.185	-200.000	0.017	0.362
-745.171	107.744	-0.320	-0.383
-744.156	488.521	0.040	-0.091
-743.142	-16.432	-0.533	-0.340
-742.127	-102.671	-0.208	-0.050
-741.112	-166.866	0.343	-0.014
-740.098	60.101	-0.184	0.182
-739.083	-7.980	-0.137	0.093
-738.069	-200.000	-0.120	0.578
-737.054	332.465	-0.126	0.245
-736.039	-89.775	-0.148	-0.044
-735.025	800.000	0.020	0.062
-734.010	-31.560	-0.384	0.217
-732.996	800.000	0.100	-0.289
-731.981	800.000	-0.090	0.326
-730.966	800.000	0.016	0.069
-729.952	592.214	-0.072	0.179
-728.937	-200.000	0.028	-0.199
-727.923	-200.000	-0.034	0.212
-726.908	365.079	0.055	-0.110
-725.894	250.980	0.005	0.009
-724.879	-65.672	-0.309	-0.125
-723.864	-200.000	-0.022	0.104
-722.850	-38.960	0.134	0.071
-721.835	-200.000	-0.044	0.260
-720.821	-39.440	-0.080	-0.042
-719.806	40.529	-0.447	-0.404
-718.791	-63.821	-0.357	0.147
-717.777	47.697	0.320	0.300
-716.762	-29.477	0.114	-0.065
-715.748	-27.808	-0.120	0.070
-714.733	-155.137	-0.355	0.023
-713.718	-97.888	0.130	0.034
-712.704	-138.366	0.198	0.022
-711.689	177.441	0.257	-0.376
-710.675	800.000	-0.040	-0.152
-709.660	800.000	0.020	-0.077
-708.645	-25.530	-0.259	-0.154
-707.631	-48.849	-0.189	-0.091
-706.616	-200.000	-0.020	-0.207
-705.602	-48.815	0.277	-0.134
-704.587	-146.836	-0.272	-0.024
-703.572	19.821	0.147	0.119
-702.558	-155.011	0.085	-0.006
-701.543	585.709	-0.116	0.286
-700.529	5.126	-0.092	0.068
-699.514	108.210	0.128	0.153
-698.499	506.479	-0.055	0.128
-697.485	800.000	0.036	-0.133
-696.470	556.027	0.065	0.157
-695.456	237.876	0.149	-0.248
-694.441	644.099	-0.066	-0.168
-693.426	-38.213	-0.146	-0.078
-692.412	39.779	-0.086	-0.078
-691.397	739.097	-0.092	0.247
-690.383	-200.000	0.016	0.337
-689.368	-68.203	-0.179	-0.070
-688.354	628.196	-0.045	-0.115
-687.339	-33.667	-0.141	0.078
-686.324	55.762	-0.156	-0.152
-685.310	-200.000	-0.007	-0.194
-684.295	-132.003	-0.155	-0.020
-683.281	-200.000	0.042	0.215
-682.266	-200.000	0.077	-0.459
-681.251	664.298	0.186	-0.482
-680.237	254.887	0.025	0.043
-679.222	307.049	0.039	0.074
-678.208	-106.802	-0.172	0.038
-677.193	-106.665	0.078	-0.017
-676.178	800.000	0.054	0.209
-675.164	800.000	-0.037	-0.120
-674.149	-95.146	-0.223	-0.060
-673.135	-54.253	-0.488	0.223
-672.120	-200.000	-0.009	0.116
-671.105	-69.319	0.163	0.063
-670.091	335.453	-0.076	0.147
-669.076	-21.495	-0.223	-0.137
-668.062	3.094	-0.191	-0.139
-667.047	413.468	0.096	0.205
-666.032	88.543	0.037	0.041
-665.018	76.184	-0.173	-0.184
-664.003	42.523	-0.051	0.046
-662.989	-22.721	-0.431	0.261
-661.974	489.011	0.056	-0.129
-660.959	-200.000	-0.018	0.202
-659.945	-76.594	0.168	-0.059
-658.930	-88.390	0.291	-0.087
-657.916	-77.081	-0.111	0.039
-656.901	-31.769	-0.157	-0.088
-655.886	322.324	-0.044	0.084
-654.872	120.851	0.138	0.172
-653.857	-166.158	-0.123	0.005
-652.843	-96.094	-0.443	0.118
-651.828	209.769	0.225	0.353
-650.814	42.270	-0.140	0.127
-649.799	-109.030	0.416	-0.089
-648.784	-134.406	0.462	-0.057
-647.770	723.010	0.059	0.157
-646.755	800.000	0.097	-0.273
-645.741	377.280	0.078	-0.159
-644.726	112.975	0.131	0.159
-643.711	-106.015	-0.078	-0.018
-642.697	-73.635	-0.123	0.045
-641.682	-96.957	-0.252	0.066
-640.668	-200.000	-0.069	-0.363
-639.653	108.062	0.046	-0.055
-638.638	-91.947	-0.191	-0.054
-637.624	-101.735	-0.204	-0.049
-636.609	163.103	0.015	-0.021
-635.595	800.000	0.053	-0.195
-634.580	80.304	0.117	0.127
-633.565	-30.036	0.193	0.110
-632.551	800.000	-0.093	0.265
-631.536	-200.000	0.000	-0.240
-630.522	406.317	-0.079	0.166
-629.507	375.071	-0.105	-0.215
-628.492	-83.058	0.119	-0.038
-627.478	320.725	0.056	-0.107
-626.463	-57.140	-0.086	-0.038
-625.449	-122.758	0.259	0.042
-624.434	243.524	-0.056	-0.094
-623.419	-39.304	-0.239	0.126
-622.405	356.436	-0.129	0.257
-621.390	-44.388	-0.408	0.204
-620.376	627.396	0.122	0.310
-619.361	159.237	-0.131	0.182
-618.346	13.409	-0.348	-0.270
-617.332	80.568	0.102	-0.110
-616.317	534.178	-0.051	-0.122
-615.303	800.000	0.094	-0.371
-614.288	-98.957	-0.251	0.064
-613.273	90.590	-0.050	0.057
-612.259	-39.238	-0.296	-0.156
-611.244	132.518	-0.121	-0.156
-610.230	-30.815	-0.188	-0.106
-609.215	-200.000	-0.004	0.243
-608.201	-36.262	-0.091	-0.049
-607.186	-200.000	-0.068	-0.000
-606.171	-200.000	-0.012	0.073
-605.157	76.361	0.229	-0.243
-604.142	-25.153	-0.446	0.264
-603.128	-117.646	-0.132	0.024
-602.113	-200.000	0.053	-0.239
-601.098	-62.703	0.171	0.071
-600.084	167.526	0.076	-0.108
-599.069	800.000	0.096	0.290
-598.055	97.816	0.190	-0.219
-597.040	-114.338	-0.443	0.085
-596.025	-18.491	-0.160	0.100
-595.011	-22.958	0.021	0.013
-593.996	408.268	0.131	-0.278
-592.982	45.312	0.027	-0.025
-591.967	105.021	-0.105	-0.124
-590.952	-101.608	0.121	-0.029
-589.938	-132.757	0.423	-0.054
-588.923	136.641	-0.095	0.124
-587.909	-200.000	0.033	0.184
-586.894	-24.484	-0.135	0.080
-585.879	-78.446	-0.076	-0.026
-584.865	-73.112	0.337	0.124
-583.850	-143.850	0.100	0.009
-582.836	-20.680	-0.096	0.059
-581.821	-73.036	0.218	-0.080
-580.806	800.000	0.106	-0.327
-579.792	-193.206	-0.042	-0.000
-578.777	93.545	-0.296	0.335
-577.763	21.758	0.267	0.217
-576.748	122.391	0.144	-0.180
-575.733	800.000	0.051	-0.161
-574.719	451.818	-0.076	-0.167
-573.704	278.643	-0.074	-0.131
-572.690	545.541	0.133	0.317
-571.675	800.000	0.099	-0.357
-570.661	343.103	-0.217	-0.425
-569.646	191.143	-0.112	0.168
-568.631	-101.989	0.348	0.084
-567.617	-117.581	-0.081	-0.015
-566.602	-8.654	-0.244	-0.164
-565.588	-140.576	0.154	0.016
-564.573	-200.000	0.032	-0.212
-563.558	-200.000	-0.016	-0.191
-562.544	-120.788	0.185	0.031
-561.529	-21.814	0.125	0.076
-560.515	181.806	-0.111	-0.164
-559.500	265.254	-0.103	-0.179
-558.485	33.794	-0.309	0.268
-557.471	-200.000	0.028	-0.142
-556.456	-137.111	-0.226	-0.026
-555.442	73.803	-0.079	0.083
-554.427	171.869	0.123	0.176
-553.412	-33.250	0.087	0.048
-552.398	11.340	-0.080	0.061
-551.383	-54.091	-0.375	0.170
-550.369	534.861	-0.160	-0.380
-549.354	800.000	0.059	-0.227
-548.339	800.000	0.145	0.420
-547.325	203.095	0.122	0.189
-546.310	228.702	0.127	-0.207
-545.296	46.300	0.018	0.017
-544.281	-67.637	-0.306	-0.120
-543.266	-17.072	-0.344	-0.217
-542.252	-144.603	0.475	0.044
-541.237	37.533	0.049	0.044
-540.223	23.045	0.182	-0.149
-539.208	101.928	0.118	0.137
-538.193	49.462	-0.288	0.270
-537.179	-54.348	0.192	-0.087
-536.164	1.641	0.198	-0.142
-535.150	-200.000	-0.027	-0.150
-534.135	-9.838	-0.126	0.084
-533.121	3.501	-0.208	0.151
-532.106	420.318	0.063	0.135
-531.091	-85.244	0.368	-0.115
-530.077	-200.000	0.021	-0.126
-529.062	16.880	-0.074	-0.059
-528.048	-67.442	-0.129	-0.051
-527.033	-1.102	0.302	0.213
-526.018	-171.701	-0.485	0.016
-525.004	800.000	0.023	-0.087
-523.989	-0.263	-0.129	0.092
-522.975	71.156	-0.117	0.121
-521.960	-200.000	-0.005	0.063
-520.945	-200.000	-0.007	0.137
-519.931	-134.312	0.227	0.028
-518.916	-60.121	-0.072	-0.031
-517.902	-200.000	-0.019	0.468
-516.887	42.373	-0.067	0.060
-515.872	-82.896	0.254	-0.082
-514.858	-130.920	0.101	-0.013
-513.843	-102.676	0.052	-0.012
-512.829	-103.742	0.044	0.010
-511.814	-200.000	-0.004	-0.085
-510.799	126.801	-0.176	-0.222
-509.785	399.724	-0.133	0.277
-508.770	123.615	-0.227	-0.283
-507.756	800.000	0.117	-0.477
-506.741	-63.167	-0.239	0.098
-505.726	-97.829	0.266	-0.068
-504.712	7.857	-0.200	-0.149
-503.697	-105.930	-0.293	-0.066
-502.683	3.545	0.135	0.098
-501.668	800.000	0.044	0.146
-500.653	349.926	-0.189	-0.372
-499.639	352.647	0.026	0.052
-498.624	77.448	-0.204	0.216
-497.610	-200.000	0.004	0.037
-496.595	-42.400	-0.218	0.111
-495.581	800.000	0.021	-0.060
-494.566	-200.000	0.174	-0.001
-493.551	-50.434	-0.142	-0.067
-492.537	-10.848	-0.067	-0.044
-491.522	143.840	-0.200	-0.265
-490.508	-78.155	-0.049	-0.017
-489.493	-200.000	0.005	-0.044
-488.478	120.235	0.146	0.180
-487.464	800.000	-0.076	0.212
-486.449	-200.000	-0.025	0.267
-485.435	465.767	0.061	-0.137
-484.420	333.583	-0.111	-0.214
-483.405	800.000	-0.058	-0.196
-482.391	-7.221	-0.177	-0.120
-481.376	-33.514	0.068	0.037
-480.362	-60.674	-0.129	-0.055
-479.347	-124.553	-0.162	-0.025
-478.332	-105.535	-0.248	0.056
-477.318	599.415	0.076	0.188
-476.303	-200.000	-0.007	0.147
-475.289	800.000	-0.048	0.151
-474.274	130.175	0.211	0.269
-473.259	-46.008	0.173	-0.085
-472.245	32.205	-0.112	-0.096
-471.230	-57.848	-0.392	-0.171
-470.216	155.451	0.052	0.072
-469.201	-79.813	0.130	0.044
-468.186	666.224	-0.085	0.218
-467.172	-156.828	-0.171	-0.010
-466.157	255.511	0.132	0.226
-465.143	800.000	0.181	0.592
-464.128	-28.491	-0.129	-0.074
-463.113	800.000	0.028	-0.093
-462.099	81.987	0.296	-0.319
-461.084	800.000	0.040	0.154
-460.070	-41.462	0.218	0.112
-459.055	-78.269	0.048	-0.017
-458.040	-63.195	-0.095	-0.039
-457.026	233.736	0.145	0.238
-456.011	163.917	-0.155	0.218
-454.997	88.023	-0.137	0.151
-453.982	188.770	0.076	-0.113
-452.968	113.096	-0.035	-0.042
-451.953	198.520	-0.167	-0.255
-450.938	514.301	0.050	0.116
-449.924	64.484	0.251	0.252
-448.909	-200.000	0.014	0.156
-447.895	-26.585	-0.350	0.204
-446.880	65.560	-0.376	-0.379
-445.865	50.404	0.077	0.072
-444.851	-200.000	0.022	-0.152
-443.836	-200.000	-0.030	0.282
-442.822	-200.000	0.059	-0.376
-441.807	-55.038	0.127	0.057
-440.792	500.254	0.081	-0.187
-439.778	-3.347	-0.093	-0.065
-438.763	345.561	0.128	0.250
-437.749	800.000	0.117	-0.382
-436.734	-200.000	0.093	0.460
-435.719	282.212	0.073	0.131
-434.705	-200.000	-0.019	-0.233
-433.690	800.000	0.111	0.328
-432.676	-200.000	-0.017	-0.225
-431.661	800.000	-0.042	-0.174
-430.646	-108.741	0.268	-0.057
-429.632	800.000	0.061	0.220
-428.617	-47.027	0.061	0.029
-427.603	800.000	0.074	-0.257
-426.588	505.999	-0.035	0.080
-425.573	-114.312	-0.404	0.077
-424.559	800.000	0.134	0.551
-423.544	89.180	-0.142	0.157
-422.530	-134.765	0.401	0.048
-421.515	800.000	-0.067	-0.206
-420.500	142.083	0.164	-0.216
-419.486	800.000	-0.046	0.178
-418.471	-130.723	0.194	-0.026
-417.457	-80.416	0.252	-0.084
-416.442	-27.653	-0.203	0.117
-415.428	-31.172	0.285	-0.160
-414.413	800.000	-0.020	-0.072
-413.398	-90.551	0.181	0.052
-412.384	-37.500	-0.043	0.023
-411.369	-115.409	0.305	0.057
-410.355	-21.199	-0.253	-0.154
-409.340	800.000	-0.044	0.189
-408.325	264.455	0.056	-0.096
-407.311	-45.974	0.076	-0.037
-406.296	800.000	0.039	-0.110
-405.282	344.120	-0.063	0.123
-404.267	-38.669	-0.023	0.012
-403.252	210.896	0.228	-0.356
-402.238	-200.000	-0.008	-0.050
-401.223	-127.946	0.135	0.019
-400.209	173.251	-0.106	-0.151
-399.194	800.000	0.087	-0.318
-398.179	-98.373	0.176	0.045
-397.165	37.587	0.095	-0.083
-396.150	-200.000	0.026	0.113
-395.136	47.819	-0.216	-0.200
-394.121	125.068	0.132	-0.165
-393.106	270.169	-0.090	0.156
-392.092	162.498	0.136	0.190
-391.077	-23.508	0.186	-0.111
-390.063	-144.607	-0.309	-0.028
-389.048	251.380	0.105	0.178
-388.033	-63.442	0.314	0.128
-387.019	-200.000	-0.014	-0.108
-386.004	288.869	-0.123	0.222
-384.990	477.366	0.105	-0.236
-383.975	151.498	-0.065	-0.088
-382.960	389.361	0.149	0.306
-381.946	59.196	-0.111	-0.108
-380.931	172.442	0.078	0.111
-379.917	235.983	0.102	-0.167
-378.902	-134.580	-0.295	-0.036
-377.888	-10.512	-0.362	-0.238
-376.873	-73.993	-0.191	0.069
-375.858	800.000	0.068	-0.196
-374.844	-200.000	0.003	-0.209
-373.829	-200.000	0.065	-0.309
-372.815	85.217	-0.233	-0.253
-371.800	-200.000	0.063	-0.346
-370.785	278.915	-0.075	-0.132
-369.771	-35.375	-0.179	-0.096
-368.756	-139.076	0.540	0.058
-367.742	106.380	0.107	-0.125
-366.727	-200.000	0.036	0.331
-365.712	-48.187	-0.107	-0.051
-364.698	-61.616	0.060	-0.025
-363.683	65.789	-0.112	-0.112
-362.669	242.571	-0.079	-0.130
-361.654	-200.000	0.022	0.165
-360.639	0.119	0.044	-0.031
-359.625	-200.000	0.017	-0.133
-358.610	354.506	-0.056	-0.109
-357.596	181.136	-0.115	-0.167
-356.581	66.579	-0.115	0.116
-355.566	-102.108	0.396	0.095
-354.552	-34.179	-0.233	0.127
-353.537	304.122	-0.118	-0.216
-352.523	244.346	0.104	0.174
-351.508	-200.000	-0.012	0.188
-350.493	-111.564	0.136	-0.027
-349.479	523.964	0.094	0.218
-348.464	-200.000	-0.048	-0.273
-347.450	147.353	-0.035	-0.047
-346.435	-200.000	0.045	-0.303
-345.420	-200.000	-0.027	-0.244
-344.406	800.000	-0.040	-0.156
-343.391	-53.653	0.252	0.114
-342.377	-123.656	-0.029	-0.005
-341.362	340.916	0.066	0.128
-340.348	-46.024	0.292	-0.142
-339.333	43.179	-0.090	-0.082
-338.318	-61.199	0.107	0.045
-337.304	-200.000	0.019	-0.123
-336.289	139.183	-0.077	0.100
-335.275	-67.698	0.199	0.077
-334.260	-39.374	0.159	-0.083
-333.245	-87.353	-0.211	0.063
-332.231	-68.521	-0.421	0.162
-331.216	-30.534	-0.066	0.037
-330.202	-145.139	0.352	0.032
-329.187	415.485	0.082	0.173
-328.172	158.110	0.057	-0.079
-327.158	-171.289	0.367	0.012
-326.143	308.460	0.082	-0.152
-325.129	86.493	-0.155	0.169
-324.114	-160.786	-0.109	-0.006
-323.099	9.931	-0.076	0.057
-322.085	-33.377	0.232	0.127
-321.070	67.518	-0.173	0.175
-320.056	40.265	-0.111	0.099
-319.041	800.000	0.045	0.154
-318.026	738.510	-0.071	0.189
-317.012	26.868	-0.282	0.234
-315.997	-69.601	-0.285	0.108
-314.983	-105.514	-0.204	-0.046
-313.968	-17.261	-0.131	-0.081
-312.953	-87.415	-0.140	-0.042
-311.939	-165.959	-0.079	-0.003
-310.924	87.687	-0.105	-0.115
-309.910	203.394	0.172	0.262
-308.895	800.000	-0.073	-0.213
-307.880	800.000	-0.033	-0.127
-306.866	-84.744	-0.505	0.157
-305.851	-200.000	0.008	-0.195
-304.837	74.335	0.220	-0.228
-303.822	-140.291	-0.289	0.030
-302.807	-68.602	0.210	-0.080
-301.793	-200.000	-0.018	0.094
-300.778	-200.000	0.023	0.236
-299.764	342.210	0.083	-0.160
-298.749	31.883	0.130	-0.111
-297.735	290.985	0.065	-0.117
-296.720	-45.396	-0.458	-0.224
-295.705	-131.417	0.256	0.033
-294.691	-53.718	0.142	0.064
-293.676	-200.000	-0.001	0.298
-292.662	110.701	0.049	0.058
-291.647	-61.497	0.189	-0.078
-290.632	800.000	0.047	0.133
-289.618	800.000	-0.056	0.170
-288.603	-147.038	-0.185	0.016
-287.589	131.337	-0.058	-0.073
-286.574	-200.000	0.008	-0.093
-285.559	218.147	-0.126	0.198
-284.545	-73.723	-0.112	-0.040
-283.530	2.127	-0.071	-0.051
-282.516	-78.726	0.427	0.144
-281.501	2.290	-0.305	-0.218
-280.486	-105.785	-0.204	-0.046
-279.472	-73.765	0.161	0.058
-278.457	-200.000	0.113	0.503
-277.443	-32.866	-0.116	0.064
-276.428	9.145	-0.110	-0.082
-275.413	42.498	-0.263	0.237
-274.399	-70.852	-0.106	0.039
-273.384	-200.000	-0.061	0.272
-272.370	-200.000	0.004	0.206
-271.355	0.922	-0.043	0.030
-270.340	-200.000	0.006	0.394
-269.326	321.921	0.097	-0.182
-268.311	-200.000	0.004	-0.048
-267.297	-50.845	0.271	0.126
-266.282	-193.570	0.268	0.002
-265.267	54.564	-0.120	-0.114
-264.253	406.000	-0.066	0.137
-263.238	86.870	0.115	-0.125
-262.224	-138.673	-0.065	0.007
-261.209	-53.698	-0.417	-0.188
-260.195	4.682	0.369	0.268
-259.180	-19.925	0.149	-0.091
-258.165	130.147	0.063	0.079
-257.151	12.892	-0.222	-0.170
-256.136	800.000	0.040	-0.132
-255.122	-200.000	-0.007	0.262
-254.107	575.644	-0.108	0.261
-253.092	74.600	-0.035	-0.037
-252.078	-102.357	0.420	-0.099
-251.063	-71.685	0.129	-0.047
-250.049	800.000	0.023	-0.093
-249.034	54.234	-0.115	-0.109
-248.019	462.957	-0.102	0.225
-247.005	-200.000	-0.009	0.065
-245.990	-15.591	-0.342	0.216
-244.976	-200.000	0.050	0.342
-243.961	800.000	-0.054	-0.160
-242.946	-88.109	-0.127	-0.037
-241.932	232.758	0.038	-0.061
-240.917	94.193	0.135	0.151
-239.903	329.751	0.041	-0.077
-238.888	278.498	0.102	-0.180
-237.873	22.863	0.163	0.132
-236.859	281.944	0.069	-0.123
-235.844	-46.892	0.330	-0.159
-234.830	-86.762	0.469	0.141
-233.815	465.070	-0.071	-0.156
-232.800	-42.409	0.375	-0.189
-231.786	-163.869	-0.185	0.009
-230.771	72.679	-0.108	-0.111
-229.757	800.000	0.073	0.231
-228.742	-39.866	0.226	-0.116
-227.727	-200.000	0.012	0.200
-226.713	-11.615	0.096	-0.062
-225.698	-102.765	-0.153	0.036
-224.684	43.027	0.116	0.105
-223.669	6.518	0.227	-0.167
-222.655	-200.000	-0.002	-0.294
-221.640	-69.434	0.234	0.088
-220.625	47.230	0.150	-0.137
-219.611	800.000	0.040	-0.124
-218.596	22.490	0.228	0.184
-217.582	-78.906	0.090	0.030
-216.567	800.000	-0.064	0.273
-215.552	-174.117	0.184	-0.005
-214.538	-200.000	0.027	0.233
-213.523	109.640	-0.058	-0.068
-212.509	-200.000	-0.017	0.148
-211.494	72.284	0.089	-0.091
-210.479	251.231	0.106	-0.178
-209.465	190.497	-0.141	-0.209
-208.450	-172.446	0.259	-0.008
-207.436	-89.744	-0.198	0.057
-206.421	123.562	-0.011	0.014
-205.406	59.084	0.064	-0.062
-204.392	-40.940	-0.012	0.006
-203.377	-170.462	0.226	0.008
-202.363	-12.655	-0.080	-0.051
-201.348	-0.943	-0.365	-0.255
-200.333	123.393	-0.154	0.190
-199.319	-145.562	-0.268	-0.024
-198.304	-151.448	-0.368	-0.027
-197.290	740.127	0.105	-0.278
-196.275	800.000	-0.041	0.167
-195.260	-200.000	-0.013	0.217
-194.246	-70.225	0.136	0.051
-193.231	-200.000	0.003	0.196
-192.217	15.388	-0.140	0.108
-191.202	-10.910	-0.324	0.211
-190.187	-31.515	-0.206	-0.114
-189.173	-21.320	0.255	0.154
-188.158	0.782	0.084	0.060
-187.144	13.234	0.050	0.038
-186.129	-200.000	-0.015	0.202
-185.114	12.445	0.133	0.101
-184.100	50.927	-0.132	0.123
-183.085	800.000	0.028	-0.113
-182.071	800.000	0.093	0.375
-181.056	-200.000	0.107	0.508
-180.042	-135.947	-0.162	0.019
-179.027	-49.160	0.076	0.036
-178.012	382.407	-0.095	0.193
-176.998	-33.287	0.079	0.043
-175.983	95.790	0.119	-0.134
-174.969	-20.252	0.140	0.085
-173.954	-100.943	-0.326	0.079
-172.939	-68.251	-0.329	-0.126
-171.925	-184.508	-0.172	0.003
-170.910	58.955	-0.122	0.118
-169.896	800.000	0.094	-0.333
-168.881	800.000	0.102	-0.390
-167.866	168.394	0.175	0.245
-166.852	-36.377	0.241	-0.128
-165.837	-27.646	-0.231	0.132
-164.823	7.133	0.116	-0.085
-163.808	-52.851	0.295	-0.134
-162.793	-92.495	-0.269	-0.074
-161.779	-31.124	0.169	-0.094
-160.764	-200.000	-0.069	-0.329
-159.750	-200.000	-0.018	0.155
-158.735	800.000	-0.041	-0.168
-157.720	170.139	0.155	0.219
-156.706	-55.610	-0.127	0.056
-155.691	646.718	-0.036	-0.091
-154.677	-159.191	0.073	0.004
-153.662	160.891	-0.205	-0.282
-152.647	28.449	0.115	-0.096
-151.633	-91.022	0.250	-0.071
-150.618	-48.219	-0.127	-0.060
-149.604	14.039	0.186	0.142
-148.589	-200.000	-0.011	0.072
-147.574	-96.957	0.089	0.023
-146.560	-200.000	0.006	0.106
-145.545	12.350	0.160	-0.121
-144.531	-22.002	-0.120	0.071
-143.516	-4.210	0.142	0.096
-142.502	4.067	-0.334	-0.240
-141.487	106.174	0.042	-0.048
-140.472	-200.000	-0.033	0.209
-139.458	-51.702	-0.220	0.101
-138.443	-11.789	-0.272	-0.176
-137.429	-65.604	-0.300	0.118
-136.414	74.295	0.146	0.151
-135.399	-49.248	-0.320	-0.150
-134.385	-130.576	0.085	-0.011
-133.370	-200.000	-0.109	0.000
-132.356	7.157	0.249	-0.183
-131.341	327.051	0.115	0.216
-130.326	354.989	-0.073	0.143
-129.312	-72.880	-0.422	-0.153
-128.297	-54.581	-0.297	0.132
-127.283	-20.539	0.082	0.049
-126.268	-63.637	-0.102	-0.041
-125.253	510.989	-0.024	-0.055
-124.239	590.692	-0.056	0.135
-123.224	-200.000	-0.044	0.278
-122.210	-200.000	0.025	-0.308
-121.195	11.240	0.137	-0.103
-120.180	-200.000	0.032	0.150
