DTS Sentinel unit serial number:	SN413079Multiplexer serial number:	ORYXHardware model number:	OX4-SRSoftware version number:	ORYX F/W v4.00 Oryx Data Collector v3.7.2.0data status	okinstallation	princeton_trtdifferential loss correction	single-endedforward channel	channel 3reverse channel	N/Adate	2019/09/11time	20:38:11forward acquisition time	60.00reverse acquisition time	0.00gamma	496.2192k internal	0.2305k external	0.2305temperature offset calibration	1.0028default loss term (dB/km)	0.3790temperature slope calibration	1.0000multiplexer offset coefficient	1.0000multiplexer slope coefficient	1.0000fibre end	0.00T internal ref (°C)	37.34T ext. ref 1 (°C)	1.51T ext. ref 2 (°C)	30.84length (m)	temperature (°C)	Stokes	anti-Stokes-747.200	-136.742	-0.108	-0.013
-746.185	-50.512	-0.075	0.036
-745.171	-21.176	0.122	0.076
-744.156	-57.750	0.200	0.089
-743.142	-200.000	0.028	0.141
-742.127	-135.011	-0.148	-0.018
-741.112	152.324	0.170	-0.237
-740.098	-78.163	-0.313	0.109
-739.083	4.717	-0.039	0.029
-738.069	-72.996	0.257	0.096
-737.054	-200.000	0.016	-0.180
-736.039	-146.647	-0.259	-0.023
-735.025	800.000	-0.034	-0.131
-734.010	161.045	-0.160	0.228
-732.996	514.804	0.133	-0.316
-731.981	-14.786	0.298	0.195
-730.966	-71.454	-0.605	0.231
-729.952	-82.196	-0.255	-0.084
-728.937	-61.382	-0.022	-0.009
-727.923	800.000	0.034	-0.146
-726.908	193.057	-0.048	-0.073
-725.894	27.748	0.199	-0.170
-724.879	330.771	-0.050	-0.099
-723.864	108.431	-0.117	0.142
-722.850	-61.625	-0.147	-0.063
-721.835	-116.704	-0.373	0.070
-720.821	-127.536	0.150	-0.022
-719.806	-62.381	-0.371	-0.157
-718.791	-75.249	-0.325	-0.118
-717.777	133.907	0.123	0.162
-716.762	167.074	0.175	0.253
-715.748	50.086	-0.205	-0.197
-714.733	-200.000	0.012	0.213
-713.718	-200.000	-0.030	0.168
-712.704	-70.982	-0.113	-0.043
-711.689	-200.000	-0.034	-0.325
-710.675	-200.000	-0.072	0.350
-709.660	217.879	-0.067	-0.108
-708.645	188.321	-0.072	0.109
-707.631	-35.768	-0.319	-0.176
-706.616	202.704	-0.014	0.022
-705.602	800.000	0.016	0.061
-704.587	-200.000	-0.025	0.242
-703.572	30.401	-0.133	-0.115
-702.558	-200.000	0.007	0.280
-701.543	167.643	0.221	0.319
-700.529	250.581	0.193	0.333
-699.514	-126.857	-0.160	0.024
-698.499	251.583	-0.083	-0.144
-697.485	26.103	0.285	0.242
-696.470	-161.165	-0.034	-0.002
-695.456	214.517	-0.127	0.204
-694.441	22.366	0.033	-0.028
-693.426	81.029	0.195	-0.214
-692.412	64.366	0.101	-0.103
-691.397	260.431	-0.082	-0.144
-690.383	-0.762	-0.058	-0.042
-689.368	84.389	-0.115	0.127
-688.354	-200.000	0.029	-0.129
-687.339	-91.920	-0.229	0.066
-686.324	-154.447	-0.111	0.008
-685.310	800.000	0.057	0.180
-684.295	-111.136	-0.060	0.012
-683.281	215.867	0.219	0.354
-682.266	198.913	0.080	0.125
-681.251	-200.000	0.034	-0.155
-680.237	-200.000	0.003	-0.258
-679.222	498.302	-0.114	0.267
-678.208	-22.606	0.340	0.209
-677.193	155.771	0.254	0.355
-676.178	-189.894	0.223	-0.003
-675.164	-130.342	0.192	-0.027
-674.149	-200.000	-0.024	0.209
-673.135	12.614	-0.125	0.098
-672.120	-194.729	-0.032	0.000
-671.105	-51.132	0.197	0.094
-670.091	-118.300	0.338	0.061
-669.076	244.321	0.053	-0.090
-668.062	455.040	-0.133	-0.300
-667.047	130.237	-0.236	0.307
-666.032	800.000	-0.057	-0.210
-665.018	130.904	0.059	0.077
-664.003	-18.621	0.180	-0.114
-662.989	-200.000	-0.015	0.106
-661.974	-101.543	-0.307	-0.076
-660.959	800.000	-0.047	0.185
-659.945	-43.746	-0.047	-0.024
-658.930	323.981	0.121	0.234
-657.916	-128.722	0.100	-0.014
-656.901	195.533	-0.117	-0.180
-655.886	-200.000	0.002	-0.076
-654.872	-106.908	0.211	0.048
-653.857	572.805	-0.205	-0.506
-652.843	55.841	0.083	0.082
-651.828	163.066	0.045	0.065
-650.814	289.939	-0.069	-0.127
-649.799	-200.000	-0.072	-0.444
-648.784	-200.000	-0.013	0.117
-647.770	-49.832	0.081	0.039
-646.755	631.716	0.090	0.230
-645.741	-8.485	-0.212	0.144
-644.726	-72.099	0.189	0.071
-643.711	16.418	0.255	-0.204
-642.697	38.990	0.208	0.188
-641.682	-43.175	0.132	0.068
-640.668	45.716	-0.152	-0.143
-639.653	40.019	-0.335	-0.305
-638.638	90.766	-0.114	0.130
-637.624	-145.875	-0.323	0.029
-636.609	800.000	0.021	0.093
-635.595	800.000	-0.102	0.323
-634.580	-69.737	-0.159	-0.062
-633.565	-200.000	-0.023	0.148
-632.551	196.695	-0.009	-0.013
-631.536	800.000	0.048	-0.192
-630.522	445.234	-0.032	-0.071
-629.507	-175.131	-0.503	-0.014
-628.492	670.596	-0.093	-0.244
-627.478	800.000	0.069	-0.216
-626.463	-200.000	-0.013	0.270
-625.449	149.627	-0.177	-0.242
-624.434	-46.305	-0.038	0.019
-623.419	-200.000	-0.010	-0.245
-622.405	-170.562	0.130	-0.005
-621.390	78.056	-0.049	-0.053
-620.376	75.187	0.117	0.125
-619.361	214.068	0.187	0.299
-618.346	239.052	-0.088	-0.149
-617.332	-146.434	0.110	0.010
-616.317	-200.000	-0.009	-0.294
-615.303	-200.000	-0.001	0.008
-614.288	-121.316	-0.312	0.053
-613.273	-86.513	0.172	0.053
-612.259	-200.000	-0.042	0.209
-611.244	-131.018	-0.243	0.033
-610.230	113.231	0.056	-0.069
-609.215	135.417	-0.076	-0.100
-608.201	-200.000	-0.030	0.258
-607.186	16.061	-0.567	-0.453
-606.171	88.672	-0.139	0.157
-605.157	-26.290	0.114	0.068
-604.142	-104.800	-0.207	0.048
-603.128	800.000	0.064	-0.216
-602.113	-36.491	0.472	-0.257
-601.098	-99.277	0.377	-0.096
-600.084	-200.000	0.025	-0.309
-599.069	50.248	-0.138	0.132
-598.055	-159.131	-0.232	0.013
-597.040	18.496	0.256	-0.207
-596.025	655.064	0.052	-0.135
-595.011	-171.693	-0.219	-0.007
-593.996	375.282	-0.023	-0.048
-592.982	187.866	0.237	0.358
-591.967	63.550	-0.136	-0.138
-590.952	-200.000	-0.075	0.494
-589.938	800.000	-0.129	0.396
-588.923	-127.314	-0.390	0.058
-587.909	-143.681	-0.180	-0.017
-586.894	194.932	-0.165	-0.253
-585.879	-71.016	0.327	-0.124
-584.865	-150.310	-0.288	0.023
-583.850	-200.000	0.017	-0.290
-582.836	609.884	-0.056	0.141
-581.821	-71.010	-0.299	0.114
-580.806	800.000	0.049	-0.138
-579.792	-200.000	0.011	0.072
-578.777	-149.626	-0.316	0.025
-577.763	-14.795	0.356	-0.231
-576.748	-78.977	0.284	0.098
-575.733	-104.557	0.345	0.080
-574.719	-200.000	0.014	-0.114
-573.704	-42.306	0.291	-0.150
-572.690	124.355	-0.176	-0.224
-571.675	-106.405	-0.121	0.027
-570.661	325.801	-0.129	-0.249
-569.646	-89.659	-0.282	-0.083
-568.631	6.870	0.195	-0.147
-567.617	131.203	-0.086	-0.111
-566.602	-161.336	0.072	-0.004
-565.588	85.654	-0.268	0.298
-564.573	134.396	-0.099	-0.129
-563.558	170.602	0.256	-0.371
-562.544	-43.411	-0.317	0.162
-561.529	28.575	-0.098	-0.084
-560.515	-38.665	0.170	-0.091
-559.500	-43.988	-0.243	-0.124
-558.485	800.000	-0.032	-0.098
-557.471	800.000	0.063	0.195
-556.456	120.738	-0.232	0.292
-555.442	-39.729	-0.220	-0.116
-554.427	800.000	-0.094	0.344
-553.412	4.411	0.131	0.097
-552.398	-200.000	0.018	-0.390
-551.383	-18.569	0.036	0.023
-550.369	-200.000	-0.007	-0.072
-549.354	114.169	0.150	-0.184
-548.339	-172.615	0.185	0.006
-547.325	-130.744	-0.246	0.033
-546.310	-66.410	-0.162	0.065
-545.296	421.821	-0.188	-0.408
-544.281	94.912	-0.196	-0.226
-543.266	129.478	-0.143	-0.185
-542.252	-175.608	0.164	-0.004
-541.237	331.275	-0.069	0.134
-540.223	-200.000	0.026	0.227
-539.208	261.480	-0.080	-0.140
-538.193	-35.749	0.272	-0.149
-537.179	-39.532	-0.259	-0.137
-536.164	30.349	-0.116	0.100
-535.150	-200.000	0.047	-0.325
-534.135	-147.762	0.262	-0.022
-533.121	-200.000	-0.055	-0.335
-532.106	-130.776	0.268	0.036
-531.091	76.095	-0.155	-0.166
-530.077	105.312	0.047	0.055
-529.062	-200.000	0.017	-0.317
-528.048	-200.000	0.020	-0.202
-527.033	-31.749	0.386	-0.218
-526.018	-28.787	-0.142	0.082
-525.004	0.244	0.323	0.233
-523.989	-88.819	-0.276	0.083
-522.975	-176.661	0.217	-0.006
-521.960	60.056	0.287	-0.286
-520.945	-139.140	-0.064	0.007
-519.931	-6.811	0.098	-0.068
-518.916	-53.737	-0.247	-0.114
-517.902	-200.000	-0.013	0.203
-516.887	-126.290	0.070	-0.010
-515.872	-200.000	-0.045	0.317
-514.858	20.437	0.106	0.086
-513.843	-96.869	-0.031	0.008
-512.829	-67.523	0.359	0.142
-511.814	-85.973	-0.158	0.049
-510.799	-35.577	0.180	0.099
-509.785	-109.537	0.134	0.028
-508.770	43.981	0.182	-0.168
-507.756	641.355	-0.120	0.309
-506.741	199.523	-0.151	-0.234
-505.726	387.277	-0.188	0.391
-504.712	800.000	0.011	-0.043
-503.697	205.689	0.014	0.022
-502.683	724.202	-0.120	0.323
-501.668	800.000	-0.099	0.305
-500.653	-55.314	-0.203	-0.092
-499.639	-80.258	-0.281	-0.095
-498.624	-200.000	-0.022	-0.180
-497.610	55.767	-0.161	0.157
-496.595	-200.000	0.090	-0.686
-495.581	-200.000	0.015	0.098
-494.566	800.000	-0.043	-0.179
-493.551	765.016	0.041	-0.112
-492.537	800.000	-0.081	0.265
-491.522	-133.207	0.166	0.021
-490.508	259.551	0.162	0.283
-489.493	124.457	0.038	0.049
-488.478	-200.000	0.025	-0.128
-487.464	-200.000	-0.015	0.398
-486.449	-200.000	0.006	0.058
-485.435	-15.783	-0.185	0.119
-484.420	-193.884	-0.259	-0.002
-483.405	105.261	0.066	-0.078
-482.391	-64.044	0.186	-0.077
-481.376	-117.805	0.128	0.023
-480.362	45.391	0.024	0.022
-479.347	-29.957	0.148	0.085
-478.332	-72.181	0.093	0.035
-477.318	-13.907	-0.073	-0.047
-476.303	174.888	0.062	-0.091
-475.289	-67.587	0.382	0.151
-474.274	800.000	0.061	0.171
-473.259	150.883	-0.136	-0.186
-472.245	56.055	-0.222	-0.217
-471.230	-200.000	0.016	-0.271
-470.216	800.000	0.083	-0.276
-469.201	-31.196	0.034	-0.019
-468.186	190.833	0.088	0.133
-467.172	-122.779	-0.270	-0.044
-466.157	-14.719	0.184	0.119
-465.143	395.092	-0.041	-0.085
-464.128	-51.735	0.199	-0.094
-463.113	-126.449	-0.047	-0.007
-462.099	3.226	0.150	-0.110
-461.084	-83.367	0.252	0.081
-460.070	28.036	-0.191	-0.162
-459.055	800.000	-0.117	-0.460
-458.040	800.000	0.057	0.238
-457.026	-200.000	0.036	-0.340
-456.011	786.771	-0.087	0.241
-454.997	-200.000	-0.010	-0.096
-453.982	-200.000	0.060	-0.312
-452.968	-100.180	0.062	-0.015
-451.953	-18.047	0.225	-0.142
-450.938	356.293	-0.110	-0.221
-449.924	126.874	0.084	0.107
-448.909	384.784	-0.115	-0.239
-447.895	-56.822	0.426	0.189
-446.880	-152.311	0.111	-0.008
-445.865	-200.000	0.023	0.197
-444.851	452.120	0.161	0.358
-443.836	-136.032	0.228	0.027
-442.822	-96.815	-0.284	0.075
-441.807	-97.188	0.025	-0.006
-440.792	44.682	0.183	-0.169
-439.778	-200.000	-0.003	-0.133
-438.763	800.000	-0.050	0.200
-437.749	-200.000	-0.083	-0.000
-436.734	82.046	-0.153	-0.167
-435.719	-200.000	0.021	-0.246
-434.705	487.153	0.051	-0.116
-433.690	-109.454	0.203	-0.043
-432.676	-126.089	0.349	-0.053
-431.661	110.330	-0.085	-0.103
-430.646	-79.235	0.145	-0.049
-429.632	99.404	0.307	0.357
-428.617	-77.365	0.369	0.129
-427.603	-115.883	-0.315	-0.059
-426.588	366.390	-0.034	-0.069
-425.573	-136.871	-0.448	-0.052
-424.559	-178.860	-0.278	0.006
-423.544	25.504	0.110	0.092
-422.530	8.568	0.257	-0.195
-421.515	-200.000	-0.045	0.210
-420.500	206.572	-0.028	0.044
-419.486	35.241	-0.224	0.197
-418.471	-96.906	0.330	-0.087
-417.457	-132.481	-0.241	-0.031
-416.442	30.236	-0.161	-0.138
-415.428	800.000	-0.136	0.391
-414.413	77.746	0.107	-0.114
-413.398	-73.314	0.420	-0.154
-412.384	-166.719	-0.440	-0.018
-411.369	-65.080	0.210	-0.085
-410.355	-30.135	-0.425	-0.243
-409.340	65.019	-0.193	-0.196
-408.325	-115.939	0.324	-0.061
-407.311	-77.459	0.413	-0.144
-406.296	-92.899	-0.180	0.051
-405.282	-200.000	-0.014	0.161
-404.267	-18.650	0.413	-0.259
-403.252	-1.424	-0.137	-0.097
-402.238	800.000	-0.085	0.254
-401.223	602.861	-0.056	0.139
-400.209	61.355	-0.279	-0.279
-399.194	242.423	-0.086	0.144
-398.179	-200.000	0.007	0.167
-397.165	193.253	0.100	0.152
-396.150	132.908	-0.036	0.046
-395.136	800.000	-0.046	0.139
-394.121	-149.162	-0.138	0.011
-393.106	-44.227	-0.149	-0.075
-392.092	-168.429	0.234	0.009
-391.077	292.558	0.059	0.108
-390.063	103.110	0.098	-0.115
-389.048	-100.651	0.223	-0.055
-388.033	-110.764	0.162	-0.034
-387.019	-40.138	-0.126	-0.066
-386.004	178.936	0.112	-0.164
-384.990	-200.000	0.032	0.183
-383.975	227.374	-0.165	-0.270
-382.960	-11.920	-0.296	-0.195
-381.946	-200.000	-0.023	0.429
-380.931	-200.000	0.030	-0.152
-379.917	800.000	-0.026	-0.096
-378.902	-9.438	0.082	-0.055
-377.888	446.103	-0.076	-0.168
-376.873	-200.000	-0.020	-0.209
-375.858	14.639	0.226	0.177
-374.844	-200.000	0.006	-0.169
-373.829	-45.797	-0.205	0.101
-372.815	-36.856	-0.101	-0.054
-371.800	-50.141	-0.077	-0.037
-370.785	-92.410	0.297	0.084
-369.771	-121.510	-0.163	0.027
-368.756	49.601	0.064	-0.060
-367.742	800.000	0.014	-0.049
-366.727	-200.000	-0.004	-0.132
-365.712	449.907	-0.053	-0.116
-364.698	-200.000	-0.026	0.221
-363.683	363.571	-0.102	0.205
-362.669	-200.000	-0.040	-0.308
-361.654	291.984	0.086	0.158
-360.639	286.659	-0.069	0.125
-359.625	-200.000	-0.048	-0.316
-358.610	-200.000	0.019	0.131
-357.596	414.307	-0.056	0.120
-356.581	-131.527	-0.232	-0.031
-355.566	66.930	-0.086	0.088
-354.552	-161.820	-0.203	-0.010
-353.537	77.367	-0.048	0.051
-352.523	800.000	0.082	0.236
-351.508	131.063	0.173	0.223
-350.493	108.957	0.094	-0.113
-349.479	9.634	-0.157	0.119
-348.464	216.748	0.055	-0.088
-347.450	8.736	0.172	-0.130
-346.435	-200.000	0.048	-0.264
-345.420	-107.473	0.068	0.015
-344.406	-200.000	0.032	-0.314
-343.391	29.054	0.099	-0.084
-342.377	-71.915	-0.208	-0.078
-341.362	-200.000	-0.052	0.334
-340.348	-96.735	-0.335	-0.088
-339.333	-38.212	-0.057	-0.030
-338.318	-27.813	-0.363	0.211
-337.304	119.662	-0.198	-0.246
-336.289	-98.701	-0.192	-0.049
-335.275	272.048	0.164	0.290
-334.260	17.573	-0.025	-0.020
-333.245	-104.041	0.322	-0.075
-332.231	121.758	-0.113	0.141
-331.216	20.563	0.115	0.093
-330.202	800.000	-0.086	-0.264
-329.187	800.000	0.039	0.127
-328.172	800.000	-0.016	-0.051
-327.158	-200.000	0.036	0.188
-326.143	-44.799	-0.133	-0.067
-325.129	800.000	0.012	0.033
-324.114	266.555	-0.240	-0.420
-323.099	280.593	-0.095	-0.171
-322.085	-200.000	-0.017	0.362
-321.070	-30.831	-0.335	0.190
-320.056	-200.000	-0.012	0.458
-319.041	249.548	0.078	0.132
-318.026	-127.511	0.113	0.016
-317.012	-119.985	-0.101	-0.017
-315.997	-160.520	-0.110	-0.006
-314.983	90.059	-0.214	0.239
-313.968	49.248	0.155	-0.146
-312.953	0.132	-0.287	-0.204
-311.939	-200.000	-0.057	0.299
-310.924	-173.706	0.165	-0.005
-309.910	244.335	-0.129	-0.217
-308.895	-82.572	0.175	0.057
-307.880	-48.296	0.318	-0.154
-306.866	-41.391	0.184	-0.095
-305.851	800.000	0.135	0.417
-304.837	113.286	-0.135	0.164
-303.822	-44.462	-0.122	0.061
-302.807	759.014	-0.057	0.154
-301.793	-62.283	-0.160	0.067
-300.778	-125.505	0.189	0.029
-299.764	-200.000	-0.046	-0.205
-298.749	-200.000	-0.012	0.093
-297.735	267.189	0.157	0.274
-296.720	88.738	0.120	-0.133
-295.705	117.961	-0.116	0.143
-294.691	-41.288	-0.153	0.079
-293.676	800.000	0.042	0.156
-292.662	-200.000	0.018	-0.138
-291.647	139.720	-0.127	0.167
-290.632	62.583	-0.055	-0.055
-289.618	800.000	0.034	-0.131
-288.603	563.097	0.045	-0.109
-287.589	-200.000	0.013	-0.169
-286.574	481.411	-0.058	0.131
-285.559	-27.274	0.119	0.069
-284.545	-3.548	0.006	-0.004
-283.530	108.329	0.113	0.135
-282.516	108.773	-0.114	-0.136
-281.501	-36.482	-0.264	0.142
-280.486	-95.697	-0.228	0.061
-279.472	162.318	-0.247	0.346
-278.457	43.881	-0.170	0.156
-277.443	61.130	0.095	-0.094
-276.428	22.176	0.244	0.199
-275.413	302.593	-0.154	-0.285
-274.399	44.010	-0.061	0.056
-273.384	623.366	-0.128	-0.322
-272.370	-200.000	-0.006	-0.054
-271.355	205.730	0.112	0.174
-270.340	800.000	0.062	-0.183
-269.326	800.000	0.053	0.228
-268.311	41.706	-0.128	0.116
-267.297	-200.000	0.011	0.307
-266.282	-105.544	0.351	-0.080
-265.267	-200.000	-0.015	0.149
-264.253	-107.759	0.248	0.054
-263.238	47.598	-0.142	0.132
-262.224	301.844	0.076	-0.141
-261.209	-200.000	-0.008	0.176
-260.195	-200.000	0.042	0.438
-259.180	-2.900	0.184	0.129
-258.165	800.000	-0.049	0.199
-257.151	122.114	0.217	-0.271
-256.136	-5.013	0.276	-0.189
-255.122	-51.086	-0.117	-0.055
-254.107	216.553	0.086	0.136
-253.092	800.000	0.053	0.215
-252.078	-114.257	-0.230	-0.044
-251.063	39.061	0.262	0.234
-250.049	587.106	-0.047	0.115
-249.034	-200.000	0.003	0.271
-248.019	-200.000	0.000	0.200
-247.005	144.934	-0.028	0.038
-245.990	-78.301	-0.171	-0.059
-244.976	118.797	-0.188	-0.232
-243.961	-21.295	-0.219	0.133
-242.946	800.000	-0.073	0.233
-241.932	160.218	0.194	-0.270
-240.917	-17.285	0.180	-0.113
-239.903	283.605	0.075	-0.135
-238.888	121.717	0.187	0.233
-237.873	-200.000	0.022	-0.162
-236.859	-74.953	-0.049	0.018
-235.844	283.237	0.129	0.232
-234.830	-22.018	0.287	-0.174
-233.815	800.000	0.150	-0.562
-232.800	-60.315	-0.222	-0.094
-231.786	90.350	0.023	-0.025
-230.771	48.754	0.159	-0.149
-229.757	412.259	0.156	-0.330
-228.742	-64.515	-0.290	-0.118
-227.727	208.122	-0.101	0.157
-226.713	282.291	-0.135	0.242
-225.698	414.222	-0.079	-0.167
-224.684	800.000	-0.107	-0.402
-223.669	-47.699	-0.096	0.046
-222.655	58.592	0.280	0.274
-221.640	-106.953	-0.244	-0.054
-220.625	-200.000	-0.037	-0.309
-219.611	-133.103	0.385	0.049
-218.596	-200.000	0.001	-0.272
-217.582	800.000	0.076	0.229
-216.567	-51.475	-0.035	-0.016
-215.552	-115.417	0.168	-0.032
-214.538	-200.000	-0.023	0.107
-213.523	63.127	-0.150	-0.150
-212.509	172.200	0.218	0.312
-211.494	278.540	0.174	0.309
-210.479	-48.668	-0.218	0.104
-209.465	732.898	0.092	0.245
-208.450	-103.725	0.460	0.107
-207.436	800.000	0.055	0.216
-206.421	-34.051	0.035	-0.019
-205.406	-124.236	0.245	-0.038
-204.392	800.000	-0.051	-0.167
-203.377	99.580	0.142	-0.164
-202.363	226.443	0.096	0.155
-201.348	431.864	0.213	0.460
-200.333	139.617	-0.060	-0.079
-199.319	192.824	0.041	0.062
-198.304	800.000	-0.039	0.155
-197.290	62.900	-0.274	-0.273
-196.275	-71.066	-0.396	0.149
-195.260	-160.573	0.221	-0.012
-194.246	-69.159	0.110	0.042
-193.231	-101.456	0.147	-0.036
-192.217	161.938	-0.245	0.342
-191.202	-83.966	0.254	-0.080
-190.187	100.180	0.081	0.094
-189.173	425.895	-0.225	-0.482
-188.158	-125.632	0.375	0.057
-187.144	147.187	0.029	0.039
-186.129	-59.589	-0.156	-0.067
-185.114	800.000	-0.063	0.225
-184.100	45.176	0.243	0.223
-183.085	-140.191	0.275	0.029
-182.071	-173.506	0.113	-0.003
-181.056	-148.780	-0.357	-0.029
-180.042	-60.314	0.281	-0.119
-179.027	4.897	0.169	-0.123
-178.012	-25.422	0.036	-0.021
-176.998	-200.000	-0.075	0.328
-175.983	42.853	0.327	0.296
-174.969	403.048	-0.118	0.247
-173.954	244.526	0.085	0.142
-172.939	-3.822	-0.193	-0.133
-171.925	116.317	0.118	-0.143
-170.910	-200.000	-0.058	0.274
-169.896	-200.000	0.004	0.067
-168.881	-7.653	-0.104	-0.070
-167.866	-200.000	0.080	0.497
-166.852	800.000	0.060	0.233
-165.837	-117.292	-0.301	0.054
-164.823	-112.421	0.228	-0.045
-163.808	-50.070	-0.161	-0.076
-162.793	-91.466	0.188	-0.053
-161.779	-158.238	0.186	-0.011
-160.764	-57.916	0.288	-0.125
-159.750	126.359	-0.119	-0.150
-158.735	-200.000	-0.016	0.109
-157.720	367.712	0.072	-0.145
-156.706	-128.789	0.122	-0.017
-155.691	-200.000	-0.018	0.303
-154.677	45.119	0.335	-0.307
-153.662	-91.791	-0.150	-0.042
-152.647	70.505	-0.256	0.264
-151.633	370.072	-0.068	-0.137
-150.618	-200.000	-0.010	-0.079
-149.604	-200.000	-0.003	0.211
-148.589	800.000	0.041	0.147
-147.574	115.090	0.073	0.089
-146.560	-166.820	-0.160	-0.007
-145.545	-200.000	-0.006	-0.147
-144.531	-109.261	0.387	0.082
-143.516	800.000	-0.003	0.010
-142.502	-183.353	-0.190	-0.003
-141.487	-7.683	-0.314	-0.211
-140.472	-159.775	0.083	0.005
-139.458	-67.653	0.262	0.102
-138.443	-163.896	0.400	-0.019
-137.429	170.401	0.085	0.121
-136.414	145.454	-0.169	0.226
-135.399	-200.000	0.029	-0.217
-134.385	-200.000	0.029	0.131
-133.370	17.242	-0.288	0.227
-132.356	23.373	-0.238	0.194
-131.341	-130.731	-0.303	0.041
-130.326	272.252	-0.105	0.185
-129.312	-99.049	0.458	-0.115
-128.297	788.403	-0.055	0.150
-127.283	283.952	0.183	0.328
-126.268	-148.411	0.147	0.012
-125.253	149.759	-0.048	0.064
-124.239	800.000	-0.046	0.164
-123.224	338.517	-0.134	0.260
-122.210	190.107	0.078	-0.116
