DTS Sentinel unit serial number:	SN413079Multiplexer serial number:	ORYXHardware model number:	OX4-SRSoftware version number:	ORYX F/W v4.00 Oryx Data Collector v3.7.2.0data status	okinstallation	princeton_trtdifferential loss correction	single-endedforward channel	channel 3reverse channel	N/Adate	2019/09/11time	18:34:10forward acquisition time	60.00reverse acquisition time	0.00gamma	496.2192k internal	0.2288k external	0.2288temperature offset calibration	1.0000default loss term (dB/km)	0.3790temperature slope calibration	1.0000multiplexer offset coefficient	1.0000multiplexer slope coefficient	1.0000fibre end	0.00T internal ref (°C)	43.75T ext. ref 1 (°C)	1.14T ext. ref 2 (°C)	36.89length (m)	temperature (°C)	Stokes	anti-Stokes-747.200	-95.764	0.136	0.037
-746.185	800.000	0.082	0.272
-745.171	-61.344	0.143	-0.062
-744.156	190.904	-0.135	0.208
-743.142	297.564	-0.144	0.271
-742.127	684.992	0.162	0.435
-741.112	-67.563	-0.202	-0.081
-740.098	49.165	0.150	0.145
-739.083	-200.000	-0.021	-0.188
-738.069	-50.990	0.045	0.021
-737.054	235.776	-0.071	-0.121
-736.039	-51.984	0.271	-0.129
-735.025	-200.000	0.017	0.134
-734.010	29.554	-0.165	-0.144
-732.996	-200.000	-0.014	-0.246
-731.981	-66.151	-0.334	0.137
-730.966	7.968	0.229	0.176
-729.952	-200.000	-0.025	-0.168
-728.937	-64.104	-0.215	0.090
-727.923	512.823	0.106	-0.253
-726.908	-63.899	-0.278	-0.117
-725.894	139.844	-0.223	0.301
-724.879	83.945	-0.107	-0.120
-723.864	71.433	0.162	-0.172
-722.850	-200.000	-0.011	-0.259
-721.835	-97.055	0.217	0.058
-720.821	800.000	0.034	0.148
-719.806	-200.000	-0.040	-0.445
-718.791	71.471	-0.097	0.103
-717.777	-53.033	0.223	0.105
-716.762	14.297	-0.283	0.226
-715.748	249.744	-0.064	0.112
-714.733	-165.136	-0.351	-0.016
-713.718	-200.000	0.018	-0.366
-712.704	50.076	-0.148	0.144
-711.689	95.525	0.104	-0.121
-710.675	-57.870	0.085	0.038
-709.660	-41.319	-0.258	0.136
-708.645	-174.828	0.254	0.007
-707.631	800.000	-0.038	0.164
-706.616	-97.268	-0.326	0.087
-705.602	-200.000	-0.008	-0.158
-704.587	21.801	0.061	0.051
-703.572	-90.498	0.167	0.049
-702.558	86.752	0.228	0.257
-701.543	-22.337	-0.172	-0.107
-700.529	-83.951	0.408	-0.133
-699.514	800.000	0.092	-0.283
-698.499	173.223	-0.100	0.147
-697.485	-85.692	-0.286	0.091
-696.470	-7.113	0.191	0.133
-695.456	-3.800	-0.201	-0.143
-694.441	800.000	0.078	-0.348
-693.426	-118.122	0.160	0.029
-692.412	-200.000	0.005	0.237
-691.397	-125.721	0.265	-0.041
-690.383	158.136	-0.085	-0.120
-689.368	94.708	-0.170	-0.198
-688.354	800.000	0.070	-0.291
-687.339	800.000	-0.018	-0.065
-686.324	800.000	-0.122	-0.426
-685.310	84.236	-0.075	0.083
-684.295	-29.476	0.037	0.021
-683.281	-49.184	-0.327	0.160
-682.266	206.083	0.161	0.257
-681.251	-200.000	0.033	-0.217
-680.237	-200.000	0.016	-0.121
-679.222	-4.320	0.245	-0.174
-678.208	-162.391	-0.124	0.006
-677.193	-200.000	0.080	-0.379
-676.178	-115.993	0.150	-0.029
-675.164	23.645	0.031	0.026
-674.149	-151.619	-0.256	0.019
-673.135	126.032	-0.039	-0.050
-672.120	-200.000	-0.027	-0.170
-671.105	800.000	-0.123	-0.382
-670.091	800.000	-0.030	0.121
-669.076	357.438	0.121	0.248
-668.062	123.081	0.083	0.106
-667.047	-29.937	0.047	-0.027
-666.032	800.000	0.049	-0.211
-665.018	292.887	-0.119	-0.222
-664.003	5.203	0.204	-0.154
-662.989	-141.644	0.133	-0.014
-661.974	-106.484	-0.010	-0.002
-660.959	-62.313	-0.237	0.101
-659.945	-27.538	0.176	0.105
-658.930	207.569	0.063	-0.101
-657.916	-171.919	-0.287	0.010
-656.901	481.102	-0.061	0.141
-655.886	260.002	-0.059	-0.104
-654.872	252.640	0.127	0.221
-653.857	100.978	-0.049	0.058
-652.843	-42.050	0.232	0.121
-651.828	800.000	-0.112	-0.497
-650.814	-54.390	0.214	0.099
-649.799	48.681	-0.125	0.119
-648.784	-139.101	0.265	-0.029
-647.770	-166.452	0.213	-0.009
-646.755	-200.000	0.008	-0.070
-645.741	-200.000	-0.015	0.167
-644.726	218.504	-0.194	0.316
-643.711	6.050	-0.226	-0.171
-642.697	800.000	-0.102	-0.358
-641.682	335.908	0.155	-0.307
-640.668	191.818	-0.143	-0.221
-639.653	290.327	0.098	0.181
-638.638	68.288	-0.045	-0.047
-637.624	69.968	0.162	-0.171
-636.609	310.997	-0.090	0.172
-635.595	51.010	-0.247	0.239
-634.580	800.000	-0.017	-0.060
-633.565	40.034	0.159	-0.146
-632.551	90.274	0.109	0.124
-631.536	214.491	-0.151	0.244
-630.522	-110.438	-0.414	0.088
-629.507	-200.000	0.043	0.269
-628.492	641.120	-0.061	0.160
-627.478	-95.139	-0.412	-0.113
-626.463	14.764	0.109	0.087
-625.449	-37.335	0.222	-0.121
-624.434	-81.086	-0.202	-0.068
-623.419	-170.078	0.018	-0.001
-622.405	800.000	-0.042	0.184
-621.390	-67.435	0.141	0.057
-620.376	-135.679	0.253	-0.031
-619.361	-200.000	0.024	-0.156
-618.346	-90.727	0.144	0.042
-617.332	-200.000	-0.064	-0.358
-616.317	51.568	0.203	-0.197
-615.303	-200.000	0.004	0.028
-614.288	800.000	0.058	0.195
-613.273	71.077	0.184	-0.195
-612.259	-122.405	0.019	0.003
-611.244	-98.179	0.149	0.039
-610.230	-53.328	-0.139	0.065
-609.215	-9.473	-0.151	-0.102
-608.201	-118.721	0.207	-0.037
-607.186	199.594	-0.066	0.103
-606.171	-44.724	0.408	0.208
-605.157	800.000	0.034	0.126
-604.142	193.665	-0.102	0.157
-603.128	-38.004	0.030	-0.016
-602.113	-138.922	-0.422	0.047
-601.098	421.627	-0.114	0.250
-600.084	-200.000	-0.010	0.107
-599.069	-200.000	-0.038	-0.227
-598.055	-87.910	0.148	-0.045
-597.040	-200.000	0.018	0.151
-596.025	12.185	-0.198	-0.155
-595.011	800.000	-0.056	-0.166
-593.996	-62.897	0.400	-0.169
-592.982	-200.000	-0.211	0.000
-591.967	92.448	-0.080	-0.092
-590.952	-120.278	0.206	-0.036
-589.938	-176.958	-0.129	-0.003
-588.923	-97.540	-0.273	-0.072
-587.909	-65.338	-0.216	0.088
-586.894	422.001	0.038	-0.084
-585.879	800.000	0.057	-0.197
-584.865	109.471	-0.051	-0.063
-583.850	-160.559	0.115	-0.006
-582.836	-191.805	-0.259	-0.003
-581.821	7.073	-0.197	-0.150
-580.806	67.366	-0.137	-0.142
-579.792	-40.460	-0.123	-0.065
-578.777	-1.207	0.165	-0.119
-577.763	613.799	-0.053	-0.134
-576.748	-45.250	0.238	-0.121
-575.733	-144.198	-0.170	-0.016
-574.719	132.570	-0.048	0.064
-573.704	-48.565	-0.283	0.139
-572.690	-17.474	-0.106	-0.068
-571.675	-98.887	-0.198	-0.051
-570.661	517.543	-0.104	0.249
-569.646	800.000	-0.054	-0.180
-568.631	-79.551	0.237	-0.081
-567.617	-200.000	0.248	-0.001
-566.602	-141.426	-0.212	-0.022
-565.588	31.286	-0.172	-0.150
-564.573	-122.905	-0.326	0.054
-563.558	-59.388	-0.074	-0.032
-562.544	-128.306	-0.072	0.010
-561.529	7.020	-0.311	0.236
-560.515	-113.834	0.158	-0.031
-559.500	-200.000	-0.020	0.489
-558.485	-200.000	0.027	-0.292
-557.471	-181.496	-0.300	-0.006
-556.456	-200.000	-0.016	-0.177
-555.442	-16.249	0.346	-0.224
-554.427	-39.916	0.180	0.096
-553.412	19.692	-0.134	-0.109
-552.398	-144.801	-0.156	-0.015
-551.383	260.379	-0.089	0.157
-550.369	134.747	0.278	-0.367
-549.354	-200.000	0.008	-0.037
-548.339	69.679	-0.096	-0.101
-547.325	-200.000	-0.013	0.073
-546.310	46.324	-0.319	0.301
-545.296	54.910	0.067	0.066
-544.281	800.000	-0.032	0.112
-543.266	-77.537	-0.259	-0.091
-542.252	355.172	0.135	-0.273
-541.237	304.024	0.075	-0.141
-540.223	115.778	0.172	-0.215
-539.208	-200.000	0.033	-0.235
-538.193	-63.531	-0.159	0.067
-537.179	-69.762	-0.312	0.121
-536.164	-8.058	-0.140	-0.096
-535.150	-25.328	-0.186	-0.112
-534.135	29.044	0.110	-0.094
-533.121	197.227	0.062	-0.097
-532.106	-131.883	-0.302	0.040
-531.091	-104.478	0.196	0.046
-530.077	-98.743	0.124	-0.032
-529.062	-36.837	0.112	0.061
-528.048	-200.000	0.018	-0.081
-527.033	5.063	-0.247	-0.185
-526.018	-200.000	0.013	0.122
-525.004	-42.649	-0.175	0.091
-523.989	368.801	-0.067	0.139
-522.975	100.650	0.260	-0.307
-521.960	-31.862	-0.051	-0.029
-520.945	123.016	-0.211	0.269
-519.931	-45.992	0.246	-0.123
-518.916	-155.412	0.136	-0.009
-517.902	119.911	0.176	0.221
-516.887	618.858	0.057	-0.146
-515.872	4.277	-0.126	-0.094
-514.858	638.604	0.114	-0.294
-513.843	-124.409	-0.260	0.041
-512.829	152.119	0.029	0.040
-511.814	415.711	0.113	0.244
-510.799	800.000	0.055	0.234
-509.785	137.383	0.104	-0.138
-508.770	-169.034	0.445	0.017
-507.756	47.948	-0.083	-0.079
-506.741	-162.024	0.209	-0.011
-505.726	525.334	0.069	-0.164
-504.712	15.945	0.231	0.185
-503.697	-200.000	-0.005	0.166
-502.683	-200.000	-0.024	-0.194
-501.668	80.310	-0.136	-0.149
-500.653	340.230	-0.026	-0.052
-499.639	219.239	-0.074	0.120
-498.624	225.014	0.061	0.100
-497.610	614.362	-0.110	0.280
-496.595	-118.939	0.109	0.019
-495.581	-200.000	-0.007	-0.052
-494.566	-84.844	0.102	0.033
-493.551	-72.874	-0.188	0.070
-492.537	297.728	0.183	-0.341
-491.522	-77.037	0.093	-0.033
-490.508	-80.136	0.228	0.077
-489.493	33.255	0.044	-0.039
-488.478	-127.726	0.103	0.015
-487.464	800.000	0.074	0.236
-486.449	800.000	-0.053	0.163
-485.435	-80.900	-0.173	0.058
-484.420	176.985	-0.219	0.323
-483.405	171.569	-0.110	0.161
-482.391	88.113	0.251	-0.283
-481.376	-48.478	0.200	0.098
-480.362	800.000	0.049	-0.161
-479.347	14.806	-0.188	0.149
-478.332	556.024	-0.076	-0.187
-477.318	494.771	-0.105	0.245
-476.303	-200.000	-0.011	-0.098
-475.289	-0.277	0.066	-0.048
-474.274	800.000	-0.012	-0.046
-473.259	-54.358	-0.221	-0.102
-472.245	-200.000	-0.047	0.263
-471.230	-25.190	-0.370	0.222
-470.216	494.781	0.160	0.373
-469.201	-104.839	-0.098	0.023
-468.186	-3.391	-0.413	0.292
-467.172	86.077	-0.114	-0.127
-466.157	210.799	0.225	-0.358
-465.143	-200.000	0.008	0.264
-464.128	-48.278	-0.019	0.009
-463.113	286.068	0.178	0.326
-462.099	104.056	0.268	-0.319
-461.084	183.280	0.084	-0.126
-460.070	-167.860	-0.222	0.009
-459.055	177.668	-0.070	-0.103
-458.040	-8.987	-0.115	0.078
-457.026	800.000	0.048	0.137
-456.011	-200.000	-0.017	0.218
-454.997	-88.554	-0.078	0.024
-453.982	-176.773	0.343	0.009
-452.968	-24.319	-0.151	-0.091
-451.953	43.953	-0.189	0.175
-450.938	71.652	-0.096	-0.101
-449.924	-200.000	0.011	0.145
-448.909	-197.525	0.130	0.001
-447.895	800.000	0.085	0.311
-446.880	800.000	0.060	0.180
-445.865	-14.142	-0.236	-0.154
-444.851	-200.000	-0.008	-0.053
-443.836	20.378	-0.263	0.215
-442.822	-17.856	0.036	0.023
-441.807	139.508	0.146	-0.194
-440.792	800.000	-0.106	-0.336
-439.778	-200.000	-0.026	-0.138
-438.763	-11.182	0.059	-0.039
-437.749	162.897	0.150	0.213
-436.734	-200.000	0.038	-0.372
-435.719	-158.781	0.169	-0.010
-434.705	95.680	-0.243	0.281
-433.690	503.691	0.035	0.081
-432.676	-24.783	-0.289	-0.174
-431.661	215.651	0.038	-0.061
-430.646	110.327	0.227	0.276
-429.632	36.408	0.069	0.062
-428.617	-200.000	-0.007	0.275
-427.603	235.638	0.153	0.256
-426.588	-200.000	-0.033	0.542
-425.573	518.833	-0.076	0.180
-424.559	197.078	-0.165	-0.255
-423.544	18.620	-0.169	0.137
-422.530	-83.327	0.138	-0.045
-421.515	-41.441	0.111	0.058
-420.500	800.000	-0.050	-0.178
-419.486	-58.286	-0.134	-0.059
-418.471	-59.514	0.142	0.062
-417.457	800.000	0.030	0.086
-416.442	199.720	0.123	-0.190
-415.428	-105.805	-0.177	0.041
-414.413	-46.329	-0.177	0.088
-413.398	149.667	-0.169	-0.232
-412.384	-101.018	0.511	0.127
-411.369	-39.236	-0.163	-0.086
-410.355	-131.050	-0.033	0.005
-409.340	148.133	0.080	0.110
-408.325	-200.000	0.024	-0.243
-407.311	-2.948	0.258	0.182
-406.296	-39.358	-0.053	0.028
-405.282	-194.986	0.396	0.003
-404.267	64.654	0.098	0.100
-403.252	738.842	0.081	-0.219
-402.238	386.682	-0.042	-0.088
-401.223	-145.220	-0.267	-0.024
-400.209	47.850	-0.184	0.173
-399.194	81.176	0.223	0.243
-398.179	160.791	0.102	-0.144
-397.165	-63.060	-0.231	-0.097
-396.150	19.756	-0.094	0.076
-395.136	668.981	-0.122	-0.320
-394.121	182.832	-0.069	-0.103
-393.106	-76.240	0.488	0.174
-392.092	-97.288	0.149	0.039
-391.077	4.236	0.127	-0.094
-390.063	-90.297	0.102	0.030
-389.048	-55.915	-0.310	0.140
-388.033	33.309	-0.201	-0.177
-387.019	-85.623	0.128	0.040
-386.004	409.431	0.077	0.165
-384.990	-94.617	0.230	-0.063
-383.975	135.356	-0.187	0.246
-382.960	800.000	-0.147	0.412
-381.946	-116.609	-0.097	-0.018
-380.931	-157.350	-0.133	0.008
-379.917	-123.861	-0.221	-0.035
-378.902	-36.539	0.116	-0.063
-377.888	-93.803	-0.224	0.062
-376.873	-80.345	-0.078	0.026
-375.858	-200.000	-0.032	0.337
-374.844	-181.042	-0.166	0.003
-373.829	-200.000	0.010	0.073
-372.815	379.731	-0.129	-0.268
-371.800	367.065	0.080	-0.163
-370.785	-82.109	-0.264	-0.087
-369.771	800.000	-0.061	0.268
-368.756	800.000	-0.029	0.083
-367.742	278.910	0.121	0.218
-366.727	19.476	0.152	-0.123
-365.712	4.332	0.047	0.034
-364.698	254.484	-0.191	0.331
-363.683	50.463	0.465	0.444
-362.669	-39.779	-0.094	-0.049
-361.654	283.943	-0.158	0.288
-360.639	755.891	-0.099	-0.272
-359.625	-200.000	-0.038	-0.270
-358.610	-200.000	-0.024	0.169
-357.596	10.553	0.400	0.308
-356.581	327.084	-0.010	-0.019
-355.566	-164.150	0.243	0.011
-354.552	-77.619	-0.294	-0.103
-353.537	396.809	-0.075	-0.158
-352.523	36.894	0.127	-0.113
-351.508	800.000	-0.059	0.189
-350.493	529.341	0.084	-0.199
-349.479	196.513	-0.092	-0.141
-348.464	-16.259	0.261	0.167
-347.450	-142.402	-0.156	0.015
-346.435	358.241	0.092	-0.185
-345.420	245.204	-0.126	0.215
-344.406	19.603	0.272	0.221
-343.391	-66.363	0.290	0.116
-342.377	401.929	0.053	-0.111
-341.362	10.319	0.225	-0.173
-340.348	-200.000	-0.023	0.236
-339.333	390.123	-0.140	0.293
-338.318	-78.226	-0.278	-0.096
-337.304	-123.631	0.236	0.038
-336.289	-58.007	0.080	0.035
-335.275	-10.732	0.106	0.071
-334.260	-142.487	0.110	0.011
-333.245	-200.000	-0.031	0.141
-332.231	-130.858	0.198	0.027
-331.216	-200.000	-0.015	-0.246
-330.202	800.000	-0.157	-0.475
-329.187	79.101	-0.297	-0.321
-328.172	156.277	-0.111	-0.155
-327.158	161.530	-0.012	-0.018
-326.143	10.050	0.212	-0.163
-325.129	229.276	0.091	0.149
-324.114	-128.909	-0.079	-0.011
-323.099	800.000	0.042	0.118
-322.085	800.000	-0.067	-0.249
-321.070	-36.014	-0.259	0.141
-320.056	-23.871	0.198	0.119
-319.041	-90.547	0.154	-0.045
-318.026	308.304	-0.128	0.241
-317.012	-176.986	-0.213	-0.005
-315.997	299.008	0.110	-0.205
-314.983	-145.681	0.057	0.005
-313.968	31.478	-0.137	0.119
-312.953	-200.000	-0.090	-0.443
-311.939	800.000	0.032	-0.141
-310.924	41.752	0.097	-0.089
-309.910	361.061	0.098	0.199
-308.895	-16.405	-0.220	-0.140
-307.880	-95.494	0.241	0.065
-306.866	-130.036	0.065	-0.009
-305.851	-155.578	0.275	-0.018
-304.837	29.900	0.162	-0.139
-303.822	158.608	0.022	0.031
-302.807	-192.151	0.131	0.001
-301.793	-163.590	-0.418	-0.020
-300.778	246.417	0.118	0.200
-299.764	-61.552	-0.386	-0.163
-298.749	583.440	-0.118	-0.292
-297.735	-200.000	-0.001	0.068
-296.720	440.780	0.167	-0.369
-295.705	189.233	-0.131	-0.198
-294.691	-200.000	0.061	0.377
-293.676	454.745	-0.079	0.177
-292.662	34.313	0.171	-0.150
-291.647	349.856	-0.103	0.206
-290.632	-133.666	0.155	0.019
-289.618	800.000	-0.066	-0.248
-288.603	800.000	-0.042	0.140
-287.589	143.832	-0.224	-0.300
-286.574	109.303	-0.277	-0.334
-285.559	-104.899	-0.053	-0.012
-284.545	-46.878	0.282	0.139
-283.530	38.076	0.159	0.143
-282.516	-80.218	-0.181	0.061
-281.501	-200.000	0.040	-0.301
-280.486	800.000	0.049	-0.144
-279.472	0.214	0.289	-0.208
-278.457	598.634	0.053	0.131
-277.443	74.250	-0.168	-0.177
-276.428	800.000	-0.116	-0.429
-275.413	146.219	0.132	0.178
-274.399	-26.695	0.276	-0.163
-273.384	152.109	0.173	0.238
-272.370	-200.000	0.038	0.168
-271.355	100.071	-0.148	-0.173
-270.340	398.632	-0.103	-0.218
-269.326	-34.405	-0.192	0.106
-268.311	800.000	-0.021	0.079
-267.297	93.050	-0.176	-0.200
-266.282	-200.000	-0.028	-0.329
-265.267	234.595	-0.138	-0.230
-264.253	-28.886	0.129	-0.074
-263.238	-184.927	0.230	0.004
-262.224	-140.845	-0.188	0.019
-261.209	-158.264	0.141	0.008
-260.195	-117.174	0.390	-0.071
-259.180	-123.278	-0.240	0.039
-258.165	-8.059	-0.214	0.145
-257.151	-200.000	0.044	0.345
-256.136	-140.049	0.334	0.035
-255.122	800.000	0.035	-0.143
-254.107	-29.021	-0.049	-0.028
-253.092	-90.960	-0.295	0.085
-252.078	-96.953	0.263	0.069
-251.063	-167.102	0.260	0.011
-250.049	800.000	0.082	-0.285
-249.034	800.000	0.062	-0.246
-248.019	-5.452	-0.179	0.123
-247.005	800.000	0.047	-0.148
-245.990	-157.373	0.297	0.018
-244.976	557.159	0.133	0.323
-243.961	-75.655	0.123	0.044
-242.946	-200.000	0.011	0.219
-241.932	-200.000	0.009	0.156
-240.917	182.240	0.188	0.279
-239.903	-200.000	0.026	0.217
-238.888	-117.907	0.345	-0.062
-237.873	-122.077	0.117	0.019
-236.859	-200.000	0.035	0.347
-235.844	128.811	0.122	0.156
-234.830	-159.085	-0.095	-0.005
-233.815	144.572	0.050	-0.067
-232.800	731.074	0.052	0.140
-231.786	-200.000	-0.069	-0.522
-230.771	618.294	0.065	-0.164
-229.757	-26.007	0.213	0.126
-228.742	59.351	-0.266	-0.263
-227.727	2.015	0.175	-0.127
-226.713	800.000	-0.067	0.236
-225.698	84.871	0.180	0.198
-224.684	-92.125	-0.114	-0.032
-223.669	541.501	-0.115	-0.274
-222.655	-7.666	0.145	-0.098
-221.640	278.033	-0.151	-0.270
-220.625	-103.118	0.181	-0.043
-219.611	455.370	-0.178	0.396
-218.596	187.206	0.161	0.241
-217.582	-62.767	0.163	0.068
-216.567	-40.536	0.194	-0.101
-215.552	113.120	-0.069	-0.084
-214.538	800.000	0.182	-0.507
-213.523	20.763	0.094	0.077
-212.509	0.623	-0.066	-0.048
-211.494	-7.066	-0.372	0.253
-210.479	412.445	-0.105	0.223
-209.465	-21.011	-0.174	-0.107
-208.450	111.360	-0.164	-0.199
-207.436	94.331	0.084	0.096
-206.421	800.000	-0.054	0.157
-205.406	308.627	0.039	0.072
-204.392	-200.000	-0.004	0.208
-203.377	-111.297	0.208	-0.043
-202.363	383.195	0.035	0.072
-201.348	800.000	-0.049	0.153
-200.333	-200.000	-0.039	0.244
-199.319	800.000	0.049	0.144
-198.304	-133.847	0.333	-0.042
-197.290	-38.866	0.202	0.107
-196.275	-25.005	-0.255	-0.152
-195.260	67.189	0.086	-0.088
-194.246	800.000	0.047	-0.182
-193.231	800.000	-0.045	0.139
-192.217	89.562	-0.137	0.153
-191.202	800.000	-0.100	0.405
-190.187	-200.000	-0.018	0.153
-189.173	511.961	-0.012	0.027
-188.158	-200.000	0.018	-0.225
-187.144	40.540	0.204	-0.184
-186.129	-126.862	-0.025	0.004
-185.114	717.442	-0.019	-0.050
-184.100	-165.963	0.029	-0.001
-183.085	-3.037	0.137	-0.096
-182.071	-114.200	-0.169	-0.033
-181.056	-200.000	0.036	-0.234
-180.042	-95.262	-0.332	0.090
-179.027	-143.110	-0.123	0.012
-178.012	21.940	-0.119	-0.098
-176.998	-200.000	-0.044	-0.224
-175.983	800.000	-0.058	-0.166
-174.969	331.205	-0.225	-0.434
-173.954	-88.698	0.072	0.022
-172.939	-24.421	0.056	0.034
-171.925	91.757	-0.266	0.300
-170.910	20.647	-0.152	0.123
-169.896	413.149	-0.027	-0.057
-168.881	-200.000	-0.008	0.219
-167.866	-10.456	0.172	0.114
-166.852	-85.262	0.324	0.101
-165.837	-182.526	0.159	0.003
-164.823	276.127	-0.064	-0.114
-163.808	-107.503	0.359	0.079
-162.793	95.387	0.196	-0.224
-161.779	-200.000	-0.018	-0.081
-160.764	102.252	-0.059	-0.070
-159.750	-121.701	0.301	0.050
-158.735	80.439	-0.067	0.072
-157.720	-75.173	-0.088	0.031
-156.706	-114.318	0.148	-0.029
-155.691	800.000	0.041	-0.130
-154.677	-64.829	-0.256	-0.104
-153.662	36.107	-0.097	-0.086
-152.647	83.627	-0.201	-0.220
-151.633	30.116	0.135	0.115
-150.618	410.421	0.110	-0.234
-149.604	526.709	-0.057	-0.134
-148.589	-200.000	-0.075	-0.355
-147.574	-91.721	0.038	-0.011
-146.560	-66.509	-0.129	-0.051
-145.545	800.000	-0.064	-0.200
-144.531	-92.574	0.330	-0.093
-143.516	-48.117	-0.214	0.103
-142.502	377.150	0.204	0.418
-141.487	-111.723	0.388	0.079
-140.472	-58.209	0.227	-0.099
-139.458	800.000	-0.030	-0.130
-138.443	800.000	-0.060	-0.224
-137.429	-128.466	0.136	0.019
-136.414	-51.290	0.102	-0.048
-135.399	13.253	0.061	0.048
-134.385	-200.000	-0.023	0.198
-133.370	190.606	-0.282	-0.425
-132.356	-200.000	-0.012	-0.085
-131.341	156.407	-0.234	-0.323
-130.326	222.158	-0.111	0.179
-129.312	-37.785	0.247	0.131
-128.297	-51.833	0.274	-0.128
-127.283	-200.000	0.001	-0.346
-126.268	800.000	0.061	0.199
-125.253	-200.000	0.016	0.111
-124.239	-35.029	-0.096	0.052
-123.224	156.536	-0.103	-0.142
-122.210	14.738	-0.243	-0.190
-121.195	86.519	0.041	-0.045
