DTS Sentinel unit serial number:	SN413079Multiplexer serial number:	ORYXHardware model number:	OX4-SRSoftware version number:	ORYX F/W v4.00 Oryx Data Collector v3.7.2.0data status	okinstallation	princeton_trtdifferential loss correction	single-endedforward channel	channel 3reverse channel	N/Adate	2019/09/12time	06:30:10forward acquisition time	60.00reverse acquisition time	0.00gamma	496.2192k internal	0.2319k external	0.2319temperature offset calibration	1.0034default loss term (dB/km)	0.3790temperature slope calibration	1.0000multiplexer offset coefficient	1.0000multiplexer slope coefficient	1.0000fibre end	0.00T internal ref (°C)	32.14T ext. ref 1 (°C)	1.56T ext. ref 2 (°C)	27.32length (m)	temperature (°C)	Stokes	anti-Stokes-747.200	707.697	0.120	0.320
-746.185	75.410	-0.355	0.379
-745.171	-200.000	0.070	0.332
-744.156	793.568	-0.158	0.440
-743.142	467.564	0.154	0.350
-742.127	76.304	0.145	0.155
-741.112	677.075	0.099	0.259
-740.098	289.429	-0.086	0.159
-739.083	155.549	0.075	-0.104
-738.069	-61.407	0.231	-0.098
-737.054	70.864	0.083	0.087
-736.039	-32.252	-0.410	0.231
-735.025	-200.000	0.030	0.332
-734.010	-126.126	0.072	0.011
-732.996	653.123	-0.149	-0.387
-731.981	85.885	-0.268	-0.298
-730.966	-6.496	0.357	-0.246
-729.952	-200.000	-0.023	-0.103
-728.937	174.809	-0.039	0.057
-727.923	-0.442	0.086	0.062
-726.908	-132.354	-0.016	-0.002
-725.894	3.422	-0.107	-0.079
-724.879	800.000	-0.038	-0.154
-723.864	-71.189	-0.164	-0.062
-722.850	712.609	-0.065	0.174
-721.835	34.942	-0.138	-0.122
-720.821	94.529	-0.240	-0.276
-719.806	247.096	0.181	-0.309
-718.791	-105.566	-0.452	-0.104
-717.777	-18.423	-0.153	-0.096
-716.762	668.894	0.111	-0.290
-715.748	530.337	-0.092	0.219
-714.733	-200.000	-0.003	0.203
-713.718	800.000	-0.099	-0.293
-712.704	-44.053	-0.125	-0.064
-711.689	0.786	-0.206	0.149
-710.675	-188.222	-0.254	-0.003
-709.660	233.181	-0.114	-0.189
-708.645	-10.256	-0.083	0.055
-707.631	460.214	0.054	-0.122
-706.616	12.491	-0.243	-0.189
-705.602	108.289	-0.109	0.131
-704.587	-25.710	0.386	-0.230
-703.572	800.000	-0.122	-0.369
-702.558	68.831	-0.030	-0.032
-701.543	-65.123	0.149	0.061
-700.529	-79.823	0.335	0.114
-699.514	36.166	-0.256	-0.227
-698.499	48.520	-0.235	0.222
-697.485	44.250	-0.217	0.201
-696.470	-200.000	-0.054	-0.381
-695.456	108.171	0.133	0.161
-694.441	-60.477	-0.281	0.121
-693.426	286.970	-0.166	-0.303
-692.412	-43.141	0.204	-0.105
-691.397	549.778	0.083	0.201
-690.383	-200.000	0.050	0.244
-689.368	395.349	-0.064	-0.135
-688.354	218.296	-0.065	-0.105
-687.339	259.084	0.074	0.129
-686.324	-32.061	-0.087	0.049
-685.310	278.486	-0.045	-0.082
-684.295	-91.503	0.342	0.098
-683.281	-85.661	-0.317	0.099
-682.266	-97.013	-0.108	0.028
-681.251	-200.000	0.032	-0.288
-680.237	-30.716	0.220	-0.126
-679.222	-200.000	0.022	-0.283
-678.208	-200.000	0.010	-0.059
-677.193	-135.422	-0.317	-0.038
-676.178	109.811	0.120	-0.146
-675.164	-124.278	-0.237	-0.037
-674.149	-58.220	0.145	0.064
-673.135	176.070	0.141	-0.207
-672.120	434.394	0.120	0.262
-671.105	-200.000	0.003	0.109
-670.091	-141.956	-0.340	0.034
-669.076	-127.456	0.223	-0.033
-668.062	-163.615	-0.034	0.002
-667.047	-200.000	0.028	0.208
-666.032	31.313	-0.130	-0.112
-665.018	-1.143	0.146	0.104
-664.003	59.266	-0.116	0.115
-662.989	150.283	0.134	-0.184
-661.974	76.615	0.200	-0.214
-660.959	-137.329	-0.221	-0.025
-659.945	253.800	0.168	-0.289
-658.930	800.000	0.059	-0.192
-657.916	-169.716	0.150	0.005
-656.901	800.000	0.070	-0.205
-655.886	517.136	-0.130	-0.306
-654.872	72.553	-0.230	-0.242
-653.857	-54.622	0.346	-0.158
-652.843	-86.167	0.174	0.054
-651.828	131.840	0.048	-0.062
-650.814	83.257	-0.310	-0.340
-649.799	-200.000	0.009	-0.080
-648.784	320.070	-0.323	0.618
-647.770	90.218	-0.157	-0.177
-646.755	74.831	0.121	0.128
-645.741	-200.000	0.002	-0.220
-644.726	800.000	-0.051	-0.159
-643.711	365.620	0.029	-0.059
-642.697	272.473	0.083	0.148
-641.682	-200.000	-0.002	-0.036
-640.668	191.567	-0.199	-0.302
-639.653	0.609	0.183	-0.132
-638.638	164.803	-0.170	0.242
-637.624	-147.829	0.321	-0.027
-636.609	-2.806	0.285	-0.201
-635.595	-75.107	0.273	-0.098
-634.580	-15.146	0.030	0.020
-633.565	61.757	0.076	-0.076
-632.551	-87.132	0.144	0.044
-631.536	171.320	0.116	-0.168
-630.522	482.345	0.127	0.291
-629.507	-163.162	0.144	0.007
-628.492	26.898	-0.263	0.222
-627.478	164.971	0.088	0.126
-626.463	-200.000	0.001	-0.126
-625.449	-46.291	-0.081	-0.040
-624.434	48.991	-0.254	-0.240
-623.419	57.415	-0.162	-0.159
-622.405	333.292	0.103	-0.200
-621.390	-77.121	-0.171	-0.060
-620.376	-6.991	0.352	-0.240
-619.361	-85.708	0.172	0.054
-618.346	436.182	0.059	0.129
-617.332	-155.517	0.164	0.011
-616.317	800.000	0.102	-0.384
-615.303	-70.441	0.389	-0.148
-614.288	-53.269	-0.240	-0.111
-613.273	196.243	-0.029	-0.045
-612.259	-41.127	0.103	0.054
-611.244	-200.000	-0.043	0.353
-610.230	-200.000	0.047	0.328
-609.215	-200.000	0.032	0.277
-608.201	174.037	0.133	-0.194
-607.186	82.311	-0.221	-0.242
-606.171	-200.000	-0.012	-0.076
-605.157	-88.165	-0.105	0.032
-604.142	800.000	-0.068	0.292
-603.128	-112.262	0.162	0.033
-602.113	42.507	-0.139	0.127
-601.098	17.043	-0.270	0.215
-600.084	-19.853	0.280	-0.174
-599.069	-33.622	0.067	-0.037
-598.055	313.858	-0.174	-0.330
-597.040	22.069	-0.401	-0.329
-596.025	198.702	-0.120	0.185
-595.011	227.939	0.025	0.040
-593.996	362.659	-0.145	0.292
-592.982	-200.000	0.002	-0.083
-591.967	-62.523	0.234	0.098
-590.952	-200.000	-0.050	-0.300
-589.938	-200.000	0.001	-0.055
-588.923	800.000	0.140	0.409
-587.909	-10.539	-0.145	-0.097
-586.894	59.500	0.158	0.157
-585.879	-114.815	0.211	-0.041
-584.865	378.610	0.117	0.240
-583.850	141.235	-0.111	0.148
-582.836	139.978	-0.171	0.227
-581.821	27.258	0.137	-0.115
-580.806	12.916	-0.221	-0.172
-579.792	223.565	-0.070	0.114
-578.777	12.189	0.106	-0.082
-577.763	800.000	0.030	0.091
-576.748	-13.455	-0.127	-0.082
-575.733	764.040	0.151	-0.411
-574.719	-14.123	-0.150	-0.097
-573.704	-64.574	0.051	-0.021
-572.690	-200.000	-0.001	0.151
-571.675	67.521	-0.106	-0.108
-570.661	170.349	-0.164	0.236
-569.646	-91.824	-0.151	-0.043
-568.631	-21.700	-0.267	-0.163
-567.617	-200.000	0.003	-0.106
-566.602	-200.000	0.002	0.270
-565.588	587.755	-0.114	0.282
-564.573	-200.000	-0.063	-0.351
-563.558	542.636	0.061	0.147
-562.544	-22.317	-0.091	0.055
-561.529	-90.052	-0.447	0.131
-560.515	-107.792	0.202	-0.044
-559.500	513.006	0.054	0.126
-558.485	-200.000	0.047	-0.354
-557.471	800.000	0.076	-0.218
-556.456	23.311	-0.194	-0.160
-555.442	-200.000	0.017	0.113
-554.427	800.000	0.100	0.336
-553.412	124.147	-0.165	-0.208
-552.398	145.064	-0.079	-0.106
-551.383	-130.923	0.169	0.023
-550.369	115.046	0.093	-0.114
-549.354	155.387	0.130	-0.179
-548.339	-123.009	0.204	-0.033
-547.325	-43.429	0.063	0.032
-546.310	-200.000	0.014	-0.099
-545.296	-120.243	0.233	-0.040
-544.281	-85.454	-0.025	0.008
-543.266	-200.000	-0.077	0.384
-542.252	-42.584	0.230	0.118
-541.237	-200.000	0.017	0.100
-540.223	-9.489	0.220	0.147
-539.208	800.000	-0.092	0.342
-538.193	42.423	0.307	0.281
-537.179	125.804	0.274	0.347
-536.164	-200.000	-0.033	-0.164
-535.150	-146.878	0.289	0.025
-534.135	-141.703	-0.150	0.015
-533.121	-200.000	-0.212	-0.001
-532.106	-200.000	0.063	0.280
-531.091	393.255	-0.019	-0.040
-530.077	-200.000	0.005	0.114
-529.062	-39.280	0.209	0.110
-528.048	378.992	0.102	0.210
-527.033	-105.837	-0.365	0.083
-526.018	616.616	-0.148	0.373
-525.004	723.885	-0.021	-0.055
-523.989	-22.680	0.067	-0.040
-522.975	-200.000	0.059	0.370
-521.960	800.000	-0.091	0.301
-520.945	548.607	-0.043	0.102
-519.931	800.000	0.068	0.242
-518.916	-200.000	0.008	-0.214
-517.902	-46.919	-0.254	-0.125
-516.887	34.707	0.172	-0.151
-515.872	-94.043	-0.280	0.077
-514.858	81.506	-0.184	-0.200
-513.843	330.303	0.089	-0.172
-512.829	188.243	0.122	-0.183
-511.814	101.290	-0.221	-0.258
-510.799	-161.676	-0.224	-0.011
-509.785	-117.314	0.232	0.042
-508.770	66.965	-0.209	-0.213
-507.756	-69.633	0.383	0.147
-506.741	274.666	0.089	0.157
-505.726	-19.644	-0.243	0.151
-504.712	700.261	-0.091	-0.239
-503.697	47.828	0.135	-0.126
-502.683	-195.382	0.249	0.002
-501.668	800.000	0.048	-0.187
-500.653	-21.761	0.078	0.047
-499.639	-6.296	0.273	-0.186
-498.624	-98.906	-0.066	0.017
-497.610	-198.276	0.077	-0.000
-496.595	-51.298	-0.383	0.180
-495.581	85.075	-0.224	0.246
-494.566	-142.690	0.287	-0.028
-493.551	-140.774	-0.359	0.037
-492.537	51.330	0.277	0.263
-491.522	203.202	0.143	-0.221
-490.508	172.259	-0.057	-0.083
-489.493	-59.388	-0.182	-0.078
-488.478	31.329	-0.068	-0.059
-487.464	593.999	-0.145	-0.358
-486.449	800.000	-0.083	-0.240
-485.435	800.000	0.046	-0.184
-484.420	30.236	-0.080	-0.069
-483.405	-144.290	-0.181	-0.017
-482.391	-200.000	-0.014	-0.240
-481.376	-200.000	0.005	0.038
-480.362	-200.000	-0.020	0.176
-479.347	-140.964	-0.147	0.015
-478.332	-200.000	0.009	-0.271
-477.318	-113.403	0.111	0.022
-476.303	-200.000	-0.023	0.287
-475.289	341.490	-0.050	-0.098
-474.274	-89.141	0.213	-0.063
-473.259	-98.787	0.225	-0.057
-472.245	-200.000	-0.035	0.234
-471.230	800.000	0.072	-0.255
-470.216	-112.091	0.171	0.034
-469.201	800.000	0.083	0.331
-468.186	61.485	0.013	0.013
-467.172	-87.573	-0.140	-0.042
-466.157	-36.356	0.174	-0.094
-465.143	67.148	-0.190	-0.194
-464.128	-19.119	-0.072	0.045
-463.113	-183.851	0.219	-0.004
-462.099	549.246	-0.099	0.236
-461.084	800.000	0.076	0.301
-460.070	-168.919	-0.291	-0.011
-459.055	749.060	-0.038	-0.102
-458.040	131.146	0.096	-0.124
-457.026	-78.074	0.441	0.152
-456.011	-151.256	0.051	-0.004
-454.997	-11.926	0.041	-0.027
-453.982	-165.379	-0.056	-0.002
-452.968	-200.000	-0.012	-0.150
-451.953	-45.317	-0.081	0.040
-450.938	800.000	0.072	-0.201
-449.924	-16.471	-0.104	-0.066
-448.909	526.662	0.044	0.104
-447.895	-200.000	0.025	-0.164
-446.880	-91.381	0.123	-0.035
-445.865	800.000	-0.039	0.161
-444.851	58.303	-0.086	0.084
-443.836	206.377	0.077	-0.119
-442.822	334.086	-0.029	0.057
-441.807	-43.218	-0.133	-0.068
-440.792	97.638	-0.108	0.124
-439.778	-200.000	-0.016	0.142
-438.763	27.532	-0.129	-0.108
-437.749	-200.000	-0.040	-0.296
-436.734	-38.209	-0.036	0.019
-435.719	800.000	-0.093	-0.399
-434.705	28.175	0.255	0.215
-433.690	-200.000	-0.020	-0.189
-432.676	155.069	0.066	-0.091
-431.661	-25.293	-0.402	-0.238
-430.646	-200.000	0.037	0.275
-429.632	211.596	-0.073	0.115
-428.617	-143.785	-0.540	0.051
-427.603	800.000	0.104	0.397
-426.588	213.372	-0.093	-0.147
-425.573	-200.000	-0.012	0.182
-424.559	366.577	-0.227	-0.457
-423.544	-57.690	0.183	-0.080
-422.530	27.024	-0.165	0.138
-421.515	259.913	0.165	-0.285
-420.500	-200.000	0.001	0.273
-419.486	125.983	-0.078	0.098
-418.471	-45.706	0.103	0.051
-417.457	-157.857	0.347	-0.021
-416.442	800.000	0.019	-0.054
-415.428	21.807	-0.189	0.154
-414.413	200.182	-0.015	0.022
-413.398	-67.871	-0.113	-0.044
-412.384	21.436	0.141	-0.115
-411.369	-4.277	-0.471	0.326
-410.355	-28.334	-0.084	-0.048
-409.340	-200.000	-0.049	-0.216
-408.325	-200.000	0.127	0.000
-407.311	-46.770	-0.272	0.133
-406.296	120.135	0.106	0.131
-405.282	-3.028	-0.177	-0.123
-404.267	87.535	0.143	0.158
-403.252	-164.791	-0.220	0.010
-402.238	-123.548	0.213	0.034
-401.223	800.000	0.089	-0.267
-400.209	-200.000	0.009	0.185
-399.194	30.144	-0.044	0.038
-398.179	-32.305	-0.102	0.057
-397.165	800.000	0.116	0.368
-396.150	-11.084	-0.320	-0.211
-395.136	-200.000	-0.043	-0.433
-394.121	-200.000	-0.048	-0.374
-393.106	68.747	0.293	-0.301
-392.092	-76.104	-0.269	0.095
-391.077	-84.385	-0.181	0.057
-390.063	147.966	0.226	-0.304
-389.048	551.786	-0.099	-0.238
-388.033	-200.000	0.016	-0.127
-387.019	-114.427	-0.193	0.037
-386.004	-200.000	0.012	0.220
-384.990	800.000	0.025	-0.071
-383.975	-200.000	-0.090	0.398
-382.960	160.944	0.066	-0.092
-381.946	338.171	-0.154	-0.299
-380.931	-17.991	0.214	-0.134
-379.917	-65.314	-0.249	-0.100
-378.902	800.000	-0.072	0.253
-377.888	800.000	0.077	-0.290
-376.873	-200.000	0.069	-0.435
-375.858	88.278	-0.230	0.254
-374.844	-200.000	-0.011	0.194
-373.829	266.465	-0.158	-0.276
-372.815	527.108	0.185	0.435
-371.800	124.935	-0.209	0.262
-370.785	-200.000	-0.020	0.219
-369.771	256.938	-0.090	0.154
-368.756	252.122	0.082	0.139
-367.742	800.000	-0.028	0.086
-366.727	12.706	-0.162	0.125
-365.712	62.095	-0.253	-0.252
-364.698	-200.000	0.017	-0.365
-363.683	800.000	-0.080	-0.272
-362.669	183.660	0.137	-0.201
-361.654	-1.654	0.282	0.198
-360.639	144.202	0.030	-0.040
-359.625	126.050	-0.177	0.223
-358.610	2.701	0.142	0.103
-357.596	-37.025	-0.221	-0.118
-356.581	194.022	0.148	0.224
-355.566	-141.803	-0.147	0.015
-354.552	-200.000	0.036	0.201
-353.537	-90.951	-0.287	0.082
-352.523	85.749	-0.018	-0.019
-351.508	-109.603	0.294	0.062
-350.493	-96.491	0.341	-0.090
-349.479	-179.774	-0.373	-0.008
-348.464	125.646	-0.128	0.161
-347.450	-200.000	-0.019	0.157
-346.435	278.250	-0.025	0.045
-345.420	764.003	0.036	-0.098
-344.406	-59.760	-0.159	-0.068
-343.391	500.660	0.061	-0.140
-342.377	93.639	-0.256	0.289
-341.362	1.048	0.120	-0.085
-340.348	-136.551	0.215	0.025
-339.333	-200.000	-0.001	0.399
-338.318	42.486	0.189	-0.171
-337.304	-200.000	0.062	-0.318
-336.289	-200.000	0.000	0.084
-335.275	-200.000	-0.054	-0.269
-334.260	800.000	-0.112	-0.375
-333.245	-200.000	-0.009	-0.090
-332.231	287.456	-0.257	-0.463
-331.216	-108.694	0.271	0.058
-330.202	-29.953	-0.169	-0.096
-329.187	338.057	0.165	0.320
-328.172	-200.000	0.063	-0.476
-327.158	-190.930	-0.270	-0.003
-326.143	-37.428	-0.145	-0.077
-325.129	61.893	0.182	-0.181
-324.114	274.322	-0.100	-0.177
-323.099	-117.551	-0.315	-0.057
-322.085	41.860	-0.071	0.064
-321.070	800.000	-0.060	0.225
-320.056	137.521	0.092	-0.120
-319.041	265.835	-0.100	-0.174
-318.026	279.922	0.151	0.269
-317.012	-200.000	-0.004	0.146
-315.997	19.315	0.188	-0.150
-314.983	-200.000	0.008	0.071
-313.968	-200.000	0.082	0.407
-312.953	-118.347	0.176	0.031
-311.939	800.000	0.069	-0.239
-310.924	-115.591	-0.111	-0.021
-309.910	-200.000	-0.008	-0.071
-308.895	-200.000	0.059	-0.568
-307.880	-43.339	0.471	0.237
-306.866	-119.383	0.246	-0.043
-305.851	125.670	0.186	-0.234
-304.837	-200.000	-0.057	0.283
-303.822	336.188	-0.174	0.335
-302.807	48.899	0.223	0.208
-301.793	231.029	0.105	-0.171
-300.778	-159.559	-0.113	-0.006
-299.764	-76.279	0.215	0.075
-298.749	800.000	0.042	0.125
-297.735	800.000	0.010	0.030
-296.720	777.572	-0.104	0.282
-295.705	-200.000	0.018	-0.195
-294.691	-47.180	-0.084	0.040
-293.676	400.146	0.128	-0.268
-292.662	137.812	-0.087	-0.114
-291.647	-200.000	-0.011	0.164
-290.632	-77.988	0.289	-0.099
-289.618	-46.998	0.195	0.095
-288.603	-70.320	-0.164	-0.062
-287.589	12.789	-0.239	0.184
-286.574	73.736	-0.042	-0.043
-285.559	-87.438	-0.063	-0.019
-284.545	800.000	-0.029	0.121
-283.530	418.152	0.150	0.318
-282.516	800.000	-0.151	-0.458
-281.501	438.125	-0.102	0.221
-280.486	211.603	0.120	-0.188
-279.472	-133.550	0.133	-0.017
-278.457	-75.907	0.460	0.162
-277.443	-61.432	-0.241	-0.101
-276.428	318.763	-0.194	0.366
-275.413	538.040	-0.094	0.221
-274.399	21.830	0.018	0.015
-273.384	32.819	0.203	0.175
-272.370	508.605	0.113	0.261
-271.355	-10.037	0.076	0.050
-270.340	-33.575	-0.207	-0.113
-269.326	368.446	-0.107	-0.215
-268.311	-200.000	-0.008	-0.127
-267.297	41.636	0.151	-0.136
-266.282	-200.000	-0.018	-0.316
-265.267	-121.796	-0.296	0.049
-264.253	14.979	-0.214	0.166
-263.238	85.911	0.196	0.214
-262.224	34.166	-0.053	-0.046
-261.209	800.000	0.063	-0.195
-260.195	-200.000	0.014	-0.255
-259.180	253.700	-0.088	-0.148
-258.165	-29.593	0.438	0.248
-257.151	393.127	-0.172	-0.356
-256.136	-200.000	0.064	-0.301
-255.122	800.000	-0.066	0.256
-254.107	35.570	-0.150	0.131
-253.092	-200.000	0.012	-0.230
-252.078	87.020	0.281	-0.308
-251.063	-58.900	0.110	0.047
-250.049	-114.269	-0.259	0.050
-249.034	800.000	0.099	-0.388
-248.019	123.882	0.149	-0.185
-247.005	91.904	0.106	-0.119
-245.990	147.406	0.123	-0.164
-244.976	6.787	-0.326	-0.241
-243.961	-200.000	0.014	-0.218
-242.946	-9.638	-0.174	0.115
-241.932	32.255	0.157	-0.134
-240.917	11.285	-0.156	0.118
-239.903	-200.000	-0.006	0.153
-238.888	-66.521	-0.443	-0.174
-237.873	-121.237	-0.270	-0.045
-236.859	74.373	0.249	0.260
-235.844	-11.996	-0.105	0.068
-234.830	-21.142	-0.208	-0.126
-233.815	-200.000	-0.027	0.130
-232.800	424.535	0.089	-0.189
-231.786	-59.582	0.172	-0.073
-230.771	-200.000	-0.001	-0.234
-229.757	-23.155	0.210	0.125
-228.742	-129.596	-0.189	0.026
-227.727	-200.000	-0.032	0.208
-226.713	243.193	-0.016	0.027
-225.698	473.156	-0.096	0.214
-224.684	109.156	0.300	0.356
-223.669	-200.000	0.013	0.409
-222.655	-19.526	-0.108	0.066
-221.640	2.703	-0.201	-0.144
-220.625	334.117	0.116	0.223
-219.611	47.103	0.071	-0.066
-218.596	31.073	-0.066	-0.056
-217.582	-200.000	0.049	0.361
-216.567	-200.000	0.011	0.084
-215.552	800.000	-0.025	0.106
-214.538	50.037	-0.175	-0.163
-213.523	-200.000	-0.003	0.023
-212.509	-33.767	-0.198	0.108
-211.494	17.025	0.147	-0.115
-210.479	-200.000	-0.002	-0.115
-209.465	-200.000	-0.025	0.154
-208.450	800.000	0.097	0.338
-207.436	-200.000	-0.083	0.387
-206.421	-99.727	-0.353	-0.088
-205.406	-55.528	-0.387	-0.172
-204.392	17.788	0.138	0.108
-203.377	-200.000	0.022	0.251
-202.363	-88.626	-0.017	0.005
-201.348	-200.000	-0.003	0.257
-200.333	-100.596	0.418	-0.102
-199.319	-123.428	-0.259	0.041
-198.304	135.690	-0.168	0.216
-197.290	-105.276	-0.282	0.064
-196.275	800.000	0.045	-0.173
-195.260	-3.470	0.182	0.125
-194.246	50.723	0.079	-0.074
-193.231	-200.000	0.010	-0.117
-192.217	221.458	-0.083	0.133
-191.202	36.858	0.088	-0.077
-190.187	-74.064	-0.198	0.071
-189.173	-96.435	0.158	-0.041
-188.158	85.883	-0.228	0.248
-187.144	-162.868	-0.148	0.007
-186.129	467.331	-0.137	-0.303
-185.114	800.000	0.081	-0.298
-184.100	-200.000	-0.049	0.284
-183.085	690.007	0.067	0.173
-182.071	302.351	-0.113	-0.208
-181.056	-168.685	0.138	0.005
-180.042	-69.216	0.335	0.128
-179.027	-106.986	0.168	-0.037
-178.012	45.270	0.348	0.317
-176.998	800.000	0.060	-0.251
-175.983	800.000	0.054	-0.154
-174.969	-69.502	0.149	-0.056
-173.954	19.271	0.237	-0.189
-172.939	346.922	-0.100	0.195
-171.925	565.927	0.083	0.200
-170.910	507.288	-0.106	-0.244
-169.896	42.296	0.128	0.115
-168.881	497.603	0.103	0.234
-167.866	115.898	-0.197	0.239
-166.852	-109.963	0.173	0.036
-165.837	-200.000	0.034	-0.266
-164.823	117.677	-0.217	-0.264
-163.808	-167.862	0.181	-0.007
-162.793	800.000	-0.032	0.098
-161.779	-200.000	-0.007	0.056
-160.764	-104.017	0.203	-0.047
-159.750	-0.140	0.131	-0.092
-158.735	-75.882	0.111	-0.039
-157.720	-169.028	0.340	0.013
-156.706	-77.562	0.339	-0.116
-155.691	800.000	0.090	0.355
-154.677	64.777	0.199	-0.198
-153.662	175.602	-0.107	-0.153
-152.647	116.993	0.249	0.303
-151.633	-132.160	0.057	-0.007
-150.618	16.740	-0.235	0.184
-149.604	46.244	0.175	-0.160
-148.589	459.930	0.126	0.278
-147.574	2.584	-0.079	0.056
-146.560	566.351	0.156	0.374
-145.545	53.164	0.114	-0.108
-144.531	-11.584	0.069	0.045
-143.516	97.774	-0.293	-0.332
-142.502	23.782	-0.220	-0.179
-141.487	-200.000	-0.015	0.193
-140.472	-151.201	0.435	0.032
-139.458	-144.905	0.152	0.014
-138.443	71.083	0.189	-0.194
-137.429	209.891	0.065	0.101
-136.414	-20.836	0.163	-0.098
-135.399	35.603	-0.033	0.029
-134.385	-49.462	-0.138	0.065
-133.370	101.904	0.256	0.295
-132.356	45.639	0.194	-0.177
-131.341	-200.000	-0.005	0.198
-130.326	541.348	0.145	-0.342
-129.312	-200.000	0.019	0.353
-128.297	-25.299	-0.173	0.101
-127.283	586.091	0.126	-0.306
-126.268	-29.462	0.104	0.059
-125.253	-108.479	0.101	-0.021
-124.239	-200.000	-0.002	0.265
-123.224	-200.000	0.012	-0.200
-122.210	-10.396	0.456	-0.298
-121.195	143.036	-0.052	0.069
