DTS Sentinel unit serial number:	SN413079Multiplexer serial number:	ORYXHardware model number:	OX4-SRSoftware version number:	ORYX F/W v4.00 Oryx Data Collector v3.7.2.0data status	okinstallation	princeton_trtdifferential loss correction	single-endedforward channel	channel 3reverse channel	N/Adate	2019/09/11time	18:18:11forward acquisition time	60.00reverse acquisition time	0.00gamma	496.2192k internal	0.2287k external	0.2287temperature offset calibration	0.9996default loss term (dB/km)	0.3790temperature slope calibration	1.0000multiplexer offset coefficient	1.0000multiplexer slope coefficient	1.0000fibre end	0.00T internal ref (°C)	44.00T ext. ref 1 (°C)	1.15T ext. ref 2 (°C)	38.90length (m)	temperature (°C)	Stokes	anti-Stokes-747.200	-68.802	0.212	0.084
-746.185	114.065	-0.331	0.413
-745.171	-39.470	0.227	0.122
-744.156	75.138	0.137	0.148
-743.142	-45.213	0.341	0.174
-742.127	523.389	0.084	0.203
-741.112	-21.901	0.163	0.102
-740.098	800.000	0.024	-0.097
-739.083	-59.712	-0.061	-0.027
-738.069	788.805	0.098	0.275
-737.054	14.592	0.269	0.216
-736.039	74.453	0.155	-0.167
-735.025	-90.666	0.411	0.122
-734.010	-8.132	-0.263	-0.181
-732.996	13.405	0.055	0.043
-731.981	84.502	-0.130	0.146
-730.966	46.313	0.082	-0.078
-729.952	800.000	0.026	-0.106
-728.937	14.990	0.119	-0.096
-727.923	404.715	0.250	0.540
-726.908	-159.477	-0.143	0.008
-725.894	800.000	-0.034	-0.120
-724.879	-55.138	0.157	-0.073
-723.864	7.782	-0.169	-0.130
-722.850	134.229	-0.128	0.170
-721.835	18.634	0.113	-0.093
-720.821	-200.000	0.005	0.258
-719.806	173.619	0.178	-0.263
-718.791	800.000	-0.105	-0.348
-717.777	-158.382	-0.018	-0.001
-716.762	-31.347	-0.416	-0.240
-715.748	-32.180	0.125	-0.072
-714.733	-116.255	0.130	0.025
-713.718	-72.722	-0.137	0.052
-712.704	-25.722	0.210	-0.127
-711.689	-146.145	-0.127	-0.011
-710.675	-129.132	-0.117	0.017
-709.660	-200.000	0.011	0.096
-708.645	441.302	0.035	0.079
-707.631	-200.000	-0.004	-0.093
-706.616	47.057	-0.094	0.090
-705.602	10.154	-0.114	-0.089
-704.587	-200.000	0.008	-0.046
-703.572	130.237	0.133	0.174
-702.558	-144.446	0.039	0.004
-701.543	240.151	0.090	0.154
-700.529	166.747	-0.084	-0.122
-699.514	-164.562	0.361	-0.017
-698.499	119.728	0.052	-0.066
-697.485	48.817	-0.126	-0.121
-696.470	-200.000	0.021	0.312
-695.456	-93.627	0.140	-0.039
-694.441	-200.000	0.029	0.148
-693.426	-7.849	0.036	0.025
-692.412	159.968	-0.198	-0.283
-691.397	393.043	0.096	-0.205
-690.383	-147.630	0.191	-0.016
-689.368	-200.000	-0.035	-0.164
-688.354	-200.000	0.005	0.039
-687.339	3.383	0.079	-0.059
-686.324	22.397	-0.412	0.345
-685.310	-164.328	0.170	0.008
-684.295	-134.309	-0.350	0.044
-683.281	-99.538	-0.042	0.011
-682.266	800.000	0.076	-0.263
-681.251	20.884	0.193	0.160
-680.237	-112.741	0.285	-0.058
-679.222	-80.906	0.267	0.091
-678.208	-52.409	0.290	0.137
-677.193	-88.296	-0.216	0.066
-676.178	242.194	0.112	0.192
-675.164	-49.766	0.114	0.055
-674.149	-200.000	0.018	-0.411
-673.135	800.000	-0.106	-0.383
-672.120	121.059	-0.040	0.051
-671.105	-130.497	0.156	0.022
-670.091	-57.406	-0.216	-0.097
-669.076	-136.998	0.359	-0.042
-668.062	-200.000	-0.001	-0.167
-667.047	-200.000	0.055	-0.461
-666.032	800.000	-0.026	-0.082
-665.018	-101.140	0.165	-0.041
-664.003	540.006	0.016	-0.039
-662.989	-200.000	-0.021	-0.103
-661.974	-200.000	0.041	0.347
-660.959	53.313	0.229	0.224
-659.945	30.818	-0.293	-0.257
-658.930	-25.743	-0.443	-0.267
-657.916	-6.426	-0.121	-0.085
-656.901	800.000	-0.054	-0.230
-655.886	161.102	0.262	-0.374
-654.872	-200.000	0.007	0.319
-653.857	22.945	-0.103	0.087
-652.843	-200.000	0.002	-0.071
-651.828	131.090	0.069	-0.090
-650.814	289.282	0.108	-0.201
-649.799	-21.888	-0.361	-0.224
-648.784	800.000	0.073	-0.260
-647.770	89.167	-0.290	0.331
-646.755	800.000	0.061	0.256
-645.741	-156.736	-0.106	-0.007
-644.726	-63.204	-0.165	-0.069
-643.711	-200.000	0.008	-0.278
-642.697	-96.122	-0.123	0.033
-641.682	99.855	0.048	0.057
-640.668	-113.255	-0.178	0.036
-639.653	173.257	-0.166	-0.244
-638.638	72.284	-0.108	-0.115
-637.624	20.842	-0.224	-0.186
-636.609	3.214	-0.101	-0.075
-635.595	-156.649	-0.228	-0.014
-634.580	800.000	0.046	0.199
-633.565	-200.000	-0.015	0.102
-632.551	241.056	0.164	-0.280
-631.536	-122.621	0.117	-0.019
-630.522	407.252	-0.071	0.153
-629.507	-188.048	0.080	-0.001
-628.492	-200.000	0.060	-0.311
-627.478	191.094	-0.098	0.151
-626.463	412.244	0.100	0.218
-625.449	-122.235	0.500	-0.083
-624.434	-70.291	-0.176	-0.068
-623.419	-200.000	0.032	0.376
-622.405	757.813	0.062	0.172
-621.390	-143.505	0.070	-0.007
-620.376	-138.414	-0.187	0.021
-619.361	-200.000	-0.009	0.133
-618.346	-116.885	0.206	-0.038
-617.332	218.565	-0.058	-0.094
-616.317	7.595	0.105	0.080
-615.303	-97.360	-0.224	0.060
-614.288	800.000	0.047	-0.200
-613.273	-99.509	0.381	-0.098
-612.259	312.946	-0.052	-0.099
-611.244	-104.241	-0.125	0.030
-610.230	-200.000	-0.016	-0.330
-609.215	-53.684	0.242	0.113
-608.201	18.846	-0.315	0.257
-607.186	147.691	-0.252	-0.346
-606.171	-200.000	0.040	-0.201
-605.157	101.779	-0.066	0.078
-604.142	800.000	-0.041	0.175
-603.128	-200.000	-0.019	0.202
-602.113	61.622	0.094	-0.096
-601.098	4.360	-0.248	-0.186
-600.084	-20.030	-0.152	0.096
-599.069	-23.510	-0.156	-0.096
-598.055	-200.000	-0.005	0.163
-597.040	-48.290	-0.234	-0.115
-596.025	800.000	0.007	-0.032
-595.011	767.597	-0.043	-0.120
-593.996	429.012	0.149	-0.328
-592.982	64.265	-0.090	-0.093
-591.967	352.380	0.108	0.218
-590.952	93.309	0.158	0.182
-589.938	-55.287	-0.157	-0.072
-588.923	800.000	0.036	-0.107
-587.909	-200.000	0.008	-0.125
-586.894	140.091	-0.081	-0.108
-585.879	-200.000	0.027	0.120
-584.865	271.310	0.066	-0.118
-583.850	175.433	-0.278	-0.411
-582.836	-35.679	0.102	0.056
-581.821	23.273	0.133	0.111
-580.806	-42.975	-0.095	0.049
-579.792	-72.656	-0.333	-0.125
-578.777	800.000	-0.090	0.363
-577.763	800.000	-0.065	0.199
-576.748	4.292	0.323	0.241
-575.733	-18.371	0.293	-0.186
-574.719	10.978	0.156	-0.122
-573.704	800.000	-0.086	-0.241
-572.690	-15.334	-0.251	0.164
-571.675	800.000	-0.075	-0.251
-570.661	48.793	0.253	-0.242
-569.646	43.284	0.156	0.145
-568.631	-164.691	0.129	-0.006
-567.617	-99.143	0.098	-0.025
-566.602	-154.403	0.150	-0.010
-565.588	-122.529	0.130	-0.022
-564.573	-168.657	-0.253	0.010
-563.558	-107.423	0.345	-0.077
-562.544	166.150	-0.025	0.036
-561.529	171.750	0.091	-0.132
-560.515	-200.000	0.033	-0.169
-559.500	-28.059	-0.330	0.195
-558.485	127.027	-0.158	-0.204
-557.471	-166.483	-0.266	-0.011
-556.456	257.826	-0.130	0.229
-555.442	326.132	0.107	0.209
-554.427	114.644	0.114	-0.142
-553.412	-109.480	-0.041	0.009
-552.398	800.000	-0.048	-0.145
-551.383	169.200	-0.214	-0.310
-550.369	258.226	0.088	0.155
-549.354	-200.000	-0.052	0.271
-548.339	60.597	-0.295	0.298
-547.325	98.794	0.045	-0.053
-546.310	690.366	-0.163	-0.435
-545.296	46.090	0.218	-0.205
-544.281	-29.399	0.369	0.215
-543.266	800.000	-0.066	0.240
-542.252	-11.911	-0.275	0.184
-541.237	13.288	0.261	-0.206
-540.223	-48.687	-0.160	0.078
-539.208	109.700	0.065	0.080
-538.193	-81.027	-0.191	0.064
-537.179	800.000	0.103	0.392
-536.164	506.608	-0.039	0.092
-535.150	107.985	0.181	-0.220
-534.135	221.793	-0.067	0.110
-533.121	-141.416	-0.132	0.014
-532.106	68.970	0.058	0.060
-531.091	183.723	0.078	-0.117
-530.077	-200.000	-0.004	0.233
-529.062	180.572	0.022	-0.033
-528.048	157.060	-0.231	0.325
-527.033	-132.010	0.197	-0.026
-526.018	293.326	0.155	-0.288
-525.004	653.641	-0.049	0.127
-523.989	-200.000	0.025	-0.432
-522.975	257.822	0.094	0.164
-521.960	-85.385	0.073	-0.023
-520.945	-200.000	-0.085	-0.385
-519.931	-10.242	0.201	-0.136
-518.916	265.778	0.065	0.116
-517.902	336.709	-0.186	-0.367
-516.887	-121.898	0.305	0.051
-515.872	330.919	-0.185	0.362
-514.858	-26.569	0.141	-0.084
-513.843	-75.722	0.279	0.101
-512.829	34.909	-0.156	0.139
-511.814	-41.614	-0.215	0.112
-510.799	2.637	-0.168	0.124
-509.785	-200.000	0.004	-0.470
-508.770	-18.503	0.371	0.236
-507.756	47.725	0.261	0.248
-506.741	364.055	-0.105	-0.214
-505.726	733.917	0.115	0.312
-504.712	800.000	-0.093	-0.385
-503.697	-114.992	0.175	-0.034
-502.683	136.596	0.146	0.193
-501.668	-116.488	0.195	-0.036
-500.653	800.000	0.040	0.169
-499.639	-45.653	-0.112	0.056
-498.624	-200.000	-0.005	0.143
-497.610	-200.000	0.017	-0.089
-496.595	-200.000	0.012	0.320
-495.581	-46.367	-0.144	-0.072
-494.566	-57.837	-0.125	-0.056
-493.551	-73.305	0.246	-0.092
-492.537	-69.574	-0.214	-0.083
-491.522	5.977	0.296	0.223
-490.508	-14.645	0.208	-0.136
-489.493	800.000	-0.072	-0.286
-488.478	402.024	-0.178	-0.380
-487.464	124.694	0.125	-0.160
-486.449	83.454	-0.224	0.248
-485.435	-113.273	-0.030	-0.006
-484.420	-124.085	0.124	0.020
-483.405	-126.647	-0.316	-0.047
-482.391	211.589	-0.074	-0.118
-481.376	31.236	-0.118	0.102
-480.362	-150.179	0.148	0.012
-479.347	215.920	0.185	0.298
-478.332	79.042	0.042	-0.046
-477.318	267.964	-0.096	-0.172
-476.303	-123.993	0.326	0.052
-475.289	-200.000	0.032	0.166
-474.274	12.520	-0.118	0.092
-473.259	-200.000	0.002	0.088
-472.245	-130.265	-0.418	0.058
-471.230	88.188	0.118	0.133
-470.216	-166.385	0.210	-0.009
-469.201	-97.543	0.389	0.102
-468.186	53.039	0.025	0.024
-467.172	800.000	-0.082	0.286
-466.157	180.321	-0.045	-0.067
-465.143	33.093	-0.069	0.060
-464.128	-135.841	-0.221	0.027
-463.113	289.408	-0.117	-0.216
-462.099	318.894	-0.034	-0.065
-461.084	98.697	0.202	0.237
-460.070	-200.000	0.021	0.382
-459.055	-101.522	0.282	0.070
-458.040	-115.880	0.483	0.092
-457.026	-142.850	-0.319	0.031
-456.011	461.571	-0.112	0.254
-454.997	77.988	0.110	0.119
-453.982	-34.685	-0.146	-0.081
-452.968	-80.096	0.272	-0.093
-451.953	22.130	-0.190	-0.157
-450.938	-140.495	-0.141	-0.015
-449.924	212.302	0.141	0.225
-448.909	-196.437	-0.195	-0.001
-447.895	141.819	-0.139	0.187
-446.880	194.260	0.070	0.108
-445.865	517.943	0.095	0.226
-444.851	-200.000	0.036	0.274
-443.836	216.830	-0.190	-0.307
-442.822	-200.000	-0.040	0.247
-441.807	-36.024	0.170	0.093
-440.792	-141.664	0.398	0.041
-439.778	107.527	-0.160	0.193
-438.763	161.826	0.060	-0.085
-437.749	164.311	0.111	-0.159
-436.734	37.360	0.075	0.067
-435.719	22.910	0.107	-0.089
-434.705	800.000	0.119	0.383
-433.690	-61.334	0.151	-0.064
-432.676	115.794	0.034	-0.042
-431.661	800.000	0.036	-0.154
-430.646	39.882	0.175	-0.159
-429.632	75.803	-0.090	0.096
-428.617	270.624	0.052	-0.093
-427.603	-0.466	0.113	0.081
-426.588	63.481	0.220	-0.223
-425.573	191.045	0.091	0.138
-424.559	-200.000	0.027	0.297
-423.544	109.530	0.137	-0.166
-422.530	164.405	0.084	-0.121
-421.515	-136.951	0.081	0.009
-420.500	319.769	0.123	0.237
-419.486	-30.716	-0.223	0.128
-418.471	-87.832	-0.347	-0.106
-417.457	-51.334	-0.193	-0.091
-416.442	-142.476	-0.149	0.015
-415.428	416.777	-0.072	0.156
-414.413	-51.322	-0.116	0.055
-413.398	-200.000	-0.006	-0.084
-412.384	167.412	0.093	-0.134
-411.369	60.091	-0.121	-0.121
-410.355	15.488	-0.113	0.090
-409.340	61.986	0.066	0.067
-408.325	-200.000	0.031	0.145
-407.311	140.451	-0.079	0.105
-406.296	800.000	0.018	0.060
-405.282	-200.000	-0.013	-0.271
-404.267	-61.267	-0.313	0.133
-403.252	-200.000	0.027	0.370
-402.238	-166.102	0.206	0.009
-401.223	800.000	0.061	0.269
-400.209	-162.724	-0.418	0.021
-399.194	-143.224	0.176	-0.017
-398.179	-14.020	0.398	0.260
-397.165	-200.000	0.022	0.225
-396.150	19.663	-0.220	-0.179
-395.136	125.248	0.088	-0.113
-394.121	62.334	0.181	0.183
-393.106	132.367	0.073	0.095
-392.092	8.025	-0.207	-0.157
-391.077	800.000	-0.114	-0.496
-390.063	-67.765	0.235	-0.093
-389.048	621.322	0.052	0.131
-388.033	76.574	-0.182	0.195
-387.019	-54.047	-0.131	-0.060
-386.004	598.004	-0.053	-0.133
-384.990	-14.055	0.145	-0.095
-383.975	331.362	0.095	0.185
-382.960	91.878	0.071	0.081
-381.946	-183.322	-0.135	-0.002
-380.931	-137.628	0.287	-0.033
-379.917	800.000	0.009	-0.030
-378.902	-75.357	0.130	0.047
-377.888	250.881	-0.188	0.323
-376.873	800.000	-0.038	-0.146
-375.858	800.000	-0.101	-0.349
-374.844	-200.000	0.020	-0.093
-373.829	130.753	-0.156	0.203
-372.815	800.000	-0.069	-0.214
-371.800	12.518	0.074	-0.057
-370.785	-200.000	-0.029	0.231
-369.771	224.629	0.076	0.124
-368.756	-108.110	0.334	-0.073
-367.742	12.016	0.113	-0.088
-366.727	-40.987	-0.240	0.125
-365.712	-200.000	-0.044	0.240
-364.698	-64.459	-0.185	-0.076
-363.683	-200.000	-0.013	-0.106
-362.669	160.033	0.061	-0.086
-361.654	-36.787	-0.324	-0.176
-360.639	86.282	0.126	-0.141
-359.625	228.166	0.127	0.209
-358.610	-21.568	-0.299	-0.184
-357.596	204.122	0.126	-0.197
-356.581	-200.000	0.015	-0.076
-355.566	-107.719	-0.163	-0.036
-354.552	152.232	-0.115	0.159
-353.537	-19.028	-0.028	0.017
-352.523	-106.255	0.207	0.047
-351.508	-41.478	-0.183	0.095
-350.493	115.853	-0.141	0.175
-349.479	566.132	-0.088	0.216
-348.464	-200.000	-0.012	0.123
-347.450	-133.766	0.500	-0.063
-346.435	30.051	-0.210	0.181
-345.420	-19.830	0.061	-0.038
-344.406	-71.433	0.125	0.047
-343.391	800.000	-0.053	-0.187
-342.377	800.000	-0.120	-0.378
-341.362	19.748	-0.365	-0.297
-340.348	799.710	-0.066	-0.184
-339.333	127.456	-0.143	-0.183
-338.318	191.171	0.241	-0.366
-337.304	103.387	0.253	0.300
-336.289	-24.481	-0.325	0.196
-335.275	-44.048	-0.128	-0.065
-334.260	-56.842	-0.080	0.036
-333.245	-20.037	-0.230	-0.143
-332.231	-76.747	0.275	0.097
-331.216	37.024	0.277	-0.247
-330.202	-64.370	0.154	0.063
-329.187	-63.144	0.292	0.122
-328.172	-46.824	0.251	0.124
-327.158	-174.815	0.120	-0.003
-326.143	-1.262	0.278	0.198
-325.129	-92.865	-0.079	-0.022
-324.114	-95.502	0.201	0.054
-323.099	91.455	0.096	-0.109
-322.085	-200.000	-0.030	0.142
-321.070	15.344	-0.199	-0.158
-320.056	-36.006	-0.056	-0.030
-319.041	83.989	-0.049	-0.054
-318.026	-24.886	0.102	-0.061
-317.012	-105.751	0.142	0.032
-315.997	348.662	0.058	-0.115
-314.983	-200.000	-0.012	-0.292
-313.968	21.807	-0.386	0.317
-312.953	-162.273	-0.136	-0.007
-311.939	-200.000	-0.049	0.244
-310.924	-50.097	0.018	0.009
-309.910	-3.436	-0.084	0.059
-308.895	94.063	-0.154	-0.176
-307.880	-200.000	-0.018	0.410
-306.866	66.320	-0.116	0.119
-305.851	-94.180	0.169	0.047
-304.837	800.000	-0.084	0.287
-303.822	139.242	0.009	-0.012
-302.807	-103.453	0.204	0.048
-301.793	-166.622	-0.167	-0.007
-300.778	530.748	-0.122	-0.291
-299.764	-200.000	0.048	-0.401
-298.749	121.608	-0.076	0.096
-297.735	-14.016	0.092	-0.060
-296.720	-77.021	-0.315	0.111
-295.705	154.388	0.127	0.176
-294.691	-84.935	0.194	0.061
-293.676	249.804	0.155	-0.265
-292.662	800.000	0.031	0.136
-291.647	-35.584	0.033	0.018
-290.632	336.745	0.026	-0.051
-289.618	245.772	-0.051	-0.086
-288.603	-156.108	0.187	-0.012
-287.589	800.000	0.018	-0.057
-286.574	-33.874	0.111	0.062
-285.559	57.381	0.063	0.062
-284.545	-62.726	0.218	-0.091
-283.530	-33.552	0.098	-0.055
-282.516	327.458	0.054	-0.104
-281.501	-200.000	-0.008	-0.167
-280.486	-200.000	-0.013	0.078
-279.472	267.360	-0.066	0.116
-278.457	184.802	0.096	0.143
-277.443	800.000	0.109	-0.444
-276.428	44.412	-0.124	0.115
-275.413	800.000	-0.074	0.313
-274.399	27.081	-0.164	-0.138
-273.384	-200.000	0.032	-0.332
-272.370	202.075	0.122	0.190
-271.355	-148.783	-0.066	-0.005
-270.340	155.589	-0.079	-0.109
-269.326	49.571	-0.128	0.122
-268.311	-15.632	0.170	-0.109
-267.297	359.897	0.221	-0.446
-266.282	93.125	-0.242	-0.275
-265.267	-200.000	-0.003	0.196
-264.253	-200.000	-0.017	0.209
-263.238	10.641	-0.202	-0.155
-262.224	-200.000	-0.035	0.295
-261.209	90.254	-0.220	0.248
-260.195	176.613	0.134	-0.196
-259.180	800.000	-0.018	-0.072
-258.165	-14.035	0.236	-0.154
-257.151	7.888	0.176	-0.133
-256.136	-200.000	0.008	-0.144
-255.122	105.828	0.021	0.025
-254.107	-52.900	-0.172	0.080
-253.092	18.029	-0.098	-0.079
-252.078	-121.843	0.292	0.048
-251.063	-153.914	0.068	0.005
-250.049	45.304	-0.251	-0.233
-249.034	-123.733	-0.272	-0.043
-248.019	137.984	0.156	-0.206
-247.005	46.196	0.083	0.077
-245.990	70.428	0.172	0.179
-244.976	-85.783	-0.420	-0.131
-243.961	111.964	0.082	-0.100
-242.946	87.076	-0.041	0.046
-241.932	315.169	-0.042	0.080
-240.917	-88.386	-0.139	0.042
-239.903	93.858	0.122	-0.140
-238.888	194.734	-0.111	0.169
-237.873	-140.676	0.292	-0.030
-236.859	-200.000	0.058	0.278
-235.844	585.617	0.096	-0.238
-234.830	219.669	-0.129	0.208
-233.815	101.467	-0.080	0.094
-232.800	-0.442	-0.191	-0.136
-231.786	63.298	-0.348	0.351
-230.771	122.829	-0.090	0.114
-229.757	-200.000	-0.013	-0.177
-228.742	-200.000	0.035	-0.239
-227.727	-200.000	-0.021	-0.117
-226.713	-21.899	0.173	0.106
-225.698	233.628	-0.090	0.149
-224.684	210.571	-0.163	-0.257
-223.669	-51.831	0.158	0.074
-222.655	-55.822	0.122	0.055
-221.640	-184.957	-0.263	-0.004
-220.625	-9.932	-0.127	-0.085
-219.611	-200.000	-0.080	-0.545
-218.596	-40.911	0.030	-0.016
-217.582	80.250	-0.155	-0.168
-216.567	-30.442	0.061	-0.035
-215.552	-142.532	0.281	-0.028
-214.538	800.000	-0.031	0.136
-213.523	104.657	0.321	-0.381
-212.509	800.000	-0.090	0.318
-211.494	-200.000	0.004	-0.051
-210.479	-14.334	0.222	-0.143
-209.465	-16.121	-0.269	0.172
-208.450	800.000	0.073	0.300
-207.436	-200.000	-0.040	-0.206
-206.421	52.122	0.279	-0.268
-205.406	64.845	0.199	-0.202
-204.392	-200.000	-0.026	0.201
-203.377	129.337	0.073	-0.094
-202.363	-200.000	0.016	-0.237
-201.348	-145.192	-0.104	-0.010
-200.333	-9.877	-0.178	-0.119
-199.319	484.221	0.019	-0.044
-198.304	-10.993	0.081	-0.054
-197.290	-144.433	-0.223	-0.021
-196.275	-200.000	-0.023	-0.379
-195.260	-200.000	0.003	0.499
-194.246	-61.812	-0.239	-0.100
-193.231	-51.964	0.059	0.028
-192.217	143.185	0.097	0.129
-191.202	73.626	-0.089	0.094
-190.187	235.206	-0.105	-0.173
-189.173	-200.000	0.081	-0.408
-188.158	212.228	0.121	0.192
-187.144	5.565	0.024	-0.018
-186.129	-142.667	0.091	-0.009
-185.114	35.022	-0.165	0.145
-184.100	-200.000	0.423	0.000
-183.085	-90.772	0.079	-0.023
-182.071	-200.000	-0.020	0.205
-181.056	-87.184	-0.241	0.074
-180.042	-200.000	-0.015	0.392
-179.027	220.882	0.042	-0.068
-178.012	800.000	-0.049	-0.174
-176.998	222.158	0.218	-0.352
-175.983	104.955	0.073	0.086
-174.969	-133.391	-0.237	0.030
-173.954	-136.034	-0.324	0.038
-172.939	-187.515	0.167	-0.002
-171.925	295.748	0.155	0.284
-170.910	52.520	0.040	0.038
-169.896	-148.016	-0.334	0.028
-168.881	-192.647	0.175	0.002
-167.866	533.163	-0.153	-0.363
-166.852	80.431	0.170	0.183
-165.837	-12.877	0.200	0.130
-164.823	768.339	-0.053	0.145
-163.808	-200.000	-0.080	-0.354
-162.793	-146.124	0.364	0.032
-161.779	-200.000	-0.026	0.142
-160.764	800.000	-0.057	0.163
-159.750	-200.000	0.013	0.088
-158.735	800.000	-0.053	0.224
-157.720	-175.228	0.229	0.006
-156.706	800.000	-0.031	-0.125
-155.691	800.000	-0.042	0.117
-154.677	-94.542	-0.231	-0.063
-153.662	138.155	-0.185	-0.243
-152.647	-200.000	0.019	-0.222
-151.633	32.588	-0.263	0.228
-150.618	-60.841	0.170	0.072
-149.604	98.994	0.247	-0.286
-148.589	-200.000	0.022	0.281
-147.574	96.625	0.173	0.198
-146.560	-88.389	0.186	0.056
-145.545	355.900	-0.040	0.079
-144.531	-190.087	0.200	-0.002
-143.516	-200.000	0.005	0.097
-142.502	427.799	0.018	0.038
-141.487	-115.788	0.471	-0.088
-140.472	122.774	0.048	-0.060
-139.458	183.295	-0.223	0.330
-138.443	26.815	-0.183	-0.153
-137.429	-79.703	0.180	0.061
-136.414	233.032	-0.069	-0.113
-135.399	800.000	0.047	-0.200
-134.385	-200.000	0.015	0.173
-133.370	-200.000	0.068	0.348
-132.356	-200.000	0.015	0.263
-131.341	-200.000	-0.019	-0.116
-130.326	-200.000	0.007	0.175
-129.312	-74.631	-0.224	0.081
-128.297	559.571	0.091	0.219
-127.283	-48.626	0.425	-0.205
-126.268	-119.099	0.386	0.068
-125.253	-46.499	-0.258	-0.127
-124.239	-155.352	0.082	-0.005
-123.224	23.531	0.158	-0.131
-122.210	-200.000	0.034	0.150
-121.195	112.692	0.063	0.076
-120.180	-200.000	0.028	0.150
