DTS Sentinel unit serial number:	SN413079Multiplexer serial number:	ORYXHardware model number:	OX4-SRSoftware version number:	ORYX F/W v4.00 Oryx Data Collector v3.7.2.0data status	okinstallation	princeton_trtdifferential loss correction	single-endedforward channel	channel 3reverse channel	N/Adate	2019/09/11time	07:58:11forward acquisition time	60.00reverse acquisition time	0.00gamma	496.2192k internal	0.2321k external	0.2321temperature offset calibration	1.1148default loss term (dB/km)	0.3790temperature slope calibration	1.0000multiplexer offset coefficient	1.0000multiplexer slope coefficient	1.0000fibre end	0.00T internal ref (°C)	32.00T ext. ref 1 (°C)	18.48T ext. ref 2 (°C)	27.73length (m)	temperature (°C)	Stokes	anti-Stokes-747.200	800.000	-0.061	-0.190
-746.185	800.000	-0.048	0.184
-745.171	654.976	0.081	0.211
-744.156	778.066	-0.020	-0.054
-743.142	355.006	-0.121	0.243
-742.127	-200.000	-0.046	-0.219
-741.112	434.914	-0.129	0.283
-740.098	603.176	0.049	0.124
-739.083	800.000	-0.040	0.163
-738.069	68.990	-0.042	0.044
-737.054	-89.394	0.297	-0.088
-736.039	-7.148	-0.243	0.167
-735.025	209.817	-0.052	-0.082
-734.010	96.536	-0.231	-0.268
-732.996	-57.423	-0.223	0.099
-731.981	273.345	0.011	0.020
-730.966	-69.299	-0.143	-0.055
-729.952	-173.548	0.285	0.009
-728.937	42.040	-0.094	-0.086
-727.923	160.930	-0.178	-0.251
-726.908	-200.000	0.031	-0.312
-725.894	800.000	-0.034	-0.119
-724.879	361.866	-0.076	0.155
-723.864	2.644	0.131	-0.096
-722.850	478.284	-0.082	-0.188
-721.835	-58.408	-0.350	0.154
-720.821	-118.767	-0.290	0.052
-719.806	-31.645	0.210	-0.119
-718.791	299.384	-0.026	0.048
-717.777	-14.937	0.115	-0.074
-716.762	800.000	0.024	-0.102
-715.748	-200.000	-0.012	0.064
-714.733	-115.645	-0.166	-0.031
-713.718	336.313	0.191	-0.375
-712.704	-200.000	0.032	0.219
-711.689	-12.024	-0.091	-0.061
-710.675	211.668	0.189	-0.301
-709.660	-114.532	0.269	-0.052
-708.645	293.836	0.062	0.114
-707.631	800.000	-0.074	-0.211
-706.616	-148.022	-0.212	-0.018
-705.602	89.029	0.117	0.132
-704.587	-33.003	-0.169	0.095
-703.572	125.269	-0.177	0.226
-702.558	273.187	0.085	-0.151
-701.543	-10.399	0.219	0.146
-700.529	26.558	0.141	-0.119
-699.514	1.422	0.270	0.196
-698.499	-83.741	0.091	0.029
-697.485	147.080	-0.083	-0.113
-696.470	-200.000	-0.004	0.146
-695.456	-200.000	0.012	-0.218
-694.441	-67.302	-0.329	-0.130
-693.426	64.978	0.228	-0.232
-692.412	-177.007	-0.300	0.008
-691.397	79.001	0.107	0.115
-690.383	-10.686	0.349	-0.233
-689.368	-200.000	-0.021	0.166
-688.354	-137.717	-0.162	-0.018
-687.339	0.375	-0.194	-0.140
-686.324	96.874	0.119	0.137
-685.310	-26.114	-0.250	-0.148
-684.295	120.887	0.210	-0.264
-683.281	137.642	-0.174	-0.230
-682.266	-13.350	0.356	0.233
-681.251	-7.342	-0.124	-0.085
-680.237	691.333	0.023	-0.060
-679.222	-47.622	0.163	-0.080
-678.208	-158.680	-0.145	-0.008
-677.193	502.100	-0.107	-0.250
-676.178	290.582	-0.148	-0.272
-675.164	800.000	0.040	-0.126
-674.149	235.247	0.180	-0.300
-673.135	-18.110	-0.406	-0.256
-672.120	-115.975	-0.309	-0.058
-671.105	-144.749	0.222	-0.021
-670.091	582.888	0.041	-0.102
-669.076	227.850	0.106	0.174
-668.062	-117.412	-0.106	-0.019
-667.047	-31.695	-0.356	-0.201
-666.032	-28.474	-0.105	0.061
-665.018	-73.114	-0.192	-0.071
-664.003	607.854	-0.081	0.204
-662.989	258.345	-0.086	-0.149
-661.974	17.238	-0.289	0.231
-660.959	-200.000	-0.019	0.277
-659.945	109.120	0.120	0.145
-658.930	-25.865	0.108	0.064
-657.916	381.603	-0.110	-0.227
-656.901	649.193	-0.146	-0.375
-655.886	103.986	-0.161	-0.191
-654.872	-168.858	0.115	0.004
-653.857	-200.000	0.000	-0.157
-652.843	332.550	0.064	-0.125
-651.828	800.000	0.146	-0.432
-650.814	-200.000	0.018	0.151
-649.799	-28.286	0.201	-0.117
-648.784	-200.000	-0.003	-0.150
-647.770	48.886	0.086	-0.082
-646.755	-200.000	0.026	0.195
-645.741	132.529	-0.114	0.148
-644.726	-200.000	0.009	0.132
-643.711	800.000	-0.074	-0.309
-642.697	-200.000	0.060	-0.318
-641.682	-26.807	-0.104	0.061
-640.668	-83.358	-0.126	0.041
-639.653	-62.122	0.196	0.082
-638.638	-87.088	-0.135	0.041
-637.624	45.413	-0.007	0.006
-636.609	-16.261	-0.173	0.110
-635.595	719.691	-0.151	-0.404
-634.580	311.322	-0.135	-0.256
-633.565	484.238	0.064	0.147
-632.551	-4.032	0.021	-0.014
-631.536	3.670	-0.299	0.219
-630.522	800.000	0.013	-0.042
-629.507	42.006	0.205	-0.187
-628.492	118.589	-0.098	-0.122
-627.478	321.319	-0.113	0.216
-626.463	-200.000	-0.032	-0.169
-625.449	148.331	-0.184	-0.250
-624.434	-52.185	-0.535	-0.250
-623.419	28.934	-0.390	-0.333
-622.405	-112.820	0.224	-0.045
-621.390	-200.000	-0.035	-0.302
-620.376	371.407	0.073	-0.150
-619.361	-73.204	0.139	0.051
-618.346	-200.000	-0.021	0.134
-617.332	800.000	-0.029	-0.099
-616.317	-111.670	0.346	0.071
-615.303	662.925	-0.065	-0.169
-614.288	108.067	0.080	0.096
-613.273	366.149	-0.127	-0.258
-612.259	155.556	-0.121	0.168
-611.244	-200.000	-0.015	-0.190
-610.230	800.000	0.055	0.234
-609.215	-4.949	0.065	-0.045
-608.201	-78.548	0.293	-0.101
-607.186	315.571	-0.070	-0.134
-606.171	40.236	-0.054	-0.049
-605.157	99.443	-0.189	0.220
-604.142	-23.576	0.150	0.091
-603.128	247.559	-0.080	0.136
-602.113	-97.616	-0.154	-0.040
-601.098	-139.238	0.386	-0.042
-600.084	53.967	-0.157	-0.152
-599.069	-68.965	0.059	-0.023
-598.055	-163.281	0.429	0.021
-597.040	-41.507	-0.244	0.126
-596.025	250.101	0.154	0.263
-595.011	-200.000	0.029	-0.243
-593.996	86.076	0.160	0.177
-592.982	-200.000	0.051	0.328
-591.967	81.868	0.155	-0.168
-590.952	282.959	0.061	-0.110
-589.938	85.291	-0.156	-0.172
-588.923	10.545	0.059	0.045
-587.909	800.000	0.097	0.287
-586.894	43.068	0.201	-0.184
-585.879	-185.645	-0.095	-0.001
-584.865	7.102	-0.127	-0.095
-583.850	-57.206	-0.173	-0.077
-582.836	50.142	-0.051	-0.048
-581.821	90.246	0.019	0.021
-580.806	120.086	-0.115	0.143
-579.792	-53.436	-0.130	-0.060
-578.777	-164.185	-0.134	-0.006
-577.763	-200.000	0.021	-0.214
-576.748	-121.392	-0.205	-0.034
-575.733	32.624	0.055	-0.048
-574.719	-200.000	-0.010	-0.088
-573.704	-200.000	-0.025	-0.118
-572.690	6.931	-0.168	-0.126
-571.675	800.000	-0.071	0.294
-570.661	82.350	-0.275	0.300
-569.646	19.108	0.114	0.092
-568.631	-38.702	-0.152	-0.080
-567.617	-56.063	0.192	0.086
-566.602	-79.581	-0.026	-0.009
-565.588	59.056	-0.122	0.120
-564.573	198.570	0.089	0.137
-563.558	-84.218	0.189	0.060
-562.544	-96.309	0.403	-0.107
-561.529	-9.021	-0.196	0.132
-560.515	200.463	-0.142	0.219
-559.500	-102.227	-0.078	-0.019
-558.485	-200.000	0.024	0.155
-557.471	-96.380	0.345	-0.092
-556.456	-200.000	0.020	0.233
-555.442	205.980	-0.056	-0.088
-554.427	83.048	-0.166	-0.181
-553.412	-36.583	0.202	0.109
-552.398	203.129	0.068	0.105
-551.383	181.844	0.122	0.180
-550.369	198.482	0.103	0.158
-549.354	-200.000	0.001	0.107
-548.339	-60.251	0.203	-0.087
-547.325	-200.000	-0.017	-0.277
-546.310	15.696	-0.177	0.140
-545.296	-146.779	-0.452	-0.039
-544.281	-180.417	-0.205	-0.004
-543.266	800.000	0.046	0.167
-542.252	60.365	-0.184	0.182
-541.237	-200.000	-0.030	0.253
-540.223	-200.000	0.032	-0.248
-539.208	217.134	0.017	0.028
-538.193	800.000	0.122	0.397
-537.179	-68.620	0.195	-0.076
-536.164	219.580	-0.048	0.078
-535.150	-200.000	0.039	-0.325
-534.135	-124.440	0.161	0.025
-533.121	-200.000	-0.020	0.107
-532.106	-200.000	-0.030	0.194
-531.091	-73.407	0.205	-0.075
-530.077	800.000	-0.017	0.052
-529.062	125.488	-0.180	-0.228
-528.048	40.491	-0.106	0.095
-527.033	-134.570	0.220	0.027
-526.018	-172.216	0.188	-0.006
-525.004	91.272	-0.238	-0.268
-523.989	-200.000	0.034	0.201
-522.975	-135.602	0.124	0.015
-521.960	182.899	-0.103	-0.152
-520.945	-83.256	-0.515	-0.166
-519.931	-20.926	0.086	0.053
-518.916	800.000	-0.093	-0.363
-517.902	-143.775	-0.062	-0.006
-516.887	93.969	0.184	-0.209
-515.872	-64.662	-0.200	0.081
-514.858	-200.000	-0.034	-0.333
-513.843	-169.285	-0.238	0.009
-512.829	-64.717	-0.079	-0.032
-511.814	-34.912	-0.290	0.159
-510.799	-200.000	-0.006	0.358
-509.785	138.196	0.073	-0.096
-508.770	26.281	-0.167	0.139
-507.756	195.872	-0.061	-0.093
-506.741	-71.142	0.215	-0.081
-505.726	-109.717	0.485	-0.102
-504.712	-76.772	0.078	0.027
-503.697	-136.083	0.120	0.014
-502.683	48.840	-0.281	0.264
-501.668	-100.058	0.231	-0.058
-500.653	-77.960	0.185	-0.064
-499.639	-129.428	0.398	0.055
-498.624	-95.152	0.208	0.056
-497.610	508.291	0.053	-0.123
-496.595	-12.798	0.100	-0.065
-495.581	163.886	-0.146	0.206
-494.566	-163.587	0.270	0.013
-493.551	191.628	0.125	0.188
-492.537	-37.425	-0.488	-0.261
-491.522	-95.991	-0.391	-0.104
-490.508	-127.783	0.141	0.020
-489.493	800.000	-0.047	0.188
-488.478	-123.191	-0.252	-0.040
-487.464	-156.406	0.185	-0.012
-486.449	-92.742	-0.179	-0.050
-485.435	-135.663	-0.297	0.035
-484.420	-117.576	-0.075	0.014
-483.405	-200.000	-0.032	-0.177
-482.391	800.000	0.079	-0.257
-481.376	92.370	-0.193	-0.218
-480.362	175.230	0.055	-0.080
-479.347	-200.000	0.030	-0.170
-478.332	-200.000	-0.058	-0.364
-477.318	95.303	-0.153	-0.174
-476.303	-161.264	-0.178	0.009
-475.289	463.700	-0.064	-0.144
-474.274	-111.389	0.388	0.079
-473.259	30.930	0.118	0.101
-472.245	-90.870	0.442	-0.127
-471.230	-103.777	0.069	-0.016
-470.216	800.000	0.030	0.113
-469.201	112.398	0.077	0.093
-468.186	-87.893	-0.203	-0.061
-467.172	-10.775	-0.337	-0.223
-466.157	-41.433	0.301	0.155
-465.143	183.361	-0.148	-0.219
-464.128	16.606	-0.168	0.133
-463.113	-125.309	-0.231	0.035
-462.099	-200.000	0.002	-0.057
-461.084	-101.137	-0.215	0.053
-460.070	-1.112	0.216	0.153
-459.055	-103.518	-0.402	-0.095
-458.040	534.497	0.101	-0.238
-457.026	-169.868	-0.075	0.003
-456.011	-117.063	0.158	0.029
-454.997	10.355	-0.071	-0.054
-453.982	-106.069	-0.184	0.041
-452.968	-90.839	-0.108	-0.031
-451.953	-56.760	0.118	-0.052
-450.938	-120.680	0.396	0.067
-449.924	-200.000	0.015	0.177
-448.909	800.000	-0.044	0.141
-447.895	-91.171	0.297	-0.085
-446.880	-38.511	0.299	-0.158
-445.865	-69.353	-0.224	-0.086
-444.851	-91.084	0.257	0.074
-443.836	-200.000	0.045	0.328
-442.822	221.162	0.072	0.115
-441.807	-148.645	-0.253	-0.021
-440.792	-200.000	-0.033	0.151
-439.778	-191.767	0.441	0.004
-438.763	-147.894	0.226	-0.019
-437.749	113.180	0.164	-0.199
-436.734	-102.269	-0.064	0.015
-435.719	-200.000	-0.002	0.311
-434.705	-37.732	0.313	-0.166
-433.690	118.498	0.111	0.137
-432.676	-70.355	0.177	-0.067
-431.661	-200.000	-0.060	-0.360
-430.646	-115.384	-0.311	-0.059
-429.632	57.976	-0.187	0.183
-428.617	35.304	0.262	0.229
-427.603	800.000	0.161	-0.484
-426.588	-200.000	0.011	-0.182
-425.573	546.389	0.114	-0.273
-424.559	-158.942	-0.036	-0.002
-423.544	23.654	-0.074	0.061
-422.530	256.145	-0.055	-0.094
-421.515	185.649	0.261	0.387
-420.500	-200.000	-0.021	-0.303
-419.486	-124.788	0.329	0.051
-418.471	-23.363	-0.432	-0.259
-417.457	-87.201	0.161	0.049
-416.442	89.349	0.232	-0.258
-415.428	800.000	-0.063	-0.185
-414.413	-50.801	0.160	0.075
-413.398	-77.428	0.322	-0.112
-412.384	29.632	-0.224	0.191
-411.369	800.000	0.031	-0.100
-410.355	16.249	0.227	-0.179
-409.340	44.581	-0.176	0.161
-408.325	214.132	-0.208	-0.328
-407.311	-60.599	0.089	-0.038
-406.296	69.690	-0.126	0.129
-405.282	-200.000	-0.024	0.182
-404.267	-125.429	-0.234	0.036
-403.252	800.000	-0.011	-0.047
-402.238	-87.033	0.307	0.093
-401.223	544.235	-0.075	0.178
-400.209	-175.331	-0.234	0.006
-399.194	329.275	-0.129	0.247
-398.179	193.143	-0.032	0.048
-397.165	280.010	0.213	-0.380
-396.150	239.343	0.155	-0.258
-395.136	-159.519	-0.179	-0.010
-394.121	10.209	-0.074	0.056
-393.106	-132.538	0.083	-0.011
-392.092	-110.728	0.343	0.071
-391.077	0.287	-0.053	-0.038
-390.063	-200.000	-0.020	0.259
-389.048	-101.854	-0.261	0.063
-388.033	-200.000	-0.036	0.238
-387.019	-53.200	-0.171	0.078
-386.004	199.741	-0.099	-0.151
-384.990	-104.108	0.236	-0.055
-383.975	215.904	0.055	0.087
-382.960	-200.000	-0.066	-0.317
-381.946	-177.009	0.419	-0.011
-380.931	570.849	0.067	-0.162
-379.917	645.189	-0.033	-0.084
-378.902	156.912	0.215	-0.296
-377.888	-200.000	-0.016	-0.149
-376.873	10.442	-0.389	0.295
-375.858	157.985	-0.044	-0.061
-374.844	-23.944	-0.380	0.227
-373.829	51.180	0.303	0.286
-372.815	-200.000	-0.002	0.241
-371.800	-132.928	-0.293	-0.037
-370.785	718.480	-0.047	0.125
-369.771	556.009	0.026	-0.063
-368.756	72.028	-0.052	0.054
-367.742	304.127	-0.128	0.237
-366.727	-200.000	0.070	-0.356
-365.712	-200.000	-0.046	0.206
-364.698	800.000	-0.065	0.237
-363.683	765.263	0.090	0.243
-362.669	-85.002	-0.369	0.115
-361.654	-99.561	0.051	0.013
-360.639	233.432	-0.110	-0.180
-359.625	-30.394	0.092	0.052
-358.610	800.000	0.033	-0.128
-357.596	120.962	-0.125	0.155
-356.581	12.909	0.213	0.164
-355.566	-2.174	0.217	-0.152
-354.552	19.869	-0.146	0.117
-353.537	-200.000	0.045	-0.337
-352.523	257.065	-0.096	0.164
-351.508	-24.259	-0.150	0.089
-350.493	800.000	-0.096	0.324
-349.479	800.000	0.056	0.158
-348.464	-200.000	-0.026	-0.169
-347.450	-33.448	0.066	-0.036
-346.435	-4.784	-0.083	0.057
-345.420	-200.000	0.007	-0.232
-344.406	-17.494	-0.264	0.166
-343.391	800.000	0.050	0.199
-342.377	800.000	-0.031	-0.131
-341.362	-120.682	0.331	0.056
-340.348	227.948	0.029	-0.048
-339.333	-94.029	0.050	-0.014
-338.318	-200.000	-0.086	0.495
-337.304	343.674	-0.288	0.561
-336.289	-47.241	0.074	-0.036
-335.275	-200.000	0.051	-0.451
-334.260	800.000	0.187	-0.518
-333.245	-97.041	0.251	-0.065
-332.231	800.000	0.061	-0.208
-331.216	8.930	0.154	-0.116
-330.202	-200.000	-0.097	0.493
-329.187	-200.000	-0.004	-0.269
-328.172	380.382	0.122	-0.248
-327.158	434.697	-0.018	-0.040
-326.143	68.479	-0.350	-0.357
-325.129	-200.000	-0.017	-0.331
-324.114	377.571	0.079	-0.162
-323.099	-200.000	0.151	-0.001
-322.085	-200.000	0.002	-0.175
-321.070	50.270	0.044	-0.041
-320.056	157.808	-0.132	0.182
-319.041	800.000	-0.044	0.123
-318.026	142.089	-0.072	-0.095
-317.012	800.000	0.061	-0.183
-315.997	187.423	-0.104	-0.155
-314.983	55.479	0.076	0.073
-313.968	-18.048	0.363	0.226
-312.953	-110.497	-0.322	-0.066
-311.939	-48.580	0.327	-0.156
-310.924	-50.739	-0.078	0.037
-309.910	301.192	-0.205	0.377
-308.895	53.070	-0.220	0.210
-307.880	-119.657	0.256	-0.044
-306.866	157.563	-0.155	-0.214
-305.851	800.000	0.098	0.349
-304.837	-200.000	0.001	0.154
-303.822	51.274	0.133	-0.126
-302.807	171.412	0.047	-0.068
-301.793	34.470	-0.057	-0.049
-300.778	-31.635	-0.301	0.168
-299.764	-200.000	-0.003	-0.282
-298.749	-2.378	-0.296	-0.206
-297.735	-200.000	0.005	0.430
-296.720	69.998	-0.307	0.315
-295.705	168.553	-0.147	0.208
-294.691	525.493	0.185	0.433
-293.676	800.000	0.031	0.099
-292.662	203.785	-0.080	-0.122
-291.647	-98.492	-0.267	0.068
-290.632	-175.933	-0.147	0.004
-289.618	-181.524	-0.182	-0.004
-288.603	206.900	0.153	0.237
-287.589	-200.000	-0.026	0.241
-286.574	-164.364	0.081	-0.004
-285.559	-150.173	0.464	-0.036
-284.545	44.070	-0.073	0.067
-283.530	39.502	-0.224	0.199
-282.516	-65.157	0.238	-0.095
-281.501	451.197	0.027	0.059
-280.486	25.885	0.123	0.102
-279.472	-89.447	0.121	0.035
-278.457	118.094	-0.143	0.175
-277.443	229.428	0.016	0.027
-276.428	15.632	0.249	-0.194
-275.413	406.337	0.167	-0.351
-274.399	-52.681	0.221	-0.101
-273.384	278.598	-0.215	0.381
-272.370	-200.000	-0.043	0.253
-271.355	-46.879	0.116	-0.056
-270.340	-114.871	0.233	0.044
-269.326	-200.000	-0.045	-0.254
-268.311	46.277	0.341	0.313
-267.297	-200.000	0.009	0.055
-266.282	-200.000	-0.028	0.223
-265.267	-200.000	0.001	-0.155
-264.253	-200.000	-0.005	-0.063
-263.238	-85.854	-0.210	0.065
-262.224	-91.153	-0.105	0.030
-261.209	-55.477	0.261	0.116
-260.195	-200.000	0.013	-0.160
-259.180	159.297	0.221	0.305
-258.165	-200.000	0.047	0.355
-257.151	-200.000	0.050	0.224
-256.136	203.958	-0.118	0.182
-255.122	-200.000	0.016	0.093
-254.107	91.970	0.216	0.241
-253.092	374.052	-0.196	0.396
-252.078	800.000	-0.118	-0.347
-251.063	-200.000	-0.029	-0.130
-250.049	526.524	0.117	0.274
-249.034	-52.576	-0.085	0.039
-248.019	12.780	0.128	0.098
-247.005	-130.778	0.062	-0.008
-245.990	-200.000	-0.002	0.062
-244.976	402.081	-0.088	0.184
-243.961	-18.818	-0.116	0.072
-242.946	-87.833	-0.113	0.034
-241.932	60.568	0.269	-0.264
-240.917	800.000	0.127	0.485
-239.903	-94.852	0.290	-0.078
-238.888	17.824	-0.270	-0.213
-237.873	-200.000	0.035	-0.159
-236.859	223.650	-0.222	-0.355
-235.844	269.137	0.134	-0.233
-234.830	800.000	0.044	-0.154
-233.815	156.603	-0.237	0.324
-232.800	178.053	-0.330	-0.477
-231.786	-68.162	-0.147	0.057
-230.771	-125.124	0.298	0.045
-229.757	75.733	0.209	-0.219
-228.742	15.828	-0.264	-0.206
-227.727	42.293	-0.129	-0.116
-226.713	423.075	0.155	-0.331
-225.698	158.005	0.027	-0.037
-224.684	623.438	-0.143	-0.356
-223.669	460.868	0.136	-0.301
-222.655	45.686	-0.284	0.260
-221.640	-131.536	0.253	0.033
-220.625	-200.000	-0.036	0.199
-219.611	-80.549	0.124	-0.041
-218.596	182.803	0.095	-0.139
-217.582	1.406	0.088	0.063
-216.567	-80.394	0.175	-0.058
-215.552	-54.079	0.105	-0.047
-214.538	-165.860	-0.271	-0.012
-213.523	-38.292	-0.106	-0.056
-212.509	-200.000	0.039	0.205
-211.494	-52.445	0.189	0.087
-210.479	-32.844	-0.265	-0.146
-209.465	-18.842	-0.209	-0.129
-208.450	-162.735	0.083	0.004
-207.436	37.593	-0.108	-0.095
-206.421	-43.000	0.300	-0.150
-205.406	-200.000	0.034	-0.164
-204.392	261.735	0.063	-0.109
-203.377	-20.570	0.044	-0.027
-202.363	14.668	-0.136	0.105
-201.348	-164.892	-0.140	-0.006
-200.333	800.000	0.071	0.247
-199.319	-200.000	0.020	0.241
-198.304	-200.000	0.001	-0.043
-197.290	-99.474	0.175	0.044
-196.275	-200.000	-0.047	-0.245
-195.260	241.773	-0.188	0.310
-194.246	-103.784	-0.156	-0.036
-193.231	-54.356	-0.181	0.081
-192.217	-153.699	-0.190	0.013
-191.202	-85.107	0.122	-0.038
-190.187	-155.541	-0.090	-0.006
-189.173	-200.000	-0.057	-0.511
-188.158	-200.000	-0.025	-0.142
-187.144	102.647	-0.206	0.239
-186.129	187.996	-0.039	-0.057
-185.114	259.185	-0.135	-0.231
-184.100	-200.000	-0.023	0.284
-183.085	-87.490	0.112	0.033
-182.071	594.072	-0.113	0.276
-181.056	-88.478	0.275	0.081
-180.042	-119.183	-0.179	-0.031
-179.027	-91.710	-0.165	0.046
-178.012	-96.410	0.254	0.066
-176.998	148.721	-0.146	-0.195
-175.983	130.054	-0.094	0.120
-174.969	-39.648	0.209	-0.108
-173.954	79.720	0.168	0.178
-172.939	439.073	-0.132	-0.286
-171.925	-173.201	0.170	-0.005
-170.910	77.921	0.151	0.159
-169.896	-7.132	0.198	-0.133
-168.881	-39.741	-0.173	0.089
-167.866	181.731	0.180	0.261
-166.852	800.000	-0.123	0.405
-165.837	-124.121	-0.111	-0.017
-164.823	-200.000	0.053	0.414
-163.808	-158.077	0.313	0.018
-162.793	-118.914	-0.226	-0.039
-161.779	-49.362	-0.281	-0.132
-160.764	-86.965	0.562	0.169
-159.750	128.296	-0.248	0.312
-158.735	-200.000	0.013	-0.415
-157.720	-95.041	0.149	-0.040
-156.706	800.000	-0.042	0.180
-155.691	-23.679	0.059	-0.035
-154.677	355.804	0.098	0.192
-153.662	-103.018	-0.173	-0.040
-152.647	-200.000	-0.011	-0.249
-151.633	28.226	0.195	-0.163
-150.618	-54.626	-0.230	0.103
-149.604	800.000	-0.069	0.208
-148.589	-159.108	-0.176	0.010
-147.574	-200.000	-0.001	-0.252
-146.560	-133.294	0.344	-0.043
-145.545	-85.600	0.082	0.025
-144.531	326.952	0.121	-0.229
-143.516	-200.000	0.030	0.271
-142.502	-73.894	0.377	-0.135
-141.487	-200.000	-0.017	0.252
-140.472	248.556	-0.058	-0.097
-139.458	-63.776	-0.173	0.070
-138.443	47.762	-0.183	-0.169
-137.429	108.933	-0.180	0.213
-136.414	-200.000	0.026	-0.127
-135.399	-146.433	0.249	-0.021
-134.385	-200.000	-0.000	0.069
-133.370	13.113	0.205	0.157
-132.356	-200.000	-0.014	0.190
-131.341	140.854	-0.107	0.140
-130.326	765.441	-0.056	-0.149
-129.312	106.320	0.114	0.134
-128.297	-134.962	-0.349	0.042
-127.283	-44.127	0.272	0.135
-126.268	258.143	0.108	-0.184
-125.253	131.947	-0.219	-0.278
-124.239	505.256	0.103	0.235
-123.224	-44.473	-0.255	0.126
-122.210	800.000	0.090	0.381
