DTS Sentinel unit serial number:	SN413079Multiplexer serial number:	ORYXHardware model number:	OX4-SRSoftware version number:	ORYX F/W v4.00 Oryx Data Collector v3.7.2.0data status	okinstallation	princeton_trtdifferential loss correction	single-endedforward channel	channel 3reverse channel	N/Adate	2019/09/10time	23:30:11forward acquisition time	60.00reverse acquisition time	0.00gamma	496.2192k internal	0.2330k external	0.2330temperature offset calibration	0.9923default loss term (dB/km)	0.3790temperature slope calibration	1.0000multiplexer offset coefficient	1.0000multiplexer slope coefficient	1.0000fibre end	0.00T internal ref (°C)	29.69T ext. ref 1 (°C)	-0.31T ext. ref 2 (°C)	23.08length (m)	temperature (°C)	Stokes	anti-Stokes-747.200	-200.000	0.025	0.121
-746.185	-98.387	-0.165	0.043
-745.171	392.339	-0.032	0.067
-744.156	-113.682	0.026	-0.005
-743.142	-32.240	-0.133	-0.075
-742.127	-200.000	0.043	-0.195
-741.112	800.000	0.094	-0.268
-740.098	-80.657	-0.163	0.055
-739.083	210.980	0.088	0.139
-738.069	-128.171	-0.514	-0.074
-737.054	-200.000	0.001	-0.017
-736.039	-177.490	-0.283	-0.007
-735.025	268.706	0.202	0.357
-734.010	800.000	-0.095	-0.360
-732.996	-45.526	-0.241	-0.120
-731.981	-200.000	-0.037	-0.236
-730.966	-148.038	-0.213	0.018
-729.952	-37.235	-0.356	-0.191
-728.937	-38.737	-0.115	0.061
-727.923	800.000	0.092	0.267
-726.908	800.000	-0.015	0.065
-725.894	-99.782	-0.169	-0.043
-724.879	-28.779	-0.161	0.093
-723.864	35.249	-0.244	-0.215
-722.850	169.744	-0.081	-0.117
-721.835	800.000	0.032	-0.108
-720.821	22.544	-0.079	-0.065
-719.806	-99.326	-0.341	0.086
-718.791	-114.165	-0.465	0.090
-717.777	87.740	0.053	-0.059
-716.762	-84.109	-0.105	0.033
-715.748	-79.824	0.232	0.079
-714.733	13.139	0.136	0.106
-713.718	50.832	-0.152	0.145
-712.704	-54.056	0.084	-0.038
-711.689	-161.818	-0.276	0.014
-710.675	-200.000	0.001	0.113
-709.660	-43.595	-0.263	-0.133
-708.645	-200.000	-0.007	0.314
-707.631	30.638	-0.122	0.105
-706.616	31.632	-0.067	-0.058
-705.602	800.000	-0.033	0.139
-704.587	-43.245	-0.177	-0.090
-703.572	-78.447	0.080	-0.027
-702.558	73.167	-0.091	-0.095
-701.543	-18.596	-0.269	-0.169
-700.529	-60.114	0.172	0.074
-699.514	-18.602	0.227	0.142
-698.499	2.347	0.089	-0.065
-697.485	176.131	0.209	-0.304
-696.470	-43.324	-0.089	-0.045
-695.456	432.874	0.082	-0.178
-694.441	-23.238	-0.168	0.102
-693.426	124.304	0.040	-0.051
-692.412	-58.018	-0.064	0.028
-691.397	-131.978	-0.364	-0.048
-690.383	-96.996	-0.102	-0.027
-689.368	411.915	0.111	-0.236
-688.354	-144.040	-0.296	0.028
-687.339	120.872	-0.117	0.147
-686.324	-132.415	0.311	-0.040
-685.310	-133.973	-0.254	0.032
-684.295	-12.615	-0.034	-0.023
-683.281	696.072	-0.068	0.179
-682.266	-67.346	0.128	0.051
-681.251	-39.987	-0.294	-0.154
-680.237	287.979	-0.120	0.218
-679.222	-200.000	0.020	0.239
-678.208	-18.029	-0.113	-0.071
-677.193	484.587	0.115	-0.264
-676.178	-173.739	-0.125	0.004
-675.164	-200.000	-0.029	-0.272
-674.149	239.550	0.053	0.088
-673.135	-200.000	-0.007	-0.138
-672.120	-200.000	0.011	0.051
-671.105	22.769	-0.045	-0.037
-670.091	-148.401	0.288	0.024
-669.076	-200.000	-0.047	-0.416
-668.062	-40.183	-0.180	0.094
-667.047	-114.269	-0.129	0.025
-666.032	578.275	-0.046	-0.112
-665.018	-200.000	0.009	-0.055
-664.003	-72.016	0.575	0.214
-662.989	605.288	-0.039	0.096
-661.974	107.320	-0.182	0.218
-660.959	183.678	0.139	0.206
-659.945	-139.957	-0.107	0.011
-658.930	120.128	-0.119	0.148
-657.916	-98.427	-0.159	-0.041
-656.901	293.813	0.099	-0.181
-655.886	385.602	0.060	-0.123
-654.872	236.830	0.139	0.230
-653.857	-9.048	-0.139	0.093
-652.843	6.140	0.111	-0.082
-651.828	275.915	0.090	-0.160
-650.814	-30.316	-0.246	-0.140
-649.799	15.542	-0.215	-0.169
-648.784	-39.933	0.448	-0.235
-647.770	-200.000	-0.041	-0.325
-646.755	-93.056	0.395	-0.110
-645.741	515.006	-0.134	0.313
-644.726	-200.000	-0.051	-0.275
-643.711	307.725	-0.131	-0.244
-642.697	-200.000	0.067	-0.440
-641.682	-74.045	0.233	-0.085
-640.668	-200.000	0.017	-0.167
-639.653	-162.517	-0.182	-0.009
-638.638	-0.668	0.112	-0.080
-637.624	-200.000	0.101	-0.454
-636.609	-108.067	-0.260	-0.057
-635.595	154.398	0.046	-0.063
-634.580	28.385	0.254	-0.215
-633.565	359.311	-0.215	0.431
-632.551	38.400	-0.074	-0.066
-631.536	47.176	0.167	-0.156
-630.522	-200.000	-0.037	0.257
-629.507	14.021	-0.218	0.170
-628.492	-200.000	0.022	0.201
-627.478	-200.000	-0.042	0.391
-626.463	-127.825	-0.064	-0.009
-625.449	186.009	-0.180	-0.269
-624.434	19.017	0.144	0.116
-623.419	-135.051	-0.068	-0.008
-622.405	800.000	-0.056	0.191
-621.390	-200.000	-0.011	-0.233
-620.376	-193.075	-0.514	0.005
-619.361	-200.000	-0.057	-0.290
-618.346	-118.915	0.084	0.015
-617.332	-200.000	-0.025	-0.266
-616.317	-111.625	0.200	0.041
-615.303	209.713	-0.181	-0.285
-614.288	-200.000	0.002	-0.292
-613.273	151.604	-0.181	-0.247
-612.259	-200.000	-0.025	-0.233
-611.244	-79.399	-0.292	-0.099
-610.230	-34.171	0.172	0.095
-609.215	-113.699	-0.103	0.020
-608.201	249.378	0.051	0.087
-607.186	-12.662	0.054	0.035
-606.171	427.270	-0.063	-0.135
-605.157	422.474	0.077	0.165
-604.142	19.956	-0.250	-0.201
-603.128	-145.437	-0.457	-0.041
-602.113	8.949	-0.193	-0.145
-601.098	-77.565	0.136	0.047
-600.084	-154.414	-0.073	0.005
-599.069	250.580	0.171	-0.291
-598.055	32.169	0.364	-0.314
-597.040	-71.484	0.077	0.029
-596.025	19.228	-0.083	-0.067
-595.011	-55.637	-0.118	-0.053
-593.996	23.380	0.293	0.241
-592.982	-143.536	0.092	0.009
-591.967	-28.827	-0.244	-0.140
-590.952	-200.000	-0.008	0.183
-589.938	-18.987	0.114	-0.071
-588.923	33.039	-0.158	-0.137
-587.909	85.767	-0.209	0.230
-586.894	-137.683	0.162	-0.018
-585.879	800.000	-0.091	0.293
-584.865	571.586	-0.030	-0.072
-583.850	-62.040	-0.226	-0.094
-582.836	42.234	-0.169	-0.154
-581.821	-39.435	0.099	0.052
-580.806	50.942	-0.179	-0.170
-579.792	328.699	0.138	0.265
-578.777	-71.493	-0.377	0.141
-577.763	141.648	0.173	0.230
-576.748	254.965	0.096	0.164
-575.733	-200.000	0.017	-0.431
-574.719	606.927	-0.153	-0.383
-573.704	-67.508	-0.319	-0.125
-572.690	172.562	-0.182	0.262
-571.675	-53.282	0.425	-0.195
-570.661	376.611	-0.102	-0.208
-569.646	56.776	0.170	-0.166
-568.631	104.394	-0.053	0.063
-567.617	269.996	-0.176	0.309
-566.602	-157.615	0.109	-0.006
-565.588	-141.369	-0.123	0.012
-564.573	-64.126	0.280	-0.114
-563.558	166.268	-0.162	0.230
-562.544	-20.286	0.154	0.095
-561.529	-42.119	0.209	-0.107
-560.515	230.346	0.120	-0.196
-559.500	17.161	-0.185	0.147
-558.485	-26.975	0.330	-0.192
-557.471	149.670	-0.191	-0.258
-556.456	-65.249	0.253	0.102
-555.442	47.944	-0.010	0.010
-554.427	768.332	0.031	-0.085
-553.412	107.057	-0.122	0.145
-552.398	800.000	-0.107	-0.327
-551.383	-53.107	-0.039	0.018
-550.369	173.645	0.132	0.191
-549.354	800.000	-0.050	-0.154
-548.339	-118.787	-0.126	-0.022
-547.325	108.523	-0.176	-0.210
-546.310	336.277	-0.025	-0.049
-545.296	163.473	-0.164	0.231
-544.281	-200.000	-0.067	0.379
-543.266	328.571	0.165	0.317
-542.252	-137.286	-0.154	-0.017
-541.237	5.988	0.165	-0.122
-540.223	-143.942	0.421	-0.040
-539.208	-106.551	-0.052	-0.012
-538.193	276.985	0.111	-0.197
-537.179	48.684	-0.169	-0.158
-536.164	-200.000	0.040	-0.181
-535.150	-24.479	0.096	-0.057
-534.135	-60.515	0.111	0.047
-533.121	60.913	0.099	-0.098
-532.106	-180.038	0.302	0.006
-531.091	-29.024	0.163	0.093
-530.077	169.334	-0.094	-0.133
-529.062	800.000	-0.099	-0.367
-528.048	800.000	0.001	0.005
-527.033	-200.000	-0.062	-0.545
-526.018	5.112	-0.027	0.020
-525.004	-32.540	0.170	0.094
-523.989	49.861	-0.211	-0.199
-522.975	-11.993	0.253	-0.165
-521.960	-13.373	0.093	0.060
-520.945	-40.155	-0.068	0.036
-519.931	-156.321	0.180	-0.011
-518.916	252.334	0.077	0.131
-517.902	423.692	0.023	-0.050
-516.887	-64.356	-0.234	0.095
-515.872	-45.493	-0.186	0.092
-514.858	-200.000	0.010	-0.125
-513.843	800.000	-0.033	-0.095
-512.829	90.440	0.203	-0.227
-511.814	-69.837	0.235	0.089
-510.799	212.892	0.154	0.242
-509.785	85.346	-0.138	0.151
-508.770	-47.749	0.231	-0.112
-507.756	383.123	0.146	-0.299
-506.741	-200.000	-0.081	0.480
-505.726	58.277	-0.240	-0.235
-504.712	-1.957	0.050	0.035
-503.697	-28.742	-0.062	-0.036
-502.683	27.005	-0.137	0.114
-501.668	-108.951	0.154	-0.033
-500.653	573.648	-0.050	-0.122
-499.639	172.381	-0.092	0.132
-498.624	-173.005	-0.183	-0.006
-497.610	554.466	0.151	-0.362
-496.595	12.575	-0.138	0.106
-495.581	800.000	0.026	-0.080
-494.566	-37.303	-0.134	-0.072
-493.551	-93.688	0.279	0.077
-492.537	-187.171	-0.272	0.004
-491.522	601.823	-0.099	-0.246
-490.508	14.117	-0.410	-0.318
-489.493	-117.866	0.130	0.023
-488.478	72.002	0.038	0.040
-487.464	800.000	0.056	-0.174
-486.449	54.527	-0.107	-0.103
-485.435	-200.000	-0.001	0.282
-484.420	-71.478	-0.098	0.036
-483.405	-200.000	-0.009	-0.147
-482.391	180.796	-0.081	0.119
-481.376	408.663	-0.195	-0.410
-480.362	-200.000	-0.011	-0.203
-479.347	-68.770	-0.386	-0.149
-478.332	-90.892	-0.179	0.051
-477.318	-200.000	-0.020	-0.162
-476.303	-154.488	0.151	0.010
-475.289	418.289	0.114	0.242
-474.274	462.096	0.061	0.137
-473.259	189.874	0.132	0.197
-472.245	800.000	0.075	0.251
-471.230	735.407	-0.041	-0.109
-470.216	411.997	-0.098	-0.206
-469.201	100.938	0.065	-0.075
-468.186	-134.148	-0.131	0.016
-467.172	-129.428	-0.299	-0.041
-466.157	-94.488	0.382	0.104
-465.143	328.914	-0.234	-0.449
-464.128	-43.918	-0.208	0.104
-463.113	239.233	0.170	0.282
-462.099	800.000	-0.102	0.404
-461.084	-50.422	-0.258	-0.121
-460.070	-57.490	0.125	0.055
-459.055	149.304	-0.210	-0.283
-458.040	384.221	0.198	-0.405
-457.026	-134.747	0.107	0.013
-456.011	800.000	-0.056	-0.222
-454.997	-97.582	0.457	0.118
-453.982	44.737	0.218	0.200
-452.968	-102.991	-0.132	-0.031
-451.953	375.944	0.026	-0.053
-450.938	-200.000	-0.026	0.159
-449.924	-153.227	-0.414	-0.029
-448.909	800.000	-0.029	0.101
-447.895	-54.944	-0.275	0.124
-446.880	-47.823	0.247	-0.119
-445.865	-85.135	0.062	0.019
-444.851	-200.000	-0.009	-0.124
-443.836	82.203	0.138	0.149
-442.822	59.198	0.352	-0.344
-441.807	-26.546	0.049	0.028
-440.792	-106.661	-0.268	0.059
-439.778	-46.474	0.123	0.060
-438.763	-110.016	0.085	-0.018
-437.749	0.428	0.146	-0.104
-436.734	-41.716	-0.360	0.184
-435.719	69.202	0.154	-0.157
-434.705	-71.426	-0.161	0.060
-433.690	133.671	-0.082	-0.106
-432.676	800.000	0.081	0.313
-431.661	26.677	-0.183	-0.152
-430.646	128.075	-0.227	-0.287
-429.632	800.000	0.109	-0.347
-428.617	714.053	-0.115	0.303
-427.603	365.589	0.014	-0.028
-426.588	-60.935	-0.282	0.119
-425.573	-76.376	-0.184	-0.064
-424.559	800.000	0.046	0.201
-423.544	545.427	-0.086	-0.203
-422.530	-200.000	-0.008	0.170
-421.515	3.679	0.076	0.055
-420.500	-106.705	0.266	0.059
-419.486	670.972	0.025	0.064
-418.471	-54.841	-0.346	-0.155
-417.457	800.000	0.012	-0.033
-416.442	77.902	0.155	-0.165
-415.428	800.000	-0.024	0.092
-414.413	-200.000	0.010	0.131
-413.398	-200.000	0.021	-0.198
-412.384	515.761	-0.077	0.178
-411.369	153.146	0.141	-0.192
-410.355	-133.273	0.331	-0.041
-409.340	579.645	-0.021	-0.051
-408.325	-10.906	0.055	-0.036
-407.311	-67.484	-0.377	-0.147
-406.296	800.000	0.019	-0.079
-405.282	149.681	0.086	0.116
-404.267	-24.828	0.072	0.042
-403.252	51.194	-0.154	0.145
-402.238	800.000	0.047	0.153
-401.223	84.573	-0.033	0.036
-400.209	-52.922	-0.118	0.054
-399.194	800.000	0.032	-0.104
-398.179	68.171	-0.295	0.300
-397.165	14.472	0.139	-0.108
-396.150	-200.000	0.007	-0.053
-395.136	-63.073	-0.062	-0.026
-394.121	195.595	-0.152	0.230
-393.106	-104.689	-0.175	-0.040
-392.092	-81.682	0.295	0.096
-391.077	-71.045	0.225	-0.084
-390.063	3.670	0.217	-0.157
-389.048	99.407	-0.109	-0.126
-388.033	-12.509	-0.423	0.274
-387.019	-81.401	-0.124	0.040
-386.004	128.885	-0.086	0.108
-384.990	22.073	-0.160	-0.129
-383.975	65.246	-0.147	0.148
-382.960	296.596	0.112	-0.204
-381.946	67.871	-0.244	0.248
-380.931	-200.000	0.039	0.369
-379.917	101.860	-0.093	-0.108
-378.902	-200.000	-0.009	-0.237
-377.888	-200.000	-0.029	0.248
-376.873	-200.000	0.026	-0.173
-375.858	26.703	-0.131	-0.109
-374.844	-143.130	0.150	0.014
-373.829	94.937	0.029	0.032
-372.815	-71.784	0.024	-0.009
-371.800	-106.250	-0.084	-0.019
-370.785	-119.609	-0.204	0.035
-369.771	264.958	-0.016	-0.028
-368.756	160.976	0.099	0.137
-367.742	800.000	0.067	-0.278
-366.727	163.689	0.054	0.076
-365.712	-74.427	0.118	0.042
-364.698	465.772	0.026	0.057
-363.683	80.650	-0.124	0.132
-362.669	-200.000	-0.021	-0.236
-361.654	-200.000	-0.009	-0.210
-360.639	-29.355	0.502	0.285
-359.625	-153.730	-0.249	0.017
-358.610	107.445	0.083	-0.098
-357.596	99.893	0.121	0.139
-356.581	-200.000	-0.011	-0.143
-355.566	595.885	-0.086	-0.210
-354.552	-104.575	-0.073	-0.017
-353.537	800.000	0.075	-0.211
-352.523	-118.679	0.333	-0.058
-351.508	-200.000	0.030	0.133
-350.493	-123.358	0.081	0.013
-349.479	-42.741	-0.142	-0.072
-348.464	-155.787	-0.237	-0.015
-347.450	-108.505	0.346	0.074
-346.435	679.751	0.071	0.184
-345.420	-81.664	0.196	0.064
-344.406	267.027	0.128	0.222
-343.391	800.000	-0.052	0.145
-342.377	-169.085	0.277	0.010
-341.362	193.273	-0.169	0.253
-340.348	178.789	0.091	0.131
-339.333	-39.288	-0.194	0.101
-338.318	-200.000	0.029	0.136
-337.304	5.057	0.026	-0.019
-336.289	122.002	0.114	0.141
-335.275	254.579	0.078	-0.133
-334.260	-200.000	-0.004	-0.076
-333.245	24.674	0.130	0.106
-332.231	-82.493	-0.100	0.032
-331.216	328.134	0.176	0.334
-330.202	-200.000	0.012	-0.333
-329.187	396.922	-0.162	0.335
-328.172	800.000	-0.142	0.492
-327.158	-200.000	0.065	-0.424
-326.143	800.000	0.073	0.199
-325.129	140.806	-0.145	-0.189
-324.114	47.216	0.052	0.048
-323.099	-200.000	0.070	0.327
-322.085	38.715	-0.287	0.253
-321.070	-112.961	-0.024	0.005
-320.056	-157.726	-0.199	-0.012
-319.041	800.000	0.105	-0.341
-318.026	-129.900	0.242	0.033
-317.012	-200.000	0.010	0.271
-315.997	-200.000	0.009	0.065
-314.983	-168.227	0.187	0.007
-313.968	-40.896	-0.051	0.026
-312.953	492.124	-0.123	0.280
-311.939	747.308	0.155	0.413
-310.924	4.241	-0.072	-0.052
-309.910	-200.000	0.019	-0.304
-308.895	152.945	-0.110	0.149
-307.880	89.816	-0.063	0.069
-306.866	60.008	0.192	-0.187
-305.851	-35.849	-0.331	0.177
-304.837	-164.897	-0.088	0.004
-303.822	108.364	-0.236	0.278
-302.807	-158.618	-0.285	0.016
-301.793	-200.000	0.011	0.323
-300.778	104.993	0.215	0.251
-299.764	-163.037	-0.164	0.008
-298.749	160.284	0.233	-0.322
-297.735	104.129	-0.276	0.321
-296.720	80.680	-0.096	-0.103
-295.705	224.169	-0.059	-0.094
-294.691	434.103	-0.041	0.088
-293.676	-200.000	0.013	0.219
-292.662	-16.897	0.123	-0.077
-291.647	256.380	-0.137	-0.232
-290.632	663.771	0.050	0.127
-289.618	3.905	0.135	0.098
-288.603	27.205	0.259	-0.215
-287.589	-73.006	0.381	-0.139
-286.574	-20.356	-0.198	-0.121
-285.559	-144.469	0.058	0.005
-284.545	800.000	0.053	0.211
-283.530	-128.991	0.173	0.024
-282.516	118.839	-0.120	0.147
-281.501	-200.000	-0.038	-0.194
-280.486	-200.000	0.010	-0.085
-279.472	131.914	-0.058	-0.074
-278.457	-175.355	0.259	0.007
-277.443	-200.000	0.008	-0.172
-276.428	248.010	0.123	0.205
-275.413	121.356	0.082	-0.101
-274.399	-200.000	0.043	-0.197
-273.384	-105.243	-0.301	-0.068
-272.370	105.090	0.064	0.075
-271.355	-58.093	0.058	0.025
-270.340	27.631	0.023	0.019
-269.326	764.415	0.074	0.199
-268.311	-51.954	-0.152	0.070
-267.297	-200.000	-0.005	-0.113
-266.282	-147.573	0.179	0.015
-265.267	-85.747	-0.322	0.099
-264.253	283.278	-0.141	0.251
-263.238	90.053	0.116	0.128
-262.224	800.000	0.059	-0.196
-261.209	800.000	-0.037	0.118
-260.195	-166.985	0.124	-0.005
-259.180	57.984	-0.070	-0.068
-258.165	40.037	-0.184	-0.164
-257.151	-200.000	0.016	0.170
-256.136	-40.907	0.103	-0.053
-255.122	-42.342	-0.131	0.066
-254.107	-131.948	0.066	0.008
-253.092	-147.845	0.449	0.037
-252.078	800.000	-0.181	0.513
-251.063	15.344	0.142	0.110
-250.049	137.291	0.038	0.049
-249.034	-49.374	-0.197	0.093
-248.019	-200.000	0.027	0.398
-247.005	-147.742	-0.206	-0.017
-245.990	701.178	0.052	0.135
-244.976	50.995	-0.154	-0.144
-243.961	-44.098	0.186	-0.092
-242.946	800.000	0.093	-0.268
-241.932	-200.000	-0.016	0.352
-240.917	-135.351	0.245	0.029
-239.903	-57.572	-0.074	0.032
-238.888	97.780	0.243	-0.275
-237.873	-139.448	-0.158	-0.017
-236.859	211.469	-0.159	0.247
-235.844	-19.442	-0.204	-0.125
-234.830	-86.078	0.231	0.070
-233.815	521.031	0.047	-0.108
-232.800	-200.000	0.009	-0.227
-231.786	107.353	0.068	0.080
-230.771	55.373	0.368	0.351
-229.757	-147.571	0.371	-0.031
-228.742	-21.962	0.271	-0.162
-227.727	168.338	0.143	0.201
-226.713	800.000	-0.078	0.216
-225.698	800.000	0.022	-0.072
-224.684	-8.602	-0.235	0.156
-223.669	66.753	0.071	0.071
-222.655	87.497	-0.183	0.200
-221.640	-45.563	0.427	-0.208
-220.625	-115.822	0.138	-0.025
-219.611	-57.188	0.125	0.054
-218.596	-200.000	-0.007	0.095
-217.582	-66.336	0.109	0.043
-216.567	-142.135	-0.470	-0.046
-215.552	184.885	0.185	0.270
-214.538	800.000	-0.079	0.286
-213.523	-57.637	-0.069	-0.030
-212.509	-136.477	0.436	0.050
-211.494	260.706	-0.044	0.076
-210.479	-110.387	0.342	-0.070
-209.465	498.507	0.053	-0.119
-208.450	-137.416	-0.351	-0.039
-207.436	-200.000	-0.051	0.344
-206.421	120.601	-0.040	0.050
-205.406	144.881	0.201	0.264
-204.392	-79.021	-0.229	-0.077
-203.377	35.949	0.301	-0.261
-202.363	-200.000	-0.072	0.319
-201.348	800.000	-0.002	-0.006
-200.333	-157.394	-0.215	0.013
-199.319	-31.791	0.057	-0.031
-198.304	-200.000	0.003	0.031
-197.290	-200.000	0.033	0.221
-196.275	-173.344	0.094	0.003
-195.260	64.158	0.090	0.090
-194.246	-90.625	-0.150	0.043
-193.231	-200.000	-0.081	-0.380
-192.217	-121.920	-0.270	-0.044
-191.202	-200.000	0.059	0.345
-190.187	-93.296	0.172	-0.047
-189.173	-24.056	-0.371	-0.218
-188.158	-200.000	0.095	-0.477
-187.144	715.709	0.095	-0.248
-186.129	214.719	0.122	0.190
-185.114	800.000	-0.066	0.275
-184.100	-200.000	-0.026	-0.160
-183.085	-124.971	0.144	0.022
-182.071	-200.000	-0.016	0.140
-181.056	-112.161	0.078	-0.015
-180.042	133.662	0.032	0.041
-179.027	56.454	0.075	-0.072
-178.012	524.479	-0.065	0.150
-176.998	227.424	0.079	-0.126
-175.983	-104.537	0.123	-0.028
-174.969	9.087	0.099	-0.073
-173.954	318.029	0.161	0.299
-172.939	-200.000	0.022	0.454
-171.925	-48.977	0.126	0.059
-170.910	-129.202	0.514	0.071
-169.896	-200.000	0.039	0.272
-168.881	78.832	0.244	-0.257
-167.866	61.118	-0.116	0.113
-166.852	452.740	-0.071	-0.154
-165.837	-36.869	0.272	-0.144
-164.823	-161.531	-0.247	0.012
-163.808	800.000	0.046	-0.144
-162.793	38.016	0.134	0.118
-161.779	-66.331	0.206	-0.081
-160.764	61.643	-0.189	0.185
-159.750	800.000	0.045	-0.134
-158.735	229.565	0.034	-0.055
-157.720	158.322	-0.287	-0.392
-156.706	-200.000	0.055	0.282
-155.691	262.459	-0.043	0.073
-154.677	-94.625	-0.252	0.068
-153.662	-120.369	-0.081	-0.014
-152.647	-118.996	-0.367	0.063
-151.633	800.000	0.076	0.238
-150.618	-71.141	0.211	0.078
-149.604	-88.397	-0.364	0.107
-148.589	18.291	0.138	-0.108
-147.574	-200.000	0.026	-0.139
-146.560	-200.000	0.003	0.127
-145.545	-59.989	0.167	0.070
-144.531	10.469	0.164	-0.123
-143.516	-32.112	-0.188	-0.103
-142.502	-200.000	0.056	0.248
-141.487	-138.177	-0.193	0.021
-140.472	-6.253	0.126	-0.084
-139.458	37.951	0.099	0.087
-138.443	-200.000	-0.039	-0.277
-137.429	-154.777	0.294	0.019
-136.414	137.962	0.108	0.140
-135.399	800.000	-0.020	-0.060
-134.385	-92.872	0.151	0.042
-133.370	-200.000	-0.013	-0.217
-132.356	-20.834	0.114	0.069
-131.341	155.843	-0.192	0.260
-130.326	-200.000	0.043	-0.271
-129.312	-86.551	0.119	0.036
-128.297	171.326	0.083	-0.117
-127.283	-200.000	-0.003	-0.362
-126.268	-54.733	0.157	0.070
-125.253	-200.000	0.028	-0.130
-124.239	424.273	0.210	0.443
-123.224	94.033	0.044	0.048
-122.210	-178.636	-0.159	0.004
-121.195	15.651	0.099	-0.076
