DTS Sentinel unit serial number:	SN413079Multiplexer serial number:	ORYXHardware model number:	OX4-SRSoftware version number:	ORYX F/W v4.00 Oryx Data Collector v3.7.2.0data status	okinstallation	princeton_trtdifferential loss correction	single-endedforward channel	channel 3reverse channel	N/Adate	2019/09/11time	23:58:11forward acquisition time	60.00reverse acquisition time	0.00gamma	496.2192k internal	0.2319k external	0.2319temperature offset calibration	1.0060default loss term (dB/km)	0.3790temperature slope calibration	1.0000multiplexer offset coefficient	1.0000multiplexer slope coefficient	1.0000fibre end	0.00T internal ref (°C)	33.77T ext. ref 1 (°C)	2.00T ext. ref 2 (°C)	28.32length (m)	temperature (°C)	Stokes	anti-Stokes-747.200	376.226	0.161	-0.333
-746.185	-62.633	0.134	0.056
-745.171	11.520	-0.273	0.211
-744.156	-58.194	0.185	-0.081
-743.142	-200.000	0.004	0.304
-742.127	82.387	0.310	0.341
-741.112	219.526	-0.073	-0.118
-740.098	43.790	0.318	0.295
-739.083	-200.000	-0.005	0.196
-738.069	-22.992	0.132	0.080
-737.054	-200.000	-0.019	0.137
-736.039	115.134	0.025	0.031
-735.025	-115.555	0.152	-0.029
-734.010	68.828	0.086	-0.089
-732.996	800.000	-0.085	-0.330
-731.981	800.000	0.004	0.012
-730.966	-43.067	0.069	-0.035
-729.952	195.033	-0.204	-0.313
-728.937	709.590	-0.124	-0.332
-727.923	800.000	-0.051	0.188
-726.908	-129.309	-0.112	0.016
-725.894	800.000	0.024	0.087
-724.879	-131.538	-0.506	0.067
-723.864	35.127	0.054	-0.048
-722.850	-200.000	-0.016	-0.402
-721.835	800.000	-0.036	0.109
-720.821	-21.122	-0.187	-0.115
-719.806	-80.699	0.289	-0.097
-718.791	108.945	0.092	0.112
-717.777	-200.000	-0.015	-0.167
-716.762	800.000	0.083	-0.292
-715.748	2.795	0.321	-0.235
-714.733	-87.102	-0.225	-0.069
-713.718	-108.069	0.289	-0.063
-712.704	102.871	-0.129	0.152
-711.689	127.785	0.297	0.382
-710.675	12.792	-0.087	-0.068
-709.660	175.007	-0.082	-0.120
-708.645	800.000	0.029	0.099
-707.631	88.806	0.100	0.113
-706.616	112.830	-0.176	0.216
-705.602	-200.000	0.018	0.261
-704.587	42.230	-0.145	-0.133
-703.572	-46.162	-0.383	-0.191
-702.558	286.510	0.110	0.200
-701.543	31.388	0.357	0.310
-700.529	481.783	0.076	-0.174
-699.514	84.375	0.138	-0.152
-698.499	-200.000	0.048	-0.226
-697.485	21.559	0.074	-0.061
-696.470	421.498	-0.170	-0.367
-695.456	-79.361	-0.234	-0.080
-694.441	-200.000	0.024	0.175
-693.426	544.648	0.125	-0.302
-692.412	-47.177	0.335	0.165
-691.397	-200.000	-0.031	0.229
-690.383	-58.353	0.221	-0.097
-689.368	-200.000	-0.016	0.119
-688.354	-59.204	0.366	-0.159
-687.339	-155.305	0.328	-0.022
-686.324	-11.391	-0.174	0.115
-685.310	-99.059	-0.395	-0.101
-684.295	800.000	0.020	-0.065
-683.281	-132.364	-0.044	0.006
-682.266	-200.000	-0.009	0.175
-681.251	-108.257	-0.157	-0.034
-680.237	-45.672	0.088	0.044
-679.222	584.305	-0.046	-0.115
-678.208	-200.000	-0.017	0.128
-677.193	157.962	0.126	0.176
-676.178	800.000	-0.015	-0.064
-675.164	5.942	-0.168	0.125
-674.149	388.090	-0.158	0.329
-673.135	-84.229	0.264	0.084
-672.120	179.374	-0.051	-0.075
-671.105	43.017	0.189	-0.174
-670.091	-200.000	0.013	0.092
-669.076	-70.902	0.139	-0.053
-668.062	63.227	-0.120	-0.121
-667.047	686.584	0.104	0.274
-666.032	549.873	0.082	0.199
-665.018	-86.655	0.094	0.029
-664.003	9.686	-0.135	0.104
-662.989	32.551	0.208	0.182
-661.974	251.259	0.147	-0.253
-660.959	249.938	0.149	-0.255
-659.945	800.000	-0.040	-0.172
-658.930	-77.922	0.189	0.066
-657.916	800.000	-0.068	-0.227
-656.901	156.959	0.149	-0.208
-655.886	800.000	-0.076	0.253
-654.872	-200.000	0.017	-0.076
-653.857	800.000	-0.037	0.157
-652.843	79.523	0.225	0.243
-651.828	-158.830	-0.170	0.010
-650.814	-200.000	-0.018	0.112
-649.799	-37.237	0.194	0.104
-648.784	24.209	-0.260	-0.216
-647.770	800.000	-0.080	-0.250
-646.755	233.781	0.043	0.071
-645.741	61.374	-0.146	-0.147
-644.726	-78.416	0.251	-0.087
-643.711	-102.746	-0.257	0.062
-642.697	14.909	-0.048	-0.038
-641.682	-43.673	-0.220	-0.112
-640.668	104.710	0.063	0.075
-639.653	-36.135	-0.309	-0.168
-638.638	-93.501	0.101	-0.028
-637.624	-137.234	-0.044	-0.005
-636.609	107.920	-0.070	-0.084
-635.595	-3.705	-0.137	0.096
-634.580	800.000	0.029	-0.091
-633.565	32.197	-0.204	0.177
-632.551	-162.613	-0.276	-0.014
-631.536	387.639	-0.191	-0.398
-630.522	210.696	0.044	-0.070
-629.507	431.524	0.051	-0.111
-628.492	800.000	-0.047	0.165
-627.478	66.718	-0.275	0.281
-626.463	800.000	-0.060	-0.219
-625.449	-200.000	-0.010	-0.113
-624.434	-200.000	0.020	0.122
-623.419	-65.734	-0.224	0.090
-622.405	-136.366	0.128	0.015
-621.390	283.607	-0.117	-0.212
-620.376	328.977	-0.018	-0.035
-619.361	-83.679	0.181	-0.058
-618.346	-34.471	-0.128	-0.071
-617.332	-200.000	-0.002	0.231
-616.317	800.000	0.044	0.194
-615.303	-62.053	0.124	0.052
-614.288	-87.247	0.194	-0.059
-613.273	-64.823	0.184	0.075
-612.259	301.067	-0.110	0.204
-611.244	201.572	0.165	-0.256
-610.230	-55.738	-0.054	0.024
-609.215	65.989	0.156	0.159
-608.201	-9.441	0.266	-0.179
-607.186	54.040	-0.032	-0.031
-606.171	355.253	-0.126	0.252
-605.157	591.621	0.066	0.164
-604.142	-93.058	0.135	0.038
-603.128	-200.000	-0.023	0.205
-602.113	172.948	-0.152	0.221
-601.098	176.008	-0.024	-0.036
-600.084	18.607	-0.212	0.171
-599.069	359.050	-0.041	-0.082
-598.055	-108.855	-0.299	-0.064
-597.040	-123.292	0.074	0.012
-596.025	-25.769	0.124	-0.073
-595.011	-81.282	0.253	-0.084
-593.996	-114.800	0.167	-0.032
-592.982	125.818	-0.047	-0.059
-591.967	-200.000	0.050	-0.259
-590.952	200.955	-0.125	-0.194
-589.938	76.769	0.144	-0.154
-588.923	800.000	0.121	0.405
-587.909	-200.000	0.025	0.593
-586.894	-134.673	-0.097	-0.012
-585.879	44.611	0.135	-0.125
-584.865	-64.454	0.284	0.116
-583.850	-131.741	0.094	0.012
-582.836	-200.000	0.013	-0.378
-581.821	-200.000	-0.040	0.292
-580.806	-78.425	-0.067	0.023
-579.792	-43.164	0.335	0.171
-578.777	47.813	-0.157	0.147
-577.763	-155.186	-0.203	0.013
-576.748	77.134	0.224	-0.239
-575.733	38.916	-0.110	0.098
-574.719	-77.624	-0.308	-0.107
-573.704	50.341	-0.198	-0.188
-572.690	235.460	0.030	0.050
-571.675	-56.575	-0.258	-0.115
-570.661	-95.972	0.296	0.079
-569.646	134.062	-0.139	0.182
-568.631	-49.269	-0.351	0.168
-567.617	-200.000	0.036	-0.275
-566.602	176.014	0.180	-0.262
-565.588	-200.000	-0.049	-0.339
-564.573	419.645	-0.170	-0.366
-563.558	-200.000	0.019	0.218
-562.544	-200.000	0.007	-0.203
-561.529	-113.754	0.012	0.002
-560.515	-145.834	-0.465	-0.042
-559.500	-118.081	-0.306	-0.055
-558.485	96.034	-0.107	0.122
-557.471	-200.000	0.016	0.148
-556.456	203.737	0.047	-0.073
-555.442	-17.400	0.188	-0.119
-554.427	43.021	0.127	-0.117
-553.412	-200.000	0.022	0.141
-552.398	-42.315	0.065	0.033
-551.383	130.628	-0.121	0.155
-550.369	-95.068	0.017	-0.005
-549.354	800.000	-0.081	-0.235
-548.339	25.915	-0.197	-0.165
-547.325	32.991	-0.335	-0.292
-546.310	-73.703	-0.116	0.042
-545.296	-48.419	0.199	0.096
-544.281	-200.000	0.039	-0.285
-543.266	-147.964	-0.371	0.031
-542.252	223.652	0.189	0.306
-541.237	353.897	0.131	-0.262
-540.223	-200.000	0.008	-0.103
-539.208	-15.678	0.137	-0.088
-538.193	221.948	-0.176	0.284
-537.179	800.000	0.099	-0.320
-536.164	111.658	0.056	0.068
-535.150	-145.379	-0.325	-0.029
-534.135	-121.573	0.070	-0.012
-533.121	-57.631	0.036	-0.016
-532.106	-200.000	0.040	-0.400
-531.091	800.000	-0.087	0.247
-530.077	-104.360	-0.413	-0.096
-529.062	493.107	-0.088	0.202
-528.048	122.910	0.019	0.024
-527.033	302.310	0.042	0.078
-526.018	-45.881	-0.106	0.053
-525.004	40.714	-0.151	0.137
-523.989	-200.000	-0.013	0.307
-522.975	119.148	0.052	-0.064
-521.960	-20.856	0.285	0.176
-520.945	429.479	0.171	-0.370
-519.931	-99.846	0.311	0.078
-518.916	10.143	0.172	-0.131
-517.902	78.219	-0.217	-0.232
-516.887	-144.128	-0.128	0.012
-515.872	-200.000	0.011	0.088
-514.858	-74.231	0.197	0.071
-513.843	-54.179	-0.201	0.091
-512.829	800.000	0.030	-0.114
-511.814	-200.000	-0.076	-0.355
-510.799	800.000	-0.063	-0.246
-509.785	800.000	-0.021	0.087
-508.770	-200.000	0.023	0.163
-507.756	-200.000	0.000	0.081
-506.741	-103.473	0.167	0.039
-505.726	105.838	-0.182	-0.216
-504.712	281.519	0.056	-0.100
-503.697	183.890	-0.140	-0.207
-502.683	-200.000	-0.013	0.329
-501.668	68.092	0.114	-0.117
-500.653	-118.571	0.272	-0.048
-499.639	-35.344	0.351	0.192
-498.624	-71.327	0.224	0.084
-497.610	72.505	-0.195	-0.203
-496.595	-121.136	0.191	-0.032
-495.581	-2.135	0.091	0.064
-494.566	489.889	0.118	-0.270
-493.551	-144.891	-0.146	-0.013
-492.537	105.055	-0.167	-0.197
-491.522	-161.036	0.288	-0.015
-490.508	-66.961	0.234	0.093
-489.493	212.926	0.032	-0.050
-488.478	-20.025	0.168	0.104
-487.464	-200.000	0.019	-0.186
-486.449	-167.663	0.365	0.015
-485.435	37.908	0.196	-0.175
-484.420	342.212	-0.063	0.124
-483.405	191.571	0.120	0.181
-482.391	-200.000	-0.013	0.101
-481.376	682.612	0.158	0.413
-480.362	800.000	0.068	-0.188
-479.347	52.195	-0.154	-0.147
-478.332	130.027	0.138	-0.176
-477.318	3.895	-0.102	-0.074
-476.303	-151.959	0.194	0.014
-475.289	4.457	0.234	0.172
-474.274	69.822	-0.247	0.255
-473.259	-44.571	-0.325	-0.163
-472.245	-76.156	0.224	0.079
-471.230	629.724	0.081	0.206
-470.216	-200.000	-0.070	-0.344
-469.201	125.281	-0.075	-0.094
-468.186	388.446	0.058	0.120
-467.172	221.707	-0.088	0.142
-466.157	-97.912	-0.286	-0.074
-465.143	800.000	0.011	0.045
-464.128	63.137	-0.210	0.210
-463.113	-174.887	0.481	0.014
-462.099	-200.000	-0.024	-0.199
-461.084	136.452	0.119	0.156
-460.070	-146.065	0.064	-0.006
-459.055	-200.000	-0.010	-0.121
-458.040	-128.362	-0.043	-0.006
-457.026	-99.629	0.365	0.092
-456.011	800.000	-0.056	0.201
-454.997	800.000	0.135	-0.460
-453.982	800.000	-0.116	-0.337
-452.968	-200.000	0.009	-0.162
-451.953	15.372	-0.259	0.203
-450.938	-96.158	0.128	-0.034
-449.924	-126.203	0.137	-0.020
-448.909	402.653	-0.132	-0.279
-447.895	787.245	-0.058	0.158
-446.880	-52.537	-0.218	0.101
-445.865	19.639	-0.145	0.116
-444.851	-31.556	-0.087	-0.049
-443.836	205.317	0.047	0.073
-442.822	800.000	-0.024	-0.086
-441.807	-83.072	-0.216	0.070
-440.792	-95.603	0.347	-0.093
-439.778	800.000	-0.077	0.282
-438.763	-200.000	-0.002	-0.103
-437.749	421.817	0.054	0.116
-436.734	60.015	-0.060	0.059
-435.719	-200.000	-0.025	-0.262
-434.705	800.000	0.041	-0.132
-433.690	800.000	0.088	-0.299
-432.676	22.003	-0.104	-0.085
-431.661	-74.472	-0.169	0.061
-430.646	800.000	-0.080	-0.229
-429.632	222.927	0.171	-0.276
-428.617	39.441	0.075	0.067
-427.603	351.802	-0.021	-0.042
-426.588	-17.881	-0.264	-0.166
-425.573	-7.443	-0.097	-0.066
-424.559	800.000	0.049	0.167
-423.544	91.256	0.193	-0.216
-422.530	60.674	0.305	-0.302
-421.515	-200.000	-0.002	-0.012
-420.500	-51.025	-0.208	-0.097
-419.486	284.377	0.133	-0.239
-418.471	19.529	-0.114	-0.092
-417.457	-200.000	0.007	-0.105
-416.442	-116.664	-0.108	0.020
-415.428	224.494	-0.200	0.323
-414.413	20.226	-0.241	0.195
-413.398	-44.843	0.156	0.078
-412.384	33.056	0.203	-0.176
-411.369	45.033	0.102	0.094
-410.355	85.424	-0.106	0.116
-409.340	-200.000	-0.007	0.188
-408.325	-200.000	-0.056	0.275
-407.311	-107.972	-0.268	-0.058
-406.296	30.137	-0.063	0.054
-405.282	249.088	0.138	-0.233
-404.267	114.451	-0.073	-0.089
-403.252	800.000	0.086	-0.260
-402.238	-131.722	-0.033	0.004
-401.223	313.017	0.120	0.225
-400.209	292.572	-0.074	0.134
-399.194	152.749	0.126	-0.172
-398.179	800.000	-0.041	-0.137
-397.165	-120.853	0.274	-0.046
-396.150	-90.572	-0.117	-0.034
-395.136	-168.163	-0.245	0.009
-394.121	-69.459	-0.236	-0.090
-393.106	21.679	-0.208	0.169
-392.092	-26.213	0.171	-0.100
-391.077	91.473	-0.222	-0.248
-390.063	433.363	-0.061	0.132
-389.048	800.000	-0.035	-0.148
-388.033	69.752	-0.240	0.246
-387.019	26.135	0.298	0.248
-386.004	534.497	0.064	0.151
-384.990	-191.433	-0.164	-0.002
-383.975	329.649	0.030	-0.057
-382.960	98.280	0.141	-0.162
-381.946	-120.141	0.065	-0.011
-380.931	9.977	-0.159	-0.120
-379.917	800.000	-0.001	-0.005
-378.902	119.086	0.153	0.189
-377.888	-72.578	0.138	0.051
-376.873	800.000	0.015	0.048
-375.858	37.462	0.202	-0.178
-374.844	-104.028	0.241	-0.056
-373.829	800.000	-0.103	-0.413
-372.815	695.224	0.146	-0.383
-371.800	-200.000	-0.030	-0.141
-370.785	31.378	-0.112	-0.096
-369.771	-127.416	0.156	-0.023
-368.756	-122.410	-0.246	0.040
-367.742	-169.630	0.278	-0.010
-366.727	376.732	0.070	0.143
-365.712	-123.636	-0.126	0.020
-364.698	165.532	-0.144	0.203
-363.683	-62.285	-0.163	0.068
-362.669	26.561	0.106	0.088
-361.654	-15.644	-0.184	0.117
-360.639	-57.303	-0.100	-0.044
-359.625	9.057	-0.204	0.153
-358.610	54.316	-0.023	0.022
-357.596	226.904	0.098	-0.158
-356.581	143.911	0.079	-0.104
-355.566	-200.000	0.060	-0.341
-354.552	-24.919	-0.218	-0.129
-353.537	-200.000	-0.022	0.213
-352.523	-76.376	-0.466	0.163
-351.508	33.610	0.164	-0.142
-350.493	-200.000	0.009	-0.079
-349.479	494.244	-0.085	0.195
-348.464	32.596	0.142	0.123
-347.450	80.964	0.152	0.164
-346.435	-190.718	-0.264	0.003
-345.420	365.367	-0.135	-0.270
-344.406	-200.000	-0.037	-0.245
-343.391	800.000	0.040	0.173
-342.377	427.091	0.084	-0.181
-341.362	-75.214	0.070	-0.025
-340.348	-200.000	-0.053	-0.259
-339.333	-12.184	0.225	0.147
-338.318	-126.672	-0.185	-0.027
-337.304	20.592	0.054	-0.044
-336.289	-66.069	-0.303	-0.120
-335.275	136.888	-0.039	0.051
-334.260	-200.000	-0.008	-0.131
-333.245	-200.000	-0.037	-0.304
-332.231	-0.786	0.360	-0.254
-331.216	-32.984	0.111	-0.061
-330.202	75.379	-0.165	-0.173
-329.187	118.033	0.078	-0.095
-328.172	-126.935	-0.203	0.030
-327.158	-114.082	-0.266	0.051
-326.143	-41.863	0.105	0.054
-325.129	-200.000	-0.017	0.123
-324.114	800.000	-0.068	0.240
-323.099	-22.354	-0.143	0.087
-322.085	-82.632	-0.138	0.045
-321.070	48.717	0.358	0.334
-320.056	780.142	-0.052	-0.143
-319.041	29.078	-0.298	0.252
-318.026	-130.694	0.284	0.038
-317.012	-87.231	0.156	0.047
-315.997	-81.754	0.295	-0.096
-314.983	286.137	0.036	-0.065
-313.968	298.184	0.026	-0.047
-312.953	29.758	-0.051	-0.044
-311.939	-200.000	-0.029	-0.196
-310.924	800.000	0.028	0.122
-309.910	-50.528	0.247	-0.116
-308.895	167.248	0.114	-0.161
-307.880	-69.978	-0.216	0.082
-306.866	192.276	0.182	-0.273
-305.851	-105.590	0.429	-0.097
-304.837	375.245	-0.224	0.453
-303.822	-200.000	0.029	0.285
-302.807	-115.101	0.124	-0.023
-301.793	1.909	-0.170	-0.122
-300.778	591.281	-0.045	0.110
-299.764	-200.000	0.017	0.123
-298.749	-200.000	0.048	-0.227
-297.735	800.000	0.128	0.401
-296.720	1.921	-0.301	0.216
-295.705	-2.380	-0.252	-0.175
-294.691	-200.000	0.003	-0.142
-293.676	32.787	-0.384	0.330
-292.662	160.946	-0.051	0.071
-291.647	800.000	0.096	0.290
-290.632	89.281	0.220	-0.244
-289.618	-114.054	-0.485	-0.093
-288.603	800.000	0.069	0.217
-287.589	219.077	0.045	0.071
-286.574	-71.887	-0.072	0.027
-285.559	107.438	-0.147	-0.173
-284.545	-141.256	-0.201	0.020
-283.530	-127.594	0.244	-0.035
-282.516	-73.718	0.154	0.056
-281.501	-24.259	-0.196	-0.116
-280.486	-12.517	0.094	-0.061
-279.472	58.079	-0.173	0.169
-278.457	800.000	0.076	0.323
-277.443	-1.062	-0.094	-0.066
-276.428	800.000	-0.062	0.269
-275.413	-71.216	0.326	0.121
-274.399	256.134	0.202	0.345
-273.384	118.688	0.232	0.285
-272.370	-153.705	-0.408	0.028
-271.355	297.542	0.058	0.106
-270.340	-143.431	0.217	0.021
-269.326	-45.773	0.228	0.112
-268.311	-27.792	-0.232	-0.133
-267.297	800.000	0.034	-0.095
-266.282	44.565	-0.151	-0.138
-265.267	83.606	-0.066	-0.072
-264.253	109.818	-0.180	-0.214
-263.238	85.603	0.185	0.202
-262.224	-125.036	0.305	0.047
-261.209	800.000	-0.053	0.212
-260.195	-200.000	-0.028	-0.338
-259.180	163.020	0.161	-0.225
-258.165	38.679	0.394	-0.349
-257.151	-200.000	0.018	-0.130
-256.136	-84.890	-0.266	-0.083
-255.122	-136.749	0.212	-0.024
-254.107	-200.000	-0.008	0.074
-253.092	191.156	0.300	-0.449
-252.078	-115.407	-0.265	0.050
-251.063	488.007	0.044	0.100
-250.049	411.108	0.118	0.248
-249.034	262.201	0.043	-0.075
-248.019	305.642	-0.115	0.212
-247.005	266.814	0.231	0.401
-245.990	-200.000	-0.011	0.534
-244.976	-18.109	0.194	0.121
-243.961	-75.916	0.279	0.098
-242.946	-143.419	-0.293	-0.028
-241.932	79.127	0.198	0.211
-240.917	800.000	-0.136	-0.455
-239.903	-102.416	-0.086	0.020
-238.888	-24.791	-0.112	0.066
-237.873	-42.084	0.256	0.130
-236.859	311.251	-0.124	0.230
-235.844	-200.000	0.007	-0.144
-234.830	-85.191	0.193	0.060
-233.815	-200.000	0.015	0.408
-232.800	800.000	-0.137	0.375
-231.786	40.026	0.308	-0.274
-230.771	-200.000	-0.116	-0.581
-229.757	21.341	-0.153	-0.123
-228.742	170.579	0.297	0.422
-227.727	-43.220	0.225	0.113
-226.713	13.412	-0.272	0.209
-225.698	-38.039	-0.287	0.151
-224.684	93.369	0.037	-0.041
-223.669	109.512	0.109	0.130
-222.655	-200.000	-0.014	-0.225
-221.640	-43.340	0.213	-0.107
-220.625	-52.630	0.151	0.069
-219.611	-200.000	-0.002	0.117
-218.596	124.431	-0.136	0.170
-217.582	-3.144	0.237	-0.163
-216.567	670.407	0.037	0.094
-215.552	-200.000	-0.004	0.174
-214.538	800.000	0.013	-0.050
-213.523	685.906	-0.099	-0.257
-212.509	699.349	-0.039	-0.101
-211.494	-79.751	0.216	-0.072
-210.479	800.000	-0.020	-0.076
-209.465	-66.515	0.363	0.143
-208.450	-73.999	0.432	-0.155
-207.436	-23.162	0.079	-0.047
-206.421	-200.000	0.020	0.322
-205.406	-200.000	-0.014	-0.128
-204.392	-200.000	0.021	-0.170
-203.377	-200.000	0.369	0.001
-202.363	-195.553	-0.365	0.003
-201.348	800.000	-0.046	0.147
-200.333	666.001	-0.020	-0.052
-199.319	209.311	-0.033	0.052
-198.304	223.467	-0.256	-0.408
-197.290	800.000	-0.066	0.204
-196.275	-169.227	-0.137	0.005
-195.260	-150.783	0.081	0.006
-194.246	92.907	-0.090	0.100
-193.231	-70.867	-0.251	-0.094
-192.217	101.845	0.279	-0.323
-191.202	800.000	-0.042	-0.162
-190.187	-109.765	0.120	-0.025
-189.173	-200.000	0.003	0.226
-188.158	-200.000	0.000	0.146
-187.144	147.043	-0.081	0.107
-186.129	217.263	0.093	0.147
-185.114	-200.000	0.039	0.244
-184.100	-146.807	0.215	0.018
-183.085	800.000	0.097	0.334
-182.071	639.060	0.081	0.204
-181.056	-107.272	0.188	-0.041
-180.042	556.529	-0.034	0.081
-179.027	-200.000	0.016	0.298
-178.012	-89.909	0.238	0.069
-176.998	390.596	-0.134	0.276
-175.983	110.585	0.230	0.273
-174.969	-97.864	0.228	-0.058
-173.954	66.407	-0.101	0.102
-172.939	-94.357	-0.229	-0.062
-171.925	-66.246	-0.383	0.151
-170.910	121.016	-0.282	-0.347
-169.896	-187.524	-0.122	0.002
-168.881	-100.533	-0.527	-0.129
-167.866	-102.143	0.260	0.062
-166.852	-145.036	-0.157	0.014
-165.837	800.000	0.073	0.285
-164.823	173.056	-0.087	0.124
-163.808	40.440	-0.079	0.070
-162.793	588.803	0.103	0.250
-161.779	484.316	-0.035	0.080
-160.764	98.831	-0.196	-0.224
-159.750	287.061	-0.161	0.288
-158.735	-200.000	-0.014	0.141
-157.720	-50.729	-0.080	0.037
-156.706	-21.505	0.232	0.140
-155.691	-123.306	0.134	-0.021
-154.677	-6.636	0.203	-0.137
-153.662	-139.621	-0.178	-0.019
-152.647	-187.666	0.274	0.004
-151.633	539.884	-0.043	-0.101
-150.618	778.849	-0.082	-0.223
-149.604	-47.988	-0.106	0.051
-148.589	3.984	0.193	-0.139
-147.574	-100.748	0.186	-0.045
-146.560	-70.765	-0.251	0.093
-145.545	800.000	0.095	-0.283
-144.531	-160.794	0.159	0.008
-143.516	249.016	0.122	0.204
-142.502	365.330	-0.141	0.280
-141.487	574.602	-0.109	0.262
-140.472	133.443	0.182	-0.233
-139.458	331.812	0.138	-0.262
-138.443	800.000	-0.088	0.246
-137.429	79.935	-0.122	0.129
-136.414	-154.624	0.205	0.014
-135.399	-130.546	-0.159	-0.021
-134.385	-200.000	0.061	-0.439
-133.370	-200.000	0.011	-0.274
-132.356	-174.562	-0.205	-0.006
-131.341	-81.791	0.146	-0.047
-130.326	-200.000	0.029	0.146
-129.312	-21.256	-0.193	-0.117
-128.297	-47.163	0.124	0.060
-127.283	129.439	0.075	0.094
-126.268	-43.556	-0.147	-0.073
-125.253	-59.945	-0.142	-0.060
-124.239	67.045	0.141	0.142
-123.224	110.994	0.184	-0.219
-122.210	224.438	0.060	-0.096
-121.195	196.498	-0.073	-0.110
-120.180	530.061	0.146	0.341
