DTS Sentinel unit serial number:	SN413079Multiplexer serial number:	ORYXHardware model number:	OX4-SRSoftware version number:	ORYX F/W v4.00 Oryx Data Collector v3.7.2.0data status	okinstallation	princeton_trtdifferential loss correction	single-endedforward channel	channel 3reverse channel	N/Adate	2019/09/12time	00:10:11forward acquisition time	60.00reverse acquisition time	0.00gamma	496.2192k internal	0.2318k external	0.2318temperature offset calibration	1.0060default loss term (dB/km)	0.3790temperature slope calibration	1.0000multiplexer offset coefficient	1.0000multiplexer slope coefficient	1.0000fibre end	0.00T internal ref (°C)	33.62T ext. ref 1 (°C)	1.99T ext. ref 2 (°C)	28.21length (m)	temperature (°C)	Stokes	anti-Stokes-747.200	-93.869	0.338	-0.094
-746.185	800.000	-0.102	0.299
-745.171	-11.372	0.175	0.117
-744.156	-170.407	-0.166	-0.006
-743.142	664.361	-0.130	0.340
-742.127	800.000	-0.032	-0.125
-741.112	-89.084	-0.367	-0.110
-740.098	-200.000	0.005	0.352
-739.083	-26.573	-0.243	0.144
-738.069	145.116	-0.335	0.454
-737.054	-200.000	-0.015	-0.127
-736.039	-117.618	-0.182	0.033
-735.025	-200.000	-0.016	0.083
-734.010	-46.010	-0.114	0.057
-732.996	-200.000	-0.011	0.213
-731.981	43.008	-0.300	0.277
-730.966	176.002	0.313	0.459
-729.952	-62.190	-0.146	-0.061
-728.937	76.781	0.046	-0.049
-727.923	-161.055	-0.382	0.020
-726.908	67.041	-0.281	0.289
-725.894	800.000	0.038	0.152
-724.879	800.000	-0.076	0.216
-723.864	633.239	0.031	-0.079
-722.850	55.732	0.181	-0.178
-721.835	198.876	-0.083	0.129
-720.821	33.360	-0.231	-0.202
-719.806	104.090	-0.152	-0.181
-718.791	365.393	-0.200	-0.407
-717.777	42.014	0.270	0.248
-716.762	381.268	0.094	-0.195
-715.748	-200.000	-0.068	0.440
-714.733	99.712	-0.297	-0.348
-713.718	241.602	-0.068	-0.114
-712.704	48.808	-0.083	0.079
-711.689	4.780	0.171	0.127
-710.675	-50.868	0.274	0.130
-709.660	-200.000	-0.002	0.081
-708.645	800.000	0.093	-0.260
-707.631	-200.000	0.002	0.065
-706.616	800.000	0.077	0.251
-705.602	-200.000	-0.041	0.400
-704.587	-142.318	-0.100	0.010
-703.572	151.506	0.049	0.068
-702.558	442.571	-0.117	0.260
-701.543	40.352	0.144	-0.131
-700.529	10.401	-0.191	0.147
-699.514	56.687	0.180	0.177
-698.499	147.151	-0.087	0.118
-697.485	15.170	0.135	-0.107
-696.470	-132.370	0.428	0.056
-695.456	-200.000	-0.006	0.121
-694.441	-26.347	0.402	-0.238
-693.426	2.324	-0.139	0.102
-692.412	-41.522	0.273	0.142
-691.397	99.795	0.106	0.124
-690.383	800.000	0.043	0.170
-689.368	-200.000	0.000	-0.205
-688.354	-110.728	-0.133	0.028
-687.339	148.087	0.160	0.219
-686.324	465.982	-0.112	-0.253
-685.310	-200.000	0.017	-0.345
-684.295	205.163	0.112	0.176
-683.281	7.249	-0.265	-0.200
-682.266	-200.000	-0.100	-0.460
-681.251	800.000	-0.058	-0.197
-680.237	-74.776	0.325	0.118
-679.222	793.614	-0.009	-0.025
-678.208	-46.127	0.152	-0.076
-677.193	-97.222	-0.100	-0.026
-676.178	-200.000	-0.010	0.067
-675.164	-56.700	0.162	-0.072
-674.149	-200.000	-0.037	-0.223
-673.135	65.218	-0.107	-0.110
-672.120	237.492	-0.120	-0.201
-671.105	-44.181	0.101	-0.051
-670.091	-147.571	-0.079	-0.007
-669.076	184.878	-0.136	-0.204
-668.062	-200.000	0.042	0.189
-667.047	-99.873	0.057	0.014
-666.032	-112.563	0.169	-0.034
-665.018	-200.000	-0.019	-0.105
-664.003	21.776	-0.226	0.186
-662.989	800.000	-0.068	-0.249
-661.974	-56.755	0.172	-0.077
-660.959	800.000	0.127	-0.364
-659.945	-5.065	0.110	0.077
-658.930	-14.938	0.181	-0.117
-657.916	544.928	-0.033	0.078
-656.901	296.216	-0.122	0.225
-655.886	-43.331	0.060	0.031
-654.872	-140.704	0.307	-0.032
-653.857	-153.188	-0.106	-0.007
-652.843	-200.000	-0.013	-0.152
-651.828	-7.179	0.043	-0.029
-650.814	800.000	-0.071	0.215
-649.799	-200.000	0.032	-0.144
-648.784	120.009	0.148	0.185
-647.770	60.108	0.202	0.201
-646.755	54.349	-0.237	-0.230
-645.741	-43.257	-0.407	-0.208
-644.726	-36.301	-0.114	0.062
-643.711	-174.499	0.259	-0.007
-642.697	-60.176	-0.209	-0.090
-641.682	46.777	-0.168	-0.157
-640.668	-36.977	0.255	0.138
-639.653	-186.128	0.126	-0.002
-638.638	-195.559	0.170	0.001
-637.624	-127.957	0.214	-0.031
-636.609	-39.755	-0.191	0.101
-635.595	116.123	-0.190	0.234
-634.580	-95.695	-0.182	0.049
-633.565	39.753	0.045	0.041
-632.551	48.888	-0.299	-0.283
-631.536	-200.000	-0.026	-0.156
-630.522	249.366	0.096	0.164
-629.507	-5.321	-0.033	-0.023
-628.492	100.388	-0.080	-0.094
-627.478	-66.428	-0.239	-0.096
-626.463	-106.692	0.459	-0.103
-625.449	-74.604	-0.289	0.105
-624.434	-4.010	-0.435	0.304
-623.419	-68.491	-0.177	0.069
-622.405	307.044	0.080	-0.150
-621.390	-200.000	-0.417	0.001
-620.376	36.731	0.213	0.190
-619.361	-106.353	0.218	0.049
-618.346	542.584	-0.050	-0.121
-617.332	153.617	0.136	-0.187
-616.317	-99.831	0.314	-0.079
-615.303	135.527	-0.025	-0.033
-614.288	39.089	0.230	0.207
-613.273	-106.303	-0.197	0.044
-612.259	75.716	0.116	-0.124
-611.244	-200.000	0.025	-0.338
-610.230	44.073	0.324	-0.299
-609.215	-87.003	0.208	-0.064
-608.201	-89.834	-0.246	-0.072
-607.186	-83.431	-0.475	0.153
-606.171	6.522	-0.232	0.173
-605.157	-145.658	-0.044	0.004
-604.142	202.468	0.140	-0.218
-603.128	184.044	0.053	-0.079
-602.113	-10.691	0.274	-0.182
-601.098	800.000	0.077	-0.224
-600.084	5.299	-0.147	-0.109
-599.069	191.148	-0.112	-0.170
-598.055	-200.000	0.020	0.161
-597.040	-200.000	-0.075	0.339
-596.025	18.766	0.137	-0.110
-595.011	16.605	-0.136	-0.108
-593.996	-200.000	-0.040	-0.204
-592.982	-149.280	-0.413	-0.033
-591.967	-169.520	0.063	0.002
-590.952	232.367	-0.101	-0.167
-589.938	-200.000	0.036	0.255
-588.923	-33.074	-0.281	0.157
-587.909	-200.000	-0.003	-0.054
-586.894	-6.049	-0.188	-0.129
-585.879	-143.740	-0.409	-0.039
-584.865	-102.479	0.327	-0.079
-583.850	-43.550	-0.350	0.178
-582.836	-115.057	0.146	-0.028
-581.821	-200.000	0.051	0.338
-580.806	-21.535	0.250	0.153
-579.792	800.000	0.056	-0.183
-578.777	399.477	-0.087	0.183
-577.763	-200.000	0.052	0.288
-576.748	4.630	-0.300	0.221
-575.733	13.828	0.139	-0.108
-574.719	205.125	0.111	-0.174
-573.704	265.029	0.092	-0.161
-572.690	585.908	0.110	-0.272
-571.675	-181.460	-0.117	0.002
-570.661	-200.000	0.019	0.152
-569.646	-88.255	-0.188	-0.056
-568.631	-43.290	-0.161	0.082
-567.617	-192.172	-0.055	-0.001
-566.602	800.000	-0.029	-0.102
-565.588	-173.232	0.128	-0.004
-564.573	-200.000	0.050	-0.314
-563.558	-200.000	-0.030	-0.247
-562.544	155.257	-0.074	0.102
-561.529	-109.868	0.265	0.056
-560.515	-200.000	-0.000	-0.044
-559.500	420.516	0.126	-0.270
-558.485	-200.000	0.007	-0.208
-557.471	-4.326	-0.146	-0.102
-556.456	78.579	0.262	-0.281
-555.442	800.000	-0.023	-0.082
-554.427	-61.169	0.134	-0.057
-553.412	-182.872	-0.177	-0.003
-552.398	-114.304	0.416	0.081
-551.383	60.033	0.181	-0.180
-550.369	-200.000	-0.002	0.073
-549.354	94.345	0.233	0.266
-548.339	52.159	0.162	0.155
-547.325	52.880	0.052	0.050
-546.310	611.041	-0.079	-0.198
-545.296	-48.044	-0.367	-0.178
-544.281	-170.732	0.118	-0.004
-543.266	-117.901	0.029	-0.005
-542.252	216.137	-0.029	0.046
-541.237	800.000	-0.147	0.551
-540.223	-200.000	0.012	-0.100
-539.208	148.279	0.083	-0.113
-538.193	343.057	-0.094	0.184
-537.179	444.072	-0.127	-0.279
-536.164	-60.138	-0.215	-0.092
-535.150	2.230	0.170	0.124
-534.135	-35.635	0.249	-0.135
-533.121	800.000	-0.021	0.089
-532.106	-42.172	0.164	0.084
-531.091	-154.052	-0.175	-0.012
-530.077	81.059	-0.087	0.095
-529.062	542.906	-0.151	-0.360
-528.048	-200.000	0.010	0.258
-527.033	-48.530	0.166	-0.080
-526.018	-66.384	0.085	-0.034
-525.004	-83.986	-0.126	0.040
-523.989	-114.673	0.061	0.012
-522.975	-28.171	-0.217	0.126
-521.960	-200.000	0.012	-0.062
-520.945	-130.548	-0.296	-0.040
-519.931	-200.000	-0.054	-0.255
-518.916	800.000	0.038	0.137
-517.902	-6.321	-0.091	0.062
-516.887	-43.874	0.086	0.043
-515.872	313.113	0.016	0.029
-514.858	-16.432	0.169	0.108
-513.843	-148.736	0.220	-0.018
-512.829	-114.466	0.374	-0.072
-511.814	-137.287	-0.070	0.008
-510.799	417.842	-0.202	-0.433
-509.785	-200.000	0.016	-0.227
-508.770	126.226	-0.224	0.284
-507.756	-97.567	0.287	0.075
-506.741	90.640	0.134	-0.150
-505.726	29.388	-0.053	0.045
-504.712	-27.092	0.091	0.053
-503.697	97.658	-0.190	0.219
-502.683	-200.000	0.075	0.000
-501.668	228.613	-0.133	0.217
-500.653	-200.000	0.002	-0.161
-499.639	66.484	-0.334	-0.340
-498.624	177.772	-0.044	-0.065
-497.610	368.516	-0.032	0.066
-496.595	2.202	0.428	0.310
-495.581	80.592	-0.202	-0.218
-494.566	-131.498	-0.441	0.058
-493.551	7.925	-0.149	-0.112
-492.537	-101.312	0.293	-0.072
-491.522	-142.583	-0.125	-0.012
-490.508	-43.649	-0.171	-0.087
-489.493	687.097	-0.051	-0.133
-488.478	215.394	-0.201	-0.319
-487.464	-135.630	0.224	-0.027
-486.449	215.793	-0.028	0.044
-485.435	-85.533	-0.158	0.049
-484.420	40.823	-0.186	-0.168
-483.405	-200.000	-0.007	0.422
-482.391	-87.154	0.262	0.080
-481.376	800.000	-0.023	0.098
-480.362	800.000	0.054	-0.226
-479.347	47.502	-0.265	0.247
-478.332	-126.804	0.133	-0.020
-477.318	800.000	0.043	-0.131
-476.303	640.706	0.119	0.302
-475.289	100.372	0.086	0.099
-474.274	800.000	0.019	-0.052
-473.259	800.000	-0.035	-0.122
-472.245	428.346	0.133	-0.289
-471.230	397.765	-0.157	-0.329
-470.216	-200.000	0.013	-0.324
-469.201	-191.773	0.218	-0.002
-468.186	-12.559	-0.255	-0.167
-467.172	-200.000	0.041	-0.193
-466.157	66.463	-0.224	0.228
-465.143	81.702	0.285	0.309
-464.128	402.417	-0.226	0.475
-463.113	-52.417	0.222	0.103
-462.099	89.022	0.170	0.189
-461.084	69.961	0.062	0.064
-460.070	-200.000	0.018	-0.104
-459.055	78.082	-0.116	-0.124
-458.040	-83.747	0.123	-0.039
-457.026	-7.810	0.032	0.022
-456.011	74.948	-0.090	0.095
-454.997	39.082	0.150	0.134
-453.982	-200.000	0.037	0.348
-452.968	-33.574	-0.210	-0.116
-451.953	5.833	0.230	0.171
-450.938	800.000	-0.086	0.240
-449.924	314.151	-0.041	0.076
-448.909	-200.000	-0.014	0.242
-447.895	521.916	0.029	-0.069
-446.880	-200.000	-0.035	0.184
-445.865	-111.793	-0.329	-0.067
-444.851	-33.441	0.111	0.061
-443.836	175.324	0.135	0.195
-442.822	-200.000	-0.049	-0.219
-441.807	131.706	0.133	-0.171
-440.792	440.983	-0.189	-0.413
-439.778	-126.589	0.098	-0.014
-438.763	78.965	0.108	0.116
-437.749	800.000	0.045	-0.168
-436.734	-87.802	-0.140	-0.042
-435.719	102.310	-0.192	0.225
-434.705	-70.148	0.048	0.018
-433.690	500.262	-0.106	-0.246
-432.676	-154.697	0.242	-0.016
-431.661	800.000	-0.042	-0.179
-430.646	-200.000	0.000	-0.366
-429.632	356.767	-0.079	-0.157
-428.617	158.876	0.076	0.105
-427.603	-0.648	-0.240	-0.170
-426.588	-94.608	0.186	-0.051
-425.573	800.000	0.106	0.319
-424.559	127.600	-0.115	0.146
-423.544	-0.644	0.171	0.121
-422.530	-32.427	-0.162	0.090
-421.515	-52.029	0.186	0.086
-420.500	-188.947	-0.104	0.001
-419.486	631.136	-0.066	-0.168
-418.471	-78.119	-0.048	0.016
-417.457	-200.000	-0.024	-0.166
-416.442	42.734	0.169	0.154
-415.428	-92.161	0.119	0.034
-414.413	164.639	0.117	-0.164
-413.398	-107.622	0.373	-0.082
-412.384	-123.675	0.337	-0.053
-411.369	-168.103	0.303	-0.012
-410.355	164.923	0.070	0.098
-409.340	-15.051	-0.193	-0.124
-408.325	-36.957	-0.097	0.052
-407.311	-123.751	0.168	0.026
-406.296	-7.552	-0.162	0.110
-405.282	-200.000	-0.017	-0.242
-404.267	318.226	0.076	0.144
-403.252	-165.893	0.057	0.002
-402.238	-200.000	-0.076	-0.438
-401.223	-57.656	0.118	0.052
-400.209	-200.000	0.019	0.116
-399.194	20.756	0.045	-0.036
-398.179	208.259	0.062	-0.097
-397.165	77.709	-0.149	0.158
-396.150	-79.666	0.144	0.048
-395.136	-151.375	0.077	0.006
-394.121	800.000	-0.119	0.355
-393.106	-118.756	0.185	-0.033
-392.092	-40.185	-0.130	-0.067
-391.077	103.713	0.078	0.092
-390.063	-95.190	-0.069	0.019
-389.048	800.000	-0.039	-0.136
-388.033	-62.206	-0.398	-0.166
-387.019	-91.967	0.237	-0.067
-386.004	285.360	-0.100	-0.180
-384.990	-200.000	0.241	0.001
-383.975	-138.412	-0.187	-0.021
-382.960	-195.861	0.365	-0.003
-381.946	-200.000	-0.001	-0.085
-380.931	-73.607	0.218	-0.079
-379.917	14.138	0.180	0.140
-378.902	-106.793	0.235	-0.052
-377.888	201.689	-0.069	-0.107
-376.873	0.116	0.075	0.053
-375.858	800.000	0.068	0.226
-374.844	37.356	0.105	-0.093
-373.829	-29.453	0.161	-0.092
-372.815	-200.000	0.000	0.094
-371.800	800.000	0.032	-0.117
-370.785	-101.088	-0.434	-0.106
-369.771	800.000	0.049	0.203
-368.756	48.723	0.108	0.101
-367.742	333.180	0.029	-0.055
-366.727	-105.669	-0.391	-0.088
-365.712	76.474	-0.107	-0.113
-364.698	193.839	-0.133	-0.200
-363.683	-200.000	-0.035	0.389
-362.669	-200.000	0.001	0.310
-361.654	-89.327	0.236	-0.069
-360.639	-161.465	0.077	-0.004
-359.625	78.510	-0.281	0.299
-358.610	18.137	0.127	0.101
-357.596	-24.267	-0.279	0.166
-356.581	-37.996	-0.071	-0.038
-355.566	-35.714	0.197	0.106
-354.552	73.840	0.033	0.035
-353.537	-122.832	-0.190	-0.031
-352.523	2.738	-0.176	-0.127
-351.508	12.858	-0.198	-0.152
-350.493	-152.078	-0.527	-0.038
-349.479	800.000	0.146	0.431
-348.464	-14.443	0.242	-0.155
-347.450	-91.338	0.278	0.079
-346.435	251.309	0.057	-0.096
-345.420	205.219	0.068	0.106
-344.406	0.599	-0.228	0.162
-343.391	19.540	0.162	0.129
-342.377	-28.572	0.381	0.219
-341.362	101.973	0.145	0.169
-340.348	-69.872	-0.283	-0.108
-339.333	-181.963	0.121	0.002
-338.318	-91.577	0.040	0.011
-337.304	0.813	0.330	-0.236
-336.289	705.998	0.039	-0.103
-335.275	400.254	-0.073	-0.153
-334.260	-200.000	0.024	0.318
-333.245	21.070	0.039	-0.031
-332.231	-94.925	-0.148	-0.040
-331.216	94.222	0.203	0.230
-330.202	-143.728	0.336	0.032
-329.187	-72.718	0.374	-0.137
-328.172	-25.013	-0.146	0.086
-327.158	310.668	-0.076	0.142
-326.143	-200.000	0.035	0.319
-325.129	12.523	-0.095	-0.073
-324.114	-146.781	-0.180	-0.016
-323.099	-200.000	-0.057	0.377
-322.085	321.563	0.138	0.261
-321.070	-200.000	-0.052	-0.318
-320.056	-29.385	-0.123	-0.070
-319.041	-200.000	0.063	-0.421
-318.026	31.317	-0.214	-0.183
-317.012	36.482	-0.181	0.159
-315.997	78.851	0.132	-0.141
-314.983	-139.108	-0.140	-0.015
-313.968	85.410	-0.121	0.132
-312.953	800.000	0.055	0.196
-311.939	35.455	0.272	0.238
-310.924	-29.676	-0.256	0.145
-309.910	-86.377	0.334	-0.102
-308.895	-139.847	0.146	0.015
-307.880	-200.000	0.055	0.269
-306.866	-37.796	-0.382	0.202
-305.851	-131.596	0.131	-0.017
-304.837	360.647	0.040	0.080
-303.822	800.000	0.075	0.274
-302.807	-93.277	0.350	0.097
-301.793	106.423	0.155	-0.183
-300.778	12.504	0.404	-0.310
-299.764	-74.639	-0.030	-0.011
-298.749	477.951	-0.040	0.089
-297.735	14.054	-0.232	-0.180
-296.720	-46.555	0.127	0.062
-295.705	-141.096	0.217	-0.022
-294.691	320.819	-0.135	0.255
-293.676	-51.831	0.231	0.107
-292.662	-6.245	-0.454	0.308
-291.647	-28.183	0.288	0.166
-290.632	-157.803	-0.139	0.008
-289.618	-200.000	0.004	0.088
-288.603	178.003	-0.040	0.058
-287.589	91.004	0.153	0.171
-286.574	800.000	0.084	0.311
-285.559	-118.747	0.046	-0.008
-284.545	-26.217	0.261	0.152
-283.530	88.980	0.231	-0.256
-282.516	179.261	-0.068	-0.099
-281.501	800.000	0.097	-0.315
-280.486	-200.000	-0.096	-0.442
-279.472	-23.597	-0.180	-0.107
-278.457	-200.000	0.023	-0.147
-277.443	-138.908	-0.318	-0.034
-276.428	-200.000	-0.019	0.236
-275.413	52.309	0.179	-0.170
-274.399	69.270	-0.061	0.063
-273.384	266.553	-0.121	0.211
-272.370	22.413	-0.039	-0.032
-271.355	181.436	0.070	0.102
-270.340	-200.000	-0.023	-0.213
-269.326	-48.588	-0.265	-0.127
-268.311	800.000	0.078	0.245
-267.297	151.356	0.054	0.073
-266.282	235.869	0.108	0.177
-265.267	2.290	-0.158	0.113
-264.253	395.749	-0.075	-0.156
-263.238	99.885	0.150	0.173
-262.224	577.774	0.083	0.201
-261.209	-200.000	0.053	-0.363
-260.195	115.655	0.045	0.054
-259.180	99.409	0.128	-0.147
-258.165	800.000	-0.091	-0.291
-257.151	-170.180	-0.264	-0.009
-256.136	647.437	0.128	-0.326
-255.122	22.217	-0.049	-0.040
-254.107	-36.270	-0.074	0.040
-253.092	411.678	-0.013	0.026
-252.078	409.244	-0.069	-0.146
-251.063	800.000	-0.101	-0.319
-250.049	-84.373	-0.271	0.085
-249.034	182.581	-0.152	-0.222
-248.019	-96.846	0.212	0.055
-247.005	-200.000	-0.085	-0.384
-245.990	-200.000	-0.026	0.229
-244.976	79.041	-0.155	0.165
-243.961	55.596	0.189	-0.182
-242.946	-200.000	-0.011	-0.059
-241.932	619.808	-0.108	-0.270
-240.917	-200.000	0.015	0.236
-239.903	-16.211	-0.030	-0.019
-238.888	284.727	-0.043	-0.077
-237.873	31.155	-0.108	-0.092
-236.859	268.491	-0.044	-0.077
-235.844	21.834	-0.236	-0.191
-234.830	320.511	-0.176	-0.332
-233.815	232.055	-0.078	0.127
-232.800	-180.820	-0.306	-0.006
-231.786	-200.000	0.004	0.031
-230.771	-200.000	-0.087	0.433
-229.757	-100.390	-0.230	0.056
-228.742	-200.000	-0.020	0.323
-227.727	800.000	-0.111	-0.327
-226.713	800.000	-0.086	-0.267
-225.698	791.235	0.109	0.297
-224.684	291.070	0.083	0.149
-223.669	634.900	0.079	-0.199
-222.655	-132.011	-0.132	-0.017
-221.640	120.803	-0.115	-0.142
-220.625	226.282	-0.154	-0.248
-219.611	-200.000	-0.002	-0.110
-218.596	-111.070	0.124	-0.025
-217.582	-172.245	0.170	0.005
-216.567	582.390	0.096	0.233
-215.552	-133.874	-0.408	0.050
-214.538	-95.172	0.211	0.056
-213.523	611.565	-0.044	-0.110
-212.509	-200.000	0.007	0.108
-211.494	448.205	-0.069	-0.150
-210.479	-30.969	-0.203	0.113
-209.465	800.000	0.038	-0.108
-208.450	195.591	-0.204	0.308
-207.436	251.707	-0.062	0.105
-206.421	-200.000	0.007	0.090
-205.406	312.795	0.130	-0.242
-204.392	270.018	-0.103	0.180
-203.377	346.180	0.183	0.356
-202.363	800.000	-0.028	0.117
-201.348	-200.000	-0.095	-0.578
-200.333	-162.202	-0.480	0.024
-199.319	-169.917	0.336	0.012
-198.304	45.116	-0.188	0.172
-197.290	-21.440	0.189	-0.114
-196.275	128.055	0.116	-0.147
-195.260	800.000	0.194	0.564
-194.246	258.844	0.148	-0.253
-193.231	-200.000	0.007	0.182
-192.217	-200.000	-0.036	-0.230
-191.202	1.176	-0.133	-0.095
-190.187	203.183	-0.246	-0.376
-189.173	-160.362	0.374	0.020
-188.158	-41.690	-0.140	0.071
-187.144	-129.336	-0.143	-0.020
-186.129	-129.820	0.435	-0.059
-185.114	19.626	0.145	0.115
-184.100	207.737	0.067	-0.104
-183.085	-77.994	0.328	-0.112
-182.071	-200.000	-0.006	0.210
-181.056	-123.276	-0.223	0.035
-180.042	-41.585	0.228	0.116
-179.027	-186.985	-0.092	-0.001
-178.012	800.000	-0.020	-0.062
-176.998	101.193	0.165	0.190
-175.983	132.112	-0.289	0.368
-174.969	-200.000	-0.024	-0.109
-173.954	-200.000	-0.054	0.278
-172.939	-80.233	0.241	-0.080
-171.925	-4.835	0.389	0.265
-170.910	239.638	0.035	-0.057
-169.896	-200.000	-0.067	0.303
-168.881	-68.493	0.147	-0.056
-167.866	-24.760	-0.301	0.177
-166.852	394.424	-0.110	-0.226
-165.837	21.772	0.194	0.157
-164.823	221.276	-0.061	0.097
-163.808	66.348	-0.079	0.079
-162.793	-91.531	0.391	-0.110
-161.779	-72.465	-0.175	0.064
-160.764	49.171	-0.247	0.230
-159.750	243.836	-0.036	-0.059
-158.735	800.000	0.010	0.040
-157.720	75.145	-0.159	0.165
-156.706	-63.229	0.146	0.060
-155.691	-155.990	-0.344	0.022
-154.677	7.249	0.282	0.208
-153.662	558.285	0.102	-0.244
-152.647	156.689	-0.076	-0.104
-151.633	36.650	0.194	-0.170
-150.618	-128.956	-0.139	0.019
-149.604	-68.155	0.248	0.095
-148.589	166.631	-0.273	-0.383
-147.574	421.878	-0.048	-0.101
-146.560	-93.267	-0.105	-0.029
-145.545	19.753	0.365	0.291
-144.531	-34.533	-0.114	0.062
-143.516	-81.811	0.352	0.114
-142.502	68.796	0.155	0.158
-141.487	5.119	-0.214	-0.156
-140.472	287.415	-0.033	-0.059
-139.458	-71.900	0.188	0.069
-138.443	-200.000	-0.207	0.001
-137.429	-122.444	0.084	0.014
-136.414	542.262	-0.113	-0.267
-135.399	-170.372	0.032	-0.001
-134.385	-29.154	-0.212	-0.120
-133.370	-179.336	-0.085	0.002
-132.356	-169.857	0.102	0.004
-131.341	-200.000	0.022	0.148
-130.326	264.287	0.070	-0.121
-129.312	-63.483	0.149	0.060
-128.297	-200.000	-0.046	0.217
-127.283	265.799	0.069	-0.120
-126.268	10.688	0.149	0.112
-125.253	123.280	0.198	-0.245
-124.239	-134.792	0.075	-0.009
-123.224	133.461	0.131	-0.167
-122.210	-12.997	0.134	-0.086
-121.195	166.011	0.131	0.184
-120.180	303.677	-0.079	-0.145
