DTS Sentinel unit serial number:	SN413079Multiplexer serial number:	ORYXHardware model number:	OX4-SRSoftware version number:	ORYX F/W v4.00 Oryx Data Collector v3.7.2.0data status	okinstallation	princeton_trtdifferential loss correction	single-endedforward channel	channel 3reverse channel	N/Adate	2019/09/12time	06:06:11forward acquisition time	60.00reverse acquisition time	0.00gamma	496.2192k internal	0.2320k external	0.2320temperature offset calibration	1.0034default loss term (dB/km)	0.3790temperature slope calibration	1.0000multiplexer offset coefficient	1.0000multiplexer slope coefficient	1.0000fibre end	0.00T internal ref (°C)	32.12T ext. ref 1 (°C)	1.55T ext. ref 2 (°C)	27.35length (m)	temperature (°C)	Stokes	anti-Stokes-747.200	800.000	0.065	0.272
-746.185	-43.128	0.240	0.123
-745.171	800.000	0.072	0.295
-744.156	362.084	0.187	0.380
-743.142	800.000	-0.023	-0.089
-742.127	10.313	0.201	0.155
-741.112	-200.000	0.041	-0.214
-740.098	242.294	0.073	-0.124
-739.083	-92.286	-0.352	0.100
-738.069	50.468	-0.254	0.243
-737.054	209.821	-0.166	0.263
-736.039	-200.000	-0.004	-0.155
-735.025	-117.504	0.382	0.070
-734.010	301.262	-0.110	-0.205
-732.996	-162.006	-0.124	-0.006
-731.981	218.351	-0.085	-0.137
-730.966	-97.148	-0.167	-0.044
-729.952	-128.999	-0.306	-0.043
-728.937	121.636	0.106	-0.134
-727.923	27.752	0.150	0.127
-726.908	800.000	0.009	-0.025
-725.894	-2.244	-0.315	0.223
-724.879	25.391	0.302	0.254
-723.864	-58.111	-0.075	-0.033
-722.850	-141.203	0.123	0.013
-721.835	237.334	0.085	-0.143
-720.821	-200.000	-0.037	0.202
-719.806	-200.000	-0.008	-0.103
-718.791	-120.828	-0.367	-0.062
-717.777	126.812	-0.192	0.246
-716.762	53.691	0.195	0.189
-715.748	227.966	0.126	-0.207
-714.733	-200.000	0.030	0.265
-713.718	-200.000	0.035	-0.217
-712.704	179.557	-0.102	-0.151
-711.689	-141.288	0.106	-0.011
-710.675	-200.000	0.019	0.150
-709.660	90.049	-0.218	0.246
-708.645	-114.299	0.340	-0.066
-707.631	-200.000	-0.008	-0.356
-706.616	-200.000	0.009	-0.154
-705.602	-55.845	-0.165	-0.075
-704.587	800.000	0.097	-0.278
-703.572	-72.700	0.308	-0.114
-702.558	341.279	0.174	-0.343
-701.543	800.000	0.025	-0.101
-700.529	82.635	-0.062	-0.068
-699.514	-157.205	-0.267	-0.016
-698.499	-147.639	0.185	-0.016
-697.485	251.603	0.250	0.430
-696.470	56.081	-0.065	0.064
-695.456	-10.477	0.129	0.087
-694.441	-167.451	-0.078	0.003
-693.426	199.983	-0.146	-0.227
-692.412	-200.000	0.001	0.233
-691.397	800.000	0.089	-0.335
-690.383	-68.600	0.170	0.067
-689.368	-114.388	-0.113	0.022
-688.354	800.000	0.011	-0.041
-687.339	50.864	0.104	-0.099
-686.324	-196.664	-0.227	0.002
-685.310	45.837	0.228	-0.213
-684.295	-124.686	-0.305	-0.048
-683.281	-1.067	-0.059	0.042
-682.266	440.758	0.105	0.232
-681.251	211.082	-0.104	0.164
-680.237	-200.000	-0.036	-0.212
-679.222	264.034	0.274	-0.481
-678.208	39.180	-0.208	0.188
-677.193	-59.759	-0.164	0.071
-676.178	-34.531	-0.331	-0.183
-675.164	709.817	-0.089	-0.238
-674.149	-200.000	-0.023	0.302
-673.135	-125.870	-0.202	-0.031
-672.120	-200.000	-0.003	-0.037
-671.105	-69.335	-0.142	0.055
-670.091	-200.000	-0.012	-0.280
-669.076	-200.000	0.002	0.238
-668.062	32.502	0.036	-0.031
-667.047	201.536	0.102	-0.158
-666.032	800.000	0.098	-0.409
-665.018	-63.469	0.139	-0.058
-664.003	-71.669	0.273	-0.103
-662.989	-27.825	-0.404	0.236
-661.974	-139.358	-0.181	0.020
-660.959	537.648	-0.021	0.049
-659.945	-200.000	0.035	-0.270
-658.930	-200.000	-0.040	-0.355
-657.916	800.000	-0.064	0.218
-656.901	-128.164	0.140	0.020
-655.886	123.725	0.064	-0.081
-654.872	-170.659	-0.136	-0.005
-653.857	362.530	0.078	-0.158
-652.843	-200.000	0.043	-0.327
-651.828	740.863	0.056	0.151
-650.814	515.916	-0.080	0.189
-649.799	151.952	-0.089	0.123
-648.784	-7.173	0.105	0.072
-647.770	-22.615	-0.203	-0.124
-646.755	-146.061	-0.202	0.018
-645.741	-89.180	0.212	-0.063
-644.726	399.486	0.043	-0.092
-643.711	-34.071	-0.119	0.066
-642.697	-78.474	0.111	-0.038
-641.682	1.870	0.303	0.220
-640.668	-12.075	0.061	0.040
-639.653	204.082	-0.125	0.195
-638.638	800.000	0.036	0.121
-637.624	18.296	0.149	-0.120
-636.609	120.118	-0.177	-0.222
-635.595	800.000	0.037	0.143
-634.580	-78.277	-0.202	0.070
-633.565	31.831	0.157	0.136
-632.551	-127.825	-0.102	-0.015
-631.536	800.000	0.081	-0.289
-630.522	47.724	0.223	-0.210
-629.507	753.550	-0.093	-0.253
-628.492	-48.393	-0.208	-0.101
-627.478	-96.254	0.022	-0.006
-626.463	100.633	-0.124	-0.145
-625.449	-71.199	0.132	0.050
-624.434	-200.000	0.054	-0.279
-623.419	-200.000	-0.012	-0.372
-622.405	-42.084	0.120	0.062
-621.390	-200.000	-0.004	0.027
-620.376	-200.000	0.036	-0.243
-619.361	-2.443	0.071	0.050
-618.346	-32.226	0.299	0.168
-617.332	-200.000	0.007	0.045
-616.317	484.923	-0.120	-0.275
-615.303	-191.189	0.383	-0.004
-614.288	-48.184	0.274	0.133
-613.273	23.688	-0.251	-0.208
-612.259	-174.321	0.148	0.004
-611.244	183.018	0.112	0.166
-610.230	-145.848	0.080	0.007
-609.215	647.893	-0.095	-0.244
-608.201	-200.000	-0.120	0.000
-607.186	-87.868	-0.214	0.065
-606.171	563.906	0.096	-0.235
-605.157	-69.542	0.171	-0.066
-604.142	-66.251	0.094	0.038
-603.128	-136.237	0.092	-0.011
-602.113	-2.867	0.291	-0.204
-601.098	396.826	-0.076	0.161
-600.084	210.377	-0.155	0.244
-599.069	-78.396	-0.421	-0.145
-598.055	22.263	-0.134	-0.110
-597.040	-27.571	0.340	0.198
-596.025	320.795	-0.072	0.138
-595.011	31.572	-0.131	-0.113
-593.996	-178.498	0.166	-0.004
-592.982	-163.953	-0.202	-0.009
-591.967	800.000	0.070	-0.264
-590.952	-200.000	-0.009	-0.103
-589.938	-70.003	-0.242	-0.093
-588.923	262.875	0.053	0.092
-587.909	800.000	0.019	0.058
-586.894	-65.036	0.480	-0.195
-585.879	-122.098	0.285	-0.047
-584.865	-54.362	-0.045	-0.020
-583.850	48.933	0.167	0.158
-582.836	625.669	-0.110	0.278
-581.821	251.296	-0.071	0.121
-580.806	-49.060	-0.317	0.152
-579.792	137.140	-0.115	0.151
-578.777	503.108	0.030	0.070
-577.763	800.000	-0.121	-0.404
-576.748	-123.579	0.271	0.043
-575.733	-183.074	-0.067	0.001
-574.719	-64.899	0.204	-0.083
-573.704	-21.729	-0.239	-0.146
-572.690	529.035	0.050	-0.119
-571.675	800.000	0.052	-0.159
-570.661	-200.000	-0.018	-0.239
-569.646	-27.001	-0.051	-0.030
-568.631	246.187	-0.049	-0.082
-567.617	-200.000	-0.025	0.317
-566.602	-84.186	-0.466	0.149
-565.588	329.262	0.059	0.114
-564.573	-36.791	-0.042	-0.023
-563.558	-72.810	0.135	-0.050
-562.544	-114.069	0.272	-0.053
-561.529	-130.180	0.359	-0.049
-560.515	10.938	0.139	0.106
-559.500	151.487	-0.078	-0.106
-558.485	-16.305	-0.186	0.118
-557.471	104.472	0.092	-0.109
-556.456	49.245	-0.163	0.154
-555.442	-200.000	-0.152	0.000
-554.427	44.186	0.044	0.041
-553.412	556.854	0.137	-0.332
-552.398	-72.619	0.225	-0.083
-551.383	-26.674	0.144	-0.084
-550.369	-58.339	-0.253	-0.111
-549.354	-200.000	-0.016	0.283
-548.339	532.294	-0.105	0.249
-547.325	98.046	-0.173	0.200
-546.310	-118.112	0.043	0.008
-545.296	202.483	-0.099	-0.154
-544.281	800.000	0.124	-0.400
-543.266	516.840	-0.129	-0.303
-542.252	-81.083	0.283	0.094
-541.237	-93.266	0.460	0.128
-540.223	-113.312	0.169	-0.033
-539.208	-102.764	-0.308	-0.074
-538.193	179.501	0.197	-0.289
-537.179	-200.000	-0.042	-0.223
-536.164	-60.936	0.245	0.104
-535.150	-100.894	-0.055	-0.014
-534.135	39.570	0.263	0.236
-533.121	-43.618	-0.175	-0.089
-532.106	800.000	0.086	-0.260
-531.091	-14.334	0.155	0.100
-530.077	492.325	0.051	0.116
-529.062	800.000	0.011	0.043
-528.048	464.564	-0.098	0.220
-527.033	-86.962	0.131	0.040
-526.018	-61.041	-0.122	0.052
-525.004	224.509	-0.115	-0.186
-523.989	434.698	0.009	0.019
-522.975	475.853	0.090	0.204
-521.960	84.482	-0.137	-0.151
-520.945	-87.817	0.050	0.015
-519.931	-53.844	0.345	0.158
-518.916	115.326	-0.080	0.098
-517.902	-200.000	-0.030	-0.463
-516.887	-20.051	-0.295	-0.182
-515.872	-60.449	0.138	-0.059
-514.858	-50.285	-0.253	0.120
-513.843	88.865	-0.138	0.154
-512.829	-139.093	0.218	0.024
-511.814	-20.017	-0.221	0.136
-510.799	800.000	0.051	0.159
-509.785	-120.834	-0.068	-0.012
-508.770	-200.000	-0.013	0.161
-507.756	-200.000	-0.041	0.286
-506.741	169.522	0.174	0.249
-505.726	175.727	0.042	-0.060
-504.712	112.722	0.086	-0.104
-503.697	-49.658	-0.221	-0.105
-502.683	-34.715	-0.325	-0.178
-501.668	-200.000	0.023	-0.304
-500.653	487.236	-0.076	0.173
-499.639	-200.000	0.029	0.293
-498.624	800.000	0.030	0.096
-497.610	-95.526	0.096	-0.026
-496.595	-200.000	0.020	0.315
-495.581	-10.459	0.348	-0.231
-494.566	257.189	-0.122	0.210
-493.551	627.757	0.134	0.339
-492.537	-200.000	0.009	0.089
-491.522	577.977	-0.192	-0.469
-490.508	-86.996	-0.134	-0.041
-489.493	-119.521	0.230	0.040
-488.478	-65.400	-0.355	0.143
-487.464	103.969	0.118	-0.139
-486.449	-200.000	0.004	0.300
-485.435	10.241	0.264	0.201
-484.420	-200.000	0.031	0.232
-483.405	-6.311	-0.165	0.113
-482.391	23.746	0.098	-0.081
-481.376	426.744	-0.097	-0.209
-480.362	-200.000	0.003	0.190
-479.347	261.672	-0.121	0.209
-478.332	-100.425	-0.165	0.041
-477.318	-200.000	-0.037	-0.351
-476.303	114.726	-0.200	0.244
-475.289	-112.182	-0.130	0.026
-474.274	-132.687	-0.182	0.023
-473.259	800.000	-0.064	0.186
-472.245	353.966	0.018	-0.037
-471.230	26.643	0.298	-0.250
-470.216	95.749	-0.116	0.132
-469.201	-95.840	0.050	-0.013
-468.186	-134.814	-0.184	0.022
-467.172	-67.689	-0.241	-0.094
-466.157	61.302	-0.156	-0.155
-465.143	-200.000	0.029	-0.495
-464.128	189.288	0.083	0.125
-463.113	-200.000	0.057	-0.250
-462.099	-88.219	-0.132	-0.040
-461.084	-164.942	0.278	-0.012
-460.070	114.255	0.036	0.044
-459.055	29.711	-0.185	-0.158
-458.040	-6.192	-0.254	-0.174
-457.026	88.463	-0.140	-0.156
-456.011	-200.000	0.005	-0.166
-454.997	-1.668	0.192	-0.136
-453.982	800.000	-0.087	-0.347
-452.968	-166.312	-0.362	-0.015
-451.953	-86.921	-0.299	0.091
-450.938	-176.898	0.210	-0.005
-449.924	-65.422	0.150	0.060
-448.909	-47.421	0.244	-0.118
-447.895	224.905	-0.016	0.026
-446.880	-200.000	0.001	-0.145
-445.865	588.557	0.067	-0.165
-444.851	52.771	-0.091	-0.087
-443.836	-200.000	0.036	0.163
-442.822	70.195	-0.116	0.120
-441.807	-90.752	0.102	-0.029
-440.792	-200.000	0.021	0.264
-439.778	-200.000	0.056	0.445
-438.763	272.404	0.186	-0.327
-437.749	-142.272	0.182	0.018
-436.734	283.202	-0.069	0.123
-435.719	-200.000	-0.002	0.016
-434.705	12.862	-0.208	-0.160
-433.690	334.156	-0.137	-0.266
-432.676	695.618	0.132	0.346
-431.661	12.052	0.145	-0.111
-430.646	73.694	-0.051	0.054
-429.632	-66.023	0.493	0.197
-428.617	-200.000	-0.041	0.251
-427.603	19.409	0.100	0.080
-426.588	46.152	0.217	0.201
-425.573	-72.220	0.282	-0.104
-424.559	73.302	0.231	-0.242
-423.544	134.562	0.185	0.240
-422.530	800.000	0.071	0.220
-421.515	-15.930	0.136	-0.087
-420.500	75.718	-0.195	0.205
-419.486	131.362	0.230	0.296
-418.471	800.000	-0.017	0.063
-417.457	800.000	-0.018	-0.052
-416.442	641.061	-0.061	0.156
-415.428	-45.287	-0.292	-0.144
-414.413	-200.000	0.035	0.352
-413.398	-61.357	-0.144	-0.061
-412.384	101.609	-0.103	-0.120
-411.369	93.775	0.202	-0.228
-410.355	-80.527	-0.331	0.110
-409.340	168.038	-0.107	0.151
-408.325	107.979	-0.233	0.277
-407.311	455.389	-0.173	0.384
-406.296	-97.430	-0.277	-0.072
-405.282	14.820	0.116	0.091
-404.267	-110.727	-0.263	0.054
-403.252	62.977	0.121	0.121
-402.238	800.000	0.089	0.314
-401.223	800.000	0.083	-0.274
-400.209	-15.661	0.011	0.007
-399.194	236.261	0.085	-0.141
-398.179	32.524	-0.097	-0.084
-397.165	-200.000	0.003	0.255
-396.150	800.000	-0.110	0.341
-395.136	-200.000	-0.007	-0.218
-394.121	-200.000	0.003	-0.134
-393.106	-13.277	-0.066	0.043
-392.092	-200.000	0.006	0.045
-391.077	-57.028	-0.064	-0.028
-390.063	256.423	0.134	0.230
-389.048	800.000	-0.057	0.167
-388.033	-200.000	-0.044	0.258
-387.019	-46.205	-0.226	-0.111
-386.004	111.426	-0.097	-0.116
-384.990	63.453	0.076	0.076
-383.975	425.699	0.076	0.163
-382.960	264.973	0.222	-0.386
-381.946	477.785	-0.078	0.175
-380.931	-82.433	-0.179	0.058
-379.917	-132.797	0.128	-0.016
-378.902	465.914	-0.064	-0.142
-377.888	-132.551	-0.382	-0.049
-376.873	-200.000	-0.008	-0.132
-375.858	-200.000	0.004	0.067
-374.844	-200.000	0.004	0.073
-373.829	118.767	-0.055	-0.068
-372.815	196.766	-0.165	-0.250
-371.800	257.578	0.083	0.143
-370.785	-200.000	-0.004	-0.201
-369.771	-87.262	-0.263	0.079
-368.756	800.000	-0.050	-0.139
-367.742	-58.495	0.070	-0.030
-366.727	27.947	0.098	-0.083
-365.712	800.000	0.045	-0.196
-364.698	94.189	-0.179	0.203
-363.683	-67.647	-0.137	0.054
-362.669	53.579	-0.156	0.149
-361.654	222.254	0.188	0.302
-360.639	-200.000	-0.014	-0.121
-359.625	800.000	0.041	0.149
-358.610	-93.978	-0.124	0.034
-357.596	800.000	-0.030	-0.131
-356.581	-200.000	-0.010	0.049
-355.566	-111.368	0.268	0.055
-354.552	239.497	0.099	-0.164
-353.537	-55.343	-0.540	0.242
-352.523	690.505	0.086	-0.225
-351.508	461.515	0.107	0.238
-350.493	267.826	0.149	-0.259
-349.479	-200.000	-0.017	-0.081
-348.464	-173.767	-0.161	-0.005
-347.450	368.374	-0.103	0.208
-346.435	-5.774	0.348	-0.237
-345.420	800.000	0.010	-0.029
-344.406	800.000	0.046	-0.150
-343.391	-141.733	0.252	-0.025
-342.377	800.000	-0.031	-0.099
-341.362	197.555	0.059	-0.090
-340.348	-68.458	0.195	-0.075
-339.333	-200.000	0.083	-0.398
-338.318	105.831	0.245	-0.289
-337.304	-123.584	0.281	0.044
-336.289	0.305	-0.315	0.224
-335.275	-62.161	-0.150	-0.062
-334.260	-92.033	-0.085	0.024
-333.245	30.350	0.195	-0.166
-332.231	-200.000	-0.016	-0.156
-331.216	496.507	-0.076	0.173
-330.202	30.276	-0.147	-0.125
-329.187	-193.265	0.259	0.002
-328.172	-181.023	-0.126	0.003
-327.158	150.800	-0.238	-0.322
-326.143	242.990	0.026	-0.044
-325.129	-51.604	0.181	-0.084
-324.114	-200.000	0.061	-0.373
-323.099	-33.391	-0.041	0.022
-322.085	-200.000	-0.002	0.189
-321.070	800.000	-0.013	0.037
-320.056	-15.607	-0.104	-0.066
-319.041	-58.830	0.104	0.045
-318.026	800.000	-0.089	0.322
-317.012	-133.942	0.148	-0.018
-315.997	398.689	0.061	0.126
-314.983	800.000	0.076	0.293
-313.968	800.000	-0.091	0.296
-312.953	-200.000	0.042	-0.309
-311.939	64.430	-0.065	0.065
-310.924	-200.000	0.034	0.262
-309.910	-10.909	-0.062	0.040
-308.895	38.577	0.071	-0.063
-307.880	-200.000	0.044	-0.288
-306.866	-94.499	-0.156	0.042
-305.851	9.035	0.190	0.142
-304.837	-121.062	0.142	-0.024
-303.822	800.000	-0.022	0.065
-302.807	-54.487	-0.441	-0.199
-301.793	-95.591	0.211	-0.056
-300.778	256.474	0.100	-0.170
-299.764	800.000	0.051	-0.208
-298.749	213.934	-0.162	-0.254
-297.735	511.665	0.024	0.056
-296.720	-200.000	0.048	0.284
-295.705	-119.065	-0.277	0.048
-294.691	23.275	-0.297	-0.242
-293.676	800.000	-0.094	0.302
-292.662	-105.162	-0.310	-0.070
-291.647	402.095	-0.170	0.356
-290.632	-200.000	-0.017	0.106
-289.618	268.078	-0.153	0.267
-288.603	-125.440	0.162	-0.024
-287.589	-93.543	-0.226	0.062
-286.574	-200.000	0.026	-0.154
-285.559	-103.658	0.241	-0.056
-284.545	800.000	0.047	0.198
-283.530	-86.114	0.216	-0.066
-282.516	-21.648	-0.300	0.182
-281.501	4.205	-0.104	0.075
-280.486	-103.345	-0.312	0.073
-279.472	448.815	0.068	0.149
-278.457	290.079	0.071	-0.128
-277.443	128.292	0.249	0.315
-276.428	38.977	0.158	-0.141
-275.413	84.024	0.210	0.228
-274.399	91.824	-0.126	-0.141
-273.384	-90.862	0.308	0.088
-272.370	-9.165	-0.311	-0.207
-271.355	800.000	-0.068	-0.193
-270.340	475.495	-0.091	0.204
-269.326	-5.662	0.225	-0.153
-268.311	-200.000	0.004	-0.104
-267.297	23.027	0.087	-0.071
-266.282	-200.000	-0.116	-0.579
-265.267	-40.686	0.217	-0.112
-264.253	-13.295	-0.047	-0.030
-263.238	-200.000	-0.011	-0.052
-262.224	353.871	0.119	0.234
-261.209	231.398	-0.253	0.412
-260.195	364.964	-0.106	-0.212
-259.180	-119.167	-0.097	-0.017
-258.165	554.210	0.075	-0.178
-257.151	-78.775	-0.316	0.107
-256.136	-200.000	-0.002	-0.154
-255.122	-123.596	-0.348	0.055
-254.107	450.677	0.083	-0.181
-253.092	71.515	0.198	-0.204
-252.078	590.725	-0.079	0.193
-251.063	-173.836	0.212	0.006
-250.049	49.752	0.097	0.091
-249.034	-101.420	-0.237	0.057
-248.019	288.476	-0.077	0.139
-247.005	-200.000	0.030	0.135
-245.990	266.934	0.087	0.151
-244.976	-38.612	-0.311	-0.163
-243.961	-24.700	0.126	-0.075
-242.946	-200.000	-0.028	0.540
-241.932	792.451	0.136	0.372
-240.917	82.982	0.129	-0.139
-239.903	-23.793	-0.126	0.075
-238.888	5.930	0.131	-0.096
-237.873	-32.618	0.111	0.061
-236.859	-16.198	-0.349	0.220
-235.844	-35.466	-0.184	-0.099
-234.830	146.562	0.212	0.282
-233.815	800.000	0.047	-0.131
-232.800	-176.062	-0.232	0.006
-231.786	-71.303	0.107	0.040
-230.771	100.208	0.183	-0.210
-229.757	543.379	0.114	0.269
-228.742	755.225	-0.067	-0.179
-227.727	-185.577	-0.052	0.001
-226.713	-72.192	0.193	-0.071
-225.698	-152.649	-0.170	-0.012
-224.684	117.231	-0.183	-0.223
-223.669	23.793	0.098	-0.080
-222.655	800.000	-0.100	0.316
-221.640	-200.000	-0.010	0.405
-220.625	592.668	0.092	0.225
-219.611	-79.182	0.023	-0.008
-218.596	99.386	-0.069	-0.079
-217.582	-25.674	-0.097	-0.057
-216.567	-77.939	0.120	-0.041
-215.552	800.000	0.070	0.220
-214.538	471.458	0.090	-0.200
-213.523	-43.881	0.504	0.251
-212.509	451.415	0.044	-0.096
-211.494	800.000	-0.068	-0.197
-210.479	123.861	-0.175	0.218
-209.465	77.826	-0.027	0.029
-208.450	142.398	-0.052	-0.069
-207.436	22.918	-0.333	-0.270
-206.421	48.249	0.202	0.187
-205.406	-200.000	-0.013	-0.123
-204.392	-147.028	-0.343	-0.029
-203.377	-200.000	0.011	0.108
-202.363	4.683	0.184	0.134
-201.348	-52.854	0.264	0.120
-200.333	167.958	-0.091	-0.128
-199.319	28.462	-0.051	-0.043
-198.304	170.785	-0.181	-0.256
-197.290	-129.890	-0.090	-0.012
-196.275	100.583	-0.011	-0.012
-195.260	-200.000	0.004	0.048
-194.246	800.000	0.025	-0.087
-193.231	-122.058	-0.283	-0.046
-192.217	-100.442	0.142	-0.035
-191.202	427.996	-0.070	0.149
-190.187	-32.266	0.318	0.176
-189.173	-133.043	0.234	0.029
-188.158	-200.000	-0.029	-0.146
-187.144	800.000	-0.074	0.209
-186.129	-46.384	-0.118	0.057
-185.114	-128.512	0.363	-0.051
-184.100	150.000	0.156	0.209
-183.085	-59.601	0.121	0.051
-182.071	-97.760	0.150	0.038
-181.056	-109.503	-0.168	-0.035
-180.042	-200.000	-0.011	0.136
-179.027	-200.000	0.004	0.048
-178.012	296.923	-0.054	0.098
-176.998	-200.000	-0.013	-0.212
-175.983	-200.000	-0.031	-0.226
-174.969	125.363	-0.149	-0.185
-173.954	419.942	0.030	-0.063
-172.939	27.075	0.239	-0.199
-171.925	-200.000	0.059	-0.454
-170.910	-77.562	-0.088	0.030
-169.896	-82.967	0.434	-0.138
-168.881	-2.542	0.237	0.164
-167.866	86.906	-0.103	0.113
-166.852	-5.435	-0.364	-0.247
-165.837	-34.412	-0.235	0.127
-164.823	-94.553	-0.463	-0.125
-163.808	418.919	0.105	-0.223
-162.793	-17.981	0.175	-0.108
-161.779	-15.582	0.214	-0.135
-160.764	-200.000	0.008	0.060
-159.750	-17.155	0.227	0.142
-158.735	-54.930	-0.068	-0.030
-157.720	800.000	-0.109	-0.364
-156.706	95.114	-0.121	0.136
-155.691	32.322	-0.171	0.146
-154.677	-134.710	0.283	0.034
-153.662	-2.901	0.229	0.158
-152.647	4.213	0.098	-0.071
-151.633	135.700	-0.156	0.200
-150.618	-151.039	0.097	-0.007
-149.604	-124.448	0.137	0.021
-148.589	82.238	0.035	-0.038
-147.574	-3.855	0.220	-0.151
-146.560	-111.873	-0.386	-0.077
-145.545	-141.088	-0.156	-0.016
-144.531	-63.134	0.358	-0.146
-143.516	-26.830	0.343	-0.198
-142.502	-53.102	0.184	-0.084
-141.487	99.955	-0.173	-0.198
-140.472	223.486	0.146	0.232
-139.458	75.167	-0.079	0.082
-138.443	70.463	-0.096	-0.098
-137.429	-34.430	0.214	0.116
-136.414	-93.787	0.194	0.053
-135.399	25.505	0.310	0.255
-134.385	49.521	-0.115	-0.107
-133.370	-138.353	-0.228	0.025
-132.356	-200.000	0.018	-0.086
-131.341	-52.749	0.481	-0.219
-130.326	331.639	-0.028	0.053
-129.312	-171.386	-0.049	0.002
-128.297	7.300	0.159	0.117
-127.283	211.422	-0.053	0.083
-126.268	28.960	0.174	-0.146
-125.253	-200.000	-0.008	0.070
-124.239	-116.225	0.215	0.039
-123.224	16.110	-0.312	0.243
-122.210	503.875	0.064	0.145
-121.195	800.000	0.025	-0.069
