DTS Sentinel unit serial number:	SN413079Multiplexer serial number:	ORYXHardware model number:	OX4-SRSoftware version number:	ORYX F/W v4.00 Oryx Data Collector v3.7.2.0data status	okinstallation	princeton_trtdifferential loss correction	single-endedforward channel	channel 3reverse channel	N/Adate	2019/09/11time	16:22:11forward acquisition time	60.00reverse acquisition time	0.00gamma	496.2192k internal	0.2287k external	0.2287temperature offset calibration	0.9989default loss term (dB/km)	0.3790temperature slope calibration	1.0000multiplexer offset coefficient	1.0000multiplexer slope coefficient	1.0000fibre end	0.00T internal ref (°C)	43.50T ext. ref 1 (°C)	1.06T ext. ref 2 (°C)	38.21length (m)	temperature (°C)	Stokes	anti-Stokes-747.200	-66.898	0.363	-0.147
-746.185	31.242	-0.171	0.151
-745.171	41.792	0.178	-0.166
-744.156	-33.271	-0.292	0.166
-743.142	91.621	-0.079	-0.092
-742.127	576.548	-0.087	0.219
-741.112	-54.112	-0.124	0.058
-740.098	140.722	0.067	-0.091
-739.083	41.620	0.297	-0.276
-738.069	42.116	-0.041	-0.038
-737.054	110.722	0.105	-0.129
-736.039	-190.229	-0.092	0.001
-735.025	414.890	0.044	0.097
-734.010	800.000	0.191	0.609
-732.996	136.574	-0.129	0.173
-731.981	31.820	-0.145	0.128
-730.966	513.458	-0.174	0.417
-729.952	-48.431	-0.232	-0.115
-728.937	-120.311	-0.158	-0.028
-727.923	-200.000	0.011	0.167
-726.908	189.107	0.115	0.176
-725.894	6.219	-0.084	0.064
-724.879	211.003	-0.174	-0.280
-723.864	56.478	-0.043	0.043
-722.850	800.000	0.049	0.201
-721.835	-87.158	0.109	-0.034
-720.821	-141.700	0.174	-0.018
-719.806	-19.016	0.225	0.143
-718.791	-119.178	-0.248	-0.044
-717.777	-196.320	0.148	-0.001
-716.762	-132.373	0.359	0.048
-715.748	-119.478	0.099	-0.018
-714.733	178.529	-0.105	-0.157
-713.718	-56.570	0.296	0.134
-712.704	327.941	0.124	-0.245
-711.689	350.562	-0.179	0.363
-710.675	790.718	-0.073	0.204
-709.660	-200.000	0.004	-0.066
-708.645	-106.864	-0.158	0.036
-707.631	-119.138	0.241	0.043
-706.616	-31.497	0.340	0.196
-705.602	60.591	0.184	0.186
-704.587	29.348	0.319	-0.278
-703.572	-72.124	-0.233	-0.088
-702.558	188.082	0.121	-0.186
-701.543	10.343	0.053	-0.041
-700.529	-200.000	0.028	0.134
-699.514	-54.341	-0.098	-0.046
-698.499	800.000	0.066	0.270
-697.485	283.131	0.005	-0.008
-696.470	-200.000	-0.007	0.048
-695.456	-200.000	0.016	0.179
-694.441	-47.318	-0.065	-0.032
-693.426	180.414	-0.082	-0.123
-692.412	355.548	-0.132	-0.270
-691.397	-200.000	-0.071	0.417
-690.383	-108.557	-0.363	0.080
-689.368	800.000	0.051	-0.157
-688.354	-200.000	-0.021	-0.264
-687.339	-200.000	0.030	0.159
-686.324	-105.231	-0.168	0.039
-685.310	97.934	-0.214	-0.252
-684.295	-62.338	-0.240	0.102
-683.281	800.000	-0.051	-0.214
-682.266	154.978	0.073	0.103
-681.251	2.564	0.013	0.010
-680.237	-171.358	-0.136	0.005
-679.222	-161.774	0.131	0.007
-678.208	-200.000	0.021	-0.287
-677.193	-23.672	-0.248	0.152
-676.178	-120.793	-0.350	0.060
-675.164	-10.834	0.149	-0.101
-674.149	-38.812	-0.281	-0.151
-673.135	800.000	-0.044	-0.127
-672.120	-125.695	-0.226	0.035
-671.105	-64.094	-0.261	-0.109
-670.091	-86.822	-0.395	-0.123
-669.076	430.387	0.031	0.068
-668.062	72.245	-0.139	-0.148
-667.047	770.660	-0.133	0.370
-666.032	-83.646	-0.043	-0.014
-665.018	-87.144	-0.166	-0.052
-664.003	800.000	-0.032	0.095
-662.989	-66.316	-0.238	-0.097
-661.974	800.000	0.063	-0.188
-660.959	-24.888	0.148	0.090
-659.945	-142.068	-0.476	-0.048
-658.930	279.169	-0.086	-0.157
-657.916	-53.439	0.250	0.117
-656.901	-200.000	-0.004	0.302
-655.886	252.809	-0.045	0.079
-654.872	-173.845	-0.172	-0.005
-653.857	-200.000	-0.009	0.111
-652.843	26.001	0.051	0.044
-651.828	83.682	0.349	-0.389
-650.814	160.142	0.049	0.070
-649.799	-30.047	-0.112	-0.065
-648.784	-99.837	-0.418	-0.107
-647.770	-179.257	-0.113	0.003
-646.755	800.000	0.036	-0.136
-645.741	110.719	0.197	0.242
-644.726	800.000	0.028	0.122
-643.711	207.225	-0.096	-0.153
-642.697	-200.000	-0.036	0.236
-641.682	334.823	-0.050	-0.098
-640.668	-200.000	-0.015	-0.200
-639.653	62.959	0.106	0.109
-638.638	-200.000	0.004	-0.027
-637.624	164.194	0.079	0.113
-636.609	-200.000	-0.014	-0.208
-635.595	800.000	-0.074	-0.322
-634.580	-200.000	-0.020	0.222
-633.565	299.325	-0.075	0.141
-632.551	-200.000	0.006	-0.345
-631.536	33.628	-0.235	-0.209
-630.522	-200.000	-0.011	0.184
-629.507	-94.967	0.081	0.022
-628.492	-200.000	-0.056	-0.256
-627.478	61.162	-0.174	0.177
-626.463	313.832	0.039	0.076
-625.449	-80.353	0.237	-0.081
-624.434	47.476	-0.067	-0.064
-623.419	11.064	0.085	-0.066
-622.405	26.044	0.062	-0.053
-621.390	-91.190	0.071	0.021
-620.376	27.930	-0.188	0.162
-619.361	-51.992	0.114	0.054
-618.346	800.000	0.155	0.571
-617.332	292.318	0.184	0.341
-616.317	16.041	-0.081	0.065
-615.303	74.317	-0.108	0.116
-614.288	-200.000	0.041	-0.439
-613.273	-200.000	0.013	-0.170
-612.259	34.832	-0.108	-0.096
-611.244	800.000	0.042	0.147
-610.230	-52.170	-0.247	0.117
-609.215	200.540	-0.213	-0.334
-608.201	682.235	0.028	0.074
-607.186	-24.732	0.314	-0.190
-606.171	-87.808	0.179	0.055
-605.157	342.160	-0.132	-0.263
-604.142	-200.000	-0.061	-0.308
-603.128	103.355	-0.168	-0.202
-602.113	98.823	-0.246	-0.290
-601.098	461.817	0.113	0.257
-600.084	-87.030	-0.133	0.041
-599.069	-185.753	0.110	0.002
-598.055	-4.585	0.583	0.411
-597.040	-11.972	0.282	0.188
-596.025	436.797	-0.086	0.191
-595.011	-200.000	0.024	-0.173
-593.996	-105.652	0.163	-0.038
-592.982	-58.600	-0.190	0.084
-591.967	303.975	-0.027	0.051
-590.952	-23.111	0.187	0.115
-589.938	-109.025	-0.203	0.044
-588.923	800.000	-0.068	-0.227
-587.909	-65.491	-0.220	-0.090
-586.894	255.348	0.018	0.032
-585.879	800.000	0.130	-0.397
-584.865	800.000	-0.022	-0.099
-583.850	-200.000	0.012	-0.166
-582.836	138.139	0.258	-0.344
-581.821	-200.000	-0.125	0.567
-580.806	21.386	-0.025	-0.021
-579.792	-143.962	-0.241	0.023
-578.777	441.211	-0.120	-0.267
-577.763	309.934	0.043	0.082
-576.748	-124.600	-0.307	-0.048
-575.733	74.751	0.193	0.207
-574.719	-111.405	0.260	0.054
-573.704	171.711	-0.069	0.100
-572.690	-54.063	-0.094	0.044
-571.675	17.213	-0.033	0.026
-570.661	132.795	0.210	-0.276
-569.646	27.104	0.152	-0.130
-568.631	-67.530	-0.282	-0.113
-567.617	488.198	-0.079	0.183
-566.602	-200.000	0.008	-0.157
-565.588	134.000	-0.192	-0.253
-564.573	800.000	0.027	-0.105
-563.558	-105.252	0.050	0.012
-562.544	60.773	-0.083	0.084
-561.529	376.547	-0.100	0.207
-560.515	-83.532	-0.053	0.017
-559.500	-94.551	0.317	-0.088
-558.485	35.892	-0.103	0.093
-557.471	-200.000	0.011	-0.147
-556.456	-51.857	0.226	-0.107
-555.442	-200.000	-0.001	-0.056
-554.427	-74.242	-0.265	0.097
-553.412	800.000	0.022	-0.074
-552.398	-181.286	0.135	0.003
-551.383	-96.462	0.133	0.036
-550.369	40.793	-0.237	0.217
-549.354	-168.945	0.078	0.003
-548.339	800.000	-0.067	0.276
-547.325	-135.936	-0.249	-0.030
-546.310	359.396	-0.078	0.159
-545.296	183.912	-0.052	0.078
-544.281	-64.776	-0.201	-0.083
-543.266	800.000	-0.141	-0.458
-542.252	-106.556	0.384	-0.087
-541.237	-13.189	-0.235	-0.155
-540.223	-59.299	-0.148	0.065
-539.208	-37.266	-0.250	0.136
-538.193	800.000	0.062	0.183
-537.179	529.444	-0.126	-0.302
-536.164	27.964	0.039	0.034
-535.150	-45.854	-0.358	-0.180
-534.135	0.955	-0.481	0.351
-533.121	149.425	-0.094	-0.130
-532.106	-200.000	-0.026	-0.326
-531.091	-12.214	-0.078	-0.052
-530.077	-68.749	-0.111	-0.044
-529.062	-15.765	0.158	-0.102
-528.048	-200.000	0.028	0.299
-527.033	-129.827	0.115	-0.016
-526.018	800.000	0.053	0.194
-525.004	219.695	-0.082	0.133
-523.989	-200.000	0.046	-0.249
-522.975	750.567	-0.047	-0.129
-521.960	3.663	-0.245	0.182
-520.945	-43.442	-0.157	0.081
-519.931	15.769	-0.094	-0.075
-518.916	-74.191	0.440	0.162
-517.902	-141.147	0.042	0.004
-516.887	-200.000	0.036	0.233
-515.872	337.936	-0.132	-0.261
-514.858	129.321	0.060	-0.078
-513.843	-3.759	-0.064	0.045
-512.829	-138.477	0.113	0.013
-511.814	-138.074	0.336	0.038
-510.799	-45.556	-0.319	0.161
-509.785	51.111	-0.212	0.205
-508.770	-109.055	0.092	0.020
-507.756	-133.139	0.235	0.030
-506.741	86.450	0.102	0.115
-505.726	533.413	0.037	0.088
-504.712	-141.240	0.430	0.045
-503.697	-17.444	0.183	-0.117
-502.683	338.664	0.048	0.095
-501.668	22.518	-0.209	-0.174
-500.653	477.235	-0.149	-0.341
-499.639	352.784	-0.071	-0.142
-498.624	-200.000	0.027	-0.202
-497.610	-200.000	0.068	-0.377
-496.595	110.001	-0.258	-0.314
-495.581	114.009	-0.186	-0.230
-494.566	800.000	-0.021	-0.085
-493.551	-200.000	-0.057	0.290
-492.537	-200.000	-0.007	0.262
-491.522	317.028	-0.188	-0.361
-490.508	800.000	-0.112	0.366
-489.493	-200.000	0.010	-0.172
-488.478	-139.685	0.268	-0.029
-487.464	800.000	-0.073	-0.231
-486.449	6.669	0.085	-0.064
-485.435	-96.293	0.160	-0.043
-484.420	-48.979	-0.205	-0.100
-483.405	-200.000	0.043	0.278
-482.391	42.618	-0.194	0.179
-481.376	-61.246	-0.093	0.040
-480.362	317.496	0.143	-0.274
-479.347	800.000	0.123	0.492
-478.332	-2.922	-0.262	-0.186
-477.318	-20.801	0.140	0.087
-476.303	800.000	0.048	0.164
-475.289	5.517	-0.224	0.168
-474.274	-131.040	0.232	-0.031
-473.259	166.272	0.090	-0.130
-472.245	241.299	0.132	0.223
-471.230	470.883	-0.085	0.195
-470.216	294.718	-0.095	0.175
-469.201	438.568	-0.078	0.173
-468.186	-1.124	0.144	0.104
-467.172	509.975	0.023	0.055
-466.157	177.039	-0.207	-0.306
-465.143	73.523	-0.234	0.249
-464.128	-33.022	0.466	-0.262
-463.113	361.572	0.090	-0.182
-462.099	54.586	-0.289	0.282
-461.084	-40.774	-0.081	-0.042
-460.070	800.000	-0.107	0.404
-459.055	273.747	0.063	-0.113
-458.040	305.538	0.114	-0.215
-457.026	-23.343	0.075	-0.046
-456.011	-49.148	-0.118	-0.057
-454.997	-15.486	-0.325	0.211
-453.982	102.861	-0.072	-0.086
-452.968	124.944	0.169	-0.216
-451.953	-90.651	0.164	-0.048
-450.938	-35.485	0.233	-0.128
-449.924	147.100	-0.079	-0.108
-448.909	-140.480	-0.318	0.034
-447.895	341.013	0.158	0.312
-446.880	-110.070	-0.109	-0.023
-445.865	800.000	0.028	0.080
-444.851	-200.000	-0.030	0.182
-443.836	-115.230	0.076	-0.015
-442.822	53.702	0.170	0.166
-441.807	-53.575	-0.219	-0.102
-440.792	476.788	-0.150	-0.344
-439.778	-151.287	0.090	-0.007
-438.763	64.557	-0.058	0.059
-437.749	-45.364	0.163	-0.082
-436.734	-88.394	-0.134	0.041
-435.719	51.158	-0.223	-0.214
-434.705	-103.121	-0.124	-0.030
-433.690	-96.347	-0.102	0.027
-432.676	319.211	-0.100	-0.192
-431.661	-190.459	0.040	0.000
-430.646	-200.000	0.012	-0.122
-429.632	-138.436	-0.065	0.007
-428.617	48.058	0.161	-0.152
-427.603	450.575	0.088	-0.197
-426.588	-33.445	0.218	-0.122
-425.573	-122.178	-0.244	-0.041
-424.559	33.773	-0.038	-0.033
-423.544	-130.549	-0.320	0.044
-422.530	-11.451	-0.277	0.185
-421.515	-140.542	-0.171	0.018
-420.500	73.513	-0.234	0.249
-419.486	-131.436	0.028	-0.004
-418.471	756.409	-0.064	-0.175
-417.457	-200.000	-0.018	-0.455
-416.442	58.731	0.238	-0.237
-415.428	125.811	-0.024	-0.031
-414.413	33.657	0.206	0.181
-413.398	147.639	-0.113	-0.153
-412.384	-30.460	-0.341	-0.196
-411.369	-90.053	-0.113	0.033
-410.355	200.467	0.068	-0.106
-409.340	-45.489	-0.140	0.070
-408.325	-200.000	-0.005	0.100
-407.311	-200.000	0.022	0.214
-406.296	-200.000	-0.005	0.135
-405.282	24.045	-0.156	-0.130
-404.267	106.014	0.020	0.023
-403.252	-72.144	-0.386	-0.145
-402.238	-74.628	-0.325	-0.118
-401.223	-62.360	-0.137	0.058
-400.209	9.750	-0.225	0.173
-399.194	800.000	0.118	-0.350
-398.179	26.312	-0.008	-0.007
-397.165	-44.049	0.386	0.196
-396.150	-200.000	-0.053	0.292
-395.136	-6.839	-0.042	-0.029
-394.121	-200.000	-0.012	-0.272
-393.106	-200.000	0.000	0.372
-392.092	-200.000	-0.094	0.447
-391.077	39.776	0.163	0.148
-390.063	-67.206	-0.245	-0.098
-389.048	10.568	-0.205	0.158
-388.033	-166.494	-0.157	-0.007
-387.019	-117.915	-0.165	-0.030
-386.004	-103.970	0.424	0.100
-384.990	-69.644	-0.095	0.037
-383.975	176.892	0.051	-0.075
-382.960	-153.274	0.067	0.005
-381.946	441.341	0.058	-0.129
-380.931	-119.357	0.054	-0.010
-379.917	-113.901	-0.226	-0.044
-378.902	-200.000	0.032	0.196
-377.888	-200.000	-0.011	0.083
-376.873	-200.000	-0.022	0.292
-375.858	-14.578	-0.044	0.029
-374.844	-62.229	0.209	0.088
-373.829	-26.497	0.035	0.021
-372.815	-22.986	0.317	0.193
-371.800	-200.000	-0.013	-0.097
-370.785	-70.184	0.393	-0.151
-369.771	49.579	-0.105	-0.100
-368.756	436.764	-0.028	-0.062
-367.742	-11.361	0.077	-0.051
-366.727	-35.712	0.191	0.105
-365.712	-2.406	-0.464	-0.328
-364.698	-78.278	-0.363	-0.126
-363.683	-108.112	0.131	-0.029
-362.669	800.000	-0.012	-0.045
-361.654	-61.121	-0.119	-0.051
-360.639	4.929	0.236	-0.176
-359.625	-121.195	-0.062	0.010
-358.610	-173.468	0.112	-0.003
-357.596	-108.869	-0.363	-0.078
-356.581	112.328	0.181	-0.222
-355.566	-47.699	0.166	0.082
-354.552	-24.954	0.099	-0.059
-353.537	-200.000	0.004	-0.108
-352.523	201.232	0.241	-0.374
-351.508	800.000	0.040	-0.144
-350.493	-104.531	-0.249	0.058
-349.479	-200.000	-0.040	-0.245
-348.464	253.472	0.260	0.449
-347.450	83.796	-0.228	-0.252
-346.435	-141.103	-0.086	0.009
-345.420	298.886	-0.133	0.246
-344.406	-170.778	0.214	0.007
-343.391	800.000	-0.117	0.331
-342.377	-16.740	0.305	-0.195
-341.362	-122.696	-0.352	-0.058
-340.348	187.512	0.022	0.033
-339.333	180.305	0.107	0.159
-338.318	189.327	0.152	-0.229
-337.304	-19.700	0.082	-0.051
-336.289	-67.745	0.136	0.054
-335.275	-118.554	0.066	0.012
-334.260	522.102	-0.040	-0.094
-333.245	-200.000	-0.000	-0.253
-332.231	800.000	0.054	-0.233
-331.216	39.011	0.072	-0.065
-330.202	512.519	0.096	-0.226
-329.187	44.801	0.284	0.264
-328.172	63.159	-0.189	-0.191
-327.158	35.342	0.100	0.089
-326.143	-90.457	0.411	0.120
-325.129	-200.000	0.007	0.182
-324.114	0.356	0.098	-0.070
-323.099	800.000	-0.008	-0.034
-322.085	-45.630	0.182	-0.091
-321.070	92.371	0.261	-0.297
-320.056	-1.376	0.066	0.047
-319.041	-141.546	0.325	-0.033
-318.026	800.000	-0.105	-0.383
-317.012	800.000	-0.064	0.194
-315.997	-64.723	0.232	0.095
-314.983	354.855	0.125	-0.251
-313.968	-50.733	-0.305	0.145
-312.953	258.279	-0.159	0.277
-311.939	-98.548	-0.117	-0.030
-310.924	54.651	-0.178	-0.173
-309.910	-144.951	-0.077	0.007
-308.895	53.268	0.247	-0.239
-307.880	-116.335	-0.140	0.026
-306.866	136.036	0.092	-0.121
-305.851	235.512	-0.188	-0.312
-304.837	800.000	-0.088	-0.352
-303.822	-65.700	-0.099	-0.040
-302.807	-111.799	-0.042	0.009
-301.793	218.034	-0.083	-0.133
-300.778	-200.000	0.077	-0.398
-299.764	120.475	0.038	-0.047
-298.749	-166.694	0.216	-0.009
-297.735	13.104	-0.041	0.032
-296.720	43.973	0.162	-0.150
-295.705	800.000	-0.033	-0.107
-294.691	-19.237	0.208	-0.130
-293.676	36.014	0.168	0.149
-292.662	226.459	-0.200	0.327
-291.647	783.889	-0.068	-0.188
-290.632	176.738	0.147	0.215
-289.618	698.770	0.114	0.301
-288.603	254.612	0.181	0.312
-287.589	403.398	-0.126	0.267
-286.574	-200.000	-0.024	0.266
-285.559	-47.359	0.152	0.075
-284.545	-97.849	0.115	0.030
-283.530	476.372	0.160	-0.365
-282.516	-35.204	0.083	-0.046
-281.501	-83.867	0.387	0.124
-280.486	92.969	-0.057	-0.065
-279.472	542.153	-0.115	-0.275
-278.457	-200.000	0.014	-0.163
-277.443	-200.000	-0.000	0.179
-276.428	-161.813	0.149	0.008
-275.413	-135.278	-0.290	-0.035
-274.399	-139.241	0.354	-0.038
-273.384	42.169	0.116	0.106
-272.370	-200.000	-0.034	0.156
-271.355	-200.000	-0.021	-0.281
-270.340	-121.262	0.267	-0.045
-269.326	68.793	-0.164	0.169
-268.311	122.711	-0.082	0.103
-267.297	-99.792	-0.165	0.042
-266.282	74.471	0.323	-0.342
-265.267	-8.878	0.282	-0.190
-264.253	-106.862	-0.316	0.070
-263.238	-120.060	-0.034	0.006
-262.224	91.243	-0.088	0.100
-261.209	47.783	0.292	0.275
-260.195	-123.055	0.220	0.036
-259.180	-174.790	-0.287	-0.008
-258.165	6.035	0.270	-0.201
-257.151	-71.261	0.073	0.027
-256.136	-176.243	-0.517	-0.014
-255.122	-200.000	0.007	0.128
-254.107	26.516	-0.106	-0.089
-253.092	-67.187	0.126	-0.050
-252.078	-200.000	-0.023	-0.246
-251.063	-79.696	-0.216	0.073
-250.049	26.448	0.185	0.156
-249.034	200.985	-0.065	0.101
-248.019	-171.312	-0.318	0.011
-247.005	800.000	-0.037	-0.115
-245.990	421.716	0.116	-0.250
-244.976	108.895	0.288	0.346
-243.961	128.023	-0.078	0.100
-242.946	-93.356	-0.306	0.085
-241.932	67.272	0.171	-0.175
-240.917	-200.000	-0.006	-0.032
-239.903	-2.849	-0.228	-0.160
-238.888	369.828	0.093	0.190
-237.873	170.788	-0.094	-0.136
-236.859	-16.528	0.272	0.173
-235.844	373.312	0.193	0.394
-234.830	61.490	-0.022	0.022
-233.815	-58.212	-0.170	0.074
-232.800	97.460	-0.105	-0.121
-231.786	4.800	0.238	0.176
-230.771	-45.544	-0.308	0.153
-229.757	741.934	0.114	0.308
-228.742	-25.779	-0.138	-0.082
-227.727	10.399	0.055	-0.042
-226.713	-200.000	0.023	0.167
-225.698	-170.633	0.041	-0.001
-224.684	-34.517	0.444	0.244
-223.669	227.195	-0.137	0.224
-222.655	41.686	-0.174	0.159
-221.640	-159.429	-0.197	0.011
-220.625	-200.000	-0.024	0.119
-219.611	-200.000	0.015	-0.157
-218.596	-28.252	0.229	0.133
-217.582	-151.404	0.201	0.015
-216.567	-200.000	-0.019	-0.150
-215.552	240.412	0.090	0.151
-214.538	-11.515	0.148	0.098
-213.523	-36.755	0.497	0.268
-212.509	-90.918	0.352	0.102
-211.494	800.000	0.065	0.199
-210.479	222.901	0.041	0.067
-209.465	-127.119	0.260	0.038
-208.450	36.964	0.199	-0.177
-207.436	-200.000	-0.038	0.272
-206.421	731.548	0.103	0.276
-205.406	143.833	0.107	0.143
-204.392	-40.441	-0.285	-0.148
-203.377	800.000	-0.068	-0.288
-202.363	-121.797	-0.478	-0.079
-201.348	800.000	0.016	0.058
-200.333	-166.139	0.049	-0.002
-199.319	33.787	-0.425	-0.371
-198.304	-171.726	-0.009	0.000
-197.290	-122.065	0.249	-0.041
-196.275	268.575	0.111	-0.196
-195.260	-200.000	0.013	-0.082
-194.246	-38.158	0.199	0.106
-193.231	-130.989	0.254	0.034
-192.217	417.826	-0.070	0.150
-191.202	-8.280	-0.114	-0.077
-190.187	-89.105	0.370	-0.110
-189.173	71.518	-0.114	0.119
-188.158	177.807	-0.111	0.162
-187.144	-1.400	0.200	0.141
-186.129	-92.124	0.191	0.054
-185.114	-59.342	-0.137	0.059
-184.100	-200.000	-0.013	0.282
-183.085	-200.000	0.005	0.216
-182.071	-41.287	0.129	0.067
-181.056	15.279	-0.104	0.082
-180.042	329.013	-0.157	0.303
-179.027	-200.000	-0.036	0.352
-178.012	800.000	-0.124	-0.353
-176.998	-14.817	0.343	0.221
-175.983	-41.102	0.285	0.148
-174.969	-200.000	-0.011	-0.157
-173.954	-200.000	0.050	0.327
-172.939	-200.000	0.072	0.405
-171.925	-200.000	-0.010	0.052
-170.910	176.554	-0.050	-0.072
-169.896	46.962	-0.134	0.125
-168.881	-127.671	0.173	0.025
-167.866	-21.770	-0.118	-0.072
-166.852	29.431	0.192	0.163
-165.837	86.439	-0.097	0.107
-164.823	-123.430	-0.327	-0.052
-163.808	-84.247	-0.145	-0.046
-162.793	-116.664	0.096	0.018
-161.779	-121.090	0.019	-0.003
-160.764	-200.000	0.030	-0.213
-159.750	262.711	0.022	-0.039
-158.735	-47.696	0.229	0.111
-157.720	235.158	-0.110	-0.183
-156.706	111.336	0.086	0.103
-155.691	800.000	-0.038	-0.167
-154.677	-3.246	0.115	-0.080
-153.662	-172.584	-0.084	0.003
-152.647	-200.000	0.014	0.314
-151.633	105.590	0.088	-0.105
-150.618	-140.762	0.154	0.016
-149.604	-200.000	-0.007	-0.166
-148.589	640.991	-0.101	-0.258
-147.574	95.167	0.150	0.171
-146.560	-128.788	-0.197	0.028
-145.545	-1.858	0.083	-0.058
-144.531	-128.485	-0.207	-0.029
-143.516	558.492	0.008	0.020
-142.502	32.849	-0.167	0.145
-141.487	130.488	0.188	0.241
-140.472	341.780	-0.091	0.178
-139.458	374.948	-0.069	0.141
-138.443	-200.000	-0.011	-0.279
-137.429	-109.721	0.288	0.061
-136.414	0.696	-0.136	-0.097
-135.399	88.336	0.246	-0.274
-134.385	-200.000	-0.037	0.253
-133.370	-200.000	0.002	0.232
-132.356	-129.383	-0.240	0.033
-131.341	800.000	0.034	-0.122
-130.326	-40.384	0.107	0.056
-129.312	47.199	-0.254	-0.236
-128.297	63.991	-0.117	0.118
-127.283	-133.770	-0.358	0.045
-126.268	127.339	-0.134	-0.170
-125.253	-99.442	0.254	-0.064
-124.239	-200.000	0.018	-0.311
-123.224	-146.707	-0.214	-0.019
-122.210	-87.834	-0.223	0.067
-121.195	-169.197	-0.324	-0.012
