DTS Sentinel unit serial number:	SN413079Multiplexer serial number:	ORYXHardware model number:	OX4-SRSoftware version number:	ORYX F/W v4.00 Oryx Data Collector v3.7.2.0data status	okinstallation	princeton_trtdifferential loss correction	single-endedforward channel	channel 3reverse channel	N/Adate	2019/09/11time	03:30:11forward acquisition time	60.00reverse acquisition time	0.00gamma	496.2192k internal	0.2330k external	0.2330temperature offset calibration	0.9912default loss term (dB/km)	0.3790temperature slope calibration	1.0000multiplexer offset coefficient	1.0000multiplexer slope coefficient	1.0000fibre end	0.00T internal ref (°C)	29.44T ext. ref 1 (°C)	-0.29T ext. ref 2 (°C)	24.09length (m)	temperature (°C)	Stokes	anti-Stokes-747.200	-154.360	-0.303	0.021
-746.185	-200.000	0.035	0.320
-745.171	-148.924	-0.191	0.015
-744.156	-46.164	0.114	-0.057
-743.142	139.058	-0.036	0.048
-742.127	800.000	-0.064	0.271
-741.112	-31.716	-0.058	-0.033
-740.098	-111.374	-0.129	0.026
-739.083	39.271	0.027	0.024
-738.069	-121.940	0.088	0.015
-737.054	-58.838	0.194	0.085
-736.039	-43.756	-0.286	-0.145
-735.025	-28.209	-0.227	-0.132
-734.010	134.525	-0.232	-0.303
-732.996	-200.000	0.005	-0.162
-731.981	-200.000	0.083	-0.391
-730.966	-200.000	-0.069	-0.355
-729.952	-200.000	0.052	-0.290
-728.937	-55.465	-0.144	-0.065
-727.923	-57.033	-0.228	-0.101
-726.908	560.420	-0.061	-0.148
-725.894	511.058	-0.142	0.332
-724.879	800.000	0.089	-0.319
-723.864	-200.000	-0.004	0.042
-722.850	143.593	-0.125	-0.167
-721.835	94.986	-0.280	-0.321
-720.821	35.216	0.171	-0.151
-719.806	374.553	0.078	0.161
-718.791	140.983	-0.074	-0.099
-717.777	-87.466	0.172	-0.052
-716.762	268.686	-0.085	0.150
-715.748	-135.727	-0.139	-0.017
-714.733	168.969	-0.094	-0.135
-713.718	-138.701	0.281	-0.031
-712.704	99.361	-0.256	0.297
-711.689	4.383	-0.259	0.191
-710.675	133.555	-0.071	-0.093
-709.660	-67.707	-0.122	-0.048
-708.645	-145.090	-0.087	0.008
-707.631	164.387	0.101	0.143
-706.616	82.522	0.231	0.252
-705.602	573.719	-0.141	-0.345
-704.587	-67.883	0.090	0.035
-703.572	800.000	0.054	-0.195
-702.558	-4.126	0.248	-0.173
-701.543	-200.000	-0.047	-0.319
-700.529	798.533	0.067	-0.187
-699.514	-42.797	0.326	0.166
-698.499	-59.781	-0.324	0.140
-697.485	800.000	-0.038	-0.136
-696.470	247.663	-0.085	-0.144
-695.456	652.777	0.084	-0.217
-694.441	3.761	0.300	0.220
-693.426	-30.310	-0.360	-0.205
-692.412	-2.638	0.289	0.203
-691.397	360.274	0.074	-0.149
-690.383	-85.228	0.279	-0.087
-689.368	-19.492	0.034	-0.021
-688.354	-124.202	-0.163	0.026
-687.339	204.466	-0.094	0.146
-686.324	55.430	-0.351	-0.342
-685.310	-128.288	-0.168	-0.024
-684.295	83.298	-0.056	0.061
-683.281	800.000	-0.067	0.206
-682.266	89.729	-0.045	0.050
-681.251	18.798	0.413	-0.332
-680.237	-73.500	-0.318	0.117
-679.222	800.000	0.083	0.333
-678.208	800.000	-0.132	-0.416
-677.193	-126.575	0.244	0.036
-676.178	113.451	-0.019	-0.023
-675.164	445.060	-0.100	-0.220
-674.149	-1.751	0.239	-0.169
-673.135	20.109	-0.178	-0.144
-672.120	-200.000	0.040	-0.259
-671.105	35.367	-0.081	0.071
-670.091	-2.021	-0.228	0.161
-669.076	203.391	0.106	-0.164
-668.062	-200.000	-0.014	0.098
-667.047	-89.109	-0.258	-0.077
-666.032	-72.152	0.268	0.100
-665.018	-14.552	0.066	-0.043
-664.003	-99.726	-0.042	0.010
-662.989	800.000	0.091	-0.396
-661.974	-135.405	-0.226	0.027
-660.959	-175.774	-0.082	-0.002
-659.945	-74.747	0.145	-0.052
-658.930	-64.349	-0.227	0.093
-657.916	-85.991	0.351	-0.109
-656.901	-76.047	-0.081	-0.029
-655.886	800.000	0.118	0.414
-654.872	-200.000	0.047	0.220
-653.857	-200.000	-0.088	0.389
-652.843	103.718	0.078	-0.092
-651.828	7.958	0.051	-0.039
-650.814	167.473	-0.085	-0.121
-649.799	-16.462	0.169	-0.108
-648.784	88.488	0.173	-0.193
-647.770	119.115	-0.330	-0.409
-646.755	-200.000	-0.042	-0.349
-645.741	340.844	-0.200	0.392
-644.726	-63.000	-0.165	0.068
-643.711	169.417	0.212	0.303
-642.697	83.481	-0.175	0.192
-641.682	422.415	0.257	-0.553
-640.668	523.584	-0.024	0.056
-639.653	171.940	-0.055	-0.080
-638.638	319.600	-0.193	-0.366
-637.624	-61.515	-0.235	-0.099
-636.609	21.654	-0.178	-0.145
-635.595	-103.108	-0.402	-0.095
-634.580	800.000	0.065	-0.238
-633.565	-200.000	0.042	0.309
-632.551	-200.000	-0.045	-0.415
-631.536	179.901	-0.221	-0.325
-630.522	800.000	-0.036	0.108
-629.507	41.301	-0.108	-0.098
-628.492	293.055	0.047	-0.086
-627.478	800.000	-0.037	-0.136
-626.463	220.577	0.204	-0.328
-625.449	3.306	-0.099	-0.072
-624.434	105.234	0.244	-0.289
-623.419	199.815	-0.053	-0.081
-622.405	-95.431	-0.052	-0.014
-621.390	1.263	0.198	0.142
-620.376	150.886	-0.098	-0.133
-619.361	588.953	0.069	-0.171
-618.346	-168.251	0.142	-0.005
-617.332	800.000	-0.173	0.634
-616.317	800.000	-0.046	0.146
-615.303	-200.000	0.025	0.131
-614.288	140.925	0.137	0.181
-613.273	-200.000	0.010	0.205
-612.259	576.399	-0.037	0.090
-611.244	83.741	-0.174	0.190
-610.230	412.157	-0.068	0.145
-609.215	-200.000	-0.059	-0.330
-608.201	183.335	0.142	-0.211
-607.186	800.000	-0.186	-0.605
-606.171	800.000	-0.101	0.291
-605.157	-200.000	0.007	-0.187
-604.142	176.136	0.020	-0.029
-603.128	210.276	0.188	-0.296
-602.113	-200.000	0.011	-0.127
-601.098	-11.265	0.147	-0.097
-600.084	-200.000	-0.020	0.117
-599.069	-103.159	-0.220	-0.052
-598.055	800.000	0.071	0.312
-597.040	-131.035	-0.074	-0.010
-596.025	68.341	-0.144	-0.147
-595.011	162.906	0.232	0.327
-593.996	532.879	-0.062	-0.147
-592.982	-200.000	0.016	-0.229
-591.967	13.934	0.219	0.171
-590.952	-200.000	0.009	-0.216
-589.938	800.000	0.098	-0.272
-588.923	-98.855	-0.209	-0.053
-587.909	-200.000	0.011	-0.332
-586.894	-93.024	-0.180	0.050
-585.879	-82.676	0.193	-0.063
-584.865	-73.270	0.390	0.143
-583.850	219.696	-0.116	0.185
-582.836	458.711	-0.126	0.281
-581.821	70.953	0.214	0.221
-580.806	84.981	-0.075	0.082
-579.792	-200.000	-0.005	0.064
-578.777	568.476	0.120	-0.291
-577.763	-200.000	0.004	0.033
-576.748	-0.414	-0.446	-0.317
-575.733	104.966	-0.082	-0.097
-574.719	-200.000	0.101	0.448
-573.704	-6.607	0.185	-0.126
-572.690	-156.870	-0.143	0.009
-571.675	-200.000	-0.038	-0.197
-570.661	800.000	-0.081	-0.236
-569.646	-14.184	0.403	-0.260
-568.631	800.000	-0.101	0.344
-567.617	-56.636	0.146	0.065
-566.602	-103.268	0.166	0.039
-565.588	-76.415	0.120	0.042
-564.573	426.984	0.180	0.387
-563.558	-200.000	-0.057	0.255
-562.544	29.365	-0.067	-0.057
-561.529	42.866	-0.247	0.225
-560.515	43.526	0.168	0.154
-559.500	-56.107	-0.114	-0.051
-558.485	12.020	0.124	0.095
-557.471	-200.000	0.019	-0.159
-556.456	-121.061	-0.174	-0.029
-555.442	-200.000	0.002	0.045
-554.427	800.000	0.074	-0.213
-553.412	87.832	0.166	-0.184
-552.398	-200.000	0.048	-0.242
-551.383	116.887	0.255	0.313
-550.369	5.744	-0.163	-0.120
-549.354	-121.175	0.340	-0.057
-548.339	-114.856	0.165	-0.031
-547.325	726.113	0.054	-0.145
-546.310	-74.779	0.223	-0.080
-545.296	212.189	-0.211	-0.333
-544.281	27.942	-0.329	-0.277
-543.266	-200.000	0.024	-0.228
-542.252	-36.150	-0.128	0.069
-541.237	-200.000	-0.267	-0.000
-540.223	-180.201	0.207	0.004
-539.208	800.000	0.036	0.104
-538.193	72.405	-0.256	0.267
-537.179	-59.781	0.043	0.018
-536.164	121.922	-0.192	0.239
-535.150	-177.762	0.258	-0.006
-534.135	-200.000	-0.013	0.156
-533.121	-31.700	-0.187	-0.105
-532.106	-28.976	-0.096	0.055
-531.091	13.994	-0.274	0.213
-530.077	421.494	0.057	0.122
-529.062	-169.123	0.108	0.004
-528.048	56.063	-0.111	-0.107
-527.033	6.718	-0.193	-0.143
-526.018	-118.769	-0.268	0.047
-525.004	-39.520	-0.032	0.017
-523.989	118.673	-0.055	0.067
-522.975	-168.120	-0.279	-0.011
-521.960	-47.715	0.115	-0.056
-520.945	146.991	0.229	-0.308
-519.931	465.537	0.139	-0.310
-518.916	-200.000	-0.017	0.147
-517.902	-81.896	0.103	-0.034
-516.887	-123.894	-0.115	-0.018
-515.872	-98.099	0.057	0.015
-514.858	75.149	-0.169	0.177
-513.843	-112.225	0.268	0.054
-512.829	-55.192	-0.326	0.146
-511.814	800.000	0.044	-0.161
-510.799	-200.000	0.003	0.136
-509.785	-105.794	0.091	-0.021
-508.770	0.657	-0.255	0.182
-507.756	-117.261	-0.031	0.006
-506.741	-72.272	-0.438	0.162
-505.726	-120.959	-0.217	-0.036
-504.712	-48.163	0.027	0.013
-503.697	318.779	-0.113	-0.214
-502.683	133.565	0.147	-0.190
-501.668	-29.178	-0.231	-0.132
-500.653	325.297	0.039	-0.074
-499.639	167.248	0.131	-0.185
-498.624	21.121	-0.369	-0.299
-497.610	-126.057	-0.184	-0.028
-496.595	-142.323	-0.093	0.009
-495.581	800.000	0.106	0.303
-494.566	788.993	0.009	0.025
-493.551	135.037	0.174	0.225
-492.537	131.654	-0.280	0.359
-491.522	-31.889	0.288	-0.161
-490.508	-69.783	-0.083	0.032
-489.493	-200.000	0.002	-0.244
-488.478	1.605	0.158	-0.113
-487.464	-200.000	-0.056	-0.481
-486.449	-200.000	0.039	0.416
-485.435	-200.000	0.009	0.123
-484.420	-87.079	-0.137	-0.042
-483.405	148.604	0.220	0.297
-482.391	-183.649	-0.113	0.002
-481.376	122.830	0.110	0.137
-480.362	-200.000	-0.015	-0.272
-479.347	-95.257	-0.109	-0.029
-478.332	9.981	-0.260	0.197
-477.318	-116.303	0.190	0.035
-476.303	-105.200	0.228	0.052
-475.289	-76.804	0.283	-0.099
-474.274	184.568	-0.142	0.210
-473.259	-200.000	-0.005	0.046
-472.245	-109.502	0.201	0.042
-471.230	-200.000	-0.047	-0.301
-470.216	800.000	0.028	0.118
-469.201	408.637	0.069	-0.146
-468.186	-200.000	0.001	-0.497
-467.172	-139.996	-0.316	-0.033
-466.157	101.594	-0.246	-0.286
-465.143	-200.000	-0.035	0.266
-464.128	-200.000	-0.032	0.249
-463.113	739.523	-0.074	-0.197
-462.099	134.740	0.095	-0.123
-461.084	4.564	-0.203	0.149
-460.070	-18.458	0.139	-0.086
-459.055	-200.000	-0.001	0.077
-458.040	119.530	-0.095	0.117
-457.026	-125.050	0.205	0.031
-456.011	-1.006	-0.058	-0.041
-454.997	92.047	0.185	0.207
-453.982	-200.000	0.035	-0.278
-452.968	-33.279	-0.445	-0.245
-451.953	25.930	-0.008	0.007
-450.938	-90.917	-0.516	-0.148
-449.924	209.280	0.034	0.053
-448.909	-200.000	-0.013	-0.288
-447.895	-39.366	0.392	0.205
-446.880	-200.000	0.025	0.186
-445.865	-12.679	-0.272	-0.177
-444.851	-200.000	-0.017	-0.103
-443.836	72.579	-0.034	0.036
-442.822	78.752	-0.029	-0.031
-441.807	-30.077	-0.136	0.077
-440.792	59.876	-0.239	0.235
-439.778	317.470	0.102	0.192
-438.763	207.102	-0.143	0.221
-437.749	735.528	0.050	0.133
-436.734	-80.477	0.093	0.031
-435.719	746.964	0.152	0.408
-434.705	769.418	0.059	0.161
-433.690	-15.689	0.358	0.227
-432.676	800.000	-0.047	-0.197
-431.661	-3.664	0.187	-0.129
-430.646	-90.040	0.206	-0.060
-429.632	-104.623	0.114	-0.026
-428.617	-36.314	0.178	0.095
-427.603	94.658	0.142	0.161
-426.588	-200.000	-0.026	0.338
-425.573	165.171	-0.214	-0.301
-424.559	461.637	0.183	0.406
-423.544	245.755	-0.091	-0.152
-422.530	293.348	-0.157	0.284
-421.515	5.272	-0.263	0.193
-420.500	-5.603	-0.051	0.035
-419.486	800.000	0.063	-0.271
-418.471	172.300	-0.058	-0.083
-417.457	505.966	0.106	-0.245
-416.442	46.642	0.153	0.141
-415.428	84.337	0.106	-0.116
-414.413	800.000	0.026	0.072
-413.398	-58.061	-0.079	0.034
-412.384	800.000	0.058	-0.176
-411.369	-135.464	-0.134	0.016
-410.355	-28.208	-0.335	0.192
-409.340	-38.800	0.252	0.132
-408.325	-87.728	-0.149	0.045
-407.311	113.390	-0.054	0.065
-406.296	249.257	0.137	-0.230
-405.282	374.336	0.141	0.284
-404.267	2.971	-0.064	-0.046
-403.252	-200.000	0.000	0.180
-402.238	-36.649	0.308	-0.165
-401.223	-163.781	0.331	-0.015
-400.209	53.590	0.217	-0.206
-399.194	-28.820	-0.266	-0.152
-398.179	124.670	-0.087	-0.109
-397.165	317.972	0.238	0.448
-396.150	-78.373	0.292	-0.099
-395.136	-200.000	-0.025	0.124
-394.121	-200.000	-0.050	0.343
-393.106	-146.468	0.254	0.022
-392.092	800.000	0.138	-0.433
-391.077	-20.693	0.037	-0.022
-390.063	-13.363	-0.181	0.117
-389.048	-25.757	-0.246	0.144
-388.033	-55.196	0.211	0.094
-387.019	248.341	-0.140	-0.234
-386.004	285.370	-0.217	0.388
-384.990	-71.227	-0.398	-0.148
-383.975	-200.000	-0.001	0.015
-382.960	-41.110	-0.248	-0.127
-381.946	-179.092	-0.056	0.001
-380.931	40.693	0.080	0.071
-379.917	-80.884	0.348	0.114
-378.902	161.299	-0.127	-0.177
-377.888	-124.741	0.155	-0.024
-376.873	-200.000	0.021	-0.151
-375.858	89.020	-0.249	0.275
-374.844	-200.000	-0.031	-0.160
-373.829	67.296	0.140	-0.142
-372.815	-139.065	0.186	-0.020
-371.800	58.638	-0.193	0.188
-370.785	49.391	0.162	0.151
-369.771	-200.000	-0.007	-0.232
-368.756	-200.000	-0.013	0.166
-367.742	215.211	-0.286	0.450
-366.727	-120.000	0.430	0.073
-365.712	60.993	-0.182	-0.180
-364.698	-74.575	0.083	-0.030
-363.683	-46.989	0.130	0.063
-362.669	-43.591	-0.360	-0.180
-361.654	568.341	0.029	0.069
-360.639	344.536	0.149	-0.291
-359.625	114.714	-0.304	-0.368
-358.610	800.000	0.052	-0.176
-357.596	-200.000	-0.390	0.001
-356.581	219.079	0.123	0.195
-355.566	735.204	0.073	0.195
-354.552	-170.674	0.191	0.007
-353.537	-188.079	0.086	0.001
-352.523	-127.568	0.035	0.005
-351.508	309.326	0.129	0.239
-350.493	-56.970	-0.196	0.086
-349.479	193.522	0.070	-0.105
-348.464	140.898	-0.111	0.145
-347.450	-120.756	0.077	0.013
-346.435	86.571	0.077	-0.084
-345.420	223.069	-0.193	-0.308
-344.406	-40.584	0.273	-0.141
-343.391	233.669	-0.134	0.219
-342.377	-24.180	-0.075	-0.044
-341.362	-128.857	-0.198	-0.028
-340.348	-36.681	-0.235	0.125
-339.333	-145.358	-0.183	0.016
-338.318	526.251	0.112	0.261
-337.304	321.975	0.090	-0.171
-336.289	-116.479	0.208	0.038
-335.275	-59.625	0.103	0.044
-334.260	-124.835	-0.306	0.047
-333.245	348.596	0.102	-0.200
-332.231	-122.407	-0.251	-0.040
-331.216	-108.711	0.209	0.044
-330.202	400.707	0.012	0.026
-329.187	-127.771	-0.252	0.036
-328.172	-200.000	-0.016	0.242
-327.158	-164.224	0.249	-0.011
-326.143	-200.000	0.032	0.387
-325.129	800.000	-0.142	-0.426
-324.114	626.711	-0.093	0.232
-323.099	-56.641	0.179	0.079
-322.085	-139.417	-0.106	0.011
-321.070	-157.465	0.343	-0.020
-320.056	-116.212	0.073	-0.013
-319.041	-200.000	-0.019	-0.232
-318.026	581.868	0.048	0.117
-317.012	-53.458	-0.229	0.104
-315.997	-200.000	-0.104	0.000
-314.983	-30.793	0.248	0.139
-313.968	468.326	0.200	-0.445
-312.953	-44.275	0.142	0.071
-311.939	-64.317	-0.044	-0.018
-310.924	340.577	0.039	-0.075
-309.910	-140.641	0.270	-0.028
-308.895	-109.528	0.254	0.053
-307.880	194.662	-0.017	0.025
-306.866	-32.132	0.169	-0.093
-305.851	-70.517	0.202	-0.075
-304.837	-32.660	-0.226	-0.124
-303.822	800.000	0.011	-0.044
-302.807	-44.440	0.014	-0.007
-301.793	-200.000	0.003	-0.130
-300.778	385.701	0.084	-0.171
-299.764	359.342	0.125	0.248
-298.749	-78.400	-0.190	0.064
-297.735	-70.778	-0.163	-0.061
-296.720	78.172	0.041	-0.044
-295.705	19.756	0.166	0.132
-294.691	800.000	0.050	0.185
-293.676	-94.385	-0.242	-0.065
-292.662	58.354	-0.258	-0.251
-291.647	-139.076	-0.337	-0.036
-290.632	93.298	-0.121	-0.135
-289.618	69.786	-0.097	0.099
-288.603	-200.000	-0.038	0.337
-287.589	-7.408	0.412	-0.276
-286.574	-193.613	-0.221	-0.002
-285.559	246.679	-0.226	-0.377
-284.545	-200.000	-0.030	0.308
-283.530	-169.938	-0.142	-0.005
-282.516	253.026	-0.193	-0.326
-281.501	-182.581	-0.099	0.002
-280.486	135.650	0.085	-0.109
-279.472	-28.226	-0.138	0.079
-278.457	-200.000	0.029	0.143
-277.443	-161.496	0.108	-0.005
-276.428	-200.000	0.004	0.019
-275.413	-109.279	0.225	-0.047
-274.399	42.583	0.156	0.140
-273.384	-200.000	-0.032	0.207
-272.370	271.978	0.082	-0.143
-271.355	5.788	0.141	-0.103
-270.340	-200.000	0.034	0.207
-269.326	-104.697	-0.288	0.066
-268.311	-200.000	0.010	0.256
-267.297	800.000	-0.099	0.379
-266.282	-31.737	0.352	0.195
-265.267	-42.183	-0.098	-0.050
-264.253	285.193	-0.136	0.242
-263.238	-34.769	0.272	-0.147
-262.224	-91.113	0.212	0.060
-261.209	-200.000	-0.009	0.148
-260.195	281.798	-0.019	-0.034
-259.180	52.984	0.151	0.142
-258.165	409.424	-0.072	0.151
-257.151	463.477	-0.070	0.155
-256.136	-84.624	0.110	0.034
-255.122	-200.000	0.031	-0.244
-254.107	46.270	0.095	-0.087
-253.092	-107.400	-0.079	0.017
-252.078	-72.279	0.153	-0.056
-251.063	677.834	-0.050	-0.128
-250.049	271.911	-0.063	0.109
-249.034	168.630	0.168	0.237
-248.019	642.781	0.058	0.147
-247.005	-200.000	-0.028	0.264
-245.990	-103.926	0.195	0.045
-244.976	-161.295	0.420	0.022
-243.961	800.000	-0.044	0.133
-242.946	444.306	0.144	0.313
-241.932	800.000	-0.061	0.203
-240.917	-200.000	-0.063	-0.375
-239.903	-200.000	-0.036	-0.166
-238.888	80.324	-0.175	-0.186
-237.873	88.975	-0.236	-0.259
-236.859	-200.000	0.012	0.405
-235.844	151.715	-0.094	0.126
-234.830	-200.000	-0.091	0.425
-233.815	-200.000	-0.004	-0.089
-232.800	800.000	-0.141	-0.504
-231.786	352.767	0.232	-0.453
-230.771	-200.000	0.064	-0.443
-229.757	-160.725	-0.169	-0.009
-228.742	10.590	-0.181	-0.136
-227.727	-154.440	-0.266	-0.018
-226.713	-137.772	0.170	-0.019
-225.698	52.327	0.319	0.300
-224.684	-200.000	-0.027	-0.197
-223.669	323.383	-0.202	-0.381
-222.655	139.825	-0.004	0.006
-221.640	-200.000	-0.043	0.305
-220.625	8.926	-0.163	-0.121
-219.611	800.000	-0.016	-0.063
-218.596	122.085	0.142	-0.175
-217.582	36.573	0.029	-0.025
-216.567	44.044	-0.192	-0.174
-215.552	516.750	-0.093	0.215
-214.538	-200.000	-0.008	0.050
-213.523	-113.822	0.335	0.064
-212.509	77.920	0.149	0.156
-211.494	113.048	-0.144	-0.172
-210.479	231.076	-0.175	0.282
-209.465	73.253	0.068	0.070
-208.450	11.817	-0.089	-0.067
-207.436	270.271	0.283	0.490
-206.421	421.094	0.133	0.281
-205.406	-123.330	0.267	-0.042
-204.392	-200.000	0.020	0.107
-203.377	-135.210	0.200	-0.024
-202.363	-24.845	0.178	0.104
-201.348	-55.323	0.088	0.039
-200.333	-200.000	0.032	-0.240
-199.319	204.735	-0.009	-0.014
-198.304	60.397	-0.152	-0.148
-197.290	41.862	0.334	-0.298
-196.275	-200.000	-0.004	0.128
-195.260	-92.985	-0.023	0.006
-194.246	-200.000	-0.050	0.335
-193.231	-200.000	0.031	-0.136
-192.217	-137.513	-0.173	-0.019
-191.202	291.690	0.079	0.141
-190.187	-72.332	-0.420	0.153
-189.173	634.970	-0.045	0.113
-188.158	128.866	-0.102	0.129
-187.144	-34.964	0.212	-0.114
-186.129	800.000	0.098	0.291
-185.114	-89.884	-0.198	-0.057
-184.100	250.936	0.244	-0.408
-183.085	402.599	0.018	-0.036
-182.071	-21.509	0.298	0.179
-181.056	-200.000	0.006	-0.029
-180.042	-7.780	0.078	-0.052
-179.027	-152.559	-0.167	0.012
-178.012	-0.934	-0.224	-0.156
-176.998	-52.430	-0.177	0.081
-175.983	25.323	-0.108	0.088
-174.969	-94.604	-0.118	-0.032
-173.954	-170.775	0.096	-0.003
-172.939	18.111	0.168	-0.132
-171.925	-140.057	0.335	0.035
-170.910	-134.941	0.112	-0.013
-169.896	-200.000	-0.009	-0.222
-168.881	475.118	0.107	-0.238
-167.866	-98.534	0.175	-0.044
-166.852	-123.226	-0.126	0.020
-165.837	8.519	0.198	0.147
-164.823	-73.613	0.169	-0.061
-163.808	104.247	-0.200	0.232
-162.793	800.000	-0.141	0.395
-161.779	-87.333	-0.172	-0.051
-160.764	9.245	0.325	0.242
-159.750	-55.321	0.223	-0.098
-158.735	-183.948	0.265	-0.004
-157.720	-200.000	-0.051	0.241
-156.706	391.214	-0.048	-0.099
-155.691	1.474	0.159	-0.112
-154.677	444.520	0.043	0.093
-153.662	-110.193	-0.092	0.019
-152.647	279.546	-0.172	-0.301
-151.633	-200.000	-0.001	0.150
-150.618	405.777	0.065	0.136
-149.604	181.999	-0.037	-0.054
-148.589	-31.983	0.255	-0.141
-147.574	621.498	-0.118	-0.292
-146.560	-152.773	-0.182	-0.013
-145.545	-9.917	0.274	0.179
-144.531	-137.406	-0.231	0.026
-143.516	-157.027	-0.116	-0.007
-142.502	800.000	-0.097	0.382
-141.487	71.652	0.153	-0.156
-140.472	193.160	0.028	-0.042
-139.458	32.962	-0.137	-0.117
-138.443	141.241	-0.083	-0.108
-137.429	-91.111	0.214	-0.060
-136.414	-200.000	0.026	0.126
-135.399	548.600	-0.035	0.083
-134.385	-200.000	-0.022	0.279
-133.370	-166.119	0.291	0.012
-132.356	-75.755	0.375	0.131
-131.341	150.845	-0.108	0.144
-130.326	34.843	-0.052	0.045
-129.312	-121.309	-0.133	-0.022
-128.297	31.289	-0.220	-0.186
-127.283	-71.680	-0.477	-0.175
-126.268	-62.044	-0.130	-0.053
-125.253	351.447	0.194	0.377
-124.239	-200.000	-0.029	-0.160
-123.224	65.331	0.209	-0.208
-122.210	281.433	-0.210	-0.370
