DTS Sentinel unit serial number:	SN413079Multiplexer serial number:	ORYXHardware model number:	OX4-SRSoftware version number:	ORYX F/W v4.00 Oryx Data Collector v3.7.2.0data status	okinstallation	princeton_trtdifferential loss correction	single-endedforward channel	channel 3reverse channel	N/Adate	2019/09/10time	20:14:11forward acquisition time	60.00reverse acquisition time	0.00gamma	496.2192k internal	0.2326k external	0.2326temperature offset calibration	0.9919default loss term (dB/km)	0.3790temperature slope calibration	1.0000multiplexer offset coefficient	1.0000multiplexer slope coefficient	1.0000fibre end	0.00T internal ref (°C)	32.34T ext. ref 1 (°C)	-0.31T ext. ref 2 (°C)	25.33length (m)	temperature (°C)	Stokes	anti-Stokes-747.200	130.392	-0.107	0.138
-746.185	-200.000	-0.012	0.209
-745.171	-200.000	-0.042	0.243
-744.156	800.000	0.122	-0.392
-743.142	800.000	-0.114	-0.371
-742.127	-120.254	-0.203	0.035
-741.112	-200.000	-0.014	0.173
-740.098	800.000	0.063	-0.223
-739.083	800.000	0.104	0.325
-738.069	62.260	0.099	0.100
-737.054	67.466	0.248	-0.255
-736.039	-34.504	-0.295	0.163
-735.025	-200.000	-0.008	0.094
-734.010	-200.000	-0.061	-0.374
-732.996	-92.131	0.066	-0.019
-731.981	-27.070	-0.206	-0.121
-730.966	43.835	0.160	-0.148
-729.952	-70.870	-0.217	-0.082
-728.937	-160.343	0.062	0.003
-727.923	-61.532	-0.359	-0.152
-726.908	292.037	-0.211	-0.387
-725.894	-77.919	-0.134	0.047
-724.879	-59.991	-0.362	0.156
-723.864	150.555	0.197	0.269
-722.850	213.984	0.165	0.264
-721.835	19.424	-0.021	-0.017
-720.821	-135.899	-0.390	0.046
-719.806	-173.661	-0.171	0.005
-718.791	465.111	-0.030	-0.068
-717.777	-103.463	0.242	0.057
-716.762	-99.405	0.079	0.020
-715.748	-18.650	0.232	-0.146
-714.733	27.914	-0.224	-0.190
-713.718	-3.300	-0.205	0.144
-712.704	-34.420	-0.188	-0.104
-711.689	-22.359	0.141	0.086
-710.675	-200.000	-0.053	0.330
-709.660	94.138	-0.379	-0.434
-708.645	-112.785	-0.200	0.040
-707.631	-200.000	0.021	-0.156
-706.616	-11.429	-0.033	-0.022
-705.602	-200.000	-0.004	-0.217
-704.587	-19.344	-0.199	0.124
-703.572	603.805	0.100	-0.251
-702.558	-36.463	0.189	-0.102
-701.543	-84.287	-0.065	0.021
-700.529	-200.000	0.011	-0.060
-699.514	-128.804	-0.064	-0.009
-698.499	800.000	0.080	0.227
-697.485	-200.000	-0.057	0.273
-696.470	134.918	0.186	0.244
-695.456	-149.559	0.025	0.002
-694.441	-19.014	0.369	0.231
-693.426	-200.000	-0.016	-0.144
-692.412	-76.817	0.260	-0.092
-691.397	198.347	0.014	0.021
-690.383	-17.649	0.237	0.150
-689.368	-40.164	0.208	0.109
-688.354	-152.587	0.293	0.021
-687.339	800.000	-0.049	-0.177
-686.324	-70.706	0.079	-0.030
-685.310	-200.000	-0.026	0.293
-684.295	-11.918	-0.115	0.076
-683.281	-175.428	-0.155	0.004
-682.266	-200.000	0.068	0.511
-681.251	800.000	-0.054	0.222
-680.237	800.000	0.022	-0.097
-679.222	132.011	-0.145	-0.188
-678.208	-62.592	0.147	-0.061
-677.193	188.923	0.052	0.078
-676.178	800.000	-0.070	0.262
-675.164	-200.000	0.036	0.277
-674.149	-200.000	0.024	0.547
-673.135	-200.000	-0.043	-0.405
-672.120	-46.107	0.087	0.043
-671.105	-0.451	0.203	0.145
-670.091	-15.652	-0.320	0.205
-669.076	-200.000	0.036	-0.166
-668.062	800.000	0.047	-0.205
-667.047	-145.231	0.211	0.019
-666.032	-63.263	0.079	0.033
-665.018	-69.810	-0.178	0.068
-664.003	-164.869	-0.169	-0.008
-662.989	-72.430	0.327	-0.122
-661.974	66.067	0.247	0.252
-660.959	398.326	0.091	-0.191
-659.945	58.189	0.068	-0.067
-658.930	-31.181	0.300	-0.170
-657.916	800.000	0.055	-0.155
-656.901	-97.353	-0.387	-0.101
-655.886	-128.934	0.154	-0.022
-654.872	-10.910	0.173	-0.115
-653.857	-124.143	-0.252	-0.040
-652.843	83.274	0.123	-0.134
-651.828	46.498	0.165	-0.153
-650.814	-2.273	0.143	-0.101
-649.799	78.896	-0.131	0.141
-648.784	-107.425	-0.627	0.138
-647.770	106.181	-0.054	0.065
-646.755	36.600	-0.265	0.235
-645.741	-129.442	-0.211	-0.029
-644.726	-3.738	0.285	0.199
-643.711	-71.534	-0.160	0.060
-642.697	-145.521	-0.488	-0.044
-641.682	99.604	0.070	0.081
-640.668	-43.047	-0.110	-0.056
-639.653	85.988	0.082	-0.091
-638.638	221.614	0.184	0.297
-637.624	-126.147	0.170	-0.026
-636.609	-25.468	0.164	-0.097
-635.595	-25.531	0.248	-0.147
-634.580	43.648	0.124	0.114
-633.565	-200.000	0.008	-0.118
-632.551	800.000	-0.073	-0.239
-631.536	407.946	-0.163	-0.346
-630.522	46.446	-0.310	0.289
-629.507	-140.217	0.214	0.023
-628.492	-42.642	-0.203	0.104
-627.478	100.705	-0.179	-0.209
-626.463	-84.887	0.094	-0.030
-625.449	-73.953	-0.230	-0.084
-624.434	28.310	-0.138	-0.117
-623.419	-69.629	0.123	-0.047
-622.405	800.000	0.006	-0.028
-621.390	-200.000	0.071	-0.453
-620.376	-200.000	0.047	-0.294
-619.361	162.459	0.010	-0.014
-618.346	-30.423	0.061	0.035
-617.332	-181.014	0.669	0.013
-616.317	-10.909	0.317	0.210
-615.303	-70.261	-0.134	-0.051
-614.288	1.998	-0.090	-0.065
-613.273	235.414	0.137	0.226
-612.259	-16.915	-0.150	-0.095
-611.244	48.116	0.116	0.109
-610.230	-13.734	-0.158	-0.102
-609.215	-200.000	0.007	0.111
-608.201	-44.172	-0.492	-0.248
-607.186	16.359	-0.232	0.184
-606.171	77.413	0.098	0.104
-605.157	800.000	0.080	-0.294
-604.142	-77.246	0.255	0.089
-603.128	800.000	0.007	0.025
-602.113	366.753	-0.001	0.002
-601.098	-156.046	-0.128	0.008
-600.084	265.811	0.130	-0.227
-599.069	-200.000	-0.142	0.000
-598.055	-6.322	0.138	-0.095
-597.040	142.433	-0.082	-0.109
-596.025	114.271	0.127	0.155
-595.011	-200.000	-0.009	-0.088
-593.996	-22.426	0.260	0.158
-592.982	-99.460	-0.011	-0.003
-591.967	15.757	0.275	-0.217
-590.952	113.265	-0.223	-0.271
-589.938	446.352	0.038	-0.085
-588.923	-128.549	0.226	-0.032
-587.909	364.794	-0.164	0.331
-586.894	800.000	-0.052	-0.164
-585.879	800.000	0.101	-0.288
-584.865	-42.234	-0.232	-0.119
-583.850	376.484	-0.089	-0.183
-582.836	-12.670	0.180	-0.118
-581.821	117.227	0.033	0.040
-580.806	800.000	0.035	-0.107
-579.792	-200.000	-0.025	0.171
-578.777	726.515	-0.049	0.131
-577.763	-94.886	0.201	0.055
-576.748	730.777	0.086	0.231
-575.733	139.406	-0.264	0.349
-574.719	-145.133	-0.202	0.018
-573.704	-95.958	0.154	0.041
-572.690	594.146	0.047	-0.117
-571.675	128.328	-0.133	-0.169
-570.661	800.000	0.061	0.181
-569.646	95.395	0.056	0.064
-568.631	-200.000	0.014	0.148
-567.617	210.491	0.099	-0.156
-566.602	129.285	-0.079	-0.101
-565.588	55.733	0.127	-0.123
-564.573	-118.144	-0.142	-0.025
-563.558	3.841	0.078	-0.057
-562.544	322.991	0.169	0.322
-561.529	265.671	0.218	0.381
-560.515	800.000	0.062	-0.209
-559.500	-200.000	0.037	-0.244
-558.485	-83.918	0.167	-0.053
-557.471	186.797	-0.209	0.312
-556.456	140.272	-0.122	-0.161
-555.442	-49.835	0.401	0.191
-554.427	565.759	-0.066	-0.159
-553.412	-1.282	-0.418	-0.295
-552.398	-66.263	0.186	-0.074
-551.383	-95.426	-0.096	0.026
-550.369	250.628	0.039	0.066
-549.354	39.545	-0.190	0.170
-548.339	170.763	-0.068	-0.097
-547.325	-75.812	-0.206	-0.073
-546.310	117.732	0.120	-0.147
-545.296	-94.055	-0.161	0.044
-544.281	-200.000	-0.003	-0.553
-543.266	-109.708	-0.350	-0.074
-542.252	-44.522	0.102	0.051
-541.237	79.894	0.066	0.071
-540.223	-200.000	-0.026	-0.382
-539.208	-91.153	-0.302	0.087
-538.193	-200.000	0.023	0.285
-537.179	128.708	-0.064	0.082
-536.164	-21.796	0.135	-0.082
-535.150	800.000	0.057	-0.189
-534.135	-14.250	0.289	-0.187
-533.121	-105.272	-0.099	0.023
-532.106	127.896	0.126	0.160
-531.091	16.284	0.105	0.083
-530.077	662.053	-0.112	-0.290
-529.062	-95.354	0.118	-0.032
-528.048	680.329	0.167	-0.434
-527.033	208.244	0.278	-0.435
-526.018	-200.000	0.038	0.543
-525.004	-120.086	-0.162	-0.028
-523.989	-200.000	0.021	0.121
-522.975	44.462	0.107	0.098
-521.960	635.421	0.073	0.184
-520.945	-200.000	0.004	0.452
-519.931	-200.000	0.008	-0.041
-518.916	-200.000	0.021	-0.103
-517.902	-74.332	0.261	-0.094
-516.887	-200.000	0.012	-0.294
-515.872	-33.460	-0.139	0.077
-514.858	-4.252	-0.068	-0.047
-513.843	615.385	-0.048	-0.120
-512.829	-148.911	0.154	0.012
-511.814	25.968	0.202	0.168
-510.799	-177.802	-0.533	-0.013
-509.785	-87.384	0.147	0.045
-508.770	312.131	0.086	-0.162
-507.756	125.741	-0.164	-0.207
-506.741	-200.000	0.001	0.017
-505.726	800.000	-0.030	0.111
-504.712	349.784	0.140	-0.277
-503.697	-74.049	0.080	-0.029
-502.683	120.098	0.151	0.188
-501.668	-55.062	0.176	0.079
-500.653	-200.000	0.021	-0.164
-499.639	-10.162	-0.135	-0.089
-498.624	-200.000	-0.020	0.231
-497.610	372.862	0.140	0.284
-496.595	-58.606	0.130	-0.056
-495.581	45.511	-0.158	0.145
-494.566	73.659	0.070	-0.074
-493.551	800.000	0.046	0.173
-492.537	360.504	0.063	0.125
-491.522	-56.092	-0.092	0.041
-490.508	-67.339	0.212	0.083
-489.493	800.000	0.077	0.334
-488.478	545.271	-0.130	0.310
-487.464	29.873	-0.239	0.204
-486.449	-200.000	0.185	0.000
-485.435	420.313	0.068	-0.145
-484.420	173.983	0.064	-0.093
-483.405	-84.819	0.156	-0.049
-482.391	800.000	-0.054	-0.220
-481.376	193.001	0.165	0.249
-480.362	-200.000	-0.001	0.177
-479.347	1.431	-0.086	-0.062
-478.332	86.391	-0.095	0.104
-477.318	-122.169	-0.104	0.017
-476.303	-73.735	-0.103	0.037
-475.289	191.015	-0.090	-0.136
-474.274	-66.524	0.182	0.072
-473.259	-117.226	0.425	0.077
-472.245	-126.370	-0.160	-0.024
-471.230	-26.682	-0.337	0.197
-470.216	-105.274	-0.181	0.041
-469.201	-109.795	0.080	-0.017
-468.186	-38.376	0.233	-0.123
-467.172	46.708	-0.108	0.100
-466.157	-69.982	0.079	-0.030
-465.143	-200.000	-0.046	-0.219
-464.128	507.386	-0.052	-0.120
-463.113	123.528	0.071	0.089
-462.099	96.355	0.082	0.094
-461.084	-191.886	-0.180	0.002
-460.070	-200.000	0.007	-0.140
-459.055	-130.664	-0.340	-0.046
-458.040	253.757	0.127	-0.216
-457.026	-86.362	-0.087	0.027
-456.011	800.000	0.031	-0.117
-454.997	156.802	0.026	0.036
-453.982	-104.547	0.116	0.027
-452.968	800.000	0.082	-0.261
-451.953	381.792	-0.114	0.233
-450.938	72.231	-0.091	0.094
-449.924	399.223	-0.018	-0.038
-448.909	-200.000	0.002	-0.162
-447.895	42.015	-0.183	-0.166
-446.880	-82.563	0.285	0.092
-445.865	-116.194	-0.516	0.096
-444.851	53.929	0.081	-0.077
-443.836	-55.229	-0.293	0.131
-442.822	-146.915	-0.168	0.014
-441.807	380.308	-0.108	0.221
-440.792	-61.126	-0.425	0.179
-439.778	-200.000	0.044	-0.204
-438.763	11.208	0.167	0.128
-437.749	-200.000	0.041	0.199
-436.734	330.151	0.192	0.368
-435.719	610.562	0.058	0.143
-434.705	-36.511	0.205	0.110
-433.690	-46.942	0.117	-0.057
-432.676	-147.674	0.200	0.017
-431.661	-172.065	-0.214	-0.007
-430.646	-47.632	-0.297	0.144
-429.632	107.406	-0.227	-0.269
-428.617	-141.323	0.170	0.017
-427.603	-116.777	-0.289	0.053
-426.588	-20.981	0.203	-0.124
-425.573	159.579	-0.178	0.246
-424.559	98.695	0.115	-0.132
-423.544	40.614	-0.359	0.322
-422.530	-80.432	0.255	0.085
-421.515	205.980	-0.215	0.333
-420.500	-76.450	-0.245	-0.086
-419.486	134.963	-0.230	-0.298
-418.471	-200.000	0.006	-0.072
-417.457	-85.597	-0.037	0.012
-416.442	269.272	-0.089	0.156
-415.428	-23.633	0.301	0.180
-414.413	-88.297	0.207	-0.062
-413.398	179.936	0.084	-0.123
-412.384	-19.363	-0.213	-0.132
-411.369	-99.829	-0.137	-0.034
-410.355	-200.000	-0.001	-0.134
-409.340	-183.698	-0.302	0.005
-408.325	-80.228	-0.225	0.075
-407.311	-200.000	-0.015	-0.472
-406.296	-200.000	-0.065	0.342
-405.282	191.409	0.153	-0.229
-404.267	91.297	0.035	0.039
-403.252	-142.874	0.211	0.020
-402.238	-67.041	-0.082	0.032
-401.223	53.772	0.255	0.244
-400.209	-168.791	-0.114	0.004
-399.194	-144.787	-0.529	-0.048
-398.179	-200.000	-0.066	-0.421
-397.165	-74.385	0.025	-0.009
-396.150	-93.050	0.188	-0.052
-395.136	135.303	0.176	0.228
-394.121	-20.638	-0.218	-0.133
-393.106	243.383	-0.132	0.221
-392.092	307.777	0.115	0.214
-391.077	-200.000	0.072	0.321
-390.063	-36.949	-0.195	0.104
-389.048	80.297	0.250	-0.268
-388.033	701.819	0.106	0.277
-387.019	-124.894	0.315	-0.048
-386.004	113.681	-0.109	0.132
-384.990	114.872	0.080	0.097
-383.975	800.000	0.162	0.483
-382.960	77.801	0.196	-0.208
-381.946	-0.918	-0.080	-0.056
-380.931	1.325	0.114	-0.081
-379.917	-107.679	0.069	-0.015
-378.902	-200.000	-0.001	-0.246
-377.888	-122.171	0.148	-0.024
-376.873	-46.515	0.071	-0.035
-375.858	-23.502	0.183	-0.109
-374.844	-200.000	0.014	-0.428
-373.829	-17.720	0.241	-0.151
-372.815	-50.108	-0.209	-0.099
-371.800	369.584	-0.115	-0.232
-370.785	64.611	-0.116	0.116
-369.771	-36.669	0.131	-0.070
-368.756	67.437	0.153	-0.155
-367.742	285.586	0.172	0.308
-366.727	-63.623	0.150	0.061
-365.712	-200.000	-0.026	0.183
-364.698	141.322	0.220	-0.290
-363.683	84.537	-0.087	-0.094
-362.669	-58.976	0.259	-0.111
-361.654	-109.513	-0.141	-0.030
-360.639	208.525	-0.069	0.107
-359.625	800.000	-0.081	0.293
-358.610	-184.301	0.078	0.001
-357.596	-43.903	0.129	0.065
-356.581	159.618	-0.255	-0.353
-355.566	87.675	0.123	-0.135
-354.552	506.905	-0.036	0.083
-353.537	237.567	0.106	-0.175
-352.523	-133.348	-0.232	0.029
-351.508	-175.541	-0.186	0.005
-350.493	-200.000	0.091	-0.469
-349.479	-31.846	0.282	-0.157
-348.464	-106.220	-0.029	-0.006
-347.450	-40.645	-0.274	0.141
-346.435	800.000	0.020	0.056
-345.420	-61.140	0.011	0.005
-344.406	-200.000	0.017	-0.271
-343.391	14.868	0.112	-0.087
-342.377	-23.360	-0.151	0.090
-341.362	-46.661	0.151	-0.074
-340.348	-23.818	0.138	-0.082
-339.333	274.042	0.119	0.209
-338.318	-3.039	-0.170	0.118
-337.304	800.000	0.058	0.219
-336.289	-200.000	0.008	0.152
-335.275	516.378	0.094	-0.218
-334.260	-147.418	0.230	-0.019
-333.245	-25.998	0.157	-0.092
-332.231	99.169	-0.009	-0.010
-331.216	-149.645	-0.243	0.019
-330.202	4.426	-0.224	-0.163
-329.187	75.847	-0.042	-0.045
-328.172	800.000	-0.047	-0.146
-327.158	34.321	0.213	-0.185
-326.143	-18.284	0.202	-0.126
-325.129	174.665	-0.040	0.058
-324.114	13.513	0.175	-0.135
-323.099	762.706	-0.061	0.165
-322.085	412.427	-0.170	0.359
-321.070	-96.281	0.086	-0.023
-320.056	37.617	-0.142	-0.125
-319.041	-21.405	-0.185	0.112
-318.026	366.069	0.073	0.147
-317.012	13.535	0.413	-0.318
-315.997	4.251	0.185	-0.134
-314.983	222.626	-0.034	0.055
-313.968	665.930	0.133	0.341
-312.953	288.236	0.084	-0.151
-311.939	160.201	0.124	-0.171
-310.924	800.000	-0.033	-0.116
-309.910	56.646	-0.222	0.215
-308.895	330.198	0.065	0.125
-307.880	36.583	0.118	0.103
-306.866	-50.194	-0.141	0.066
-305.851	-200.000	0.011	0.266
-304.837	-200.000	-0.004	0.121
-303.822	-102.180	0.106	0.025
-302.807	189.769	-0.157	0.233
-301.793	800.000	-0.053	-0.221
-300.778	-41.408	-0.110	0.056
-299.764	-156.920	0.087	0.005
-298.749	-97.358	-0.320	-0.083
-297.735	64.353	0.184	-0.184
-296.720	608.584	-0.003	-0.008
-295.705	-59.147	-0.207	0.088
-294.691	9.623	0.274	-0.206
-293.676	-89.430	0.148	0.043
-292.662	800.000	-0.096	-0.320
-291.647	-177.600	-0.076	-0.002
-290.632	791.032	-0.033	-0.091
-289.618	-39.069	0.228	-0.119
-288.603	375.722	-0.117	0.237
-287.589	800.000	-0.120	0.369
-286.574	-20.524	0.305	0.186
-285.559	55.463	0.024	0.023
-284.545	-85.078	-0.199	-0.062
-283.530	-85.835	0.143	0.044
-282.516	800.000	-0.129	-0.414
-281.501	-200.000	0.034	-0.355
-280.486	-115.482	-0.595	0.111
-279.472	243.647	-0.075	-0.124
-278.457	594.370	-0.127	-0.311
-277.443	-20.362	0.380	-0.232
-276.428	-25.009	-0.274	-0.161
-275.413	800.000	0.074	-0.247
-274.399	800.000	0.046	0.168
-273.384	-100.770	-0.344	0.084
-272.370	104.587	-0.232	0.271
-271.355	-14.700	0.277	0.176
-270.340	-85.711	-0.211	0.065
-269.326	-103.995	-0.235	0.054
-268.311	289.417	-0.304	-0.546
-267.297	-75.170	-0.196	0.069
-266.282	-28.589	-0.210	0.120
-265.267	-39.336	0.137	0.071
-264.253	-153.539	-0.163	-0.011
-263.238	-200.000	0.013	-0.127
-262.224	-28.085	0.141	0.081
-261.209	92.720	0.133	0.149
-260.195	212.018	-0.162	-0.252
-259.180	338.004	0.050	0.096
-258.165	-151.188	-0.131	-0.010
-257.151	800.000	0.066	0.239
-256.136	109.856	-0.137	0.163
-255.122	-62.441	0.225	-0.093
-254.107	800.000	-0.056	0.198
-253.092	-200.000	0.045	0.205
-252.078	-44.130	-0.151	-0.075
-251.063	484.244	0.104	0.234
-250.049	-19.211	-0.240	-0.147
-249.034	326.532	0.077	-0.146
-248.019	-65.759	0.146	0.058
-247.005	-200.000	0.009	0.116
-245.990	-133.140	0.414	0.052
-244.976	60.775	0.201	-0.197
-243.961	800.000	0.043	-0.131
-242.946	-136.634	0.334	-0.038
-241.932	-145.967	0.159	0.014
-240.917	688.582	-0.047	0.121
-239.903	17.888	0.274	0.216
-238.888	-200.000	-0.053	0.523
-237.873	-200.000	-0.078	-0.373
-236.859	-200.000	0.043	0.279
-235.844	-200.000	-0.029	-0.188
-234.830	800.000	-0.092	-0.254
-233.815	46.993	-0.238	-0.219
-232.800	52.460	-0.136	-0.128
-231.786	-200.000	-0.013	-0.216
-230.771	45.905	0.334	0.305
-229.757	677.646	-0.060	0.154
-228.742	-200.000	0.034	0.158
-227.727	78.303	0.316	-0.334
-226.713	-147.890	-0.268	0.022
-225.698	-134.550	0.227	-0.027
-224.684	-200.000	-0.012	0.250
-223.669	26.855	0.204	-0.169
-222.655	4.445	-0.245	-0.177
-221.640	30.776	-0.068	-0.058
-220.625	-200.000	-0.021	0.109
-219.611	-200.000	0.128	0.557
-218.596	275.817	0.097	0.170
-217.582	-97.326	-0.272	0.070
-216.567	-200.000	-0.004	0.115
-215.552	-153.900	-0.094	0.006
-214.538	-38.005	0.241	-0.127
-213.523	100.749	0.060	0.069
-212.509	730.107	-0.089	0.235
-211.494	-98.002	0.095	-0.024
-210.479	-200.000	0.011	0.227
-209.465	800.000	-0.064	-0.211
-208.450	447.658	0.144	-0.312
-207.436	-200.000	-0.026	0.181
-206.421	783.441	0.139	-0.377
-205.406	31.133	0.268	0.227
-204.392	-2.895	0.041	0.028
-203.377	-61.950	0.063	0.026
-202.363	-50.397	0.136	-0.063
-201.348	62.107	-0.190	0.188
-200.333	-43.522	0.386	-0.193
-199.319	-6.458	-0.078	0.052
-198.304	-1.761	-0.159	0.110
-197.290	800.000	-0.027	-0.108
-196.275	-103.495	-0.044	-0.010
-195.260	13.412	-0.358	0.274
-194.246	-100.678	0.287	-0.070
-193.231	-200.000	0.060	0.307
-192.217	148.157	0.091	0.122
-191.202	800.000	0.090	-0.327
-190.187	800.000	-0.130	-0.473
-189.173	151.732	-0.067	0.090
-188.158	-200.000	-0.013	-0.164
-187.144	121.783	-0.154	0.190
-186.129	233.192	-0.024	-0.040
-185.114	-114.676	0.332	-0.063
-184.100	8.128	-0.178	-0.132
-183.085	-65.138	-0.404	0.161
-182.071	644.908	-0.115	0.289
-181.056	183.855	0.115	0.168
-180.042	-152.879	0.367	0.026
-179.027	-200.000	-0.038	0.271
-178.012	308.310	-0.035	0.065
-176.998	233.823	0.128	0.208
-175.983	30.416	0.083	-0.070
-174.969	315.384	-0.160	0.298
-173.954	-157.898	-0.080	-0.005
-172.939	171.129	0.189	0.267
-171.925	-125.705	-0.498	0.074
-170.910	203.207	0.067	-0.102
-169.896	-93.910	-0.038	0.010
-168.881	-38.924	0.155	0.080
-167.866	211.374	0.261	0.405
-166.852	126.574	-0.116	-0.145
-165.837	162.555	0.091	-0.125
-164.823	-120.877	0.047	0.008
-163.808	149.692	-0.036	-0.048
-162.793	-5.385	0.219	-0.149
-161.779	321.992	-0.235	-0.442
-160.764	-200.000	0.006	0.127
-159.750	-24.578	0.083	0.049
-158.735	-102.640	-0.263	-0.062
-157.720	-199.038	-0.288	-0.002
-156.706	-114.666	-0.068	0.013
-155.691	-23.941	-0.134	0.079
-154.677	800.000	-0.064	-0.243
-153.662	-126.754	-0.044	-0.006
-152.647	18.741	0.091	0.072
-151.633	621.119	0.017	-0.042
-150.618	20.148	-0.184	0.146
-149.604	-200.000	-0.046	-0.238
-148.589	212.470	-0.090	-0.140
-147.574	261.829	-0.081	-0.138
-146.560	-41.219	0.031	-0.016
-145.545	144.927	0.105	0.138
-144.531	-95.902	0.150	0.039
-143.516	524.231	0.080	0.186
-142.502	-84.598	-0.139	0.043
-141.487	-200.000	0.033	0.268
-140.472	800.000	0.059	-0.254
-139.458	200.768	-0.158	0.239
-138.443	-63.313	0.101	-0.041
-137.429	-158.027	0.209	0.012
-136.414	438.027	-0.083	0.178
-135.399	242.193	-0.065	-0.106
-134.385	-148.072	0.436	0.036
-133.370	16.360	-0.402	0.312
-132.356	-21.350	-0.346	0.208
-131.341	-200.000	0.012	-0.190
-130.326	729.117	0.140	0.368
-129.312	193.472	-0.099	-0.147
-128.297	-20.109	0.179	-0.109
-127.283	62.944	-0.129	-0.127
-126.268	-27.207	-0.065	-0.037
-125.253	-7.197	0.108	0.072
-124.239	-19.807	0.102	-0.062
-123.224	241.296	0.178	0.293
-122.210	-200.000	-0.010	-0.307
-121.195	49.504	0.107	0.099
-120.180	738.377	0.075	0.199
