DTS Sentinel unit serial number:	SN413079Multiplexer serial number:	ORYXHardware model number:	OX4-SRSoftware version number:	ORYX F/W v4.00 Oryx Data Collector v3.7.2.0data status	okinstallation	princeton_trtdifferential loss correction	single-endedforward channel	channel 3reverse channel	N/Adate	2019/09/11time	12:42:11forward acquisition time	60.00reverse acquisition time	0.00gamma	496.2192k internal	0.2293k external	0.2293temperature offset calibration	0.9940default loss term (dB/km)	0.3790temperature slope calibration	1.0000multiplexer offset coefficient	1.0000multiplexer slope coefficient	1.0000fibre end	0.00T internal ref (°C)	40.92T ext. ref 1 (°C)	0.20T ext. ref 2 (°C)	38.67length (m)	temperature (°C)	Stokes	anti-Stokes-747.200	800.000	0.036	0.134
-746.185	-91.806	0.442	-0.128
-745.171	800.000	0.029	-0.117
-744.156	800.000	0.071	0.301
-743.142	296.759	0.176	0.329
-742.127	-200.000	0.045	0.288
-741.112	800.000	-0.082	-0.238
-740.098	800.000	0.080	0.260
-739.083	-94.703	0.213	0.059
-738.069	108.853	-0.209	-0.256
-737.054	-200.000	-0.021	-0.131
-736.039	-200.000	-0.005	0.226
-735.025	800.000	0.074	0.270
-734.010	-12.157	0.321	0.215
-732.996	-52.599	-0.138	0.065
-731.981	719.373	-0.117	-0.317
-730.966	-130.757	0.085	0.012
-729.952	-200.000	0.334	-0.001
-728.937	85.026	-0.205	0.229
-727.923	14.678	-0.307	-0.245
-726.908	110.056	-0.069	0.085
-725.894	487.273	-0.035	-0.082
-724.879	569.293	0.050	-0.124
-723.864	-123.854	-0.128	-0.021
-722.850	-178.426	-0.040	0.001
-721.835	-92.392	-0.251	0.072
-720.821	-40.593	-0.227	0.120
-719.806	800.000	-0.069	-0.240
-718.791	-20.147	-0.163	-0.103
-717.777	-177.703	-0.314	0.008
-716.762	48.565	0.118	0.113
-715.748	341.489	-0.066	0.132
-714.733	-110.021	-0.209	-0.045
-713.718	-26.603	0.032	0.019
-712.704	-98.919	-0.189	0.049
-711.689	97.075	-0.029	0.033
-710.675	206.499	-0.098	0.156
-709.660	70.363	-0.224	0.236
-708.645	11.263	0.023	-0.018
-707.631	800.000	0.042	-0.178
-706.616	-60.636	-0.224	-0.097
-705.602	-200.000	-0.009	-0.252
-704.587	-42.852	0.148	-0.077
-703.572	35.296	-0.187	-0.168
-702.558	152.512	0.121	-0.168
-701.543	173.029	-0.075	-0.111
-700.529	259.886	-0.064	0.113
-699.514	60.480	-0.041	0.041
-698.499	-135.896	-0.094	-0.011
-697.485	82.499	-0.115	0.127
-696.470	-200.000	-0.016	0.174
-695.456	58.684	0.155	-0.155
-694.441	-84.054	0.241	-0.078
-693.426	-8.660	0.092	-0.063
-692.412	582.658	0.075	-0.187
-691.397	43.382	-0.185	0.173
-690.383	800.000	0.133	-0.403
-689.368	383.294	0.102	0.215
-688.354	-200.000	-0.050	0.302
-687.339	-12.800	-0.071	0.047
-686.324	116.864	0.099	-0.124
-685.310	-85.788	-0.206	-0.065
-684.295	67.127	-0.077	-0.080
-683.281	-136.048	0.174	0.021
-682.266	-200.000	-0.009	-0.053
-681.251	-21.772	0.131	0.081
-680.237	-200.000	0.029	-0.217
-679.222	52.556	0.198	0.193
-678.208	-98.774	-0.070	-0.018
-677.193	286.435	-0.154	-0.283
-676.178	-200.000	-0.037	-0.200
-675.164	625.887	0.044	0.112
-674.149	-27.577	-0.100	-0.060
-673.135	-30.643	-0.077	0.044
-672.120	-83.781	0.239	0.078
-671.105	56.454	0.058	0.058
-670.091	-55.037	0.081	0.037
-669.076	-200.000	-0.011	-0.129
-668.062	-124.856	0.344	-0.054
-667.047	-150.732	-0.196	-0.015
-666.032	1.121	0.219	-0.160
-665.018	88.858	0.088	0.100
-664.003	-200.000	-0.010	-0.180
-662.989	-200.000	-0.015	-0.084
-661.974	-135.835	-0.161	0.019
-660.959	-134.723	-0.303	0.038
-659.945	-200.000	-0.006	-0.056
-658.930	-118.932	-0.228	0.041
-657.916	2.417	-0.165	0.121
-656.901	-64.666	-0.085	-0.035
-655.886	-14.207	-0.056	-0.037
-654.872	59.886	-0.295	-0.296
-653.857	17.793	-0.063	-0.051
-652.843	99.996	-0.042	0.049
-651.828	80.082	-0.171	0.188
-650.814	800.000	0.048	-0.167
-649.799	32.751	-0.087	-0.076
-648.784	-200.000	-0.020	-0.220
-647.770	341.265	-0.045	-0.089
-646.755	25.891	0.139	0.118
-645.741	107.285	-0.167	-0.202
-644.726	-200.000	0.007	-0.081
-643.711	79.374	0.146	0.159
-642.697	570.395	-0.021	0.053
-641.682	-76.870	-0.293	-0.104
-640.668	-77.331	0.209	-0.074
-639.653	376.579	-0.103	0.213
-638.638	-72.811	0.108	-0.041
-637.624	-68.685	0.169	-0.067
-636.609	149.232	-0.070	-0.097
-635.595	585.553	0.050	0.126
-634.580	-109.583	-0.187	0.040
-633.565	19.823	0.218	-0.179
-632.551	-157.861	0.131	0.008
-631.536	759.503	-0.114	0.316
-630.522	-53.667	0.204	0.095
-629.507	800.000	0.089	0.352
-628.492	800.000	-0.076	0.243
-627.478	-119.462	0.208	0.037
-626.463	112.489	0.045	-0.056
-625.449	800.000	0.062	-0.199
-624.434	-156.933	-0.415	-0.026
-623.419	24.072	0.076	-0.064
-622.405	-31.035	-0.195	-0.112
-621.390	800.000	-0.063	-0.187
-620.376	30.866	0.206	0.180
-619.361	720.324	-0.090	0.243
-618.346	-42.562	0.141	0.073
-617.332	-4.033	0.260	0.183
-616.317	159.701	-0.144	0.203
-615.303	-200.000	-0.034	0.228
-614.288	800.000	0.073	0.224
-613.273	503.333	0.121	0.285
-612.259	-200.000	-0.024	-0.180
-611.244	-91.237	0.275	0.080
-610.230	-161.484	0.245	-0.013
-609.215	101.378	0.276	-0.327
-608.201	-25.850	-0.163	0.098
-607.186	33.653	0.230	0.203
-606.171	-59.286	0.038	0.017
-605.157	-200.000	-0.010	0.084
-604.142	769.216	0.080	0.221
-603.128	-136.456	-0.361	0.043
-602.113	-102.986	-0.154	-0.037
-601.098	-47.062	0.405	0.201
-600.084	96.653	0.235	-0.274
-599.069	-200.000	0.003	0.018
-598.055	-134.280	0.159	0.020
-597.040	-200.000	0.031	0.155
-596.025	-52.779	0.280	0.132
-595.011	-172.814	0.115	-0.004
-593.996	-137.232	-0.179	-0.021
-592.982	-200.000	0.003	-0.189
-591.967	16.570	0.036	0.029
-590.952	745.489	-0.036	-0.099
-589.938	0.325	-0.211	-0.153
-588.923	-110.181	-0.115	0.024
-587.909	93.312	0.141	0.162
-586.894	-41.101	-0.215	0.113
-585.879	-200.000	-0.008	0.163
-584.865	-200.000	-0.022	-0.154
-583.850	-92.934	0.264	0.075
-582.836	-59.035	-0.238	-0.104
-581.821	-77.650	0.072	-0.025
-580.806	-83.735	-0.330	0.107
-579.792	-32.147	-0.220	0.125
-578.777	-150.405	-0.274	0.021
-577.763	800.000	0.126	0.439
-576.748	800.000	-0.027	0.112
-575.733	-88.527	-0.418	0.127
-574.719	-200.000	0.036	-0.171
-573.704	-172.628	0.170	-0.005
-572.690	12.632	-0.100	-0.078
-571.675	-112.618	-0.486	-0.098
-570.661	347.556	-0.030	0.061
-569.646	122.574	-0.061	0.078
-568.631	-105.442	0.100	-0.023
-567.617	-84.499	-0.081	-0.026
-566.602	-82.600	-0.472	0.156
-565.588	686.307	0.136	0.362
-564.573	128.333	0.304	0.394
-563.558	-107.161	0.168	0.038
-562.544	-123.288	-0.315	-0.051
-561.529	-200.000	0.030	-0.361
-560.515	-129.960	0.128	-0.018
-559.500	-74.609	0.128	0.047
-558.485	535.526	-0.113	-0.273
-557.471	-85.630	0.240	0.076
-556.456	-17.537	0.231	-0.147
-555.442	-10.624	0.036	0.024
-554.427	66.286	-0.161	0.166
-553.412	510.217	-0.108	-0.256
-552.398	17.941	0.056	0.045
-551.383	-200.000	-0.003	-0.045
-550.369	192.047	0.108	-0.165
-549.354	40.583	0.238	0.218
-548.339	-58.206	-0.107	0.047
-547.325	548.088	0.080	0.193
-546.310	300.155	0.111	-0.208
-545.296	389.673	-0.038	0.080
-544.281	85.452	0.080	0.089
-543.266	-99.296	-0.146	0.037
-542.252	52.456	0.080	0.078
-541.237	-147.571	0.190	0.016
-540.223	-94.979	0.148	0.041
-539.208	-200.000	0.063	0.556
-538.193	560.481	0.065	-0.158
-537.179	-149.098	-0.312	-0.025
-536.164	-200.000	-0.045	0.240
-535.150	367.685	-0.026	0.053
-534.135	-3.975	0.113	-0.080
-533.121	-200.000	0.026	0.176
-532.106	675.255	0.074	0.196
-531.091	739.974	-0.077	0.208
-530.077	303.941	-0.064	-0.121
-529.062	-200.000	0.028	-0.178
-528.048	49.973	0.148	0.141
-527.033	-46.008	0.186	0.093
-526.018	-200.000	-0.002	0.027
-525.004	98.101	0.109	0.127
-523.989	270.839	-0.193	-0.344
-522.975	60.652	0.265	0.266
-521.960	-200.000	0.002	-0.102
-520.945	-0.434	0.497	-0.358
-519.931	-114.292	0.138	0.027
-518.916	-200.000	-0.004	0.028
-517.902	800.000	0.087	-0.359
-516.887	336.755	0.104	-0.205
-515.872	30.491	0.098	-0.085
-514.858	601.878	0.152	-0.383
-513.843	-136.638	0.130	0.015
-512.829	-7.602	0.193	-0.132
-511.814	-200.000	0.019	0.185
-510.799	104.914	-0.276	0.330
-509.785	-109.616	-0.208	-0.045
-508.770	750.142	-0.097	0.265
-507.756	800.000	-0.028	-0.098
-506.741	800.000	0.066	-0.223
-505.726	-124.763	0.361	-0.057
-504.712	-200.000	0.028	-0.197
-503.697	-184.269	0.377	0.006
-502.683	109.715	-0.162	-0.196
-501.668	-61.115	-0.235	-0.100
-500.653	-126.751	-0.172	-0.026
-499.639	-147.218	-0.260	-0.022
-498.624	75.164	-0.146	-0.156
-497.610	86.115	-0.032	0.036
-496.595	-200.000	-0.013	-0.354
-495.581	783.141	0.060	-0.168
-494.566	236.788	0.230	0.386
-493.551	800.000	0.015	0.046
-492.537	-117.205	0.256	-0.047
-491.522	249.034	0.135	0.231
-490.508	-200.000	0.022	-0.168
-489.493	-200.000	-0.060	-0.315
-488.478	31.382	0.275	0.239
-487.464	49.025	0.121	0.115
-486.449	-81.897	-0.065	-0.021
-485.435	-122.948	-0.174	-0.028
-484.420	-51.587	-0.087	-0.041
-483.405	323.717	0.121	0.233
-482.391	208.235	0.082	-0.130
-481.376	-110.088	0.162	-0.034
-480.362	-38.079	0.163	0.088
-479.347	61.118	-0.139	-0.139
-478.332	395.567	0.090	-0.191
-477.318	-21.679	0.072	-0.045
-476.303	-139.397	-0.091	-0.010
-475.289	3.147	-0.162	0.120
-474.274	-134.389	-0.086	0.011
-473.259	-200.000	-0.002	0.273
-472.245	36.578	0.109	-0.097
-471.230	8.193	0.080	0.061
-470.216	-87.423	-0.131	0.040
-469.201	-161.496	-0.220	0.011
-468.186	-63.892	0.218	-0.090
-467.172	14.036	0.302	-0.238
-466.157	542.094	-0.113	-0.272
-465.143	127.644	-0.074	0.095
-464.128	538.234	0.060	-0.145
-463.113	25.199	-0.327	-0.275
-462.099	133.547	-0.171	-0.224
-461.084	800.000	0.071	-0.231
-460.070	-200.000	0.009	-0.159
-459.055	-200.000	-0.018	0.266
-458.040	-144.802	-0.343	-0.032
-457.026	87.501	-0.189	-0.212
-456.011	-77.794	-0.130	-0.045
-454.997	-121.036	-0.268	-0.045
-453.982	-162.849	0.290	-0.014
-452.968	104.933	0.127	0.151
-451.953	-27.075	0.190	0.112
-450.938	-149.656	0.055	-0.004
-449.924	-200.000	0.032	-0.714
-448.909	273.814	-0.148	0.265
-447.895	-72.567	-0.042	0.016
-446.880	-18.369	0.230	0.145
-445.865	-19.376	-0.330	0.207
-444.851	-189.332	-0.281	-0.003
-443.836	128.782	-0.213	-0.275
-442.822	234.608	-0.082	-0.137
-441.807	-4.390	0.132	-0.092
-440.792	-80.691	-0.224	-0.075
-439.778	204.909	0.151	-0.238
-438.763	63.625	-0.049	-0.050
-437.749	-128.630	0.065	0.009
-436.734	-200.000	-0.026	0.198
-435.719	219.239	-0.174	-0.282
-434.705	59.510	-0.124	-0.124
-433.690	-128.908	0.200	-0.028
-432.676	147.693	0.036	0.049
-431.661	214.383	-0.040	0.064
-430.646	142.816	-0.098	-0.132
-429.632	-200.000	0.012	-0.117
-428.617	-74.690	-0.137	-0.050
-427.603	73.284	-0.388	0.410
-426.588	-15.945	-0.066	-0.042
-425.573	-200.000	-0.004	0.096
-424.559	-4.733	-0.252	0.176
-423.544	-42.352	0.067	0.035
-422.530	-40.968	-0.242	-0.126
-421.515	-52.737	-0.272	-0.127
-420.500	-200.000	-0.025	-0.117
-419.486	-28.501	0.385	-0.224
-418.471	-138.935	-0.271	-0.030
-417.457	-200.000	-0.016	-0.338
-416.442	800.000	-0.077	0.246
-415.428	800.000	-0.091	-0.259
-414.413	349.467	0.009	0.017
-413.398	-60.190	-0.189	0.081
-412.384	27.561	-0.235	-0.199
-411.369	162.731	-0.141	0.199
-410.355	-48.053	-0.238	-0.116
-409.340	-200.000	-0.004	-0.241
-408.325	17.288	-0.187	0.149
-407.311	-30.089	0.150	0.086
-406.296	-20.400	-0.173	0.107
-405.282	800.000	-0.071	0.284
-404.267	800.000	-0.034	-0.142
-403.252	189.200	0.124	-0.187
-402.238	276.615	0.055	0.100
-401.223	136.904	-0.076	-0.100
-400.209	-200.000	-0.007	-0.242
-399.194	-68.585	-0.153	0.060
-398.179	-57.700	0.186	0.082
-397.165	-97.162	-0.106	0.028
-396.150	-125.192	-0.460	0.071
-395.136	-93.428	-0.175	0.049
-394.121	800.000	-0.047	0.154
-393.106	800.000	-0.046	-0.178
-392.092	-10.997	0.228	-0.152
-391.077	-102.530	-0.387	0.093
-390.063	275.649	0.157	0.280
-389.048	-109.727	-0.252	0.053
-388.033	-148.964	-0.108	0.009
-387.019	46.643	0.147	-0.138
-386.004	-125.367	0.202	0.031
-384.990	-60.232	0.040	-0.017
-383.975	-158.159	-0.247	0.015
-382.960	-18.832	0.213	-0.134
-381.946	-62.154	0.177	0.074
-380.931	566.591	-0.056	0.138
-379.917	432.177	0.135	0.295
-378.902	-123.178	0.131	-0.021
-377.888	135.420	0.200	-0.263
-376.873	3.188	0.199	-0.146
-375.858	-46.715	0.265	-0.131
-374.844	-200.000	-0.007	0.082
-373.829	-155.537	-0.200	-0.013
-372.815	103.695	-0.096	0.114
-371.800	-200.000	-0.017	-0.145
-370.785	278.329	-0.010	0.017
-369.771	800.000	0.042	0.125
-368.756	800.000	0.080	0.319
-367.742	685.626	-0.081	0.212
-366.727	800.000	-0.082	0.316
-365.712	-152.283	0.131	-0.010
-364.698	206.156	-0.334	-0.524
-363.683	-200.000	-0.006	-0.136
-362.669	-105.903	0.323	-0.073
-361.654	579.377	0.018	0.045
-360.639	154.737	-0.122	0.169
-359.625	-81.407	-0.144	0.048
-358.610	-84.148	-0.056	-0.018
-357.596	-89.931	-0.207	-0.061
-356.581	-182.106	-0.184	-0.003
-355.566	-200.000	0.010	0.248
-354.552	-198.336	-0.117	-0.001
-353.537	50.301	0.101	0.097
-352.523	78.818	-0.154	0.166
-351.508	348.432	-0.029	-0.058
-350.493	-126.634	-0.269	0.040
-349.479	-200.000	-0.007	0.443
-348.464	-200.000	0.014	-0.182
-347.450	800.000	0.026	0.089
-346.435	59.943	-0.194	-0.193
-345.420	261.447	0.185	0.323
-344.406	20.076	0.123	0.100
-343.391	800.000	0.044	0.126
-342.377	-200.000	0.028	-0.303
-341.362	-61.386	-0.220	0.093
-340.348	-43.808	-0.197	0.100
-339.333	-123.816	-0.212	-0.034
-338.318	78.239	-0.038	-0.041
-337.304	-81.579	0.256	-0.085
-336.289	-154.286	0.078	-0.005
-335.275	800.000	-0.088	-0.256
-334.260	-88.879	-0.093	0.028
-333.245	253.382	-0.097	-0.167
-332.231	-61.974	-0.038	-0.016
-331.216	91.627	0.181	-0.205
-330.202	-106.317	0.342	0.077
-329.187	318.933	0.108	-0.206
-328.172	-200.000	0.018	-0.184
-327.158	60.826	-0.005	-0.005
-326.143	189.372	0.090	0.135
-325.129	800.000	0.080	0.241
-324.114	231.908	-0.159	0.263
-323.099	800.000	0.062	0.239
-322.085	-53.571	0.238	0.109
-321.070	800.000	0.032	-0.118
-320.056	-200.000	-0.037	-0.182
-319.041	-1.201	-0.228	-0.162
-318.026	620.096	0.118	0.299
-317.012	-200.000	-0.023	-0.419
-315.997	800.000	0.026	-0.083
-314.983	-183.106	0.088	-0.002
-313.968	-40.537	-0.241	-0.126
-312.953	-200.000	0.015	-0.143
-311.939	-48.046	-0.221	-0.107
-310.924	-46.749	0.004	0.002
-309.910	-89.397	-0.115	0.034
-308.895	-200.000	0.002	-0.018
-307.880	-86.683	-0.266	0.082
-306.866	800.000	0.132	0.500
-305.851	688.665	-0.035	0.091
-304.837	800.000	-0.026	-0.091
-303.822	-39.546	-0.057	0.030
-302.807	-200.000	0.071	-0.516
-301.793	127.917	-0.155	-0.198
-300.778	-44.539	0.295	-0.148
-299.764	-101.179	-0.243	0.060
-298.749	242.287	-0.115	-0.193
-297.735	7.108	0.056	0.042
-296.720	800.000	-0.085	-0.277
-295.705	-86.394	0.170	-0.053
-294.691	417.093	-0.052	-0.112
-293.676	21.166	0.111	-0.091
-292.662	-189.375	-0.132	-0.002
-291.647	-200.000	-0.034	-0.165
-290.632	800.000	0.096	0.409
-289.618	331.485	-0.108	0.210
-288.603	-60.450	0.038	-0.016
-287.589	800.000	-0.035	0.147
-286.574	-88.248	-0.278	0.084
-285.559	800.000	0.026	-0.111
-284.545	-200.000	-0.017	-0.108
-283.530	-200.000	-0.017	-0.403
-282.516	36.161	0.292	0.259
-281.501	-139.219	-0.295	0.032
-280.486	-82.235	0.136	-0.044
-279.472	121.249	-0.135	0.169
-278.457	-75.471	0.155	0.055
-277.443	-39.527	0.171	0.090
-276.428	201.373	0.208	0.321
-275.413	201.906	-0.130	0.201
-274.399	-46.687	0.260	-0.128
-273.384	-42.941	-0.284	0.145
-272.370	211.371	0.129	-0.204
-271.355	-112.749	0.323	0.065
-270.340	-200.000	0.012	-0.107
-269.326	-102.858	-0.217	-0.052
-268.311	-101.369	-0.118	-0.029
-267.297	-200.000	-0.032	-0.181
-266.282	-140.675	-0.493	-0.051
-265.267	-43.908	-0.170	0.086
-264.253	-200.000	-0.013	-0.070
-263.238	108.309	0.051	-0.061
-262.224	124.602	-0.154	0.194
-261.209	218.161	-0.062	-0.099
-260.195	-200.000	-0.022	0.224
-259.180	301.661	-0.076	0.141
-258.165	-83.460	0.354	0.114
-257.151	-82.776	-0.208	0.067
-256.136	312.770	0.145	-0.274
-255.122	800.000	-0.020	-0.056
-254.107	-55.787	0.292	-0.131
-253.092	56.143	0.249	0.243
-252.078	-29.345	0.172	-0.099
-251.063	47.287	-0.101	-0.095
-250.049	-14.753	0.206	0.133
-249.034	22.171	0.199	0.163
-248.019	251.896	0.161	-0.276
-247.005	-200.000	-0.018	-0.375
-245.990	126.694	0.084	0.106
-244.976	-106.537	0.143	0.032
-243.961	-104.689	0.138	-0.032
-242.946	-119.797	-0.212	-0.037
-241.932	55.352	0.034	-0.033
-240.917	800.000	-0.082	0.322
-239.903	-200.000	-0.033	0.239
-238.888	-200.000	0.045	0.248
-237.873	-152.209	0.164	0.012
-236.859	10.581	0.308	0.235
-235.844	-200.000	-0.030	0.195
-234.830	-200.000	0.009	0.044
-233.815	246.259	0.115	-0.194
-232.800	-145.397	0.170	-0.015
-231.786	-200.000	0.000	0.059
-230.771	-97.912	0.480	0.124
-229.757	-200.000	0.020	-0.229
-228.742	454.745	0.159	0.354
-227.727	-200.000	0.000	-0.097
-226.713	153.479	0.128	-0.176
-225.698	-52.471	-0.585	0.271
-224.684	106.953	0.157	-0.187
-223.669	-200.000	0.028	-0.205
-222.655	-71.630	-0.409	-0.153
-221.640	94.385	-0.132	0.150
-220.625	-109.174	0.302	0.064
-219.611	142.854	-0.117	0.156
-218.596	29.676	-0.167	0.143
-217.582	111.396	0.051	0.061
-216.567	800.000	0.078	-0.331
-215.552	-80.935	0.497	-0.165
-214.538	-200.000	-0.012	0.119
-213.523	800.000	0.144	0.411
-212.509	231.013	0.099	0.162
-211.494	75.828	-0.113	0.119
-210.479	-200.000	-0.046	-0.254
-209.465	79.788	0.024	-0.025
-208.450	577.256	0.102	0.250
-207.436	171.708	-0.076	-0.109
-206.421	800.000	0.019	-0.065
-205.406	-136.166	-0.442	0.052
-204.392	-200.000	0.026	-0.169
-203.377	800.000	0.086	-0.249
-202.363	200.140	-0.244	-0.375
-201.348	-32.357	0.335	-0.187
-200.333	467.720	0.185	0.416
-199.319	80.013	-0.068	-0.073
-198.304	-106.809	-0.333	-0.074
-197.290	513.859	-0.034	-0.079
-196.275	-17.421	-0.087	0.055
-195.260	185.751	0.092	-0.137
-194.246	-96.118	0.132	0.035
-193.231	-126.128	-0.153	-0.023
-192.217	144.559	0.202	0.270
-191.202	-167.537	0.187	-0.007
-190.187	711.567	-0.077	-0.204
-189.173	165.667	0.189	-0.268
-188.158	-200.000	-0.019	0.388
-187.144	342.522	0.174	-0.340
-186.129	-145.899	0.052	0.005
-185.114	81.841	0.158	-0.171
-184.100	118.980	-0.109	0.135
-183.085	-21.631	0.232	0.141
-182.071	223.698	0.171	-0.276
-181.056	-200.000	0.021	0.148
-180.042	2.322	-0.269	-0.195
-179.027	27.705	-0.278	-0.234
-178.012	43.864	0.089	0.082
-176.998	755.870	0.036	-0.098
-175.983	-176.227	0.319	0.008
-174.969	-169.881	-0.180	-0.006
-173.954	688.769	-0.054	-0.140
-172.939	-200.000	-0.010	-0.281
-171.925	81.998	-0.110	-0.119
-170.910	-15.733	-0.328	-0.209
-169.896	74.129	-0.116	0.122
-168.881	800.000	-0.117	0.407
-167.866	135.453	0.143	-0.186
-166.852	800.000	0.074	-0.226
-165.837	-142.429	0.211	0.021
-164.823	-200.000	0.014	0.268
-163.808	44.630	0.013	0.012
-162.793	-94.525	-0.551	-0.150
-161.779	-200.000	0.036	0.273
-160.764	-43.062	-0.143	0.072
-159.750	153.344	0.153	-0.210
-158.735	-200.000	0.052	0.281
-157.720	-112.098	-0.097	-0.020
-156.706	800.000	-0.073	0.303
-155.691	-49.372	0.181	-0.086
-154.677	-122.112	0.500	0.082
-153.662	9.425	0.014	-0.011
-152.647	125.957	0.070	0.088
-151.633	-200.000	-0.021	0.193
-150.618	800.000	-0.028	-0.099
-149.604	469.716	-0.015	-0.034
-148.589	160.885	-0.135	0.189
-147.574	800.000	-0.184	-0.550
-146.560	800.000	-0.025	0.085
-145.545	-27.173	0.363	-0.211
-144.531	168.955	0.161	-0.230
-143.516	-40.431	-0.227	0.118
-142.502	-89.348	-0.314	0.092
-141.487	18.415	0.290	-0.232
-140.472	-63.936	0.132	-0.054
-139.458	-200.000	-0.024	-0.271
-138.443	-98.769	-0.468	-0.119
-137.429	-47.668	-0.339	-0.164
-136.414	-200.000	-0.048	0.227
-135.399	800.000	-0.121	-0.378
-134.385	-4.589	-0.071	0.049
-133.370	-85.929	0.394	-0.122
-132.356	-164.588	-0.375	-0.017
-131.341	-200.000	-0.048	0.290
-130.326	-117.517	0.114	0.021
-129.312	-140.380	-0.214	0.022
-128.297	121.727	0.291	-0.362
-127.283	-173.900	-0.082	0.002
-126.268	313.215	-0.068	-0.128
-125.253	57.647	-0.297	0.290
-124.239	-200.000	-0.028	-0.444
-123.224	10.993	-0.112	-0.086
-122.210	-60.485	0.086	0.037
