DTS Sentinel unit serial number:	SN413079Multiplexer serial number:	ORYXHardware model number:	OX4-SRSoftware version number:	ORYX F/W v4.00 Oryx Data Collector v3.7.2.0data status	okinstallation	princeton_trtdifferential loss correction	single-endedforward channel	channel 3reverse channel	N/Adate	2019/09/10time	16:02:10forward acquisition time	60.00reverse acquisition time	0.00gamma	496.2192k internal	0.2298k external	0.2298temperature offset calibration	0.9904default loss term (dB/km)	0.3790temperature slope calibration	1.0000multiplexer offset coefficient	1.0000multiplexer slope coefficient	1.0000fibre end	0.00T internal ref (°C)	38.25T ext. ref 1 (°C)	-0.29T ext. ref 2 (°C)	32.46length (m)	temperature (°C)	Stokes	anti-Stokes-747.200	-157.637	0.099	0.006
-746.185	157.713	-0.094	0.133
-745.171	800.000	-0.077	0.256
-744.156	-200.000	-0.006	0.117
-743.142	800.000	-0.048	-0.201
-742.127	-139.382	-0.160	0.018
-741.112	-200.000	0.057	-0.364
-740.098	361.083	-0.040	-0.081
-739.083	4.963	0.060	0.045
-738.069	-200.000	-0.029	0.275
-737.054	154.792	-0.121	0.170
-736.039	-101.508	-0.352	0.087
-735.025	-75.526	-0.458	0.166
-734.010	-200.000	0.324	-0.000
-732.996	-79.204	0.176	-0.061
-731.981	175.738	0.122	0.181
-730.966	6.683	-0.172	0.130
-729.952	-138.013	-0.157	-0.018
-728.937	-200.000	-0.024	-0.134
-727.923	-28.011	-0.267	0.157
-726.908	84.658	0.139	0.156
-725.894	-54.256	-0.364	-0.169
-724.879	141.063	-0.019	-0.026
-723.864	-85.841	-0.059	-0.019
-722.850	-69.642	0.264	-0.103
-721.835	16.738	-0.172	0.139
-720.821	128.463	-0.154	-0.200
-719.806	437.818	0.032	0.072
-718.791	-25.892	-0.441	-0.265
-717.777	-158.855	-0.408	-0.024
-716.762	611.437	0.074	0.190
-715.748	92.746	0.155	-0.179
-714.733	219.085	-0.243	-0.397
-713.718	-109.198	-0.120	-0.026
-712.704	-52.212	-0.427	0.202
-711.689	800.000	0.039	-0.125
-710.675	-86.959	0.168	0.052
-709.660	-75.594	-0.061	0.022
-708.645	2.795	-0.086	0.064
-707.631	62.909	-0.143	0.146
-706.616	-200.000	-0.073	-0.474
-705.602	-111.511	-0.284	-0.059
-704.587	97.946	-0.094	-0.110
-703.572	101.986	-0.321	0.382
-702.558	-127.481	0.081	0.012
-701.543	764.821	0.038	0.104
-700.529	-200.000	-0.030	-0.283
-699.514	-173.869	-0.202	-0.006
-698.499	9.837	0.268	-0.207
-697.485	-48.192	0.252	-0.124
-696.470	13.064	0.215	0.169
-695.456	397.793	0.132	-0.282
-694.441	-52.965	0.015	0.007
-693.426	800.000	-0.046	0.154
-692.412	-9.649	0.119	-0.081
-691.397	176.385	-0.118	-0.174
-690.383	24.621	0.063	-0.053
-689.368	-31.578	-0.260	0.149
-688.354	499.593	-0.168	-0.396
-687.339	-89.567	-0.210	0.063
-686.324	661.938	-0.035	0.092
-685.310	85.915	0.041	0.046
-684.295	-85.415	-0.170	0.054
-683.281	-92.005	-0.228	0.066
-682.266	-200.000	-0.004	0.050
-681.251	800.000	-0.114	-0.366
-680.237	-27.764	0.172	0.102
-679.222	676.098	-0.120	-0.318
-678.208	69.707	-0.177	-0.186
-677.193	-33.590	-0.434	-0.244
-676.178	202.879	-0.152	-0.239
-675.164	106.889	0.112	0.136
-674.149	-75.015	0.192	-0.070
-673.135	128.572	0.134	-0.174
-672.120	-128.021	-0.253	-0.037
-671.105	50.476	0.205	-0.197
-670.091	800.000	0.009	0.029
-669.076	683.353	0.035	0.093
-668.062	44.729	-0.425	-0.398
-667.047	96.610	0.076	0.088
-666.032	-27.634	-0.087	-0.051
-665.018	1.698	0.184	-0.135
-664.003	-16.718	-0.378	0.244
-662.989	-130.195	0.335	0.046
-661.974	7.762	0.170	-0.130
-660.959	781.937	0.084	-0.233
-659.945	800.000	-0.041	0.171
-658.930	32.262	-0.131	0.115
-657.916	-200.000	0.005	0.108
-656.901	594.323	0.163	0.411
-655.886	800.000	-0.054	-0.187
-654.872	72.028	-0.269	-0.285
-653.857	-78.536	-0.125	-0.043
-652.843	-200.000	-0.062	-0.372
-651.828	64.497	-0.047	-0.049
-650.814	-52.137	-0.285	0.134
-649.799	14.662	-0.257	0.205
-648.784	32.036	0.218	0.191
-647.770	217.573	0.053	0.086
-646.755	-200.000	-0.117	-0.574
-645.741	189.201	0.056	-0.085
-644.726	195.360	-0.167	0.258
-643.711	10.332	-0.048	0.037
-642.697	-48.534	0.147	0.072
-641.682	-200.000	0.048	0.472
-640.668	-134.750	-0.229	0.028
-639.653	-200.000	0.001	-0.341
-638.638	-90.161	0.220	-0.065
-637.624	235.368	0.101	-0.170
-636.609	-200.000	-0.009	-0.190
-635.595	502.466	0.100	-0.235
-634.580	162.815	-0.188	0.269
-633.565	169.324	-0.129	-0.187
-632.551	56.708	-0.048	0.048
-631.536	217.658	-0.226	0.366
-630.522	-69.422	-0.236	0.092
-629.507	-173.501	-0.257	-0.008
-628.492	-82.538	-0.193	0.064
-627.478	-200.000	-0.040	-0.205
-626.463	294.315	-0.126	0.233
-625.449	283.178	-0.106	-0.193
-624.434	59.333	-0.240	0.240
-623.419	-94.688	-0.319	0.088
-622.405	132.419	-0.153	0.200
-621.390	-200.000	-0.017	-0.122
-620.376	-200.000	-0.045	0.243
-619.361	-118.486	0.244	-0.044
-618.346	100.194	-0.430	-0.507
-617.332	168.094	-0.056	-0.081
-616.317	800.000	0.099	-0.305
-615.303	130.999	0.070	-0.092
-614.288	-43.876	0.251	0.128
-613.273	103.857	0.126	0.151
-612.259	-15.134	-0.315	-0.205
-611.244	-68.195	-0.115	-0.046
-610.230	-142.101	0.021	-0.002
-609.215	259.279	-0.102	-0.178
-608.201	-58.237	-0.290	0.128
-607.186	-90.138	-0.258	0.076
-606.171	-140.950	-0.088	-0.009
-605.157	-86.275	-0.068	-0.021
-604.142	256.079	0.101	0.175
-603.128	76.011	0.109	-0.117
-602.113	-3.962	-0.082	-0.058
-601.098	356.549	-0.162	-0.328
-600.084	51.789	-0.220	0.212
-599.069	452.366	0.111	-0.250
-598.055	-115.531	0.263	0.050
-597.040	-57.969	0.337	0.149
-596.025	-85.926	0.145	-0.046
-595.011	-200.000	0.008	-0.059
-593.996	13.343	-0.271	0.213
-592.982	800.000	-0.052	-0.156
-591.967	102.261	-0.131	-0.155
-590.952	-189.865	0.269	0.003
-589.938	28.140	-0.161	-0.138
-588.923	-200.000	-0.000	-0.077
-587.909	800.000	-0.027	-0.081
-586.894	800.000	-0.065	0.227
-585.879	-104.806	-0.233	-0.054
-584.865	65.181	-0.091	0.094
-583.850	-200.000	-0.027	-0.168
-582.836	492.794	-0.128	-0.299
-581.821	189.289	0.168	0.256
-580.806	-200.000	0.017	0.127
-579.792	-65.908	0.237	-0.096
-578.777	-115.730	-0.285	0.054
-577.763	-121.303	-0.149	0.025
-576.748	-145.714	0.057	0.005
-575.733	14.317	-0.083	0.066
-574.719	103.997	0.205	0.245
-573.704	-2.205	-0.206	-0.147
-572.690	28.978	-0.088	0.076
-571.675	377.417	0.070	0.144
-570.661	-200.000	-0.159	0.000
-569.646	-118.359	0.138	0.025
-568.631	-53.276	0.134	0.062
-567.617	228.356	0.262	0.432
-566.602	800.000	0.097	0.282
-565.588	-135.111	0.244	0.030
-564.573	-142.717	-0.243	-0.024
-563.558	-40.017	-0.107	-0.057
-562.544	551.459	-0.063	0.154
-561.529	-200.000	0.013	-0.310
-560.515	-200.000	0.056	-0.611
-559.500	389.109	0.127	-0.266
-558.485	-58.415	-0.160	0.070
-557.471	452.232	0.177	-0.398
-556.456	-94.160	0.125	-0.035
-555.442	-36.308	-0.173	-0.095
-554.427	599.615	0.075	-0.189
-553.412	-200.000	0.004	0.025
-552.398	-68.890	-0.023	0.009
-551.383	-74.097	-0.143	-0.052
-550.369	-200.000	-0.010	-0.111
-549.354	800.000	0.059	0.197
-548.339	-141.525	-0.403	-0.041
-547.325	226.870	0.039	0.064
-546.310	-95.195	0.144	0.039
-545.296	-43.215	0.066	0.034
-544.281	-200.000	-0.001	-0.014
-543.266	-200.000	0.027	0.210
-542.252	-84.208	-0.394	-0.126
-541.237	32.595	-0.339	-0.297
-540.223	32.297	-0.128	-0.112
-539.208	-101.998	-0.160	0.039
-538.193	-156.321	-0.304	-0.019
-537.179	80.835	-0.240	-0.263
-536.164	800.000	0.118	0.338
-535.150	24.668	-0.131	0.110
-534.135	-200.000	-0.033	-0.349
-533.121	-45.040	-0.243	0.122
-532.106	-150.264	0.169	-0.013
-531.091	152.229	0.156	-0.216
-530.077	-200.000	0.011	0.354
-529.062	-200.000	0.011	-0.223
-528.048	18.163	-0.276	-0.223
-527.033	-200.000	-0.021	-0.204
-526.018	800.000	0.078	0.320
-525.004	-59.301	0.036	-0.016
-523.989	-200.000	0.022	-0.241
-522.975	406.049	0.088	0.189
-521.960	800.000	-0.038	-0.114
-520.945	-63.452	-0.119	0.049
-519.931	-200.000	0.005	0.129
-518.916	22.241	-0.128	-0.106
-517.902	582.210	0.066	0.163
-516.887	-39.861	-0.111	-0.059
-515.872	103.991	-0.085	0.101
-514.858	60.159	0.166	-0.166
-513.843	-22.519	0.096	0.059
-512.829	-16.254	-0.126	-0.081
-511.814	46.384	0.141	0.133
-510.799	800.000	0.061	0.268
-509.785	-45.630	-0.164	-0.082
-508.770	419.139	-0.029	0.063
-507.756	-136.155	0.125	0.015
-506.741	-200.000	0.038	0.224
-505.726	-200.000	0.007	0.323
-504.712	207.830	-0.143	0.227
-503.697	-56.637	0.190	0.085
-502.683	206.122	0.079	-0.124
-501.668	-33.149	-0.321	0.180
-500.653	26.263	0.141	-0.119
-499.639	-113.135	-0.158	-0.031
-498.624	-200.000	-0.025	-0.149
-497.610	282.340	0.091	0.166
-496.595	-7.119	0.207	0.142
-495.581	-171.195	-0.260	0.009
-494.566	-165.141	-0.272	0.012
-493.551	93.792	-0.227	-0.260
-492.537	8.855	-0.035	0.027
-491.522	18.998	0.096	0.078
-490.508	-39.059	-0.081	-0.043
-489.493	428.469	0.043	-0.094
-488.478	-97.193	-0.100	0.026
-487.464	184.346	-0.064	0.096
-486.449	-137.501	0.034	-0.004
-485.435	347.193	-0.030	-0.060
-484.420	-200.000	-0.038	0.173
-483.405	-28.280	-0.391	0.228
-482.391	525.041	-0.134	0.319
-481.376	386.389	0.113	0.236
-480.362	-11.045	-0.059	-0.040
-479.347	-37.967	-0.234	-0.126
-478.332	-148.488	0.185	-0.015
-477.318	31.128	0.089	-0.077
-476.303	-160.368	0.357	-0.019
-475.289	356.763	0.023	0.045
-474.274	-172.579	0.275	0.009
-473.259	-7.604	0.156	0.106
-472.245	291.244	-0.115	0.211
-471.230	34.514	-0.145	-0.128
-470.216	-200.000	0.057	0.379
-469.201	-49.587	-0.226	0.109
-468.186	71.754	0.153	-0.161
-467.172	-2.901	0.044	-0.031
-466.157	800.000	-0.019	0.070
-465.143	267.155	-0.193	-0.341
-464.128	-65.715	0.195	-0.079
-463.113	47.341	0.224	-0.211
-462.099	-15.677	-0.037	-0.024
-461.084	61.192	-0.106	-0.106
-460.070	-83.952	0.161	-0.052
-459.055	-195.532	-0.177	0.001
-458.040	-161.512	0.134	0.007
-457.026	289.105	-0.076	-0.139
-456.011	800.000	0.062	-0.245
-454.997	24.328	0.186	0.155
-453.982	-85.939	0.403	-0.126
-452.968	800.000	-0.074	0.237
-451.953	90.219	-0.270	0.305
-450.938	-200.000	-0.011	0.118
-449.924	-170.125	-0.199	0.007
-448.909	51.672	0.125	0.120
-447.895	-76.666	-0.049	-0.017
-446.880	172.191	-0.096	0.140
-445.865	528.784	0.066	0.157
-444.851	-52.071	0.397	0.186
-443.836	124.605	-0.163	0.207
-442.822	800.000	-0.027	0.089
-441.807	-51.634	-0.414	-0.195
-440.792	213.468	0.151	-0.241
-439.778	332.349	-0.284	0.552
-438.763	184.020	-0.094	-0.141
-437.749	-5.606	0.138	-0.095
-436.734	0.646	0.155	0.111
-435.719	1.686	0.178	-0.129
-434.705	489.213	-0.100	-0.231
-433.690	-143.068	-0.260	0.025
-432.676	-200.000	-0.022	0.230
-431.661	-200.000	-0.013	0.326
-430.646	39.071	0.309	-0.279
-429.632	109.177	-0.137	-0.166
-428.617	-195.824	-0.161	0.001
-427.603	-85.325	-0.057	-0.018
-426.588	-158.119	0.199	-0.012
-425.573	74.151	0.186	0.197
-424.559	-118.487	-0.100	0.018
-423.544	-200.000	0.027	-0.148
-422.530	-108.803	0.249	-0.054
-421.515	-200.000	-0.020	-0.191
-420.500	-200.000	-0.021	-0.199
-419.486	-22.837	0.160	-0.098
-418.471	-200.000	-0.004	0.029
-417.457	135.250	0.117	-0.153
-416.442	-113.585	0.482	0.095
-415.428	-63.648	0.084	-0.035
-414.413	198.206	0.146	-0.224
-413.398	330.636	0.051	-0.099
-412.384	800.000	-0.125	-0.392
-411.369	-200.000	0.045	-0.265
-410.355	455.994	0.076	-0.169
-409.340	-60.318	-0.232	0.100
-408.325	-95.433	0.197	0.053
-407.311	800.000	-0.048	-0.146
-406.296	94.160	0.043	-0.049
-405.282	-64.897	-0.325	0.132
-404.267	-200.000	-0.040	0.276
-403.252	252.510	0.072	0.124
-402.238	-21.693	0.238	-0.146
-401.223	247.180	-0.077	0.131
-400.209	-127.904	-0.405	-0.059
-399.194	-38.268	0.226	-0.120
-398.179	779.437	0.030	0.083
-397.165	79.116	0.172	-0.186
-396.150	-130.829	0.113	-0.015
-395.136	17.731	-0.117	0.094
-394.121	437.762	-0.141	-0.310
-393.106	170.199	-0.189	-0.273
-392.092	195.546	-0.190	0.291
-391.077	-167.270	0.124	-0.005
-390.063	-200.000	0.070	-0.404
-389.048	221.809	0.061	-0.098
-388.033	-72.126	-0.158	-0.059
-387.019	-66.956	0.209	-0.083
-386.004	610.714	-0.045	-0.114
-384.990	-200.000	0.052	-0.270
-383.975	67.574	-0.115	0.118
-382.960	55.586	-0.180	-0.175
-381.946	-200.000	-0.018	0.120
-380.931	-135.836	0.437	-0.052
-379.917	-98.142	0.276	-0.071
-378.902	112.264	0.264	0.322
-377.888	16.037	0.209	0.166
-376.873	-200.000	0.013	-0.349
-375.858	14.089	0.094	-0.073
-374.844	130.357	0.166	0.215
-373.829	-116.699	0.265	-0.049
-372.815	611.973	0.072	-0.180
-371.800	447.665	-0.153	0.339
-370.785	800.000	-0.119	0.352
-369.771	135.437	-0.244	-0.319
-368.756	120.659	0.144	-0.180
-367.742	-113.660	0.301	-0.059
-366.727	-200.000	-0.010	-0.091
-365.712	60.096	-0.128	-0.127
-364.698	114.551	0.175	0.215
-363.683	20.550	0.068	-0.055
-362.669	-200.000	0.057	-0.269
-361.654	-118.758	-0.184	0.033
-360.639	188.134	0.111	-0.167
-359.625	4.127	-0.396	-0.291
-358.610	-90.730	0.188	-0.054
-357.596	-85.407	0.260	0.081
-356.581	800.000	-0.055	0.170
-355.566	-69.104	0.296	0.115
-354.552	254.119	0.081	-0.140
-353.537	-200.000	0.009	0.093
-352.523	-114.326	0.227	0.044
-351.508	-122.287	0.304	-0.050
-350.493	-43.659	0.211	0.107
-349.479	-167.103	0.079	0.003
-348.464	46.899	-0.085	-0.079
-347.450	-200.000	0.022	0.144
-346.435	215.150	0.200	-0.319
-345.420	248.832	0.127	0.216
-344.406	-4.742	0.293	-0.203
-343.391	0.017	0.242	0.173
-342.377	-111.701	0.051	-0.010
-341.362	-30.222	-0.122	-0.070
-340.348	-24.075	0.135	0.081
-339.333	-121.629	0.153	-0.026
-338.318	124.739	0.154	0.194
-337.304	-200.000	0.008	0.237
-336.289	-69.635	0.054	-0.021
-335.275	-103.189	-0.236	-0.056
-334.260	301.691	-0.101	0.188
-333.245	-58.177	0.249	0.109
-332.231	-86.548	0.119	-0.037
-331.216	800.000	0.136	0.445
-330.202	2.521	-0.091	0.066
-329.187	28.036	0.177	-0.150
-328.172	27.461	0.092	-0.078
-327.158	-45.061	0.055	0.028
-326.143	-51.545	0.211	-0.099
-325.129	457.977	-0.068	0.152
-324.114	136.385	-0.080	-0.105
-323.099	-200.000	0.004	-0.125
-322.085	-115.690	0.302	0.057
-321.070	-200.000	-0.069	-0.413
-320.056	-106.385	0.368	0.083
-319.041	-200.000	-0.040	0.185
-318.026	130.306	0.332	0.427
-317.012	-93.097	-0.170	0.047
-315.997	-126.276	0.051	-0.008
-314.983	-118.410	0.275	-0.049
-313.968	-200.000	-0.044	0.201
-312.953	-46.528	0.228	0.112
-311.939	-64.962	-0.054	0.022
-310.924	216.900	-0.104	-0.166
-309.910	800.000	-0.083	-0.286
-308.895	312.797	-0.154	-0.291
-307.880	60.715	-0.069	0.069
-306.866	-37.983	0.311	0.166
-305.851	-200.000	-0.003	0.235
-304.837	119.411	-0.165	-0.205
-303.822	-108.603	0.479	-0.103
-302.807	-129.414	-0.318	-0.044
-301.793	-200.000	0.064	-0.327
-300.778	125.591	0.059	-0.074
-299.764	-155.146	-0.084	0.005
-298.749	7.327	-0.278	-0.208
-297.735	800.000	0.076	-0.318
-296.720	-200.000	0.050	-0.296
-295.705	-82.472	0.204	0.066
-294.691	-200.000	-0.028	0.426
-293.676	-47.137	0.243	0.119
-292.662	209.712	0.021	-0.033
-291.647	-41.340	-0.348	0.180
-290.632	275.396	-0.159	-0.282
-289.618	-111.489	0.133	-0.027
-288.603	-49.531	0.271	-0.130
-287.589	-69.410	-0.215	-0.083
-286.574	-0.205	-0.125	0.089
-285.559	103.648	0.172	-0.202
-284.545	-86.464	0.314	0.097
-283.530	-200.000	0.011	-0.343
-282.516	800.000	-0.044	-0.180
-281.501	222.367	0.111	0.179
-280.486	252.471	0.076	0.130
-279.472	-49.889	0.327	-0.156
-278.457	-85.012	0.092	-0.029
-277.443	-52.886	0.295	-0.136
-276.428	-200.000	0.027	0.158
-275.413	7.189	0.087	0.065
-274.399	283.199	0.059	0.105
-273.384	-200.000	0.036	-0.160
-272.370	-0.823	-0.201	0.143
-271.355	766.341	0.152	0.414
-270.340	-96.322	0.313	-0.083
-269.326	-200.000	0.039	0.242
-268.311	800.000	-0.014	0.055
-267.297	-95.465	-0.254	0.068
-266.282	357.566	0.147	0.294
-265.267	264.153	-0.180	0.314
-264.253	800.000	0.103	-0.394
-263.238	-139.559	-0.250	-0.027
-262.224	684.530	0.068	0.178
-261.209	-200.000	-0.022	0.135
-260.195	116.959	-0.071	-0.087
-259.180	-170.218	-0.264	0.009
-258.165	44.620	0.270	0.249
-257.151	-200.000	-0.091	0.465
-256.136	-54.788	-0.246	0.111
-255.122	800.000	0.062	0.205
-254.107	-56.064	-0.110	-0.049
-253.092	-60.100	-0.224	0.096
-252.078	7.750	-0.155	0.116
-251.063	55.195	-0.076	0.074
-250.049	10.268	0.449	-0.342
-249.034	165.211	-0.025	0.035
-248.019	-200.000	-0.021	0.185
-247.005	204.391	0.030	0.047
-245.990	-188.424	-0.187	0.002
-244.976	319.561	-0.210	-0.399
-243.961	209.879	0.271	0.426
-242.946	106.722	-0.066	-0.078
-241.932	-107.604	-0.064	-0.014
-240.917	-131.560	0.091	0.012
-239.903	199.454	-0.339	-0.520
-238.888	-81.445	0.060	-0.020
-237.873	-200.000	-0.003	0.128
-236.859	343.917	-0.082	0.161
-235.844	365.964	0.037	-0.075
-234.830	800.000	-0.116	-0.486
-233.815	-88.248	-0.124	0.037
-232.800	-82.177	-0.217	0.071
-231.786	4.408	0.113	-0.083
-230.771	92.257	0.167	-0.188
-229.757	41.899	0.213	-0.193
-228.742	56.041	0.049	0.047
-227.727	-115.716	0.124	-0.023
-226.713	-176.264	-0.244	-0.006
-225.698	800.000	0.065	0.234
-224.684	80.413	0.053	-0.057
-223.669	-149.507	-0.267	0.021
-222.655	83.011	0.277	-0.301
-221.640	-1.223	-0.113	-0.080
-220.625	-160.464	0.254	-0.014
-219.611	-200.000	0.047	0.252
-218.596	168.052	0.130	0.185
-217.582	-32.353	-0.260	0.145
-216.567	381.500	0.136	0.279
-215.552	193.419	-0.172	0.260
-214.538	47.792	-0.086	0.080
-213.523	423.116	-0.072	0.154
-212.509	-100.335	-0.297	-0.074
-211.494	800.000	0.039	0.110
-210.479	375.589	-0.215	0.438
-209.465	693.356	0.017	0.045
-208.450	-26.415	-0.074	-0.044
-207.436	153.579	0.107	0.147
-206.421	-200.000	0.025	0.284
-205.406	228.340	-0.101	-0.164
-204.392	-129.890	0.269	-0.037
-203.377	29.444	0.320	-0.272
-202.363	31.905	-0.130	-0.112
-201.348	218.733	0.023	-0.036
-200.333	35.720	0.166	-0.146
-199.319	-82.211	0.252	0.082
-198.304	-91.715	-0.164	-0.047
-197.290	-153.856	0.230	-0.016
-196.275	66.222	-0.107	0.109
-195.260	90.667	-0.085	0.096
-194.246	-53.548	-0.463	0.212
-193.231	-117.060	0.197	-0.036
-192.217	103.140	0.347	-0.407
-191.202	398.672	0.125	-0.262
-190.187	-153.902	0.270	0.018
-189.173	-200.000	0.004	0.104
-188.158	-146.402	-0.472	0.041
-187.144	183.120	-0.059	0.086
-186.129	-34.889	-0.089	-0.049
-185.114	-40.869	0.052	0.027
-184.100	-50.989	0.256	0.120
-183.085	271.038	0.186	-0.327
-182.071	-64.251	-0.389	-0.158
-181.056	-200.000	0.079	0.412
-180.042	144.777	-0.046	0.061
-179.027	-90.406	0.303	0.088
-178.012	800.000	0.034	0.118
-176.998	-200.000	-0.358	-0.001
-175.983	388.084	-0.165	-0.341
-174.969	800.000	-0.031	0.124
-173.954	800.000	-0.041	-0.172
-172.939	-94.275	-0.258	0.071
-171.925	284.435	0.098	0.175
-170.910	43.000	0.258	-0.235
-169.896	-164.388	-0.140	0.006
-168.881	252.246	0.023	-0.039
-167.866	-107.148	-0.332	0.073
-166.852	343.796	-0.131	0.257
-165.837	-50.468	0.237	-0.112
-164.823	-73.595	-0.070	0.026
-163.808	-10.125	-0.130	-0.086
-162.793	59.797	-0.042	0.042
-161.779	-54.761	-0.215	-0.097
-160.764	45.375	0.179	-0.165
-159.750	260.406	-0.091	0.156
-158.735	-167.471	-0.222	0.009
-157.720	3.268	0.091	-0.066
-156.706	-119.586	-0.393	0.068
-155.691	-91.802	0.250	-0.071
-154.677	-111.892	-0.305	0.061
-153.662	-74.260	-0.273	-0.098
-152.647	44.269	0.225	0.206
-151.633	-200.000	-0.045	0.254
-150.618	71.062	-0.078	0.080
-149.604	64.443	0.073	0.074
-148.589	-102.058	-0.098	-0.024
-147.574	800.000	-0.033	-0.110
-146.560	197.701	-0.151	0.230
-145.545	-69.383	0.098	0.037
-144.531	-200.000	-0.010	-0.088
-143.516	171.695	0.197	0.282
-142.502	116.818	-0.079	0.096
-141.487	-93.793	0.152	-0.042
-140.472	256.142	0.134	0.230
-139.458	-93.013	-0.090	0.025
-138.443	-200.000	0.020	0.295
-137.429	204.465	-0.052	0.080
-136.414	-68.068	-0.278	0.108
-135.399	-145.624	-0.076	-0.007
-134.385	800.000	-0.094	-0.298
-133.370	-77.129	0.138	-0.048
-132.356	-41.775	0.184	-0.094
-131.341	-61.221	0.089	0.037
-130.326	-136.793	0.129	-0.015
-129.312	-200.000	0.001	0.125
-128.297	-200.000	-0.007	-0.155
-127.283	40.293	-0.309	0.277
-126.268	-125.896	-0.356	-0.053
-125.253	376.438	0.104	0.212
-124.239	800.000	0.091	0.394
-123.224	800.000	-0.067	-0.208
-122.210	-106.150	0.180	0.040
-121.195	160.277	0.112	-0.155
