DTS Sentinel unit serial number:	SN413079Multiplexer serial number:	ORYXHardware model number:	OX4-SRSoftware version number:	ORYX F/W v4.00 Oryx Data Collector v3.7.2.0data status	okinstallation	princeton_trtdifferential loss correction	single-endedforward channel	channel 3reverse channel	N/Adate	2019/09/11time	15:42:11forward acquisition time	60.00reverse acquisition time	0.00gamma	496.2192k internal	0.2289k external	0.2289temperature offset calibration	0.9989default loss term (dB/km)	0.3790temperature slope calibration	1.0000multiplexer offset coefficient	1.0000multiplexer slope coefficient	1.0000fibre end	0.00T internal ref (°C)	42.81T ext. ref 1 (°C)	1.01T ext. ref 2 (°C)	37.45length (m)	temperature (°C)	Stokes	anti-Stokes-747.200	537.334	0.132	-0.320
-746.185	671.823	0.052	0.138
-745.171	800.000	0.076	0.234
-744.156	195.391	0.077	-0.120
-743.142	-21.558	0.421	0.263
-742.127	39.344	-0.126	0.115
-741.112	305.760	-0.042	-0.079
-740.098	319.089	-0.023	-0.045
-739.083	274.308	0.085	-0.154
-738.069	58.105	0.188	0.189
-737.054	12.585	0.335	-0.265
-736.039	800.000	0.101	-0.351
-735.025	-200.000	0.013	0.132
-734.010	-34.717	-0.280	-0.157
-732.996	285.876	-0.084	-0.155
-731.981	608.886	0.038	0.098
-730.966	-70.496	0.156	-0.061
-729.952	-121.075	-0.448	0.077
-728.937	-200.000	-0.036	0.219
-727.923	800.000	-0.066	0.270
-726.908	-200.000	-0.014	0.110
-725.894	-200.000	0.003	-0.263
-724.879	462.771	0.131	0.300
-723.864	-200.000	-0.016	0.221
-722.850	-135.088	-0.255	-0.031
-721.835	114.867	-0.113	0.141
-720.821	-200.000	0.090	0.408
-719.806	37.632	-0.160	-0.146
-718.791	800.000	-0.119	-0.378
-717.777	160.096	0.254	-0.363
-716.762	-159.499	-0.331	-0.019
-715.748	75.476	0.112	0.121
-714.733	111.659	0.068	0.085
-713.718	-200.000	-0.024	-0.178
-712.704	-83.610	0.132	-0.043
-711.689	-132.978	-0.251	0.033
-710.675	265.271	0.135	-0.241
-709.660	-200.000	-0.026	0.210
-708.645	-75.310	-0.071	-0.026
-707.631	-200.000	0.043	-0.297
-706.616	23.746	0.167	-0.141
-705.602	1.712	0.006	-0.005
-704.587	800.000	0.107	-0.328
-703.572	-104.536	0.093	0.022
-702.558	175.543	-0.118	-0.175
-701.543	-200.000	-0.028	0.291
-700.529	-15.485	-0.269	0.176
-699.514	338.166	-0.144	-0.286
-698.499	-67.871	-0.155	-0.062
-697.485	-200.000	0.027	-0.348
-696.470	33.794	0.099	0.088
-695.456	800.000	-0.037	0.157
-694.441	229.816	-0.103	0.172
-693.426	-70.802	-0.103	-0.040
-692.412	-136.233	0.356	-0.043
-691.397	800.000	0.042	0.175
-690.383	12.001	0.311	0.244
-689.368	800.000	-0.132	-0.427
-688.354	-83.264	0.157	0.052
-687.339	243.973	-0.139	0.238
-686.324	800.000	0.044	-0.171
-685.310	461.008	-0.054	-0.123
-684.295	552.150	0.035	-0.086
-683.281	800.000	-0.051	0.224
-682.266	56.759	0.042	0.042
-681.251	162.729	-0.215	0.309
-680.237	-24.386	-0.131	0.080
-679.222	800.000	-0.083	-0.305
-678.208	-200.000	-0.013	-0.405
-677.193	341.311	-0.109	-0.218
-676.178	-200.000	0.003	-0.282
-675.164	-89.364	0.326	0.098
-674.149	239.287	-0.073	0.124
-673.135	-37.356	0.174	-0.095
-672.120	-59.878	-0.312	0.137
-671.105	54.429	0.180	-0.177
-670.091	-9.443	0.097	0.066
-669.076	-108.568	0.075	-0.017
-668.062	-127.215	-0.138	-0.021
-667.047	-67.127	-0.076	0.031
-666.032	-110.439	0.289	-0.061
-665.018	-92.968	0.280	0.080
-664.003	66.368	0.299	0.311
-662.989	800.000	-0.088	0.267
-661.974	191.896	-0.096	-0.148
-660.959	-200.000	-0.331	-0.000
-659.945	653.880	0.112	-0.295
-658.930	5.081	-0.134	-0.101
-657.916	-118.772	-0.241	-0.043
-656.901	-107.793	0.084	-0.019
-655.886	-78.092	-0.086	-0.030
-654.872	-104.929	0.093	0.022
-653.857	52.023	0.152	-0.148
-652.843	-36.961	-0.141	-0.077
-651.828	-200.000	-0.044	-0.302
-650.814	69.805	0.045	-0.048
-649.799	71.281	0.055	-0.059
-648.784	-141.825	0.226	-0.023
-647.770	95.553	0.247	-0.287
-646.755	95.500	0.096	0.112
-645.741	110.664	-0.084	0.103
-644.726	-58.142	-0.223	0.099
-643.711	100.169	0.045	-0.054
-642.697	-4.207	-0.115	-0.081
-641.682	33.470	-0.084	0.074
-640.668	-4.458	-0.139	-0.098
-639.653	-52.549	0.124	0.058
-638.638	-200.000	0.033	-0.208
-637.624	310.117	-0.189	0.361
-636.609	311.221	0.158	0.302
-635.595	393.028	-0.150	-0.318
-634.580	-160.706	0.032	-0.002
-633.565	800.000	-0.029	-0.102
-632.551	427.156	0.194	-0.427
-631.536	-200.000	0.004	-0.167
-630.522	165.239	0.169	-0.243
-629.507	-15.007	0.165	0.108
-628.492	800.000	0.069	0.270
-627.478	-134.402	0.180	-0.023
-626.463	-166.097	0.115	-0.005
-625.449	-118.656	0.196	-0.035
-624.434	-78.121	0.155	0.054
-623.419	-200.000	-0.079	-0.363
-622.405	800.000	0.034	0.147
-621.390	688.299	0.062	0.166
-620.376	-78.203	0.018	-0.006
-619.361	-139.869	0.380	0.041
-618.346	-200.000	-0.014	-0.125
-617.332	-200.000	-0.013	0.133
-616.317	-200.000	-0.079	0.463
-615.303	181.181	0.121	-0.181
-614.288	800.000	0.025	-0.075
-613.273	697.357	-0.072	0.193
-612.259	-95.409	-0.202	-0.055
-611.244	67.090	-0.130	-0.135
-610.230	-27.999	0.202	-0.119
-609.215	-200.000	0.004	-0.164
-608.201	93.836	0.071	0.082
-607.186	49.637	-0.300	-0.288
-606.171	98.617	0.127	-0.149
-605.157	-86.869	0.258	-0.080
-604.142	-148.661	0.108	-0.009
-603.128	-200.000	0.014	0.178
-602.113	-200.000	0.012	-0.125
-601.098	-64.875	0.189	0.078
-600.084	-15.216	0.069	-0.045
-599.069	-129.434	-0.453	0.064
-598.055	249.784	0.059	0.102
-597.040	-20.715	0.061	0.038
-596.025	-143.639	-0.195	-0.019
-595.011	-33.356	0.112	-0.063
-593.996	-91.434	0.272	0.079
-592.982	-8.298	-0.287	0.197
-591.967	-200.000	0.001	-0.208
-590.952	192.336	-0.079	-0.122
-589.938	337.989	0.053	-0.105
-588.923	328.596	0.056	0.110
-587.909	-42.639	0.236	-0.122
-586.894	-9.439	-0.081	0.055
-585.879	-200.000	-0.037	-0.216
-584.865	-128.913	-0.197	0.028
-583.850	75.679	0.038	0.041
-582.836	-57.709	-0.127	-0.056
-581.821	-200.000	0.006	0.217
-580.806	-200.000	-0.001	-0.130
-579.792	-200.000	-0.079	0.368
-578.777	-31.021	0.119	0.068
-577.763	397.143	0.045	0.096
-576.748	94.263	0.116	0.134
-575.733	261.714	0.177	0.312
-574.719	110.375	0.087	0.107
-573.704	85.369	0.215	0.240
-572.690	-200.000	-0.005	0.511
-571.675	-200.000	0.016	0.162
-570.661	-200.000	-0.041	0.211
-569.646	151.367	-0.118	-0.164
-568.631	-4.291	0.091	-0.064
-567.617	-200.000	-0.040	-0.188
-566.602	146.992	0.144	-0.197
-565.588	-200.000	0.016	0.329
-564.573	-66.616	0.041	-0.017
-563.558	-200.000	-0.022	0.165
-562.544	-200.000	-0.024	-0.211
-561.529	-200.000	-0.005	-0.168
-560.515	89.320	0.094	-0.107
-559.500	66.228	0.179	-0.185
-558.485	295.373	-0.023	-0.043
-557.471	91.741	0.303	0.346
-556.456	563.803	0.037	0.090
-555.442	310.384	0.050	-0.096
-554.427	-88.515	-0.132	-0.040
-553.412	-65.839	0.241	-0.098
-552.398	36.176	0.123	0.110
-551.383	-103.830	-0.256	0.061
-550.369	-200.000	0.070	-0.387
-549.354	-8.079	0.334	-0.229
-548.339	-45.801	-0.084	0.042
-547.325	-114.191	-0.166	-0.033
-546.310	-131.284	0.168	-0.023
-545.296	-200.000	0.068	-0.337
-544.281	-200.000	-0.024	-0.450
-543.266	181.332	-0.210	-0.315
-542.252	96.030	-0.096	-0.111
-541.237	28.089	-0.112	0.096
-540.223	24.564	-0.107	0.090
-539.208	-8.545	0.048	-0.033
-538.193	-100.210	-0.189	-0.048
-537.179	-200.000	-0.052	0.252
-536.164	267.967	-0.116	-0.206
-535.150	-200.000	0.002	0.094
-534.135	-74.169	-0.101	-0.037
-533.121	426.788	0.074	-0.162
-532.106	-200.000	0.007	-0.186
-531.091	-63.579	-0.217	-0.090
-530.077	-200.000	0.006	-0.063
-529.062	800.000	0.117	-0.350
-528.048	507.207	-0.193	0.454
-527.033	-184.421	0.238	-0.004
-526.018	54.736	0.089	-0.087
-525.004	-129.588	-0.314	0.044
-523.989	-200.000	0.027	-0.240
-522.975	46.058	-0.136	-0.128
-521.960	-149.118	0.116	0.009
-520.945	800.000	-0.022	-0.069
-519.931	274.532	0.071	-0.128
-518.916	248.322	0.147	-0.253
-517.902	244.915	0.193	0.330
-516.887	38.898	-0.154	0.139
-515.872	19.892	0.149	0.122
-514.858	-121.510	-0.197	0.033
-513.843	-200.000	-0.019	-0.204
-512.829	800.000	-0.022	-0.087
-511.814	-96.838	-0.102	-0.027
-510.799	313.827	0.058	0.111
-509.785	-105.924	-0.169	0.039
-508.770	18.647	-0.214	-0.174
-507.756	51.837	-0.082	-0.080
-506.741	153.610	0.109	0.151
-505.726	-100.918	0.461	0.115
-504.712	-109.795	-0.239	-0.051
-503.697	11.638	0.271	-0.211
-502.683	800.000	-0.027	-0.098
-501.668	443.001	-0.189	0.420
-500.653	-16.150	-0.121	0.078
-499.639	-126.484	-0.251	-0.038
-498.624	-50.487	-0.231	0.111
-497.610	-200.000	-0.064	0.300
-496.595	-57.122	0.100	-0.045
-495.581	-158.254	0.192	0.011
-494.566	1.742	-0.059	0.043
-493.551	400.436	0.124	0.264
-492.537	451.292	0.096	0.216
-491.522	-58.673	-0.529	0.233
-490.508	-59.079	-0.140	0.061
-489.493	-200.000	0.011	-0.347
-488.478	-62.518	-0.157	-0.066
-487.464	800.000	-0.047	-0.189
-486.449	-200.000	0.007	0.309
-485.435	187.880	-0.034	0.051
-484.420	-28.305	0.162	0.095
-483.405	-16.506	0.255	-0.164
-482.391	735.612	0.056	-0.153
-481.376	800.000	0.039	0.129
-480.362	-200.000	0.036	0.291
-479.347	426.897	0.090	0.196
-478.332	-117.489	0.378	0.069
-477.318	-46.082	-0.105	-0.053
-476.303	562.398	-0.181	-0.445
-475.289	-48.997	0.028	0.014
-474.274	-124.257	0.575	0.091
-473.259	-12.469	-0.277	-0.183
-472.245	348.508	-0.065	-0.130
-471.230	465.704	0.028	-0.064
-470.216	-186.683	0.273	0.004
-469.201	800.000	-0.056	0.177
-468.186	-4.126	-0.194	-0.137
-467.172	-79.499	0.153	-0.052
-466.157	-200.000	0.021	0.166
-465.143	33.318	-0.185	0.163
-464.128	-200.000	0.007	-0.316
-463.113	551.960	0.073	-0.178
-462.099	380.697	-0.040	0.084
-461.084	-55.076	-0.311	0.142
-460.070	48.624	-0.307	-0.292
-459.055	-68.016	0.251	-0.099
-458.040	-200.000	0.001	-0.201
-457.026	53.329	0.099	0.096
-456.011	130.743	-0.102	0.132
-454.997	655.194	0.093	-0.241
-453.982	76.151	0.084	-0.090
-452.968	-107.023	0.116	0.026
-451.953	25.752	0.067	-0.057
-450.938	-200.000	0.011	-0.484
-449.924	181.682	-0.029	0.043
-448.909	790.124	-0.144	-0.401
-447.895	800.000	-0.036	-0.126
-446.880	-117.478	-0.188	0.034
-445.865	338.658	-0.081	-0.159
-444.851	13.598	-0.036	0.028
-443.836	-55.303	-0.248	-0.113
-442.822	-58.228	-0.267	-0.118
-441.807	61.894	0.083	-0.083
-440.792	800.000	0.014	0.040
-439.778	-200.000	-0.034	0.243
-438.763	-140.197	-0.131	-0.014
-437.749	-200.000	0.040	0.386
-436.734	800.000	-0.017	0.065
-435.719	-158.497	-0.143	-0.008
-434.705	800.000	-0.090	-0.364
-433.690	37.903	-0.238	0.214
-432.676	800.000	0.019	-0.083
-431.661	-10.733	-0.232	0.155
-430.646	800.000	0.139	0.415
-429.632	-183.883	0.474	-0.008
-428.617	10.362	-0.137	-0.106
-427.603	475.070	0.113	-0.257
-426.588	59.589	0.074	-0.073
-425.573	-142.708	-0.130	-0.013
-424.559	800.000	-0.044	0.193
-423.544	-161.017	-0.132	0.007
-422.530	0.470	0.086	-0.062
-421.515	-200.000	0.029	0.477
-420.500	21.278	-0.330	0.272
-419.486	-200.000	-0.024	-0.145
-418.471	-28.372	-0.229	0.134
-417.457	800.000	-0.156	-0.507
-416.442	-165.264	0.328	0.015
-415.428	800.000	-0.117	-0.337
-414.413	87.584	0.158	0.176
-413.398	-121.240	-0.163	-0.028
-412.384	800.000	0.110	0.327
-411.369	37.981	0.168	0.151
-410.355	198.572	-0.075	-0.116
-409.340	174.446	-0.265	-0.387
-408.325	-120.989	-0.241	0.041
-407.311	601.546	-0.016	0.040
-406.296	-37.693	-0.406	0.219
-405.282	-81.512	-0.102	0.034
-404.267	-108.735	0.060	-0.013
-403.252	-160.068	-0.228	-0.013
-402.238	8.053	0.279	0.212
-401.223	-30.733	0.202	-0.116
-400.209	-182.099	0.258	-0.005
-399.194	-200.000	0.062	0.371
-398.179	-72.205	-0.247	-0.092
-397.165	-42.546	-0.280	-0.144
-396.150	43.976	0.305	0.282
-395.136	-3.355	0.181	0.127
-394.121	800.000	0.121	-0.424
-393.106	-37.035	0.454	0.246
-392.092	46.802	0.052	0.049
-391.077	412.209	-0.133	-0.285
-390.063	64.295	-0.125	0.127
-389.048	30.342	0.074	0.064
-388.033	-56.825	-0.155	-0.069
-387.019	14.660	-0.201	-0.158
-386.004	145.472	-0.145	0.197
-384.990	-27.169	0.127	0.075
-383.975	-76.400	0.130	0.046
-382.960	-200.000	0.030	0.132
-381.946	-200.000	0.005	-0.111
-380.931	384.313	-0.137	-0.284
-379.917	800.000	0.079	-0.291
-378.902	-175.749	-0.275	0.007
-377.888	-3.051	0.191	-0.135
-376.873	-52.745	-0.104	-0.049
-375.858	-75.143	-0.138	0.050
-374.844	800.000	-0.009	-0.028
-373.829	-110.026	0.076	-0.016
-372.815	800.000	-0.086	0.289
-371.800	800.000	0.006	0.025
-370.785	-111.843	-0.130	0.027
-369.771	-200.000	-0.062	0.300
-368.756	42.119	-0.077	0.070
-367.742	-21.767	-0.230	-0.141
-366.727	-64.597	-0.057	-0.023
-365.712	-9.152	0.160	0.108
-364.698	800.000	-0.066	-0.211
-363.683	-56.088	0.277	-0.124
-362.669	-68.002	0.147	0.058
-361.654	105.604	-0.213	-0.254
-360.639	-34.424	-0.150	-0.083
-359.625	12.177	0.157	-0.122
-358.610	216.314	-0.192	-0.308
-357.596	-95.871	0.333	-0.090
-356.581	-47.550	0.175	0.086
-355.566	-30.307	0.078	0.044
-354.552	586.893	-0.141	0.350
-353.537	232.654	0.125	0.208
-352.523	-100.327	0.330	0.083
-351.508	-200.000	0.033	0.347
-350.493	-155.893	-0.278	0.018
-349.479	-157.210	-0.244	0.015
-348.464	800.000	-0.045	0.157
-347.450	227.179	0.179	-0.293
-346.435	-200.000	0.003	-0.248
-345.420	357.748	0.129	0.260
-344.406	-77.868	0.305	0.106
-343.391	444.426	-0.024	-0.053
-342.377	-84.754	0.388	-0.123
-341.362	99.732	-0.169	-0.197
-340.348	11.214	-0.249	0.192
-339.333	-200.000	-0.016	0.147
-338.318	134.037	-0.115	-0.150
-337.304	175.227	-0.020	-0.029
-336.289	540.524	-0.055	-0.133
-335.275	86.251	0.027	-0.030
-334.260	-200.000	-0.011	-0.207
-333.245	800.000	0.067	-0.219
-332.231	-200.000	-0.050	0.281
-331.216	487.790	0.058	-0.133
-330.202	-139.959	-0.293	0.031
-329.187	800.000	0.018	-0.053
-328.172	54.784	0.280	0.272
-327.158	800.000	0.049	0.210
-326.143	-121.748	-0.229	-0.038
-325.129	371.138	-0.107	-0.219
-324.114	204.516	-0.125	-0.195
-323.099	-100.686	-0.127	0.032
-322.085	797.810	0.023	-0.064
-321.070	346.754	0.103	0.204
-320.056	-33.939	-0.185	0.103
-319.041	90.149	0.188	-0.212
-318.026	9.104	0.059	-0.045
-317.012	110.853	0.088	-0.107
-315.997	45.374	0.150	-0.139
-314.983	-68.598	-0.183	0.072
-313.968	-200.000	-0.020	0.147
-312.953	414.032	-0.125	0.268
-311.939	-4.568	0.293	0.204
-310.924	38.190	-0.104	-0.094
-309.910	-200.000	-0.048	-0.289
-308.895	-24.595	0.231	0.139
-307.880	176.370	-0.174	0.255
-306.866	-32.023	0.235	-0.132
-305.851	-29.312	-0.109	0.063
-304.837	11.805	-0.107	0.083
-303.822	246.215	-0.112	-0.190
-302.807	128.120	0.197	0.253
-301.793	-132.356	0.245	0.032
-300.778	-200.000	0.001	-0.012
-299.764	-200.000	-0.017	-0.103
-298.749	20.838	0.031	0.025
-297.735	-200.000	0.032	0.312
-296.720	-81.316	0.189	0.063
-295.705	456.915	0.126	-0.283
-294.691	-118.078	0.268	-0.048
-293.676	-200.000	0.005	-0.138
-292.662	-40.362	0.159	-0.083
-291.647	317.074	0.057	-0.109
-290.632	800.000	0.044	-0.146
-289.618	-200.000	0.030	-0.404
-288.603	22.170	-0.121	-0.100
-287.589	-113.862	-0.012	0.002
-286.574	-25.868	-0.280	0.166
-285.559	-65.284	0.177	0.072
-284.545	-158.031	-0.105	0.006
-283.530	-86.706	0.161	0.050
-282.516	800.000	-0.078	0.298
-281.501	30.994	0.069	-0.060
-280.486	-50.818	0.326	0.154
-279.472	-200.000	0.039	-0.306
-278.457	40.491	-0.229	0.208
-277.443	-124.963	-0.389	-0.060
-276.428	537.182	-0.073	-0.174
-275.413	-62.003	0.072	0.030
-274.399	144.712	-0.198	0.267
-273.384	-200.000	-0.029	-0.329
-272.370	-134.879	0.172	0.021
-271.355	51.098	-0.230	0.219
-270.340	31.705	-0.208	0.180
-269.326	177.433	0.061	-0.089
-268.311	93.483	-0.089	0.101
-267.297	8.379	-0.283	0.214
-266.282	-200.000	-0.004	0.117
-265.267	-66.897	0.462	-0.184
-264.253	-149.135	-0.332	0.027
-263.238	454.267	0.087	0.193
-262.224	-108.157	0.165	0.036
-261.209	800.000	-0.114	0.322
-260.195	82.980	0.045	0.050
-259.180	-66.932	-0.120	-0.048
-258.165	800.000	-0.034	0.116
-257.151	800.000	0.059	0.186
-256.136	64.303	0.068	0.069
-255.122	-45.877	-0.360	-0.179
-254.107	170.683	-0.100	0.144
-253.092	-16.580	0.371	0.236
-252.078	-17.315	0.126	-0.080
-251.063	181.772	0.125	0.185
-250.049	501.467	0.025	0.058
-249.034	-200.000	0.066	-0.437
-248.019	-200.000	0.019	-0.369
-247.005	-181.028	-0.181	-0.004
-245.990	125.211	0.042	-0.053
-244.976	-160.594	0.140	-0.008
-243.961	-200.000	-0.001	-0.366
-242.946	-29.655	-0.053	0.030
-241.932	-81.492	-0.169	-0.056
-240.917	44.651	-0.167	0.155
-239.903	443.285	0.059	-0.131
-238.888	217.944	-0.039	0.062
-237.873	131.253	-0.103	0.133
-236.859	-200.000	0.008	0.148
-235.844	800.000	-0.126	0.382
-234.830	800.000	-0.061	0.169
-233.815	-200.000	-0.000	0.091
-232.800	-22.018	-0.415	0.253
-231.786	-114.755	0.204	0.039
-230.771	-70.791	-0.142	0.054
-229.757	-120.506	-0.406	0.069
-228.742	-59.862	-0.119	0.051
-227.727	92.826	0.069	-0.078
-226.713	74.419	0.106	0.112
-225.698	-195.611	-0.280	0.002
-224.684	-19.452	-0.058	-0.036
-223.669	-57.720	0.397	0.175
-222.655	800.000	-0.149	0.515
-221.640	-200.000	0.016	0.078
-220.625	9.460	0.088	-0.067
-219.611	-200.000	-0.008	-0.250
-218.596	183.408	-0.080	-0.119
-217.582	-200.000	-0.017	0.134
-216.567	494.781	0.105	0.243
-215.552	-200.000	-0.028	0.227
-214.538	-64.977	-0.094	-0.038
-213.523	-70.252	0.255	0.097
-212.509	471.421	0.062	-0.140
-211.494	98.376	0.234	0.271
-210.479	59.444	-0.260	0.257
-209.465	-16.427	0.281	0.179
-208.450	520.542	-0.063	-0.149
-207.436	37.569	-0.159	-0.142
-206.421	-8.804	-0.307	-0.207
-205.406	-59.906	0.266	-0.114
-204.392	-17.344	0.186	0.118
-203.377	-200.000	0.014	-0.110
-202.363	-44.561	-0.205	0.103
-201.348	-200.000	0.026	0.174
-200.333	-93.763	0.256	-0.071
-199.319	-12.019	-0.191	0.126
-198.304	7.422	-0.120	0.090
-197.290	-127.403	-0.098	-0.014
-196.275	8.550	0.221	-0.167
-195.260	91.308	0.068	-0.077
-194.246	36.564	-0.134	-0.119
-193.231	390.468	0.206	-0.429
-192.217	71.934	-0.131	-0.137
-191.202	-158.301	-0.403	0.024
-190.187	-200.000	0.001	0.216
-189.173	800.000	-0.050	-0.140
-188.158	-94.271	0.198	-0.054
-187.144	-176.927	-0.198	0.005
-186.129	-113.651	-0.262	0.051
-185.114	224.122	-0.144	-0.233
-184.100	1.016	0.176	0.127
-183.085	-94.097	-0.094	0.026
-182.071	-73.085	0.292	0.107
-181.056	107.762	0.157	-0.187
-180.042	800.000	-0.019	0.057
-179.027	84.566	0.156	-0.171
-178.012	202.372	-0.105	-0.162
-176.998	-200.000	-0.004	-0.032
-175.983	139.484	-0.030	-0.039
-174.969	-29.402	-0.306	-0.176
-173.954	800.000	0.020	0.075
-172.939	102.722	-0.044	-0.052
-171.925	-108.961	0.337	0.072
-170.910	-200.000	-0.002	-0.209
-169.896	-138.870	0.341	0.037
-168.881	-28.506	0.311	0.180
-167.866	187.562	0.086	-0.128
-166.852	82.015	-0.073	-0.079
-165.837	135.263	0.175	-0.228
-164.823	142.696	-0.022	-0.029
-163.808	-200.000	-0.018	0.145
-162.793	-121.806	-0.032	-0.005
-161.779	-86.985	0.322	-0.098
-160.764	-39.707	-0.204	0.107
-159.750	-190.583	-0.266	0.003
-158.735	-6.948	0.178	-0.121
-157.720	-99.947	0.304	0.076
-156.706	7.001	-0.101	0.076
-155.691	-200.000	-0.026	0.170
-154.677	-121.124	-0.200	0.034
-153.662	46.544	-0.266	0.247
-152.647	-200.000	-0.018	0.139
-151.633	-156.616	0.294	0.018
-150.618	49.395	-0.067	0.063
-149.604	99.764	-0.037	0.043
-148.589	-102.833	0.353	0.084
-147.574	-59.943	0.067	-0.029
-146.560	115.465	-0.110	-0.134
-145.545	24.149	-0.036	0.030
-144.531	-86.720	0.079	-0.024
-143.516	-79.640	0.143	0.048
-142.502	-36.144	-0.018	0.010
-141.487	-187.722	0.499	0.007
-140.472	89.748	0.211	0.235
-139.458	45.750	0.276	0.255
-138.443	-193.168	0.247	0.002
-137.429	-200.000	0.014	-0.260
-136.414	781.268	-0.045	0.124
-135.399	168.831	-0.144	0.206
-134.385	-84.446	0.203	-0.064
-133.370	-200.000	-0.011	-0.184
-132.356	-82.476	0.328	-0.107
-131.341	-200.000	0.033	0.226
-130.326	46.751	-0.237	0.220
-129.312	31.499	0.097	0.083
-128.297	-200.000	0.073	-0.369
-127.283	-85.273	0.231	0.072
-126.268	-200.000	-0.005	-0.047
-125.253	2.210	0.300	0.217
-124.239	800.000	0.036	-0.119
-123.224	-70.734	-0.066	0.025
-122.210	-69.422	-0.090	-0.035
-121.195	496.529	-0.128	0.294
-120.180	-7.373	0.242	-0.164
