DTS Sentinel unit serial number:	SN413079Multiplexer serial number:	ORYXHardware model number:	OX4-SRSoftware version number:	ORYX F/W v4.00 Oryx Data Collector v3.7.2.0data status	okinstallation	princeton_trtdifferential loss correction	single-endedforward channel	channel 3reverse channel	N/Adate	2019/09/12time	05:54:11forward acquisition time	60.00reverse acquisition time	0.00gamma	496.2192k internal	0.2320k external	0.2320temperature offset calibration	1.0034default loss term (dB/km)	0.3790temperature slope calibration	1.0000multiplexer offset coefficient	1.0000multiplexer slope coefficient	1.0000fibre end	0.00T internal ref (°C)	32.06T ext. ref 1 (°C)	1.55T ext. ref 2 (°C)	27.48length (m)	temperature (°C)	Stokes	anti-Stokes-747.200	-200.000	0.015	0.284
-746.185	-200.000	-0.025	-0.281
-745.171	-200.000	-0.030	0.375
-744.156	-200.000	0.009	0.057
-743.142	-63.594	0.270	0.112
-742.127	69.348	0.258	0.268
-741.112	21.267	-0.377	0.310
-740.098	-24.179	-0.279	0.168
-739.083	275.117	-0.073	0.131
-738.069	303.759	-0.120	0.224
-737.054	-27.054	-0.143	-0.084
-736.039	110.284	-0.148	-0.179
-735.025	-200.000	-0.001	0.088
-734.010	-86.910	-0.237	-0.073
-732.996	-89.133	-0.135	-0.040
-731.981	-200.000	0.029	-0.211
-730.966	659.096	-0.075	0.194
-729.952	225.033	0.029	0.048
-728.937	800.000	-0.038	0.108
-727.923	371.960	0.028	-0.058
-726.908	2.352	-0.282	-0.206
-725.894	118.339	-0.112	-0.140
-724.879	189.532	-0.139	-0.210
-723.864	-88.625	-0.224	-0.067
-722.850	71.499	0.109	-0.114
-721.835	9.151	0.042	-0.032
-720.821	200.024	0.220	-0.341
-719.806	152.668	0.150	-0.207
-718.791	-16.288	0.375	0.240
-717.777	-200.000	-0.023	-0.119
-716.762	-161.486	-0.399	0.021
-715.748	223.198	0.106	0.173
-714.733	-107.066	0.282	-0.063
-713.718	-182.760	-0.108	-0.002
-712.704	769.168	0.034	0.093
-711.689	746.679	0.106	-0.288
-710.675	-8.642	0.081	-0.055
-709.660	-200.000	-0.032	0.347
-708.645	313.304	0.113	0.215
-707.631	88.516	0.162	0.182
-706.616	-200.000	0.013	-0.193
-705.602	106.950	0.184	0.221
-704.587	-200.000	-0.292	-0.001
-703.572	-200.000	-0.006	-0.307
-702.558	15.313	0.098	-0.077
-701.543	-200.000	0.057	-0.316
-700.529	90.891	-0.131	-0.149
-699.514	163.914	-0.177	-0.251
-698.499	-200.000	0.029	-0.314
-697.485	-7.875	0.189	-0.129
-696.470	433.755	-0.082	-0.180
-695.456	33.213	-0.157	-0.137
-694.441	-106.981	-0.076	0.017
-693.426	230.024	-0.040	0.065
-692.412	272.124	0.029	0.051
-691.397	251.486	0.220	-0.377
-690.383	97.308	-0.245	-0.284
-689.368	16.359	-0.127	-0.101
-688.354	-25.122	-0.402	0.240
-687.339	-200.000	-0.022	0.177
-686.324	-45.461	-0.337	0.169
-685.310	-137.678	0.364	-0.041
-684.295	-200.000	-0.015	-0.126
-683.281	800.000	0.043	0.126
-682.266	-79.998	-0.195	0.066
-681.251	-105.539	-0.446	0.102
-680.237	36.488	0.240	0.214
-679.222	800.000	0.069	0.247
-678.208	194.873	-0.086	0.132
-677.193	-200.000	-0.006	0.310
-676.178	23.855	0.055	0.046
-675.164	800.000	0.022	-0.094
-674.149	-48.380	-0.319	0.155
-673.135	-8.208	-0.115	-0.078
-672.120	800.000	0.050	-0.141
-671.105	-100.709	0.073	0.018
-670.091	81.603	-0.169	-0.185
-669.076	-200.000	-0.064	0.450
-668.062	52.691	0.115	0.111
-667.047	-107.515	0.185	0.041
-666.032	-27.885	-0.495	-0.289
-665.018	-104.381	0.444	-0.104
-664.003	-9.535	0.191	0.129
-662.989	-82.937	0.199	-0.065
-661.974	164.453	0.228	-0.324
-660.959	-200.000	-0.014	-0.402
-659.945	-72.586	-0.207	-0.077
-658.930	259.289	-0.081	0.141
-657.916	800.000	0.061	0.236
-656.901	800.000	0.079	-0.339
-655.886	792.707	-0.107	0.297
-654.872	-200.000	-0.012	-0.390
-653.857	-77.897	-0.152	-0.053
-652.843	-67.456	0.232	-0.092
-651.828	137.948	-0.073	0.097
-650.814	69.846	-0.115	-0.119
-649.799	438.702	-0.074	-0.163
-648.784	800.000	0.077	-0.214
-647.770	-104.951	-0.130	-0.030
-646.755	127.019	-0.023	-0.029
-645.741	-8.835	0.117	-0.079
-644.726	-200.000	-0.009	0.068
-643.711	548.737	-0.010	0.025
-642.697	27.796	-0.040	0.034
-641.682	161.886	-0.040	0.057
-640.668	-35.149	-0.389	0.213
-639.653	-79.078	0.269	0.092
-638.638	170.196	0.191	0.274
-637.624	-88.698	-0.087	0.026
-636.609	-200.000	-0.077	0.391
-635.595	208.861	0.130	0.205
-634.580	534.751	0.073	-0.174
-633.565	-99.075	0.243	-0.062
-632.551	-75.367	-0.090	-0.032
-631.536	62.383	0.085	-0.086
-630.522	-41.926	-0.302	-0.156
-629.507	800.000	-0.007	0.020
-628.492	-173.551	0.242	-0.007
-627.478	-176.153	-0.226	-0.006
-626.463	800.000	0.112	0.449
-625.449	24.049	-0.242	-0.201
-624.434	-200.000	0.026	-0.220
-623.419	400.480	-0.102	-0.214
-622.405	-117.270	0.241	-0.044
-621.390	158.248	0.108	-0.150
-620.376	-200.000	0.114	0.516
-619.361	-78.466	-0.344	0.119
-618.346	88.104	0.062	-0.069
-617.332	82.823	-0.082	-0.089
-616.317	54.549	0.124	-0.121
-615.303	132.732	-0.092	-0.120
-614.288	-45.513	-0.293	-0.146
-613.273	-55.302	0.092	-0.042
-612.259	9.635	0.103	-0.078
-611.244	194.008	-0.099	0.151
-610.230	-81.005	-0.408	0.136
-609.215	-200.000	0.023	0.115
-608.201	25.195	0.173	0.144
-607.186	800.000	0.030	-0.082
-606.171	539.532	0.047	-0.113
-605.157	129.470	-0.033	-0.042
-604.142	33.634	-0.137	-0.119
-603.128	800.000	0.014	0.048
-602.113	13.219	-0.106	0.082
-601.098	-83.746	0.132	-0.042
-600.084	-20.356	0.102	0.063
-599.069	-103.364	-0.238	-0.056
-598.055	-47.148	0.304	-0.149
-597.040	-117.598	-0.199	0.036
-596.025	-143.424	0.201	-0.019
-595.011	800.000	0.084	-0.292
-593.996	16.970	-0.273	-0.217
-592.982	-0.641	-0.118	-0.084
-591.967	-200.000	-0.042	-0.238
-590.952	29.004	0.131	-0.111
-589.938	-156.441	-0.235	-0.015
-588.923	-165.450	-0.350	0.015
-587.909	105.681	0.151	-0.179
-586.894	11.924	-0.243	0.188
-585.879	81.842	0.131	0.143
-584.865	-150.172	0.420	0.033
-583.850	-200.000	0.043	0.333
-582.836	-33.032	-0.235	0.131
-581.821	36.579	-0.250	-0.222
-580.806	521.994	0.052	0.122
-579.792	509.383	-0.191	-0.447
-578.777	-124.860	0.161	0.025
-577.763	393.376	0.141	0.295
-576.748	-37.496	-0.241	-0.129
-575.733	385.530	0.024	-0.050
-574.719	202.460	-0.110	0.170
-573.704	44.271	0.300	-0.277
-572.690	-200.000	0.005	-0.266
-571.675	-46.366	-0.065	0.032
-570.661	800.000	-0.103	0.330
-569.646	-22.314	-0.118	0.072
-568.631	-126.038	0.150	-0.023
-567.617	-119.372	0.267	0.047
-566.602	203.536	0.094	-0.146
-565.588	-155.762	0.199	-0.013
-564.573	252.823	0.211	-0.361
-563.558	292.256	-0.179	-0.327
-562.544	-32.055	0.060	0.034
-561.529	-103.436	-0.364	-0.086
-560.515	731.751	0.103	0.278
-559.500	800.000	0.089	0.247
-558.485	39.330	-0.285	-0.256
-557.471	800.000	0.079	-0.274
-556.456	-200.000	-0.006	-0.221
-555.442	-98.860	-0.128	0.033
-554.427	58.596	0.066	0.065
-553.412	304.081	0.179	0.334
-552.398	-70.235	0.097	-0.037
-551.383	-47.983	-0.130	0.063
-550.369	311.819	-0.089	0.168
-549.354	-64.401	0.117	-0.048
-548.339	17.379	0.140	0.111
-547.325	-174.866	0.238	-0.007
-546.310	-54.844	0.358	0.162
-545.296	398.963	-0.055	0.115
-544.281	-200.000	0.008	-0.197
-543.266	-59.709	-0.221	0.095
-542.252	774.313	0.068	-0.186
-541.237	42.563	-0.119	-0.109
-540.223	-8.383	-0.329	-0.222
-539.208	-31.308	-0.069	0.039
-538.193	61.060	0.272	-0.270
-537.179	-1.344	-0.280	-0.198
-536.164	126.939	0.380	0.483
-535.150	-151.482	0.246	-0.018
-534.135	11.585	-0.330	0.254
-533.121	-8.503	0.239	-0.161
-532.106	800.000	0.054	-0.222
-531.091	169.125	-0.056	-0.080
-530.077	-10.698	0.055	-0.037
-529.062	800.000	-0.063	0.187
-528.048	57.659	-0.108	-0.106
-527.033	-167.358	0.302	-0.012
-526.018	-28.020	-0.401	0.233
-525.004	800.000	-0.012	0.036
-523.989	800.000	-0.105	-0.348
-522.975	43.869	-0.139	-0.128
-521.960	-145.300	0.162	0.015
-520.945	-81.489	-0.375	0.124
-519.931	-6.123	-0.256	0.176
-518.916	90.449	0.166	-0.187
-517.902	20.513	-0.175	-0.142
-516.887	45.229	0.260	-0.241
-515.872	-200.000	-0.018	-0.082
-514.858	101.386	0.062	0.072
-513.843	-200.000	-0.002	0.261
-512.829	-30.698	0.291	-0.165
-511.814	800.000	0.057	-0.244
-510.799	-200.000	-0.008	0.053
-509.785	12.108	0.326	-0.251
-508.770	513.421	0.135	-0.314
-507.756	-58.489	-0.300	-0.131
-506.741	293.945	-0.001	-0.002
-505.726	-86.794	0.334	-0.102
-504.712	-116.946	0.090	0.016
-503.697	-67.379	-0.286	-0.113
-502.683	70.827	-0.230	0.239
-501.668	43.692	-0.114	-0.105
-500.653	-96.750	0.397	-0.105
-499.639	-35.588	-0.174	0.095
-498.624	-200.000	-0.042	0.380
-497.610	110.391	-0.228	0.275
-496.595	-92.918	0.218	0.061
-495.581	-200.000	-0.009	-0.292
-494.566	800.000	0.064	0.205
-493.551	86.140	-0.086	0.094
-492.537	37.929	0.181	0.161
-491.522	48.669	-0.092	0.086
-490.508	273.052	-0.190	-0.335
-489.493	-147.434	-0.202	-0.017
-488.478	-200.000	0.018	-0.096
-487.464	-200.000	0.014	-0.288
-486.449	-29.764	0.132	-0.075
-485.435	354.830	0.035	-0.069
-484.420	-54.339	0.451	0.205
-483.405	537.032	-0.104	0.247
-482.391	307.700	-0.056	0.105
-481.376	771.691	0.107	-0.291
-480.362	692.605	0.146	0.384
-479.347	-200.000	0.014	-0.115
-478.332	40.160	-0.036	0.033
-477.318	120.627	-0.025	-0.031
-476.303	-28.201	-0.120	0.069
-475.289	201.149	-0.107	0.165
-474.274	-200.000	0.030	0.158
-473.259	-200.000	0.003	-0.373
-472.245	-29.183	-0.085	-0.049
-471.230	-27.259	-0.304	-0.177
-470.216	-78.517	0.328	-0.112
-469.201	194.661	-0.126	0.191
-468.186	-135.290	-0.298	0.036
-467.172	-100.040	0.185	0.046
-466.157	280.630	0.119	-0.212
-465.143	167.402	0.259	0.368
-464.128	-200.000	0.009	0.168
-463.113	296.822	0.085	-0.155
-462.099	-50.907	-0.016	-0.008
-461.084	800.000	-0.025	-0.070
-460.070	134.170	-0.112	-0.145
-459.055	42.847	0.341	0.311
-458.040	-128.831	-0.207	0.029
-457.026	-83.352	0.160	0.051
-456.011	-200.000	-0.067	-0.395
-454.997	-200.000	-0.056	-0.264
-453.982	-101.703	-0.118	-0.029
-452.968	50.158	0.408	0.385
-451.953	-23.368	-0.079	0.047
-450.938	395.295	-0.072	0.151
-449.924	-107.752	-0.317	-0.069
-448.909	191.647	-0.109	-0.164
-447.895	800.000	0.081	-0.284
-446.880	-200.000	0.038	0.293
-445.865	15.174	0.109	-0.085
-444.851	-117.712	-0.266	0.048
-443.836	-200.000	-0.044	0.391
-442.822	800.000	-0.072	0.247
-441.807	-103.608	-0.273	-0.064
-440.792	800.000	0.046	0.157
-439.778	-93.654	-0.258	-0.071
-438.763	-34.437	0.259	0.142
-437.749	20.587	0.218	-0.176
-436.734	628.529	-0.067	0.168
-435.719	148.292	-0.167	-0.225
-434.705	18.153	0.482	-0.384
-433.690	101.945	0.048	0.056
-432.676	202.344	0.105	-0.162
-431.661	-49.954	-0.318	-0.151
-430.646	-200.000	0.026	0.293
-429.632	-131.914	-0.350	0.046
-428.617	-65.173	-0.240	-0.097
-427.603	241.471	0.233	0.388
-426.588	-0.411	0.429	0.305
-425.573	-200.000	-0.057	0.297
-424.559	404.142	0.125	-0.263
-423.544	-200.000	0.010	0.326
-422.530	395.611	0.054	0.112
-421.515	-200.000	0.025	-0.211
-420.500	-200.000	-0.077	-0.353
-419.486	-42.202	0.303	0.154
-418.471	-96.541	-0.241	0.064
-417.457	128.814	0.154	0.196
-416.442	280.784	-0.021	-0.037
-415.428	800.000	0.078	0.220
-414.413	800.000	0.006	0.021
-413.398	-50.075	0.145	-0.069
-412.384	-25.142	0.173	-0.102
-411.369	-85.369	-0.370	-0.115
-410.355	-1.250	-0.276	-0.194
-409.340	-200.000	-0.062	-0.338
-408.325	177.933	-0.220	0.320
-407.311	168.456	-0.080	-0.114
-406.296	-200.000	-0.010	-0.128
-405.282	-151.988	-0.200	-0.015
-404.267	-200.000	0.050	-0.261
-403.252	800.000	-0.023	-0.067
-402.238	800.000	-0.016	0.047
-401.223	19.819	-0.014	0.011
-400.209	-200.000	0.050	0.374
-399.194	-74.798	-0.332	-0.119
-398.179	-121.281	0.342	-0.057
-397.165	203.585	0.165	0.254
-396.150	448.999	0.141	0.309
-395.136	102.280	-0.170	-0.199
-394.121	-90.303	-0.137	-0.040
-393.106	15.730	0.269	0.211
-392.092	291.582	0.010	0.019
-391.077	-76.485	0.247	0.087
-390.063	800.000	0.063	-0.174
-389.048	-200.000	-0.010	-0.306
-388.033	-88.550	0.167	0.049
-387.019	29.284	-0.216	-0.183
-386.004	-182.997	-0.302	-0.005
-384.990	-130.511	-0.259	-0.035
-383.975	-75.477	0.298	0.106
-382.960	791.429	-0.050	0.138
-381.946	-200.000	-0.024	-0.371
-380.931	-151.719	-0.096	-0.007
-379.917	109.656	0.221	-0.264
-378.902	-15.264	0.207	-0.132
-377.888	116.354	-0.162	0.198
-376.873	-98.277	-0.315	-0.081
-375.858	275.058	0.053	0.093
-374.844	-200.000	-0.013	-0.229
-373.829	130.246	0.281	0.358
-372.815	85.815	0.148	-0.162
-371.800	-69.995	-0.105	0.040
-370.785	-200.000	0.023	0.347
-369.771	800.000	0.085	0.252
-368.756	176.084	0.095	-0.138
-367.742	-8.838	-0.099	-0.066
-366.727	-164.706	0.199	-0.009
-365.712	-123.518	0.370	-0.059
-364.698	-45.963	0.165	0.081
-363.683	-200.000	-0.014	-0.099
-362.669	800.000	0.092	0.257
-361.654	-200.000	-0.040	0.376
-360.639	-18.773	0.218	-0.135
-359.625	643.240	-0.142	0.360
-358.610	800.000	-0.050	-0.202
-357.596	-83.584	0.486	-0.155
-356.581	-60.746	-0.355	0.150
-355.566	-140.900	-0.184	-0.019
-354.552	247.305	-0.091	-0.154
-353.537	800.000	-0.033	-0.105
-352.523	110.962	0.048	-0.058
-351.508	-200.000	0.017	-0.299
-350.493	-200.000	-0.006	0.314
-349.479	-127.347	0.294	0.043
-348.464	166.878	-0.122	-0.172
-347.450	-112.404	0.144	0.029
-346.435	-6.176	0.147	-0.100
-345.420	-200.000	-0.240	0.000
-344.406	-200.000	-0.088	-0.518
-343.391	89.056	-0.106	-0.118
-342.377	800.000	-0.048	0.165
-341.362	119.284	0.059	-0.073
-340.348	343.300	-0.064	0.125
-339.333	-73.366	-0.084	-0.031
-338.318	-200.000	-0.034	0.350
-337.304	-51.089	0.362	0.169
-336.289	-97.094	0.091	0.024
-335.275	-200.000	-0.015	-0.100
-334.260	-104.836	-0.070	-0.016
-333.245	13.218	0.088	-0.068
-332.231	800.000	-0.039	-0.126
-331.216	-200.000	0.004	-0.177
-330.202	-200.000	-0.001	-0.199
-329.187	118.100	-0.152	0.186
-328.172	776.556	0.008	0.022
-327.158	-196.086	-0.272	0.002
-326.143	269.204	-0.090	-0.158
-325.129	-7.683	-0.048	-0.032
-324.114	-44.242	0.296	0.147
-323.099	173.082	0.111	0.160
-322.085	-145.709	-0.334	0.030
-321.070	203.612	-0.062	-0.095
-320.056	-3.903	0.288	-0.198
-319.041	120.655	0.231	-0.285
-318.026	-200.000	-0.026	0.148
-317.012	-90.324	0.223	-0.064
-315.997	-200.000	0.039	0.499
-314.983	151.538	-0.120	0.162
-313.968	800.000	0.045	-0.156
-312.953	28.531	0.203	-0.171
-311.939	-114.177	-0.357	0.069
-310.924	-141.768	0.141	0.014
-309.910	35.619	0.281	0.245
-308.895	-81.370	0.326	0.107
-307.880	800.000	0.023	-0.076
-306.866	800.000	0.061	-0.248
-305.851	-200.000	-0.044	-0.344
-304.837	95.797	-0.131	0.149
-303.822	-65.699	-0.178	0.071
-302.807	-14.596	0.207	0.132
-301.793	-30.209	0.211	0.119
-300.778	208.617	-0.096	0.149
-299.764	-200.000	-0.019	-0.227
-298.749	-200.000	-0.000	-0.062
-297.735	-198.407	0.398	-0.002
-296.720	-169.171	-0.190	-0.007
-295.705	800.000	-0.033	0.101
-294.691	118.186	-0.070	0.086
-293.676	-30.840	0.071	-0.040
-292.662	646.469	-0.026	0.065
-291.647	800.000	-0.063	-0.236
-290.632	290.698	0.097	-0.175
-289.618	499.755	-0.203	0.465
-288.603	69.159	-0.161	0.165
-287.589	-200.000	0.021	0.154
-286.574	10.915	-0.169	0.128
-285.559	-106.019	-0.295	-0.066
-284.545	-50.834	0.094	0.044
-283.530	-200.000	0.013	0.244
-282.516	-106.348	-0.246	0.055
-281.501	-35.830	-0.296	-0.159
-280.486	-65.963	-0.348	0.138
-279.472	-41.835	-0.236	0.120
-278.457	254.754	-0.130	0.221
-277.443	-44.474	-0.173	0.086
-276.428	-34.168	0.236	0.129
-275.413	-200.000	-0.012	-0.110
-274.399	507.426	0.123	0.283
-273.384	-200.000	-0.019	-0.172
-272.370	12.894	-0.361	-0.277
-271.355	-132.222	-0.386	0.050
-270.340	9.327	0.178	0.133
-269.326	-90.285	0.423	0.122
-268.311	244.615	-0.039	0.065
-267.297	-97.751	0.235	-0.060
-266.282	-145.958	0.130	0.011
-265.267	-150.112	0.450	0.035
-264.253	28.986	-0.234	-0.197
-263.238	266.970	0.137	-0.237
-262.224	121.493	0.208	-0.257
-261.209	123.573	-0.103	0.128
-260.195	218.495	-0.044	-0.070
-259.180	-200.000	-0.046	-0.344
-258.165	12.025	0.222	-0.169
-257.151	129.487	0.201	0.255
-256.136	800.000	0.033	0.103
-255.122	-200.000	0.036	-0.184
-254.107	76.039	0.072	-0.076
-253.092	177.596	-0.105	0.151
-252.078	279.202	0.113	0.200
-251.063	-36.231	0.080	0.043
-250.049	-52.148	-0.114	-0.052
-249.034	0.714	-0.135	0.096
-248.019	800.000	-0.097	-0.282
-247.005	-41.494	-0.199	0.102
-245.990	3.179	-0.180	0.130
-244.976	556.099	0.078	0.185
-243.961	-180.618	0.166	0.003
-242.946	176.798	0.157	-0.226
-241.932	9.846	-0.263	0.198
-240.917	586.401	-0.112	0.273
-239.903	-200.000	0.045	0.306
-238.888	800.000	0.011	0.049
-237.873	-58.727	0.217	0.093
-236.859	-93.760	-0.123	-0.034
-235.844	-200.000	0.022	0.215
-234.830	321.395	0.079	-0.149
-233.815	-54.963	-0.199	-0.089
-232.800	-128.054	-0.248	-0.035
-231.786	-200.000	-0.037	-0.203
-230.771	442.613	-0.167	0.363
-229.757	-200.000	-0.065	0.342
-228.742	-200.000	-0.048	-0.323
-227.727	-139.592	0.326	-0.034
-226.713	-112.002	0.302	-0.060
-225.698	-200.000	-0.013	-0.139
-224.684	763.537	-0.070	-0.190
-223.669	155.908	0.112	-0.152
-222.655	-169.640	0.135	0.005
-221.640	-26.955	0.161	-0.093
-220.625	-200.000	0.002	-0.053
-219.611	-19.167	0.212	-0.130
-218.596	-67.118	-0.360	0.141
-217.582	-7.758	-0.134	-0.089
-216.567	-47.093	-0.092	0.044
-215.552	85.516	0.195	0.212
-214.538	478.576	-0.075	0.169
-213.523	658.859	0.047	0.119
-212.509	-51.308	0.211	-0.098
-211.494	38.817	-0.222	0.196
-210.479	26.309	0.270	0.223
-209.465	-11.030	0.146	0.095
-208.450	800.000	-0.079	-0.252
-207.436	-129.446	-0.046	-0.006
-206.421	52.138	0.035	-0.033
-205.406	-136.254	-0.063	0.007
-204.392	143.544	0.064	-0.084
-203.377	800.000	0.032	0.103
-202.363	-85.636	-0.127	-0.039
-201.348	-200.000	0.032	-0.164
-200.333	411.324	0.020	0.041
-199.319	101.989	0.103	-0.119
-198.304	-65.144	0.093	0.037
-197.290	800.000	0.093	-0.311
-196.275	203.818	0.170	-0.260
-195.260	15.666	0.365	-0.284
-194.246	-200.000	-0.042	0.232
-193.231	-183.031	0.389	-0.007
-192.217	-100.737	0.371	-0.090
-191.202	-21.571	-0.268	-0.162
-190.187	343.170	-0.121	0.235
-189.173	-200.000	0.031	0.254
-188.158	138.872	0.065	0.084
-187.144	800.000	-0.130	0.380
-186.129	-200.000	-0.021	0.442
-185.114	-200.000	0.051	0.254
-184.100	-39.147	0.256	0.133
-183.085	-37.404	-0.319	0.168
-182.071	-112.914	0.451	0.088
-181.056	-173.401	-0.350	0.010
-180.042	800.000	0.041	0.122
-179.027	71.747	-0.136	-0.139
-178.012	-12.195	0.284	-0.184
-176.998	5.303	-0.128	-0.094
-175.983	-156.855	-0.158	0.010
-174.969	-51.110	-0.082	-0.038
-173.954	187.028	-0.063	-0.092
-172.939	27.080	-0.161	-0.134
-171.925	8.659	0.127	0.095
-170.910	360.101	-0.143	0.282
-169.896	-22.046	-0.129	-0.077
-168.881	31.671	0.032	-0.027
-167.866	-94.324	-0.330	0.089
-166.852	289.129	0.094	-0.168
-165.837	-11.469	0.026	-0.017
-164.823	27.818	-0.256	0.213
-163.808	-200.000	0.035	-0.265
-162.793	-36.797	-0.121	-0.064
-161.779	-112.060	-0.165	-0.033
-160.764	-73.047	-0.268	-0.097
-159.750	-44.484	-0.049	-0.024
-158.735	-62.203	-0.340	-0.140
-157.720	-149.808	-0.309	-0.024
-156.706	-200.000	-0.009	0.191
-155.691	-0.534	-0.041	0.029
-154.677	105.846	0.084	0.098
-153.662	8.699	0.151	-0.112
-152.647	161.709	0.176	-0.244
-151.633	-44.805	-0.088	-0.043
-150.618	-200.000	0.004	0.113
-149.604	-17.656	-0.082	0.051
-148.589	-200.000	-0.005	0.295
-147.574	800.000	-0.128	-0.385
-146.560	-154.666	-0.571	0.037
-145.545	100.796	0.199	0.229
-144.531	800.000	0.025	0.100
-143.516	95.946	0.031	0.035
-142.502	11.085	0.177	0.133
-141.487	706.102	-0.095	0.247
-140.472	378.783	-0.066	0.133
-139.458	242.499	0.152	-0.251
-138.443	155.668	0.243	-0.331
-137.429	-93.286	-0.507	0.139
-136.414	-85.851	-0.380	0.116
-135.399	121.804	0.145	0.179
-134.385	204.350	-0.183	0.280
-133.370	479.376	0.092	-0.207
-132.356	-25.334	0.192	-0.112
-131.341	800.000	0.070	-0.279
-130.326	33.371	-0.285	0.244
-129.312	143.544	-0.077	-0.101
-128.297	-200.000	-0.007	-0.131
-127.283	-127.947	0.121	-0.017
-126.268	-118.583	0.198	0.035
-125.253	59.972	0.148	0.144
-124.239	-115.089	0.305	-0.057
-123.224	137.923	-0.063	-0.081
-122.210	611.316	0.043	-0.105
-121.195	119.769	-0.169	-0.207
