DTS Sentinel unit serial number:	SN413079Multiplexer serial number:	ORYXHardware model number:	OX4-SRSoftware version number:	ORYX F/W v4.00 Oryx Data Collector v3.7.2.0data status	okinstallation	princeton_trtdifferential loss correction	single-endedforward channel	channel 3reverse channel	N/Adate	2019/09/11time	08:10:11forward acquisition time	60.00reverse acquisition time	0.00gamma	496.2192k internal	0.2318k external	0.2318temperature offset calibration	1.1242default loss term (dB/km)	0.3790temperature slope calibration	1.0000multiplexer offset coefficient	1.0000multiplexer slope coefficient	1.0000fibre end	0.00T internal ref (°C)	32.39T ext. ref 1 (°C)	19.90T ext. ref 2 (°C)	28.77length (m)	temperature (°C)	Stokes	anti-Stokes-747.200	173.087	0.224	0.326
-746.185	-109.101	-0.261	0.056
-745.171	195.385	0.197	0.303
-744.156	271.767	-0.103	0.184
-743.142	550.468	-0.042	-0.102
-742.127	64.011	-0.256	-0.260
-741.112	800.000	-0.055	-0.201
-740.098	123.192	-0.162	0.205
-739.083	42.139	-0.033	0.030
-738.069	140.987	-0.176	0.235
-737.054	-89.252	0.223	-0.067
-736.039	-200.000	0.013	0.066
-735.025	-85.549	0.355	0.112
-734.010	-109.781	0.096	-0.020
-732.996	-200.000	0.016	0.145
-731.981	-6.799	0.126	0.087
-730.966	-71.197	0.150	0.057
-729.952	19.731	0.304	0.248
-728.937	128.534	-0.172	-0.222
-727.923	38.819	-0.208	-0.187
-726.908	260.527	-0.142	-0.248
-725.894	-200.000	-0.053	0.246
-724.879	42.629	-0.047	0.043
-723.864	-200.000	-0.051	0.246
-722.850	-7.385	0.200	-0.137
-721.835	69.329	-0.120	0.125
-720.821	224.272	0.177	0.289
-719.806	-26.970	0.188	0.111
-718.791	276.716	0.078	0.140
-717.777	149.326	0.079	-0.107
-716.762	670.270	0.080	-0.209
-715.748	-9.876	0.060	0.040
-714.733	674.663	0.103	0.271
-713.718	800.000	0.079	-0.251
-712.704	800.000	0.120	0.339
-711.689	41.016	-0.040	-0.036
-710.675	135.416	0.125	0.164
-709.660	-83.498	-0.271	-0.088
-708.645	-91.226	0.225	0.065
-707.631	800.000	0.036	0.140
-706.616	-152.488	0.211	-0.015
-705.602	54.033	0.199	-0.193
-704.587	800.000	0.092	-0.300
-703.572	-200.000	0.005	-0.043
-702.558	-200.000	-0.006	0.050
-701.543	-132.938	-0.105	0.013
-700.529	-200.000	0.018	-0.517
-699.514	-154.988	-0.195	-0.013
-698.499	23.973	-0.169	0.141
-697.485	473.721	0.100	-0.229
-696.470	-200.000	-0.027	-0.188
-695.456	-27.046	-0.290	0.171
-694.441	-27.632	0.179	-0.105
-693.426	30.752	-0.013	0.012
-692.412	-200.000	-0.010	0.104
-691.397	265.680	-0.053	0.093
-690.383	148.440	0.069	0.095
-689.368	54.197	0.093	0.090
-688.354	-30.282	0.361	-0.207
-687.339	-51.658	0.246	-0.116
-686.324	-18.614	-0.357	0.225
-685.310	465.565	0.059	0.134
-684.295	-56.044	0.204	0.092
-683.281	677.353	0.113	-0.297
-682.266	800.000	0.061	-0.192
-681.251	133.014	0.120	-0.157
-680.237	-174.200	0.429	-0.013
-679.222	800.000	0.040	-0.171
-678.208	-102.662	-0.205	-0.049
-677.193	110.268	-0.054	-0.065
-676.178	-200.000	0.037	-0.315
-675.164	-130.297	0.166	0.023
-674.149	-62.552	-0.077	-0.032
-673.135	89.258	-0.044	0.049
-672.120	-200.000	-0.004	0.202
-671.105	-79.747	0.158	-0.054
-670.091	6.395	0.176	0.132
-669.076	68.479	-0.127	-0.132
-668.062	-15.993	0.191	-0.123
-667.047	378.684	0.110	0.227
-666.032	126.702	-0.212	-0.271
-665.018	71.302	0.257	-0.269
-664.003	-200.000	0.019	-0.178
-662.989	-157.991	0.231	-0.014
-661.974	318.492	0.223	-0.426
-660.959	203.414	0.142	-0.222
-659.945	-154.018	-0.073	-0.005
-658.930	10.423	0.100	-0.077
-657.916	800.000	0.128	-0.394
-656.901	-83.592	-0.663	-0.214
-655.886	-85.968	-0.239	0.075
-654.872	-9.019	-0.054	0.036
-653.857	-130.178	0.096	0.013
-652.843	800.000	-0.095	-0.301
-651.828	800.000	0.044	-0.189
-650.814	-79.588	0.423	-0.144
-649.799	158.449	-0.239	0.334
-648.784	-200.000	0.005	-0.202
-647.770	-200.000	0.031	-0.158
-646.755	728.199	-0.199	0.536
-645.741	-104.716	-0.215	-0.050
-644.726	800.000	-0.071	0.282
-643.711	58.169	0.185	-0.182
-642.697	266.641	-0.139	-0.245
-641.682	-55.200	0.211	-0.096
-640.668	188.497	0.063	0.095
-639.653	-23.387	0.149	-0.090
-638.638	-83.145	-0.250	0.081
-637.624	-5.224	-0.198	0.137
-636.609	6.034	0.059	0.044
-635.595	-37.479	-0.094	-0.050
-634.580	21.835	0.203	-0.167
-633.565	-51.325	0.271	-0.128
-632.551	-90.615	-0.134	-0.039
-631.536	-200.000	-0.014	-0.073
-630.522	-144.458	0.376	0.035
-629.507	-103.850	0.068	-0.016
-628.492	84.192	-0.105	-0.116
-627.478	800.000	0.105	-0.429
-626.463	800.000	-0.067	-0.222
-625.449	607.219	-0.135	-0.339
-624.434	13.709	-0.072	0.056
-623.419	-148.299	-0.001	-0.000
-622.405	-152.685	0.140	0.010
-621.390	-85.729	-0.182	0.057
-620.376	-200.000	0.044	-0.257
-619.361	27.132	0.214	-0.181
-618.346	-87.089	0.128	0.039
-617.332	-80.036	0.126	0.043
-616.317	-200.000	0.030	0.275
-615.303	-191.420	0.347	-0.004
-614.288	715.471	-0.140	-0.373
-613.273	-36.856	0.016	-0.009
-612.259	78.977	-0.264	0.285
-611.244	800.000	0.043	-0.130
-610.230	-92.552	0.037	0.010
-609.215	-104.840	0.118	0.027
-608.201	-151.255	0.180	-0.014
-607.186	19.816	-0.154	0.125
-606.171	167.471	-0.195	0.279
-605.157	66.882	-0.173	0.177
-604.142	-200.000	0.004	0.148
-603.128	-96.303	0.171	-0.046
-602.113	-55.375	0.028	-0.013
-601.098	-200.000	-0.011	0.405
-600.084	10.102	-0.098	-0.075
-599.069	-68.136	-0.241	0.094
-598.055	-13.597	-0.144	-0.094
-597.040	101.302	-0.118	-0.138
-596.025	-97.915	-0.060	0.016
-595.011	-33.987	-0.165	-0.092
-593.996	79.634	0.160	-0.172
-592.982	144.016	-0.140	0.188
-591.967	-55.016	-0.505	0.229
-590.952	-150.681	0.265	-0.020
-589.938	253.046	-0.055	0.095
-588.923	800.000	0.063	0.187
-587.909	-177.447	-0.189	-0.005
-586.894	-5.886	-0.308	-0.212
-585.879	121.707	-0.172	-0.216
-584.865	-200.000	0.035	-0.270
-583.850	18.173	-0.160	-0.129
-582.836	-136.267	-0.288	0.034
-581.821	303.014	-0.028	-0.052
-580.806	-200.000	0.021	0.184
-579.792	800.000	0.121	-0.389
-578.777	-51.402	0.193	0.091
-577.763	34.247	0.241	0.211
-576.748	800.000	0.076	-0.224
-575.733	-200.000	-0.007	-0.152
-574.719	-25.502	0.202	0.120
-573.704	-23.330	-0.160	-0.097
-572.690	110.915	-0.238	0.288
-571.675	213.241	0.146	0.232
-570.661	-108.990	0.300	-0.064
-569.646	-56.636	-0.207	-0.092
-568.631	74.768	0.100	-0.105
-567.617	-72.820	-0.319	0.118
-566.602	655.259	-0.090	-0.233
-565.588	-200.000	0.033	-0.308
-564.573	-59.432	-0.099	0.043
-563.558	-17.860	-0.315	0.198
-562.544	27.279	-0.188	0.158
-561.529	800.000	0.035	0.102
-560.515	107.136	-0.271	0.324
-559.500	-86.227	-0.281	-0.087
-558.485	-200.000	-0.036	0.227
-557.471	128.319	-0.169	-0.217
-556.456	146.101	0.119	0.160
-555.442	174.836	0.116	-0.169
-554.427	107.994	0.074	0.088
-553.412	-189.318	0.080	-0.001
-552.398	166.817	0.231	-0.329
-551.383	28.844	-0.136	-0.116
-550.369	193.656	0.072	0.109
-549.354	-200.000	0.003	0.445
-548.339	567.565	-0.038	0.092
-547.325	84.064	-0.206	0.226
-546.310	800.000	0.028	0.091
-545.296	-200.000	0.007	0.391
-544.281	102.869	0.105	-0.123
-543.266	-56.137	-0.097	-0.043
-542.252	-56.097	-0.088	0.039
-541.237	298.601	0.050	-0.092
-540.223	-200.000	0.004	0.078
-539.208	-157.944	0.162	0.010
-538.193	800.000	-0.078	0.251
-537.179	-200.000	-0.040	0.400
-536.164	-68.966	0.276	-0.107
-535.150	138.756	0.130	-0.172
-534.135	-80.654	0.336	0.112
-533.121	-53.148	-0.118	-0.054
-532.106	800.000	-0.076	-0.230
-531.091	-21.245	0.178	0.109
-530.077	-63.599	-0.290	0.120
-529.062	-13.239	-0.254	0.165
-528.048	-45.654	-0.451	-0.224
-527.033	-58.265	0.353	-0.154
-526.018	323.425	-0.126	0.241
-525.004	-4.116	-0.250	0.174
-523.989	-200.000	-0.022	0.200
-522.975	378.993	0.069	0.141
-521.960	-48.159	-0.145	-0.070
-520.945	430.720	0.072	-0.157
-519.931	-24.219	-0.107	-0.064
-518.916	-97.846	0.105	0.027
-517.902	168.276	0.065	0.092
-516.887	105.446	-0.125	0.148
-515.872	-122.442	-0.304	0.050
-514.858	-16.987	-0.301	-0.191
-513.843	119.701	0.265	0.329
-512.829	91.031	0.193	0.217
-511.814	800.000	0.072	0.230
-510.799	-34.651	-0.075	-0.041
-509.785	-89.269	-0.305	0.090
-508.770	800.000	0.148	0.422
-507.756	56.703	-0.118	0.115
-506.741	-200.000	0.014	-0.094
-505.726	800.000	0.037	0.120
-504.712	-200.000	0.018	-0.460
-503.697	-190.199	0.216	0.002
-502.683	60.802	-0.060	-0.059
-501.668	49.152	0.079	0.074
-500.653	44.385	-0.094	-0.087
-499.639	310.757	0.053	0.099
-498.624	800.000	-0.056	-0.220
-497.610	761.834	-0.052	0.142
-496.595	532.214	-0.086	-0.204
-495.581	-55.629	-0.209	-0.094
-494.566	-47.963	0.074	0.036
-493.551	245.022	0.084	-0.142
-492.537	-55.644	-0.095	-0.043
-491.522	-172.358	-0.233	0.007
-490.508	-200.000	-0.026	-0.143
-489.493	-27.898	-0.232	0.135
-488.478	248.625	0.195	0.331
-487.464	-53.032	-0.264	0.122
-486.449	296.594	0.029	0.054
-485.435	133.938	0.117	-0.152
-484.420	-72.609	0.351	-0.130
-483.405	800.000	0.071	-0.242
-482.391	-56.508	0.353	0.157
-481.376	-200.000	-0.001	-0.373
-480.362	638.940	0.163	0.414
-479.347	800.000	0.080	-0.258
-478.332	-4.623	-0.139	-0.096
-477.318	-159.043	0.193	-0.011
-476.303	-200.000	-0.038	0.333
-475.289	-200.000	0.017	-0.488
-474.274	-141.519	-0.254	-0.026
-473.259	-19.811	0.091	0.057
-472.245	-52.377	0.190	-0.088
-471.230	-200.000	-0.079	-0.625
-470.216	280.551	0.174	-0.312
-469.201	-178.810	0.261	0.006
-468.186	-30.995	-0.156	0.088
-467.172	-62.550	-0.398	0.165
-466.157	-200.000	-0.055	0.244
-465.143	-200.000	0.023	0.127
-464.128	13.384	-0.413	0.321
-463.113	-96.748	0.038	0.010
-462.099	-24.977	0.202	0.120
-461.084	88.662	0.218	-0.243
-460.070	393.408	0.132	0.276
-459.055	339.112	-0.081	-0.158
-458.040	25.891	0.224	-0.187
-457.026	782.561	0.141	-0.386
-456.011	127.410	-0.217	0.276
-454.997	-27.444	0.273	-0.159
-453.982	-95.588	-0.480	-0.129
-452.968	-136.809	-0.087	-0.010
-451.953	-70.295	0.098	0.037
-450.938	-62.771	0.066	0.027
-449.924	180.522	-0.096	0.141
-448.909	-151.469	-0.266	0.020
-447.895	-200.000	-0.041	-0.510
-446.880	-149.016	-0.348	-0.028
-445.865	800.000	-0.112	0.409
-444.851	-4.981	0.182	-0.125
-443.836	155.386	0.097	-0.133
-442.822	-133.951	-0.298	-0.037
-441.807	-106.358	-0.201	0.045
-440.792	330.229	-0.106	-0.205
-439.778	92.911	-0.114	0.129
-438.763	111.482	-0.134	-0.162
-437.749	-200.000	0.013	0.103
-436.734	800.000	0.036	0.141
-435.719	-82.713	0.347	0.112
-434.705	-2.039	-0.204	-0.143
-433.690	-27.525	-0.065	0.037
-432.676	391.796	-0.113	0.236
-431.661	-16.686	-0.230	-0.145
-430.646	-141.540	0.515	0.052
-429.632	315.020	0.062	-0.116
-428.617	-200.000	-0.004	-0.244
-427.603	782.945	0.019	0.053
-426.588	136.336	0.039	-0.050
-425.573	-200.000	0.032	0.206
-424.559	54.927	-0.157	0.151
-423.544	-105.611	0.069	-0.016
-422.530	-184.841	-0.198	0.003
-421.515	-52.132	-0.211	-0.098
-420.500	-84.393	-0.104	0.033
-419.486	800.000	-0.057	-0.178
-418.471	138.188	0.061	-0.080
-417.457	800.000	0.114	-0.335
-416.442	167.273	0.100	-0.142
-415.428	-200.000	-0.005	-0.186
-414.413	66.876	-0.069	0.070
-413.398	99.324	0.195	-0.225
-412.384	201.487	-0.137	-0.210
-411.369	800.000	-0.039	-0.167
-410.355	164.999	0.065	-0.092
-409.340	503.621	-0.033	-0.076
-408.325	-102.270	0.221	0.053
-407.311	57.177	0.272	-0.265
-406.296	108.371	-0.053	-0.063
-405.282	2.654	0.064	-0.047
-404.267	-74.355	-0.090	-0.032
-403.252	-200.000	0.008	0.041
-402.238	-142.710	0.261	0.025
-401.223	-200.000	0.002	-0.228
-400.209	170.968	-0.194	0.277
-399.194	616.154	-0.089	-0.223
-398.179	-48.132	-0.069	-0.033
-397.165	-170.051	-0.444	-0.016
-396.150	304.165	-0.094	-0.173
-395.136	-58.982	0.197	0.085
-394.121	-100.924	-0.160	0.039
-393.106	-94.845	-0.317	-0.086
-392.092	-72.355	0.150	0.055
-391.077	-129.857	-0.196	0.027
-390.063	-140.315	-0.148	-0.015
-389.048	44.298	0.094	-0.086
-388.033	-10.767	-0.165	-0.109
-387.019	15.662	-0.249	0.196
-386.004	-34.798	-0.030	-0.017
-384.990	-200.000	-0.010	-0.199
-383.975	-8.006	0.116	0.078
-382.960	800.000	0.032	0.091
-381.946	729.291	0.123	0.328
-380.931	-200.000	0.007	-0.272
-379.917	-11.332	0.114	0.075
-378.902	-69.290	0.184	0.070
-377.888	-48.737	0.228	0.109
-376.873	800.000	-0.174	0.522
-375.858	-33.537	0.195	0.108
-374.844	-44.284	0.262	0.131
-373.829	-102.728	-0.428	-0.102
-372.815	484.585	0.114	-0.259
-371.800	-200.000	0.004	-0.036
-370.785	800.000	-0.087	0.302
-369.771	-19.864	-0.240	0.148
-368.756	11.352	0.096	-0.073
-367.742	800.000	0.064	0.228
-366.727	-200.000	0.051	-0.281
-365.712	27.743	0.263	-0.221
-364.698	575.031	-0.091	0.221
-363.683	32.209	0.092	0.079
-362.669	-200.000	0.034	0.201
-361.654	610.323	-0.024	-0.060
-360.639	13.099	-0.051	0.040
-359.625	-200.000	0.017	0.147
-358.610	-200.000	-0.011	0.215
-357.596	-55.682	0.245	0.109
-356.581	800.000	0.106	0.350
-355.566	800.000	-0.044	0.134
-354.552	-127.809	0.311	-0.045
-353.537	-128.018	0.294	-0.042
-352.523	445.850	-0.031	-0.068
-351.508	-82.834	0.224	-0.072
-350.493	800.000	0.039	-0.124
-349.479	-121.381	-0.394	-0.065
-348.464	-173.499	-0.244	-0.007
-347.450	-200.000	-0.008	0.281
-346.435	-200.000	-0.021	-0.143
-345.420	447.565	-0.056	-0.122
-344.406	-200.000	0.086	-0.392
-343.391	-63.671	0.100	0.041
-342.377	71.254	-0.146	0.151
-341.362	-94.733	0.225	-0.061
-340.348	800.000	-0.031	-0.112
-339.333	-66.176	0.114	-0.045
-338.318	-159.294	-0.320	0.018
-337.304	-200.000	-0.011	-0.213
-336.289	-16.141	0.268	-0.170
-335.275	-200.000	0.020	-0.381
-334.260	94.817	0.150	0.170
-333.245	-28.015	0.189	0.109
-332.231	567.698	0.016	-0.038
-331.216	401.883	0.154	0.321
-330.202	158.073	-0.042	0.058
-329.187	-24.240	-0.227	0.135
-328.172	90.930	-0.155	-0.173
-327.158	-98.591	0.127	-0.032
-326.143	-8.940	-0.227	0.152
-325.129	-147.037	-0.258	0.022
-324.114	-73.525	0.217	-0.079
-323.099	-97.146	0.188	-0.049
-322.085	-57.348	-0.107	-0.047
-321.070	383.664	0.200	-0.409
-320.056	4.464	-0.180	0.132
-319.041	250.919	0.134	0.227
-318.026	-200.000	-0.039	-0.199
-317.012	108.463	0.239	-0.284
-315.997	800.000	-0.120	-0.345
-314.983	800.000	-0.011	-0.040
-313.968	363.360	-0.067	-0.135
-312.953	-6.373	0.195	-0.132
-311.939	-112.862	-0.063	-0.012
-310.924	19.548	-0.050	0.040
-309.910	-3.644	0.277	0.191
-308.895	-7.116	0.156	-0.105
-307.880	-17.390	0.103	0.064
-306.866	67.309	0.052	0.053
-305.851	26.873	0.149	0.124
-304.837	-94.535	-0.383	-0.104
-303.822	-86.886	-0.153	-0.046
-302.807	-200.000	-0.061	0.314
-301.793	544.832	0.034	0.080
-300.778	31.010	-0.118	-0.101
-299.764	800.000	0.030	-0.090
-298.749	-130.637	-0.373	0.050
-297.735	275.466	0.021	0.036
-296.720	-93.946	-0.101	0.028
-295.705	-125.602	0.276	-0.042
-294.691	50.424	0.149	-0.140
-293.676	352.517	0.041	0.081
-292.662	-200.000	0.030	-0.450
-291.647	35.527	-0.186	-0.163
-290.632	391.475	-0.082	0.170
-289.618	198.919	0.224	0.340
-288.603	-200.000	-0.053	0.274
-287.589	-200.000	-0.009	0.282
-286.574	613.710	0.048	-0.119
-285.559	107.974	-0.248	-0.294
-284.545	369.266	-0.083	-0.168
-283.530	-63.432	-0.284	-0.116
-282.516	-200.000	-0.035	0.210
-281.501	-87.962	-0.157	-0.047
-280.486	636.195	-0.029	-0.073
-279.472	35.481	0.161	0.141
-278.457	-200.000	-0.007	0.119
-277.443	521.054	-0.103	0.240
-276.428	-55.942	0.319	-0.141
-275.413	-44.705	0.216	-0.107
-274.399	38.488	0.295	-0.261
-273.384	-200.000	0.019	0.160
-272.370	-82.761	-0.410	-0.132
-271.355	-73.074	0.206	-0.075
-270.340	-200.000	0.010	-0.096
-269.326	-106.000	0.190	0.042
-268.311	-38.673	0.281	0.147
-267.297	349.191	-0.057	0.111
-266.282	800.000	-0.044	0.131
-265.267	-9.017	0.010	-0.006
-264.253	18.356	0.242	0.192
-263.238	-144.393	0.217	0.020
-262.224	-82.114	-0.274	0.089
-261.209	123.213	-0.180	0.224
-260.195	-183.527	0.270	0.005
-259.180	8.206	0.048	0.036
-258.165	87.786	-0.154	0.169
-257.151	-93.832	0.346	0.095
-256.136	-54.059	0.067	0.030
-255.122	141.423	-0.125	-0.164
-254.107	-49.565	-0.059	0.028
-253.092	38.775	0.056	-0.050
-252.078	-200.000	-0.006	0.038
-251.063	569.082	0.049	-0.119
-250.049	267.651	0.068	0.119
-249.034	-53.958	0.473	0.214
-248.019	200.044	-0.151	0.230
-247.005	458.126	0.169	-0.372
-245.990	21.202	0.150	-0.121
-244.976	800.000	-0.052	-0.162
-243.961	-132.080	0.408	-0.053
-242.946	128.837	0.443	-0.560
-241.932	646.295	-0.108	0.275
-240.917	73.318	-0.093	0.096
-239.903	72.225	0.081	0.084
-238.888	723.883	-0.024	0.062
-237.873	118.841	0.099	-0.122
-236.859	7.867	-0.151	0.112
-235.844	-108.536	-0.185	-0.039
-234.830	-200.000	-0.003	-0.185
-233.815	-193.652	-0.336	0.003
-232.800	112.391	-0.241	-0.289
-231.786	-133.030	0.472	-0.059
-230.771	-86.954	0.292	-0.088
-229.757	247.841	-0.191	0.320
-228.742	-4.723	-0.135	0.093
-227.727	78.309	0.083	-0.088
-226.713	-54.929	0.075	0.033
-225.698	-200.000	-0.002	0.088
-224.684	-16.962	0.320	0.200
-223.669	800.000	-0.086	0.264
-222.655	-67.148	0.312	0.122
-221.640	123.658	0.148	-0.184
-220.625	-200.000	-0.006	-0.067
-219.611	4.274	0.215	-0.156
-218.596	88.412	0.286	-0.315
-217.582	580.864	-0.096	0.234
-216.567	278.430	0.079	0.139
-215.552	-200.000	-0.025	-0.200
-214.538	216.213	0.230	0.362
-213.523	-88.838	-0.210	0.062
-212.509	-98.991	0.164	-0.041
-211.494	-200.000	-0.005	0.303
-210.479	-200.000	0.028	0.460
-209.465	69.661	0.412	-0.420
-208.450	-44.006	0.170	-0.085
-207.436	9.586	0.275	0.206
-206.421	-134.904	0.416	-0.050
-205.406	503.497	-0.112	-0.256
-204.392	800.000	0.091	-0.382
-203.377	-145.371	-0.254	0.023
-202.363	-127.763	-0.209	0.030
-201.348	102.335	-0.298	-0.345
-200.333	1.046	-0.100	-0.071
-199.319	-72.006	-0.293	0.108
-198.304	800.000	0.038	0.114
-197.290	-18.679	0.092	-0.057
-196.275	-77.497	-0.135	0.046
-195.260	36.615	0.253	0.221
-194.246	-200.000	-0.023	-0.417
-193.231	218.233	0.012	0.018
-192.217	-110.018	-0.330	-0.068
-191.202	-200.000	-0.068	0.420
-190.187	544.392	0.097	0.229
-189.173	-120.984	0.280	0.047
-188.158	-50.184	0.316	-0.148
-187.144	-94.879	0.093	0.025
-186.129	-200.000	-0.057	-0.279
-185.114	-26.587	-0.077	0.045
-184.100	-137.949	-0.034	0.004
-183.085	-55.591	0.309	0.137
-182.071	-168.086	-0.082	-0.003
-181.056	126.937	-0.061	0.076
-180.042	-200.000	0.038	0.322
-179.027	46.140	-0.119	0.110
-178.012	-155.734	0.172	-0.011
-176.998	-10.934	-0.338	0.221
-175.983	69.701	-0.116	-0.118
-174.969	-200.000	-0.003	-0.054
-173.954	623.979	-0.072	0.181
-172.939	800.000	0.009	0.037
-171.925	3.146	0.155	-0.111
-170.910	-200.000	-0.005	-0.155
-169.896	-200.000	0.009	-0.137
-168.881	-200.000	0.000	-0.178
-167.866	16.299	-0.259	0.203
-166.852	257.502	0.039	-0.067
-165.837	412.461	-0.122	0.256
-164.823	-158.828	-0.310	-0.017
-163.808	-120.689	0.291	0.049
-162.793	-23.780	-0.173	-0.103
-161.779	618.815	0.040	0.100
-160.764	-200.000	-0.011	0.374
-159.750	170.298	-0.113	0.161
-158.735	101.224	-0.081	-0.093
-157.720	162.289	0.169	-0.234
-156.706	126.167	-0.053	0.067
-155.691	244.106	-0.164	-0.272
-154.677	341.437	0.088	-0.171
-153.662	49.280	0.112	-0.104
-152.647	-16.310	0.192	0.121
-151.633	277.355	-0.113	0.199
-150.618	-42.823	0.072	0.036
-149.604	-45.623	-0.261	0.128
-148.589	-30.943	0.216	0.121
-147.574	185.864	-0.120	0.176
-146.560	-32.410	-0.202	0.111
-145.545	-16.979	-0.276	-0.172
-144.531	-79.959	0.053	0.018
-143.516	800.000	0.077	-0.236
-142.502	-59.819	0.084	0.035
-141.487	-200.000	0.040	0.209
-140.472	-200.000	-0.050	0.245
-139.458	800.000	-0.047	0.185
-138.443	147.500	0.166	-0.221
-137.429	-67.927	-0.110	0.043
-136.414	24.750	0.099	0.081
-135.399	-200.000	0.082	-0.502
-134.385	197.694	0.290	0.438
-133.370	-107.980	-0.096	0.021
-132.356	800.000	-0.140	-0.443
-131.341	395.956	0.029	0.059
-130.326	-200.000	-0.031	-0.285
-129.312	-200.000	0.015	-0.252
-128.297	-37.654	0.171	-0.090
-127.283	-14.702	-0.133	-0.085
-126.268	-102.704	0.234	-0.055
-125.253	-1.152	0.284	0.198
-124.239	-200.000	-0.025	-0.437
-123.224	800.000	0.049	-0.136
-122.210	-46.279	0.284	0.138
-121.195	114.032	-0.097	-0.117
-120.180	-82.861	0.356	0.114
