DTS Sentinel unit serial number:	SN413079Multiplexer serial number:	ORYXHardware model number:	OX4-SRSoftware version number:	ORYX F/W v4.00 Oryx Data Collector v3.7.2.0data status	okinstallation	princeton_trtdifferential loss correction	single-endedforward channel	channel 3reverse channel	N/Adate	2019/09/11time	05:54:11forward acquisition time	60.00reverse acquisition time	0.00gamma	496.2192k internal	0.2331k external	0.2331temperature offset calibration	0.9907default loss term (dB/km)	0.3790temperature slope calibration	1.0000multiplexer offset coefficient	1.0000multiplexer slope coefficient	1.0000fibre end	0.00T internal ref (°C)	29.44T ext. ref 1 (°C)	-0.23T ext. ref 2 (°C)	23.42length (m)	temperature (°C)	Stokes	anti-Stokes-747.200	-38.603	0.295	0.157
-746.185	60.660	-0.236	0.236
-745.171	-85.916	-0.036	-0.011
-744.156	-100.217	0.190	0.047
-743.142	-103.913	-0.110	-0.026
-742.127	800.000	0.040	0.169
-741.112	800.000	-0.106	-0.312
-740.098	723.512	0.083	-0.222
-739.083	33.549	-0.132	-0.116
-738.069	-200.000	0.026	0.265
-737.054	-134.063	-0.142	0.018
-736.039	38.064	-0.168	0.151
-735.025	800.000	-0.059	0.237
-734.010	-48.570	-0.363	0.176
-732.996	524.449	-0.117	-0.276
-731.981	278.734	-0.162	0.291
-730.966	134.310	0.047	-0.062
-729.952	-159.514	0.190	0.011
-728.937	-46.193	0.236	0.117
-727.923	-200.000	0.000	0.065
-726.908	-142.408	0.209	0.021
-725.894	69.635	0.073	-0.076
-724.879	-200.000	0.448	0.001
-723.864	39.584	-0.176	0.159
-722.850	60.851	0.227	-0.227
-721.835	-45.558	-0.276	-0.138
-720.821	-200.000	0.063	-0.322
-719.806	226.881	-0.048	-0.078
-718.791	800.000	0.086	-0.358
-717.777	-200.000	0.009	-0.259
-716.762	-200.000	0.058	-0.303
-715.748	113.772	0.140	0.171
-714.733	105.375	0.075	-0.089
-713.718	-92.151	-0.255	0.072
-712.704	52.125	-0.036	-0.034
-711.689	800.000	-0.034	-0.116
-710.675	-200.000	0.021	-0.322
-709.660	-33.102	0.313	-0.174
-708.645	158.124	-0.092	0.128
-707.631	800.000	0.099	-0.419
-706.616	22.170	-0.261	-0.214
-705.602	-200.000	-0.019	0.147
-704.587	15.723	-0.287	0.227
-703.572	-200.000	0.004	0.043
-702.558	365.551	-0.062	-0.125
-701.543	-52.754	-0.204	-0.094
-700.529	-141.291	0.118	-0.012
-699.514	175.650	0.029	-0.042
-698.499	-9.569	-0.153	-0.102
-697.485	800.000	0.011	0.033
-696.470	-29.174	0.246	-0.142
-695.456	306.918	-0.107	0.200
-694.441	326.535	0.065	0.126
-693.426	-200.000	-0.034	0.221
-692.412	-168.137	0.367	-0.014
-691.397	-200.000	0.041	-0.210
-690.383	110.672	-0.125	0.151
-689.368	-87.626	0.153	0.046
-688.354	-47.763	0.137	-0.067
-687.339	75.276	-0.166	-0.176
-686.324	-36.787	-0.167	0.090
-685.310	-36.567	-0.113	-0.061
-684.295	800.000	0.089	0.351
-683.281	-49.609	0.232	-0.111
-682.266	-143.318	0.141	0.014
-681.251	-32.010	-0.173	-0.097
-680.237	10.875	0.122	-0.094
-679.222	-103.053	0.061	-0.014
-678.208	-107.288	-0.078	0.017
-677.193	31.116	-0.209	-0.180
-676.178	-101.514	-0.153	0.037
-675.164	2.225	0.057	-0.041
-674.149	-49.037	-0.082	-0.039
-673.135	219.053	-0.111	0.179
-672.120	55.797	0.385	0.375
-671.105	-18.713	-0.302	0.189
-670.091	190.777	0.203	-0.307
-669.076	-200.000	-0.369	-0.002
-668.062	797.055	0.088	-0.245
-667.047	-22.475	0.355	-0.215
-666.032	-200.000	0.021	0.135
-665.018	-151.317	-0.081	0.006
-664.003	250.899	-0.286	-0.487
-662.989	-200.000	0.037	0.193
-661.974	-157.985	-0.182	0.011
-660.959	118.427	-0.109	-0.135
-659.945	345.117	-0.237	-0.467
-658.930	283.957	0.076	-0.137
-657.916	150.167	-0.090	0.122
-656.901	-62.358	0.298	-0.125
-655.886	-71.581	-0.150	-0.056
-654.872	408.492	0.180	0.381
-653.857	19.201	-0.038	-0.031
-652.843	332.550	0.077	0.149
-651.828	428.838	-0.084	-0.183
-650.814	387.844	0.150	0.311
-649.799	65.237	-0.148	-0.150
-648.784	-56.219	-0.298	-0.133
-647.770	-200.000	-0.017	-0.154
-646.755	-27.383	-0.186	0.108
-645.741	62.726	-0.158	-0.158
-644.726	78.281	0.096	0.103
-643.711	-2.204	-0.075	0.053
-642.697	-0.722	0.129	0.092
-641.682	-200.000	-0.041	-0.182
-640.668	-200.000	0.002	-0.109
-639.653	687.020	-0.093	0.243
-638.638	-113.261	0.175	-0.034
-637.624	57.065	0.235	-0.230
-636.609	138.343	-0.098	0.129
-635.595	800.000	0.051	0.146
-634.580	108.127	0.110	-0.132
-633.565	-200.000	-0.148	0.665
-632.551	450.306	0.192	-0.424
-631.536	800.000	-0.026	0.085
-630.522	60.530	-0.031	-0.031
-629.507	-50.569	-0.090	-0.042
-628.492	-162.336	-0.303	0.015
-627.478	216.409	-0.130	-0.207
-626.463	-200.000	0.011	-0.105
-625.449	285.640	-0.150	0.271
-624.434	409.255	-0.155	0.330
-623.419	42.297	-0.072	0.065
-622.405	-127.946	0.204	0.029
-621.390	23.012	-0.187	0.154
-620.376	315.354	-0.121	-0.228
-619.361	-34.059	-0.267	0.147
-618.346	-200.000	-0.017	-0.161
-617.332	-200.000	-0.026	-0.120
-616.317	-200.000	-0.015	0.065
-615.303	-51.226	-0.103	0.048
-614.288	16.552	0.026	-0.020
-613.273	800.000	0.027	-0.084
-612.259	-147.319	0.218	0.019
-611.244	-112.660	0.223	-0.044
-610.230	-22.638	0.094	-0.057
-609.215	15.129	-0.024	-0.019
-608.201	41.391	-0.173	-0.156
-607.186	63.222	0.180	-0.180
-606.171	65.687	0.134	-0.136
-605.157	-200.000	-0.014	0.183
-604.142	136.184	0.141	-0.185
-603.128	-122.682	-0.350	0.057
-602.113	110.557	0.233	0.280
-601.098	659.882	-0.115	0.298
-600.084	-20.512	0.103	-0.063
-599.069	280.836	-0.114	-0.204
-598.055	28.068	0.190	-0.160
-597.040	205.555	0.228	-0.354
-596.025	-148.594	-0.191	0.016
-595.011	-174.831	0.298	-0.008
-593.996	-109.881	-0.512	-0.108
-592.982	800.000	-0.055	-0.158
-591.967	-46.496	-0.144	-0.071
-590.952	52.333	0.049	0.047
-589.938	-92.698	0.108	-0.030
-588.923	44.737	-0.218	-0.200
-587.909	-49.371	-0.178	-0.085
-586.894	17.236	-0.212	-0.168
-585.879	120.312	0.253	0.314
-584.865	-200.000	-0.057	0.370
-583.850	-12.053	0.139	-0.091
-582.836	241.839	-0.148	-0.248
-581.821	800.000	0.038	0.113
-580.806	694.038	-0.030	-0.079
-579.792	-104.699	0.100	0.023
-578.777	-123.222	-0.345	0.055
-577.763	436.838	0.125	0.272
-576.748	-0.501	0.192	0.136
-575.733	259.377	0.083	-0.143
-574.719	-115.118	-0.180	-0.034
-573.704	-36.771	-0.172	-0.092
-572.690	-59.688	0.341	-0.146
-571.675	120.016	-0.023	0.028
-570.661	-95.680	-0.080	-0.021
-569.646	129.393	-0.122	0.156
-568.631	106.850	-0.298	-0.353
-567.617	34.043	-0.167	-0.146
-566.602	800.000	0.073	-0.305
-565.588	185.380	-0.093	-0.138
-564.573	-200.000	0.029	-0.147
-563.558	1.721	-0.031	-0.022
-562.544	-89.064	-0.341	0.101
-561.529	-200.000	0.037	-0.215
-560.515	11.191	-0.234	-0.179
-559.500	-37.953	0.171	0.091
-558.485	541.328	-0.049	0.116
-557.471	201.876	-0.154	-0.237
-556.456	-137.826	0.124	-0.014
-555.442	-200.000	0.008	-0.071
-554.427	-125.036	-0.315	0.048
-553.412	-90.459	-0.082	-0.024
-552.398	-200.000	0.048	0.392
-551.383	-69.196	-0.141	-0.054
-550.369	-95.442	0.404	-0.108
-549.354	23.374	-0.123	-0.101
-548.339	30.149	-0.181	-0.154
-547.325	-200.000	-0.000	0.077
-546.310	-29.825	-0.266	0.151
-545.296	132.945	0.090	-0.116
-544.281	-75.276	-0.152	-0.054
-543.266	-200.000	0.097	0.568
-542.252	-200.000	-0.036	-0.159
-541.237	-1.835	0.108	0.076
-540.223	511.143	-0.083	-0.194
-539.208	-200.000	-0.010	0.104
-538.193	718.932	-0.115	-0.304
-537.179	-81.531	0.127	-0.042
-536.164	-200.000	-0.039	-0.185
-535.150	-94.774	-0.225	-0.061
-534.135	115.451	0.117	0.142
-533.121	-200.000	-0.008	-0.108
-532.106	611.621	0.038	-0.094
-531.091	370.333	0.092	0.187
-530.077	111.998	-0.142	0.171
-529.062	-64.365	-0.398	-0.162
-528.048	-84.754	0.027	-0.009
-527.033	48.627	-0.185	-0.174
-526.018	48.797	0.102	0.096
-525.004	-71.735	0.320	-0.119
-523.989	-95.484	0.236	0.063
-522.975	-200.000	0.032	-0.153
-521.960	-103.977	-0.154	0.036
-520.945	53.739	0.165	0.158
-519.931	17.065	-0.142	-0.112
-518.916	-200.000	0.338	0.001
-517.902	65.166	-0.207	0.208
-516.887	-160.604	-0.140	-0.007
-515.872	-98.130	-0.222	-0.057
-514.858	783.128	-0.065	0.178
-513.843	-200.000	-0.054	0.313
-512.829	53.926	0.112	-0.107
-511.814	-144.084	0.140	-0.013
-510.799	20.729	0.045	-0.036
-509.785	-200.000	0.001	0.009
-508.770	98.459	0.151	0.174
-507.756	800.000	-0.021	-0.089
-506.741	-107.190	0.202	-0.044
-505.726	-124.360	0.179	-0.028
-504.712	212.076	-0.112	-0.176
-503.697	-127.318	0.343	-0.050
-502.683	117.779	-0.055	0.068
-501.668	-200.000	0.011	0.136
-500.653	800.000	-0.045	-0.186
-499.639	-160.927	0.131	0.007
-498.624	800.000	0.090	-0.253
-497.610	299.418	-0.032	-0.059
-496.595	800.000	0.034	0.101
-495.581	800.000	-0.200	0.558
-494.566	-133.455	-0.040	-0.005
-493.551	-49.054	-0.050	-0.024
-492.537	316.911	0.010	0.019
-491.522	237.142	0.045	0.074
-490.508	598.442	0.138	-0.340
-489.493	23.258	0.131	-0.107
-488.478	-200.000	0.023	-0.118
-487.464	-200.000	0.029	0.229
-486.449	87.049	0.232	-0.255
-485.435	13.510	0.192	-0.148
-484.420	-87.791	0.112	0.033
-483.405	-93.402	0.336	0.093
-482.391	-137.774	0.027	-0.003
-481.376	-96.070	0.364	-0.096
-480.362	598.958	-0.168	-0.416
-479.347	-78.772	0.328	-0.111
-478.332	-136.183	0.236	-0.027
-477.318	-120.606	0.109	-0.018
-476.303	-135.936	-0.134	-0.016
-475.289	276.871	0.045	0.079
-474.274	169.278	-0.230	-0.327
-473.259	339.933	0.019	0.037
-472.245	96.768	0.145	0.165
-471.230	95.368	0.064	-0.072
-470.216	43.700	0.034	-0.031
-469.201	258.431	-0.087	0.149
-468.186	-12.636	-0.127	-0.082
-467.172	165.454	0.048	-0.068
-466.157	-74.756	-0.083	-0.030
-465.143	285.502	-0.150	-0.269
-464.128	-200.000	-0.052	-0.265
-463.113	-200.000	-0.004	-0.031
-462.099	66.647	-0.133	-0.135
-461.084	382.935	0.114	0.234
-460.070	61.969	0.027	0.027
-459.055	-49.112	0.216	0.103
-458.040	-200.000	0.015	0.070
-457.026	27.414	-0.246	0.205
-456.011	-137.565	0.116	-0.013
-454.997	-90.435	0.414	0.119
-453.982	-5.432	0.113	0.077
-452.968	70.722	0.163	0.168
-451.953	-2.872	-0.383	-0.266
-450.938	-200.000	0.009	-0.152
-449.924	73.807	0.113	-0.118
-448.909	-93.645	0.069	0.019
-447.895	-71.918	-0.157	-0.058
-446.880	-200.000	-0.077	0.472
-445.865	-200.000	-0.029	0.268
-444.851	-88.036	0.061	-0.018
-443.836	800.000	0.050	-0.187
-442.822	-64.804	-0.289	-0.117
-441.807	-113.902	0.048	0.009
-440.792	-109.271	0.322	0.068
-439.778	38.588	-0.256	0.227
-438.763	-200.000	-0.013	-0.100
-437.749	800.000	0.031	0.097
-436.734	800.000	0.079	0.276
-435.719	-14.228	-0.058	0.037
-434.705	800.000	0.046	0.138
-433.690	13.879	-0.201	0.156
-432.676	-66.682	-0.344	0.135
-431.661	-66.728	-0.117	-0.046
-430.646	300.189	0.022	-0.041
-429.632	24.913	0.054	-0.045
-428.617	-72.148	-0.238	0.088
-427.603	-200.000	-0.048	0.251
-426.588	800.000	0.052	-0.193
-425.573	29.183	0.338	-0.285
-424.559	478.817	-0.115	-0.259
-423.544	-93.324	-0.267	-0.074
-422.530	75.669	-0.169	-0.177
-421.515	-13.012	0.177	0.114
-420.500	243.659	0.142	-0.237
-419.486	172.173	0.214	0.307
-418.471	-133.144	0.044	0.006
-417.457	24.025	0.030	0.025
-416.442	50.825	-0.071	0.067
-415.428	-122.802	0.105	0.017
-414.413	-145.518	-0.270	0.024
-413.398	-200.000	0.029	-0.263
-412.384	-123.724	0.079	0.012
-411.369	-122.335	-0.140	0.023
-410.355	-200.000	0.003	-0.289
-409.340	-200.000	0.011	0.302
-408.325	-58.819	0.211	0.091
-407.311	-6.743	0.333	-0.225
-406.296	110.760	-0.023	-0.027
-405.282	148.638	0.053	0.071
-404.267	800.000	-0.033	-0.106
-403.252	800.000	0.077	-0.246
-402.238	14.416	0.053	0.041
-401.223	165.881	-0.209	0.294
-400.209	93.413	-0.110	0.123
-399.194	639.899	-0.063	0.160
-398.179	48.437	0.129	0.120
-397.165	769.751	0.121	-0.329
-396.150	521.823	-0.088	-0.205
-395.136	161.932	0.187	-0.260
-394.121	-65.959	-0.065	-0.026
-393.106	-200.000	-0.018	0.174
-392.092	-155.872	-0.262	-0.017
-391.077	-3.419	-0.239	0.165
-390.063	731.551	0.097	0.258
-389.048	15.837	0.191	-0.149
-388.033	68.544	-0.171	0.174
-387.019	-200.000	-0.033	-0.197
-386.004	-36.650	-0.123	-0.065
-384.990	-130.853	-0.114	0.015
-383.975	44.802	0.008	-0.008
-382.960	226.520	-0.053	0.086
-381.946	442.722	-0.038	-0.082
-380.931	-46.802	0.152	0.074
-379.917	-77.840	-0.156	0.054
-378.902	479.681	-0.141	-0.317
-377.888	266.557	-0.061	0.105
-376.873	90.943	-0.160	-0.178
-375.858	176.572	0.063	0.091
-374.844	-200.000	0.066	0.569
-373.829	-114.761	-0.366	0.069
-372.815	-200.000	0.015	0.104
-371.800	-200.000	0.032	0.337
-370.785	-33.714	-0.176	0.096
-369.771	-133.345	0.457	-0.057
-368.756	87.523	-0.214	0.234
-367.742	-200.000	0.008	0.156
-366.727	800.000	0.101	0.345
-365.712	-142.056	-0.309	-0.030
-364.698	-37.573	0.040	0.021
-363.683	-200.000	-0.026	0.293
-362.669	800.000	0.052	-0.225
-361.654	-103.208	-0.154	0.036
-360.639	126.950	-0.130	0.164
-359.625	-200.000	0.015	0.169
-358.610	299.566	-0.216	-0.394
-357.596	-7.624	0.179	0.120
-356.581	800.000	0.148	0.424
-355.566	27.806	0.274	0.229
-354.552	-93.897	-0.176	0.048
-353.537	724.617	-0.048	-0.126
-352.523	-83.650	-0.220	0.070
-351.508	-200.000	-0.021	0.093
-350.493	-200.000	-0.014	0.341
-349.479	9.430	-0.175	0.131
-348.464	-138.852	-0.279	0.030
-347.450	338.610	-0.082	-0.157
-346.435	20.568	-0.127	0.102
-345.420	-123.411	0.238	0.038
-344.406	-25.458	-0.176	0.103
-343.391	191.222	-0.096	0.143
-342.377	-48.102	-0.148	-0.071
-341.362	-62.884	0.206	0.085
-340.348	-45.887	-0.482	0.236
-339.333	-200.000	-0.023	0.119
-338.318	-200.000	-0.005	-0.302
-337.304	-73.320	-0.053	-0.019
-336.289	115.082	-0.112	-0.135
-335.275	16.949	-0.080	0.063
-334.260	468.841	0.079	-0.176
-333.245	774.596	0.062	-0.168
-332.231	147.935	-0.118	0.158
-331.216	-3.898	-0.277	0.190
-330.202	-200.000	0.014	0.169
-329.187	-39.664	0.263	0.136
-328.172	374.557	0.101	-0.203
-327.158	455.817	0.151	-0.331
-326.143	192.612	0.251	0.375
-325.129	-200.000	0.021	-0.155
-324.114	13.612	0.347	-0.267
-323.099	13.461	0.160	-0.123
-322.085	-200.000	-0.008	0.218
-321.070	-82.587	0.230	-0.074
-320.056	65.277	-0.054	-0.054
-319.041	-183.329	0.297	-0.005
-318.026	292.904	0.071	0.129
-317.012	-40.451	0.383	0.197
-315.997	800.000	-0.044	0.143
-314.983	-200.000	0.009	-0.127
-313.968	800.000	0.067	-0.193
-312.953	141.382	0.095	-0.125
-311.939	-200.000	-0.100	0.617
-310.924	261.165	0.075	0.128
-309.910	-67.853	0.242	0.094
-308.895	-51.372	0.419	-0.194
-307.880	-139.701	0.114	0.012
-306.866	-48.622	-0.245	-0.116
-305.851	-200.000	0.041	-0.200
-304.837	397.929	0.068	-0.140
-303.822	-200.000	0.029	0.197
-302.807	184.127	0.026	0.038
-301.793	-200.000	-0.008	-0.097
-300.778	-107.061	0.219	-0.048
-299.764	76.459	-0.188	-0.197
-298.749	180.524	0.147	0.213
-297.735	-200.000	-0.007	-0.421
-296.720	240.366	0.149	-0.246
-295.705	-33.575	0.394	0.215
-294.691	297.085	-0.040	0.073
-293.676	138.777	0.274	-0.355
-292.662	76.180	0.086	-0.090
-291.647	-156.965	0.191	0.012
-290.632	-200.000	-0.002	-0.028
-289.618	-18.499	0.092	-0.057
-288.603	537.153	0.123	-0.290
-287.589	45.927	-0.210	-0.192
-286.574	-108.021	-0.259	0.056
-285.559	800.000	-0.068	-0.216
-284.545	264.551	-0.061	0.104
-283.530	800.000	-0.115	0.345
-282.516	-30.070	0.039	-0.022
-281.501	72.437	0.179	-0.185
-280.486	-60.448	-0.172	0.072
-279.472	-125.096	0.291	0.044
-278.457	42.115	0.166	0.149
-277.443	255.776	0.076	0.128
-276.428	-83.202	-0.181	0.058
-275.413	115.297	0.090	0.109
-274.399	177.312	0.202	-0.291
-273.384	-200.000	-0.022	0.199
-272.370	25.327	-0.212	-0.174
-271.355	208.136	0.162	-0.250
-270.340	-200.000	-0.003	0.103
-269.326	800.000	-0.072	0.280
-268.311	491.428	0.121	0.273
-267.297	183.938	-0.016	0.024
-266.282	47.075	0.068	-0.062
-265.267	316.737	-0.076	0.142
-264.253	493.973	0.085	-0.194
-263.238	156.623	-0.105	0.143
-262.224	82.024	0.179	0.192
-261.209	-15.611	-0.105	-0.066
-260.195	122.632	-0.193	0.238
-259.180	-124.504	0.127	0.020
-258.165	98.407	-0.142	-0.161
-257.151	800.000	0.136	0.513
-256.136	381.940	0.163	0.330
-255.122	-2.707	0.107	0.074
-254.107	117.364	0.140	0.171
-253.092	-57.730	-0.239	-0.103
-252.078	-122.026	0.306	0.050
-251.063	-35.831	-0.158	-0.084
-250.049	501.080	-0.060	0.137
-249.034	104.866	-0.069	-0.080
-248.019	-99.977	-0.198	-0.049
-247.005	13.062	-0.059	0.045
-245.990	-15.671	-0.326	-0.205
-244.976	199.912	-0.071	0.108
-243.961	-99.535	-0.306	-0.076
-242.946	-200.000	-0.017	0.323
-241.932	-7.934	0.065	-0.043
-240.917	-87.993	0.389	-0.115
-239.903	46.980	-0.240	0.221
-238.888	-154.246	0.216	0.014
-237.873	436.523	-0.083	-0.178
-236.859	-200.000	-0.014	-0.299
-235.844	-16.432	0.280	0.175
-234.830	800.000	-0.033	0.101
-233.815	456.358	0.147	-0.323
-232.800	449.370	-0.109	-0.237
-231.786	-200.000	0.001	-0.177
-230.771	-200.000	-0.083	-0.407
-229.757	-151.273	-0.061	0.005
-228.742	-13.528	0.334	0.213
-227.727	-25.406	0.114	0.066
-226.713	-65.275	-0.230	-0.091
-225.698	800.000	-0.074	-0.213
-224.684	-200.000	-0.036	-0.342
-223.669	-150.391	0.611	-0.046
-222.655	-89.352	0.144	0.042
-221.640	800.000	0.054	0.197
-220.625	9.306	0.162	-0.121
-219.611	-200.000	-0.052	-0.260
-218.596	-200.000	-0.052	-0.251
-217.582	240.804	-0.070	-0.115
-216.567	-33.160	0.130	0.071
-215.552	800.000	-0.015	0.058
-214.538	-2.547	0.202	0.139
-213.523	322.939	-0.163	0.306
-212.509	5.903	-0.139	-0.101
-211.494	-200.000	-0.018	0.104
-210.479	483.721	-0.120	-0.270
-209.465	-185.191	0.091	0.001
-208.450	-200.000	0.017	0.097
-207.436	394.922	0.124	-0.254
-206.421	526.745	0.111	0.258
-205.406	8.180	-0.013	-0.010
-204.392	800.000	0.089	-0.243
-203.377	-91.299	0.079	0.022
-202.363	-83.060	0.127	-0.040
-201.348	256.667	-0.064	0.108
-200.333	281.761	-0.056	-0.099
-199.319	800.000	-0.203	-0.562
-198.304	800.000	-0.053	0.169
-197.290	-14.556	0.085	-0.054
-196.275	-49.094	0.181	-0.085
-195.260	75.671	0.211	0.220
-194.246	763.194	-0.005	-0.012
-193.231	525.008	0.093	0.215
-192.217	24.572	-0.087	0.071
-191.202	378.194	-0.064	-0.128
-190.187	-55.465	0.189	-0.084
-189.173	-71.773	-0.080	0.029
-188.158	431.379	0.142	0.303
-187.144	182.999	0.113	-0.164
-186.129	-3.840	-0.333	-0.227
-185.114	9.518	-0.194	0.145
-184.100	-100.695	-0.401	0.097
-183.085	84.027	-0.128	-0.137
-182.071	800.000	0.083	0.334
-181.056	800.000	0.034	0.110
-180.042	25.207	-0.238	0.195
-179.027	75.629	-0.196	0.204
-178.012	-22.016	0.486	0.290
-176.998	-178.208	0.233	0.005
-175.983	800.000	-0.050	0.144
-174.969	7.830	-0.362	-0.267
-173.954	63.247	-0.107	-0.105
-172.939	198.279	0.050	0.075
-171.925	181.712	-0.189	0.273
-170.910	-132.820	-0.152	-0.019
-169.896	585.565	-0.041	0.100
-168.881	-200.000	0.042	-0.299
-167.866	-29.257	0.180	-0.102
-166.852	-200.000	0.014	0.080
-165.837	-113.739	0.130	0.025
-164.823	-200.000	-0.000	0.168
-163.808	800.000	0.116	0.405
-162.793	-106.528	-0.050	0.011
-161.779	-65.800	-0.226	0.089
-160.764	92.447	0.186	0.206
-159.750	-116.082	-0.378	0.069
-158.735	10.967	0.069	-0.052
-157.720	107.621	-0.035	0.041
-156.706	800.000	0.117	-0.462
-155.691	-141.570	-0.178	0.018
-154.677	-200.000	0.031	-0.270
-153.662	125.436	0.070	0.087
-152.647	-200.000	-0.043	-0.298
-151.633	282.288	-0.036	0.064
-150.618	34.330	-0.186	-0.160
-149.604	-131.143	-0.747	-0.098
-148.589	62.010	0.082	-0.080
-147.574	428.139	0.077	0.164
-146.560	61.493	-0.270	-0.265
-145.545	-46.794	-0.340	-0.163
-144.531	178.566	0.161	-0.231
-143.516	-143.019	-0.468	-0.045
-142.502	-64.620	-0.165	-0.066
-141.487	800.000	0.109	-0.319
-140.472	-102.764	0.256	0.060
-139.458	266.482	0.099	-0.171
-138.443	124.451	0.128	-0.158
-137.429	-17.605	0.296	-0.183
-136.414	-200.000	-0.012	0.216
-135.399	117.320	0.205	0.247
-134.385	214.730	0.110	-0.171
-133.370	-200.000	0.037	0.188
-132.356	-3.991	-0.312	-0.213
-131.341	-43.516	0.135	-0.067
-130.326	110.547	-0.161	0.190
-129.312	289.822	0.139	-0.248
-128.297	-157.023	-0.273	-0.016
-127.283	-59.157	-0.082	0.035
-126.268	800.000	0.033	0.133
-125.253	42.180	0.174	-0.155
-124.239	-179.241	0.255	-0.006
-123.224	-166.958	-0.147	0.006
-122.210	81.827	0.112	0.119
-121.195	299.543	-0.129	-0.233
