DTS Sentinel unit serial number:	SN413079Multiplexer serial number:	ORYXHardware model number:	OX4-SRSoftware version number:	ORYX F/W v4.00 Oryx Data Collector v3.7.2.0data status	okinstallation	princeton_trtdifferential loss correction	single-endedforward channel	channel 3reverse channel	N/Adate	2019/09/11time	12:10:11forward acquisition time	60.00reverse acquisition time	0.00gamma	496.2192k internal	0.2291k external	0.2291temperature offset calibration	0.9937default loss term (dB/km)	0.3790temperature slope calibration	1.0000multiplexer offset coefficient	1.0000multiplexer slope coefficient	1.0000fibre end	0.00T internal ref (°C)	39.69T ext. ref 1 (°C)	0.23T ext. ref 2 (°C)	37.68length (m)	temperature (°C)	Stokes	anti-Stokes-747.200	-73.066	-0.184	0.069
-746.185	91.917	-0.091	0.105
-745.171	109.999	-0.187	-0.230
-744.156	71.236	0.058	-0.061
-743.142	-200.000	0.037	-0.285
-742.127	5.950	0.254	0.193
-741.112	20.888	0.202	-0.168
-740.098	190.637	0.164	0.253
-739.083	-200.000	0.045	0.298
-738.069	9.333	0.126	0.098
-737.054	348.105	-0.085	0.172
-736.039	645.775	0.046	0.121
-735.025	-19.727	0.558	0.353
-734.010	29.767	-0.259	0.226
-732.996	378.245	-0.153	-0.319
-731.981	-85.124	0.203	-0.065
-730.966	188.101	0.189	-0.290
-729.952	800.000	0.045	0.194
-728.937	-200.000	0.024	0.235
-727.923	126.985	-0.250	0.324
-726.908	-196.194	-0.408	0.003
-725.894	-92.232	-0.396	-0.114
-724.879	-138.448	0.132	0.015
-723.864	189.044	-0.109	0.168
-722.850	-200.000	0.020	-0.294
-721.835	-109.859	0.296	-0.064
-720.821	800.000	0.101	0.430
-719.806	-200.000	0.017	-0.214
-718.791	80.115	-0.074	0.081
-717.777	-86.327	-0.106	-0.033
-716.762	-41.001	-0.193	0.102
-715.748	34.140	0.136	-0.122
-714.733	-78.901	-0.332	-0.116
-713.718	202.619	-0.063	0.100
-712.704	10.383	0.208	-0.162
-711.689	800.000	0.094	-0.408
-710.675	407.938	-0.143	0.309
-709.660	-200.000	-0.000	-0.061
-708.645	55.132	-0.216	-0.213
-707.631	-200.000	-0.002	0.104
-706.616	-31.923	0.154	0.088
-705.602	-200.000	-0.013	0.230
-704.587	-71.177	0.368	0.141
-703.572	-34.492	0.253	-0.142
-702.558	-110.984	0.251	-0.053
-701.543	800.000	0.052	0.147
-700.529	-200.000	0.100	0.493
-699.514	-121.882	0.245	-0.041
-698.499	-161.077	0.398	-0.021
-697.485	800.000	0.077	0.287
-696.470	-30.599	0.108	0.062
-695.456	485.333	-0.036	0.084
-694.441	-200.000	0.019	0.114
-693.426	-59.226	-0.193	0.085
-692.412	-87.844	-0.095	-0.029
-691.397	-56.401	0.188	0.085
-690.383	198.228	0.133	0.207
-689.368	-130.309	-0.172	-0.024
-688.354	222.005	0.178	-0.292
-687.339	130.164	0.131	0.171
-686.324	288.647	-0.192	-0.356
-685.310	-200.000	-0.035	0.189
-684.295	800.000	0.049	0.192
-683.281	760.206	0.123	0.341
-682.266	654.228	0.032	-0.085
-681.251	39.065	0.174	-0.159
-680.237	86.048	-0.131	0.147
-679.222	100.979	-0.133	0.158
-678.208	800.000	0.048	0.182
-677.193	800.000	-0.072	0.223
-676.178	-139.157	-0.318	-0.035
-675.164	800.000	0.067	0.225
-674.149	67.639	0.041	-0.043
-673.135	31.069	0.308	0.269
-672.120	-35.937	-0.478	0.264
-671.105	-200.000	-0.007	0.172
-670.091	63.390	0.192	-0.196
-669.076	-200.000	0.034	0.189
-668.062	56.804	-0.209	-0.208
-667.047	316.532	0.057	-0.110
-666.032	-200.000	-0.008	0.255
-665.018	199.511	-0.123	0.192
-664.003	72.289	-0.290	0.308
-662.989	199.313	0.079	-0.123
-661.974	-200.000	0.316	-0.001
-660.959	-200.000	-0.013	0.215
-659.945	-151.343	-0.387	0.029
-658.930	106.135	-0.106	0.129
-657.916	-62.535	0.223	0.095
-656.901	712.600	-0.094	-0.254
-655.886	46.086	0.373	-0.353
-654.872	-200.000	0.042	-0.488
-653.857	-131.133	-0.099	0.013
-652.843	-200.000	0.023	0.310
-651.828	81.977	-0.038	0.042
-650.814	-24.075	-0.074	-0.045
-649.799	68.818	-0.006	-0.006
-648.784	-61.861	-0.159	-0.068
-647.770	441.263	-0.148	0.330
-646.755	356.534	-0.140	0.285
-645.741	55.485	0.222	0.219
-644.726	17.181	0.098	-0.080
-643.711	-74.158	0.313	-0.116
-642.697	-52.458	-0.116	0.055
-641.682	305.579	0.164	-0.311
-640.668	800.000	-0.015	-0.066
-639.653	-67.181	0.334	-0.134
-638.638	-200.000	-0.004	0.049
-637.624	-135.044	-0.246	0.030
-636.609	-200.000	-0.023	-0.159
-635.595	303.222	0.146	0.275
-634.580	66.798	0.220	-0.229
-633.565	-132.055	0.354	0.047
-632.551	800.000	0.029	-0.092
-631.536	590.432	0.061	0.154
-630.522	-200.000	0.000	0.399
-629.507	-200.000	-0.002	0.030
-628.492	483.378	-0.070	0.163
-627.478	206.591	-0.076	0.121
-626.463	322.082	-0.207	0.401
-625.449	314.381	-0.135	-0.259
-624.434	-200.000	-0.027	-0.349
-623.419	-11.234	0.059	0.039
-622.405	-159.007	0.134	-0.008
-621.390	800.000	0.081	-0.237
-620.376	134.102	-0.059	0.078
-619.361	800.000	0.008	-0.036
-618.346	206.857	0.168	-0.267
-617.332	-200.000	-0.015	-0.204
-616.317	800.000	-0.093	0.292
-615.303	-13.718	0.115	0.076
-614.288	19.130	-0.391	0.319
-613.273	654.677	-0.129	0.336
-612.259	-21.248	-0.138	0.086
-611.244	5.878	0.084	0.064
-610.230	-200.000	0.008	0.093
-609.215	-101.415	-0.477	0.118
-608.201	-200.000	-0.036	0.260
-607.186	-64.714	-0.106	0.044
-606.171	108.034	0.070	-0.085
-605.157	-83.443	0.383	0.125
-604.142	-12.256	-0.290	0.193
-603.128	116.568	-0.286	-0.358
-602.113	-200.000	-0.051	-0.277
-601.098	-107.493	-0.262	0.058
-600.084	-43.085	0.093	-0.048
-599.069	800.000	0.041	-0.132
-598.055	-200.000	-0.016	-0.126
-597.040	371.045	0.079	0.164
-596.025	800.000	0.037	-0.108
-595.011	-200.000	0.008	-0.275
-593.996	-146.436	-0.169	-0.015
-592.982	-200.000	-0.005	0.135
-591.967	800.000	-0.035	-0.140
-590.952	131.550	-0.134	0.175
-589.938	-124.101	0.086	-0.014
-588.923	621.133	-0.069	0.176
-587.909	196.931	-0.127	0.197
-586.894	-28.201	-0.195	0.115
-585.879	89.116	0.138	0.156
-584.865	-73.280	0.201	-0.075
-583.850	-125.162	0.445	-0.069
-582.836	-31.261	-0.328	0.188
-581.821	-185.441	-0.096	-0.002
-580.806	-99.772	-0.328	-0.084
-579.792	-45.825	0.025	0.013
-578.777	129.357	0.103	0.134
-577.763	-104.713	0.203	0.048
-576.748	-127.662	0.196	-0.029
-575.733	-200.000	-0.013	-0.186
-574.719	800.000	0.017	-0.060
-573.704	-60.788	0.108	-0.046
-572.690	-157.476	-0.106	-0.006
-571.675	-116.268	-0.064	0.012
-570.661	-86.722	-0.129	0.040
-569.646	184.410	0.086	-0.129
-568.631	-200.000	-0.033	-0.209
-567.617	800.000	-0.080	0.268
-566.602	23.115	-0.346	0.289
-565.588	-118.064	0.399	0.072
-564.573	800.000	0.062	-0.252
-563.558	-26.785	-0.041	-0.024
-562.544	-172.963	0.163	0.005
-561.529	-17.785	-0.093	0.059
-560.515	-146.967	-0.218	0.019
-559.500	-191.882	0.058	0.001
-558.485	-200.000	0.018	0.125
-557.471	453.308	0.058	0.131
-556.456	800.000	0.081	0.287
-555.442	44.620	0.092	-0.086
-554.427	107.087	-0.039	0.047
-553.412	-17.350	0.243	0.156
-552.398	-200.000	0.021	-0.337
-551.383	-36.316	0.225	-0.123
-550.369	92.494	-0.068	-0.078
-549.354	-200.000	0.027	0.120
-548.339	-2.955	0.078	0.055
-547.325	-114.612	0.313	0.061
-546.310	234.003	-0.185	0.310
-545.296	603.127	0.070	-0.178
-544.281	-98.479	0.344	-0.089
-543.266	279.522	-0.056	-0.101
-542.252	-200.000	0.007	0.152
-541.237	42.147	0.111	-0.102
-540.223	-200.000	-0.018	0.148
-539.208	-120.301	0.350	0.061
-538.193	-71.385	0.061	0.023
-537.179	-37.422	-0.332	-0.180
-536.164	304.862	-0.114	-0.215
-535.150	-40.335	0.168	0.089
-534.135	-147.060	-0.120	-0.010
-533.121	-55.155	0.078	0.035
-532.106	800.000	0.044	-0.163
-531.091	-111.787	0.307	-0.063
-530.077	-200.000	-0.072	-0.339
-529.062	-27.874	-0.155	0.091
-528.048	41.057	0.277	0.254
-527.033	-65.505	0.148	0.060
-526.018	-62.153	-0.323	-0.137
-525.004	310.986	-0.028	0.053
-523.989	-54.405	-0.083	-0.038
-522.975	30.400	-0.084	0.073
-521.960	766.977	0.067	0.186
-520.945	344.241	0.045	-0.089
-519.931	220.465	-0.133	-0.217
-518.916	102.658	-0.126	0.150
-517.902	-152.284	0.159	0.012
-516.887	187.029	0.131	-0.199
-515.872	-200.000	0.045	0.319
-514.858	-13.903	-0.120	0.079
-513.843	-200.000	-0.009	0.248
-512.829	-102.435	0.220	-0.053
-511.814	5.236	0.112	-0.084
-510.799	-109.228	0.382	0.082
-509.785	-1.916	-0.073	-0.052
-508.770	-1.105	0.494	-0.354
-507.756	350.481	0.042	0.085
-506.741	-23.844	0.104	-0.063
-505.726	-78.032	-0.129	0.045
-504.712	-155.997	-0.229	-0.015
-503.697	-200.000	-0.019	-0.230
-502.683	-200.000	-0.006	-0.213
-501.668	-73.005	0.257	-0.096
-500.653	800.000	-0.097	0.352
-499.639	-48.603	-0.212	0.103
-498.624	18.330	-0.202	0.164
-497.610	60.639	-0.335	0.337
-496.595	-94.715	0.043	-0.012
-495.581	41.316	-0.102	-0.094
-494.566	187.365	-0.183	-0.277
-493.551	-168.124	0.115	0.005
-492.537	-183.819	-0.232	0.004
-491.522	-58.028	0.073	0.032
-490.508	56.848	0.084	0.083
-489.493	-83.442	-0.336	0.109
-488.478	-200.000	-0.006	-0.064
-487.464	126.235	0.367	-0.470
-486.449	2.698	0.060	0.044
-485.435	-172.619	0.146	-0.005
-484.420	-200.000	-0.027	0.184
-483.405	-200.000	0.018	0.103
-482.391	800.000	-0.090	0.336
-481.376	800.000	0.016	0.060
-480.362	80.114	0.078	-0.085
-479.347	-64.958	-0.470	-0.193
-478.332	51.145	-0.162	0.156
-477.318	-200.000	-0.006	-0.093
-476.303	800.000	-0.043	-0.190
-475.289	-109.636	-0.109	-0.023
-474.274	-200.000	0.019	0.178
-473.259	511.666	0.065	-0.153
-472.245	-200.000	0.032	-0.210
-471.230	-200.000	0.051	-0.239
-470.216	39.757	-0.222	0.202
-469.201	144.475	-0.181	0.245
-468.186	-44.716	0.077	0.039
-467.172	24.030	0.208	-0.173
-466.157	392.554	-0.096	-0.203
-465.143	28.979	0.165	-0.142
-464.128	-151.316	-0.165	0.012
-463.113	-92.636	-0.208	-0.059
-462.099	-7.673	-0.251	0.172
-461.084	7.292	0.249	0.188
-460.070	-75.356	-0.259	-0.094
-459.055	-42.414	0.147	0.076
-458.040	-4.937	0.149	0.104
-457.026	800.000	0.105	-0.356
-456.011	-200.000	0.005	-0.150
-454.997	30.201	-0.109	0.094
-453.982	115.091	-0.184	-0.227
-452.968	-111.199	0.138	0.029
-451.953	613.517	0.148	0.376
-450.938	-75.760	0.185	0.066
-449.924	-83.509	0.262	-0.085
-448.909	130.897	0.140	-0.182
-447.895	-117.129	0.499	-0.092
-446.880	-9.661	0.162	-0.109
-445.865	-69.200	-0.213	-0.083
-444.851	-8.354	0.160	-0.109
-443.836	376.280	0.182	-0.377
-442.822	-200.000	0.077	0.419
-441.807	800.000	0.085	-0.281
-440.792	8.726	0.169	0.129
-439.778	42.592	-0.087	0.080
-438.763	-200.000	0.008	0.071
-437.749	-24.701	0.330	-0.199
-436.734	-200.000	-0.000	-0.110
-435.719	-200.000	0.037	-0.273
-434.705	200.570	-0.128	-0.199
-433.690	30.336	0.114	-0.099
-432.676	-49.668	0.029	-0.014
-431.661	-84.557	0.112	0.036
-430.646	396.910	-0.070	0.147
-429.632	-58.503	-0.347	-0.152
-428.617	653.657	0.009	0.022
-427.603	-44.712	0.289	0.146
-426.588	-200.000	0.048	0.213
-425.573	76.865	0.224	-0.241
-424.559	-23.582	-0.047	-0.028
-423.544	-14.772	-0.121	0.078
-422.530	-105.291	-0.100	-0.023
-421.515	800.000	0.044	0.162
-420.500	290.064	-0.179	0.329
-419.486	177.697	-0.110	-0.162
-418.471	3.347	0.180	-0.133
-417.457	620.461	-0.060	0.153
-416.442	-121.115	0.413	-0.070
-415.428	-105.342	-0.274	0.063
-414.413	6.191	0.107	0.080
-413.398	-169.670	-0.328	-0.012
-412.384	-178.344	0.336	-0.008
-411.369	-77.163	-0.414	-0.146
-410.355	118.495	-0.236	0.295
-409.340	-53.318	0.126	0.058
-408.325	85.291	-0.172	-0.191
-407.311	19.403	-0.248	-0.201
-406.296	-76.777	-0.210	-0.074
-405.282	485.781	-0.049	-0.112
-404.267	328.529	0.071	0.137
-403.252	-169.490	-0.056	0.002
-402.238	375.986	-0.129	-0.266
-401.223	291.800	0.068	0.125
-400.209	-64.024	0.151	-0.063
-399.194	-189.220	0.246	0.003
-398.179	-24.916	0.232	-0.139
-397.165	32.966	-0.280	0.245
-396.150	227.266	-0.151	0.247
-395.136	-143.527	0.199	0.019
-394.121	800.000	-0.101	0.327
-393.106	-200.000	-0.005	0.081
-392.092	-47.522	0.035	0.017
-391.077	471.665	-0.047	0.106
-390.063	800.000	-0.059	-0.260
-389.048	217.576	0.160	0.258
-388.033	405.286	0.098	0.209
-387.019	-124.700	-0.092	-0.014
-386.004	-200.000	0.043	0.360
-384.990	305.991	0.075	0.141
-383.975	800.000	-0.066	-0.223
-382.960	-200.000	0.039	-0.322
-381.946	75.383	0.128	0.136
-380.931	800.000	-0.058	0.169
-379.917	-200.000	-0.001	0.133
-378.902	-170.443	0.513	-0.018
-377.888	357.584	-0.035	-0.071
-376.873	-149.778	-0.309	-0.024
-375.858	-61.690	-0.143	-0.061
-374.844	-87.446	-0.328	-0.100
-373.829	-200.000	0.003	-0.099
-372.815	-36.623	0.209	-0.114
-371.800	-200.000	0.018	-0.142
-370.785	-55.839	0.185	0.083
-369.771	800.000	0.063	-0.276
-368.756	-121.863	0.098	-0.016
-367.742	6.364	-0.146	0.109
-366.727	800.000	-0.108	-0.305
-365.712	338.397	-0.122	-0.239
-364.698	-116.044	0.320	-0.060
-363.683	45.909	0.146	0.137
-362.669	-120.273	-0.288	0.050
-361.654	-152.275	-0.205	0.015
-360.639	153.727	0.093	0.129
-359.625	-62.899	0.113	0.047
-358.610	37.572	0.371	-0.332
-357.596	-200.000	0.008	0.053
-356.581	-64.463	0.155	0.063
-355.566	-40.478	-0.282	-0.148
-354.552	-200.000	-0.015	-0.155
-353.537	-200.000	0.011	0.299
-352.523	87.564	-0.103	0.115
-351.508	800.000	-0.027	-0.106
-350.493	-200.000	-0.044	-0.275
-349.479	-95.550	-0.136	0.037
-348.464	457.176	-0.102	-0.228
-347.450	12.374	0.094	-0.073
-346.435	368.108	0.056	0.113
-345.420	-25.564	0.104	0.062
-344.406	-71.721	0.377	0.142
-343.391	-72.019	0.246	-0.092
-342.377	800.000	0.088	0.385
-341.362	543.379	0.062	0.149
-340.348	-165.060	-0.410	0.018
-339.333	94.303	-0.042	0.048
-338.318	800.000	0.165	-0.555
-337.304	64.580	0.056	-0.057
-336.289	139.370	0.152	-0.202
-335.275	800.000	0.054	-0.167
-334.260	512.708	-0.157	0.369
-333.245	93.203	0.258	0.293
-332.231	-200.000	-0.075	0.359
-331.216	-90.891	-0.110	0.032
-330.202	52.180	0.113	0.108
-329.187	-66.804	-0.160	-0.064
-328.172	259.067	-0.131	-0.228
-327.158	-94.311	-0.274	-0.076
-326.143	164.710	-0.083	-0.118
-325.129	-11.789	-0.166	-0.110
-324.114	299.784	0.049	-0.091
-323.099	118.544	-0.083	-0.104
-322.085	-200.000	-0.017	0.155
-321.070	161.624	0.049	-0.068
-320.056	659.732	-0.107	-0.278
-319.041	-200.000	-0.016	0.252
-318.026	631.114	-0.032	0.082
-317.012	800.000	0.104	-0.333
-315.997	92.929	-0.289	-0.329
-314.983	-64.648	-0.318	0.130
-313.968	-72.813	-0.355	-0.131
-312.953	-48.131	-0.111	-0.054
-311.939	77.163	-0.158	0.169
-310.924	-19.749	-0.038	-0.024
-309.910	52.473	-0.042	-0.040
-308.895	-120.536	0.117	-0.020
-307.880	-200.000	-0.020	-0.109
-306.866	45.410	0.094	-0.087
-305.851	76.310	0.200	-0.213
-304.837	108.469	-0.034	-0.041
-303.822	-4.185	-0.135	0.094
-302.807	800.000	-0.025	0.080
-301.793	-200.000	-0.002	-0.221
-300.778	-125.976	0.231	-0.035
-299.764	-200.000	-0.004	-0.213
-298.749	-28.539	-0.088	-0.051
-297.735	130.442	-0.211	-0.272
-296.720	38.421	0.228	-0.205
-295.705	-200.000	-0.008	-0.256
-294.691	6.345	-0.081	-0.060
-293.676	-107.278	-0.023	0.005
-292.662	-19.819	0.177	0.110
-291.647	40.175	0.219	-0.198
-290.632	21.382	0.084	0.069
-289.618	-79.588	-0.165	0.056
-288.603	479.956	0.104	0.237
-287.589	-114.980	-0.168	-0.032
-286.574	-98.319	-0.255	0.066
-285.559	63.388	-0.137	-0.138
-284.545	-200.000	0.022	-0.193
-283.530	61.343	0.011	0.011
-282.516	-108.515	-0.155	0.033
-281.501	800.000	-0.027	0.089
-280.486	110.833	-0.159	-0.192
-279.472	250.068	0.088	0.150
-278.457	-200.000	0.008	0.143
-277.443	-200.000	-0.007	0.166
-276.428	109.257	0.261	0.314
-275.413	800.000	-0.059	0.221
-274.399	-21.796	-0.240	0.147
-273.384	-82.487	-0.251	-0.082
-272.370	-51.645	0.274	0.129
-271.355	-64.744	0.422	0.172
-270.340	-65.776	-0.055	0.022
-269.326	-145.660	0.470	0.042
-268.311	-54.467	0.045	0.021
-267.297	-200.000	0.032	0.270
-266.282	-48.547	0.077	0.037
-265.267	-200.000	0.069	-0.478
-264.253	-77.229	-0.369	-0.129
-263.238	33.705	-0.172	0.150
-262.224	57.437	-0.216	-0.212
-261.209	215.452	-0.116	0.186
-260.195	-116.888	0.292	0.054
-259.180	800.000	-0.052	0.215
-258.165	-3.072	-0.193	0.136
-257.151	-200.000	-0.023	0.355
-256.136	67.766	0.145	0.148
-255.122	184.880	0.112	-0.167
-254.107	341.751	0.194	-0.382
-253.092	10.909	-0.272	0.209
-252.078	-200.000	0.026	0.120
-251.063	147.927	0.114	-0.155
-250.049	33.053	0.168	0.146
-249.034	-200.000	0.040	0.285
-248.019	2.956	0.056	-0.041
-247.005	178.296	0.191	0.280
-245.990	-7.208	-0.071	0.048
-244.976	107.309	-0.218	0.260
-243.961	-200.000	0.015	-0.174
-242.946	-200.000	-0.041	-0.187
-241.932	-5.746	-0.207	0.142
-240.917	-48.934	0.083	0.040
-239.903	221.302	0.216	-0.348
-238.888	-47.172	0.323	0.158
-237.873	800.000	-0.032	-0.116
-236.859	-93.586	-0.266	0.074
-235.844	-130.854	0.260	-0.035
-234.830	-200.000	0.017	0.079
-233.815	-133.902	-0.239	-0.030
-232.800	-186.693	-0.253	-0.004
-231.786	-200.000	0.007	0.136
-230.771	176.404	-0.342	-0.499
-229.757	-200.000	0.002	-0.139
-228.742	800.000	0.035	-0.111
-227.727	120.849	-0.036	-0.045
-226.713	800.000	-0.102	0.379
-225.698	302.984	-0.061	-0.114
-224.684	-63.131	-0.334	-0.138
-223.669	79.369	0.069	-0.074
-222.655	48.535	-0.055	0.052
-221.640	651.383	-0.061	0.158
-220.625	159.677	0.164	0.230
-219.611	-93.893	-0.047	0.013
-218.596	-170.443	0.042	0.001
-217.582	-109.024	0.274	-0.058
-216.567	800.000	0.105	-0.303
-215.552	114.349	-0.062	0.075
-214.538	800.000	0.097	-0.362
-213.523	193.610	-0.109	-0.166
-212.509	99.683	-0.108	0.125
-211.494	73.407	-0.215	0.226
-210.479	96.791	0.263	0.302
-209.465	800.000	0.028	0.120
-208.450	-200.000	0.017	-0.150
-207.436	-118.698	0.097	0.017
-206.421	220.673	0.047	0.075
-205.406	248.335	0.108	0.182
-204.392	336.408	0.135	0.263
-203.377	150.417	0.164	-0.224
-202.363	276.139	-0.110	-0.197
-201.348	46.697	-0.215	-0.200
-200.333	-200.000	-0.032	0.173
-199.319	-161.465	0.346	-0.018
-198.304	-76.868	0.375	-0.132
-197.290	269.224	0.017	0.031
-196.275	-107.496	0.119	-0.026
-195.260	-60.607	0.255	-0.109
-194.246	126.413	-0.249	-0.316
-193.231	-200.000	0.011	0.095
-192.217	-200.000	-0.008	0.124
-191.202	-1.926	-0.146	-0.103
-190.187	800.000	-0.091	-0.336
-189.173	-147.746	-0.197	0.017
-188.158	-134.479	-0.115	0.014
-187.144	-3.126	-0.117	-0.082
-186.129	800.000	-0.036	0.158
-185.114	-45.525	0.261	0.130
-184.100	-125.330	0.318	0.049
-183.085	-61.285	-0.151	-0.064
-182.071	94.445	0.176	0.201
-181.056	-200.000	0.027	0.286
-180.042	-48.211	0.228	0.110
-179.027	-60.920	-0.149	-0.063
-178.012	-47.791	-0.595	-0.289
-176.998	-6.737	-0.008	-0.005
-175.983	71.585	-0.073	0.076
-174.969	-45.888	0.084	-0.041
-173.954	42.893	0.093	-0.085
-172.939	-106.676	0.249	0.055
-171.925	245.860	-0.030	-0.050
-170.910	42.131	-0.165	0.150
-169.896	97.299	0.244	0.281
-168.881	728.965	0.116	-0.309
-167.866	340.398	0.025	-0.048
-166.852	-200.000	0.007	-0.271
-165.837	800.000	-0.029	-0.125
-164.823	-200.000	-0.024	-0.240
-163.808	-200.000	0.034	-0.160
-162.793	-200.000	0.015	-0.203
-161.779	-0.357	-0.253	0.180
-160.764	222.354	0.066	0.106
-159.750	316.527	-0.077	0.146
-158.735	-10.076	-0.190	0.126
-157.720	9.857	-0.281	0.214
-156.706	-66.483	-0.386	0.153
-155.691	-47.691	-0.199	0.097
-154.677	-56.384	-0.181	-0.080
-153.662	-20.881	-0.133	0.081
-152.647	-11.713	0.104	-0.068
-151.633	42.749	0.120	0.110
-150.618	800.000	-0.010	0.027
-149.604	-200.000	-0.031	-0.206
-148.589	96.847	0.095	-0.109
-147.574	71.178	-0.313	0.325
-146.560	-165.021	0.265	-0.012
-145.545	339.770	0.186	0.362
-144.531	115.588	0.121	0.148
-143.516	95.435	0.163	-0.186
-142.502	-109.125	0.334	0.071
-141.487	2.560	0.258	-0.187
-140.472	-200.000	-0.018	0.177
-139.458	37.048	0.201	0.178
-138.443	28.357	0.216	0.183
-137.429	-72.499	-0.266	-0.098
-136.414	-109.685	-0.095	-0.020
-135.399	19.116	-0.216	0.173
-134.385	-98.054	0.106	-0.027
-133.370	-39.168	0.121	-0.063
-132.356	-31.043	0.033	-0.019
-131.341	-146.487	-0.286	0.025
-130.326	9.811	0.093	0.070
-129.312	251.834	0.140	0.238
-128.297	606.831	0.010	-0.025
-127.283	-200.000	0.007	-0.211
-126.268	55.688	0.093	0.090
-125.253	-68.255	-0.065	-0.025
-124.239	-182.540	0.223	0.004
-123.224	-20.437	0.144	-0.088
-122.210	15.029	0.365	-0.286
-121.195	-155.852	0.256	-0.016
-120.180	446.561	0.171	0.376
