DTS Sentinel unit serial number:	SN413079Multiplexer serial number:	ORYXHardware model number:	OX4-SRSoftware version number:	ORYX F/W v4.00 Oryx Data Collector v3.7.2.0data status	okinstallation	princeton_trtdifferential loss correction	single-endedforward channel	channel 3reverse channel	N/Adate	2019/09/11time	07:42:10forward acquisition time	60.00reverse acquisition time	0.00gamma	496.2192k internal	0.2324k external	0.2324temperature offset calibration	0.9897default loss term (dB/km)	0.3790temperature slope calibration	1.0000multiplexer offset coefficient	1.0000multiplexer slope coefficient	1.0000fibre end	0.00T internal ref (°C)	31.50T ext. ref 1 (°C)	-0.04T ext. ref 2 (°C)	27.60length (m)	temperature (°C)	Stokes	anti-Stokes-747.200	0.496	0.104	-0.075
-746.185	272.576	-0.028	-0.050
-745.171	-29.333	0.215	0.124
-744.156	160.134	0.073	0.102
-743.142	341.401	-0.073	0.144
-742.127	-83.970	0.092	-0.030
-741.112	-86.158	0.210	-0.066
-740.098	228.134	0.108	-0.178
-739.083	-159.033	0.231	0.013
-738.069	397.196	-0.198	0.418
-737.054	-124.645	-0.353	0.055
-736.039	189.261	-0.144	-0.218
-735.025	-66.661	-0.311	0.124
-734.010	-126.392	-0.513	-0.077
-732.996	90.995	-0.130	-0.147
-731.981	75.162	0.189	-0.201
-730.966	48.002	0.047	0.045
-729.952	32.452	0.186	-0.162
-728.937	-2.911	0.333	-0.235
-727.923	-200.000	-0.012	-0.085
-726.908	-40.787	-0.129	-0.067
-725.894	-161.850	-0.104	-0.005
-724.879	-200.000	-0.010	-0.219
-723.864	32.572	-0.187	0.163
-722.850	-200.000	-0.023	-0.310
-721.835	176.520	-0.042	-0.062
-720.821	-163.232	0.269	-0.013
-719.806	644.486	-0.031	0.079
-718.791	146.738	-0.092	0.125
-717.777	-103.832	-0.514	0.121
-716.762	-200.000	-0.024	-0.254
-715.748	800.000	0.063	0.180
-714.733	286.549	-0.162	-0.295
-713.718	102.029	-0.126	-0.148
-712.704	-200.000	0.005	-0.199
-711.689	-37.960	0.164	-0.088
-710.675	800.000	-0.105	0.352
-709.660	-52.944	-0.323	-0.150
-708.645	49.901	0.161	-0.153
-707.631	60.605	-0.177	-0.176
-706.616	-137.770	-0.122	-0.014
-705.602	-179.339	-0.252	-0.006
-704.587	-75.852	-0.157	0.056
-703.572	178.756	0.035	0.051
-702.558	216.834	-0.062	-0.100
-701.543	-51.677	-0.198	-0.093
-700.529	-55.022	-0.042	-0.019
-699.514	334.268	0.067	0.131
-698.499	147.965	0.085	-0.116
-697.485	139.460	-0.214	-0.284
-696.470	161.064	-0.165	0.232
-695.456	31.825	-0.100	0.087
-694.441	-130.890	-0.163	0.022
-693.426	527.651	-0.039	0.093
-692.412	-200.000	0.011	0.155
-691.397	800.000	-0.066	0.228
-690.383	-97.380	0.317	0.083
-689.368	47.744	-0.036	-0.034
-688.354	-138.895	-0.484	-0.053
-687.339	800.000	-0.029	0.124
-686.324	300.282	-0.018	0.034
-685.310	-195.553	0.183	0.001
-684.295	-59.540	0.091	-0.039
-683.281	-200.000	-0.075	0.404
-682.266	-200.000	-0.003	0.162
-681.251	-200.000	0.007	0.070
-680.237	-29.634	-0.179	0.103
-679.222	170.675	0.068	-0.099
-678.208	-91.051	0.222	-0.064
-677.193	-113.736	-0.236	0.046
-676.178	39.195	0.107	0.096
-675.164	-200.000	-0.007	-0.201
-674.149	232.360	0.123	-0.203
-673.135	-200.000	-0.016	0.192
-672.120	-133.166	-0.098	-0.012
-671.105	-147.630	-0.063	0.005
-670.091	800.000	0.007	-0.021
-669.076	-4.396	-0.209	-0.145
-668.062	-129.390	-0.344	0.048
-667.047	87.996	-0.100	0.112
-666.032	800.000	-0.061	0.264
-665.018	68.339	0.253	-0.261
-664.003	435.717	0.072	-0.158
-662.989	278.358	-0.057	-0.101
-661.974	-175.753	-0.625	-0.017
-660.959	-200.000	0.018	-0.140
-659.945	29.271	0.045	-0.039
-658.930	-94.819	0.019	0.005
-657.916	40.413	-0.030	-0.027
-656.901	388.544	-0.020	0.042
-655.886	-75.005	0.345	0.124
-654.872	-120.979	0.338	-0.057
-653.857	-111.567	-0.139	0.028
-652.843	778.459	-0.149	0.409
-651.828	50.684	0.215	-0.205
-650.814	-105.875	0.252	-0.057
-649.799	-57.790	-0.172	-0.076
-648.784	-59.618	-0.107	0.046
-647.770	-111.992	0.230	0.047
-646.755	-47.128	0.092	-0.045
-645.741	-200.000	0.001	-0.499
-644.726	67.645	-0.333	-0.342
-643.711	369.452	-0.176	-0.359
-642.697	87.127	-0.053	0.059
-641.682	82.982	-0.054	-0.059
-640.668	3.826	-0.109	0.080
-639.653	17.354	-0.306	-0.245
-638.638	474.478	0.092	-0.209
-637.624	-6.959	-0.070	0.047
-636.609	-124.114	0.089	-0.014
-635.595	-200.000	-0.002	0.031
-634.580	406.359	0.061	-0.130
-633.565	-57.915	0.057	-0.025
-632.551	71.233	-0.284	0.297
-631.536	348.610	-0.047	-0.094
-630.522	800.000	0.127	-0.449
-629.507	116.132	0.164	0.201
-628.492	-85.499	0.273	-0.085
-627.478	-200.000	-0.007	0.144
-626.463	65.495	-0.118	0.120
-625.449	-68.109	0.056	0.022
-624.434	-133.623	0.059	0.007
-623.419	-91.167	0.509	0.147
-622.405	-75.841	0.177	-0.063
-621.390	800.000	-0.028	0.120
-620.376	-9.101	0.075	-0.050
-619.361	87.944	0.170	0.190
-618.346	191.107	-0.102	0.155
-617.332	41.383	-0.294	-0.267
-616.317	218.796	0.189	-0.303
-615.303	-200.000	-0.026	-0.256
-614.288	276.187	-0.106	0.189
-613.273	76.662	0.154	0.164
-612.259	800.000	0.094	0.278
-611.244	-44.150	-0.149	-0.075
-610.230	-49.656	-0.184	0.088
-609.215	229.565	0.256	-0.420
-608.201	800.000	0.067	-0.185
-607.186	378.075	0.144	-0.297
-606.171	-70.993	0.199	-0.075
-605.157	-36.288	0.214	-0.116
-604.142	-121.921	-0.370	0.061
-603.128	-20.552	-0.281	-0.173
-602.113	-200.000	0.048	-0.211
-601.098	-179.307	0.073	-0.002
-600.084	800.000	0.067	-0.198
-599.069	800.000	0.125	-0.395
-598.055	507.751	-0.055	-0.129
-597.040	-6.873	-0.158	0.108
-596.025	-141.980	-0.138	-0.014
-595.011	201.916	0.094	-0.145
-593.996	-127.154	-0.313	0.046
-592.982	-200.000	-0.039	-0.229
-591.967	32.625	0.107	0.093
-590.952	-8.965	-0.039	-0.026
-589.938	-61.412	0.125	-0.053
-588.923	50.730	-0.308	-0.293
-587.909	-200.000	-0.079	-0.573
-586.894	800.000	-0.081	-0.227
-585.879	182.505	0.095	-0.140
-584.865	13.867	-0.181	-0.141
-583.850	-200.000	0.002	-0.301
-582.836	-128.366	-0.284	-0.040
-581.821	231.796	0.074	0.121
-580.806	-86.769	0.305	0.093
-579.792	2.664	0.012	-0.009
-578.777	-110.557	0.181	-0.038
-577.763	99.645	-0.063	-0.073
-576.748	-181.617	0.091	-0.002
-575.733	648.933	0.221	0.568
-574.719	167.444	0.157	0.223
-573.704	399.605	-0.092	0.194
-572.690	26.322	-0.421	-0.353
-571.675	402.660	0.195	0.412
-570.661	-193.505	0.170	-0.001
-569.646	-36.824	0.283	0.152
-568.631	-200.000	-0.041	0.351
-567.617	-125.034	0.132	0.020
-566.602	-200.000	-0.023	-0.267
-565.588	-6.347	0.259	-0.177
-564.573	68.974	-0.174	-0.179
-563.558	-92.606	0.250	-0.070
-562.544	248.136	-0.066	-0.111
-561.529	-200.000	-0.022	0.240
-560.515	800.000	-0.030	0.103
-559.500	-200.000	0.003	0.018
-558.485	-42.221	-0.131	0.067
-557.471	-30.185	-0.293	-0.167
-556.456	1.270	-0.168	-0.121
-555.442	800.000	-0.119	-0.393
-554.427	-200.000	-0.018	-0.336
-553.412	190.453	0.204	0.308
-552.398	800.000	-0.050	0.209
-551.383	800.000	-0.075	-0.222
-550.369	-200.000	-0.040	-0.199
-549.354	72.561	-0.275	-0.288
-548.339	114.954	0.169	-0.206
-547.325	283.673	-0.158	0.285
-546.310	800.000	-0.036	0.130
-545.296	-119.909	-0.165	0.028
-544.281	290.382	-0.058	0.105
-543.266	-200.000	-0.041	-0.195
-542.252	-96.925	-0.227	-0.060
-541.237	-41.774	-0.326	-0.168
-540.223	-112.218	-0.111	-0.022
-539.208	199.305	-0.271	-0.416
-538.193	634.569	-0.028	-0.071
-537.179	211.618	-0.108	-0.171
-536.164	-200.000	-0.018	-0.179
-535.150	-37.003	0.248	-0.133
-534.135	49.897	-0.074	0.069
-533.121	284.076	0.074	-0.133
-532.106	-194.005	0.252	0.002
-531.091	-200.000	-0.011	0.255
-530.077	-102.135	-0.195	0.047
-529.062	-200.000	0.053	0.234
-528.048	-96.734	-0.177	0.047
-527.033	-16.475	0.291	0.185
-526.018	251.979	-0.106	-0.181
-525.004	-56.648	0.145	-0.064
-523.989	323.816	0.067	-0.128
-522.975	-47.319	-0.088	0.043
-521.960	-200.000	0.026	-0.167
-520.945	-108.824	0.154	-0.033
-519.931	107.734	-0.157	0.187
-518.916	-142.321	0.278	-0.027
-517.902	234.447	0.202	-0.334
-516.887	800.000	-0.098	-0.334
-515.872	-101.257	0.172	-0.042
-514.858	800.000	0.025	0.073
-513.843	32.699	-0.156	0.135
-512.829	-200.000	0.029	0.237
-511.814	304.395	-0.083	0.154
-510.799	800.000	0.084	0.267
-509.785	-200.000	-0.021	-0.180
-508.770	69.747	0.211	-0.218
-507.756	373.610	-0.177	0.360
-506.741	800.000	-0.011	0.036
-505.726	20.695	0.279	-0.226
-504.712	-67.555	-0.149	0.059
-503.697	800.000	0.176	-0.497
-502.683	-73.021	0.155	-0.057
-501.668	71.736	-0.118	0.123
-500.653	-154.549	0.074	0.005
-499.639	-158.880	0.080	-0.005
-498.624	-160.483	-0.351	-0.019
-497.610	517.906	-0.067	-0.158
-496.595	-200.000	-0.032	-0.171
-495.581	-49.699	-0.187	-0.089
-494.566	341.109	-0.176	-0.344
-493.551	-40.628	-0.098	0.051
-492.537	477.907	0.130	0.295
-491.522	-200.000	0.058	-0.314
-490.508	-74.088	0.085	0.031
-489.493	25.996	-0.166	0.139
-488.478	178.704	0.108	0.158
-487.464	20.795	0.162	-0.131
-486.449	-68.930	0.111	-0.043
-485.435	-200.000	0.057	0.284
-484.420	18.403	-0.256	0.205
-483.405	-66.259	0.360	-0.143
-482.391	-98.651	-0.152	0.039
-481.376	26.206	0.024	0.020
-480.362	800.000	0.101	0.362
-479.347	-178.420	-0.122	0.003
-478.332	-97.474	-0.225	-0.059
-477.318	220.977	0.074	0.119
-476.303	-200.000	0.001	-0.132
-475.289	-173.590	0.347	0.010
-474.274	86.687	-0.121	0.134
-473.259	-130.959	-0.361	0.048
-472.245	6.499	0.284	0.211
-471.230	131.988	0.065	-0.084
-470.216	-200.000	0.001	0.064
-469.201	78.446	-0.249	0.265
-468.186	-200.000	-0.017	-0.226
-467.172	800.000	0.114	0.337
-466.157	-110.683	-0.127	0.026
-465.143	446.440	-0.022	-0.049
-464.128	-127.847	-0.157	0.023
-463.113	800.000	0.113	-0.351
-462.099	-200.000	0.006	-0.179
-461.084	-39.535	0.113	0.059
-460.070	-160.653	0.435	-0.023
-459.055	-98.916	-0.164	0.042
-458.040	800.000	0.018	0.067
-457.026	39.670	0.177	0.159
-456.011	651.249	-0.027	-0.070
-454.997	-200.000	0.022	0.117
-453.982	-160.567	-0.364	-0.019
-452.968	149.210	-0.109	0.147
-451.953	231.821	-0.091	0.149
-450.938	16.083	0.331	0.261
-449.924	-86.247	-0.163	-0.050
-448.909	52.254	-0.177	-0.169
-447.895	-90.572	0.275	0.079
-446.880	71.479	0.098	0.101
-445.865	99.360	-0.212	-0.245
-444.851	-90.490	-0.345	0.100
-443.836	-155.282	0.080	0.005
-442.822	67.548	-0.096	-0.098
-441.807	-109.157	-0.294	0.062
-440.792	42.103	-0.086	0.078
-439.778	-155.085	-0.081	-0.005
-438.763	321.645	0.082	0.156
-437.749	-177.575	0.286	-0.007
-436.734	-200.000	-0.005	0.045
-435.719	-1.929	0.058	0.041
-434.705	100.046	-0.168	-0.194
-433.690	-200.000	-0.001	-0.264
-432.676	-144.624	0.023	0.002
-431.661	610.312	-0.046	-0.116
-430.646	-179.849	-0.429	-0.009
-429.632	44.105	-0.257	-0.235
-428.617	-92.189	0.148	-0.042
-427.603	800.000	-0.023	-0.080
-426.588	-127.393	0.055	-0.008
-425.573	-39.135	-0.138	0.072
-424.559	37.624	0.196	-0.174
-423.544	800.000	0.088	0.368
-422.530	-167.087	0.212	0.009
-421.515	-200.000	0.013	0.174
-420.500	191.494	-0.204	-0.307
-419.486	109.485	-0.140	0.168
-418.471	286.124	-0.078	0.141
-417.457	-109.243	-0.123	0.026
-416.442	-154.571	0.339	0.023
-415.428	155.542	0.106	-0.146
-414.413	50.744	-0.192	-0.181
-413.398	72.156	0.237	-0.246
-412.384	59.051	-0.067	-0.066
-411.369	-79.523	0.092	-0.031
-410.355	350.344	-0.130	0.256
-409.340	-156.852	-0.397	0.024
-408.325	-44.758	0.186	0.092
-407.311	541.380	0.051	-0.122
-406.296	139.209	0.319	-0.418
-405.282	93.855	0.062	-0.070
-404.267	-154.217	0.143	-0.010
-403.252	-185.880	0.540	-0.008
-402.238	237.563	0.226	0.373
-401.223	119.451	-0.081	0.099
-400.209	-171.224	0.203	-0.007
-399.194	-102.191	-0.099	0.024
-398.179	800.000	-0.111	0.399
-397.165	83.550	-0.324	-0.352
-396.150	437.188	-0.037	-0.080
-395.136	527.901	0.083	0.196
-394.121	127.543	0.191	0.241
-393.106	-20.961	0.256	-0.156
-392.092	-140.378	-0.316	0.033
-391.077	-200.000	0.084	0.431
-390.063	800.000	0.204	0.576
-389.048	-114.048	-0.099	0.019
-388.033	249.207	-0.152	-0.256
-387.019	-200.000	0.001	0.299
-386.004	-200.000	0.047	0.292
-384.990	-157.152	-0.279	-0.017
-383.975	-13.807	-0.050	0.032
-382.960	253.034	0.173	-0.294
-381.946	-97.474	0.099	-0.025
-380.931	146.731	0.149	-0.200
-379.917	71.920	-0.060	0.063
-378.902	-4.514	-0.031	-0.021
-377.888	-200.000	-0.005	0.234
-376.873	342.991	0.114	0.221
-375.858	-200.000	0.012	0.056
-374.844	281.803	-0.077	0.137
-373.829	173.192	0.049	-0.070
-372.815	-74.032	-0.058	0.021
-371.800	-200.000	-0.033	-0.237
-370.785	-114.758	0.122	-0.023
-369.771	-9.199	0.282	0.188
-368.756	381.512	0.086	0.176
-367.742	-117.428	-0.267	0.048
-366.727	-116.343	-0.067	0.012
-365.712	-136.436	0.182	-0.021
-364.698	-165.636	0.034	-0.001
-363.683	24.612	-0.091	0.075
-362.669	-24.297	-0.092	0.055
-361.654	-200.000	-0.030	-0.220
-360.639	-42.956	-0.179	-0.090
-359.625	-88.744	-0.326	-0.096
-358.610	-41.282	-0.269	0.138
-357.596	595.026	-0.150	0.369
-356.581	-200.000	-0.097	-0.432
-355.566	434.674	-0.123	0.266
-354.552	-169.838	-0.182	-0.007
-353.537	-39.262	-0.114	-0.060
-352.523	-96.903	0.177	0.046
-351.508	-132.263	0.371	0.048
-350.493	266.463	0.086	-0.149
-349.479	-200.000	0.021	0.238
-348.464	256.166	-0.089	0.152
-347.450	253.745	0.100	-0.170
-346.435	1.399	0.134	-0.096
-345.420	800.000	0.071	-0.221
-344.406	-145.970	-0.415	0.036
-343.391	45.841	-0.273	-0.251
-342.377	800.000	-0.053	-0.188
-341.362	800.000	0.094	0.358
-340.348	-98.129	-0.151	0.039
-339.333	-111.507	-0.052	-0.011
-338.318	-135.741	-0.277	-0.033
-337.304	-161.076	-0.157	0.008
-336.289	-25.400	0.290	0.171
-335.275	-200.000	0.055	-0.327
-334.260	-200.000	0.017	0.106
-333.245	-6.735	0.246	-0.167
-332.231	355.623	0.092	0.182
-331.216	49.986	0.105	-0.098
-330.202	-200.000	-0.005	-0.220
-329.187	-200.000	-0.062	-0.304
-328.172	53.551	0.175	0.167
-327.158	297.938	-0.028	0.052
-326.143	284.311	0.023	0.041
-325.129	-101.508	0.287	0.069
-324.114	-80.783	-0.331	0.109
-323.099	-66.358	0.362	-0.143
-322.085	-200.000	0.017	0.212
-321.070	-78.460	0.322	-0.109
-320.056	102.602	0.092	-0.107
-319.041	-200.000	0.007	0.051
-318.026	-58.102	-0.246	0.106
-317.012	187.875	0.080	0.119
-315.997	-200.000	-0.014	-0.295
-314.983	138.319	-0.215	0.280
-313.968	-35.626	-0.283	0.152
-312.953	65.395	-0.251	0.252
-311.939	-200.000	0.012	-0.179
-310.924	-81.268	0.323	-0.106
-309.910	86.388	0.059	0.065
-308.895	-118.679	-0.201	-0.035
-307.880	112.014	0.207	0.249
-306.866	312.945	0.060	0.112
-305.851	-97.824	-0.164	0.042
-304.837	-187.475	-0.325	0.004
-303.822	168.100	0.066	0.093
-302.807	370.677	0.055	-0.110
-301.793	-33.119	0.157	-0.086
-300.778	-200.000	-0.042	-0.213
-299.764	-200.000	-0.006	0.077
-298.749	-96.147	-0.200	0.053
-297.735	48.843	0.296	-0.275
-296.720	800.000	-0.042	-0.160
-295.705	769.029	-0.011	-0.031
-294.691	-200.000	-0.013	-0.065
-293.676	-200.000	-0.019	-0.168
-292.662	-97.604	-0.520	0.134
-291.647	18.182	-0.446	0.353
-290.632	20.294	0.119	0.095
-289.618	-200.000	0.001	-0.134
-288.603	26.454	-0.113	-0.094
-287.589	-200.000	-0.007	-0.179
-286.574	800.000	0.036	0.128
-285.559	-37.740	-0.097	-0.051
-284.545	-200.000	-0.017	0.137
-283.530	424.739	0.028	-0.061
-282.516	56.826	0.183	-0.177
-281.501	-160.485	0.125	-0.007
-280.486	-200.000	-0.045	0.293
-279.472	229.358	0.159	0.257
-278.457	-200.000	-0.020	-0.128
-277.443	-200.000	0.024	-0.179
-276.428	16.492	-0.184	-0.144
-275.413	77.207	0.001	0.001
-274.399	-15.186	-0.252	0.160
-273.384	-84.991	0.143	0.045
-272.370	-141.594	0.237	-0.024
-271.355	-71.986	-0.134	-0.049
-270.340	-200.000	-0.018	0.089
-269.326	-13.294	0.277	0.178
-268.311	-130.309	-0.499	0.067
-267.297	-133.560	0.050	-0.006
-266.282	-200.000	0.010	-0.311
-265.267	451.808	0.168	0.368
-264.253	-200.000	-0.045	0.256
-263.238	800.000	0.107	0.297
-262.224	53.992	0.207	-0.197
-261.209	-44.558	0.216	-0.107
-260.195	206.022	0.201	0.310
-259.180	-148.933	-0.240	0.019
-258.165	267.782	-0.041	0.072
-257.151	347.103	-0.029	0.056
-256.136	381.737	-0.085	0.173
-255.122	800.000	0.040	-0.161
-254.107	800.000	0.004	-0.018
-253.092	-181.706	0.234	0.004
-252.078	130.830	-0.244	0.310
-251.063	187.838	-0.173	-0.255
-250.049	800.000	-0.037	-0.110
-249.034	88.367	-0.134	0.147
-248.019	-23.412	-0.166	-0.099
-247.005	530.961	0.070	-0.164
-245.990	58.375	0.273	0.265
-244.976	-13.026	0.056	0.036
-243.961	209.904	0.050	-0.078
-242.946	619.364	0.081	-0.201
-241.932	-200.000	0.088	0.391
-240.917	-200.000	0.024	-0.262
-239.903	-23.386	0.311	-0.185
-238.888	117.595	0.100	0.121
-237.873	-69.270	-0.096	0.037
-236.859	-133.762	-0.124	-0.015
-235.844	39.463	0.281	-0.249
-234.830	36.853	-0.153	0.134
-233.815	-47.107	-0.239	0.115
-232.800	-29.737	0.127	0.072
-231.786	-114.420	0.286	0.054
-230.771	76.734	-0.225	-0.236
-229.757	-166.487	-0.208	0.009
-228.742	35.717	0.220	0.191
-227.727	47.735	-0.222	-0.205
-226.713	318.307	0.037	-0.069
-225.698	-68.714	-0.140	-0.054
-224.684	19.565	0.397	0.316
-223.669	549.040	-0.132	0.314
-222.655	-74.438	-0.225	0.080
-221.640	-132.597	-0.238	0.030
-220.625	330.104	0.136	0.259
-219.611	-120.756	0.167	0.028
-218.596	-75.384	0.183	-0.065
-217.582	-200.000	0.039	-0.192
-216.567	5.723	-0.058	-0.043
-215.552	-85.720	-0.148	-0.045
-214.538	-85.984	-0.090	0.027
-213.523	-73.842	0.073	-0.026
-212.509	800.000	0.116	0.351
-211.494	169.283	0.160	0.226
-210.479	-29.176	-0.046	-0.026
-209.465	-71.054	0.071	0.026
-208.450	-200.000	-0.064	-0.286
-207.436	16.800	-0.201	0.157
-206.421	-49.585	-0.065	-0.030
-205.406	800.000	0.063	-0.191
-204.392	-49.447	0.239	-0.113
-203.377	-170.279	0.371	0.013
-202.363	477.322	-0.135	0.302
-201.348	-93.882	0.374	0.102
-200.333	-49.568	-0.192	0.090
-199.319	-200.000	0.002	0.085
-198.304	800.000	-0.038	-0.138
-197.290	800.000	-0.037	-0.117
-196.275	-31.790	-0.103	0.057
-195.260	-200.000	-0.016	0.137
-194.246	48.675	0.088	0.081
-193.231	-141.847	0.231	-0.023
-192.217	-30.874	0.101	-0.056
-191.202	-21.325	0.075	-0.045
-190.187	-20.442	-0.198	0.120
-189.173	-107.172	0.268	0.058
-188.158	-16.089	0.195	-0.123
-187.144	97.671	-0.177	0.201
-186.129	361.208	0.110	0.218
-185.114	-93.402	0.095	0.026
-184.100	85.492	-0.324	-0.352
-183.085	-90.012	0.091	0.026
-182.071	-16.493	0.236	0.148
-181.056	132.085	0.273	-0.347
-180.042	465.072	0.046	0.101
-179.027	-57.106	-0.213	0.093
-178.012	74.367	-0.097	0.101
-176.998	-200.000	0.037	0.609
-175.983	69.139	-0.242	0.246
-174.969	-138.948	-0.185	0.020
-173.954	326.087	0.156	-0.294
-172.939	234.782	0.121	0.197
-171.925	-200.000	-0.010	-0.078
-170.910	-200.000	-0.042	0.218
-169.896	-117.147	-0.205	-0.037
-168.881	-42.323	0.318	0.160
-167.866	455.318	0.066	-0.144
-166.852	45.580	-0.194	0.177
-165.837	-200.000	0.030	0.337
-164.823	-5.372	-0.247	0.167
-163.808	84.631	0.349	0.378
-162.793	-200.000	0.010	0.156
-161.779	-200.000	-0.027	-0.185
-160.764	269.273	0.088	-0.152
-159.750	-200.000	-0.011	-0.116
-158.735	461.053	0.090	0.199
-157.720	190.079	-0.239	0.355
-156.706	800.000	0.034	-0.125
-155.691	69.760	0.125	-0.127
-154.677	-64.119	0.105	-0.042
-153.662	172.317	0.108	-0.153
-152.647	-200.000	-0.005	0.198
-151.633	-158.575	0.188	-0.011
-150.618	52.751	-0.175	0.165
-149.604	-200.000	0.084	0.509
-148.589	-33.805	-0.246	0.134
-147.574	110.942	0.127	0.151
-146.560	800.000	-0.068	-0.251
-145.545	-53.663	0.136	0.061
-144.531	-200.000	0.048	0.271
-143.516	-200.000	0.004	0.024
-142.502	562.088	0.054	0.130
-141.487	-200.000	-0.038	0.258
-140.472	-73.742	0.158	-0.057
-139.458	4.546	0.191	0.138
-138.443	793.402	0.050	-0.134
-137.429	10.797	-0.122	0.092
-136.414	-26.645	-0.275	0.159
-135.399	-200.000	0.026	-0.116
-134.385	-51.636	-0.136	0.062
-133.370	-33.600	0.151	-0.082
-132.356	75.349	-0.079	-0.082
-131.341	320.845	0.149	-0.279
-130.326	-200.000	-0.030	0.483
-129.312	-93.966	-0.286	-0.077
-128.297	42.043	0.143	-0.128
-127.283	-200.000	-0.025	0.117
-126.268	-200.000	0.010	-0.188
-125.253	287.245	-0.184	0.328
-124.239	-29.867	-0.162	0.091
-123.224	11.618	-0.091	-0.069
-122.210	58.047	0.061	-0.059
