DTS Sentinel unit serial number:	SN413079Multiplexer serial number:	ORYXHardware model number:	OX4-SRSoftware version number:	ORYX F/W v4.00 Oryx Data Collector v3.7.2.0data status	okinstallation	princeton_trtdifferential loss correction	single-endedforward channel	channel 3reverse channel	N/Adate	2019/09/11time	00:22:10forward acquisition time	60.00reverse acquisition time	0.00gamma	496.2192k internal	0.2331k external	0.2331temperature offset calibration	0.9918default loss term (dB/km)	0.3790temperature slope calibration	1.0000multiplexer offset coefficient	1.0000multiplexer slope coefficient	1.0000fibre end	0.00T internal ref (°C)	29.30T ext. ref 1 (°C)	-0.31T ext. ref 2 (°C)	22.86length (m)	temperature (°C)	Stokes	anti-Stokes-747.200	74.075	0.249	-0.263
-746.185	-116.165	-0.274	-0.051
-745.171	-86.243	-0.234	-0.072
-744.156	39.620	0.251	0.226
-743.142	-57.589	0.181	0.080
-742.127	-97.286	0.281	0.074
-741.112	-94.270	-0.192	-0.053
-740.098	64.564	-0.208	0.211
-739.083	-85.357	-0.118	0.037
-738.069	26.199	-0.085	0.072
-737.054	140.491	0.056	0.075
-736.039	32.094	-0.067	0.058
-735.025	-29.738	-0.265	0.152
-734.010	-200.000	0.013	-0.470
-732.996	-47.817	-0.041	0.020
-731.981	272.259	0.064	-0.114
-730.966	-5.065	0.399	-0.276
-729.952	-1.953	-0.046	-0.032
-728.937	11.909	0.175	0.135
-727.923	81.011	-0.015	-0.016
-726.908	99.824	0.125	0.146
-725.894	-76.178	-0.246	0.087
-724.879	-37.789	-0.108	-0.058
-723.864	-130.898	0.297	-0.040
-722.850	183.977	-0.153	-0.228
-721.835	-200.000	-0.071	-0.402
-720.821	-116.772	0.187	0.034
-719.806	108.156	0.142	-0.170
-718.791	-5.842	-0.172	0.118
-717.777	625.681	-0.120	0.304
-716.762	800.000	0.048	-0.199
-715.748	-83.940	-0.213	-0.068
-714.733	-200.000	0.007	-0.205
-713.718	-16.990	0.206	-0.131
-712.704	14.046	-0.128	0.100
-711.689	-91.717	-0.143	-0.041
-710.675	-179.008	-0.136	-0.003
-709.660	-74.781	-0.308	0.111
-708.645	-84.348	-0.502	0.160
-707.631	-11.664	0.249	0.165
-706.616	-84.767	0.027	-0.008
-705.602	169.102	-0.219	-0.314
-704.587	723.521	-0.030	0.081
-703.572	211.602	-0.077	0.122
-702.558	-200.000	-0.007	-0.175
-701.543	725.970	-0.130	-0.349
-700.529	618.253	-0.147	-0.371
-699.514	29.779	0.285	-0.244
-698.499	-153.618	0.116	0.008
-697.485	12.741	-0.123	-0.096
-696.470	-100.670	0.161	-0.040
-695.456	104.040	-0.318	0.376
-694.441	-200.000	0.008	0.072
-693.426	38.571	-0.197	-0.176
-692.412	-95.358	-0.278	0.075
-691.397	-200.000	-0.008	0.196
-690.383	800.000	-0.040	-0.126
-689.368	-75.986	0.196	0.069
-688.354	417.512	-0.115	0.247
-687.339	425.923	0.052	0.112
-686.324	424.817	0.034	0.074
-685.310	-34.913	0.301	0.165
-684.295	34.023	0.140	0.122
-683.281	-46.869	-0.143	0.070
-682.266	147.351	0.301	-0.407
-681.251	-157.358	-0.211	0.013
-680.237	-152.657	-0.034	0.002
-679.222	0.406	-0.256	-0.184
-678.208	-18.056	0.144	-0.091
-677.193	-200.000	0.003	-0.129
-676.178	387.341	-0.149	-0.308
-675.164	-200.000	-0.064	-0.362
-674.149	-54.955	-0.134	-0.061
-673.135	86.362	0.298	0.329
-672.120	74.742	-0.189	-0.199
-671.105	15.423	-0.188	-0.148
-670.091	-5.751	0.120	0.082
-669.076	-57.901	-0.319	-0.140
-668.062	-17.237	-0.137	-0.086
-667.047	-121.891	-0.426	0.070
-666.032	37.823	-0.251	0.224
-665.018	-200.000	0.056	0.448
-664.003	320.326	0.063	-0.119
-662.989	-200.000	0.052	-0.271
-661.974	-200.000	-0.029	-0.426
-660.959	-117.664	-0.228	0.041
-659.945	-85.638	-0.213	-0.066
-658.930	240.426	-0.085	0.142
-657.916	-124.815	0.193	0.030
-656.901	-200.000	0.017	-0.108
-655.886	-200.000	0.013	-0.432
-654.872	206.149	-0.156	0.243
-653.857	61.627	-0.057	-0.057
-652.843	228.103	0.073	-0.119
-651.828	-102.677	0.315	-0.075
-650.814	236.938	-0.152	0.252
-649.799	-10.297	0.209	-0.139
-648.784	-45.669	-0.102	0.051
-647.770	-57.684	-0.350	0.154
-646.755	57.434	0.250	0.245
-645.741	-29.090	0.215	-0.123
-644.726	-15.968	-0.189	-0.121
-643.711	408.366	-0.066	-0.140
-642.697	800.000	0.013	-0.048
-641.682	-99.221	0.380	-0.096
-640.668	-200.000	0.058	0.388
-639.653	-129.156	-0.047	-0.007
-638.638	800.000	-0.041	-0.148
-637.624	53.049	-0.054	-0.052
-636.609	-16.436	0.168	-0.107
-635.595	-200.000	-0.013	0.057
-634.580	-112.097	0.169	0.034
-633.565	-131.079	-0.262	0.035
-632.551	800.000	0.044	0.153
-631.536	-1.561	-0.314	0.221
-630.522	16.035	0.125	-0.098
-629.507	-82.812	0.013	0.004
-628.492	-200.000	0.005	0.131
-627.478	138.007	-0.166	-0.219
-626.463	406.954	-0.094	-0.198
-625.449	273.227	0.026	0.046
-624.434	-43.391	0.175	-0.089
-623.419	-131.410	-0.029	0.004
-622.405	-80.746	-0.419	0.139
-621.390	-200.000	-0.018	0.259
-620.376	-130.636	-0.262	0.035
-619.361	-21.357	0.055	0.033
-618.346	251.358	-0.115	-0.196
-617.332	-69.112	-0.223	-0.086
-616.317	461.402	-0.082	-0.184
-615.303	363.258	0.185	0.372
-614.288	-18.946	-0.102	-0.064
-613.273	-101.115	-0.334	-0.082
-612.259	54.564	0.154	0.148
-611.244	-81.229	-0.223	0.074
-610.230	293.515	-0.214	-0.392
-609.215	-200.000	-0.028	0.166
-608.201	608.873	-0.155	0.388
-607.186	-114.405	0.281	0.054
-606.171	-200.000	-0.014	-0.220
-605.157	-62.080	-0.306	-0.128
-604.142	-200.000	-0.084	-0.560
-603.128	717.062	-0.090	0.238
-602.113	800.000	-0.105	-0.294
-601.098	175.672	-0.155	-0.226
-600.084	-24.623	-0.117	0.070
-599.069	-164.121	-0.097	0.004
-598.055	-200.000	0.026	-0.175
-597.040	224.883	0.081	-0.132
-596.025	293.938	-0.242	0.443
-595.011	182.860	0.019	-0.028
-593.996	800.000	-0.054	0.174
-592.982	539.734	-0.053	-0.126
-591.967	-200.000	-0.017	-0.107
-590.952	-200.000	-0.004	0.088
-589.938	800.000	-0.053	-0.169
-588.923	800.000	-0.075	-0.294
-587.909	-98.346	-0.283	-0.072
-586.894	530.478	0.068	-0.160
-585.879	86.243	0.126	-0.138
-584.865	-1.614	-0.325	0.229
-583.850	-161.448	-0.278	-0.014
-582.836	-50.494	-0.179	-0.084
-581.821	-6.709	0.212	-0.144
-580.806	-57.610	-0.430	0.188
-579.792	-130.129	0.104	-0.014
-578.777	-52.975	0.237	-0.109
-577.763	-108.331	-0.153	0.033
-576.748	-79.580	-0.185	0.062
-575.733	-148.004	-0.077	0.006
-574.719	-3.772	0.140	0.097
-573.704	-63.136	0.190	0.078
-572.690	371.646	0.080	0.161
-571.675	46.111	0.202	0.187
-570.661	-200.000	-0.011	0.135
-569.646	82.912	-0.198	0.216
-568.631	800.000	-0.015	0.050
-567.617	235.660	-0.145	-0.239
-566.602	20.225	-0.133	-0.108
-565.588	-138.330	-0.045	-0.005
-564.573	-200.000	-0.016	0.303
-563.558	17.376	-0.134	0.106
-562.544	-59.829	0.370	-0.158
-561.529	154.469	-0.135	-0.185
-560.515	38.965	0.206	-0.184
-559.500	-63.727	0.085	-0.035
-558.485	-200.000	-0.006	0.259
-557.471	-200.000	-0.056	0.352
-556.456	-3.610	0.114	-0.079
-555.442	193.251	-0.105	0.159
-554.427	204.682	-0.130	0.201
-553.412	800.000	-0.064	0.200
-552.398	-120.878	-0.164	0.028
-551.383	-58.523	-0.139	0.060
-550.369	187.679	0.111	0.165
-549.354	-200.000	-0.037	0.174
-548.339	-12.622	-0.346	0.226
-547.325	-200.000	-0.027	-0.381
-546.310	85.460	0.013	-0.014
-545.296	-200.000	-0.086	0.410
-544.281	-54.063	-0.081	-0.037
-543.266	-15.250	-0.215	-0.137
-542.252	645.220	0.152	-0.388
-541.237	-200.000	-0.006	-0.105
-540.223	107.476	0.111	0.132
-539.208	-1.121	-0.225	-0.158
-538.193	732.540	-0.118	0.315
-537.179	234.775	-0.208	-0.343
-536.164	-42.379	-0.240	0.122
-535.150	731.229	-0.079	0.211
-534.135	-200.000	-0.011	-0.152
-533.121	171.969	0.126	0.180
-532.106	-72.456	0.130	-0.048
-531.091	175.548	0.175	0.253
-530.077	-33.563	0.176	0.097
-529.062	87.254	-0.134	-0.148
-528.048	-61.657	0.150	-0.063
-527.033	96.096	-0.093	0.106
-526.018	-25.213	0.315	-0.186
-525.004	40.182	0.163	0.147
-523.989	296.612	-0.137	-0.251
-522.975	474.722	-0.061	-0.137
-521.960	-200.000	0.009	-0.175
-520.945	160.575	-0.138	0.192
-519.931	272.115	-0.201	0.353
-518.916	-200.000	0.011	0.069
-517.902	243.019	0.108	0.181
-516.887	-80.497	-0.215	0.071
-515.872	-3.929	-0.305	-0.211
-514.858	127.389	0.050	-0.063
-513.843	320.400	-0.174	-0.329
-512.829	-95.726	-0.217	0.058
-511.814	329.412	0.085	-0.163
-510.799	575.105	0.047	-0.115
-509.785	-101.787	-0.239	0.058
-508.770	170.424	-0.259	-0.370
-507.756	-166.624	0.094	0.004
-506.741	-96.867	0.277	0.073
-505.726	-172.934	0.229	-0.007
-504.712	-147.215	0.163	0.014
-503.697	32.051	-0.067	0.057
-502.683	-200.000	-0.020	-0.099
-501.668	248.425	0.241	-0.407
-500.653	-145.308	-0.418	-0.038
-499.639	-200.000	0.002	0.063
-498.624	-150.284	0.141	0.011
-497.610	169.356	0.207	0.295
-496.595	-41.644	0.518	-0.265
-495.581	35.643	0.152	-0.133
-494.566	-178.112	-0.222	0.005
-493.551	-7.450	0.094	0.063
-492.537	-190.031	0.443	0.005
-491.522	-37.777	0.054	-0.029
-490.508	53.617	0.005	0.004
-489.493	106.667	0.135	-0.160
-488.478	72.182	-0.144	-0.150
-487.464	2.182	0.184	-0.133
-486.449	-58.245	-0.274	-0.119
-485.435	-200.000	-0.009	-0.162
-484.420	-200.000	-0.333	0.001
-483.405	775.966	0.102	0.278
-482.391	-84.066	-0.394	0.125
-481.376	-200.000	-0.080	-0.646
-480.362	-47.691	0.136	0.066
-479.347	564.485	0.057	-0.138
-478.332	-125.780	0.324	0.049
-477.318	-200.000	0.024	-0.198
-476.303	110.580	0.179	0.214
-475.289	800.000	0.039	0.146
-474.274	800.000	0.076	0.280
-473.259	-200.000	-0.033	0.231
-472.245	-200.000	-0.034	-0.147
-471.230	-153.226	-0.318	0.022
-470.216	691.905	0.016	-0.041
-469.201	-134.751	-0.124	0.015
-468.186	800.000	0.037	-0.135
-467.172	43.244	-0.319	0.290
-466.157	-42.321	0.134	-0.068
-465.143	-22.170	0.093	-0.056
-464.128	68.299	-0.222	-0.227
-463.113	-139.440	0.488	-0.052
-462.099	800.000	0.085	-0.257
-461.084	151.179	0.083	0.113
-460.070	-200.000	0.014	0.125
-459.055	732.580	-0.066	-0.175
-458.040	800.000	-0.077	-0.270
-457.026	-109.316	-0.258	0.054
-456.011	-76.148	-0.215	0.076
-454.997	-200.000	-0.043	-0.289
-453.982	525.250	0.080	-0.188
-452.968	-79.845	-0.217	-0.072
-451.953	369.706	-0.121	0.243
-450.938	133.456	-0.149	-0.192
-449.924	-14.602	-0.445	0.284
-448.909	114.344	-0.205	-0.248
-447.895	-136.918	0.178	-0.020
-446.880	-82.480	-0.121	0.039
-445.865	122.417	-0.123	0.153
-444.851	-144.190	-0.324	0.030
-443.836	-164.267	0.333	-0.015
-442.822	-64.843	-0.165	0.066
-441.807	-77.165	0.126	-0.044
-440.792	-59.983	0.161	0.068
-439.778	-167.006	0.119	-0.005
-438.763	-200.000	0.022	-0.221
-437.749	800.000	0.061	0.240
-436.734	184.148	-0.137	0.202
-435.719	81.570	0.043	0.046
-434.705	-200.000	0.054	0.489
-433.690	281.459	-0.176	0.314
-432.676	-85.085	-0.182	-0.057
-431.661	-200.000	0.026	-0.408
-430.646	-200.000	0.035	-0.231
-429.632	-56.044	0.222	0.099
-428.617	18.906	0.197	0.157
-427.603	357.789	0.086	-0.171
-426.588	267.757	0.100	0.173
-425.573	-40.429	0.263	0.136
-424.559	-117.015	0.134	-0.024
-423.544	-200.000	0.016	-0.177
-422.530	-142.548	0.275	-0.027
-421.515	-120.944	0.256	-0.043
-420.500	342.711	0.155	0.302
-419.486	194.394	0.244	0.368
-418.471	-200.000	0.048	-0.422
-417.457	87.858	0.152	0.167
-416.442	-200.000	-0.019	0.227
-415.428	-110.885	0.343	0.070
-414.413	22.297	0.102	0.082
-413.398	-93.658	0.242	-0.066
-412.384	493.502	-0.073	0.165
-411.369	-200.000	-0.037	-0.318
-410.355	-200.000	-0.006	-0.319
-409.340	230.417	0.014	-0.024
-408.325	302.501	0.107	0.196
-407.311	800.000	-0.082	-0.296
-406.296	-110.974	0.249	-0.051
-405.282	-88.592	-0.191	-0.056
-404.267	-86.436	0.317	-0.097
-403.252	46.486	-0.181	0.166
-402.238	-200.000	0.026	-0.115
-401.223	-84.744	-0.180	-0.056
-400.209	171.641	-0.059	0.084
-399.194	-200.000	-0.010	0.194
-398.179	41.908	-0.218	0.196
-397.165	181.940	0.229	-0.334
-396.150	79.481	0.298	-0.317
-395.136	-95.779	0.311	0.082
-394.121	273.607	0.045	0.079
-393.106	-0.494	-0.063	-0.044
-392.092	183.300	-0.082	-0.120
-391.077	-172.815	-0.260	0.008
-390.063	800.000	0.012	-0.047
-389.048	800.000	0.022	-0.094
-388.033	-151.794	0.093	-0.007
-387.019	-0.124	0.345	0.244
-386.004	-46.109	0.282	0.138
-384.990	-163.546	0.048	0.002
-383.975	193.367	-0.098	-0.147
-382.960	-38.184	0.341	-0.179
-381.946	-200.000	-0.000	0.162
-380.931	54.864	-0.114	-0.109
-379.917	-79.153	0.476	-0.160
-378.902	38.246	0.188	0.166
-377.888	-200.000	-0.002	0.047
-376.873	25.437	-0.234	0.193
-375.858	-90.089	0.092	-0.027
-374.844	54.596	-0.115	0.110
-373.829	317.549	-0.054	-0.102
-372.815	-139.067	0.223	0.024
-371.800	777.420	0.060	0.163
-370.785	341.112	-0.112	0.216
-369.771	33.246	0.213	0.184
-368.756	-124.085	0.190	-0.030
-367.742	-69.812	0.206	-0.078
-366.727	-97.730	-0.041	-0.011
-365.712	-10.351	0.204	0.134
-364.698	263.118	-0.100	-0.172
-363.683	106.497	0.101	-0.118
-362.669	17.735	0.171	0.135
-361.654	607.857	0.016	0.039
-360.639	-42.345	-0.400	-0.202
-359.625	654.900	-0.117	0.297
-358.610	32.374	-0.068	-0.058
-357.596	56.610	-0.084	0.081
-356.581	369.959	0.097	0.195
-355.566	-200.000	0.013	-0.113
-354.552	-104.825	0.136	0.031
-353.537	800.000	-0.117	-0.376
-352.523	-53.592	-0.098	-0.044
-351.508	-151.478	0.073	0.005
-350.493	160.194	0.100	0.138
-349.479	-98.570	0.163	-0.041
-348.464	-61.316	0.023	-0.009
-347.450	-200.000	0.048	0.220
-346.435	23.381	-0.281	0.229
-345.420	-200.000	-0.002	-0.177
-344.406	92.569	-0.218	0.244
-343.391	800.000	-0.076	0.329
-342.377	800.000	0.034	0.127
-341.362	-43.248	-0.227	0.114
-340.348	-118.163	0.137	0.024
-339.333	-144.567	0.015	0.001
-338.318	-200.000	0.009	0.345
-337.304	-200.000	-0.014	0.132
-336.289	46.783	0.046	-0.043
-335.275	800.000	0.089	0.292
-334.260	433.012	-0.087	-0.187
-333.245	641.800	-0.109	0.274
-332.231	57.050	-0.264	-0.255
-331.216	40.587	0.270	0.241
-330.202	-95.676	0.406	0.107
-329.187	-74.995	0.217	0.077
-328.172	-124.025	0.067	0.010
-327.158	-74.847	-0.258	0.092
-326.143	-136.784	0.123	-0.014
-325.129	-200.000	0.034	0.270
-324.114	-94.453	-0.360	-0.097
-323.099	20.614	-0.080	-0.064
-322.085	-8.241	-0.217	0.144
-321.070	175.719	-0.113	-0.162
-320.056	-34.562	-0.161	-0.087
-319.041	-16.403	0.154	-0.097
-318.026	121.753	-0.198	0.244
-317.012	-200.000	-0.002	0.170
-315.997	351.417	-0.133	-0.261
-314.983	-138.543	0.349	-0.038
-313.968	800.000	0.057	-0.191
-312.953	-88.792	-0.162	0.048
-311.939	19.840	0.466	0.372
-310.924	-200.000	-0.012	0.181
-309.910	800.000	-0.100	-0.299
-308.895	193.474	0.170	0.254
-307.880	-168.112	0.379	0.015
-306.866	98.167	0.169	-0.192
-305.851	-5.919	0.296	0.200
-304.837	63.308	-0.235	0.233
-303.822	800.000	0.092	0.288
-302.807	800.000	-0.095	-0.347
-301.793	-68.593	0.093	-0.036
-300.778	-200.000	-0.013	0.260
-299.764	800.000	-0.043	0.175
-298.749	45.575	0.065	-0.059
-297.735	-200.000	0.003	-0.228
-296.720	109.122	-0.104	0.123
-295.705	23.105	0.149	0.121
-294.691	126.386	0.210	-0.263
-293.676	-131.663	-0.438	-0.057
-292.662	47.284	0.096	0.088
-291.647	-62.127	0.319	0.131
-290.632	-150.121	-0.229	0.018
-289.618	245.248	0.114	-0.189
-288.603	135.203	-0.094	-0.121
-287.589	370.222	-0.148	0.296
-286.574	-134.248	0.092	-0.011
-285.559	8.532	-0.215	0.160
-284.545	33.169	0.139	-0.119
-283.530	63.674	-0.078	0.078
-282.516	-117.421	0.135	-0.024
-281.501	-200.000	-0.005	-0.129
-280.486	-14.926	0.114	-0.072
-279.472	-62.703	0.074	-0.030
-278.457	-200.000	0.056	-0.349
-277.443	-200.000	0.023	0.157
-276.428	-92.435	-0.176	0.049
-275.413	-19.565	0.265	0.162
-274.399	-200.000	-0.004	0.561
-273.384	107.659	0.164	-0.193
-272.370	218.549	0.047	-0.074
-271.355	-200.000	-0.031	-0.328
-270.340	161.557	-0.294	0.406
-269.326	-32.745	-0.197	-0.108
-268.311	-46.671	-0.152	-0.074
-267.297	800.000	-0.068	-0.230
-266.282	-200.000	-0.001	0.024
-265.267	-166.995	0.201	-0.008
-264.253	-200.000	0.032	-0.185
-263.238	-78.025	0.182	0.062
-262.224	192.264	-0.145	0.216
-261.209	262.462	0.201	-0.344
-260.195	-109.151	0.183	-0.038
-259.180	-130.366	-0.084	-0.011
-258.165	-200.000	0.015	0.216
-257.151	-58.857	-0.077	0.033
-256.136	-15.793	-0.115	-0.073
-255.122	-177.056	-0.262	-0.006
-254.107	-125.294	0.259	-0.039
-253.092	800.000	0.085	0.272
-252.078	364.898	0.129	-0.256
-251.063	-31.429	0.152	0.084
-250.049	-180.425	0.179	-0.004
-249.034	-152.260	0.150	0.011
-248.019	-115.404	-0.094	-0.017
-247.005	146.675	-0.111	0.147
-245.990	-32.470	0.067	-0.037
-244.976	104.349	0.125	-0.145
-243.961	30.234	-0.243	-0.204
-242.946	800.000	-0.040	-0.148
-241.932	-123.299	-0.221	0.035
-240.917	92.584	-0.063	0.070
-239.903	-124.313	-0.155	0.024
-238.888	-22.173	0.294	-0.176
-237.873	800.000	-0.078	-0.300
-236.859	800.000	0.046	0.180
-235.844	-59.803	-0.170	-0.072
-234.830	-37.790	-0.197	-0.103
-233.815	128.211	-0.053	0.066
-232.800	-62.938	-0.288	-0.117
-231.786	-200.000	0.077	-0.340
-230.771	-1.606	-0.137	-0.095
-229.757	-200.000	-0.070	-0.375
-228.742	-200.000	-0.002	-0.181
-227.727	-79.398	0.107	-0.036
-226.713	800.000	-0.103	0.292
-225.698	-144.467	0.135	0.012
-224.684	-23.403	-0.173	-0.103
-223.669	-26.225	-0.227	-0.131
-222.655	-200.000	-0.045	-0.205
-221.640	-152.755	-0.167	-0.012
-220.625	-0.356	-0.365	-0.256
-219.611	-200.000	0.025	-0.123
-218.596	-154.324	-0.118	-0.008
-217.582	800.000	0.013	0.040
-216.567	27.017	0.024	-0.020
-215.552	-29.318	-0.075	0.042
-214.538	103.547	0.072	0.084
-213.523	-27.865	-0.217	-0.124
-212.509	-200.000	-0.030	0.169
-211.494	-200.000	-0.006	0.094
-210.479	111.772	0.256	-0.304
-209.465	-200.000	-0.001	-0.086
-208.450	140.481	0.141	0.184
-207.436	27.247	0.244	0.202
-206.421	-110.071	0.229	0.047
-205.406	-68.475	-0.091	-0.035
-204.392	-75.549	0.099	0.035
-203.377	219.142	-0.113	-0.178
-202.363	-125.036	-0.181	0.027
-201.348	142.607	-0.182	0.238
-200.333	-200.000	-0.059	0.286
-199.319	-101.653	0.103	0.025
-198.304	-62.244	0.344	-0.141
-197.290	800.000	0.085	-0.334
-196.275	84.438	-0.044	0.048
-195.260	446.509	0.007	0.014
-194.246	-159.771	-0.229	-0.012
-193.231	-62.217	0.205	-0.084
-192.217	-200.000	0.017	0.239
-191.202	800.000	-0.022	0.070
-190.187	800.000	0.058	-0.201
-189.173	800.000	0.052	0.148
-188.158	-0.313	0.227	-0.159
-187.144	-200.000	-0.002	-0.060
-186.129	302.573	-0.094	0.172
-185.114	-33.907	-0.136	0.074
-184.100	7.703	-0.251	0.185
-183.085	-56.545	-0.137	-0.060
-182.071	800.000	0.050	-0.167
-181.056	16.870	-0.140	0.109
-180.042	-15.660	0.401	0.252
-179.027	138.306	-0.055	0.072
-178.012	421.943	0.083	-0.174
-176.998	641.287	0.109	0.274
-175.983	102.571	-0.097	0.112
-174.969	-109.080	-0.043	0.009
-173.954	167.936	-0.101	-0.141
-172.939	-200.000	0.007	0.115
-171.925	51.397	0.139	0.130
-170.910	-77.269	0.272	0.093
-169.896	-11.332	-0.435	0.282
-168.881	-88.708	-0.252	-0.074
-167.866	682.007	0.059	-0.151
-166.852	-130.688	-0.256	0.034
-165.837	165.244	0.336	-0.467
-164.823	254.547	0.132	-0.222
-163.808	419.422	-0.018	-0.039
-162.793	-63.700	-0.133	-0.054
-161.779	547.980	0.055	-0.130
-160.764	48.772	-0.025	-0.023
-159.750	-44.698	0.190	0.093
-158.735	-77.254	0.375	0.128
-157.720	386.312	0.065	-0.132
-156.706	302.447	0.078	-0.142
-155.691	-54.193	0.471	0.210
-154.677	-200.000	0.040	-0.276
-153.662	-142.420	0.165	-0.016
-152.647	4.071	0.130	-0.093
-151.633	-116.968	-0.064	0.011
-150.618	129.444	0.193	0.243
-149.604	85.725	-0.219	-0.237
-148.589	-67.955	0.361	0.138
-147.574	-35.931	0.191	0.102
-146.560	-78.285	-0.245	-0.083
-145.545	-81.863	0.080	0.026
-144.531	-94.344	-0.055	0.015
-143.516	800.000	0.171	0.476
-142.502	-28.758	-0.133	0.075
-141.487	106.534	0.125	0.146
-140.472	1.171	0.229	0.162
-139.458	22.332	-0.327	0.263
-138.443	33.518	-0.125	0.107
-137.429	-43.524	0.189	0.094
-136.414	800.000	0.117	0.410
-135.399	265.030	-0.138	0.237
-134.385	-66.870	0.182	-0.071
-133.370	-30.248	0.190	-0.106
-132.356	-127.680	0.200	-0.028
-131.341	-200.000	0.044	-0.277
-130.326	18.135	-0.068	-0.053
-129.312	40.465	0.252	-0.223
-128.297	172.465	0.174	-0.246
-127.283	-47.518	0.205	0.098
-126.268	-168.220	-0.235	0.009
-125.253	-107.468	0.230	-0.049
-124.239	139.695	0.040	0.052
-123.224	502.347	-0.084	0.190
-122.210	-8.505	0.260	-0.171
-121.195	-158.371	0.127	-0.007
