DTS Sentinel unit serial number:	SN413079Multiplexer serial number:	ORYXHardware model number:	OX4-SRSoftware version number:	ORYX F/W v4.00 Oryx Data Collector v3.7.2.0data status	okinstallation	princeton_trtdifferential loss correction	single-endedforward channel	channel 3reverse channel	N/Adate	2019/09/11time	09:42:11forward acquisition time	60.00reverse acquisition time	0.00gamma	496.2192k internal	0.2304k external	0.2304temperature offset calibration	0.9943default loss term (dB/km)	0.3790temperature slope calibration	1.0000multiplexer offset coefficient	1.0000multiplexer slope coefficient	1.0000fibre end	0.00T internal ref (°C)	34.89T ext. ref 1 (°C)	0.11T ext. ref 2 (°C)	31.29length (m)	temperature (°C)	Stokes	anti-Stokes-747.200	800.000	0.098	-0.323
-746.185	-200.000	-0.048	0.219
-745.171	299.676	0.090	0.168
-744.156	-200.000	-0.003	0.037
-743.142	-200.000	0.045	0.290
-742.127	-54.603	-0.250	0.115
-741.112	69.497	0.156	0.163
-740.098	534.628	0.153	0.370
-739.083	108.645	0.051	0.062
-738.069	800.000	0.106	0.385
-737.054	175.271	-0.267	-0.393
-736.039	730.106	0.123	-0.333
-735.025	-200.000	-0.026	0.256
-734.010	197.348	0.046	-0.072
-732.996	301.836	0.070	0.131
-731.981	-116.498	-0.535	-0.100
-730.966	-16.106	-0.060	-0.039
-729.952	734.831	0.013	-0.035
-728.937	-154.368	-0.045	-0.003
-727.923	83.918	-0.074	0.082
-726.908	3.946	-0.204	-0.152
-725.894	-200.000	0.031	0.239
-724.879	123.902	-0.186	0.237
-723.864	-37.943	-0.058	0.031
-722.850	-114.433	-0.251	-0.049
-721.835	800.000	0.047	0.177
-720.821	-162.045	-0.208	-0.011
-719.806	-200.000	-0.008	-0.322
-718.791	800.000	0.065	-0.222
-717.777	71.512	0.100	-0.106
-716.762	-37.578	0.228	0.124
-715.748	175.399	-0.095	-0.139
-714.733	503.761	-0.060	-0.140
-713.718	-200.000	-0.021	0.136
-712.704	205.973	0.104	-0.165
-711.689	800.000	-0.017	0.056
-710.675	-56.956	-0.118	0.053
-709.660	-56.264	-0.119	0.054
-708.645	-74.923	0.273	-0.100
-707.631	-200.000	0.020	-0.197
-706.616	-75.332	-0.065	0.024
-705.602	-63.424	-0.184	-0.077
-704.587	-118.944	-0.222	0.040
-703.572	175.833	0.127	0.188
-702.558	484.679	-0.086	0.199
-701.543	-80.359	0.133	-0.045
-700.529	655.618	-0.023	0.061
-699.514	30.306	-0.216	0.188
-698.499	-4.447	-0.141	-0.099
-697.485	-91.325	0.115	-0.033
-696.470	0.649	-0.349	-0.254
-695.456	302.717	0.071	-0.133
-694.441	0.843	0.097	0.071
-693.426	-79.239	0.260	0.089
-692.412	800.000	-0.108	-0.313
-691.397	97.511	0.108	-0.126
-690.383	-200.000	-0.034	-0.157
-689.368	93.611	-0.102	0.118
-688.354	173.553	-0.151	0.221
-687.339	800.000	0.054	-0.180
-686.324	-3.488	0.040	0.028
-685.310	87.240	-0.194	-0.217
-684.295	800.000	-0.023	-0.089
-683.281	-15.930	-0.061	-0.039
-682.266	800.000	0.072	0.241
-681.251	-200.000	-0.044	0.306
-680.237	-200.000	-0.013	-0.082
-679.222	32.092	0.361	-0.316
-678.208	128.495	-0.158	-0.204
-677.193	248.702	-0.136	0.235
-676.178	76.213	-0.255	-0.274
-675.164	-72.491	-0.257	-0.096
-674.149	211.586	0.159	-0.254
-673.135	109.498	0.010	0.013
-672.120	800.000	-0.088	-0.332
-671.105	-52.852	0.172	0.080
-670.091	2.755	-0.156	0.115
-669.076	-46.505	0.225	0.112
-668.062	-170.757	-0.157	-0.005
-667.047	157.390	0.090	0.127
-666.032	15.082	-0.217	-0.172
-665.018	116.233	-0.134	0.167
-664.003	800.000	0.094	-0.295
-662.989	-160.766	0.278	0.015
-661.974	800.000	-0.058	-0.195
-660.959	-161.059	0.384	0.020
-659.945	89.779	-0.037	0.042
-658.930	180.583	-0.062	0.092
-657.916	292.524	-0.101	0.187
-656.901	-200.000	-0.004	-0.077
-655.886	-44.899	0.207	0.105
-654.872	-85.702	-0.125	-0.039
-653.857	-200.000	0.026	-0.237
-652.843	-200.000	-0.015	0.117
-651.828	-181.602	0.272	0.005
-650.814	-123.143	-0.104	-0.017
-649.799	113.449	0.036	-0.045
-648.784	-97.046	0.180	0.048
-647.770	154.695	-0.179	-0.250
-646.755	-200.000	0.020	-0.119
-645.741	-3.212	-0.117	-0.082
-644.726	-34.889	-0.253	0.140
-643.711	505.807	0.099	-0.233
-642.697	68.685	-0.123	-0.129
-641.682	-153.366	0.175	0.012
-640.668	-116.719	0.370	0.069
-639.653	-179.276	-0.171	-0.004
-638.638	-9.279	0.172	-0.117
-637.624	-172.506	-0.084	0.003
-636.609	-200.000	0.078	-0.387
-635.595	324.843	0.113	0.220
-634.580	65.096	-0.091	0.093
-633.565	-8.224	-0.380	0.260
-632.551	-200.000	0.004	-0.266
-631.536	-13.017	-0.128	-0.084
-630.522	137.205	0.041	0.054
-629.507	38.931	-0.058	-0.053
-628.492	389.767	-0.017	0.035
-627.478	-28.380	-0.222	-0.130
-626.463	-200.000	0.006	-0.088
-625.449	18.643	0.101	0.082
-624.434	105.055	0.089	0.106
-623.419	-200.000	0.024	-0.178
-622.405	117.809	0.128	-0.160
-621.390	-200.000	-0.013	0.128
-620.376	-80.000	-0.166	-0.056
-619.361	-104.077	-0.077	-0.018
-618.346	8.193	-0.250	0.191
-617.332	-4.112	-0.247	0.174
-616.317	148.039	0.174	-0.237
-615.303	-42.433	0.115	0.059
-614.288	6.534	-0.140	-0.105
-613.273	-168.036	0.327	0.013
-612.259	113.485	-0.051	0.063
-611.244	-29.627	-0.219	-0.127
-610.230	135.699	-0.080	0.105
-609.215	385.919	0.117	0.245
-608.201	-48.128	0.189	0.093
-607.186	800.000	-0.024	0.095
-606.171	-200.000	-0.010	-0.221
-605.157	-2.689	0.225	0.160
-604.142	359.166	-0.063	0.128
-603.128	-121.280	0.125	0.021
-602.113	-200.000	-0.014	0.137
-601.098	-57.905	-0.115	-0.051
-600.084	158.009	0.075	0.105
-599.069	800.000	-0.046	-0.181
-598.055	-66.491	-0.034	-0.014
-597.040	22.885	0.377	0.313
-596.025	-200.000	-0.006	-0.042
-595.011	141.093	0.198	-0.265
-593.996	-20.416	0.189	0.117
-592.982	-200.000	-0.045	-0.399
-591.967	800.000	-0.097	-0.280
-590.952	52.162	-0.084	-0.081
-589.938	-200.000	-0.004	-0.109
-588.923	-67.655	-0.142	0.056
-587.909	275.786	-0.091	-0.163
-586.894	52.337	-0.067	0.065
-585.879	-200.000	-0.019	0.266
-584.865	-121.611	-0.128	-0.022
-583.850	-88.662	0.135	0.041
-582.836	-30.948	-0.405	-0.231
-581.821	121.419	-0.210	-0.264
-580.806	-28.029	-0.255	0.149
-579.792	222.111	-0.069	0.112
-578.777	796.179	0.075	-0.208
-577.763	-23.360	-0.164	-0.100
-576.748	-94.841	-0.280	-0.077
-575.733	-200.000	0.002	-0.046
-574.719	110.166	0.074	-0.090
-573.704	-141.350	0.170	0.017
-572.690	58.260	0.093	0.092
-571.675	-136.325	-0.193	-0.023
-570.661	-200.000	-0.024	0.148
-569.646	88.042	0.100	0.112
-568.631	-200.000	-0.013	0.078
-567.617	176.122	-0.053	0.078
-566.602	-164.987	-0.218	0.010
-565.588	52.943	0.086	0.084
-564.573	668.810	-0.062	0.163
-563.558	407.525	-0.143	-0.306
-562.544	43.937	-0.121	-0.112
-561.529	-200.000	0.040	-0.180
-560.515	117.268	-0.063	0.079
-559.500	124.185	0.258	-0.328
-558.485	-136.620	-0.267	0.031
-557.471	-200.000	0.046	0.550
-556.456	43.217	0.211	-0.195
-555.442	-7.410	0.296	0.203
-554.427	67.033	-0.100	-0.103
-553.412	-15.829	0.064	-0.041
-552.398	-132.828	0.025	0.003
-551.383	-143.093	0.135	0.013
-550.369	395.691	0.043	0.091
-549.354	-43.410	0.183	-0.093
-548.339	-200.000	0.028	-0.235
-547.325	-179.228	-0.386	-0.009
-546.310	91.619	0.105	0.119
-545.296	800.000	0.089	-0.306
-544.281	-183.903	-0.444	-0.008
-543.266	-200.000	-0.024	0.176
-542.252	800.000	0.090	-0.346
-541.237	84.325	-0.091	0.100
-540.223	-200.000	0.004	-0.170
-539.208	44.654	-0.288	-0.268
-538.193	136.799	0.242	-0.319
-537.179	-111.261	-0.252	-0.052
-536.164	-29.366	0.440	0.254
-535.150	99.892	-0.113	0.133
-534.135	800.000	-0.095	-0.277
-533.121	-62.496	-0.012	0.005
-532.106	430.634	-0.216	0.473
-531.091	140.099	0.137	0.183
-530.077	800.000	0.026	0.105
-529.062	-24.758	0.145	-0.087
-528.048	-99.751	-0.100	-0.025
-527.033	-200.000	0.060	0.496
-526.018	264.451	-0.032	-0.057
-525.004	1.979	0.145	0.106
-523.989	68.339	0.261	-0.270
-522.975	-103.099	0.107	-0.026
-521.960	-15.270	-0.062	0.040
-520.945	28.057	-0.234	0.200
-519.931	-88.156	-0.092	0.028
-518.916	13.067	-0.113	-0.089
-517.902	-36.040	-0.174	0.095
-516.887	57.143	0.191	0.188
-515.872	38.441	0.266	0.240
-514.858	-87.360	0.053	-0.016
-513.843	800.000	0.050	-0.176
-512.829	-76.267	0.149	0.053
-511.814	-18.393	-0.199	-0.126
-510.799	800.000	0.016	-0.061
-509.785	440.609	0.025	0.055
-508.770	28.716	0.228	0.195
-507.756	-167.936	0.027	0.001
-506.741	276.198	0.069	0.123
-505.726	800.000	0.080	0.249
-504.712	-200.000	0.023	0.175
-503.697	-112.675	0.093	0.019
-502.683	-18.951	-0.088	-0.055
-501.668	-8.307	-0.458	0.311
-500.653	-135.178	-0.116	-0.014
-499.639	-22.600	-0.097	-0.059
-498.624	-40.373	0.072	0.038
-497.610	-197.887	-0.390	-0.002
-496.595	-40.616	0.043	-0.023
-495.581	194.569	0.048	0.074
-494.566	88.200	0.111	-0.124
-493.551	800.000	0.077	0.243
-492.537	-127.514	0.302	0.044
-491.522	-80.554	0.233	-0.078
-490.508	90.871	-0.059	-0.067
-489.493	-83.287	-0.228	0.074
-488.478	52.308	-0.035	0.033
-487.464	-56.935	0.141	0.063
-486.449	-122.451	0.152	-0.025
-485.435	-126.500	-0.275	-0.041
-484.420	19.922	-0.041	-0.033
-483.405	298.798	-0.088	0.164
-482.391	-200.000	0.010	0.131
-481.376	187.271	0.277	-0.416
-480.362	38.625	-0.247	-0.223
-479.347	-163.898	-0.180	-0.008
-478.332	-200.000	-0.013	-0.082
-477.318	-102.755	-0.280	-0.067
-476.303	-115.730	0.022	-0.004
-475.289	-5.397	-0.076	0.053
-474.274	37.689	-0.338	-0.303
-473.259	264.553	0.052	0.091
-472.245	-158.040	-0.212	0.013
-471.230	800.000	0.028	-0.081
-470.216	348.836	0.043	-0.086
-469.201	-20.748	-0.170	-0.105
-468.186	800.000	0.072	-0.255
-467.172	-92.095	-0.323	0.092
-466.157	50.941	0.026	0.025
-465.143	82.508	-0.258	0.282
-464.128	200.885	0.054	0.083
-463.113	121.409	0.154	0.193
-462.099	800.000	-0.019	0.073
-461.084	-17.185	0.123	-0.078
-460.070	800.000	-0.110	0.367
-459.055	-126.886	-0.392	-0.058
-458.040	-73.128	-0.402	0.148
-457.026	69.521	0.071	0.074
-456.011	84.883	0.356	-0.393
-454.997	-149.749	0.107	-0.008
-453.982	63.795	0.167	0.168
-452.968	-97.638	-0.168	-0.044
-451.953	39.802	-0.234	-0.212
-450.938	-44.168	0.123	-0.062
-449.924	219.350	-0.119	-0.192
-448.909	-22.821	0.181	0.110
-447.895	6.978	0.108	0.081
-446.880	51.273	0.421	-0.403
-445.865	220.473	-0.208	0.335
-444.851	-200.000	-0.006	-0.103
-443.836	-23.418	0.089	-0.054
-442.822	-43.769	-0.249	-0.126
-441.807	6.952	0.314	-0.235
-440.792	-200.000	-0.014	-0.096
-439.778	530.856	-0.153	-0.363
-438.763	800.000	-0.066	-0.275
-437.749	189.975	0.136	-0.205
-436.734	-189.005	-0.087	0.001
-435.719	77.352	-0.203	-0.217
-434.705	800.000	0.110	-0.391
-433.690	252.430	0.053	-0.092
-432.676	146.619	0.162	0.220
-431.661	20.101	0.029	-0.024
-430.646	-200.000	0.050	0.375
-429.632	175.824	0.080	0.116
-428.617	-41.479	-0.457	-0.237
-427.603	-8.349	-0.202	0.137
-426.588	-200.000	-0.015	-0.313
-425.573	216.392	-0.030	-0.048
-424.559	-200.000	-0.005	-0.230
-423.544	244.854	0.074	-0.125
-422.530	32.546	0.121	-0.105
-421.515	800.000	-0.063	-0.224
-420.500	372.746	0.066	0.136
-419.486	-77.787	0.084	0.029
-418.471	-50.866	0.174	0.082
-417.457	-124.649	-0.168	0.026
-416.442	61.145	-0.245	0.245
-415.428	-68.859	-0.123	-0.048
-414.413	-2.889	-0.186	-0.131
-413.398	-52.368	-0.199	-0.092
-412.384	-180.503	0.194	0.004
-411.369	-200.000	-0.036	0.170
-410.355	-200.000	-0.020	0.122
-409.340	81.506	-0.205	0.223
-408.325	43.959	0.412	0.379
-407.311	800.000	-0.095	-0.288
-406.296	-101.311	-0.271	0.066
-405.282	-200.000	0.014	0.067
-404.267	-28.824	-0.285	-0.165
-403.252	162.799	0.188	0.265
-402.238	-142.521	-0.309	-0.030
-401.223	76.696	-0.054	-0.058
-400.209	-200.000	0.027	-0.267
-399.194	-22.962	0.078	0.047
-398.179	-2.198	-0.061	-0.043
-397.165	-200.000	-0.042	0.285
-396.150	-36.553	-0.198	-0.107
-395.136	15.706	0.034	-0.027
-394.121	-73.145	0.123	0.045
-393.106	83.187	-0.195	0.214
-392.092	9.772	0.137	0.104
-391.077	-200.000	0.026	-0.129
-390.063	393.704	-0.135	-0.282
-389.048	-200.000	-0.063	-0.280
-388.033	-153.027	0.361	-0.026
-387.019	47.490	0.167	0.157
-386.004	35.760	0.357	0.315
-384.990	28.726	0.099	0.084
-383.975	-138.871	0.184	0.020
-382.960	-44.898	-0.129	0.064
-381.946	-44.045	-0.213	0.107
-380.931	800.000	0.090	-0.265
-379.917	148.076	0.181	0.246
-378.902	-20.053	-0.091	0.057
-377.888	-40.297	0.270	-0.141
-376.873	178.447	0.081	0.119
-375.858	-69.815	-0.256	-0.098
-374.844	84.855	-0.088	0.097
-373.829	29.889	-0.062	0.053
-372.815	19.889	-0.280	0.227
-371.800	-200.000	-0.004	0.042
-370.785	-3.751	0.120	0.084
-369.771	-114.658	-0.072	0.014
-368.756	-1.470	0.086	-0.061
-367.742	48.011	0.194	-0.182
-366.727	102.726	0.060	-0.070
-365.712	748.976	0.015	0.041
-364.698	800.000	-0.073	0.211
-363.683	800.000	-0.049	0.185
-362.669	235.902	-0.145	0.240
-361.654	329.744	0.231	0.445
-360.639	-29.959	-0.057	0.032
-359.625	-131.618	0.446	0.059
-358.610	72.868	0.238	0.249
-357.596	33.136	0.094	-0.082
-356.581	-200.000	-0.026	0.293
-355.566	129.236	0.263	0.337
-354.552	-82.195	0.360	-0.118
-353.537	0.066	0.041	-0.030
-352.523	-200.000	-0.015	0.175
-351.508	800.000	0.024	0.093
-350.493	-175.476	-0.373	0.010
-349.479	-93.107	-0.161	0.045
-348.464	800.000	0.091	-0.297
-347.450	24.295	0.133	-0.110
-346.435	172.040	0.100	-0.145
-345.420	77.127	0.217	-0.231
-344.406	72.004	0.093	-0.097
-343.391	-159.447	-0.135	-0.008
-342.377	176.073	0.081	0.117
-341.362	800.000	0.036	-0.143
-340.348	-200.000	0.022	-0.265
-339.333	-117.890	-0.100	-0.018
-338.318	-109.651	0.141	-0.030
-337.304	9.044	0.025	0.019
-336.289	36.919	-0.153	-0.135
-335.275	150.002	0.187	0.254
-334.260	-140.634	-0.365	-0.038
-333.245	-200.000	-0.037	-0.217
-332.231	-200.000	0.034	0.248
-331.216	1.128	-0.223	-0.160
-330.202	-200.000	0.025	-0.231
-329.187	-68.823	-0.060	0.023
-328.172	-112.657	0.088	0.018
-327.158	-85.238	0.372	-0.117
-326.143	-108.068	-0.196	-0.043
-325.129	117.576	-0.024	0.029
-324.114	315.182	-0.073	0.137
-323.099	-24.886	0.172	0.102
-322.085	-108.924	0.247	0.053
-321.070	4.185	-0.180	0.132
-320.056	-70.529	-0.169	-0.064
-319.041	-134.333	0.176	-0.022
-318.026	-34.747	0.142	0.078
-317.012	-130.814	0.147	-0.020
-315.997	374.304	-0.185	-0.376
-314.983	34.965	0.133	0.116
-313.968	-92.281	0.260	-0.073
-312.953	-200.000	-0.021	0.119
-311.939	-120.970	-0.269	0.045
-310.924	-200.000	-0.016	-0.171
-309.910	800.000	0.083	-0.251
-308.895	-104.424	0.079	0.018
-307.880	-200.000	0.009	0.228
-306.866	11.401	0.183	0.140
-305.851	-159.598	0.379	0.021
-304.837	25.445	0.297	0.247
-303.822	135.519	-0.108	-0.141
-302.807	-200.000	-0.001	-0.041
-301.793	-52.987	-0.085	0.039
-300.778	-50.665	-0.228	-0.107
-299.764	-200.000	0.013	-0.068
-298.749	23.809	-0.023	0.019
-297.735	454.548	-0.038	0.084
-296.720	150.685	0.216	-0.294
-295.705	-45.532	-0.278	0.138
-294.691	800.000	-0.036	-0.110
-293.676	50.866	0.131	0.124
-292.662	-124.387	-0.117	-0.018
-291.647	51.834	-0.093	-0.089
-290.632	137.898	-0.107	0.140
-289.618	16.765	0.377	0.298
-288.603	-80.307	-0.073	0.024
-287.589	-184.049	-0.378	0.006
-286.574	-48.706	0.078	-0.037
-285.559	-46.127	-0.535	0.264
-284.545	-200.000	0.022	-0.189
-283.530	-35.410	-0.028	-0.015
-282.516	297.534	-0.261	-0.479
-281.501	-9.284	0.229	-0.153
-280.486	257.975	0.208	-0.358
-279.472	-200.000	-0.027	0.124
-278.457	-88.821	0.032	-0.009
-277.443	-200.000	-0.009	0.229
-276.428	103.818	-0.123	-0.144
-275.413	-4.014	0.167	-0.116
-274.399	75.424	-0.324	0.342
-273.384	179.718	0.141	0.206
-272.370	40.586	0.060	0.054
-271.355	97.146	0.047	0.053
-270.340	-200.000	0.016	-0.252
-269.326	-122.719	0.173	0.028
-268.311	9.498	0.095	0.072
-267.297	67.710	0.173	-0.177
-266.282	-200.000	-0.073	-0.324
-265.267	-47.456	0.119	-0.058
-264.253	91.408	0.150	0.168
-263.238	-200.000	0.036	-0.181
-262.224	-200.000	0.040	0.251
-261.209	-43.805	-0.179	0.090
-260.195	-200.000	0.030	0.313
-259.180	48.297	0.215	-0.201
-258.165	-26.561	0.214	0.125
-257.151	19.585	-0.430	-0.345
-256.136	-8.002	0.155	-0.105
-255.122	-175.779	-0.286	0.008
-254.107	379.704	0.023	-0.047
-253.092	586.561	0.031	-0.075
-252.078	169.105	-0.176	-0.251
-251.063	-62.778	-0.381	0.158
-250.049	55.138	-0.191	0.185
-249.034	-79.826	-0.185	0.062
-248.019	487.199	-0.134	0.304
-247.005	800.000	-0.045	-0.129
-245.990	800.000	-0.136	0.536
-244.976	95.000	-0.278	0.316
-243.961	-106.502	-0.203	-0.045
-242.946	205.954	0.089	0.138
-241.932	-200.000	-0.006	-0.231
-240.917	800.000	-0.088	0.246
-239.903	115.089	-0.120	0.146
-238.888	800.000	0.054	0.161
-237.873	-177.031	0.238	0.006
-236.859	-117.830	0.093	-0.017
-235.844	-59.249	0.147	-0.063
-234.830	-109.221	0.137	0.029
-233.815	-200.000	0.034	-0.201
-232.800	325.096	0.298	-0.569
-231.786	-104.494	0.117	0.027
-230.771	-173.644	0.231	0.007
-229.757	-170.896	0.030	-0.001
-228.742	-126.877	0.178	0.026
-227.727	220.703	-0.027	0.044
-226.713	74.274	0.191	-0.200
-225.698	-200.000	-0.018	-0.258
-224.684	-54.635	0.281	-0.127
-223.669	-19.635	0.190	0.117
-222.655	188.009	-0.091	0.135
-221.640	647.745	-0.067	0.171
-220.625	-200.000	0.011	-0.103
-219.611	-190.308	0.555	-0.006
-218.596	81.956	0.212	0.229
-217.582	800.000	-0.029	0.116
-216.567	800.000	-0.071	-0.267
-215.552	-42.493	-0.031	0.016
-214.538	-105.731	0.393	-0.089
-213.523	436.883	-0.087	-0.190
-212.509	-104.844	0.253	0.058
-211.494	126.850	0.146	0.185
-210.479	-139.616	0.119	0.013
-209.465	178.731	0.139	0.202
-208.450	-1.375	0.378	0.266
-207.436	-114.123	0.112	-0.022
-206.421	165.357	0.062	-0.087
-205.406	90.610	-0.121	-0.135
-204.392	30.916	-0.269	-0.230
-203.377	118.063	0.056	0.069
-202.363	-25.100	-0.227	-0.134
-201.348	-25.122	0.114	0.068
-200.333	-27.499	-0.287	0.167
-199.319	800.000	0.069	0.293
-198.304	200.205	-0.030	0.046
-197.290	-200.000	-0.039	-0.176
-196.275	117.826	0.140	-0.171
-195.260	703.703	0.025	-0.066
-194.246	163.411	0.021	-0.029
-193.231	-68.310	0.245	0.095
-192.217	278.150	0.198	-0.351
-191.202	-97.661	-0.116	-0.030
-190.187	364.181	-0.015	-0.029
-189.173	175.772	-0.192	0.278
-188.158	-67.509	-0.336	0.131
-187.144	-49.988	0.198	-0.094
-186.129	800.000	-0.085	0.245
-185.114	294.857	-0.046	-0.083
-184.100	-200.000	0.001	0.157
-183.085	320.065	0.051	-0.097
-182.071	152.289	-0.232	0.315
-181.056	-146.634	0.184	0.016
-180.042	-200.000	-0.074	0.387
-179.027	-139.933	-0.425	0.045
-178.012	18.532	-0.271	-0.216
-176.998	617.770	-0.062	-0.156
-175.983	-50.115	0.515	0.243
-174.969	104.672	0.183	0.215
-173.954	186.784	-0.110	0.164
-172.939	85.411	0.346	0.378
-171.925	-74.674	-0.154	-0.055
-170.910	-83.831	-0.091	0.029
-169.896	-85.809	0.209	-0.064
-168.881	-184.229	-0.127	0.002
-167.866	-200.000	0.005	-0.051
-166.852	414.264	-0.035	-0.075
-165.837	800.000	0.081	0.264
-164.823	-200.000	-0.084	-0.390
-163.808	-200.000	-0.046	-0.283
-162.793	-94.360	0.286	-0.078
-161.779	-72.897	0.194	0.071
-160.764	-145.251	-0.158	0.014
-159.750	-200.000	0.001	0.216
-158.735	165.654	-0.069	-0.098
-157.720	-53.586	-0.095	-0.043
-156.706	-200.000	0.017	0.328
-155.691	-122.483	-0.267	-0.043
-154.677	196.318	0.092	-0.140
-153.662	83.947	0.120	-0.131
-152.647	300.571	-0.103	0.190
-151.633	800.000	-0.067	-0.213
-150.618	-200.000	0.003	-0.061
-149.604	437.636	0.149	-0.323
-148.589	-200.000	0.007	0.118
-147.574	9.785	0.134	0.101
-146.560	679.984	-0.090	0.233
-145.545	-200.000	-0.015	0.113
-144.531	-200.000	0.012	-0.208
-143.516	-103.144	-0.161	-0.038
-142.502	127.394	0.109	-0.137
-141.487	-200.000	0.003	-0.027
-140.472	98.871	-0.101	0.116
-139.458	-35.440	0.167	0.090
-138.443	63.881	0.077	0.077
-137.429	-200.000	0.042	-0.227
-136.414	88.919	-0.251	0.278
-135.399	-33.533	0.126	0.069
-134.385	-47.001	0.134	0.065
-133.370	47.703	-0.128	0.118
-132.356	313.828	-0.153	0.286
-131.341	86.871	-0.164	-0.180
-130.326	102.632	-0.121	0.140
-129.312	-95.779	0.396	-0.105
-128.297	-37.914	-0.330	-0.174
-127.283	286.378	0.073	-0.131
-126.268	73.864	0.097	0.102
-125.253	-200.000	-0.006	-0.132
-124.239	9.966	-0.119	0.090
-123.224	69.409	0.149	0.152
-122.210	427.840	0.142	0.305
-121.195	-117.825	0.312	-0.056
-120.180	800.000	0.070	0.210
-119.166	-129.392	0.234	0.032
