DTS Sentinel unit serial number:	SN413079Multiplexer serial number:	ORYXHardware model number:	OX4-SRSoftware version number:	ORYX F/W v4.00 Oryx Data Collector v3.7.2.0data status	okinstallation	princeton_trtdifferential loss correction	single-endedforward channel	channel 3reverse channel	N/Adate	2019/09/10time	15:42:10forward acquisition time	60.00reverse acquisition time	0.00gamma	496.2192k internal	0.2298k external	0.2298temperature offset calibration	0.9912default loss term (dB/km)	0.3790temperature slope calibration	1.0000multiplexer offset coefficient	1.0000multiplexer slope coefficient	1.0000fibre end	0.00T internal ref (°C)	38.03T ext. ref 1 (°C)	-0.28T ext. ref 2 (°C)	31.72length (m)	temperature (°C)	Stokes	anti-Stokes-747.200	-155.074	0.086	-0.006
-746.185	-91.793	0.181	0.052
-745.171	-26.382	0.118	0.070
-744.156	-155.362	-0.099	0.007
-743.142	-184.425	-0.116	0.002
-742.127	-107.746	0.339	0.076
-741.112	9.353	0.208	0.161
-740.098	-20.051	0.073	-0.046
-739.083	-99.130	0.241	0.062
-738.069	-35.950	0.205	0.113
-737.054	-44.578	-0.298	-0.152
-736.039	-200.000	0.073	-0.351
-735.025	-200.000	0.044	0.380
-734.010	288.281	-0.283	0.524
-732.996	-115.774	-0.414	-0.079
-731.981	405.934	-0.110	0.236
-730.966	1.871	-0.252	-0.186
-729.952	46.485	0.100	-0.095
-728.937	-97.019	-0.396	-0.106
-727.923	-38.778	-0.191	-0.103
-726.908	103.730	0.223	-0.267
-725.894	-193.727	-0.109	0.001
-724.879	-47.117	0.102	-0.051
-723.864	-96.667	-0.190	0.051
-722.850	150.401	-0.159	-0.220
-721.835	-98.535	-0.183	0.048
-720.821	524.883	-0.119	0.287
-719.806	21.099	0.040	-0.033
-718.791	-133.188	0.117	0.015
-717.777	562.740	-0.086	-0.212
-716.762	-200.000	-0.002	0.047
-715.748	-6.295	0.047	0.032
-714.733	-118.456	0.363	0.066
-713.718	800.000	-0.060	0.267
-712.704	-200.000	0.047	-0.313
-711.689	-95.500	-0.244	-0.067
-710.675	-70.703	-0.385	-0.148
-709.660	-13.235	0.257	0.170
-708.645	125.998	0.137	0.176
-707.631	-200.000	-0.262	-0.000
-706.616	-200.000	-0.011	-0.050
-705.602	-132.481	-0.035	0.005
-704.587	-18.708	0.218	-0.139
-703.572	800.000	-0.027	-0.089
-702.558	360.571	0.191	0.389
-701.543	-100.136	-0.431	0.109
-700.529	231.794	-0.130	-0.217
-699.514	-66.531	-0.148	-0.060
-698.499	-200.000	0.070	-0.370
-697.485	-68.137	0.061	-0.024
-696.470	-129.734	-0.111	0.016
-695.456	-20.112	-0.120	-0.075
-694.441	800.000	-0.137	-0.418
-693.426	-200.000	-0.046	-0.314
-692.412	-147.901	-0.356	-0.030
-691.397	-113.447	0.058	-0.012
-690.383	-143.784	-0.171	0.016
-689.368	333.422	-0.145	0.286
-688.354	-101.927	0.126	-0.031
-687.339	536.215	0.136	0.328
-686.324	-169.353	-0.155	0.006
-685.310	224.673	0.127	0.210
-684.295	-200.000	0.009	-0.165
-683.281	800.000	0.039	0.147
-682.266	136.663	0.143	-0.190
-681.251	41.243	0.199	0.183
-680.237	-200.000	0.003	-0.217
-679.222	-141.832	-0.429	-0.044
-678.208	-109.043	0.038	0.008
-677.193	167.301	-0.226	0.326
-676.178	-200.000	-0.025	-0.145
-675.164	-42.202	0.237	0.123
-674.149	-200.000	-0.004	-0.398
-673.135	131.731	0.211	0.276
-672.120	-155.118	-0.174	0.012
-671.105	-78.735	0.226	0.079
-670.091	-53.942	-0.379	-0.176
-669.076	-200.000	-0.004	-0.090
-668.062	560.125	-0.096	-0.237
-667.047	-115.223	0.248	0.048
-666.032	-200.000	0.032	-0.294
-665.018	-200.000	0.055	0.335
-664.003	195.169	-0.106	-0.164
-662.989	-176.690	0.607	0.016
-661.974	-40.689	-0.438	0.231
-660.959	-143.973	0.466	-0.045
-659.945	147.808	-0.277	-0.380
-658.930	800.000	-0.033	0.137
-657.916	481.174	0.076	0.174
-656.901	-200.000	-0.027	0.215
-655.886	-200.000	0.004	-0.187
-654.872	-66.078	-0.112	-0.045
-653.857	-16.498	0.165	0.107
-652.843	74.619	0.118	-0.127
-651.828	191.370	-0.185	-0.284
-650.814	486.385	0.117	0.271
-649.799	-7.924	0.105	0.072
-648.784	45.948	0.197	0.185
-647.770	244.468	0.093	0.159
-646.755	-147.920	-0.207	0.018
-645.741	662.525	0.048	-0.126
-644.726	-23.689	-0.299	-0.182
-643.711	-109.968	-0.141	0.030
-642.697	164.994	0.262	-0.376
-641.682	-140.222	-0.308	-0.033
-640.668	-37.361	-0.050	-0.027
-639.653	-57.090	-0.197	-0.088
-638.638	15.210	-0.170	0.135
-637.624	42.510	-0.115	0.107
-636.609	-137.947	0.152	0.017
-635.595	-6.257	-0.074	0.052
-634.580	456.218	0.103	-0.233
-633.565	56.585	0.045	-0.044
-632.551	800.000	0.049	0.198
-631.536	800.000	0.018	0.072
-630.522	167.920	-0.083	0.119
-629.507	-12.191	0.189	0.125
-628.492	-130.509	-0.191	-0.026
-627.478	-200.000	-0.025	0.538
-626.463	175.862	0.139	-0.205
-625.449	-200.000	-0.025	-0.345
-624.434	-200.000	0.004	0.056
-623.419	493.744	-0.159	-0.371
-622.405	-200.000	-0.074	-0.535
-621.390	91.486	0.209	-0.239
-620.376	-200.000	0.076	0.394
-619.361	-163.602	0.213	0.010
-618.346	66.639	0.092	0.095
-617.332	-68.584	-0.009	0.004
-616.317	-121.859	0.275	-0.046
-615.303	69.207	-0.328	0.343
-614.288	84.907	-0.153	0.170
-613.273	72.791	0.070	-0.075
-612.259	800.000	-0.034	-0.114
-611.244	390.986	-0.082	-0.173
-610.230	164.440	-0.158	-0.227
-609.215	-81.373	-0.284	-0.095
-608.201	201.943	0.102	-0.159
-607.186	-126.006	0.115	0.018
-606.171	-41.695	-0.181	-0.094
-605.157	138.188	-0.160	-0.213
-604.142	-200.000	0.019	0.272
-603.128	68.744	0.137	-0.142
-602.113	-7.104	-0.221	0.152
-601.098	632.182	-0.003	0.008
-600.084	302.889	-0.068	-0.129
-599.069	-200.000	-0.010	-0.331
-598.055	-200.000	-0.035	-0.161
-597.040	267.630	0.185	0.328
-596.025	-200.000	-0.001	0.058
-595.011	-122.950	-0.116	0.019
-593.996	800.000	0.030	-0.130
-592.982	131.272	0.119	-0.155
-591.967	63.855	0.096	-0.098
-590.952	-200.000	0.004	-0.053
-589.938	1.530	0.297	0.217
-588.923	-36.581	0.124	0.068
-587.909	432.478	0.061	0.135
-586.894	284.963	0.095	-0.174
-585.879	-79.960	0.150	0.051
-584.865	-30.250	-0.108	0.062
-583.850	800.000	0.028	-0.078
-582.836	388.426	-0.183	-0.385
-581.821	800.000	-0.038	-0.122
-580.806	74.168	0.214	-0.228
-579.792	800.000	-0.046	-0.189
-578.777	490.290	-0.112	-0.259
-577.763	155.977	0.133	-0.186
-576.748	-84.554	-0.068	0.022
-575.733	247.234	0.058	-0.100
-574.719	-11.760	0.351	0.234
-573.704	8.727	0.225	-0.172
-572.690	-111.157	0.130	-0.027
-571.675	800.000	0.091	-0.383
-570.661	800.000	-0.118	-0.345
-569.646	-99.492	0.211	-0.054
-568.631	682.848	-0.112	-0.297
-567.617	379.592	-0.095	-0.198
-566.602	800.000	0.076	0.213
-565.588	166.863	0.034	0.049
-564.573	-46.972	0.112	-0.056
-563.558	-47.507	0.040	0.020
-562.544	-27.228	0.367	0.217
-561.529	165.517	-0.198	0.284
-560.515	51.352	-0.188	-0.180
-559.500	800.000	-0.030	0.124
-558.485	-200.000	0.025	-0.179
-557.471	-117.295	0.201	0.037
-556.456	546.982	-0.104	-0.252
-555.442	64.880	0.049	0.050
-554.427	-200.000	0.000	0.078
-553.412	-130.057	0.126	0.017
-552.398	-200.000	0.004	0.121
-551.383	-110.461	0.175	-0.037
-550.369	362.900	0.104	-0.213
-549.354	-109.629	0.230	-0.049
-548.339	-63.356	-0.397	0.166
-547.325	-112.318	0.147	-0.030
-546.310	-200.000	0.002	-0.077
-545.296	-39.121	-0.150	0.080
-544.281	73.564	-0.250	0.265
-543.266	103.533	-0.194	-0.230
-542.252	-102.006	0.211	-0.052
-541.237	-200.000	-0.019	0.190
-540.223	199.260	-0.080	-0.124
-539.208	-105.682	0.157	0.036
-538.193	-138.459	0.114	-0.013
-537.179	-30.598	-0.357	0.205
-536.164	169.653	-0.136	0.196
-535.150	501.252	0.088	-0.205
-534.135	-200.000	-0.034	0.250
-533.121	-98.206	0.297	0.077
-532.106	62.100	0.087	-0.088
-531.091	71.755	-0.206	-0.217
-530.077	-199.925	-0.206	0.001
-529.062	800.000	-0.141	0.417
-528.048	-46.751	0.281	0.139
-527.033	-98.860	0.325	-0.084
-526.018	508.382	-0.213	-0.501
-525.004	-77.837	0.181	0.063
-523.989	158.094	-0.134	0.188
-522.975	79.286	-0.076	0.082
-521.960	-200.000	-0.016	-0.142
-520.945	24.824	-0.040	0.034
-519.931	-88.221	-0.217	0.066
-518.916	-46.835	-0.013	-0.006
-517.902	-30.470	-0.204	0.117
-516.887	-6.719	-0.109	0.075
-515.872	-155.885	-0.214	0.014
-514.858	-162.395	0.090	0.005
-513.843	800.000	0.106	0.376
-512.829	432.111	-0.088	-0.193
-511.814	800.000	0.023	-0.070
-510.799	-33.041	-0.136	-0.076
-509.785	159.345	0.037	0.052
-508.770	70.951	0.070	0.073
-507.756	-81.250	0.174	0.058
-506.741	-200.000	-0.038	-0.267
-505.726	800.000	0.044	-0.126
-504.712	321.387	0.066	-0.126
-503.697	-1.435	0.287	-0.205
-502.683	-200.000	-0.001	0.025
-501.668	259.491	-0.111	-0.193
-500.653	385.211	0.045	0.094
-499.639	145.898	-0.103	-0.140
-498.624	48.327	-0.184	-0.174
-497.610	-18.841	0.163	-0.103
-496.595	27.416	-0.059	0.050
-495.581	800.000	0.049	0.198
-494.566	800.000	0.144	-0.432
-493.551	256.994	-0.165	0.287
-492.537	-64.461	0.111	0.045
-491.522	-33.852	0.092	-0.051
-490.508	142.876	-0.270	-0.362
-489.493	-76.970	0.170	-0.060
-488.478	-200.000	0.007	0.184
-487.464	-128.831	-0.273	0.039
-486.449	212.230	0.153	0.243
-485.435	-181.602	0.341	0.007
-484.420	-180.069	-0.203	0.004
-483.405	652.987	0.105	-0.273
-482.391	-104.501	0.362	0.085
-481.376	-200.000	0.009	0.177
-480.362	-200.000	0.104	0.492
-479.347	48.103	-0.245	-0.231
-478.332	-200.000	0.007	-0.179
-477.318	377.814	-0.159	-0.328
-476.303	-81.105	0.273	-0.091
-475.289	-143.658	-0.022	-0.002
-474.274	51.425	-0.119	-0.114
-473.259	343.337	-0.169	-0.334
-472.245	126.203	-0.082	0.105
-471.230	-10.137	-0.218	0.146
-470.216	360.236	-0.176	-0.355
-469.201	800.000	0.056	-0.158
-468.186	366.486	-0.162	0.329
-467.172	-200.000	0.004	0.378
-466.157	-25.500	-0.267	-0.159
-465.143	164.035	-0.059	-0.084
-464.128	-39.430	0.321	0.170
-463.113	21.837	0.133	0.110
-462.099	52.762	-0.156	0.150
-461.084	6.871	-0.100	-0.075
-460.070	-112.177	0.219	-0.044
-459.055	695.806	-0.079	-0.209
-458.040	15.839	-0.169	0.134
-457.026	-200.000	0.076	0.373
-456.011	800.000	0.065	-0.212
-454.997	118.973	0.045	-0.056
-453.982	-81.677	-0.280	0.093
-452.968	-60.669	0.207	-0.089
-451.953	-13.926	-0.129	-0.084
-450.938	800.000	-0.046	0.146
-449.924	-49.221	0.144	-0.069
-448.909	-42.713	0.205	0.105
-447.895	42.098	0.090	-0.083
-446.880	77.922	0.074	-0.079
-445.865	-33.932	0.262	-0.145
-444.851	-6.375	-0.103	-0.071
-443.836	436.883	0.049	-0.107
-442.822	-49.764	-0.075	-0.036
-441.807	211.488	-0.118	0.187
-440.792	800.000	0.049	0.153
-439.778	198.053	-0.182	-0.281
-438.763	-160.013	0.186	-0.010
-437.749	-40.422	-0.419	0.219
-436.734	89.647	0.089	0.101
-435.719	-200.000	-0.022	0.286
-434.705	-6.578	-0.355	0.244
-433.690	800.000	-0.062	-0.223
-432.676	468.167	0.099	0.224
-431.661	-200.000	-0.064	-0.298
-430.646	82.181	-0.040	-0.044
-429.632	41.291	0.086	-0.078
-428.617	136.169	-0.242	0.318
-427.603	605.729	0.023	0.057
-426.588	800.000	0.013	-0.053
-425.573	-76.630	-0.227	0.080
-424.559	800.000	-0.019	0.079
-423.544	-83.895	-0.164	-0.053
-422.530	-200.000	-0.036	-0.185
-421.515	-200.000	-0.006	0.284
-420.500	-200.000	-0.008	-0.104
-419.486	254.153	0.146	-0.251
-418.471	800.000	0.116	-0.377
-417.457	-114.279	-0.084	-0.016
-416.442	800.000	0.096	0.286
-415.428	-200.000	-0.093	-0.563
-414.413	93.209	-0.027	-0.031
-413.398	-200.000	0.047	0.228
-412.384	800.000	0.050	-0.171
-411.369	-102.920	-0.286	-0.068
-410.355	-93.603	0.197	0.055
-409.340	115.576	-0.133	-0.164
-408.325	268.158	-0.116	-0.204
-407.311	-200.000	0.072	-0.472
-406.296	-102.730	0.251	-0.060
-405.282	2.743	0.189	0.138
-404.267	-71.948	0.292	0.110
-403.252	-123.234	-0.437	-0.070
-402.238	-180.363	-0.501	-0.011
-401.223	110.573	-0.161	-0.195
-400.209	-200.000	-0.020	0.162
-399.194	-48.992	0.161	-0.078
-398.179	110.200	-0.197	-0.238
-397.165	100.881	-0.109	0.127
-396.150	-200.000	-0.032	-0.180
-395.136	-49.943	0.146	0.070
-394.121	-65.614	-0.020	-0.008
-393.106	64.903	-0.191	0.194
-392.092	364.597	0.092	-0.187
-391.077	-200.000	0.044	0.293
-390.063	-180.968	-0.205	0.004
-389.048	62.436	-0.061	0.061
-388.033	359.299	-0.104	0.209
-387.019	56.655	-0.180	0.176
-386.004	95.492	0.259	0.297
-384.990	-57.257	-0.245	-0.108
-383.975	-200.000	0.000	0.279
-382.960	-69.895	0.161	-0.062
-381.946	191.640	0.248	-0.376
-380.931	-141.234	-0.303	-0.031
-379.917	-153.286	-0.228	0.016
-378.902	-132.069	-0.196	-0.026
-377.888	800.000	-0.075	0.283
-376.873	46.770	-0.181	0.169
-375.858	-166.321	0.175	-0.007
-374.844	85.268	-0.120	0.132
-373.829	47.593	0.289	0.272
-372.815	-72.481	-0.303	0.113
-371.800	800.000	0.052	-0.208
-370.785	776.444	0.087	0.239
-369.771	26.437	-0.118	0.099
-368.756	-200.000	0.002	0.431
-367.742	537.494	-0.134	0.319
-366.727	-149.030	-0.135	0.011
-365.712	55.024	0.096	-0.093
-364.698	-75.250	0.233	-0.084
-363.683	-129.489	0.028	-0.004
-362.669	157.031	0.244	0.339
-361.654	-200.000	0.015	-0.092
-360.639	99.815	-0.192	-0.224
-359.625	-200.000	0.001	-0.162
-358.610	-89.498	-0.297	-0.088
-357.596	-200.000	-0.004	-0.303
-356.581	295.397	0.177	-0.325
-355.566	-200.000	0.014	-0.248
-354.552	-31.290	0.091	-0.052
-353.537	800.000	0.022	0.076
-352.523	95.230	0.216	0.247
-351.508	-29.959	-0.272	0.156
-350.493	-83.982	0.222	0.071
-349.479	-111.745	0.208	0.042
-348.464	-200.000	-0.016	-0.216
-347.450	-166.238	-0.112	-0.005
-346.435	83.295	-0.077	0.085
-345.420	-200.000	0.030	-0.178
-344.406	547.043	-0.124	-0.297
-343.391	-63.786	0.229	-0.094
-342.377	98.288	0.150	0.174
-341.362	243.347	-0.053	0.089
-340.348	147.773	-0.098	0.133
-339.333	738.289	-0.076	-0.204
-338.318	-200.000	0.016	0.109
-337.304	-200.000	0.011	0.136
-336.289	-92.440	-0.053	-0.015
-335.275	-158.799	-0.434	-0.025
-334.260	-41.130	-0.157	-0.081
-333.245	-200.000	0.000	0.125
-332.231	800.000	-0.043	0.144
-331.216	-200.000	0.019	0.259
-330.202	-200.000	0.010	0.291
-329.187	-180.443	-0.284	-0.006
-328.172	-88.748	-0.114	-0.034
-327.158	10.386	0.110	0.084
-326.143	-200.000	-0.018	-0.137
-325.129	68.723	-0.152	-0.157
-324.114	290.207	-0.059	-0.108
-323.099	6.862	0.065	0.049
-322.085	151.960	-0.093	0.128
-321.070	-200.000	0.033	-0.439
-320.056	222.924	0.113	-0.182
-319.041	38.166	0.092	-0.083
-318.026	-200.000	0.030	-0.172
-317.012	-103.940	0.345	-0.081
-315.997	123.833	0.085	-0.108
-314.983	-39.494	0.082	0.043
-313.968	30.080	-0.053	-0.045
-312.953	-200.000	-0.011	0.179
-311.939	-200.000	0.001	0.028
-310.924	-65.463	-0.282	-0.114
-309.910	-78.817	-0.381	0.130
-308.895	-164.487	-0.198	0.009
-307.880	-19.870	0.101	-0.063
-306.866	-79.689	-0.206	-0.070
-305.851	-64.599	0.569	0.232
-304.837	800.000	0.015	-0.060
-303.822	691.813	0.042	0.111
-302.807	-117.043	0.228	0.042
-301.793	223.261	0.218	-0.353
-300.778	27.745	0.282	-0.239
-299.764	-126.820	-0.211	-0.031
-298.749	379.886	0.158	-0.324
-297.735	800.000	-0.081	0.262
-296.720	-200.000	-0.071	0.355
-295.705	41.123	-0.154	-0.140
-294.691	-171.587	-0.371	-0.012
-293.676	-151.134	0.338	-0.025
-292.662	-200.000	-0.043	0.204
-291.647	170.689	0.217	0.312
-290.632	-200.000	0.035	0.202
-289.618	411.143	0.026	0.056
-288.603	137.897	-0.047	0.061
-287.589	203.295	0.099	0.153
-286.574	23.750	-0.159	0.131
-285.559	197.549	0.127	-0.195
-284.545	89.798	0.069	0.077
-283.530	800.000	-0.045	-0.187
-282.516	759.987	0.066	-0.178
-281.501	-155.156	0.506	-0.033
-280.486	386.938	-0.072	-0.150
-279.472	-49.091	0.113	0.054
-278.457	15.783	-0.068	-0.054
-277.443	-200.000	-0.027	0.239
-276.428	-86.614	-0.157	0.048
-275.413	59.581	-0.096	-0.094
-274.399	8.622	-0.266	0.201
-273.384	-98.318	0.195	0.050
-272.370	92.835	-0.097	0.110
-271.355	721.542	-0.080	0.214
-270.340	-200.000	-0.022	-0.149
-269.326	26.886	-0.117	-0.098
-268.311	-165.466	0.142	0.006
-267.297	92.421	-0.086	-0.098
-266.282	-200.000	0.011	-0.093
-265.267	544.929	-0.061	0.146
-264.253	31.311	0.146	-0.125
-263.238	-69.115	0.099	0.038
-262.224	-42.163	-0.302	0.155
-261.209	-170.352	0.107	0.004
-260.195	-200.000	0.013	0.283
-259.180	5.662	-0.330	-0.244
-258.165	-55.597	-0.615	0.276
-257.151	18.162	-0.121	-0.097
-256.136	66.937	0.050	0.051
-255.122	-59.147	0.021	0.009
-254.107	51.198	-0.091	0.086
-253.092	-134.550	0.386	0.047
-252.078	-76.429	0.241	0.085
-251.063	-111.142	0.128	0.026
-250.049	-101.047	0.238	0.058
-249.034	-39.561	-0.378	0.198
-248.019	800.000	-0.079	-0.272
-247.005	106.191	0.216	-0.256
-245.990	78.636	0.018	-0.019
-244.976	764.345	-0.082	0.222
-243.961	4.673	-0.070	-0.051
-242.946	800.000	0.057	0.165
-241.932	-200.000	0.017	-0.139
-240.917	144.717	-0.100	-0.134
-239.903	219.221	-0.086	-0.138
-238.888	105.185	0.049	-0.058
-237.873	-7.432	-0.272	-0.184
-236.859	-200.000	-0.018	0.117
-235.844	-200.000	-0.005	-0.105
-234.830	-44.645	-0.140	0.070
-233.815	431.961	-0.062	-0.135
-232.800	-200.000	0.085	0.000
-231.786	-200.000	-0.052	-0.364
-230.771	-141.419	-0.241	-0.024
-229.757	278.068	-0.107	-0.190
-228.742	271.160	0.057	-0.101
-227.727	800.000	0.144	0.465
-226.713	14.063	0.192	-0.149
-225.698	116.799	0.307	-0.377
-224.684	-200.000	0.009	-0.359
-223.669	-200.000	0.029	0.502
-222.655	267.177	-0.074	0.130
-221.640	-145.981	0.282	0.025
-220.625	406.892	0.063	0.133
-219.611	202.374	-0.129	-0.199
-218.596	-200.000	-0.003	-0.016
-217.582	115.748	-0.189	-0.231
-216.567	-156.260	-0.310	0.019
-215.552	-200.000	0.002	-0.089
-214.538	-200.000	0.162	0.001
-213.523	-71.498	0.132	-0.049
-212.509	-64.603	0.228	-0.093
-211.494	-117.228	0.264	0.048
-210.479	149.499	0.185	0.250
-209.465	-61.560	0.363	0.152
-208.450	800.000	0.058	0.207
-207.436	-65.248	0.063	0.025
-206.421	-200.000	-0.032	0.235
-205.406	-179.428	0.378	-0.008
-204.392	800.000	0.072	-0.240
-203.377	48.231	0.208	-0.195
-202.363	-200.000	-0.026	-0.212
-201.348	-104.865	-0.065	-0.015
-200.333	51.788	0.175	-0.167
-199.319	-200.000	0.016	0.156
-198.304	-110.023	-0.318	0.066
-197.290	404.640	-0.088	0.186
-196.275	63.913	0.225	0.225
-195.260	-200.000	0.012	0.104
-194.246	-150.691	-0.157	0.012
-193.231	-48.437	-0.307	0.148
-192.217	-95.196	0.365	0.098
-191.202	800.000	0.032	0.135
-190.187	139.246	-0.091	-0.119
-189.173	-20.333	0.187	0.115
-188.158	-200.000	-0.004	0.154
-187.144	-200.000	-0.042	0.202
-186.129	-41.197	0.322	0.166
-185.114	243.700	0.150	-0.251
-184.100	5.359	0.103	-0.076
-183.085	-153.397	0.256	0.018
-182.071	-96.006	0.105	-0.028
-181.056	446.538	-0.086	-0.189
-180.042	97.989	0.153	0.176
-179.027	-72.100	0.306	0.114
-178.012	-200.000	-0.039	0.181
-176.998	147.274	0.035	-0.047
-175.983	-104.048	-0.199	-0.046
-174.969	-200.000	-0.037	0.246
-173.954	-19.961	-0.379	0.233
-172.939	-200.000	0.009	0.248
-171.925	-100.408	-0.092	-0.023
-170.910	-111.825	0.307	0.062
-169.896	-89.249	0.234	-0.069
-168.881	-200.000	0.016	0.418
-167.866	109.460	-0.133	-0.159
-166.852	-200.000	-0.025	0.303
-165.837	-44.959	-0.471	0.234
-164.823	-26.089	-0.198	0.116
-163.808	125.076	0.144	0.181
-162.793	197.172	0.157	0.239
-161.779	9.429	-0.174	0.132
-160.764	200.045	-0.161	0.247
-159.750	-24.953	0.155	0.092
-158.735	-56.112	0.283	-0.126
-157.720	255.079	0.086	-0.147
-156.706	-75.993	-0.164	0.058
-155.691	218.877	0.169	0.269
-154.677	45.090	0.290	0.267
-153.662	9.597	0.085	-0.064
-152.647	117.406	0.061	0.075
-151.633	-200.000	-0.001	0.071
-150.618	77.870	0.204	-0.217
-149.604	-3.956	0.098	0.068
-148.589	800.000	-0.140	-0.480
-147.574	256.035	0.115	-0.197
-146.560	529.615	-0.092	0.216
-145.545	-6.829	-0.020	-0.014
-144.531	-18.578	-0.212	0.132
-143.516	124.350	0.144	-0.181
-142.502	-200.000	0.070	-0.375
-141.487	-143.856	-0.271	-0.025
-140.472	172.629	-0.074	-0.106
-139.458	-200.000	-0.000	0.017
-138.443	-50.896	-0.201	0.094
-137.429	31.731	-0.120	0.103
-136.414	160.046	-0.244	-0.339
-135.399	-200.000	-0.026	-0.236
-134.385	-200.000	0.009	0.183
-133.370	-200.000	0.009	-0.095
-132.356	-200.000	-0.022	0.107
-131.341	-53.198	-0.104	0.047
-130.326	-12.114	-0.043	-0.028
-129.312	317.112	-0.100	-0.189
-128.297	-63.911	-0.237	0.097
-127.283	33.865	0.319	-0.276
-126.268	-18.255	-0.375	0.234
-125.253	172.709	-0.047	0.068
-124.239	-200.000	-0.014	0.128
-123.224	-106.297	0.172	0.038
-122.210	-123.819	0.146	0.023
