DTS Sentinel unit serial number:	SN413079Multiplexer serial number:	ORYXHardware model number:	OX4-SRSoftware version number:	ORYX F/W v4.00 Oryx Data Collector v3.7.2.0data status	okinstallation	princeton_trtdifferential loss correction	single-endedforward channel	channel 3reverse channel	N/Adate	2019/09/11time	23:14:10forward acquisition time	60.00reverse acquisition time	0.00gamma	496.2192k internal	0.2317k external	0.2317temperature offset calibration	1.0051default loss term (dB/km)	0.3790temperature slope calibration	1.0000multiplexer offset coefficient	1.0000multiplexer slope coefficient	1.0000fibre end	0.00T internal ref (°C)	34.44T ext. ref 1 (°C)	1.85T ext. ref 2 (°C)	28.45length (m)	temperature (°C)	Stokes	anti-Stokes-747.200	41.806	0.177	-0.162
-746.185	50.881	0.337	0.323
-745.171	19.783	0.320	0.261
-744.156	-141.069	0.346	0.036
-743.142	-36.525	-0.183	0.100
-742.127	-200.000	-0.009	0.236
-741.112	99.580	-0.220	0.258
-740.098	258.544	-0.260	0.454
-739.083	-200.000	-0.019	-0.146
-738.069	-52.242	-0.171	0.080
-737.054	-105.621	-0.151	0.035
-736.039	47.352	0.034	-0.032
-735.025	800.000	0.048	-0.158
-734.010	308.149	-0.171	-0.323
-732.996	800.000	0.035	-0.108
-731.981	-36.829	0.154	0.084
-730.966	230.475	0.349	0.578
-729.952	-200.000	0.015	-0.215
-728.937	105.923	0.023	-0.027
-727.923	-200.000	0.007	-0.210
-726.908	-200.000	-0.025	-0.164
-725.894	37.672	0.127	-0.114
-724.879	-102.346	-0.179	-0.043
-723.864	-12.199	0.226	0.150
-722.850	-66.993	-0.232	-0.093
-721.835	103.104	0.177	-0.210
-720.821	-200.000	-0.019	-0.170
-719.806	331.234	-0.097	0.190
-718.791	32.346	-0.086	0.075
-717.777	388.029	-0.151	0.316
-716.762	-21.808	-0.312	0.192
-715.748	-9.105	-0.164	0.111
-714.733	-200.000	-0.019	-0.302
-713.718	800.000	-0.035	0.128
-712.704	424.505	-0.162	-0.353
-711.689	-5.108	-0.228	0.158
-710.675	-189.450	-0.337	0.004
-709.660	800.000	-0.044	0.145
-708.645	-80.237	-0.104	-0.035
-707.631	484.681	-0.061	-0.140
-706.616	333.298	-0.127	-0.248
-705.602	-200.000	0.017	-0.238
-704.587	-66.903	-0.109	0.043
-703.572	-4.017	0.040	-0.028
-702.558	5.304	0.256	0.191
-701.543	65.378	0.071	0.072
-700.529	800.000	0.059	0.176
-699.514	64.307	-0.060	-0.061
-698.499	-43.309	0.305	-0.156
-697.485	-90.574	-0.219	-0.064
-696.470	83.166	-0.083	-0.092
-695.456	-4.819	-0.089	-0.062
-694.441	-103.540	0.137	-0.033
-693.426	-42.292	0.036	0.019
-692.412	38.760	0.226	0.204
-691.397	-134.949	0.318	0.039
-690.383	5.989	-0.284	0.213
-689.368	95.616	0.048	0.056
-688.354	428.101	-0.133	-0.291
-687.339	-200.000	-0.018	-0.101
-686.324	-150.089	0.274	0.021
-685.310	328.118	-0.041	-0.079
-684.295	102.007	0.111	-0.131
-683.281	130.000	0.191	-0.247
-682.266	-77.707	0.180	0.063
-681.251	-137.133	0.169	-0.019
-680.237	-200.000	0.037	0.338
-679.222	-54.326	0.123	0.056
-678.208	-78.508	0.190	-0.066
-677.193	800.000	0.044	-0.150
-676.178	-75.037	0.338	0.122
-675.164	75.089	-0.088	-0.094
-674.149	40.986	-0.082	-0.075
-673.135	800.000	0.145	-0.430
-672.120	-30.661	-0.248	-0.142
-671.105	-146.781	-0.269	0.023
-670.091	-6.922	-0.147	0.101
-669.076	800.000	-0.065	-0.186
-668.062	-122.890	0.208	-0.034
-667.047	104.613	-0.107	-0.127
-666.032	110.438	-0.056	-0.068
-665.018	-84.670	0.049	0.016
-664.003	800.000	0.045	-0.180
-662.989	800.000	0.109	0.427
-661.974	66.327	0.271	-0.278
-660.959	800.000	0.067	-0.190
-659.945	50.947	0.265	-0.253
-658.930	4.799	0.241	0.179
-657.916	105.774	-0.047	0.056
-656.901	-98.741	0.284	0.073
-655.886	-200.000	-0.010	0.119
-654.872	800.000	-0.026	0.107
-653.857	-200.000	0.006	0.045
-652.843	-77.293	0.168	0.059
-651.828	-92.095	0.402	0.115
-650.814	-20.048	-0.089	-0.055
-649.799	-163.290	0.248	0.012
-648.784	-77.288	-0.102	-0.036
-647.770	-0.610	-0.129	-0.092
-646.755	51.312	0.189	-0.181
-645.741	800.000	0.039	0.117
-644.726	-200.000	0.043	0.271
-643.711	-8.520	0.197	0.133
-642.697	-150.750	-0.155	-0.012
-641.682	-200.000	-0.004	0.034
-640.668	-200.000	0.007	0.073
-639.653	800.000	-0.113	0.318
-638.638	211.269	-0.031	-0.050
-637.624	652.931	0.121	0.312
-636.609	88.710	-0.110	0.124
-635.595	-72.495	-0.104	-0.039
-634.580	-132.632	-0.149	-0.019
-633.565	-200.000	-0.004	0.190
-632.551	-48.953	-0.252	0.122
-631.536	-82.638	0.302	-0.098
-630.522	417.213	-0.148	-0.319
-629.507	-200.000	-0.034	-0.247
-628.492	175.458	-0.070	0.102
-627.478	60.584	0.075	-0.075
-626.463	-41.577	0.318	0.165
-625.449	-200.000	-0.033	-0.214
-624.434	300.746	-0.082	0.153
-623.419	56.388	-0.180	-0.177
-622.405	70.365	0.050	-0.052
-621.390	156.062	-0.026	0.036
-620.376	-200.000	-0.033	0.211
-619.361	123.939	0.134	0.170
-618.346	163.020	0.205	-0.290
-617.332	31.283	0.070	0.061
-616.317	-90.140	0.398	0.117
-615.303	750.113	0.112	0.303
-614.288	-200.000	-0.015	-0.133
-613.273	450.552	0.157	0.350
-612.259	501.748	-0.136	0.317
-611.244	-58.274	-0.195	-0.085
-610.230	-200.000	-0.060	-0.381
-609.215	121.882	-0.182	-0.228
-608.201	-200.000	0.052	-0.306
-607.186	130.002	-0.150	0.194
-606.171	-7.052	-0.269	0.184
-605.157	-36.287	-0.193	-0.105
-604.142	8.437	-0.083	-0.063
-603.128	348.173	-0.139	-0.276
-602.113	-111.647	-0.297	0.061
-601.098	-200.000	0.016	-0.326
-600.084	-164.706	0.264	0.012
-599.069	-182.208	-0.135	-0.003
-598.055	-39.858	-0.228	-0.120
-597.040	-10.650	0.038	-0.025
-596.025	-44.388	0.106	0.053
-595.011	4.348	-0.217	0.160
-593.996	-200.000	-0.053	-0.267
-592.982	-86.457	0.399	-0.123
-591.967	547.478	0.036	0.086
-590.952	-129.474	0.076	0.011
-589.938	800.000	0.085	0.259
-588.923	572.161	-0.132	-0.323
-587.909	239.902	-0.015	-0.025
-586.894	-16.376	-0.118	0.075
-585.879	-117.661	-0.134	-0.024
-584.865	35.270	0.132	0.117
-583.850	-91.478	0.364	0.105
-582.836	-139.927	0.163	-0.017
-581.821	-200.000	0.020	-0.429
-580.806	800.000	-0.084	-0.341
-579.792	-93.854	-0.257	0.071
-578.777	18.956	-0.313	0.253
-577.763	-200.000	0.016	0.225
-576.748	213.660	-0.137	0.217
-575.733	263.329	-0.045	-0.079
-574.719	41.192	-0.092	0.083
-573.704	-78.956	0.032	0.011
-572.690	90.531	-0.249	0.281
-571.675	-150.162	0.367	-0.029
-570.661	-118.300	-0.283	-0.051
-569.646	386.083	0.046	-0.096
-568.631	-52.355	-0.083	0.039
-567.617	-70.348	0.023	-0.009
-566.602	137.076	-0.100	0.132
-565.588	-2.102	0.185	-0.131
-564.573	-200.000	0.034	-0.181
-563.558	414.071	0.096	0.206
-562.544	-15.587	-0.106	0.068
-561.529	800.000	0.033	-0.112
-560.515	117.276	-0.160	-0.198
-559.500	-200.000	-0.019	-0.275
-558.485	800.000	0.094	-0.265
-557.471	153.640	-0.207	-0.285
-556.456	111.675	-0.112	0.136
-555.442	-101.016	0.289	-0.071
-554.427	-75.868	-0.117	0.041
-553.412	-200.000	-0.006	-0.172
-552.398	-37.434	-0.170	-0.091
-551.383	-200.000	-0.035	-0.313
-550.369	218.474	-0.188	0.302
-549.354	120.204	0.020	-0.025
-548.339	-25.140	-0.161	-0.096
-547.325	-68.336	0.227	0.089
-546.310	369.514	0.184	-0.375
-545.296	-200.000	0.017	-0.175
-544.281	-200.000	-0.024	-0.305
-543.266	-119.069	0.078	0.014
-542.252	169.677	-0.103	-0.148
-541.237	-200.000	-0.021	-0.211
-540.223	-200.000	0.001	0.066
-539.208	1.374	0.263	0.190
-538.193	800.000	0.061	-0.246
-537.179	-200.000	0.053	0.650
-536.164	-43.102	0.176	-0.090
-535.150	-200.000	-0.092	0.000
-534.135	109.776	-0.149	0.179
-533.121	3.338	-0.085	-0.062
-532.106	-72.397	0.362	-0.135
-531.091	-5.454	-0.075	-0.052
-530.077	80.962	0.123	-0.133
-529.062	800.000	0.014	0.043
-528.048	26.980	0.120	-0.101
-527.033	238.021	-0.047	0.078
-526.018	-51.930	0.323	0.151
-525.004	-56.685	-0.009	-0.004
-523.989	-158.346	-0.360	0.021
-522.975	-200.000	0.054	-0.422
-521.960	-200.000	-0.148	-0.001
-520.945	40.769	0.185	-0.167
-519.931	-159.806	0.413	0.023
-518.916	-200.000	-0.005	0.319
-517.902	85.859	-0.225	0.249
-516.887	-17.646	-0.134	-0.084
-515.872	-200.000	0.036	0.227
-514.858	86.080	0.290	-0.321
-513.843	-60.760	-0.123	0.052
-512.829	-5.732	-0.106	-0.073
-511.814	-200.000	0.039	-0.389
-510.799	65.823	-0.211	-0.215
-509.785	800.000	-0.031	0.111
-508.770	357.186	0.189	-0.379
-507.756	-24.475	0.247	-0.148
-506.741	-146.083	-0.238	0.021
-505.726	-111.575	0.165	0.034
-504.712	-0.436	0.092	0.066
-503.697	-164.455	-0.262	0.012
-502.683	134.184	-0.189	-0.246
-501.668	408.297	-0.073	-0.155
-500.653	-54.510	0.199	0.091
-499.639	-84.337	-0.273	-0.087
-498.624	-107.079	-0.109	-0.024
-497.610	-0.183	-0.226	-0.161
-496.595	117.275	0.165	0.203
-495.581	-200.000	0.017	0.301
-494.566	279.650	-0.131	-0.235
-493.551	800.000	0.064	-0.182
-492.537	163.144	0.118	0.167
-491.522	-83.167	-0.337	-0.109
-490.508	-200.000	-0.023	-0.187
-489.493	-132.889	0.209	0.027
-488.478	147.002	-0.055	-0.075
-487.464	-88.308	-0.186	0.056
-486.449	441.129	-0.269	0.590
-485.435	800.000	0.038	0.156
-484.420	0.137	-0.141	-0.101
-483.405	-124.801	-0.082	-0.013
-482.391	178.061	0.050	-0.073
-481.376	800.000	-0.086	0.250
-480.362	-15.161	0.186	0.119
-479.347	-81.457	0.135	0.044
-478.332	-200.000	0.055	0.262
-477.318	43.140	0.281	0.257
-476.303	299.958	-0.088	0.162
-475.289	-22.781	0.073	0.044
-474.274	-200.000	0.035	-0.371
-473.259	-200.000	0.051	0.590
-472.245	-28.824	-0.067	0.039
-471.230	-160.370	-0.140	0.008
-470.216	800.000	0.066	-0.218
-469.201	41.511	0.154	-0.140
-468.186	-2.209	-0.353	-0.248
-467.172	-200.000	-0.010	0.291
-466.157	88.755	-0.280	0.312
-465.143	115.283	-0.188	0.230
-464.128	365.153	-0.100	0.201
-463.113	-200.000	-0.068	-0.373
-462.099	-92.932	0.517	0.144
-461.084	-89.086	-0.221	-0.065
-460.070	26.835	0.205	0.172
-459.055	299.444	-0.004	-0.007
-458.040	800.000	-0.036	0.147
-457.026	450.960	-0.227	-0.501
-456.011	133.085	-0.144	-0.187
-454.997	-183.080	0.132	0.002
-453.982	-200.000	0.005	0.091
-452.968	71.107	-0.052	-0.054
-451.953	-200.000	-0.026	0.429
-450.938	213.116	0.109	0.172
-449.924	96.808	-0.160	-0.183
-448.909	-200.000	-0.017	0.201
-447.895	-200.000	-0.027	-0.183
-446.880	-8.707	-0.168	0.113
-445.865	-131.113	-0.190	0.025
-444.851	260.728	0.054	0.093
-443.836	-118.624	-0.361	0.064
-442.822	-64.214	-0.276	-0.112
-441.807	-200.000	-0.030	-0.203
-440.792	-200.000	-0.010	-0.077
-439.778	-22.892	-0.160	0.096
-438.763	-1.644	0.178	0.125
-437.749	149.426	-0.161	0.218
-436.734	-200.000	0.037	-0.282
-435.719	-25.053	-0.162	-0.096
-434.705	-1.778	0.336	0.237
-433.690	100.041	0.108	-0.125
-432.676	-200.000	-0.037	-0.289
-431.661	-149.973	-0.268	-0.021
-430.646	-74.847	-0.154	0.055
-429.632	490.092	0.141	0.323
-428.617	239.703	0.182	0.303
-427.603	29.019	-0.214	-0.181
-426.588	-65.971	-0.279	-0.111
-425.573	119.092	0.079	-0.098
-424.559	-5.089	0.305	0.210
-423.544	-110.206	-0.245	0.051
-422.530	46.692	0.181	0.168
-421.515	24.214	0.168	-0.139
-420.500	-128.313	-0.114	0.016
-419.486	533.987	0.056	-0.132
-418.471	-56.337	-0.091	-0.041
-417.457	-94.831	-0.016	-0.004
-416.442	74.332	-0.091	0.095
-415.428	-24.087	-0.124	-0.074
-414.413	789.905	0.012	0.034
-413.398	-76.235	-0.042	0.015
-412.384	159.952	-0.121	-0.169
-411.369	-200.000	-0.034	-0.244
-410.355	-103.076	-0.157	-0.037
-409.340	-200.000	0.001	0.195
-408.325	114.593	-0.083	-0.101
-407.311	109.551	-0.207	-0.248
-406.296	800.000	0.099	-0.354
-405.282	12.252	0.043	-0.033
-404.267	-200.000	-0.050	0.234
-403.252	183.852	0.150	0.222
-402.238	105.966	-0.137	0.162
-401.223	17.696	0.168	-0.133
-400.209	-200.000	-0.004	0.140
-399.194	-11.589	-0.292	0.192
-398.179	-0.056	-0.295	-0.210
-397.165	0.495	-0.170	0.121
-396.150	-19.322	-0.167	0.103
-395.136	-200.000	-0.015	-0.247
-394.121	-200.000	-0.053	-0.257
-393.106	800.000	0.020	-0.080
-392.092	800.000	-0.041	0.176
-391.077	-137.376	0.311	-0.035
-390.063	174.954	0.088	-0.128
-389.048	-125.799	-0.477	-0.072
-388.033	-200.000	0.033	0.318
-387.019	304.644	0.264	0.488
-386.004	-145.927	0.062	-0.006
-384.990	-129.761	0.112	-0.015
-383.975	-105.492	0.279	-0.063
-382.960	-128.354	0.385	-0.055
-381.946	-178.057	-0.193	0.005
-380.931	88.527	0.069	0.077
-379.917	-49.759	-0.011	-0.005
-378.902	-200.000	0.119	-0.000
-377.888	134.369	0.112	-0.144
-376.873	185.650	-0.292	0.432
-375.858	32.851	0.171	-0.148
-374.844	205.932	-0.109	-0.169
-373.829	179.996	0.103	-0.150
-372.815	-42.177	-0.103	0.052
-371.800	800.000	0.057	0.220
-370.785	-200.000	0.000	-0.110
-369.771	105.952	-0.230	-0.272
-368.756	-81.028	0.198	-0.066
-367.742	87.396	0.083	0.091
-366.727	726.237	0.135	0.359
-365.712	-30.695	0.094	0.053
-364.698	258.992	-0.081	-0.139
-363.683	-148.431	-0.089	0.007
-362.669	-48.696	-0.028	-0.013
-361.654	-80.623	0.055	-0.018
-360.639	800.000	-0.075	0.299
-359.625	800.000	-0.058	0.189
-358.610	-200.000	-0.047	0.340
-357.596	81.935	0.163	-0.176
-356.581	-183.548	0.311	-0.005
-355.566	248.221	0.204	0.344
-354.552	-157.750	0.065	-0.004
-353.537	-200.000	-0.014	-0.077
-352.523	-64.290	0.196	-0.079
-351.508	375.985	0.043	0.087
-350.493	800.000	0.074	-0.267
-349.479	64.811	0.125	-0.126
-348.464	-63.074	0.408	0.168
-347.450	133.141	-0.073	0.093
-346.435	-99.880	-0.123	-0.031
-345.420	-4.857	0.217	0.149
-344.406	800.000	-0.031	-0.089
-343.391	-169.568	0.242	-0.009
-342.377	105.839	0.171	0.202
-341.362	6.375	-0.198	-0.146
-340.348	-36.642	0.312	0.167
-339.333	203.803	-0.060	0.092
-338.318	-200.000	0.070	0.311
-337.304	356.474	-0.090	-0.180
-336.289	-200.000	0.025	-0.111
-335.275	-175.210	0.053	0.001
-334.260	-200.000	0.061	0.436
-333.245	-200.000	-0.006	0.154
-332.231	532.698	-0.109	-0.257
-331.216	254.513	0.117	0.199
-330.202	-81.801	0.243	-0.079
-329.187	-155.128	0.173	-0.011
-328.172	-137.089	0.198	-0.023
-327.158	-82.485	0.349	0.113
-326.143	-29.738	0.142	0.081
-325.129	570.778	0.094	0.228
-324.114	-200.000	0.019	-0.314
-323.099	463.777	-0.097	-0.215
-322.085	-14.992	-0.249	-0.159
-321.070	134.023	0.175	0.226
-320.056	800.000	0.069	0.246
-319.041	-200.000	-0.056	-0.289
-318.026	-200.000	-0.011	-0.136
-317.012	483.733	0.132	-0.298
-315.997	117.760	0.299	-0.366
-314.983	800.000	-0.040	-0.165
-313.968	350.757	0.103	0.203
-312.953	379.023	0.059	-0.120
-311.939	72.558	0.046	-0.048
-310.924	-200.000	0.017	-0.083
-309.910	339.558	0.103	0.200
-308.895	68.423	-0.111	-0.113
-307.880	136.556	0.101	0.131
-306.866	87.212	0.141	0.156
-305.851	9.900	-0.221	-0.167
-304.837	800.000	-0.050	-0.183
-303.822	-200.000	0.008	0.138
-302.807	-158.389	-0.075	-0.004
-301.793	-200.000	0.024	-0.175
-300.778	12.098	0.247	-0.189
-299.764	150.823	-0.124	0.168
-298.749	219.908	-0.113	0.180
-297.735	-146.184	0.246	-0.022
-296.720	278.361	-0.017	-0.030
-295.705	-20.341	-0.146	-0.089
-294.691	-200.000	-0.006	-0.029
-293.676	129.070	0.310	-0.394
-292.662	55.298	0.168	-0.161
-291.647	25.632	0.158	-0.131
-290.632	318.400	0.032	0.060
-289.618	25.483	0.093	-0.077
-288.603	-200.000	0.007	-0.302
-287.589	-53.244	0.111	0.051
-286.574	93.725	-0.054	0.060
-285.559	-8.259	0.119	0.080
-284.545	112.873	0.139	-0.168
-283.530	304.434	-0.106	-0.196
-282.516	-200.000	-0.037	-0.220
-281.501	-89.927	-0.315	-0.092
-280.486	-85.594	-0.191	-0.059
-279.472	-36.827	0.211	0.113
-278.457	-99.042	0.051	-0.013
-277.443	201.260	0.147	0.225
-276.428	-71.095	-0.107	0.040
-275.413	-9.104	0.007	-0.004
-274.399	-200.000	-0.005	-0.070
-273.384	-200.000	0.004	0.045
-272.370	-200.000	0.000	0.052
-271.355	93.706	-0.133	-0.150
-270.340	-116.840	0.149	-0.027
-269.326	-42.955	0.385	-0.194
-268.311	-200.000	0.098	0.438
-267.297	-69.703	0.141	0.054
-266.282	191.820	0.182	-0.273
-265.267	800.000	0.045	0.163
-264.253	554.045	0.132	0.315
-263.238	-98.409	0.106	0.027
-262.224	-114.269	-0.056	0.011
-261.209	-78.525	0.287	-0.097
-260.195	-136.902	0.031	-0.004
-259.180	-82.234	0.229	-0.074
-258.165	97.869	0.131	0.149
-257.151	-143.941	-0.252	0.024
-256.136	-156.165	-0.254	-0.016
-255.122	-200.000	0.015	-0.112
-254.107	277.060	-0.088	-0.156
-253.092	105.043	-0.210	0.246
-252.078	-125.155	0.068	-0.010
-251.063	96.190	-0.122	-0.138
-250.049	-168.121	0.131	-0.005
-249.034	149.569	-0.229	0.309
-248.019	-200.000	-0.050	0.244
-247.005	391.035	-0.134	0.276
-245.990	-200.000	-0.020	-0.210
-244.976	-200.000	-0.023	0.166
-243.961	-78.028	-0.179	0.061
-242.946	-142.846	-0.498	-0.048
-241.932	-200.000	-0.003	-0.145
-240.917	-62.941	0.154	0.063
-239.903	-67.982	0.098	-0.038
-238.888	27.620	-0.132	0.111
-237.873	-3.093	0.083	-0.058
-236.859	800.000	0.020	-0.056
-235.844	-0.448	0.069	-0.049
-234.830	-19.206	-0.329	0.203
-233.815	23.298	-0.141	-0.115
-232.800	800.000	0.032	0.115
-231.786	352.459	0.168	0.331
-230.771	239.590	-0.116	0.191
-229.757	-114.573	-0.347	-0.066
-228.742	-106.659	-0.394	-0.087
-227.727	14.558	-0.134	-0.104
-226.713	493.100	0.150	-0.342
-225.698	-68.103	-0.044	0.017
-224.684	174.774	-0.130	0.187
-223.669	-116.413	-0.160	0.029
-222.655	-49.078	-0.078	-0.037
-221.640	256.901	-0.055	0.094
-220.625	-200.000	-0.005	0.098
-219.611	-200.000	-0.034	-0.172
-218.596	450.010	-0.118	0.257
-217.582	-173.312	-0.127	0.004
-216.567	-124.016	0.324	0.051
-215.552	-134.111	-0.182	-0.022
-214.538	-200.000	-0.010	-0.047
-213.523	177.324	0.261	-0.377
-212.509	-84.550	-0.422	-0.132
-211.494	-200.000	0.012	0.139
-210.479	286.270	-0.245	-0.438
-209.465	800.000	-0.026	0.074
-208.450	-200.000	-0.012	0.136
-207.436	-86.960	0.232	0.070
-206.421	331.740	-0.122	0.233
-205.406	-151.545	0.186	0.014
-204.392	-59.231	-0.052	0.022
-203.377	-140.019	-0.116	0.012
-202.363	-148.891	0.135	0.011
-201.348	61.191	0.017	-0.017
-200.333	522.266	-0.008	0.019
-199.319	-200.000	-0.024	-0.161
-198.304	-16.298	-0.267	0.168
-197.290	25.841	-0.357	0.295
-196.275	187.215	-0.169	0.250
-195.260	312.706	0.183	-0.340
-194.246	447.591	0.029	-0.064
-193.231	-158.754	-0.330	-0.019
-192.217	23.190	-0.149	0.121
-191.202	261.519	0.218	0.374
-190.187	-174.760	0.169	0.005
-189.173	-140.801	-0.180	0.018
-188.158	-200.000	0.016	-0.295
-187.144	-200.000	0.040	-0.240
-186.129	-200.000	-0.023	-0.265
-185.114	441.086	0.109	0.237
-184.100	800.000	-0.065	0.181
-183.085	51.612	-0.181	0.171
-182.071	-200.000	-0.043	0.222
-181.056	-101.107	0.313	0.076
-180.042	23.788	-0.287	-0.234
-179.027	800.000	0.030	-0.121
-178.012	-44.890	-0.090	0.045
-176.998	257.238	0.195	0.333
-175.983	-42.093	0.255	0.129
-174.969	-160.131	0.148	0.008
-173.954	-200.000	0.037	-0.242
-172.939	49.973	-0.142	0.133
-171.925	81.878	-0.124	-0.132
-170.910	800.000	0.038	-0.156
-169.896	-93.869	0.167	0.045
-168.881	59.920	0.121	0.118
-167.866	34.065	-0.103	-0.089
-166.852	-38.547	0.133	0.070
-165.837	-63.743	0.280	-0.114
-164.823	-149.219	0.266	-0.021
-163.808	200.058	0.130	-0.198
-162.793	-157.700	0.410	0.024
-161.779	250.855	-0.107	0.180
-160.764	244.235	0.065	0.109
-159.750	-128.072	0.368	0.052
-158.735	800.000	0.057	-0.221
-157.720	755.576	0.024	-0.064
-156.706	683.326	-0.120	-0.308
-155.691	-114.328	0.140	0.027
-154.677	99.877	-0.212	0.243
-153.662	-97.516	-0.264	0.068
-152.647	-98.430	0.156	-0.040
-151.633	-126.022	0.088	-0.013
-150.618	201.906	-0.096	0.146
-149.604	-99.194	0.302	0.075
-148.589	-200.000	-0.007	0.068
-147.574	-19.925	0.031	0.019
-146.560	-154.810	-0.190	0.012
-145.545	-90.315	-0.301	0.086
-144.531	-87.153	-0.052	-0.016
-143.516	52.254	0.235	-0.222
-142.502	25.174	-0.094	0.077
-141.487	57.006	-0.094	0.091
-140.472	-72.980	-0.164	0.060
-139.458	792.384	0.116	-0.314
-138.443	2.896	0.220	-0.158
-137.429	800.000	0.048	-0.207
-136.414	224.099	0.096	0.153
-135.399	171.417	-0.041	0.058
-134.385	-98.893	-0.643	0.161
-133.370	-41.481	0.041	0.021
-132.356	-83.117	0.229	-0.073
-131.341	-42.713	-0.316	0.159
-130.326	-36.278	-0.243	-0.129
-129.312	349.345	0.035	-0.067
-128.297	84.785	-0.066	0.071
-127.283	640.793	0.024	-0.061
-126.268	-200.000	-0.172	0.000
-125.253	800.000	0.091	-0.331
-124.239	-164.808	-0.070	0.003
-123.224	-200.000	0.047	0.241
-122.210	-43.456	-0.123	0.061
-121.195	154.936	0.111	-0.151
