DTS Sentinel unit serial number:	SN413079Multiplexer serial number:	ORYXHardware model number:	OX4-SRSoftware version number:	ORYX F/W v4.00 Oryx Data Collector v3.7.2.0data status	okinstallation	princeton_trtdifferential loss correction	single-endedforward channel	channel 3reverse channel	N/Adate	2019/09/10time	20:22:11forward acquisition time	60.00reverse acquisition time	0.00gamma	496.2192k internal	0.2326k external	0.2326temperature offset calibration	0.9921default loss term (dB/km)	0.3790temperature slope calibration	1.0000multiplexer offset coefficient	1.0000multiplexer slope coefficient	1.0000fibre end	0.00T internal ref (°C)	32.17T ext. ref 1 (°C)	-0.29T ext. ref 2 (°C)	25.28length (m)	temperature (°C)	Stokes	anti-Stokes-747.200	186.391	-0.137	0.206
-746.185	136.027	-0.219	0.288
-745.171	161.763	0.106	0.150
-744.156	229.215	-0.088	-0.145
-743.142	-134.245	-0.120	0.015
-742.127	-154.693	-0.189	-0.013
-741.112	-117.802	-0.369	0.067
-740.098	48.065	-0.101	0.096
-739.083	29.655	-0.126	0.108
-738.069	-38.730	-0.533	0.284
-737.054	-78.450	-0.083	0.029
-736.039	800.000	0.039	-0.110
-735.025	-200.000	0.019	-0.242
-734.010	-121.042	-0.165	-0.028
-732.996	58.705	-0.230	-0.228
-731.981	-148.726	-0.177	0.015
-730.966	23.770	0.123	-0.102
-729.952	-129.738	-0.142	0.020
-728.937	-200.000	-0.005	0.066
-727.923	-88.733	-0.370	0.111
-726.908	103.608	-0.223	-0.264
-725.894	800.000	-0.068	-0.245
-724.879	663.908	-0.035	0.092
-723.864	-41.099	-0.273	-0.142
-722.850	146.686	0.080	-0.108
-721.835	137.300	0.205	0.270
-720.821	-72.388	-0.226	0.084
-719.806	2.892	-0.211	-0.154
-718.791	566.648	0.123	0.300
-717.777	-14.895	-0.162	-0.105
-716.762	-99.327	0.222	0.056
-715.748	28.118	0.083	0.070
-714.733	-132.033	-0.104	-0.014
-713.718	788.075	0.119	-0.331
-712.704	-167.427	0.170	-0.007
-711.689	-92.451	0.100	-0.028
-710.675	-40.988	-0.120	-0.062
-709.660	-99.793	-0.060	0.015
-708.645	135.091	0.201	-0.263
-707.631	217.981	0.178	-0.286
-706.616	-14.497	0.255	0.165
-705.602	-200.000	0.014	-0.184
-704.587	-173.984	0.136	-0.004
-703.572	102.111	-0.066	0.077
-702.558	-156.968	-0.248	0.015
-701.543	-102.036	0.449	0.109
-700.529	412.739	-0.091	-0.195
-699.514	-39.958	-0.183	0.096
-698.499	12.139	0.149	0.115
-697.485	-33.935	-0.399	-0.221
-696.470	-200.000	0.003	-0.207
-695.456	-200.000	-0.009	-0.114
-694.441	-100.179	-0.243	-0.061
-693.426	-55.976	-0.286	0.128
-692.412	777.579	-0.139	0.382
-691.397	-12.893	-0.409	-0.268
-690.383	-88.153	-0.113	-0.034
-689.368	297.452	-0.110	-0.204
-688.354	199.688	0.054	0.084
-687.339	-72.564	-0.105	-0.039
-686.324	-200.000	0.030	0.268
-685.310	800.000	0.064	0.235
-684.295	-69.892	-0.123	0.047
-683.281	-60.790	-0.270	-0.115
-682.266	31.215	-0.201	-0.174
-681.251	800.000	0.023	-0.095
-680.237	-35.165	-0.122	0.067
-679.222	800.000	0.050	-0.179
-678.208	689.560	0.136	-0.358
-677.193	-84.997	-0.327	0.103
-676.178	-166.525	-0.123	0.005
-675.164	150.137	0.171	-0.234
-674.149	800.000	-0.058	-0.184
-673.135	-63.394	-0.297	0.123
-672.120	-113.702	-0.287	-0.056
-671.105	-151.016	-0.111	0.008
-670.091	123.675	-0.135	-0.170
-669.076	40.385	0.262	-0.237
-668.062	-19.724	-0.142	-0.088
-667.047	5.347	-0.122	-0.091
-666.032	-35.070	0.141	-0.077
-665.018	-79.858	-0.230	-0.078
-664.003	-27.938	-0.189	-0.110
-662.989	-200.000	-0.011	0.181
-661.974	6.779	0.100	0.075
-660.959	-146.940	-0.166	0.014
-659.945	87.298	0.151	-0.168
-658.930	-85.498	-0.203	0.063
-657.916	-169.781	0.287	-0.010
-656.901	-40.696	-0.257	0.134
-655.886	-45.993	0.151	-0.075
-654.872	-76.834	0.073	-0.026
-653.857	270.157	-0.162	0.287
-652.843	800.000	0.061	0.244
-651.828	800.000	-0.173	-0.506
-650.814	-111.762	0.082	-0.017
-649.799	6.729	-0.098	0.073
-648.784	-8.570	-0.112	-0.075
-647.770	-200.000	-0.054	-0.283
-646.755	-200.000	-0.053	0.243
-645.741	-200.000	-0.011	0.110
-644.726	130.463	0.197	-0.253
-643.711	138.709	0.160	0.211
-642.697	-200.000	-0.108	-0.500
-641.682	-27.435	-0.124	-0.073
-640.668	-78.799	0.374	0.128
-639.653	-200.000	-0.003	-0.059
-638.638	-200.000	-0.012	0.275
-637.624	-25.114	-0.184	0.110
-636.609	-200.000	0.026	-0.330
-635.595	250.601	-0.328	-0.560
-634.580	136.522	-0.175	0.230
-633.565	143.946	0.141	0.188
-632.551	-132.117	-0.359	0.047
-631.536	-29.998	-0.235	0.135
-630.522	-27.287	0.391	-0.229
-629.507	99.660	0.152	0.177
-628.492	-200.000	-0.038	0.261
-627.478	1.109	0.501	0.361
-626.463	102.314	-0.103	0.120
-625.449	800.000	-0.015	-0.056
-624.434	800.000	0.123	0.413
-623.419	-200.000	0.029	-0.169
-622.405	-137.792	-0.125	0.014
-621.390	642.622	0.057	0.146
-620.376	15.639	-0.361	0.285
-619.361	-17.177	0.169	0.107
-618.346	-64.103	-0.266	0.109
-617.332	227.293	0.209	0.340
-616.317	-178.987	0.244	-0.006
-615.303	-57.559	-0.054	-0.024
-614.288	24.361	0.426	-0.353
-613.273	-108.807	0.070	0.015
-612.259	-15.835	-0.183	0.117
-611.244	-200.000	0.011	0.125
-610.230	789.808	0.052	-0.142
-609.215	800.000	-0.013	-0.044
-608.201	85.915	-0.043	-0.048
-607.186	800.000	0.015	0.047
-606.171	44.257	0.287	-0.264
-605.157	-200.000	0.070	-0.444
-604.142	-12.894	-0.048	-0.031
-603.128	54.514	-0.200	-0.193
-602.113	-37.399	-0.151	0.081
-601.098	232.714	0.069	-0.114
-600.084	800.000	-0.057	0.220
-599.069	-39.049	-0.237	0.125
-598.055	546.916	0.052	-0.124
-597.040	-132.800	0.111	-0.014
-596.025	800.000	-0.065	-0.280
-595.011	173.423	0.016	0.023
-593.996	360.225	-0.044	0.088
-592.982	-200.000	0.182	-0.001
-591.967	-200.000	0.013	-0.107
-590.952	-141.101	0.281	-0.029
-589.938	-101.371	-0.298	-0.073
-588.923	-200.000	0.017	-0.190
-587.909	83.051	-0.097	-0.106
-586.894	-128.881	-0.094	-0.013
-585.879	-137.403	0.292	-0.033
-584.865	254.500	-0.085	0.147
-583.850	-180.076	0.294	-0.006
-582.836	64.412	-0.049	-0.050
-581.821	-153.255	-0.159	0.011
-580.806	-158.384	-0.532	0.031
-579.792	-200.000	0.028	-0.141
-578.777	800.000	-0.032	-0.138
-577.763	-91.463	0.090	0.026
-576.748	4.183	0.195	-0.143
-575.733	-120.648	0.200	-0.034
-574.719	-200.000	-0.046	0.254
-573.704	-200.000	-0.011	-0.077
-572.690	-43.106	-0.063	0.032
-571.675	574.471	-0.017	0.041
-570.661	800.000	-0.084	-0.312
-569.646	489.097	-0.185	0.423
-568.631	-60.478	0.052	-0.022
-567.617	161.774	0.085	-0.119
-566.602	123.232	0.023	-0.029
-565.588	-200.000	0.009	0.241
-564.573	539.752	-0.061	0.145
-563.558	-117.360	0.265	-0.048
-562.544	-175.109	-0.244	0.007
-561.529	-116.590	-0.302	0.056
-560.515	-200.000	-0.050	0.474
-559.500	-94.704	0.064	0.017
-558.485	-177.223	0.202	0.005
-557.471	800.000	-0.036	0.118
-556.456	-59.733	-0.330	0.141
-555.442	49.148	0.201	-0.189
-554.427	-162.624	0.160	-0.008
-553.412	-200.000	-0.052	-0.413
-552.398	-200.000	0.049	-0.304
-551.383	-166.517	0.234	0.010
-550.369	555.396	0.140	0.336
-549.354	285.180	-0.096	0.173
-548.339	-4.550	-0.067	0.046
-547.325	-200.000	-0.035	-0.399
-546.310	492.155	-0.091	0.208
-545.296	-200.000	-0.075	0.331
-544.281	381.117	-0.134	0.275
-543.266	-81.052	0.207	0.069
-542.252	-200.000	0.005	-0.203
-541.237	-159.901	0.035	0.002
-540.223	-119.232	-0.359	0.063
-539.208	344.055	0.167	-0.327
-538.193	-116.138	0.457	-0.085
-537.179	-26.698	-0.146	-0.086
-536.164	11.666	0.174	-0.133
-535.150	-117.066	0.142	0.026
-534.135	249.797	0.156	-0.266
-533.121	-170.533	-0.197	-0.007
-532.106	-71.807	0.108	-0.040
-531.091	33.988	0.103	0.090
-530.077	-89.859	-0.204	0.060
-529.062	-26.249	-0.149	0.088
-528.048	-83.283	-0.119	-0.038
-527.033	-66.886	-0.431	-0.170
-526.018	76.747	-0.185	-0.196
-525.004	312.611	-0.155	0.291
-523.989	246.840	-0.062	-0.104
-522.975	-200.000	-0.039	0.326
-521.960	-200.000	-0.019	-0.104
-520.945	-200.000	-0.019	-0.176
-519.931	-116.740	0.166	0.031
-518.916	-106.990	-0.076	0.017
-517.902	-88.184	0.250	-0.075
-516.887	-200.000	0.085	-0.396
-515.872	-42.960	-0.125	-0.063
-514.858	-128.004	0.065	-0.009
-513.843	198.781	0.150	-0.230
-512.829	-54.316	0.177	0.080
-511.814	-70.181	-0.441	-0.168
-510.799	207.960	-0.066	-0.103
-509.785	91.205	-0.227	-0.254
-508.770	-159.919	-0.239	-0.013
-507.756	-78.275	-0.313	0.107
-506.741	800.000	0.025	-0.071
-505.726	-200.000	-0.023	0.142
-504.712	800.000	-0.081	-0.260
-503.697	-150.482	-0.316	-0.024
-502.683	140.799	0.255	-0.337
-501.668	121.299	0.172	-0.214
-500.653	228.459	0.060	-0.097
-499.639	28.765	-0.175	0.148
-498.624	-160.440	0.310	-0.017
-497.610	58.448	0.258	0.253
-496.595	800.000	-0.026	-0.078
-495.581	-2.240	-0.195	-0.137
-494.566	62.818	0.091	0.091
-493.551	-75.404	0.183	-0.065
-492.537	176.519	0.125	-0.182
-491.522	-31.073	0.156	-0.088
-490.508	55.541	-0.172	0.166
-489.493	-200.000	-0.022	0.130
-488.478	-144.088	-0.080	-0.007
-487.464	-159.372	0.465	0.026
-486.449	-15.197	-0.146	0.093
-485.435	-93.104	-0.188	0.052
-484.420	379.290	0.192	0.393
-483.405	-153.752	-0.095	0.007
-482.391	-200.000	-0.014	-0.116
-481.376	-17.263	0.301	-0.189
-480.362	-27.082	0.199	0.116
-479.347	66.557	0.163	0.165
-478.332	5.252	0.039	-0.029
-477.318	-130.202	0.094	-0.013
-476.303	132.772	0.190	-0.245
-475.289	800.000	-0.110	-0.362
-474.274	-200.000	0.020	-0.392
-473.259	-74.690	-0.177	-0.064
-472.245	-153.588	-0.030	0.002
-471.230	800.000	-0.035	-0.099
-470.216	90.507	-0.178	0.199
-469.201	-52.391	-0.088	0.041
-468.186	-90.126	-0.188	0.055
-467.172	-91.156	0.214	0.061
-466.157	-200.000	-0.001	0.187
-465.143	151.216	-0.155	-0.210
-464.128	-116.228	0.510	-0.094
-463.113	-200.000	-0.041	0.180
-462.099	91.462	-0.102	-0.115
-461.084	660.137	-0.054	0.139
-460.070	800.000	-0.046	-0.171
-459.055	96.648	-0.204	-0.234
-458.040	49.078	-0.208	0.195
-457.026	-43.098	-0.142	0.072
-456.011	800.000	0.014	0.049
-454.997	-55.076	0.055	-0.025
-453.982	-152.703	0.226	-0.016
-452.968	-200.000	-0.004	0.119
-451.953	2.308	0.102	0.074
-450.938	-200.000	0.007	-0.217
-449.924	800.000	0.027	-0.097
-448.909	-97.874	-0.278	-0.072
-447.895	-159.645	0.095	-0.005
-446.880	105.216	-0.054	-0.063
-445.865	-48.918	-0.196	-0.094
-444.851	-200.000	0.009	-0.289
-443.836	-80.523	-0.165	-0.055
-442.822	-86.555	-0.155	0.047
-441.807	353.467	0.136	0.270
-440.792	-75.653	-0.330	0.117
-439.778	74.609	-0.177	0.186
-438.763	261.977	-0.068	0.117
-437.749	614.181	-0.100	0.250
-436.734	264.191	-0.126	-0.218
-435.719	-200.000	-0.010	0.074
-434.705	-8.390	0.381	-0.255
-433.690	-14.199	0.207	0.133
-432.676	-200.000	0.038	0.247
-431.661	352.722	-0.104	0.206
-430.646	-129.652	0.168	0.023
-429.632	-137.646	0.185	0.021
-428.617	-162.315	-0.254	0.013
-427.603	315.957	-0.110	-0.206
-426.588	-140.060	0.327	0.034
-425.573	-77.912	-0.393	0.135
-424.559	236.953	0.135	-0.223
-423.544	-45.042	0.183	0.091
-422.530	122.683	0.154	0.191
-421.515	-97.464	-0.155	0.040
-420.500	122.993	-0.169	-0.211
-419.486	-110.059	0.251	-0.052
-418.471	24.021	-0.248	-0.204
-417.457	134.362	0.198	0.256
-416.442	48.825	0.114	0.106
-415.428	-200.000	0.023	0.308
-414.413	16.209	-0.147	0.116
-413.398	-141.916	0.239	-0.024
-412.384	57.976	-0.095	0.093
-411.369	101.582	0.136	0.158
-410.355	-102.081	0.317	-0.076
-409.340	-27.824	-0.146	0.084
-408.325	800.000	0.078	0.248
-407.311	-200.000	-0.013	0.367
-406.296	-200.000	0.148	-0.000
-405.282	-200.000	-0.051	-0.322
-404.267	-200.000	-0.055	0.333
-403.252	-136.902	0.080	0.009
-402.238	800.000	0.075	0.284
-401.223	119.327	0.265	-0.327
-400.209	-136.723	0.150	-0.017
-399.194	-39.844	-0.149	0.077
-398.179	-57.351	-0.231	-0.101
-397.165	-200.000	0.061	-0.443
-396.150	355.677	0.126	0.250
-395.136	-200.000	0.045	0.432
-394.121	-81.394	-0.247	0.081
-393.106	72.599	0.145	-0.150
-392.092	-79.726	0.141	0.047
-391.077	-200.000	-0.025	-0.289
-390.063	800.000	-0.084	-0.274
-389.048	37.142	0.225	0.198
-388.033	-194.583	-0.230	-0.002
-387.019	140.230	0.276	0.363
-386.004	-200.000	-0.042	-0.183
-384.990	800.000	-0.084	0.292
-383.975	-200.000	0.005	-0.096
-382.960	-200.000	-0.005	-0.602
-381.946	-65.317	-0.220	-0.088
-380.931	109.671	-0.022	0.026
-379.917	343.846	0.066	0.129
-378.902	-200.000	0.034	0.182
-377.888	-200.000	0.053	-0.285
-376.873	-7.170	0.052	0.035
-375.858	-200.000	-0.051	0.261
-374.844	82.161	0.054	0.059
-373.829	-48.811	-0.333	0.159
-372.815	-145.569	0.222	-0.020
-371.800	-200.000	0.033	-0.346
-370.785	-31.294	0.188	0.105
-369.771	-165.776	0.110	0.005
-368.756	-200.000	0.008	-0.086
-367.742	1.645	-0.097	0.070
-366.727	-200.000	-0.027	0.164
-365.712	-200.000	-0.029	0.129
-364.698	800.000	-0.069	0.284
-363.683	800.000	0.006	0.025
-362.669	-200.000	0.050	-0.246
-361.654	800.000	-0.058	-0.206
-360.639	82.278	-0.161	-0.173
-359.625	5.347	0.225	0.165
-358.610	-75.804	-0.315	-0.111
-357.596	-96.490	0.296	0.078
-356.581	-200.000	0.029	0.231
-355.566	600.211	0.097	0.240
-354.552	449.855	-0.147	0.323
-353.537	-125.447	0.185	0.028
-352.523	-78.685	0.077	0.026
-351.508	-121.496	0.251	-0.041
-350.493	-127.072	-0.344	-0.050
-349.479	17.190	-0.260	0.205
-348.464	-109.405	-0.007	0.001
-347.450	-101.487	-0.126	-0.030
-346.435	800.000	0.032	0.122
-345.420	466.935	-0.100	-0.223
-344.406	112.193	-0.242	-0.291
-343.391	-147.734	-0.032	0.003
-342.377	-200.000	0.006	-0.073
-341.362	-165.461	-0.331	0.014
-340.348	29.604	-0.267	-0.225
-339.333	-108.249	-0.185	-0.040
-338.318	-55.826	-0.123	-0.054
-337.304	-99.390	0.128	-0.032
-336.289	524.669	0.071	-0.165
-335.275	-113.472	-0.188	-0.037
-334.260	-200.000	0.026	0.114
-333.245	-168.920	0.292	-0.011
-332.231	614.434	-0.168	-0.417
-331.216	-200.000	-0.004	-0.254
-330.202	-200.000	0.007	0.087
-329.187	-165.340	0.404	0.018
-328.172	-125.531	0.183	-0.028
-327.158	-62.813	0.506	-0.208
-326.143	-34.933	-0.088	-0.048
-325.129	-85.716	-0.325	-0.100
-324.114	-25.976	-0.114	0.066
-323.099	-200.000	-0.020	0.314
-322.085	196.823	0.048	0.073
-321.070	285.683	-0.041	-0.074
-320.056	-200.000	0.031	-0.365
-319.041	-200.000	-0.022	-0.241
-318.026	-113.929	-0.087	0.017
-317.012	69.527	0.008	-0.008
-315.997	-127.360	0.274	0.040
-314.983	44.944	0.135	-0.124
-313.968	-200.000	-0.001	0.124
-312.953	-26.047	0.212	-0.124
-311.939	-200.000	-0.022	-0.224
-310.924	260.705	-0.128	0.220
-309.910	-200.000	-0.014	0.323
-308.895	800.000	-0.131	0.366
-307.880	38.193	-0.354	-0.313
-306.866	170.801	0.080	-0.113
-305.851	49.588	0.149	0.139
-304.837	800.000	-0.089	-0.263
-303.822	800.000	-0.031	0.103
-302.807	713.871	0.081	0.212
-301.793	800.000	-0.055	0.170
-300.778	463.753	0.014	0.030
-299.764	-19.518	-0.264	-0.162
-298.749	241.236	-0.221	0.367
-297.735	800.000	0.042	0.114
-296.720	-120.088	0.276	0.047
-295.705	70.874	0.167	-0.172
-294.691	800.000	0.024	-0.088
-293.676	389.790	-0.061	-0.126
-292.662	-46.542	-0.184	0.089
-291.647	9.061	-0.163	0.122
-290.632	2.000	0.246	0.176
-289.618	361.989	-0.047	0.093
-288.603	170.620	-0.144	-0.204
-287.589	-200.000	-0.006	-0.125
-286.574	800.000	0.031	0.123
-285.559	231.212	0.088	0.143
-284.545	800.000	-0.032	0.097
-283.530	484.750	0.033	-0.074
-282.516	-200.000	0.020	-0.468
-281.501	-159.505	0.226	0.012
-280.486	800.000	0.085	-0.251
-279.472	500.542	-0.069	0.157
-278.457	107.580	0.157	0.185
-277.443	252.559	0.075	0.127
-276.428	-6.356	-0.130	0.088
-275.413	42.464	0.135	-0.121
-274.399	-82.606	-0.366	0.118
-273.384	-128.901	0.303	-0.042
-272.370	-107.719	-0.109	-0.023
-271.355	-14.193	0.211	-0.135
-270.340	-124.752	0.079	-0.012
-269.326	-200.000	-0.022	-0.442
-268.311	-84.414	-0.140	0.044
-267.297	-33.204	0.029	-0.016
-266.282	-135.866	0.244	-0.029
-265.267	-200.000	0.027	-0.358
-264.253	240.653	0.136	0.225
-263.238	-47.651	-0.341	0.164
-262.224	61.648	-0.189	-0.186
-261.209	26.955	-0.216	-0.180
-260.195	800.000	-0.050	-0.172
-259.180	-200.000	-0.007	-0.216
-258.165	-106.756	0.364	-0.080
-257.151	124.352	0.132	-0.164
-256.136	-200.000	0.015	0.296
-255.122	34.199	-0.056	-0.048
-254.107	-200.000	0.061	0.288
-253.092	-180.158	-0.042	0.001
-252.078	-10.774	0.114	0.075
-251.063	316.464	0.085	-0.159
-250.049	-73.211	0.341	-0.124
-249.034	-91.737	0.339	-0.095
-248.019	-114.333	0.120	-0.023
-247.005	137.143	0.113	0.146
-245.990	-17.170	0.165	0.103
-244.976	453.597	-0.141	0.308
-243.961	-200.000	0.003	0.041
-242.946	161.692	-0.150	0.207
-241.932	-155.758	-0.137	-0.009
-240.917	-88.382	-0.040	0.012
-239.903	307.314	-0.055	-0.101
-238.888	-31.016	0.400	-0.223
-237.873	-101.434	-0.011	0.003
-236.859	-200.000	-0.017	-0.117
-235.844	234.011	-0.133	-0.217
-234.830	40.685	0.038	-0.034
-233.815	800.000	0.054	0.164
-232.800	85.515	-0.084	0.092
-231.786	-59.836	-0.242	0.102
-230.771	724.121	0.035	0.092
-229.757	-52.892	-0.157	-0.071
-228.742	-58.737	0.281	0.120
-227.727	-60.139	0.266	0.112
-226.713	-142.123	-0.203	-0.020
-225.698	-200.000	-0.094	-0.492
-224.684	81.369	0.129	0.138
-223.669	2.199	-0.214	0.153
-222.655	345.368	-0.086	0.167
-221.640	70.624	-0.180	-0.184
-220.625	-200.000	0.002	0.052
-219.611	-200.000	0.048	0.578
-218.596	-45.425	0.322	0.158
-217.582	180.084	0.129	0.186
-216.567	-179.413	-0.151	-0.003
-215.552	274.117	0.047	-0.083
-214.538	16.466	-0.128	-0.100
-213.523	-120.133	0.214	0.036
-212.509	-13.865	-0.246	0.157
-211.494	409.643	-0.104	-0.218
-210.479	-122.988	0.071	-0.011
-209.465	-144.821	-0.279	-0.025
-208.450	-200.000	-0.031	0.231
-207.436	-181.548	0.493	0.009
-206.421	-128.770	-0.040	0.006
-205.406	-70.077	-0.327	-0.123
-204.392	92.764	-0.129	0.144
-203.377	800.000	0.061	0.260
-202.363	800.000	0.054	0.214
-201.348	800.000	0.046	0.193
-200.333	600.991	0.084	0.205
-199.319	800.000	-0.019	-0.076
-198.304	800.000	0.057	-0.177
-197.290	-200.000	0.010	0.184
-196.275	243.431	-0.128	0.212
-195.260	-28.094	-0.143	-0.082
-194.246	-124.868	-0.132	0.020
-193.231	397.803	0.229	-0.473
-192.217	31.042	0.070	0.059
-191.202	800.000	0.090	-0.268
-190.187	-200.000	-0.030	-0.290
-189.173	-53.683	0.120	0.054
-188.158	237.821	0.095	-0.155
-187.144	87.780	0.073	-0.080
-186.129	-41.959	0.201	-0.101
-185.114	-31.633	-0.254	0.141
-184.100	100.782	-0.112	-0.129
-183.085	18.461	0.310	0.244
-182.071	176.344	0.191	0.274
-181.056	61.021	-0.152	0.149
-180.042	-164.040	0.149	0.007
-179.027	97.548	0.243	0.275
-178.012	57.513	0.125	0.121
-176.998	-104.582	-0.235	-0.053
-175.983	800.000	-0.073	0.266
-174.969	-2.952	0.263	-0.181
-173.954	31.183	-0.351	0.297
-172.939	582.742	0.119	0.287
-171.925	115.063	-0.052	-0.063
-170.910	-200.000	0.057	-0.396
-169.896	-72.212	0.293	-0.107
-168.881	361.835	0.071	0.140
-167.866	-200.000	0.020	-0.110
-166.852	-200.000	0.003	0.290
-165.837	-71.621	-0.313	-0.115
-164.823	-71.676	0.268	0.099
-163.808	93.363	-0.214	-0.239
-162.793	800.000	-0.075	0.238
-161.779	-160.420	-0.622	0.033
-160.764	-200.000	0.048	-0.266
-159.750	561.947	0.023	0.056
-158.735	122.208	0.140	0.173
-157.720	134.187	-0.059	0.076
-156.706	-101.924	-0.295	-0.070
-155.691	-200.000	-0.066	-0.290
-154.677	-97.939	-0.037	0.009
-153.662	-200.000	0.020	0.168
-152.647	162.443	-0.158	-0.218
-151.633	-131.273	-0.383	-0.050
-150.618	208.137	0.222	0.342
-149.604	-200.000	0.037	-0.173
-148.589	-65.989	0.358	-0.141
-147.574	-141.543	0.347	0.035
-146.560	-200.000	-0.035	-0.288
-145.545	98.173	0.025	0.028
-144.531	-15.455	-0.282	-0.178
-143.516	161.199	0.171	0.236
-142.502	291.232	0.143	0.256
-141.487	68.765	0.117	-0.118
-140.472	98.450	0.215	0.244
-139.458	-200.000	0.013	0.141
-138.443	28.105	-0.223	0.185
-137.429	66.125	0.022	-0.022
-136.414	224.711	0.094	-0.150
-135.399	-165.422	0.282	0.012
-134.385	-200.000	0.027	-0.315
-133.370	-45.398	0.218	-0.106
-132.356	58.672	-0.053	-0.052
-131.341	441.071	0.200	-0.431
-130.326	345.897	0.017	0.033
-129.312	800.000	0.112	-0.355
-128.297	-87.644	-0.295	0.088
-127.283	-122.243	-0.363	0.058
-126.268	-126.371	-0.331	-0.049
-125.253	-200.000	-0.009	0.235
-124.239	167.086	-0.117	-0.163
-123.224	-67.112	-0.229	-0.089
