DTS Sentinel unit serial number:	SN413079Multiplexer serial number:	ORYXHardware model number:	OX4-SRSoftware version number:	ORYX F/W v4.00 Oryx Data Collector v3.7.2.0data status	okinstallation	princeton_trtdifferential loss correction	single-endedforward channel	channel 3reverse channel	N/Adate	2019/09/11time	12:54:11forward acquisition time	60.00reverse acquisition time	0.00gamma	496.2192k internal	0.2294k external	0.2294temperature offset calibration	0.9936default loss term (dB/km)	0.3790temperature slope calibration	1.0000multiplexer offset coefficient	1.0000multiplexer slope coefficient	1.0000fibre end	0.00T internal ref (°C)	41.36T ext. ref 1 (°C)	0.23T ext. ref 2 (°C)	38.76length (m)	temperature (°C)	Stokes	anti-Stokes-747.200	-200.000	0.010	0.237
-746.185	800.000	-0.037	0.158
-745.171	545.995	-0.018	-0.044
-744.156	-200.000	-0.035	0.307
-743.142	800.000	-0.075	-0.223
-742.127	800.000	-0.080	0.243
-741.112	139.067	0.143	0.193
-740.098	-147.753	-0.161	0.014
-739.083	41.024	0.182	0.168
-738.069	314.479	-0.204	0.392
-737.054	-111.927	-0.253	-0.052
-736.039	268.596	0.109	0.196
-735.025	518.048	0.062	0.148
-734.010	55.892	-0.108	0.107
-732.996	-200.000	0.050	-0.249
-731.981	-16.625	-0.310	0.201
-730.966	-200.000	-0.011	0.080
-729.952	-34.014	0.298	-0.167
-728.937	375.035	0.067	0.139
-727.923	-95.818	-0.483	0.132
-726.908	80.188	0.073	0.080
-725.894	425.823	-0.162	-0.357
-724.879	-91.002	-0.161	0.047
-723.864	141.828	-0.097	0.131
-722.850	107.987	0.094	-0.114
-721.835	-200.000	0.031	0.187
-720.821	304.658	0.102	-0.194
-719.806	-95.334	0.107	0.029
-718.791	-109.931	0.218	-0.047
-717.777	-86.905	-0.203	0.063
-716.762	25.528	-0.279	-0.237
-715.748	-112.822	0.104	0.021
-714.733	306.007	0.100	-0.189
-713.718	121.596	0.163	-0.207
-712.704	54.303	-0.140	0.138
-711.689	51.677	-0.280	-0.272
-710.675	-200.000	0.007	-0.650
-709.660	800.000	0.020	-0.087
-708.645	181.789	-0.075	-0.112
-707.631	141.512	0.051	-0.069
-706.616	-200.000	-0.008	-0.412
-705.602	-59.706	-0.212	-0.093
-704.587	-200.000	-0.004	-0.346
-703.572	-80.377	-0.234	0.080
-702.558	-66.269	-0.095	0.039
-701.543	351.595	-0.080	0.161
-700.529	227.160	-0.187	0.310
-699.514	11.118	-0.116	0.090
-698.499	-105.086	-0.193	0.045
-697.485	-135.952	0.400	-0.048
-696.470	34.474	-0.241	0.215
-695.456	-200.000	0.029	-0.131
-694.441	800.000	0.067	-0.298
-693.426	-7.518	-0.112	0.077
-692.412	-200.000	0.020	-0.249
-691.397	-29.861	0.393	-0.229
-690.383	-144.699	-0.210	-0.020
-689.368	-130.543	-0.059	0.008
-688.354	-114.262	-0.054	-0.011
-687.339	313.023	0.166	0.318
-686.324	-200.000	0.050	-0.251
-685.310	-69.217	0.109	-0.043
-684.295	670.221	0.099	-0.262
-683.281	198.615	0.059	-0.093
-682.266	-38.171	-0.183	-0.099
-681.251	169.095	-0.160	-0.233
-680.237	800.000	-0.035	0.129
-679.222	-77.899	-0.152	-0.053
-678.208	-135.412	-0.447	-0.054
-677.193	-17.463	0.206	0.132
-676.178	-155.745	-0.226	0.015
-675.164	5.381	0.098	-0.074
-674.149	8.103	-0.155	-0.119
-673.135	-12.095	-0.136	-0.091
-672.120	283.384	-0.165	0.303
-671.105	-36.220	0.130	-0.072
-670.091	76.223	-0.137	-0.148
-669.076	-200.000	-0.061	0.448
-668.062	-60.344	-0.366	-0.159
-667.047	-105.112	-0.173	0.040
-666.032	-69.908	-0.139	0.054
-665.018	-200.000	-0.023	-0.136
-664.003	-131.776	-0.580	0.077
-662.989	43.156	0.135	0.125
-661.974	394.646	-0.118	0.250
-660.959	-200.000	-0.004	-0.160
-659.945	177.322	-0.237	-0.351
-658.930	800.000	0.037	0.121
-657.916	319.984	0.064	-0.123
-656.901	66.254	0.153	-0.158
-655.886	61.197	0.199	-0.201
-654.872	-151.258	-0.356	0.027
-653.857	-97.003	-0.111	-0.030
-652.843	-3.722	0.320	0.227
-651.828	5.136	-0.234	-0.175
-650.814	57.679	-0.253	0.252
-649.799	-36.505	0.235	-0.129
-648.784	-101.721	0.240	0.059
-647.770	591.360	-0.024	-0.061
-646.755	-200.000	-0.017	-0.226
-645.741	-83.000	-0.273	0.090
-644.726	193.620	-0.242	0.373
-643.711	-200.000	0.064	0.327
-642.697	22.969	-0.274	-0.229
-641.682	-186.271	-0.344	-0.005
-640.668	-110.744	0.230	0.048
-639.653	338.700	-0.063	0.125
-638.638	-123.060	0.031	0.005
-637.624	508.849	0.026	0.063
-636.609	-200.000	0.030	0.176
-635.595	-96.543	-0.282	0.076
-634.580	-47.969	0.133	0.066
-633.565	23.271	0.088	-0.074
-632.551	-124.390	0.228	0.036
-631.536	563.525	-0.066	0.162
-630.522	639.118	0.073	0.188
-629.507	-157.258	-0.080	-0.005
-628.492	-200.000	-0.009	0.386
-627.478	800.000	0.064	-0.228
-626.463	-56.763	-0.243	-0.109
-625.449	380.539	-0.145	0.302
-624.434	49.888	-0.148	-0.142
-623.419	323.654	-0.125	0.244
-622.405	-200.000	-0.009	0.151
-621.390	281.371	-0.074	-0.135
-620.376	-1.220	0.114	-0.082
-619.361	-200.000	0.019	-0.097
-618.346	-200.000	0.000	0.133
-617.332	-5.159	-0.263	0.184
-616.317	787.296	-0.056	-0.158
-615.303	12.399	0.106	0.084
-614.288	-200.000	0.033	0.418
-613.273	-88.372	0.092	0.028
-612.259	27.062	0.142	0.121
-611.244	18.871	-0.234	0.191
-610.230	-200.000	-0.024	-0.244
-609.215	242.867	-0.047	0.079
-608.201	-20.269	0.055	-0.034
-607.186	-60.040	0.270	0.117
-606.171	-118.497	0.140	0.025
-605.157	-200.000	-0.029	0.168
-604.142	77.843	0.279	-0.302
-603.128	800.000	-0.112	0.336
-602.113	-6.822	0.455	-0.315
-601.098	-125.377	-0.129	0.020
-600.084	-91.614	-0.221	-0.064
-599.069	-42.638	-0.152	-0.079
-598.055	87.671	0.073	0.082
-597.040	43.931	-0.123	0.114
-596.025	-120.432	-0.182	-0.031
-595.011	73.775	0.177	-0.189
-593.996	150.296	-0.103	-0.142
-592.982	-40.369	-0.044	0.023
-591.967	44.113	0.064	0.059
-590.952	-2.575	0.186	-0.132
-589.938	48.393	-0.163	-0.155
-588.923	-32.041	0.222	-0.126
-587.909	-79.125	-0.490	0.169
-586.894	-137.454	-0.040	-0.005
-585.879	674.206	0.062	0.163
-584.865	800.000	-0.068	0.269
-583.850	-200.000	0.029	0.385
-582.836	800.000	0.026	-0.088
-581.821	-200.000	0.023	0.111
-580.806	406.707	-0.122	-0.262
-579.792	-200.000	0.001	-0.319
-578.777	800.000	0.075	-0.220
-577.763	75.217	-0.132	0.142
-576.748	-173.994	0.247	0.007
-575.733	-25.601	0.225	0.135
-574.719	-200.000	-0.010	0.100
-573.704	87.583	0.080	-0.090
-572.690	-5.776	0.150	-0.105
-571.675	400.631	0.079	-0.169
-570.661	66.346	-0.254	-0.262
-569.646	60.831	-0.143	-0.144
-568.631	-93.210	-0.236	-0.067
-567.617	-200.000	-0.024	-0.259
-566.602	31.724	0.175	0.153
-565.588	105.298	0.195	0.234
-564.573	-143.377	-0.338	0.033
-563.558	-200.000	-0.027	-0.142
-562.544	-200.000	0.022	0.214
-561.529	-16.732	0.133	0.086
-560.515	-200.000	-0.002	-0.135
-559.500	-39.482	0.248	-0.132
-558.485	-77.869	-0.143	-0.050
-557.471	-129.200	-0.174	-0.025
-556.456	339.801	0.071	0.140
-555.442	100.103	0.293	0.344
-554.427	-16.543	-0.069	0.044
-553.412	-200.000	-0.076	-0.374
-552.398	-162.843	0.321	-0.016
-551.383	606.606	-0.052	0.133
-550.369	126.872	0.087	0.112
-549.354	-146.777	0.301	0.026
-548.339	800.000	-0.083	0.368
-547.325	319.744	-0.056	0.108
-546.310	-33.258	-0.248	0.139
-545.296	-101.226	-0.465	-0.115
-544.281	48.660	0.201	0.191
-543.266	800.000	0.104	0.434
-542.252	800.000	0.058	0.174
-541.237	-116.029	-0.136	0.026
-540.223	244.702	0.051	-0.087
-539.208	-38.818	-0.154	0.083
-538.193	800.000	-0.064	-0.251
-537.179	-13.861	-0.184	0.121
-536.164	252.810	-0.077	0.133
-535.150	261.373	-0.162	0.284
-534.135	18.867	-0.186	0.151
-533.121	-200.000	0.033	0.165
-532.106	183.280	-0.084	0.126
-531.091	-44.014	-0.281	0.143
-530.077	-200.000	-0.014	-0.155
-529.062	-68.879	-0.054	-0.021
-528.048	-164.193	0.213	-0.010
-527.033	-200.000	0.018	0.166
-526.018	43.982	0.413	0.384
-525.004	-106.338	-0.323	-0.073
-523.989	96.221	-0.176	-0.204
-522.975	-200.000	0.015	0.102
-521.960	-131.525	0.124	0.017
-520.945	-175.760	-0.153	-0.004
-519.931	-7.301	0.140	-0.096
-518.916	372.921	-0.068	0.140
-517.902	-85.553	-0.166	-0.052
-516.887	-200.000	-0.027	0.196
-515.872	-112.980	-0.138	-0.028
-514.858	-157.644	0.200	0.012
-513.843	-200.000	0.036	-0.322
-512.829	-58.958	0.112	-0.049
-511.814	-89.311	-0.171	0.051
-510.799	-84.531	0.107	0.034
-509.785	-15.443	-0.364	-0.236
-508.770	800.000	0.047	-0.152
-507.756	27.925	0.341	-0.291
-506.741	412.759	0.095	-0.204
-505.726	-66.543	0.219	-0.088
-504.712	339.492	0.106	-0.209
-503.697	800.000	0.124	-0.467
-502.683	-2.627	-0.248	-0.176
-501.668	-9.262	0.269	-0.182
-500.653	-200.000	0.055	-0.273
-499.639	-87.989	0.235	0.071
-498.624	-68.363	0.152	0.060
-497.610	-123.938	0.201	-0.032
-496.595	-200.000	-0.034	-0.255
-495.581	100.067	-0.066	-0.078
-494.566	191.023	0.036	-0.054
-493.551	-145.875	-0.386	-0.035
-492.537	-133.689	0.338	-0.043
-491.522	-123.364	0.193	-0.031
-490.508	-115.332	0.261	-0.050
-489.493	552.752	0.088	0.215
-488.478	6.444	-0.283	0.213
-487.464	-75.457	0.157	0.057
-486.449	231.823	0.085	-0.140
-485.435	71.910	0.195	0.206
-484.420	163.317	-0.111	0.158
-483.405	-17.995	0.258	-0.164
-482.391	398.048	0.009	0.019
-481.376	-145.459	-0.110	-0.010
-480.362	237.557	-0.203	0.342
-479.347	-137.340	0.254	0.029
-478.332	-94.296	0.354	-0.098
-477.318	144.575	-0.126	0.170
-476.303	-54.737	-0.262	0.120
-475.289	46.891	0.063	-0.060
-474.274	-59.942	-0.206	0.089
-473.259	302.732	-0.040	-0.075
-472.245	-200.000	-0.007	0.107
-471.230	26.748	0.182	0.154
-470.216	25.865	-0.136	-0.115
-469.201	17.145	-0.089	-0.072
-468.186	-58.620	-0.323	0.142
-467.172	-106.200	-0.145	0.033
-466.157	800.000	0.060	-0.264
-465.143	800.000	-0.023	0.071
-464.128	181.753	0.266	0.396
-463.113	-126.735	-0.166	0.025
-462.099	800.000	0.019	-0.058
-461.084	-66.422	0.202	0.081
-460.070	-200.000	-0.060	-0.426
-459.055	184.727	0.273	-0.409
-458.040	-139.229	0.245	-0.027
-457.026	521.113	0.125	-0.297
-456.011	383.190	-0.156	-0.326
-454.997	146.483	-0.210	0.286
-453.982	-1.551	-0.064	0.045
-452.968	-67.531	0.280	0.111
-451.953	-54.302	0.138	-0.063
-450.938	-200.000	0.005	-0.050
-449.924	54.423	-0.119	-0.116
-448.909	-40.580	0.168	0.088
-447.895	-60.802	-0.133	-0.057
-446.880	72.994	0.233	-0.247
-445.865	0.544	-0.211	-0.152
-444.851	-200.000	-0.109	-0.502
-443.836	367.821	0.078	-0.159
-442.822	-200.000	-0.017	-0.196
-441.807	-90.407	-0.278	-0.082
-440.792	800.000	-0.061	0.222
-439.778	49.745	0.165	0.157
-438.763	-134.057	0.214	-0.027
-437.749	-8.100	-0.167	0.114
-436.734	-143.257	-0.180	0.017
-435.719	550.354	0.049	-0.119
-434.705	87.558	0.236	-0.264
-433.690	-42.364	-0.063	-0.032
-432.676	53.740	0.076	-0.074
-431.661	151.776	0.151	-0.208
-430.646	109.626	-0.201	-0.243
-429.632	605.387	0.084	-0.211
-428.617	11.848	-0.302	-0.234
-427.603	-75.765	0.177	0.064
-426.588	562.698	-0.010	-0.023
-425.573	154.040	0.105	0.146
-424.559	-54.261	-0.417	0.191
-423.544	800.000	0.091	0.293
-422.530	800.000	0.037	-0.109
-421.515	40.865	-0.205	-0.187
-420.500	-200.000	-0.059	-0.349
-419.486	800.000	-0.100	-0.280
-418.471	-110.625	-0.087	-0.018
-417.457	383.293	-0.015	0.031
-416.442	-200.000	-0.015	-0.152
-415.428	-200.000	0.011	-0.220
-414.413	-13.319	0.252	-0.165
-413.398	553.179	-0.040	-0.098
-412.384	450.599	-0.042	0.094
-411.369	98.777	-0.306	-0.357
-410.355	124.550	0.252	-0.320
-409.340	30.270	0.284	-0.245
-408.325	-117.165	-0.042	0.008
-407.311	201.615	0.085	-0.132
-406.296	800.000	-0.040	-0.165
-405.282	34.975	0.156	-0.138
-404.267	-36.465	-0.273	0.148
-403.252	-200.000	-0.049	-0.274
-402.238	-21.793	-0.310	0.190
-401.223	780.513	0.048	-0.131
-400.209	121.006	-0.279	-0.350
-399.194	-98.475	-0.217	-0.056
-398.179	20.881	0.037	0.030
-397.165	-200.000	0.017	0.431
-396.150	-93.112	-0.173	-0.048
-395.136	-6.304	-0.194	0.133
-394.121	-142.282	0.294	0.029
-393.106	-134.893	-0.594	-0.072
-392.092	20.835	0.313	-0.256
-391.077	800.000	-0.038	0.124
-390.063	13.149	-0.388	0.303
-389.048	-23.185	-0.055	0.033
-388.033	67.459	0.184	-0.189
-387.019	87.636	0.213	0.238
-386.004	-0.917	0.241	-0.172
-384.990	-149.340	0.210	0.017
-383.975	-108.874	-0.388	0.084
-382.960	311.597	-0.090	-0.170
-381.946	-14.929	-0.239	-0.155
-380.931	-200.000	0.004	-0.021
-379.917	-54.400	0.327	-0.149
-378.902	36.350	-0.180	0.160
-377.888	-200.000	0.029	0.165
-376.873	542.920	0.114	0.274
-375.858	551.667	0.042	0.101
-374.844	64.972	0.043	-0.043
-373.829	216.018	0.097	-0.155
-372.815	-123.275	0.133	0.021
-371.800	19.761	0.204	0.165
-370.785	8.591	-0.227	0.172
-369.771	-152.738	-0.144	0.010
-368.756	-170.195	-0.195	0.007
-367.742	54.887	0.093	0.090
-366.727	-68.050	0.082	0.032
-365.712	68.760	0.192	-0.199
-364.698	-106.659	-0.200	0.045
-363.683	-200.000	-0.017	-0.145
-362.669	27.619	-0.143	0.121
-361.654	562.970	0.078	0.191
-360.639	43.589	-0.261	0.240
-359.625	296.303	0.069	0.128
-358.610	800.000	0.053	0.200
-357.596	-8.149	0.193	-0.131
-356.581	106.162	0.043	-0.051
-355.566	101.999	-0.122	0.144
-354.552	80.712	0.161	-0.175
-353.537	-76.313	-0.317	-0.113
-352.523	-91.291	-0.444	0.128
-351.508	-20.778	0.209	0.129
-350.493	369.558	0.186	0.379
-349.479	-149.235	-0.222	-0.018
-348.464	-71.568	-0.118	0.044
-347.450	6.784	-0.075	-0.056
-346.435	475.156	-0.118	-0.267
-345.420	6.213	-0.103	-0.077
-344.406	-118.497	-0.082	-0.015
-343.391	53.746	-0.092	0.089
-342.377	388.165	0.125	-0.261
-341.362	-152.874	-0.411	0.029
-340.348	146.318	-0.170	0.230
-339.333	-10.794	0.212	0.141
-338.318	-200.000	0.023	0.169
-337.304	19.681	0.210	-0.170
-336.289	-93.846	-0.218	0.060
-335.275	76.638	0.340	-0.362
-334.260	-200.000	0.318	-0.000
-333.245	-85.528	-0.136	0.042
-332.231	740.641	-0.136	0.368
-331.216	800.000	0.102	-0.302
-330.202	60.893	0.262	0.261
-329.187	14.238	-0.238	-0.186
-328.172	-29.232	0.129	-0.074
-327.158	97.367	0.151	0.174
-326.143	37.260	0.484	-0.431
-325.129	8.863	-0.152	-0.116
-324.114	-5.156	0.151	0.105
-323.099	-200.000	0.036	-0.199
-322.085	-200.000	-0.045	0.234
-321.070	-200.000	0.013	0.217
-320.056	-200.000	-0.027	-0.198
-319.041	66.755	-0.046	0.047
-318.026	47.131	-0.123	0.115
-317.012	134.727	-0.241	-0.315
-315.997	298.402	-0.160	-0.295
-314.983	-160.801	0.154	-0.008
-313.968	800.000	-0.041	0.119
-312.953	24.648	0.273	-0.227
-311.939	-45.327	0.284	-0.142
-310.924	503.809	0.089	0.206
-309.910	4.476	0.043	0.032
-308.895	-69.459	0.243	0.094
-307.880	-42.574	-0.264	-0.135
-306.866	-83.035	-0.065	-0.021
-305.851	-76.570	0.306	0.108
-304.837	-28.846	-0.238	0.137
-303.822	-27.254	-0.086	0.050
-302.807	166.645	0.137	-0.195
-301.793	-154.345	0.041	0.003
-300.778	50.616	-0.167	-0.159
-299.764	77.032	-0.124	0.133
-298.749	230.660	-0.205	-0.336
-297.735	-200.000	0.005	-0.280
-296.720	-135.702	0.204	-0.024
-295.705	82.478	-0.272	-0.297
-294.691	-135.369	-0.079	-0.010
-293.676	391.672	0.071	0.148
-292.662	55.211	0.228	0.222
-291.647	29.049	0.332	0.283
-290.632	-139.837	-0.211	-0.022
-289.618	-200.000	0.031	0.168
-288.603	-200.000	-0.024	0.327
-287.589	800.000	0.070	0.236
-286.574	-65.043	0.186	0.076
-285.559	-96.149	-0.267	-0.071
-284.545	-163.153	-0.165	0.008
-283.530	-48.317	0.152	0.073
-282.516	402.872	0.044	-0.092
-281.501	375.650	0.041	-0.083
-280.486	-22.984	0.024	0.015
-279.472	-17.852	0.264	0.166
-278.457	800.000	0.060	-0.209
-277.443	-89.336	-0.142	-0.042
-276.428	74.608	-0.067	0.070
-275.413	-158.341	-0.172	0.010
-274.399	800.000	0.017	-0.074
-273.384	-150.220	0.267	-0.021
-272.370	-200.000	-0.007	0.173
-271.355	401.617	-0.051	-0.107
-270.340	-55.484	0.042	-0.019
-269.326	-31.910	-0.120	0.067
-268.311	132.532	0.115	0.149
-267.297	251.400	0.088	0.151
-266.282	-128.595	0.155	0.022
-265.267	-198.403	0.261	-0.002
-264.253	303.311	-0.209	0.389
-263.238	-15.518	-0.102	0.066
-262.224	315.575	-0.079	0.150
-261.209	-154.015	-0.225	0.015
-260.195	-200.000	-0.056	0.337
-259.180	280.071	0.139	-0.249
-258.165	116.788	-0.093	0.114
-257.151	-92.245	0.302	0.085
-256.136	800.000	0.059	0.172
-255.122	28.235	-0.350	-0.297
-254.107	-19.083	-0.105	-0.066
-253.092	-164.202	0.076	0.004
-252.078	-200.000	-0.085	0.523
-251.063	-200.000	0.042	0.194
-250.049	-200.000	0.005	0.061
-249.034	-132.875	-0.051	0.006
-248.019	-83.352	-0.181	-0.058
-247.005	-138.270	-0.395	0.044
-245.990	-56.846	-0.159	-0.070
-244.976	25.723	0.147	-0.123
-243.961	-68.733	0.400	0.155
-242.946	-121.036	0.117	-0.020
-241.932	558.550	0.075	0.181
-240.917	-23.861	0.224	0.134
-239.903	-24.170	-0.062	-0.037
-238.888	-81.774	-0.070	-0.023
-237.873	236.468	0.136	0.226
-236.859	-76.363	0.493	0.174
-235.844	-200.000	0.018	-0.151
-234.830	124.563	0.233	0.294
-233.815	-52.641	-0.251	0.116
-232.800	-171.322	-0.243	-0.008
-231.786	800.000	-0.058	-0.162
-230.771	164.626	0.047	-0.066
-229.757	-9.060	0.113	-0.076
-228.742	186.481	0.033	-0.050
-227.727	-143.920	-0.146	-0.014
-226.713	-69.852	-0.144	-0.055
-225.698	-25.519	0.210	0.124
-224.684	-70.207	0.070	0.027
-223.669	-20.672	0.188	0.116
-222.655	452.193	0.033	-0.074
-221.640	-102.831	0.116	-0.028
-220.625	40.230	0.250	-0.226
-219.611	800.000	-0.028	0.101
-218.596	-200.000	-0.010	0.109
-217.582	-36.207	-0.239	-0.129
-216.567	-46.368	-0.375	0.185
-215.552	-6.144	0.144	0.099
-214.538	93.866	0.142	-0.162
-213.523	8.915	-0.198	0.150
-212.509	248.013	0.098	0.166
-211.494	-105.879	-0.272	0.061
-210.479	-42.225	0.234	-0.120
-209.465	195.846	-0.071	-0.109
-208.450	-113.493	-0.147	-0.029
-207.436	-200.000	0.038	0.303
-206.421	-180.597	0.351	0.007
-205.406	-113.700	0.241	0.047
-204.392	-200.000	0.090	-0.661
-203.377	49.272	0.160	0.150
-202.363	145.677	-0.019	-0.026
-201.348	350.110	-0.178	-0.353
-200.333	-200.000	0.006	0.209
-199.319	-38.016	-0.316	0.168
-198.304	-200.000	-0.009	-0.502
-197.290	-117.156	0.364	-0.066
-196.275	-98.214	0.142	0.037
-195.260	-36.660	-0.067	-0.036
-194.246	-123.206	-0.143	-0.023
-193.231	-71.142	0.188	0.071
-192.217	147.655	0.212	0.285
-191.202	282.292	0.106	0.190
-190.187	81.299	-0.461	-0.498
-189.173	-126.444	-0.083	-0.012
-188.158	-92.837	0.210	0.059
-187.144	-7.251	-0.309	0.210
-186.129	49.790	-0.102	-0.096
-185.114	-200.000	-0.034	0.243
-184.100	-200.000	-0.019	-0.198
-183.085	-135.933	-0.368	-0.043
-182.071	-94.423	-0.391	-0.107
-181.056	-200.000	0.184	0.001
-180.042	266.844	-0.023	-0.040
-179.027	-200.000	0.073	-0.359
-178.012	800.000	-0.053	-0.171
-176.998	-48.504	0.131	-0.063
-175.983	70.210	-0.144	-0.149
-174.969	179.512	-0.161	-0.236
-173.954	207.487	0.220	0.344
-172.939	-41.822	-0.116	-0.059
-171.925	-155.892	0.340	-0.022
-170.910	93.626	0.207	0.234
-169.896	-21.047	0.058	-0.036
-168.881	800.000	-0.053	-0.186
-167.866	16.754	-0.237	0.188
-166.852	-140.649	0.202	-0.021
-165.837	-49.532	-0.118	-0.056
-164.823	51.003	-0.059	0.056
-163.808	266.747	0.146	0.255
-162.793	0.460	0.272	0.195
-161.779	-200.000	-0.006	-0.214
-160.764	217.147	-0.214	0.341
-159.750	-71.537	0.247	-0.092
-158.735	256.701	-0.196	-0.336
-157.720	-37.983	-0.175	-0.093
-156.706	-200.000	0.049	0.227
-155.691	-118.134	0.017	-0.003
-154.677	286.152	0.050	-0.091
-153.662	-200.000	0.036	0.188
-152.647	-123.496	0.188	0.030
-151.633	56.924	0.147	0.143
-150.618	-30.511	0.385	0.218
-149.604	-157.233	0.208	-0.013
-148.589	130.548	-0.117	0.150
-147.574	77.274	0.198	-0.210
-146.560	231.029	-0.050	0.081
-145.545	-200.000	-0.008	0.139
-144.531	39.662	-0.189	0.169
-143.516	-97.927	-0.172	0.044
-142.502	-4.308	0.290	0.200
-141.487	272.863	0.151	-0.267
-140.472	-200.000	-0.015	0.333
-139.458	-148.691	0.341	0.028
-138.443	-106.769	0.298	-0.066
-137.429	-15.580	0.295	-0.188
-136.414	-41.668	-0.405	0.208
-135.399	264.650	-0.037	-0.064
-134.385	560.316	-0.081	-0.195
-133.370	40.660	-0.267	-0.240
-132.356	-62.839	-0.062	0.025
-131.341	527.057	0.004	-0.010
-130.326	-117.372	-0.159	0.029
-129.312	800.000	-0.085	0.246
-128.297	-200.000	0.023	-0.260
-127.283	-122.709	-0.157	-0.025
-126.268	-100.116	-0.225	0.056
-125.253	754.293	-0.042	-0.113
-124.239	82.633	-0.245	0.265
-123.224	-47.714	-0.041	-0.020
-122.210	-200.000	0.046	0.228
-121.195	47.881	0.142	0.133
