DTS Sentinel unit serial number:	SN413079Multiplexer serial number:	ORYXHardware model number:	OX4-SRSoftware version number:	ORYX F/W v4.00 Oryx Data Collector v3.7.2.0data status	okinstallation	princeton_trtdifferential loss correction	single-endedforward channel	channel 3reverse channel	N/Adate	2019/09/11time	12:30:11forward acquisition time	60.00reverse acquisition time	0.00gamma	496.2192k internal	0.2294k external	0.2294temperature offset calibration	0.9932default loss term (dB/km)	0.3790temperature slope calibration	1.0000multiplexer offset coefficient	1.0000multiplexer slope coefficient	1.0000fibre end	0.00T internal ref (°C)	40.50T ext. ref 1 (°C)	0.22T ext. ref 2 (°C)	37.91length (m)	temperature (°C)	Stokes	anti-Stokes-747.200	166.122	0.077	-0.111
-746.185	-45.417	0.224	0.114
-745.171	-154.614	-0.151	-0.010
-744.156	-152.509	-0.257	0.019
-743.142	800.000	-0.030	0.101
-742.127	-54.875	-0.131	0.060
-741.112	-200.000	0.032	0.261
-740.098	290.915	-0.139	0.259
-739.083	310.424	-0.070	0.134
-738.069	736.075	-0.109	-0.298
-737.054	-200.000	-0.001	-0.298
-736.039	-200.000	-0.006	0.225
-735.025	33.288	-0.295	0.262
-734.010	32.882	-0.250	0.221
-732.996	-14.880	-0.278	-0.182
-731.981	800.000	0.153	0.435
-730.966	-170.206	-0.285	-0.010
-729.952	281.083	-0.125	-0.229
-728.937	-200.000	-0.043	0.249
-727.923	25.348	-0.060	0.051
-726.908	-161.061	0.281	-0.015
-725.894	526.362	-0.098	0.236
-724.879	-74.934	-0.125	-0.046
-723.864	-200.000	-0.029	-0.263
-722.850	77.636	0.226	-0.246
-721.835	-27.504	-0.265	0.158
-720.821	58.298	-0.202	0.202
-719.806	800.000	0.045	-0.201
-718.791	-43.413	-0.335	-0.173
-717.777	-89.647	-0.163	-0.049
-716.762	-122.141	0.269	-0.045
-715.748	20.222	-0.197	0.162
-714.733	-138.430	0.151	0.017
-713.718	442.647	-0.105	0.235
-712.704	800.000	-0.038	0.165
-711.689	585.748	0.101	0.253
-710.675	-132.392	-0.281	0.037
-709.660	800.000	-0.037	-0.141
-708.645	-160.049	0.303	0.017
-707.631	216.444	-0.233	0.378
-706.616	-151.292	-0.265	-0.020
-705.602	55.874	-0.156	0.155
-704.587	5.611	-0.318	-0.240
-703.572	-200.000	-0.005	-0.378
-702.558	43.471	0.099	0.093
-701.543	-200.000	0.018	-0.129
-700.529	-200.000	0.054	-0.417
-699.514	223.448	-0.142	-0.234
-698.499	23.078	0.049	0.041
-697.485	170.317	0.071	-0.104
-696.470	-33.730	0.114	0.064
-695.456	-91.551	-0.132	-0.038
-694.441	-200.000	-0.013	0.259
-693.426	32.871	-0.261	-0.231
-692.412	-8.304	0.203	-0.140
-691.397	199.039	0.033	0.052
-690.383	584.680	0.173	-0.434
-689.368	-59.257	-0.225	0.099
-688.354	-43.975	-0.172	0.088
-687.339	-93.848	-0.234	-0.066
-686.324	-165.038	-0.178	0.008
-685.310	243.566	-0.125	0.213
-684.295	70.570	-0.044	-0.047
-683.281	-105.522	-0.128	0.030
-682.266	-200.000	-0.002	-0.052
-681.251	-60.284	-0.124	-0.054
-680.237	-55.599	0.160	-0.073
-679.222	-146.354	0.114	-0.010
-678.208	-24.222	-0.209	0.127
-677.193	-97.531	0.045	0.012
-676.178	-170.109	0.469	0.017
-675.164	-2.475	0.118	0.084
-674.149	-200.000	0.044	-0.288
-673.135	-11.336	0.343	0.230
-672.120	218.531	-0.144	0.235
-671.105	336.493	-0.134	-0.264
-670.091	444.935	0.109	-0.245
-669.076	-80.004	-0.315	-0.108
-668.062	401.497	-0.162	-0.347
-667.047	169.260	-0.169	0.246
-666.032	-38.948	-0.227	-0.122
-665.018	342.288	-0.042	0.084
-664.003	93.705	0.174	0.201
-662.989	284.243	0.177	0.325
-661.974	122.345	0.296	-0.377
-660.959	279.058	0.081	-0.147
-659.945	346.573	0.084	-0.169
-658.930	-25.141	-0.229	0.138
-657.916	-95.478	0.023	-0.006
-656.901	-132.101	-0.075	0.010
-655.886	-34.790	-0.109	-0.061
-654.872	-171.175	0.288	-0.010
-653.857	26.636	0.319	0.272
-652.843	85.262	-0.247	0.276
-651.828	-200.000	-0.018	0.090
-650.814	-65.730	0.140	-0.057
-649.799	-103.444	0.314	0.075
-648.784	-55.484	-0.279	-0.128
-647.770	36.156	-0.151	-0.136
-646.755	66.865	-0.034	-0.035
-645.741	-200.000	0.006	0.117
-644.726	-193.922	-0.335	0.003
-643.711	-200.000	0.010	-0.226
-642.697	-50.623	-0.200	-0.096
-641.682	-25.770	0.154	-0.092
-640.668	-9.800	0.107	-0.073
-639.653	-200.000	0.023	0.147
-638.638	-8.427	0.254	-0.174
-637.624	-200.000	0.018	-0.239
-636.609	-26.366	-0.287	0.172
-635.595	-200.000	-0.003	0.022
-634.580	173.497	0.078	-0.115
-633.565	-200.000	0.016	0.141
-632.551	-79.103	0.007	-0.002
-631.536	117.126	-0.036	-0.045
-630.522	-19.958	0.104	-0.065
-629.507	-77.223	0.231	0.082
-628.492	-200.000	0.046	-0.258
-627.478	-200.000	0.007	0.121
-626.463	-152.016	0.138	0.010
-625.449	-95.867	0.045	0.012
-624.434	471.794	-0.145	-0.332
-623.419	-92.324	0.111	-0.032
-622.405	46.160	-0.165	-0.156
-621.390	-200.000	0.038	0.193
-620.376	180.482	0.090	0.135
-619.361	-200.000	-0.023	0.114
-618.346	-40.909	-0.379	-0.200
-617.332	-133.046	0.073	-0.009
-616.317	-53.014	-0.097	0.046
-615.303	-200.000	-0.017	-0.089
-614.288	-65.349	-0.121	-0.050
-613.273	800.000	-0.077	0.255
-612.259	49.256	0.296	0.283
-611.244	-200.000	-0.048	-0.417
-610.230	82.143	0.133	-0.146
-609.215	174.766	0.202	0.297
-608.201	-109.641	-0.039	-0.008
-607.186	-71.722	-0.138	-0.053
-606.171	800.000	0.133	0.398
-605.157	-115.746	-0.049	-0.009
-604.142	-200.000	-0.000	-0.140
-603.128	29.042	-0.205	-0.177
-602.113	-10.062	0.284	-0.192
-601.098	-200.000	-0.025	0.163
-600.084	-200.000	-0.037	0.259
-599.069	-40.646	0.206	0.109
-598.055	347.958	0.062	0.124
-597.040	154.361	-0.138	-0.193
-596.025	115.893	-0.200	0.249
-595.011	-200.000	0.033	-0.267
-593.996	-81.206	-0.360	0.121
-592.982	-122.227	-0.034	0.006
-591.967	25.835	0.268	0.227
-590.952	283.537	-0.086	-0.157
-589.938	-104.095	-0.114	-0.027
-588.923	800.000	0.048	-0.177
-587.909	-14.652	0.269	0.176
-586.894	88.122	-0.054	-0.061
-585.879	-155.910	-0.041	-0.003
-584.865	-7.752	-0.200	0.138
-583.850	34.001	0.072	0.064
-582.836	800.000	-0.128	-0.523
-581.821	-15.382	-0.021	-0.014
-580.806	-131.965	-0.162	-0.021
-579.792	-63.752	-0.084	-0.035
-578.777	736.957	0.136	-0.369
-577.763	-49.193	0.063	-0.030
-576.748	-24.069	-0.245	0.149
-575.733	-87.038	0.139	0.043
-574.719	-200.000	-0.007	0.177
-573.704	-92.676	0.258	0.074
-572.690	342.617	-0.070	-0.139
-571.675	-200.000	0.010	-0.181
-570.661	-148.212	0.203	0.017
-569.646	31.743	0.030	0.026
-568.631	16.509	-0.088	-0.071
-567.617	800.000	-0.057	0.178
-566.602	-26.153	0.062	0.037
-565.588	135.213	0.107	-0.142
-564.573	113.169	0.086	0.106
-563.558	668.137	0.004	0.009
-562.544	-70.448	-0.241	-0.093
-561.529	29.517	-0.365	0.316
-560.515	-200.000	0.012	-0.206
-559.500	162.946	-0.116	0.165
-558.485	727.113	-0.034	-0.092
-557.471	-200.000	0.007	0.053
-556.456	62.758	-0.167	-0.170
-555.442	-200.000	0.002	0.159
-554.427	40.556	-0.134	0.123
-553.412	36.807	-0.255	-0.229
-552.398	-130.245	-0.417	-0.058
-551.383	-95.200	-0.367	-0.101
-550.369	-29.706	0.324	-0.188
-549.354	63.148	0.193	-0.196
-548.339	69.764	0.104	-0.108
-547.325	41.768	-0.291	0.268
-546.310	473.346	-0.072	0.165
-545.296	44.717	0.223	-0.208
-544.281	-200.000	-0.012	0.068
-543.266	-15.002	0.268	-0.174
-542.252	-16.616	-0.133	-0.085
-541.237	-100.054	-0.222	0.056
-540.223	50.386	0.177	-0.169
-539.208	-122.483	-0.033	0.005
-538.193	-99.205	-0.229	-0.059
-537.179	-74.758	-0.483	0.176
-536.164	800.000	0.038	-0.139
-535.150	-200.000	0.008	-0.087
-534.135	-182.080	-0.096	-0.002
-533.121	198.958	-0.166	-0.259
-532.106	800.000	0.069	0.216
-531.091	-9.989	-0.077	0.052
-530.077	63.523	-0.137	-0.139
-529.062	199.432	0.263	0.409
-528.048	151.132	0.077	-0.107
-527.033	-2.853	-0.201	-0.142
-526.018	-47.191	-0.222	-0.110
-525.004	582.098	-0.070	-0.175
-523.989	18.652	-0.180	-0.146
-522.975	800.000	0.041	-0.169
-521.960	-130.254	-0.153	-0.021
-520.945	215.103	0.122	0.196
-519.931	61.363	0.066	0.066
-518.916	-200.000	0.017	0.220
-517.902	47.482	-0.039	0.037
-516.887	16.677	0.249	-0.200
-515.872	70.709	0.083	0.087
-514.858	246.525	-0.119	-0.203
-513.843	208.631	0.070	-0.111
-512.829	-200.000	0.409	-0.001
-511.814	-47.816	-0.282	-0.138
-510.799	-43.469	0.141	0.072
-509.785	-150.193	0.273	0.021
-508.770	-98.596	-0.191	-0.049
-507.756	-71.227	-0.569	-0.217
-506.741	-32.313	-0.125	0.071
-505.726	800.000	-0.019	-0.061
-504.712	26.424	-0.031	-0.026
-503.697	-111.522	-0.216	-0.045
-502.683	-10.595	-0.134	0.090
-501.668	-47.567	-0.137	0.068
-500.653	800.000	0.072	0.277
-499.639	-200.000	-0.006	-0.030
-498.624	-200.000	-0.012	-0.284
-497.610	-200.000	0.038	0.362
-496.595	-37.263	-0.152	-0.082
-495.581	-200.000	-0.020	-0.148
-494.566	264.530	0.115	0.203
-493.551	80.634	0.355	-0.388
-492.537	800.000	0.074	-0.325
-491.522	107.451	-0.109	-0.131
-490.508	79.887	-0.141	0.154
-489.493	302.083	0.153	0.287
-488.478	85.074	0.126	0.139
-487.464	-200.000	-0.008	-0.146
-486.449	-1.646	0.065	-0.046
-485.435	-33.515	0.225	0.126
-484.420	336.083	0.133	-0.260
-483.405	-161.405	-0.551	-0.029
-482.391	374.125	0.182	0.376
-481.376	-18.230	0.054	0.034
-480.362	65.239	-0.031	0.031
-479.347	154.324	0.252	-0.349
-478.332	-200.000	0.083	0.000
-477.318	118.693	0.176	-0.220
-476.303	542.156	0.079	0.191
-475.289	52.710	0.039	0.037
-474.274	-200.000	-0.027	0.203
-473.259	800.000	0.050	0.190
-472.245	-27.740	0.192	-0.113
-471.230	-67.379	0.139	-0.055
-470.216	329.841	0.058	-0.112
-469.201	-108.556	-0.380	-0.083
-468.186	-108.791	-0.025	-0.005
-467.172	-80.722	0.248	-0.083
-466.157	-70.648	-0.267	-0.102
-465.143	800.000	0.098	0.286
-464.128	-200.000	0.019	-0.210
-463.113	648.817	-0.017	0.043
-462.099	149.540	-0.078	0.107
-461.084	209.560	0.100	0.159
-460.070	-63.362	-0.127	0.053
-459.055	756.685	-0.062	-0.170
-458.040	-18.902	-0.246	0.155
-457.026	-200.000	0.044	-0.445
-456.011	-49.303	0.100	-0.048
-454.997	793.151	0.108	-0.301
-453.982	-61.526	-0.316	0.134
-452.968	-200.000	-0.016	0.359
-451.953	-114.734	-0.173	-0.033
-450.938	-74.715	0.282	0.102
-449.924	194.806	-0.046	0.071
-448.909	-180.009	-0.135	0.003
-447.895	800.000	-0.111	0.325
-446.880	-126.400	0.256	-0.039
-445.865	-200.000	-0.037	0.239
-444.851	-200.000	0.026	0.200
-443.836	-200.000	0.009	-0.113
-442.822	-97.052	0.202	0.053
-441.807	-113.477	0.157	-0.031
-440.792	198.361	0.109	-0.168
-439.778	-200.000	0.023	0.148
-438.763	-18.432	0.122	0.077
-437.749	111.562	0.093	-0.113
-436.734	800.000	-0.025	0.100
-435.719	800.000	-0.019	0.082
-434.705	406.084	-0.121	0.257
-433.690	800.000	-0.032	0.129
-432.676	-200.000	0.129	0.000
-431.661	200.935	-0.193	0.300
-430.646	-53.527	0.145	0.067
-429.632	94.189	0.297	-0.341
-428.617	-52.087	0.091	0.043
-427.603	-109.109	-0.341	-0.073
-426.588	-58.681	-0.112	0.049
-425.573	-131.922	0.189	0.025
-424.559	103.221	0.108	0.128
-423.544	-68.220	-0.041	0.016
-422.530	-21.417	0.149	-0.092
-421.515	18.693	-0.371	-0.300
-420.500	187.506	-0.086	-0.130
-419.486	-84.084	0.125	0.040
-418.471	-200.000	-0.030	-0.428
-417.457	-55.964	0.310	-0.140
-416.442	-106.910	-0.224	-0.050
-415.428	46.892	-0.257	-0.242
-414.413	67.065	0.105	0.108
-413.398	180.599	0.176	-0.260
-412.384	800.000	0.054	-0.200
-411.369	-163.639	-0.443	0.021
-410.355	-124.394	0.068	-0.011
-409.340	41.461	0.243	0.222
-408.325	599.388	-0.053	-0.134
-407.311	-200.000	-0.012	-0.125
-406.296	34.821	-0.220	0.194
-405.282	68.678	0.071	-0.074
-404.267	800.000	0.014	0.039
-403.252	65.462	-0.232	-0.237
-402.238	-23.558	-0.071	-0.043
-401.223	-92.484	0.347	0.098
-400.209	22.352	0.204	-0.168
-399.194	-200.000	-0.025	0.178
-398.179	120.919	-0.071	0.089
-397.165	-200.000	-0.098	0.446
-396.150	800.000	-0.023	0.100
-395.136	409.098	0.106	-0.227
-394.121	-200.000	0.006	0.287
-393.106	374.769	-0.038	-0.078
-392.092	34.470	-0.146	-0.129
-391.077	611.640	0.098	0.247
-390.063	-176.794	0.500	-0.013
-389.048	213.142	0.101	-0.161
-388.033	-200.000	0.040	0.285
-387.019	157.049	-0.083	0.115
-386.004	-200.000	-0.056	0.572
-384.990	416.277	0.066	0.143
-383.975	-90.167	-0.238	-0.070
-382.960	-200.000	-0.023	-0.188
-381.946	800.000	-0.022	0.084
-380.931	-200.000	0.033	-0.172
-379.917	-200.000	0.043	-0.271
-378.902	231.603	-0.070	-0.115
-377.888	-200.000	0.012	0.187
-376.873	37.232	0.100	0.090
-375.858	275.040	0.089	0.160
-374.844	-72.721	0.605	-0.225
-373.829	800.000	0.052	-0.158
-372.815	-95.422	0.131	-0.036
-371.800	800.000	-0.109	0.475
-370.785	-22.375	0.090	0.055
-369.771	57.905	-0.191	0.188
-368.756	87.810	0.079	0.089
-367.742	777.343	0.079	-0.219
-366.727	-200.000	-0.024	-0.315
-365.712	19.983	-0.113	-0.092
-364.698	800.000	-0.063	-0.278
-363.683	-106.727	-0.158	-0.035
-362.669	-117.045	0.256	-0.047
-361.654	116.238	0.119	-0.147
-360.639	-55.675	0.148	0.067
-359.625	-200.000	0.005	-0.044
-358.610	800.000	0.019	-0.061
-357.596	27.447	0.181	0.153
-356.581	-200.000	0.039	0.209
-355.566	-30.568	0.139	0.080
-354.552	-136.123	-0.165	0.019
-353.537	724.483	-0.084	0.226
-352.523	-23.468	-0.189	-0.114
-351.508	-176.768	-0.807	0.021
-350.493	154.775	0.109	0.151
-349.479	72.398	0.324	0.340
-348.464	-200.000	0.012	-0.061
-347.450	240.935	0.117	0.196
-346.435	-200.000	0.005	0.252
-345.420	8.343	-0.269	0.203
-344.406	17.595	-0.319	-0.255
-343.391	-132.814	0.144	-0.018
-342.377	635.900	-0.133	-0.339
-341.362	19.142	-0.181	-0.146
-340.348	0.138	0.150	0.108
-339.333	-200.000	-0.003	-0.230
-338.318	297.672	0.160	-0.296
-337.304	-86.964	-0.320	-0.098
-336.289	-127.526	-0.288	0.042
-335.275	800.000	0.040	0.169
-334.260	-93.330	0.421	0.117
-333.245	800.000	-0.037	0.108
-332.231	-200.000	-0.010	-0.095
-331.216	10.776	0.133	0.102
-330.202	-200.000	0.006	0.156
-329.187	-1.541	-0.144	-0.102
-328.172	8.764	-0.170	0.129
-327.158	109.499	-0.177	-0.214
-326.143	168.142	-0.090	0.129
-325.129	-91.401	0.191	0.055
-324.114	-76.041	0.195	-0.069
-323.099	800.000	-0.075	-0.286
-322.085	42.465	0.131	-0.120
-321.070	800.000	0.048	-0.151
-320.056	-118.684	0.075	0.013
-319.041	-200.000	0.028	-0.187
-318.026	112.150	-0.023	0.027
-317.012	-27.993	0.279	0.162
-315.997	-200.000	0.025	0.199
-314.983	-59.788	-0.189	0.081
-313.968	62.689	0.093	0.093
-312.953	800.000	0.075	-0.214
-311.939	-200.000	0.019	-0.253
-310.924	-26.782	0.244	-0.144
-309.910	56.630	0.100	0.098
-308.895	10.357	-0.250	-0.191
-307.880	105.345	-0.017	0.020
-306.866	-200.000	-0.023	-0.255
-305.851	61.096	0.210	0.210
-304.837	-200.000	-0.044	0.225
-303.822	-200.000	-0.026	0.279
-302.807	37.676	-0.214	0.191
-301.793	286.341	0.214	0.387
-300.778	287.442	0.074	0.135
-299.764	356.980	0.182	0.365
-298.749	800.000	-0.135	-0.493
-297.735	204.529	0.150	-0.234
-296.720	-6.025	-0.394	-0.271
-295.705	157.139	-0.153	0.213
-294.691	-200.000	0.025	0.212
-293.676	379.543	0.048	0.098
-292.662	-50.751	0.146	-0.069
-291.647	465.730	-0.050	-0.113
-290.632	344.382	0.189	0.373
-289.618	-200.000	-0.003	-0.025
-288.603	65.345	0.148	-0.151
-287.589	-112.503	-0.037	0.007
-286.574	-200.000	0.027	-0.286
-285.559	-156.009	0.246	-0.016
-284.545	-94.920	-0.121	-0.033
-283.530	179.281	-0.107	0.158
-282.516	-23.040	0.223	0.135
-281.501	3.358	0.183	0.133
-280.486	-77.386	0.322	0.112
-279.472	-29.520	-0.193	-0.111
-278.457	188.017	0.142	0.214
-277.443	-56.239	0.129	-0.058
-276.428	601.916	0.083	-0.206
-275.413	-200.000	-0.095	-0.472
-274.399	-85.297	0.153	0.048
-273.384	800.000	-0.065	-0.201
-272.370	93.753	0.120	0.137
-271.355	144.286	0.136	-0.182
-270.340	61.115	-0.120	-0.120
-269.326	83.068	0.144	0.157
-268.311	-200.000	-0.068	0.309
-267.297	-200.000	0.007	0.133
-266.282	800.000	-0.049	-0.161
-265.267	-175.730	-0.070	-0.002
-264.253	24.670	0.136	0.113
-263.238	10.996	-0.352	0.270
-262.224	152.075	0.103	0.141
-261.209	-163.565	0.144	0.007
-260.195	-52.720	-0.096	0.044
-259.180	-109.089	0.304	0.065
-258.165	-144.258	-0.085	-0.008
-257.151	800.000	-0.035	-0.113
-256.136	-181.289	0.124	0.002
-255.122	-200.000	0.026	-0.190
-254.107	-31.869	0.276	-0.155
-253.092	-82.789	0.226	0.073
-252.078	243.299	0.094	-0.157
-251.063	-41.064	-0.209	-0.108
-250.049	-200.000	-0.023	0.426
-249.034	-65.285	0.066	0.027
-248.019	565.129	0.029	0.070
-247.005	-138.450	-0.270	-0.030
-245.990	-200.000	0.006	-0.378
-244.976	800.000	-0.039	-0.158
-243.961	-145.727	-0.049	-0.004
-242.946	-200.000	-0.036	-0.486
-241.932	212.799	0.089	-0.141
-240.917	-21.766	-0.103	0.063
-239.903	-99.168	0.339	0.086
-238.888	36.392	0.122	-0.108
-237.873	-200.000	0.015	0.299
-236.859	74.737	0.038	-0.040
-235.844	0.107	0.259	0.185
-234.830	-60.054	-0.259	0.111
-233.815	214.521	-0.174	-0.276
-232.800	213.547	-0.073	0.116
-231.786	-160.994	0.153	-0.008
-230.771	-119.619	-0.613	0.106
-229.757	135.121	-0.055	0.071
-228.742	-200.000	0.016	-0.213
-227.727	-165.165	0.189	-0.008
-226.713	441.141	-0.026	0.057
-225.698	-54.539	-0.125	0.057
-224.684	-110.362	0.407	0.085
-223.669	-200.000	-0.027	0.278
-222.655	-200.000	0.002	-0.254
-221.640	800.000	0.048	-0.181
-220.625	-174.056	-0.095	-0.003
-219.611	-46.926	0.150	0.074
-218.596	91.424	0.069	-0.077
-217.582	800.000	-0.068	0.269
-216.567	-86.210	-0.022	-0.007
-215.552	-0.337	-0.205	0.146
-214.538	392.631	0.106	-0.220
-213.523	800.000	0.106	0.314
-212.509	319.102	0.059	0.112
-211.494	800.000	0.067	0.230
-210.479	28.233	0.046	-0.039
-209.465	800.000	0.013	0.051
-208.450	-200.000	0.015	-0.123
-207.436	-67.831	0.073	-0.029
-206.421	-157.325	-0.236	0.014
-205.406	-200.000	0.000	0.494
-204.392	-141.919	0.256	-0.026
-203.377	-67.082	-0.200	-0.079
-202.363	-200.000	-0.068	-0.310
-201.348	-66.837	-0.353	0.140
-200.333	-200.000	0.031	-0.327
-199.319	800.000	-0.101	-0.343
-198.304	-125.483	-0.144	-0.022
-197.290	17.345	0.188	0.149
-196.275	-56.876	-0.193	0.085
-195.260	114.428	-0.165	-0.201
-194.246	-86.469	0.154	0.047
-193.231	-200.000	0.014	0.084
-192.217	-200.000	0.007	0.255
-191.202	-154.453	0.311	-0.021
-190.187	800.000	0.067	-0.216
-189.173	-200.000	-0.001	-0.065
-188.158	-200.000	-0.014	0.282
-187.144	-79.932	0.165	0.055
-186.129	800.000	-0.039	-0.114
-185.114	-200.000	-0.001	0.223
-184.100	-44.629	0.195	0.097
-183.085	-36.188	-0.157	-0.085
-182.071	449.995	-0.078	0.173
-181.056	-200.000	-0.058	-0.291
-180.042	-200.000	0.001	-0.211
-179.027	224.718	0.251	0.406
-178.012	122.894	0.182	-0.228
-176.998	-95.947	0.100	-0.027
-175.983	-31.023	-0.037	0.021
-174.969	358.641	0.142	0.285
-173.954	-200.000	-0.041	0.242
-172.939	-153.086	-0.533	-0.037
-171.925	800.000	0.087	0.290
-170.910	-45.345	0.143	-0.071
-169.896	23.651	0.204	0.168
-168.881	-129.910	-0.381	-0.052
-167.866	0.390	-0.194	-0.139
-166.852	800.000	-0.082	-0.295
-165.837	42.278	-0.242	0.220
-164.823	-10.805	-0.224	0.148
-163.808	338.138	0.068	0.133
-162.793	-59.422	-0.128	-0.055
-161.779	-108.548	0.251	-0.054
-160.764	6.388	-0.043	-0.032
-159.750	639.925	-0.108	-0.276
-158.735	20.371	0.159	0.128
-157.720	-72.867	0.188	0.069
-156.706	-53.663	0.323	0.148
-155.691	28.282	-0.291	-0.246
-154.677	800.000	-0.042	0.156
-153.662	800.000	-0.059	0.229
-152.647	4.922	-0.142	-0.105
-151.633	800.000	-0.119	0.351
-150.618	204.787	0.046	-0.072
-149.604	-36.842	0.301	-0.161
-148.589	800.000	-0.049	0.215
-147.574	-100.965	-0.143	-0.035
-146.560	498.642	-0.192	-0.443
-145.545	-200.000	0.025	-0.383
-144.531	159.511	0.244	-0.339
-143.516	-134.827	-0.300	0.036
-142.502	-6.149	0.096	0.065
-141.487	24.410	0.111	0.092
-140.472	-121.681	-0.065	0.011
-139.458	-14.789	-0.333	0.213
-138.443	611.574	-0.114	0.285
-137.429	121.693	-0.251	0.313
-136.414	800.000	0.087	-0.296
-135.399	800.000	0.110	0.370
-134.385	-41.679	-0.162	0.083
-133.370	148.457	-0.043	0.058
-132.356	15.184	0.151	0.118
-131.341	-54.918	0.209	-0.094
-130.326	-200.000	0.014	-0.134
-129.312	184.709	-0.114	0.169
-128.297	138.490	-0.061	-0.080
-127.283	78.507	-0.117	0.125
-126.268	-200.000	-0.003	0.208
-125.253	-200.000	-0.011	0.115
-124.239	-109.574	-0.274	0.058
-123.224	-36.834	0.122	0.065
-122.210	13.642	-0.046	0.036
-121.195	-113.170	0.239	-0.047
