DTS Sentinel unit serial number:	SN413079Multiplexer serial number:	ORYXHardware model number:	OX4-SRSoftware version number:	ORYX F/W v4.00 Oryx Data Collector v3.7.2.0data status	okinstallation	princeton_trtdifferential loss correction	single-endedforward channel	channel 3reverse channel	N/Adate	2019/09/11time	10:22:11forward acquisition time	60.00reverse acquisition time	0.00gamma	496.2192k internal	0.2298k external	0.2298temperature offset calibration	0.9939default loss term (dB/km)	0.3790temperature slope calibration	1.0000multiplexer offset coefficient	1.0000multiplexer slope coefficient	1.0000fibre end	0.00T internal ref (°C)	36.16T ext. ref 1 (°C)	0.16T ext. ref 2 (°C)	32.74length (m)	temperature (°C)	Stokes	anti-Stokes-747.200	-200.000	0.004	-0.103
-746.185	132.345	-0.059	0.078
-745.171	12.806	0.123	-0.097
-744.156	14.951	-0.253	0.202
-743.142	-135.347	0.128	-0.016
-742.127	-175.608	-0.020	0.001
-741.112	-107.512	-0.063	-0.014
-740.098	-37.907	-0.219	-0.119
-739.083	493.940	0.050	-0.117
-738.069	-138.704	-0.277	0.031
-737.054	-97.963	-0.448	0.118
-736.039	-136.366	-0.199	-0.024
-735.025	800.000	-0.078	0.246
-734.010	-131.943	-0.121	-0.016
-732.996	-200.000	-0.030	0.235
-731.981	-200.000	0.008	0.258
-730.966	-85.001	-0.110	0.035
-729.952	25.177	0.191	0.162
-728.937	-185.511	-0.196	-0.003
-727.923	146.194	-0.180	0.247
-726.908	-113.661	-0.135	0.027
-725.894	38.234	0.113	0.103
-724.879	678.127	0.110	-0.291
-723.864	2.487	0.008	-0.006
-722.850	-119.277	-0.283	-0.050
-721.835	50.280	-0.233	0.225
-720.821	-66.177	0.072	-0.029
-719.806	-42.774	-0.396	-0.205
-718.791	800.000	0.068	-0.247
-717.777	800.000	0.089	-0.296
-716.762	-200.000	0.006	0.205
-715.748	-11.164	0.341	-0.229
-714.733	-200.000	-0.011	-0.158
-713.718	167.503	-0.030	0.044
-712.704	800.000	-0.050	0.178
-711.689	-7.318	-0.329	-0.227
-710.675	128.390	0.047	-0.061
-709.660	-84.705	0.326	-0.105
-708.645	-65.597	0.045	-0.018
-707.631	-54.802	-0.050	-0.023
-706.616	230.215	0.068	-0.114
-705.602	122.028	-0.124	0.158
-704.587	238.844	-0.161	-0.273
-703.572	-200.000	-0.010	-0.215
-702.558	-130.386	-0.088	-0.012
-701.543	56.176	0.115	0.114
-700.529	-200.000	-0.006	-0.287
-699.514	-200.000	-0.000	-0.121
-698.499	179.309	-0.068	0.102
-697.485	22.638	-0.204	-0.170
-696.470	-54.400	-0.378	-0.175
-695.456	-200.000	-0.035	-0.215
-694.441	-5.543	-0.279	-0.195
-693.426	149.246	-0.021	0.029
-692.412	-200.000	0.002	0.074
-691.397	99.075	0.095	0.111
-690.383	491.127	-0.090	-0.210
-689.368	605.469	0.101	0.255
-688.354	222.860	0.080	0.132
-687.339	-25.197	0.128	-0.077
-686.324	-200.000	-0.506	0.001
-685.310	6.313	0.048	0.036
-684.295	-79.158	-0.113	-0.039
-683.281	182.581	0.235	-0.352
-682.266	-27.266	-0.093	0.055
-681.251	288.182	0.127	0.233
-680.237	-97.340	-0.128	-0.034
-679.222	529.680	0.065	0.156
-678.208	77.546	0.057	-0.061
-677.193	-70.496	-0.281	0.108
-676.178	3.133	-0.197	-0.146
-675.164	-141.032	-0.462	0.048
-674.149	785.509	0.082	0.229
-673.135	401.614	-0.095	-0.202
-672.120	643.116	-0.105	0.271
-671.105	-177.250	0.119	-0.003
-670.091	56.582	-0.120	0.119
-669.076	-49.086	-0.350	-0.170
-668.062	-54.504	-0.185	-0.085
-667.047	358.694	0.146	-0.296
-666.032	121.338	0.065	0.083
-665.018	-71.562	0.203	0.077
-664.003	-200.000	-0.331	-0.001
-662.989	-40.929	-0.145	0.076
-661.974	-65.603	-0.066	-0.027
-660.959	512.150	-0.167	0.396
-659.945	536.357	-0.043	0.103
-658.930	800.000	-0.052	-0.161
-657.916	568.140	0.026	-0.063
-656.901	-103.840	-0.067	-0.016
-655.886	800.000	-0.074	-0.319
-654.872	12.470	-0.102	0.080
-653.857	-200.000	0.007	-0.034
-652.843	-200.000	0.043	-0.292
-651.828	179.863	0.142	-0.212
-650.814	-124.196	0.309	-0.049
-649.799	800.000	-0.024	0.104
-648.784	-200.000	0.047	-0.265
-647.770	643.758	-0.101	-0.262
-646.755	94.179	-0.120	-0.139
-645.741	-150.081	0.196	0.015
-644.726	-200.000	-0.002	-0.240
-643.711	455.034	0.048	-0.108
-642.697	179.138	0.092	-0.137
-641.682	-200.000	0.002	-0.155
-640.668	153.810	0.154	-0.214
-639.653	-13.602	0.354	-0.233
-638.638	800.000	0.062	-0.268
-637.624	34.548	-0.117	-0.104
-636.609	115.763	-0.323	-0.402
-635.595	-200.000	-0.001	-0.165
-634.580	-31.967	0.122	-0.069
-633.565	-65.713	0.242	-0.099
-632.551	37.787	0.193	-0.174
-631.536	126.260	-0.170	-0.219
-630.522	-200.000	0.038	-0.210
-629.507	-57.887	-0.120	-0.053
-628.492	-125.342	0.289	-0.045
-627.478	18.009	-0.234	0.189
-626.463	-27.703	-0.271	-0.160
-625.449	-132.250	0.190	0.025
-624.434	-200.000	-0.002	0.174
-623.419	-137.304	0.547	0.063
-622.405	179.995	-0.088	0.130
-621.390	-200.000	-0.035	0.233
-620.376	537.936	-0.143	0.346
-619.361	-81.417	-0.176	-0.059
-618.346	292.037	0.095	-0.176
-617.332	-144.152	-0.160	-0.015
-616.317	-148.998	0.462	0.038
-615.303	-103.414	-0.166	0.040
-614.288	-200.000	0.052	0.233
-613.273	-57.467	-0.126	-0.056
-612.259	-176.728	-0.228	0.006
-611.244	37.026	0.107	0.096
-610.230	107.554	-0.178	-0.215
-609.215	80.375	0.138	0.151
-608.201	-74.120	0.348	0.128
-607.186	5.687	-0.153	-0.115
-606.171	4.910	-0.131	-0.098
-605.157	-121.002	-0.361	0.062
-604.142	82.060	-0.065	0.071
-603.128	-48.488	0.180	0.088
-602.113	-24.019	-0.206	-0.125
-601.098	47.715	-0.059	0.056
-600.084	-2.780	0.158	0.112
-599.069	390.284	-0.066	0.139
-598.055	-200.000	-0.059	-0.321
-597.040	-200.000	0.022	0.379
-596.025	-200.000	-0.005	0.182
-595.011	-24.873	-0.266	0.160
-593.996	-80.658	-0.036	0.012
-592.982	25.787	0.216	0.183
-591.967	284.652	-0.080	0.146
-590.952	800.000	-0.013	0.054
-589.938	63.253	0.034	0.035
-588.923	-200.000	-0.007	-0.196
-587.909	142.304	-0.078	0.105
-586.894	-9.751	-0.180	0.121
-585.879	24.579	0.057	-0.048
-584.865	800.000	0.091	0.400
-583.850	0.344	-0.269	-0.195
-582.836	-122.429	0.250	0.041
-581.821	738.006	0.070	-0.190
-580.806	535.309	-0.054	-0.130
-579.792	-63.825	-0.264	-0.109
-578.777	-200.000	-0.034	-0.248
-577.763	-200.000	0.014	-0.119
-576.748	-66.616	0.160	0.064
-575.733	60.233	-0.132	0.133
-574.719	-200.000	0.005	-0.079
-573.704	389.872	-0.039	-0.082
-572.690	370.524	-0.096	-0.198
-571.675	153.324	0.221	-0.307
-570.661	-200.000	-0.006	0.065
-569.646	-200.000	-0.019	-0.315
-568.631	-111.797	0.487	0.100
-567.617	-165.076	-0.529	0.024
-566.602	-56.363	0.206	-0.093
-565.588	603.482	0.070	-0.175
-564.573	318.149	-0.150	0.289
-563.558	-200.000	-0.048	-0.223
-562.544	15.879	-0.328	0.261
-561.529	-42.967	0.315	-0.162
-560.515	-138.471	0.227	-0.025
-559.500	-65.918	0.101	0.041
-558.485	-200.000	0.039	-0.301
-557.471	129.104	-0.252	0.326
-556.456	180.382	-0.123	0.183
-555.442	-101.336	0.197	-0.049
-554.427	-119.775	-0.315	-0.055
-553.412	78.219	0.044	-0.048
-552.398	-68.651	-0.174	-0.068
-551.383	-23.599	-0.163	0.099
-550.369	800.000	0.059	-0.171
-549.354	-196.886	-0.241	0.002
-548.339	-133.318	-0.210	-0.027
-547.325	-138.956	-0.135	0.015
-546.310	-65.923	-0.194	0.079
-545.296	49.798	-0.186	-0.178
-544.281	191.010	0.133	-0.203
-543.266	800.000	-0.009	-0.039
-542.252	-70.246	0.258	0.099
-541.237	10.850	-0.204	-0.158
-540.223	800.000	0.039	0.150
-539.208	-200.000	0.090	-0.468
-538.193	-105.601	-0.095	0.022
-537.179	581.568	-0.052	0.129
-536.164	-59.937	0.046	-0.020
-535.150	477.284	0.110	0.252
-534.135	27.595	0.007	-0.006
-533.121	-42.510	0.250	0.129
-532.106	-92.279	0.158	-0.045
-531.091	591.020	0.055	0.138
-530.077	-200.000	-0.024	-0.399
-529.062	-200.000	0.004	-0.214
-528.048	224.728	0.169	0.277
-527.033	56.955	0.191	-0.188
-526.018	57.221	0.024	-0.024
-525.004	318.510	0.113	-0.217
-523.989	-18.257	0.156	-0.099
-522.975	484.744	-0.089	-0.206
-521.960	-35.409	0.266	0.146
-520.945	79.886	-0.229	0.249
-519.931	-200.000	-0.046	0.204
-518.916	620.727	-0.119	0.303
-517.902	800.000	0.057	-0.168
-516.887	49.703	-0.033	0.031
-515.872	-9.853	-0.117	0.079
-514.858	-71.239	-0.184	0.070
-513.843	-76.105	-0.151	0.054
-512.829	273.427	-0.072	0.129
-511.814	63.483	0.119	-0.121
-510.799	-76.631	-0.378	0.134
-509.785	800.000	0.056	0.219
-508.770	-138.328	0.082	0.009
-507.756	724.488	0.107	0.287
-506.741	-64.813	-0.157	0.064
-505.726	-31.346	-0.430	0.245
-504.712	68.352	-0.144	-0.149
-503.697	207.349	-0.174	-0.275
-502.683	-131.391	0.149	-0.020
-501.668	340.891	0.103	0.204
-500.653	-200.000	-0.014	-0.253
-499.639	-156.746	0.115	0.007
-498.624	445.784	-0.038	-0.085
-497.610	-39.521	0.209	-0.111
-496.595	-120.212	-0.236	0.041
-495.581	-83.300	-0.099	-0.032
-494.566	-200.000	-0.024	-0.386
-493.551	-146.892	-0.275	-0.024
-492.537	637.181	0.050	0.127
-491.522	-36.303	-0.169	-0.092
-490.508	-70.710	-0.329	-0.125
-489.493	800.000	-0.030	-0.118
-488.478	-27.875	-0.244	0.143
-487.464	82.743	0.167	0.184
-486.449	25.258	0.224	0.188
-485.435	-200.000	0.015	-0.227
-484.420	-200.000	-0.035	-0.460
-483.405	63.389	-0.102	-0.103
-482.391	-77.804	0.140	0.049
-481.376	-103.250	0.180	-0.043
-480.362	-200.000	-0.030	0.257
-479.347	-200.000	0.038	-0.349
-478.332	-200.000	-0.041	-0.250
-477.318	21.170	0.176	0.145
-476.303	-93.690	0.173	0.048
-475.289	-154.688	-0.244	-0.016
-474.274	-200.000	-0.073	-0.639
-473.259	-9.437	0.202	-0.136
-472.245	-182.647	0.268	-0.005
-471.230	528.915	-0.063	-0.150
-470.216	-85.982	0.144	0.045
-469.201	741.290	-0.102	-0.277
-468.186	-110.739	-0.238	0.050
-467.172	10.493	0.192	-0.147
-466.157	0.068	0.041	0.029
-465.143	116.104	0.237	-0.293
-464.128	800.000	-0.055	0.186
-463.113	-8.594	0.186	-0.126
-462.099	-3.015	-0.179	0.126
-461.084	-43.723	0.142	-0.072
-460.070	305.988	-0.061	-0.114
-459.055	179.289	-0.053	0.078
-458.040	6.680	0.193	-0.145
-457.026	375.520	0.131	-0.270
-456.011	171.145	-0.065	0.094
-454.997	387.252	0.087	-0.181
-453.982	-32.549	0.310	-0.175
-452.968	-31.367	-0.117	0.067
-451.953	-32.023	-0.074	0.042
-450.938	-200.000	0.071	-0.317
-449.924	45.350	0.306	-0.285
-448.909	232.038	-0.215	-0.356
-447.895	132.534	0.174	-0.226
-446.880	800.000	0.053	0.184
-445.865	-126.016	-0.476	0.072
-444.851	-153.188	-0.282	0.020
-443.836	28.196	-0.092	0.079
-442.822	-4.580	-0.156	0.109
-441.807	-156.295	0.024	-0.002
-440.792	723.706	-0.072	0.194
-439.778	-186.187	0.320	0.005
-438.763	425.243	0.077	-0.168
-437.749	-86.887	-0.177	-0.055
-436.734	535.492	0.101	0.241
-435.719	800.000	0.075	0.250
-434.705	-170.408	-0.216	0.008
-433.690	-149.902	0.294	-0.023
-432.676	-200.000	-0.043	-0.305
-431.661	139.385	-0.146	-0.193
-430.646	800.000	-0.025	0.081
-429.632	-200.000	-0.025	-0.206
-428.617	-200.000	-0.004	0.051
-427.603	70.317	-0.192	-0.201
-426.588	215.606	0.106	0.170
-425.573	-169.883	-0.243	-0.009
-424.559	127.942	0.240	0.307
-423.544	21.119	0.244	0.200
-422.530	800.000	-0.049	0.199
-421.515	-57.845	-0.166	0.073
-420.500	800.000	-0.087	-0.253
-419.486	-101.208	-0.219	-0.054
-418.471	-61.684	-0.171	-0.072
-417.457	-176.273	0.263	0.007
-416.442	-200.000	-0.072	0.333
-415.428	136.364	0.155	-0.204
-414.413	-200.000	-0.019	-0.261
-413.398	-200.000	-0.037	0.252
-412.384	-131.261	-0.222	0.030
-411.369	800.000	0.048	0.146
-410.355	233.869	-0.183	0.304
-409.340	197.150	0.161	0.247
-408.325	-173.260	0.205	0.006
-407.311	-57.228	-0.068	-0.030
-406.296	311.320	0.103	-0.195
-405.282	-13.558	0.233	0.152
-404.267	-200.000	-0.006	0.193
-403.252	-80.042	0.461	0.156
-402.238	-137.231	-0.333	-0.038
-401.223	-38.448	-0.377	0.201
-400.209	17.302	0.120	-0.096
-399.194	448.113	0.061	0.136
-398.179	-15.600	-0.027	-0.017
-397.165	800.000	0.123	0.360
-396.150	-70.906	-0.328	-0.124
-395.136	-200.000	-0.060	-0.319
-394.121	-74.482	0.222	-0.081
-393.106	-200.000	0.006	-0.395
-392.092	58.182	-0.164	-0.162
-391.077	-70.732	0.129	0.049
-390.063	-46.841	-0.100	-0.049
-389.048	34.199	-0.242	0.212
-388.033	-96.803	0.101	-0.027
-387.019	800.000	-0.034	0.139
-386.004	14.619	-0.241	0.189
-384.990	-12.284	0.194	0.128
-383.975	134.985	-0.089	-0.117
-382.960	-63.398	0.161	0.067
-381.946	-87.950	-0.173	-0.052
-380.931	-67.596	0.122	0.048
-379.917	-49.263	-0.089	-0.043
-378.902	-95.646	-0.399	0.107
-377.888	-200.000	-0.008	-0.163
-376.873	-200.000	0.010	0.248
-375.858	-200.000	-0.012	-0.177
-374.844	800.000	-0.044	0.132
-373.829	-200.000	0.056	-0.346
-372.815	-82.163	-0.045	0.015
-371.800	358.815	-0.056	-0.112
-370.785	-87.943	0.215	0.065
-369.771	-200.000	-0.058	0.284
-368.756	-163.849	0.084	0.004
-367.742	-111.425	-0.604	-0.124
-366.727	-124.119	0.313	0.049
-365.712	-33.622	0.282	-0.156
-364.698	52.851	0.320	-0.308
-363.683	-87.357	0.042	-0.013
-362.669	-151.162	-0.234	-0.018
-361.654	353.455	-0.008	-0.016
-360.639	-200.000	-0.014	0.117
-359.625	334.032	-0.097	0.188
-358.610	190.337	0.204	-0.307
-357.596	-101.788	0.360	0.088
-356.581	800.000	0.105	-0.378
-355.566	-200.000	-0.035	0.335
-354.552	-26.619	-0.242	0.143
-353.537	-200.000	0.283	-0.000
-352.523	-17.957	0.130	0.082
-351.508	800.000	-0.028	-0.087
-350.493	182.658	-0.094	0.140
-349.479	-14.288	-0.351	-0.227
-348.464	-145.500	0.196	-0.018
-347.450	800.000	0.054	-0.226
-346.435	-34.303	0.162	0.090
-345.420	155.461	-0.173	0.240
-344.406	-163.963	0.183	0.009
-343.391	800.000	-0.086	0.285
-342.377	800.000	0.056	0.169
-341.362	298.423	0.107	-0.197
-340.348	-118.811	-0.197	0.035
-339.333	-200.000	-0.003	-0.101
-338.318	-155.235	0.512	-0.034
-337.304	-200.000	-0.012	0.281
-336.289	98.161	0.066	-0.076
-335.275	-92.541	0.281	0.079
-334.260	-92.581	-0.106	0.030
-333.245	800.000	0.034	-0.140
-332.231	-52.150	0.282	-0.132
-331.216	-200.000	-0.006	0.083
-330.202	66.504	-0.177	-0.181
-329.187	-183.607	0.237	-0.004
-328.172	-167.715	-0.105	-0.004
-327.158	625.526	0.112	0.283
-326.143	800.000	0.067	-0.186
-325.129	-6.336	0.283	0.194
-324.114	-167.091	-0.371	-0.015
-323.099	292.023	0.076	0.139
-322.085	-86.346	-0.202	0.062
-321.070	-28.860	-0.160	-0.093
-320.056	-4.820	-0.266	0.184
-319.041	-73.919	-0.224	-0.082
-318.026	-200.000	0.039	-0.290
-317.012	98.839	-0.121	0.140
-315.997	153.048	-0.265	0.363
-314.983	61.494	-0.250	-0.250
-313.968	21.466	-0.130	-0.106
-312.953	-20.350	-0.415	0.256
-311.939	-200.000	-0.073	0.402
-310.924	-1.996	-0.171	0.120
-309.910	-101.204	0.127	0.031
-308.895	264.680	0.102	0.178
-307.880	103.295	0.133	0.156
-306.866	-172.050	-0.052	0.002
-305.851	86.879	0.194	-0.215
-304.837	-65.497	0.250	0.101
-303.822	-121.371	-0.108	-0.018
-302.807	777.218	0.030	-0.082
-301.793	800.000	0.057	0.234
-300.778	-175.307	0.470	0.013
-299.764	-152.090	0.139	-0.010
-298.749	155.700	-0.174	0.240
-297.735	506.171	0.016	0.036
-296.720	-38.886	-0.314	-0.166
-295.705	556.672	-0.086	-0.207
-294.691	-181.111	-0.226	-0.005
-293.676	140.606	0.084	0.111
-292.662	67.815	-0.077	-0.079
-291.647	-139.729	0.238	-0.025
-290.632	-17.918	0.179	-0.113
-289.618	-200.000	0.048	-0.225
-288.603	800.000	-0.087	0.283
-287.589	800.000	0.052	-0.150
-286.574	-200.000	-0.001	0.340
-285.559	31.611	-0.160	0.138
-284.545	16.524	0.171	-0.136
-283.530	800.000	0.007	-0.020
-282.516	-200.000	-0.007	-0.044
-281.501	18.450	0.083	-0.067
-280.486	-88.774	0.199	0.059
-279.472	-162.184	0.298	0.015
-278.457	202.225	-0.086	-0.134
-277.443	648.554	0.038	-0.097
-276.428	257.551	0.136	0.234
-275.413	91.940	0.127	-0.143
-274.399	-51.607	-0.211	-0.099
-273.384	71.355	-0.203	0.211
-272.370	-116.246	0.304	0.056
-271.355	144.301	-0.122	-0.163
-270.340	-3.654	-0.136	0.095
-269.326	97.878	0.304	0.351
-268.311	21.046	0.142	0.115
-267.297	-21.510	0.137	-0.084
-266.282	-56.127	0.146	-0.065
-265.267	-17.274	0.190	0.120
-264.253	-133.960	-0.181	0.022
-263.238	44.810	-0.277	0.256
-262.224	53.026	0.262	0.251
-261.209	-99.501	-0.189	0.048
-260.195	209.251	-0.119	-0.187
-259.180	471.000	-0.132	0.297
-258.165	-200.000	0.001	0.440
-257.151	21.245	0.259	-0.210
-256.136	800.000	-0.012	-0.050
-255.122	-200.000	0.027	-0.143
-254.107	140.858	-0.076	0.100
-253.092	-200.000	0.014	0.139
-252.078	233.261	-0.158	0.260
-251.063	-59.813	0.218	0.094
-250.049	-95.183	-0.384	0.104
-249.034	-149.331	-0.096	0.008
-248.019	-40.935	0.375	-0.194
-247.005	63.864	0.131	-0.132
-245.990	64.047	-0.198	-0.199
-244.976	30.227	0.294	0.251
-243.961	15.521	0.053	-0.041
-242.946	144.281	-0.286	0.382
-241.932	124.135	-0.025	-0.032
-240.917	-127.893	0.193	0.028
-239.903	-46.206	0.204	0.100
-238.888	299.113	0.126	-0.233
-237.873	61.591	-0.099	-0.098
-236.859	-200.000	0.010	0.189
-235.844	254.270	0.237	-0.406
-234.830	800.000	-0.055	0.223
-233.815	35.063	0.115	-0.101
-232.800	73.441	0.208	-0.218
-231.786	-97.454	-0.116	-0.030
-230.771	-200.000	0.016	-0.251
-229.757	-200.000	0.022	-0.212
-228.742	175.748	-0.099	-0.143
-227.727	221.904	0.127	-0.205
-226.713	-71.843	-0.064	0.024
-225.698	216.230	-0.030	-0.048
-224.684	-200.000	-0.009	0.207
-223.669	-200.000	0.008	0.229
-222.655	-48.150	-0.146	0.071
-221.640	-97.162	0.240	0.063
-220.625	53.680	0.136	-0.130
-219.611	716.183	-0.009	-0.025
-218.596	800.000	-0.020	0.062
-217.582	-179.351	0.346	-0.008
-216.567	176.487	-0.131	0.190
-215.552	-200.000	0.026	0.114
-214.538	-200.000	-0.052	-0.271
-213.523	208.697	-0.051	-0.079
-212.509	576.330	0.070	0.172
-211.494	-58.555	0.442	0.192
-210.479	340.116	-0.141	0.276
-209.465	800.000	-0.041	0.159
-208.450	-200.000	0.014	0.077
-207.436	44.472	-0.232	-0.213
-206.421	-137.062	-0.424	0.048
-205.406	127.517	0.162	0.205
-204.392	-149.153	-0.075	0.006
-203.377	-200.000	-0.023	-0.257
-202.363	-42.777	-0.087	0.044
-201.348	-102.607	0.087	0.021
-200.333	33.927	0.214	-0.186
-199.319	-28.112	0.164	0.095
-198.304	349.541	0.083	0.163
-197.290	-42.312	-0.406	0.207
-196.275	183.034	-0.131	0.193
-195.260	-200.000	-0.076	-0.389
-194.246	-200.000	0.052	-0.257
-193.231	150.999	-0.215	0.292
-192.217	-200.000	0.073	0.455
-191.202	-143.177	0.470	-0.045
-190.187	800.000	-0.098	-0.291
-189.173	63.374	0.084	-0.084
-188.158	-89.552	-0.199	-0.058
-187.144	5.346	-0.168	0.124
-186.129	493.741	0.070	0.160
-185.114	-185.593	-0.279	0.004
-184.100	-200.000	-0.039	-0.265
-183.085	800.000	-0.085	-0.322
-182.071	164.372	-0.052	-0.073
-181.056	85.778	-0.055	-0.060
-180.042	-189.725	0.088	0.001
-179.027	314.626	-0.035	0.066
-178.012	-200.000	-0.012	-0.066
-176.998	-99.385	-0.242	0.061
-175.983	498.567	0.113	0.261
-174.969	800.000	-0.057	0.186
-173.954	800.000	0.190	0.605
-172.939	-53.212	-0.146	0.067
-171.925	-200.000	0.009	0.277
-170.910	45.686	-0.155	0.143
-169.896	629.098	0.123	-0.310
-168.881	-20.522	0.155	-0.095
-167.866	162.219	-0.231	0.323
-166.852	-174.183	0.263	-0.008
-165.837	-200.000	-0.081	0.384
-164.823	-82.064	0.178	0.058
-163.808	-73.071	-0.076	0.028
-162.793	116.961	0.237	-0.290
-161.779	-200.000	-0.014	-0.084
-160.764	387.370	0.072	-0.149
-159.750	71.672	-0.249	0.258
-158.735	-24.999	-0.248	0.147
-157.720	-123.011	0.187	-0.030
-156.706	-28.943	0.166	0.095
-155.691	-200.000	-0.001	-0.093
-154.677	-114.561	0.173	-0.033
-153.662	800.000	-0.100	0.311
-152.647	172.228	0.105	0.150
-151.633	405.203	-0.055	0.117
-150.618	75.464	0.239	0.252
-149.604	-200.000	-0.013	0.227
-148.589	143.409	-0.132	0.175
-147.574	-111.079	0.098	0.020
-146.560	260.441	-0.126	0.218
-145.545	130.742	-0.256	-0.328
-144.531	121.456	-0.092	0.115
-143.516	-152.938	0.337	-0.024
-142.502	-200.000	-0.035	0.229
-141.487	-200.000	-0.009	0.147
-140.472	-106.833	0.161	-0.036
-139.458	198.427	-0.098	-0.149
-138.443	43.521	-0.204	-0.186
-137.429	-89.869	0.120	-0.035
-136.414	-200.000	-0.039	-0.275
-135.399	-200.000	0.016	0.185
-134.385	-139.453	-0.238	-0.025
-133.370	-103.166	-0.091	0.021
-132.356	-12.015	0.236	-0.154
-131.341	-200.000	0.005	-0.100
-130.326	-200.000	0.066	0.293
-129.312	-103.195	-0.421	0.099
-128.297	-200.000	-0.043	-0.225
-127.283	-200.000	0.010	-0.196
-126.268	-200.000	-0.003	0.093
-125.253	-44.653	0.474	0.236
-124.239	-81.810	0.298	-0.097
-123.224	132.843	-0.167	0.215
-122.210	366.041	-0.191	0.384
