DTS Sentinel unit serial number:	SN413079Multiplexer serial number:	ORYXHardware model number:	OX4-SRSoftware version number:	ORYX F/W v4.00 Oryx Data Collector v3.7.2.0data status	okinstallation	princeton_trtdifferential loss correction	single-endedforward channel	channel 3reverse channel	N/Adate	2019/09/11time	22:26:10forward acquisition time	60.00reverse acquisition time	0.00gamma	496.2192k internal	0.2314k external	0.2314temperature offset calibration	1.0045default loss term (dB/km)	0.3790temperature slope calibration	1.0000multiplexer offset coefficient	1.0000multiplexer slope coefficient	1.0000fibre end	0.00T internal ref (°C)	35.12T ext. ref 1 (°C)	1.74T ext. ref 2 (°C)	29.45length (m)	temperature (°C)	Stokes	anti-Stokes-747.200	72.910	0.043	-0.045
-746.185	125.447	-0.091	-0.116
-745.171	138.696	0.151	0.201
-744.156	-200.000	0.038	0.196
-743.142	-50.458	0.103	-0.049
-742.127	43.151	-0.196	-0.182
-741.112	129.205	0.220	-0.284
-740.098	-84.454	-0.214	0.069
-739.083	-68.961	-0.357	0.140
-738.069	63.213	-0.085	-0.087
-737.054	800.000	0.074	0.228
-736.039	-200.000	-0.180	-0.000
-735.025	-26.494	-0.266	0.158
-734.010	29.583	-0.166	-0.143
-732.996	-26.632	-0.148	0.088
-731.981	-200.000	-0.034	-0.287
-730.966	-200.000	-0.021	-0.167
-729.952	577.732	-0.130	-0.323
-728.937	375.480	-0.043	0.088
-727.923	-75.531	0.241	-0.087
-726.908	-163.210	0.411	0.020
-725.894	-58.375	-0.473	-0.208
-724.879	-200.000	0.034	-0.183
-723.864	-34.030	-0.203	0.113
-722.850	-86.052	0.288	0.090
-721.835	-200.000	0.001	0.025
-720.821	800.000	0.030	0.099
-719.806	-160.318	-0.400	0.022
-718.791	-38.676	-0.102	0.055
-717.777	445.929	0.267	-0.594
-716.762	-102.606	-0.152	-0.037
-715.748	105.509	-0.273	-0.327
-714.733	56.784	0.129	-0.127
-713.718	134.541	0.084	-0.110
-712.704	-200.000	-0.006	-0.197
-711.689	800.000	0.077	0.268
-710.675	-152.484	-0.170	-0.012
-709.660	11.460	-0.278	-0.216
-708.645	800.000	0.019	-0.076
-707.631	-66.873	-0.317	-0.127
-706.616	485.735	0.034	-0.079
-705.602	-100.027	-0.312	0.079
-704.587	388.248	0.037	0.077
-703.572	-157.176	-0.268	0.017
-702.558	-63.806	-0.162	0.067
-701.543	-149.109	0.231	0.019
-700.529	800.000	0.102	0.320
-699.514	-200.000	0.030	0.230
-698.499	-133.571	0.251	0.032
-697.485	11.101	-0.318	0.246
-696.470	475.778	-0.073	0.167
-695.456	800.000	0.051	0.213
-694.441	-148.842	0.163	-0.013
-693.426	800.000	0.044	-0.171
-692.412	-44.736	-0.367	0.185
-691.397	-26.380	-0.083	-0.049
-690.383	6.250	0.174	0.131
-689.368	614.959	0.083	-0.210
-688.354	800.000	0.056	-0.157
-687.339	-69.916	-0.203	-0.078
-686.324	51.194	0.059	-0.057
-685.310	675.741	-0.124	-0.325
-684.295	800.000	-0.060	-0.196
-683.281	29.357	-0.066	0.056
-682.266	-131.506	-0.233	-0.031
-681.251	32.758	0.157	-0.137
-680.237	-158.876	-0.476	0.027
-679.222	7.506	-0.263	0.199
-678.208	-89.048	-0.151	-0.045
-677.193	-200.000	-0.044	-0.500
-676.178	-47.075	0.338	-0.167
-675.164	28.347	0.199	0.170
-674.149	-107.188	0.230	0.051
-673.135	2.968	0.235	0.172
-672.120	230.306	-0.225	-0.371
-671.105	-200.000	0.054	-0.306
-670.091	108.071	-0.277	0.334
-669.076	-92.906	-0.187	0.053
-668.062	-43.940	0.156	0.079
-667.047	-200.000	0.034	0.260
-666.032	-200.000	0.012	0.078
-665.018	800.000	0.051	0.153
-664.003	-122.665	0.478	0.078
-662.989	-54.252	-0.107	-0.049
-661.974	205.644	0.152	0.239
-660.959	-28.563	-0.159	-0.093
-659.945	27.315	-0.076	0.064
-658.930	-200.000	0.022	-0.144
-657.916	-200.000	-0.029	-0.388
-656.901	-200.000	-0.053	-0.448
-655.886	-200.000	0.013	-0.158
-654.872	-120.325	-0.212	0.037
-653.857	-64.346	-0.130	-0.053
-652.843	109.738	-0.166	-0.201
-651.828	-5.163	0.097	-0.067
-650.814	102.377	0.116	-0.137
-649.799	303.632	0.024	-0.046
-648.784	-200.000	0.011	0.365
-647.770	-20.022	0.055	-0.035
-646.755	-140.346	-0.292	-0.031
-645.741	-87.290	0.152	-0.047
-644.726	30.274	-0.320	0.276
-643.711	-200.000	0.033	-0.271
-642.697	-110.485	0.241	-0.051
-641.682	124.004	0.230	-0.292
-640.668	-80.705	-0.069	0.023
-639.653	0.044	-0.184	-0.132
-638.638	800.000	-0.086	-0.262
-637.624	44.656	-0.116	-0.107
-636.609	-122.423	-0.276	0.045
-635.595	-55.663	-0.092	-0.041
-634.580	-63.750	-0.435	0.180
-633.565	-22.944	-0.186	-0.113
-632.551	-163.197	-0.200	0.010
-631.536	-106.549	-0.299	-0.067
-630.522	-3.211	0.158	-0.111
-629.507	-200.000	0.048	-0.408
-628.492	-33.482	0.320	-0.179
-627.478	53.053	-0.127	0.123
-626.463	93.524	-0.166	-0.190
-625.449	-45.575	-0.133	-0.066
-624.434	-200.000	0.368	0.001
-623.419	150.193	-0.128	0.176
-622.405	78.240	-0.084	0.091
-621.390	-72.150	-0.138	0.052
-620.376	-92.304	-0.115	-0.033
-619.361	-200.000	0.003	0.434
-618.346	-74.663	-0.558	-0.202
-617.332	-200.000	-0.002	0.075
-616.317	357.384	0.099	0.200
-615.303	-136.620	-0.129	-0.015
-614.288	-67.205	-0.294	-0.117
-613.273	109.077	-0.037	-0.044
-612.259	-152.278	0.193	-0.014
-611.244	-139.686	-0.315	0.034
-610.230	88.862	0.183	0.205
-609.215	-110.737	0.169	-0.035
-608.201	-200.000	0.044	0.409
-607.186	277.192	-0.049	-0.087
-606.171	147.113	0.237	0.322
-605.157	63.198	0.304	0.307
-604.142	49.107	0.214	-0.203
-603.128	82.830	-0.266	-0.291
-602.113	800.000	-0.038	-0.111
-601.098	-200.000	0.013	-0.170
-600.084	-119.982	-0.137	0.024
-599.069	-164.023	0.215	0.010
-598.055	-67.491	0.228	0.090
-597.040	55.445	0.232	-0.226
-596.025	214.168	0.199	0.317
-595.011	286.604	0.183	0.334
-593.996	-200.000	0.016	0.264
-592.982	-121.044	0.296	-0.050
-591.967	-100.784	-0.366	-0.091
-590.952	-106.331	0.280	-0.063
-589.938	130.173	-0.110	-0.142
-588.923	-109.684	0.150	-0.032
-587.909	-104.890	-0.152	-0.035
-586.894	-66.971	0.225	0.089
-585.879	-106.734	-0.482	-0.108
-584.865	800.000	-0.058	0.204
-583.850	202.489	0.205	0.318
-582.836	14.134	-0.194	0.153
-581.821	-119.468	-0.044	0.008
-580.806	374.193	0.025	0.051
-579.792	-189.980	0.219	-0.002
-578.777	-200.000	-0.005	0.211
-577.763	-58.817	0.112	0.049
-576.748	-76.823	0.303	-0.107
-575.733	660.403	0.044	0.115
-574.719	-18.998	-0.322	0.202
-573.704	-89.625	-0.270	0.080
-572.690	-18.883	-0.056	-0.035
-571.675	-29.818	-0.160	0.092
-570.661	712.960	-0.088	-0.235
-569.646	-92.835	0.103	-0.029
-568.631	-200.000	-0.015	-0.149
-567.617	286.454	0.075	0.136
-566.602	391.254	0.068	0.142
-565.588	179.066	-0.238	-0.351
-564.573	319.141	-0.204	-0.390
-563.558	2.531	0.221	-0.161
-562.544	-47.326	0.230	-0.113
-561.529	152.466	0.084	-0.115
-560.515	-19.387	0.062	0.039
-559.500	155.880	0.111	-0.155
-558.485	240.431	0.139	0.233
-557.471	800.000	-0.031	0.117
-556.456	101.687	-0.024	0.028
-555.442	469.049	0.107	0.241
-554.427	239.264	-0.101	-0.170
-553.412	-1.261	-0.191	-0.136
-552.398	-154.901	-0.239	0.016
-551.383	-40.049	-0.267	-0.140
-550.369	-200.000	-0.021	0.204
-549.354	358.712	-0.061	0.124
-548.339	732.592	-0.046	0.123
-547.325	324.661	-0.037	-0.071
-546.310	250.563	-0.122	0.208
-545.296	287.257	0.172	0.313
-544.281	800.000	0.084	0.335
-543.266	-70.673	0.247	0.094
-542.252	-155.717	0.074	-0.005
-541.237	-45.222	-0.223	0.112
-540.223	-49.217	-0.273	0.131
-539.208	-200.000	0.061	-0.279
-538.193	-91.245	0.245	-0.071
-537.179	-133.029	0.372	0.048
-536.164	311.520	0.183	-0.346
-535.150	311.262	-0.104	-0.196
-534.135	96.850	0.082	-0.094
-533.121	8.114	-0.223	-0.168
-532.106	-87.051	-0.262	-0.080
-531.091	-6.912	0.149	0.101
-530.077	-126.855	0.315	-0.047
-529.062	110.824	0.115	0.139
-528.048	67.485	0.208	-0.213
-527.033	-200.000	-0.007	-0.346
-526.018	-5.415	0.114	0.078
-525.004	800.000	0.050	0.148
-523.989	-200.000	0.024	0.147
-522.975	-200.000	-0.024	-0.162
-521.960	-53.500	-0.173	-0.080
-520.945	-148.251	0.252	-0.021
-519.931	-100.162	-0.225	0.056
-518.916	280.816	0.018	-0.032
-517.902	19.768	0.071	-0.058
-516.887	453.674	-0.059	-0.130
-515.872	-75.319	0.054	-0.019
-514.858	800.000	0.064	-0.201
-513.843	91.728	-0.207	-0.233
-512.829	89.248	0.100	0.112
-511.814	-68.806	0.071	0.027
-510.799	-54.568	-0.260	0.118
-509.785	800.000	0.094	0.355
-508.770	562.276	0.097	-0.237
-507.756	-73.543	0.160	-0.059
-506.741	-147.767	-0.155	-0.013
-505.726	378.555	0.106	0.217
-504.712	-26.487	0.129	0.076
-503.697	-100.060	-0.269	0.067
-502.683	800.000	0.018	-0.067
-501.668	469.343	0.144	0.324
-500.653	24.601	-0.089	-0.074
-499.639	-69.868	-0.247	-0.094
-498.624	104.993	-0.053	-0.063
-497.610	-35.735	-0.174	0.095
-496.595	-160.524	0.142	0.008
-495.581	276.402	-0.071	-0.127
-494.566	800.000	0.032	-0.108
-493.551	-163.671	-0.584	-0.028
-492.537	466.185	-0.185	0.416
-491.522	12.262	0.377	0.291
-490.508	453.079	0.036	-0.080
-489.493	58.574	0.188	0.185
-488.478	132.171	0.115	-0.149
-487.464	-111.736	0.229	-0.047
-486.449	-179.979	-0.130	-0.003
-485.435	-11.632	-0.223	0.147
-484.420	78.629	0.146	-0.157
-483.405	-105.548	-0.370	0.084
-482.391	-10.199	-0.116	-0.078
-481.376	-166.185	-0.443	0.019
-480.362	305.508	-0.038	0.071
-479.347	-2.532	0.213	-0.149
-478.332	-90.174	0.094	-0.027
-477.318	-7.537	-0.116	-0.079
-476.303	-75.669	-0.027	0.010
-475.289	51.581	-0.273	0.260
-474.274	-106.182	-0.222	0.050
-473.259	130.196	0.206	-0.264
-472.245	-0.502	-0.065	0.046
-471.230	-200.000	0.021	0.111
-470.216	-200.000	-0.023	0.475
-469.201	-69.579	0.068	-0.026
-468.186	-200.000	0.029	0.149
-467.172	-107.831	-0.331	-0.072
-466.157	800.000	-0.034	0.113
-465.143	-82.180	0.313	0.102
-464.128	60.091	-0.116	-0.115
-463.113	613.016	-0.123	-0.308
-462.099	-200.000	0.031	-0.332
-461.084	9.898	0.077	0.058
-460.070	-51.349	-0.161	-0.075
-459.055	184.497	-0.026	0.039
-458.040	-200.000	-0.046	0.239
-457.026	-200.000	0.052	-0.422
-456.011	-1.016	0.285	0.202
-454.997	-52.400	-0.128	0.059
-453.982	170.102	-0.148	-0.213
-452.968	-108.395	-0.238	0.051
-451.953	107.172	0.264	0.315
-450.938	-200.000	-0.083	0.479
-449.924	117.028	-0.103	0.127
-448.909	-200.000	-0.040	-0.367
-447.895	-200.000	-0.003	0.238
-446.880	9.618	0.237	-0.180
-445.865	-115.631	0.080	0.015
-444.851	-80.556	-0.315	0.105
-443.836	-161.063	-0.219	0.011
-442.822	188.356	-0.128	0.191
-441.807	800.000	0.060	0.187
-440.792	-119.791	0.147	-0.025
-439.778	-111.887	0.038	0.008
-438.763	30.439	0.362	0.310
-437.749	518.049	-0.137	0.322
-436.734	622.013	0.105	-0.265
-435.719	59.935	0.158	0.157
-434.705	-200.000	-0.034	0.458
-433.690	-80.756	-0.267	0.089
-432.676	-200.000	0.015	-0.250
-431.661	63.508	0.178	-0.179
-430.646	57.591	-0.092	0.090
-429.632	270.487	0.055	-0.097
-428.617	800.000	0.023	0.071
-427.603	190.848	0.161	0.243
-426.588	-105.916	0.066	-0.015
-425.573	-70.578	0.137	-0.052
-424.559	-60.725	-0.370	-0.157
-423.544	-169.241	0.311	-0.012
-422.530	-168.761	0.109	0.004
-421.515	365.928	-0.071	-0.143
-420.500	-200.000	0.001	0.188
-419.486	-145.849	-0.153	-0.014
-418.471	-17.239	-0.103	0.065
-417.457	-171.058	0.076	0.003
-416.442	-66.267	-0.228	0.091
-415.428	800.000	-0.022	-0.095
-414.413	-200.000	-0.028	0.180
-413.398	30.466	0.225	0.193
-412.384	131.459	0.138	0.178
-411.369	-200.000	-0.003	0.109
-410.355	-49.320	0.058	0.028
-409.340	-193.126	-0.412	-0.004
-408.325	800.000	-0.072	-0.296
-407.311	-110.260	0.296	0.062
-406.296	-123.807	-0.132	0.021
-405.282	28.652	-0.232	0.196
-404.267	650.013	0.070	0.180
-403.252	-129.609	0.170	0.023
-402.238	-33.321	-0.081	-0.045
-401.223	101.896	-0.186	-0.217
-400.209	-200.000	0.035	0.190
-399.194	-42.511	-0.037	-0.019
-398.179	461.952	-0.106	-0.236
-397.165	-200.000	0.015	-0.171
-396.150	-1.083	-0.232	0.164
-395.136	47.552	0.046	-0.043
-394.121	461.706	-0.024	-0.054
-393.106	119.440	-0.308	-0.382
-392.092	247.101	-0.096	-0.162
-391.077	-200.000	0.047	0.328
-390.063	209.108	-0.081	-0.126
-389.048	204.795	-0.156	0.242
-388.033	675.717	-0.109	0.282
-387.019	189.108	0.120	0.180
-386.004	39.885	0.249	-0.224
-384.990	-122.270	-0.337	0.055
-383.975	50.599	0.130	0.123
-382.960	32.387	-0.137	0.118
-381.946	107.834	-0.245	-0.292
-380.931	-200.000	0.015	0.377
-379.917	62.052	0.326	0.325
-378.902	92.280	-0.125	0.141
-377.888	113.601	0.058	-0.070
-376.873	-57.293	-0.082	0.036
-375.858	-146.778	0.319	0.028
-374.844	-200.000	0.023	0.160
-373.829	66.248	-0.139	0.141
-372.815	408.612	0.042	0.088
-371.800	202.384	-0.021	0.032
-370.785	135.933	-0.144	0.187
-369.771	100.656	-0.108	0.125
-368.756	800.000	0.078	-0.221
-367.742	800.000	-0.043	-0.165
-366.727	800.000	0.040	0.155
-365.712	363.229	-0.049	-0.098
-364.698	-200.000	-0.013	-0.163
-363.683	188.523	0.166	-0.248
-362.669	-60.783	0.194	0.082
-361.654	-171.589	-0.144	-0.005
-360.639	-200.000	0.017	-0.104
-359.625	-128.408	-0.218	0.031
-358.610	484.878	-0.031	-0.071
-357.596	-147.195	0.204	-0.017
-356.581	-200.000	0.028	-0.228
-355.566	123.730	-0.077	0.096
-354.552	73.422	-0.262	0.273
-353.537	20.107	-0.126	-0.102
-352.523	42.817	-0.211	0.192
-351.508	33.252	-0.401	-0.347
-350.493	800.000	-0.014	0.049
-349.479	-155.083	-0.081	0.005
-348.464	133.545	-0.095	-0.123
-347.450	800.000	0.070	0.198
-346.435	-200.000	-0.018	-0.117
-345.420	423.298	-0.116	0.248
-344.406	-200.000	-0.005	-0.050
-343.391	-200.000	-0.003	-0.206
-342.377	56.830	-0.134	0.131
-341.362	-15.737	0.051	0.033
-340.348	-200.000	0.067	-0.348
-339.333	800.000	-0.023	0.092
-338.318	210.005	0.137	0.214
-337.304	189.673	-0.097	-0.145
-336.289	121.501	0.065	0.081
-335.275	-80.121	-0.303	-0.101
-334.260	-200.000	0.021	-0.147
-333.245	156.354	0.043	0.059
-332.231	800.000	-0.027	0.078
-331.216	-200.000	0.036	0.162
-330.202	219.990	-0.136	0.217
-329.187	276.303	-0.171	-0.303
-328.172	208.883	0.135	-0.211
-327.158	-139.896	-0.160	-0.017
-326.143	426.074	-0.134	-0.287
-325.129	343.599	0.120	0.234
-324.114	-33.373	-0.159	0.088
-323.099	-48.561	0.155	0.074
-322.085	70.798	0.163	0.168
-321.070	82.866	-0.092	-0.100
-320.056	-200.000	0.031	-0.138
-319.041	50.080	0.150	0.141
-318.026	-28.941	0.308	0.176
-317.012	62.980	0.171	-0.171
-315.997	-127.304	0.411	0.060
-314.983	46.137	-0.069	-0.064
-313.968	-106.189	0.663	-0.148
-312.953	709.018	0.044	0.115
-311.939	288.612	0.055	-0.098
-310.924	45.492	0.040	0.036
-309.910	-85.776	0.126	-0.039
-308.895	-200.000	-0.024	-0.420
-307.880	-83.471	0.198	-0.063
-306.866	-3.907	-0.180	-0.125
-305.851	-67.806	-0.232	-0.090
-304.837	-103.036	0.276	-0.065
-303.822	-200.000	0.017	-0.482
-302.807	-134.582	-0.350	0.043
-301.793	92.343	-0.078	-0.088
-300.778	-122.951	0.247	0.040
-299.764	233.574	0.145	0.238
-298.749	800.000	-0.095	0.307
-297.735	-70.704	-0.418	0.157
-296.720	78.953	-0.160	0.171
-295.705	-106.055	-0.189	0.042
-294.691	628.396	0.127	0.320
-293.676	-53.185	-0.261	-0.119
-292.662	103.210	0.111	0.130
-291.647	-20.900	0.270	0.165
-290.632	-30.387	0.258	-0.146
-289.618	-10.784	0.205	-0.135
-288.603	248.836	-0.064	-0.108
-287.589	800.000	-0.049	0.190
-286.574	-30.962	-0.067	-0.038
-285.559	16.767	-0.189	-0.149
-284.545	-110.295	0.143	0.030
-283.530	-200.000	0.025	-0.356
-282.516	6.180	-0.036	0.027
-281.501	-173.487	-0.051	0.002
-280.486	46.665	0.143	-0.133
-279.472	55.076	-0.227	0.219
-278.457	-9.354	0.137	0.091
-277.443	61.974	-0.346	-0.343
-276.428	232.955	0.129	-0.212
-275.413	41.593	0.135	-0.122
-274.399	800.000	0.031	-0.124
-273.384	-146.800	-0.054	0.005
-272.370	103.906	-0.085	-0.099
-271.355	-48.595	0.422	-0.202
-270.340	-81.131	-0.051	0.017
-269.326	-87.643	-0.067	-0.020
-268.311	293.107	0.199	-0.361
-267.297	35.913	0.205	0.180
-266.282	-123.979	0.480	-0.075
-265.267	-200.000	-0.012	-0.153
-264.253	267.207	-0.015	0.027
-263.238	-8.101	-0.244	-0.164
-262.224	-6.448	-0.202	0.137
-261.209	231.463	0.138	-0.226
-260.195	-68.409	-0.186	-0.072
-259.180	412.891	0.063	-0.133
-258.165	98.350	0.136	-0.156
-257.151	340.257	0.109	-0.212
-256.136	10.377	-0.049	0.037
-255.122	-162.366	0.202	0.010
-254.107	-140.441	0.153	0.016
-253.092	-106.873	0.301	-0.066
-252.078	-80.405	0.217	0.072
-251.063	134.665	0.091	0.117
-250.049	32.094	0.287	-0.246
-249.034	800.000	0.068	-0.268
-248.019	-200.000	0.074	-0.351
-247.005	3.276	0.179	-0.130
-245.990	-87.828	0.106	0.032
-244.976	-103.479	-0.165	-0.039
-243.961	-138.069	-0.142	0.016
-242.946	-200.000	0.015	-0.084
-241.932	-131.311	0.168	-0.022
-240.917	-127.566	0.076	0.011
-239.903	212.712	-0.076	-0.120
-238.888	-77.896	0.237	-0.081
-237.873	-146.065	-0.159	-0.014
-236.859	-10.099	0.150	0.099
-235.844	800.000	-0.024	0.070
-234.830	800.000	0.011	0.039
-233.815	800.000	0.074	-0.290
-232.800	659.001	-0.102	-0.261
-231.786	-3.003	0.318	-0.220
-230.771	-200.000	0.034	-0.185
-229.757	171.851	0.023	-0.032
-228.742	104.352	0.062	0.072
-227.727	800.000	0.097	0.329
-226.713	-13.201	0.103	0.066
-225.698	800.000	0.138	0.390
-224.684	-200.000	0.042	-0.388
-223.669	-200.000	-0.024	0.148
-222.655	12.056	-0.295	0.225
-221.640	-38.109	-0.089	-0.047
-220.625	53.036	0.150	-0.143
-219.611	60.889	0.205	0.202
-218.596	-185.291	-0.274	0.004
-217.582	-77.421	0.203	0.070
-216.567	-200.000	0.018	-0.102
-215.552	-24.475	-0.325	0.192
-214.538	-111.903	0.229	0.046
-213.523	260.873	0.015	-0.026
-212.509	-105.218	-0.219	0.050
-211.494	-200.000	0.004	0.130
-210.479	707.638	-0.069	0.180
-209.465	-130.771	0.180	-0.024
-208.450	-127.292	0.184	0.027
-207.436	19.725	0.242	-0.193
-206.421	800.000	-0.013	0.056
-205.406	-18.320	0.177	0.110
-204.392	125.906	0.139	0.175
-203.377	-55.604	0.009	-0.004
-202.363	-200.000	0.008	-0.152
-201.348	504.026	-0.049	-0.112
-200.333	431.451	-0.053	-0.114
-199.319	115.286	-0.108	0.131
-198.304	408.665	0.138	-0.290
-197.290	-106.426	-0.172	-0.038
-196.275	800.000	0.095	0.338
-195.260	326.556	0.097	-0.185
-194.246	800.000	0.025	-0.093
-193.231	85.208	0.106	0.116
-192.217	542.070	-0.055	-0.129
-191.202	-142.244	0.030	0.003
-190.187	34.773	0.156	-0.135
-189.173	-32.133	0.219	0.121
-188.158	800.000	-0.066	0.234
-187.144	252.995	0.062	0.106
-186.129	-93.977	0.198	-0.054
-185.114	800.000	-0.055	0.153
-184.100	501.774	0.028	0.063
-183.085	550.609	0.174	0.413
-182.071	31.129	0.264	-0.225
-181.056	467.331	-0.090	0.199
-180.042	-37.110	-0.174	-0.093
-179.027	130.375	0.281	-0.357
-178.012	-1.587	-0.312	0.218
-176.998	-137.385	0.277	-0.031
-175.983	184.694	-0.187	0.275
-174.969	-76.269	-0.198	0.069
-173.954	800.000	0.031	-0.115
-172.939	-200.000	-0.006	0.051
-171.925	-137.564	-0.359	0.040
-170.910	8.256	0.175	0.130
-169.896	94.152	0.236	-0.266
-168.881	-58.306	-0.255	0.110
-167.866	62.044	0.126	-0.124
-166.852	-186.399	-0.304	-0.004
-165.837	-93.948	-0.133	-0.036
-164.823	523.279	0.052	-0.122
-163.808	737.224	0.050	-0.132
-162.793	125.186	0.174	-0.217
-161.779	800.000	0.020	-0.068
-160.764	-200.000	0.042	-0.346
-159.750	719.154	0.150	0.395
-158.735	-22.748	-0.238	-0.143
-157.720	-200.000	0.009	-0.091
-156.706	-71.130	-0.225	-0.084
-155.691	-111.464	-0.152	-0.031
-154.677	-58.296	-0.070	-0.030
-153.662	-37.009	0.211	-0.112
-152.647	-91.890	-0.052	-0.015
-151.633	-22.554	-0.159	0.095
-150.618	513.628	0.026	-0.061
-149.604	-41.267	-0.374	0.191
-148.589	158.429	0.165	-0.227
-147.574	169.301	0.121	0.171
-146.560	414.425	-0.035	0.075
-145.545	-154.248	-0.332	-0.022
-144.531	-139.351	0.239	-0.025
-143.516	-55.262	-0.247	0.110
-142.502	-127.851	0.099	-0.014
-141.487	38.565	0.171	-0.151
-140.472	477.914	-0.132	-0.295
-139.458	-141.506	-0.068	-0.007
-138.443	78.062	-0.259	-0.274
-137.429	-13.723	0.211	-0.135
-136.414	697.209	0.063	-0.163
-135.399	-101.923	0.260	-0.062
-134.385	-200.000	-0.039	0.176
-133.370	-200.000	-0.006	0.343
-132.356	226.112	-0.161	0.258
-131.341	218.562	-0.114	-0.180
-130.326	286.004	-0.112	0.200
-129.312	24.071	0.216	0.176
-128.297	3.772	0.284	0.205
-127.283	-200.000	-0.017	-0.171
-126.268	-200.000	0.011	0.094
-125.253	35.955	-0.179	0.156
-124.239	-176.524	0.255	0.007
-123.224	-13.743	0.142	-0.091
-122.210	341.337	0.019	0.036
-121.195	-100.005	-0.461	0.114
