DTS Sentinel unit serial number:	SN413079Multiplexer serial number:	ORYXHardware model number:	OX4-SRSoftware version number:	ORYX F/W v4.00 Oryx Data Collector v3.7.2.0data status	okinstallation	princeton_trtdifferential loss correction	single-endedforward channel	channel 3reverse channel	N/Adate	2019/09/11time	11:42:11forward acquisition time	60.00reverse acquisition time	0.00gamma	496.2192k internal	0.2293k external	0.2293temperature offset calibration	0.9938default loss term (dB/km)	0.3790temperature slope calibration	1.0000multiplexer offset coefficient	1.0000multiplexer slope coefficient	1.0000fibre end	0.00T internal ref (°C)	38.50T ext. ref 1 (°C)	0.17T ext. ref 2 (°C)	36.16length (m)	temperature (°C)	Stokes	anti-Stokes-747.200	-200.000	0.001	-0.010
-746.185	292.287	0.112	0.208
-745.171	13.155	0.104	-0.083
-744.156	-88.349	-0.276	0.085
-743.142	60.143	-0.015	0.015
-742.127	-110.789	-0.218	0.046
-741.112	-134.347	0.189	-0.024
-740.098	-29.973	0.109	-0.064
-739.083	-73.526	-0.166	-0.062
-738.069	-200.000	0.189	0.001
-737.054	188.688	0.058	-0.089
-736.039	-104.286	-0.266	0.063
-735.025	-66.422	0.353	-0.144
-734.010	-200.000	-0.021	-0.129
-732.996	-86.515	-0.486	-0.152
-731.981	-128.661	0.041	0.006
-730.966	661.383	-0.115	-0.304
-729.952	60.695	-0.271	0.275
-728.937	-89.987	-0.236	-0.070
-727.923	287.391	0.172	-0.318
-726.908	20.935	-0.182	-0.151
-725.894	124.469	-0.162	-0.208
-724.879	553.661	-0.174	-0.428
-723.864	800.000	0.018	-0.078
-722.850	-200.000	-0.054	-0.330
-721.835	273.889	0.159	0.288
-720.821	-11.922	0.108	0.072
-719.806	-11.269	0.128	0.086
-718.791	-200.000	0.051	-0.451
-717.777	-58.824	-0.124	0.055
-716.762	-133.698	-0.602	-0.077
-715.748	-142.904	-0.107	0.011
-714.733	800.000	0.088	-0.260
-713.718	800.000	0.068	-0.277
-712.704	-129.476	-0.342	-0.048
-711.689	-58.831	0.113	-0.050
-710.675	-111.389	0.158	0.033
-709.660	280.906	-0.105	0.192
-708.645	-83.723	-0.160	-0.052
-707.631	-14.371	0.282	0.185
-706.616	-135.772	-0.277	0.033
-705.602	176.983	0.150	-0.223
-704.587	-200.000	-0.015	-0.254
-703.572	-200.000	-0.005	0.113
-702.558	783.728	-0.112	-0.314
-701.543	16.285	0.281	0.226
-700.529	277.711	-0.160	0.291
-699.514	-57.426	0.099	-0.044
-698.499	-63.714	-0.420	0.176
-697.485	-200.000	-0.022	0.166
-696.470	53.202	0.226	-0.221
-695.456	85.072	-0.122	0.137
-694.441	-112.587	0.324	-0.066
-693.426	82.219	-0.134	0.148
-692.412	-15.912	0.280	0.182
-691.397	38.042	-0.295	0.268
-690.383	238.177	-0.145	-0.246
-689.368	-37.210	0.222	-0.121
-688.354	-23.624	-0.482	-0.295
-687.339	-200.000	0.100	0.721
-686.324	411.266	0.177	0.384
-685.310	-200.000	0.031	0.159
-684.295	376.808	0.130	0.271
-683.281	-140.678	0.130	0.014
-682.266	-200.000	-0.051	0.291
-681.251	800.000	-0.094	-0.327
-680.237	131.703	0.125	0.164
-679.222	-32.046	0.136	0.078
-678.208	-112.163	-0.223	0.046
-677.193	17.866	-0.375	-0.304
-676.178	-151.287	-0.186	-0.014
-675.164	-113.168	0.380	0.076
-674.149	-200.000	-0.010	0.345
-673.135	800.000	0.062	0.214
-672.120	-31.481	0.156	-0.089
-671.105	408.795	-0.067	0.144
-670.091	420.541	-0.123	0.268
-669.076	199.434	-0.067	-0.105
-668.062	-200.000	-0.042	-0.472
-667.047	2.624	0.335	-0.248
-666.032	216.054	0.178	-0.289
-665.018	110.969	-0.136	0.167
-664.003	46.688	0.105	0.099
-662.989	-129.006	0.269	-0.038
-661.974	36.780	0.098	0.088
-660.959	-177.240	-0.292	0.007
-659.945	-200.000	-0.077	-0.398
-658.930	-124.234	-0.355	0.057
-657.916	-59.463	-0.198	-0.087
-656.901	92.512	-0.045	0.052
-655.886	-86.298	0.229	-0.072
-654.872	-200.000	0.002	-0.123
-653.857	-83.204	0.057	0.019
-652.843	118.260	0.094	-0.118
-651.828	372.806	0.186	-0.385
-650.814	-60.958	-0.117	0.050
-649.799	14.845	-0.254	-0.202
-648.784	-200.000	-0.031	-0.211
-647.770	-104.734	-0.115	-0.027
-646.755	-11.951	0.167	-0.111
-645.741	490.435	-0.094	-0.219
-644.726	132.554	0.172	-0.225
-643.711	800.000	-0.087	0.299
-642.697	800.000	-0.119	0.353
-641.682	536.040	-0.115	0.278
-640.668	157.566	0.024	-0.034
-639.653	350.401	-0.070	0.141
-638.638	-200.000	0.027	-0.274
-637.624	-200.000	0.032	-0.164
-636.609	51.535	0.418	0.405
-635.595	800.000	0.057	-0.216
-634.580	-58.248	-0.248	-0.110
-633.565	-58.264	0.069	0.031
-632.551	-132.635	0.192	-0.025
-631.536	379.612	0.041	0.085
-630.522	223.024	-0.066	0.108
-629.507	67.566	0.180	-0.187
-628.492	47.508	-0.253	-0.240
-627.478	-200.000	-0.000	-0.318
-626.463	234.891	-0.168	-0.282
-625.449	-33.698	-0.325	-0.183
-624.434	-65.530	0.096	-0.039
-623.419	27.044	0.181	0.154
-622.405	335.469	0.192	0.378
-621.390	-200.000	0.034	0.365
-620.376	-156.319	-0.323	0.021
-619.361	-200.000	0.020	-0.274
-618.346	38.656	0.067	0.061
-617.332	203.661	-0.062	-0.098
-616.317	-123.836	-0.145	0.023
-615.303	-49.238	0.282	0.137
-614.288	-129.948	-0.262	0.037
-613.273	-200.000	0.007	0.089
-612.259	507.499	-0.109	-0.258
-611.244	800.000	-0.140	0.409
-610.230	-95.048	0.373	-0.103
-609.215	-114.005	-0.300	0.059
-608.201	66.936	0.153	0.159
-607.186	18.190	-0.309	-0.251
-606.171	-84.819	0.168	0.054
-605.157	12.657	-0.348	0.273
-604.142	-200.000	0.006	-0.163
-603.128	187.901	0.247	0.375
-602.113	-144.928	-0.071	-0.007
-601.098	-117.541	-0.481	0.088
-600.084	318.889	0.117	-0.225
-599.069	-120.497	-0.217	0.037
-598.055	423.775	-0.109	0.239
-597.040	-59.103	-0.239	-0.105
-596.025	-200.000	-0.023	0.240
-595.011	-200.000	-0.011	0.252
-593.996	-23.474	-0.308	-0.188
-592.982	318.691	-0.096	0.184
-591.967	220.891	0.186	0.304
-590.952	800.000	0.008	0.030
-589.938	374.126	-0.157	-0.324
-588.923	61.565	0.134	0.136
-587.909	144.485	0.038	-0.052
-586.894	-96.001	-0.227	0.061
-585.879	1.604	0.109	0.080
-584.865	-50.743	0.173	0.083
-583.850	-195.767	0.076	0.001
-582.836	-85.217	-0.116	-0.037
-581.821	-200.000	-0.018	-0.367
-580.806	46.744	-0.064	0.060
-579.792	-82.185	-0.306	-0.101
-578.777	-104.275	0.185	-0.044
-577.763	118.657	0.194	-0.244
-576.748	529.421	-0.051	0.122
-575.733	488.816	0.118	-0.274
-574.719	566.365	-0.097	0.239
-573.704	-48.913	-0.222	0.108
-572.690	-82.583	0.006	0.002
-571.675	-200.000	-0.026	-0.126
-570.661	-146.704	0.102	-0.009
-569.646	-79.205	-0.208	-0.072
-568.631	-110.325	-0.255	0.054
-567.617	235.712	0.080	-0.135
-566.602	-200.000	0.027	0.325
-565.588	-75.549	0.277	-0.100
-564.573	-200.000	-0.030	-0.313
-563.558	214.121	0.126	0.202
-562.544	-7.493	0.062	-0.043
-561.529	238.546	-0.099	-0.168
-560.515	-0.406	0.105	-0.075
-559.500	-72.240	-0.250	0.094
-558.485	-31.095	0.253	-0.145
-557.471	213.058	-0.135	-0.217
-556.456	192.515	-0.081	-0.125
-555.442	89.566	-0.104	0.118
-554.427	41.403	-0.245	0.225
-553.412	800.000	-0.137	0.401
-552.398	-200.000	-0.019	-0.379
-551.383	-83.975	0.281	-0.091
-550.369	263.475	0.033	-0.058
-549.354	800.000	0.060	0.234
-548.339	-114.299	0.198	0.039
-547.325	19.648	-0.042	-0.034
-546.310	201.522	-0.081	0.127
-545.296	-19.662	-0.468	-0.294
-544.281	-18.443	-0.094	-0.059
-543.266	-44.926	0.267	0.135
-542.252	27.716	-0.076	-0.065
-541.237	-200.000	-0.076	-0.393
-540.223	110.630	0.114	-0.139
-539.208	-23.700	0.182	-0.111
-538.193	419.452	0.033	0.073
-537.179	-58.475	-0.182	0.080
-536.164	-200.000	-0.026	-0.214
-535.150	239.365	-0.057	-0.096
-534.135	800.000	-0.091	0.264
-533.121	-58.665	-0.113	-0.050
-532.106	469.830	0.063	0.144
-531.091	454.528	-0.092	0.207
-530.077	489.154	-0.095	-0.219
-529.062	105.705	0.242	0.290
-528.048	-200.000	-0.030	-0.276
-527.033	-157.490	0.216	0.013
-526.018	360.289	-0.063	-0.128
-525.004	-13.453	0.048	0.031
-523.989	767.674	0.154	0.425
-522.975	-200.000	0.008	-0.182
-521.960	254.864	0.122	0.212
-520.945	202.190	-0.059	0.092
-519.931	-17.118	-0.124	0.079
-518.916	-22.271	0.102	0.063
-517.902	-138.446	0.240	0.027
-516.887	730.178	-0.110	0.297
-515.872	-40.860	0.003	0.002
-514.858	-30.515	0.135	0.078
-513.843	-5.570	-0.170	-0.118
-512.829	43.275	-0.133	0.123
-511.814	-73.429	-0.140	-0.052
-510.799	800.000	0.052	-0.150
-509.785	16.969	0.058	0.046
-508.770	-200.000	0.021	-0.350
-507.756	43.346	-0.126	0.117
-506.741	45.623	0.241	0.226
-505.726	182.621	0.048	-0.071
-504.712	-194.634	0.199	0.002
-503.697	56.861	0.145	0.143
-502.683	-200.000	-0.037	-0.293
-501.668	-200.000	-0.000	0.130
-500.653	-52.729	-0.266	0.124
-499.639	74.179	-0.211	0.225
-498.624	-0.302	-0.109	-0.079
-497.610	-200.000	-0.012	-0.265
-496.595	-108.847	0.240	0.052
-495.581	63.097	-0.071	0.072
-494.566	13.401	-0.145	0.114
-493.551	-200.000	-0.035	0.246
-492.537	231.525	0.178	0.295
-491.522	84.389	-0.079	0.087
-490.508	-26.734	-0.290	-0.172
-489.493	128.304	0.057	-0.073
-488.478	383.574	0.052	0.109
-487.464	196.008	-0.034	0.053
-486.449	13.132	-0.225	-0.177
-485.435	-68.878	0.206	0.081
-484.420	-200.000	0.005	-0.072
-483.405	800.000	0.092	-0.347
-482.391	171.570	-0.141	0.206
-481.376	-9.628	-0.421	-0.284
-480.362	202.183	-0.123	-0.193
-479.347	239.339	0.221	0.372
-478.332	-47.124	-0.127	-0.063
-477.318	-154.764	0.149	0.010
-476.303	286.982	-0.059	0.107
-475.289	193.900	0.109	-0.168
-474.274	-9.992	-0.197	-0.133
-473.259	800.000	-0.079	0.281
-472.245	-74.325	-0.406	0.148
-471.230	359.695	-0.042	-0.085
-470.216	-200.000	-0.030	-0.238
-469.201	-96.241	0.163	0.044
-468.186	429.319	0.068	-0.149
-467.172	473.381	0.133	0.304
-466.157	77.732	-0.125	0.134
-465.143	-92.519	0.129	0.037
-464.128	-200.000	-0.036	0.170
-463.113	-156.054	-0.201	-0.013
-462.099	-117.407	0.086	0.016
-461.084	55.100	0.068	-0.066
-460.070	77.906	-0.089	-0.096
-459.055	326.203	-0.033	0.064
-458.040	261.331	-0.087	-0.153
-457.026	463.049	-0.185	0.417
-456.011	-113.733	0.077	0.015
-454.997	-29.071	-0.130	-0.075
-453.982	101.667	0.150	0.177
-452.968	203.697	0.137	0.215
-451.953	92.384	-0.082	0.094
-450.938	116.341	-0.122	-0.151
-449.924	-79.485	-0.138	-0.047
-448.909	126.633	-0.031	-0.040
-447.895	800.000	0.052	0.214
-446.880	450.699	-0.109	-0.242
-445.865	144.740	0.048	0.064
-444.851	10.184	0.153	-0.118
-443.836	-200.000	-0.004	-0.077
-442.822	-135.478	0.071	-0.009
-441.807	800.000	-0.023	-0.080
-440.792	-147.036	-0.172	-0.015
-439.778	327.203	0.051	0.099
-438.763	87.504	-0.200	0.223
-437.749	-20.790	-0.238	0.147
-436.734	33.261	-0.160	-0.140
-435.719	-54.008	-0.245	-0.113
-434.705	195.286	-0.042	0.064
-433.690	144.542	0.266	-0.359
-432.676	-200.000	-0.013	-0.251
-431.661	800.000	-0.052	0.161
-430.646	-200.000	-0.050	-0.244
-429.632	-88.657	0.209	-0.063
-428.617	800.000	0.095	0.267
-427.603	3.658	0.108	0.080
-426.588	-200.000	0.014	-0.185
-425.573	-113.683	-0.232	0.046
-424.559	-200.000	0.017	0.301
-423.544	22.926	-0.292	-0.242
-422.530	-41.251	0.348	-0.181
-421.515	509.729	-0.092	0.216
-420.500	-80.983	-0.183	0.061
-419.486	-101.387	-0.379	0.093
-418.471	-49.938	0.181	-0.087
-417.457	69.568	-0.144	-0.150
-416.442	-200.000	-0.008	-0.278
-415.428	162.578	-0.090	0.128
-414.413	-3.971	0.029	0.020
-413.398	249.219	-0.072	-0.123
-412.384	48.738	0.065	-0.062
-411.369	110.022	-0.080	0.096
-410.355	-72.622	-0.126	0.047
-409.340	41.853	0.134	0.123
-408.325	9.369	0.260	-0.199
-407.311	387.732	-0.029	-0.060
-406.296	800.000	-0.126	-0.373
-405.282	-16.281	0.086	0.055
-404.267	-71.901	0.047	0.018
-403.252	-66.337	0.161	-0.065
-402.238	-110.976	-0.382	0.079
-401.223	45.624	0.170	0.159
-400.209	-22.459	0.192	0.118
-399.194	-113.197	0.558	-0.111
-398.179	-200.000	0.044	0.281
-397.165	-98.459	0.077	-0.020
-396.150	-200.000	-0.008	0.591
-395.136	-200.000	-0.023	0.103
-394.121	496.643	0.073	0.168
-393.106	163.282	0.085	-0.120
-392.092	-200.000	0.035	0.438
-391.077	-20.245	0.275	-0.171
-390.063	800.000	0.025	0.106
-389.048	-44.450	0.310	-0.156
-388.033	-67.501	-0.200	-0.079
-387.019	-7.174	-0.133	-0.091
-386.004	121.802	-0.059	0.074
-384.990	563.281	-0.103	-0.252
-383.975	-200.000	0.037	-0.431
-382.960	-109.232	-0.200	-0.043
-381.946	-23.655	-0.288	0.174
-380.931	521.472	-0.166	-0.393
-379.917	800.000	-0.076	-0.257
-378.902	85.347	0.097	0.107
-377.888	-159.962	0.200	0.011
-376.873	-12.630	-0.028	0.018
-375.858	-6.547	0.224	-0.154
-374.844	-200.000	-0.024	-0.128
-373.829	-200.000	0.016	-0.138
-372.815	-200.000	-0.005	0.087
-371.800	202.150	0.096	0.149
-370.785	13.671	-0.143	0.112
-369.771	800.000	-0.072	0.277
-368.756	-200.000	-0.034	-0.254
-367.742	528.142	-0.098	0.232
-366.727	-200.000	-0.026	0.515
-365.712	119.099	-0.106	0.132
-364.698	-64.732	0.231	0.094
-363.683	-68.620	-0.167	0.065
-362.669	-23.487	-0.041	-0.025
-361.654	-122.740	0.473	0.077
-360.639	581.020	-0.138	0.340
-359.625	126.532	0.069	-0.088
-358.610	780.402	0.060	0.165
-357.596	19.719	0.169	0.137
-356.581	387.145	0.081	0.168
-355.566	46.104	0.040	-0.038
-354.552	322.097	0.169	0.324
-353.537	-27.201	0.113	0.067
-352.523	-200.000	-0.037	0.175
-351.508	-42.759	0.188	0.096
-350.493	97.099	0.135	-0.156
-349.479	-193.449	0.061	-0.001
-348.464	259.423	-0.058	0.100
-347.450	218.249	0.134	0.215
-346.435	-200.000	-0.019	-0.168
-345.420	800.000	-0.140	0.445
-344.406	25.992	-0.188	-0.158
-343.391	-137.994	0.227	0.025
-342.377	154.923	0.056	-0.078
-341.362	-125.803	-0.146	0.022
-340.348	186.088	-0.127	0.191
-339.333	-200.000	-0.009	0.055
-338.318	-71.741	0.046	-0.017
-337.304	-132.862	-0.331	-0.043
-336.289	800.000	0.067	0.191
-335.275	187.158	-0.025	-0.037
-334.260	-200.000	0.052	0.369
-333.245	-200.000	-0.046	-0.323
-332.231	20.508	0.264	0.215
-331.216	-200.000	0.011	0.072
-330.202	13.141	0.136	-0.106
-329.187	-184.060	0.295	0.005
-328.172	127.550	-0.098	0.126
-327.158	-27.066	0.274	-0.161
-326.143	117.663	-0.069	0.085
-325.129	-200.000	-0.007	0.076
-324.114	-200.000	0.039	-0.215
-323.099	-200.000	0.021	0.211
-322.085	-200.000	0.021	-0.154
-321.070	-200.000	-0.004	-0.118
-320.056	122.889	0.195	0.245
-319.041	14.372	-0.211	-0.166
-318.026	412.514	-0.114	-0.244
-317.012	82.801	0.226	-0.247
-315.997	81.979	0.271	0.296
-314.983	100.052	0.067	0.079
-313.968	-120.653	0.382	0.065
-312.953	-200.000	-0.019	-0.100
-311.939	560.346	-0.146	0.355
-310.924	-200.000	0.012	0.226
-309.910	265.320	0.286	0.501
-308.895	36.270	0.249	0.221
-307.880	800.000	0.036	0.153
-306.866	-200.000	0.027	-0.179
-305.851	62.338	-0.225	-0.226
-304.837	-60.080	0.221	-0.095
-303.822	125.916	0.181	-0.230
-302.807	-171.978	0.053	-0.002
-301.793	-65.664	0.177	-0.071
-300.778	800.000	-0.067	-0.255
-299.764	668.947	-0.038	-0.099
-298.749	-98.202	-0.423	-0.109
-297.735	382.281	0.043	-0.090
-296.720	-200.000	-0.032	0.154
-295.705	66.794	0.091	-0.093
-294.691	338.146	0.172	-0.337
-293.676	-200.000	-0.018	-0.102
-292.662	800.000	-0.175	0.492
-291.647	17.003	-0.108	-0.086
-290.632	52.053	-0.146	-0.140
-289.618	-200.000	-0.014	0.115
-288.603	12.654	0.176	-0.137
-287.589	97.826	-0.154	0.178
-286.574	-200.000	-0.008	-0.379
-285.559	-133.295	-0.280	-0.036
-284.545	173.643	-0.017	-0.025
-283.530	303.135	-0.202	-0.376
-282.516	-200.000	-0.002	-0.282
-281.501	47.511	0.074	-0.070
-280.486	21.769	0.102	0.083
-279.472	800.000	0.084	0.340
-278.457	-28.182	-0.078	-0.045
-277.443	-130.971	-0.301	-0.040
-276.428	-83.503	-0.221	-0.071
-275.413	-34.320	0.436	0.240
-274.399	-36.724	0.208	0.112
-273.384	-70.303	-0.148	0.056
-272.370	129.147	-0.171	-0.219
-271.355	316.708	0.096	-0.183
-270.340	16.619	0.217	0.172
-269.326	-39.355	-0.070	-0.037
-268.311	-53.745	0.440	-0.202
-267.297	-200.000	0.024	-0.282
-266.282	103.263	-0.126	-0.148
-265.267	96.252	-0.045	0.051
-264.253	-100.725	0.110	-0.027
-263.238	-156.454	-0.181	-0.011
-262.224	-169.617	0.140	0.005
-261.209	800.000	0.051	0.147
-260.195	327.320	-0.107	-0.206
-259.180	404.961	-0.037	0.077
-258.165	752.245	0.035	-0.096
-257.151	274.811	0.218	0.387
-256.136	-21.374	0.092	-0.056
-255.122	476.542	0.159	-0.360
-254.107	800.000	-0.060	0.209
-253.092	-146.395	-0.376	-0.033
-252.078	-15.475	0.055	-0.036
-251.063	-200.000	0.004	0.141
-250.049	-200.000	0.049	-0.240
-249.034	237.020	0.064	0.106
-248.019	800.000	0.020	-0.072
-247.005	-200.000	-0.019	0.116
-245.990	-130.446	-0.308	-0.042
-244.976	159.426	0.016	-0.022
-243.961	-136.144	-0.178	-0.021
-242.946	138.826	0.148	0.195
-241.932	-200.000	-0.051	-0.236
-240.917	115.928	0.036	0.045
-239.903	-146.751	-0.443	-0.038
-238.888	475.784	0.074	0.167
-237.873	156.912	0.223	-0.309
-236.859	678.738	0.117	0.305
-235.844	-200.000	-0.009	-0.339
-234.830	84.635	-0.023	-0.025
-233.815	800.000	0.080	0.279
-232.800	1.851	-0.114	0.082
-231.786	227.881	-0.035	-0.057
-230.771	-50.614	0.250	-0.118
-229.757	5.128	-0.209	0.154
-228.742	800.000	-0.035	0.102
-227.727	-5.424	0.084	0.057
-226.713	-200.000	-0.063	-0.368
-225.698	-70.970	-0.209	0.079
-224.684	-108.547	0.119	-0.026
-223.669	-70.090	-0.129	-0.049
-222.655	-33.388	-0.105	0.058
-221.640	800.000	-0.082	-0.258
-220.625	-37.425	0.212	-0.114
-219.611	-113.000	0.092	0.018
-218.596	-124.149	-0.347	-0.054
-217.582	36.334	0.129	-0.114
-216.567	-102.030	0.183	0.044
-215.552	26.263	-0.250	0.209
-214.538	-149.346	0.162	-0.013
-213.523	521.574	-0.134	-0.316
-212.509	-200.000	0.008	-0.270
-211.494	-167.146	0.195	-0.008
-210.479	-66.317	-0.061	-0.024
-209.465	151.521	0.235	0.321
-208.450	800.000	0.072	-0.227
-207.436	745.219	0.126	-0.340
-206.421	-37.511	0.178	-0.095
-205.406	-177.299	-0.417	-0.010
-204.392	-101.527	0.197	-0.048
-203.377	-70.379	0.036	-0.014
-202.363	-124.067	-0.142	-0.022
-201.348	-17.510	-0.190	-0.120
-200.333	-36.933	-0.341	-0.183
-199.319	-169.725	0.330	0.012
-198.304	-7.517	0.193	-0.131
-197.290	-109.730	-0.130	-0.027
-196.275	-200.000	-0.018	0.146
-195.260	-158.688	-0.306	0.018
-194.246	222.771	-0.135	0.218
-193.231	71.960	0.077	0.080
-192.217	223.926	0.129	0.209
-191.202	-200.000	-0.009	-0.173
-190.187	720.062	-0.112	-0.298
-189.173	-57.459	0.434	-0.191
-188.158	247.093	-0.111	-0.188
-187.144	-79.451	-0.168	-0.057
-186.129	163.930	-0.132	-0.186
-185.114	-200.000	0.030	0.154
-184.100	-25.513	-0.232	-0.137
-183.085	307.142	-0.089	-0.166
-182.071	-110.650	0.183	0.038
-181.056	162.660	0.156	-0.219
-180.042	-153.051	-0.127	-0.009
-179.027	-33.658	0.224	0.124
-178.012	-200.000	0.009	-0.263
-176.998	-16.968	0.142	0.090
-175.983	-134.612	0.264	-0.032
-174.969	347.073	0.074	-0.145
-173.954	17.310	-0.082	-0.065
-172.939	-19.528	-0.124	-0.077
-171.925	-200.000	0.115	0.603
-170.910	509.494	-0.083	0.194
-169.896	800.000	-0.090	0.274
-168.881	-88.664	0.483	-0.144
-167.866	192.121	0.126	-0.190
-166.852	800.000	0.060	0.204
-165.837	-73.937	0.363	-0.132
-164.823	-125.318	0.269	-0.041
-163.808	-64.133	-0.224	0.091
-162.793	-6.909	0.096	-0.066
-161.779	161.789	-0.226	-0.316
-160.764	-134.680	0.254	-0.031
-159.750	5.415	-0.139	0.103
-158.735	105.256	-0.079	-0.093
-157.720	-48.404	0.507	0.244
-156.706	-200.000	-0.002	-0.054
-155.691	683.890	0.033	0.087
-154.677	-76.226	0.361	-0.127
-153.662	5.913	0.213	-0.157
-152.647	-200.000	0.061	0.306
-151.633	-99.324	-0.200	0.050
-150.618	315.645	-0.118	0.223
-149.604	-200.000	0.009	0.246
-148.589	539.191	0.100	0.238
-147.574	-110.564	0.019	-0.004
-146.560	-200.000	-0.004	0.238
-145.545	146.783	0.340	0.457
-144.531	171.579	-0.156	0.224
-143.516	8.321	-0.027	-0.021
-142.502	601.596	0.088	0.217
-141.487	-24.457	0.246	-0.147
-140.472	441.380	0.040	-0.087
-139.458	800.000	0.021	0.075
-138.443	226.581	0.113	0.184
-137.429	72.999	0.354	0.369
-136.414	18.717	-0.312	0.249
-135.399	-114.023	-0.357	-0.069
-134.385	-145.292	0.208	-0.019
-133.370	37.929	-0.197	0.175
-132.356	-200.000	0.037	0.293
-131.341	-110.540	-0.377	-0.078
-130.326	-96.041	-0.412	-0.109
-129.312	-200.000	0.015	0.382
-128.297	-83.013	0.080	0.026
-127.283	800.000	0.024	-0.082
-126.268	-200.000	-0.006	0.221
-125.253	-200.000	-0.004	-0.048
-124.239	-87.624	0.281	-0.085
-123.224	-200.000	0.014	0.209
-122.210	-200.000	-0.020	0.173
