DTS Sentinel unit serial number:	SN413079Multiplexer serial number:	ORYXHardware model number:	OX4-SRSoftware version number:	ORYX F/W v4.00 Oryx Data Collector v3.7.2.0data status	okinstallation	princeton_trtdifferential loss correction	single-endedforward channel	channel 3reverse channel	N/Adate	2019/09/12time	06:14:11forward acquisition time	60.00reverse acquisition time	0.00gamma	496.2192k internal	0.2320k external	0.2320temperature offset calibration	1.0035default loss term (dB/km)	0.3790temperature slope calibration	1.0000multiplexer offset coefficient	1.0000multiplexer slope coefficient	1.0000fibre end	0.00T internal ref (°C)	32.12T ext. ref 1 (°C)	1.56T ext. ref 2 (°C)	27.42length (m)	temperature (°C)	Stokes	anti-Stokes-747.200	-5.467	-0.092	-0.064
-746.185	-151.636	0.161	-0.012
-745.171	-164.824	0.106	-0.005
-744.156	559.761	-0.092	0.225
-743.142	-113.445	0.013	0.002
-742.127	-40.415	-0.425	0.223
-741.112	-71.537	0.441	-0.167
-740.098	-106.389	-0.192	0.043
-739.083	253.631	-0.098	0.169
-738.069	-54.844	0.235	0.107
-737.054	-53.709	-0.320	-0.148
-736.039	800.000	0.059	-0.195
-735.025	-0.860	0.358	0.256
-734.010	-7.272	0.134	-0.092
-732.996	-106.766	0.385	0.086
-731.981	181.546	0.094	0.139
-730.966	-6.779	-0.265	-0.182
-729.952	85.721	-0.167	-0.186
-728.937	338.245	0.049	0.096
-727.923	-200.000	-0.049	-0.392
-726.908	2.031	-0.099	0.072
-725.894	46.032	0.077	0.072
-724.879	0.497	-0.210	0.152
-723.864	800.000	-0.026	0.111
-722.850	800.000	-0.099	0.317
-721.835	155.662	-0.212	0.294
-720.821	171.938	-0.234	-0.339
-719.806	143.491	0.234	-0.315
-718.791	657.993	0.031	-0.081
-717.777	-72.439	0.115	0.043
-716.762	-29.812	-0.019	-0.011
-715.748	-9.980	0.148	-0.100
-714.733	7.909	0.262	-0.199
-713.718	50.932	-0.061	-0.058
-712.704	-200.000	0.017	0.355
-711.689	-63.819	-0.316	-0.131
-710.675	274.582	-0.075	0.134
-709.660	-119.950	-0.150	-0.026
-708.645	-8.076	0.151	0.103
-707.631	-200.000	0.069	-0.401
-706.616	-61.229	0.175	0.075
-705.602	-200.000	-0.009	0.103
-704.587	1.669	-0.412	-0.300
-703.572	-167.063	-0.332	0.014
-702.558	237.199	-0.027	0.045
-701.543	246.175	0.145	-0.246
-700.529	294.205	-0.096	0.178
-699.514	317.618	0.159	-0.304
-698.499	447.368	-0.110	0.245
-697.485	-116.048	0.209	0.039
-696.470	501.639	0.110	-0.256
-695.456	278.673	-0.128	-0.231
-694.441	-111.097	0.262	0.054
-693.426	-48.038	-0.298	-0.145
-692.412	-134.995	0.343	0.042
-691.397	-6.801	0.177	0.122
-690.383	51.798	0.256	0.246
-689.368	-97.759	0.032	0.008
-688.354	744.188	0.038	-0.102
-687.339	151.983	-0.040	0.056
-686.324	-123.316	0.224	0.036
-685.310	-149.937	-0.330	-0.026
-684.295	-39.234	0.187	-0.099
-683.281	-58.259	0.359	-0.158
-682.266	800.000	-0.057	-0.200
-681.251	319.226	0.030	-0.058
-680.237	-6.087	-0.145	-0.100
-679.222	-12.445	-0.082	0.054
-678.208	103.778	-0.265	-0.315
-677.193	-101.593	-0.303	-0.074
-676.178	-103.745	-0.080	0.019
-675.164	-127.484	-0.196	0.029
-674.149	352.618	-0.051	-0.103
-673.135	-187.164	0.172	-0.002
-672.120	-3.358	-0.183	-0.128
-671.105	-168.701	-0.058	-0.002
-670.091	18.728	0.258	-0.208
-669.076	-28.072	-0.214	0.125
-668.062	-200.000	0.002	0.153
-667.047	-200.000	-0.024	0.266
-666.032	-200.000	0.002	0.401
-665.018	264.201	0.194	-0.340
-664.003	457.538	-0.065	0.145
-662.989	-200.000	0.037	0.401
-661.974	-16.783	0.038	-0.025
-660.959	-61.836	0.055	0.023
-659.945	339.041	0.154	0.303
-658.930	25.845	0.129	0.109
-657.916	-120.730	-0.261	-0.044
-656.901	-23.219	-0.327	0.198
-655.886	800.000	-0.036	-0.151
-654.872	-57.754	-0.261	0.115
-653.857	-200.000	-0.007	-0.056
-652.843	-79.898	0.549	-0.186
-651.828	-127.528	-0.347	0.051
-650.814	-98.489	0.393	-0.101
-649.799	122.430	-0.098	-0.124
-648.784	-177.084	-0.206	-0.005
-647.770	-200.000	0.003	0.139
-646.755	35.178	0.179	0.158
-645.741	-46.293	-0.242	0.120
-644.726	-200.000	0.099	-0.492
-643.711	-4.844	0.079	-0.055
-642.697	-48.956	0.172	0.083
-641.682	-200.000	-0.002	0.136
-640.668	619.516	-0.145	-0.368
-639.653	14.858	0.102	-0.080
-638.638	-169.306	0.304	0.011
-637.624	300.479	0.040	0.073
-636.609	800.000	-0.037	-0.157
-635.595	-111.912	0.111	0.023
-634.580	755.595	-0.080	0.219
-633.565	800.000	0.111	-0.343
-632.551	24.974	0.196	0.163
-631.536	221.718	0.161	-0.260
-630.522	-17.763	-0.247	-0.156
-629.507	-200.000	-0.003	0.309
-628.492	-74.063	-0.186	-0.068
-627.478	610.506	-0.090	-0.227
-626.463	-123.991	-0.228	0.036
-625.449	385.704	0.077	-0.159
-624.434	-101.419	0.114	-0.028
-623.419	36.506	-0.296	0.263
-622.405	-101.567	0.215	0.053
-621.390	-74.849	-0.168	0.061
-620.376	319.330	-0.122	0.232
-619.361	102.555	-0.179	0.211
-618.346	127.900	0.005	-0.006
-617.332	-136.848	0.220	0.025
-616.317	83.872	-0.197	0.216
-615.303	-49.002	-0.209	-0.101
-614.288	-119.323	-0.116	0.020
-613.273	-66.305	-0.093	-0.037
-612.259	-200.000	-0.103	-0.479
-611.244	-200.000	0.022	-0.380
-610.230	46.120	-0.012	0.011
-609.215	-77.377	0.271	-0.095
-608.201	-200.000	0.040	-0.255
-607.186	-118.699	-0.172	0.031
-606.171	25.226	0.220	-0.183
-605.157	-200.000	-0.055	0.270
-604.142	-67.324	0.501	0.198
-603.128	-89.757	-0.035	0.010
-602.113	-101.905	-0.418	-0.102
-601.098	800.000	-0.158	-0.557
-600.084	82.003	-0.032	-0.035
-599.069	353.287	0.040	-0.081
-598.055	-48.406	0.177	0.086
-597.040	-118.005	0.126	-0.023
-596.025	14.315	-0.079	-0.062
-595.011	-200.000	0.033	-0.220
-593.996	-144.213	-0.323	0.030
-592.982	586.800	0.155	0.383
-591.967	-86.312	0.120	0.037
-590.952	299.885	-0.178	0.330
-589.938	800.000	-0.034	-0.098
-588.923	442.578	0.058	0.128
-587.909	-136.928	0.248	-0.029
-586.894	-59.068	-0.185	0.080
-585.879	40.677	-0.148	0.134
-584.865	-157.952	0.306	-0.018
-583.850	-63.769	0.520	0.214
-582.836	327.678	0.010	0.019
-581.821	180.200	0.248	0.366
-580.806	-86.297	0.118	-0.037
-579.792	-191.037	0.141	-0.001
-578.777	36.413	0.108	-0.096
-577.763	-200.000	-0.009	0.178
-576.748	800.000	-0.075	0.210
-575.733	247.626	0.179	-0.303
-574.719	409.677	-0.126	-0.268
-573.704	-37.998	-0.158	0.084
-572.690	-200.000	0.029	0.174
-571.675	-104.255	-0.062	0.015
-570.661	-81.665	0.274	0.090
-569.646	-138.599	-0.066	-0.007
-568.631	631.477	-0.027	0.070
-567.617	-200.000	0.013	0.121
-566.602	-128.449	0.211	0.030
-565.588	14.359	0.058	0.045
-564.573	259.384	-0.079	0.136
-563.558	-165.333	-0.296	-0.013
-562.544	178.899	0.116	-0.170
-561.529	-169.858	-0.041	0.001
-560.515	16.392	-0.204	0.162
-559.500	23.428	0.155	0.128
-558.485	69.792	-0.072	0.074
-557.471	-6.403	0.248	-0.170
-556.456	-103.706	0.144	0.034
-555.442	-6.929	0.229	0.156
-554.427	-198.007	-0.042	0.000
-553.412	-169.595	0.033	0.001
-552.398	-145.500	-0.152	-0.014
-551.383	-200.000	-0.022	-0.135
-550.369	57.288	0.128	0.125
-549.354	77.618	-0.120	-0.128
-548.339	-200.000	-0.002	0.260
-547.325	-36.753	-0.037	-0.020
-546.310	-200.000	0.037	0.250
-545.296	-200.000	-0.024	-0.266
-544.281	144.295	-0.067	-0.089
-543.266	-108.288	0.187	-0.041
-542.252	-143.112	0.274	0.027
-541.237	-200.000	-0.002	-0.303
-540.223	-60.082	0.098	0.042
-539.208	112.252	0.179	0.218
-538.193	-30.107	0.275	-0.157
-537.179	-200.000	0.009	-0.377
-536.164	-200.000	0.049	-0.285
-535.150	152.833	-0.059	-0.080
-534.135	-96.088	0.174	0.046
-533.121	-102.044	-0.148	-0.036
-532.106	-12.616	0.241	0.157
-531.091	-87.534	0.479	-0.145
-530.077	-43.269	-0.128	-0.065
-529.062	800.000	0.040	-0.129
-528.048	-68.836	0.190	0.073
-527.033	222.260	0.026	-0.043
-526.018	22.993	0.133	-0.109
-525.004	-6.896	-0.188	0.128
-523.989	138.861	-0.189	-0.249
-522.975	800.000	0.105	0.460
-521.960	-50.700	-0.167	-0.079
-520.945	-140.504	-0.094	0.010
-519.931	800.000	0.071	0.273
-518.916	-97.188	-0.354	0.093
-517.902	14.248	-0.247	-0.193
-516.887	-200.000	-0.033	-0.229
-515.872	329.179	-0.118	-0.227
-514.858	-200.000	0.029	0.270
-513.843	-36.997	0.080	0.043
-512.829	800.000	0.171	-0.500
-511.814	34.832	-0.262	-0.229
-510.799	257.254	0.055	0.094
-509.785	800.000	0.028	-0.108
-508.770	85.456	-0.160	-0.176
-507.756	-94.792	0.216	0.059
-506.741	800.000	0.059	0.226
-505.726	-16.383	-0.147	-0.094
-504.712	384.286	0.117	0.241
-503.697	449.791	0.121	0.268
-502.683	-74.466	-0.164	0.059
-501.668	96.584	-0.369	-0.424
-500.653	52.759	-0.107	-0.102
-499.639	-105.182	-0.322	-0.074
-498.624	-200.000	0.003	0.038
-497.610	-200.000	-0.001	0.052
-496.595	-200.000	-0.005	0.153
-495.581	800.000	-0.064	-0.178
-494.566	-35.758	-0.140	-0.076
-493.551	800.000	0.022	0.089
-492.537	-114.571	0.071	0.014
-491.522	-60.712	-0.133	-0.056
-490.508	-55.911	0.128	-0.057
-489.493	800.000	-0.086	-0.305
-488.478	513.196	-0.162	0.378
-487.464	25.472	-0.169	0.140
-486.449	38.013	-0.243	-0.216
-485.435	-200.000	-0.011	0.175
-484.420	483.911	-0.112	-0.256
-483.405	-134.451	-0.215	-0.026
-482.391	-200.000	0.040	0.343
-481.376	-46.635	0.216	-0.106
-480.362	147.638	-0.236	-0.318
-479.347	638.644	0.073	-0.186
-478.332	379.367	-0.083	-0.170
-477.318	-64.386	-0.067	0.027
-476.303	5.433	-0.060	0.044
-475.289	105.782	-0.169	-0.200
-474.274	-135.486	0.352	0.042
-473.259	-100.171	0.072	-0.018
-472.245	-58.332	-0.192	-0.084
-471.230	800.000	0.005	0.019
-470.216	147.133	-0.131	0.176
-469.201	-200.000	0.033	0.231
-468.186	-200.000	-0.013	-0.195
-467.172	-102.982	0.349	-0.083
-466.157	-200.000	-0.011	0.251
-465.143	-140.559	0.095	0.010
-464.128	-63.407	-0.052	0.022
-463.113	800.000	0.061	0.204
-462.099	-200.000	-0.066	0.342
-461.084	-119.027	-0.254	-0.044
-460.070	-103.988	0.311	-0.072
-459.055	-74.417	-0.103	-0.037
-458.040	800.000	-0.037	-0.146
-457.026	63.470	-0.134	0.135
-456.011	526.998	0.077	0.181
-454.997	663.109	0.049	-0.127
-453.982	-32.357	0.511	-0.285
-452.968	-76.928	-0.250	-0.087
-451.953	132.073	0.181	-0.233
-450.938	800.000	0.098	-0.288
-449.924	-24.346	-0.076	-0.045
-448.909	-116.679	0.447	-0.082
-447.895	446.926	0.029	-0.064
-446.880	214.674	0.096	-0.153
-445.865	-43.869	0.419	0.211
-444.851	800.000	0.051	-0.171
-443.836	-123.792	-0.160	0.025
-442.822	92.908	-0.123	0.139
-441.807	522.201	0.101	-0.236
-440.792	290.237	0.166	-0.301
-439.778	-81.658	0.106	0.035
-438.763	-47.060	0.269	-0.131
-437.749	474.862	-0.030	0.067
-436.734	37.796	0.347	0.308
-435.719	410.367	0.016	-0.035
-434.705	89.298	0.148	-0.165
-433.690	-200.000	0.014	0.182
-432.676	488.649	-0.073	0.167
-431.661	14.348	-0.180	-0.140
-430.646	-92.550	0.217	0.061
-429.632	199.956	0.008	-0.012
-428.617	9.682	-0.174	0.132
-427.603	438.706	-0.055	0.121
-426.588	173.777	-0.140	0.202
-425.573	800.000	0.025	0.070
-424.559	-131.073	0.142	0.019
-423.544	-188.414	-0.356	0.004
-422.530	24.848	0.248	-0.205
-421.515	-11.739	0.161	-0.106
-420.500	577.115	-0.035	0.086
-419.486	-131.493	0.278	0.037
-418.471	47.173	0.149	-0.139
-417.457	-200.000	-0.054	0.376
-416.442	327.740	0.100	0.191
-415.428	-18.884	-0.156	0.097
-414.413	769.309	-0.060	0.162
-413.398	800.000	-0.012	0.035
-412.384	-47.173	0.027	0.013
-411.369	-10.746	0.217	-0.143
-410.355	-200.000	-0.005	0.188
-409.340	237.151	-0.232	-0.384
-408.325	-120.113	0.133	-0.023
-407.311	75.486	0.115	-0.121
-406.296	503.788	0.077	-0.177
-405.282	-200.000	0.046	0.353
-404.267	4.552	-0.132	-0.097
-403.252	725.628	-0.058	0.153
-402.238	-72.521	-0.159	-0.059
-401.223	-200.000	-0.025	-0.212
-400.209	-200.000	0.017	-0.114
-399.194	-200.000	-0.037	-0.221
-398.179	-200.000	0.027	-0.154
-397.165	-15.018	-0.214	-0.137
-396.150	656.433	0.061	0.157
-395.136	14.316	0.052	0.040
-394.121	235.637	-0.103	-0.170
-393.106	-83.183	0.422	-0.135
-392.092	-1.054	0.151	0.107
-391.077	105.188	0.130	0.153
-390.063	555.230	0.134	-0.321
-389.048	9.187	-0.187	0.141
-388.033	438.956	0.089	0.194
-387.019	-125.574	-0.012	0.002
-386.004	693.788	0.111	0.291
-384.990	-65.093	-0.203	0.082
-383.975	129.540	-0.251	0.319
-382.960	252.100	0.032	0.055
-381.946	37.153	0.201	-0.178
-380.931	800.000	0.039	-0.159
-379.917	-178.717	0.141	0.003
-378.902	-96.720	0.140	-0.037
-377.888	117.293	0.263	0.323
-376.873	-111.761	0.104	-0.021
-375.858	78.754	0.270	0.288
-374.844	-94.665	0.088	-0.024
-373.829	800.000	0.097	0.313
-372.815	566.575	-0.074	0.180
-371.800	800.000	0.029	0.096
-370.785	-200.000	-0.027	0.145
-369.771	157.945	0.161	0.223
-368.756	-105.282	0.276	-0.063
-367.742	109.524	-0.294	-0.351
-366.727	-52.629	-0.274	-0.126
-365.712	-200.000	0.019	0.123
-364.698	243.884	-0.141	0.236
-363.683	94.157	-0.073	0.082
-362.669	-38.467	0.307	-0.162
-361.654	-200.000	0.019	0.292
-360.639	351.473	0.042	0.083
-359.625	-130.153	-0.248	-0.034
-358.610	480.192	0.091	-0.206
-357.596	249.883	-0.035	0.059
-356.581	105.708	-0.231	0.272
-355.566	-120.462	0.201	0.034
-354.552	-96.016	0.251	0.067
-353.537	-109.478	0.352	0.074
-352.523	-200.000	0.037	-0.295
-351.508	-200.000	-0.017	-0.252
-350.493	141.501	-0.192	-0.253
-349.479	-54.620	-0.123	-0.055
-348.464	144.554	0.129	0.171
-347.450	-200.000	0.045	-0.295
-346.435	-16.819	-0.125	0.079
-345.420	-200.000	0.017	0.146
-344.406	130.924	-0.075	0.095
-343.391	718.282	0.031	0.083
-342.377	-90.284	-0.105	0.030
-341.362	-200.000	-0.044	-0.280
-340.348	-150.383	-0.463	0.035
-339.333	419.764	0.038	-0.081
-338.318	-28.747	-0.154	-0.088
-337.304	694.121	-0.114	0.298
-336.289	-137.564	-0.132	-0.015
-335.275	43.729	0.063	-0.058
-334.260	-62.539	-0.280	-0.116
-333.245	-95.052	-0.199	0.054
-332.231	-5.504	0.186	-0.127
-331.216	-200.000	0.025	-0.193
-330.202	88.560	-0.205	0.227
-329.187	-30.133	-0.380	-0.215
-328.172	800.000	-0.041	-0.122
-327.158	-89.423	-0.104	0.031
-326.143	221.961	0.088	-0.141
-325.129	800.000	-0.033	0.130
-324.114	-200.000	-0.020	-0.134
-323.099	800.000	0.050	0.169
-322.085	115.404	-0.052	0.063
-321.070	89.631	0.060	0.067
-320.056	-49.397	-0.002	-0.001
-319.041	-80.308	-0.151	0.050
-318.026	75.090	-0.131	-0.137
-317.012	-200.000	0.019	-0.182
-315.997	-200.000	-0.004	-0.080
-314.983	53.499	-0.270	0.258
-313.968	-94.683	0.227	0.061
-312.953	326.548	-0.017	0.032
-311.939	0.426	-0.098	0.069
-310.924	40.270	0.269	-0.240
-309.910	-87.104	-0.285	0.086
-308.895	-163.057	0.259	0.012
-307.880	-31.003	0.290	-0.163
-306.866	58.208	-0.141	-0.138
-305.851	-27.575	-0.276	0.159
-304.837	42.487	-0.180	-0.163
-303.822	800.000	0.044	-0.185
-302.807	-63.601	-0.180	-0.073
-301.793	-112.611	-0.114	-0.023
-300.778	-93.395	0.409	-0.113
-299.764	-113.046	-0.308	0.060
-298.749	605.051	-0.139	0.344
-297.735	-110.621	-0.448	-0.092
-296.720	-11.853	-0.298	0.195
-295.705	-152.595	0.251	-0.018
-294.691	-97.882	0.123	-0.032
-293.676	-176.675	-0.164	0.004
-292.662	343.820	0.123	-0.239
-291.647	131.792	0.056	0.072
-290.632	-31.710	-0.144	0.080
-289.618	145.147	0.139	0.185
-288.603	-36.841	0.072	-0.039
-287.589	231.567	0.086	-0.140
-286.574	-15.347	-0.065	0.041
-285.559	-37.536	0.206	0.109
-284.545	-200.000	-0.013	0.247
-283.530	364.182	0.062	-0.124
-282.516	567.365	-0.083	-0.200
-281.501	269.144	-0.200	0.348
-280.486	-119.656	-0.120	-0.021
-279.472	-78.772	-0.105	0.036
-278.457	381.353	-0.065	-0.132
-277.443	63.155	-0.279	-0.277
-276.428	317.746	0.073	0.138
-275.413	502.219	-0.043	-0.098
-274.399	800.000	0.041	-0.138
-273.384	-200.000	-0.076	0.337
-272.370	800.000	0.072	-0.213
-271.355	-128.281	-0.020	0.003
-270.340	-143.369	-0.227	-0.022
-269.326	-200.000	-0.036	0.321
-268.311	-200.000	-0.019	0.241
-267.297	-12.591	0.242	-0.156
-266.282	176.176	0.143	-0.206
-265.267	10.173	0.215	0.162
-264.253	-200.000	-0.005	0.077
-263.238	-200.000	-0.041	0.340
-262.224	-46.892	-0.225	-0.109
-261.209	800.000	-0.109	0.352
-260.195	97.848	-0.258	0.295
-259.180	-23.818	-0.255	-0.152
-258.165	-69.750	0.149	0.056
-257.151	34.772	0.151	-0.131
-256.136	155.573	-0.078	-0.107
-255.122	-121.374	-0.381	-0.063
-254.107	456.586	0.046	-0.101
-253.092	-200.000	-0.022	0.132
-252.078	39.990	0.173	-0.154
-251.063	-24.809	0.329	-0.194
-250.049	-200.000	-0.025	0.258
-249.034	-58.327	-0.315	0.136
-248.019	18.052	-0.110	0.087
-247.005	122.362	0.163	0.203
-245.990	716.212	-0.074	0.196
-244.976	220.260	-0.030	-0.048
-243.961	-74.221	-0.403	-0.144
-242.946	800.000	-0.093	0.263
-241.932	196.733	-0.173	0.261
-240.917	800.000	0.125	-0.419
-239.903	-130.714	0.373	0.050
-238.888	-12.416	0.130	0.084
-237.873	82.988	-0.364	-0.393
-236.859	221.690	0.041	-0.065
-235.844	-99.315	-0.322	0.081
-234.830	-59.143	0.423	0.181
-233.815	-200.000	-0.023	0.107
-232.800	800.000	-0.114	-0.452
-231.786	-44.281	-0.147	0.073
-230.771	391.204	-0.077	-0.158
-229.757	17.086	-0.279	-0.219
-228.742	188.653	-0.046	0.068
-227.727	46.317	0.189	0.174
-226.713	-200.000	-0.012	-0.103
-225.698	-200.000	-0.035	0.245
-224.684	-200.000	-0.013	-0.088
-223.669	-90.667	-0.188	0.054
-222.655	800.000	-0.047	-0.167
-221.640	-74.867	0.176	-0.063
-220.625	800.000	0.056	-0.219
-219.611	-38.293	-0.302	-0.158
-218.596	57.386	0.138	0.134
-217.582	117.977	-0.023	-0.028
-216.567	-79.791	0.339	0.113
-215.552	220.836	0.079	-0.125
-214.538	63.250	-0.114	0.114
-213.523	-117.760	0.218	-0.039
-212.509	6.440	-0.066	0.049
-211.494	-96.892	0.385	0.100
-210.479	-102.418	0.275	-0.065
-209.465	19.943	-0.057	0.046
-208.450	25.033	-0.264	-0.217
-207.436	-169.369	-0.223	0.008
-206.421	458.203	-0.108	0.237
-205.406	168.364	-0.169	0.238
-204.392	800.000	0.034	0.097
-203.377	800.000	-0.051	0.160
-202.363	287.314	-0.102	-0.182
-201.348	-142.189	0.143	0.014
-200.333	800.000	0.035	0.139
-199.319	-21.672	0.127	0.077
-198.304	132.199	-0.075	-0.096
-197.290	-24.409	0.051	0.030
-196.275	-53.440	0.393	0.178
-195.260	126.865	0.201	-0.252
-194.246	-112.413	-0.216	0.043
-193.231	-200.000	0.033	0.323
-192.217	533.455	0.064	-0.150
-191.202	-200.000	0.058	-0.279
-190.187	-200.000	0.038	0.279
-189.173	188.377	-0.144	-0.213
-188.158	-120.355	-0.150	-0.025
-187.144	146.760	-0.170	0.227
-186.129	137.421	-0.112	-0.144
-185.114	-200.000	0.062	-0.310
-184.100	800.000	-0.066	-0.183
-183.085	113.953	-0.241	0.289
-182.071	6.269	0.221	0.162
-181.056	317.234	-0.088	0.164
-180.042	-200.000	-0.004	0.107
-179.027	-137.124	0.340	-0.038
-178.012	-101.340	-0.344	-0.083
-176.998	95.050	-0.154	0.174
-175.983	86.549	0.160	0.174
-174.969	122.758	-0.292	-0.362
-173.954	43.375	0.147	-0.133
-172.939	-200.000	0.003	0.091
-171.925	-200.000	-0.013	-0.183
-170.910	800.000	-0.025	-0.091
-169.896	-200.000	-0.029	-0.208
-168.881	-121.406	0.331	0.054
-167.866	-107.340	0.341	-0.074
-166.852	121.163	-0.129	0.158
-165.837	94.661	0.290	0.326
-164.823	84.513	0.078	-0.084
-163.808	800.000	0.061	0.207
-162.793	-147.981	-0.124	0.010
-161.779	285.223	-0.137	0.244
-160.764	-179.526	0.174	-0.004
-159.750	63.875	0.079	-0.079
-158.735	800.000	0.155	-0.499
-157.720	-200.000	0.000	0.064
-156.706	37.281	-0.040	-0.035
-155.691	-132.728	-0.311	0.039
-154.677	-75.723	-0.087	0.030
-153.662	337.665	-0.085	0.164
-152.647	41.297	0.125	0.112
-151.633	-200.000	0.033	0.144
-150.618	-112.336	-0.444	-0.088
-149.604	-169.234	0.333	0.012
-148.589	800.000	0.048	0.184
-147.574	-159.134	0.272	0.015
-146.560	-67.021	-0.312	-0.122
-145.545	78.186	0.201	0.212
-144.531	576.560	0.134	-0.324
-143.516	424.847	0.158	-0.336
-142.502	-94.487	-0.065	-0.017
-141.487	128.986	-0.087	0.110
-140.472	190.029	-0.105	0.155
-139.458	-127.982	-0.147	0.021
-138.443	270.527	0.064	0.111
-137.429	221.890	0.144	-0.228
-136.414	100.899	0.022	0.026
-135.399	-93.691	-0.059	0.016
-134.385	800.000	-0.038	0.119
-133.370	257.758	0.096	-0.163
-132.356	-25.575	-0.254	-0.148
-131.341	281.238	-0.195	0.345
-130.326	800.000	-0.093	0.398
-129.312	333.093	0.074	0.141
-128.297	-9.487	0.122	-0.080
-127.283	193.397	-0.115	0.171
-126.268	-29.726	-0.487	-0.274
-125.253	39.889	0.177	0.157
-124.239	144.878	0.263	0.347
-123.224	-96.571	0.161	0.042
-122.210	-120.454	0.012	-0.002
-121.195	800.000	-0.042	-0.174
