DTS Sentinel unit serial number:	SN413079Multiplexer serial number:	ORYXHardware model number:	OX4-SRSoftware version number:	ORYX F/W v4.00 Oryx Data Collector v3.7.2.0data status	okinstallation	princeton_trtdifferential loss correction	single-endedforward channel	channel 3reverse channel	N/Adate	2019/09/11time	16:30:11forward acquisition time	60.00reverse acquisition time	0.00gamma	496.2192k internal	0.2286k external	0.2286temperature offset calibration	0.9989default loss term (dB/km)	0.3790temperature slope calibration	1.0000multiplexer offset coefficient	1.0000multiplexer slope coefficient	1.0000fibre end	0.00T internal ref (°C)	43.64T ext. ref 1 (°C)	1.08T ext. ref 2 (°C)	39.57length (m)	temperature (°C)	Stokes	anti-Stokes-747.200	-200.000	-0.047	0.275
-746.185	800.000	0.050	0.189
-745.171	98.898	0.122	0.145
-744.156	-200.000	0.064	0.414
-743.142	-200.000	-0.024	0.142
-742.127	136.383	0.116	-0.155
-741.112	-200.000	-0.004	-0.111
-740.098	-200.000	-0.051	0.450
-739.083	-200.000	-0.036	0.190
-738.069	-56.181	-0.183	-0.084
-737.054	-200.000	0.047	-0.332
-736.039	-146.643	0.211	-0.019
-735.025	-150.218	0.182	0.014
-734.010	-86.343	-0.356	-0.112
-732.996	-200.000	0.032	-0.165
-731.981	-39.717	-0.130	-0.070
-730.966	-135.287	-0.220	-0.027
-729.952	275.789	0.117	0.213
-728.937	-137.212	-0.570	-0.067
-727.923	-200.000	0.127	-0.000
-726.908	-68.168	0.539	-0.215
-725.894	-57.618	-0.263	-0.118
-724.879	-116.658	0.255	0.048
-723.864	-200.000	0.013	-0.087
-722.850	-200.000	-0.011	-0.127
-721.835	50.637	-0.107	0.104
-720.821	65.279	0.226	-0.234
-719.806	-39.879	-0.148	-0.079
-718.791	800.000	0.146	-0.457
-717.777	344.004	0.064	-0.128
-716.762	-38.530	-0.403	-0.218
-715.748	-200.000	-0.041	-0.245
-714.733	-80.163	-0.040	0.014
-713.718	-94.462	0.153	0.043
-712.704	-200.000	0.001	0.005
-711.689	-200.000	0.039	0.193
-710.675	65.420	0.265	-0.274
-709.660	-36.376	-0.252	0.139
-708.645	86.941	0.059	-0.066
-707.631	-24.256	0.281	-0.172
-706.616	-48.209	-0.186	-0.092
-705.602	-68.483	0.431	-0.171
-704.587	-154.171	0.174	-0.012
-703.572	800.000	0.021	-0.060
-702.558	-74.633	-0.147	-0.054
-701.543	-35.331	-0.155	0.086
-700.529	613.321	0.054	0.139
-699.514	9.587	-0.069	-0.053
-698.499	275.501	-0.078	-0.141
-697.485	174.232	-0.082	0.121
-696.470	-30.227	0.055	0.032
-695.456	18.961	-0.036	0.029
-694.441	1.658	-0.204	-0.150
-693.426	-129.853	-0.188	-0.026
-692.412	800.000	0.051	0.152
-691.397	106.107	0.170	-0.207
-690.383	-200.000	-0.020	-0.175
-689.368	-59.239	-0.102	-0.045
-688.354	-103.458	-0.328	-0.079
-687.339	-90.115	-0.167	0.050
-686.324	88.224	-0.088	-0.100
-685.310	-116.509	-0.245	-0.046
-684.295	676.925	0.171	-0.454
-683.281	-39.040	0.149	-0.080
-682.266	22.939	0.246	0.206
-681.251	-157.722	0.101	0.006
-680.237	-163.605	-0.354	-0.017
-679.222	37.582	-0.244	-0.221
-678.208	800.000	0.043	0.158
-677.193	23.184	0.161	0.135
-676.178	30.707	-0.206	0.180
-675.164	112.702	0.359	-0.445
-674.149	-200.000	-0.012	0.255
-673.135	714.586	0.038	0.104
-672.120	-200.000	-0.035	-0.368
-671.105	293.361	-0.161	0.301
-670.091	11.294	0.094	-0.073
-669.076	-200.000	-0.054	-0.447
-668.062	-137.755	0.116	0.013
-667.047	651.812	0.115	-0.302
-666.032	-121.782	0.323	-0.055
-665.018	25.478	0.016	-0.013
-664.003	-69.685	-0.111	0.044
-662.989	-200.000	-0.014	0.407
-661.974	96.851	-0.103	0.121
-660.959	800.000	-0.092	-0.316
-659.945	82.144	0.150	-0.166
-658.930	-149.660	0.293	-0.024
-657.916	-200.000	-0.015	-0.165
-656.901	-200.000	0.022	0.511
-655.886	300.444	-0.074	0.140
-654.872	342.275	0.079	-0.159
-653.857	391.702	0.130	-0.276
-652.843	-50.602	-0.461	-0.222
-651.828	-200.000	0.049	0.298
-650.814	-41.029	-0.122	0.064
-649.799	162.600	0.100	0.143
-648.784	-81.540	-0.070	0.024
-647.770	-118.449	-0.418	0.076
-646.755	357.772	0.138	-0.282
-645.741	155.239	0.078	0.109
-644.726	-185.644	0.314	0.005
-643.711	-67.194	0.189	0.076
-642.697	-81.196	0.103	-0.035
-641.682	331.881	0.118	0.234
-640.668	-200.000	0.069	0.429
-639.653	-200.000	-0.013	0.161
-638.638	696.069	-0.186	-0.499
-637.624	195.231	0.143	-0.222
-636.609	1.847	-0.135	-0.099
-635.595	-74.674	-0.149	-0.055
-634.580	97.297	0.116	0.136
-633.565	-200.000	0.007	0.057
-632.551	-51.747	-0.154	0.073
-631.536	361.388	-0.020	0.041
-630.522	-200.000	-0.007	-0.305
-629.507	-67.864	0.313	0.125
-628.492	97.848	-0.235	0.277
-627.478	8.138	-0.022	-0.017
-626.463	-200.000	-0.040	-0.227
-625.449	-33.218	-0.234	0.132
-624.434	-200.000	0.040	-0.364
-623.419	800.000	0.090	-0.282
-622.405	-200.000	-0.035	-0.177
-621.390	-65.219	0.158	0.065
-620.376	-200.000	-0.009	-0.260
-619.361	-19.254	-0.141	0.089
-618.346	-200.000	0.034	-0.220
-617.332	-123.299	0.020	-0.003
-616.317	-129.201	-0.115	0.016
-615.303	-140.546	-0.278	0.029
-614.288	204.560	0.163	0.259
-613.273	-110.507	0.141	0.030
-612.259	800.000	-0.082	0.263
-611.244	247.468	-0.253	0.436
-610.230	-200.000	0.015	-0.330
-609.215	51.693	-0.163	0.158
-608.201	-139.320	0.578	0.063
-607.186	-116.187	-0.115	0.022
-606.171	-135.269	-0.128	-0.016
-605.157	84.024	-0.213	-0.238
-604.142	-70.429	-0.258	-0.100
-603.128	-200.000	0.016	0.159
-602.113	135.924	-0.112	0.149
-601.098	800.000	0.055	0.187
-600.084	114.281	0.204	0.254
-599.069	-73.953	0.231	-0.086
-598.055	114.487	0.017	0.021
-597.040	-200.000	0.004	0.112
-596.025	-41.658	-0.393	-0.206
-595.011	76.686	0.226	0.244
-593.996	329.708	0.053	0.104
-592.982	-38.592	-0.357	-0.192
-591.967	131.805	-0.274	-0.359
-590.952	160.060	0.059	-0.084
-589.938	94.705	-0.109	0.127
-588.923	-150.438	-0.071	-0.006
-587.909	-8.650	-0.388	-0.266
-586.894	-1.594	0.108	-0.077
-585.879	410.269	0.098	-0.213
-584.865	-101.347	0.272	0.068
-583.850	680.988	0.066	0.176
-582.836	377.164	-0.079	-0.164
-581.821	-153.993	-0.204	0.014
-580.806	-200.000	-0.019	-0.228
-579.792	-112.614	0.238	-0.048
-578.777	357.543	0.085	-0.174
-577.763	-119.940	0.215	-0.038
-576.748	173.637	0.218	-0.320
-575.733	-200.000	-0.027	0.190
-574.719	11.342	0.016	-0.013
-573.704	800.000	0.124	0.418
-572.690	-103.040	0.305	0.074
-571.675	150.543	-0.126	-0.174
-570.661	800.000	-0.039	-0.130
-569.646	-71.407	-0.148	0.057
-568.631	-139.967	0.048	0.005
-567.617	-51.511	-0.383	-0.182
-566.602	-200.000	0.032	0.267
-565.588	185.727	0.163	0.248
-564.573	-88.807	0.111	-0.034
-563.558	-130.480	0.442	0.061
-562.544	-45.218	-0.135	-0.068
-561.529	-88.080	0.107	-0.033
-560.515	-200.000	0.044	0.363
-559.500	-200.000	0.017	-0.141
-558.485	-200.000	-0.043	-0.349
-557.471	50.740	-0.144	0.139
-556.456	-31.231	0.029	0.017
-555.442	317.429	0.075	0.145
-554.427	-200.000	-0.020	0.106
-553.412	-200.000	0.053	-0.266
-552.398	-6.018	-0.076	0.053
-551.383	800.000	0.027	-0.120
-550.369	-57.811	0.214	-0.095
-549.354	-99.629	0.174	-0.044
-548.339	385.491	0.128	0.269
-547.325	-167.003	-0.355	0.015
-546.310	-200.000	0.001	-0.152
-545.296	-102.080	0.251	-0.062
-544.281	102.491	-0.166	-0.197
-543.266	44.201	-0.227	-0.212
-542.252	19.139	-0.037	-0.030
-541.237	-200.000	0.022	-0.218
-540.223	800.000	-0.070	-0.204
-539.208	-200.000	-0.009	-0.076
-538.193	-110.109	-0.182	-0.039
-537.179	-131.101	-0.377	0.051
-536.164	53.482	0.036	0.036
-535.150	-200.000	-0.022	0.105
-534.135	-86.803	-0.174	-0.054
-533.121	23.442	-0.186	-0.156
-532.106	-200.000	-0.078	-0.349
-531.091	-200.000	0.028	-0.184
-530.077	800.000	0.073	-0.214
-529.062	-113.643	0.081	0.016
-528.048	-86.619	-0.173	-0.054
-527.033	-132.664	-0.251	-0.033
-526.018	-200.000	-0.024	-0.240
-525.004	177.292	-0.130	-0.193
-523.989	-56.697	-0.205	0.092
-522.975	85.905	-0.057	0.064
-521.960	129.998	-0.122	-0.159
-520.945	131.553	-0.084	0.109
-519.931	63.492	0.094	0.096
-518.916	65.031	-0.214	0.220
-517.902	100.182	-0.135	0.160
-516.887	265.532	0.284	-0.504
-515.872	79.399	0.108	0.118
-514.858	33.689	0.138	0.122
-513.843	-73.908	-0.214	-0.079
-512.829	-73.303	0.158	-0.059
-511.814	224.289	-0.085	0.139
-510.799	-200.000	0.004	0.207
-509.785	51.667	0.072	-0.069
-508.770	447.741	0.113	-0.253
-507.756	800.000	-0.130	-0.373
-506.741	-79.060	0.113	-0.039
-505.726	30.586	-0.098	-0.085
-504.712	-103.713	-0.167	0.040
-503.697	-118.189	0.256	0.046
-502.683	-103.133	-0.147	0.035
-501.668	-17.537	-0.229	-0.146
-500.653	800.000	-0.055	-0.195
-499.639	375.306	0.102	-0.212
-498.624	82.249	-0.149	0.164
-497.610	373.578	0.085	-0.175
-496.595	144.561	-0.151	0.205
-495.581	-200.000	-0.091	-0.428
-494.566	474.148	0.062	0.143
-493.551	-117.115	-0.404	0.075
-492.537	-200.000	0.019	0.138
-491.522	211.408	0.116	-0.185
-490.508	-78.149	0.420	-0.147
-489.493	-200.000	0.004	-0.274
-488.478	204.665	-0.137	-0.215
-487.464	60.194	-0.155	-0.155
-486.449	-137.650	0.466	0.053
-485.435	-98.599	0.230	0.060
-484.420	741.292	-0.076	-0.207
-483.405	-200.000	0.041	0.302
-482.391	108.505	0.149	-0.180
-481.376	523.829	0.070	-0.168
-480.362	800.000	-0.037	-0.126
-479.347	100.361	0.252	-0.298
-478.332	-200.000	0.048	-0.277
-477.318	-200.000	-0.019	0.153
-476.303	-177.885	-0.333	0.008
-475.289	198.069	-0.047	-0.073
-474.274	-79.076	-0.165	-0.057
-473.259	-86.687	0.123	-0.038
-472.245	-147.437	0.106	-0.009
-471.230	-200.000	-0.011	0.418
-470.216	93.682	0.140	0.161
-469.201	35.117	0.200	-0.178
-468.186	800.000	-0.047	0.185
-467.172	81.645	-0.048	-0.053
-466.157	-61.007	-0.052	0.022
-465.143	13.358	0.143	0.112
-464.128	-2.790	-0.078	0.056
-463.113	91.743	-0.171	0.195
-462.099	382.579	0.056	0.117
-461.084	800.000	0.072	-0.207
-460.070	-200.000	0.004	0.257
-459.055	-200.000	0.019	0.200
-458.040	-200.000	-0.035	-0.225
-457.026	10.020	-0.303	-0.234
-456.011	-199.734	-0.019	0.000
-454.997	-74.198	0.352	0.129
-453.982	800.000	-0.057	0.177
-452.968	-200.000	-0.002	0.083
-451.953	800.000	-0.050	0.139
-450.938	-200.000	0.053	-0.507
-449.924	47.352	0.122	0.116
-448.909	-200.000	-0.025	0.169
-447.895	-57.917	0.489	0.217
-446.880	800.000	0.023	0.073
-445.865	421.930	0.112	0.243
-444.851	-200.000	-0.002	0.110
-443.836	800.000	0.020	-0.059
-442.822	122.391	-0.085	-0.107
-441.807	116.323	-0.014	-0.018
-440.792	-200.000	-0.030	-0.137
-439.778	800.000	0.080	-0.300
-438.763	-200.000	0.070	-0.319
-437.749	800.000	0.016	0.061
-436.734	-200.000	0.027	0.265
-435.719	-23.632	0.263	0.160
-434.705	26.601	-0.126	0.107
-433.690	526.043	0.105	0.251
-432.676	4.549	0.207	0.154
-431.661	800.000	-0.093	0.271
-430.646	19.281	-0.136	-0.110
-429.632	-74.810	-0.327	0.119
-428.617	-200.000	0.018	-0.157
-427.603	-31.209	-0.105	0.060
-426.588	800.000	-0.005	-0.015
-425.573	-42.080	-0.289	0.150
-424.559	-119.095	-0.278	-0.049
-423.544	378.873	-0.049	0.102
-422.530	800.000	0.029	-0.108
-421.515	-3.100	0.116	0.082
-420.500	-200.000	-0.029	-0.452
-419.486	-81.149	0.282	0.095
-418.471	-58.722	0.206	-0.090
-417.457	-70.935	-0.221	-0.084
-416.442	30.677	0.047	0.040
-415.428	49.804	-0.243	-0.232
-414.413	-200.000	0.006	-0.077
-413.398	152.153	-0.097	0.135
-412.384	-165.588	0.322	-0.014
-411.369	472.200	-0.007	0.015
-410.355	-200.000	-0.002	0.149
-409.340	-82.928	-0.166	-0.054
-408.325	614.462	0.021	-0.054
-407.311	108.276	-0.070	0.084
-406.296	-106.831	-0.185	-0.042
-405.282	-64.806	-0.201	0.082
-404.267	405.882	-0.118	-0.251
-403.252	535.408	0.204	0.489
-402.238	40.285	-0.142	0.129
-401.223	800.000	-0.028	0.090
-400.209	-86.489	0.248	-0.077
-399.194	543.930	0.088	-0.212
-398.179	-151.969	-0.242	-0.018
-397.165	19.178	0.260	0.211
-396.150	-42.235	0.045	-0.023
-395.136	-9.439	-0.104	-0.070
-394.121	-200.000	-0.026	0.354
-393.106	-200.000	-0.005	0.034
-392.092	-89.159	0.063	0.019
-391.077	73.003	-0.282	-0.298
-390.063	22.387	-0.275	-0.227
-389.048	-200.000	-0.009	-0.210
-388.033	232.054	0.067	0.111
-387.019	-200.000	0.026	-0.168
-386.004	-200.000	-0.020	0.146
-384.990	145.716	-0.131	0.177
-383.975	-200.000	0.006	0.062
-382.960	-92.614	-0.220	-0.062
-381.946	-200.000	0.020	-0.162
-380.931	-109.361	0.147	-0.032
-379.917	286.237	0.168	-0.307
-378.902	-200.000	0.010	0.083
-377.888	800.000	0.012	0.049
-376.873	250.313	0.145	0.248
-375.858	-92.131	-0.181	0.052
-374.844	620.375	-0.115	0.293
-373.829	136.008	0.067	0.088
-372.815	-111.734	0.252	0.052
-371.800	482.323	-0.083	-0.190
-370.785	800.000	-0.141	-0.422
-369.771	-200.000	-0.053	0.249
-368.756	100.312	0.402	0.472
-367.742	-59.851	-0.178	-0.077
-366.727	275.429	0.135	-0.241
-365.712	259.971	0.094	0.165
-364.698	-34.850	-0.336	0.186
-363.683	800.000	-0.009	-0.039
-362.669	207.943	0.139	0.220
-361.654	90.476	-0.188	0.213
-360.639	800.000	-0.066	0.289
-359.625	-200.000	-0.042	-0.353
-358.610	11.953	-0.109	0.085
-357.596	408.368	0.142	0.304
-356.581	-200.000	-0.041	-0.204
-355.566	-200.000	0.016	0.083
-354.552	142.701	-0.135	0.182
-353.537	800.000	0.093	0.292
-352.523	-89.371	-0.376	-0.112
-351.508	579.503	-0.046	-0.115
-350.493	-162.922	-0.401	0.020
-349.479	61.292	-0.144	0.144
-348.464	-137.101	0.274	-0.032
-347.450	-154.863	-0.221	0.015
-346.435	81.735	0.165	-0.181
-345.420	800.000	-0.079	-0.265
-344.406	-132.805	0.300	0.039
-343.391	-131.582	0.379	-0.050
-342.377	-200.000	0.077	-0.456
-341.362	-136.523	0.132	-0.015
-340.348	7.785	0.058	-0.044
-339.333	-200.000	0.013	0.218
-338.318	557.389	-0.091	0.221
-337.304	-71.219	0.015	0.006
-336.289	-11.794	0.114	-0.076
-335.275	-200.000	-0.038	0.390
-334.260	-200.000	-0.004	0.116
-333.245	94.925	0.247	-0.283
-332.231	37.333	-0.077	0.069
-331.216	-200.000	0.034	0.348
-330.202	800.000	-0.096	0.326
-329.187	-103.822	0.358	0.084
-328.172	-78.427	0.156	0.054
-327.158	-200.000	0.025	0.199
-326.143	-117.588	0.271	-0.049
-325.129	800.000	0.050	0.161
-324.114	-200.000	-0.013	-0.102
-323.099	-200.000	0.003	0.297
-322.085	593.010	0.077	-0.191
-321.070	-146.042	0.340	-0.030
-320.056	89.661	-0.034	-0.039
-319.041	154.976	-0.053	0.074
-318.026	-160.681	0.134	-0.007
-317.012	7.884	0.104	0.079
-315.997	216.333	0.030	0.048
-314.983	-200.000	-0.083	-0.556
-313.968	-155.788	0.193	0.012
-312.953	93.175	0.123	-0.141
-311.939	151.909	0.049	-0.068
-310.924	143.574	-0.112	-0.151
-309.910	-34.175	0.187	-0.104
-308.895	-30.808	0.187	-0.107
-307.880	597.099	-0.043	-0.109
-306.866	-74.454	-0.215	-0.078
-305.851	800.000	-0.017	0.067
-304.837	-79.823	-0.333	-0.113
-303.822	800.000	0.085	0.243
-302.807	-29.483	-0.160	0.092
-301.793	362.925	-0.222	-0.450
-300.778	481.550	0.065	-0.150
-299.764	-171.258	-0.174	0.006
-298.749	106.627	-0.150	0.179
-297.735	-135.308	-0.050	-0.006
-296.720	-200.000	-0.019	0.245
-295.705	-138.416	0.247	-0.027
-294.691	1.342	-0.262	0.190
-293.676	1.537	-0.128	-0.093
-292.662	74.786	-0.019	0.021
-291.647	409.699	-0.056	0.120
-290.632	-182.375	-0.235	0.004
-289.618	343.990	0.036	-0.071
-288.603	-159.455	0.118	0.007
-287.589	-99.798	0.316	0.080
-286.574	-13.642	0.257	0.168
-285.559	-200.000	-0.019	0.359
-284.545	250.251	-0.118	0.203
-283.530	800.000	0.064	0.280
-282.516	68.881	-0.122	-0.126
-281.501	-32.045	0.111	-0.063
-280.486	800.000	-0.030	-0.097
-279.472	431.201	-0.104	-0.227
-278.457	576.687	0.040	-0.098
-277.443	178.874	0.195	-0.288
-276.428	41.555	0.292	0.267
-275.413	-34.855	0.398	-0.219
-274.399	167.368	-0.093	-0.132
-273.384	800.000	-0.139	-0.540
-272.370	-165.611	-0.192	0.008
-271.355	-177.349	0.225	0.006
-270.340	159.459	0.176	-0.247
-269.326	40.480	0.166	-0.150
-268.311	-200.000	-0.003	0.091
-267.297	-58.324	-0.180	-0.079
-266.282	19.826	0.069	0.056
-265.267	17.745	0.189	0.152
-264.253	220.841	0.013	-0.020
-263.238	800.000	0.155	0.517
-262.224	187.519	0.081	0.122
-261.209	-150.389	-0.232	-0.018
-260.195	-39.125	-0.173	0.092
-259.180	-200.000	-0.037	-0.274
-258.165	65.456	0.166	0.169
-257.151	-160.989	0.386	0.020
-256.136	-49.164	0.124	0.060
-255.122	-200.000	-0.034	-0.188
-254.107	-200.000	-0.006	0.273
-253.092	108.199	0.212	0.255
-252.078	-200.000	0.067	-0.341
-251.063	170.740	0.117	0.169
-250.049	100.497	0.322	0.376
-249.034	800.000	-0.086	-0.268
-248.019	82.592	0.054	-0.059
-247.005	47.627	0.210	-0.197
-245.990	800.000	0.162	-0.459
-244.976	-200.000	-0.009	0.287
-243.961	-200.000	0.019	-0.185
-242.946	-70.967	0.187	-0.071
-241.932	-45.540	-0.255	-0.127
-240.917	85.200	-0.282	-0.311
-239.903	294.847	0.053	0.098
-238.888	384.407	0.082	-0.171
-237.873	90.869	0.098	0.110
-236.859	-85.225	0.214	0.067
-235.844	-37.228	0.199	0.107
-234.830	-148.888	0.125	0.010
-233.815	43.093	0.083	0.076
-232.800	785.363	-0.057	-0.157
-231.786	141.085	0.100	-0.133
-230.771	172.378	-0.107	-0.154
-229.757	682.722	0.056	-0.146
-228.742	800.000	0.090	-0.275
-227.727	-112.882	0.344	0.069
-226.713	498.332	0.134	-0.309
-225.698	215.137	0.081	-0.129
-224.684	-200.000	-0.040	0.307
-223.669	149.913	-0.083	0.113
-222.655	-6.007	-0.249	-0.171
-221.640	-200.000	0.046	0.229
-220.625	13.063	0.237	-0.184
-219.611	-30.874	-0.336	0.191
-218.596	167.628	0.050	0.071
-217.582	341.364	0.151	0.296
-216.567	-200.000	-0.030	-0.194
-215.552	55.600	0.033	0.032
-214.538	-11.763	-0.144	0.095
-213.523	-173.588	-0.219	0.007
-212.509	-44.771	-0.174	0.087
-211.494	-50.522	0.052	0.025
-210.479	102.975	0.175	0.206
-209.465	285.889	-0.094	0.170
-208.450	141.137	-0.226	0.300
-207.436	-21.399	-0.301	-0.184
-206.421	-102.372	-0.217	0.052
-205.406	-36.516	-0.092	0.050
-204.392	-133.918	0.272	-0.034
-203.377	800.000	0.065	0.258
-202.363	-140.150	0.180	0.019
-201.348	800.000	-0.013	-0.037
-200.333	-200.000	-0.001	-0.017
-199.319	51.688	0.232	0.222
-198.304	-95.383	0.099	-0.027
-197.290	-200.000	0.042	-0.268
-196.275	145.605	0.125	-0.168
-195.260	-34.008	-0.218	0.121
-194.246	321.449	0.177	0.339
-193.231	-165.134	0.019	0.001
-192.217	251.691	0.040	0.069
-191.202	639.810	-0.090	0.231
-190.187	-40.771	-0.324	-0.168
-189.173	-94.213	0.041	-0.011
-188.158	-45.501	-0.302	-0.150
-187.144	-200.000	0.001	-0.094
-186.129	330.748	0.159	0.307
-185.114	-72.087	-0.044	0.016
-184.100	-10.802	0.112	0.074
-183.085	-123.751	0.327	0.052
-182.071	-130.578	-0.398	0.054
-181.056	58.120	0.267	0.263
-180.042	-101.292	0.153	0.037
-179.027	-200.000	0.000	0.055
-178.012	80.149	-0.160	0.172
-176.998	-85.740	0.070	-0.022
-175.983	-36.419	-0.146	-0.079
-174.969	-99.111	-0.531	-0.135
-173.954	-92.069	-0.241	0.068
-172.939	340.496	-0.143	-0.280
-171.925	-200.000	-0.005	-0.084
-170.910	800.000	0.096	-0.268
-169.896	602.635	-0.082	0.204
-168.881	-88.724	-0.089	-0.027
-167.866	-81.322	-0.180	-0.060
-166.852	17.839	-0.337	-0.269
-165.837	179.397	-0.192	0.281
-164.823	-200.000	-0.003	0.256
-163.808	-200.000	-0.006	0.241
-162.793	800.000	0.107	0.465
-161.779	-4.470	0.134	0.093
-160.764	800.000	0.042	0.131
-159.750	-8.999	0.071	0.048
-158.735	-108.583	-0.082	-0.018
-157.720	-71.353	-0.397	0.149
-156.706	235.528	-0.119	0.197
-155.691	467.312	-0.029	0.065
-154.677	-200.000	0.012	0.147
-153.662	-58.559	0.125	-0.054
-152.647	-200.000	-0.084	-0.436
-151.633	20.254	-0.219	0.178
-150.618	186.635	-0.091	0.137
-149.604	-121.423	0.227	-0.038
-148.589	800.000	0.135	-0.381
-147.574	-200.000	-0.004	-0.394
-146.560	461.248	-0.056	0.126
-145.545	-74.018	-0.200	-0.073
-144.531	-82.660	0.208	0.067
-143.516	-10.893	0.292	-0.194
-142.502	-80.668	-0.070	0.023
-141.487	-31.868	0.098	0.055
-140.472	-14.064	0.156	-0.101
-139.458	204.002	0.130	-0.202
-138.443	113.144	-0.183	-0.223
-137.429	-200.000	-0.011	-0.100
-136.414	-71.482	-0.283	-0.106
-135.399	488.634	0.067	0.152
-134.385	447.654	0.099	-0.217
-133.370	132.458	0.150	-0.193
-132.356	-50.908	-0.128	0.060
-131.341	-110.362	-0.358	-0.075
-130.326	-47.514	-0.055	-0.027
-129.312	21.020	-0.065	-0.053
-128.297	-166.189	-0.093	0.004
-127.283	105.344	0.107	-0.127
-126.268	-14.183	0.060	0.039
-125.253	51.792	0.062	-0.059
-124.239	-200.000	0.023	0.141
-123.224	135.230	0.079	-0.103
-122.210	-76.421	0.121	0.043
