DTS Sentinel unit serial number:	SN413079Multiplexer serial number:	ORYXHardware model number:	OX4-SRSoftware version number:	ORYX F/W v4.00 Oryx Data Collector v3.7.2.0data status	okinstallation	princeton_trtdifferential loss correction	single-endedforward channel	channel 3reverse channel	N/Adate	2019/09/11time	15:10:10forward acquisition time	60.00reverse acquisition time	0.00gamma	496.2192k internal	0.2289k external	0.2289temperature offset calibration	0.9974default loss term (dB/km)	0.3790temperature slope calibration	1.0000multiplexer offset coefficient	1.0000multiplexer slope coefficient	1.0000fibre end	0.00T internal ref (°C)	42.97T ext. ref 1 (°C)	0.96T ext. ref 2 (°C)	37.16length (m)	temperature (°C)	Stokes	anti-Stokes-747.200	74.093	-0.169	-0.182
-746.185	-200.000	-0.030	0.249
-745.171	476.615	0.008	-0.018
-744.156	-121.169	0.316	0.054
-743.142	177.986	0.201	-0.301
-742.127	-200.000	0.091	0.436
-741.112	53.251	-0.124	-0.122
-740.098	-200.000	-0.012	-0.054
-739.083	-129.721	0.135	-0.019
-738.069	-200.000	-0.062	0.400
-737.054	-200.000	0.009	0.355
-736.039	34.995	0.047	-0.042
-735.025	-62.234	0.545	0.233
-734.010	666.918	0.132	-0.348
-732.996	179.220	-0.294	-0.440
-731.981	-31.887	0.196	-0.112
-730.966	397.524	-0.146	-0.313
-729.952	-74.267	0.061	0.023
-728.937	16.085	-0.395	0.319
-727.923	800.000	-0.064	0.191
-726.908	-105.560	-0.203	-0.047
-725.894	464.009	-0.149	-0.341
-724.879	-50.975	0.066	-0.032
-723.864	800.000	-0.037	0.149
-722.850	-33.219	0.256	0.145
-721.835	383.374	0.055	0.117
-720.821	-192.686	0.165	-0.002
-719.806	80.576	0.140	0.154
-718.791	-171.661	-0.318	0.011
-717.777	211.810	-0.180	-0.289
-716.762	-199.973	-0.074	0.000
-715.748	172.619	0.123	0.181
-714.733	168.524	0.113	-0.164
-713.718	-20.815	-0.244	-0.153
-712.704	-102.566	0.370	-0.090
-711.689	800.000	-0.067	-0.286
-710.675	-183.494	0.163	-0.003
-709.660	800.000	0.098	0.314
-708.645	-65.494	-0.113	0.046
-707.631	169.386	0.161	-0.235
-706.616	217.388	-0.180	-0.293
-705.602	-6.788	-0.254	-0.177
-704.587	68.893	0.135	0.142
-703.572	-114.984	0.373	0.073
-702.558	11.103	-0.104	0.081
-701.543	-200.000	0.049	-0.438
-700.529	-43.553	-0.392	0.202
-699.514	31.451	-0.247	0.217
-698.499	-200.000	0.000	-0.217
-697.485	7.889	-0.271	-0.208
-696.470	16.438	-0.099	-0.080
-695.456	37.271	-0.267	0.242
-694.441	-88.703	0.361	-0.110
-693.426	800.000	-0.048	-0.146
-692.412	20.775	-0.206	0.170
-691.397	800.000	-0.062	-0.273
-690.383	-200.000	-0.016	-0.341
-689.368	800.000	0.041	-0.158
-688.354	-38.529	-0.315	-0.170
-687.339	387.738	0.027	0.057
-686.324	263.522	0.175	-0.310
-685.310	232.956	0.223	-0.376
-684.295	-200.000	0.007	0.213
-683.281	-200.000	0.004	0.279
-682.266	-186.893	-0.391	0.006
-681.251	311.906	-0.085	0.163
-680.237	-65.195	-0.139	0.057
-679.222	185.405	-0.138	-0.210
-678.208	-38.674	-0.197	0.106
-677.193	-41.584	-0.157	0.083
-676.178	-108.022	0.437	0.097
-675.164	121.060	0.232	0.295
-674.149	462.556	-0.049	-0.111
-673.135	218.564	0.138	0.225
-672.120	-45.631	-0.161	0.081
-671.105	-105.654	-0.361	0.084
-670.091	139.535	-0.211	-0.284
-669.076	58.351	-0.209	-0.209
-668.062	-135.859	-0.173	-0.021
-667.047	800.000	-0.060	0.208
-666.032	-2.800	-0.191	-0.136
-665.018	-10.569	0.176	0.119
-664.003	-200.000	-0.180	0.001
-662.989	641.486	-0.068	0.178
-661.974	383.020	0.141	-0.296
-660.959	800.000	0.028	0.112
-659.945	128.612	-0.085	-0.111
-658.930	-119.285	0.202	0.036
-657.916	-64.211	0.188	-0.078
-656.901	-200.000	-0.026	-0.250
-655.886	198.457	-0.151	-0.236
-654.872	-200.000	-0.010	-0.183
-653.857	692.784	0.017	0.046
-652.843	-133.267	-0.375	0.048
-651.828	800.000	0.043	-0.126
-650.814	-200.000	-0.471	0.001
-649.799	489.720	-0.065	-0.153
-648.784	223.254	0.054	0.088
-647.770	-74.443	-0.084	-0.031
-646.755	800.000	-0.027	-0.109
-645.741	485.845	0.099	0.231
-644.726	-177.817	0.167	-0.004
-643.711	-136.537	-0.265	0.031
-642.697	-53.532	-0.308	-0.144
-641.682	416.089	-0.090	-0.196
-640.668	-108.704	0.166	-0.036
-639.653	44.520	-0.213	0.199
-638.638	-57.808	-0.163	0.073
-637.624	33.923	0.273	-0.243
-636.609	-7.515	0.146	0.101
-635.595	-55.017	0.350	-0.161
-634.580	800.000	-0.062	-0.238
-633.565	-200.000	-0.004	0.092
-632.551	364.189	0.083	-0.170
-631.536	111.939	0.021	-0.025
-630.522	86.769	0.185	0.208
-629.507	-22.240	-0.106	-0.066
-628.492	-114.016	0.084	0.017
-627.478	-146.690	-0.214	-0.019
-626.463	800.000	-0.052	-0.197
-625.449	20.676	-0.116	0.096
-624.434	47.336	-0.081	-0.077
-623.419	4.512	-0.310	0.232
-622.405	333.279	-0.109	-0.215
-621.390	-200.000	-0.053	0.251
-620.376	613.196	-0.185	0.473
-619.361	-53.708	0.155	0.072
-618.346	-179.813	0.225	0.005
-617.332	553.413	0.171	0.419
-616.317	-149.631	-0.093	-0.008
-615.303	139.312	0.145	-0.194
-614.288	800.000	0.051	0.182
-613.273	25.431	0.175	-0.148
-612.259	131.498	0.203	-0.267
-611.244	800.000	-0.063	0.257
-610.230	800.000	0.103	0.411
-609.215	-200.000	-0.013	0.192
-608.201	208.367	-0.267	0.425
-607.186	609.900	-0.094	-0.240
-606.171	6.567	0.318	0.241
-605.157	-16.827	0.155	-0.100
-604.142	-200.000	-0.033	0.312
-603.128	-200.000	-0.003	0.018
-602.113	-71.935	-0.172	0.065
-601.098	-104.625	-0.236	0.055
-600.084	159.144	0.096	-0.137
-599.069	-192.164	0.189	-0.002
-598.055	-200.000	0.016	-0.094
-597.040	444.229	-0.042	0.094
-596.025	14.939	0.243	0.194
-595.011	118.640	-0.041	0.052
-593.996	-200.000	0.016	0.203
-592.982	102.075	-0.084	-0.100
-591.967	-65.057	0.349	-0.143
-590.952	26.072	0.172	0.147
-589.938	-64.927	0.192	0.079
-588.923	486.744	0.158	-0.367
-587.909	-200.000	-0.024	0.215
-586.894	499.645	0.029	0.068
-585.879	12.038	0.193	-0.151
-584.865	-122.306	-0.278	-0.046
-583.850	-82.788	0.326	-0.107
-582.836	-51.191	-0.229	-0.109
-581.821	-106.467	-0.291	0.066
-580.806	443.053	-0.017	0.038
-579.792	-99.745	-0.151	0.038
-578.777	-95.198	0.116	-0.032
-577.763	347.366	-0.121	-0.243
-576.748	-56.909	0.252	-0.113
-575.733	-100.221	0.087	0.022
-574.719	-39.897	0.075	-0.040
-573.704	-87.705	-0.237	-0.073
-572.690	-63.617	-0.259	-0.108
-571.675	-75.231	0.390	-0.142
-570.661	-33.479	0.242	0.136
-569.646	800.000	0.052	0.217
-568.631	-54.884	0.414	-0.190
-567.617	441.848	0.119	0.265
-566.602	59.295	-0.173	0.173
-565.588	48.314	-0.328	0.313
-564.573	138.075	0.141	-0.188
-563.558	101.998	-0.241	-0.286
-562.544	-200.000	0.006	-0.149
-561.529	800.000	-0.099	-0.318
-560.515	53.764	0.159	-0.156
-559.500	800.000	0.037	-0.152
-558.485	98.637	-0.037	0.044
-557.471	35.551	-0.313	0.280
-556.456	-78.570	-0.178	0.062
-555.442	-200.000	0.020	0.143
-554.427	357.313	0.069	0.139
-553.412	380.013	-0.056	-0.117
-552.398	-99.865	0.310	0.079
-551.383	424.472	-0.045	-0.098
-550.369	314.729	-0.143	-0.274
-549.354	32.284	0.151	-0.133
-548.339	-155.972	0.144	0.009
-547.325	-166.356	-0.061	-0.003
-546.310	-200.000	-0.008	0.084
-545.296	-12.664	-0.034	0.022
-544.281	65.944	0.249	-0.257
-543.266	-73.483	-0.117	0.043
-542.252	-72.911	0.115	-0.043
-541.237	800.000	0.108	-0.386
-540.223	309.121	-0.040	-0.077
-539.208	-104.555	-0.105	-0.025
-538.193	800.000	0.045	0.129
-537.179	170.412	0.207	-0.301
-536.164	-57.595	-0.190	0.085
-535.150	112.629	-0.154	-0.190
-534.135	-133.225	-0.130	-0.017
-533.121	-132.409	-0.196	0.026
-532.106	579.667	0.050	-0.125
-531.091	11.879	0.149	0.116
-530.077	-145.491	0.030	-0.003
-529.062	7.644	-0.177	-0.135
-528.048	144.237	0.046	0.062
-527.033	32.518	-0.141	0.124
-526.018	51.393	-0.290	-0.279
-525.004	-177.496	-0.242	-0.006
-523.989	800.000	0.100	-0.362
-522.975	421.587	0.035	-0.076
-521.960	800.000	-0.080	0.342
-520.945	-200.000	-0.018	0.102
-519.931	87.169	-0.081	-0.091
-518.916	-200.000	0.020	0.316
-517.902	14.158	-0.084	0.066
-516.887	-185.961	0.164	-0.002
-515.872	204.770	0.168	0.265
-514.858	-41.953	0.435	-0.226
-513.843	-200.000	-0.015	-0.170
-512.829	441.444	-0.024	-0.054
-511.814	800.000	-0.107	-0.309
-510.799	143.878	-0.109	0.148
-509.785	-6.003	0.127	0.088
-508.770	-60.578	0.341	-0.147
-507.756	329.597	0.129	-0.251
-506.741	309.691	0.205	0.389
-505.726	-200.000	-0.013	-0.188
-504.712	-157.429	0.474	0.029
-503.697	520.550	-0.061	0.146
-502.683	413.846	-0.204	0.440
-501.668	-200.000	-0.047	0.263
-500.653	-23.459	-0.315	-0.192
-499.639	-200.000	-0.030	0.185
-498.624	-150.442	0.267	-0.021
-497.610	159.371	0.111	0.157
-496.595	-69.311	-0.253	-0.099
-495.581	116.009	-0.071	-0.088
-494.566	283.853	-0.100	0.182
-493.551	121.268	-0.117	0.148
-492.537	653.168	0.091	0.237
-491.522	-200.000	0.023	0.278
-490.508	2.504	0.198	0.145
-489.493	236.069	0.125	0.210
-488.478	333.043	0.011	-0.021
-487.464	-200.000	-0.029	-0.205
-486.449	800.000	0.060	-0.241
-485.435	-137.216	-0.479	0.055
-484.420	-106.537	0.296	0.067
-483.405	28.877	-0.204	0.175
-482.391	141.050	0.180	-0.242
-481.376	-150.222	-0.229	-0.018
-480.362	62.290	0.113	-0.114
-479.347	31.978	-0.185	0.162
-478.332	-136.560	-0.191	-0.022
-477.318	-200.000	0.008	0.084
-476.303	800.000	0.047	0.208
-475.289	-33.953	0.226	0.126
-474.274	-200.000	-0.021	-0.159
-473.259	24.587	-0.180	-0.151
-472.245	-172.278	0.195	-0.006
-471.230	84.732	-0.136	-0.152
-470.216	800.000	0.050	0.164
-469.201	-75.521	0.107	0.039
-468.186	-107.976	-0.265	0.058
-467.172	800.000	0.037	0.151
-466.157	-133.112	0.498	-0.064
-465.143	-5.032	-0.037	-0.026
-464.128	-89.966	-0.163	-0.048
-463.113	800.000	0.032	-0.118
-462.099	-6.526	0.179	-0.124
-461.084	42.003	-0.263	-0.242
-460.070	-44.922	-0.221	-0.112
-459.055	-174.009	-0.107	-0.003
-458.040	628.681	-0.136	0.348
-457.026	8.449	-0.211	0.161
-456.011	-132.388	0.164	0.021
-454.997	110.817	-0.117	-0.143
-453.982	-125.546	-0.319	0.049
-452.968	-19.848	-0.087	-0.054
-451.953	800.000	-0.014	-0.058
-450.938	-200.000	-0.067	0.356
-449.924	-200.000	0.020	0.226
-448.909	402.709	0.101	0.214
-447.895	-166.039	-0.375	0.016
-446.880	253.295	0.115	0.199
-445.865	-84.376	-0.052	0.017
-444.851	7.300	0.103	0.078
-443.836	800.000	-0.066	-0.268
-442.822	-200.000	-0.033	0.189
-441.807	-52.239	-0.307	-0.144
-440.792	-200.000	0.003	-0.020
-439.778	-164.112	-0.049	0.002
-438.763	2.655	0.198	-0.145
-437.749	12.557	0.304	-0.237
-436.734	51.843	-0.148	-0.143
-435.719	485.586	-0.036	-0.083
-434.705	-200.000	0.015	-0.260
-433.690	384.743	-0.041	0.085
-432.676	325.460	0.185	-0.359
-431.661	44.912	-0.016	0.015
-430.646	-173.166	-0.222	0.007
-429.632	170.003	-0.149	0.215
-428.617	14.466	-0.100	0.079
-427.603	800.000	-0.065	-0.274
-426.588	-200.000	-0.003	-0.419
-425.573	-25.802	-0.238	0.142
-424.559	65.033	0.056	0.057
-423.544	-114.976	0.275	-0.053
-422.530	427.831	0.079	-0.172
-421.515	-200.000	-0.030	-0.396
-420.500	-123.191	-0.199	-0.032
-419.486	-139.818	0.109	-0.012
-418.471	-39.222	-0.127	-0.068
-417.457	-112.789	-0.410	-0.082
-416.442	232.339	0.138	0.230
-415.428	800.000	0.051	-0.186
-414.413	287.430	-0.110	0.202
-413.398	-115.383	0.207	-0.040
-412.384	-131.845	-0.212	0.028
-411.369	-55.069	0.106	-0.048
-410.355	508.119	-0.074	-0.174
-409.340	669.249	0.082	0.215
-408.325	527.860	0.141	0.336
-407.311	-112.464	0.133	-0.027
-406.296	-102.708	-0.036	0.009
-405.282	-200.000	0.067	-0.353
-404.267	36.255	0.115	-0.103
-403.252	-137.664	-0.448	-0.051
-402.238	291.994	-0.055	0.102
-401.223	-200.000	0.013	-0.065
-400.209	398.480	-0.048	-0.102
-399.194	-59.762	-0.328	-0.142
-398.179	-200.000	-0.009	0.182
-397.165	-200.000	-0.017	-0.130
-396.150	-13.773	0.273	-0.179
-395.136	-200.000	-0.031	0.308
-394.121	-98.678	0.330	-0.085
-393.106	-140.898	-0.093	0.010
-392.092	-37.346	0.053	-0.029
-391.077	55.744	-0.119	0.116
-390.063	-59.015	-0.208	-0.091
-389.048	-142.679	-0.285	-0.028
-388.033	-1.431	0.210	0.150
-387.019	66.586	0.029	-0.030
-386.004	33.598	0.294	-0.258
-384.990	-18.520	-0.119	-0.075
-383.975	113.508	0.202	0.248
-382.960	-3.201	0.074	0.052
-381.946	-136.582	0.182	0.021
-380.931	800.000	0.021	-0.085
-379.917	800.000	-0.043	-0.134
-378.902	61.286	0.209	-0.209
-377.888	142.848	-0.242	-0.324
-376.873	-32.416	0.291	-0.164
-375.858	-12.954	-0.060	-0.039
-374.844	-200.000	-0.024	-0.204
-373.829	111.062	0.293	-0.356
-372.815	297.775	-0.180	0.333
-371.800	-10.655	0.222	-0.148
-370.785	-200.000	-0.037	0.261
-369.771	800.000	0.067	0.220
-368.756	-32.482	0.073	-0.041
-367.742	800.000	0.070	-0.294
-366.727	-95.249	-0.194	0.053
-365.712	800.000	0.042	0.181
-364.698	-200.000	-0.012	0.312
-363.683	-41.153	0.066	-0.034
-362.669	-200.000	-0.011	-0.182
-361.654	-78.764	-0.189	-0.065
-360.639	-128.509	-0.269	-0.038
-359.625	-115.839	0.164	0.031
-358.610	-137.349	0.115	-0.013
-357.596	-24.083	0.200	0.120
-356.581	-13.313	0.381	0.249
-355.566	-9.207	-0.247	-0.167
-354.552	442.818	-0.116	-0.256
-353.537	-74.877	-0.332	0.120
-352.523	28.221	-0.077	0.065
-351.508	-68.229	-0.130	-0.051
-350.493	106.725	-0.114	0.136
-349.479	-129.960	-0.126	-0.017
-348.464	410.603	-0.119	-0.255
-347.450	71.708	0.099	0.104
-346.435	-101.458	0.220	0.054
-345.420	91.371	-0.168	0.190
-344.406	-80.843	0.089	-0.030
-343.391	61.098	-0.239	-0.240
-342.377	65.825	-0.313	0.320
-341.362	800.000	0.066	0.225
-340.348	-200.000	0.013	0.121
-339.333	182.073	-0.076	0.113
-338.318	-200.000	-0.019	-0.305
-337.304	171.864	-0.068	-0.098
-336.289	401.839	0.111	0.235
-335.275	317.730	0.100	-0.190
-334.260	-99.330	0.264	0.067
-333.245	33.977	0.316	0.277
-332.231	-89.273	-0.199	0.059
-331.216	194.870	0.175	0.268
-330.202	352.839	-0.069	0.137
-329.187	0.914	-0.148	-0.107
-328.172	-128.797	-0.129	-0.018
-327.158	269.258	0.229	-0.406
-326.143	200.657	-0.055	-0.085
-325.129	-200.000	-0.067	-0.316
-324.114	-200.000	0.016	0.227
-323.099	161.291	-0.158	-0.222
-322.085	-57.989	0.033	0.014
-321.070	92.746	-0.174	0.198
-320.056	800.000	0.062	-0.257
-319.041	22.101	-0.186	-0.153
-318.026	-13.379	-0.128	-0.084
-317.012	-61.491	0.243	0.103
-315.997	203.432	0.144	-0.225
-314.983	-200.000	0.023	0.264
-313.968	-94.646	0.415	-0.114
-312.953	-176.618	0.330	0.009
-311.939	800.000	-0.060	0.259
-310.924	156.071	-0.151	0.210
-309.910	-125.447	0.259	-0.040
-308.895	-3.181	-0.052	-0.037
-307.880	91.873	-0.261	0.296
-306.866	-67.050	-0.061	-0.024
-305.851	-101.807	-0.127	-0.031
-304.837	241.246	-0.056	0.093
-303.822	157.508	-0.256	-0.357
-302.807	800.000	-0.084	-0.280
-301.793	-78.796	0.233	0.080
-300.778	-200.000	-0.081	-0.452
-299.764	83.887	0.209	0.230
-298.749	-200.000	-0.018	0.115
-297.735	91.068	0.168	-0.190
-296.720	-200.000	-0.047	-0.247
-295.705	-200.000	0.009	-0.080
-294.691	64.681	-0.283	0.287
-293.676	-51.775	0.248	-0.116
-292.662	-129.040	0.511	0.072
-291.647	-34.142	-0.381	-0.211
-290.632	6.889	0.182	-0.136
-289.618	800.000	-0.116	0.375
-288.603	-48.307	-0.187	-0.091
-287.589	144.342	0.086	-0.115
-286.574	-32.774	0.161	-0.090
-285.559	-92.452	-0.244	-0.069
-284.545	-138.971	-0.173	-0.019
-283.530	-175.289	-0.318	0.009
-282.516	-22.166	-0.095	0.058
-281.501	800.000	0.044	0.185
-280.486	-173.872	0.142	-0.004
-279.472	-49.372	0.264	-0.127
-278.457	-128.322	0.362	-0.052
-277.443	-90.494	-0.242	-0.071
-276.428	-200.000	0.010	0.181
-275.413	-7.811	-0.146	-0.099
-274.399	-23.115	-0.097	0.059
-273.384	-50.584	-0.468	0.222
-272.370	-103.276	0.071	0.017
-271.355	-200.000	0.032	-0.212
-270.340	800.000	-0.123	0.389
-269.326	-107.908	0.166	-0.036
-268.311	75.757	0.147	-0.156
-267.297	-200.000	-0.021	-0.199
-266.282	-200.000	-0.007	-0.286
-265.267	-56.459	0.153	-0.068
-264.253	-103.131	-0.200	0.047
-263.238	-168.952	0.206	0.008
-262.224	-145.285	-0.179	0.016
-261.209	-26.303	-0.138	0.081
-260.195	-24.059	0.116	-0.070
-259.180	-31.125	0.036	0.020
-258.165	286.031	0.033	0.060
-257.151	0.807	-0.176	0.127
-256.136	39.182	0.126	0.113
-255.122	13.821	0.235	0.184
-254.107	27.672	-0.304	0.257
-253.092	98.629	-0.104	-0.121
-252.078	-41.369	0.145	-0.075
-251.063	777.782	-0.078	0.214
-250.049	33.125	-0.255	-0.222
-249.034	800.000	-0.051	-0.142
-248.019	-200.000	0.006	-0.085
-247.005	-122.649	0.197	0.032
-245.990	-200.000	-0.032	0.341
-244.976	-88.849	-0.201	-0.060
-243.961	176.449	0.224	0.327
-242.946	307.793	-0.106	0.199
-241.932	-26.428	-0.219	0.129
-240.917	26.010	-0.041	-0.035
-239.903	0.270	-0.149	-0.107
-238.888	71.808	-0.093	-0.097
-237.873	-200.000	-0.010	0.045
-236.859	800.000	-0.067	0.209
-235.844	279.938	0.121	-0.217
-234.830	-169.745	0.112	0.004
-233.815	101.576	-0.103	0.121
-232.800	-29.179	-0.125	-0.072
-231.786	800.000	-0.071	-0.309
-230.771	-200.000	-0.069	0.320
-229.757	115.295	0.072	0.089
-228.742	-182.757	0.193	-0.004
-227.727	-137.057	-0.175	-0.020
-226.713	418.673	0.079	-0.171
-225.698	-200.000	0.069	-0.330
-224.684	-89.054	-0.084	-0.025
-223.669	146.124	0.240	0.323
-222.655	-31.441	-0.202	-0.114
-221.640	26.864	0.244	0.205
-220.625	441.070	-0.081	-0.178
-219.611	465.288	0.109	-0.245
-218.596	588.568	0.084	0.207
-217.582	-31.196	0.133	0.075
-216.567	446.039	0.058	0.128
-215.552	138.621	-0.070	0.093
-214.538	521.810	0.114	-0.269
-213.523	-200.000	0.027	0.285
-212.509	-4.369	0.154	0.107
-211.494	-3.184	0.078	-0.054
-210.479	-53.188	-0.199	-0.092
-209.465	-200.000	0.014	-0.105
-208.450	550.207	-0.090	-0.217
-207.436	22.025	-0.197	0.161
-206.421	-72.863	-0.052	0.019
-205.406	-152.718	-0.157	-0.011
-204.392	-190.562	-0.211	0.002
-203.377	504.019	-0.111	-0.259
-202.363	-100.905	-0.270	-0.066
-201.348	-27.676	0.189	-0.110
-200.333	-0.728	0.098	0.070
-199.319	-200.000	-0.002	-0.308
-198.304	219.759	-0.179	0.288
-197.290	28.474	0.270	-0.229
-196.275	-176.500	0.210	-0.005
-195.260	499.912	0.064	0.147
-194.246	-173.228	0.524	0.016
-193.231	-26.316	0.072	0.042
-192.217	-200.000	-0.018	-0.126
-191.202	-200.000	-0.106	0.512
-190.187	751.466	0.095	0.258
-189.173	-200.000	-0.253	-0.000
-188.158	-200.000	0.021	0.197
-187.144	-114.812	-0.043	-0.008
-186.129	173.514	0.097	-0.141
-185.114	407.169	-0.064	-0.135
-184.100	289.075	-0.080	0.146
-183.085	-114.201	0.470	0.091
-182.071	567.251	0.150	-0.364
-181.056	235.926	-0.119	-0.197
-180.042	-52.469	0.246	-0.114
-179.027	-124.038	0.089	0.014
-178.012	75.639	-0.097	0.103
-176.998	182.597	-0.023	-0.034
-175.983	800.000	-0.036	-0.157
-174.969	416.156	-0.152	0.324
-173.954	76.295	-0.026	0.027
-172.939	-200.000	0.005	0.379
-171.925	-13.919	0.232	0.150
-170.910	-81.369	0.139	-0.046
-169.896	161.223	-0.075	-0.106
-168.881	73.428	-0.142	-0.149
-167.866	26.398	0.069	0.058
-166.852	-68.804	-0.282	-0.109
-165.837	295.976	-0.062	-0.114
-164.823	-28.791	0.074	0.043
-163.808	108.640	0.174	-0.208
-162.793	-200.000	0.007	0.152
-161.779	167.077	0.068	0.097
-160.764	128.454	0.232	0.296
-159.750	193.861	-0.132	0.199
-158.735	-128.590	0.172	-0.024
-157.720	-63.268	0.286	0.118
-156.706	-67.106	-0.230	-0.091
-155.691	126.643	0.025	-0.032
-154.677	-200.000	-0.058	0.456
-153.662	-200.000	0.023	0.245
-152.647	4.069	0.190	-0.139
-151.633	-200.000	0.010	-0.360
-150.618	-40.598	0.214	0.111
-149.604	-79.739	0.263	-0.089
-148.589	-108.363	0.063	-0.014
-147.574	-200.000	0.020	-0.229
-146.560	-117.997	-0.088	0.016
-145.545	703.390	0.113	-0.299
-144.531	82.341	0.104	0.113
-143.516	468.353	0.192	-0.430
-142.502	-92.883	0.126	0.035
-141.487	-99.428	-0.120	0.030
-140.472	-120.045	0.250	-0.043
-139.458	59.526	-0.105	0.103
-138.443	657.319	-0.127	0.325
-137.429	5.933	-0.235	-0.174
-136.414	-4.778	0.141	-0.098
-135.399	224.352	-0.044	-0.071
-134.385	424.835	0.084	-0.181
-133.370	-70.525	0.187	-0.071
-132.356	75.658	-0.109	0.115
-131.341	-200.000	-0.036	0.186
-130.326	550.100	-0.069	-0.166
-129.312	121.676	0.164	0.204
-128.297	-200.000	0.010	-0.246
-127.283	165.267	-0.229	0.324
-126.268	-114.503	-0.351	-0.067
-125.253	-36.630	-0.237	0.128
-124.239	207.223	0.111	-0.173
-123.224	-60.230	0.264	-0.112
-122.210	59.704	-0.116	0.114
