DTS Sentinel unit serial number:	SN413079Multiplexer serial number:	ORYXHardware model number:	OX4-SRSoftware version number:	ORYX F/W v4.00 Oryx Data Collector v3.7.2.0data status	okinstallation	princeton_trtdifferential loss correction	single-endedforward channel	channel 3reverse channel	N/Adate	2019/09/11time	09:26:11forward acquisition time	60.00reverse acquisition time	0.00gamma	496.2192k internal	0.2306k external	0.2306temperature offset calibration	0.9938default loss term (dB/km)	0.3790temperature slope calibration	1.0000multiplexer offset coefficient	1.0000multiplexer slope coefficient	1.0000fibre end	0.00T internal ref (°C)	34.62T ext. ref 1 (°C)	0.11T ext. ref 2 (°C)	31.47length (m)	temperature (°C)	Stokes	anti-Stokes-747.200	341.124	0.117	0.232
-746.185	800.000	0.093	0.344
-745.171	800.000	0.008	0.027
-744.156	-140.094	-0.162	-0.017
-743.142	118.110	0.167	-0.209
-742.127	688.115	-0.147	0.390
-741.112	-45.934	0.348	0.175
-740.098	-43.866	0.100	-0.051
-739.083	158.039	0.149	0.211
-738.069	-30.197	-0.185	0.107
-737.054	-88.216	0.140	0.043
-736.039	357.246	0.056	0.114
-735.025	-71.156	-0.253	0.096
-734.010	-175.015	-0.294	-0.008
-732.996	518.392	0.031	-0.073
-731.981	-200.000	0.123	-0.000
-730.966	146.036	-0.082	-0.112
-729.952	78.134	-0.195	-0.211
-728.937	74.173	-0.181	0.193
-727.923	287.010	0.070	-0.128
-726.908	-200.000	-0.032	-0.370
-725.894	800.000	0.047	-0.164
-724.879	-200.000	0.020	-0.174
-723.864	249.167	-0.105	0.181
-722.850	-140.549	-0.233	0.025
-721.835	11.236	0.179	0.139
-720.821	-39.661	-0.341	-0.181
-719.806	-8.012	-0.176	-0.120
-718.791	-48.312	-0.055	-0.027
-717.777	-104.728	0.089	0.021
-716.762	-101.386	-0.139	0.034
-715.748	-12.684	0.134	0.089
-714.733	-200.000	0.027	-0.145
-713.718	-84.807	-0.610	-0.195
-712.704	322.678	-0.024	0.046
-711.689	95.286	-0.110	-0.127
-710.675	326.475	0.007	0.013
-709.660	178.183	0.065	0.096
-708.645	-96.363	-0.178	0.048
-707.631	-95.659	0.089	-0.024
-706.616	51.229	-0.076	0.073
-705.602	318.812	-0.115	-0.221
-704.587	433.539	-0.166	0.367
-703.572	-71.981	-0.369	-0.140
-702.558	153.316	0.218	0.303
-701.543	-200.000	0.008	0.498
-700.529	370.945	-0.086	0.177
-699.514	-200.000	0.040	0.183
-698.499	519.623	0.031	0.075
-697.485	-200.000	0.047	-0.219
-696.470	15.970	-0.097	0.077
-695.456	-200.000	0.050	-0.339
-694.441	97.034	-0.217	-0.253
-693.426	-133.736	-0.106	0.013
-692.412	-200.000	0.066	0.586
-691.397	83.010	0.059	-0.065
-690.383	4.969	0.058	0.044
-689.368	122.511	0.091	-0.116
-688.354	-91.269	-0.230	0.067
-687.339	-12.605	0.181	0.120
-686.324	-200.000	0.035	0.204
-685.310	93.280	-0.091	-0.104
-684.295	-70.636	0.141	-0.054
-683.281	-137.907	-0.179	0.020
-682.266	338.281	0.051	0.101
-681.251	-126.967	0.294	0.044
-680.237	-200.000	-0.022	0.388
-679.222	-100.741	-0.175	-0.044
-678.208	-23.658	-0.473	0.288
-677.193	130.728	0.137	-0.178
-676.178	-94.297	-0.149	-0.041
-675.164	112.438	-0.043	-0.053
-674.149	800.000	-0.081	0.306
-673.135	-65.601	0.094	-0.038
-672.120	800.000	-0.004	-0.017
-671.105	-21.964	-0.235	-0.145
-670.091	-77.748	-0.201	0.071
-669.076	515.673	0.039	-0.092
-668.062	-106.713	-0.087	0.020
-667.047	73.899	0.206	-0.219
-666.032	326.669	0.110	-0.213
-665.018	174.661	-0.117	0.172
-664.003	-118.999	0.361	0.064
-662.989	-124.131	-0.386	0.061
-661.974	-200.000	0.018	0.133
-660.959	-40.039	0.113	0.060
-659.945	-36.299	0.124	0.068
-658.930	82.507	-0.187	0.205
-657.916	-200.000	0.035	0.187
-656.901	800.000	-0.076	-0.223
-655.886	-92.735	0.135	0.038
-654.872	353.375	-0.038	-0.077
-653.857	-56.644	-0.441	-0.198
-652.843	-58.729	-0.160	0.070
-651.828	-200.000	-0.054	-0.453
-650.814	-109.858	-0.249	0.053
-649.799	-125.893	-0.126	-0.019
-648.784	139.650	-0.085	0.113
-647.770	800.000	-0.117	-0.370
-646.755	-0.331	-0.108	0.078
-645.741	-144.068	-0.116	-0.011
-644.726	-46.430	0.194	0.097
-643.711	134.341	0.198	-0.261
-642.697	800.000	0.084	-0.357
-641.682	25.438	-0.121	0.102
-640.668	-200.000	-0.006	0.153
-639.653	208.539	0.255	0.404
-638.638	315.191	-0.073	0.140
-637.624	117.522	0.152	0.189
-636.609	-41.646	-0.173	-0.090
-635.595	-121.148	0.272	0.046
-634.580	-92.176	-0.221	0.063
-633.565	493.195	-0.201	0.466
-632.551	-80.453	-0.235	-0.079
-631.536	667.060	-0.013	-0.034
-630.522	-129.480	0.198	0.028
-629.507	-200.000	-0.031	0.179
-628.492	-200.000	0.037	-0.267
-627.478	-200.000	0.009	-0.297
-626.463	-200.000	0.011	-0.159
-625.449	-200.000	0.052	0.292
-624.434	-200.000	0.018	0.332
-623.419	552.239	0.070	0.171
-622.405	-11.087	-0.282	-0.188
-621.390	314.097	-0.118	-0.224
-620.376	-200.000	0.048	0.347
-619.361	83.650	-0.004	0.004
-618.346	-152.201	-0.127	0.009
-617.332	-17.472	-0.218	-0.139
-616.317	800.000	-0.054	-0.165
-615.303	-111.001	0.292	0.061
-614.288	-2.642	-0.185	-0.131
-613.273	-200.000	-0.005	0.040
-612.259	-16.141	0.133	0.086
-611.244	-63.785	0.381	0.158
-610.230	-69.054	-0.173	0.067
-609.215	17.427	-0.236	-0.190
-608.201	77.689	-0.340	-0.366
-607.186	-117.264	0.102	0.019
-606.171	452.544	-0.043	-0.096
-605.157	8.990	-0.176	0.134
-604.142	800.000	0.056	0.181
-603.128	-35.521	-0.088	-0.048
-602.113	30.623	-0.129	0.112
-601.098	350.758	-0.074	0.148
-600.084	-200.000	-0.020	-0.306
-599.069	369.352	-0.083	0.169
-598.055	71.904	-0.215	-0.226
-597.040	133.474	0.141	-0.184
-596.025	-37.170	0.133	-0.072
-595.011	800.000	0.109	-0.336
-593.996	800.000	0.039	-0.148
-592.982	-9.652	0.250	0.169
-591.967	-102.272	0.295	-0.072
-590.952	800.000	0.031	-0.111
-589.938	-115.997	-0.487	-0.092
-588.923	438.621	0.154	0.339
-587.909	-53.301	0.291	0.135
-586.894	17.228	-0.232	0.186
-585.879	800.000	0.075	-0.254
-584.865	538.025	0.142	-0.342
-583.850	106.946	0.154	-0.185
-582.836	384.200	-0.073	-0.151
-581.821	-73.045	0.116	0.043
-580.806	800.000	0.136	-0.485
-579.792	-51.309	0.262	0.124
-578.777	-104.669	0.268	0.063
-577.763	-115.131	-0.143	-0.027
-576.748	-118.792	0.327	0.058
-575.733	-109.299	0.070	-0.015
-574.719	-81.964	-0.223	-0.074
-573.704	-200.000	-0.005	0.120
-572.690	196.634	-0.176	0.272
-571.675	122.775	0.187	-0.237
-570.661	800.000	-0.066	-0.280
-569.646	-10.808	-0.215	-0.144
-568.631	-200.000	0.024	-0.323
-567.617	-103.426	0.214	0.051
-566.602	-200.000	0.010	-0.202
-565.588	-118.859	0.344	0.061
-564.573	-132.863	-0.232	-0.030
-563.558	404.429	-0.095	-0.202
-562.544	-19.462	0.043	-0.027
-561.529	-200.000	-0.002	-0.011
-560.515	70.323	-0.104	0.108
-559.500	560.498	-0.122	0.298
-558.485	78.300	0.186	0.201
-557.471	40.219	-0.186	0.169
-556.456	-145.966	-0.560	0.050
-555.442	-76.665	-0.096	-0.034
-554.427	82.499	0.158	0.173
-553.412	68.388	0.058	-0.060
-552.398	-106.982	-0.073	0.016
-551.383	-27.618	0.435	-0.255
-550.369	-200.000	-0.063	-0.364
-549.354	-79.288	-0.177	0.061
-548.339	1.451	-0.065	-0.047
-547.325	107.022	0.082	-0.099
-546.310	257.678	0.061	-0.106
-545.296	-81.206	-0.089	-0.030
-544.281	-55.974	0.084	-0.038
-543.266	-200.000	0.027	0.160
-542.252	-200.000	0.640	0.003
-541.237	336.942	-0.081	0.160
-540.223	63.403	0.244	0.247
-539.208	-3.243	-0.147	-0.104
-538.193	-156.905	-0.312	-0.019
-537.179	93.440	0.071	0.081
-536.164	220.771	-0.158	-0.255
-535.150	-200.000	0.081	-0.439
-534.135	-36.981	-0.208	-0.112
-533.121	297.546	0.209	0.387
-532.106	-200.000	0.027	0.269
-531.091	776.099	0.013	-0.037
-530.077	52.691	0.122	0.117
-529.062	-20.891	0.149	-0.092
-528.048	-6.308	0.081	-0.056
-527.033	-108.595	-0.519	0.112
-526.018	-200.000	0.020	-0.133
-525.004	-111.868	0.311	0.063
-523.989	-139.465	0.286	-0.031
-522.975	588.825	0.045	0.113
-521.960	-20.305	0.325	0.202
-520.945	-114.485	-0.103	0.020
-519.931	-93.127	0.214	0.060
-518.916	-15.917	0.134	0.086
-517.902	96.228	0.037	0.043
-516.887	1.925	-0.271	-0.197
-515.872	-164.468	0.167	0.008
-514.858	25.638	-0.135	-0.113
-513.843	209.617	-0.041	0.064
-512.829	-162.741	0.037	-0.002
-511.814	-46.427	0.346	0.172
-510.799	-55.540	0.078	0.035
-509.785	-24.995	-0.103	0.062
-508.770	800.000	-0.066	-0.218
-507.756	800.000	0.022	-0.092
-506.741	318.634	0.073	-0.140
-505.726	-110.926	-0.413	0.086
-504.712	51.389	0.102	-0.097
-503.697	393.795	0.095	0.200
-502.683	800.000	0.041	0.136
-501.668	-157.636	0.265	0.016
-500.653	-56.856	-0.293	-0.131
-499.639	-200.000	0.058	-0.278
-498.624	-69.645	-0.260	-0.100
-497.610	317.355	-0.079	0.151
-496.595	-148.978	-0.209	-0.017
-495.581	-145.379	-0.143	0.013
-494.566	198.062	0.050	-0.077
-493.551	-153.852	-0.135	0.009
-492.537	-11.304	-0.310	-0.205
-491.522	230.787	0.015	-0.024
-490.508	-70.460	-0.400	0.153
-489.493	-19.107	-0.129	-0.081
-488.478	-17.162	0.082	-0.052
-487.464	-77.903	0.225	0.078
-486.449	-66.418	0.141	-0.056
-485.435	-162.490	-0.145	0.007
-484.420	800.000	-0.127	0.432
-483.405	94.096	-0.204	0.234
-482.391	-76.434	-0.240	-0.085
-481.376	-133.020	-0.394	0.050
-480.362	-91.370	-0.090	0.026
-479.347	-200.000	-0.037	0.275
-478.332	-121.340	-0.155	0.026
-477.318	-5.342	0.270	0.187
-476.303	-99.415	0.361	0.092
-475.289	-200.000	-0.001	0.055
-474.274	-200.000	-0.006	-0.156
-473.259	-110.821	-0.434	-0.090
-472.245	133.185	0.135	0.175
-471.230	21.781	-0.097	0.079
-470.216	-200.000	0.005	0.151
-469.201	370.114	0.069	-0.140
-468.186	800.000	0.076	0.218
-467.172	800.000	-0.018	0.062
-466.157	-84.604	0.078	0.025
-465.143	-31.477	0.068	-0.039
-464.128	800.000	0.054	0.180
-463.113	-83.767	0.204	-0.066
-462.099	-200.000	-0.001	-0.058
-461.084	150.970	-0.153	0.210
-460.070	-50.050	0.151	0.072
-459.055	68.607	-0.123	0.127
-458.040	-51.098	0.211	0.099
-457.026	-79.546	0.376	0.128
-456.011	303.066	0.210	-0.392
-454.997	218.891	0.133	0.213
-453.982	386.547	0.194	0.403
-452.968	177.368	-0.238	0.348
-451.953	117.146	0.079	0.097
-450.938	-23.534	-0.137	0.083
-449.924	-200.000	0.014	-0.222
-448.909	145.757	0.106	0.143
-447.895	389.000	0.149	-0.310
-446.880	66.299	0.167	-0.170
-445.865	-121.132	-0.178	0.030
-444.851	305.030	-0.052	-0.098
-443.836	800.000	0.078	-0.281
-442.822	-134.307	0.278	-0.034
-441.807	-87.232	0.188	0.057
-440.792	174.913	-0.109	-0.159
-439.778	6.886	0.119	-0.089
-438.763	-15.296	0.297	-0.191
-437.749	-56.404	0.275	-0.123
-436.734	293.264	-0.123	-0.226
-435.719	-200.000	0.046	0.317
-434.705	57.895	0.197	0.194
-433.690	-143.610	-0.138	0.013
-432.676	42.294	0.183	-0.167
-431.661	9.748	-0.113	0.086
-430.646	-117.492	-0.338	0.061
-429.632	275.433	-0.220	0.392
-428.617	-200.000	0.013	0.063
-427.603	-100.542	0.135	0.033
-426.588	-157.230	-0.308	-0.019
-425.573	-141.581	0.504	0.051
-424.559	419.275	0.073	0.156
-423.544	-200.000	-0.019	-0.224
-422.530	650.105	0.076	0.196
-421.515	-200.000	-0.022	0.426
-420.500	-200.000	-0.023	-0.271
-419.486	-55.389	0.195	0.088
-418.471	-55.498	-0.429	0.193
-417.457	-92.325	0.112	-0.032
-416.442	-133.364	0.385	0.049
-415.428	461.689	-0.163	0.366
-414.413	28.998	0.167	-0.142
-413.398	-8.561	0.187	0.126
-412.384	491.830	0.009	-0.022
-411.369	104.490	-0.123	0.145
-410.355	-28.936	-0.244	0.141
-409.340	-57.302	0.205	-0.090
-408.325	800.000	-0.053	0.159
-407.311	-36.225	-0.191	0.104
-406.296	255.890	0.106	0.183
-405.282	-71.322	-0.344	0.129
-404.267	18.305	-0.289	0.232
-403.252	-34.909	0.316	0.173
-402.238	402.138	-0.069	-0.146
-401.223	-160.241	-0.337	-0.018
-400.209	-1.975	0.109	-0.077
-399.194	-33.167	-0.312	-0.174
-398.179	-92.920	-0.119	-0.033
-397.165	-87.684	0.169	-0.051
-396.150	17.282	0.314	-0.250
-395.136	-100.465	-0.451	-0.112
-394.121	-107.850	0.273	-0.060
-393.106	800.000	-0.033	-0.104
-392.092	-193.166	-0.122	-0.001
-391.077	-34.805	0.299	0.164
-390.063	209.128	-0.127	-0.200
-389.048	11.898	0.083	0.064
-388.033	-63.022	0.273	-0.113
-387.019	-73.927	0.156	-0.057
-386.004	79.780	0.071	-0.077
-384.990	-200.000	-0.003	-0.151
-383.975	343.169	0.080	-0.157
-382.960	800.000	0.023	-0.074
-381.946	171.131	0.056	-0.081
-380.931	-133.103	-0.256	0.033
-379.917	-200.000	-0.001	-0.139
-378.902	56.801	0.351	0.343
-377.888	42.940	-0.238	0.218
-376.873	800.000	-0.088	0.324
-375.858	800.000	-0.087	-0.315
-374.844	800.000	0.078	-0.240
-373.829	156.295	0.063	-0.088
-372.815	800.000	-0.071	-0.239
-371.800	-200.000	-0.024	0.203
-370.785	-92.931	-0.121	0.034
-369.771	-200.000	-0.029	0.292
-368.756	13.384	0.053	-0.042
-367.742	-49.233	0.140	0.067
-366.727	-152.176	-0.223	-0.016
-365.712	-200.000	-0.052	0.273
-364.698	-39.752	0.259	-0.136
-363.683	-200.000	0.026	-0.149
-362.669	-138.323	0.140	-0.015
-361.654	-97.372	-0.265	0.069
-360.639	-111.592	-0.163	-0.033
-359.625	-200.000	-0.012	-0.201
-358.610	-62.887	-0.329	0.136
-357.596	-43.587	-0.192	-0.097
-356.581	190.905	-0.050	-0.075
-355.566	-200.000	0.000	-0.172
-354.552	579.508	-0.010	-0.024
-353.537	39.830	-0.126	-0.114
-352.523	204.298	0.038	0.059
-351.508	84.095	0.111	0.121
-350.493	74.872	0.160	0.168
-349.479	-25.493	-0.030	-0.018
-348.464	109.659	0.352	0.422
-347.450	84.036	0.141	0.154
-346.435	33.150	-0.182	0.158
-345.420	-200.000	-0.007	-0.172
-344.406	210.383	0.164	-0.258
-343.391	-99.500	-0.239	0.060
-342.377	-115.439	-0.225	-0.042
-341.362	-200.000	0.015	-0.187
-340.348	154.774	0.110	-0.152
-339.333	581.387	0.039	-0.096
-338.318	800.000	-0.084	-0.274
-337.304	-18.740	0.188	0.117
-336.289	-84.611	-0.082	0.026
-335.275	20.316	-0.178	0.144
-334.260	800.000	0.050	-0.170
-333.245	-175.617	-0.431	0.012
-332.231	-45.917	-0.201	-0.099
-331.216	-200.000	0.001	-0.155
-330.202	709.576	0.159	-0.420
-329.187	-56.969	-0.113	0.050
-328.172	800.000	-0.025	-0.084
-327.158	-70.355	-0.200	-0.076
-326.143	-121.331	-0.161	0.027
-325.129	-69.203	-0.257	-0.099
-324.114	-158.665	-0.139	0.008
-323.099	15.643	-0.161	-0.127
-322.085	800.000	-0.107	0.426
-321.070	-94.616	0.039	-0.011
-320.056	-200.000	-0.011	0.145
-319.041	122.238	0.110	-0.138
-318.026	444.829	-0.059	0.129
-317.012	-64.083	0.166	0.068
-315.997	342.499	-0.213	-0.416
-314.983	-200.000	-0.034	-0.253
-313.968	209.501	0.244	0.382
-312.953	-60.094	-0.185	0.079
-311.939	-129.871	0.258	0.035
-310.924	-200.000	-0.455	-0.002
-309.910	79.523	0.132	0.142
-308.895	76.113	-0.133	0.141
-307.880	679.255	0.058	-0.152
-306.866	-36.309	0.146	-0.079
-305.851	67.507	0.079	0.080
-304.837	463.377	0.092	-0.205
-303.822	-98.374	0.270	0.069
-302.807	-57.758	0.113	0.049
-301.793	-108.544	-0.337	-0.073
-300.778	573.545	0.084	-0.205
-299.764	-101.309	-0.166	-0.041
-298.749	3.900	0.036	-0.026
-297.735	-65.721	0.092	0.037
-296.720	-87.335	-0.209	0.063
-295.705	511.023	-0.068	-0.158
-294.691	175.053	0.193	0.280
-293.676	-200.000	-0.006	0.039
-292.662	452.864	-0.082	0.181
-291.647	-200.000	-0.018	-0.197
-290.632	157.428	-0.135	-0.187
-289.618	33.399	0.120	-0.104
-288.603	34.656	0.241	0.211
-287.589	800.000	-0.047	0.197
-286.574	506.726	0.141	-0.328
-285.559	-200.000	0.024	0.114
-284.545	-84.056	0.268	-0.085
-283.530	-200.000	0.051	-0.323
-282.516	89.443	0.013	-0.015
-281.501	-200.000	-0.002	0.033
-280.486	84.167	0.064	0.070
-279.472	-127.601	0.071	-0.010
-278.457	457.575	-0.115	0.255
-277.443	75.613	0.041	0.043
-276.428	-148.871	-0.115	0.009
-275.413	7.205	0.235	0.175
-274.399	286.029	-0.035	0.064
-273.384	-200.000	0.001	-0.205
-272.370	-12.493	0.124	-0.081
-271.355	800.000	0.072	-0.198
-270.340	-200.000	0.030	0.384
-269.326	-103.723	-0.156	-0.037
-268.311	-82.834	0.389	-0.126
-267.297	-81.310	-0.211	-0.069
-266.282	-84.199	-0.455	-0.144
-265.267	-112.125	0.084	0.017
-264.253	800.000	0.066	0.248
-263.238	98.301	-0.145	-0.166
-262.224	-93.898	-0.264	0.073
-261.209	-147.647	-0.246	-0.021
-260.195	264.659	0.098	0.171
-259.180	50.835	-0.057	0.054
-258.165	-67.158	0.291	-0.114
-257.151	-138.078	-0.429	-0.048
-256.136	-21.017	-0.049	0.030
-255.122	318.442	-0.021	-0.041
-254.107	-200.000	0.014	-0.105
-253.092	-135.899	0.427	0.050
-252.078	-200.000	-0.025	0.365
-251.063	1.465	0.050	-0.036
-250.049	31.795	0.076	0.065
-249.034	426.170	0.095	-0.204
-248.019	-171.580	-0.554	-0.018
-247.005	-200.000	-0.010	0.222
-245.990	-61.880	-0.262	-0.109
-244.976	-140.270	-0.087	-0.009
-243.961	-29.652	0.109	-0.062
-242.946	-96.737	0.254	0.067
-241.932	-162.300	0.285	0.014
-240.917	-143.659	-0.207	-0.020
-239.903	800.000	-0.037	0.119
-238.888	-174.289	-0.263	-0.008
-237.873	-133.059	0.171	0.022
-236.859	128.595	-0.209	0.265
-235.844	216.928	-0.167	0.266
-234.830	46.312	0.263	0.243
-233.815	-126.136	0.170	-0.025
-232.800	430.449	0.169	0.364
-231.786	276.822	-0.128	-0.227
-230.771	-200.000	-0.005	0.054
-229.757	10.904	-0.174	0.132
-228.742	-139.207	0.028	-0.003
-227.727	259.931	-0.132	0.228
-226.713	78.117	0.130	-0.138
-225.698	249.356	0.142	0.241
-224.684	-95.301	0.013	0.004
-223.669	-70.222	-0.106	0.040
-222.655	-70.800	0.178	-0.067
-221.640	-154.084	-0.179	0.012
-220.625	324.715	0.056	-0.106
-219.611	-24.516	0.179	-0.107
-218.596	-200.000	0.002	-0.036
-217.582	180.413	0.040	-0.059
-216.567	-71.966	0.240	0.089
-215.552	60.852	-0.159	0.157
-214.538	287.319	0.112	0.202
-213.523	126.723	-0.118	0.149
-212.509	-37.575	-0.218	-0.116
-211.494	-18.097	-0.154	-0.096
-210.479	800.000	0.016	-0.058
-209.465	800.000	0.037	0.160
-208.450	-21.963	0.216	0.131
-207.436	68.728	0.140	-0.143
-206.421	-116.360	0.382	-0.070
-205.406	79.436	0.299	-0.319
-204.392	164.044	0.175	0.246
-203.377	240.969	0.041	0.068
-202.363	14.821	-0.067	-0.052
-201.348	167.814	-0.117	0.166
-200.333	800.000	0.113	-0.413
-199.319	308.785	0.046	0.086
-198.304	-30.823	0.336	0.189
-197.290	-200.000	-0.007	-0.128
-196.275	43.875	-0.221	0.202
-195.260	510.560	0.067	-0.154
-194.246	800.000	-0.044	0.152
-193.231	-102.261	-0.386	-0.092
-192.217	-127.153	-0.164	0.024
-191.202	-78.431	-0.157	0.053
-190.187	-200.000	-0.063	-0.325
-189.173	254.483	0.080	-0.137
-188.158	-89.173	-0.105	0.031
-187.144	171.241	0.279	-0.399
-186.129	240.736	0.053	0.087
-185.114	-115.960	0.103	0.019
-184.100	-136.429	0.489	-0.057
-183.085	-136.220	-0.342	-0.040
-182.071	-96.657	0.075	0.020
-181.056	33.454	0.070	-0.060
-180.042	147.753	-0.016	-0.021
-179.027	167.362	0.220	0.311
-178.012	212.041	-0.047	-0.073
-176.998	79.981	0.135	0.145
-175.983	-129.589	0.109	0.015
-174.969	-200.000	0.020	-0.132
-173.954	10.330	0.094	-0.071
-172.939	-31.908	0.257	-0.143
-171.925	67.494	-0.185	-0.187
-170.910	10.721	-0.128	-0.097
-169.896	-45.064	0.163	0.080
-168.881	-200.000	-0.029	-0.373
-167.866	546.860	-0.061	0.145
-166.852	54.308	0.101	-0.097
-165.837	-49.490	-0.406	-0.192
-164.823	-87.549	0.088	0.026
-163.808	-81.463	-0.278	0.091
-162.793	-200.000	0.008	-0.301
-161.779	-50.453	0.063	0.030
-160.764	94.848	-0.128	-0.145
-159.750	30.128	-0.017	0.015
-158.735	-200.000	-0.047	-0.212
-157.720	-151.535	-0.248	-0.018
-156.706	103.956	-0.188	-0.220
-155.691	-117.635	-0.100	-0.018
-154.677	21.404	0.331	0.268
-153.662	50.754	-0.103	0.097
-152.647	346.427	-0.056	-0.109
-151.633	-87.102	-0.057	0.017
-150.618	-200.000	-0.127	0.000
-149.604	800.000	0.052	0.150
-148.589	-200.000	-0.024	-0.331
-147.574	27.459	0.154	0.129
-146.560	197.722	-0.040	-0.060
-145.545	208.866	-0.112	0.174
-144.531	581.244	-0.017	0.041
-143.516	-49.246	-0.135	0.064
-142.502	452.212	-0.094	-0.207
-141.487	-43.561	-0.194	-0.097
-140.472	276.369	-0.196	0.347
-139.458	137.466	0.117	0.152
-138.443	205.384	0.296	-0.457
-137.429	-200.000	0.018	-0.208
-136.414	-72.242	-0.167	-0.061
-135.399	-125.478	-0.174	-0.026
-134.385	138.892	0.148	0.194
-133.370	-21.927	0.173	-0.104
-132.356	-148.437	0.247	0.020
-131.341	29.978	-0.114	0.097
-130.326	-82.089	0.342	0.111
-129.312	-200.000	-0.024	-0.230
-128.297	-200.000	0.044	0.313
-127.283	-90.218	0.178	0.051
-126.268	64.462	0.223	-0.223
-125.253	800.000	0.031	0.117
-124.239	285.864	-0.116	0.208
-123.224	419.756	-0.099	-0.210
-122.210	-163.662	-0.148	0.007
-121.195	1.968	0.223	-0.159
