DTS Sentinel unit serial number:	SN413079Multiplexer serial number:	ORYXHardware model number:	OX4-SRSoftware version number:	ORYX F/W v4.00 Oryx Data Collector v3.7.2.0data status	okinstallation	princeton_trtdifferential loss correction	single-endedforward channel	channel 3reverse channel	N/Adate	2019/09/11time	18:22:11forward acquisition time	60.00reverse acquisition time	0.00gamma	496.2192k internal	0.2286k external	0.2286temperature offset calibration	0.9997default loss term (dB/km)	0.3790temperature slope calibration	1.0000multiplexer offset coefficient	1.0000multiplexer slope coefficient	1.0000fibre end	0.00T internal ref (°C)	43.95T ext. ref 1 (°C)	1.12T ext. ref 2 (°C)	38.58length (m)	temperature (°C)	Stokes	anti-Stokes-747.200	-2.111	-0.194	-0.140
-746.185	800.000	0.162	0.500
-745.171	126.174	0.270	0.350
-744.156	-51.136	0.353	0.170
-743.142	800.000	0.043	0.168
-742.127	-87.892	0.308	0.095
-741.112	267.351	0.211	-0.379
-740.098	86.795	0.206	0.234
-739.083	-200.000	0.016	0.241
-738.069	800.000	-0.091	-0.273
-737.054	-200.000	0.013	-0.095
-736.039	550.988	0.079	0.195
-735.025	209.479	-0.057	-0.092
-734.010	98.676	-0.276	-0.326
-732.996	-65.198	0.078	-0.032
-731.981	-136.832	0.265	-0.031
-730.966	125.099	0.150	-0.194
-729.952	23.080	-0.184	-0.155
-728.937	374.347	-0.020	-0.042
-727.923	-132.534	0.063	-0.008
-726.908	-22.276	-0.382	-0.238
-725.894	-148.091	-0.332	0.028
-724.879	167.338	-0.251	-0.366
-723.864	-3.439	-0.088	-0.063
-722.850	-39.045	0.061	0.033
-721.835	-99.756	-0.260	-0.067
-720.821	-129.094	-0.384	0.055
-719.806	195.001	0.262	-0.408
-718.791	118.343	-0.155	-0.196
-717.777	-200.000	-0.035	-0.331
-716.762	-85.305	0.202	-0.064
-715.748	-64.417	0.054	-0.023
-714.733	800.000	0.050	-0.185
-713.718	95.514	0.303	-0.355
-712.704	-126.395	-0.179	-0.027
-711.689	-200.000	-0.031	-0.342
-710.675	756.964	-0.122	-0.338
-709.660	-200.000	-0.011	0.175
-708.645	-178.324	-0.209	-0.005
-707.631	-78.573	-0.212	-0.074
-706.616	57.511	-0.027	0.027
-705.602	-131.375	-0.254	-0.034
-704.587	-143.094	0.125	0.012
-703.572	303.797	0.039	-0.074
-702.558	398.113	0.033	-0.071
-701.543	-91.191	0.341	0.100
-700.529	-147.147	-0.174	-0.015
-699.514	0.312	-0.240	0.175
-698.499	58.643	0.173	-0.174
-697.485	-200.000	0.088	-0.443
-696.470	800.000	-0.011	-0.036
-695.456	276.572	0.050	0.092
-694.441	-58.618	0.108	-0.048
-693.426	-66.801	-0.142	0.057
-692.412	337.277	-0.179	0.355
-691.397	-107.430	-0.350	0.079
-690.383	281.002	0.133	0.245
-689.368	-200.000	-0.009	0.082
-688.354	297.993	0.148	-0.279
-687.339	-200.000	0.006	0.064
-686.324	313.604	-0.021	0.041
-685.310	-24.965	-0.123	-0.075
-684.295	-200.000	-0.033	-0.241
-683.281	14.009	0.270	-0.215
-682.266	800.000	-0.065	-0.227
-681.251	-200.000	-0.000	0.063
-680.237	-75.997	0.103	-0.037
-679.222	-149.007	-0.367	-0.030
-678.208	-16.393	0.050	-0.032
-677.193	-110.896	-0.103	0.022
-676.178	53.905	0.142	0.139
-675.164	-118.424	-0.196	-0.036
-674.149	800.000	-0.057	0.171
-673.135	-16.212	-0.395	-0.257
-672.120	-21.424	0.091	0.057
-671.105	111.967	-0.200	-0.247
-670.091	474.471	0.043	0.099
-669.076	25.404	-0.165	-0.140
-668.062	-7.097	-0.119	0.083
-667.047	-3.176	-0.181	0.129
-666.032	64.518	0.158	0.163
-665.018	-44.608	-0.218	-0.111
-664.003	-51.495	0.132	0.063
-662.989	20.943	-0.137	-0.113
-661.974	-112.709	-0.242	-0.049
-660.959	366.714	-0.057	0.117
-659.945	612.885	0.041	0.106
-658.930	88.933	-0.138	-0.157
-657.916	-10.135	-0.251	0.170
-656.901	-87.869	-0.172	0.053
-655.886	-101.064	-0.263	-0.066
-654.872	-200.000	0.028	-0.206
-653.857	-200.000	-0.035	-0.183
-652.843	190.881	0.246	-0.379
-651.828	261.176	-0.071	0.125
-650.814	-43.701	-0.193	-0.099
-649.799	-62.101	-0.177	0.075
-648.784	-134.811	-0.157	-0.019
-647.770	-176.622	-0.248	-0.007
-646.755	-97.572	0.124	-0.033
-645.741	-200.000	-0.055	-0.276
-644.726	-110.395	0.237	0.050
-643.711	32.080	0.098	-0.086
-642.697	27.089	-0.211	0.181
-641.682	9.089	0.118	0.091
-640.668	800.000	-0.061	-0.235
-639.653	-200.000	0.015	0.076
-638.638	6.837	-0.021	0.016
-637.624	522.608	0.102	0.245
-636.609	77.577	-0.175	0.191
-635.595	-200.000	-0.038	-0.282
-634.580	-51.046	0.229	-0.110
-633.565	-116.269	-0.208	-0.039
-632.551	279.047	-0.049	0.089
-631.536	-200.000	-0.021	-0.105
-630.522	-0.864	-0.220	-0.159
-629.507	800.000	0.086	-0.295
-628.492	-62.246	0.063	0.027
-627.478	-22.182	-0.070	-0.043
-626.463	-200.000	-0.004	0.119
-625.449	392.030	-0.031	0.065
-624.434	-31.164	-0.155	-0.089
-623.419	128.373	-0.080	-0.104
-622.405	-166.777	0.035	-0.001
-621.390	234.611	0.085	-0.142
-620.376	-54.109	-0.017	0.008
-619.361	203.448	-0.164	0.258
-618.346	72.831	0.124	0.132
-617.332	249.099	-0.242	-0.419
-616.317	62.931	0.185	-0.189
-615.303	7.065	-0.152	-0.116
-614.288	-200.000	0.032	0.191
-613.273	102.411	-0.182	-0.217
-612.259	426.509	0.112	-0.247
-611.244	-60.436	0.166	0.072
-610.230	-133.004	-0.313	0.041
-609.215	-93.271	0.496	-0.141
-608.201	46.059	-0.106	-0.100
-607.186	800.000	0.062	-0.212
-606.171	-7.509	0.500	-0.345
-605.157	-172.894	0.361	0.011
-604.142	800.000	0.042	0.139
-603.128	113.364	0.164	0.203
-602.113	21.581	-0.031	-0.026
-601.098	-135.354	-0.226	-0.028
-600.084	20.773	0.170	0.141
-599.069	124.161	0.048	0.061
-598.055	44.160	-0.105	-0.098
-597.040	436.043	-0.048	0.106
-596.025	800.000	0.070	-0.197
-595.011	508.894	0.156	-0.370
-593.996	284.189	-0.072	0.133
-592.982	-49.133	-0.221	-0.108
-591.967	800.000	-0.049	-0.209
-590.952	96.655	-0.254	-0.297
-589.938	800.000	0.060	0.185
-588.923	-41.491	-0.086	-0.045
-587.909	39.547	-0.335	0.306
-586.894	16.332	-0.156	-0.125
-585.879	100.060	-0.367	-0.434
-584.865	800.000	-0.064	0.195
-583.850	-57.588	0.225	0.101
-582.836	-134.052	-0.221	0.028
-581.821	-85.003	0.320	-0.102
-580.806	-200.000	-0.031	-0.158
-579.792	685.426	0.065	0.174
-578.777	800.000	0.102	-0.296
-577.763	800.000	0.018	-0.064
-576.748	-183.464	-0.276	-0.005
-575.733	716.685	0.090	-0.244
-574.719	350.789	0.120	0.242
-573.704	800.000	0.030	0.109
-572.690	-110.930	0.250	-0.052
-571.675	27.383	-0.271	-0.232
-570.661	-131.767	0.068	0.009
-569.646	-200.000	-0.046	-0.205
-568.631	318.491	0.049	-0.095
-567.617	27.042	0.169	0.145
-566.602	699.388	0.073	-0.196
-565.588	25.659	0.159	-0.135
-564.573	37.948	-0.173	0.157
-563.558	545.071	0.112	0.272
-562.544	-100.344	0.236	-0.060
-561.529	-0.678	0.043	-0.031
-560.515	-129.211	-0.318	0.045
-559.500	88.826	0.183	0.207
-558.485	-30.652	-0.277	0.160
-557.471	-57.146	-0.327	-0.147
-556.456	46.351	-0.394	0.372
-555.442	154.348	0.099	-0.138
-554.427	-84.474	-0.061	-0.020
-553.412	-152.697	0.211	0.015
-552.398	40.614	-0.198	0.182
-551.383	-68.193	0.044	-0.017
-550.369	-14.826	-0.190	-0.124
-549.354	183.373	0.175	0.263
-548.339	196.929	0.102	-0.159
-547.325	-54.164	-0.104	0.048
-546.310	294.434	-0.104	0.194
-545.296	230.145	0.115	-0.191
-544.281	-120.584	0.173	-0.030
-543.266	-118.889	0.099	0.018
-542.252	120.104	-0.090	-0.114
-541.237	422.534	0.040	0.087
-540.223	-37.043	0.207	-0.113
-539.208	-200.000	-0.036	0.275
-538.193	164.638	-0.280	-0.403
-537.179	-147.109	0.344	-0.030
-536.164	800.000	-0.008	0.028
-535.150	-148.387	-0.169	0.014
-534.135	-115.278	0.116	-0.022
-533.121	-40.214	-0.311	-0.165
-532.106	-109.625	-0.175	-0.037
-531.091	203.418	-0.062	0.098
-530.077	33.352	-0.117	-0.103
-529.062	800.000	-0.053	0.227
-528.048	12.994	-0.125	-0.099
-527.033	-51.953	-0.108	-0.051
-526.018	-105.365	-0.042	-0.010
-525.004	-119.121	-0.444	-0.079
-523.989	800.000	0.011	-0.039
-522.975	-105.094	0.185	-0.043
-521.960	294.657	0.150	0.279
-520.945	17.828	0.074	0.060
-519.931	-9.401	0.229	-0.155
-518.916	705.575	-0.066	0.178
-517.902	-200.000	-0.012	0.092
-516.887	312.127	-0.107	0.204
-515.872	12.311	0.398	0.312
-514.858	45.037	-0.221	0.207
-513.843	-200.000	-0.007	0.176
-512.829	-135.100	-0.065	0.008
-511.814	-111.955	-0.211	-0.043
-510.799	74.129	-0.048	-0.051
-509.785	266.840	-0.214	0.379
-508.770	-186.966	-0.380	0.005
-507.756	201.572	-0.051	0.080
-506.741	17.701	0.055	-0.044
-505.726	-187.164	-0.233	-0.003
-504.712	800.000	-0.072	-0.269
-503.697	-47.957	-0.066	-0.032
-502.683	90.488	0.097	0.111
-501.668	-200.000	-0.049	-0.328
-500.653	-70.343	-0.358	-0.138
-499.639	39.049	-0.299	-0.271
-498.624	800.000	0.071	0.251
-497.610	-96.246	-0.135	0.036
-496.595	16.775	-0.091	-0.073
-495.581	-200.000	0.016	-0.093
-494.566	274.315	0.190	-0.342
-493.551	-109.799	0.206	-0.044
-492.537	-103.698	0.248	-0.059
-491.522	-17.548	0.028	-0.018
-490.508	-124.153	-0.105	-0.017
-489.493	800.000	0.049	0.166
-488.478	-200.000	-0.028	0.169
-487.464	-200.000	-0.028	0.192
-486.449	452.899	0.140	-0.314
-485.435	436.103	0.022	-0.048
-484.420	98.624	-0.013	-0.015
-483.405	-48.430	-0.351	0.172
-482.391	-116.093	-0.142	0.027
-481.376	-200.000	-0.028	0.199
-480.362	-8.220	0.100	-0.069
-479.347	-200.000	0.013	0.502
-478.332	-13.547	0.176	0.116
-477.318	19.638	0.156	0.128
-476.303	139.503	-0.083	-0.110
-475.289	-124.796	-0.349	0.055
-474.274	-18.048	0.245	-0.156
-473.259	224.425	0.043	-0.071
-472.245	-5.970	0.194	0.135
-471.230	-92.735	0.056	0.016
-470.216	-200.000	-0.039	-0.208
-469.201	800.000	0.051	0.199
-468.186	-114.287	0.302	-0.059
-467.172	65.255	0.061	-0.063
-466.157	389.863	-0.127	-0.268
-465.143	-95.748	0.237	-0.064
-464.128	293.682	0.149	0.275
-463.113	-200.000	-0.003	0.016
-462.099	-75.091	0.317	0.115
-461.084	-25.658	0.386	0.231
-460.070	-103.675	0.134	-0.032
-459.055	-169.983	-0.159	-0.006
-458.040	386.979	-0.042	0.088
-457.026	-148.994	0.203	-0.017
-456.011	25.464	-0.190	0.160
-454.997	90.528	0.153	-0.173
-453.982	309.443	-0.185	0.350
-452.968	69.319	0.146	0.153
-451.953	-62.947	-0.251	0.105
-450.938	10.486	0.025	-0.019
-449.924	-200.000	-0.007	0.102
-448.909	-13.954	0.273	0.179
-447.895	274.915	-0.175	-0.315
-446.880	83.869	0.039	-0.043
-445.865	-116.223	0.127	-0.024
-444.851	702.713	0.064	-0.171
-443.836	110.495	0.088	-0.107
-442.822	800.000	0.112	-0.338
-441.807	-65.403	0.099	-0.040
-440.792	800.000	0.105	0.337
-439.778	-72.582	0.168	0.063
-438.763	561.859	-0.114	0.279
-437.749	-14.345	-0.111	-0.073
-436.734	-3.985	-0.163	0.114
-435.719	433.574	0.105	0.232
-434.705	-200.000	0.027	0.156
-433.690	58.848	-0.381	0.380
-432.676	-65.312	0.070	0.028
-431.661	78.386	-0.120	0.130
-430.646	800.000	0.066	0.206
-429.632	448.518	0.054	-0.120
-428.617	-200.000	-0.012	-0.389
-427.603	2.678	0.233	0.171
-426.588	-6.199	-0.387	-0.268
-425.573	-18.598	0.242	0.153
-424.559	250.810	-0.105	-0.180
-423.544	-79.781	-0.099	-0.034
-422.530	-110.287	-0.098	-0.021
-421.515	-94.838	0.253	-0.070
-420.500	800.000	0.021	0.067
-419.486	800.000	-0.062	0.242
-418.471	-28.954	0.339	0.197
-417.457	-32.162	-0.095	0.054
-416.442	202.818	0.149	-0.234
-415.428	-93.772	-0.138	-0.039
-414.413	-3.040	-0.173	-0.122
-413.398	340.759	0.129	-0.254
-412.384	149.776	0.073	-0.100
-411.369	-125.442	-0.287	0.044
-410.355	220.902	0.245	-0.398
-409.340	160.433	0.135	0.191
-408.325	101.314	-0.212	-0.251
-407.311	-89.655	-0.245	0.073
-406.296	800.000	0.047	0.149
-405.282	-43.556	-0.146	-0.074
-404.267	-37.111	0.325	0.176
-403.252	-122.883	0.033	0.005
-402.238	7.937	-0.161	0.122
-401.223	-200.000	0.011	0.291
-400.209	-97.494	0.121	0.032
-399.194	800.000	-0.133	0.389
-398.179	19.269	-0.131	-0.106
-397.165	-13.622	0.111	0.073
-396.150	38.416	0.165	0.149
-395.136	-7.193	-0.351	0.241
-394.121	413.599	0.101	-0.216
-393.106	148.270	-0.084	0.115
-392.092	800.000	0.037	0.146
-391.077	143.571	-0.114	0.154
-390.063	245.168	0.174	0.297
-389.048	-165.714	-0.424	0.019
-388.033	-23.255	-0.229	0.139
-387.019	-27.481	-0.214	-0.126
-386.004	-72.335	-0.124	0.046
-384.990	-200.000	0.008	-0.087
-383.975	-200.000	-0.034	0.190
-382.960	800.000	-0.036	0.105
-381.946	-200.000	0.067	-0.369
-380.931	-187.568	-0.176	-0.002
-379.917	271.417	0.291	0.518
-378.902	-200.000	0.034	-0.234
-377.888	545.529	-0.026	-0.063
-376.873	258.517	0.198	-0.345
-375.858	-26.079	0.412	0.245
-374.844	-150.068	-0.062	-0.005
-373.829	800.000	-0.083	-0.315
-372.815	121.824	0.128	0.162
-371.800	-200.000	-0.000	0.125
-370.785	351.630	0.171	0.342
-369.771	-200.000	0.020	0.138
-368.756	-128.827	-0.045	0.006
-367.742	-200.000	-0.021	0.176
-366.727	-127.537	-0.234	-0.034
-365.712	-166.962	0.273	0.011
-364.698	387.235	-0.103	-0.216
-363.683	-137.576	-0.286	-0.033
-362.669	-137.616	-0.353	-0.040
-361.654	-200.000	0.003	0.178
-360.639	82.887	0.030	0.034
-359.625	-48.623	0.207	0.101
-358.610	-125.392	0.396	-0.061
-357.596	260.410	-0.206	-0.360
-356.581	-70.286	0.151	0.058
-355.566	-200.000	-0.005	-0.161
-354.552	31.930	-0.126	0.110
-353.537	-200.000	0.000	-0.120
-352.523	-57.139	0.250	0.111
-351.508	559.238	0.181	-0.441
-350.493	588.078	0.103	-0.257
-349.479	78.520	0.127	0.137
-348.464	-63.999	0.138	-0.057
-347.450	16.380	-0.193	0.154
-346.435	-130.115	0.239	0.033
-345.420	23.149	-0.220	0.183
-344.406	84.800	-0.082	-0.090
-343.391	332.183	0.062	0.120
-342.377	-29.759	-0.204	0.118
-341.362	435.856	0.144	-0.317
-340.348	80.390	-0.088	0.095
-339.333	-173.418	0.295	-0.009
-338.318	-200.000	0.042	-0.309
-337.304	22.763	-0.178	-0.147
-336.289	58.438	0.170	0.169
-335.275	-7.186	-0.317	0.217
-334.260	-175.238	0.069	0.002
-333.245	-200.000	-0.034	0.287
-332.231	396.323	0.032	-0.068
-331.216	-112.266	-0.399	0.081
-330.202	5.539	-0.177	-0.132
-329.187	194.829	-0.038	0.058
-328.172	-124.514	0.331	0.052
-327.158	-132.834	-0.136	-0.017
-326.143	-60.633	0.162	0.069
-325.129	-43.373	0.366	-0.187
-324.114	-182.020	-0.249	0.005
-323.099	-17.152	-0.066	0.042
-322.085	-20.950	-0.169	-0.105
-321.070	139.696	0.179	0.238
-320.056	800.000	-0.109	0.309
-319.041	592.069	-0.005	0.013
-318.026	211.128	0.009	0.015
-317.012	-155.222	0.287	0.019
-315.997	84.511	-0.175	-0.193
-314.983	27.085	0.303	-0.256
-313.968	-47.284	0.151	-0.074
-312.953	-130.881	-0.197	-0.027
-311.939	-150.445	-0.212	-0.016
-310.924	57.326	-0.174	0.171
-309.910	-90.084	-0.140	-0.041
-308.895	-132.287	-0.126	0.016
-307.880	176.782	-0.126	-0.185
-306.866	340.887	-0.087	0.172
-305.851	-62.217	0.122	0.051
-304.837	-99.831	0.266	0.067
-303.822	-200.000	-0.014	0.183
-302.807	95.541	0.008	-0.009
-301.793	42.883	0.330	-0.303
-300.778	-154.457	0.566	-0.038
-299.764	-39.229	-0.049	0.026
-298.749	-53.905	0.118	0.054
-297.735	-118.086	-0.088	0.016
-296.720	-150.441	-0.086	-0.007
-295.705	800.000	0.099	-0.359
-294.691	339.588	0.055	0.109
-293.676	-140.583	-0.132	0.014
-292.662	256.685	0.284	0.492
-291.647	252.068	0.320	0.549
-290.632	80.578	-0.162	0.176
-289.618	800.000	0.081	-0.296
-288.603	205.780	0.090	-0.141
-287.589	-14.467	0.110	-0.072
-286.574	-79.322	-0.163	0.056
-285.559	-102.536	-0.186	-0.045
-284.545	-200.000	0.003	0.129
-283.530	-51.627	-0.219	0.103
-282.516	237.520	-0.157	0.262
-281.501	106.208	0.074	0.088
-280.486	-105.938	0.234	-0.053
-279.472	12.414	0.104	-0.081
-278.457	-200.000	0.001	-0.299
-277.443	-141.874	0.130	0.013
-276.428	495.211	-0.096	-0.223
-275.413	-200.000	0.010	0.097
-274.399	42.634	0.091	0.083
-273.384	688.302	0.101	-0.267
-272.370	78.258	-0.112	-0.120
-271.355	-20.895	-0.122	-0.075
-270.340	-200.000	0.008	0.345
-269.326	3.027	-0.231	0.169
-268.311	-200.000	-0.006	0.134
-267.297	110.650	-0.069	-0.083
-266.282	67.649	-0.160	0.165
-265.267	-129.040	0.262	-0.037
-264.253	136.113	-0.055	-0.073
-263.238	-200.000	0.010	-0.044
-262.224	-148.006	-0.113	-0.009
-261.209	400.258	0.058	-0.123
-260.195	-165.900	-0.238	0.010
-259.180	31.633	-0.067	-0.058
-258.165	-115.622	0.245	-0.046
-257.151	457.653	0.111	-0.247
-256.136	-19.550	0.366	-0.228
-255.122	182.144	-0.277	-0.410
-254.107	223.823	-0.060	-0.097
-253.092	800.000	-0.045	0.173
-252.078	-170.992	-0.306	-0.011
-251.063	-108.835	0.038	0.008
-250.049	106.545	0.129	-0.153
-249.034	575.497	0.063	-0.155
-248.019	-111.804	-0.040	0.008
-247.005	-200.000	0.012	0.111
-245.990	-200.000	-0.002	-0.042
-244.976	-200.000	-0.002	0.314
-243.961	-80.036	-0.169	-0.057
-242.946	-200.000	0.022	0.151
-241.932	-43.797	0.273	0.139
-240.917	31.907	-0.123	-0.106
-239.903	-159.147	-0.277	0.016
-238.888	-23.847	0.067	0.040
-237.873	329.631	-0.052	0.101
-236.859	-75.944	-0.233	-0.083
-235.844	-200.000	-0.018	-0.443
-234.830	46.973	-0.127	0.119
-233.815	-153.477	-0.212	-0.015
-232.800	336.477	0.098	0.191
-231.786	800.000	0.067	0.216
-230.771	-26.629	0.310	-0.183
-229.757	119.285	0.076	-0.095
-228.742	-176.563	0.252	-0.007
-227.727	335.435	0.055	0.108
-226.713	-110.650	0.302	0.063
-225.698	-2.103	-0.258	0.182
-224.684	-17.919	-0.274	-0.173
-223.669	-81.166	0.114	0.038
-222.655	290.229	-0.048	-0.088
-221.640	144.575	-0.190	-0.255
-220.625	545.929	0.038	0.091
-219.611	-129.429	0.088	-0.012
-218.596	-190.582	-0.220	0.002
-217.582	-66.062	-0.089	-0.036
-216.567	800.000	-0.100	0.279
-215.552	-171.443	0.275	0.009
-214.538	-93.463	0.235	-0.065
-213.523	-103.053	0.208	-0.050
-212.509	-101.790	0.370	-0.090
-211.494	-53.339	-0.125	-0.058
-210.479	32.778	0.075	-0.065
-209.465	800.000	-0.078	0.341
-208.450	171.192	0.107	0.154
-207.436	-120.232	0.187	0.032
-206.421	213.197	0.153	0.242
-205.406	-149.146	-0.313	0.025
-204.392	24.780	0.110	-0.092
-203.377	36.719	-0.142	-0.126
-202.363	-5.680	-0.205	0.141
-201.348	-200.000	0.011	0.325
-200.333	107.490	-0.159	-0.189
-199.319	-61.386	-0.254	-0.107
-198.304	644.850	0.071	0.183
-197.290	102.561	0.267	-0.314
-196.275	16.231	0.067	-0.053
-195.260	-68.616	-0.090	-0.035
-194.246	-6.514	0.237	-0.163
-193.231	-200.000	-0.019	0.161
-192.217	-143.553	-0.237	0.023
-191.202	61.417	0.197	-0.197
-190.187	-200.000	0.034	-0.238
-189.173	-200.000	-0.025	0.334
-188.158	48.967	-0.091	-0.086
-187.144	800.000	0.052	0.215
-186.129	653.107	0.051	-0.130
-185.114	119.099	0.122	0.152
-184.100	-200.000	0.015	0.126
-183.085	381.639	-0.181	-0.373
-182.071	-95.104	-0.262	0.071
-181.056	9.045	-0.362	-0.274
-180.042	168.913	0.189	-0.270
-179.027	-34.139	0.137	0.076
-178.012	-9.234	-0.156	-0.105
-176.998	68.603	0.162	0.167
-175.983	94.649	0.152	-0.173
-174.969	800.000	-0.027	-0.101
-173.954	-183.616	0.172	-0.003
-172.939	46.732	0.093	0.087
-171.925	800.000	0.076	0.227
-170.910	-122.158	0.043	0.007
-169.896	8.679	0.026	0.020
-168.881	-11.280	-0.105	-0.070
-167.866	-24.200	0.057	-0.034
-166.852	431.093	-0.092	-0.199
-165.837	800.000	-0.032	-0.136
-164.823	14.940	0.298	-0.234
-163.808	-138.900	-0.082	0.009
-162.793	297.891	-0.117	-0.216
-161.779	800.000	0.043	0.146
-160.764	-31.881	0.156	0.088
-159.750	-200.000	-0.024	-0.119
-158.735	-19.125	0.326	0.203
-157.720	-65.268	-0.229	0.093
-156.706	25.871	0.147	-0.122
-155.691	-200.000	-0.007	0.045
-154.677	267.994	-0.094	-0.165
-153.662	151.721	0.140	-0.191
-152.647	-115.005	0.101	0.019
-151.633	-8.536	-0.155	0.104
-150.618	-110.510	-0.204	0.042
-149.604	604.111	0.179	-0.448
-148.589	-12.770	0.105	0.068
-147.574	-109.892	0.394	0.083
-146.560	-108.407	0.026	0.006
-145.545	207.163	0.088	0.138
-144.531	62.348	0.188	-0.188
-143.516	168.456	0.138	0.197
-142.502	-157.369	-0.248	0.015
-141.487	800.000	0.036	-0.127
-140.472	-200.000	-0.048	-0.223
-139.458	-95.059	0.327	0.089
-138.443	-36.485	-0.264	0.142
-137.429	23.902	0.066	-0.055
-136.414	-3.168	-0.135	0.094
-135.399	99.909	0.093	-0.108
-134.385	-99.854	0.159	-0.040
-133.370	-29.484	-0.162	-0.093
-132.356	-200.000	-0.011	0.232
-131.341	-72.316	0.314	-0.117
-130.326	-139.011	0.082	-0.009
-129.312	-46.645	0.175	0.086
-128.297	-147.472	-0.387	-0.033
-127.283	-150.300	-0.353	-0.027
-126.268	128.375	-0.155	0.198
-125.253	-42.127	-0.192	-0.098
-124.239	-128.771	-0.478	0.067
-123.224	-136.113	0.135	0.016
-122.210	50.716	-0.225	0.213
-121.195	15.518	0.087	0.068
