DTS Sentinel unit serial number:	SN413079Multiplexer serial number:	ORYXHardware model number:	OX4-SRSoftware version number:	ORYX F/W v4.00 Oryx Data Collector v3.7.2.0data status	okinstallation	princeton_trtdifferential loss correction	single-endedforward channel	channel 3reverse channel	N/Adate	2019/09/10time	17:58:11forward acquisition time	60.00reverse acquisition time	0.00gamma	496.2192k internal	0.2301k external	0.2301temperature offset calibration	0.9910default loss term (dB/km)	0.3790temperature slope calibration	1.0000multiplexer offset coefficient	1.0000multiplexer slope coefficient	1.0000fibre end	0.00T internal ref (°C)	37.20T ext. ref 1 (°C)	-0.37T ext. ref 2 (°C)	29.70length (m)	temperature (°C)	Stokes	anti-Stokes-747.200	-200.000	0.018	0.195
-746.185	73.340	-0.070	0.074
-745.171	27.844	-0.204	-0.175
-744.156	-200.000	0.007	0.072
-743.142	-200.000	-0.068	0.316
-742.127	-167.780	-0.057	-0.002
-741.112	800.000	-0.081	-0.285
-740.098	-48.796	-0.110	0.054
-739.083	800.000	-0.035	-0.110
-738.069	98.372	-0.102	-0.120
-737.054	-119.361	-0.172	0.031
-736.039	-200.000	-0.016	-0.134
-735.025	-200.000	0.015	0.259
-734.010	42.302	-0.224	-0.208
-732.996	-200.000	-0.049	-0.224
-731.981	106.982	-0.124	-0.150
-730.966	-200.000	-0.029	-0.251
-729.952	-44.806	-0.143	-0.073
-728.937	-145.111	-0.281	-0.026
-727.923	17.257	0.099	0.080
-726.908	590.624	0.093	-0.233
-725.894	11.780	-0.550	-0.430
-724.879	800.000	0.093	-0.397
-723.864	-5.158	0.209	-0.146
-722.850	-69.099	-0.118	-0.046
-721.835	12.050	-0.378	0.297
-720.821	422.086	0.038	-0.083
-719.806	-200.000	0.047	-0.233
-718.791	800.000	0.035	0.119
-717.777	-200.000	0.001	-0.196
-716.762	-200.000	0.042	0.207
-715.748	-78.944	-0.147	0.051
-714.733	-49.823	0.031	-0.015
-713.718	-97.351	0.238	-0.063
-712.704	-200.000	0.024	0.138
-711.689	800.000	0.058	-0.197
-710.675	-80.000	-0.553	-0.189
-709.660	71.399	0.195	0.206
-708.645	-136.129	0.320	0.038
-707.631	-56.880	0.212	-0.095
-706.616	-162.172	0.478	-0.024
-705.602	-200.000	0.029	-0.158
-704.587	-140.463	-0.183	0.019
-703.572	440.578	-0.059	0.132
-702.558	-58.212	-0.114	-0.050
-701.543	182.122	-0.092	-0.139
-700.529	-200.000	-0.040	-0.191
-699.514	84.657	0.111	-0.124
-698.499	-118.801	0.092	-0.017
-697.485	-61.054	-0.051	-0.022
-696.470	125.255	0.157	-0.201
-695.456	72.472	-0.188	-0.200
-694.441	-98.249	-0.179	0.047
-693.426	-129.765	-0.294	0.041
-692.412	548.225	0.054	-0.132
-691.397	-85.204	0.149	0.048
-690.383	-49.630	-0.183	-0.088
-689.368	49.421	-0.342	-0.328
-688.354	131.164	-0.078	0.101
-687.339	-200.000	-0.005	0.078
-686.324	800.000	0.091	0.291
-685.310	-14.161	-0.352	0.231
-684.295	-106.668	-0.355	-0.080
-683.281	-127.949	-0.345	0.050
-682.266	-68.719	-0.262	0.103
-681.251	-75.151	-0.333	-0.121
-680.237	50.541	0.098	-0.094
-679.222	-104.063	0.211	-0.050
-678.208	156.277	-0.141	0.198
-677.193	-89.691	-0.184	-0.055
-676.178	-149.063	-0.400	-0.033
-675.164	-151.780	0.259	-0.019
-674.149	413.278	-0.079	-0.170
-673.135	496.325	-0.218	0.509
-672.120	50.414	-0.081	-0.078
-671.105	-148.532	-0.029	-0.002
-670.091	64.777	0.189	-0.194
-669.076	-9.644	0.082	0.056
-668.062	529.424	0.073	0.175
-667.047	-111.967	-0.134	0.028
-666.032	89.139	0.231	0.261
-665.018	125.729	0.122	0.156
-664.003	229.662	0.037	-0.061
-662.989	-3.649	0.242	-0.171
-661.974	-200.000	-0.002	-0.308
-660.959	-7.557	0.128	-0.088
-659.945	-200.000	0.009	-0.235
-658.930	116.300	-0.296	0.369
-657.916	109.182	-0.246	0.299
-656.901	-200.000	0.015	-0.108
-655.886	-84.024	0.182	-0.059
-654.872	-109.354	0.201	0.043
-653.857	-37.778	0.020	-0.011
-652.843	-200.000	0.024	0.138
-651.828	-147.043	0.064	-0.006
-650.814	-66.286	0.265	0.107
-649.799	266.474	0.127	-0.225
-648.784	52.061	0.245	0.237
-647.770	-200.000	0.016	-0.272
-646.755	-34.814	0.279	0.155
-645.741	100.942	0.126	0.149
-644.726	53.912	-0.171	-0.167
-643.711	-130.990	-0.166	-0.023
-642.697	-200.000	-0.021	-0.342
-641.682	598.057	-0.041	-0.103
-640.668	718.372	-0.168	-0.453
-639.653	-84.944	0.128	0.041
-638.638	548.798	0.065	0.158
-637.624	-65.208	0.174	-0.071
-636.609	648.882	-0.060	-0.155
-635.595	800.000	-0.073	-0.216
-634.580	668.155	-0.130	-0.341
-633.565	-200.000	-0.028	-0.267
-632.551	13.146	-0.157	-0.123
-631.536	139.627	0.069	0.092
-630.522	-200.000	0.010	-0.151
-629.507	-121.793	-0.160	-0.027
-628.492	-140.361	0.141	0.015
-627.478	-63.067	0.277	0.116
-626.463	670.254	0.076	-0.201
-625.449	88.430	0.155	0.175
-624.434	7.347	0.109	0.083
-623.419	-5.326	0.187	-0.130
-622.405	-135.994	-0.254	0.030
-621.390	-200.000	0.021	0.134
-620.376	-13.139	-0.154	-0.102
-619.361	133.252	0.030	-0.040
-618.346	101.440	-0.132	-0.156
-617.332	-200.000	-0.012	0.249
-616.317	433.363	-0.068	0.149
-615.303	-13.980	0.362	0.237
-614.288	-167.828	0.395	0.016
-613.273	-40.912	-0.108	0.057
-612.259	235.204	-0.144	-0.241
-611.244	-200.000	-0.012	-0.122
-610.230	-56.831	0.169	-0.076
-609.215	-64.126	-0.212	0.088
-608.201	12.279	-0.198	0.154
-607.186	800.000	-0.034	-0.133
-606.171	762.629	0.079	-0.217
-605.157	-13.432	0.291	-0.191
-604.142	561.167	-0.186	-0.456
-603.128	281.239	-0.081	0.146
-602.113	429.994	0.048	-0.106
-601.098	-182.980	0.076	-0.001
-600.084	-17.504	-0.151	0.096
-599.069	-104.978	-0.253	0.059
-598.055	800.000	0.112	-0.318
-597.040	129.764	0.202	-0.261
-596.025	-4.873	-0.277	-0.194
-595.011	-0.686	0.039	0.028
-593.996	112.248	0.142	0.174
-592.982	-200.000	-0.062	0.282
-591.967	-30.089	-0.373	-0.215
-590.952	-200.000	-0.002	-0.022
-589.938	800.000	-0.068	-0.197
-588.923	-138.163	0.449	-0.050
-587.909	-41.469	0.308	-0.161
-586.894	48.717	0.423	-0.402
-585.879	124.637	-0.101	-0.129
-584.865	-165.688	-0.170	-0.007
-583.850	-1.447	0.081	0.058
-582.836	434.038	0.113	0.249
-581.821	-200.000	0.005	-0.266
-580.806	-200.000	-0.025	0.228
-579.792	800.000	-0.059	0.215
-578.777	101.912	0.127	-0.150
-577.763	-125.027	-0.065	0.010
-576.748	-200.000	0.014	-0.146
-575.733	-200.000	0.001	0.037
-574.719	-120.618	0.165	-0.028
-573.704	660.458	-0.117	0.305
-572.690	235.491	0.043	0.072
-571.675	-200.000	-0.022	-0.117
-570.661	16.715	0.220	0.176
-569.646	-200.000	-0.041	0.228
-568.631	800.000	0.045	0.140
-567.617	800.000	0.071	0.284
-566.602	65.303	0.142	-0.145
-565.588	-200.000	-0.062	0.302
-564.573	37.627	0.300	-0.269
-563.558	-109.927	-0.154	-0.033
-562.544	-112.655	-0.102	0.021
-561.529	76.955	0.174	0.187
-560.515	189.205	-0.180	0.272
-559.500	-160.689	-0.208	-0.011
-558.485	131.179	0.051	0.066
-557.471	-93.505	-0.361	0.101
-556.456	-64.987	0.069	-0.028
-555.442	-84.587	-0.072	-0.023
-554.427	-128.879	-0.060	-0.008
-553.412	-2.563	0.104	0.074
-552.398	42.424	-0.212	0.195
-551.383	-163.471	0.446	0.021
-550.369	30.816	0.254	0.220
-549.354	737.175	-0.059	-0.160
-548.339	-200.000	0.030	-0.418
-547.325	176.101	-0.175	-0.258
-546.310	-31.815	-0.254	0.144
-545.296	-103.989	0.144	-0.034
-544.281	43.764	0.198	0.183
-543.266	644.446	-0.098	0.254
-542.252	-77.065	-0.006	-0.002
-541.237	-200.000	-0.013	-0.143
-540.223	276.741	0.175	-0.314
-539.208	-57.447	-0.219	0.097
-538.193	84.902	-0.097	-0.107
-537.179	800.000	0.040	-0.158
-536.164	413.285	0.072	-0.156
-535.150	19.478	0.265	-0.215
-534.135	-152.519	-0.201	-0.015
-533.121	463.654	0.027	0.062
-532.106	-200.000	-0.188	0.001
-531.091	500.907	-0.058	-0.135
-530.077	-200.000	-0.055	-0.248
-529.062	-200.000	0.059	-0.375
-528.048	-200.000	-0.139	0.627
-527.033	-128.515	0.534	0.077
-526.018	275.572	0.178	-0.319
-525.004	800.000	0.034	-0.099
-523.989	-200.000	-0.057	-0.254
-522.975	126.838	-0.093	-0.119
-521.960	800.000	-0.138	-0.493
-520.945	730.365	0.087	0.235
-519.931	-170.458	0.163	0.006
-518.916	-79.418	-0.292	-0.100
-517.902	16.091	0.270	-0.215
-516.887	-176.973	0.184	0.005
-515.872	104.464	-0.183	-0.217
-514.858	-200.000	0.018	0.092
-513.843	74.580	0.097	-0.103
-512.829	38.980	0.106	0.096
-511.814	-110.677	-0.290	-0.061
-510.799	-200.000	-0.035	0.187
-509.785	182.517	-0.175	-0.261
-508.770	-30.828	-0.208	-0.119
-507.756	-200.000	0.040	-0.250
-506.741	86.223	-0.126	0.140
-505.726	-34.783	-0.253	-0.139
-504.712	-200.000	-0.007	0.055
-503.697	21.142	-0.164	-0.134
-502.683	-121.162	-0.291	0.049
-501.668	800.000	-0.072	0.279
-500.653	-43.289	0.124	0.063
-499.639	-70.520	0.486	0.186
-498.624	37.453	-0.158	-0.142
-497.610	-16.950	-0.063	0.040
-496.595	-200.000	0.018	0.349
-495.581	-99.878	-0.238	0.060
-494.566	271.164	-0.027	0.047
-493.551	61.610	-0.132	0.132
-492.537	800.000	-0.119	0.382
-491.522	-129.774	-0.238	-0.033
-490.508	104.374	-0.097	-0.115
-489.493	212.035	-0.148	-0.236
-488.478	-200.000	-0.047	-0.270
-487.464	-189.600	0.175	0.002
-486.449	229.561	0.113	0.185
-485.435	78.590	0.170	0.183
-484.420	72.040	-0.160	0.168
-483.405	-99.150	0.304	0.078
-482.391	-200.000	0.014	-0.063
-481.376	452.542	0.103	-0.229
-480.362	-163.575	-0.194	0.009
-479.347	800.000	-0.063	-0.238
-478.332	-13.282	-0.203	-0.133
-477.318	-81.735	-0.228	0.075
-476.303	-200.000	0.001	-0.211
-475.289	231.111	-0.042	-0.070
-474.274	110.130	-0.240	0.290
-473.259	-106.771	0.065	0.014
-472.245	64.298	-0.268	0.272
-471.230	26.976	0.035	-0.029
-470.216	-27.827	0.302	-0.177
-469.201	-10.275	0.079	-0.053
-468.186	-200.000	-0.015	-0.215
-467.172	90.785	0.129	0.146
-466.157	-97.638	-0.186	-0.049
-465.143	-46.647	-0.051	-0.025
-464.128	-99.692	0.213	0.054
-463.113	106.822	-0.246	0.295
-462.099	228.922	-0.121	-0.199
-461.084	79.744	0.059	-0.064
-460.070	-87.037	-0.205	0.063
-459.055	800.000	0.111	0.312
-458.040	-128.008	0.192	-0.028
-457.026	-75.887	-0.291	0.104
-456.011	-200.000	-0.019	0.190
-454.997	800.000	0.053	-0.150
-453.982	55.010	0.305	-0.297
-452.968	-44.964	0.079	0.040
-451.953	254.452	-0.015	-0.026
-450.938	-200.000	0.010	-0.206
-449.924	-111.086	-0.103	-0.021
-448.909	-47.274	0.193	-0.095
-447.895	800.000	-0.023	0.080
-446.880	173.476	-0.234	0.340
-445.865	-28.465	0.200	-0.116
-444.851	31.443	-0.091	-0.079
-443.836	-57.793	-0.130	0.057
-442.822	-35.807	-0.161	0.088
-441.807	-120.196	0.234	-0.040
-440.792	-123.270	0.203	0.033
-439.778	51.436	0.167	0.159
-438.763	-148.384	-0.165	-0.014
-437.749	214.888	0.094	-0.150
-436.734	47.873	-0.215	0.202
-435.719	-200.000	0.034	0.435
-434.705	-93.800	-0.198	0.055
-433.690	161.380	0.199	0.281
-432.676	97.603	-0.098	0.114
-431.661	-17.573	-0.277	-0.176
-430.646	-200.000	-0.008	-0.297
-429.632	-200.000	-0.120	-0.000
-428.617	800.000	0.045	0.127
-427.603	279.413	-0.127	-0.229
-426.588	405.022	0.168	-0.356
-425.573	-132.310	-0.424	0.055
-424.559	160.044	0.072	-0.101
-423.544	-10.518	-0.073	0.049
-422.530	800.000	0.046	-0.173
-421.515	-31.430	-0.149	-0.084
-420.500	2.171	-0.102	0.074
-419.486	-109.765	0.055	-0.012
-418.471	-9.354	0.097	-0.065
-417.457	-115.521	0.433	0.082
-416.442	431.384	0.143	-0.313
-415.428	-200.000	0.040	0.185
-414.413	13.321	0.369	0.288
-413.398	-20.654	-0.194	0.120
-412.384	92.180	0.183	-0.207
-411.369	546.883	0.180	-0.433
-410.355	-200.000	0.004	-0.435
-409.340	-2.191	0.146	-0.103
-408.325	-200.000	-0.044	0.220
-407.311	-200.000	-0.041	0.230
-406.296	-54.225	-0.143	-0.065
-405.282	10.495	0.323	-0.247
-404.267	-23.669	0.108	0.065
-403.252	800.000	-0.085	0.280
-402.238	637.671	-0.119	-0.305
-401.223	-101.552	-0.449	-0.110
-400.209	-53.932	-0.116	0.053
-399.194	-92.157	0.091	0.026
-398.179	-200.000	-0.020	0.267
-397.165	-200.000	0.028	0.194
-396.150	775.981	-0.091	0.250
-395.136	-95.239	0.428	0.116
-394.121	800.000	-0.075	0.272
-393.106	800.000	-0.045	0.182
-392.092	-38.953	0.139	-0.073
-391.077	-157.951	0.104	-0.006
-390.063	232.324	-0.066	-0.109
-389.048	-152.075	0.261	-0.019
-388.033	-11.555	0.212	0.140
-387.019	144.225	0.258	-0.346
-386.004	104.202	-0.137	-0.162
-384.990	19.928	0.257	0.208
-383.975	-57.776	-0.172	0.075
-382.960	-164.215	0.258	-0.012
-381.946	65.340	0.198	0.201
-380.931	-200.000	-0.036	0.245
-379.917	-134.079	0.327	0.041
-378.902	-114.423	-0.184	-0.036
-377.888	-16.747	-0.262	-0.166
-376.873	-73.188	0.269	0.099
-375.858	13.676	0.145	-0.113
-374.844	-178.176	-0.053	-0.001
-373.829	27.881	-0.101	-0.086
-372.815	9.846	-0.105	-0.080
-371.800	286.667	-0.052	0.094
-370.785	-200.000	0.059	0.281
-369.771	384.685	0.186	-0.386
-368.756	-200.000	0.024	0.182
-367.742	-200.000	-0.012	0.141
-366.727	-200.000	-0.017	-0.161
-365.712	-200.000	0.017	-0.090
-364.698	-200.000	-0.031	0.209
-363.683	-200.000	-0.009	-0.111
-362.669	81.294	-0.213	0.231
-361.654	-112.163	-0.163	-0.033
-360.639	-42.976	-0.075	-0.038
-359.625	-200.000	-0.034	0.196
-358.610	800.000	0.133	0.515
-357.596	504.494	0.048	0.110
-356.581	-3.587	0.083	-0.058
-355.566	39.819	-0.278	-0.251
-354.552	-200.000	0.001	0.016
-353.537	13.130	0.083	-0.064
-352.523	800.000	-0.080	0.273
-351.508	214.217	0.125	-0.199
-350.493	459.057	0.089	0.198
-349.479	271.642	0.158	0.280
-348.464	71.637	0.144	-0.150
-347.450	87.740	0.148	-0.165
-346.435	-119.217	0.224	0.039
-345.420	58.830	0.172	0.170
-344.406	-58.967	0.116	0.050
-343.391	-92.503	0.203	0.057
-342.377	-2.750	-0.135	-0.095
-341.362	800.000	-0.017	0.052
-340.348	101.063	0.297	0.347
-339.333	-9.999	0.155	0.104
-338.318	800.000	0.049	-0.160
-337.304	246.435	0.063	-0.106
-336.289	-106.284	0.196	-0.044
-335.275	-95.964	0.183	-0.049
-334.260	-86.513	-0.434	0.134
-333.245	-200.000	-0.048	0.307
-332.231	194.016	0.199	-0.302
-331.216	18.018	0.064	0.051
-330.202	800.000	0.075	0.299
-329.187	-68.729	-0.122	0.047
-328.172	276.170	0.106	-0.188
-327.158	245.658	-0.098	-0.166
-326.143	-200.000	0.000	0.121
-325.129	-8.190	-0.243	0.164
-324.114	-200.000	0.132	0.000
-323.099	29.237	-0.089	0.076
-322.085	-70.293	-0.289	0.110
-321.070	-130.346	-0.108	-0.015
-320.056	-154.085	0.152	0.010
-319.041	-162.871	-0.253	-0.012
-318.026	-16.035	-0.128	0.081
-317.012	800.000	0.046	0.145
-315.997	353.444	-0.115	-0.229
-314.983	61.869	-0.163	-0.163
-313.968	-75.726	0.306	-0.109
-312.953	800.000	-0.012	-0.041
-311.939	-11.721	0.082	0.054
-310.924	800.000	0.090	0.329
-309.910	547.373	0.130	0.313
-308.895	186.502	0.108	-0.161
-307.880	-200.000	0.014	-0.125
-306.866	-63.321	-0.447	-0.185
-305.851	-95.751	0.202	-0.054
-304.837	45.813	0.128	-0.118
-303.822	133.557	-0.169	-0.220
-302.807	-83.514	0.065	-0.021
-301.793	65.886	-0.236	0.240
-300.778	-200.000	-0.008	-0.312
-299.764	15.141	-0.083	-0.065
-298.749	-58.507	-0.293	0.127
-297.735	-200.000	-0.031	-0.427
-296.720	800.000	-0.044	0.151
-295.705	-117.793	-0.431	0.077
-294.691	91.208	-0.237	0.267
-293.676	639.086	0.121	-0.309
-292.662	498.924	0.093	-0.215
-291.647	54.575	-0.244	0.235
-290.632	-18.533	-0.299	-0.187
-289.618	-57.337	0.230	-0.101
-288.603	-62.361	-0.282	0.117
-287.589	-200.000	0.019	0.232
-286.574	318.675	-0.129	0.245
-285.559	-72.696	-0.270	-0.100
-284.545	-10.556	-0.259	0.172
-283.530	339.016	-0.074	0.145
-282.516	110.838	-0.157	0.189
-281.501	23.433	-0.203	0.167
-280.486	800.000	0.031	0.127
-279.472	-96.849	0.487	-0.128
-278.457	128.039	0.037	0.047
-277.443	-86.943	0.126	-0.038
-276.428	-128.621	0.203	0.029
-275.413	216.438	-0.230	0.366
-274.399	19.980	0.401	0.323
-273.384	-144.759	0.132	0.012
-272.370	800.000	0.041	0.144
-271.355	-152.859	0.271	-0.019
-270.340	-200.000	-0.306	0.000
-269.326	800.000	0.035	-0.144
-268.311	-8.765	0.159	0.107
-267.297	39.685	0.113	0.102
-266.282	37.917	-0.080	0.071
-265.267	800.000	-0.062	-0.252
-264.253	151.244	-0.036	0.049
-263.238	440.854	-0.077	0.168
-262.224	800.000	0.062	-0.199
-261.209	-53.169	-0.090	-0.041
-260.195	129.708	0.105	-0.135
-259.180	2.618	0.091	0.066
-258.165	800.000	-0.084	-0.304
-257.151	-58.647	0.143	-0.062
-256.136	-200.000	-0.018	0.247
-255.122	800.000	0.113	-0.383
-254.107	79.000	-0.128	0.137
-253.092	-162.461	0.169	0.008
-252.078	205.613	0.101	0.158
-251.063	129.196	-0.094	0.120
-250.049	-39.023	-0.339	0.178
-249.034	800.000	0.020	0.079
-248.019	583.882	-0.091	0.223
-247.005	28.609	-0.305	0.258
-245.990	-200.000	0.010	0.141
-244.976	-98.315	-0.363	-0.093
-243.961	-80.214	-0.046	-0.015
-242.946	-200.000	0.009	0.128
-241.932	9.065	-0.092	0.069
-240.917	-39.969	-0.265	0.138
-239.903	240.020	0.041	-0.068
-238.888	-200.000	-0.007	0.245
-237.873	-108.531	-0.228	-0.049
-236.859	306.196	-0.136	-0.253
-235.844	15.648	0.127	0.100
-234.830	-200.000	0.042	-0.281
-233.815	-200.000	0.007	-0.127
-232.800	-87.334	0.409	0.124
-231.786	262.318	0.092	0.160
-230.771	-153.212	-0.241	-0.017
-229.757	-200.000	-0.029	0.280
-228.742	800.000	0.144	0.427
-227.727	245.017	0.045	0.076
-226.713	800.000	0.061	0.189
-225.698	-54.929	-0.175	-0.079
-224.684	744.360	0.098	-0.263
-223.669	260.905	0.079	0.136
-222.655	-156.002	0.132	0.008
-221.640	-135.933	-0.312	0.037
-220.625	-87.236	0.048	0.015
-219.611	474.712	0.090	-0.203
-218.596	19.946	0.089	-0.071
-217.582	-184.798	0.128	0.002
-216.567	10.181	-0.212	0.161
-215.552	-200.000	0.023	-0.170
-214.538	31.964	-0.227	-0.195
-213.523	308.307	-0.177	-0.330
-212.509	-119.003	-0.268	0.047
-211.494	333.690	-0.053	0.102
-210.479	-159.100	0.072	-0.004
-209.465	-200.000	0.016	-0.208
-208.450	-135.380	0.232	-0.028
-207.436	-200.000	-0.007	0.150
-206.421	-1.064	-0.150	0.106
-205.406	20.325	0.233	0.188
-204.392	-21.780	-0.175	0.106
-203.377	-127.980	0.256	0.037
-202.363	-181.736	-0.212	-0.004
-201.348	-133.578	0.241	0.030
-200.333	76.134	0.276	0.291
-199.319	35.898	0.112	-0.098
-198.304	-200.000	-0.016	-0.203
-197.290	800.000	-0.120	-0.333
-196.275	164.680	0.285	-0.401
-195.260	-200.000	-0.005	-0.063
-194.246	62.081	0.186	0.185
-193.231	222.733	0.015	0.024
-192.217	-125.232	0.246	0.038
-191.202	-93.348	-0.435	-0.120
-190.187	800.000	0.098	-0.276
-189.173	-108.003	0.124	0.027
-188.158	-34.283	-0.212	-0.116
-187.144	-200.000	0.008	0.374
-186.129	121.289	-0.057	-0.071
-185.114	45.621	0.127	-0.117
-184.100	89.367	-0.124	-0.138
-183.085	166.951	-0.149	0.211
-182.071	-131.464	-0.032	-0.004
-181.056	-85.446	-0.167	0.052
-180.042	144.341	0.085	0.113
-179.027	33.471	-0.090	-0.078
-178.012	58.102	-0.228	0.223
-176.998	495.243	-0.059	0.135
-175.983	-96.291	0.150	0.040
-174.969	-200.000	0.032	-0.276
-173.954	78.513	-0.141	-0.150
-172.939	64.615	0.263	0.264
-171.925	58.228	-0.069	0.068
-170.910	236.964	-0.083	0.137
-169.896	-200.000	0.023	-0.305
-168.881	430.368	-0.248	-0.535
-167.866	564.556	0.129	-0.311
-166.852	5.388	-0.218	0.160
-165.837	-69.499	-0.251	0.096
-164.823	-90.145	0.145	-0.042
-163.808	-40.451	0.231	-0.120
-162.793	800.000	-0.088	0.245
-161.779	-200.000	0.027	-0.208
-160.764	-13.605	0.212	0.137
-159.750	800.000	0.087	0.262
-158.735	-200.000	0.002	0.174
-157.720	-180.078	0.109	0.002
-156.706	-145.493	0.226	-0.020
-155.691	59.864	0.012	0.011
-154.677	-126.828	-0.120	-0.018
-153.662	9.002	-0.138	-0.104
-152.647	-54.827	0.104	0.047
-151.633	800.000	-0.076	0.277
-150.618	-7.039	0.214	0.145
-149.604	-172.544	-0.035	-0.001
-148.589	46.737	0.401	0.371
-147.574	-22.661	-0.156	0.094
-146.560	-81.853	0.065	-0.021
-145.545	-200.000	0.003	-0.209
-144.531	27.497	-0.130	0.109
-143.516	-46.691	0.174	0.085
-142.502	-42.187	-0.237	0.121
-141.487	-75.335	-0.262	-0.093
-140.472	-179.768	0.233	0.005
-139.458	800.000	-0.064	-0.208
-138.443	151.384	0.104	0.141
-137.429	-109.099	-0.070	-0.015
-136.414	-7.309	0.094	-0.063
-135.399	-49.583	-0.234	-0.111
-134.385	-200.000	-0.060	-0.311
-133.370	-200.000	-0.006	-0.328
-132.356	35.476	0.223	0.195
-131.341	-136.998	-0.340	-0.039
-130.326	29.923	-0.216	0.183
-129.312	-200.000	-0.003	0.151
-128.297	-37.867	-0.038	-0.020
-127.283	-81.626	0.056	-0.018
-126.268	800.000	-0.094	-0.358
-125.253	-200.000	0.000	0.236
-124.239	9.938	-0.142	0.108
-123.224	800.000	0.075	0.266
-122.210	-200.000	0.077	0.442
-121.195	-50.620	0.249	-0.117
