DTS Sentinel unit serial number:	SN413079Multiplexer serial number:	ORYXHardware model number:	OX4-SRSoftware version number:	ORYX F/W v4.00 Oryx Data Collector v3.7.2.0data status	okinstallation	princeton_trtdifferential loss correction	single-endedforward channel	channel 3reverse channel	N/Adate	2019/09/10time	20:02:10forward acquisition time	60.00reverse acquisition time	0.00gamma	496.2192k internal	0.2323k external	0.2323temperature offset calibration	0.9920default loss term (dB/km)	0.3790temperature slope calibration	1.0000multiplexer offset coefficient	1.0000multiplexer slope coefficient	1.0000fibre end	0.00T internal ref (°C)	32.62T ext. ref 1 (°C)	-0.32T ext. ref 2 (°C)	25.68length (m)	temperature (°C)	Stokes	anti-Stokes-747.200	117.849	0.204	-0.254
-746.185	658.936	-0.110	0.285
-745.171	-21.019	-0.359	-0.222
-744.156	-200.000	0.002	0.133
-743.142	278.661	0.077	0.138
-742.127	166.952	-0.187	0.267
-741.112	-48.700	0.033	0.016
-740.098	720.986	0.022	0.060
-739.083	-83.601	0.204	0.066
-738.069	-20.887	-0.325	0.201
-737.054	-200.000	0.016	-0.249
-736.039	-69.317	-0.225	0.087
-735.025	800.000	0.047	0.137
-734.010	50.886	-0.230	-0.220
-732.996	-59.136	-0.218	0.095
-731.981	10.129	-0.365	-0.280
-730.966	775.063	0.072	0.198
-729.952	-93.626	-0.387	-0.108
-728.937	35.942	-0.376	0.334
-727.923	-165.408	-0.360	0.016
-726.908	77.175	0.160	0.172
-725.894	-106.724	0.119	0.027
-724.879	43.251	-0.282	-0.260
-723.864	8.724	-0.082	-0.062
-722.850	-200.000	0.024	-0.110
-721.835	-200.000	0.010	-0.128
-720.821	-29.072	-0.198	0.115
-719.806	779.470	0.141	-0.390
-718.791	118.119	-0.181	-0.225
-717.777	-42.132	-0.190	0.098
-716.762	-82.497	0.687	0.225
-715.748	20.667	-0.363	-0.296
-714.733	-118.231	-0.049	-0.009
-713.718	53.509	0.049	-0.047
-712.704	91.529	-0.103	0.117
-711.689	210.773	-0.051	-0.081
-710.675	703.208	-0.060	-0.159
-709.660	83.184	-0.028	-0.031
-708.645	-96.902	-0.452	-0.120
-707.631	196.565	-0.202	0.310
-706.616	-77.008	-0.177	-0.062
-705.602	-91.399	-0.312	-0.090
-704.587	-160.081	-0.178	-0.010
-703.572	546.514	-0.082	0.198
-702.558	42.949	-0.202	-0.186
-701.543	-147.605	0.112	-0.009
-700.529	-200.000	-0.008	-0.339
-699.514	800.000	0.057	-0.217
-698.499	-118.703	-0.383	-0.068
-697.485	52.846	-0.162	0.156
-696.470	800.000	0.116	-0.323
-695.456	-107.779	0.215	-0.047
-694.441	342.075	0.116	-0.229
-693.426	368.784	-0.035	0.072
-692.412	-96.138	0.187	-0.050
-691.397	-42.293	-0.168	-0.087
-690.383	-200.000	0.054	-0.335
-689.368	-115.910	0.461	0.087
-688.354	800.000	-0.059	-0.176
-687.339	-200.000	-0.019	0.164
-686.324	616.789	0.044	0.110
-685.310	-120.111	-0.364	0.063
-684.295	136.199	-0.167	-0.219
-683.281	-46.405	-0.188	0.093
-682.266	-200.000	-0.047	-0.244
-681.251	-200.000	0.007	0.066
-680.237	-131.863	-0.168	-0.022
-679.222	-110.960	-0.368	0.076
-678.208	-200.000	-0.022	0.358
-677.193	133.348	0.062	0.081
-676.178	31.417	-0.153	0.133
-675.164	-105.931	-0.151	-0.034
-674.149	-49.151	-0.210	-0.101
-673.135	778.690	0.105	0.288
-672.120	113.369	-0.191	0.234
-671.105	-111.586	0.220	-0.045
-670.091	244.072	0.199	-0.336
-669.076	-200.000	-0.003	-0.041
-668.062	-200.000	0.012	-0.178
-667.047	-107.950	0.051	0.011
-666.032	54.881	0.267	-0.260
-665.018	800.000	-0.168	-0.508
-664.003	-54.750	-0.274	-0.125
-662.989	137.513	-0.120	-0.158
-661.974	-111.701	-0.302	0.062
-660.959	121.894	-0.258	-0.323
-659.945	800.000	0.122	-0.376
-658.930	-6.754	-0.131	-0.089
-657.916	-46.259	0.247	0.122
-656.901	-200.000	0.015	-0.073
-655.886	39.787	0.081	0.073
-654.872	-25.435	-0.289	-0.172
-653.857	-200.000	-0.041	-0.295
-652.843	-8.205	-0.289	0.195
-651.828	48.054	0.141	0.133
-650.814	-51.777	0.225	0.105
-649.799	-15.403	-0.167	0.108
-648.784	442.358	0.007	-0.016
-647.770	-107.054	-0.279	0.062
-646.755	125.459	-0.136	-0.172
-645.741	16.926	-0.110	-0.087
-644.726	-121.535	0.100	0.017
-643.711	-129.838	-0.098	-0.013
-642.697	-98.470	-0.315	0.081
-641.682	-49.440	0.187	0.090
-640.668	-57.758	0.382	0.168
-639.653	800.000	-0.034	-0.100
-638.638	-200.000	-0.012	-0.103
-637.624	800.000	0.118	0.353
-636.609	-115.690	-0.203	-0.038
-635.595	-82.419	-0.217	0.071
-634.580	484.863	0.035	-0.080
-633.565	-145.164	-0.296	0.027
-632.551	-106.587	0.195	0.044
-631.536	-36.284	-0.376	0.204
-630.522	-87.787	0.208	0.063
-629.507	800.000	-0.017	0.062
-628.492	800.000	-0.067	0.195
-627.478	228.194	-0.104	-0.170
-626.463	-68.735	-0.221	0.086
-625.449	-200.000	-0.018	-0.148
-624.434	-48.661	-0.218	0.105
-623.419	-200.000	0.010	-0.079
-622.405	-156.255	0.162	0.010
-621.390	17.874	0.102	0.082
-620.376	63.767	-0.165	0.166
-619.361	283.213	-0.084	-0.152
-618.346	-56.666	0.416	-0.185
-617.332	-66.889	-0.311	0.123
-616.317	150.181	0.157	-0.214
-615.303	-61.596	0.181	-0.076
-614.288	437.565	-0.061	-0.133
-613.273	193.824	-0.117	0.178
-612.259	-145.375	0.175	-0.016
-611.244	-200.000	-0.046	0.297
-610.230	-75.402	-0.062	0.022
-609.215	800.000	-0.138	-0.433
-608.201	70.833	-0.173	0.179
-607.186	11.348	0.026	-0.020
-606.171	-58.937	0.407	0.177
-605.157	-113.332	-0.033	0.007
-604.142	-200.000	0.067	-0.369
-603.128	-21.100	0.223	-0.137
-602.113	743.404	0.028	0.077
-601.098	71.493	0.234	-0.243
-600.084	-200.000	0.003	0.100
-599.069	-34.602	-0.197	-0.108
-598.055	-200.000	0.034	0.149
-597.040	800.000	0.010	0.034
-596.025	-38.443	-0.176	0.093
-595.011	22.696	0.145	-0.119
-593.996	34.716	0.050	-0.044
-592.982	32.815	-0.080	-0.069
-591.967	800.000	-0.030	0.100
-590.952	-115.761	-0.323	-0.061
-589.938	121.011	-0.335	-0.418
-588.923	34.293	0.115	-0.101
-587.909	59.897	0.140	0.139
-586.894	-200.000	-0.011	-0.542
-585.879	-10.710	0.233	0.154
-584.865	-200.000	0.008	0.325
-583.850	-48.759	0.258	-0.124
-582.836	10.172	-0.146	-0.111
-581.821	109.967	0.143	-0.173
-580.806	94.805	0.150	0.172
-579.792	-200.000	0.016	0.169
-578.777	31.942	0.267	-0.230
-577.763	-152.770	-0.045	-0.003
-576.748	144.982	0.043	0.057
-575.733	-200.000	0.002	-0.097
-574.719	-138.989	0.146	0.016
-573.704	-200.000	0.026	0.141
-572.690	-126.974	0.299	-0.044
-571.675	-149.763	-0.169	-0.013
-570.661	-17.275	-0.072	0.045
-569.646	-64.228	0.327	0.133
-568.631	86.520	0.114	-0.126
-567.617	-41.868	-0.020	0.010
-566.602	-85.745	-0.292	0.091
-565.588	87.413	-0.115	0.127
-564.573	800.000	-0.021	0.070
-563.558	-33.434	0.139	-0.077
-562.544	139.774	-0.040	0.052
-561.529	-200.000	0.040	0.337
-560.515	209.933	0.067	0.106
-559.500	-200.000	0.013	0.067
-558.485	205.997	0.077	0.120
-557.471	-145.071	0.247	-0.023
-556.456	-127.290	0.386	0.057
-555.442	-36.640	-0.290	0.156
-554.427	92.891	-0.228	0.258
-553.412	-7.820	-0.154	0.104
-552.398	-156.544	0.388	-0.024
-551.383	-22.512	-0.326	-0.198
-550.369	129.419	0.165	0.212
-549.354	-57.494	-0.372	-0.164
-548.339	-67.563	-0.146	-0.057
-547.325	-10.513	-0.060	0.040
-546.310	-49.614	-0.284	-0.135
-545.296	-39.546	0.239	0.125
-544.281	-200.000	-0.003	0.086
-543.266	-200.000	0.018	-0.220
-542.252	149.853	-0.192	-0.261
-541.237	-83.664	-0.026	0.008
-540.223	102.495	-0.183	0.215
-539.208	-92.030	-0.087	-0.025
-538.193	380.463	-0.291	-0.597
-537.179	-41.179	-0.164	-0.085
-536.164	75.175	0.282	0.297
-535.150	-185.238	-0.212	0.003
-534.135	-15.603	-0.291	-0.186
-533.121	629.213	-0.137	-0.346
-532.106	-3.292	-0.278	0.194
-531.091	799.859	-0.069	-0.192
-530.077	-200.000	0.005	0.026
-529.062	557.968	-0.099	-0.238
-528.048	-200.000	-0.002	-0.171
-527.033	-99.760	-0.148	0.037
-526.018	-152.628	0.203	-0.015
-525.004	59.160	0.167	0.164
-523.989	800.000	0.091	0.264
-522.975	52.114	0.146	0.140
-521.960	269.171	-0.125	-0.219
-520.945	322.171	0.094	0.180
-519.931	183.500	0.143	-0.211
-518.916	485.785	0.104	0.236
-517.902	-24.354	0.177	0.106
-516.887	205.928	-0.144	-0.224
-515.872	-105.860	-0.128	-0.029
-514.858	-75.166	0.154	0.055
-513.843	179.188	-0.150	-0.220
-512.829	-65.818	0.220	-0.088
-511.814	-200.000	0.023	-0.182
-510.799	161.265	-0.231	-0.324
-509.785	16.067	0.180	-0.142
-508.770	-82.432	0.155	0.050
-507.756	-62.667	-0.396	0.164
-506.741	114.881	-0.079	0.096
-505.726	800.000	-0.115	0.331
-504.712	-98.274	-0.083	0.021
-503.697	-12.163	-0.131	-0.086
-502.683	121.574	0.072	-0.089
-501.668	-108.671	-0.264	-0.057
-500.653	-28.446	0.266	0.154
-499.639	800.000	0.043	-0.186
-498.624	44.195	-0.278	-0.255
-497.610	800.000	0.124	0.346
-496.595	384.919	-0.101	-0.208
-495.581	46.005	-0.029	-0.026
-494.566	-65.274	-0.276	0.111
-493.551	-63.255	0.318	0.131
-492.537	-135.644	0.096	-0.011
-491.522	340.115	-0.098	0.190
-490.508	-119.453	0.149	0.026
-489.493	800.000	0.099	0.413
-488.478	688.319	0.106	-0.276
-487.464	477.849	-0.049	-0.112
-486.449	208.000	0.057	0.090
-485.435	259.829	0.071	-0.123
-484.420	-54.453	-0.109	0.049
-483.405	69.009	0.204	0.210
-482.391	-90.143	0.246	0.072
-481.376	-89.410	0.063	0.018
-480.362	18.445	-0.255	-0.204
-479.347	-200.000	0.024	0.120
-478.332	-50.278	-0.272	-0.129
-477.318	-47.299	-0.240	-0.117
-476.303	38.549	-0.246	-0.219
-475.289	-200.000	-0.077	0.362
-474.274	146.787	-0.094	-0.126
-473.259	-200.000	-0.007	0.280
-472.245	406.673	0.039	0.083
-471.230	-200.000	-0.015	-0.074
-470.216	-200.000	0.010	0.310
-469.201	-0.511	0.189	0.134
-468.186	-158.319	-0.151	0.009
-467.172	800.000	0.070	-0.286
-466.157	35.973	0.178	0.157
-465.143	-31.029	-0.412	0.232
-464.128	260.420	0.094	0.162
-463.113	-176.228	0.250	0.007
-462.099	-149.915	-0.158	0.012
-461.084	344.410	0.093	-0.182
-460.070	271.557	-0.116	0.204
-459.055	384.655	-0.088	0.182
-458.040	-54.503	0.178	-0.081
-457.026	80.765	0.180	-0.194
-456.011	-103.325	-0.177	-0.042
-454.997	-9.101	0.415	0.277
-453.982	-159.477	-0.224	0.012
-452.968	287.874	-0.109	-0.197
-451.953	-21.664	-0.151	0.092
-450.938	206.800	-0.088	-0.137
-449.924	13.405	-0.155	0.120
-448.909	-163.307	0.130	-0.006
-447.895	-126.821	0.315	0.046
-446.880	57.879	-0.046	0.045
-445.865	194.968	-0.104	-0.157
-444.851	-37.746	0.263	-0.140
-443.836	99.488	0.106	-0.122
-442.822	800.000	-0.037	-0.104
-441.807	-14.626	-0.287	-0.184
-440.792	67.396	-0.337	0.344
-439.778	47.765	0.092	-0.086
-438.763	800.000	0.079	-0.264
-437.749	-200.000	-0.020	0.209
-436.734	447.207	0.088	0.193
-435.719	-200.000	-0.018	0.133
-434.705	-36.563	0.179	0.096
-433.690	98.854	-0.216	-0.248
-432.676	381.046	0.014	-0.029
-431.661	-141.636	-0.070	0.007
-430.646	163.128	0.210	-0.295
-429.632	201.365	-0.123	0.189
-428.617	78.631	-0.328	-0.350
-427.603	800.000	-0.061	-0.220
-426.588	69.680	0.242	-0.249
-425.573	-200.000	0.038	0.215
-424.559	-93.815	-0.139	-0.038
-423.544	10.144	0.399	0.303
-422.530	609.647	0.170	0.424
-421.515	-200.000	0.012	-0.098
-420.500	264.373	0.125	-0.217
-419.486	-200.000	-0.004	-0.141
-418.471	221.013	-0.073	0.117
-417.457	528.972	0.097	0.228
-416.442	340.901	0.099	-0.193
-415.428	800.000	0.103	0.285
-414.413	605.738	0.053	-0.132
-413.398	127.946	-0.099	-0.125
-412.384	451.610	0.107	-0.235
-411.369	29.089	0.127	-0.108
-410.355	306.452	-0.117	-0.218
-409.340	-200.000	-0.020	0.231
-408.325	116.017	-0.083	0.102
-407.311	-14.679	-0.288	0.184
-406.296	-200.000	-0.007	-0.287
-405.282	-42.463	-0.429	0.218
-404.267	-84.278	-0.306	0.097
-403.252	-200.000	-0.034	-0.207
-402.238	134.251	-0.159	-0.205
-401.223	-200.000	-0.001	-0.068
-400.209	189.455	-0.064	0.096
-399.194	-200.000	-0.178	-0.000
-398.179	111.463	0.178	-0.213
-397.165	-66.755	-0.276	-0.109
-396.150	56.390	-0.170	-0.164
-395.136	-76.269	0.019	0.007
-394.121	759.053	-0.040	0.109
-393.106	-200.000	0.045	-0.291
-392.092	350.542	-0.105	-0.207
-391.077	-200.000	-0.049	0.225
-390.063	800.000	0.029	0.123
-389.048	430.828	-0.035	-0.075
-388.033	363.229	-0.108	0.215
-387.019	12.405	0.173	-0.133
-386.004	-195.498	0.122	0.001
-384.990	-3.721	-0.029	0.020
-383.975	54.789	-0.084	-0.081
-382.960	-200.000	0.036	-0.353
-381.946	28.608	-0.200	0.168
-380.931	-112.794	-0.429	0.085
-379.917	24.598	0.270	0.223
-378.902	6.771	0.296	-0.219
-377.888	30.766	-0.088	0.075
-376.873	-86.942	-0.045	-0.014
-375.858	202.107	0.202	0.310
-374.844	-93.326	0.351	-0.097
-373.829	225.645	-0.079	-0.128
-372.815	-200.000	0.020	0.310
-371.800	5.139	-0.133	0.097
-370.785	-82.168	0.250	0.081
-369.771	123.840	0.136	0.170
-368.756	135.829	0.201	0.261
-367.742	-145.334	0.315	-0.028
-366.727	225.431	-0.087	0.140
-365.712	-200.000	0.009	0.170
-364.698	-32.988	0.285	0.158
-363.683	-35.156	-0.185	-0.100
-362.669	-110.826	0.250	0.051
-361.654	-34.120	0.104	0.057
-360.639	68.550	-0.245	-0.250
-359.625	121.031	-0.135	-0.167
-358.610	-20.096	0.219	-0.134
-357.596	-68.636	0.235	0.091
-356.581	-200.000	-0.024	-0.169
-355.566	271.500	-0.098	-0.172
-354.552	-155.981	0.172	0.011
-353.537	800.000	-0.085	0.319
-352.523	-3.871	-0.216	0.149
-351.508	-167.697	-0.343	0.014
-350.493	-50.572	-0.216	-0.101
-349.479	-124.572	0.097	-0.015
-348.464	21.995	-0.203	0.164
-347.450	-93.134	0.345	-0.095
-346.435	800.000	0.052	0.225
-345.420	596.451	0.148	-0.364
-344.406	-200.000	-0.001	-0.309
-343.391	-200.000	0.011	0.407
-342.377	562.831	0.065	0.158
-341.362	144.588	-0.128	-0.170
-340.348	-63.271	-0.145	-0.059
-339.333	149.273	0.120	0.161
-338.318	203.217	-0.073	-0.112
-337.304	237.895	0.141	-0.233
-336.289	-20.493	-0.300	-0.183
-335.275	-114.493	-0.246	0.047
-334.260	-200.000	0.004	-0.074
-333.245	-195.162	-0.258	0.002
-332.231	131.100	0.131	0.167
-331.216	782.766	-0.077	0.210
-330.202	425.412	-0.050	0.107
-329.187	-31.834	-0.113	-0.063
-328.172	-40.042	-0.351	-0.182
-327.158	-140.328	-0.144	0.015
-326.143	79.573	0.275	0.293
-325.129	-58.206	0.348	0.150
-324.114	800.000	0.055	0.183
-323.099	-142.344	-0.168	-0.016
-322.085	13.827	-0.301	-0.233
-321.070	439.666	0.210	-0.455
-320.056	30.414	0.204	-0.173
-319.041	-200.000	0.046	-0.257
-318.026	165.483	-0.166	-0.233
-317.012	3.785	-0.068	0.049
-315.997	-109.171	-0.343	-0.072
-314.983	800.000	-0.094	0.320
-313.968	163.511	0.082	0.114
-312.953	67.700	0.267	0.271
-311.939	-200.000	-0.020	0.141
-310.924	-200.000	0.018	-0.247
-309.910	-49.752	-0.193	0.091
-308.895	23.614	-0.076	0.062
-307.880	-54.263	0.156	-0.070
-306.866	-124.151	-0.186	0.029
-305.851	-200.000	-0.020	0.270
-304.837	19.726	0.071	-0.056
-303.822	-37.797	0.048	-0.025
-302.807	2.643	0.025	-0.018
-301.793	-36.303	-0.160	0.086
-300.778	800.000	-0.017	-0.046
-299.764	-37.009	0.179	0.095
-298.749	-13.659	-0.188	0.121
-297.735	-200.000	0.068	-0.378
-296.720	-200.000	-0.014	0.292
-295.705	109.795	0.078	-0.093
-294.691	-200.000	-0.034	-0.247
-293.676	-169.929	0.237	-0.008
-292.662	-116.661	0.311	0.057
-291.647	209.332	-0.280	-0.436
-290.632	12.000	-0.108	0.083
-289.618	-84.718	-0.141	0.044
-288.603	178.735	0.128	0.186
-287.589	-23.503	0.328	0.195
-286.574	-181.925	-0.220	0.004
-285.559	120.261	0.067	-0.082
-284.545	488.430	-0.128	-0.291
-283.530	173.398	0.037	0.054
-282.516	478.829	0.103	0.231
-281.501	-50.162	-0.218	-0.102
-280.486	77.508	0.183	-0.193
-279.472	-200.000	0.009	0.185
-278.457	-151.620	-0.120	0.009
-277.443	-200.000	0.004	-0.215
-276.428	48.702	0.200	-0.186
-275.413	-88.546	-0.069	-0.020
-274.399	538.215	-0.060	0.142
-273.384	-113.798	-0.191	-0.037
-272.370	-142.973	-0.354	0.034
-271.355	-200.000	-0.006	-0.221
-270.340	118.392	-0.117	0.143
-269.326	293.817	0.058	-0.105
-268.311	190.330	0.087	0.129
-267.297	-200.000	0.033	0.175
-266.282	562.729	0.082	-0.196
-265.267	-124.195	0.306	-0.047
-264.253	-10.658	-0.279	-0.183
-263.238	418.384	-0.065	-0.137
-262.224	-19.839	0.294	-0.180
-261.209	61.754	-0.104	0.103
-260.195	-200.000	0.046	-0.334
-259.180	8.622	0.181	0.135
-258.165	-50.812	0.289	0.135
-257.151	-137.817	0.222	-0.025
-256.136	-69.331	0.180	-0.068
-255.122	98.470	0.094	0.107
-254.107	-200.000	-0.023	-0.131
-253.092	-144.537	0.131	-0.012
-252.078	389.896	0.063	0.128
-251.063	98.226	-0.279	0.318
-250.049	-86.312	-0.178	-0.054
-249.034	-200.000	0.007	-0.039
-248.019	2.476	-0.166	0.119
-247.005	-83.025	0.334	0.106
-245.990	92.126	-0.061	-0.068
-244.976	-32.168	0.312	-0.173
-243.961	-6.402	-0.364	-0.246
-242.946	-174.364	0.025	-0.001
-241.932	594.607	0.080	-0.195
-240.917	92.538	-0.152	0.170
-239.903	-200.000	-0.011	-0.136
-238.888	-200.000	-0.021	0.331
-237.873	-200.000	0.013	0.072
-236.859	94.587	0.121	-0.136
-235.844	405.947	-0.074	-0.155
-234.830	148.582	-0.093	0.124
-233.815	-134.130	-0.402	0.049
-232.800	223.131	0.235	0.376
-231.786	-17.016	0.164	-0.102
-230.771	-20.469	0.203	0.123
-229.757	-77.302	0.137	-0.047
-228.742	-126.939	-0.195	-0.028
-227.727	-151.463	0.216	-0.016
-226.713	-66.984	0.086	0.034
-225.698	507.415	0.216	0.496
-224.684	-33.076	-0.143	-0.079
-223.669	99.736	0.214	0.245
-222.655	104.921	0.233	0.272
-221.640	-19.755	-0.199	0.122
-220.625	7.418	0.174	0.129
-219.611	-30.371	-0.071	-0.040
-218.596	45.137	0.142	0.129
-217.582	-176.720	-0.147	0.004
-216.567	-114.061	-0.514	-0.098
-215.552	-175.137	0.200	0.005
-214.538	800.000	0.040	-0.144
-213.523	-26.045	0.421	0.245
-212.509	-114.995	0.054	0.010
-211.494	157.951	0.033	0.046
-210.479	459.139	0.141	0.310
-209.465	161.517	-0.123	-0.170
-208.450	-200.000	0.059	-0.400
-207.436	-74.502	-0.133	0.047
-206.421	-136.698	0.065	0.007
-205.406	-152.316	-0.191	-0.014
-204.392	-32.805	0.108	-0.059
-203.377	-33.518	-0.051	0.028
-202.363	-145.015	0.371	0.033
-201.348	-1.898	0.144	-0.100
-200.333	14.236	0.221	-0.170
-199.319	800.000	-0.113	-0.345
-198.304	40.628	-0.165	-0.147
-197.290	-17.872	0.197	-0.122
-196.275	-71.151	-0.358	-0.133
-195.260	-200.000	0.024	-0.167
-194.246	-28.361	-0.145	-0.082
-193.231	58.701	0.323	0.314
-192.217	406.329	0.048	-0.100
-191.202	-119.088	-0.194	-0.034
-190.187	-200.000	-0.006	0.205
-189.173	-5.323	0.310	0.210
-188.158	-135.529	-0.271	-0.032
-187.144	145.362	0.079	0.104
-186.129	-67.117	0.376	0.147
-185.114	732.443	-0.058	0.153
-184.100	-200.000	-0.027	-0.146
-183.085	-142.393	0.472	0.046
-182.071	-51.374	0.139	0.064
-181.056	-174.744	0.016	-0.000
-180.042	-71.105	0.046	0.017
-179.027	-53.826	-0.309	0.139
-178.012	-32.317	0.348	-0.192
-176.998	-200.000	0.016	-0.280
-175.983	800.000	-0.023	-0.095
-174.969	-200.000	-0.032	0.355
-173.954	10.985	0.218	0.164
-172.939	-163.855	0.321	-0.015
-171.925	800.000	-0.044	-0.166
-170.910	-17.951	0.288	0.178
-169.896	11.217	-0.079	-0.059
-168.881	-107.444	-0.312	0.067
-167.866	187.620	-0.118	-0.173
-166.852	487.915	0.114	0.256
-165.837	159.620	0.233	-0.321
-164.823	-200.000	-0.008	0.052
-163.808	34.171	-0.129	-0.111
-162.793	46.183	-0.106	-0.097
-161.779	-59.211	-0.355	0.151
-160.764	-111.650	-0.062	-0.012
-159.750	-74.160	0.037	-0.013
-158.735	-69.407	0.099	-0.038
-157.720	800.000	0.050	0.155
-156.706	-184.069	0.144	-0.002
-155.691	-159.506	0.067	-0.004
-154.677	216.420	0.051	-0.080
-153.662	-111.758	0.095	0.019
-152.647	-200.000	0.009	-0.085
-151.633	800.000	-0.021	0.074
-150.618	219.489	0.383	0.604
-149.604	800.000	-0.067	0.280
-148.589	-38.425	-0.283	0.148
-147.574	800.000	-0.063	0.256
-146.560	617.868	0.171	-0.423
-145.545	288.176	-0.146	0.260
-144.531	445.978	-0.097	-0.210
-143.516	-67.312	-0.357	-0.138
-142.502	-57.869	-0.222	-0.096
-141.487	-200.000	-0.007	-0.190
-140.472	800.000	0.050	0.138
-139.458	-200.000	-0.023	0.360
-138.443	207.339	-0.213	-0.327
-137.429	201.333	0.229	0.348
-136.414	-15.319	-0.165	-0.104
-135.399	66.133	0.244	-0.244
-134.385	220.965	0.300	-0.475
-133.370	-60.729	-0.243	-0.102
-132.356	-124.315	0.222	0.034
-131.341	403.888	0.085	0.176
-130.326	-19.507	-0.171	0.104
-129.312	433.581	-0.146	-0.312
-128.297	-35.940	0.152	-0.081
-127.283	320.451	-0.045	-0.085
-126.268	-58.367	-0.375	-0.161
-125.253	-175.918	0.180	-0.005
-124.239	173.747	-0.135	0.192
-123.224	221.832	-0.128	0.204
-122.210	-200.000	-0.010	-0.052
