DTS Sentinel unit serial number:	SN413079Multiplexer serial number:	ORYXHardware model number:	OX4-SRSoftware version number:	ORYX F/W v4.00 Oryx Data Collector v3.7.2.0data status	okinstallation	princeton_trtdifferential loss correction	single-endedforward channel	channel 3reverse channel	N/Adate	2019/09/10time	21:30:11forward acquisition time	60.00reverse acquisition time	0.00gamma	496.2192k internal	0.2329k external	0.2329temperature offset calibration	0.9919default loss term (dB/km)	0.3790temperature slope calibration	1.0000multiplexer offset coefficient	1.0000multiplexer slope coefficient	1.0000fibre end	0.00T internal ref (°C)	31.12T ext. ref 1 (°C)	-0.31T ext. ref 2 (°C)	24.32length (m)	temperature (°C)	Stokes	anti-Stokes-747.200	-141.184	0.152	0.016
-746.185	80.031	0.137	0.148
-745.171	-143.051	0.420	0.041
-744.156	222.019	-0.160	0.260
-743.142	-115.229	0.372	-0.071
-742.127	-200.000	-0.011	-0.237
-741.112	587.593	0.073	0.180
-740.098	21.098	-0.389	0.318
-739.083	-185.681	0.078	-0.001
-738.069	800.000	-0.041	-0.136
-737.054	-4.824	0.112	0.078
-736.039	34.803	-0.324	0.286
-735.025	-55.077	0.178	0.081
-734.010	-114.577	-0.153	-0.029
-732.996	-200.000	-0.002	-0.114
-731.981	-169.324	-0.399	-0.015
-730.966	209.684	-0.077	-0.121
-729.952	-9.816	-0.499	0.334
-728.937	136.572	0.127	0.167
-727.923	-200.000	0.010	0.339
-726.908	-152.819	-0.310	0.022
-725.894	-200.000	-0.027	-0.204
-724.879	800.000	-0.053	0.163
-723.864	91.041	0.154	0.174
-722.850	-131.055	0.169	0.023
-721.835	211.759	-0.248	-0.393
-720.821	-91.610	-0.149	0.043
-719.806	-46.208	0.186	0.092
-718.791	-200.000	-0.030	-0.258
-717.777	121.825	0.023	0.028
-716.762	800.000	0.036	0.111
-715.748	-109.662	-0.202	0.043
-714.733	41.660	0.161	-0.147
-713.718	-200.000	0.063	-0.386
-712.704	-82.684	0.132	-0.043
-711.689	138.118	-0.203	0.268
-710.675	108.528	0.186	0.223
-709.660	24.511	-0.375	-0.312
-708.645	-200.000	-0.000	-0.124
-707.631	-128.738	-0.333	-0.047
-706.616	-132.744	-0.381	0.049
-705.602	-29.955	0.076	-0.043
-704.587	-147.729	-0.107	-0.009
-703.572	-132.858	0.288	0.037
-702.558	82.343	-0.228	-0.248
-701.543	-200.000	0.022	-0.134
-700.529	-79.996	-0.475	-0.160
-699.514	620.658	0.127	-0.320
-698.499	-200.000	-0.015	-0.355
-697.485	-86.324	0.314	-0.097
-696.470	105.018	0.290	-0.344
-695.456	-133.885	0.297	0.037
-694.441	167.280	0.094	-0.134
-693.426	87.513	0.089	-0.099
-692.412	53.222	0.069	-0.067
-691.397	399.114	-0.170	-0.359
-690.383	227.861	-0.133	-0.218
-689.368	198.716	0.140	-0.216
-688.354	147.835	0.202	0.274
-687.339	180.207	-0.191	0.282
-686.324	359.190	-0.083	-0.166
-685.310	-200.000	0.014	-0.273
-684.295	-102.044	-0.263	0.064
-683.281	-64.857	0.221	0.090
-682.266	-200.000	-0.050	0.260
-681.251	-121.775	-0.152	-0.025
-680.237	-102.357	-0.119	-0.029
-679.222	-138.322	-0.115	0.013
-678.208	-92.561	0.320	-0.090
-677.193	-101.043	0.289	0.071
-676.178	-30.986	0.147	-0.084
-675.164	-171.891	-0.239	-0.008
-674.149	456.334	0.093	0.208
-673.135	8.770	0.338	0.256
-672.120	-19.798	0.145	-0.090
-671.105	109.162	0.172	-0.207
-670.091	198.412	-0.116	-0.178
-669.076	-16.248	0.220	0.140
-668.062	-95.862	0.275	-0.074
-667.047	236.417	0.161	-0.268
-666.032	-200.000	-0.009	0.187
-665.018	-200.000	-0.120	0.000
-664.003	95.681	-0.209	0.240
-662.989	800.000	-0.016	-0.054
-661.974	395.804	-0.089	-0.186
-660.959	-200.000	-0.040	0.256
-659.945	-200.000	-0.003	-0.019
-658.930	-87.327	-0.093	-0.028
-657.916	279.483	0.080	-0.144
-656.901	-200.000	-0.025	0.230
-655.886	-200.000	0.018	0.114
-654.872	-53.473	-0.030	0.014
-653.857	-151.809	-0.191	-0.014
-652.843	-200.000	0.054	0.391
-651.828	124.864	0.038	0.047
-650.814	-187.134	0.343	-0.005
-649.799	-81.420	0.071	0.024
-648.784	-161.022	-0.121	-0.006
-647.770	-98.783	0.191	0.049
-646.755	-126.507	-0.535	0.080
-645.741	800.000	0.076	-0.243
-644.726	-200.000	0.004	-0.175
-643.711	-96.081	-0.261	-0.070
-642.697	-104.051	-0.050	0.012
-641.682	-136.016	-0.355	-0.042
-640.668	75.989	0.071	-0.076
-639.653	42.007	-0.240	0.218
-638.638	-71.550	0.440	-0.165
-637.624	-79.132	0.181	-0.062
-636.609	-107.618	0.268	-0.059
-635.595	800.000	-0.076	-0.281
-634.580	-86.088	0.146	0.045
-633.565	-81.366	0.240	-0.079
-632.551	9.726	-0.211	-0.161
-631.536	-200.000	0.085	0.000
-630.522	-84.422	-0.118	0.037
-629.507	-75.845	-0.158	0.056
-628.492	562.827	-0.049	-0.118
-627.478	365.751	0.174	-0.352
-626.463	-200.000	-0.054	0.271
-625.449	-200.000	0.000	-0.050
-624.434	229.570	-0.206	-0.337
-623.419	18.650	0.152	-0.122
-622.405	101.525	0.057	0.067
-621.390	606.335	-0.073	0.182
-620.376	-46.291	0.271	-0.134
-619.361	-200.000	0.072	-0.435
-618.346	-1.561	-0.198	-0.140
-617.332	-2.806	0.070	-0.049
-616.317	-111.045	-0.163	0.034
-615.303	-200.000	0.008	0.106
-614.288	-200.000	-0.028	-0.139
-613.273	-129.832	0.229	0.032
-612.259	4.124	0.213	-0.156
-611.244	649.569	-0.082	0.211
-610.230	261.557	-0.158	0.275
-609.215	-200.000	0.018	-0.262
-608.201	445.063	-0.119	-0.263
-607.186	-63.312	0.219	0.090
-606.171	-104.063	-0.279	-0.065
-605.157	-12.954	-0.144	0.094
-604.142	-200.000	0.010	0.071
-603.128	-200.000	-0.044	-0.277
-602.113	-200.000	-0.012	-0.240
-601.098	-200.000	0.032	-0.205
-600.084	-132.268	-0.580	0.075
-599.069	649.327	0.057	-0.145
-598.055	-200.000	-0.030	0.298
-597.040	-19.405	0.133	-0.083
-596.025	-156.361	-0.048	0.003
-595.011	-97.862	0.037	-0.009
-593.996	-25.744	0.131	0.077
-592.982	-200.000	-0.034	0.253
-591.967	-35.517	-0.083	-0.045
-590.952	-85.389	0.268	-0.084
-589.938	-200.000	-0.023	-0.111
-588.923	-200.000	-0.017	0.183
-587.909	-114.524	-0.113	-0.022
-586.894	-129.460	-0.142	-0.020
-585.879	-200.000	0.010	-0.273
-584.865	74.733	-0.161	0.170
-583.850	800.000	-0.040	0.144
-582.836	-200.000	0.019	-0.205
-581.821	-64.499	-0.371	-0.151
-580.806	-200.000	0.000	-0.091
-579.792	-167.777	0.323	0.013
-578.777	-200.000	-0.008	-0.179
-577.763	58.948	-0.155	0.153
-576.748	800.000	0.119	-0.378
-575.733	244.184	0.108	0.181
-574.719	-109.188	0.225	-0.048
-573.704	1.070	0.087	-0.062
-572.690	-156.962	-0.407	-0.025
-571.675	236.738	0.107	-0.177
-570.661	-200.000	-0.042	0.293
-569.646	800.000	0.048	-0.134
-568.631	-120.366	0.077	-0.013
-567.617	109.077	0.026	0.031
-566.602	-32.974	-0.052	-0.029
-565.588	-200.000	-0.011	0.256
-564.573	-198.430	-0.260	0.001
-563.558	-54.638	-0.050	-0.023
-562.544	-62.041	-0.126	0.053
-561.529	183.695	-0.177	0.262
-560.515	-142.017	0.141	0.014
-559.500	800.000	0.057	0.220
-558.485	-60.471	0.226	-0.096
-557.471	186.499	0.089	-0.132
-556.456	-45.103	-0.027	-0.013
-555.442	-200.000	-0.077	0.543
-554.427	9.794	0.324	0.246
-553.412	-124.493	-0.599	-0.093
-552.398	-133.658	0.145	-0.018
-551.383	40.883	0.360	-0.325
-550.369	-200.000	0.014	0.138
-549.354	-153.510	-0.238	0.016
-548.339	-54.032	-0.212	0.097
-547.325	329.259	-0.210	0.403
-546.310	-200.000	0.053	0.332
-545.296	-200.000	-0.014	0.240
-544.281	-200.000	0.012	-0.123
-543.266	476.941	0.096	-0.217
-542.252	150.239	0.060	-0.082
-541.237	-200.000	-0.010	0.061
-540.223	-0.267	-0.382	-0.272
-539.208	-200.000	-0.003	0.042
-538.193	-200.000	0.008	-0.196
-537.179	800.000	0.008	-0.033
-536.164	800.000	0.115	0.361
-535.150	342.839	-0.131	-0.257
-534.135	-108.417	0.410	-0.088
-533.121	800.000	0.131	-0.545
-532.106	-200.000	0.041	-0.543
-531.091	548.097	-0.047	0.112
-530.077	-137.086	-0.589	0.067
-529.062	148.002	-0.077	0.104
-528.048	0.650	0.149	0.107
-527.033	-152.776	0.181	-0.013
-526.018	108.477	0.072	-0.085
-525.004	-68.960	-0.292	-0.113
-523.989	126.908	0.075	0.095
-522.975	57.541	-0.237	0.231
-521.960	-62.598	-0.299	0.124
-520.945	-108.636	0.162	-0.035
-519.931	106.186	-0.239	0.282
-518.916	25.233	-0.102	0.085
-517.902	78.034	-0.080	-0.085
-516.887	-109.718	0.164	-0.034
-515.872	800.000	-0.114	0.387
-514.858	-34.365	-0.141	0.077
-513.843	173.720	0.232	-0.335
-512.829	-46.862	-0.208	0.102
-511.814	-200.000	-0.002	0.322
-510.799	42.752	0.088	0.080
-509.785	-200.000	-0.034	-0.236
-508.770	-169.559	-0.134	-0.005
-507.756	-200.000	0.002	0.176
-506.741	31.768	0.370	0.318
-505.726	626.473	0.044	0.111
-504.712	146.867	-0.137	-0.184
-503.697	-4.898	-0.308	-0.212
-502.683	-95.983	0.186	-0.049
-501.668	-200.000	-0.090	0.415
-500.653	-200.000	-0.008	0.121
-499.639	-48.221	-0.188	-0.091
-498.624	455.531	-0.135	-0.300
-497.610	-22.007	0.084	-0.051
-496.595	-200.000	0.031	0.222
-495.581	-81.852	-0.192	-0.063
-494.566	-200.000	0.002	0.204
-493.551	-136.960	-0.166	0.019
-492.537	-200.000	0.048	-0.327
-491.522	-128.112	0.275	0.039
-490.508	90.976	-0.138	-0.154
-489.493	783.781	-0.081	0.221
-488.478	44.238	0.175	0.160
-487.464	-26.890	-0.078	-0.046
-486.449	334.292	-0.049	0.096
-485.435	11.362	-0.286	0.218
-484.420	-60.904	0.201	0.085
-483.405	-16.622	0.046	-0.029
-482.391	12.485	0.055	-0.042
-481.376	-26.530	0.178	-0.104
-480.362	-200.000	-0.015	-0.131
-479.347	-73.257	0.070	0.026
-478.332	-31.430	0.191	-0.107
-477.318	-200.000	0.002	0.435
-476.303	-200.000	0.016	-0.109
-475.289	608.880	-0.099	0.246
-474.274	-113.922	-0.224	0.043
-473.259	-102.346	0.339	0.081
-472.245	-200.000	0.007	0.148
-471.230	317.784	-0.089	-0.169
-470.216	-119.337	0.121	0.021
-469.201	53.237	-0.331	0.316
-468.186	121.713	-0.105	0.131
-467.172	36.306	-0.313	0.275
-466.157	101.469	-0.160	-0.186
-465.143	-200.000	-0.049	-0.406
-464.128	55.117	0.158	-0.152
-463.113	259.901	0.083	0.143
-462.099	-23.283	-0.233	-0.140
-461.084	99.631	0.167	-0.193
-460.070	800.000	-0.027	-0.084
-459.055	800.000	0.088	0.309
-458.040	128.208	0.175	0.222
-457.026	30.787	0.211	0.180
-456.011	-169.203	0.216	-0.008
-454.997	800.000	0.106	0.302
-453.982	-200.000	0.185	0.001
-452.968	217.437	0.249	-0.395
-451.953	118.277	-0.237	0.292
-450.938	557.023	-0.078	0.188
-449.924	676.489	-0.077	0.199
-448.909	-200.000	-0.018	0.172
-447.895	-39.325	-0.239	0.125
-446.880	-77.128	-0.354	0.123
-445.865	800.000	0.028	-0.094
-444.851	-87.153	-0.122	0.037
-443.836	9.477	-0.244	0.184
-442.822	364.430	0.080	0.161
-441.807	-200.000	0.044	0.305
-440.792	5.885	-0.174	-0.128
-439.778	-200.000	-0.055	-0.248
-438.763	800.000	-0.036	-0.098
-437.749	49.607	-0.334	-0.313
-436.734	278.038	0.046	0.081
-435.719	75.774	0.057	0.060
-434.705	86.406	-0.303	0.332
-433.690	-47.345	0.261	0.126
-432.676	66.016	0.137	0.138
-431.661	80.734	-0.159	-0.170
-430.646	102.550	0.263	-0.306
-429.632	51.986	-0.110	-0.105
-428.617	348.870	-0.076	-0.150
-427.603	560.031	0.132	-0.317
-426.588	228.719	0.114	-0.185
-425.573	-36.650	-0.266	-0.142
-424.559	706.933	-0.205	0.539
-423.544	-200.000	0.012	0.261
-422.530	800.000	-0.069	0.237
-421.515	800.000	0.080	-0.251
-420.500	572.558	-0.084	0.204
-419.486	-133.773	-0.179	-0.022
-418.471	195.467	0.060	-0.091
-417.457	37.297	0.125	0.110
-416.442	254.907	0.166	0.282
-415.428	528.955	0.051	0.119
-414.413	222.549	0.054	-0.086
-413.398	31.870	-0.328	0.281
-412.384	115.263	-0.114	-0.139
-411.369	-157.118	0.215	-0.013
-410.355	-80.300	0.236	-0.079
-409.340	-168.358	-0.205	-0.008
-408.325	111.403	0.115	0.138
-407.311	-162.320	-0.109	0.005
-406.296	-117.290	-0.365	-0.066
-405.282	79.724	-0.028	0.029
-404.267	-190.836	-0.312	0.003
-403.252	518.330	-0.024	0.056
-402.238	-66.992	-0.099	0.039
-401.223	-200.000	0.018	0.104
-400.209	800.000	0.036	0.104
-399.194	800.000	-0.092	-0.347
-398.179	800.000	0.066	-0.200
-397.165	251.173	-0.082	-0.138
-396.150	-92.330	-0.041	-0.011
-395.136	800.000	-0.010	0.042
-394.121	121.303	0.119	-0.147
-393.106	-73.284	-0.158	0.058
-392.092	-7.246	-0.131	0.088
-391.077	-88.981	0.223	0.066
-390.063	-108.363	-0.267	-0.057
-389.048	11.646	0.211	0.161
-388.033	-25.332	0.371	0.218
-387.019	-67.216	0.095	0.037
-386.004	-24.708	0.196	-0.116
-384.990	221.471	0.270	-0.431
-383.975	-200.000	0.028	-0.200
-382.960	87.861	-0.228	0.252
-381.946	-200.000	0.007	-0.184
-380.931	800.000	-0.022	0.092
-379.917	-62.346	0.322	-0.133
-378.902	-200.000	-0.007	-0.030
-377.888	800.000	0.046	0.182
-376.873	800.000	-0.072	-0.215
-375.858	331.429	-0.062	0.119
-374.844	800.000	0.037	-0.142
-373.829	-21.810	0.203	-0.122
-372.815	108.309	-0.041	-0.049
-371.800	48.601	-0.132	0.123
-370.785	-16.076	0.274	-0.173
-369.771	-200.000	0.016	-0.071
-368.756	-150.864	0.213	0.016
-367.742	1.370	-0.135	-0.096
-366.727	245.295	-0.097	-0.162
-365.712	257.612	0.118	-0.202
-364.698	66.629	-0.156	-0.157
-363.683	-200.000	-0.001	-0.103
-362.669	-140.510	0.148	0.015
-361.654	41.184	-0.267	0.240
-360.639	800.000	-0.084	0.317
-359.625	-4.453	-0.113	-0.078
-358.610	-40.821	0.055	-0.028
-357.596	-41.553	-0.261	-0.133
-356.581	-59.600	-0.190	-0.081
-355.566	-200.000	-0.001	-0.139
-354.552	-71.456	0.170	-0.063
-353.537	-200.000	0.052	0.229
-352.523	-88.799	-0.184	-0.054
-351.508	800.000	-0.103	-0.370
-350.493	800.000	-0.114	0.405
-349.479	-21.555	-0.163	-0.098
-348.464	114.360	0.322	-0.389
-347.450	24.083	0.225	-0.184
-346.435	582.283	0.056	-0.135
-345.420	-35.926	0.162	-0.087
-344.406	-95.505	0.182	-0.048
-343.391	-59.507	-0.071	-0.030
-342.377	-33.768	-0.385	-0.211
-341.362	-61.698	0.483	-0.201
-340.348	-89.311	-0.127	-0.037
-339.333	192.702	-0.163	0.244
-338.318	-90.529	0.292	-0.084
-337.304	-59.717	-0.109	0.046
-336.289	-200.000	-0.005	0.203
-335.275	-64.998	0.554	0.222
-334.260	-79.431	-0.302	0.101
-333.245	800.000	-0.172	-0.505
-332.231	89.984	-0.141	0.156
-331.216	29.069	0.083	0.070
-330.202	234.191	0.040	0.065
-329.187	128.997	-0.150	-0.189
-328.172	15.689	-0.158	-0.123
-327.158	544.619	0.077	-0.182
-326.143	137.021	-0.212	-0.275
-325.129	-70.553	0.115	0.043
-324.114	-200.000	-0.016	-0.305
-323.099	225.674	0.129	0.208
-322.085	60.019	0.103	-0.101
-321.070	-24.422	-0.367	0.217
-320.056	800.000	0.021	0.074
-319.041	88.410	-0.213	0.234
-318.026	-131.837	0.260	0.034
-317.012	157.064	-0.043	0.059
-315.997	367.259	0.120	-0.239
-314.983	-111.736	-0.288	0.058
-313.968	30.752	0.220	0.186
-312.953	-200.000	0.004	-0.195
-311.939	-54.751	-0.362	-0.162
-310.924	-110.946	0.155	0.032
-309.910	-200.000	-0.046	0.325
-308.895	-120.945	-0.127	0.021
-307.880	-135.257	0.068	-0.008
-306.866	800.000	-0.072	0.247
-305.851	27.060	0.126	0.104
-304.837	-200.000	-0.096	0.424
-303.822	164.600	0.184	0.257
-302.807	17.759	-0.400	0.315
-301.793	356.246	-0.075	0.148
-300.778	204.153	0.161	0.247
-299.764	800.000	0.048	0.154
-298.749	434.365	0.127	-0.273
-297.735	79.950	0.099	0.106
-296.720	-134.936	0.285	0.034
-295.705	-200.000	0.034	-0.394
-294.691	24.667	-0.113	0.093
-293.676	-62.895	0.092	-0.037
-292.662	63.569	-0.066	-0.066
-291.647	136.790	0.340	-0.439
-290.632	-37.631	0.048	-0.025
-289.618	-114.426	0.181	-0.035
-288.603	-101.562	-0.309	-0.074
-287.589	800.000	0.028	0.112
-286.574	-75.057	0.125	-0.044
-285.559	-28.203	0.280	-0.160
-284.545	14.636	0.092	-0.071
-283.530	-21.583	-0.280	0.169
-282.516	-17.427	0.205	0.128
-281.501	-200.000	-0.074	-0.340
-280.486	-101.445	-0.231	0.056
-279.472	-139.661	0.249	-0.026
-278.457	-140.518	-0.166	0.017
-277.443	111.155	0.114	-0.136
-276.428	470.362	0.089	-0.199
-275.413	60.146	0.024	-0.023
-274.399	-75.993	0.107	-0.038
-273.384	-23.205	0.480	-0.286
-272.370	-200.000	0.039	-0.278
-271.355	-10.537	0.143	0.094
-270.340	159.083	0.072	-0.099
-269.326	-200.000	-0.018	0.199
-268.311	8.853	0.135	-0.101
-267.297	-26.438	0.085	0.049
-266.282	800.000	-0.121	-0.394
-265.267	-200.000	-0.014	0.115
-264.253	-100.998	-0.378	0.092
-263.238	-11.925	0.179	0.116
-262.224	-200.000	0.013	-0.132
-261.209	196.236	0.127	0.191
-260.195	286.204	0.087	-0.156
-259.180	137.681	0.139	0.180
-258.165	210.655	-0.155	0.240
-257.151	-163.012	0.151	-0.007
-256.136	134.634	0.011	-0.015
-255.122	-165.814	0.029	0.001
-254.107	-89.952	-0.234	-0.067
-253.092	174.987	-0.141	0.202
-252.078	-200.000	-0.058	-0.300
-251.063	-101.685	-0.287	0.069
-250.049	800.000	0.074	-0.203
-249.034	-181.724	0.466	-0.009
-248.019	-200.000	-0.029	0.296
-247.005	36.606	0.188	-0.164
-245.990	-90.872	0.070	0.020
-244.976	-141.069	-0.317	0.032
-243.961	-30.716	0.212	0.119
-242.946	-20.079	-0.186	-0.113
-241.932	-16.240	0.111	-0.070
-240.917	-102.892	0.159	0.037
-239.903	-152.488	-0.565	-0.040
-238.888	176.431	0.106	-0.152
-237.873	-8.747	-0.046	-0.030
-236.859	180.122	0.122	0.177
-235.844	732.332	0.139	0.367
-234.830	800.000	0.041	-0.153
-233.815	800.000	-0.039	-0.134
-232.800	-107.440	0.275	0.060
-231.786	218.226	-0.180	-0.283
-230.771	150.841	0.140	0.188
-229.757	-90.472	-0.132	-0.038
-228.742	182.265	0.207	0.302
-227.727	501.481	-0.099	0.226
-226.713	-149.516	0.294	-0.023
-225.698	507.760	0.119	-0.273
-224.684	-44.200	0.335	0.166
-223.669	562.047	-0.114	-0.273
-222.655	358.430	-0.073	0.145
-221.640	1.478	0.150	0.107
-220.625	739.150	0.030	0.080
-219.611	-19.755	0.248	-0.151
-218.596	-200.000	0.007	0.204
-217.582	-70.490	0.158	0.059
-216.567	16.367	-0.112	0.088
-215.552	362.785	0.051	-0.101
-214.538	-200.000	-0.017	-0.116
-213.523	-200.000	0.004	-0.190
-212.509	-67.521	0.178	0.069
-211.494	-41.343	0.114	-0.058
-210.479	-89.505	0.120	-0.035
-209.465	401.531	-0.083	0.173
-208.450	-200.000	0.004	0.205
-207.436	-46.536	0.195	-0.094
-206.421	-47.481	-0.250	0.120
-205.406	-124.914	0.237	-0.036
-204.392	246.126	-0.143	-0.238
-203.377	-200.000	-0.001	-0.095
-202.363	-200.000	0.023	-0.158
-201.348	21.021	0.134	0.107
-200.333	197.935	0.130	0.196
-199.319	-200.000	0.205	0.001
-198.304	131.578	-0.139	0.177
-197.290	198.421	-0.031	0.046
-196.275	-99.286	-0.401	0.100
-195.260	111.614	-0.126	0.150
-194.246	289.705	-0.060	0.107
-193.231	-200.000	-0.018	-0.122
-192.217	-35.310	-0.239	0.128
-191.202	-96.814	0.469	0.121
-190.187	73.020	-0.104	-0.107
-189.173	-41.842	0.332	-0.168
-188.158	-70.803	0.040	-0.015
-187.144	-200.000	0.003	0.055
-186.129	441.217	-0.113	0.243
-185.114	-75.695	0.290	0.101
-184.100	12.543	0.262	-0.199
-183.085	-167.179	0.067	-0.003
-182.071	332.704	0.155	-0.296
-181.056	-67.705	-0.160	-0.062
-180.042	350.410	-0.242	0.471
-179.027	-128.397	0.174	-0.024
-178.012	580.666	-0.026	-0.063
-176.998	-200.000	-0.010	0.403
-175.983	800.000	-0.064	-0.228
-174.969	800.000	-0.017	0.052
-173.954	-91.704	-0.087	0.025
-172.939	111.230	0.134	-0.159
-171.925	-200.000	0.010	0.076
-170.910	95.276	-0.164	0.184
-169.896	-16.778	0.162	-0.101
-168.881	-98.796	0.211	-0.053
-167.866	-200.000	0.016	-0.078
-166.852	-200.000	0.006	-0.159
-165.837	455.946	0.101	0.222
-164.823	-81.563	0.139	0.045
-163.808	9.261	0.096	0.071
-162.793	-144.135	0.132	-0.012
-161.779	-43.982	-0.208	-0.103
-160.764	-107.733	-0.208	0.045
-159.750	256.291	0.142	0.240
-158.735	-19.696	-0.163	0.100
-157.720	-200.000	0.005	-0.119
-156.706	-98.386	-0.275	0.069
-155.691	11.127	0.140	-0.105
-154.677	-42.205	0.183	-0.092
-153.662	29.162	0.113	-0.095
-152.647	-200.000	0.015	0.118
-151.633	44.021	-0.103	-0.093
-150.618	205.919	0.086	0.131
-149.604	800.000	-0.152	0.435
-148.589	13.763	-0.312	0.239
-147.574	-96.449	-0.328	0.085
-146.560	48.429	0.082	-0.075
-145.545	-169.239	-0.162	-0.006
-144.531	-12.763	-0.192	0.123
-143.516	-200.000	0.046	0.365
-142.502	-21.583	-0.099	-0.059
-141.487	-49.035	-0.131	0.062
-140.472	65.464	-0.032	-0.031
-139.458	-60.410	0.357	-0.149
-138.443	-30.520	0.109	-0.061
-137.429	-174.896	0.138	-0.004
-136.414	-55.866	-0.187	-0.082
-135.399	-200.000	0.005	-0.079
-134.385	-2.213	0.187	0.129
-133.370	-200.000	-0.009	-0.295
-132.356	-29.723	-0.275	0.154
-131.341	576.924	0.025	0.060
-130.326	38.634	0.087	-0.077
-129.312	35.943	-0.226	-0.195
-128.297	-200.000	-0.253	-0.000
-127.283	97.886	-0.157	0.177
-126.268	35.111	0.075	0.065
-125.253	106.757	0.169	-0.197
-124.239	204.629	0.201	0.306
-123.224	-152.474	0.174	-0.012
-122.210	785.429	0.162	-0.436
