DTS Sentinel unit serial number:	SN413079Multiplexer serial number:	ORYXHardware model number:	OX4-SRSoftware version number:	ORYX F/W v4.00 Oryx Data Collector v3.7.2.0data status	okinstallation	princeton_trtdifferential loss correction	single-endedforward channel	channel 3reverse channel	N/Adate	2019/09/12time	05:58:11forward acquisition time	60.00reverse acquisition time	0.00gamma	496.2192k internal	0.2320k external	0.2320temperature offset calibration	1.0035default loss term (dB/km)	0.3790temperature slope calibration	1.0000multiplexer offset coefficient	1.0000multiplexer slope coefficient	1.0000fibre end	0.00T internal ref (°C)	32.06T ext. ref 1 (°C)	1.56T ext. ref 2 (°C)	27.41length (m)	temperature (°C)	Stokes	anti-Stokes-747.200	135.088	0.211	-0.277
-746.185	-0.302	-0.134	-0.096
-745.171	-200.000	0.028	0.149
-744.156	571.522	-0.151	0.373
-743.142	-89.479	0.325	-0.097
-742.127	121.928	-0.186	0.234
-741.112	-200.000	0.008	0.267
-740.098	-43.546	-0.156	0.080
-739.083	-167.198	-0.379	0.016
-738.069	15.424	0.230	0.183
-737.054	17.950	-0.096	0.077
-736.039	800.000	0.086	0.249
-735.025	372.706	0.100	0.206
-734.010	-85.334	-0.385	0.121
-732.996	-200.000	0.004	0.160
-731.981	-46.285	0.129	0.064
-730.966	-90.020	-0.155	0.046
-729.952	339.542	-0.210	-0.414
-728.937	-200.000	-0.024	-0.183
-727.923	-142.240	0.264	-0.026
-726.908	-65.449	-0.268	-0.109
-725.894	297.040	-0.103	0.191
-724.879	17.301	-0.140	0.112
-723.864	-200.000	-0.026	0.195
-722.850	216.847	0.096	0.155
-721.835	-128.709	-0.069	0.010
-720.821	-200.000	0.049	-0.522
-719.806	665.685	0.066	-0.172
-718.791	-110.208	-0.495	-0.104
-717.777	-200.000	-0.015	0.228
-716.762	-146.920	-0.344	-0.030
-715.748	-175.380	-0.381	-0.011
-714.733	223.167	-0.250	0.407
-713.718	-200.000	-0.178	-0.001
-712.704	-83.278	0.216	-0.070
-711.689	33.722	-0.108	0.094
-710.675	-138.332	0.256	0.029
-709.660	252.769	0.041	0.070
-708.645	76.916	0.029	-0.031
-707.631	-85.762	-0.329	-0.103
-706.616	752.735	-0.133	-0.364
-705.602	-200.000	-0.031	0.176
-704.587	-83.173	-0.176	0.057
-703.572	-49.668	-0.283	0.136
-702.558	83.160	0.138	-0.152
-701.543	234.988	-0.121	0.202
-700.529	518.707	0.174	0.410
-699.514	800.000	-0.018	0.054
-698.499	-32.367	0.239	0.134
-697.485	-188.895	-0.071	0.001
-696.470	558.952	0.119	0.291
-695.456	-67.332	-0.231	-0.092
-694.441	128.791	-0.173	-0.223
-693.426	207.114	0.205	-0.322
-692.412	-92.338	-0.078	-0.022
-691.397	-200.000	-0.041	-0.354
-690.383	23.091	-0.142	0.117
-689.368	45.006	-0.336	-0.313
-688.354	-61.760	0.288	0.122
-687.339	-71.422	0.201	0.076
-686.324	-168.681	-0.288	-0.011
-685.310	413.581	-0.106	0.228
-684.295	-99.369	-0.120	0.031
-683.281	-104.051	0.142	-0.033
-682.266	-190.431	-0.206	-0.002
-681.251	159.322	-0.111	0.155
-680.237	84.138	-0.126	0.139
-679.222	-6.189	0.081	-0.056
-678.208	-200.000	0.083	0.481
-677.193	89.851	-0.371	-0.418
-676.178	800.000	-0.021	-0.066
-675.164	-61.384	0.257	0.109
-674.149	-200.000	0.016	0.071
-673.135	542.358	0.089	0.215
-672.120	-39.432	0.141	0.074
-671.105	-200.000	-0.190	0.000
-670.091	-98.319	-0.397	0.103
-669.076	-42.895	0.171	0.088
-668.062	27.730	0.171	0.145
-667.047	800.000	0.035	0.105
-666.032	-200.000	0.027	0.178
-665.018	-68.341	-0.134	0.053
-664.003	-157.759	0.470	0.028
-662.989	204.102	-0.188	-0.293
-661.974	-120.082	-0.521	0.090
-660.959	28.661	0.124	-0.106
-659.945	190.370	-0.045	0.068
-658.930	-104.153	-0.345	-0.081
-657.916	562.364	-0.185	0.451
-656.901	42.757	0.056	0.052
-655.886	-141.245	0.088	0.009
-654.872	-200.000	0.013	-0.114
-653.857	-200.000	0.031	-0.341
-652.843	274.075	0.107	0.190
-651.828	-167.062	0.104	0.004
-650.814	278.751	-0.060	-0.107
-649.799	185.715	-0.142	-0.213
-648.784	-34.403	0.223	-0.123
-647.770	-42.610	0.237	-0.122
-646.755	-49.571	-0.197	-0.094
-645.741	33.874	0.219	-0.192
-644.726	323.933	0.136	0.262
-643.711	800.000	0.130	0.510
-642.697	-200.000	-0.045	0.251
-641.682	579.495	0.065	0.160
-640.668	243.825	-0.138	0.234
-639.653	87.758	0.196	0.218
-638.638	625.825	-0.036	-0.092
-637.624	-149.401	-0.049	-0.004
-636.609	-124.677	-0.143	0.022
-635.595	-129.220	0.291	0.041
-634.580	-200.000	-0.011	-0.121
-633.565	313.101	0.039	0.074
-632.551	-94.019	-0.128	-0.035
-631.536	138.212	-0.143	-0.188
-630.522	372.709	-0.145	-0.297
-629.507	627.868	0.080	0.203
-628.492	63.874	-0.061	0.061
-627.478	41.441	0.185	-0.168
-626.463	-116.850	0.026	0.005
-625.449	52.340	0.059	-0.057
-624.434	59.999	0.104	-0.103
-623.419	98.008	0.079	-0.091
-622.405	-126.804	-0.394	-0.058
-621.390	44.705	-0.141	-0.131
-620.376	-123.688	-0.265	0.042
-619.361	8.566	0.088	-0.067
-618.346	28.246	0.236	-0.201
-617.332	-200.000	0.018	0.201
-616.317	800.000	0.046	0.139
-615.303	-200.000	0.034	0.240
-614.288	-38.838	0.088	0.046
-613.273	271.452	0.081	-0.143
-612.259	189.724	0.082	0.123
-611.244	37.235	0.071	0.063
-610.230	-36.141	0.336	0.183
-609.215	-63.075	-0.237	-0.098
-608.201	164.847	0.205	0.291
-607.186	-59.767	0.292	0.126
-606.171	55.721	-0.182	-0.177
-605.157	-200.000	-0.013	0.474
-604.142	-200.000	-0.035	-0.343
-603.128	426.615	0.129	-0.279
-602.113	103.479	-0.083	0.098
-601.098	-19.893	0.294	0.182
-600.084	202.005	-0.252	-0.391
-599.069	-142.856	0.207	-0.020
-598.055	-66.786	0.311	-0.124
-597.040	564.005	-0.021	-0.052
-596.025	-13.199	-0.104	0.068
-595.011	800.000	0.176	0.489
-593.996	421.098	-0.140	0.302
-592.982	87.764	-0.095	0.106
-591.967	-33.056	0.058	0.032
-590.952	-155.992	0.438	-0.028
-589.938	42.150	0.121	-0.110
-588.923	-27.412	-0.075	-0.044
-587.909	-24.972	0.190	-0.113
-586.894	-85.394	0.053	-0.017
-585.879	-200.000	-0.008	-0.228
-584.865	-52.852	0.151	-0.070
-583.850	266.634	0.194	0.341
-582.836	-27.408	-0.277	0.162
-581.821	800.000	-0.068	-0.262
-580.806	363.448	-0.117	-0.236
-579.792	800.000	0.066	0.250
-578.777	-200.000	-0.069	-0.340
-577.763	142.029	0.229	-0.305
-576.748	-172.064	-0.362	-0.012
-575.733	-77.420	0.171	0.060
-574.719	-19.556	0.164	-0.102
-573.704	-128.269	-0.266	0.038
-572.690	-200.000	-0.017	0.083
-571.675	-100.610	-0.105	0.026
-570.661	105.818	-0.254	-0.302
-569.646	-93.287	-0.310	-0.086
-568.631	800.000	0.056	0.219
-567.617	-26.842	-0.391	0.230
-566.602	-45.096	-0.070	0.035
-565.588	290.972	-0.138	-0.252
-564.573	256.647	-0.061	-0.106
-563.558	-157.846	0.314	-0.019
-562.544	-93.491	0.217	0.060
-561.529	275.686	-0.158	0.281
-560.515	46.395	-0.173	0.161
-559.500	-200.000	-0.014	0.163
-558.485	-200.000	0.036	0.205
-557.471	141.292	0.164	0.218
-556.456	-25.398	-0.130	0.077
-555.442	-200.000	-0.008	0.310
-554.427	-41.383	-0.182	0.094
-553.412	160.685	-0.120	-0.168
-552.398	-66.349	0.370	0.148
-551.383	-106.071	0.165	0.037
-550.369	62.256	-0.345	0.346
-549.354	-57.762	0.131	-0.058
-548.339	104.978	0.085	0.100
-547.325	-125.023	0.123	0.019
-546.310	-192.036	-0.264	-0.003
-545.296	800.000	0.070	0.300
-544.281	-24.585	0.167	-0.100
-543.266	-200.000	-0.026	0.211
-542.252	5.124	-0.185	0.137
-541.237	130.530	-0.239	-0.307
-540.223	210.409	-0.077	0.122
-539.208	-88.070	0.141	0.043
-538.193	79.808	0.071	-0.077
-537.179	80.171	-0.009	-0.010
-536.164	-78.073	0.468	-0.162
-535.150	-200.000	-0.069	-0.375
-534.135	44.083	0.008	0.007
-533.121	-54.172	0.132	-0.060
-532.106	237.379	0.089	-0.148
-531.091	-44.170	-0.213	-0.107
-530.077	202.268	0.145	0.224
-529.062	21.807	0.223	-0.182
-528.048	-145.369	-0.092	-0.008
-527.033	800.000	0.059	0.226
-526.018	228.883	-0.107	-0.175
-525.004	794.254	0.041	0.114
-523.989	-102.074	0.167	0.040
-522.975	-3.892	-0.188	-0.131
-521.960	-200.000	-0.003	-0.375
-520.945	-57.067	-0.135	0.059
-519.931	-120.120	-0.406	-0.070
-518.916	-200.000	0.062	-0.365
-517.902	431.790	-0.079	0.171
-516.887	34.646	0.196	0.172
-515.872	-128.411	-0.310	0.044
-514.858	78.865	-0.151	-0.162
-513.843	-200.000	0.046	-0.214
-512.829	19.599	-0.121	0.098
-511.814	59.748	-0.132	-0.130
-510.799	230.223	-0.059	0.096
-509.785	800.000	0.020	-0.082
-508.770	59.079	0.117	0.115
-507.756	12.176	0.077	0.059
-506.741	-200.000	0.012	-0.115
-505.726	12.096	0.237	-0.182
-504.712	-61.378	0.226	-0.095
-503.697	-200.000	0.039	0.199
-502.683	-69.266	-0.074	-0.028
-501.668	67.938	-0.092	-0.094
-500.653	81.456	0.047	-0.051
-499.639	-65.001	0.227	-0.092
-498.624	728.587	0.078	0.208
-497.610	-200.000	0.072	0.525
-496.595	-200.000	0.017	0.164
-495.581	169.717	-0.078	0.112
-494.566	-162.745	0.287	0.014
-493.551	370.531	-0.036	-0.073
-492.537	88.285	0.178	-0.198
-491.522	345.205	0.054	0.107
-490.508	-200.000	-0.020	-0.241
-489.493	-115.125	0.165	0.031
-488.478	505.051	0.116	-0.269
-487.464	-87.429	-0.094	-0.029
-486.449	10.339	-0.224	-0.170
-485.435	158.885	0.199	-0.277
-484.420	-69.704	-0.244	0.093
-483.405	35.007	-0.076	0.067
-482.391	-200.000	-0.034	0.429
-481.376	800.000	-0.048	0.180
-480.362	-200.000	0.027	-0.127
-479.347	-38.262	-0.231	0.123
-478.332	383.879	-0.124	0.256
-477.318	800.000	-0.053	0.220
-476.303	18.015	0.144	0.115
-475.289	73.946	0.202	0.212
-474.274	-5.420	-0.111	0.076
-473.259	187.926	-0.143	-0.213
-472.245	324.586	0.186	-0.355
-471.230	-200.000	0.019	0.091
-470.216	614.793	-0.106	-0.265
-469.201	69.851	0.048	-0.049
-468.186	250.621	0.069	0.117
-467.172	-200.000	0.002	0.186
-466.157	-51.517	0.057	0.027
-465.143	64.232	-0.069	-0.070
-464.128	118.685	-0.060	-0.074
-463.113	-200.000	-0.021	0.132
-462.099	800.000	-0.115	-0.370
-461.084	800.000	-0.022	-0.095
-460.070	51.007	0.089	0.084
-459.055	27.930	-0.072	0.061
-458.040	800.000	-0.079	-0.318
-457.026	278.910	-0.068	-0.121
-456.011	25.393	-0.108	0.090
-454.997	251.985	-0.210	0.357
-453.982	-60.838	-0.305	-0.129
-452.968	257.727	0.120	-0.207
-451.953	-13.661	-0.129	-0.084
-450.938	800.000	0.047	-0.135
-449.924	22.341	-0.179	-0.146
-448.909	3.880	0.286	0.209
-447.895	-71.495	0.139	-0.052
-446.880	686.590	0.028	-0.074
-445.865	-85.477	-0.268	-0.084
-444.851	-98.169	0.208	0.054
-443.836	5.843	0.079	0.059
-442.822	800.000	-0.063	0.203
-441.807	65.079	0.185	-0.186
-440.792	2.593	-0.228	-0.165
-439.778	-166.036	0.062	0.003
-438.763	31.874	0.242	-0.209
-437.749	327.503	0.034	0.065
-436.734	-11.957	-0.138	0.090
-435.719	315.791	-0.017	-0.032
-434.705	-71.627	-0.299	-0.112
-433.690	-35.640	0.201	-0.109
-432.676	-124.122	-0.292	0.046
-431.661	800.000	-0.033	-0.112
-430.646	-89.907	-0.387	-0.113
-429.632	-11.587	0.187	0.123
-428.617	352.689	0.071	0.141
-427.603	8.141	0.116	0.087
-426.588	-103.243	-0.274	-0.065
-425.573	-133.528	-0.262	-0.033
-424.559	-107.329	0.242	-0.053
-423.544	-171.181	-0.071	-0.002
-422.530	-138.800	-0.191	-0.021
-421.515	-200.000	-0.028	0.182
-420.500	59.646	-0.235	-0.232
-419.486	-18.858	0.119	0.074
-418.471	800.000	-0.064	-0.280
-417.457	-103.871	-0.101	-0.024
-416.442	-51.515	-0.128	0.060
-415.428	-118.891	0.201	-0.035
-414.413	-200.000	-0.057	0.290
-413.398	11.467	-0.168	0.129
-412.384	800.000	0.030	-0.101
-411.369	-200.000	-0.022	-0.167
-410.355	15.167	-0.266	-0.208
-409.340	-151.896	-0.043	-0.003
-408.325	465.095	-0.072	0.160
-407.311	800.000	0.073	-0.275
-406.296	-156.456	0.036	-0.002
-405.282	75.897	-0.120	0.127
-404.267	-126.375	-0.285	0.042
-403.252	2.002	0.217	0.157
-402.238	-82.685	-0.279	-0.090
-401.223	-59.096	0.147	-0.063
-400.209	-165.558	-0.187	0.008
-399.194	-28.543	0.286	0.164
-398.179	-136.475	0.320	0.037
-397.165	352.150	-0.078	0.155
-396.150	800.000	-0.089	0.256
-395.136	800.000	0.123	0.406
-394.121	25.563	0.400	-0.332
-393.106	-68.557	0.087	0.034
-392.092	50.019	-0.158	-0.149
-391.077	-128.979	-0.339	0.047
-390.063	800.000	0.055	-0.184
-389.048	557.254	-0.064	0.153
-388.033	-188.167	0.300	0.004
-387.019	-200.000	-0.024	-0.134
-386.004	5.711	0.178	-0.131
-384.990	81.068	-0.246	-0.265
-383.975	-200.000	0.006	-0.251
-382.960	800.000	0.054	-0.155
-381.946	-200.000	0.005	-0.120
-380.931	151.513	-0.218	0.296
-379.917	-102.203	-0.421	0.101
-378.902	53.226	-0.165	-0.157
-377.888	326.410	0.060	-0.115
-376.873	240.627	0.152	0.252
-375.858	-97.575	-0.425	0.110
-374.844	-61.883	0.262	0.109
-373.829	-187.059	-0.181	0.002
-372.815	701.830	0.065	-0.170
-371.800	-9.514	-0.104	0.069
-370.785	-39.361	-0.104	-0.055
-369.771	96.748	0.123	0.141
-368.756	-56.051	0.132	0.058
-367.742	800.000	0.033	-0.114
-366.727	-102.560	0.207	0.049
-365.712	240.217	0.073	0.121
-364.698	800.000	-0.086	-0.245
-363.683	-171.311	0.034	0.001
-362.669	-24.125	-0.176	0.105
-361.654	-200.000	0.028	0.220
-360.639	394.353	0.124	-0.257
-359.625	-200.000	-0.004	0.245
-358.610	219.093	0.079	-0.125
-357.596	-21.437	0.029	0.018
-356.581	-69.920	-0.228	-0.087
-355.566	-200.000	0.060	0.310
-354.552	114.838	0.095	0.115
-353.537	19.292	0.160	0.128
-352.523	757.400	-0.063	0.169
-351.508	-9.884	-0.076	-0.050
-350.493	103.653	0.317	0.371
-349.479	292.308	-0.094	0.170
-348.464	-145.093	-0.200	0.018
-347.450	-14.968	-0.194	-0.124
-346.435	-88.725	0.238	-0.070
-345.420	-103.535	0.026	-0.006
-344.406	-95.605	-0.159	-0.042
-343.391	-33.259	-0.419	0.231
-342.377	-112.926	0.147	-0.029
-341.362	-27.487	-0.100	0.058
-340.348	116.107	-0.059	0.073
-339.333	-45.830	-0.243	-0.119
-338.318	-22.284	0.049	0.030
-337.304	-177.266	0.263	0.006
-336.289	445.241	0.104	-0.227
-335.275	223.710	-0.298	-0.478
-334.260	800.000	0.090	-0.281
-333.245	162.969	0.160	-0.223
-332.231	-200.000	0.003	-0.143
-331.216	-200.000	-0.034	0.212
-330.202	-121.582	-0.257	0.042
-329.187	-200.000	-0.046	0.231
-328.172	-2.011	0.110	-0.077
-327.158	-188.612	0.202	0.002
-326.143	-132.014	0.106	0.014
-325.129	-12.544	-0.127	0.083
-324.114	-155.316	0.333	-0.022
-323.099	-103.411	0.394	-0.092
-322.085	-38.653	-0.221	-0.116
-321.070	-126.282	-0.105	0.016
-320.056	-160.537	-0.334	0.018
-319.041	-66.502	-0.131	-0.052
-318.026	800.000	0.104	0.408
-317.012	20.546	0.290	-0.233
-315.997	-200.000	-0.003	-0.180
-314.983	302.586	-0.115	0.211
-313.968	800.000	0.087	0.345
-312.953	-200.000	0.031	0.186
-311.939	367.718	-0.100	0.201
-310.924	29.526	0.086	0.072
-309.910	-15.789	0.431	-0.273
-308.895	140.252	0.179	-0.234
-307.880	563.292	0.095	-0.229
-306.866	-162.726	0.159	-0.008
-305.851	-84.836	-0.145	0.045
-304.837	110.876	0.052	0.062
-303.822	800.000	-0.068	-0.190
-302.807	-122.877	0.336	0.054
-301.793	-112.961	0.145	-0.028
-300.778	-87.454	0.331	0.099
-299.764	179.054	0.122	-0.177
-298.749	800.000	0.145	0.397
-297.735	-16.654	0.024	0.015
-296.720	583.276	-0.131	-0.321
-295.705	-3.190	-0.140	-0.097
-294.691	-52.430	-0.156	-0.072
-293.676	73.930	0.032	-0.034
-292.662	734.090	-0.035	0.092
-291.647	-123.486	-0.155	0.024
-290.632	-40.138	0.328	0.170
-289.618	377.338	-0.144	-0.291
-288.603	-200.000	0.008	0.199
-287.589	-54.995	-0.322	0.144
-286.574	-11.080	0.162	-0.106
-285.559	-200.000	0.018	0.260
-284.545	800.000	0.050	-0.208
-283.530	31.984	0.152	-0.130
-282.516	419.897	-0.066	-0.140
-281.501	-27.517	0.332	-0.192
-280.486	-57.068	0.082	-0.036
-279.472	-23.105	0.420	-0.251
-278.457	-10.679	0.269	0.176
-277.443	-10.820	-0.168	0.110
-276.428	-9.999	-0.224	0.148
-275.413	56.684	0.030	-0.029
-274.399	-28.969	-0.181	-0.103
-273.384	800.000	-0.073	0.284
-272.370	-174.869	-0.124	-0.003
-271.355	100.200	0.303	0.349
-270.340	-200.000	0.007	-0.035
-269.326	-95.303	0.239	-0.064
-268.311	-25.731	-0.111	-0.065
-267.297	279.699	0.108	0.192
-266.282	34.155	-0.227	0.196
-265.267	104.849	-0.063	0.074
-264.253	-49.503	-0.297	-0.140
-263.238	-26.343	0.288	-0.167
-262.224	215.975	-0.215	-0.340
-261.209	502.050	-0.233	0.535
-260.195	258.081	-0.123	0.211
-259.180	800.000	-0.076	-0.312
-258.165	180.171	0.062	0.090
-257.151	-85.617	0.227	-0.070
-256.136	800.000	0.051	0.153
-255.122	-25.173	-0.153	-0.090
-254.107	90.807	-0.132	-0.146
-253.092	800.000	0.138	0.426
-252.078	5.675	-0.062	0.045
-251.063	800.000	0.037	-0.131
-250.049	299.164	0.062	0.113
-249.034	634.357	-0.055	0.139
-248.019	-200.000	0.098	-0.000
-247.005	306.574	-0.068	0.125
-245.990	78.537	-0.211	-0.224
-244.976	202.415	-0.097	-0.148
-243.961	-18.842	-0.194	0.120
-242.946	-200.000	-0.008	0.052
-241.932	800.000	0.055	-0.209
-240.917	-22.149	0.080	0.048
-239.903	-49.582	0.224	-0.106
-238.888	-200.000	0.008	-0.240
-237.873	-84.985	-0.242	0.075
-236.859	-29.018	-0.267	0.152
-235.844	-172.751	0.188	-0.006
-234.830	30.963	-0.069	-0.059
-233.815	-110.047	0.398	0.083
-232.800	71.471	0.082	-0.085
-231.786	613.439	0.063	0.156
-230.771	-200.000	0.031	-0.197
-229.757	521.098	0.041	0.095
-228.742	302.497	-0.213	-0.390
-227.727	168.013	-0.101	-0.142
-226.713	800.000	-0.104	0.298
-225.698	-27.353	0.114	0.066
-224.684	-107.136	-0.217	-0.047
-223.669	-200.000	0.003	-0.236
-222.655	86.629	-0.078	-0.085
-221.640	-21.593	0.239	-0.144
-220.625	-87.473	-0.033	0.010
-219.611	800.000	-0.030	-0.124
-218.596	-40.270	-0.411	0.212
-217.582	-200.000	0.018	0.079
-216.567	549.664	-0.114	-0.272
-215.552	54.401	0.122	-0.116
-214.538	283.990	-0.065	0.115
-213.523	-200.000	-0.014	-0.084
-212.509	118.384	0.174	-0.212
-211.494	-200.000	0.049	-0.296
-210.479	-200.000	0.000	-0.039
-209.465	-200.000	0.048	-0.248
-208.450	-129.978	0.174	0.024
-207.436	259.217	-0.063	0.108
-206.421	-59.398	-0.192	-0.082
-205.406	265.738	0.057	-0.098
-204.392	727.345	0.011	-0.028
-203.377	-131.967	0.367	-0.047
-202.363	800.000	0.068	0.275
-201.348	-44.988	-0.235	-0.116
-200.333	-4.707	0.266	-0.182
-199.319	-98.632	-0.231	0.058
-198.304	-106.970	-0.240	0.052
-197.290	800.000	0.068	-0.279
-196.275	115.664	0.247	0.299
-195.260	-98.152	0.148	0.038
-194.246	-69.318	0.041	0.016
-193.231	93.784	-0.119	0.134
-192.217	-200.000	-0.077	-0.349
-191.202	-200.000	-0.044	-0.285
-190.187	538.760	-0.065	0.154
-189.173	800.000	0.074	-0.214
-188.158	-42.443	0.222	0.112
-187.144	-89.946	-0.452	-0.131
-186.129	-140.025	-0.295	-0.031
-185.114	123.287	-0.063	-0.078
-184.100	-46.586	-0.178	-0.086
-183.085	-167.506	-0.119	0.005
-182.071	60.654	-0.144	0.141
-181.056	800.000	0.123	0.340
-180.042	-200.000	-0.049	0.328
-179.027	4.598	0.138	0.100
-178.012	70.309	0.101	0.103
-176.998	-200.000	-0.024	-0.144
-175.983	50.812	0.092	0.086
-174.969	-178.930	0.111	0.002
-173.954	-200.000	-0.020	-0.222
-172.939	580.701	-0.049	-0.118
-171.925	1.394	-0.199	-0.142
-170.910	-57.793	-0.278	-0.120
-169.896	-7.602	0.242	0.162
-168.881	-200.000	-0.054	0.305
-167.866	800.000	-0.069	0.232
-166.852	-31.984	0.015	-0.008
-165.837	80.047	-0.151	-0.160
-164.823	-200.000	-0.006	0.150
-163.808	-165.460	0.265	-0.011
-162.793	288.762	0.109	-0.196
-161.779	-118.687	-0.078	0.014
-160.764	157.343	-0.038	0.052
-159.750	144.321	0.199	0.262
-158.735	66.002	-0.071	-0.071
-157.720	-132.983	-0.115	-0.014
-156.706	190.062	0.286	-0.424
-155.691	35.553	-0.121	0.105
-154.677	-115.096	0.221	0.041
-153.662	-200.000	0.033	0.352
-152.647	-90.860	0.130	0.037
-151.633	-200.000	-0.023	0.147
-150.618	-28.543	-0.229	-0.131
-149.604	-160.944	-0.249	-0.013
-148.589	104.970	-0.138	0.161
-147.574	26.792	-0.227	-0.188
-146.560	-92.520	-0.324	-0.090
-145.545	-98.046	0.312	-0.079
-144.531	391.107	-0.051	-0.104
-143.516	800.000	-0.008	-0.030
-142.502	800.000	-0.088	0.282
-141.487	-115.775	-0.329	0.061
-140.472	506.364	0.188	0.431
-139.458	-14.109	-0.192	0.123
-138.443	-99.115	0.051	0.013
-137.429	744.830	-0.086	0.229
-136.414	21.536	0.303	0.243
-135.399	-117.339	0.074	0.013
-134.385	333.254	0.157	0.299
-133.370	12.439	-0.209	0.159
-132.356	152.636	0.104	-0.140
-131.341	214.526	-0.076	0.119
-130.326	-200.000	-0.003	0.084
-129.312	-200.000	0.004	0.100
-128.297	35.316	-0.040	0.035
-127.283	64.400	0.270	0.268
-126.268	-200.000	-0.011	-0.136
-125.253	-151.687	-0.239	-0.017
-124.239	372.265	-0.208	0.418
-123.224	-50.207	0.135	0.063
-122.210	-200.000	-0.008	-0.113
-121.195	-11.767	-0.319	-0.207
-120.180	247.911	-0.104	-0.174
