DTS Sentinel unit serial number:	SN413079Multiplexer serial number:	ORYXHardware model number:	OX4-SRSoftware version number:	ORYX F/W v4.00 Oryx Data Collector v3.7.2.0data status	okinstallation	princeton_trtdifferential loss correction	single-endedforward channel	channel 3reverse channel	N/Adate	2019/09/10time	17:14:11forward acquisition time	60.00reverse acquisition time	0.00gamma	496.2192k internal	0.2298k external	0.2298temperature offset calibration	0.9910default loss term (dB/km)	0.3790temperature slope calibration	1.0000multiplexer offset coefficient	1.0000multiplexer slope coefficient	1.0000fibre end	0.00T internal ref (°C)	37.62T ext. ref 1 (°C)	-0.35T ext. ref 2 (°C)	32.07length (m)	temperature (°C)	Stokes	anti-Stokes-747.200	-73.548	-0.132	-0.049
-746.185	800.000	-0.044	0.134
-745.171	-117.360	-0.115	-0.021
-744.156	-87.545	-0.241	-0.074
-743.142	800.000	-0.048	-0.151
-742.127	-200.000	-0.013	0.208
-741.112	34.197	0.072	0.064
-740.098	93.207	-0.331	0.383
-739.083	-200.000	0.028	0.327
-738.069	-200.000	0.018	0.153
-737.054	-26.933	0.018	-0.011
-736.039	-115.895	-0.213	-0.041
-735.025	-127.679	-0.092	-0.014
-734.010	-119.798	-0.227	-0.040
-732.996	-200.000	-0.009	0.164
-731.981	-29.902	-0.100	0.058
-730.966	20.846	0.198	0.164
-729.952	800.000	-0.046	0.183
-728.937	-35.535	0.151	0.084
-727.923	-37.237	-0.190	-0.104
-726.908	800.000	0.029	-0.128
-725.894	795.555	-0.031	0.086
-724.879	108.921	-0.130	-0.158
-723.864	-200.000	-0.067	-0.318
-722.850	-59.279	0.085	0.037
-721.835	800.000	-0.067	0.262
-720.821	-133.347	0.231	0.030
-719.806	36.063	0.185	-0.166
-718.791	800.000	-0.090	-0.311
-717.777	-28.877	-0.177	0.104
-716.762	755.603	0.080	-0.219
-715.748	-134.999	0.146	-0.018
-714.733	-89.920	-0.218	0.065
-713.718	142.461	-0.140	-0.190
-712.704	-141.078	0.121	0.013
-711.689	-49.484	0.105	-0.051
-710.675	-53.464	-0.431	-0.201
-709.660	-138.532	0.248	-0.028
-708.645	-91.989	0.195	-0.056
-707.631	-200.000	-0.008	0.184
-706.616	-200.000	-0.045	0.409
-705.602	446.848	0.134	-0.301
-704.587	-116.509	-0.111	0.021
-703.572	53.658	-0.099	-0.097
-702.558	-13.952	0.249	-0.164
-701.543	-77.927	0.145	0.051
-700.529	-80.015	0.084	-0.029
-699.514	279.207	0.091	0.166
-698.499	97.387	0.167	-0.195
-697.485	130.291	0.175	0.228
-696.470	-167.029	-0.201	0.008
-695.456	-200.000	-0.018	0.173
-694.441	446.625	0.107	-0.240
-693.426	-115.994	0.195	-0.037
-692.412	800.000	-0.047	0.152
-691.397	-189.438	0.201	-0.002
-690.383	61.897	-0.186	-0.188
-689.368	-78.562	-0.163	0.057
-688.354	-95.805	-0.269	0.073
-687.339	274.840	-0.055	0.099
-686.324	-70.809	-0.302	-0.116
-685.310	13.720	-0.374	-0.296
-684.295	117.488	-0.101	-0.126
-683.281	-200.000	-0.028	-0.229
-682.266	35.386	-0.204	-0.182
-681.251	-130.023	0.324	0.045
-680.237	-129.913	0.480	0.067
-679.222	1.405	0.209	0.153
-678.208	-35.792	-0.214	-0.118
-677.193	800.000	-0.037	-0.106
-676.178	-53.466	-0.126	-0.059
-675.164	-153.851	0.277	-0.019
-674.149	10.637	0.119	-0.092
-673.135	579.412	0.067	-0.168
-672.120	-58.442	-0.142	-0.063
-671.105	-200.000	-0.006	-0.056
-670.091	45.552	-0.097	-0.091
-669.076	-61.485	-0.292	-0.125
-668.062	-132.816	0.060	0.008
-667.047	-105.448	0.295	-0.068
-666.032	-118.427	0.094	0.017
-665.018	800.000	-0.033	0.124
-664.003	-200.000	-0.071	0.342
-662.989	-40.155	-0.488	0.259
-661.974	-75.852	-0.186	-0.067
-660.959	-186.518	0.121	0.002
-659.945	-200.000	-0.074	0.432
-658.930	298.858	-0.069	-0.129
-657.916	-200.000	-0.007	-0.163
-656.901	205.887	0.133	0.210
-655.886	-116.076	-0.125	0.024
-654.872	-140.979	0.250	0.026
-653.857	-94.606	0.050	0.014
-652.843	213.967	0.168	-0.270
-651.828	230.224	0.177	-0.295
-650.814	231.353	-0.033	-0.055
-649.799	-93.243	-0.344	-0.097
-648.784	-4.301	-0.184	0.129
-647.770	800.000	-0.079	0.293
-646.755	27.243	-0.076	0.065
-645.741	323.538	0.083	-0.161
-644.726	-200.000	-0.043	0.243
-643.711	-25.736	0.154	0.092
-642.697	-59.718	-0.535	-0.233
-641.682	-182.038	0.094	0.002
-640.668	-200.000	0.025	0.159
-639.653	-200.000	-0.074	0.365
-638.638	148.265	-0.018	0.024
-637.624	-46.755	0.194	0.097
-636.609	247.420	-0.168	-0.289
-635.595	-104.225	-0.024	-0.006
-634.580	205.719	-0.147	-0.232
-633.565	138.326	-0.130	0.174
-632.551	187.851	0.142	0.216
-631.536	-84.322	-0.405	-0.130
-630.522	2.170	0.206	0.151
-629.507	-153.682	0.324	-0.023
-628.492	800.000	0.075	-0.249
-627.478	-110.372	0.210	0.044
-626.463	81.372	-0.221	-0.243
-625.449	-24.500	-0.358	-0.217
-624.434	-66.234	0.083	0.034
-623.419	70.050	-0.091	-0.095
-622.405	800.000	0.070	0.223
-621.390	-139.146	0.136	-0.015
-620.376	-102.315	0.130	0.032
-619.361	-89.157	0.434	-0.130
-618.346	296.057	0.027	0.051
-617.332	-37.220	-0.119	0.065
-616.317	-200.000	-0.010	-0.180
-615.303	113.121	0.172	-0.212
-614.288	738.364	-0.114	0.310
-613.273	-18.627	-0.033	-0.021
-612.259	800.000	-0.098	-0.280
-611.244	-76.108	-0.077	-0.028
-610.230	-200.000	0.047	-0.225
-609.215	800.000	-0.162	0.568
-608.201	25.017	-0.214	0.181
-607.186	-200.000	0.062	-0.483
-606.171	189.469	-0.026	0.039
-605.157	-83.834	0.228	-0.074
-604.142	-181.456	-0.292	-0.006
-603.128	19.100	0.147	0.120
-602.113	142.610	-0.055	0.075
-601.098	4.867	-0.151	0.113
-600.084	800.000	0.059	-0.235
-599.069	90.646	-0.062	-0.071
-598.055	251.519	0.080	-0.138
-597.040	-88.053	-0.197	0.060
-596.025	79.260	-0.117	0.127
-595.011	56.697	0.049	-0.048
-593.996	-109.591	0.132	0.028
-592.982	300.145	-0.088	0.164
-591.967	-16.268	0.317	0.204
-590.952	44.678	0.073	-0.068
-589.938	456.190	-0.143	-0.323
-588.923	-114.136	-0.071	-0.014
-587.909	431.657	0.114	0.250
-586.894	-200.000	-0.024	0.198
-585.879	-158.248	0.186	-0.011
-584.865	80.728	0.349	0.382
-583.850	187.952	-0.086	0.131
-582.836	130.143	0.056	0.073
-581.821	-123.661	0.130	0.021
-580.806	384.707	-0.087	0.182
-579.792	384.487	0.052	-0.109
-578.777	-113.307	0.287	-0.057
-577.763	-152.514	-0.276	-0.020
-576.748	69.461	0.167	0.174
-575.733	-176.137	0.283	0.008
-574.719	800.000	0.024	-0.066
-573.704	335.306	0.062	-0.122
-572.690	800.000	0.032	-0.111
-571.675	125.295	-0.127	-0.162
-570.661	800.000	-0.017	-0.063
-569.646	-79.748	-0.275	0.094
-568.631	-159.543	-0.318	-0.018
-567.617	134.323	0.219	-0.288
-566.602	-68.058	0.089	-0.035
-565.588	98.879	0.415	0.485
-564.573	296.339	-0.046	0.086
-563.558	-133.061	-0.142	0.018
-562.544	-157.146	-0.169	0.010
-561.529	747.389	0.022	-0.061
-560.515	28.047	0.374	-0.320
-559.500	-26.636	0.110	-0.065
-558.485	-81.345	0.177	-0.059
-557.471	-41.641	0.166	-0.086
-556.456	-96.087	0.182	0.049
-555.442	-80.953	0.022	-0.007
-554.427	-35.414	-0.126	0.070
-553.412	800.000	0.099	-0.318
-552.398	28.271	0.301	0.257
-551.383	800.000	0.034	0.104
-550.369	-30.140	-0.273	-0.157
-549.354	-140.601	0.256	-0.027
-548.339	-18.759	0.356	-0.225
-547.325	555.433	0.015	0.037
-546.310	348.038	-0.090	0.179
-545.296	292.498	0.133	0.246
-544.281	63.362	-0.095	0.097
-543.266	-200.000	0.010	0.060
-542.252	-151.523	-0.288	-0.022
-541.237	72.739	0.203	-0.214
-540.223	351.729	-0.123	-0.246
-539.208	252.086	-0.083	0.144
-538.193	-50.734	0.365	0.174
-537.179	800.000	-0.073	0.221
-536.164	800.000	0.067	-0.271
-535.150	800.000	0.136	-0.531
-534.135	480.832	-0.228	0.523
-533.121	-134.338	-0.388	0.048
-532.106	22.999	-0.145	0.121
-531.091	800.000	0.087	0.284
-530.077	-41.281	-0.363	-0.189
-529.062	107.389	-0.080	-0.097
-528.048	4.598	0.183	0.136
-527.033	-30.327	0.227	-0.130
-526.018	-9.867	-0.155	0.104
-525.004	-200.000	-0.012	-0.100
-523.989	-74.381	0.463	-0.169
-522.975	159.582	-0.100	-0.140
-521.960	-61.301	0.315	-0.134
-520.945	126.349	-0.126	0.161
-519.931	72.064	-0.323	-0.340
-518.916	-150.413	-0.154	0.012
-517.902	-126.876	0.244	0.036
-516.887	51.313	0.171	0.164
-515.872	520.344	0.047	-0.112
-514.858	737.076	-0.066	-0.179
-513.843	-131.119	-0.422	0.057
-512.829	-50.336	-0.251	-0.120
-511.814	-200.000	0.000	-0.282
-510.799	241.081	-0.038	-0.065
-509.785	-156.252	0.316	0.020
-508.770	-169.498	0.096	0.004
-507.756	102.221	-0.157	-0.185
-506.741	-104.448	0.251	0.059
-505.726	467.247	0.049	0.112
-504.712	-168.063	-0.112	0.004
-503.697	-200.000	0.002	0.062
-502.683	727.110	0.134	0.363
-501.668	149.185	0.026	0.035
-500.653	-99.605	-0.285	0.072
-499.639	-25.508	-0.340	0.203
-498.624	-200.000	-0.035	0.382
-497.610	-200.000	-0.000	0.105
-496.595	-152.605	-0.279	0.020
-495.581	128.351	-0.200	0.257
-494.566	-39.410	-0.246	-0.130
-493.551	-91.289	-0.307	-0.089
-492.537	-200.000	0.012	-0.065
-491.522	4.829	0.224	-0.166
-490.508	-74.041	0.047	0.017
-489.493	79.527	0.008	0.008
-488.478	456.141	-0.158	-0.355
-487.464	-43.839	-0.062	0.032
-486.449	-2.073	-0.184	0.130
-485.435	322.380	0.130	0.251
-484.420	-149.296	-0.072	-0.006
-483.405	-82.601	0.153	0.050
-482.391	-200.000	0.007	-0.064
-481.376	-200.000	-0.051	-0.274
-480.362	800.000	-0.077	0.243
-479.347	-11.441	0.177	-0.117
-478.332	523.271	-0.153	0.362
-477.318	-12.555	-0.191	0.126
-476.303	-40.711	0.149	-0.078
-475.289	99.330	-0.141	0.164
-474.274	151.598	-0.130	0.179
-473.259	-0.446	0.193	0.139
-472.245	18.014	-0.117	0.094
-471.230	252.202	0.089	-0.153
-470.216	-69.496	0.353	-0.137
-469.201	357.837	-0.076	0.154
-468.186	-116.702	-0.169	0.031
-467.172	-68.068	-0.057	0.022
-466.157	-81.044	-0.266	-0.089
-465.143	-174.444	0.185	0.005
-464.128	-162.946	0.351	0.017
-463.113	-124.287	-0.293	0.046
-462.099	674.736	0.113	0.297
-461.084	-200.000	0.026	0.144
-460.070	-10.527	-0.243	0.163
-459.055	-166.987	-0.222	-0.009
-458.040	-83.018	-0.080	0.026
-457.026	-85.900	0.335	-0.105
-456.011	363.611	0.122	-0.248
-454.997	-200.000	0.012	-0.300
-453.982	800.000	-0.032	-0.112
-452.968	-103.737	-0.176	-0.042
-451.953	-167.345	-0.311	-0.013
-450.938	-116.057	-0.166	0.031
-449.924	-42.493	0.308	0.158
-448.909	-79.727	-0.213	-0.072
-447.895	-101.004	0.283	0.070
-446.880	-90.967	0.080	0.023
-445.865	234.417	0.068	-0.113
-444.851	-112.838	-0.382	0.076
-443.836	800.000	-0.053	-0.205
-442.822	-132.434	0.058	-0.008
-441.807	86.869	-0.105	-0.117
-440.792	30.878	-0.154	0.133
-439.778	267.969	0.064	0.113
-438.763	89.771	-0.037	0.041
-437.749	172.620	-0.086	-0.125
-436.734	559.751	0.063	0.153
-435.719	30.152	-0.168	0.145
-434.705	-49.139	0.368	-0.178
-433.690	16.851	0.094	-0.075
-432.676	181.901	0.191	0.283
-431.661	-200.000	-0.037	0.165
-430.646	19.918	-0.416	0.338
-429.632	-48.158	0.172	0.084
-428.617	800.000	-0.037	-0.139
-427.603	-200.000	-0.012	-0.430
-426.588	-169.698	-0.190	-0.007
-425.573	225.395	-0.138	-0.225
-424.559	134.512	-0.056	-0.074
-423.544	300.200	-0.210	0.390
-422.530	162.746	-0.094	0.133
-421.515	-200.000	0.028	-0.275
-420.500	173.998	0.258	0.376
-419.486	-87.726	0.303	-0.092
-418.471	-47.978	0.150	0.073
-417.457	-200.000	-0.022	0.258
-416.442	-200.000	-0.011	-0.069
-415.428	-114.822	0.133	0.026
-414.413	-43.856	-0.298	-0.151
-413.398	-45.749	-0.221	0.110
-412.384	800.000	0.049	0.150
-411.369	-94.885	0.143	0.039
-410.355	104.230	0.233	0.277
-409.340	542.154	0.083	0.199
-408.325	498.308	-0.080	0.186
-407.311	-148.943	0.058	0.005
-406.296	65.903	0.134	0.137
-405.282	-104.629	0.240	0.056
-404.267	-200.000	0.084	-0.437
-403.252	-200.000	-0.006	-0.167
-402.238	-200.000	-0.042	-0.256
-401.223	-79.618	-0.069	0.023
-400.209	-129.143	-0.144	0.020
-399.194	800.000	0.102	0.294
-398.179	-54.234	0.338	0.155
-397.165	-16.172	-0.243	-0.155
-396.150	182.241	-0.073	-0.109
-395.136	-200.000	-0.001	0.028
-394.121	-33.006	0.095	-0.053
-393.106	-106.325	0.019	-0.004
-392.092	-152.223	-0.473	0.034
-391.077	76.054	-0.113	-0.120
-390.063	-69.173	0.088	-0.034
-389.048	227.878	-0.035	0.057
-388.033	706.917	-0.205	0.545
-387.019	-200.000	0.009	0.299
-386.004	-114.898	-0.058	-0.011
-384.990	198.288	-0.165	-0.253
-383.975	-6.740	-0.277	-0.190
-382.960	495.463	0.189	-0.436
-381.946	-37.639	-0.161	-0.086
-380.931	-38.072	0.214	0.114
-379.917	-23.436	0.151	0.091
-378.902	46.324	-0.085	-0.079
-377.888	390.879	-0.150	-0.314
-376.873	7.914	-0.141	-0.106
-375.858	214.472	0.115	-0.184
-374.844	205.851	-0.020	0.032
-373.829	-200.000	0.045	-0.210
-372.815	-34.286	-0.271	0.149
-371.800	6.971	0.151	-0.113
-370.785	261.067	-0.129	-0.225
-369.771	-158.887	0.472	0.027
-368.756	-31.997	0.297	0.167
-367.742	-12.267	0.384	0.253
-366.727	800.000	0.051	0.153
-365.712	800.000	0.071	0.284
-364.698	37.428	0.165	-0.147
-363.683	-164.616	-0.328	-0.015
-362.669	-46.335	-0.243	0.120
-361.654	279.374	-0.133	0.239
-360.639	-76.327	-0.207	-0.073
-359.625	-106.341	0.237	0.053
-358.610	-2.358	0.319	-0.225
-357.596	201.510	-0.182	-0.281
-356.581	800.000	-0.043	-0.177
-355.566	-123.553	0.089	-0.014
-354.552	150.769	0.172	0.234
-353.537	-200.000	-0.020	0.187
-352.523	768.134	-0.020	-0.055
-351.508	800.000	0.072	-0.255
-350.493	800.000	-0.028	-0.102
-349.479	-200.000	-0.011	-0.118
-348.464	192.710	0.152	-0.230
-347.450	-87.339	-0.362	-0.110
-346.435	-66.990	-0.207	0.082
-345.420	-81.781	-0.143	0.047
-344.406	-37.325	-0.175	0.094
-343.391	800.000	-0.014	0.043
-342.377	455.259	-0.118	-0.262
-341.362	-57.731	0.453	0.199
-340.348	800.000	-0.122	0.379
-339.333	-138.838	-0.255	-0.028
-338.318	-200.000	0.035	0.312
-337.304	-128.377	-0.203	-0.029
-336.289	-111.251	0.301	-0.062
-335.275	-0.141	0.305	0.218
-334.260	-200.000	0.034	0.292
-333.245	496.624	-0.016	-0.038
-332.231	800.000	0.057	0.208
-331.216	38.050	-0.066	-0.059
-330.202	-55.016	-0.140	0.063
-329.187	189.767	-0.105	-0.158
-328.172	-97.404	0.095	-0.025
-327.158	425.232	-0.073	-0.157
-326.143	-200.000	-0.031	-0.533
-325.129	-100.221	-0.124	0.031
-324.114	-38.546	0.163	0.087
-323.099	-200.000	-0.030	-0.144
-322.085	-44.860	-0.329	0.165
-321.070	-18.206	0.424	-0.266
-320.056	800.000	-0.052	-0.146
-319.041	-114.063	-0.170	0.033
-318.026	-200.000	0.049	0.231
-317.012	228.708	-0.074	-0.121
-315.997	137.132	0.165	0.217
-314.983	-44.948	0.159	-0.080
-313.968	-200.000	0.015	-0.134
-312.953	800.000	-0.052	0.224
-311.939	800.000	0.057	0.242
-310.924	-0.827	0.193	0.137
-309.910	800.000	-0.026	0.077
-308.895	-200.000	0.003	-0.058
-307.880	-200.000	0.003	0.037
-306.866	-53.212	0.391	-0.180
-305.851	800.000	0.114	0.346
-304.837	120.124	-0.143	0.178
-303.822	90.077	0.156	-0.175
-302.807	-84.742	0.255	0.081
-301.793	-200.000	-0.050	0.281
-300.778	-131.819	0.224	-0.029
-299.764	82.284	0.144	0.157
-298.749	13.138	-0.078	0.061
-297.735	-23.157	0.324	-0.196
-296.720	-200.000	-0.028	0.179
-295.705	96.087	-0.047	0.054
-294.691	-40.046	0.123	-0.064
-293.676	-200.000	-0.041	0.242
-292.662	200.011	0.150	-0.231
-291.647	181.351	0.059	0.087
-290.632	33.197	-0.156	-0.136
-289.618	252.216	-0.042	-0.072
-288.603	711.854	-0.131	0.348
-287.589	-200.000	0.040	-0.528
-286.574	115.333	-0.209	-0.256
-285.559	-110.885	0.140	0.029
-284.545	53.169	0.066	0.063
-283.530	-40.537	-0.128	0.067
-282.516	143.704	-0.140	-0.186
-281.501	331.816	-0.178	-0.345
-280.486	-200.000	0.050	-0.279
-279.472	-33.077	0.089	-0.049
-278.457	-153.195	0.205	-0.014
-277.443	104.407	-0.107	-0.126
-276.428	800.000	-0.016	-0.065
-275.413	-200.000	0.027	-0.167
-274.399	324.255	0.172	0.330
-273.384	800.000	-0.082	-0.230
-272.370	216.992	0.143	-0.227
-271.355	144.714	-0.128	-0.171
-270.340	-200.000	0.056	-0.273
-269.326	81.011	-0.105	-0.113
-268.311	680.997	-0.045	-0.118
-267.297	800.000	0.035	0.121
-266.282	800.000	-0.111	0.364
-265.267	-200.000	-0.017	0.215
-264.253	-138.183	-0.265	0.029
-263.238	-66.986	0.239	-0.095
-262.224	800.000	-0.116	0.330
-261.209	203.822	-0.100	-0.155
-260.195	557.237	-0.025	0.060
-259.180	800.000	-0.093	0.380
-258.165	-83.290	0.127	-0.041
-257.151	660.767	-0.057	0.148
-256.136	-83.370	-0.291	-0.093
-255.122	-59.804	-0.254	0.109
-254.107	27.302	-0.364	-0.306
-253.092	195.685	-0.098	0.149
-252.078	230.058	0.139	0.227
-251.063	31.315	0.202	0.174
-250.049	-200.000	0.021	-0.275
-249.034	-200.000	0.012	-0.125
-248.019	70.218	-0.114	0.118
-247.005	25.054	-0.117	-0.097
-245.990	-120.569	0.286	-0.048
-244.976	-79.454	0.110	0.037
-243.961	-101.497	-0.275	-0.067
-242.946	96.423	0.111	-0.127
-241.932	800.000	-0.129	0.404
-240.917	-128.536	-0.595	-0.084
-239.903	-200.000	0.007	0.058
-238.888	482.094	0.092	-0.208
-237.873	-19.881	0.135	0.084
-236.859	142.336	-0.184	-0.245
-235.844	-200.000	0.051	0.239
-234.830	-200.000	0.007	0.038
-233.815	-87.190	0.173	-0.053
-232.800	-200.000	-0.339	0.000
-231.786	-200.000	-0.002	0.010
-230.771	-129.123	0.225	-0.031
-229.757	-155.162	0.196	0.013
-228.742	-80.847	0.254	-0.084
-227.727	800.000	-0.071	-0.220
-226.713	-40.315	0.343	0.178
-225.698	14.590	0.237	-0.185
-224.684	222.472	0.154	-0.249
-223.669	-200.000	-0.043	-0.226
-222.655	-200.000	0.051	0.313
-221.640	261.181	-0.071	-0.123
-220.625	-23.731	-0.191	0.114
-219.611	-60.639	0.121	0.051
-218.596	-54.068	-0.506	-0.230
-217.582	256.536	0.105	-0.180
-216.567	-47.076	0.120	0.058
-215.552	-92.148	0.130	-0.037
-214.538	-27.904	0.115	0.066
-213.523	-36.520	0.136	-0.073
-212.509	-200.000	-0.011	-0.119
-211.494	3.644	-0.056	-0.041
-210.479	786.738	-0.090	-0.247
-209.465	-200.000	-0.002	0.061
-208.450	800.000	-0.074	-0.278
-207.436	-200.000	-0.010	0.063
-206.421	-200.000	-0.007	-0.041
-205.406	-18.022	-0.184	-0.115
-204.392	-0.010	0.124	0.088
-203.377	-90.121	0.067	0.019
-202.363	58.049	0.191	0.187
-201.348	-23.892	-0.280	-0.167
-200.333	-200.000	-0.015	0.236
-199.319	-1.856	0.334	0.235
-198.304	-45.786	0.187	-0.092
-197.290	-25.966	-0.019	0.011
-196.275	86.489	0.136	-0.149
-195.260	33.873	-0.292	-0.254
-194.246	-33.333	-0.351	0.194
-193.231	-13.376	-0.270	-0.175
-192.217	-200.000	0.042	-0.356
-191.202	108.381	-0.168	0.201
-190.187	-200.000	0.000	0.106
-189.173	74.470	-0.171	-0.180
-188.158	34.548	0.185	0.162
-187.144	581.598	0.062	-0.151
-186.129	-25.487	0.262	0.154
-185.114	333.957	-0.102	-0.197
-184.100	-118.481	0.113	-0.020
-183.085	-107.220	-0.367	0.081
-182.071	-74.095	-0.099	0.036
-181.056	-109.210	0.197	0.042
-180.042	-118.587	0.257	0.045
-179.027	-200.000	-0.052	0.379
-178.012	31.860	0.240	0.206
-176.998	800.000	0.022	-0.075
-175.983	63.484	-0.221	-0.221
-174.969	800.000	-0.065	-0.206
-173.954	-200.000	-0.004	-0.100
-172.939	278.641	0.051	-0.091
-171.925	-200.000	0.024	-0.248
-170.910	771.343	-0.087	0.238
-169.896	231.759	0.104	0.170
-168.881	-72.006	0.181	-0.067
-167.866	138.630	-0.248	0.325
-166.852	-200.000	0.012	0.277
-165.837	79.133	-0.263	-0.282
-164.823	-16.583	0.180	-0.114
-163.808	291.618	0.061	0.111
-162.793	52.366	-0.193	-0.183
-161.779	-47.685	0.419	0.203
-160.764	23.032	0.239	-0.195
-159.750	-101.270	-0.194	-0.047
-158.735	514.866	-0.126	-0.293
-157.720	324.191	-0.249	-0.475
-156.706	-132.267	0.158	0.020
-155.691	-80.953	0.191	0.063
-154.677	150.184	0.133	0.180
-153.662	-65.930	0.278	0.111
-152.647	-71.272	0.162	0.061
-151.633	59.049	0.246	-0.241
-150.618	-157.369	0.451	-0.027
-149.604	-156.666	-0.371	-0.023
-148.589	800.000	-0.136	0.412
-147.574	-53.312	-0.153	0.070
-146.560	80.564	0.260	-0.279
-145.545	4.793	-0.194	0.142
-144.531	60.379	0.097	0.095
-143.516	-179.612	-0.056	-0.001
-142.502	-200.000	-0.040	0.293
-141.487	-65.641	0.242	0.097
-140.472	-4.252	0.142	0.098
-139.458	-76.201	0.006	0.002
-138.443	-81.130	0.097	-0.032
-137.429	-30.363	0.327	-0.185
-136.414	-200.000	0.070	0.355
-135.399	241.877	-0.163	-0.271
-134.385	-100.705	-0.056	0.014
-133.370	77.673	0.084	0.089
-132.356	-200.000	0.003	-0.151
-131.341	485.779	-0.190	-0.432
-130.326	-149.400	-0.244	0.019
-129.312	-200.000	-0.015	-0.092
-128.297	-33.186	0.250	-0.138
-127.283	-138.182	-0.211	0.023
-126.268	800.000	-0.069	-0.228
-125.253	-111.477	0.280	-0.057
-124.239	800.000	-0.043	-0.131
-123.224	-100.113	0.130	0.032
-122.210	800.000	-0.058	0.210
